DTS Sentinel unit serial number:	SN410029Multiplexer serial number:	ORYXHardware model number:	OX2-SRSoftware version number:	ORYX F/W v4,00 Oryx Data Collector v3.7.2.0data status	okinstallation	B3 Nyhavnadifferential loss correction	single-endedforward channel	channel 1reverse channel	N/Adate	2023/11/28time	10:17:30forward acquisition time	300,00reverse acquisition time	0,00gamma	499,1914k internal	0,3131k external	0,3131temperature offset calibration	1,0000default loss term (dB/km)	0,3820temperature slope calibration	1,0000multiplexer offset coefficient	1,0000multiplexer slope coefficient	1,0000fibre end	0,00T internal ref (°C)	10,26T ext. ref 1 (°C)	-6,85T ext. ref 2 (°C)	-7,09length (m)	temperature (°C)	Stokes	anti-Stokes-744,400	229,321	-0,070	-0,085
-743,385	-200,000	-0,005	0,233
-742,371	-3,237	-0,112	-0,058
-741,356	-200,000	-0,055	0,203
-740,342	107,924	-0,231	-0,205
-739,327	800,000	-0,100	0,210
-738,312	260,268	-0,119	-0,153
-737,298	-200,000	-0,003	0,137
-736,283	800,000	-0,155	-0,368
-735,269	-200,000	-0,031	0,168
-734,254	186,608	-0,144	-0,160
-733,239	-98,690	-0,294	0,055
-732,225	-200,000	0,015	-0,100
-731,210	76,578	0,133	0,105
-730,196	-89,959	-0,198	0,043
-729,181	-164,215	-0,115	0,004
-728,167	-11,662	-0,129	-0,063
-727,152	-147,316	-0,107	-0,007
-726,137	79,894	-0,048	0,038
-725,123	186,673	-0,112	-0,124
-724,108	-146,832	-0,175	-0,011
-723,094	513,473	0,032	-0,056
-722,079	177,639	-0,043	0,046
-721,064	14,200	-0,059	0,034
-720,050	654,201	0,041	0,078
-719,035	425,144	-0,061	0,098
-718,021	-31,548	-0,256	-0,106
-717,006	119,392	0,038	0,035
-715,991	337,706	-0,053	-0,076
-714,977	-57,664	-0,043	-0,014
-713,962	25,800	-0,127	0,078
-712,948	302,461	-0,046	-0,063
-711,933	-28,252	-0,101	0,043
-710,918	-116,161	-0,023	0,003
-709,904	-200,000	-0,005	-0,031
-708,889	-200,000	0,014	0,070
-707,875	-200,000	-0,183	-0,000
-706,860	800,000	0,020	0,063
-705,845	800,000	-0,053	0,110
-704,831	-53,671	0,058	-0,020
-703,816	-200,000	0,002	-0,014
-702,802	-200,000	0,006	0,044
-701,787	-200,000	-0,006	-0,106
-700,772	204,612	-0,091	-0,105
-699,758	-75,651	-0,104	-0,027
-698,743	95,127	-0,073	0,061
-697,729	107,413	-0,050	-0,044
-696,714	371,814	0,043	-0,065
-695,699	800,000	0,060	-0,143
-694,685	-200,000	-0,039	-0,288
-693,670	800,000	0,058	-0,120
-692,656	800,000	0,027	0,073
-691,641	800,000	-0,020	0,043
-690,627	-169,536	0,178	0,005
-689,612	800,000	0,036	-0,114
-688,597	-157,888	-0,124	0,005
-687,583	11,602	-0,093	0,053
-686,568	175,004	-0,144	-0,155
-685,554	662,752	-0,021	-0,041
-684,539	-57,320	-0,114	0,037
-683,524	-42,736	0,024	0,009
-682,510	800,000	-0,031	-0,080
-681,495	-50,894	-0,074	-0,026
-680,481	37,000	-0,046	-0,030
-679,466	503,969	-0,076	-0,131
-678,451	58,777	0,071	-0,052
-677,437	-53,587	0,037	0,012
-676,422	33,271	0,082	0,053
-675,408	-80,584	-0,032	-0,008
-674,393	-200,000	0,017	-0,069
-673,378	-37,133	-0,074	-0,029
-672,364	25,113	-0,042	0,026
-671,349	-200,000	-0,041	-0,216
-670,335	800,000	0,030	-0,077
-669,320	-93,451	-0,107	0,022
-668,305	-42,416	-0,035	0,013
-667,291	23,460	-0,110	0,067
-666,276	800,000	-0,028	-0,075
-665,262	-151,995	-0,242	-0,013
-664,247	-148,556	0,167	-0,010
-663,232	121,749	0,120	0,111
-662,218	-26,884	-0,090	0,039
-661,203	336,117	-0,025	0,037
-660,189	13,696	-0,002	0,001
-659,174	97,918	0,051	-0,044
-658,159	-89,350	-0,123	-0,027
-657,145	-87,866	0,073	-0,016
-656,130	344,911	-0,099	-0,144
-655,116	-103,501	-0,108	-0,019
-654,101	-105,885	0,084	-0,014
-653,086	-192,260	-0,127	0,001
-652,072	800,000	-0,033	-0,095
-651,057	800,000	-0,040	-0,085
-650,043	83,268	-0,050	0,040
-649,028	800,000	-0,043	0,134
-648,014	18,007	-0,056	0,033
-646,999	-200,000	-0,007	-0,171
-645,984	-148,973	-0,117	0,007
-644,970	-200,000	-0,023	-0,080
-643,955	73,691	-0,149	0,115
-642,941	-200,000	0,004	-0,073
-641,926	547,325	0,038	-0,068
-640,911	-101,622	0,056	-0,010
-639,897	136,527	-0,044	-0,043
-638,882	-200,000	-0,007	0,164
-637,868	68,168	-0,035	0,026
-636,853	-76,199	-0,141	-0,037
-635,838	-58,742	-0,086	-0,027
-634,824	-200,000	0,015	-0,167
-633,809	-40,342	-0,093	-0,036
-632,795	-8,891	0,125	-0,062
-631,780	-200,000	0,002	0,062
-630,765	341,891	0,056	0,082
-629,751	22,777	0,050	0,030
-628,736	-77,685	-0,111	-0,028
-627,722	-25,481	-0,075	0,033
-626,707	28,594	0,098	-0,061
-625,692	206,011	0,023	0,027
-624,678	382,597	-0,043	0,065
-623,663	-4,038	-0,071	-0,036
-622,649	-71,792	-0,119	-0,033
-621,634	-200,000	-0,020	-0,178
-620,619	-200,000	0,011	-0,134
-619,605	-80,062	-0,068	0,017
-618,590	800,000	-0,079	0,188
-617,576	146,580	0,083	0,083
-616,561	-181,955	-0,047	0,001
-615,546	141,166	0,018	-0,018
-614,532	-200,000	0,004	-0,027
-613,517	130,931	-0,055	-0,052
-612,503	-200,000	-0,033	-0,176
-611,488	595,447	0,051	-0,094
-610,474	800,000	0,043	-0,129
-609,459	-36,944	-0,107	0,042
-608,444	464,134	-0,090	-0,150
-607,430	205,550	-0,079	-0,091
-606,415	193,973	-0,137	0,154
-605,401	535,042	-0,024	0,042
-604,386	289,531	0,039	-0,052
-603,371	-141,727	0,063	0,005
-602,357	242,680	-0,041	0,051
-601,342	-200,000	0,007	0,069
-600,328	291,304	-0,005	0,006
-599,313	-139,798	-0,061	-0,005
-598,298	147,152	0,028	-0,028
-597,284	-134,462	0,064	0,006
-596,269	800,000	0,026	0,081
-595,255	-200,000	0,006	0,101
-594,240	-146,759	-0,119	0,007
-593,225	-200,000	0,005	-0,058
-592,211	449,469	-0,055	-0,090
-591,196	-60,308	0,089	-0,028
-590,182	-20,029	0,041	0,019
-589,167	-115,570	0,150	-0,021
-588,152	257,899	0,038	0,049
-587,138	235,144	0,050	-0,061
-586,123	-200,000	-0,000	0,047
-585,109	-200,000	-0,003	0,014
-584,094	-122,677	0,122	-0,014
-583,079	56,807	0,039	-0,028
-582,065	159,822	-0,055	0,057
-581,050	729,772	0,027	0,053
-580,036	63,188	0,073	-0,054
-579,021	-200,000	0,005	-0,173
-578,006	593,942	0,072	-0,133
-576,992	174,378	0,098	-0,104
-575,977	19,446	0,049	0,029
-574,963	96,292	0,033	0,028
-573,948	431,165	0,009	-0,014
-572,934	413,606	0,044	-0,070
-571,919	-200,000	0,003	-0,056
-570,904	-200,000	0,023	-0,134
-569,890	426,449	0,023	-0,037
-568,875	-93,372	0,117	-0,024
-567,861	81,783	-0,036	0,029
-566,846	-168,725	-0,042	0,001
-565,831	43,997	0,035	0,024
-564,817	143,474	-0,071	-0,069
-563,802	400,138	-0,028	-0,044
-562,788	-200,000	0,003	-0,016
-561,773	516,244	-0,011	-0,019
-560,758	-200,000	-0,010	-0,040
-559,744	-137,173	0,092	0,008
-558,729	94,391	0,036	0,030
-557,715	219,764	-0,125	0,148
-556,700	-200,000	0,035	0,146
-555,685	-82,516	-0,119	-0,028
-554,671	160,567	0,033	-0,034
-553,656	385,482	0,065	0,099
-552,642	543,684	0,041	0,073
-551,627	-43,068	0,046	-0,017
-550,612	-148,388	-0,057	-0,003
-549,598	-200,000	-0,014	-0,088
-548,583	21,902	0,074	-0,045
-547,569	72,166	0,050	-0,038
-546,554	12,764	0,082	0,046
-545,539	139,641	0,086	0,083
-544,525	-159,606	0,031	-0,001
-543,510	-101,678	-0,140	-0,025
-542,496	-200,000	-0,006	-0,093
-541,481	149,289	0,024	0,024
-540,466	494,300	0,027	0,045
-539,452	-200,000	-0,010	0,097
-538,437	-200,000	0,000	0,058
-537,423	-63,938	-0,125	0,038
-536,408	-122,976	-0,110	-0,013
-535,393	510,387	0,029	0,050
-534,379	-200,000	-0,017	0,071
-533,364	-200,000	0,003	0,144
-532,350	800,000	0,034	0,099
-531,335	-200,000	-0,014	-0,049
-530,321	9,455	-0,121	0,067
-529,306	252,251	0,175	0,220
-528,291	-36,677	-0,120	0,047
-527,277	-200,000	0,096	0,000
-526,262	-200,000	0,012	0,062
-525,248	-184,538	-0,139	0,002
-524,233	-200,000	0,032	0,186
-523,218	-153,267	-0,137	-0,007
-522,204	280,256	-0,043	0,056
-521,189	245,450	-0,022	0,027
-520,175	-59,175	0,047	-0,015
-519,160	-200,000	-0,010	-0,042
-518,145	-200,000	-0,003	-0,015
-517,131	429,443	-0,041	0,065
-516,116	-87,116	0,034	-0,007
-515,102	-200,000	-0,029	-0,098
-514,087	181,514	-0,027	-0,029
-513,072	146,592	-0,065	-0,064
-512,058	105,079	-0,071	-0,061
-511,043	-25,732	-0,196	-0,085
-510,029	153,555	0,030	0,030
-509,014	163,452	0,108	0,112
-507,999	750,100	0,043	0,086
-506,985	663,570	-0,050	-0,096
-505,970	-200,000	0,056	0,183
-504,956	800,000	-0,064	-0,196
-503,941	420,585	0,060	0,095
-502,926	-200,000	-0,007	0,027
-501,912	739,210	-0,027	0,053
-500,897	-200,000	0,019	0,079
-499,883	-200,000	0,017	-0,115
-498,868	197,359	-0,033	-0,037
-497,853	283,833	-0,106	-0,141
-496,839	-64,391	0,037	0,011
-495,824	-169,660	0,146	-0,004
-494,810	47,837	-0,017	-0,012
-493,795	154,181	-0,076	0,077
-492,781	-16,542	0,052	-0,024
-491,766	57,732	0,084	-0,060
-490,751	91,122	-0,061	-0,050
-489,737	633,304	0,028	-0,052
-488,722	10,112	0,057	0,032
-487,708	-3,417	0,068	0,035
-486,693	-112,179	0,021	-0,003
-485,678	374,055	-0,011	-0,016
-484,664	239,822	0,065	-0,080
-483,649	-131,936	-0,102	-0,010
-482,635	500,270	0,027	-0,046
-481,620	-5,703	0,166	-0,083
-480,605	-110,624	0,099	-0,015
-479,591	800,000	-0,023	0,066
-478,576	281,166	0,030	0,039
-477,562	-200,000	-0,021	0,088
-476,547	558,329	-0,034	-0,061
-475,532	800,000	-0,065	-0,137
-474,518	-136,953	0,068	-0,006
-473,503	107,084	0,084	-0,074
-472,489	36,605	-0,097	0,063
-471,474	-200,000	0,026	0,202
-470,459	-200,000	-0,006	-0,056
-469,445	800,000	-0,042	-0,087
-468,430	92,946	-0,097	-0,080
-467,416	-200,000	-0,004	0,063
-466,401	-39,448	-0,110	0,042
-465,386	-149,939	0,087	-0,005
-464,372	669,008	0,099	0,190
-463,357	-200,000	-0,002	-0,082
-462,343	156,175	-0,066	0,067
-461,328	36,140	0,041	0,026
-460,313	93,520	-0,068	0,057
-459,299	-93,641	0,093	0,019
-458,284	157,322	-0,055	0,056
-457,270	225,708	0,037	0,044
-456,255	-56,058	-0,116	-0,038
-455,241	-96,110	-0,118	-0,023
-454,226	-53,777	-0,070	0,023
-453,211	-90,338	0,090	-0,019
-452,197	-62,933	0,090	0,027
-451,182	99,107	0,087	0,074
-450,168	-118,717	0,070	0,009
-449,153	44,273	-0,210	-0,141
-448,138	125,907	-0,063	0,059
-447,124	800,000	0,056	-0,137
-446,109	628,867	0,065	-0,122
-445,095	-104,077	0,100	-0,017
-444,080	-139,395	0,065	0,005
-443,065	250,236	0,136	0,170
-442,051	59,763	-0,065	0,047
-441,036	-95,598	-0,092	-0,018
-440,022	-200,000	0,004	0,017
-439,007	-200,000	0,014	-0,058
-437,992	55,390	0,146	0,103
-436,978	-104,339	-0,027	0,004
-435,963	-43,056	-0,088	-0,033
-434,949	74,504	0,042	0,033
-433,934	148,074	-0,098	0,098
-432,919	-200,000	0,001	-0,015
-431,905	755,300	-0,093	-0,186
-430,890	82,622	0,076	-0,061
-429,876	559,743	0,063	0,112
-428,861	419,346	0,062	0,098
-427,846	31,225	0,068	-0,043
-426,832	-81,774	0,088	0,021
-425,817	707,334	0,045	-0,088
-424,803	-200,000	-0,018	-0,106
-423,788	-116,579	-0,129	0,017
-422,773	26,667	0,044	-0,027
-421,759	-200,000	0,014	0,079
-420,744	56,918	-0,041	-0,030
-419,730	342,712	-0,036	0,052
-418,715	-4,888	-0,107	0,054
-417,701	-200,000	0,034	-0,119
-416,686	-200,000	-0,012	0,158
-415,671	-200,000	-0,054	0,196
-414,657	800,000	-0,017	0,051
-413,642	-46,926	-0,064	0,023
-412,628	148,381	-0,034	-0,034
-411,613	-200,000	0,005	0,067
-410,598	185,562	0,093	0,102
-409,584	-200,000	0,023	-0,163
-408,569	57,229	-0,087	0,062
-407,555	-200,000	0,022	0,138
-406,540	800,000	-0,076	0,206
-405,525	767,797	0,030	-0,061
-404,511	-200,000	-0,013	-0,136
-403,496	-19,562	0,023	0,010
-402,482	-28,498	0,154	0,065
-401,467	262,101	-0,028	0,035
-400,452	158,386	0,039	0,040
-399,438	800,000	-0,013	-0,028
-398,423	-58,076	0,058	-0,019
-397,409	250,860	-0,059	0,073
-396,394	584,896	-0,080	0,144
-395,379	800,000	0,023	-0,065
-394,365	-200,000	0,000	0,009
-393,350	-22,237	0,088	0,039
-392,336	254,368	0,074	-0,093
-391,321	104,535	-0,118	-0,102
-390,306	121,775	-0,092	-0,084
-389,292	800,000	0,014	-0,041
-388,277	-156,144	0,025	-0,001
-387,263	-200,000	0,002	-0,042
-386,248	-104,197	0,081	0,014
-385,233	-200,000	0,011	0,062
-384,219	555,578	-0,062	-0,110
-383,204	101,712	0,105	0,090
-382,190	-88,607	-0,093	-0,020
-381,175	-88,218	0,083	-0,018
-380,160	-200,000	-0,037	-0,137
-379,146	120,259	0,127	-0,116
-378,131	800,000	0,021	0,056
-377,117	5,986	-0,173	-0,094
-376,102	-102,491	-0,108	0,019
-375,088	432,206	-0,040	-0,063
-374,073	731,679	-0,029	0,058
-373,058	203,385	0,072	0,082
-372,044	7,780	0,050	-0,027
-371,029	223,046	0,103	0,122
-370,015	144,600	0,095	0,093
-369,000	-200,000	0,027	-0,102
-367,985	-174,150	-0,034	0,001
-366,971	-37,420	0,067	-0,026
-365,956	-90,448	-0,053	-0,011
-364,942	52,416	0,113	0,079
-363,927	137,328	0,136	0,131
-362,912	-28,744	0,069	-0,029
-361,898	800,000	0,016	0,038
-360,883	-200,000	0,000	-0,132
-359,869	119,464	0,084	-0,076
-358,854	-200,000	0,018	-0,129
-357,839	-200,000	-0,010	-0,080
-356,825	162,162	0,079	0,081
-355,810	125,532	-0,023	0,022
-354,796	222,231	-0,084	-0,099
-353,781	-109,199	-0,033	0,005
-352,766	100,614	-0,076	-0,064
-351,752	-98,487	-0,042	-0,008
-350,737	-161,683	0,112	-0,004
-349,723	800,000	0,014	0,031
-348,708	85,797	0,139	0,112
-347,693	539,315	0,074	-0,130
-346,679	241,772	-0,086	-0,106
-345,664	239,274	-0,041	-0,050
-344,650	47,354	-0,121	-0,082
-343,635	-1,866	0,010	0,005
-342,620	-160,224	0,147	-0,006
-341,606	625,167	0,017	0,032
-340,591	-142,867	-0,214	0,015
-339,577	-80,492	-0,094	0,023
-338,562	199,962	-0,125	-0,140
-337,548	320,982	0,035	-0,049
-336,533	140,765	-0,026	-0,025
-335,518	215,996	-0,050	0,059
-334,504	-200,000	0,004	0,027
-333,489	169,125	0,031	0,032
-332,475	-200,000	-0,005	-0,049
-331,460	-200,000	0,025	-0,149
-330,445	217,476	-0,097	-0,113
-329,431	-93,176	0,135	0,027
-328,416	195,703	0,115	0,128
-327,402	-200,000	-0,018	0,068
-326,387	56,018	0,068	-0,048
-325,372	579,898	-0,030	-0,055
-324,358	96,582	-0,034	-0,029
-323,343	800,000	0,040	-0,084
-322,329	800,000	0,053	-0,109
-321,314	287,300	0,095	0,125
-320,299	75,389	0,073	0,056
-319,285	120,258	-0,102	0,093
-318,270	800,000	-0,042	-0,123
-317,256	-2,987	-0,084	-0,043
-316,241	55,490	-0,025	-0,017
-315,226	800,000	-0,011	0,033
-314,212	800,000	-0,022	-0,054
-313,197	13,383	-0,113	-0,064
-312,183	-92,135	0,149	-0,030
-311,168	149,316	-0,096	-0,095
-310,153	-2,326	0,058	0,030
-309,139	647,630	0,021	-0,040
-308,124	7,621	-0,051	0,028
-307,110	-200,000	0,025	-0,084
-306,095	161,231	-0,092	-0,094
-305,080	81,729	0,097	-0,077
-304,066	-200,000	0,008	0,042
-303,051	-115,000	0,044	-0,006
-302,037	-129,216	-0,137	0,014
-301,022	49,881	0,085	0,058
-300,008	102,510	0,012	0,010
-298,993	-200,000	0,063	0,230
-297,978	-200,000	-0,019	0,190
-296,964	200,263	-0,027	0,030
-295,949	-200,000	0,015	-0,074
-294,935	725,177	0,006	-0,012
-293,920	18,625	-0,117	0,068
-292,905	223,768	-0,063	0,074
-291,891	-200,000	0,000	0,190
-290,876	-166,323	0,044	-0,001
-289,862	4,134	0,062	0,033
-288,847	528,362	0,038	-0,065
-287,832	-141,274	-0,013	-0,001
-286,818	-23,560	-0,058	-0,025
-285,803	5,254	0,144	0,077
-284,789	800,000	-0,067	0,159
-283,774	-200,000	-0,002	0,210
-282,759	-200,000	-0,005	-0,110
-281,745	-105,813	-0,057	-0,009
-280,730	-200,000	-0,023	-0,152
-279,716	-200,000	0,013	-0,052
-278,701	520,432	-0,051	0,088
-277,686	671,534	0,112	0,213
-276,672	717,170	0,080	0,156
-275,657	-36,771	0,110	-0,043
-274,643	-7,483	-0,044	-0,022
-273,628	-3,952	-0,133	-0,067
-272,613	-200,000	-0,010	-0,163
-271,599	-49,842	-0,087	0,030
-270,584	754,105	0,026	0,051
-269,570	800,000	-0,037	0,100
-268,555	78,403	0,078	0,061
-267,540	-122,283	0,116	0,014
-266,526	520,458	-0,027	0,046
-265,511	-200,000	-0,006	0,159
-264,497	-5,254	-0,114	-0,057
-263,482	-200,000	0,014	0,067
-262,467	-83,542	0,166	-0,038
-261,453	229,741	-0,107	0,127
-260,438	-85,154	0,095	0,022
-259,424	497,201	0,055	-0,093
-258,409	542,494	-0,063	-0,109
-257,395	80,281	0,058	-0,046
-256,380	-121,207	0,049	-0,006
-255,365	-100,574	0,037	-0,007
-254,351	40,306	-0,044	0,029
-253,336	799,061	0,083	-0,167
-252,322	-124,042	0,079	0,009
-251,307	-62,329	-0,179	-0,054
-250,292	222,053	-0,045	-0,052
-249,278	72,073	0,086	0,065
-248,263	-30,014	0,024	-0,010
-247,249	-200,000	-0,007	0,056
-246,234	-200,000	0,002	0,074
-245,219	-200,000	-0,019	-0,070
-244,205	-200,000	0,038	0,180
-243,190	-200,000	0,008	0,134
-242,176	-200,000	0,000	-0,070
-241,161	-200,000	0,030	-0,099
-240,146	-27,478	-0,089	-0,038
-239,132	800,000	0,032	0,067
-238,117	-77,628	-0,125	-0,031
-237,103	319,589	0,014	-0,019
-236,088	-13,649	0,105	-0,049
-235,073	-112,941	0,117	-0,017
-234,059	800,000	0,029	0,084
-233,044	-200,000	0,008	0,033
-232,030	-161,346	0,142	0,005
-231,015	189,607	-0,028	0,030
-230,000	800,000	0,019	-0,057
-228,986	232,871	-0,100	-0,120
-227,971	-11,852	-0,082	-0,039
-226,957	178,397	0,098	0,104
-225,942	-35,795	-0,103	0,040
-224,927	749,710	0,040	0,079
-223,913	196,569	-0,084	-0,093
-222,898	100,057	-0,091	-0,077
-221,884	-177,126	0,083	0,001
-220,869	53,323	0,035	0,024
-219,855	-85,244	0,109	0,025
-218,840	-2,081	-0,007	0,003
-217,825	-58,504	-0,017	-0,005
-216,811	76,366	-0,025	-0,020
-215,796	800,000	-0,062	-0,141
-214,782	-105,687	0,105	-0,017
-213,767	-120,363	-0,175	0,021
-212,752	-200,000	0,024	0,095
-211,738	-144,802	0,067	0,004
-210,723	-200,000	0,011	0,112
-209,709	-110,114	-0,153	-0,023
-208,694	74,053	-0,030	-0,023
-207,679	333,373	0,036	-0,051
-206,665	800,000	0,021	0,044
-205,650	-61,606	0,111	-0,034
-204,636	-19,219	0,155	-0,070
-203,621	10,922	-0,083	0,046
-202,606	-0,371	-0,088	-0,045
-201,592	-200,000	0,001	-0,011
-200,577	61,773	-0,141	0,102
-199,563	-72,975	0,003	-0,001
-198,548	-166,770	0,114	0,003
-197,533	74,904	0,061	0,047
-196,519	-37,430	-0,056	-0,021
-195,504	-8,611	-0,067	-0,033
-194,490	682,783	-0,057	-0,108
-193,475	1,552	-0,128	0,067
-192,460	-200,000	0,009	-0,069
-191,446	800,000	0,033	-0,078
-190,431	800,000	0,015	-0,040
-189,417	10,154	0,044	0,024
-188,402	-41,686	-0,095	-0,035
-187,387	291,910	0,030	-0,040
-186,373	12,971	-0,072	0,040
-185,358	419,040	0,133	0,208
-184,344	-200,000	-0,005	-0,077
-183,329	-200,000	-0,006	0,033
-182,315	-200,000	-0,002	-0,117
-181,300	-27,904	-0,048	-0,020
-180,285	-82,275	-0,107	0,025
-179,271	-56,456	-0,037	-0,012
-178,256	-200,000	0,037	-0,128
-177,242	-72,645	0,077	0,021
-176,227	800,000	0,025	0,052
-175,212	29,479	0,044	0,027
-174,198	-200,000	0,008	-0,029
-173,183	800,000	-0,067	-0,145
-172,169	44,786	-0,016	0,011
-171,154	339,488	-0,027	-0,038
-170,139	54,266	0,059	-0,041
-169,125	626,886	-0,095	0,175
-168,110	-200,000	0,015	0,134
-167,096	-26,925	-0,121	-0,051
-166,081	619,183	0,012	0,022
-165,066	-200,000	0,024	-0,077
-164,052	66,236	-0,022	0,016
-163,037	-200,000	-0,044	-0,146
-162,023	-200,000	-0,004	0,058
-161,008	-57,192	-0,064	0,020
-159,993	-97,397	0,105	0,020
-158,979	-7,072	-0,028	-0,014
-157,964	-73,624	0,119	-0,031
-156,950	800,000	-0,042	-0,113
-155,935	-149,278	0,210	-0,012
-154,920	-62,537	-0,103	0,031
-153,906	293,623	0,093	0,124
-152,891	70,513	-0,077	0,058
-151,877	49,179	-0,080	0,055
-150,862	800,000	0,051	0,121
-149,847	800,000	0,057	-0,136
-148,833	751,406	0,055	0,109
-147,818	-105,344	0,069	0,011
-146,804	-141,253	-0,087	0,006
-145,789	-200,000	0,014	-0,091
-144,775	316,942	0,034	0,047
-143,760	-135,321	-0,094	-0,008
-142,745	448,198	-0,040	-0,065
-141,731	47,331	0,027	-0,018
-140,716	-200,000	-0,028	0,104
-139,702	730,908	0,083	0,162
-138,687	-200,000	0,009	0,056
-137,672	7,388	0,053	0,028
-136,658	-127,043	-0,110	0,012
-135,643	-22,458	0,172	-0,075
-134,629	-200,000	-0,030	-0,199
-133,614	-137,245	0,061	0,005
-132,599	24,255	0,057	0,034
-131,585	52,113	0,140	0,097
-130,570	-200,000	0,013	0,216
-129,556	-200,000	0,035	-0,137
-128,541	-94,089	-0,140	0,028
-127,526	-14,179	0,080	-0,037
-126,512	452,802	0,061	-0,099
-125,497	-200,000	-0,031	0,144
-124,483	-200,000	-0,031	0,105
-123,468	441,733	0,034	-0,054
-122,453	210,612	0,051	-0,058
-121,439	472,080	0,043	0,070
-120,424	142,958	-0,073	0,070
-119,410	262,879	0,085	-0,107
