DTS Sentinel unit serial number:	SN410029Multiplexer serial number:	ORYXHardware model number:	OX2-SRSoftware version number:	ORYX F/W v4,00 Oryx Data Collector v3.7.2.0data status	okinstallation	BH3 CH2differential loss correction	single-endedforward channel	channel 2reverse channel	N/Adate	2023/12/05time	19:17:28forward acquisition time	300,00reverse acquisition time	0,00gamma	499,1914k internal	0,3193k external	0,3193temperature offset calibration	1,0000default loss term (dB/km)	0,3820temperature slope calibration	1,0000multiplexer offset coefficient	1,0000multiplexer slope coefficient	1,0000fibre end	0,00T internal ref (°C)	10,62T ext. ref 1 (°C)	-3,83T ext. ref 2 (°C)	-4,00length (m)	temperature (°C)	Stokes	anti-Stokes-744,400	800,000	-0,104	-0,259
-743,385	17,598	-0,225	0,130
-742,371	800,000	-0,056	-0,124
-741,356	31,337	-0,307	0,192
-740,342	-60,488	0,212	-0,065
-739,327	-49,769	-0,223	0,077
-738,312	-32,222	-0,068	-0,027
-737,298	247,802	-0,209	0,258
-736,283	-42,983	0,116	-0,043
-735,269	148,718	-0,166	0,163
-734,254	349,222	0,065	-0,093
-733,239	-13,336	-0,430	-0,203
-732,225	34,616	-0,054	-0,034
-731,210	800,000	-0,038	0,088
-730,196	100,819	-0,042	-0,036
-729,181	-200,000	0,001	-0,046
-728,167	-85,451	-0,053	-0,012
-727,152	-27,955	0,071	0,030
-726,137	-126,235	-0,083	0,009
-725,123	-32,938	-0,048	0,019
-724,108	792,786	0,044	-0,088
-723,094	-200,000	-0,024	-0,180
-722,079	294,688	0,031	-0,041
-721,064	-17,498	-0,131	0,060
-720,050	290,728	-0,048	-0,063
-719,035	800,000	0,074	-0,180
-718,021	-200,000	-0,000	-0,087
-717,006	-200,000	0,019	-0,104
-715,991	-200,000	0,029	-0,168
-714,977	795,399	-0,033	0,067
-713,962	-11,254	0,080	0,038
-712,948	-200,000	-0,001	-0,059
-711,933	499,684	-0,031	-0,052
-710,918	-87,171	0,081	0,018
-709,904	-200,000	0,009	-0,122
-708,889	-3,360	0,042	-0,021
-707,875	11,145	-0,067	0,037
-706,860	-18,637	0,093	0,042
-705,845	242,085	0,061	0,075
-704,831	245,400	0,036	-0,044
-703,816	-125,846	0,071	-0,008
-702,802	-200,000	-0,004	-0,041
-701,787	88,923	0,098	0,079
-700,772	303,566	0,045	0,061
-699,758	800,000	0,025	-0,073
-698,743	637,047	0,075	0,140
-697,729	8,935	0,106	0,058
-696,714	-200,000	-0,024	-0,102
-695,699	-200,000	0,005	0,083
-694,685	648,840	0,059	-0,111
-693,670	44,557	-0,095	0,064
-692,656	-94,976	-0,106	-0,021
-691,641	-68,651	-0,050	-0,014
-690,627	61,190	0,130	0,094
-689,612	422,817	0,013	0,021
-688,597	12,129	-0,026	-0,014
-687,583	48,404	-0,152	-0,103
-686,568	283,806	-0,101	-0,133
-685,554	38,507	-0,060	-0,039
-684,539	-172,929	0,220	0,005
-683,524	-48,083	-0,076	-0,027
-682,510	191,093	0,112	-0,123
-681,495	-79,790	-0,162	-0,039
-680,481	-200,000	-0,019	-0,092
-679,466	-133,900	-0,180	-0,016
-678,451	-200,000	-0,025	-0,098
-677,437	-11,976	0,014	-0,007
-676,422	-200,000	-0,012	0,106
-675,408	800,000	0,033	0,085
-674,393	132,857	-0,083	0,078
-673,378	269,127	0,052	0,067
-672,364	18,074	-0,050	-0,029
-671,349	800,000	-0,030	-0,097
-670,335	-200,000	-0,026	0,147
-669,320	36,230	0,146	0,093
-668,305	315,391	0,027	-0,037
-667,291	-83,628	-0,034	0,008
-666,276	-10,828	-0,106	-0,051
-665,262	-48,216	-0,086	0,030
-664,247	374,970	0,069	0,102
-663,232	304,552	0,043	-0,058
-662,218	-200,000	0,054	-0,177
-661,203	-13,861	0,082	0,038
-660,189	718,180	-0,029	-0,056
-659,174	800,000	-0,061	-0,146
-658,159	-103,080	0,079	0,013
-657,145	164,429	-0,043	-0,044
-656,130	119,068	0,084	0,075
-655,116	-126,015	-0,102	-0,011
-654,101	243,574	0,132	0,161
-653,086	427,321	-0,023	-0,036
-652,072	37,114	-0,180	-0,116
-651,057	-200,000	0,003	0,034
-650,043	-125,748	-0,100	0,011
-649,028	329,443	0,039	-0,055
-648,014	41,264	0,025	-0,016
-646,999	-149,731	0,138	-0,008
-645,984	800,000	-0,050	0,114
-644,970	-34,745	0,032	-0,013
-643,955	-200,000	-0,006	-0,041
-642,941	-117,275	-0,024	-0,003
-641,926	-200,000	0,038	-0,132
-640,911	-56,592	-0,051	0,016
-639,897	800,000	0,018	0,058
-638,882	-25,889	-0,127	0,054
-637,868	-86,526	-0,037	0,008
-636,853	-200,000	-0,023	-0,101
-635,838	3,303	-0,064	0,034
-634,824	-139,177	-0,099	-0,008
-633,809	697,775	0,051	-0,099
-632,795	684,151	-0,026	-0,050
-631,780	320,872	0,102	0,141
-630,765	-200,000	-0,001	-0,070
-629,751	347,080	0,061	-0,087
-628,736	-109,054	-0,085	0,013
-627,722	112,421	0,043	0,038
-626,707	434,879	0,042	0,066
-625,692	235,180	0,034	0,041
-624,678	218,833	0,065	0,076
-623,663	510,257	-0,017	-0,029
-622,649	-154,947	-0,162	-0,008
-621,634	-200,000	-0,018	-0,130
-620,619	-70,704	0,116	0,032
-619,605	-116,852	-0,092	-0,012
-618,590	-200,000	-0,008	0,143
-617,576	120,919	0,078	0,071
-616,561	50,037	0,078	0,053
-615,546	-92,943	-0,116	-0,023
-614,532	-200,000	0,017	-0,107
-613,517	800,000	-0,017	0,038
-612,503	214,028	-0,041	-0,047
-611,488	294,554	0,072	0,095
-610,474	-25,232	0,072	-0,031
-609,459	-21,072	0,078	0,034
-608,444	-61,158	0,057	-0,017
-607,430	94,052	-0,024	0,020
-606,415	59,694	-0,062	-0,044
-605,401	378,109	0,063	0,093
-604,386	463,013	-0,038	0,062
-603,371	-35,698	0,101	0,040
-602,357	281,405	-0,016	0,021
-601,342	367,055	-0,061	-0,090
-600,328	684,799	-0,074	-0,140
-599,313	-90,132	-0,088	-0,018
-598,298	106,102	-0,115	0,099
-597,284	689,186	-0,062	0,118
-596,269	-200,000	0,014	0,105
-595,255	220,170	-0,108	-0,125
-594,240	-39,949	0,055	0,021
-593,225	32,280	-0,111	-0,069
-592,211	45,870	-0,061	0,041
-591,196	-58,580	-0,045	-0,014
-590,182	44,079	-0,058	-0,039
-589,167	-146,238	0,133	0,008
-588,152	12,484	-0,115	0,064
-587,138	-40,388	-0,034	-0,013
-586,123	-163,125	0,156	0,005
-585,109	-167,527	-0,061	-0,002
-584,094	-200,000	-0,001	0,059
-583,079	-200,000	-0,004	0,148
-582,065	194,973	0,095	0,105
-581,050	-146,511	0,007	-0,000
-580,036	800,000	0,054	0,117
-579,021	-142,826	0,146	0,010
-578,006	-200,000	0,012	-0,147
-576,992	-200,000	-0,008	-0,150
-575,977	-200,000	0,006	0,082
-574,963	-200,000	-0,000	0,208
-573,948	-129,015	0,079	0,008
-572,934	-200,000	-0,044	-0,141
-571,919	-43,245	-0,160	-0,058
-570,904	-33,521	-0,120	0,048
-569,890	196,685	-0,033	0,036
-568,875	-200,000	-0,022	-0,076
-567,861	-95,021	0,033	0,006
-566,846	800,000	-0,016	0,045
-565,831	-52,493	-0,007	0,002
-564,817	464,370	0,060	-0,098
-563,802	-29,049	-0,069	0,029
-562,788	-66,638	0,106	-0,030
-561,773	34,870	-0,040	0,025
-560,758	-104,482	-0,044	-0,007
-559,744	429,384	-0,035	0,055
-558,729	800,000	-0,056	0,169
-557,715	700,677	-0,021	0,040
-556,700	-53,638	0,031	-0,010
-555,685	-121,815	-0,050	0,006
-554,671	800,000	-0,019	0,048
-553,656	658,450	0,055	0,103
-552,642	103,638	-0,087	0,074
-551,627	800,000	-0,035	0,099
-550,612	-200,000	-0,037	0,212
-549,598	98,012	-0,045	-0,038
-548,583	-200,000	0,002	-0,137
-547,569	-63,688	0,149	-0,044
-546,554	-152,626	0,038	-0,002
-545,539	-200,000	-0,002	0,015
-544,525	-88,379	0,023	0,005
-543,510	-119,772	-0,092	0,011
-542,496	800,000	-0,028	0,056
-541,481	-200,000	0,000	-0,082
-540,466	-200,000	0,010	0,063
-539,452	-179,652	0,060	0,001
-538,437	72,595	0,034	0,026
-537,423	46,308	-0,050	-0,033
-536,408	40,384	-0,082	-0,053
-535,393	584,460	-0,069	-0,123
-534,379	800,000	-0,076	-0,173
-533,364	-200,000	0,008	-0,062
-532,350	345,632	-0,172	0,245
-531,335	549,491	-0,035	0,060
-530,321	-179,612	0,028	0,000
-529,306	102,205	-0,043	0,036
-528,291	314,058	0,060	-0,082
-527,277	-200,000	-0,010	-0,143
-526,262	83,104	0,047	0,037
-525,248	-35,963	-0,085	-0,033
-524,233	-74,342	0,054	0,014
-523,218	35,832	0,159	-0,101
-522,204	36,367	0,044	-0,028
-521,189	-200,000	-0,013	-0,106
-520,175	-200,000	0,002	0,068
-519,160	-5,844	-0,112	-0,055
-518,145	-200,000	0,006	0,067
-517,131	26,061	0,052	0,031
-516,116	-86,272	0,054	-0,012
-515,102	269,910	-0,072	-0,091
-514,087	800,000	-0,047	-0,105
-513,072	-64,212	0,087	0,025
-512,058	-143,450	-0,113	-0,008
-511,043	-200,000	-0,026	-0,087
-510,029	-62,525	0,089	0,026
-509,014	345,542	-0,056	0,080
-507,999	37,314	-0,087	-0,056
-506,985	-68,845	-0,108	0,030
-505,970	-144,106	0,071	-0,005
-504,956	1,648	0,057	-0,030
-503,941	-8,353	-0,086	-0,041
-502,926	259,067	0,038	0,048
-501,912	-33,228	0,017	0,007
-500,897	444,752	0,012	-0,019
-499,883	16,237	-0,076	0,043
-498,868	434,193	0,057	-0,090
-497,853	800,000	-0,012	-0,024
-496,839	79,180	-0,133	0,103
-495,824	84,836	0,010	-0,008
-494,810	-37,795	0,071	0,027
-493,795	219,610	0,080	-0,093
-492,781	101,312	-0,069	0,058
-491,766	-110,932	-0,161	0,024
-490,751	-116,766	0,048	0,006
-489,737	-200,000	0,024	-0,114
-488,722	-200,000	-0,016	0,120
-487,708	-200,000	0,012	0,143
-486,693	217,733	0,115	0,133
-485,678	800,000	0,027	-0,059
-484,664	-200,000	-0,005	0,040
-483,649	-200,000	-0,003	-0,055
-482,635	744,575	0,030	-0,058
-481,620	117,197	0,060	-0,053
-480,605	188,033	0,069	0,075
-479,591	-200,000	0,003	0,082
-478,576	73,327	0,043	-0,032
-477,562	208,685	-0,084	-0,095
-476,547	526,423	-0,072	-0,123
-475,532	800,000	-0,030	0,091
-474,518	-200,000	0,000	0,010
-473,503	-8,995	0,083	0,040
-472,489	-200,000	0,028	0,123
-471,474	77,619	0,105	0,080
-470,459	-118,921	-0,118	0,015
-469,445	-68,200	0,099	0,028
-468,430	168,223	-0,059	-0,060
-467,416	-42,734	-0,030	0,011
-466,401	1,317	0,109	0,056
-465,386	-200,000	0,005	-0,061
-464,372	475,632	0,047	-0,077
-463,357	73,973	-0,113	-0,086
-462,343	85,069	-0,058	-0,046
-461,328	800,000	-0,047	-0,114
-460,313	111,383	0,019	-0,016
-459,299	-200,000	-0,008	-0,032
-458,284	-200,000	-0,055	0,194
-457,270	-113,324	-0,097	-0,014
-456,255	-200,000	-0,030	0,114
-455,241	-200,000	0,000	0,110
-454,226	63,581	-0,127	0,092
-453,211	-129,123	0,118	-0,012
-452,197	800,000	0,014	0,041
-451,182	86,611	-0,018	0,014
-450,168	800,000	-0,021	0,052
-449,153	800,000	-0,049	-0,114
-448,138	-100,303	0,094	-0,017
-447,124	96,305	0,029	-0,024
-446,109	-91,295	0,118	-0,024
-445,095	258,322	0,062	-0,077
-444,080	-200,000	0,001	-0,105
-443,065	734,364	-0,034	0,066
-442,051	287,544	-0,062	-0,082
-441,036	-200,000	0,035	-0,162
-440,022	-200,000	-0,042	-0,205
-439,007	-200,000	0,024	-0,128
-437,992	-94,853	0,102	-0,020
-436,978	-109,953	0,161	0,024
-435,963	-200,000	-0,082	-0,000
-434,949	533,120	-0,050	-0,085
-433,934	-116,650	0,015	-0,002
-432,919	49,081	-0,071	-0,048
-431,905	-190,061	0,049	-0,000
-430,890	-200,000	-0,040	0,188
-429,876	-52,490	0,061	-0,020
-428,861	-200,000	0,000	0,165
-427,846	65,261	-0,160	-0,116
-426,832	483,228	-0,010	0,017
-425,817	302,439	0,075	-0,100
-424,803	9,002	0,038	0,020
-423,788	-200,000	-0,009	0,091
-422,773	561,401	0,045	0,078
-421,759	-200,000	-0,005	0,088
-420,744	-200,000	-0,003	0,085
-419,730	800,000	0,055	-0,133
-418,715	800,000	-0,024	-0,052
-417,701	-200,000	-0,018	-0,120
-416,686	-200,000	0,013	0,062
-415,671	-47,698	0,141	-0,049
-414,657	106,405	0,109	-0,093
-413,642	-200,000	-0,004	0,070
-412,628	-78,130	-0,051	0,012
-411,613	-200,000	0,009	-0,111
-410,598	672,550	-0,048	-0,091
-409,584	-39,257	0,053	-0,020
-408,569	87,717	0,061	-0,049
-407,555	-200,000	-0,037	0,125
-406,540	232,104	-0,083	0,098
-405,525	22,846	-0,103	-0,060
-404,511	-200,000	-0,009	-0,210
-403,496	-140,440	-0,188	-0,014
-402,482	800,000	-0,035	-0,085
-401,467	119,386	0,064	0,057
-400,452	625,048	-0,019	-0,035
-399,438	19,266	-0,144	0,083
-398,423	505,793	-0,006	-0,010
-397,409	48,770	-0,081	-0,055
-396,394	-19,011	0,075	0,033
-395,379	275,278	-0,030	0,039
-394,365	-16,246	0,013	-0,006
-393,350	42,493	0,086	0,056
-392,336	-95,405	0,151	0,029
-391,321	180,138	-0,023	-0,025
-390,306	-65,506	0,029	-0,008
-389,292	-200,000	0,000	-0,087
-388,277	127,112	-0,087	-0,080
-387,263	-200,000	0,031	0,117
-386,248	800,000	-0,019	0,054
-385,233	-146,054	-0,011	0,001
-384,219	-65,132	0,165	0,048
-383,204	740,744	0,038	-0,075
-382,190	50,010	-0,074	-0,050
-381,175	-200,000	-0,036	0,214
-380,160	600,322	-0,058	0,104
-379,146	800,000	0,042	0,094
-378,131	800,000	0,029	0,082
-377,117	121,763	-0,031	-0,028
-376,102	-59,286	0,026	-0,008
-375,088	340,061	-0,015	-0,021
-374,073	-62,439	-0,131	-0,039
-373,058	-200,000	-0,005	0,138
-372,044	361,211	0,101	0,146
-371,029	-6,477	0,209	0,102
-370,015	800,000	-0,048	0,105
-369,000	484,146	0,026	-0,043
-367,985	19,595	0,086	0,049
-366,971	283,424	0,033	0,043
-365,956	54,622	0,098	-0,068
-364,942	-200,000	-0,012	-0,194
-363,927	652,335	-0,090	-0,166
-362,912	-8,591	0,096	-0,046
-361,898	119,964	-0,071	0,064
-360,883	439,569	0,025	-0,040
-359,869	-200,000	0,017	-0,076
-358,854	-132,518	0,174	0,016
-357,839	800,000	0,043	0,111
-356,825	-147,098	0,121	0,007
-355,810	243,884	-0,036	0,043
-354,796	39,725	-0,051	-0,033
-353,781	138,067	-0,184	-0,173
-352,766	800,000	-0,009	-0,023
-351,752	-13,472	-0,068	0,032
-350,737	4,168	0,060	0,031
-349,723	380,941	-0,064	0,094
-348,708	-66,452	0,201	-0,057
-347,693	657,625	-0,037	0,069
-346,679	-87,139	-0,055	-0,012
-345,664	32,047	-0,117	-0,072
-344,650	781,860	-0,032	-0,063
-343,635	-68,552	-0,083	0,023
-342,620	37,049	0,064	0,041
-341,606	800,000	0,020	-0,045
-340,591	230,280	0,058	-0,069
-339,577	-200,000	-0,025	-0,135
-338,562	-70,257	-0,066	0,018
-337,548	328,806	0,017	-0,024
-336,533	-200,000	-0,003	0,101
-335,518	800,000	-0,023	0,072
-334,504	290,335	-0,073	0,095
-333,489	52,926	-0,094	-0,064
-332,475	546,011	-0,044	-0,076
-331,460	328,535	0,097	-0,133
-330,445	800,000	-0,038	-0,085
-329,431	121,894	-0,096	0,086
-328,416	800,000	-0,036	-0,078
-327,402	561,725	-0,101	0,176
-326,387	-10,462	-0,056	0,027
-325,372	110,753	-0,046	-0,040
-324,358	32,756	-0,095	-0,059
-323,343	800,000	-0,028	0,069
-322,329	133,906	0,103	0,096
-321,314	226,523	0,109	0,128
-320,299	-66,486	0,142	0,040
-319,285	800,000	-0,028	-0,071
-318,270	597,137	0,059	0,106
-317,256	800,000	0,054	-0,141
-316,241	800,000	0,039	-0,107
-315,226	170,791	0,024	0,024
-314,212	-200,000	0,010	0,075
-313,197	-200,000	0,018	-0,102
-312,183	-174,881	-0,063	0,001
-311,168	-142,476	-0,101	-0,007
-310,153	455,861	-0,043	-0,069
-309,139	-39,207	0,070	-0,026
-308,124	303,726	0,037	-0,049
-307,110	-200,000	0,036	0,145
-306,095	-200,000	-0,003	0,170
-305,080	188,413	0,125	-0,134
-304,066	-97,823	-0,090	-0,017
-303,051	-200,000	0,004	0,125
-302,037	-105,335	-0,077	0,012
-301,022	-56,782	0,084	-0,026
-300,008	-162,088	0,057	-0,002
-298,993	110,824	0,066	0,057
-297,978	-200,000	-0,005	0,135
-296,964	-200,000	-0,017	0,187
-295,949	-149,044	0,054	0,003
-294,935	-54,042	-0,075	-0,024
-293,920	-109,558	0,165	0,025
-292,905	91,515	0,071	0,057
-291,891	2,529	0,036	0,019
-290,876	-84,659	0,137	-0,031
-289,862	60,527	-0,105	-0,074
-288,847	800,000	-0,046	-0,093
-287,832	97,069	0,069	-0,057
-286,818	-26,967	0,075	0,031
-285,803	579,051	0,031	-0,055
-284,789	166,023	0,039	0,039
-283,774	-171,803	0,035	0,001
-282,759	-200,000	0,006	-0,041
-281,745	-120,730	-0,171	-0,020
-280,730	160,834	0,032	0,032
-279,716	800,000	-0,028	0,070
-278,701	326,275	0,103	0,142
-277,686	701,462	0,031	0,059
-276,672	-43,463	-0,087	0,031
-275,657	-200,000	-0,001	0,023
-274,643	659,705	-0,071	-0,132
-273,628	-9,305	-0,151	0,072
-272,613	-59,907	0,083	0,025
-271,599	-125,297	0,034	-0,004
-270,584	304,749	0,041	-0,055
-269,570	99,618	0,138	-0,114
-268,555	73,179	-0,063	-0,047
-267,540	-29,241	-0,065	-0,027
-266,526	154,506	0,121	0,119
-265,511	30,552	0,079	0,048
-264,497	427,928	0,072	-0,111
-263,482	32,951	-0,138	0,085
-262,467	-24,151	0,071	0,030
-261,453	-200,000	-0,000	0,039
-260,438	65,430	-0,124	-0,090
-259,424	-200,000	-0,019	0,081
-258,409	592,151	-0,051	0,090
-257,395	-39,611	0,085	0,032
-256,380	800,000	0,026	-0,068
-255,365	109,488	0,096	0,082
-254,351	533,436	-0,087	0,148
-253,336	-110,130	-0,225	-0,033
-252,322	58,760	-0,044	0,031
-251,307	391,557	0,040	-0,060
-250,292	800,000	-0,044	-0,112
-249,278	-23,462	-0,036	0,015
-248,263	252,479	0,054	0,066
-247,249	-143,379	0,113	0,008
-246,234	-200,000	0,005	-0,022
-245,219	-153,141	-0,128	-0,006
-244,205	-72,681	0,079	0,021
-243,190	-200,000	0,017	0,069
-242,176	-200,000	-0,008	0,104
-241,161	-61,279	-0,024	0,007
-240,146	44,100	-0,068	-0,045
-239,132	-200,000	0,022	-0,102
-238,117	128,400	-0,120	-0,109
-237,103	-200,000	0,020	0,076
-236,088	-152,898	-0,085	-0,004
-235,073	-35,345	-0,076	-0,029
-234,059	84,067	0,049	0,038
-233,044	-49,595	0,138	0,047
-232,030	48,788	0,072	-0,048
-231,015	283,148	0,081	-0,104
-230,000	-200,000	-0,046	-0,180
-228,986	800,000	0,040	-0,118
-227,971	180,672	0,054	0,057
-226,957	800,000	0,063	-0,131
-225,942	216,583	0,031	0,036
-224,927	374,317	0,034	0,049
-223,913	-200,000	-0,038	0,139
-222,898	415,411	-0,023	-0,034
-221,884	161,201	-0,023	0,023
-220,869	-34,143	-0,096	0,038
-219,855	412,691	0,029	-0,044
-218,840	-200,000	-0,021	0,117
-217,825	800,000	-0,014	0,033
-216,811	-67,257	-0,066	-0,019
-215,796	-16,953	0,095	-0,043
-214,782	800,000	-0,052	-0,103
-213,767	4,374	0,107	-0,056
-212,752	-85,088	-0,113	-0,025
-211,738	-200,000	-0,006	-0,025
-210,723	800,000	-0,028	-0,066
-209,709	-200,000	0,009	0,089
-208,694	-200,000	-0,028	-0,128
-207,679	488,685	-0,022	0,035
-206,665	61,081	0,087	0,061
-205,650	-81,941	-0,059	0,014
-204,636	800,000	-0,009	-0,020
-203,621	98,382	-0,050	0,041
-202,606	-200,000	-0,007	-0,082
-201,592	-142,289	-0,145	0,010
-200,577	-38,836	0,125	-0,047
-199,563	-200,000	-0,009	-0,235
-198,548	800,000	-0,019	-0,054
-197,533	399,700	0,049	-0,073
-196,519	800,000	0,034	-0,070
-195,504	-151,845	0,109	0,006
-194,490	-61,492	-0,077	0,023
-193,475	-40,772	0,062	-0,023
-192,460	-22,251	-0,167	-0,072
-191,446	-19,335	0,074	0,033
-190,431	-69,387	0,038	0,010
-189,417	61,232	0,050	0,036
-188,402	-200,000	0,013	-0,071
-187,387	800,000	-0,054	-0,166
-186,373	463,572	0,092	-0,146
-185,358	-148,092	0,033	-0,002
-184,344	-200,000	-0,008	0,039
-183,329	568,519	0,077	0,134
-182,315	344,372	0,009	-0,012
-181,300	-71,788	0,095	-0,025
-180,285	311,972	0,058	0,078
-179,271	-200,000	-0,006	0,069
-178,256	-139,039	-0,164	-0,012
-177,242	129,809	0,019	0,018
-176,227	163,678	0,157	0,158
-175,212	409,558	-0,069	0,104
-174,198	-59,877	0,079	0,024
-173,183	186,073	-0,058	0,061
-172,169	800,000	0,024	0,059
-171,154	800,000	0,017	-0,035
-170,139	-200,000	0,020	0,083
-169,125	427,601	0,072	-0,111
-168,110	144,100	-0,093	-0,089
-167,096	-200,000	0,012	0,072
-166,081	175,357	-0,130	-0,135
-165,066	593,839	0,021	-0,037
-164,052	327,136	0,027	-0,037
-163,037	800,000	0,071	-0,159
-162,023	623,819	0,042	0,076
-161,008	-54,005	-0,027	0,009
-159,993	-143,857	0,170	0,011
-158,979	-82,508	-0,085	0,020
-157,964	800,000	0,020	-0,046
-156,950	-26,425	0,035	0,014
-155,935	529,643	0,042	0,070
-154,920	54,105	-0,071	-0,048
-153,906	-75,278	-0,072	0,018
-152,891	-200,000	-0,001	-0,036
-151,877	63,168	-0,026	0,019
-150,862	-75,609	0,049	0,012
-149,847	296,858	-0,012	0,015
-148,833	800,000	0,059	0,150
-147,818	-172,549	0,150	0,003
-146,804	208,976	0,063	0,071
-145,789	166,474	-0,052	0,053
-144,775	-200,000	-0,026	-0,090
-143,760	-200,000	0,017	-0,084
-142,745	-105,980	-0,118	0,019
-141,731	-66,802	-0,030	-0,008
-140,716	100,587	0,150	-0,124
-139,702	56,695	-0,071	0,049
-138,687	102,310	-0,025	-0,020
-137,672	179,592	0,094	0,098
-136,658	6,669	-0,171	-0,090
-135,643	-70,087	-0,142	-0,038
-134,629	800,000	-0,026	-0,076
-133,614	-200,000	0,010	0,245
-132,599	625,574	-0,023	0,041
-131,585	-86,975	0,111	0,024
-130,570	-77,382	-0,161	-0,039
-129,556	252,597	0,051	-0,062
-128,541	-69,927	-0,129	0,035
-127,526	-200,000	-0,010	-0,046
-126,512	42,196	0,080	0,052
-125,497	-194,587	0,128	0,001
-124,483	-93,828	-0,033	0,006
-123,468	-33,863	0,080	0,031
-122,453	312,068	0,050	-0,067
-121,439	59,357	0,145	-0,102
-120,424	-200,000	-0,021	-0,086
-119,410	-3,184	0,100	-0,050
