DTS Sentinel unit serial number:	SN410029Multiplexer serial number:	ORYXHardware model number:	OX2-SRSoftware version number:	ORYX F/W v4,00 Oryx Data Collector v3.7.2.0data status	okinstallation	BH3 CH2differential loss correction	single-endedforward channel	channel 2reverse channel	N/Adate	2023/12/06time	03:47:28forward acquisition time	300,00reverse acquisition time	0,00gamma	499,1914k internal	0,3197k external	0,3197temperature offset calibration	1,0000default loss term (dB/km)	0,3820temperature slope calibration	1,0000multiplexer offset coefficient	1,0000multiplexer slope coefficient	1,0000fibre end	0,00T internal ref (°C)	8,94T ext. ref 1 (°C)	-5,71T ext. ref 2 (°C)	-5,80length (m)	temperature (°C)	Stokes	anti-Stokes-744,400	-200,000	-0,008	-0,092
-743,385	2,539	-0,194	0,102
-742,371	146,205	-0,159	-0,155
-741,356	402,845	-0,066	0,101
-740,342	39,603	-0,082	-0,054
-739,327	-200,000	-0,239	-0,001
-738,312	558,425	-0,055	-0,097
-737,298	-133,501	-0,258	0,023
-736,283	-132,282	0,017	-0,002
-735,269	-200,000	-0,009	-0,102
-734,254	78,979	-0,184	-0,143
-733,239	-75,912	-0,365	-0,093
-732,225	-200,000	0,001	0,014
-731,210	196,709	0,146	0,162
-730,196	800,000	0,063	-0,160
-729,181	465,851	-0,062	-0,101
-728,167	-10,426	0,084	0,040
-727,152	-6,508	0,064	-0,032
-726,137	800,000	-0,056	-0,159
-725,123	-200,000	-0,011	-0,091
-724,108	-32,237	-0,050	-0,020
-723,094	264,771	-0,091	-0,116
-722,079	312,825	-0,087	-0,120
-721,064	56,202	0,054	-0,038
-720,050	-47,432	-0,032	-0,011
-719,035	143,994	-0,083	-0,080
-718,021	187,101	-0,053	-0,058
-717,006	166,243	0,087	-0,090
-715,991	334,780	0,101	0,143
-714,977	95,547	-0,212	-0,176
-713,962	-59,044	0,119	-0,037
-712,948	1,798	-0,035	-0,018
-711,933	463,799	0,072	-0,117
-710,918	6,601	-0,071	-0,038
-709,904	-200,000	0,001	0,056
-708,889	104,790	-0,061	-0,053
-707,875	-127,246	-0,071	-0,007
-706,860	188,113	-0,075	0,081
-705,845	-200,000	0,010	0,068
-704,831	-200,000	0,034	0,118
-703,816	-86,526	0,080	0,018
-702,802	38,536	-0,059	-0,038
-701,787	-166,363	-0,047	-0,001
-700,772	-200,000	-0,001	-0,152
-699,758	-122,776	0,115	0,013
-698,743	-75,115	-0,131	0,034
-697,729	-183,108	-0,112	-0,001
-696,714	-92,689	0,019	0,004
-695,699	54,831	-0,046	0,033
-694,685	-200,000	-0,001	-0,153
-693,670	8,935	-0,034	-0,018
-692,656	-200,000	-0,041	-0,155
-691,641	-200,000	0,023	-0,076
-690,627	56,750	0,010	-0,007
-689,612	139,294	0,100	-0,096
-688,597	318,657	-0,039	-0,054
-687,583	-123,240	-0,075	0,009
-686,568	380,161	-0,047	-0,070
-685,554	-39,798	-0,025	0,009
-684,539	6,877	-0,038	0,021
-683,524	-63,778	0,037	0,011
-682,510	-200,000	0,004	-0,131
-681,495	653,889	-0,035	-0,065
-680,481	-200,000	-0,043	-0,205
-679,466	-86,680	-0,104	-0,023
-678,451	15,850	0,110	0,063
-677,437	372,260	0,016	0,023
-676,422	-200,000	0,003	-0,239
-675,408	-138,511	-0,049	0,004
-674,393	-13,731	-0,123	-0,057
-673,378	-200,000	-0,011	-0,061
-672,364	-7,549	-0,042	0,021
-671,349	23,638	0,125	-0,075
-670,335	-200,000	-0,041	-0,161
-669,320	-37,085	0,121	-0,047
-668,305	-200,000	-0,016	-0,156
-667,291	619,722	-0,067	-0,124
-666,276	-200,000	0,011	-0,127
-665,262	23,577	0,016	-0,010
-664,247	-200,000	-0,013	0,052
-663,232	299,314	-0,033	0,044
-662,218	33,358	-0,050	0,031
-661,203	239,112	-0,011	0,013
-660,189	-200,000	0,089	0,000
-659,174	406,957	-0,077	0,119
-658,159	201,870	-0,039	-0,044
-657,145	-200,000	0,016	-0,116
-656,130	258,772	-0,021	0,027
-655,116	278,260	0,039	0,050
-654,101	84,472	0,011	0,009
-653,086	191,887	0,044	-0,048
-652,072	-200,000	0,015	-0,058
-651,057	390,860	-0,096	-0,144
-650,043	-200,000	-0,001	-0,027
-649,028	800,000	-0,028	-0,057
-648,014	13,879	-0,049	0,028
-646,999	-200,000	0,013	-0,076
-645,984	800,000	-0,013	0,028
-644,970	9,991	0,118	-0,065
-643,955	800,000	-0,016	-0,049
-642,941	138,619	0,081	0,077
-641,926	8,439	-0,153	-0,083
-640,911	800,000	-0,020	-0,052
-639,897	139,517	0,094	-0,089
-638,882	-115,404	-0,052	0,007
-637,868	-200,000	-0,019	-0,061
-636,853	274,328	-0,121	-0,156
-635,838	670,565	-0,029	-0,055
-634,824	-27,507	-0,084	-0,035
-633,809	-200,000	-0,013	0,112
-632,795	53,369	0,096	-0,067
-631,780	430,204	-0,034	0,053
-630,765	192,931	-0,048	-0,053
-629,751	105,254	-0,176	-0,151
-628,736	-177,108	-0,165	-0,003
-627,722	-200,000	-0,015	-0,144
-626,707	-93,205	0,183	0,036
-625,692	434,092	-0,004	-0,006
-624,678	800,000	-0,008	0,019
-623,663	-173,751	-0,108	0,002
-622,649	-110,899	-0,056	-0,008
-621,634	-28,672	0,090	-0,038
-620,619	-200,000	-0,021	-0,122
-619,605	-200,000	0,019	-0,072
-618,590	800,000	-0,020	0,063
-617,576	800,000	0,026	0,082
-616,561	279,139	-0,108	-0,140
-615,546	76,598	0,060	-0,046
-614,532	-135,476	-0,147	-0,013
-613,517	26,365	-0,034	-0,021
-612,503	-200,000	0,023	0,123
-611,488	465,447	0,036	-0,059
-610,474	96,652	0,235	0,195
-609,459	-63,758	0,068	0,020
-608,444	-200,000	0,005	0,087
-607,430	38,378	-0,026	0,017
-606,415	-200,000	-0,024	-0,101
-605,401	53,218	0,093	-0,064
-604,386	87,239	-0,062	-0,049
-603,371	-142,664	0,170	0,012
-602,357	-69,216	-0,115	-0,032
-601,342	606,754	-0,058	-0,104
-600,328	-9,266	0,092	-0,044
-599,313	70,780	-0,079	-0,059
-598,298	800,000	0,032	0,092
-597,284	204,561	0,085	0,096
-596,269	37,689	0,109	0,070
-595,255	10,355	-0,106	-0,058
-594,240	781,595	-0,080	-0,160
-593,225	-58,367	0,097	0,030
-592,211	-189,150	-0,283	0,002
-591,196	132,715	0,077	0,072
-590,182	-200,000	-0,008	-0,145
-589,167	-10,257	-0,223	-0,107
-588,152	177,068	0,043	0,045
-587,138	-200,000	0,004	0,108
-586,123	800,000	0,015	-0,047
-585,109	-127,450	-0,087	0,009
-584,094	677,892	0,031	0,059
-583,079	131,494	-0,083	-0,077
-582,065	37,322	0,059	0,038
-581,050	310,168	0,008	0,011
-580,036	-200,000	-0,001	-0,049
-579,021	-129,812	-0,095	-0,009
-578,006	-200,000	0,044	-0,161
-576,992	173,773	0,086	0,090
-575,977	-48,154	0,040	-0,014
-574,963	-120,439	0,047	0,006
-573,948	800,000	0,019	0,044
-572,934	176,906	-0,052	0,055
-571,919	175,374	-0,029	-0,030
-570,904	-19,006	-0,179	0,080
-569,890	-73,067	-0,075	-0,020
-568,875	-200,000	0,002	0,007
-567,861	-174,408	0,233	0,005
-566,846	-61,490	-0,087	0,026
-565,831	91,518	0,053	0,043
-564,817	140,296	-0,082	-0,078
-563,802	-99,247	-0,162	-0,029
-562,788	-61,872	-0,100	0,030
-561,773	-19,547	-0,025	-0,011
-560,758	-13,340	-0,107	-0,050
-559,744	-62,000	0,141	0,042
-558,729	-200,000	-0,000	-0,022
-557,715	-200,000	-0,004	0,021
-556,700	648,973	-0,058	-0,108
-555,685	-94,546	-0,065	-0,013
-554,671	-103,296	0,102	0,017
-553,656	17,069	-0,038	-0,022
-552,642	-200,000	0,001	0,079
-551,627	267,649	-0,055	-0,070
-550,612	-13,252	-0,163	0,076
-549,598	-39,466	-0,156	-0,059
-548,583	-11,829	0,030	0,014
-547,569	170,834	0,097	0,100
-546,554	81,111	0,093	0,072
-545,539	175,261	0,123	0,129
-544,525	-200,000	-0,029	0,167
-543,510	-21,268	-0,044	0,020
-542,496	-200,000	-0,028	-0,108
-541,481	134,663	0,105	-0,098
-540,466	-47,804	-0,139	0,048
-539,452	90,326	0,118	-0,095
-538,437	-49,068	-0,079	0,027
-537,423	-200,000	-0,011	-0,051
-536,408	-200,000	-0,001	-0,004
-535,393	800,000	-0,051	-0,151
-534,379	258,486	-0,089	-0,112
-533,364	-151,262	-0,094	0,005
-532,350	-26,675	0,150	0,063
-531,335	-200,000	-0,024	-0,084
-530,321	-200,000	0,004	0,144
-529,306	99,899	0,084	0,070
-528,291	-200,000	0,012	-0,090
-527,277	800,000	-0,022	-0,058
-526,262	-200,000	0,021	-0,121
-525,248	92,778	0,038	-0,031
-524,233	61,265	0,076	0,055
-523,218	-140,848	-0,043	-0,003
-522,204	-200,000	0,003	0,040
-521,189	-10,724	-0,055	-0,026
-520,175	-200,000	0,004	-0,060
-519,160	-200,000	0,005	-0,036
-518,145	389,679	0,048	-0,072
-517,131	12,749	0,068	0,038
-516,116	-200,000	0,004	0,088
-515,102	-200,000	0,009	0,070
-514,087	-200,000	0,017	-0,156
-513,072	28,365	-0,048	0,029
-512,058	71,441	0,049	0,037
-511,043	302,023	0,064	-0,086
-510,029	619,259	0,023	0,041
-509,014	-200,000	0,010	-0,109
-507,999	368,961	-0,042	-0,062
-506,985	-76,985	-0,116	-0,029
-505,970	-149,779	-0,091	-0,005
-504,956	800,000	0,056	-0,139
-503,941	-52,307	0,065	-0,022
-502,926	-149,298	-0,076	-0,004
-501,912	11,353	0,067	0,037
-500,897	800,000	-0,012	-0,030
-499,883	-200,000	0,023	-0,133
-498,868	800,000	0,025	-0,052
-497,853	-200,000	-0,022	-0,070
-496,839	-200,000	-0,008	0,033
-495,824	41,925	0,068	-0,044
-494,810	-200,000	-0,047	0,160
-493,795	-177,123	0,073	-0,001
-492,781	40,045	-0,059	0,038
-491,766	-70,702	0,133	-0,036
-490,751	46,669	-0,094	0,063
-489,737	-18,649	0,170	-0,076
-488,722	205,725	0,063	-0,071
-487,708	146,920	0,104	-0,101
-486,693	-104,289	-0,095	-0,016
-485,678	97,071	-0,024	0,020
-484,664	-77,021	0,121	0,030
-483,649	507,092	-0,096	0,160
-482,635	-128,201	-0,022	0,002
-481,620	-200,000	0,020	0,118
-480,605	-200,000	0,032	-0,129
-479,591	800,000	0,039	-0,089
-478,576	-200,000	0,007	0,122
-477,562	-84,850	-0,024	-0,005
-476,547	143,148	-0,073	-0,070
-475,532	42,537	-0,109	-0,071
-474,518	800,000	0,043	-0,099
-473,503	-200,000	0,016	0,123
-472,489	-100,029	0,129	0,023
-471,474	-200,000	0,008	0,161
-470,459	-200,000	-0,002	-0,079
-469,445	800,000	-0,032	-0,077
-468,430	137,894	0,103	0,098
-467,416	-200,000	0,005	-0,079
-466,401	24,191	0,102	0,061
-465,386	800,000	0,075	0,168
-464,372	-12,944	-0,114	0,053
-463,357	83,640	0,049	-0,039
-462,343	449,380	-0,019	0,030
-461,328	-200,000	0,032	0,119
-460,313	-116,464	0,071	0,009
-459,299	-200,000	-0,007	0,095
-458,284	59,194	-0,041	0,029
-457,270	21,435	0,117	0,068
-456,255	-200,000	0,023	-0,112
-455,241	197,229	0,042	-0,047
-454,226	800,000	-0,022	0,049
-453,211	-200,000	-0,005	0,077
-452,197	-200,000	-0,003	-0,103
-451,182	187,423	0,164	0,176
-450,168	-82,939	-0,051	-0,012
-449,153	-46,041	-0,050	0,018
-448,138	800,000	0,054	0,162
-447,124	-200,000	-0,016	-0,083
-446,109	324,665	-0,033	0,045
-445,095	-200,000	0,020	0,101
-444,080	-86,320	0,194	0,043
-443,065	-69,667	-0,101	-0,028
-442,051	-200,000	0,033	-0,121
-441,036	-30,941	0,070	0,029
-440,022	-200,000	0,001	0,067
-439,007	566,059	-0,046	-0,080
-437,992	31,068	0,063	0,039
-436,978	-200,000	-0,019	-0,086
-435,963	532,459	-0,037	0,064
-434,949	-200,000	-0,006	-0,024
-433,934	-67,464	-0,099	-0,028
-432,919	45,781	-0,052	-0,035
-431,905	-70,657	-0,136	-0,037
-430,890	51,529	0,093	-0,064
-429,876	-200,000	0,021	0,126
-428,861	222,450	0,049	-0,057
-427,846	264,840	-0,087	-0,109
-426,832	-66,065	0,023	-0,007
-425,817	-16,287	0,065	0,029
-424,803	800,000	-0,027	0,056
-423,788	-200,000	0,003	0,107
-422,773	-200,000	-0,017	0,140
-421,759	172,659	0,056	0,058
-420,744	-200,000	-0,008	-0,031
-419,730	-51,932	0,094	-0,031
-418,715	800,000	0,045	-0,115
-417,701	49,514	-0,062	-0,042
-416,686	51,518	0,145	0,099
-415,671	106,566	0,136	0,116
-414,657	40,971	0,007	-0,005
-413,642	-200,000	-0,014	-0,076
-412,628	-101,112	0,067	-0,012
-411,613	-200,000	-0,005	-0,041
-410,598	-57,086	-0,085	-0,027
-409,584	-200,000	-0,006	-0,148
-408,569	-200,000	-0,009	-0,051
-407,555	-3,441	0,086	-0,043
-406,540	152,745	0,043	-0,042
-405,525	-200,000	-0,013	-0,049
-404,511	-5,589	0,066	-0,032
-403,496	-146,542	-0,004	0,000
-402,482	800,000	-0,036	0,075
-401,467	-135,922	-0,088	0,007
-400,452	-200,000	0,014	0,055
-399,438	11,731	0,149	-0,082
-398,423	-200,000	0,013	0,110
-397,409	-200,000	-0,001	-0,111
-396,394	-200,000	0,033	-0,165
-395,379	312,578	0,056	0,075
-394,365	800,000	-0,061	0,178
-393,350	-200,000	-0,017	0,119
-392,336	-79,442	0,146	0,035
-391,321	9,538	-0,033	-0,018
-390,306	203,312	-0,086	-0,096
-389,292	-200,000	-0,022	0,109
-388,277	-173,537	0,077	0,002
-387,263	86,259	0,132	0,104
-386,248	800,000	-0,059	-0,132
-385,233	-200,000	0,000	0,077
-384,219	791,295	0,029	0,057
-383,204	58,128	0,047	0,033
-382,190	-200,000	-0,013	0,063
-381,175	-102,447	0,019	0,003
-380,160	313,727	-0,017	-0,023
-379,146	108,677	0,091	0,078
-378,131	-200,000	0,009	0,087
-377,117	396,893	-0,102	-0,154
-376,102	-59,641	-0,108	0,033
-375,088	44,727	-0,030	0,020
-374,073	88,791	-0,069	-0,055
-373,058	800,000	0,023	0,067
-372,044	-82,101	0,120	0,028
-371,029	196,702	-0,080	0,087
-370,015	-200,000	-0,001	0,018
-369,000	-174,614	-0,043	-0,001
-367,985	-137,801	-0,197	-0,016
-366,971	192,527	-0,049	0,053
-365,956	37,991	0,044	-0,028
-364,942	-79,248	0,073	0,018
-363,927	631,107	-0,044	0,080
-362,912	10,467	-0,041	0,022
-361,898	-200,000	-0,008	0,028
-360,883	43,459	0,029	0,019
-359,869	394,977	-0,033	0,050
-358,854	-200,000	-0,043	0,175
-357,839	-200,000	0,032	0,118
-356,825	13,081	0,078	0,043
-355,810	800,000	0,049	0,107
-354,796	5,351	-0,119	-0,063
-353,781	253,540	0,021	0,025
-352,766	800,000	-0,020	0,062
-351,752	99,269	0,016	0,013
-350,737	-200,000	-0,016	-0,052
-349,723	-200,000	-0,033	0,117
-348,708	800,000	0,053	0,110
-347,693	60,537	0,018	0,013
-346,679	368,588	0,027	0,039
-345,664	800,000	0,015	-0,046
-344,650	218,694	-0,030	0,034
-343,635	472,097	0,059	0,095
-342,620	483,560	-0,034	0,056
-341,606	-49,002	-0,052	-0,018
-340,591	-133,468	0,167	0,015
-339,577	800,000	-0,027	0,075
-338,562	-110,169	0,084	0,012
-337,548	325,505	0,046	0,063
-336,533	65,592	0,061	-0,044
-335,518	-200,000	-0,014	0,159
-334,504	-10,187	0,082	0,039
-333,489	-132,627	-0,060	0,005
-332,475	-200,000	-0,019	-0,064
-331,460	-200,000	-0,030	-0,135
-330,445	-200,000	-0,030	-0,127
-329,431	-200,000	-0,004	0,056
-328,416	44,013	0,064	-0,042
-327,402	-120,119	0,050	0,006
-326,387	164,498	0,085	-0,086
-325,372	-6,928	-0,030	-0,015
-324,358	8,852	0,067	-0,036
-323,343	-200,000	-0,027	-0,112
-322,329	172,229	0,034	0,035
-321,314	56,684	0,145	0,101
-320,299	800,000	-0,058	0,155
-319,285	-200,000	0,004	0,018
-318,270	348,048	-0,040	0,056
-317,256	-200,000	0,007	0,052
-316,241	196,386	-0,092	0,100
-315,226	-167,485	0,166	0,005
-314,212	800,000	0,081	0,246
-313,197	800,000	-0,023	0,059
-312,183	696,305	0,035	-0,066
-311,168	-66,739	-0,152	0,043
-310,153	-200,000	0,017	-0,080
-309,139	-28,801	0,028	0,012
-308,124	-143,333	-0,072	-0,005
-307,110	574,425	0,056	0,099
-306,095	655,307	0,076	0,141
-305,080	-106,609	-0,060	-0,009
-304,066	96,181	-0,011	0,009
-303,051	269,864	-0,058	-0,073
-302,037	25,774	-0,051	0,031
-301,022	800,000	-0,027	-0,068
-300,008	800,000	-0,060	-0,130
-298,993	-200,000	-0,003	0,067
-297,978	-68,154	-0,133	-0,037
-296,964	-200,000	0,029	0,000
-295,949	112,713	-0,044	0,038
-294,935	713,555	0,073	-0,140
-293,920	40,193	0,126	-0,081
-292,905	16,324	-0,137	0,077
-291,891	-139,366	0,084	-0,006
-290,876	5,593	-0,121	-0,064
-289,862	138,710	0,069	0,065
-288,847	267,950	0,039	-0,049
-287,832	800,000	-0,020	-0,063
-286,818	-89,240	0,156	-0,033
-285,803	-17,601	-0,036	-0,016
-284,789	-184,807	0,098	0,001
-283,774	135,982	0,098	0,091
-282,759	301,607	-0,096	-0,128
-281,745	-200,000	0,029	0,121
-280,730	-16,942	-0,039	-0,018
-279,716	800,000	-0,029	0,081
-278,701	-117,864	0,132	0,017
-277,686	603,070	-0,135	0,241
-276,672	-200,000	0,121	0,000
-275,657	-200,000	0,006	0,030
-274,643	-200,000	-0,027	-0,112
-273,628	-200,000	-0,021	-0,209
-272,613	-200,000	-0,054	-0,202
-271,599	-17,993	0,086	-0,038
-270,584	-14,601	-0,028	0,013
-269,570	-2,986	0,068	0,034
-268,555	-200,000	0,003	-0,010
-267,540	-17,067	-0,202	-0,091
-266,526	69,274	-0,065	-0,048
-265,511	91,700	-0,099	0,079
-264,497	800,000	0,061	0,155
-263,482	-200,000	0,012	0,048
-262,467	136,474	-0,041	0,038
-261,453	-23,599	0,161	0,069
-260,438	319,549	-0,078	0,107
-259,424	414,716	-0,060	0,091
-258,409	88,842	-0,065	-0,051
-257,395	-19,090	-0,091	-0,040
-256,380	-118,580	0,095	0,012
-255,365	-200,000	0,012	0,049
-254,351	-200,000	-0,030	0,000
-253,336	-200,000	-0,013	-0,066
-252,322	-200,000	-0,019	-0,066
-251,307	-68,468	-0,157	-0,043
-250,292	-200,000	0,003	-0,024
-249,278	800,000	-0,041	-0,107
-248,263	-47,707	0,063	0,022
-247,249	-200,000	0,001	-0,054
-246,234	-200,000	-0,033	-0,142
-245,219	-200,000	0,031	-0,182
-244,205	136,021	0,092	-0,086
-243,190	-200,000	0,001	-0,119
-242,176	-86,068	-0,054	0,012
-241,161	773,498	0,084	0,164
-240,146	296,364	-0,055	-0,072
-239,132	-120,258	0,081	-0,010
-238,117	211,501	-0,096	0,108
-237,103	-167,188	0,027	0,001
-236,088	58,991	0,058	0,041
-235,073	-63,069	0,137	-0,040
-234,059	-200,000	-0,003	0,116
-233,044	624,850	-0,041	0,075
-232,030	-14,937	-0,079	0,036
-231,015	9,276	-0,132	-0,071
-230,000	-200,000	0,077	-0,270
-228,986	-28,452	0,050	0,020
-227,971	64,069	-0,116	0,083
-226,957	-200,000	0,012	0,112
-225,942	-39,561	-0,044	-0,017
-224,927	-104,056	-0,049	-0,008
-223,913	-125,600	0,017	0,002
-222,898	63,421	-0,039	0,028
-221,884	-122,127	-0,070	-0,008
-220,869	-115,199	-0,011	-0,002
-219,855	800,000	0,028	0,071
-218,840	129,166	-0,090	0,082
-217,825	800,000	-0,019	0,050
-216,811	57,543	-0,034	-0,023
-215,796	270,491	0,048	-0,060
-214,782	-73,024	0,059	-0,015
-213,767	150,673	0,039	-0,037
-212,752	-56,811	-0,088	0,028
-211,738	-200,000	-0,018	0,072
-210,723	-200,000	-0,019	0,122
-209,709	127,896	-0,118	-0,107
-208,694	573,532	-0,141	-0,245
-207,679	800,000	-0,039	-0,112
-206,665	213,567	0,089	-0,101
-205,650	-80,681	0,069	0,016
-204,636	264,677	0,094	0,117
-203,621	93,728	-0,021	0,017
-202,606	171,182	0,104	-0,106
-201,592	-104,629	0,028	-0,005
-200,577	-200,000	-0,035	-0,172
-199,563	-58,047	0,177	-0,055
-198,548	-44,533	-0,051	0,018
-197,533	-200,000	0,044	0,205
-196,519	-96,518	0,045	-0,008
-195,504	-112,086	0,081	0,011
-194,490	-98,674	-0,100	0,018
-193,475	432,986	-0,058	-0,090
-192,460	-200,000	-0,014	0,061
-191,446	-200,000	-0,009	0,048
-190,431	800,000	-0,004	-0,009
-189,417	-145,367	0,031	0,002
-188,402	-125,291	-0,012	0,001
-187,387	-200,000	0,020	-0,102
-186,373	-200,000	0,018	-0,108
-185,358	-200,000	-0,002	-0,087
-184,344	800,000	0,037	0,084
-183,329	219,901	-0,063	-0,072
-182,315	-200,000	-0,012	-0,096
-181,300	318,207	0,096	0,129
-180,285	25,948	-0,047	0,028
-179,271	233,296	-0,040	-0,046
-178,256	385,657	-0,065	0,096
-177,242	-170,175	0,097	0,002
-176,227	110,457	-0,052	0,045
-175,212	-51,361	0,075	0,025
-174,198	-35,517	-0,147	-0,057
-173,183	-200,000	-0,030	0,102
-172,169	122,555	-0,112	-0,100
-171,154	92,560	-0,011	-0,009
-170,139	-200,000	-0,018	0,076
-169,125	419,570	-0,072	-0,110
-168,110	-200,000	0,005	0,025
-167,096	-200,000	0,006	-0,185
-166,081	-200,000	0,033	0,115
-165,066	7,611	-0,127	-0,068
-164,052	39,431	0,065	0,041
-163,037	-200,000	-0,039	0,208
-162,023	46,345	0,062	0,041
-161,008	23,186	0,039	0,023
-159,993	-200,000	0,004	-0,050
-158,979	562,596	-0,045	-0,078
-157,964	-9,733	0,059	-0,028
-156,950	-65,868	-0,078	0,022
-155,935	-200,000	0,003	-0,033
-154,920	-46,750	0,147	0,051
-153,906	800,000	-0,050	0,124
-152,891	-32,541	0,036	0,014
-151,877	-29,411	0,072	0,029
-150,862	-64,754	0,052	-0,015
-149,847	-25,713	-0,082	-0,034
-148,833	363,380	-0,013	-0,019
-147,818	192,955	-0,094	0,101
-146,804	-142,447	-0,081	-0,006
-145,789	-200,000	-0,000	0,057
-144,775	237,394	-0,043	-0,051
-143,760	-200,000	-0,024	-0,097
-142,745	-171,629	-0,198	0,005
-141,731	-200,000	-0,002	0,021
-140,716	-142,351	-0,031	-0,002
-139,702	-200,000	0,019	0,136
-138,687	139,691	0,029	0,027
-137,672	-52,397	0,102	-0,033
-136,658	800,000	-0,006	0,017
-135,643	-5,221	-0,054	-0,026
-134,629	503,977	0,061	0,100
-133,614	299,220	0,026	0,034
-132,599	800,000	0,046	-0,144
-131,585	34,581	-0,126	0,078
-130,570	800,000	0,036	0,097
-129,556	-200,000	-0,024	-0,155
-128,541	34,851	0,057	0,035
-127,526	-81,212	0,069	-0,016
-126,512	-49,170	-0,035	-0,012
-125,497	-38,367	0,175	0,066
-124,483	224,497	0,039	-0,045
-123,468	-70,634	-0,078	0,021
-122,453	800,000	0,055	0,127
-121,439	-140,898	-0,099	0,007
-120,424	120,762	0,094	-0,083
