DTS Sentinel unit serial number:	SN410029Multiplexer serial number:	ORYXHardware model number:	OX2-SRSoftware version number:	ORYX F/W v4,00 Oryx Data Collector v3.7.2.0data status	okinstallation	BH3 CH2differential loss correction	single-endedforward channel	channel 2reverse channel	N/Adate	2023/12/05time	23:12:28forward acquisition time	300,00reverse acquisition time	0,00gamma	499,1914k internal	0,3195k external	0,3195temperature offset calibration	1,0000default loss term (dB/km)	0,3820temperature slope calibration	1,0000multiplexer offset coefficient	1,0000multiplexer slope coefficient	1,0000fibre end	0,00T internal ref (°C)	9,68T ext. ref 1 (°C)	-5,43T ext. ref 2 (°C)	-5,52length (m)	temperature (°C)	Stokes	anti-Stokes-744,400	-40,668	-0,163	0,061
-743,385	83,344	-0,206	0,163
-742,371	67,113	0,050	0,037
-741,356	-69,451	-0,303	0,084
-740,342	-8,269	0,015	0,007
-739,327	28,947	-0,280	0,173
-738,312	162,467	0,056	-0,058
-737,298	-151,146	-0,300	-0,016
-736,283	-160,750	0,041	0,002
-735,269	-87,913	-0,123	-0,027
-734,254	656,653	-0,081	-0,152
-733,239	-131,612	-0,351	0,033
-732,225	800,000	-0,037	-0,096
-731,210	-89,064	0,094	-0,020
-730,196	127,314	-0,057	0,053
-729,181	338,787	-0,079	-0,113
-728,167	800,000	-0,044	0,108
-727,152	-14,430	0,144	-0,067
-726,137	14,043	-0,172	-0,097
-725,123	-150,768	-0,078	-0,004
-724,108	800,000	-0,069	-0,146
-723,094	800,000	-0,015	-0,042
-722,079	-82,261	-0,054	0,013
-721,064	568,101	-0,119	-0,211
-720,050	800,000	-0,021	0,050
-719,035	800,000	-0,025	-0,067
-718,021	-200,000	-0,011	-0,155
-717,006	322,108	-0,006	-0,008
-715,991	-200,000	0,011	-0,094
-714,977	141,857	0,054	-0,052
-713,962	555,205	-0,015	-0,027
-712,948	408,584	-0,029	0,044
-711,933	42,661	-0,044	0,029
-710,918	-31,842	0,032	-0,013
-709,904	151,692	0,072	-0,072
-708,889	-200,000	0,001	0,180
-707,875	-43,376	-0,185	-0,068
-706,860	-108,432	-0,044	0,007
-705,845	800,000	-0,014	0,044
-704,831	301,134	-0,080	-0,108
-703,816	-200,000	-0,021	-0,095
-702,802	76,507	-0,049	-0,037
-701,787	-200,000	-0,036	-0,129
-700,772	225,576	-0,112	-0,132
-699,758	-200,000	0,020	0,077
-698,743	35,606	0,112	0,072
-697,729	299,501	-0,052	0,069
-696,714	330,679	-0,041	0,057
-695,699	106,505	0,071	-0,061
-694,685	800,000	-0,055	-0,143
-693,670	86,816	0,050	0,040
-692,656	82,624	-0,057	0,045
-691,641	96,552	-0,062	0,052
-690,627	263,141	-0,073	-0,093
-689,612	-140,740	0,063	0,005
-688,597	-174,422	0,112	-0,002
-687,583	210,777	-0,059	-0,067
-686,568	-98,903	-0,066	-0,012
-685,554	-200,000	-0,005	0,164
-684,539	-87,999	0,086	0,019
-683,524	131,553	0,070	0,066
-682,510	-114,550	0,042	-0,006
-681,495	-200,000	0,007	0,119
-680,481	160,136	-0,066	-0,067
-679,466	89,101	-0,145	-0,117
-678,451	800,000	0,028	-0,090
-677,437	800,000	-0,010	0,031
-676,422	24,446	0,038	-0,023
-675,408	-200,000	0,006	-0,054
-674,393	-200,000	0,019	0,102
-673,378	-11,532	-0,169	-0,080
-672,364	800,000	-0,040	-0,091
-671,349	-200,000	0,022	-0,106
-670,335	58,322	-0,020	-0,014
-669,320	81,183	0,134	0,105
-668,305	577,175	-0,025	-0,044
-667,291	800,000	-0,050	-0,137
-666,276	-200,000	-0,012	-0,037
-665,262	51,947	-0,082	0,056
-664,247	67,764	-0,050	0,037
-663,232	33,786	0,071	0,045
-662,218	-20,591	0,044	0,020
-661,203	341,913	0,069	-0,098
-660,189	800,000	0,017	0,053
-659,174	159,467	0,074	-0,075
-658,159	155,839	-0,042	-0,042
-657,145	-200,000	0,037	-0,121
-656,130	-131,919	-0,042	-0,004
-655,116	150,871	0,046	-0,046
-654,101	-21,336	-0,037	-0,016
-653,086	124,540	0,098	0,090
-652,072	-200,000	0,011	-0,055
-651,057	-146,138	-0,140	0,009
-650,043	-200,000	-0,004	-0,138
-649,028	-181,887	-0,061	-0,001
-648,014	258,885	-0,044	-0,055
-646,999	171,214	0,040	0,041
-645,984	-200,000	-0,007	-0,052
-644,970	-30,161	-0,043	0,018
-643,955	800,000	-0,037	-0,079
-642,941	259,382	-0,149	-0,187
-641,926	800,000	0,020	0,054
-640,911	-101,792	0,084	0,015
-639,897	72,986	0,092	0,070
-638,882	800,000	-0,015	0,041
-637,868	-200,000	-0,002	-0,015
-636,853	-200,000	-0,023	-0,075
-635,838	-135,123	-0,064	0,005
-634,824	-48,841	-0,056	-0,019
-633,809	4,430	0,096	-0,051
-632,795	-96,762	0,109	-0,021
-631,780	800,000	-0,037	0,110
-630,765	72,933	0,030	0,023
-629,751	331,996	0,072	0,101
-628,736	92,706	-0,108	0,088
-627,722	-200,000	-0,027	-0,105
-626,707	400,314	0,089	0,136
-625,692	-147,684	-0,120	0,007
-624,678	81,193	0,058	0,046
-623,663	-89,959	-0,130	0,027
-622,649	-53,219	-0,123	-0,041
-621,634	389,860	-0,020	0,031
-620,619	31,702	0,024	0,015
-619,605	38,458	0,073	-0,047
-618,590	-200,000	-0,001	0,115
-617,576	56,115	-0,035	0,025
-616,561	800,000	0,022	-0,060
-615,546	-200,000	-0,022	-0,157
-614,532	336,986	-0,081	0,115
-613,517	203,820	0,028	-0,032
-612,503	800,000	-0,020	-0,059
-611,488	70,702	-0,054	-0,041
-610,474	53,954	0,080	0,055
-609,459	-48,343	-0,056	-0,019
-608,444	-200,000	-0,091	-0,295
-607,430	-71,659	-0,097	-0,026
-606,415	448,229	-0,071	-0,114
-605,401	-42,447	-0,027	0,010
-604,386	-20,136	0,040	-0,018
-603,371	26,797	0,035	-0,021
-602,357	-59,308	-0,025	0,008
-601,342	800,000	0,031	0,074
-600,328	800,000	0,006	-0,017
-599,313	-200,000	0,000	-0,141
-598,298	-70,040	0,046	-0,013
-597,284	-118,694	-0,059	-0,007
-596,269	-125,602	0,083	0,009
-595,255	644,803	0,045	0,084
-594,240	-88,025	-0,045	0,010
-593,225	800,000	-0,065	-0,157
-592,211	-178,805	-0,183	0,003
-591,196	66,303	-0,135	-0,099
-590,182	45,513	0,051	0,034
-589,167	605,212	-0,079	0,143
-588,152	-200,000	0,011	0,078
-587,138	800,000	0,027	0,083
-586,123	800,000	-0,047	0,144
-585,109	-200,000	-0,013	-0,075
-584,094	-96,319	-0,026	-0,005
-583,079	-200,000	-0,012	-0,104
-582,065	468,142	0,054	-0,088
-581,050	-200,000	0,004	0,113
-580,036	-109,984	0,203	-0,030
-579,021	-38,786	-0,091	0,035
-578,006	-200,000	0,017	-0,164
-576,992	71,055	0,074	0,056
-575,977	127,943	0,141	0,130
-574,963	427,718	0,049	-0,077
-573,948	795,038	-0,034	0,068
-572,934	-200,000	-0,012	0,072
-571,919	126,626	-0,063	-0,058
-570,904	129,308	-0,039	-0,036
-569,890	800,000	-0,052	0,130
-568,875	495,668	-0,025	0,042
-567,861	-23,605	-0,029	-0,012
-566,846	-200,000	0,021	-0,118
-565,831	-200,000	-0,017	-0,086
-564,817	214,728	0,045	-0,052
-563,802	-200,000	-0,017	-0,074
-562,788	314,378	-0,016	-0,022
-561,773	-188,375	0,020	-0,000
-560,758	269,474	0,038	0,049
-559,744	121,694	-0,046	-0,041
-558,729	-177,624	-0,070	-0,001
-557,715	43,462	0,108	-0,071
-556,700	216,145	-0,039	0,045
-555,685	-121,738	0,140	0,017
-554,671	-200,000	0,003	0,073
-553,656	-200,000	0,009	-0,088
-552,642	-70,093	-0,013	0,003
-551,627	-55,489	-0,082	0,026
-550,612	80,925	0,069	0,054
-549,598	-200,000	0,022	0,105
-548,583	128,069	-0,103	-0,095
-547,569	-166,147	0,049	-0,001
-546,554	-149,136	0,112	-0,006
-545,539	135,250	-0,060	0,056
-544,525	78,009	-0,064	0,050
-543,510	-4,797	0,043	-0,021
-542,496	107,166	-0,077	-0,066
-541,481	247,622	0,057	0,069
-540,466	197,032	-0,069	0,076
-539,452	121,017	0,043	-0,039
-538,437	289,940	-0,047	0,062
-537,423	-83,751	0,004	-0,001
-536,408	800,000	0,055	-0,118
-535,393	107,413	-0,126	-0,108
-534,379	800,000	0,073	-0,158
-533,364	103,839	-0,105	-0,089
-532,350	-138,623	0,033	-0,003
-531,335	800,000	-0,030	-0,061
-530,321	-111,463	-0,076	0,011
-529,306	42,446	-0,046	-0,030
-528,291	52,212	-0,107	-0,074
-527,277	-195,903	0,079	-0,000
-526,262	-48,809	-0,253	-0,087
-525,248	-200,000	0,004	-0,020
-524,233	-200,000	-0,023	0,173
-523,218	-200,000	0,085	0,000
-522,204	800,000	0,024	0,054
-521,189	-74,370	-0,095	0,025
-520,175	-80,363	0,036	0,009
-519,160	206,221	0,047	0,053
-518,145	-200,000	0,008	0,058
-517,131	-56,597	0,019	-0,006
-516,116	-73,062	0,062	-0,016
-515,102	-200,000	-0,034	-0,196
-514,087	-29,920	-0,129	0,053
-513,072	800,000	0,083	-0,174
-512,058	20,836	0,082	0,048
-511,043	-99,230	-0,041	0,007
-510,029	-104,077	0,129	-0,022
-509,014	-175,521	0,058	0,001
-507,999	263,499	-0,031	0,039
-506,985	-200,000	0,009	0,031
-505,970	-59,120	0,044	-0,014
-504,956	-51,060	-0,115	0,039
-503,941	-200,000	-0,031	0,117
-502,926	330,688	0,100	0,140
-501,912	-200,000	-0,002	0,081
-500,897	-140,671	-0,042	0,003
-499,883	42,346	0,081	-0,053
-498,868	356,983	-0,073	-0,106
-497,853	-200,000	-0,019	-0,076
-496,839	-63,972	0,046	0,014
-495,824	43,541	0,052	0,034
-494,810	79,186	-0,045	0,035
-493,795	-86,279	-0,101	-0,022
-492,781	-119,240	-0,085	-0,011
-491,766	-40,710	0,088	0,033
-490,751	347,867	-0,070	0,100
-489,737	61,490	-0,072	-0,052
-488,722	-19,699	-0,051	-0,023
-487,708	-200,000	-0,004	0,111
-486,693	82,807	0,054	-0,042
-485,678	-200,000	0,007	-0,060
-484,664	-200,000	0,037	-0,203
-483,649	-200,000	0,013	-0,193
-482,635	-109,037	0,103	0,016
-481,620	264,522	0,058	-0,073
-480,605	141,278	0,137	0,131
-479,591	800,000	-0,022	0,058
-478,576	-200,000	0,006	0,153
-477,562	12,913	0,051	0,028
-476,547	-200,000	-0,031	-0,116
-475,532	606,903	0,064	-0,115
-474,518	285,975	-0,045	-0,059
-473,503	4,950	0,146	0,077
-472,489	-159,714	-0,157	-0,006
-471,474	-200,000	-0,011	0,059
-470,459	800,000	0,058	-0,176
-469,445	293,963	-0,113	-0,149
-468,430	371,379	0,061	-0,089
-467,416	-43,671	-0,061	-0,022
-466,401	-111,111	0,068	0,010
-465,386	82,173	-0,099	-0,078
-464,372	429,443	-0,080	0,124
-463,357	312,661	-0,038	0,052
-462,343	-55,116	0,062	-0,020
-461,328	65,066	-0,107	-0,078
-460,313	-117,059	-0,103	0,013
-459,299	800,000	0,027	-0,072
-458,284	-200,000	-0,000	-0,115
-457,270	92,313	-0,042	-0,034
-456,255	-200,000	0,006	0,065
-455,241	-105,402	-0,129	-0,021
-454,226	-163,543	-0,083	-0,003
-453,211	800,000	0,011	0,027
-452,197	-124,333	0,059	-0,007
-451,182	-154,475	-0,076	-0,004
-450,168	-77,098	-0,030	0,008
-449,153	574,631	0,053	0,094
-448,138	-142,434	-0,130	0,009
-447,124	-133,387	-0,090	-0,008
-446,109	40,547	-0,078	0,051
-445,095	323,611	-0,060	0,082
-444,080	-167,148	0,100	-0,003
-443,065	-177,289	-0,082	-0,001
-442,051	-200,000	-0,009	0,071
-441,036	800,000	-0,013	0,027
-440,022	-118,352	-0,081	0,010
-439,007	800,000	0,013	-0,026
-437,992	-200,000	-0,018	-0,080
-436,978	-73,967	0,112	0,029
-435,963	42,995	0,069	0,045
-434,949	171,928	-0,068	0,070
-433,934	-200,000	-0,019	-0,180
-432,919	-200,000	-0,010	-0,124
-431,905	800,000	-0,034	-0,067
-430,890	-34,771	0,139	0,055
-429,876	-93,323	0,203	0,040
-428,861	-170,776	0,157	-0,004
-427,846	-200,000	-0,013	-0,083
-426,832	44,466	-0,101	-0,067
-425,817	-99,128	-0,039	0,007
-424,803	-36,766	-0,100	0,039
-423,788	-2,655	0,112	0,056
-422,773	761,470	0,028	0,055
-421,759	-200,000	-0,022	0,102
-420,744	800,000	-0,055	-0,120
-419,730	258,646	-0,076	0,094
-418,715	-200,000	0,007	0,107
-417,701	800,000	-0,042	-0,113
-416,686	-200,000	0,033	0,124
-415,671	-16,086	0,057	-0,026
-414,657	-57,345	0,079	-0,025
-413,642	800,000	-0,035	0,071
-412,628	-200,000	-0,042	-0,000
-411,613	353,304	0,024	-0,034
-410,598	-153,264	0,083	0,004
-409,584	53,560	-0,032	0,022
-408,569	-24,480	0,167	0,071
-407,555	-135,450	-0,039	-0,003
-406,540	-200,000	-0,038	0,130
-405,525	-200,000	0,017	0,129
-404,511	118,850	0,058	-0,051
-403,496	800,000	0,033	0,070
-402,482	800,000	-0,016	-0,033
-401,467	-25,276	-0,077	0,033
-400,452	133,180	0,129	0,120
-399,438	-146,060	0,090	0,006
-398,423	345,723	-0,068	-0,096
-397,409	755,801	0,040	-0,078
-396,394	-200,000	0,006	-0,024
-395,379	-200,000	0,038	-0,198
-394,365	-200,000	-0,006	-0,108
-393,350	144,693	0,073	0,070
-392,336	109,451	-0,112	0,097
-391,321	-200,000	-0,026	0,117
-390,306	-97,890	0,037	-0,007
-389,292	800,000	-0,039	0,085
-388,277	-44,013	0,138	-0,049
-387,263	-200,000	0,036	0,165
-386,248	399,590	-0,069	-0,104
-385,233	367,992	-0,056	-0,082
-384,219	-119,559	0,035	-0,004
-383,204	800,000	-0,025	0,075
-382,190	441,403	-0,051	-0,081
-381,175	320,849	-0,070	0,096
-380,160	304,210	0,073	0,097
-379,146	-200,000	-0,002	0,084
-378,131	-200,000	0,020	0,128
-377,117	-37,392	0,036	-0,014
-376,102	328,717	-0,054	-0,075
-375,088	-179,285	0,053	-0,001
-374,073	-121,230	0,024	-0,003
-373,058	480,359	-0,053	-0,087
-372,044	-169,580	-0,072	-0,002
-371,029	312,337	0,121	0,163
-370,015	-200,000	0,015	-0,061
-369,000	800,000	-0,053	0,134
-367,985	260,050	0,036	0,044
-366,971	-8,541	-0,025	-0,012
-365,956	-9,170	0,033	-0,016
-364,942	800,000	0,080	0,164
-363,927	120,975	0,048	-0,043
-362,912	800,000	-0,030	-0,094
-361,898	120,553	-0,054	-0,049
-360,883	-27,908	-0,160	-0,066
-359,869	-200,000	0,020	0,066
-358,854	-99,814	0,199	0,035
-357,839	-98,948	0,068	-0,012
-356,825	800,000	-0,018	0,052
-355,810	219,916	0,076	-0,088
-354,796	-11,441	-0,032	0,015
-353,781	156,044	0,093	-0,092
-352,766	129,668	0,009	-0,009
-351,752	800,000	-0,028	0,075
-350,737	396,483	-0,033	0,049
-349,723	299,113	0,101	0,134
-348,708	800,000	-0,055	-0,142
-347,693	23,874	-0,025	0,015
-346,679	800,000	-0,042	-0,099
-345,664	-60,530	-0,078	-0,024
-344,650	-77,746	0,065	-0,016
-343,635	99,686	0,038	-0,032
-342,620	-200,000	-0,025	0,183
-341,606	131,013	0,142	0,131
-340,591	-65,815	0,107	-0,030
-339,577	-120,559	-0,029	-0,003
-338,562	188,766	-0,126	-0,136
-337,548	344,983	-0,030	-0,043
-336,533	-15,511	-0,047	0,022
-335,518	-200,000	0,001	0,087
-334,504	-200,000	0,003	0,054
-333,489	123,903	-0,083	0,075
-332,475	187,431	0,091	-0,097
-331,460	-200,000	0,007	-0,139
-330,445	-200,000	-0,022	-0,078
-329,431	121,493	0,074	0,066
-328,416	-200,000	-0,006	0,143
-327,402	70,937	0,148	0,110
-326,387	-23,031	-0,142	0,061
-325,372	168,687	-0,087	0,089
-324,358	-13,378	0,046	-0,021
-323,343	26,985	0,030	0,018
-322,329	-200,000	0,015	0,153
-321,314	-200,000	-0,007	-0,059
-320,299	-3,088	0,036	0,018
-319,285	276,285	0,034	-0,043
-318,270	-75,222	-0,115	-0,029
-317,256	191,140	0,036	-0,039
-316,241	-49,016	-0,072	-0,025
-315,226	511,960	-0,074	0,124
-314,212	-128,407	0,109	-0,011
-313,197	-127,226	0,073	-0,008
-312,183	-67,621	-0,110	-0,031
-311,168	660,139	-0,051	-0,095
-310,153	-63,864	-0,206	-0,060
-309,139	300,549	0,067	-0,089
-308,124	126,034	-0,069	0,062
-307,110	-8,556	0,052	0,025
-306,095	100,329	0,030	0,025
-305,080	800,000	0,053	0,109
-304,066	-200,000	-0,001	-0,056
-303,051	-200,000	-0,016	-0,246
-302,037	132,521	-0,138	-0,128
-301,022	265,857	0,046	-0,057
-300,008	-200,000	-0,012	0,125
-298,993	248,308	0,082	0,100
-297,978	225,399	-0,074	0,085
-296,964	790,489	-0,049	0,097
-295,949	-19,356	0,101	-0,045
-294,935	-47,448	-0,142	-0,049
-293,920	-200,000	0,005	0,023
-292,905	-162,372	0,099	0,003
-291,891	-16,247	-0,098	-0,045
-290,876	423,779	0,030	-0,047
-289,862	-189,729	-0,018	0,000
-288,847	800,000	0,059	-0,160
-287,832	800,000	-0,018	-0,058
-286,818	-106,809	0,092	0,014
-285,803	18,299	0,149	0,085
-284,789	-101,983	-0,088	0,015
-283,774	800,000	0,022	-0,064
-282,759	7,127	-0,078	-0,042
-281,745	-141,640	0,014	0,001
-280,730	199,836	-0,055	-0,060
-279,716	800,000	-0,029	-0,092
-278,701	15,483	0,090	0,050
-277,686	-200,000	-0,011	-0,054
-276,672	-200,000	0,039	-0,174
-275,657	774,197	-0,030	-0,059
-274,643	-200,000	-0,026	0,097
-273,628	5,259	0,133	-0,070
-272,613	121,188	-0,173	0,154
-271,599	-72,945	-0,035	0,009
-270,584	459,379	0,055	0,088
-269,570	8,126	-0,112	0,060
-268,555	-91,339	-0,111	-0,022
-267,540	462,495	0,096	-0,153
-266,526	-200,000	0,014	-0,132
-265,511	32,224	-0,018	0,011
-264,497	-139,477	0,103	0,008
-263,482	-200,000	-0,010	-0,039
-262,467	800,000	0,085	-0,216
-261,453	800,000	-0,030	0,076
-260,438	207,141	0,030	0,033
-259,424	800,000	-0,041	-0,098
-258,409	56,741	0,071	0,050
-257,395	44,649	-0,085	-0,056
-256,380	376,038	0,088	0,128
-255,365	70,480	-0,012	-0,009
-254,351	99,296	-0,042	-0,035
-253,336	-200,000	-0,005	-0,165
-252,322	-200,000	-0,015	-0,086
-251,307	-139,732	0,133	0,010
-250,292	-32,409	0,056	-0,022
-249,278	-81,512	0,157	-0,037
-248,263	800,000	-0,062	0,155
-247,249	66,770	0,036	0,026
-246,234	-200,000	-0,024	-0,089
-245,219	-200,000	0,002	0,022
-244,205	48,423	-0,158	-0,106
-243,190	-119,210	0,218	-0,027
-242,176	247,696	0,055	0,067
-241,161	-26,486	0,026	-0,011
-240,146	800,000	0,021	-0,062
-239,132	-75,488	-0,004	-0,001
-238,117	-84,664	-0,127	0,028
-237,103	170,123	-0,048	0,049
-236,088	3,510	0,115	-0,060
-235,073	737,005	0,011	-0,022
-234,059	-200,000	-0,018	0,105
-233,044	41,282	0,029	-0,019
-232,030	-49,651	-0,023	-0,008
-231,015	199,178	-0,018	-0,020
-230,000	-161,062	0,180	-0,007
-228,986	-200,000	0,005	0,041
-227,971	-200,000	0,022	0,090
-226,957	-85,288	0,130	0,029
-225,942	184,891	0,053	0,056
-224,927	73,841	0,038	-0,029
-223,913	98,231	-0,075	-0,062
-222,898	-200,000	-0,013	-0,190
-221,884	-118,407	-0,109	-0,014
-220,869	-39,274	0,103	0,038
-219,855	-177,015	-0,050	-0,001
-218,840	582,418	0,052	0,092
-217,825	800,000	-0,060	0,179
-216,811	800,000	0,040	0,103
-215,796	128,492	-0,113	0,103
-214,782	176,049	0,034	-0,036
-213,767	-200,000	-0,027	-0,100
-212,752	-141,423	0,113	0,008
-211,738	-131,364	0,157	0,015
-210,723	800,000	0,015	-0,034
-209,709	327,017	0,079	-0,108
-208,694	8,989	0,138	-0,074
-207,679	14,260	-0,019	-0,010
-206,665	-17,987	-0,042	0,019
-205,650	114,201	0,057	-0,049
-204,636	148,686	0,044	0,043
-203,621	-200,000	0,009	0,075
-202,606	-200,000	-0,010	-0,075
-201,592	646,235	0,025	-0,045
-200,577	70,353	0,098	0,072
-199,563	-28,137	0,072	0,029
-198,548	46,884	-0,088	-0,058
-197,533	168,405	-0,066	0,067
-196,519	115,399	0,045	0,039
-195,504	222,016	-0,051	-0,059
-194,490	4,197	-0,159	0,083
-193,475	-200,000	0,007	-0,155
-192,460	-45,638	-0,087	-0,031
-191,446	363,707	0,085	0,122
-190,431	800,000	0,048	0,140
-189,417	-200,000	0,008	0,067
-188,402	-200,000	0,007	0,097
-187,387	-200,000	-0,023	-0,086
-186,373	190,284	-0,110	-0,118
-185,358	164,505	-0,041	0,041
-184,344	-200,000	0,004	0,152
-183,329	61,268	0,153	0,108
-182,315	-200,000	-0,018	0,089
-181,300	-126,367	-0,181	0,019
-180,285	-13,676	0,088	0,041
-179,271	-200,000	0,023	-0,089
-178,256	-200,000	-0,001	0,024
-177,242	60,414	0,071	-0,050
-176,227	370,072	0,048	0,069
-175,212	-200,000	0,036	0,147
-174,198	-200,000	0,001	0,115
-173,183	120,705	-0,058	0,052
-172,169	24,441	0,149	0,088
-171,154	250,680	0,013	-0,016
-170,139	67,987	-0,046	-0,033
-169,125	800,000	-0,059	0,133
-168,110	169,064	-0,040	-0,041
-167,096	800,000	0,046	0,126
-166,081	-200,000	-0,006	0,025
-165,066	-186,111	-0,168	0,002
-164,052	182,391	-0,045	-0,047
-163,037	-117,352	0,044	-0,006
-162,023	-200,000	0,018	0,058
-161,008	26,163	0,083	-0,049
-159,993	800,000	0,008	-0,018
-158,979	-6,902	0,066	0,032
-157,964	800,000	-0,024	-0,062
-156,950	-16,626	-0,065	0,029
-155,935	32,724	-0,091	0,056
-154,920	-102,651	0,096	-0,016
-153,906	123,843	-0,036	0,032
-152,891	47,759	0,052	0,034
-151,877	400,100	0,075	-0,112
-150,862	-31,575	-0,038	-0,015
-149,847	-200,000	-0,000	-0,045
-148,833	800,000	-0,024	-0,066
-147,818	-200,000	0,019	0,077
-146,804	539,608	0,022	-0,038
-145,789	-107,527	0,068	-0,011
-144,775	-108,211	-0,080	0,012
-143,760	-200,000	0,014	-0,068
-142,745	800,000	-0,031	0,083
-141,731	-68,212	0,096	-0,026
-140,716	43,128	-0,048	-0,031
-139,702	-200,000	-0,000	0,059
-138,687	-66,685	0,125	0,035
-137,672	-27,909	0,119	0,049
-136,658	-154,125	0,098	-0,005
-135,643	800,000	-0,007	-0,023
-134,629	19,156	-0,138	0,078
-133,614	-200,000	0,003	-0,016
-132,599	-82,436	0,081	-0,018
-131,585	645,159	0,055	0,101
-130,570	82,401	0,109	-0,084
-129,556	-99,592	0,032	-0,006
-128,541	311,239	-0,106	-0,141
-127,526	161,967	-0,022	-0,022
-126,512	473,525	0,060	0,097
-125,497	-87,019	0,130	0,028
-124,483	235,891	0,062	0,073
-123,468	-158,280	0,104	0,004
-122,453	-117,256	-0,243	0,031
-121,439	578,556	-0,062	-0,108
-120,424	246,250	0,043	-0,052
