DTS Sentinel unit serial number:	SN410029Multiplexer serial number:	ORYXHardware model number:	OX2-SRSoftware version number:	ORYX F/W v4,00 Oryx Data Collector v3.7.2.0data status	okinstallation	BH3 CH2differential loss correction	single-endedforward channel	channel 2reverse channel	N/Adate	2023/12/05time	14:52:28forward acquisition time	300,00reverse acquisition time	0,00gamma	499,1914k internal	0,3193k external	0,3193temperature offset calibration	1,0000default loss term (dB/km)	0,3820temperature slope calibration	1,0000multiplexer offset coefficient	1,0000multiplexer slope coefficient	1,0000fibre end	0,00T internal ref (°C)	10,94T ext. ref 1 (°C)	-3,22T ext. ref 2 (°C)	-3,33length (m)	temperature (°C)	Stokes	anti-Stokes-744,400	552,980	-0,073	-0,129
-743,385	219,759	-0,061	0,072
-742,371	800,000	-0,061	-0,135
-741,356	15,890	-0,213	0,122
-740,342	-200,000	0,010	-0,071
-739,327	195,722	-0,111	0,123
-738,312	800,000	0,031	-0,081
-737,298	-6,631	-0,160	0,079
-736,283	800,000	-0,058	-0,169
-735,269	51,705	-0,214	0,148
-734,254	-200,000	0,013	-0,184
-733,239	-131,871	-0,357	0,034
-732,225	-76,460	0,178	-0,045
-731,210	419,006	0,134	0,209
-730,196	140,427	-0,103	0,099
-729,181	756,508	0,023	-0,046
-728,167	-2,743	0,090	-0,046
-727,152	-46,190	0,105	0,038
-726,137	-16,591	-0,133	-0,061
-725,123	-145,974	-0,021	-0,001
-724,108	13,318	-0,148	0,083
-723,094	-115,791	-0,162	0,022
-722,079	352,840	0,081	0,117
-721,064	-58,461	0,068	0,021
-720,050	-200,000	-0,004	0,070
-719,035	147,919	-0,044	0,044
-718,021	-119,176	-0,088	-0,011
-717,006	-79,426	-0,092	-0,022
-715,991	800,000	0,044	0,114
-714,977	122,485	-0,034	0,031
-713,962	251,510	-0,069	-0,086
-712,948	239,251	-0,027	-0,033
-711,933	-200,000	-0,013	-0,086
-710,918	108,705	-0,090	0,079
-709,904	23,434	-0,146	-0,087
-708,889	-116,176	-0,020	-0,003
-707,875	-115,715	-0,118	-0,016
-706,860	800,000	-0,039	-0,097
-705,845	-60,412	0,077	-0,024
-704,831	43,826	0,102	-0,068
-703,816	-68,534	-0,032	-0,009
-702,802	-200,000	-0,022	-0,075
-701,787	-200,000	0,007	-0,071
-700,772	481,565	0,044	-0,073
-699,758	469,903	0,075	0,123
-698,743	420,191	-0,066	0,103
-697,729	800,000	-0,031	-0,072
-696,714	3,537	0,163	0,086
-695,699	128,714	-0,092	-0,086
-694,685	29,386	0,032	-0,019
-693,670	685,714	-0,020	-0,038
-692,656	-166,183	-0,094	-0,003
-691,641	-200,000	0,075	-0,261
-690,627	407,847	-0,098	0,152
-689,612	-200,000	0,025	0,155
-688,597	-136,047	-0,100	-0,008
-687,583	136,350	0,051	-0,048
-686,568	-34,633	-0,066	0,026
-685,554	158,859	0,076	-0,077
-684,539	724,444	0,052	0,101
-683,524	-200,000	-0,005	0,184
-682,510	-200,000	0,012	0,088
-681,495	-91,777	-0,085	0,017
-680,481	636,692	0,022	-0,041
-679,466	9,208	-0,232	-0,127
-678,451	-62,907	0,092	-0,028
-677,437	30,669	0,122	-0,076
-676,422	800,000	0,004	-0,009
-675,408	400,308	0,054	-0,083
-674,393	611,388	0,052	-0,095
-673,378	800,000	-0,094	-0,227
-672,364	-200,000	-0,033	-0,125
-671,349	176,366	-0,064	-0,068
-670,335	278,212	-0,047	-0,060
-669,320	-105,982	0,063	0,010
-668,305	-200,000	0,004	0,160
-667,291	-162,023	-0,069	0,002
-666,276	45,803	-0,067	-0,045
-665,262	-93,405	-0,066	0,013
-664,247	199,672	0,029	-0,032
-663,232	-89,900	0,061	0,013
-662,218	-119,979	-0,031	-0,004
-661,203	-200,000	0,019	0,154
-660,189	-200,000	0,003	0,253
-659,174	-200,000	-0,022	0,126
-658,159	13,994	0,008	-0,004
-657,145	-106,337	-0,138	0,022
-656,130	-9,891	0,078	-0,038
-655,116	422,663	-0,080	0,126
-654,101	-200,000	-0,013	-0,076
-653,086	-32,606	-0,003	-0,001
-652,072	-151,532	0,085	0,005
-651,057	49,765	-0,109	-0,075
-650,043	486,969	0,049	-0,082
-649,028	800,000	0,020	-0,046
-648,014	-0,376	-0,055	-0,028
-646,999	-200,000	0,009	0,100
-645,984	-200,000	-0,001	0,039
-644,970	36,989	-0,116	0,074
-643,955	-200,000	-0,009	-0,065
-642,941	350,022	-0,048	-0,070
-641,926	190,591	-0,035	-0,039
-640,911	29,785	-0,137	0,085
-639,897	-53,541	0,078	0,026
-638,882	12,542	-0,087	-0,048
-637,868	-31,711	0,175	0,071
-636,853	210,934	-0,117	-0,134
-635,838	122,734	0,061	-0,056
-634,824	-70,966	-0,082	-0,022
-633,809	-87,938	-0,071	-0,015
-632,795	800,000	-0,022	0,049
-631,780	579,751	0,077	-0,138
-630,765	-118,452	-0,171	-0,022
-629,751	-200,000	-0,028	-0,159
-628,736	-200,000	0,008	0,035
-627,722	-200,000	0,024	-0,175
-626,707	437,858	0,045	-0,072
-625,692	-161,910	0,139	-0,005
-624,678	-39,019	0,071	-0,027
-623,663	-200,000	0,015	-0,121
-622,649	38,911	-0,075	-0,048
-621,634	-200,000	-0,020	-0,082
-620,619	-114,088	-0,030	-0,004
-619,605	96,060	-0,050	-0,042
-618,590	800,000	0,061	-0,139
-617,576	-103,465	-0,074	-0,012
-616,561	-200,000	-0,007	-0,053
-615,546	594,391	0,044	-0,078
-614,532	800,000	-0,022	-0,049
-613,517	800,000	-0,063	-0,133
-612,503	-52,934	0,056	0,018
-611,488	-49,944	-0,012	-0,004
-610,474	-43,460	0,039	-0,014
-609,459	-104,901	-0,212	0,035
-608,444	-45,743	0,011	-0,004
-607,430	800,000	-0,018	-0,043
-606,415	355,712	-0,108	0,156
-605,401	324,247	0,042	0,059
-604,386	44,270	0,001	-0,001
-603,371	667,644	-0,020	-0,037
-602,357	46,623	0,120	0,081
-601,342	142,074	0,058	0,056
-600,328	116,491	-0,029	-0,026
-599,313	-200,000	-0,021	-0,089
-598,298	-23,924	-0,173	0,075
-597,284	800,000	0,018	0,044
-596,269	-5,726	0,129	0,064
-595,255	209,022	0,001	-0,001
-594,240	-96,499	-0,047	-0,009
-593,225	550,242	-0,068	-0,119
-592,211	-127,639	0,047	0,005
-591,196	-3,160	-0,054	0,027
-590,182	633,426	0,043	0,080
-589,167	-200,000	-0,017	0,134
-588,152	-200,000	0,002	0,070
-587,138	800,000	-0,028	0,084
-586,123	-98,525	-0,165	-0,030
-585,109	800,000	-0,043	-0,096
-584,094	331,898	-0,059	-0,082
-583,079	-174,499	-0,094	0,002
-582,065	152,907	-0,096	0,096
-581,050	-47,166	0,070	-0,024
-580,036	221,211	-0,079	0,092
-579,021	-140,081	-0,087	0,007
-578,006	-200,000	-0,007	-0,170
-576,992	-200,000	0,012	-0,113
-575,977	180,403	0,061	0,065
-574,963	-200,000	-0,014	-0,086
-573,948	436,793	-0,014	0,023
-572,934	-200,000	-0,001	-0,045
-571,919	-200,000	-0,004	-0,061
-570,904	800,000	-0,055	-0,149
-569,890	79,515	-0,022	0,017
-568,875	800,000	-0,033	0,069
-567,861	800,000	-0,030	0,090
-566,846	-18,375	0,092	0,042
-565,831	-200,000	0,005	0,022
-564,817	-38,518	0,039	0,015
-563,802	28,520	0,045	-0,028
-562,788	741,444	-0,034	-0,067
-561,773	-183,433	0,053	-0,001
-560,758	-43,729	0,089	-0,032
-559,744	179,488	0,048	0,051
-558,729	3,442	-0,117	0,061
-557,715	23,167	-0,084	0,050
-556,700	-108,963	-0,186	-0,028
-555,685	800,000	0,017	-0,042
-554,671	448,379	-0,044	-0,071
-553,656	-200,000	0,026	0,094
-552,642	-123,557	0,157	-0,018
-551,627	53,731	-0,059	0,041
-550,612	327,282	-0,054	0,075
-549,598	307,798	-0,006	-0,009
-548,583	-200,000	-0,031	0,181
-547,569	-120,237	0,073	-0,009
-546,554	155,156	-0,068	-0,068
-545,539	-200,000	-0,005	0,018
-544,525	-48,880	0,057	0,020
-543,510	196,969	0,052	-0,057
-542,496	-200,000	0,015	-0,089
-541,481	-112,846	-0,127	0,018
-540,466	306,043	0,080	-0,107
-539,452	648,145	-0,045	0,084
-538,437	138,240	0,058	0,055
-537,423	-31,589	0,123	0,050
-536,408	-24,814	-0,118	0,051
-535,393	-200,000	-0,006	0,020
-534,379	-200,000	-0,026	0,090
-533,364	140,057	0,075	-0,071
-532,350	-154,614	0,095	0,005
-531,335	131,450	-0,077	0,071
-530,321	-11,486	0,092	0,043
-529,306	-123,283	-0,140	-0,016
-528,291	-200,000	-0,009	-0,107
-527,277	15,430	-0,008	0,005
-526,262	-23,095	0,066	-0,029
-525,248	-200,000	0,018	0,061
-524,233	-200,000	-0,001	0,120
-523,218	325,063	0,021	-0,029
-522,204	-47,809	-0,113	-0,039
-521,189	29,566	0,132	-0,081
-520,175	746,398	-0,084	-0,164
-519,160	800,000	0,030	0,065
-518,145	-200,000	0,015	0,139
-517,131	194,640	0,085	-0,094
-516,116	47,811	0,057	0,039
-515,102	-39,982	0,118	-0,044
-514,087	-200,000	0,002	-0,053
-513,072	-200,000	0,007	-0,067
-512,058	266,780	0,072	0,091
-511,043	55,611	-0,060	-0,042
-510,029	358,574	0,074	-0,107
-509,014	32,128	0,021	-0,013
-507,999	-7,757	0,065	-0,032
-506,985	-200,000	0,007	-0,047
-505,970	-71,403	0,059	0,016
-504,956	306,685	-0,047	-0,064
-503,941	-29,087	0,122	0,051
-502,926	618,719	0,030	0,055
-501,912	800,000	0,032	-0,084
-500,897	-58,137	0,083	0,026
-499,883	-57,250	-0,073	0,023
-498,868	57,717	-0,131	-0,092
-497,853	-200,000	-0,002	-0,068
-496,839	-15,564	0,174	-0,080
-495,824	-200,000	0,017	0,157
-494,810	155,397	0,060	-0,059
-493,795	-200,000	0,007	0,081
-492,781	-182,171	-0,106	0,001
-491,766	-116,857	0,021	-0,003
-490,751	800,000	0,015	0,046
-489,737	800,000	-0,042	-0,122
-488,722	348,898	0,022	0,032
-487,708	652,728	0,045	0,085
-486,693	-56,213	0,186	0,059
-485,678	-124,618	0,091	-0,010
-484,664	-43,300	-0,106	-0,039
-483,649	-200,000	0,016	0,077
-482,635	165,398	0,104	-0,106
-481,620	-200,000	0,019	0,156
-480,605	-200,000	0,013	0,116
-479,591	140,823	0,044	-0,042
-478,576	180,286	-0,040	0,042
-477,562	-161,483	0,094	0,003
-476,547	-200,000	0,001	-0,065
-475,532	-200,000	0,023	-0,149
-474,518	-200,000	0,032	-0,104
-473,503	92,055	0,082	0,067
-472,489	204,234	-0,049	0,055
-471,474	191,088	0,090	0,098
-470,459	-84,277	-0,110	0,025
-469,445	800,000	0,029	0,068
-468,430	93,468	-0,075	-0,061
-467,416	328,661	-0,032	-0,044
-466,401	93,678	0,075	-0,062
-465,386	-47,299	0,066	0,023
-464,372	800,000	-0,029	0,081
-463,357	-27,815	0,013	-0,006
-462,343	-200,000	0,031	-0,131
-461,328	161,917	-0,050	0,050
-460,313	-200,000	0,008	-0,201
-459,299	-141,438	0,115	0,008
-458,284	-7,944	-0,081	0,039
-457,270	116,053	0,088	0,077
-456,255	-200,000	0,011	-0,042
-455,241	67,163	0,111	0,081
-454,226	-200,000	0,024	-0,137
-453,211	-193,050	-0,134	0,001
-452,197	-143,989	0,173	0,012
-451,182	-2,323	-0,066	-0,033
-450,168	-200,000	0,017	0,159
-449,153	-152,899	-0,066	0,003
-448,138	488,468	-0,026	-0,042
-447,124	-15,938	0,076	-0,035
-446,109	-200,000	-0,017	-0,101
-445,095	314,690	-0,049	0,067
-444,080	754,446	0,079	0,154
-443,065	-200,000	-0,005	0,035
-442,051	-32,088	-0,166	-0,067
-441,036	41,205	-0,124	0,081
-440,022	-191,858	-0,111	-0,001
-439,007	9,079	0,025	0,013
-437,992	800,000	0,024	0,054
-436,978	13,986	0,079	0,044
-435,963	800,000	0,007	0,015
-434,949	751,453	0,021	-0,041
-433,934	65,705	0,041	-0,030
-432,919	-45,051	-0,107	-0,038
-431,905	-200,000	0,011	-0,083
-430,890	708,823	0,022	-0,043
-429,876	800,000	0,069	0,138
-428,861	41,228	0,060	0,039
-427,846	154,373	-0,049	0,048
-426,832	-46,883	-0,111	-0,039
-425,817	80,476	0,108	0,084
-424,803	165,281	0,087	0,089
-423,788	-200,000	-0,011	0,040
-422,773	4,414	0,054	-0,029
-421,759	654,783	-0,007	-0,014
-420,744	-200,000	0,019	-0,156
-419,730	-200,000	0,036	-0,159
-418,715	494,471	-0,088	-0,146
-417,701	163,961	0,052	0,052
-416,686	-102,353	0,052	0,009
-415,671	-26,547	0,090	0,038
-414,657	-200,000	0,019	-0,061
-413,642	-171,164	0,164	-0,004
-412,628	621,433	0,038	0,069
-411,613	-102,867	0,222	0,038
-410,598	-96,517	-0,078	-0,015
-409,584	724,650	-0,022	0,042
-408,569	143,796	0,038	0,037
-407,555	-10,478	0,058	-0,028
-406,540	353,410	0,050	-0,072
-405,525	-15,530	-0,062	-0,028
-404,511	-85,394	0,189	-0,042
-403,496	-185,561	0,122	-0,001
-402,482	278,739	-0,042	0,054
-401,467	-99,059	0,182	0,033
-400,452	800,000	0,030	0,086
-399,438	-33,332	0,053	0,021
-398,423	-200,000	-0,029	0,137
-397,409	259,428	0,084	-0,105
-396,394	115,123	0,033	0,029
-395,379	-170,681	-0,146	0,004
-394,365	-19,196	0,072	-0,032
-393,350	31,845	0,189	-0,117
-392,336	377,067	-0,110	0,162
-391,321	-95,770	-0,062	-0,012
-390,306	-73,649	0,051	-0,013
-389,292	-200,000	-0,002	-0,065
-388,277	-57,670	0,058	0,018
-387,263	35,847	-0,031	-0,020
-386,248	-40,455	-0,098	0,037
-385,233	176,503	0,021	-0,022
-384,219	-153,406	-0,125	0,006
-383,204	116,240	0,056	-0,049
-382,190	178,200	-0,134	-0,141
-381,175	-200,000	-0,042	-0,153
-380,160	364,121	-0,047	0,069
-379,146	-200,000	-0,001	-0,011
-378,131	101,638	0,054	-0,045
-377,117	26,458	-0,087	-0,052
-376,102	399,502	0,031	0,047
-375,088	17,864	-0,176	-0,101
-374,073	294,286	0,088	-0,116
-373,058	800,000	0,023	0,052
-372,044	800,000	0,084	0,190
-371,029	-200,000	0,006	-0,090
-370,015	546,651	-0,055	0,095
-369,000	-65,742	-0,145	0,042
-367,985	-200,000	0,037	-0,129
-366,971	-200,000	0,023	0,131
-365,956	135,294	-0,081	0,075
-364,942	-200,000	-0,021	0,140
-363,927	-121,586	-0,037	-0,004
-362,912	165,338	-0,015	-0,015
-361,898	-44,706	-0,070	0,025
-360,883	460,212	-0,072	-0,115
-359,869	-52,016	0,042	0,014
-358,854	-155,467	-0,135	-0,006
-357,839	-200,000	-0,022	0,193
-356,825	709,687	0,037	-0,070
-355,810	9,813	0,045	0,025
-354,796	-200,000	-0,019	-0,157
-353,781	131,319	-0,054	-0,050
-352,766	-100,257	0,116	-0,020
-351,752	-82,324	-0,090	0,021
-350,737	-200,000	0,021	0,105
-349,723	-83,392	0,089	-0,020
-348,708	-200,000	0,008	0,054
-347,693	14,920	0,112	0,063
-346,679	800,000	-0,034	0,068
-345,664	-104,374	-0,142	-0,023
-344,650	800,000	0,017	0,046
-343,635	6,453	-0,075	0,040
-342,620	-15,528	0,132	0,060
-341,606	800,000	0,073	0,223
-340,591	-131,556	-0,052	-0,005
-339,577	-123,835	0,046	-0,005
-338,562	-17,294	-0,134	0,060
-337,548	653,150	0,058	0,107
-336,533	365,736	0,124	0,180
-335,518	-91,917	-0,079	0,016
-334,504	-3,751	0,016	-0,008
-333,489	209,587	0,052	0,058
-332,475	38,986	-0,076	-0,049
-331,460	45,913	-0,013	0,009
-330,445	26,081	0,059	0,035
-329,431	-77,261	-0,057	0,014
-328,416	37,318	0,200	0,127
-327,402	-200,000	0,012	0,085
-326,387	-200,000	-0,001	0,079
-325,372	389,716	-0,056	-0,083
-324,358	800,000	-0,010	0,026
-323,343	-98,498	-0,088	0,016
-322,329	378,989	-0,043	-0,063
-321,314	26,842	-0,096	0,058
-320,299	800,000	-0,039	-0,122
-319,285	-200,000	-0,007	-0,050
-318,270	-200,000	0,009	0,040
-317,256	-200,000	-0,058	-0,218
-316,241	-200,000	-0,004	-0,181
-315,226	166,790	0,068	-0,069
-314,212	498,490	-0,061	0,102
-313,197	800,000	0,043	-0,094
-312,183	800,000	-0,022	0,046
-311,168	-32,081	-0,115	0,046
-310,153	-200,000	0,006	0,022
-309,139	-200,000	-0,006	0,143
-308,124	-45,772	-0,153	-0,054
-307,110	126,526	0,038	0,034
-306,095	-200,000	-0,016	0,102
-305,080	-200,000	0,001	-0,106
-304,066	-200,000	0,050	-0,177
-303,051	50,329	-0,084	-0,057
-302,037	407,497	0,036	-0,054
-301,022	-200,000	-0,002	0,141
-300,008	-200,000	0,016	0,128
-298,993	-60,031	0,089	-0,027
-297,978	-200,000	-0,026	0,087
-296,964	-76,606	0,060	0,015
-295,949	-72,800	0,105	-0,028
-294,935	403,232	-0,053	-0,081
-293,920	-43,585	0,108	0,039
-292,905	257,856	0,049	0,060
-291,891	128,794	-0,054	0,049
-290,876	144,766	-0,115	0,110
-289,862	10,977	0,033	-0,018
-288,847	-200,000	0,038	0,165
-287,832	-27,608	-0,031	0,013
-286,818	-200,000	0,025	0,229
-285,803	800,000	0,052	0,149
-284,789	-125,938	0,047	0,005
-283,774	-56,741	-0,046	-0,015
-282,759	800,000	0,034	-0,075
-281,745	190,290	-0,006	0,006
-280,730	65,309	0,119	-0,086
-279,716	800,000	-0,022	0,071
-278,701	-48,831	-0,090	0,031
-277,686	222,228	0,153	0,176
-276,672	284,541	-0,059	0,077
-275,657	116,522	-0,035	0,031
-274,643	127,875	-0,045	-0,041
-273,628	-62,004	-0,118	-0,035
-272,613	529,620	-0,059	-0,100
-271,599	218,712	0,117	-0,134
-270,584	367,766	0,051	0,074
-269,570	800,000	-0,007	0,015
-268,555	-200,000	0,033	-0,158
-267,540	800,000	0,023	-0,057
-266,526	-200,000	0,008	-0,085
-265,511	-13,932	-0,104	-0,048
-264,497	-200,000	-0,035	-0,116
-263,482	-156,089	0,185	0,008
-262,467	327,674	-0,103	0,142
-261,453	185,247	0,082	-0,087
-260,438	800,000	-0,052	-0,162
-259,424	319,239	-0,077	-0,104
-258,409	-200,000	-0,017	-0,153
-257,395	370,814	0,055	0,080
-256,380	132,233	0,050	0,046
-255,365	-69,061	-0,042	0,012
-254,351	89,942	-0,025	0,020
-253,336	63,277	0,079	0,057
-252,322	800,000	0,027	-0,067
-251,307	160,984	0,065	-0,065
-250,292	257,463	-0,033	-0,040
-249,278	387,846	0,008	0,012
-248,263	-200,000	-0,010	0,035
-247,249	43,134	-0,049	0,032
-246,234	-200,000	0,025	-0,120
-245,219	0,341	0,086	-0,044
-244,205	-28,664	-0,092	-0,038
-243,190	113,716	-0,010	0,009
-242,176	-200,000	0,011	0,069
-241,161	-200,000	-0,038	0,145
-240,146	-128,131	0,216	0,022
-239,132	-197,161	-0,170	0,001
-238,117	-35,729	-0,132	0,051
-237,103	101,673	0,057	0,048
-236,088	66,623	-0,028	-0,020
-235,073	253,262	0,077	-0,094
-234,059	800,000	0,067	0,142
-233,044	-79,443	-0,050	-0,012
-232,030	-129,433	0,023	0,002
-231,015	50,775	-0,166	-0,112
-230,000	-13,520	-0,012	0,005
-228,986	363,555	-0,097	-0,140
-227,971	-200,000	-0,026	0,126
-226,957	-200,000	-0,013	-0,061
-225,942	149,138	-0,010	0,010
-224,927	212,111	0,072	-0,081
-223,913	50,572	-0,122	0,082
-222,898	176,606	-0,082	-0,086
-221,884	-122,635	0,046	0,005
-220,869	-26,059	0,069	-0,029
-219,855	196,192	-0,125	-0,136
-218,840	746,222	-0,081	0,157
-217,825	-150,396	-0,100	-0,005
-216,811	183,404	0,026	0,028
-215,796	45,079	-0,049	0,032
-214,782	-119,064	-0,057	0,007
-213,767	-200,000	-0,024	0,099
-212,752	-67,954	-0,087	0,024
-211,738	281,369	0,011	0,014
-210,723	120,525	-0,056	0,050
-209,709	-200,000	-0,014	0,085
-208,694	50,961	-0,013	-0,009
-207,679	-200,000	-0,011	-0,043
-206,665	579,770	-0,063	-0,111
-205,650	37,296	0,082	0,052
-204,636	90,683	-0,069	-0,055
-203,621	-26,113	-0,151	-0,063
-202,606	-124,767	0,043	0,005
-201,592	-200,000	0,023	-0,176
-200,577	800,000	-0,022	0,069
-199,563	-121,400	0,105	0,012
-198,548	369,397	-0,040	0,058
-197,533	800,000	-0,040	0,124
-196,519	-200,000	0,037	0,137
-195,504	141,982	0,015	0,014
-194,490	800,000	-0,014	0,044
-193,475	306,700	0,020	-0,027
-192,460	-56,718	0,099	-0,031
-191,446	271,074	-0,063	0,080
-190,431	-141,154	0,149	0,011
-189,417	-46,370	-0,015	0,005
-188,402	596,063	0,060	0,106
-187,387	-59,137	0,063	-0,019
-186,373	111,280	0,042	-0,036
-185,358	326,921	0,048	-0,066
-184,344	-200,000	0,019	-0,067
-183,329	158,281	0,070	0,069
-182,315	219,139	-0,071	0,081
-181,300	800,000	-0,065	-0,163
-180,285	-0,937	-0,034	0,017
-179,271	-10,891	-0,059	-0,028
-178,256	-200,000	-0,020	-0,063
-177,242	800,000	-0,022	0,050
-176,227	800,000	0,023	0,071
-175,212	800,000	0,065	0,134
-174,198	-200,000	0,045	0,172
-173,183	241,546	-0,043	-0,051
-172,169	39,820	-0,093	-0,060
-171,154	-22,549	0,079	-0,034
-170,139	-174,609	0,092	0,002
-169,125	335,619	0,066	0,091
-168,110	285,165	0,042	0,055
-167,096	-200,000	0,001	-0,086
-166,081	117,802	-0,079	-0,070
-165,066	58,981	-0,084	-0,059
-164,052	429,721	-0,055	-0,085
-163,037	552,640	0,086	-0,149
-162,023	573,816	-0,037	0,064
-161,008	57,816	0,105	0,073
-159,993	-200,000	0,019	0,064
-158,979	355,006	-0,063	0,090
-157,964	-112,572	-0,073	0,010
-156,950	55,973	-0,011	-0,007
-155,935	-67,092	-0,040	-0,011
-154,920	-200,000	0,030	-0,102
-153,906	79,237	0,033	-0,025
-152,891	800,000	-0,030	-0,090
-151,877	-200,000	0,022	-0,121
-150,862	-180,413	-0,103	0,001
-149,847	217,325	-0,140	-0,159
-148,833	-87,143	0,058	-0,013
-147,818	105,331	-0,090	0,076
-146,804	-45,597	0,159	0,056
-145,789	-106,651	-0,016	-0,002
-144,775	-200,000	0,030	-0,116
-143,760	-106,763	-0,164	-0,026
-142,745	-151,174	0,062	-0,003
-141,731	123,169	-0,037	-0,033
-140,716	264,770	0,116	0,145
-139,702	-6,474	-0,055	-0,027
-138,687	-57,066	0,114	-0,035
-137,672	-200,000	-0,045	-0,148
-136,658	127,865	0,037	-0,034
-135,643	109,408	0,126	-0,107
-134,629	232,742	0,034	0,040
-133,614	-111,445	-0,037	-0,005
-132,599	-200,000	-0,007	0,069
-131,585	99,197	-0,029	0,024
-130,570	-98,655	0,044	0,008
-129,556	800,000	0,039	-0,121
-128,541	152,075	-0,008	0,008
-127,526	-28,329	-0,048	0,020
-126,512	800,000	0,037	0,105
-125,497	-86,018	0,010	0,002
-124,483	368,497	0,045	0,066
-123,468	-134,389	-0,061	0,005
-122,453	800,000	-0,065	-0,129
-121,439	88,279	-0,030	0,024
-120,424	-200,000	-0,004	0,025
-119,410	-53,244	0,188	-0,061
