DTS Sentinel unit serial number:	SN410029Multiplexer serial number:	ORYXHardware model number:	OX2-SRSoftware version number:	ORYX F/W v4,00 Oryx Data Collector v3.7.2.0data status	okinstallation	BH3 CH2differential loss correction	single-endedforward channel	channel 2reverse channel	N/Adate	2023/12/05time	16:17:28forward acquisition time	300,00reverse acquisition time	0,00gamma	499,1914k internal	0,3192k external	0,3192temperature offset calibration	1,0000default loss term (dB/km)	0,3820temperature slope calibration	1,0000multiplexer offset coefficient	1,0000multiplexer slope coefficient	1,0000fibre end	0,00T internal ref (°C)	11,06T ext. ref 1 (°C)	-3,34T ext. ref 2 (°C)	-3,56length (m)	temperature (°C)	Stokes	anti-Stokes-744,400	248,984	-0,160	-0,198
-743,385	-85,912	-0,246	0,055
-742,371	-33,187	-0,021	0,008
-741,356	262,141	-0,177	0,224
-740,342	-38,627	0,156	-0,060
-739,327	-61,819	-0,254	0,077
-738,312	314,738	-0,073	-0,100
-737,298	-8,738	-0,173	0,084
-736,283	401,661	-0,060	-0,092
-735,269	800,000	-0,057	0,134
-734,254	-35,577	-0,041	0,016
-733,239	-83,642	-0,342	-0,079
-732,225	800,000	-0,028	-0,081
-731,210	800,000	0,093	0,189
-730,196	-102,362	-0,112	-0,019
-729,181	90,927	-0,099	-0,081
-728,167	800,000	0,034	0,090
-727,152	42,755	-0,090	0,059
-726,137	-11,265	-0,207	-0,099
-725,123	-91,387	0,087	0,018
-724,108	250,167	-0,142	-0,176
-723,094	-200,000	0,033	-0,116
-722,079	-85,994	-0,139	-0,031
-721,064	80,278	0,076	-0,060
-720,050	-194,669	-0,176	-0,001
-719,035	-200,000	-0,035	-0,134
-718,021	87,480	0,099	-0,080
-717,006	29,698	-0,046	-0,029
-715,991	-200,000	-0,071	0,000
-714,977	195,491	-0,020	-0,022
-713,962	800,000	-0,019	0,051
-712,948	328,914	0,032	0,046
-711,933	273,756	0,026	0,034
-710,918	-200,000	0,007	-0,035
-709,904	-200,000	0,038	-0,136
-708,889	-10,119	-0,177	-0,086
-707,875	-100,376	-0,056	-0,010
-706,860	-110,410	0,141	-0,021
-705,845	-200,000	-0,002	-0,081
-704,831	-200,000	-0,019	0,169
-703,816	800,000	0,033	0,084
-702,802	-200,000	0,011	-0,034
-701,787	256,738	0,013	0,017
-700,772	-112,768	0,091	-0,013
-699,758	800,000	-0,088	-0,194
-698,743	292,812	0,060	0,079
-697,729	-180,715	0,090	-0,001
-696,714	-200,000	-0,002	-0,158
-695,699	657,981	0,023	-0,043
-694,685	-200,000	-0,013	0,052
-693,670	-72,507	-0,032	-0,008
-692,656	-200,000	0,006	-0,083
-691,641	-200,000	-0,006	0,021
-690,627	-200,000	-0,003	-0,020
-689,612	12,981	-0,053	0,030
-688,597	-200,000	0,001	-0,160
-687,583	-35,189	-0,061	0,024
-686,568	-17,980	-0,022	0,010
-685,554	-119,805	-0,159	-0,020
-684,539	407,464	0,021	-0,032
-683,524	707,308	0,036	0,070
-682,510	-200,000	-0,005	0,018
-681,495	685,030	0,045	-0,085
-680,481	800,000	-0,036	-0,091
-679,466	-200,000	-0,029	-0,101
-678,451	66,677	-0,115	-0,085
-677,437	210,222	0,066	0,076
-676,422	-200,000	0,000	0,042
-675,408	-200,000	-0,004	0,080
-674,393	-200,000	0,031	0,103
-673,378	157,721	-0,117	-0,117
-672,364	105,461	-0,123	-0,106
-671,349	-74,198	-0,096	-0,025
-670,335	-200,000	0,003	-0,071
-669,320	22,511	-0,051	-0,030
-668,305	116,473	0,079	0,071
-667,291	-78,274	-0,135	-0,033
-666,276	292,657	0,106	-0,141
-665,262	800,000	-0,033	-0,090
-664,247	-200,000	0,017	-0,194
-663,232	-200,000	-0,012	0,040
-662,218	-200,000	-0,020	0,152
-661,203	-200,000	-0,033	-0,146
-660,189	800,000	0,030	0,074
-659,174	260,045	-0,105	-0,132
-658,159	34,222	-0,066	-0,042
-657,145	8,167	-0,103	0,056
-656,130	-152,841	0,103	-0,005
-655,116	800,000	-0,016	0,039
-654,101	332,695	0,038	0,053
-653,086	99,691	-0,058	0,049
-652,072	-88,944	0,123	-0,026
-651,057	99,546	-0,054	-0,045
-650,043	-200,000	0,005	-0,048
-649,028	320,759	-0,013	-0,017
-648,014	800,000	-0,047	-0,149
-646,999	319,798	0,136	0,188
-645,984	10,388	-0,121	0,067
-644,970	269,236	-0,042	0,053
-643,955	4,843	-0,156	-0,083
-642,941	800,000	0,038	-0,108
-641,926	-130,936	-0,023	-0,002
-640,911	800,000	0,046	-0,129
-639,897	38,379	-0,113	0,073
-638,882	-200,000	-0,013	0,161
-637,868	477,299	0,029	0,047
-636,853	-200,000	-0,019	-0,118
-635,838	673,490	0,031	0,059
-634,824	560,647	-0,042	0,073
-633,809	183,277	0,060	0,065
-632,795	-11,466	0,167	-0,079
-631,780	576,805	0,070	-0,125
-630,765	-16,451	-0,066	0,030
-629,751	800,000	-0,016	-0,040
-628,736	6,248	0,073	0,039
-627,722	27,059	-0,048	-0,029
-626,707	-118,899	0,147	0,019
-625,692	-18,249	-0,128	0,058
-624,678	-91,648	0,099	0,020
-623,663	-104,499	-0,091	-0,015
-622,649	150,133	-0,143	-0,140
-621,634	-9,708	-0,072	-0,035
-620,619	800,000	0,010	0,025
-619,605	-79,754	0,025	0,006
-618,590	800,000	0,021	0,065
-617,576	481,160	0,059	0,097
-616,561	800,000	-0,035	-0,096
-615,546	800,000	-0,034	-0,084
-614,532	-200,000	0,012	-0,092
-613,517	-117,699	-0,125	0,016
-612,503	-200,000	0,002	0,042
-611,488	-200,000	0,011	0,059
-610,474	66,880	-0,087	-0,064
-609,459	-100,273	-0,122	-0,022
-608,444	15,045	-0,164	-0,093
-607,430	-117,608	-0,106	0,014
-606,415	800,000	-0,025	0,068
-605,401	65,886	-0,130	0,096
-604,386	-200,000	-0,016	0,060
-603,371	-18,212	0,123	0,056
-602,357	611,101	0,028	-0,052
-601,342	-166,584	0,109	0,003
-600,328	461,157	0,062	0,101
-599,313	800,000	-0,026	-0,052
-598,298	-105,922	-0,096	-0,016
-597,284	16,142	0,104	-0,059
-596,269	-200,000	0,006	-0,109
-595,255	277,047	-0,036	0,047
-594,240	118,589	0,029	-0,026
-593,225	-200,000	-0,028	-0,189
-592,211	507,126	-0,073	-0,123
-591,196	-107,964	0,097	0,015
-590,182	20,787	-0,126	-0,074
-589,167	800,000	-0,049	0,110
-588,152	-18,632	-0,075	0,034
-587,138	602,496	0,051	-0,093
-586,123	-96,257	-0,116	0,022
-585,109	800,000	0,022	-0,051
-584,094	298,051	0,023	0,030
-583,079	-14,529	0,072	0,034
-582,065	387,639	0,050	0,076
-581,050	-174,254	-0,063	-0,001
-580,036	-200,000	0,010	-0,051
-579,021	162,550	-0,041	0,041
-578,006	-1,061	-0,109	-0,056
-576,992	48,992	-0,033	-0,022
-575,977	71,927	-0,057	-0,043
-574,963	285,423	-0,149	0,195
-573,948	-123,147	0,212	0,024
-572,934	257,822	-0,077	0,096
-571,919	-38,100	-0,082	0,032
-570,904	-104,624	0,156	-0,026
-569,890	261,033	-0,033	-0,041
-568,875	655,088	0,047	-0,089
-567,861	335,095	-0,043	-0,061
-566,846	393,743	0,006	-0,008
-565,831	51,623	-0,095	0,065
-564,817	-200,000	0,019	-0,099
-563,802	-200,000	0,013	-0,111
-562,788	-159,628	-0,044	-0,002
-561,773	800,000	-0,011	-0,034
-560,758	-148,068	0,172	0,010
-559,744	-0,687	0,062	-0,032
-558,729	-29,362	0,052	-0,021
-557,715	332,063	0,034	-0,048
-556,700	-200,000	0,002	-0,009
-555,685	211,057	0,052	0,059
-554,671	-200,000	-0,026	-0,133
-553,656	123,877	0,110	0,100
-552,642	-200,000	-0,004	0,055
-551,627	-35,944	-0,089	0,035
-550,612	92,612	-0,043	0,035
-549,598	193,969	0,043	-0,047
-548,583	800,000	0,054	-0,116
-547,569	160,064	0,096	-0,097
-546,554	380,665	-0,074	-0,110
-545,539	-75,066	-0,186	0,048
-544,525	56,654	-0,125	0,088
-543,510	99,434	-0,101	0,085
-542,496	800,000	-0,047	0,101
-541,481	2,797	-0,061	0,032
-540,466	-200,000	0,003	-0,186
-539,452	51,701	0,109	0,075
-538,437	142,565	0,100	0,096
-537,423	-96,500	-0,062	0,012
-536,408	732,230	-0,038	-0,074
-535,393	-144,950	0,062	-0,004
-534,379	-200,000	0,018	-0,168
-533,364	-200,000	0,002	-0,023
-532,350	-64,565	0,110	0,032
-531,335	-123,151	0,045	0,005
-530,321	-73,789	0,070	-0,018
-529,306	123,750	0,051	-0,046
-528,291	270,654	-0,058	-0,073
-527,277	394,598	0,060	-0,091
-526,262	-56,408	0,117	-0,037
-525,248	-157,423	-0,124	0,005
-524,233	-86,409	0,166	-0,037
-523,218	-200,000	-0,010	0,067
-522,204	-103,750	-0,039	-0,007
-521,189	-200,000	0,024	-0,100
-520,175	-200,000	0,015	0,067
-519,160	-44,300	0,059	-0,021
-518,145	800,000	0,009	0,022
-517,131	-200,000	0,011	0,036
-516,116	110,929	0,078	0,068
-515,102	-200,000	0,015	-0,098
-514,087	-16,537	-0,067	-0,030
-513,072	-150,766	0,022	-0,001
-512,058	274,115	-0,053	0,068
-511,043	327,434	0,067	-0,094
-510,029	-200,000	-0,004	-0,016
-509,014	-16,120	0,104	0,048
-507,999	38,011	-0,095	0,061
-506,985	-17,497	0,104	-0,047
-505,970	331,034	0,087	-0,121
-504,956	800,000	-0,042	-0,129
-503,941	-200,000	-0,019	-0,066
-502,926	-68,523	-0,068	-0,019
-501,912	-200,000	-0,006	-0,105
-500,897	453,261	-0,056	0,090
-499,883	-51,545	-0,044	0,015
-498,868	-13,521	-0,223	-0,104
-497,853	-48,314	-0,083	-0,029
-496,839	53,977	0,063	0,044
-495,824	-200,000	-0,008	0,028
-494,810	193,202	0,036	-0,040
-493,795	-200,000	0,012	-0,046
-492,781	800,000	-0,069	-0,160
-491,766	-200,000	-0,018	-0,060
-490,751	800,000	0,027	-0,057
-489,737	-127,487	0,035	0,004
-488,722	238,552	-0,074	-0,089
-487,708	313,604	0,063	0,086
-486,693	-6,843	0,088	0,043
-485,678	246,265	-0,027	0,033
-484,664	-107,277	-0,073	0,012
-483,649	-200,000	0,027	-0,131
-482,635	79,092	-0,050	-0,039
-481,620	570,446	0,012	-0,021
-480,605	88,959	0,038	0,031
-479,591	78,465	0,070	-0,054
-478,576	-108,787	0,017	0,003
-477,562	136,556	-0,042	-0,039
-476,547	35,053	0,134	0,084
-475,532	800,000	0,033	-0,071
-474,518	-122,758	0,095	-0,011
-473,503	-53,824	0,104	0,034
-472,489	-29,925	0,072	0,029
-471,474	61,248	-0,124	0,089
-470,459	-200,000	0,019	0,109
-469,445	-200,000	0,001	0,060
-468,430	-133,945	-0,199	-0,018
-467,416	-169,513	-0,075	0,002
-466,401	-39,015	0,190	-0,072
-465,386	-200,000	0,006	0,075
-464,372	444,770	0,022	0,036
-463,357	150,981	-0,055	0,054
-462,343	800,000	-0,030	-0,072
-461,328	800,000	-0,008	-0,024
-460,313	-10,029	-0,056	-0,027
-459,299	800,000	0,042	-0,092
-458,284	-126,433	0,097	-0,010
-457,270	58,487	0,044	-0,031
-456,255	94,351	-0,125	-0,102
-455,241	307,733	0,059	0,080
-454,226	99,157	-0,066	-0,055
-453,211	31,416	-0,048	-0,030
-452,197	-109,356	0,170	0,026
-451,182	800,000	-0,039	0,114
-450,168	764,068	0,047	0,093
-449,153	-200,000	-0,006	-0,044
-448,138	25,584	-0,042	-0,025
-447,124	-77,875	-0,010	-0,002
-446,109	-200,000	0,017	-0,154
-445,095	-97,529	0,066	-0,012
-444,080	-200,000	-0,004	0,111
-443,065	800,000	-0,041	-0,093
-442,051	731,105	-0,078	-0,152
-441,036	447,836	-0,060	-0,096
-440,022	-200,000	0,010	-0,084
-439,007	-200,000	-0,036	0,122
-437,992	-200,000	-0,011	0,070
-436,978	-200,000	0,003	0,024
-435,963	-200,000	0,033	-0,119
-434,949	-200,000	-0,005	-0,020
-433,934	-39,519	-0,040	0,015
-432,919	612,292	0,119	-0,215
-431,905	800,000	-0,061	-0,171
-430,890	800,000	0,030	0,085
-429,876	800,000	0,035	0,083
-428,861	-82,901	-0,082	-0,019
-427,846	-200,000	0,005	-0,055
-426,832	-108,675	0,104	0,016
-425,817	800,000	-0,028	0,066
-424,803	800,000	-0,020	0,054
-423,788	-122,668	-0,052	0,006
-422,773	-16,970	-0,114	0,052
-421,759	340,346	0,021	0,030
-420,744	-200,000	-0,000	-0,034
-419,730	-8,594	0,053	0,025
-418,715	280,437	-0,107	-0,139
-417,701	-200,000	-0,000	-0,060
-416,686	526,179	0,040	0,068
-415,671	798,014	-0,036	0,071
-414,657	93,037	0,092	0,075
-413,642	-200,000	-0,047	0,162
-412,628	-43,793	-0,187	-0,068
-411,613	2,814	0,090	-0,047
-410,598	800,000	-0,054	0,154
-409,584	157,290	-0,103	-0,103
-408,569	-200,000	-0,010	-0,037
-407,555	248,759	-0,086	-0,105
-406,540	-128,948	-0,147	0,015
-405,525	-69,193	-0,039	-0,011
-404,511	800,000	-0,054	-0,142
-403,496	30,597	0,110	-0,067
-402,482	-200,000	0,010	-0,035
-401,467	-200,000	-0,006	0,123
-400,452	328,669	-0,101	0,139
-399,438	-30,520	-0,145	0,059
-398,423	-164,606	-0,091	0,003
-397,409	800,000	-0,040	-0,084
-396,394	-200,000	0,012	-0,093
-395,379	800,000	0,057	-0,163
-394,365	-105,126	-0,115	0,019
-393,350	800,000	0,054	0,127
-392,336	-200,000	0,001	-0,038
-391,321	800,000	0,051	0,152
-390,306	-119,450	-0,118	0,015
-389,292	-30,775	0,022	-0,009
-388,277	800,000	0,069	-0,144
-387,263	1,899	0,007	0,004
-386,248	-101,970	-0,176	0,030
-385,233	-200,000	0,001	0,106
-384,219	-200,000	0,033	0,150
-383,204	-81,791	0,131	0,031
-382,190	-158,949	-0,054	-0,002
-381,175	-103,517	-0,156	-0,026
-380,160	-200,000	0,035	0,135
-379,146	-41,185	0,120	0,044
-378,131	-97,680	0,088	-0,016
-377,117	13,905	-0,056	0,031
-376,102	-200,000	-0,004	-0,029
-375,088	-200,000	0,003	0,037
-374,073	-35,911	0,045	-0,017
-373,058	800,000	-0,061	-0,183
-372,044	-115,707	0,127	-0,017
-371,029	73,990	0,039	0,030
-370,015	-149,600	-0,021	-0,001
-369,000	200,862	-0,100	-0,110
-367,985	124,865	-0,133	-0,120
-366,971	311,405	0,080	-0,108
-365,956	800,000	0,021	0,055
-364,942	96,623	-0,093	0,076
-363,927	-55,862	-0,103	-0,033
-362,912	72,042	0,016	-0,012
-361,898	191,036	-0,031	0,033
-360,883	-200,000	-0,029	-0,128
-359,869	148,330	-0,005	-0,005
-358,854	161,517	0,044	-0,045
-357,839	-200,000	0,005	0,138
-356,825	346,708	0,029	-0,042
-355,810	-155,999	0,082	-0,004
-354,796	63,241	0,063	0,045
-353,781	-200,000	0,003	0,055
-352,766	46,737	-0,029	-0,019
-351,752	404,996	0,049	0,074
-350,737	-16,007	0,042	0,019
-349,723	-200,000	-0,008	0,115
-348,708	-38,211	0,157	-0,059
-347,693	-200,000	-0,004	-0,058
-346,679	130,283	-0,048	-0,044
-345,664	48,362	-0,044	-0,030
-344,650	800,000	-0,057	0,119
-343,635	800,000	-0,011	-0,034
-342,620	120,085	0,084	-0,074
-341,606	-76,203	0,043	0,011
-340,591	-63,946	0,117	-0,034
-339,577	-166,032	-0,191	0,006
-338,562	400,393	0,037	-0,056
-337,548	56,948	0,131	0,091
-336,533	-144,190	0,044	-0,003
-335,518	-13,360	0,158	0,073
-334,504	800,000	-0,061	-0,129
-333,489	800,000	0,034	0,086
-332,475	275,410	-0,058	-0,074
-331,460	-33,713	0,133	0,052
-330,445	-129,316	0,053	0,005
-329,431	-119,323	0,071	0,009
-328,416	401,233	-0,106	0,160
-327,402	-200,000	-0,002	0,026
-326,387	-106,441	-0,121	-0,019
-325,372	-80,592	0,082	-0,019
-324,358	273,058	-0,109	0,139
-323,343	-60,552	-0,090	0,027
-322,329	-200,000	-0,004	0,138
-321,314	-200,000	0,005	0,086
-320,299	-122,741	0,051	0,006
-319,285	96,945	-0,023	0,019
-318,270	547,456	0,054	-0,094
-317,256	149,821	-0,045	-0,044
-316,241	-68,790	0,077	-0,021
-315,226	171,931	0,049	0,051
-314,212	-200,000	-0,002	-0,083
-313,197	-200,000	0,015	0,089
-312,183	-200,000	0,005	0,079
-311,168	182,482	-0,021	0,023
-310,153	-89,270	-0,034	0,007
-309,139	-42,227	-0,069	0,025
-308,124	-84,512	0,076	-0,017
-307,110	229,321	0,030	-0,036
-306,095	-200,000	0,016	-0,057
-305,080	800,000	0,045	0,108
-304,066	137,706	0,079	0,074
-303,051	302,505	0,071	-0,094
-302,037	-200,000	0,036	0,126
-301,022	349,102	-0,040	-0,057
-300,008	-200,000	-0,020	0,081
-298,993	-61,840	0,104	0,031
-297,978	-94,844	-0,038	-0,007
-296,964	-92,987	0,197	-0,039
-295,949	-167,534	-0,058	0,002
-294,935	-200,000	0,005	0,043
-293,920	350,543	0,057	0,081
-292,905	800,000	-0,033	0,101
-291,891	-200,000	0,019	0,144
-290,876	-200,000	0,001	0,114
-289,862	800,000	-0,032	0,071
-288,847	-200,000	0,000	-0,083
-287,832	173,117	-0,051	-0,052
-286,818	800,000	0,038	0,105
-285,803	-28,386	0,091	0,038
-284,789	-200,000	0,025	0,110
-283,774	-78,305	-0,106	0,026
-282,759	-149,304	-0,131	0,007
-281,745	63,324	0,064	0,046
-280,730	-200,000	0,000	-0,009
-279,716	271,190	0,057	-0,072
-278,701	-0,084	-0,137	-0,070
-277,686	-55,629	0,073	0,023
-276,672	24,627	0,016	0,009
-275,657	-200,000	0,007	-0,043
-274,643	800,000	-0,040	-0,081
-273,628	43,718	-0,112	0,073
-272,613	-142,077	0,203	-0,014
-271,599	36,719	-0,113	0,071
-270,584	-200,000	0,006	-0,121
-269,570	-200,000	-0,001	0,072
-268,555	118,001	0,154	0,136
-267,540	-25,410	0,052	0,022
-266,526	-57,920	0,158	0,049
-265,511	741,958	-0,102	-0,197
-264,497	308,440	0,055	0,073
-263,482	-147,062	0,079	-0,005
-262,467	21,905	0,088	-0,051
-261,453	-118,159	-0,048	-0,006
-260,438	800,000	-0,030	-0,091
-259,424	774,080	-0,036	0,070
-258,409	800,000	-0,024	0,051
-257,395	679,412	0,031	0,058
-256,380	-200,000	0,016	0,057
-255,365	643,164	-0,045	0,083
-254,351	303,236	0,066	0,087
-253,336	-63,257	-0,108	-0,032
-252,322	-173,431	-0,091	0,002
-251,307	216,096	0,056	0,063
-250,292	-31,615	-0,052	-0,021
-249,278	-166,062	0,199	0,006
-248,263	800,000	0,060	0,124
-247,249	761,420	0,028	0,055
-246,234	20,317	-0,105	-0,060
-245,219	375,595	-0,065	-0,095
-244,205	5,867	-0,097	0,051
-243,190	85,397	-0,063	0,049
-242,176	-200,000	0,002	0,051
-241,161	187,042	0,049	0,052
-240,146	-4,815	0,077	-0,038
-239,132	167,697	0,139	-0,141
-238,117	329,173	0,025	-0,034
-237,103	-200,000	0,005	0,088
-236,088	261,092	0,018	-0,023
-235,073	320,733	0,057	-0,078
-234,059	146,178	0,144	0,138
-233,044	140,849	-0,070	0,066
-232,030	405,110	0,082	0,124
-231,015	800,000	-0,040	0,115
-230,000	659,931	-0,030	0,056
-228,986	800,000	-0,029	-0,070
-227,971	296,499	0,056	0,074
-226,957	800,000	-0,057	0,161
-225,942	-74,304	0,056	0,014
-224,927	190,509	-0,112	0,120
-223,913	-200,000	-0,007	-0,044
-222,898	-143,341	-0,117	-0,008
-221,884	179,783	-0,035	0,037
-220,869	-200,000	-0,002	-0,057
-219,855	-21,812	0,120	0,052
-218,840	44,354	0,077	0,051
-217,825	-200,000	0,000	0,092
-216,811	84,985	-0,155	0,121
-215,796	800,000	0,069	-0,149
-214,782	703,382	-0,045	-0,086
-213,767	-200,000	-0,013	-0,062
-212,752	-200,000	0,018	0,142
-211,738	-80,939	-0,054	-0,013
-210,723	-200,000	0,004	0,084
-209,709	94,514	-0,060	-0,048
-208,694	766,048	0,101	-0,196
-207,679	393,218	-0,071	0,106
-206,665	-134,522	0,098	0,008
-205,650	-76,381	0,060	-0,015
-204,636	5,997	0,109	0,058
-203,621	13,445	-0,028	0,016
-202,606	-200,000	0,009	0,104
-201,592	-131,786	0,103	-0,010
-200,577	111,998	0,025	-0,021
-199,563	800,000	-0,042	-0,110
-198,548	-83,887	0,104	-0,023
-197,533	7,311	0,130	0,069
-196,519	-200,000	-0,042	0,163
-195,504	27,684	-0,100	-0,060
-194,490	276,719	-0,084	0,107
-193,475	-132,979	-0,046	-0,004
-192,460	559,086	0,053	0,091
-191,446	78,076	-0,082	0,063
-190,431	-19,761	0,090	-0,040
-189,417	-200,000	0,021	-0,117
-188,402	-68,258	0,040	-0,011
-187,387	-200,000	0,001	-0,033
-186,373	-147,549	0,038	-0,002
-185,358	-39,967	0,045	0,017
-184,344	-20,782	0,054	-0,024
-183,329	-163,700	0,092	-0,003
-182,315	-57,137	-0,085	0,027
-181,300	-8,474	-0,119	-0,057
-180,285	800,000	-0,049	-0,120
-179,271	142,543	0,111	-0,105
-178,256	-20,523	-0,024	0,011
-177,242	73,331	0,068	0,051
-176,227	209,649	-0,030	0,034
-175,212	34,287	0,123	-0,076
-174,198	326,919	0,020	0,027
-173,183	167,957	-0,039	0,039
-172,169	-200,000	-0,017	-0,172
-171,154	800,000	0,048	-0,113
-170,139	800,000	-0,072	0,185
-169,125	8,612	0,089	0,048
-168,110	659,463	-0,085	0,156
-167,096	66,274	-0,157	-0,113
-166,081	-22,071	-0,155	-0,067
-165,066	-124,839	0,099	-0,011
-164,052	-200,000	0,013	-0,065
-163,037	264,455	0,014	0,018
-162,023	39,249	0,192	0,122
-161,008	362,303	-0,084	-0,121
-159,993	374,242	0,048	-0,071
-158,979	16,545	-0,120	-0,067
-157,964	-200,000	-0,028	-0,091
-156,950	154,920	-0,079	-0,077
-155,935	-200,000	-0,016	0,097
-154,920	-100,319	0,078	0,014
-153,906	-200,000	-0,015	0,057
-152,891	-200,000	0,006	-0,043
-151,877	752,153	-0,037	-0,071
-150,862	800,000	-0,036	-0,096
-149,847	754,615	0,081	-0,156
-148,833	-22,592	0,092	-0,040
-147,818	47,813	-0,098	0,065
-146,804	-200,000	0,012	0,103
-145,789	515,089	-0,040	-0,067
-144,775	38,451	-0,149	-0,095
-143,760	-176,349	-0,184	0,003
-142,745	-121,060	0,154	0,018
-141,731	99,844	0,010	0,008
-140,716	724,860	0,022	0,043
-139,702	-131,303	-0,083	0,008
-138,687	-200,000	0,005	-0,027
-137,672	103,163	0,175	0,146
-136,658	38,690	-0,201	-0,127
-135,643	-141,746	-0,107	0,008
-134,629	-200,000	-0,061	-0,252
-133,614	21,116	-0,038	0,022
-132,599	361,100	0,047	0,067
-131,585	-50,613	0,159	0,053
-130,570	-51,811	-0,078	-0,026
-129,556	4,463	0,022	-0,012
-128,541	40,570	-0,127	-0,082
-127,526	392,238	-0,042	0,062
-126,512	-60,791	0,178	0,053
-125,497	-200,000	-0,039	0,147
-124,483	314,083	-0,041	0,055
-123,468	88,125	0,043	-0,034
-122,453	367,403	-0,039	-0,056
-121,439	-68,000	0,142	0,039
-120,424	-200,000	-0,007	-0,125
-119,410	74,406	0,075	-0,056
