DTS Sentinel unit serial number:	SN410029Multiplexer serial number:	ORYXHardware model number:	OX2-SRSoftware version number:	ORYX F/W v4,00 Oryx Data Collector v3.7.2.0data status	okinstallation	BH3 CH2differential loss correction	single-endedforward channel	channel 2reverse channel	N/Adate	2023/12/06time	03:37:28forward acquisition time	300,00reverse acquisition time	0,00gamma	499,1914k internal	0,3197k external	0,3197temperature offset calibration	1,0000default loss term (dB/km)	0,3820temperature slope calibration	1,0000multiplexer offset coefficient	1,0000multiplexer slope coefficient	1,0000fibre end	0,00T internal ref (°C)	8,94T ext. ref 1 (°C)	-5,73T ext. ref 2 (°C)	-5,82length (m)	temperature (°C)	Stokes	anti-Stokes-744,400	800,000	-0,057	-0,126
-743,385	-183,396	-0,121	-0,001
-742,371	116,432	0,122	-0,109
-741,356	-41,678	-0,190	0,071
-740,342	-60,635	-0,123	-0,038
-739,327	-53,899	-0,231	0,076
-738,312	-200,000	0,025	-0,087
-737,298	60,550	-0,270	0,195
-736,283	287,968	0,049	-0,065
-735,269	320,201	-0,100	0,138
-734,254	151,975	0,050	0,050
-733,239	-37,867	-0,289	-0,111
-732,225	800,000	0,042	-0,091
-731,210	-200,000	0,001	0,020
-730,196	800,000	0,066	0,136
-729,181	24,092	-0,040	-0,024
-728,167	-165,433	0,024	-0,001
-727,152	-39,938	-0,094	-0,036
-726,137	-200,000	-0,000	0,010
-725,123	71,862	-0,147	-0,111
-724,108	-9,801	0,117	-0,057
-723,094	14,132	-0,208	-0,118
-722,079	-200,000	-0,006	-0,101
-721,064	-80,013	-0,076	-0,018
-720,050	800,000	-0,059	0,142
-719,035	131,748	-0,058	-0,054
-718,021	-69,339	-0,063	-0,017
-717,006	-200,000	-0,035	0,208
-715,991	340,868	0,057	-0,082
-714,977	-38,720	-0,115	-0,044
-713,962	642,448	0,040	-0,075
-712,948	363,943	-0,045	-0,066
-711,933	-200,000	0,025	0,080
-710,918	514,534	-0,038	-0,065
-709,904	800,000	-0,059	-0,184
-708,889	-200,000	-0,102	0,000
-707,875	262,399	-0,070	-0,088
-706,860	509,860	-0,012	-0,021
-705,845	287,490	-0,074	-0,097
-704,831	40,777	0,074	0,049
-703,816	-98,724	-0,102	-0,019
-702,802	64,817	-0,065	-0,048
-701,787	-0,644	-0,135	-0,069
-700,772	-19,182	-0,076	-0,034
-699,758	94,136	-0,073	0,060
-698,743	-159,687	0,143	0,006
-697,729	-61,209	0,073	-0,022
-696,714	374,264	0,032	-0,047
-695,699	800,000	0,040	0,099
-694,685	800,000	0,024	0,069
-693,670	396,974	-0,108	0,164
-692,656	-200,000	-0,001	0,056
-691,641	-200,000	0,012	-0,044
-690,627	-70,017	-0,123	-0,034
-689,612	52,080	-0,109	-0,075
-688,597	-137,007	-0,023	0,002
-687,583	-200,000	-0,005	-0,018
-686,568	-200,000	-0,005	0,022
-685,554	-200,000	-0,031	0,109
-684,539	326,888	0,053	0,074
-683,524	-126,921	-0,068	-0,007
-682,510	-23,651	-0,033	0,014
-681,495	-138,705	-0,047	0,004
-680,481	-200,000	0,001	0,052
-679,466	-200,000	0,001	-0,035
-678,451	143,193	0,082	0,079
-677,437	-200,000	-0,001	0,044
-676,422	-200,000	0,013	0,078
-675,408	238,557	0,061	0,074
-674,393	-200,000	0,018	-0,074
-673,378	737,819	-0,080	-0,156
-672,364	-110,987	-0,116	-0,017
-671,349	153,046	-0,080	0,080
-670,335	800,000	0,047	0,119
-669,320	-154,318	0,047	-0,002
-668,305	412,124	-0,026	0,041
-667,291	294,459	-0,056	-0,074
-666,276	96,460	-0,052	-0,043
-665,262	448,297	-0,069	-0,111
-664,247	800,000	0,039	-0,112
-663,232	-67,270	0,131	0,037
-662,218	119,659	-0,033	0,030
-661,203	64,361	-0,137	-0,100
-660,189	-200,000	0,004	-0,089
-659,174	108,705	-0,064	-0,056
-658,159	-18,837	-0,055	-0,025
-657,145	31,031	-0,113	-0,070
-656,130	343,415	-0,074	-0,105
-655,116	765,955	-0,064	-0,126
-654,101	11,920	0,098	-0,055
-653,086	-58,256	-0,077	-0,024
-652,072	327,974	-0,045	-0,063
-651,057	-67,531	-0,055	-0,016
-650,043	5,288	0,062	0,033
-649,028	-200,000	-0,005	0,035
-648,014	228,742	0,060	0,071
-646,999	-5,883	-0,035	0,017
-645,984	510,934	0,048	-0,081
-644,970	751,237	-0,049	-0,096
-643,955	-76,358	0,052	0,013
-642,941	-86,509	-0,051	-0,011
-641,926	50,822	-0,080	-0,055
-640,911	632,697	0,065	0,119
-639,897	294,863	0,026	-0,034
-638,882	-139,855	-0,076	0,006
-637,868	800,000	0,074	-0,185
-636,853	-200,000	0,002	-0,133
-635,838	-200,000	-0,020	-0,066
-634,824	50,482	0,072	-0,049
-633,809	-101,957	0,066	-0,011
-632,795	746,238	0,069	0,135
-631,780	-42,002	-0,067	-0,025
-630,765	-81,594	0,116	0,027
-629,751	-25,319	-0,102	-0,043
-628,736	174,804	-0,050	-0,052
-627,722	673,548	-0,052	-0,099
-626,707	-76,160	-0,100	-0,025
-625,692	26,322	-0,008	-0,005
-624,678	-200,000	-0,018	0,113
-623,663	-9,563	-0,124	0,060
-622,649	-103,222	-0,075	-0,013
-621,634	-18,323	-0,074	-0,034
-620,619	34,583	0,149	-0,094
-619,605	-50,630	0,107	0,036
-618,590	-200,000	-0,005	-0,129
-617,576	404,099	-0,033	0,051
-616,561	19,501	-0,032	0,019
-615,546	-200,000	0,015	0,123
-614,532	-2,326	-0,041	-0,021
-613,517	-159,531	0,047	0,002
-612,503	-200,000	0,014	-0,095
-611,488	-200,000	0,013	0,094
-610,474	-200,000	0,014	0,054
-609,459	56,052	0,089	-0,063
-608,444	-171,160	-0,114	0,003
-607,430	-187,626	-0,072	0,001
-606,415	-200,000	0,000	-0,055
-605,401	-200,000	-0,023	-0,095
-604,386	61,710	0,050	0,036
-603,371	81,175	-0,048	0,038
-602,357	-57,931	0,062	-0,020
-601,342	800,000	0,044	0,139
-600,328	221,658	0,044	-0,051
-599,313	-109,808	-0,191	-0,029
-598,298	105,919	0,107	-0,091
-597,284	-157,837	-0,182	0,008
-596,269	48,434	-0,196	0,133
-595,255	106,213	0,133	0,114
-594,240	652,894	0,028	-0,052
-593,225	-200,000	-0,011	-0,083
-592,211	-45,267	-0,093	-0,033
-591,196	-9,298	-0,058	0,028
-590,182	399,438	-0,036	-0,055
-589,167	-200,000	0,010	-0,084
-588,152	114,644	0,062	-0,055
-587,138	117,962	-0,060	0,054
-586,123	-93,307	-0,089	-0,018
-585,109	198,905	0,030	-0,033
-584,094	-200,000	-0,006	-0,039
-583,079	800,000	0,010	0,027
-582,065	-200,000	-0,013	0,133
-581,050	84,418	0,098	-0,077
-580,036	65,333	0,098	0,072
-579,021	247,912	-0,026	0,031
-578,006	138,003	-0,099	-0,094
-576,992	162,176	-0,047	0,048
-575,977	-137,226	0,071	0,006
-574,963	419,781	0,043	-0,066
-573,948	110,643	0,059	0,051
-572,934	287,002	-0,064	0,084
-571,919	21,752	-0,032	-0,019
-570,904	-200,000	0,018	0,076
-569,890	729,659	-0,018	-0,035
-568,875	110,087	0,031	0,027
-567,861	-22,942	0,050	0,022
-566,846	17,359	0,065	0,037
-565,831	157,789	-0,086	-0,086
-564,817	-15,504	-0,080	0,037
-563,802	-190,873	-0,149	0,001
-562,788	405,849	0,030	-0,046
-561,773	-175,961	0,110	0,002
-560,758	36,482	0,143	-0,091
-559,744	-200,000	-0,040	0,193
-558,729	-200,000	-0,020	-0,075
-557,715	-200,000	0,016	-0,069
-556,700	-0,083	-0,111	-0,057
-555,685	-10,339	-0,114	-0,054
-554,671	-124,933	-0,074	0,008
-553,656	-200,000	-0,005	-0,053
-552,642	159,154	0,104	-0,105
-551,627	160,840	-0,026	0,026
-550,612	-200,000	0,003	0,108
-549,598	276,494	-0,044	-0,056
-548,583	266,633	0,028	-0,035
-547,569	8,264	0,081	0,044
-546,554	-200,000	0,003	-0,071
-545,539	-55,258	0,023	0,007
-544,525	-200,000	0,004	-0,098
-543,510	167,226	-0,052	-0,054
-542,496	-200,000	-0,025	-0,145
-541,481	35,626	-0,027	0,017
-540,466	-7,022	-0,073	-0,036
-539,452	571,543	0,034	0,061
-538,437	257,853	-0,052	0,065
-537,423	401,497	0,011	0,017
-536,408	46,924	-0,124	0,083
-535,393	505,274	0,031	-0,052
-534,379	168,356	0,119	-0,123
-533,364	-200,000	0,008	0,061
-532,350	-30,148	-0,085	0,035
-531,335	-200,000	0,028	0,136
-530,321	-34,356	0,065	-0,026
-529,306	-35,146	-0,087	-0,034
-528,291	-17,997	0,053	0,024
-527,277	-200,000	-0,002	-0,070
-526,262	37,639	0,076	0,049
-525,248	258,168	0,046	-0,058
-524,233	73,242	-0,029	-0,022
-523,218	-200,000	0,028	-0,129
-522,204	112,212	-0,150	-0,131
-521,189	19,520	-0,104	0,060
-520,175	-107,496	0,153	0,024
-519,160	451,524	0,129	0,206
-518,145	17,703	-0,094	-0,054
-517,131	800,000	0,004	-0,013
-516,116	-25,313	-0,008	-0,003
-515,102	800,000	-0,037	-0,075
-514,087	-200,000	0,010	-0,156
-513,072	800,000	-0,026	-0,060
-512,058	-42,643	-0,170	-0,062
-511,043	-144,375	0,130	0,009
-510,029	39,400	0,061	0,040
-509,014	-200,000	0,034	0,169
-507,999	227,086	-0,101	0,119
-506,985	321,678	-0,042	-0,058
-505,970	800,000	-0,023	0,066
-504,956	-200,000	-0,027	-0,100
-503,941	337,330	-0,013	0,018
-502,926	800,000	-0,023	-0,054
-501,912	120,590	-0,066	0,059
-500,897	729,249	0,036	-0,070
-499,883	-104,264	-0,049	0,008
-498,868	-36,007	-0,104	0,040
-497,853	-200,000	0,049	0,160
-496,839	87,111	-0,077	0,062
-495,824	800,000	-0,019	0,043
-494,810	3,394	0,103	0,054
-493,795	-120,160	0,098	0,012
-492,781	759,371	-0,048	0,094
-491,766	625,333	0,015	-0,028
-490,751	800,000	-0,042	-0,127
-489,737	208,461	0,085	-0,096
-488,722	178,057	0,022	-0,023
-487,708	-41,934	0,186	-0,068
-486,693	76,888	-0,031	-0,024
-485,678	-1,155	0,125	-0,064
-484,664	451,519	-0,039	0,062
-483,649	-18,871	-0,049	-0,022
-482,635	-154,656	0,064	-0,003
-481,620	115,983	0,062	-0,055
-480,605	800,000	0,021	-0,054
-479,591	-200,000	0,014	0,103
-478,576	-6,046	-0,080	0,039
-477,562	-109,572	-0,119	0,018
-476,547	-200,000	-0,003	0,017
-475,532	-200,000	0,003	-0,046
-474,518	224,705	-0,052	0,061
-473,503	-67,953	-0,034	0,010
-472,489	-116,286	-0,057	0,008
-471,474	31,326	-0,070	-0,043
-470,459	-131,738	-0,052	0,005
-469,445	469,880	0,082	0,133
-468,430	4,483	0,032	0,017
-467,416	800,000	0,038	0,109
-466,401	318,198	0,081	0,110
-465,386	-200,000	-0,032	-0,178
-464,372	-7,097	-0,106	0,052
-463,357	-200,000	-0,022	-0,105
-462,343	-200,000	-0,015	-0,056
-461,328	-12,802	-0,044	0,020
-460,313	61,052	0,097	-0,069
-459,299	-31,520	0,041	-0,017
-458,284	321,001	-0,072	0,099
-457,270	67,763	-0,032	0,024
-456,255	22,221	-0,156	0,091
-455,241	800,000	-0,008	-0,019
-454,226	-6,244	-0,096	-0,047
-453,211	230,935	-0,036	-0,042
-452,197	800,000	-0,020	-0,052
-451,182	18,437	0,128	-0,074
-450,168	174,884	-0,065	-0,068
-449,153	-200,000	0,002	-0,019
-448,138	54,572	-0,065	0,045
-447,124	-24,000	-0,165	-0,071
-446,109	121,735	-0,124	-0,111
-445,095	-52,234	-0,100	-0,033
-444,080	-116,138	0,110	0,015
-443,065	43,928	0,013	-0,009
-442,051	-200,000	0,010	0,048
-441,036	-200,000	-0,004	-0,034
-440,022	-200,000	0,023	-0,109
-439,007	-200,000	-0,001	-0,144
-437,992	3,268	0,088	0,046
-436,978	-123,599	0,084	-0,009
-435,963	327,216	0,121	0,167
-434,949	-28,840	-0,126	-0,052
-433,934	80,910	-0,153	0,119
-432,919	181,048	-0,074	-0,078
-431,905	-1,277	0,112	-0,057
-430,890	72,382	-0,041	0,031
-429,876	800,000	0,053	-0,110
-428,861	410,297	-0,029	-0,045
-427,846	-200,000	0,168	0,000
-426,832	735,925	0,067	0,129
-425,817	-200,000	0,013	-0,056
-424,803	800,000	0,012	0,025
-423,788	145,339	0,083	0,079
-422,773	34,336	0,115	-0,072
-421,759	338,813	0,060	-0,084
-420,744	-42,424	-0,082	0,030
-419,730	800,000	-0,032	-0,097
-418,715	384,635	-0,070	-0,104
-417,701	24,249	-0,062	0,037
-416,686	-102,772	-0,069	-0,012
-415,671	69,043	0,023	0,017
-414,657	62,524	0,094	0,068
-413,642	190,916	-0,075	0,081
-412,628	50,656	0,043	0,029
-411,613	203,229	-0,116	0,129
-410,598	-51,953	0,087	0,029
-409,584	-82,463	-0,068	-0,016
-408,569	385,764	-0,016	-0,024
-407,555	-200,000	-0,043	0,198
-406,540	76,379	-0,082	0,062
-405,525	-116,706	-0,073	-0,009
-404,511	37,372	-0,077	-0,049
-403,496	323,567	-0,017	-0,023
-402,482	404,427	0,028	0,043
-401,467	49,060	0,030	-0,020
-400,452	-200,000	0,013	-0,081
-399,438	-81,454	0,119	0,028
-398,423	-126,448	0,098	0,010
-397,409	219,692	-0,057	-0,066
-396,394	-117,349	-0,074	-0,009
-395,379	-200,000	-0,009	-0,136
-394,365	-200,000	0,050	0,225
-393,350	-200,000	-0,025	0,206
-392,336	252,371	0,060	0,074
-391,321	46,219	0,078	0,052
-390,306	800,000	-0,028	-0,071
-389,292	-200,000	0,024	-0,173
-388,277	-37,729	0,187	-0,071
-387,263	-200,000	-0,022	-0,077
-386,248	-200,000	-0,015	0,111
-385,233	17,986	0,066	0,038
-384,219	-200,000	0,002	-0,036
-383,204	57,858	-0,012	-0,009
-382,190	-142,815	-0,037	-0,003
-381,175	406,433	0,044	-0,067
-380,160	-200,000	-0,026	0,083
-379,146	56,259	0,082	0,057
-378,131	-15,316	0,058	0,026
-377,117	35,416	0,030	-0,019
-376,102	-200,000	-0,000	-0,109
-375,088	-10,063	0,128	-0,061
-374,073	163,548	-0,046	0,046
-373,058	50,017	-0,046	0,031
-372,044	-200,000	0,003	0,010
-371,029	30,944	0,093	0,057
-370,015	-38,494	-0,027	-0,010
-369,000	800,000	0,011	-0,032
-367,985	0,399	0,080	0,041
-366,971	-58,984	-0,043	-0,013
-365,956	194,889	-0,023	0,025
-364,942	-94,478	0,103	0,020
-363,927	800,000	-0,019	-0,041
-362,912	89,130	0,079	0,063
-361,898	-136,976	-0,060	-0,005
-360,883	800,000	0,023	0,065
-359,869	200,711	0,049	0,054
-358,854	52,136	0,040	-0,028
-357,839	-200,000	-0,032	0,115
-356,825	698,780	-0,022	0,041
-355,810	373,809	0,045	0,066
-354,796	20,454	-0,028	-0,016
-353,781	427,884	-0,029	-0,046
-352,766	-200,000	0,004	-0,050
-351,752	231,896	-0,100	-0,118
-350,737	108,108	-0,084	0,072
-349,723	129,518	0,057	0,052
-348,708	293,123	0,033	0,044
-347,693	421,787	0,032	-0,050
-346,679	47,782	-0,177	-0,118
-345,664	-79,523	-0,108	-0,026
-344,650	800,000	-0,046	0,099
-343,635	194,224	0,095	0,103
-342,620	223,872	0,088	0,102
-341,606	800,000	0,048	0,129
-340,591	81,782	0,037	0,029
-339,577	800,000	-0,060	-0,137
-338,562	-200,000	0,199	-0,000
-337,548	800,000	-0,055	-0,114
-336,533	-48,529	0,058	0,020
-335,518	800,000	0,016	0,045
-334,504	-63,305	0,079	-0,023
-333,489	-200,000	-0,000	0,047
-332,475	18,276	-0,123	0,070
-331,460	-200,000	-0,024	-0,143
-330,445	-127,743	0,058	0,006
-329,431	522,063	0,053	-0,089
-328,416	-200,000	0,034	0,122
-327,402	348,011	-0,058	0,082
-326,387	441,382	0,087	-0,137
-325,372	-200,000	0,012	-0,080
-324,358	800,000	-0,072	-0,162
-323,343	-109,224	0,045	-0,007
-322,329	-83,134	0,129	-0,029
-321,314	-200,000	0,015	0,103
-320,299	-111,123	0,068	-0,010
-319,285	-114,142	-0,084	-0,012
-318,270	-129,566	-0,075	-0,007
-317,256	132,455	-0,086	0,079
-316,241	-105,414	0,107	0,017
-315,226	12,998	0,062	-0,034
-314,212	-200,000	-0,012	0,081
-313,197	36,313	0,058	0,036
-312,183	800,000	-0,041	0,098
-311,168	295,099	0,017	-0,022
-310,153	-200,000	0,006	-0,148
-309,139	9,198	0,063	0,034
-308,124	-44,505	-0,034	-0,012
-307,110	51,499	0,118	0,080
-306,095	218,846	-0,073	0,083
-305,080	-127,122	0,087	-0,009
-304,066	681,447	-0,095	0,178
-303,051	-30,813	-0,041	-0,017
-302,037	-200,000	-0,030	0,204
-301,022	7,189	0,156	0,083
-300,008	-31,768	0,071	0,029
-298,993	800,000	-0,062	0,144
-297,978	-200,000	0,002	-0,110
-296,964	59,154	-0,067	-0,047
-295,949	148,239	0,037	-0,036
-294,935	800,000	-0,051	-0,119
-293,920	123,708	-0,048	-0,043
-292,905	13,932	0,065	0,036
-291,891	282,787	-0,035	-0,046
-290,876	390,481	0,059	0,088
-289,862	-200,000	0,006	-0,025
-288,847	247,762	0,024	-0,029
-287,832	299,925	0,058	-0,077
-286,818	69,106	0,073	-0,053
-285,803	662,046	-0,033	-0,060
-284,789	343,034	0,153	0,214
-283,774	-200,000	0,013	0,060
-282,759	283,453	0,135	-0,174
-281,745	395,220	-0,023	-0,035
-280,730	-200,000	-0,017	0,095
-279,716	396,905	0,060	-0,091
-278,701	-200,000	-0,011	0,060
-277,686	68,518	-0,149	-0,109
-276,672	211,101	0,019	0,021
-275,657	48,640	0,098	-0,066
-274,643	800,000	-0,023	-0,067
-273,628	-67,215	-0,040	-0,011
-272,613	169,747	0,069	-0,071
-271,599	-200,000	0,001	-0,087
-270,584	176,466	0,054	0,056
-269,570	-35,302	-0,059	0,023
-268,555	79,277	0,068	0,052
-267,540	800,000	-0,024	-0,053
-266,526	154,003	0,053	-0,052
-265,511	-48,439	0,033	-0,011
-264,497	154,859	-0,061	0,060
-263,482	-37,147	-0,112	0,043
-262,467	-200,000	-0,010	-0,033
-261,453	47,559	-0,133	0,089
-260,438	-200,000	-0,006	0,027
-259,424	-200,000	0,016	-0,123
-258,409	162,207	-0,047	-0,047
-257,395	-56,469	0,137	0,043
-256,380	-68,027	-0,177	0,049
-255,365	-93,483	0,121	0,024
-254,351	-200,000	0,009	0,113
-253,336	800,000	0,034	0,077
-252,322	76,377	-0,218	-0,165
-251,307	-63,213	0,045	0,013
-250,292	36,866	0,065	0,041
-249,278	-131,727	0,095	0,009
-248,263	800,000	0,010	0,031
-247,249	573,188	0,034	0,060
-246,234	800,000	-0,087	-0,183
-245,219	7,079	-0,087	-0,046
-244,205	126,029	-0,056	0,051
-243,190	7,457	0,049	0,026
-242,176	339,086	0,064	0,089
-241,161	173,523	0,021	0,021
-240,146	-48,275	0,052	-0,018
-239,132	-178,399	-0,108	0,002
-238,117	-200,000	-0,030	-0,107
-237,103	800,000	-0,041	-0,087
-236,088	133,550	-0,069	0,064
-235,073	-30,617	0,049	-0,020
-234,059	800,000	0,046	0,135
-233,044	-95,096	0,063	-0,012
-232,030	89,318	-0,071	0,056
-231,015	-200,000	0,053	-0,193
-230,000	-132,529	-0,052	-0,005
-228,986	-200,000	0,015	0,130
-227,971	89,792	-0,139	0,110
-226,957	-6,246	0,084	-0,041
-225,942	366,088	0,044	0,063
-224,927	-56,395	-0,106	0,033
-223,913	-99,539	0,130	-0,023
-222,898	52,017	-0,147	-0,100
-221,884	-200,000	-0,015	-0,088
-220,869	-139,931	-0,026	-0,002
-219,855	200,031	0,088	0,097
-218,840	800,000	0,029	0,061
-217,825	187,422	0,063	0,067
-216,811	-200,000	-0,025	0,097
-215,796	-20,986	-0,134	0,058
-214,782	97,058	-0,063	0,052
-213,767	-200,000	-0,008	-0,057
-212,752	-80,481	0,118	-0,028
-211,738	-200,000	0,028	0,119
-210,723	-105,858	-0,033	0,005
-209,709	158,134	-0,037	0,037
-208,694	463,657	0,056	0,090
-207,679	176,017	0,068	0,071
-206,665	800,000	-0,010	0,028
-205,650	-155,016	-0,085	0,004
-204,636	121,393	-0,028	0,025
-203,621	330,701	0,054	0,074
-202,606	428,271	-0,018	-0,028
-201,592	-50,582	-0,114	-0,038
-200,577	800,000	0,017	-0,049
-199,563	-161,970	0,048	-0,002
-198,548	-24,137	0,084	-0,036
-197,533	800,000	0,049	-0,129
-196,519	-85,139	0,070	0,015
-195,504	800,000	-0,089	-0,224
-194,490	-59,116	-0,084	-0,026
-193,475	-97,533	0,089	-0,016
-192,460	800,000	0,040	-0,085
-191,446	-60,186	0,122	0,037
-190,431	-21,497	0,013	0,006
-189,417	-104,681	0,126	0,021
-188,402	-127,075	0,047	-0,005
-187,387	65,283	0,035	0,025
-186,373	-44,328	-0,076	-0,027
-185,358	-26,465	0,091	-0,038
-184,344	-92,550	-0,009	-0,002
-183,329	-200,000	0,001	0,039
-182,315	269,487	0,059	-0,074
-181,300	788,315	-0,071	-0,139
-180,285	-73,106	0,048	0,012
-179,271	127,344	-0,118	0,107
-178,256	204,584	0,026	0,029
-177,242	213,736	-0,078	0,088
-176,227	-44,790	0,094	-0,033
-175,212	186,874	0,131	0,140
-174,198	-104,675	-0,175	-0,028
-173,183	800,000	0,022	-0,052
-172,169	-200,000	0,010	-0,080
-171,154	-200,000	0,010	-0,144
-170,139	432,373	0,048	0,074
-169,125	613,807	0,037	-0,067
-168,110	-135,473	-0,132	0,011
-167,096	208,920	0,078	0,087
-166,081	-76,349	-0,055	-0,014
-165,066	-200,000	0,018	-0,095
-164,052	-200,000	-0,020	0,065
-163,037	800,000	0,019	0,039
-162,023	-200,000	0,010	-0,037
-161,008	414,543	0,056	0,086
-159,993	800,000	-0,045	0,113
-158,979	84,837	-0,158	-0,123
-157,964	309,305	-0,044	-0,058
-156,950	-200,000	-0,053	0,173
-155,935	-94,069	0,087	0,017
-154,920	-147,359	-0,031	-0,002
-153,906	-200,000	0,024	0,136
-152,891	800,000	-0,040	0,098
-151,877	-52,460	-0,083	0,027
-150,862	-14,954	-0,074	0,034
-149,847	800,000	-0,010	-0,022
-148,833	-88,474	0,082	-0,017
-147,818	17,011	-0,049	-0,028
-146,804	800,000	-0,005	-0,013
-145,789	800,000	0,031	0,096
-144,775	141,959	-0,060	0,057
-143,760	-164,787	-0,068	-0,002
-142,745	-162,680	-0,072	-0,002
-141,731	-160,963	-0,065	0,002
-140,716	-37,714	0,014	0,005
-139,702	494,242	-0,030	-0,049
-138,687	5,309	0,015	-0,008
-137,672	753,257	0,021	0,040
-136,658	-154,779	-0,063	0,003
-135,643	-52,014	-0,128	0,042
-134,629	-92,960	-0,057	0,011
-133,614	-67,556	0,099	0,027
-132,599	-60,628	-0,095	-0,028
-131,585	800,000	-0,044	-0,087
-130,570	-8,488	-0,100	0,048
-129,556	-131,341	-0,040	-0,004
-128,541	-80,396	-0,038	-0,009
-127,526	-200,000	-0,024	-0,143
-126,512	800,000	-0,073	0,179
-125,497	-200,000	0,012	-0,069
-124,483	-200,000	0,007	0,077
-123,468	-200,000	0,003	0,068
-122,453	-20,972	-0,089	-0,038
-121,439	-200,000	-0,001	-0,105
-120,424	268,109	0,080	-0,100
-119,410	-120,752	0,025	0,003
