DTS Sentinel unit serial number:	SN410029Multiplexer serial number:	ORYXHardware model number:	OX2-SRSoftware version number:	ORYX F/W v4,00 Oryx Data Collector v3.7.2.0data status	okinstallation	BH3 CH2differential loss correction	single-endedforward channel	channel 2reverse channel	N/Adate	2023/12/06time	05:22:28forward acquisition time	300,00reverse acquisition time	0,00gamma	499,1914k internal	0,3197k external	0,3197temperature offset calibration	1,0000default loss term (dB/km)	0,3820temperature slope calibration	1,0000multiplexer offset coefficient	1,0000multiplexer slope coefficient	1,0000fibre end	0,00T internal ref (°C)	8,92T ext. ref 1 (°C)	-5,69T ext. ref 2 (°C)	-5,80length (m)	temperature (°C)	Stokes	anti-Stokes-744,400	-200,000	0,018	-0,140
-743,385	12,960	-0,242	0,136
-742,371	731,784	-0,023	0,046
-741,356	-179,145	-0,243	0,004
-740,342	-200,000	-0,011	-0,084
-739,327	-116,744	-0,311	-0,041
-738,312	-200,000	0,025	-0,191
-737,298	-93,331	-0,237	0,047
-736,283	-28,224	-0,084	-0,035
-735,269	800,000	-0,024	0,052
-734,254	569,630	0,043	-0,077
-733,239	-55,241	-0,393	-0,128
-732,225	800,000	0,063	-0,163
-731,210	-81,813	0,039	-0,009
-730,196	273,617	-0,042	-0,054
-729,181	507,637	-0,090	0,152
-728,167	-58,159	0,023	-0,007
-727,152	-6,044	-0,129	0,064
-726,137	-1,833	-0,046	-0,023
-725,123	-38,963	0,072	0,028
-724,108	75,828	-0,109	-0,084
-723,094	-200,000	-0,002	-0,056
-722,079	-200,000	0,032	0,112
-721,064	551,941	-0,061	0,108
-720,050	79,266	0,053	-0,042
-719,035	256,744	-0,034	0,043
-718,021	800,000	-0,032	0,068
-717,006	45,473	-0,197	-0,132
-715,991	-24,913	-0,143	-0,061
-714,977	-112,369	-0,091	0,013
-713,962	201,640	0,096	-0,108
-712,948	-200,000	-0,010	0,035
-711,933	-200,000	0,021	-0,077
-710,918	-109,221	-0,034	-0,005
-709,904	-174,530	-0,134	-0,003
-708,889	-136,540	0,046	0,004
-707,875	800,000	-0,054	-0,134
-706,860	86,231	-0,075	-0,060
-705,845	-117,337	0,035	0,005
-704,831	-56,252	0,042	0,014
-703,816	800,000	-0,022	0,048
-702,802	-200,000	0,001	-0,111
-701,787	73,362	-0,094	-0,071
-700,772	76,705	0,068	-0,053
-699,758	-61,589	-0,149	-0,045
-698,743	-200,000	0,014	-0,050
-697,729	-200,000	-0,003	0,227
-696,714	121,799	0,083	0,075
-695,699	253,693	-0,044	-0,054
-694,685	-54,396	-0,115	0,038
-693,670	-200,000	0,004	-0,146
-692,656	-200,000	-0,013	-0,109
-691,641	800,000	0,014	-0,033
-690,627	291,450	-0,009	-0,012
-689,612	29,241	-0,073	-0,045
-688,597	138,609	-0,041	-0,039
-687,583	-200,000	-0,031	-0,154
-686,568	389,814	-0,087	-0,131
-685,554	459,627	0,060	-0,097
-684,539	-87,741	0,170	0,037
-683,524	113,015	-0,017	0,015
-682,510	249,921	-0,086	-0,106
-681,495	800,000	-0,017	-0,040
-680,481	-88,148	0,041	0,009
-679,466	313,178	-0,012	0,017
-678,451	-6,173	0,037	-0,018
-677,437	24,483	-0,063	-0,038
-676,422	424,454	0,051	-0,079
-675,408	-200,000	-0,022	-0,090
-674,393	-200,000	-0,028	0,100
-673,378	-200,000	0,010	0,042
-672,364	52,789	0,087	-0,060
-671,349	-83,166	0,069	0,016
-670,335	-200,000	-0,016	-0,117
-669,320	-200,000	0,030	-0,163
-668,305	800,000	-0,028	0,072
-667,291	298,643	0,039	-0,053
-666,276	-200,000	-0,000	0,048
-665,262	-108,655	-0,204	0,031
-664,247	-200,000	-0,002	-0,011
-663,232	-67,730	0,252	-0,071
-662,218	-200,000	-0,014	0,117
-661,203	-200,000	0,008	-0,035
-660,189	-98,811	0,062	-0,011
-659,174	-171,769	0,052	-0,001
-658,159	-28,467	-0,067	-0,028
-657,145	800,000	-0,042	-0,124
-656,130	-82,819	-0,040	0,009
-655,116	-159,167	0,127	-0,005
-654,101	-141,000	-0,052	-0,004
-653,086	93,118	0,085	-0,070
-652,072	-200,000	0,075	-0,257
-651,057	1,932	-0,067	0,035
-650,043	-42,034	0,083	-0,031
-649,028	216,964	0,040	0,046
-648,014	800,000	-0,008	0,022
-646,999	406,321	-0,056	-0,086
-645,984	53,120	0,082	-0,057
-644,970	-34,930	0,078	-0,031
-643,955	16,131	-0,106	-0,060
-642,941	-200,000	-0,036	-0,121
-641,926	-133,643	0,064	-0,006
-640,911	388,266	0,103	0,156
-639,897	18,259	-0,102	0,059
-638,882	-175,960	0,125	0,002
-637,868	800,000	0,075	-0,154
-636,853	-63,814	-0,184	-0,054
-635,838	-200,000	-0,017	-0,136
-634,824	237,192	0,044	-0,053
-633,809	-126,424	0,067	-0,007
-632,795	-123,753	-0,053	0,006
-631,780	-200,000	0,068	0,225
-630,765	-200,000	0,001	0,037
-629,751	167,678	-0,059	0,060
-628,736	-200,000	0,015	-0,128
-627,722	-200,000	-0,041	-0,131
-626,707	306,503	-0,034	-0,045
-625,692	-200,000	0,008	0,066
-624,678	157,356	-0,064	0,064
-623,663	535,495	0,057	0,098
-622,649	-200,000	-0,007	-0,120
-621,634	-83,742	0,065	-0,015
-620,619	153,982	0,061	-0,060
-619,605	692,842	-0,063	0,120
-618,590	51,785	0,163	-0,112
-617,576	200,455	-0,058	0,065
-616,561	274,878	-0,069	0,088
-615,546	-107,896	-0,065	-0,010
-614,532	523,641	-0,125	-0,214
-613,517	102,681	0,057	0,048
-612,503	-200,000	0,014	0,059
-611,488	514,527	-0,064	-0,109
-610,474	-200,000	0,042	0,160
-609,459	-51,104	-0,054	0,018
-608,444	800,000	-0,021	-0,068
-607,430	-134,277	0,026	0,002
-606,415	308,816	-0,038	-0,051
-605,401	243,829	-0,068	-0,083
-604,386	-142,156	0,101	-0,007
-603,371	252,561	-0,058	-0,071
-602,357	-113,673	0,125	-0,017
-601,342	6,364	-0,049	-0,026
-600,328	-18,764	-0,060	-0,027
-599,313	-109,106	-0,074	-0,011
-598,298	642,625	-0,066	0,122
-597,284	-150,715	-0,137	0,007
-596,269	113,157	-0,032	0,028
-595,255	54,904	0,105	-0,073
-594,240	647,778	-0,010	-0,019
-593,225	800,000	-0,059	-0,120
-592,211	-12,196	-0,089	-0,042
-591,196	-200,000	-0,001	-0,073
-590,182	800,000	0,052	0,143
-589,167	-107,042	-0,037	-0,006
-588,152	118,098	0,031	0,027
-587,138	1,318	0,065	0,034
-586,123	309,377	0,039	-0,053
-585,109	15,898	-0,119	0,068
-584,094	82,836	-0,034	-0,026
-583,079	-170,860	0,121	-0,003
-582,065	-9,200	-0,087	0,042
-581,050	-112,330	0,042	-0,006
-580,036	10,159	-0,090	0,049
-579,021	-19,331	-0,044	0,020
-578,006	-112,052	0,087	-0,013
-576,992	650,458	-0,080	0,149
-575,977	-154,196	0,065	0,003
-574,963	-200,000	-0,005	-0,057
-573,948	-200,000	0,010	0,129
-572,934	-200,000	0,024	0,147
-571,919	800,000	0,032	0,070
-570,904	-200,000	0,032	-0,119
-569,890	-200,000	-0,029	-0,212
-568,875	-42,128	-0,052	-0,019
-567,861	-200,000	-0,010	0,142
-566,846	-200,000	-0,044	0,189
-565,831	-200,000	0,007	0,070
-564,817	435,262	0,042	-0,066
-563,802	217,604	-0,027	-0,031
-562,788	-200,000	-0,010	-0,056
-561,773	111,408	-0,069	-0,060
-560,758	30,878	0,108	0,066
-559,744	-200,000	-0,003	0,012
-558,729	-200,000	-0,002	0,042
-557,715	-200,000	-0,002	0,035
-556,700	243,035	-0,016	0,019
-555,685	404,023	-0,087	-0,133
-554,671	331,603	-0,084	0,117
-553,656	800,000	0,011	0,025
-552,642	-200,000	-0,003	-0,068
-551,627	356,151	-0,053	0,076
-550,612	90,723	-0,154	-0,125
-549,598	-200,000	0,012	-0,099
-548,583	-48,670	-0,130	-0,045
-547,569	-63,564	0,148	0,044
-546,554	487,219	0,040	0,067
-545,539	-200,000	-0,033	0,113
-544,525	3,887	0,058	-0,030
-543,510	800,000	-0,021	0,060
-542,496	-200,000	-0,008	-0,030
-541,481	698,945	0,016	-0,031
-540,466	-200,000	-0,015	-0,054
-539,452	421,944	-0,008	-0,013
-538,437	-165,494	0,113	-0,003
-537,423	-152,250	-0,053	-0,003
-536,408	240,848	-0,022	0,027
-535,393	332,146	0,037	0,052
-534,379	158,059	-0,084	-0,084
-533,364	234,237	-0,022	-0,026
-532,350	-200,000	-0,008	0,075
-531,335	254,801	-0,105	0,130
-530,321	800,000	-0,029	0,065
-529,306	-200,000	-0,007	0,138
-528,291	-71,440	-0,163	-0,044
-527,277	-87,562	0,061	0,013
-526,262	154,541	-0,048	-0,047
-525,248	42,802	0,091	0,060
-524,233	-112,608	0,145	-0,021
-523,218	-24,653	-0,118	-0,050
-522,204	800,000	0,011	0,024
-521,189	800,000	-0,070	-0,172
-520,175	-113,222	-0,060	-0,008
-519,160	371,957	0,120	-0,177
-518,145	34,306	0,137	0,086
-517,131	69,621	0,108	0,080
-516,116	-200,000	0,006	0,067
-515,102	-1,223	-0,046	0,023
-514,087	2,756	0,028	0,014
-513,072	-200,000	0,023	0,082
-512,058	-200,000	0,012	-0,037
-511,043	790,722	0,023	-0,046
-510,029	-200,000	0,000	0,030
-509,014	252,218	0,051	0,063
-507,999	-200,000	0,001	0,056
-506,985	-123,398	-0,153	-0,017
-505,970	-200,000	0,004	-0,129
-504,956	-200,000	0,003	0,022
-503,941	1,789	0,142	0,074
-502,926	82,898	-0,086	-0,068
-501,912	-17,040	0,117	0,053
-500,897	-200,000	0,010	-0,042
-499,883	800,000	0,045	-0,097
-498,868	278,017	-0,044	-0,056
-497,853	0,892	-0,081	-0,042
-496,839	158,571	-0,087	-0,088
-495,824	157,130	-0,104	0,103
-494,810	-200,000	-0,004	0,067
-493,795	140,944	-0,042	0,040
-492,781	76,262	0,057	0,043
-491,766	-143,617	0,098	-0,007
-490,751	616,763	0,022	-0,039
-489,737	-200,000	-0,047	0,153
-488,722	800,000	-0,023	0,050
-487,708	-92,061	0,119	-0,024
-486,693	-62,417	0,097	0,029
-485,678	-152,659	-0,098	0,005
-484,664	315,523	0,041	-0,056
-483,649	225,308	-0,014	0,016
-482,635	-200,000	-0,001	-0,013
-481,620	-200,000	0,010	0,089
-480,605	3,354	0,109	-0,057
-479,591	-52,336	-0,023	-0,008
-478,576	-200,000	0,009	-0,044
-477,562	594,529	0,019	-0,033
-476,547	43,038	-0,071	-0,046
-475,532	169,925	0,086	-0,089
-474,518	-77,267	0,149	-0,037
-473,503	-200,000	-0,027	-0,121
-472,489	800,000	0,005	-0,014
-471,474	194,964	-0,046	-0,050
-470,459	262,079	0,054	0,067
-469,445	115,850	0,089	0,078
-468,430	-167,402	0,095	0,003
-467,416	-200,000	0,014	-0,109
-466,401	800,000	0,025	0,079
-465,386	-46,320	0,047	-0,016
-464,372	44,137	0,121	0,080
-463,357	-166,911	-0,040	0,001
-462,343	-149,148	0,164	-0,009
-461,328	211,690	-0,081	-0,092
-460,313	186,453	0,071	-0,076
-459,299	247,825	0,026	-0,031
-458,284	-200,000	0,018	0,059
-457,270	-98,440	-0,196	0,036
-456,255	800,000	-0,009	0,022
-455,241	658,274	-0,052	-0,096
-454,226	152,656	-0,033	0,033
-453,211	-77,053	0,167	-0,042
-452,197	172,106	0,031	0,032
-451,182	318,490	0,081	0,111
-450,168	800,000	0,045	-0,121
-449,153	147,021	-0,133	-0,129
-448,138	267,632	-0,054	0,068
-447,124	800,000	0,016	0,050
-446,109	24,150	0,076	-0,045
-445,095	-33,461	-0,120	0,047
-444,080	58,431	0,114	-0,080
-443,065	-29,247	0,077	0,032
-442,051	-135,521	-0,036	-0,003
-441,036	542,336	-0,065	0,112
-440,022	-200,000	-0,019	-0,070
-439,007	-123,646	-0,130	0,015
-437,992	181,712	0,056	0,060
-436,978	-200,000	0,001	0,061
-435,963	-200,000	-0,028	0,094
-434,949	26,604	-0,079	0,048
-433,934	-200,000	0,011	-0,116
-432,919	22,330	0,074	-0,044
-431,905	23,031	-0,061	-0,036
-430,890	-27,016	0,132	-0,055
-429,876	-59,650	0,035	-0,011
-428,861	497,455	0,063	-0,105
-427,846	57,391	0,028	0,019
-426,832	33,853	0,141	0,088
-425,817	800,000	-0,036	-0,075
-424,803	-15,351	-0,032	-0,015
-423,788	800,000	-0,027	0,061
-422,773	174,600	-0,043	-0,045
-421,759	-182,267	0,031	0,000
-420,744	191,926	0,108	0,117
-419,730	-200,000	0,010	-0,134
-418,715	-200,000	-0,013	-0,061
-417,701	434,741	0,013	-0,020
-416,686	648,564	0,048	0,088
-415,671	-200,000	0,004	0,182
-414,657	43,488	0,008	0,005
-413,642	-126,697	-0,155	-0,016
-412,628	59,745	-0,132	-0,094
-411,613	-60,465	-0,040	0,012
-410,598	-200,000	0,002	-0,084
-409,584	-77,390	-0,041	0,010
-408,569	-200,000	-0,038	0,213
-407,555	-41,523	0,064	-0,024
-406,540	-200,000	-0,010	0,194
-405,525	800,000	-0,007	-0,015
-404,511	5,443	0,028	-0,015
-403,496	231,770	-0,081	0,096
-402,482	500,550	-0,066	-0,110
-401,467	-36,583	0,044	0,017
-400,452	-200,000	-0,001	-0,137
-399,438	-86,412	-0,150	-0,033
-398,423	-200,000	-0,007	0,231
-397,409	-200,000	-0,003	-0,053
-396,394	-200,000	-0,013	-0,070
-395,379	741,358	0,051	0,099
-394,365	800,000	0,070	0,148
-393,350	-200,000	-0,018	0,124
-392,336	111,847	-0,093	0,080
-391,321	-54,721	-0,075	0,024
-390,306	800,000	-0,034	-0,091
-389,292	-200,000	-0,020	0,084
-388,277	59,666	0,092	-0,065
-387,263	-86,736	0,118	-0,026
-386,248	-200,000	0,014	0,049
-385,233	-200,000	0,030	-0,096
-384,219	537,718	-0,037	-0,063
-383,204	108,383	-0,055	-0,047
-382,190	-123,508	-0,096	-0,011
-381,175	-43,571	0,061	0,022
-380,160	-200,000	-0,016	0,085
-379,146	161,693	0,104	0,105
-378,131	-29,672	0,118	0,048
-377,117	308,949	-0,036	-0,048
-376,102	309,282	-0,077	-0,104
-375,088	-162,085	0,118	0,004
-374,073	33,715	-0,048	-0,030
-373,058	-47,470	0,077	0,027
-372,044	800,000	-0,026	0,073
-371,029	639,091	0,028	0,051
-370,015	-98,912	0,079	0,014
-369,000	502,474	-0,046	-0,076
-367,985	126,441	-0,084	-0,076
-366,971	123,809	-0,079	-0,071
-365,956	-30,043	0,072	-0,029
-364,942	-200,000	-0,011	0,112
-363,927	-200,000	0,011	0,052
-362,912	-114,169	0,040	-0,006
-361,898	-200,000	-0,014	0,060
-360,883	-200,000	0,000	-0,014
-359,869	19,765	-0,077	0,044
-358,854	555,166	0,023	0,041
-357,839	-0,566	0,082	0,042
-356,825	712,579	0,078	0,148
-355,810	202,982	-0,028	0,031
-354,796	-156,230	0,098	-0,004
-353,781	-158,908	-0,080	0,003
-352,766	-77,569	-0,168	-0,041
-351,752	102,904	0,046	-0,038
-350,737	180,888	0,102	0,108
-349,723	-165,551	0,050	-0,002
-348,708	-28,303	0,036	0,015
-347,693	-138,011	-0,042	0,003
-346,679	-0,661	-0,165	-0,083
-345,664	361,932	-0,039	0,056
-344,650	157,320	-0,080	-0,079
-343,635	94,481	0,040	-0,032
-342,620	2,994	0,080	0,041
-341,606	-39,559	0,116	-0,043
-340,591	-42,798	-0,125	0,045
-339,577	358,013	0,041	0,059
-338,562	320,810	-0,059	-0,081
-337,548	-77,232	0,060	-0,015
-336,533	210,205	-0,068	-0,076
-335,518	-200,000	-0,010	-0,159
-334,504	128,458	-0,056	0,051
-333,489	-200,000	-0,002	-0,056
-332,475	-20,236	0,080	-0,035
-331,460	-200,000	-0,005	-0,080
-330,445	128,081	0,039	0,035
-329,431	-17,129	-0,058	-0,026
-328,416	294,014	0,052	0,068
-327,402	28,461	0,035	-0,021
-326,387	800,000	0,029	-0,074
-325,372	122,159	0,011	-0,010
-324,358	4,539	-0,047	0,025
-323,343	-70,449	0,083	-0,022
-322,329	347,897	0,049	0,069
-321,314	-200,000	0,023	0,090
-320,299	-53,085	0,059	0,019
-319,285	-56,088	0,106	-0,033
-318,270	800,000	-0,021	-0,047
-317,256	-200,000	-0,001	-0,079
-316,241	-200,000	-0,033	-0,166
-315,226	-200,000	0,048	-0,156
-314,212	267,159	0,045	0,057
-313,197	-62,378	0,028	0,008
-312,183	132,355	-0,055	-0,051
-311,168	137,199	0,078	-0,073
-310,153	74,696	-0,055	0,041
-309,139	258,953	-0,069	0,086
-308,124	318,499	-0,107	0,146
-307,110	169,776	0,112	-0,115
-306,095	-115,630	0,093	-0,012
-305,080	546,604	-0,086	0,148
-304,066	-200,000	-0,005	0,074
-303,051	695,742	0,081	-0,153
-302,037	69,064	-0,049	0,036
-301,022	-11,726	-0,014	-0,007
-300,008	210,442	0,108	0,121
-298,993	652,905	0,043	0,078
-297,978	-84,201	-0,056	0,013
-296,964	64,264	0,105	-0,075
-295,949	-68,943	-0,227	-0,062
-294,935	-200,000	-0,019	-0,190
-293,920	-200,000	-0,006	-0,098
-292,905	-61,345	0,063	-0,019
-291,891	144,464	-0,141	0,135
-290,876	221,390	0,070	0,081
-289,862	91,375	-0,059	-0,048
-288,847	-39,256	0,076	-0,028
-287,832	215,353	-0,019	-0,022
-286,818	-200,000	-0,023	0,104
-285,803	-200,000	0,007	0,062
-284,789	329,782	0,040	-0,055
-283,774	-200,000	-0,002	0,060
-282,759	800,000	-0,022	0,053
-281,745	800,000	-0,033	0,068
-280,730	-200,000	-0,008	0,061
-279,716	168,524	0,087	-0,089
-278,701	-200,000	-0,043	-0,172
-277,686	121,667	0,063	0,056
-276,672	-200,000	0,039	0,196
-275,657	196,348	0,080	-0,087
-274,643	595,504	-0,110	-0,195
-273,628	-200,000	-0,027	-0,133
-272,613	602,670	0,019	0,034
-271,599	-200,000	0,007	0,041
-270,584	22,244	0,090	0,052
-269,570	-107,634	0,071	-0,011
-268,555	332,587	0,047	0,066
-267,540	800,000	0,024	-0,072
-266,526	-200,000	-0,007	-0,023
-265,511	50,634	-0,085	-0,057
-264,497	220,090	0,069	-0,079
-263,482	-108,940	0,041	0,006
-262,467	121,240	-0,031	0,028
-261,453	13,532	-0,081	0,045
-260,438	-56,205	-0,127	0,040
-259,424	133,445	0,074	-0,069
-258,409	-56,720	-0,068	-0,021
-257,395	800,000	-0,044	-0,101
-256,380	795,510	-0,053	-0,104
-255,365	-192,929	0,083	0,001
-254,351	83,003	0,072	0,056
-253,336	-50,306	0,078	-0,026
-252,322	62,170	-0,066	0,047
-251,307	-200,000	-0,004	0,015
-250,292	648,311	0,054	-0,100
-249,278	67,004	-0,028	0,020
-248,263	-17,464	-0,112	-0,050
-247,249	-59,840	-0,070	-0,021
-246,234	-200,000	0,003	0,072
-245,219	-63,244	-0,061	-0,018
-244,205	800,000	0,040	-0,089
-243,190	800,000	-0,031	0,081
-242,176	285,460	-0,048	0,062
-241,161	102,563	0,142	-0,119
-240,146	-75,840	-0,106	0,027
-239,132	800,000	-0,043	-0,086
-238,117	290,593	-0,025	-0,033
-237,103	-25,033	-0,128	-0,054
-236,088	23,209	0,117	-0,068
-235,073	-200,000	0,025	0,128
-234,059	127,222	0,042	0,038
-233,044	246,552	-0,108	0,130
-232,030	509,202	-0,022	0,036
-231,015	89,864	-0,113	0,090
-230,000	800,000	-0,045	-0,105
-228,986	186,955	-0,080	0,086
-227,971	263,917	0,068	0,085
-226,957	-159,515	0,131	-0,005
-225,942	-120,351	0,045	0,005
-224,927	9,875	-0,109	0,059
-223,913	-25,484	-0,008	0,003
-222,898	-2,493	0,051	0,025
-221,884	10,358	0,024	-0,013
-220,869	-200,000	-0,002	-0,017
-219,855	336,219	0,059	0,082
-218,840	800,000	-0,025	0,075
-217,825	-86,183	-0,039	-0,008
-216,811	-200,000	-0,004	-0,190
-215,796	410,990	-0,070	-0,106
-214,782	-158,165	-0,014	-0,001
-213,767	-63,896	0,019	-0,005
-212,752	-2,115	0,121	0,060
-211,738	-200,000	0,015	0,181
-210,723	106,208	-0,105	0,089
-209,709	221,130	-0,082	-0,094
-208,694	-28,473	0,042	-0,017
-207,679	-200,000	-0,010	-0,050
-206,665	-87,878	0,079	-0,017
-205,650	-200,000	-0,003	-0,036
-204,636	-81,606	-0,065	0,015
-203,621	-200,000	-0,007	0,073
-202,606	-80,912	0,062	-0,015
-201,592	-59,112	-0,100	-0,030
-200,577	303,426	-0,083	-0,110
-199,563	800,000	-0,080	0,191
-198,548	-94,765	-0,116	-0,022
-197,533	-200,000	0,000	0,022
-196,519	-200,000	-0,005	0,092
-195,504	800,000	-0,003	-0,008
-194,490	800,000	0,027	-0,064
-193,475	82,128	0,059	-0,045
-192,460	800,000	0,064	0,160
-191,446	180,102	-0,099	0,104
-190,431	-200,000	-0,004	-0,119
-189,417	-2,174	0,070	-0,035
-188,402	-92,233	0,101	-0,020
-187,387	-3,411	0,170	-0,084
-186,373	76,466	-0,024	-0,018
-185,358	699,150	0,060	0,112
-184,344	-3,817	-0,108	-0,053
-183,329	132,490	0,095	0,087
-182,315	-1,258	0,071	-0,036
-181,300	-200,000	0,013	0,103
-180,285	-200,000	0,036	-0,254
-179,271	-200,000	0,005	-0,099
-178,256	29,675	-0,014	0,008
-177,242	-6,527	-0,109	-0,053
-176,227	-97,775	0,181	-0,033
-175,212	350,063	0,019	-0,026
-174,198	634,511	-0,036	0,065
-173,183	25,928	0,019	-0,011
-172,169	-16,405	-0,061	0,028
-171,154	-0,014	0,070	-0,035
-170,139	-34,988	0,121	0,047
-169,125	78,897	0,085	0,065
-168,110	-200,000	0,022	-0,081
-167,096	-82,310	-0,034	-0,008
-166,081	-58,873	-0,033	0,010
-165,066	-162,328	-0,109	-0,004
-164,052	-5,799	-0,163	0,079
-163,037	174,142	0,060	0,062
-162,023	-200,000	-0,008	-0,092
-161,008	136,011	-0,071	-0,066
-159,993	441,627	-0,026	0,041
-158,979	-71,657	-0,104	-0,027
-157,964	-200,000	-0,009	0,071
-156,950	-200,000	0,020	0,104
-155,935	236,489	0,013	-0,015
-154,920	23,014	0,077	-0,045
-153,906	115,085	0,008	-0,007
-152,891	-200,000	-0,021	0,103
-151,877	-121,217	-0,065	-0,008
-150,862	800,000	-0,023	-0,064
-149,847	52,683	-0,060	0,041
-148,833	-200,000	0,026	0,127
-147,818	98,975	0,070	-0,057
-146,804	-200,000	0,038	0,120
-145,789	-200,000	-0,001	0,072
-144,775	-200,000	-0,008	-0,050
-143,760	-42,742	-0,058	0,021
-142,745	-200,000	0,015	-0,130
-141,731	128,791	0,040	-0,036
-140,716	800,000	0,089	0,215
-139,702	-152,540	0,179	0,009
-138,687	-177,710	-0,108	0,002
-137,672	-200,000	0,004	-0,044
-136,658	56,656	-0,082	-0,056
-135,643	-200,000	-0,035	-0,141
-134,629	170,189	-0,101	0,103
-133,614	-200,000	0,005	-0,035
-132,599	800,000	-0,031	-0,071
-131,585	-26,770	0,053	-0,022
-130,570	651,748	-0,038	0,070
-129,556	-108,809	-0,077	0,012
-128,541	11,773	0,089	-0,049
-127,526	81,507	0,108	-0,083
-126,512	154,101	-0,177	0,173
-125,497	181,960	0,082	0,086
-124,483	46,888	-0,066	0,044
-123,468	320,274	0,146	0,197
-122,453	494,223	-0,004	0,006
-121,439	800,000	-0,021	0,051
-120,424	51,120	0,043	0,029
