DTS Sentinel unit serial number:	SN410029Multiplexer serial number:	ORYXHardware model number:	OX2-SRSoftware version number:	ORYX F/W v4,00 Oryx Data Collector v3.7.2.0data status	okinstallation	BH3 CH2differential loss correction	single-endedforward channel	channel 2reverse channel	N/Adate	2023/12/05time	11:52:28forward acquisition time	300,00reverse acquisition time	0,00gamma	499,1914k internal	0,3195k external	0,3195temperature offset calibration	1,0000default loss term (dB/km)	0,3820temperature slope calibration	1,0000multiplexer offset coefficient	1,0000multiplexer slope coefficient	1,0000fibre end	0,00T internal ref (°C)	9,69T ext. ref 1 (°C)	-4,99T ext. ref 2 (°C)	-5,04length (m)	temperature (°C)	Stokes	anti-Stokes-744,400	800,000	-0,023	-0,066
-743,385	-76,093	-0,370	0,095
-742,371	131,774	0,072	-0,068
-741,356	63,617	-0,209	0,153
-740,342	-200,000	0,007	-0,099
-739,327	26,573	-0,270	0,164
-738,312	105,621	-0,100	-0,086
-737,298	-162,369	-0,213	-0,008
-736,283	-85,788	-0,054	-0,012
-735,269	-7,080	-0,283	0,140
-734,254	-200,000	-0,048	-0,189
-733,239	-188,644	-0,372	0,003
-732,225	158,720	0,091	-0,092
-731,210	-200,000	-0,008	0,163
-730,196	-129,888	-0,139	-0,014
-729,181	-200,000	0,013	0,087
-728,167	166,543	-0,073	-0,076
-727,152	240,779	-0,100	-0,122
-726,137	-115,249	-0,112	0,015
-725,123	-15,338	-0,167	-0,077
-724,108	-200,000	-0,008	-0,096
-723,094	220,669	-0,035	-0,041
-722,079	-56,973	-0,133	0,043
-721,064	-200,000	0,015	0,098
-720,050	84,579	-0,066	0,053
-719,035	439,173	-0,037	-0,059
-718,021	-200,000	-0,019	-0,212
-717,006	-200,000	-0,028	-0,172
-715,991	113,576	-0,067	-0,060
-714,977	363,584	-0,029	-0,042
-713,962	209,498	0,052	-0,059
-712,948	544,871	-0,070	0,123
-711,933	187,922	-0,054	-0,059
-710,918	14,174	-0,041	-0,023
-709,904	-3,862	-0,088	-0,044
-708,889	-200,000	-0,002	-0,131
-707,875	-54,824	-0,193	-0,063
-706,860	-133,945	0,042	-0,004
-705,845	800,000	-0,041	-0,101
-704,831	497,167	-0,046	-0,078
-703,816	232,542	0,073	-0,087
-702,802	171,245	0,051	0,054
-701,787	800,000	-0,021	-0,056
-700,772	-43,632	-0,123	-0,045
-699,758	-20,113	-0,021	0,010
-698,743	-66,381	-0,084	-0,024
-697,729	-200,000	0,009	0,080
-696,714	-63,806	-0,047	0,014
-695,699	378,175	-0,050	-0,075
-694,685	159,959	0,048	0,048
-693,670	-160,452	0,121	-0,005
-692,656	800,000	-0,054	0,127
-691,641	-41,816	0,077	0,029
-690,627	472,155	-0,033	-0,054
-689,612	173,572	0,059	-0,062
-688,597	-8,821	-0,116	0,056
-687,583	-200,000	-0,002	-0,086
-686,568	800,000	0,058	-0,170
-685,554	729,756	0,045	-0,088
-684,539	-130,338	0,045	-0,004
-683,524	229,757	0,047	0,056
-682,510	-127,936	-0,006	-0,001
-681,495	-101,726	-0,103	-0,018
-680,481	532,118	-0,051	-0,089
-679,466	-113,965	-0,084	-0,012
-678,451	676,829	0,030	0,057
-677,437	800,000	0,032	0,087
-676,422	111,541	0,030	0,027
-675,408	-4,680	-0,149	-0,074
-674,393	226,583	-0,085	0,101
-673,378	-145,471	-0,071	0,005
-672,364	-96,303	-0,122	0,023
-671,349	108,376	0,029	0,025
-670,335	383,609	-0,099	0,148
-669,320	800,000	0,033	0,068
-668,305	237,233	0,073	-0,088
-667,291	623,494	0,061	0,112
-666,276	273,645	0,039	-0,050
-665,262	-200,000	-0,019	-0,113
-664,247	-200,000	0,003	-0,107
-663,232	59,457	0,137	-0,098
-662,218	78,142	-0,057	0,044
-661,203	-105,662	0,100	-0,016
-660,189	293,849	-0,036	0,048
-659,174	143,013	-0,081	0,078
-658,159	496,654	0,011	-0,018
-657,145	53,568	-0,083	-0,058
-656,130	-111,528	0,083	-0,012
-655,116	-34,046	-0,096	-0,038
-654,101	-200,000	0,013	0,053
-653,086	191,610	0,123	0,135
-652,072	-200,000	-0,003	0,105
-651,057	-30,718	-0,142	-0,058
-650,043	701,707	0,078	-0,149
-649,028	370,327	-0,087	-0,128
-648,014	-200,000	0,006	0,072
-646,999	800,000	-0,018	0,048
-645,984	475,795	0,056	-0,093
-644,970	-26,099	0,049	0,021
-643,955	-9,098	-0,095	-0,046
-642,941	247,422	0,098	-0,120
-641,926	800,000	-0,033	-0,085
-640,911	160,979	0,068	-0,069
-639,897	-136,625	0,081	-0,007
-638,882	-200,000	-0,007	0,056
-637,868	-200,000	-0,025	-0,103
-636,853	-200,000	0,022	-0,071
-635,838	95,587	-0,120	-0,099
-634,824	-32,515	-0,050	-0,020
-633,809	305,052	-0,086	0,116
-632,795	274,014	-0,043	-0,055
-631,780	-158,903	-0,094	0,004
-630,765	-35,009	0,163	0,064
-629,751	209,223	-0,074	-0,085
-628,736	443,920	-0,053	-0,085
-627,722	-200,000	-0,002	0,083
-626,707	-200,000	-0,004	-0,021
-625,692	-0,136	0,106	0,054
-624,678	-109,983	0,076	-0,011
-623,663	77,853	-0,046	0,036
-622,649	-200,000	0,019	-0,162
-621,634	-77,783	-0,094	-0,023
-620,619	-108,520	0,115	-0,018
-619,605	-200,000	-0,016	0,076
-618,590	437,924	0,081	-0,129
-617,576	489,020	-0,056	0,094
-616,561	73,486	0,057	0,044
-615,546	800,000	-0,049	-0,114
-614,532	217,919	-0,054	0,063
-613,517	-200,000	0,015	0,175
-612,503	354,259	-0,067	0,096
-611,488	-8,540	0,028	0,014
-610,474	800,000	0,017	0,039
-609,459	-200,000	-0,000	-0,079
-608,444	621,351	-0,027	-0,050
-607,430	66,924	-0,108	0,079
-606,415	800,000	0,053	-0,109
-605,401	263,771	0,038	-0,048
-604,386	-200,000	0,001	-0,080
-603,371	16,475	0,025	0,014
-602,357	-88,199	-0,074	-0,016
-601,342	800,000	0,087	0,183
-600,328	71,068	-0,037	-0,028
-599,313	-109,488	0,036	-0,005
-598,298	226,734	-0,064	-0,075
-597,284	103,326	0,106	-0,090
-596,269	-164,628	0,135	0,004
-595,255	724,057	-0,023	-0,045
-594,240	9,077	0,078	0,043
-593,225	-200,000	-0,006	-0,069
-592,211	48,278	-0,107	0,072
-591,196	119,818	0,089	0,079
-590,182	-75,731	-0,112	-0,028
-589,167	111,785	0,063	0,055
-588,152	800,000	-0,028	-0,074
-587,138	-200,000	0,019	-0,101
-586,123	800,000	0,028	-0,087
-585,109	-200,000	-0,014	-0,049
-584,094	-58,305	-0,080	-0,025
-583,079	-95,021	0,275	0,053
-582,065	24,006	0,032	0,019
-581,050	301,899	0,079	0,106
-580,036	26,516	-0,006	-0,004
-579,021	92,179	-0,115	-0,093
-578,006	-200,000	0,023	-0,076
-576,992	181,482	0,082	-0,087
-575,977	253,358	-0,102	0,127
-574,963	-89,850	0,037	0,008
-573,948	-78,438	-0,061	0,015
-572,934	-200,000	0,034	0,181
-571,919	211,589	-0,024	0,028
-570,904	-200,000	0,026	-0,118
-569,890	-200,000	-0,001	-0,217
-568,875	-200,000	-0,045	-0,171
-567,861	-15,733	-0,061	-0,028
-566,846	-102,640	-0,123	0,021
-565,831	-200,000	0,016	0,051
-564,817	-200,000	0,004	0,018
-563,802	-125,027	0,066	-0,007
-562,788	267,261	-0,042	-0,053
-561,773	95,331	-0,086	0,071
-560,758	-83,543	0,044	0,010
-559,744	-97,375	0,050	0,009
-558,729	-120,095	-0,068	-0,008
-557,715	-200,000	0,004	-0,027
-556,700	800,000	-0,072	-0,175
-555,685	800,000	-0,081	-0,182
-554,671	447,213	-0,069	0,110
-553,656	113,892	-0,050	0,044
-552,642	-200,000	0,000	0,208
-551,627	800,000	-0,027	0,084
-550,612	-133,376	-0,209	-0,019
-549,598	-8,292	0,092	-0,045
-548,583	194,725	-0,067	-0,073
-547,569	80,709	0,048	-0,038
-546,554	800,000	0,032	-0,093
-545,539	228,736	-0,037	-0,043
-544,525	-56,534	-0,170	0,054
-543,510	-200,000	0,005	0,031
-542,496	-200,000	0,029	-0,173
-541,481	79,377	-0,115	0,089
-540,466	800,000	0,020	0,056
-539,452	152,360	-0,045	0,044
-538,437	-159,356	-0,104	0,004
-537,423	275,627	0,053	0,068
-536,408	-200,000	0,015	0,134
-535,393	-200,000	-0,004	-0,093
-534,379	197,412	-0,041	-0,045
-533,364	-96,831	-0,054	-0,010
-532,350	-200,000	0,023	-0,111
-531,335	-129,367	0,192	0,019
-530,321	160,774	-0,098	-0,099
-529,306	-50,306	0,051	-0,017
-528,291	148,721	-0,076	-0,074
-527,277	-112,682	-0,052	-0,007
-526,262	-21,012	0,041	0,018
-525,248	-165,499	-0,104	-0,003
-524,233	-102,451	0,030	0,005
-523,218	800,000	0,029	0,088
-522,204	152,054	-0,040	-0,039
-521,189	-200,000	-0,031	-0,154
-520,175	370,541	-0,089	0,130
-519,160	-200,000	-0,010	-0,068
-518,145	800,000	-0,040	0,101
-517,131	125,403	0,064	-0,059
-516,116	-55,480	0,076	-0,024
-515,102	-200,000	0,005	0,076
-514,087	203,156	-0,061	-0,068
-513,072	-79,403	-0,256	-0,062
-512,058	94,498	0,026	0,021
-511,043	280,052	-0,128	-0,166
-510,029	445,414	0,063	-0,100
-509,014	2,081	-0,069	-0,036
-507,999	800,000	0,070	0,180
-506,985	235,471	0,061	-0,072
-505,970	150,214	0,026	0,026
-504,956	-97,829	0,133	-0,025
-503,941	800,000	-0,065	-0,135
-502,926	-200,000	-0,003	0,073
-501,912	-71,337	0,062	-0,017
-500,897	-200,000	0,013	0,218
-499,883	-200,000	-0,012	-0,101
-498,868	-200,000	-0,013	-0,136
-497,853	394,534	0,021	0,032
-496,839	619,051	0,042	0,076
-495,824	-83,590	0,027	0,006
-494,810	-90,124	0,121	-0,025
-493,795	447,286	-0,003	0,005
-492,781	800,000	-0,075	-0,177
-491,766	228,630	-0,056	0,067
-490,751	-200,000	0,009	-0,097
-489,737	-200,000	0,008	0,068
-488,722	-70,546	0,219	0,059
-487,708	192,312	0,017	0,019
-486,693	173,008	0,106	0,110
-485,678	71,130	-0,015	-0,011
-484,664	-141,516	-0,184	0,013
-483,649	800,000	0,080	-0,210
-482,635	82,001	-0,057	0,045
-481,620	-113,209	0,078	0,011
-480,605	205,559	0,034	-0,038
-479,591	352,743	0,043	0,062
-478,576	322,610	-0,029	0,041
-477,562	-200,000	-0,018	-0,091
-476,547	586,235	0,014	-0,025
-475,532	-167,628	-0,050	0,001
-474,518	65,145	-0,080	-0,058
-473,503	81,428	0,063	0,049
-472,489	800,000	0,007	-0,021
-471,474	-96,332	-0,025	-0,005
-470,459	424,742	-0,088	0,137
-469,445	-26,789	-0,029	-0,012
-468,430	494,199	-0,089	-0,148
-467,416	-200,000	0,025	0,080
-466,401	-200,000	-0,011	0,154
-465,386	-200,000	-0,059	0,189
-464,372	595,947	-0,048	0,086
-463,357	-18,760	-0,140	-0,063
-462,343	800,000	-0,076	-0,199
-461,328	659,106	-0,082	-0,152
-460,313	-81,873	-0,103	-0,024
-459,299	166,188	-0,071	0,073
-458,284	199,991	0,055	0,061
-457,270	640,594	-0,078	0,144
-456,255	-46,641	-0,051	-0,018
-455,241	-200,000	0,001	-0,041
-454,226	42,942	-0,066	0,043
-453,211	3,928	-0,047	-0,025
-452,197	-1,059	0,074	0,037
-451,182	231,528	0,037	-0,043
-450,168	-65,410	-0,074	0,021
-449,153	-69,253	-0,088	-0,024
-448,138	442,006	-0,094	0,149
-447,124	-200,000	0,029	-0,102
-446,109	229,355	0,006	0,007
-445,095	313,413	-0,025	0,034
-444,080	227,734	-0,120	0,141
-443,065	163,648	0,125	0,127
-442,051	125,884	0,050	0,045
-441,036	598,275	-0,009	0,016
-440,022	-200,000	-0,008	-0,090
-439,007	-200,000	-0,009	-0,038
-437,992	-200,000	0,026	0,099
-436,978	484,761	0,101	0,166
-435,963	151,894	0,041	-0,040
-434,949	268,671	-0,033	-0,042
-433,934	160,377	-0,106	0,107
-432,919	483,388	-0,015	-0,024
-431,905	171,602	-0,043	0,045
-430,890	210,278	0,090	0,101
-429,876	-189,153	0,115	-0,001
-428,861	26,110	0,102	0,061
-427,846	399,800	-0,041	0,063
-426,832	-125,601	-0,121	-0,013
-425,817	-200,000	-0,002	0,060
-424,803	554,818	0,031	0,054
-423,788	559,393	0,028	-0,049
-422,773	13,303	-0,059	0,033
-421,759	72,620	0,055	0,041
-420,744	-2,846	-0,085	-0,043
-419,730	-35,098	-0,161	-0,063
-418,715	-135,199	-0,095	-0,008
-417,701	-135,586	0,124	-0,010
-416,686	114,574	0,077	0,067
-415,671	-125,610	0,050	-0,005
-414,657	396,855	0,146	0,219
-413,642	289,205	0,054	-0,070
-412,628	265,394	-0,065	-0,081
-411,613	-23,743	0,120	-0,052
-410,598	800,000	-0,012	0,028
-409,584	32,945	-0,090	0,056
-408,569	800,000	-0,068	0,144
-407,555	257,491	-0,092	0,113
-406,540	168,869	0,033	-0,034
-405,525	-35,206	0,116	-0,045
-404,511	800,000	-0,052	-0,162
-403,496	211,597	0,045	-0,051
-402,482	274,284	0,070	-0,090
-401,467	-63,219	0,078	0,023
-400,452	-40,205	0,050	0,019
-399,438	-200,000	-0,000	0,038
-398,423	-29,296	-0,065	0,027
-397,409	-200,000	0,023	0,090
-396,394	215,019	-0,035	-0,040
-395,379	-118,391	0,106	0,013
-394,365	-200,000	0,008	-0,068
-393,350	-106,588	0,095	-0,015
-392,336	257,851	-0,093	0,116
-391,321	-65,963	0,035	-0,010
-390,306	304,405	-0,063	0,084
-389,292	-48,134	-0,101	0,035
-388,277	82,393	-0,039	0,030
-387,263	88,366	0,070	-0,056
-386,248	390,520	-0,045	0,067
-385,233	-200,000	-0,027	0,171
-384,219	-200,000	-0,002	0,070
-383,204	-0,353	-0,099	-0,051
-382,190	-200,000	-0,013	-0,064
-381,175	436,631	0,028	-0,044
-380,160	18,364	0,039	0,022
-379,146	-200,000	-0,043	0,147
-378,131	-200,000	-0,018	-0,084
-377,117	63,567	-0,059	-0,043
-376,102	-200,000	0,013	-0,042
-375,088	713,426	-0,072	-0,138
-374,073	-145,931	-0,045	-0,003
-373,058	626,503	0,022	0,041
-372,044	-200,000	0,035	0,127
-371,029	223,379	0,081	0,094
-370,015	49,441	0,147	0,099
-369,000	-200,000	-0,015	-0,059
-367,985	800,000	-0,048	-0,106
-366,971	800,000	0,003	-0,005
-365,956	-200,000	0,001	0,078
-364,942	-200,000	-0,010	0,273
-363,927	800,000	-0,005	0,014
-362,912	217,147	-0,044	-0,050
-361,898	14,559	-0,047	-0,026
-360,883	800,000	0,005	-0,011
-359,869	118,768	-0,115	-0,102
-358,854	-39,447	0,094	0,035
-357,839	-36,507	0,076	0,029
-356,825	-101,870	0,025	0,004
-355,810	-24,450	0,068	-0,029
-354,796	-111,794	-0,152	-0,022
-353,781	800,000	0,032	-0,091
-352,766	-200,000	-0,010	-0,169
-351,752	-171,288	0,096	-0,002
-350,737	-149,238	0,029	0,002
-349,723	-24,066	0,162	0,069
-348,708	131,608	-0,048	0,044
-347,693	-118,038	0,159	0,020
-346,679	-200,000	0,027	0,087
-345,664	74,077	-0,129	-0,097
-344,650	-99,926	0,067	-0,012
-343,635	186,752	0,081	0,087
-342,620	-21,065	0,186	0,081
-341,606	781,724	0,060	-0,118
-340,591	-61,635	0,067	0,020
-339,577	-200,000	0,054	-0,176
-338,562	800,000	-0,037	-0,076
-337,548	800,000	-0,040	-0,102
-336,533	800,000	-0,010	0,022
-335,518	-85,334	0,158	-0,035
-334,504	-43,679	0,048	-0,017
-333,489	800,000	-0,026	-0,054
-332,475	800,000	0,091	-0,186
-331,460	-85,469	-0,145	-0,032
-330,445	-116,260	0,121	-0,016
-329,431	-80,885	-0,017	0,004
-328,416	-200,000	-0,041	0,153
-327,402	-155,636	0,033	-0,001
-326,387	-138,699	-0,065	0,005
-325,372	-67,693	0,119	0,033
-324,358	441,944	-0,034	-0,054
-323,343	-200,000	-0,001	-0,058
-322,329	-172,540	0,108	0,002
-321,314	-200,000	-0,031	0,120
-320,299	-8,103	0,103	-0,050
-319,285	-200,000	-0,003	0,037
-318,270	545,715	0,038	0,066
-317,256	210,805	0,085	-0,096
-316,241	-134,083	-0,047	-0,004
-315,226	-143,507	0,062	-0,004
-314,212	-100,292	0,162	-0,028
-313,197	-200,000	0,000	0,040
-312,183	198,065	-0,049	0,054
-311,168	-96,111	0,031	0,006
-310,153	9,390	-0,031	-0,017
-309,139	-200,000	-0,007	0,033
-308,124	-139,121	0,034	-0,003
-307,110	13,212	0,052	-0,028
-306,095	87,126	-0,040	-0,031
-305,080	-200,000	-0,021	0,075
-304,066	299,919	0,065	-0,085
-303,051	92,309	-0,023	0,019
-302,037	52,199	-0,107	-0,073
-301,022	-0,299	0,115	-0,059
-300,008	800,000	-0,014	-0,044
-298,993	103,005	-0,025	0,021
-297,978	-28,862	-0,096	0,039
-296,964	-32,241	-0,063	-0,025
-295,949	287,227	-0,063	-0,082
-294,935	4,606	0,047	-0,025
-293,920	-60,411	-0,127	-0,038
-292,905	800,000	0,017	-0,039
-291,891	720,349	0,038	0,073
-290,876	315,378	-0,055	-0,074
-289,862	800,000	0,024	-0,075
-288,847	-71,434	-0,103	-0,028
-287,832	-33,957	-0,053	-0,021
-286,818	-19,897	0,115	-0,051
-285,803	23,994	0,149	0,087
-284,789	-200,000	0,052	0,194
-283,774	411,787	0,048	-0,074
-282,759	26,986	0,025	-0,015
-281,745	-129,487	0,116	-0,011
-280,730	729,906	0,057	-0,110
-279,716	239,736	-0,052	0,062
-278,701	-200,000	-0,005	0,022
-277,686	142,295	0,061	0,058
-276,672	-200,000	-0,044	0,162
-275,657	-200,000	-0,004	0,175
-274,643	95,273	0,051	-0,041
-273,628	67,851	-0,034	0,025
-272,613	70,098	0,073	0,054
-271,599	237,048	0,099	0,118
-270,584	185,250	-0,100	0,106
-269,570	66,345	0,062	0,045
-268,555	46,830	-0,020	0,013
-267,540	-200,000	0,000	-0,016
-266,526	-125,030	-0,099	-0,011
-265,511	-142,052	-0,123	-0,009
-264,497	496,043	0,071	0,118
-263,482	-200,000	-0,000	0,196
-262,467	800,000	0,048	0,101
-261,453	364,003	-0,094	0,136
-260,438	-9,439	0,020	-0,010
-259,424	366,163	-0,061	-0,088
-258,409	32,732	-0,104	-0,064
-257,395	290,374	0,016	0,021
-256,380	18,496	0,111	0,064
-255,365	-31,943	0,144	0,057
-254,351	-200,000	-0,002	0,188
-253,336	134,413	-0,118	-0,109
-252,322	-2,229	0,081	-0,041
-251,307	-132,409	-0,143	0,013
-250,292	-200,000	0,003	-0,017
-249,278	-84,811	-0,012	0,003
-248,263	-200,000	0,012	-0,098
-247,249	-200,000	-0,018	-0,221
-246,234	-200,000	0,009	-0,117
-245,219	-200,000	0,018	-0,107
-244,205	642,281	-0,044	-0,080
-243,190	-200,000	-0,010	0,038
-242,176	800,000	-0,012	-0,036
-241,161	-69,294	-0,077	0,021
-240,146	275,271	-0,000	-0,000
-239,132	403,236	0,040	-0,061
-238,117	261,384	-0,098	-0,121
-237,103	184,097	-0,025	-0,026
-236,088	800,000	0,016	0,032
-235,073	-200,000	0,033	0,109
-234,059	221,026	0,130	0,149
-233,044	-200,000	0,045	0,171
-232,030	800,000	0,036	0,089
-231,015	360,499	-0,065	0,093
-230,000	-200,000	-0,105	0,000
-228,986	88,894	-0,036	0,028
-227,971	34,106	0,053	0,033
-226,957	800,000	0,079	0,160
-225,942	-132,827	0,054	0,005
-224,927	-200,000	-0,000	0,159
-223,913	-121,261	0,070	0,008
-222,898	-121,759	-0,007	-0,001
-221,884	-109,114	-0,039	0,006
-220,869	193,891	0,063	-0,068
-219,855	21,010	-0,030	-0,018
-218,840	-200,000	0,003	0,060
-217,825	118,947	-0,060	0,053
-216,811	-200,000	0,014	0,046
-215,796	-53,080	0,043	0,014
-214,782	117,345	-0,165	-0,145
-213,767	50,842	-0,054	-0,037
-212,752	-200,000	-0,019	-0,063
-211,738	110,886	0,115	0,098
-210,723	179,673	0,083	0,087
-209,709	-106,084	-0,131	-0,021
-208,694	800,000	-0,007	-0,021
-207,679	-90,790	0,058	0,012
-206,665	-200,000	-0,003	0,059
-205,650	-200,000	0,061	0,269
-204,636	2,020	-0,048	0,025
-203,621	16,358	0,146	0,082
-202,606	-200,000	0,001	-0,127
-201,592	-46,158	0,137	-0,048
-200,577	-36,135	-0,048	-0,019
-199,563	-141,120	-0,154	0,011
-198,548	-118,779	-0,023	-0,003
-197,533	-40,670	0,022	0,008
-196,519	7,244	0,138	0,073
-195,504	496,784	-0,101	-0,166
-194,490	485,697	0,121	-0,198
-193,475	156,286	-0,126	0,124
-192,460	-129,297	0,064	0,006
-191,446	-200,000	-0,008	0,056
-190,431	-106,577	-0,153	-0,024
-189,417	800,000	-0,018	0,045
-188,402	121,986	-0,020	-0,018
-187,387	28,495	-0,045	-0,027
-186,373	716,308	0,035	-0,067
-185,358	800,000	-0,039	-0,103
-184,344	120,015	0,050	0,044
-183,329	-56,379	0,078	-0,024
-182,315	26,259	-0,041	0,025
-181,300	800,000	-0,013	-0,041
-180,285	340,008	0,039	0,054
-179,271	52,430	-0,180	-0,122
-178,256	-135,929	0,095	0,008
-177,242	800,000	-0,050	-0,113
-176,227	90,329	0,083	-0,066
-175,212	73,064	-0,062	-0,046
-174,198	-2,397	-0,051	0,025
-173,183	59,433	0,064	0,045
-172,169	58,407	-0,065	-0,046
-171,154	589,549	0,031	0,055
-170,139	234,647	-0,027	-0,032
-169,125	-163,234	0,090	-0,003
-168,110	120,160	-0,092	0,082
-167,096	560,251	0,032	-0,055
-166,081	690,876	0,019	-0,036
-165,066	-98,535	0,089	0,016
-164,052	241,207	0,051	0,061
-163,037	191,329	0,048	-0,052
-162,023	-30,344	0,049	0,020
-161,008	160,546	0,102	-0,101
-159,993	800,000	-0,026	-0,080
-158,979	85,363	-0,040	0,031
-157,964	-55,460	-0,042	-0,013
-156,950	636,013	-0,021	-0,037
-155,935	36,141	-0,020	0,012
-154,920	1,987	0,050	0,025
-153,906	19,863	0,154	0,088
-152,891	-200,000	-0,020	-0,205
-151,877	-200,000	0,013	-0,099
-150,862	-77,996	0,089	-0,022
-149,847	171,136	0,060	-0,062
-148,833	126,193	-0,033	-0,029
-147,818	-139,826	0,056	-0,004
-146,804	-49,620	-0,095	0,032
-145,789	-200,000	0,015	-0,113
-144,775	-79,414	-0,057	0,014
-143,760	-118,947	0,134	-0,017
-142,745	-200,000	-0,007	0,028
-141,731	146,168	0,125	0,119
-140,716	181,966	0,093	0,097
-139,702	-200,000	0,006	0,198
-138,687	-31,219	-0,083	0,033
-137,672	800,000	0,019	-0,053
-136,658	800,000	-0,037	-0,075
-135,643	261,094	-0,055	-0,067
-134,629	-200,000	0,021	-0,075
-133,614	-200,000	-0,014	-0,128
-132,599	800,000	-0,039	0,106
-131,585	800,000	-0,021	-0,057
-130,570	-124,563	0,115	0,013
-129,556	-8,478	-0,093	-0,044
-128,541	41,971	0,040	-0,026
-127,526	22,506	-0,051	0,030
-126,512	-144,040	0,113	-0,007
-125,497	-113,118	0,040	0,006
-124,483	-200,000	0,036	-0,157
-123,468	-32,840	0,091	-0,036
-122,453	-94,997	-0,031	-0,006
-121,439	800,000	-0,015	-0,038
-120,424	-42,482	0,013	-0,005
