DTS Sentinel unit serial number:	SN410029Multiplexer serial number:	ORYXHardware model number:	OX2-SRSoftware version number:	ORYX F/W v4,00 Oryx Data Collector v3.7.2.0data status	okinstallation	BH3 CH2differential loss correction	single-endedforward channel	channel 2reverse channel	N/Adate	2023/12/06time	07:02:28forward acquisition time	300,00reverse acquisition time	0,00gamma	499,1914k internal	0,3197k external	0,3197temperature offset calibration	1,0000default loss term (dB/km)	0,3820temperature slope calibration	1,0000multiplexer offset coefficient	1,0000multiplexer slope coefficient	1,0000fibre end	0,00T internal ref (°C)	8,86T ext. ref 1 (°C)	-5,83T ext. ref 2 (°C)	-5,93length (m)	temperature (°C)	Stokes	anti-Stokes-744,400	411,925	-0,083	-0,129
-743,385	44,072	-0,206	0,137
-742,371	-200,000	-0,008	-0,063
-741,356	111,844	-0,233	0,205
-740,342	-200,000	0,005	-0,027
-739,327	-98,771	-0,319	0,059
-738,312	-200,000	-0,041	-0,210
-737,298	45,222	-0,155	0,104
-736,283	-147,946	-0,082	0,005
-735,269	265,300	-0,168	0,214
-734,254	251,335	-0,083	-0,102
-733,239	-62,099	-0,446	0,135
-732,225	-200,000	0,030	-0,159
-731,210	-200,000	-0,026	0,091
-730,196	367,560	-0,054	-0,079
-729,181	293,360	-0,140	-0,186
-728,167	70,685	-0,021	-0,016
-727,152	150,725	0,069	-0,068
-726,137	800,000	-0,002	-0,004
-725,123	730,507	-0,073	-0,143
-724,108	53,005	-0,143	-0,100
-723,094	225,180	-0,097	-0,115
-722,079	-200,000	-0,035	0,125
-721,064	-92,750	0,168	0,034
-720,050	234,636	-0,103	-0,123
-719,035	3,300	-0,082	0,043
-718,021	45,397	0,032	-0,021
-717,006	800,000	-0,042	-0,116
-715,991	38,216	-0,176	-0,113
-714,977	-200,000	0,019	-0,073
-713,962	-70,283	0,039	-0,011
-712,948	800,000	0,039	-0,112
-711,933	-200,000	-0,011	-0,099
-710,918	363,662	-0,084	-0,123
-709,904	45,369	-0,099	-0,066
-708,889	-200,000	-0,020	-0,075
-707,875	-35,125	-0,060	-0,024
-706,860	-200,000	0,000	0,050
-705,845	800,000	-0,048	0,139
-704,831	-200,000	0,011	0,044
-703,816	39,947	-0,073	0,047
-702,802	12,909	-0,081	-0,046
-701,787	162,648	-0,078	-0,079
-700,772	-200,000	0,012	0,112
-699,758	-94,101	-0,126	-0,025
-698,743	-200,000	-0,012	0,100
-697,729	-99,507	0,186	-0,034
-696,714	-124,069	-0,090	-0,010
-695,699	42,640	-0,059	-0,039
-694,685	800,000	0,070	-0,183
-693,670	-44,613	-0,125	-0,045
-692,656	38,627	0,104	0,067
-691,641	-6,779	-0,074	-0,037
-690,627	800,000	-0,025	0,067
-689,612	-200,000	0,002	0,022
-688,597	-74,077	-0,034	0,009
-687,583	675,256	0,064	-0,121
-686,568	-200,000	-0,005	0,033
-685,554	139,752	-0,127	-0,122
-684,539	-200,000	0,015	0,127
-683,524	-126,948	-0,023	-0,002
-682,510	-27,739	0,099	-0,041
-681,495	198,598	-0,132	-0,147
-680,481	-200,000	-0,004	-0,064
-679,466	744,190	-0,049	-0,096
-678,451	800,000	-0,041	-0,129
-677,437	-200,000	0,038	0,141
-676,422	151,992	0,128	0,127
-675,408	-95,989	0,075	-0,014
-674,393	800,000	0,053	0,162
-673,378	800,000	-0,065	-0,131
-672,364	-200,000	0,010	-0,102
-671,349	656,761	-0,009	-0,017
-670,335	297,263	-0,012	0,016
-669,320	92,730	-0,037	-0,030
-668,305	131,805	-0,053	0,050
-667,291	319,665	-0,151	-0,208
-666,276	357,277	0,017	-0,025
-665,262	159,363	-0,142	-0,144
-664,247	-132,765	-0,055	-0,005
-663,232	201,137	0,088	0,099
-662,218	-200,000	-0,003	-0,126
-661,203	800,000	0,048	-0,125
-660,189	-200,000	0,001	0,066
-659,174	-63,050	-0,113	-0,034
-658,159	-200,000	-0,040	-0,156
-657,145	-200,000	-0,003	-0,055
-656,130	137,621	-0,077	0,073
-655,116	541,804	0,047	0,081
-654,101	221,327	0,008	0,009
-653,086	130,728	0,032	-0,030
-652,072	38,215	-0,074	-0,048
-651,057	-200,000	-0,023	0,090
-650,043	-28,142	-0,072	-0,030
-649,028	800,000	0,049	0,126
-648,014	-48,897	-0,031	0,011
-646,999	67,305	0,094	-0,070
-645,984	-200,000	-0,002	0,008
-644,970	800,000	-0,047	-0,143
-643,955	-23,262	-0,105	-0,045
-642,941	800,000	-0,054	0,120
-641,926	-200,000	0,016	0,090
-640,911	800,000	-0,039	-0,101
-639,897	800,000	0,036	-0,076
-638,882	-53,934	-0,174	-0,057
-637,868	-192,849	0,160	-0,001
-636,853	-200,000	-0,020	-0,150
-635,838	-200,000	-0,017	-0,226
-634,824	-200,000	-0,036	-0,165
-633,809	6,524	0,170	-0,091
-632,795	73,738	-0,102	0,078
-631,780	-79,430	0,081	-0,020
-630,765	95,717	-0,115	-0,095
-629,751	28,347	0,068	0,042
-628,736	-136,068	0,084	-0,007
-627,722	209,840	-0,085	0,096
-626,707	-76,347	0,124	-0,031
-625,692	318,079	0,021	0,028
-624,678	276,094	-0,053	-0,068
-623,663	196,172	0,018	-0,020
-622,649	-3,725	0,040	0,020
-621,634	185,051	0,097	-0,104
-620,619	-200,000	0,001	-0,018
-619,605	62,125	0,028	-0,020
-618,590	17,361	0,062	-0,036
-617,576	-200,000	0,033	0,138
-616,561	-200,000	0,039	0,149
-615,546	83,066	-0,076	0,060
-614,532	352,290	-0,089	-0,128
-613,517	181,864	-0,050	0,054
-612,503	588,788	0,090	-0,162
-611,488	-39,990	0,011	0,004
-610,474	246,394	0,104	-0,127
-609,459	179,918	0,052	0,056
-608,444	-61,913	-0,158	-0,047
-607,430	-200,000	0,015	-0,111
-606,415	185,607	0,013	-0,014
-605,401	-111,057	0,072	-0,011
-604,386	-86,492	0,128	0,028
-603,371	-200,000	0,009	0,039
-602,357	-140,519	-0,024	0,002
-601,342	-39,308	-0,135	0,051
-600,328	317,481	-0,093	-0,128
-599,313	-51,031	-0,101	-0,034
-598,298	227,000	0,057	0,068
-597,284	800,000	-0,018	-0,041
-596,269	125,197	-0,041	0,038
-595,255	56,966	0,107	0,075
-594,240	55,038	0,101	-0,071
-593,225	95,926	-0,022	0,018
-592,211	800,000	-0,032	-0,086
-591,196	800,000	0,048	-0,104
-590,182	800,000	0,035	-0,078
-589,167	-200,000	-0,005	-0,070
-588,152	-80,506	0,133	0,032
-587,138	-126,833	-0,142	-0,015
-586,123	-200,000	-0,010	-0,065
-585,109	-93,322	-0,275	0,055
-584,094	193,748	0,069	-0,076
-583,079	800,000	-0,004	0,010
-582,065	149,259	0,043	0,043
-581,050	71,947	-0,072	-0,054
-580,036	-200,000	-0,008	0,144
-579,021	-48,906	0,020	-0,007
-578,006	422,831	-0,051	0,080
-576,992	-99,518	0,078	-0,014
-575,977	-73,465	0,120	-0,031
-574,963	-141,653	0,108	0,008
-573,948	141,697	-0,056	0,053
-572,934	800,000	0,036	0,083
-571,919	-45,119	-0,095	-0,034
-570,904	-200,000	-0,006	-0,064
-569,890	-200,000	-0,049	-0,181
-568,875	70,535	-0,083	-0,062
-567,861	193,020	-0,049	-0,054
-566,846	39,892	0,077	0,050
-565,831	-200,000	-0,019	0,151
-564,817	462,857	0,067	0,108
-563,802	-200,000	0,008	0,100
-562,788	781,196	0,109	0,216
-561,773	438,019	-0,017	-0,028
-560,758	-170,027	0,066	0,002
-559,744	40,602	-0,119	0,077
-558,729	800,000	0,065	0,157
-557,715	75,145	-0,061	0,047
-556,700	345,570	-0,086	-0,123
-555,685	168,714	-0,087	-0,089
-554,671	347,951	0,099	0,141
-553,656	-200,000	0,018	0,071
-552,642	-52,947	-0,113	0,038
-551,627	-200,000	-0,003	-0,038
-550,612	-200,000	0,021	0,072
-549,598	-200,000	-0,009	-0,068
-548,583	1,882	-0,045	0,023
-547,569	-40,196	-0,055	0,021
-546,554	304,830	0,058	-0,078
-545,539	-128,539	-0,110	0,011
-544,525	-54,085	0,117	0,038
-543,510	96,917	-0,141	0,116
-542,496	156,192	-0,136	-0,135
-541,481	-133,602	-0,155	0,014
-540,466	29,146	0,067	0,041
-539,452	-62,606	-0,097	0,029
-538,437	-97,417	0,159	0,030
-537,423	-53,386	-0,039	-0,013
-536,408	-21,586	-0,119	0,052
-535,393	800,000	0,040	-0,105
-534,379	207,733	-0,160	-0,181
-533,364	800,000	-0,048	-0,115
-532,350	-127,464	0,056	-0,006
-531,335	195,095	-0,099	0,109
-530,321	255,241	0,084	0,104
-529,306	725,529	-0,040	-0,078
-528,291	-200,000	-0,005	-0,053
-527,277	-133,647	-0,055	0,005
-526,262	-16,701	0,106	0,048
-525,248	800,000	0,046	0,103
-524,233	-200,000	-0,004	-0,070
-523,218	-200,000	0,008	-0,076
-522,204	300,859	-0,028	-0,037
-521,189	-39,481	-0,139	0,052
-520,175	-56,955	-0,038	-0,012
-519,160	95,790	0,050	0,041
-518,145	320,491	-0,051	0,071
-517,131	-40,144	0,047	0,018
-516,116	435,075	0,024	-0,038
-515,102	146,387	0,068	0,065
-514,087	57,849	-0,144	-0,102
-513,072	-200,000	0,004	-0,015
-512,058	93,978	0,119	-0,097
-511,043	179,643	-0,092	-0,097
-510,029	-200,000	0,004	0,079
-509,014	106,240	0,067	-0,058
-507,999	371,977	-0,035	0,051
-506,985	3,481	-0,148	0,077
-505,970	-200,000	-0,006	-0,058
-504,956	-172,355	-0,141	0,003
-503,941	-200,000	0,012	0,043
-502,926	-200,000	0,000	0,014
-501,912	-85,354	0,065	-0,014
-500,897	166,504	0,093	0,095
-499,883	-200,000	-0,002	0,050
-498,868	178,753	0,046	-0,048
-497,853	-200,000	-0,005	-0,027
-496,839	-106,726	0,095	-0,015
-495,824	0,971	-0,113	0,058
-494,810	-200,000	-0,037	0,139
-493,795	-142,844	-0,095	-0,007
-492,781	800,000	0,037	-0,098
-491,766	182,354	-0,079	0,084
-490,751	43,357	-0,017	-0,011
-489,737	169,821	0,073	-0,076
-488,722	24,397	0,032	-0,019
-487,708	-54,545	0,079	0,026
-486,693	-200,000	0,011	-0,121
-485,678	-130,066	0,088	0,009
-484,664	203,040	-0,035	-0,039
-483,649	-96,016	-0,149	-0,028
-482,635	-86,252	0,051	0,011
-481,620	338,595	0,054	0,076
-480,605	794,247	0,058	0,115
-479,591	584,720	-0,035	0,063
-478,576	51,253	-0,057	0,039
-477,562	-62,197	-0,281	0,084
-476,547	-112,078	0,054	-0,008
-475,532	-19,632	0,132	0,059
-474,518	-56,962	0,197	0,062
-473,503	-73,286	0,174	-0,046
-472,489	-200,000	-0,008	0,061
-471,474	363,524	0,054	-0,078
-470,459	-174,352	-0,094	-0,002
-469,445	23,992	0,042	-0,025
-468,430	-200,000	0,002	-0,037
-467,416	-134,495	0,129	-0,011
-466,401	645,261	0,031	0,058
-465,386	221,984	-0,024	-0,028
-464,372	-200,000	-0,028	0,093
-463,357	178,830	-0,061	0,065
-462,343	146,805	0,104	0,100
-461,328	419,496	-0,028	0,044
-460,313	-200,000	-0,016	0,057
-459,299	95,758	0,055	-0,045
-458,284	102,667	0,038	-0,032
-457,270	800,000	-0,048	0,107
-456,255	-155,950	-0,098	-0,004
-455,241	319,200	-0,119	-0,163
-454,226	194,394	-0,050	-0,055
-453,211	-109,739	0,150	0,022
-452,197	-200,000	-0,010	0,160
-451,182	113,627	-0,177	0,155
-450,168	175,230	-0,051	0,053
-449,153	-200,000	-0,008	0,059
-448,138	-200,000	0,010	0,122
-447,124	-200,000	0,000	0,037
-446,109	-200,000	-0,022	0,105
-445,095	241,396	-0,064	-0,077
-444,080	349,539	0,081	0,116
-443,065	89,679	0,088	0,071
-442,051	-200,000	-0,007	0,212
-441,036	109,354	-0,049	-0,043
-440,022	2,693	0,020	0,010
-439,007	84,450	-0,029	0,023
-437,992	800,000	0,095	-0,190
-436,978	-200,000	0,013	-0,166
-435,963	3,452	0,082	0,043
-434,949	-112,481	-0,211	0,030
-433,934	-72,311	-0,054	0,014
-432,919	800,000	0,052	0,147
-431,905	207,854	0,068	-0,077
-430,890	-79,520	0,055	0,013
-429,876	26,476	0,055	0,033
-428,861	132,786	0,052	-0,049
-427,846	246,559	-0,056	-0,068
-426,832	445,415	0,046	-0,073
-425,817	-200,000	-0,020	-0,086
-424,803	-90,564	-0,096	0,020
-423,788	236,493	0,055	0,066
-422,773	-151,337	-0,118	0,006
-421,759	-43,411	0,057	-0,021
-420,744	-24,033	-0,115	-0,049
-419,730	106,033	0,046	-0,039
-418,715	800,000	0,029	-0,072
-417,701	-58,536	0,075	-0,023
-416,686	218,671	0,121	0,139
-415,671	800,000	-0,009	-0,025
-414,657	418,487	-0,035	0,054
-413,642	-158,439	-0,036	-0,001
-412,628	-151,940	0,139	0,007
-411,613	-200,000	0,005	0,059
-410,598	-84,280	-0,033	0,008
-409,584	51,178	0,058	-0,040
-408,569	19,021	-0,074	0,043
-407,555	-71,721	0,197	-0,052
-406,540	800,000	0,042	-0,107
-405,525	220,939	-0,107	-0,124
-404,511	513,831	-0,080	-0,134
-403,496	-64,861	-0,057	-0,016
-402,482	332,343	0,078	-0,108
-401,467	-104,097	0,118	0,020
-400,452	-106,160	-0,089	0,014
-399,438	-200,000	0,028	0,151
-398,423	-200,000	0,028	-0,123
-397,409	800,000	-0,032	-0,101
-396,394	-87,871	-0,043	0,009
-395,379	235,288	-0,060	0,071
-394,365	450,737	-0,056	0,090
-393,350	-200,000	-0,029	0,130
-392,336	-200,000	0,010	-0,109
-391,321	-120,542	-0,201	0,024
-390,306	-200,000	0,009	-0,033
-389,292	-39,604	0,047	0,017
-388,277	800,000	-0,042	0,087
-387,263	-66,616	0,028	0,008
-386,248	-200,000	0,012	0,051
-385,233	746,580	-0,030	0,058
-384,219	-200,000	-0,003	-0,047
-383,204	36,639	0,101	-0,064
-382,190	-200,000	0,043	-0,143
-381,175	800,000	0,032	-0,100
-380,160	-68,244	0,135	0,038
-379,146	300,340	0,093	0,123
-378,131	195,979	0,130	0,142
-377,117	638,736	-0,080	-0,147
-376,102	435,977	0,027	-0,042
-375,088	134,043	0,065	0,060
-374,073	156,686	0,036	-0,035
-373,058	-200,000	0,046	0,149
-372,044	-86,104	0,085	-0,019
-371,029	316,767	-0,034	-0,046
-370,015	139,965	-0,005	-0,005
-369,000	-100,751	0,140	0,025
-367,985	179,375	-0,067	-0,070
-366,971	-10,585	0,063	-0,030
-365,956	-77,742	-0,114	-0,028
-364,942	-19,284	0,112	-0,050
-363,927	-6,755	-0,019	-0,009
-362,912	-200,000	0,034	-0,121
-361,898	-96,455	-0,095	0,018
-360,883	54,166	-0,105	0,073
-359,869	-200,000	-0,010	0,035
-358,854	-79,506	-0,040	0,010
-357,839	-200,000	0,040	0,275
-356,825	16,344	0,066	-0,037
-355,810	-200,000	0,034	-0,157
-354,796	337,131	-0,058	-0,081
-353,781	-184,225	0,014	0,000
-352,766	-141,164	0,041	0,003
-351,752	-200,000	-0,045	0,249
-350,737	313,831	0,073	-0,099
-349,723	-118,798	0,108	-0,013
-348,708	-200,000	0,016	0,079
-347,693	-200,000	0,023	-0,116
-346,679	800,000	-0,065	-0,158
-345,664	-120,430	0,054	-0,007
-344,650	-74,234	-0,216	0,056
-343,635	-28,266	0,121	0,050
-342,620	219,913	0,072	0,083
-341,606	-125,892	-0,079	0,008
-340,591	275,044	-0,025	-0,032
-339,577	735,461	0,048	-0,093
-338,562	800,000	-0,008	-0,019
-337,548	-41,281	-0,086	0,032
-336,533	362,556	0,061	-0,087
-335,518	-106,012	-0,033	0,005
-334,504	-200,000	0,021	0,131
-333,489	-200,000	-0,008	-0,160
-332,475	-200,000	0,004	0,080
-331,460	47,256	0,045	0,030
-330,445	47,510	-0,109	-0,073
-329,431	380,323	0,023	0,034
-328,416	12,289	-0,031	0,017
-327,402	22,889	0,072	-0,042
-326,387	2,742	-0,077	-0,040
-325,372	-11,018	-0,032	-0,015
-324,358	-200,000	0,015	0,095
-323,343	-53,386	0,059	0,019
-322,329	463,719	0,075	-0,121
-321,314	-37,702	0,086	0,033
-320,299	295,156	0,106	0,139
-319,285	41,799	0,079	0,051
-318,270	-200,000	0,029	-0,174
-317,256	225,362	-0,044	-0,051
-316,241	-200,000	-0,002	-0,127
-315,226	-122,930	-0,070	-0,008
-314,212	-200,000	-0,028	0,095
-313,197	513,852	-0,063	0,105
-312,183	-95,895	-0,019	-0,004
-311,168	411,790	-0,044	-0,066
-310,153	8,897	-0,138	-0,075
-309,139	231,340	0,073	-0,086
-308,124	-74,277	0,166	0,043
-307,110	800,000	0,020	0,040
-306,095	599,157	0,034	0,060
-305,080	-97,538	-0,057	-0,010
-304,066	-24,951	-0,071	0,030
-303,051	800,000	0,090	-0,216
-302,037	-53,853	0,095	-0,031
-301,022	336,511	0,056	-0,079
-300,008	-200,000	0,035	0,113
-298,993	-90,936	0,134	0,027
-297,978	-178,015	-0,050	-0,001
-296,964	252,663	-0,016	-0,020
-295,949	266,542	-0,064	0,080
-294,935	15,099	-0,021	0,012
-293,920	193,595	-0,010	0,011
-292,905	-14,895	0,087	0,040
-291,891	69,183	0,069	-0,051
-290,876	12,551	-0,026	-0,014
-289,862	-200,000	-0,004	0,086
-288,847	15,540	-0,171	-0,096
-287,832	-85,787	0,099	0,022
-286,818	-200,000	-0,011	0,054
-285,803	532,233	-0,015	0,025
-284,789	380,806	0,047	-0,069
-283,774	-200,000	-0,013	0,157
-282,759	-108,655	-0,114	-0,017
-281,745	-200,000	0,011	0,134
-280,730	-95,300	-0,038	-0,007
-279,716	-145,700	-0,169	-0,011
-278,701	336,895	0,094	0,131
-277,686	-122,609	-0,021	-0,002
-276,672	-200,000	0,019	0,125
-275,657	-93,784	-0,026	0,005
-274,643	-23,422	0,099	-0,042
-273,628	151,921	-0,027	0,027
-272,613	557,179	-0,059	-0,102
-271,599	800,000	0,021	0,046
-270,584	-200,000	0,001	-0,027
-269,570	-71,405	-0,120	-0,032
-268,555	139,204	0,075	0,071
-267,540	40,763	-0,113	-0,073
-266,526	800,000	-0,061	-0,124
-265,511	-155,300	0,086	0,004
-264,497	800,000	-0,024	0,060
-263,482	264,084	0,117	0,145
-262,467	20,026	0,032	-0,018
-261,453	80,463	0,080	0,061
-260,438	307,307	0,024	0,032
-259,424	-107,223	-0,042	0,007
-258,409	30,943	-0,084	-0,051
-257,395	-200,000	0,008	-0,110
-256,380	-28,887	0,025	-0,010
-255,365	-84,796	0,105	-0,023
-254,351	-173,500	0,085	-0,002
-253,336	96,438	-0,092	0,075
-252,322	-190,290	-0,078	0,001
-251,307	12,990	-0,082	-0,045
-250,292	-200,000	-0,022	-0,082
-249,278	-52,064	0,084	0,028
-248,263	-190,195	-0,049	-0,000
-247,249	800,000	-0,007	-0,017
-246,234	-200,000	0,043	-0,171
-245,219	68,074	0,069	-0,050
-244,205	175,622	-0,055	-0,057
-243,190	-200,000	0,024	0,086
-242,176	164,571	-0,064	0,064
-241,161	-116,710	0,132	-0,017
-240,146	-143,608	-0,033	0,002
-239,132	-200,000	0,020	-0,108
-238,117	800,000	-0,075	0,161
-237,103	-200,000	0,013	-0,085
-236,088	-48,982	-0,041	0,014
-235,073	-147,467	0,132	-0,008
-234,059	-90,946	-0,132	0,027
-233,044	129,646	0,061	0,055
-232,030	800,000	-0,036	0,078
-231,015	22,431	-0,137	-0,080
-230,000	307,910	-0,081	-0,108
-228,986	703,462	-0,055	-0,105
-227,971	508,573	0,037	0,062
-226,957	205,609	0,105	0,117
-225,942	63,104	0,048	-0,034
-224,927	-88,230	0,035	0,007
-223,913	800,000	0,053	-0,105
-222,898	-200,000	0,006	-0,027
-221,884	-200,000	-0,076	0,000
-220,869	-196,596	0,125	0,001
-219,855	-200,000	0,008	-0,082
-218,840	-165,208	-0,076	-0,002
-217,825	-200,000	0,005	0,155
-216,811	-200,000	-0,007	0,034
-215,796	800,000	0,029	0,065
-214,782	800,000	-0,051	-0,150
-213,767	89,998	0,062	-0,049
-212,752	-78,708	-0,059	0,014
-211,738	800,000	0,025	0,071
-210,723	800,000	0,040	0,083
-209,709	800,000	-0,053	0,154
-208,694	-200,000	-0,005	-0,032
-207,679	63,778	-0,185	-0,132
-206,665	183,938	0,022	-0,023
-205,650	439,554	0,029	0,045
-204,636	286,144	-0,059	0,076
-203,621	-100,360	-0,122	0,021
-202,606	800,000	0,017	0,041
-201,592	-69,328	-0,004	-0,001
-200,577	-53,911	-0,082	-0,026
-199,563	-200,000	-0,003	0,142
-198,548	-73,576	-0,044	-0,011
-197,533	-125,175	0,062	-0,007
-196,519	800,000	0,039	0,107
-195,504	64,331	-0,071	0,051
-194,490	-89,430	0,105	0,022
-193,475	-200,000	-0,046	-0,231
-192,460	124,970	0,051	-0,045
-191,446	789,339	0,009	-0,017
-190,431	-200,000	0,020	0,080
-189,417	-200,000	-0,011	0,049
-188,402	-139,337	0,118	-0,009
-187,387	-200,000	0,009	-0,070
-186,373	67,051	-0,103	0,074
-185,358	497,651	0,054	-0,089
-184,344	-68,045	-0,017	-0,005
-183,329	16,877	-0,024	0,014
-182,315	-63,833	-0,141	0,041
-181,300	105,901	0,110	0,093
-180,285	21,356	0,072	-0,041
-179,271	-123,687	-0,061	0,007
-178,256	-53,732	-0,123	0,040
-177,242	116,209	-0,018	-0,016
-176,227	284,683	0,073	-0,094
-175,212	800,000	0,043	-0,123
-174,198	800,000	-0,037	-0,111
-173,183	-200,000	0,009	-0,131
-172,169	800,000	-0,053	-0,148
-171,154	235,139	-0,065	0,076
-170,139	34,050	0,084	0,052
-169,125	-67,462	0,060	-0,017
-168,110	-145,388	0,043	0,003
-167,096	633,661	0,051	0,092
-166,081	-77,302	-0,201	-0,049
-165,066	800,000	-0,025	0,054
-164,052	41,765	-0,064	-0,041
-163,037	-45,275	0,084	0,030
-162,023	800,000	0,015	0,038
-161,008	800,000	-0,033	0,082
-159,993	-24,226	0,105	-0,044
-158,979	-200,000	-0,010	-0,057
-157,964	-200,000	-0,002	-0,103
-156,950	-14,826	-0,138	-0,063
-155,935	-58,632	0,087	-0,027
-154,920	139,750	0,114	0,107
-153,906	-200,000	-0,037	0,121
-152,891	-200,000	0,030	0,110
-151,877	800,000	-0,049	0,124
-150,862	-200,000	-0,023	0,100
-149,847	565,155	0,039	0,068
-148,833	800,000	0,033	0,100
-147,818	192,757	0,063	0,067
-146,804	21,471	-0,116	0,067
-145,789	-200,000	0,049	-0,164
-144,775	53,026	-0,123	-0,084
-143,760	394,117	0,008	-0,012
-142,745	-17,359	-0,202	-0,090
-141,731	-200,000	-0,005	0,018
-140,716	279,950	0,100	0,127
-139,702	-200,000	0,015	0,076
-138,687	-41,254	-0,096	0,035
-137,672	-200,000	0,008	-0,067
-136,658	-167,404	-0,102	-0,003
-135,643	1,284	-0,122	-0,062
-134,629	-96,777	0,088	0,016
-133,614	-90,746	0,153	-0,031
-132,599	800,000	0,055	0,164
-131,585	-100,317	-0,058	-0,010
-130,570	36,380	0,065	-0,041
-129,556	661,481	-0,059	-0,109
-128,541	59,431	-0,133	-0,093
-127,526	583,473	-0,072	0,126
-126,512	-200,000	-0,006	-0,050
-125,497	-200,000	-0,002	0,200
-124,483	759,061	0,043	0,082
-123,468	-17,813	-0,055	0,024
-122,453	273,147	-0,106	-0,133
-121,439	-200,000	-0,023	-0,085
-120,424	344,151	0,057	0,079
