DTS Sentinel unit serial number:	SN410029Multiplexer serial number:	ORYXHardware model number:	OX2-SRSoftware version number:	ORYX F/W v4,00 Oryx Data Collector v3.7.2.0data status	okinstallation	BH3 CH2differential loss correction	single-endedforward channel	channel 2reverse channel	N/Adate	2023/12/06time	01:02:28forward acquisition time	300,00reverse acquisition time	0,00gamma	499,1914k internal	0,3196k external	0,3196temperature offset calibration	1,0000default loss term (dB/km)	0,3820temperature slope calibration	1,0000multiplexer offset coefficient	1,0000multiplexer slope coefficient	1,0000fibre end	0,00T internal ref (°C)	9,30T ext. ref 1 (°C)	-5,63T ext. ref 2 (°C)	-5,71length (m)	temperature (°C)	Stokes	anti-Stokes-744,400	-200,000	0,025	-0,166
-743,385	203,041	-0,036	0,040
-742,371	-200,000	-0,007	0,077
-741,356	-13,877	-0,164	0,077
-740,342	-200,000	-0,010	-0,101
-739,327	-59,557	-0,226	0,070
-738,312	-200,000	-0,004	-0,117
-737,298	242,859	-0,220	0,269
-736,283	-200,000	-0,030	-0,113
-735,269	-127,567	-0,195	-0,020
-734,254	117,625	-0,077	-0,069
-733,239	38,878	-0,428	-0,278
-732,225	141,756	0,141	-0,136
-731,210	800,000	0,027	0,077
-730,196	-103,511	-0,055	-0,009
-729,181	326,366	-0,023	-0,033
-728,167	-200,000	-0,034	0,111
-727,152	-200,000	-0,006	0,027
-726,137	-115,433	-0,134	-0,018
-725,123	-200,000	-0,022	-0,097
-724,108	800,000	-0,061	-0,187
-723,094	133,625	-0,132	0,124
-722,079	-38,215	-0,305	-0,117
-721,064	27,239	0,097	0,059
-720,050	-121,993	-0,082	0,010
-719,035	273,101	0,073	-0,094
-718,021	-200,000	0,032	-0,146
-717,006	-200,000	-0,049	-0,249
-715,991	800,000	0,020	-0,058
-714,977	-84,566	-0,047	0,011
-713,962	230,896	-0,023	0,028
-712,948	-63,653	-0,042	-0,012
-711,933	-200,000	0,016	-0,103
-710,918	150,179	0,036	-0,035
-709,904	370,482	-0,057	0,084
-708,889	-200,000	-0,011	0,140
-707,875	429,239	0,059	0,093
-706,860	-200,000	-0,017	0,095
-705,845	384,141	-0,037	-0,056
-704,831	-200,000	-0,014	0,059
-703,816	-200,000	0,012	-0,077
-702,802	800,000	0,018	-0,047
-701,787	800,000	-0,024	-0,076
-700,772	800,000	0,026	-0,063
-699,758	51,720	-0,072	-0,050
-698,743	800,000	0,046	0,120
-697,729	390,622	-0,056	0,085
-696,714	-200,000	-0,004	0,175
-695,699	-200,000	0,009	0,053
-694,685	800,000	-0,065	0,132
-693,670	-127,281	-0,088	0,009
-692,656	800,000	-0,045	-0,101
-691,641	20,668	-0,068	-0,040
-690,627	-200,000	-0,007	0,049
-689,612	206,530	0,031	0,035
-688,597	-64,619	0,108	0,032
-687,583	798,202	-0,064	-0,129
-686,568	-163,388	-0,150	0,005
-685,554	-8,777	0,028	0,014
-684,539	417,538	0,021	0,033
-683,524	-200,000	0,010	0,060
-682,510	800,000	0,040	0,090
-681,495	320,102	-0,048	-0,067
-680,481	-200,000	-0,010	-0,041
-679,466	-23,309	-0,103	-0,045
-678,451	-200,000	0,011	0,092
-677,437	45,153	0,135	0,090
-676,422	-200,000	-0,015	-0,067
-675,408	800,000	-0,032	0,070
-674,393	-98,352	-0,030	-0,006
-673,378	-33,698	0,129	-0,051
-672,364	-51,712	-0,152	0,051
-671,349	800,000	-0,022	0,051
-670,335	-181,003	0,066	-0,001
-669,320	-67,332	0,068	-0,019
-668,305	-112,863	0,029	-0,004
-667,291	-119,231	-0,130	0,016
-666,276	-200,000	0,009	-0,042
-665,262	-162,336	-0,161	0,006
-664,247	571,643	0,050	0,088
-663,232	-91,202	-0,074	-0,015
-662,218	651,951	-0,036	0,068
-661,203	85,776	-0,016	-0,013
-660,189	800,000	0,027	-0,081
-659,174	800,000	0,035	-0,104
-658,159	328,177	-0,053	0,074
-657,145	-2,459	-0,176	-0,089
-656,130	443,071	-0,004	-0,006
-655,116	244,801	-0,029	0,036
-654,101	-8,256	-0,101	0,049
-653,086	163,846	0,040	-0,041
-652,072	-200,000	-0,015	0,079
-651,057	-56,754	-0,044	-0,014
-650,043	-26,666	-0,118	-0,050
-649,028	-25,538	0,024	-0,010
-648,014	-135,436	-0,044	-0,004
-646,999	-61,875	0,060	0,018
-645,984	47,788	-0,158	0,107
-644,970	-60,162	0,116	-0,036
-643,955	329,057	-0,030	0,042
-642,941	-200,000	-0,020	-0,120
-641,926	-200,000	-0,000	-0,034
-640,911	-46,941	0,117	-0,041
-639,897	-61,384	-0,123	-0,037
-638,882	-57,086	0,145	-0,046
-637,868	354,289	-0,035	-0,051
-636,853	452,103	-0,061	-0,099
-635,838	77,144	0,041	-0,031
-634,824	543,869	-0,050	-0,087
-633,809	53,544	-0,113	0,079
-632,795	-200,000	0,002	0,047
-631,780	-200,000	-0,013	0,063
-630,765	-48,742	-0,175	0,061
-629,751	556,261	-0,028	-0,048
-628,736	-176,791	-0,090	0,002
-627,722	800,000	-0,009	0,018
-626,707	710,344	0,011	0,021
-625,692	-38,710	0,148	0,056
-624,678	143,450	-0,090	-0,087
-623,663	420,376	-0,062	-0,096
-622,649	349,830	-0,014	-0,020
-621,634	149,477	0,058	0,057
-620,619	132,365	-0,049	-0,045
-619,605	53,160	-0,096	0,066
-618,590	2,167	0,145	0,076
-617,576	-200,000	-0,016	-0,124
-616,561	-200,000	-0,043	-0,200
-615,546	637,049	0,038	-0,070
-614,532	-46,439	-0,064	-0,023
-613,517	190,290	-0,153	0,167
-612,503	23,062	-0,090	-0,053
-611,488	24,710	0,079	0,047
-610,474	21,873	-0,020	-0,012
-609,459	512,192	0,054	0,091
-608,444	231,196	-0,077	0,091
-607,430	800,000	-0,061	-0,164
-606,415	-200,000	-0,006	0,057
-605,401	-135,376	0,166	0,014
-604,386	-200,000	-0,016	-0,113
-603,371	153,521	0,110	0,109
-602,357	800,000	0,039	0,089
-601,342	-16,666	-0,070	-0,032
-600,328	77,023	-0,116	-0,090
-599,313	228,378	0,087	-0,103
-598,298	97,625	0,056	-0,046
-597,284	-61,685	0,086	0,026
-596,269	-73,335	0,093	0,024
-595,255	145,967	0,066	0,065
-594,240	-200,000	-0,014	0,052
-593,225	-44,283	0,042	-0,015
-592,211	20,559	-0,041	0,024
-591,196	722,067	-0,022	0,043
-590,182	-118,892	-0,111	0,014
-589,167	671,888	-0,032	0,061
-588,152	274,738	0,074	0,096
-587,138	548,756	0,103	0,179
-586,123	-100,193	-0,106	-0,019
-585,109	164,367	-0,053	-0,054
-584,094	117,486	0,054	-0,048
-583,079	523,259	0,045	0,077
-582,065	-164,377	-0,113	0,004
-581,050	-200,000	0,003	-0,038
-580,036	-72,650	-0,080	0,021
-579,021	196,645	0,066	-0,073
-578,006	-65,752	-0,015	-0,004
-576,992	178,576	0,054	-0,057
-575,977	-48,318	-0,012	-0,004
-574,963	102,955	-0,082	0,069
-573,948	35,377	-0,095	0,060
-572,934	-114,582	0,053	0,007
-571,919	290,963	-0,023	0,031
-570,904	70,481	-0,060	-0,045
-569,890	147,682	-0,059	0,057
-568,875	129,505	0,102	0,095
-567,861	800,000	0,088	0,183
-566,846	234,443	0,059	-0,071
-565,831	-200,000	0,012	-0,071
-564,817	-200,000	-0,019	0,074
-563,802	205,164	-0,020	0,022
-562,788	183,057	0,028	-0,030
-561,773	-200,000	-0,004	0,063
-560,758	-200,000	-0,031	0,131
-559,744	-200,000	-0,005	0,100
-558,729	-200,000	0,027	0,146
-557,715	800,000	-0,042	0,105
-556,700	526,036	0,071	-0,121
-555,685	-159,766	-0,088	-0,003
-554,671	-149,164	0,003	-0,000
-553,656	800,000	0,036	0,088
-552,642	-200,000	0,024	0,149
-551,627	101,313	-0,028	-0,024
-550,612	-175,544	-0,094	-0,002
-549,598	84,595	-0,101	-0,080
-548,583	800,000	0,025	0,067
-547,569	800,000	0,039	-0,083
-546,554	95,321	0,092	0,076
-545,539	482,452	0,090	0,148
-544,525	-176,003	0,027	-0,001
-543,510	701,590	-0,035	0,068
-542,496	-109,618	-0,097	-0,015
-541,481	319,071	-0,159	-0,219
-540,466	268,556	0,021	-0,026
-539,452	219,477	-0,067	-0,078
-538,437	54,783	-0,172	0,120
-537,423	-200,000	-0,013	0,056
-536,408	401,196	-0,081	-0,124
-535,393	-59,489	-0,018	0,006
-534,379	296,168	-0,077	-0,102
-533,364	-117,840	0,052	-0,007
-532,350	18,505	0,143	0,083
-531,335	-200,000	0,016	0,077
-530,321	447,461	0,061	0,098
-529,306	-88,116	-0,163	-0,035
-528,291	718,895	0,041	0,079
-527,277	509,021	-0,049	0,082
-526,262	-30,154	-0,057	-0,023
-525,248	-200,000	-0,024	0,204
-524,233	431,542	-0,033	0,052
-523,218	-6,463	0,072	-0,035
-522,204	800,000	0,020	-0,049
-521,189	578,666	0,009	0,015
-520,175	-129,894	-0,084	-0,008
-519,160	800,000	-0,028	-0,081
-518,145	150,219	0,122	-0,119
-517,131	93,934	0,098	-0,080
-516,116	-200,000	0,003	0,056
-515,102	-200,000	-0,026	0,164
-514,087	-62,581	-0,200	0,059
-513,072	-130,745	-0,089	0,009
-512,058	-136,412	0,087	-0,007
-511,043	269,449	0,042	-0,053
-510,029	-152,807	-0,159	0,008
-509,014	-200,000	0,008	-0,039
-507,999	-18,269	-0,060	-0,027
-506,985	800,000	0,060	-0,122
-505,970	-183,413	-0,073	0,001
-504,956	97,019	-0,166	-0,138
-503,941	-47,335	0,010	-0,003
-502,926	800,000	0,050	0,130
-501,912	-69,000	0,074	-0,020
-500,897	97,396	-0,125	0,104
-499,883	-97,326	0,066	-0,012
-498,868	-126,644	-0,050	0,005
-497,853	-200,000	-0,001	-0,063
-496,839	800,000	0,017	-0,050
-495,824	-57,916	0,030	0,009
-494,810	59,220	0,086	0,061
-493,795	257,339	-0,101	0,126
-492,781	800,000	0,013	0,032
-491,766	-200,000	-0,015	-0,096
-490,751	-200,000	0,038	-0,152
-489,737	242,349	0,076	-0,092
-488,722	520,288	0,087	0,148
-487,708	310,544	0,044	-0,060
-486,693	128,382	0,054	-0,049
-485,678	-200,000	-0,002	0,006
-484,664	-200,000	0,024	-0,111
-483,649	-200,000	0,041	-0,152
-482,635	-1,122	-0,078	0,040
-481,620	7,020	0,081	-0,043
-480,605	800,000	0,037	-0,096
-479,591	-200,000	-0,014	0,120
-478,576	65,781	0,069	0,050
-477,562	-104,650	0,096	-0,016
-476,547	-57,418	-0,109	-0,034
-475,532	-75,133	0,100	0,026
-474,518	-200,000	0,031	0,143
-473,503	-200,000	0,024	0,088
-472,489	-0,287	0,088	-0,045
-471,474	-197,425	-0,042	-0,000
-470,459	800,000	-0,031	0,091
-469,445	444,889	-0,008	0,013
-468,430	-126,333	0,157	0,017
-467,416	-200,000	-0,016	-0,059
-466,401	-200,000	0,024	-0,114
-465,386	-82,105	0,164	-0,038
-464,372	-200,000	-0,019	-0,079
-463,357	-87,439	-0,151	0,033
-462,343	109,711	-0,074	0,064
-461,328	800,000	0,022	0,047
-460,313	-41,890	-0,065	0,024
-459,299	-111,588	0,020	0,003
-458,284	-11,035	0,093	0,044
-457,270	649,236	-0,071	0,132
-456,255	800,000	0,031	0,067
-455,241	-80,490	-0,196	0,047
-454,226	32,465	-0,089	0,055
-453,211	56,463	0,077	0,054
-452,197	126,202	0,122	0,111
-451,182	-200,000	0,028	0,150
-450,168	-200,000	-0,002	0,031
-449,153	-200,000	0,013	-0,068
-448,138	120,031	-0,065	0,058
-447,124	-200,000	-0,021	-0,087
-446,109	-200,000	-0,026	0,120
-445,095	-90,658	-0,018	-0,004
-444,080	-145,138	0,045	0,003
-443,065	263,348	0,059	0,073
-442,051	800,000	0,015	0,039
-441,036	123,026	0,024	-0,022
-440,022	-117,887	-0,216	-0,028
-439,007	380,160	0,073	-0,108
-437,992	111,155	-0,023	0,020
-436,978	271,065	-0,038	0,048
-435,963	-0,371	0,047	0,024
-434,949	456,715	0,023	0,037
-433,934	66,303	0,039	0,029
-432,919	407,558	-0,041	-0,062
-431,905	33,308	0,094	0,059
-430,890	-200,000	0,003	-0,033
-429,876	-14,236	0,149	0,069
-428,861	26,657	0,074	0,045
-427,846	-85,069	0,044	-0,010
-426,832	800,000	0,038	0,079
-425,817	-200,000	-0,000	-0,053
-424,803	130,512	-0,058	0,054
-423,788	370,457	0,038	-0,056
-422,773	33,140	0,161	0,100
-421,759	127,056	0,049	-0,044
-420,744	-180,247	0,027	-0,000
-419,730	11,544	0,132	-0,073
-418,715	800,000	-0,029	-0,059
-417,701	257,187	-0,060	0,074
-416,686	1,448	0,089	-0,046
-415,671	519,283	0,034	0,057
-414,657	31,613	0,053	-0,033
-413,642	239,766	-0,072	0,087
-412,628	-200,000	0,014	-0,045
-411,613	-200,000	-0,002	-0,054
-410,598	800,000	0,018	0,038
-409,584	-200,000	-0,000	0,047
-408,569	4,931	-0,100	0,053
-407,555	-200,000	-0,003	0,019
-406,540	-56,266	0,073	0,023
-405,525	424,513	-0,087	-0,136
-404,511	-115,599	-0,126	0,017
-403,496	800,000	0,023	-0,059
-402,482	-125,591	-0,119	0,013
-401,467	-6,262	-0,046	0,022
-400,452	-200,000	0,004	0,060
-399,438	-200,000	0,003	-0,022
-398,423	-38,285	-0,049	0,018
-397,409	18,404	-0,058	-0,033
-396,394	-112,166	-0,031	0,004
-395,379	800,000	-0,050	-0,109
-394,365	-200,000	-0,034	0,153
-393,350	198,025	0,044	0,048
-392,336	-156,093	0,148	0,007
-391,321	-200,000	-0,010	-0,038
-390,306	800,000	-0,061	-0,173
-389,292	800,000	0,006	-0,018
-388,277	214,642	-0,037	-0,042
-387,263	-200,000	-0,003	0,022
-386,248	58,883	0,056	-0,039
-385,233	107,913	-0,098	-0,084
-384,219	-93,673	0,044	-0,009
-383,204	-200,000	-0,031	-0,132
-382,190	599,657	0,040	0,072
-381,175	129,147	-0,043	-0,040
-380,160	800,000	0,049	0,142
-379,146	-200,000	-0,025	-0,129
-378,131	-32,696	0,055	-0,022
-377,117	395,396	-0,017	-0,026
-376,102	800,000	0,043	-0,112
-375,088	383,984	0,107	-0,159
-374,073	-31,543	0,056	-0,023
-373,058	-140,443	0,045	-0,003
-372,044	-168,531	0,037	0,001
-371,029	316,496	-0,045	0,061
-370,015	-200,000	0,003	0,096
-369,000	800,000	0,045	0,116
-367,985	-62,246	-0,163	0,048
-366,971	63,467	-0,115	-0,083
-365,956	-165,429	0,159	0,005
-364,942	-52,981	0,068	0,022
-363,927	127,849	-0,037	0,034
-362,912	-200,000	-0,017	0,140
-361,898	49,544	-0,112	0,075
-360,883	-109,745	0,077	-0,012
-359,869	77,397	-0,049	-0,037
-358,854	-200,000	0,023	-0,137
-357,839	-200,000	0,001	0,070
-356,825	-200,000	-0,003	0,121
-355,810	152,197	0,037	-0,036
-354,796	800,000	-0,033	0,098
-353,781	30,055	-0,061	-0,037
-352,766	181,815	0,023	-0,025
-351,752	140,281	0,075	-0,071
-350,737	309,116	0,051	0,068
-349,723	403,740	0,048	-0,073
-348,708	83,213	-0,111	-0,087
-347,693	-81,329	-0,123	0,029
-346,679	-43,706	0,108	-0,039
-345,664	197,288	-0,035	-0,039
-344,650	-31,799	-0,137	0,055
-343,635	800,000	-0,021	0,044
-342,620	136,619	-0,011	0,010
-341,606	-200,000	-0,015	-0,073
-340,591	-200,000	-0,029	-0,159
-339,577	800,000	-0,042	0,102
-338,562	-200,000	-0,003	-0,042
-337,548	6,679	0,099	0,052
-336,533	256,769	0,044	0,054
-335,518	-200,000	-0,056	0,202
-334,504	44,375	-0,089	0,058
-333,489	279,555	0,049	-0,063
-332,475	253,043	0,085	-0,104
-331,460	119,094	0,048	0,042
-330,445	233,393	0,042	-0,050
-329,431	-200,000	0,007	-0,120
-328,416	-11,725	0,129	0,060
-327,402	800,000	-0,037	0,106
-326,387	33,525	0,110	-0,068
-325,372	109,727	0,155	-0,134
-324,358	-112,868	-0,080	0,011
-323,343	800,000	-0,017	-0,041
-322,329	-200,000	-0,028	0,101
-321,314	-200,000	-0,009	0,102
-320,299	-200,000	0,003	0,038
-319,285	161,120	0,051	-0,051
-318,270	-200,000	-0,025	-0,091
-317,256	-64,922	-0,104	-0,030
-316,241	139,076	0,085	0,080
-315,226	-200,000	0,023	-0,092
-314,212	800,000	-0,052	-0,110
-313,197	-50,302	0,102	-0,034
-312,183	588,940	-0,025	-0,044
-311,168	-156,890	-0,082	-0,004
-310,153	-50,315	0,127	-0,043
-309,139	-0,867	0,097	0,049
-308,124	-95,721	0,112	0,021
-307,110	-60,893	-0,080	-0,024
-306,095	-15,186	0,009	-0,004
-305,080	-200,000	-0,004	-0,092
-304,066	800,000	0,045	0,129
-303,051	266,125	-0,041	0,051
-302,037	-200,000	0,014	-0,065
-301,022	12,480	0,099	-0,055
-300,008	-200,000	0,006	-0,047
-298,993	-121,918	-0,088	0,010
-297,978	-3,555	0,119	0,059
-296,964	-27,746	-0,057	-0,023
-295,949	528,749	-0,085	-0,145
-294,935	-14,473	0,064	0,030
-293,920	520,720	-0,057	0,096
-292,905	480,363	-0,023	0,038
-291,891	320,508	0,087	0,119
-290,876	-142,970	-0,045	-0,003
-289,862	-87,890	0,173	-0,037
-288,847	-200,000	0,034	-0,157
-287,832	-68,933	0,023	0,006
-286,818	106,404	0,083	-0,070
-285,803	-200,000	-0,005	0,023
-284,789	361,621	0,039	-0,056
-283,774	-138,980	-0,065	0,005
-282,759	800,000	0,035	0,100
-281,745	184,872	-0,024	0,025
-280,730	686,947	0,051	-0,096
-279,716	-104,259	0,044	-0,007
-278,701	650,555	-0,073	-0,135
-277,686	-37,298	0,109	0,041
-276,672	-46,549	-0,141	0,049
-275,657	62,460	-0,117	-0,083
-274,643	-25,416	-0,160	-0,067
-273,628	358,549	-0,068	-0,098
-272,613	-200,000	0,007	-0,053
-271,599	-86,355	-0,099	0,021
-270,584	-18,162	0,017	0,008
-269,570	-200,000	0,008	0,177
-268,555	-90,290	0,080	-0,016
-267,540	301,090	-0,053	-0,070
-266,526	741,223	-0,075	-0,145
-265,511	-200,000	-0,023	0,160
-264,497	562,205	-0,018	-0,031
-263,482	270,102	0,053	0,067
-262,467	-200,000	0,013	0,239
-261,453	132,075	-0,059	-0,054
-260,438	-200,000	-0,004	0,023
-259,424	708,749	-0,030	-0,058
-258,409	-200,000	-0,032	-0,192
-257,395	-38,942	-0,056	-0,021
-256,380	111,074	0,056	-0,048
-255,365	-142,891	-0,054	-0,004
-254,351	444,004	-0,042	-0,066
-253,336	202,149	-0,034	0,037
-252,322	140,796	-0,097	-0,091
-251,307	255,324	0,104	-0,128
-250,292	222,711	0,074	-0,085
-249,278	-200,000	-0,006	-0,057
-248,263	-33,917	0,043	0,017
-247,249	800,000	0,021	-0,062
-246,234	-184,999	-0,013	0,000
-245,219	-40,353	-0,083	0,031
-244,205	57,234	-0,046	-0,032
-243,190	800,000	0,009	0,029
-242,176	122,007	-0,106	0,094
-241,161	-38,169	0,038	-0,014
-240,146	-54,721	-0,170	0,055
-239,132	-200,000	0,014	-0,056
-238,117	327,799	0,071	-0,098
-237,103	-200,000	0,016	-0,054
-236,088	200,795	0,132	0,145
-235,073	800,000	0,018	0,043
-234,059	-24,454	-0,018	-0,008
-233,044	252,311	-0,095	-0,116
-232,030	286,096	0,053	0,068
-231,015	540,715	-0,025	-0,043
-230,000	-17,570	-0,126	-0,056
-228,986	75,878	0,047	-0,036
-227,971	-200,000	0,004	0,064
-226,957	48,285	0,112	-0,075
-225,942	54,255	-0,051	0,035
-224,927	97,811	-0,069	-0,056
-223,913	-104,680	-0,107	-0,017
-222,898	-200,000	-0,013	-0,188
-221,884	-72,906	0,018	-0,005
-220,869	-200,000	-0,023	-0,091
-219,855	245,831	0,115	0,139
-218,840	349,690	0,024	0,033
-217,825	134,519	0,061	-0,057
-216,811	800,000	0,068	0,172
-215,796	-200,000	0,012	-0,100
-214,782	129,297	-0,055	0,050
-213,767	-200,000	-0,018	-0,061
-212,752	-110,662	0,038	0,006
-211,738	14,032	0,031	-0,017
-210,723	-200,000	0,027	-0,097
-209,709	-35,528	-0,084	-0,032
-208,694	1,401	0,132	0,068
-207,679	-61,958	-0,150	-0,044
-206,665	-121,247	0,111	0,013
-205,650	611,040	-0,043	0,077
-204,636	800,000	0,030	0,075
-203,621	-200,000	-0,001	-0,092
-202,606	-89,819	-0,075	-0,015
-201,592	92,319	0,055	-0,044
-200,577	-200,000	0,003	0,055
-199,563	-164,189	0,046	-0,001
-198,548	-108,913	0,123	0,019
-197,533	356,895	-0,056	0,080
-196,519	134,684	0,065	0,060
-195,504	330,193	-0,076	-0,105
-194,490	-65,278	0,060	-0,017
-193,475	-200,000	-0,029	-0,092
-192,460	-138,623	0,174	-0,013
-191,446	314,825	0,057	0,077
-190,431	800,000	-0,029	0,079
-189,417	800,000	-0,045	-0,093
-188,402	800,000	0,070	-0,199
-187,387	-200,000	-0,033	-0,143
-186,373	46,112	0,042	0,028
-185,358	-149,054	-0,093	-0,005
-184,344	-135,930	0,124	-0,010
-183,329	2,276	0,118	0,061
-182,315	-92,469	-0,035	0,007
-181,300	-19,269	-0,073	-0,032
-180,285	-51,470	0,009	-0,003
-179,271	190,613	-0,182	-0,195
-178,256	800,000	-0,027	-0,081
-177,242	57,149	-0,130	0,090
-176,227	187,317	-0,086	0,091
-175,212	-200,000	-0,033	0,131
-174,198	-200,000	0,013	0,065
-173,183	800,000	0,027	-0,067
-172,169	94,700	-0,078	0,063
-171,154	-96,808	0,180	-0,033
-170,139	558,128	0,061	-0,104
-169,125	20,055	-0,018	-0,010
-168,110	-40,815	-0,114	0,042
-167,096	-62,306	-0,048	0,014
-166,081	-62,186	-0,141	0,042
-165,066	-109,780	-0,038	0,006
-164,052	185,539	-0,095	0,100
-163,037	-69,843	0,074	0,020
-162,023	105,048	0,064	0,054
-161,008	-69,593	0,097	0,026
-159,993	127,252	-0,044	0,040
-158,979	-85,951	0,158	-0,035
-157,964	-200,000	0,022	-0,083
-156,950	283,815	0,059	-0,075
-155,935	800,000	0,017	-0,034
-154,920	-13,173	0,053	-0,024
-153,906	790,810	0,111	0,218
-152,891	19,195	0,054	0,031
-151,877	417,318	0,016	-0,024
-150,862	114,360	-0,101	-0,087
-149,847	800,000	0,023	-0,051
-148,833	-23,727	0,139	-0,059
-147,818	178,002	0,054	0,056
-146,804	633,555	-0,011	-0,021
-145,789	-200,000	0,009	0,126
-144,775	-200,000	0,005	0,091
-143,760	72,806	-0,076	-0,056
-142,745	-69,464	-0,090	-0,024
-141,731	119,402	-0,067	0,059
-140,716	-200,000	0,022	-0,084
-139,702	800,000	-0,032	0,092
-138,687	-200,000	-0,018	0,085
-137,672	35,656	0,092	0,058
-136,658	-200,000	-0,019	-0,076
-135,643	95,411	0,071	-0,058
-134,629	101,442	-0,067	0,055
-133,614	508,185	0,115	-0,191
-132,599	171,469	-0,020	0,021
-131,585	-43,096	0,155	0,056
-130,570	-24,787	-0,016	-0,007
-129,556	-200,000	-0,029	0,145
-128,541	208,307	0,043	0,047
-127,526	26,227	0,077	-0,046
-126,512	2,994	0,094	0,048
-125,497	800,000	0,042	0,090
-124,483	-74,383	-0,085	0,022
-123,468	-200,000	0,066	-0,246
-122,453	52,771	-0,071	-0,048
-121,439	31,901	-0,158	-0,097
-120,424	-78,889	-0,104	-0,025
