DTS Sentinel unit serial number:	SN410029Multiplexer serial number:	ORYXHardware model number:	OX2-SRSoftware version number:	ORYX F/W v4,00 Oryx Data Collector v3.7.2.0data status	okinstallation	BH3 CH2differential loss correction	single-endedforward channel	channel 2reverse channel	N/Adate	2023/12/05time	21:22:28forward acquisition time	300,00reverse acquisition time	0,00gamma	499,1914k internal	0,3194k external	0,3194temperature offset calibration	1,0000default loss term (dB/km)	0,3820temperature slope calibration	1,0000multiplexer offset coefficient	1,0000multiplexer slope coefficient	1,0000fibre end	0,00T internal ref (°C)	10,31T ext. ref 1 (°C)	-4,55T ext. ref 2 (°C)	-4,63length (m)	temperature (°C)	Stokes	anti-Stokes-744,400	-27,168	0,165	-0,070
-743,385	103,493	-0,154	0,132
-742,371	366,639	-0,045	-0,066
-741,356	47,162	-0,184	0,125
-740,342	147,508	-0,102	-0,100
-739,327	271,504	-0,116	0,150
-738,312	90,545	-0,057	-0,046
-737,298	31,000	-0,242	0,151
-736,283	800,000	-0,040	-0,096
-735,269	-6,401	-0,211	0,105
-734,254	177,308	0,036	0,038
-733,239	-166,072	-0,305	-0,009
-732,225	800,000	-0,057	-0,180
-731,210	-75,978	-0,088	-0,022
-730,196	-200,000	0,001	0,063
-729,181	-62,855	-0,106	-0,032
-728,167	273,667	0,076	-0,098
-727,152	-83,339	-0,188	-0,044
-726,137	329,620	-0,131	-0,184
-725,123	148,660	-0,028	-0,027
-724,108	800,000	-0,040	-0,089
-723,094	-200,000	0,057	-0,194
-722,079	7,005	-0,104	-0,057
-721,064	-200,000	-0,041	0,132
-720,050	-200,000	-0,095	0,000
-719,035	231,541	-0,048	-0,057
-718,021	-90,676	-0,190	-0,040
-717,006	-111,382	-0,007	-0,001
-715,991	800,000	0,035	-0,089
-714,977	-200,000	-0,026	-0,108
-713,962	-200,000	0,039	-0,170
-712,948	800,000	-0,025	0,060
-711,933	-200,000	-0,108	-0,000
-710,918	-200,000	0,001	0,005
-709,904	-200,000	-0,013	-0,123
-708,889	152,759	-0,143	-0,142
-707,875	87,506	-0,102	-0,082
-706,860	401,522	-0,046	0,071
-705,845	201,945	0,061	-0,069
-704,831	-98,578	-0,087	-0,016
-703,816	-200,000	-0,002	0,040
-702,802	-200,000	0,006	-0,073
-701,787	-54,709	0,134	-0,044
-700,772	800,000	0,033	-0,091
-699,758	246,556	0,133	-0,163
-698,743	-70,207	0,083	-0,023
-697,729	176,720	-0,100	0,106
-696,714	464,868	-0,043	0,071
-695,699	140,533	-0,091	-0,087
-694,685	45,897	-0,015	-0,010
-693,670	-88,514	-0,085	0,018
-692,656	-200,000	-0,009	0,092
-691,641	-200,000	0,018	0,170
-690,627	345,767	-0,096	0,137
-689,612	-56,958	0,093	0,030
-688,597	-138,938	0,086	-0,007
-687,583	800,000	-0,045	-0,102
-686,568	-200,000	0,004	-0,098
-685,554	111,477	-0,045	-0,040
-684,539	-135,496	-0,047	0,004
-683,524	-200,000	-0,022	0,118
-682,510	-200,000	0,003	0,071
-681,495	-135,961	0,152	-0,013
-680,481	-200,000	-0,016	-0,069
-679,466	800,000	-0,035	-0,081
-678,451	18,279	0,148	0,086
-677,437	120,148	-0,013	-0,012
-676,422	-200,000	-0,004	-0,041
-675,408	-82,521	-0,111	-0,026
-674,393	15,482	-0,042	0,024
-673,378	-128,898	0,049	-0,005
-672,364	-109,571	-0,065	-0,010
-671,349	-200,000	-0,024	-0,104
-670,335	699,123	-0,040	-0,078
-669,320	-200,000	-0,001	0,112
-668,305	90,042	-0,033	0,027
-667,291	800,000	0,017	0,038
-666,276	447,180	-0,023	0,037
-665,262	800,000	-0,063	-0,169
-664,247	68,990	-0,156	-0,116
-663,232	-99,390	0,148	-0,027
-662,218	-84,145	-0,081	-0,019
-661,203	-200,000	-0,012	-0,058
-660,189	800,000	-0,031	0,065
-659,174	104,675	0,060	0,052
-658,159	800,000	-0,057	0,178
-657,145	781,253	0,041	-0,081
-656,130	-8,266	-0,017	-0,008
-655,116	-176,118	0,056	-0,001
-654,101	-139,231	0,071	-0,005
-653,086	51,730	0,052	0,036
-652,072	800,000	-0,034	0,083
-651,057	415,535	-0,067	-0,104
-650,043	218,783	-0,094	-0,110
-649,028	-54,716	0,121	-0,039
-648,014	-48,598	-0,106	-0,037
-646,999	64,712	-0,069	0,050
-645,984	-200,000	0,005	-0,021
-644,970	800,000	-0,024	-0,053
-643,955	-200,000	0,027	0,125
-642,941	800,000	0,054	-0,155
-641,926	763,119	0,069	-0,136
-640,911	800,000	-0,035	0,082
-639,897	438,402	0,033	-0,052
-638,882	245,676	-0,074	-0,090
-637,868	-200,000	0,021	0,094
-636,853	-200,000	-0,033	-0,258
-635,838	800,000	-0,043	-0,113
-634,824	68,834	-0,126	0,094
-633,809	58,273	0,101	-0,072
-632,795	800,000	-0,044	0,125
-631,780	235,988	-0,095	0,114
-630,765	470,106	0,058	0,095
-629,751	455,594	-0,064	0,103
-628,736	800,000	0,054	-0,109
-627,722	-95,977	-0,096	-0,018
-626,707	-200,000	0,005	-0,041
-625,692	-200,000	-0,011	0,132
-624,678	-200,000	0,000	-0,091
-623,663	85,496	0,113	0,090
-622,649	-73,274	-0,040	0,011
-621,634	91,404	-0,140	-0,114
-620,619	370,375	0,024	0,036
-619,605	-200,000	0,024	-0,116
-618,590	-200,000	0,011	-0,091
-617,576	181,068	0,035	-0,037
-616,561	-118,387	-0,124	-0,016
-615,546	-200,000	0,001	-0,026
-614,532	286,318	-0,060	-0,079
-613,517	-79,092	-0,079	-0,019
-612,503	0,702	0,126	-0,065
-611,488	-200,000	0,012	0,063
-610,474	-200,000	-0,014	-0,088
-609,459	-101,691	0,140	0,024
-608,444	409,167	-0,010	0,016
-607,430	-123,144	-0,089	0,010
-606,415	43,972	-0,113	0,075
-605,401	60,680	0,108	-0,077
-604,386	-200,000	-0,002	-0,115
-603,371	-6,330	-0,028	0,014
-602,357	253,279	0,027	-0,033
-601,342	375,770	-0,094	-0,140
-600,328	113,549	-0,072	-0,063
-599,313	-171,301	0,045	-0,001
-598,298	-200,000	-0,019	-0,086
-597,284	729,185	0,054	-0,105
-596,269	166,911	-0,038	-0,039
-595,255	767,333	-0,087	-0,173
-594,240	10,716	0,090	-0,050
-593,225	276,007	-0,089	-0,114
-592,211	800,000	-0,027	0,064
-591,196	-110,362	-0,079	0,012
-590,182	660,519	0,089	0,166
-589,167	-200,000	0,015	0,052
-588,152	-39,420	0,068	-0,026
-587,138	164,475	-0,044	-0,045
-586,123	-11,688	-0,037	-0,018
-585,109	121,840	-0,086	-0,078
-584,094	800,000	-0,035	-0,086
-583,079	62,176	0,097	0,070
-582,065	-0,795	-0,207	0,106
-581,050	-200,000	0,061	0,208
-580,036	25,931	-0,057	0,034
-579,021	-200,000	-0,026	-0,095
-578,006	-200,000	-0,011	-0,041
-576,992	-200,000	0,015	-0,101
-575,977	-200,000	0,026	0,125
-574,963	-31,645	0,019	-0,008
-573,948	221,323	-0,023	0,027
-572,934	800,000	0,020	-0,048
-571,919	145,703	-0,073	-0,071
-570,904	-0,757	-0,110	0,056
-569,890	-60,181	-0,100	0,031
-568,875	-70,576	0,139	0,038
-567,861	195,813	0,008	0,009
-566,846	-200,000	0,049	0,192
-565,831	78,596	-0,082	0,063
-564,817	-48,442	-0,131	0,045
-563,802	800,000	-0,026	-0,057
-562,788	475,815	0,040	-0,065
-561,773	-35,159	0,062	-0,024
-560,758	-200,000	-0,004	-0,040
-559,744	-200,000	0,009	0,137
-558,729	61,644	-0,083	-0,059
-557,715	48,949	-0,082	0,055
-556,700	111,089	-0,074	0,064
-555,685	4,698	-0,162	-0,086
-554,671	155,383	-0,122	0,121
-553,656	159,950	-0,028	-0,028
-552,642	94,252	0,046	-0,038
-551,627	425,040	0,086	-0,135
-550,612	576,952	-0,058	0,104
-549,598	75,994	0,160	-0,122
-548,583	-200,000	-0,024	-0,082
-547,569	800,000	-0,032	-0,081
-546,554	-43,289	0,091	0,033
-545,539	-200,000	-0,019	0,072
-544,525	299,093	0,045	-0,060
-543,510	38,933	-0,004	0,003
-542,496	145,454	0,098	0,095
-541,481	291,097	0,036	-0,047
-540,466	800,000	0,047	0,134
-539,452	156,738	0,024	-0,024
-538,437	-200,000	-0,008	-0,113
-537,423	-18,317	0,108	-0,049
-536,408	289,657	-0,035	0,047
-535,393	51,023	-0,074	0,050
-534,379	595,030	0,046	0,082
-533,364	-83,568	-0,080	0,018
-532,350	61,550	0,084	-0,061
-531,335	-146,727	-0,125	0,008
-530,321	-71,215	-0,026	0,007
-529,306	-129,919	0,130	0,013
-528,291	332,899	-0,083	-0,116
-527,277	10,829	0,087	0,048
-526,262	-200,000	-0,008	0,135
-525,248	-200,000	0,027	-0,100
-524,233	-106,302	0,085	-0,014
-523,218	385,249	0,015	0,022
-522,204	12,429	-0,093	-0,052
-521,189	-200,000	0,028	0,098
-520,175	-154,094	0,139	-0,007
-519,160	-32,225	0,124	0,050
-518,145	-152,715	-0,028	-0,001
-517,131	-140,749	0,130	-0,010
-516,116	800,000	-0,022	0,061
-515,102	62,146	0,081	0,058
-514,087	-119,759	-0,053	0,006
-513,072	54,857	-0,058	0,040
-512,058	-55,040	-0,126	0,041
-511,043	800,000	-0,039	0,117
-510,029	62,294	-0,081	0,058
-509,014	53,265	0,051	0,035
-507,999	57,059	0,040	0,028
-506,985	800,000	-0,019	-0,048
-505,970	104,652	0,077	0,065
-504,956	-11,597	-0,102	-0,048
-503,941	800,000	-0,062	-0,182
-502,926	-82,345	0,113	0,026
-501,912	-138,356	-0,148	-0,012
-500,897	800,000	0,024	0,069
-499,883	36,841	-0,032	0,020
-498,868	10,310	-0,137	0,075
-497,853	-129,630	0,198	0,019
-496,839	369,529	-0,025	-0,036
-495,824	-200,000	-0,011	0,071
-494,810	800,000	-0,051	0,152
-493,795	-200,000	0,005	0,090
-492,781	-200,000	-0,025	-0,106
-491,766	50,663	-0,080	0,055
-490,751	-110,835	-0,134	-0,020
-489,737	52,466	0,055	0,038
-488,722	-1,123	-0,216	0,110
-487,708	-200,000	0,003	0,058
-486,693	396,381	-0,020	-0,030
-485,678	-148,867	0,036	0,002
-484,664	-200,000	0,003	-0,083
-483,649	-106,272	-0,106	-0,017
-482,635	-24,004	0,211	0,091
-481,620	388,375	-0,040	-0,060
-480,605	129,712	0,092	-0,085
-479,591	79,358	0,051	-0,039
-478,576	-115,446	-0,126	-0,017
-477,562	-81,965	-0,172	-0,040
-476,547	800,000	-0,074	-0,199
-475,532	800,000	0,037	-0,086
-474,518	242,306	0,115	-0,138
-473,503	144,994	-0,024	-0,024
-472,489	-200,000	-0,007	-0,059
-471,474	226,989	-0,023	0,026
-470,459	-103,006	-0,110	-0,019
-469,445	-123,498	0,121	0,014
-468,430	800,000	-0,036	-0,110
-467,416	800,000	-0,083	0,181
-466,401	46,064	0,078	0,052
-465,386	415,989	-0,048	-0,075
-464,372	-76,935	-0,052	0,013
-463,357	178,354	0,030	0,031
-462,343	-131,799	-0,175	-0,016
-461,328	16,116	-0,049	-0,028
-460,313	494,595	-0,017	0,028
-459,299	77,516	0,071	-0,055
-458,284	-56,567	-0,092	0,029
-457,270	-200,000	0,025	0,194
-456,255	184,847	-0,069	0,074
-455,241	-200,000	-0,024	-0,078
-454,226	-200,000	0,008	-0,127
-453,211	-83,437	0,077	0,018
-452,197	-200,000	0,001	-0,018
-451,182	181,123	-0,031	-0,032
-450,168	-200,000	0,024	0,080
-449,153	-14,231	0,220	0,102
-448,138	800,000	0,032	0,081
-447,124	25,864	-0,049	-0,029
-446,109	288,471	0,078	0,102
-445,095	100,538	0,157	0,131
-444,080	800,000	0,040	0,106
-443,065	-5,407	-0,015	-0,007
-442,051	405,395	-0,092	-0,140
-441,036	-41,138	-0,189	-0,070
-440,022	800,000	-0,041	-0,129
-439,007	800,000	-0,028	-0,087
-437,992	800,000	0,014	0,037
-436,978	800,000	0,003	0,008
-435,963	-200,000	0,050	0,000
-434,949	-200,000	-0,006	0,025
-433,934	7,791	0,020	0,011
-432,919	-67,060	0,013	0,004
-431,905	-34,648	-0,184	-0,072
-430,890	58,030	0,109	0,077
-429,876	-68,709	0,168	-0,046
-428,861	-75,750	-0,080	0,020
-427,846	-125,241	-0,047	0,005
-426,832	698,105	0,017	-0,032
-425,817	-200,000	0,001	0,063
-424,803	-55,277	0,088	0,028
-423,788	-46,948	-0,056	0,020
-422,773	-67,111	0,056	-0,016
-421,759	-79,607	0,160	-0,039
-420,744	800,000	0,016	-0,040
-419,730	-162,886	-0,077	-0,003
-418,715	-66,149	0,042	0,012
-417,701	-20,153	-0,068	0,030
-416,686	55,492	-0,099	0,069
-415,671	-37,951	-0,056	0,021
-414,657	-61,801	-0,110	0,033
-413,642	155,581	0,040	-0,040
-412,628	235,553	0,085	-0,101
-411,613	57,986	-0,061	-0,043
-410,598	-200,000	0,007	-0,042
-409,584	377,751	-0,029	0,043
-408,569	19,475	0,041	-0,024
-407,555	-20,752	-0,092	-0,040
-406,540	-200,000	0,008	-0,113
-405,525	-200,000	0,013	0,096
-404,511	125,270	0,045	-0,040
-403,496	46,976	-0,040	-0,027
-402,482	800,000	-0,031	0,068
-401,467	509,928	0,031	0,053
-400,452	17,155	-0,060	-0,034
-399,438	800,000	0,048	-0,132
-398,423	-33,093	0,139	-0,055
-397,409	44,463	-0,069	-0,045
-396,394	551,661	0,051	0,089
-395,379	119,213	0,067	-0,059
-394,365	-186,845	0,066	-0,001
-393,350	483,567	0,072	0,118
-392,336	-170,953	0,193	-0,005
-391,321	-200,000	-0,025	-0,175
-390,306	136,167	-0,066	-0,061
-389,292	-85,947	0,126	0,028
-388,277	-104,155	-0,095	-0,016
-387,263	154,664	0,028	-0,028
-386,248	-86,292	0,127	-0,028
-385,233	-29,267	0,087	-0,036
-384,219	-79,000	-0,073	-0,018
-383,204	-151,261	0,183	-0,010
-382,190	224,144	-0,029	-0,034
-381,175	47,699	-0,042	0,028
-380,160	800,000	0,059	0,183
-379,146	749,405	-0,077	0,149
-378,131	-200,000	-0,008	-0,059
-377,117	195,709	-0,102	-0,112
-376,102	261,563	0,049	0,061
-375,088	124,278	0,035	0,032
-374,073	-34,500	-0,040	0,016
-373,058	-200,000	0,005	0,119
-372,044	800,000	-0,050	0,103
-371,029	-27,626	0,051	-0,021
-370,015	168,976	-0,069	0,070
-369,000	131,007	0,068	-0,063
-367,985	800,000	-0,039	-0,108
-366,971	-200,000	-0,009	0,068
-365,956	-134,677	0,089	0,008
-364,942	711,548	-0,048	0,092
-363,927	-200,000	-0,037	0,218
-362,912	-87,200	0,129	0,028
-361,898	-200,000	-0,007	-0,057
-360,883	298,274	0,107	-0,142
-359,869	553,764	0,079	-0,137
-358,854	800,000	0,052	-0,123
-357,839	800,000	0,082	0,165
-356,825	-200,000	0,040	0,165
-355,810	800,000	-0,051	-0,106
-354,796	800,000	0,027	0,082
-353,781	-109,390	-0,085	0,013
-352,766	715,021	-0,018	0,034
-351,752	288,566	-0,062	0,081
-350,737	-100,478	0,080	-0,014
-349,723	-189,632	0,055	0,000
-348,708	-200,000	-0,004	0,099
-347,693	-138,521	0,038	0,003
-346,679	185,531	-0,124	-0,132
-345,664	19,193	-0,085	-0,049
-344,650	71,485	0,051	-0,038
-343,635	74,534	-0,085	-0,064
-342,620	345,568	-0,038	0,053
-341,606	-164,781	-0,055	0,002
-340,591	177,422	0,051	-0,054
-339,577	259,982	0,066	-0,082
-338,562	-175,298	0,032	-0,001
-337,548	59,849	-0,149	-0,105
-336,533	-30,483	0,195	0,079
-335,518	-200,000	0,009	-0,033
-334,504	-200,000	-0,002	0,051
-333,489	90,517	-0,017	0,014
-332,475	602,628	-0,085	-0,152
-331,460	-200,000	-0,002	0,015
-330,445	-180,708	-0,073	-0,001
-329,431	-19,540	-0,034	-0,015
-328,416	404,206	0,032	-0,049
-327,402	88,937	-0,024	-0,019
-326,387	-3,691	-0,026	0,013
-325,372	170,109	0,019	-0,020
-324,358	800,000	-0,013	-0,029
-323,343	-200,000	0,021	0,119
-322,329	90,872	0,056	0,045
-321,314	-79,712	0,026	0,006
-320,299	-7,087	0,157	0,076
-319,285	26,907	-0,079	0,048
-318,270	-200,000	0,010	-0,183
-317,256	800,000	-0,058	-0,142
-316,241	-15,302	-0,126	-0,058
-315,226	46,998	0,124	-0,083
-314,212	295,871	0,104	-0,137
-313,197	-29,423	0,111	-0,045
-312,183	-6,908	-0,137	-0,066
-311,168	800,000	0,042	0,096
-310,153	-15,480	0,113	0,051
-309,139	-153,738	0,029	-0,001
-308,124	-200,000	0,014	0,047
-307,110	-200,000	-0,001	-0,051
-306,095	-15,934	-0,080	0,036
-305,080	138,996	0,117	-0,110
-304,066	-200,000	0,005	0,079
-303,051	-95,474	-0,088	0,017
-302,037	800,000	-0,050	-0,119
-301,022	-83,139	0,136	-0,031
-300,008	-85,465	0,096	0,021
-298,993	64,245	0,100	0,072
-297,978	-124,554	-0,189	-0,021
-296,964	-29,993	0,068	0,028
-295,949	800,000	-0,058	0,121
-294,935	8,442	0,063	-0,034
-293,920	52,471	0,064	-0,044
-292,905	-103,492	0,195	-0,032
-291,891	321,118	0,029	0,039
-290,876	-200,000	-0,021	0,132
-289,862	-54,789	0,075	0,024
-288,847	-34,214	-0,081	0,032
-287,832	138,664	0,066	0,062
-286,818	-123,056	-0,098	-0,011
-285,803	-200,000	-0,002	-0,007
-284,789	-200,000	-0,035	0,149
-283,774	800,000	0,033	0,098
-282,759	-69,446	-0,114	-0,031
-281,745	-200,000	0,014	0,046
-280,730	-135,189	0,071	0,006
-279,716	197,823	-0,042	0,046
-278,701	81,454	0,124	-0,096
-277,686	707,109	0,058	0,110
-276,672	-58,944	0,125	0,038
-275,657	241,945	-0,106	-0,127
-274,643	-35,692	0,127	-0,049
-273,628	800,000	-0,009	0,021
-272,613	39,238	-0,075	0,048
-271,599	-200,000	-0,000	0,100
-270,584	296,028	-0,057	0,075
-269,570	-57,688	0,151	0,047
-268,555	67,200	-0,028	0,021
-267,540	169,413	0,103	0,106
-266,526	247,687	-0,065	0,079
-265,511	91,551	-0,079	0,063
-264,497	75,850	0,100	-0,076
-263,482	-200,000	-0,005	0,063
-262,467	-16,238	0,053	-0,024
-261,453	289,396	0,081	0,105
-260,438	1,758	-0,013	0,007
-259,424	-102,004	-0,105	-0,018
-258,409	-158,400	-0,109	0,004
-257,395	252,826	0,027	0,034
-256,380	184,189	0,036	0,038
-255,365	307,965	-0,016	0,021
-254,351	-200,000	-0,003	-0,053
-253,336	-50,098	-0,049	0,017
-252,322	-42,870	-0,033	-0,012
-251,307	-200,000	-0,006	-0,059
-250,292	-200,000	0,010	-0,115
-249,278	-116,576	0,069	-0,009
-248,263	-200,000	-0,016	-0,053
-247,249	511,728	0,029	0,048
-246,234	259,374	-0,054	-0,066
-245,219	-114,957	0,026	-0,004
-244,205	-1,683	-0,068	0,034
-243,190	-200,000	-0,017	0,146
-242,176	-200,000	0,008	0,101
-241,161	-200,000	-0,005	0,044
-240,146	238,061	0,079	0,094
-239,132	-63,164	-0,095	-0,028
-238,117	98,391	-0,030	0,025
-237,103	547,713	0,010	0,016
-236,088	-200,000	-0,022	-0,073
-235,073	-200,000	-0,009	0,096
-234,059	-170,844	0,158	0,004
-233,044	-200,000	-0,000	-0,036
-232,030	422,589	0,111	-0,171
-231,015	-53,606	-0,156	-0,051
-230,000	-200,000	0,039	-0,149
-228,986	579,172	-0,089	-0,156
-227,971	-200,000	-0,010	0,044
-226,957	107,378	0,064	0,054
-225,942	-73,077	0,020	-0,005
-224,927	-171,081	-0,030	-0,001
-223,913	-200,000	0,023	-0,081
-222,898	749,174	-0,013	-0,026
-221,884	15,624	-0,035	0,020
-220,869	-200,000	-0,011	0,036
-219,855	92,944	-0,071	0,057
-218,840	269,308	0,115	0,144
-217,825	112,848	-0,034	0,030
-216,811	17,439	0,014	-0,008
-215,796	68,685	0,076	-0,056
-214,782	-200,000	-0,013	-0,066
-213,767	-200,000	0,038	0,164
-212,752	-57,193	0,141	-0,044
-211,738	-200,000	-0,015	0,083
-210,723	-200,000	-0,022	-0,073
-209,709	-200,000	-0,040	0,146
-208,694	-105,706	0,169	0,027
-207,679	-95,181	-0,194	0,037
-206,665	-200,000	-0,018	0,127
-205,650	68,150	-0,045	0,033
-204,636	800,000	0,027	0,074
-203,621	-103,201	-0,084	-0,014
-202,606	-52,947	-0,134	0,044
-201,592	-102,705	-0,066	0,011
-200,577	43,713	-0,051	-0,033
-199,563	800,000	-0,010	0,025
-198,548	800,000	0,047	0,110
-197,533	118,135	0,058	0,051
-196,519	6,747	-0,047	0,025
-195,504	83,872	0,119	-0,093
-194,490	-81,058	-0,070	0,016
-193,475	-160,242	-0,097	0,004
-192,460	-59,559	0,111	-0,034
-191,446	-200,000	-0,015	0,050
-190,431	-62,224	0,115	0,034
-189,417	-200,000	-0,001	-0,030
-188,402	-200,000	-0,006	-0,031
-187,387	-152,746	-0,050	0,002
-186,373	133,524	0,054	0,049
-185,358	85,192	0,083	0,065
-184,344	21,550	0,014	-0,008
-183,329	-86,604	-0,117	-0,025
-182,315	261,151	0,144	0,178
-181,300	-200,000	-0,021	-0,074
-180,285	-177,513	-0,059	0,001
-179,271	-200,000	-0,006	0,054
-178,256	469,182	-0,058	-0,093
-177,242	800,000	-0,057	0,126
-176,227	800,000	-0,022	-0,058
-175,212	-29,632	-0,097	0,039
-174,198	800,000	-0,017	-0,040
-173,183	-200,000	0,000	-0,094
-172,169	-136,251	-0,015	0,001
-171,154	488,520	0,070	0,114
-170,139	800,000	0,019	0,058
-169,125	425,060	0,084	0,129
-168,110	183,999	0,098	0,103
-167,096	-200,000	0,046	-0,259
-166,081	345,628	-0,039	-0,055
-165,066	-40,205	-0,131	-0,048
-164,052	-102,268	-0,010	-0,002
-163,037	-200,000	0,007	-0,073
-162,023	7,888	0,066	-0,035
-161,008	-200,000	0,006	-0,080
-159,993	-72,447	0,079	-0,021
-158,979	-29,977	0,035	-0,014
-157,964	158,281	0,060	-0,059
-156,950	-100,370	-0,108	-0,019
-155,935	-200,000	-0,009	-0,050
-154,920	152,841	0,191	-0,186
-153,906	101,090	-0,091	-0,075
-152,891	11,469	-0,066	0,036
-151,877	-200,000	-0,035	-0,129
-150,862	-200,000	0,011	-0,126
-149,847	677,430	-0,051	-0,095
-148,833	-44,661	-0,108	0,038
-147,818	-26,859	0,126	0,052
-146,804	35,896	0,023	-0,014
-145,789	13,690	-0,135	0,075
-144,775	-49,240	-0,080	-0,027
-143,760	45,283	0,105	0,069
-142,745	-101,456	0,116	-0,020
-141,731	-200,000	-0,021	-0,071
-140,716	168,633	-0,015	-0,015
-139,702	-32,315	0,054	-0,022
-138,687	-146,356	-0,102	-0,006
-137,672	396,515	-0,091	0,136
-136,658	248,935	-0,092	0,111
-135,643	302,979	0,105	-0,139
-134,629	295,477	-0,090	-0,117
-133,614	30,648	0,022	0,013
-132,599	-23,060	0,050	0,021
-131,585	-93,782	0,111	0,022
-130,570	-122,730	0,079	0,009
-129,556	-200,000	-0,001	0,032
-128,541	4,560	0,067	-0,035
-127,526	800,000	-0,034	0,067
-126,512	-200,000	-0,015	0,062
-125,497	18,100	0,128	0,073
-124,483	800,000	-0,041	-0,113
-123,468	161,040	0,051	0,050
-122,453	76,542	-0,040	-0,030
-121,439	-200,000	0,030	-0,117
-120,424	58,599	-0,044	0,031
