DTS Sentinel unit serial number:	SN410029Multiplexer serial number:	ORYXHardware model number:	OX2-SRSoftware version number:	ORYX F/W v4,00 Oryx Data Collector v3.7.2.0data status	okinstallation	BH3 CH2differential loss correction	single-endedforward channel	channel 2reverse channel	N/Adate	2023/12/06time	01:22:28forward acquisition time	300,00reverse acquisition time	0,00gamma	499,1914k internal	0,3196k external	0,3196temperature offset calibration	1,0000default loss term (dB/km)	0,3820temperature slope calibration	1,0000multiplexer offset coefficient	1,0000multiplexer slope coefficient	1,0000fibre end	0,00T internal ref (°C)	9,24T ext. ref 1 (°C)	-5,73T ext. ref 2 (°C)	-5,83length (m)	temperature (°C)	Stokes	anti-Stokes-744,400	-200,000	0,054	-0,180
-743,385	574,743	-0,131	0,233
-742,371	800,000	0,019	-0,057
-741,356	108,740	-0,209	0,181
-740,342	800,000	-0,046	-0,102
-739,327	142,452	-0,195	0,188
-738,312	-200,000	-0,023	-0,100
-737,298	100,341	-0,195	0,165
-736,283	-200,000	-0,025	-0,272
-735,269	99,624	-0,206	0,173
-734,254	76,736	-0,013	0,010
-733,239	-70,886	-0,445	-0,121
-732,225	131,538	0,109	-0,102
-731,210	-105,853	0,063	0,010
-730,196	-31,855	0,046	0,019
-729,181	22,878	-0,182	-0,109
-728,167	-33,367	-0,192	0,077
-727,152	800,000	0,023	0,067
-726,137	15,481	-0,207	-0,118
-725,123	253,035	-0,063	-0,079
-724,108	-30,249	0,050	-0,021
-723,094	-113,694	-0,102	-0,014
-722,079	136,702	-0,069	-0,065
-721,064	13,122	0,172	-0,097
-720,050	-87,009	-0,104	0,023
-719,035	-145,720	0,024	0,002
-718,021	-135,586	-0,095	-0,008
-717,006	-200,000	0,011	0,059
-715,991	-17,000	-0,027	0,013
-714,977	222,600	-0,101	0,118
-713,962	-200,000	-0,010	0,075
-712,948	800,000	0,045	-0,100
-711,933	181,635	-0,078	0,083
-710,918	800,000	-0,018	0,048
-709,904	290,424	-0,048	-0,064
-708,889	-200,000	-0,031	0,103
-707,875	-200,000	-0,021	-0,147
-706,860	58,376	-0,019	-0,014
-705,845	155,055	0,060	-0,060
-704,831	-31,890	0,056	-0,023
-703,816	-200,000	-0,010	0,128
-702,802	800,000	-0,038	0,114
-701,787	603,604	-0,056	-0,102
-700,772	800,000	0,030	-0,062
-699,758	285,206	0,078	0,103
-698,743	284,255	-0,075	0,099
-697,729	-92,902	0,094	-0,019
-696,714	-200,000	0,016	0,090
-695,699	146,450	-0,067	-0,066
-694,685	-200,000	0,002	-0,125
-693,670	-158,038	-0,116	0,005
-692,656	-42,968	0,112	0,041
-691,641	-33,582	0,045	0,018
-690,627	106,462	-0,015	0,013
-689,612	-80,282	0,115	-0,028
-688,597	-200,000	0,025	-0,110
-687,583	27,397	0,023	0,014
-686,568	-161,034	-0,166	0,006
-685,554	-130,852	0,054	-0,005
-684,539	-200,000	-0,004	-0,036
-683,524	-153,282	0,100	0,005
-682,510	-85,972	0,087	-0,019
-681,495	291,810	0,083	0,110
-680,481	749,170	-0,086	-0,169
-679,466	-9,089	0,088	0,043
-678,451	218,642	-0,142	-0,166
-677,437	-200,000	-0,009	-0,041
-676,422	-200,000	0,008	0,085
-675,408	-200,000	0,001	0,061
-674,393	298,785	-0,037	-0,049
-673,378	330,971	-0,040	-0,056
-672,364	-125,589	-0,088	0,010
-671,349	-151,184	-0,262	0,014
-670,335	800,000	-0,065	0,162
-669,320	-4,738	0,038	-0,019
-668,305	800,000	-0,039	0,083
-667,291	-45,876	0,136	-0,048
-666,276	361,217	0,025	0,036
-665,262	234,399	-0,040	-0,048
-664,247	6,075	0,086	0,046
-663,232	508,000	0,045	-0,075
-662,218	-200,000	-0,013	0,166
-661,203	800,000	0,026	0,081
-660,189	-37,726	0,198	0,076
-659,174	-5,758	-0,139	-0,069
-658,159	800,000	-0,071	-0,151
-657,145	-200,000	0,003	0,111
-656,130	-112,113	-0,137	-0,020
-655,116	-41,160	0,050	0,019
-654,101	-27,352	0,033	-0,014
-653,086	-200,000	0,023	0,075
-652,072	800,000	-0,065	-0,140
-651,057	800,000	0,052	-0,112
-650,043	-57,126	0,123	-0,039
-649,028	-94,845	-0,040	0,008
-648,014	-53,839	-0,136	-0,045
-646,999	530,853	-0,057	-0,098
-645,984	-100,106	-0,063	-0,011
-644,970	148,487	0,097	0,095
-643,955	-151,056	-0,170	0,009
-642,941	-200,000	0,015	-0,048
-641,926	-8,477	0,097	-0,047
-640,911	79,570	0,020	0,015
-639,897	-200,000	0,014	0,051
-638,882	-60,990	0,001	0,000
-637,868	-200,000	-0,013	0,047
-636,853	-79,911	0,178	-0,043
-635,838	-51,765	-0,105	-0,035
-634,824	-200,000	-0,011	0,111
-633,809	68,770	-0,039	0,029
-632,795	-34,303	-0,027	-0,011
-631,780	70,202	-0,022	-0,016
-630,765	-78,387	-0,029	0,007
-629,751	-140,780	-0,134	0,010
-628,736	-24,017	-0,128	-0,055
-627,722	61,059	0,115	0,083
-626,707	-52,345	-0,044	-0,015
-625,692	-84,411	0,151	0,034
-624,678	-115,249	-0,129	0,017
-623,663	633,563	0,071	-0,132
-622,649	565,734	-0,042	-0,074
-621,634	-106,093	-0,172	0,028
-620,619	-200,000	-0,000	-0,157
-619,605	800,000	-0,027	0,067
-618,590	151,097	0,037	0,036
-617,576	-200,000	0,043	0,154
-616,561	-200,000	0,003	0,117
-615,546	-173,542	-0,185	0,004
-614,532	115,410	-0,014	0,012
-613,517	73,093	0,068	-0,051
-612,503	-200,000	0,038	-0,162
-611,488	800,000	0,063	0,134
-610,474	315,067	-0,047	-0,065
-609,459	-25,032	-0,078	0,033
-608,444	-200,000	0,011	-0,066
-607,430	589,448	-0,092	-0,166
-606,415	21,245	0,036	0,021
-605,401	-200,000	-0,008	0,102
-604,386	-90,062	-0,101	0,021
-603,371	-110,096	-0,109	-0,016
-602,357	164,001	0,028	-0,029
-601,342	800,000	-0,060	0,179
-600,328	-200,000	-0,025	0,189
-599,313	-66,235	-0,110	-0,031
-598,298	48,172	0,048	0,033
-597,284	-200,000	0,022	-0,145
-596,269	-200,000	0,030	0,122
-595,255	30,343	0,079	0,049
-594,240	-121,903	-0,054	0,006
-593,225	-200,000	0,006	-0,067
-592,211	154,885	-0,012	-0,012
-591,196	464,539	0,057	0,093
-590,182	-200,000	0,003	-0,092
-589,167	800,000	-0,028	-0,076
-588,152	-200,000	0,007	0,098
-587,138	-200,000	-0,002	0,025
-586,123	147,637	-0,078	-0,076
-585,109	-101,441	0,063	-0,011
-584,094	-82,911	0,082	-0,019
-583,079	800,000	0,039	-0,107
-582,065	-70,928	0,075	-0,020
-581,050	65,785	-0,079	-0,058
-580,036	200,869	-0,067	-0,075
-579,021	-99,975	0,084	0,015
-578,006	17,272	0,134	-0,077
-576,992	226,555	-0,011	0,012
-575,977	-200,000	-0,007	-0,122
-574,963	-155,043	-0,129	-0,006
-573,948	-133,111	-0,027	-0,002
-572,934	174,647	0,049	-0,052
-571,919	-129,785	-0,070	0,007
-570,904	-53,030	0,111	-0,037
-569,890	0,122	-0,133	-0,068
-568,875	-200,000	-0,016	0,055
-567,861	-30,730	0,122	0,050
-566,846	-145,016	0,129	0,008
-565,831	218,057	-0,111	-0,128
-564,817	-44,133	0,152	0,055
-563,802	-110,988	-0,188	-0,028
-562,788	31,422	-0,060	0,037
-561,773	-200,000	-0,003	-0,043
-560,758	250,017	0,077	-0,094
-559,744	-128,506	0,127	-0,013
-558,729	-146,538	0,031	-0,002
-557,715	-113,254	0,054	0,008
-556,700	-75,346	0,244	-0,062
-555,685	-200,000	0,022	-0,073
-554,671	-145,220	-0,085	-0,005
-553,656	-146,995	-0,057	-0,003
-552,642	800,000	-0,034	-0,093
-551,627	-126,625	-0,062	0,007
-550,612	233,271	0,020	0,024
-549,598	84,262	-0,123	-0,097
-548,583	-200,000	0,020	0,143
-547,569	800,000	-0,053	-0,119
-546,554	-113,443	0,168	-0,023
-545,539	290,390	-0,066	0,087
-544,525	-123,114	0,084	0,010
-543,510	25,891	-0,191	-0,115
-542,496	114,999	-0,055	-0,049
-541,481	-200,000	0,004	-0,087
-540,466	206,677	0,099	-0,112
-539,452	-68,821	0,080	-0,022
-538,437	156,315	-0,128	-0,128
-537,423	-19,556	-0,045	-0,020
-536,408	-152,247	0,213	0,011
-535,393	-10,742	-0,111	-0,053
-534,379	800,000	-0,040	0,101
-533,364	251,854	-0,045	-0,056
-532,350	183,657	-0,052	-0,055
-531,335	-200,000	-0,001	-0,037
-530,321	-200,000	0,003	0,043
-529,306	-200,000	-0,019	0,068
-528,291	-7,001	-0,227	0,111
-527,277	800,000	-0,060	-0,135
-526,262	110,286	-0,091	0,079
-525,248	-200,000	-0,034	0,162
-524,233	-200,000	0,015	0,156
-523,218	800,000	-0,063	0,146
-522,204	449,075	0,077	0,123
-521,189	59,681	0,004	0,003
-520,175	-200,000	0,006	-0,063
-519,160	115,879	-0,047	0,041
-518,145	-200,000	-0,037	-0,123
-517,131	473,849	0,051	0,084
-516,116	-200,000	-0,015	0,161
-515,102	-166,719	0,044	0,001
-514,087	-140,289	-0,152	-0,011
-513,072	512,259	-0,035	-0,059
-512,058	-84,023	-0,112	-0,025
-511,043	-129,833	0,063	-0,006
-510,029	-38,948	-0,136	0,051
-509,014	71,299	-0,074	-0,055
-507,999	341,563	-0,057	0,080
-506,985	439,590	0,043	-0,067
-505,970	-200,000	0,004	-0,193
-504,956	-200,000	0,012	0,079
-503,941	8,246	0,127	0,069
-502,926	-200,000	0,000	-0,031
-501,912	-200,000	-0,014	0,088
-500,897	-61,960	0,048	-0,014
-499,883	444,004	-0,042	-0,067
-498,868	85,091	0,072	0,057
-497,853	-200,000	-0,005	0,055
-496,839	-200,000	0,012	0,048
-495,824	178,591	-0,038	-0,040
-494,810	-135,146	0,088	-0,008
-493,795	506,455	-0,027	0,045
-492,781	800,000	-0,028	-0,065
-491,766	-77,340	0,068	0,017
-490,751	-52,194	-0,113	0,038
-489,737	-173,017	0,038	-0,001
-488,722	131,124	-0,064	0,059
-487,708	16,650	0,090	-0,051
-486,693	-200,000	-0,004	0,032
-485,678	-84,890	-0,089	0,020
-484,664	-170,794	0,040	-0,001
-483,649	341,224	-0,009	0,013
-482,635	22,452	0,085	0,050
-481,620	800,000	-0,045	-0,090
-480,605	172,441	0,018	-0,019
-479,591	44,810	0,082	0,054
-478,576	204,698	0,055	-0,062
-477,562	-75,242	-0,099	-0,025
-476,547	-96,484	-0,062	0,012
-475,532	597,258	-0,041	-0,073
-474,518	101,411	0,166	0,139
-473,503	34,997	0,090	0,057
-472,489	-200,000	-0,005	-0,076
-471,474	181,354	-0,032	0,034
-470,459	-77,237	-0,114	0,028
-469,445	309,765	0,123	0,166
-468,430	800,000	-0,034	-0,100
-467,416	349,584	0,028	-0,039
-466,401	383,591	-0,019	-0,029
-465,386	800,000	0,049	0,121
-464,372	-200,000	0,012	-0,041
-463,357	186,239	-0,067	-0,072
-462,343	144,469	0,053	0,051
-461,328	-200,000	-0,021	-0,087
-460,313	197,177	-0,046	0,050
-459,299	-200,000	-0,023	0,092
-458,284	-103,236	0,055	-0,009
-457,270	676,890	0,069	-0,129
-456,255	492,386	0,096	-0,158
-455,241	147,762	-0,078	0,076
-454,226	778,603	0,040	0,079
-453,211	-200,000	0,009	0,044
-452,197	-200,000	-0,005	0,116
-451,182	8,913	0,013	-0,007
-450,168	216,147	0,079	-0,090
-449,153	392,408	0,062	-0,093
-448,138	800,000	-0,046	-0,118
-447,124	800,000	0,028	-0,062
-446,109	-78,935	0,114	0,028
-445,095	-136,184	-0,079	-0,007
-444,080	-81,492	0,028	0,007
-443,065	-200,000	-0,012	0,108
-442,051	-200,000	0,019	0,119
-441,036	10,155	-0,080	-0,044
-440,022	678,837	0,040	-0,075
-439,007	-9,624	0,174	0,083
-437,992	-200,000	0,023	-0,121
-436,978	-120,672	0,199	-0,024
-435,963	429,406	-0,051	-0,079
-434,949	800,000	-0,037	-0,091
-433,934	-200,000	-0,012	-0,128
-432,919	51,136	-0,095	-0,065
-431,905	174,574	-0,053	0,055
-430,890	-200,000	-0,052	0,218
-429,876	15,284	0,034	-0,019
-428,861	103,053	-0,119	0,101
-427,846	800,000	0,045	-0,110
-426,832	-121,291	0,051	-0,006
-425,817	-200,000	-0,040	-0,136
-424,803	-200,000	-0,013	-0,062
-423,788	-200,000	-0,020	0,106
-422,773	170,544	0,097	-0,100
-421,759	-200,000	0,027	0,117
-420,744	-68,114	-0,134	-0,037
-419,730	-15,325	0,026	-0,012
-418,715	185,313	-0,098	-0,104
-417,701	267,132	0,105	0,132
-416,686	-200,000	-0,002	0,011
-415,671	185,651	-0,055	0,059
-414,657	112,840	-0,108	0,094
-413,642	181,326	0,102	0,108
-412,628	-44,125	-0,037	0,013
-411,613	-52,721	-0,015	0,005
-410,598	-108,025	-0,044	0,007
-409,584	800,000	0,055	0,147
-408,569	108,193	0,072	0,062
-407,555	184,717	-0,046	0,049
-406,540	151,322	-0,086	-0,084
-405,525	-71,138	0,194	-0,052
-404,511	-21,079	-0,162	-0,071
-403,496	-200,000	0,042	0,146
-402,482	-81,602	0,143	-0,034
-401,467	347,720	0,006	-0,008
-400,452	385,940	0,073	0,108
-399,438	639,276	0,057	-0,105
-398,423	-200,000	0,010	0,043
-397,409	-200,000	0,015	-0,123
-396,394	2,198	-0,162	-0,084
-395,379	99,338	-0,003	0,002
-394,365	-98,105	-0,023	0,004
-393,350	-200,000	0,043	0,171
-392,336	-200,000	0,009	0,119
-391,321	45,375	-0,095	-0,063
-390,306	2,520	-0,089	-0,046
-389,292	800,000	0,018	-0,040
-388,277	-200,000	0,017	-0,139
-387,263	-85,363	-0,122	0,027
-386,248	-5,248	0,081	0,040
-385,233	18,359	0,101	0,058
-384,219	264,579	-0,059	-0,073
-383,204	133,325	0,084	-0,078
-382,190	800,000	-0,072	-0,149
-381,175	800,000	0,048	-0,111
-380,160	118,541	0,107	-0,095
-379,146	46,789	0,120	0,080
-378,131	-199,376	-0,076	-0,000
-377,117	-200,000	0,008	0,096
-376,102	-40,829	-0,083	-0,031
-375,088	-69,066	-0,095	0,026
-374,073	722,787	-0,043	-0,083
-373,058	-6,689	0,191	0,093
-372,044	151,329	0,021	0,021
-371,029	521,766	-0,098	0,166
-370,015	-200,000	0,002	-0,054
-369,000	-44,948	-0,155	0,055
-367,985	-128,516	0,093	-0,009
-366,971	-180,506	-0,045	0,001
-365,956	-27,151	-0,071	-0,030
-364,942	-200,000	0,030	0,116
-363,927	-89,221	-0,102	0,021
-362,912	-60,329	-0,048	0,014
-361,898	-18,097	-0,089	0,040
-360,883	-200,000	0,009	0,071
-359,869	165,770	0,046	-0,047
-358,854	-200,000	0,010	-0,095
-357,839	-102,957	0,136	0,023
-356,825	-200,000	-0,022	-0,094
-355,810	-200,000	0,030	0,127
-354,796	62,648	-0,036	-0,026
-353,781	325,816	-0,037	-0,051
-352,766	72,680	0,080	-0,060
-351,752	-78,028	0,127	-0,031
-350,737	-200,000	0,013	0,117
-349,723	67,248	-0,044	-0,032
-348,708	189,501	-0,052	0,055
-347,693	33,216	-0,114	-0,071
-346,679	185,012	-0,044	0,047
-345,664	-200,000	-0,042	-0,243
-344,650	-63,988	-0,083	0,024
-343,635	800,000	0,064	0,192
-342,620	28,285	-0,128	-0,077
-341,606	93,761	-0,019	-0,016
-340,591	144,064	0,026	-0,025
-339,577	-42,814	-0,141	0,051
-338,562	398,329	0,047	-0,071
-337,548	-200,000	0,011	-0,082
-336,533	-200,000	-0,004	0,056
-335,518	-200,000	0,019	0,164
-334,504	-200,000	-0,008	-0,030
-333,489	119,141	0,052	0,046
-332,475	800,000	0,026	-0,080
-331,460	9,392	-0,042	-0,023
-330,445	-200,000	0,005	-0,048
-329,431	800,000	-0,045	0,111
-328,416	-200,000	0,000	0,139
-327,402	56,548	0,061	0,042
-326,387	800,000	-0,038	0,108
-325,372	96,975	-0,074	-0,061
-324,358	800,000	0,028	-0,065
-323,343	-200,000	0,018	-0,118
-322,329	800,000	-0,005	-0,016
-321,314	-91,144	0,094	-0,019
-320,299	654,030	0,119	-0,219
-319,285	-105,885	-0,058	-0,009
-318,270	-20,941	-0,140	-0,061
-317,256	-43,025	0,051	-0,019
-316,241	-200,000	0,024	-0,234
-315,226	800,000	-0,028	-0,088
-314,212	92,692	0,021	0,017
-313,197	87,209	0,092	0,073
-312,183	800,000	-0,024	-0,063
-311,168	800,000	-0,047	-0,093
-310,153	33,611	-0,082	-0,051
-309,139	44,018	0,092	0,060
-308,124	759,668	-0,062	0,122
-307,110	-143,265	0,018	0,001
-306,095	-95,416	0,075	0,014
-305,080	-171,707	-0,110	0,003
-304,066	-200,000	-0,005	-0,073
-303,051	-35,057	0,048	-0,019
-302,037	-200,000	0,026	0,086
-301,022	800,000	0,018	-0,037
-300,008	108,611	-0,060	0,051
-298,993	800,000	0,008	0,024
-297,978	-77,881	0,025	-0,006
-296,964	32,853	-0,055	0,034
-295,949	5,668	-0,109	0,058
-294,935	33,437	0,040	-0,025
-293,920	146,701	0,079	-0,076
-292,905	-4,358	-0,041	-0,020
-291,891	-39,481	-0,088	-0,033
-290,876	-200,000	-0,035	0,130
-289,862	-103,700	-0,100	0,017
-288,847	37,877	-0,090	-0,057
-287,832	-200,000	-0,001	0,027
-286,818	369,222	0,045	0,065
-285,803	6,383	0,045	-0,024
-284,789	-200,000	0,081	-0,000
-283,774	800,000	0,007	-0,021
-282,759	800,000	-0,053	-0,140
-281,745	-54,371	-0,055	-0,018
-280,730	-33,354	-0,107	0,042
-279,716	196,184	-0,076	-0,083
-278,701	59,409	0,050	0,035
-277,686	-200,000	0,032	0,221
-276,672	-200,000	-0,012	-0,092
-275,657	-114,015	-0,130	0,018
-274,643	-200,000	0,006	0,041
-273,628	-5,976	0,058	-0,028
-272,613	190,738	-0,061	-0,066
-271,599	43,804	-0,005	0,004
-270,584	126,939	0,054	0,049
-269,570	8,544	0,097	0,052
-268,555	780,336	0,028	-0,055
-267,540	800,000	-0,057	0,130
-266,526	-200,000	0,008	-0,121
-265,511	636,584	-0,020	-0,037
-264,497	800,000	0,007	-0,018
-263,482	-84,121	0,123	0,028
-262,467	-76,450	0,146	0,037
-261,453	51,692	-0,051	0,034
-260,438	-16,371	-0,095	-0,043
-259,424	5,374	0,087	-0,046
-258,409	500,976	-0,078	-0,129
-257,395	65,362	0,062	0,044
-256,380	705,737	0,039	0,074
-255,365	-200,000	0,004	0,013
-254,351	800,000	0,010	-0,021
-253,336	-200,000	0,010	0,078
-252,322	-50,669	0,044	0,015
-251,307	-147,453	0,067	-0,004
-250,292	104,504	0,046	0,038
-249,278	-9,184	-0,107	0,051
-248,263	598,987	0,121	0,215
-247,249	-200,000	0,008	0,099
-246,234	779,177	0,052	-0,102
-245,219	800,000	-0,018	0,047
-244,205	-137,268	0,111	0,009
-243,190	94,390	-0,179	0,145
-242,176	38,234	0,119	0,076
-241,161	-200,000	-0,001	-0,064
-240,146	95,801	0,137	-0,111
-239,132	-200,000	0,010	0,079
-238,117	54,815	-0,021	0,015
-237,103	-87,290	0,107	-0,023
-236,088	-85,204	0,064	-0,014
-235,073	76,311	-0,022	-0,017
-234,059	-200,000	-0,003	-0,052
-233,044	17,290	-0,069	0,039
-232,030	-91,291	0,052	-0,011
-231,015	-200,000	0,016	0,078
-230,000	-200,000	0,007	-0,058
-228,986	-36,242	0,083	0,032
-227,971	335,214	0,070	0,097
-226,957	16,003	-0,085	-0,048
-225,942	-97,782	0,135	0,025
-224,927	-200,000	0,008	-0,031
-223,913	800,000	0,021	-0,062
-222,898	-18,184	-0,142	-0,063
-221,884	-200,000	-0,016	0,101
-220,869	745,131	-0,025	0,047
-219,855	-185,654	0,087	0,001
-218,840	-200,000	-0,009	0,176
-217,825	323,106	0,003	-0,004
-216,811	-31,582	-0,119	-0,048
-215,796	64,729	-0,115	0,083
-214,782	79,154	0,058	-0,044
-213,767	21,969	0,064	0,037
-212,752	0,836	0,153	0,078
-211,738	603,203	-0,055	-0,099
-210,723	800,000	-0,028	0,075
-209,709	81,686	0,105	-0,081
-208,694	601,772	0,041	-0,073
-207,679	-63,595	-0,044	-0,013
-206,665	-200,000	0,021	0,089
-205,650	-200,000	-0,011	-0,039
-204,636	344,897	0,023	0,032
-203,621	129,606	-0,061	0,056
-202,606	-39,061	0,182	0,068
-201,592	85,521	0,016	-0,013
-200,577	-200,000	-0,006	-0,050
-199,563	35,708	0,025	0,016
-198,548	-175,358	0,102	0,002
-197,533	800,000	0,013	-0,031
-196,519	204,371	0,106	0,117
-195,504	-118,871	0,059	-0,007
-194,490	54,424	-0,011	-0,008
-193,475	300,201	-0,045	-0,059
-192,460	193,946	0,057	0,061
-191,446	800,000	0,057	0,153
-190,431	-82,933	0,124	-0,028
-189,417	-200,000	-0,015	0,065
-188,402	-154,542	-0,090	0,004
-187,387	800,000	0,014	0,032
-186,373	13,714	0,246	0,136
-185,358	-200,000	0,016	-0,139
-184,344	-136,494	0,152	-0,012
-183,329	722,338	0,022	0,042
-182,315	-152,454	0,094	0,005
-181,300	800,000	-0,027	-0,066
-180,285	-200,000	-0,009	-0,225
-179,271	-44,407	-0,076	0,027
-178,256	-200,000	-0,000	-0,011
-177,242	-5,311	0,150	0,073
-176,227	29,439	0,165	0,100
-175,212	-200,000	0,037	0,192
-174,198	-24,885	-0,111	0,047
-173,183	34,818	0,030	-0,019
-172,169	-145,116	-0,086	-0,006
-171,154	72,185	-0,097	-0,072
-170,139	174,810	-0,053	-0,054
-169,125	118,725	0,061	0,054
-168,110	118,178	-0,069	0,060
-167,096	-4,384	-0,118	-0,058
-166,081	-200,000	0,019	-0,203
-165,066	516,109	-0,054	-0,090
-164,052	-200,000	0,003	-0,060
-163,037	-200,000	-0,019	-0,078
-162,023	-200,000	-0,036	0,147
-161,008	145,855	0,085	0,081
-159,993	87,567	-0,084	-0,066
-158,979	-200,000	0,000	0,050
-157,964	257,450	0,101	-0,124
-156,950	23,358	0,016	-0,010
-155,935	162,999	-0,100	-0,100
-154,920	800,000	0,088	0,217
-153,906	-31,376	-0,079	-0,031
-152,891	128,886	-0,002	-0,002
-151,877	38,918	0,126	0,080
-150,862	800,000	0,039	-0,078
-149,847	24,073	-0,031	-0,018
-148,833	-182,391	0,064	-0,001
-147,818	-57,779	-0,019	0,006
-146,804	69,449	0,058	0,043
-145,789	800,000	0,034	-0,069
-144,775	-77,007	-0,178	-0,044
-143,760	800,000	0,048	0,127
-142,745	-36,814	-0,102	-0,039
-141,731	-118,770	-0,141	-0,017
-140,716	-98,075	-0,048	0,009
-139,702	-1,922	0,057	-0,028
-138,687	-200,000	-0,004	0,048
-137,672	-56,317	0,070	-0,022
-136,658	-200,000	-0,003	-0,143
-135,643	482,139	-0,075	-0,122
-134,629	209,617	0,098	-0,109
-133,614	-82,866	0,115	0,026
-132,599	-200,000	-0,017	-0,073
-131,585	546,192	0,058	-0,099
-130,570	-198,263	-0,039	0,000
-129,556	-200,000	0,003	-0,067
-128,541	98,513	-0,151	-0,123
-127,526	367,631	0,051	0,074
-126,512	-126,894	0,051	-0,005
-125,497	-148,088	-0,035	0,002
-124,483	81,029	0,027	-0,021
-123,468	769,158	-0,048	0,094
-122,453	-71,557	-0,080	-0,021
-121,439	-111,287	-0,047	0,007
-120,424	454,108	0,097	-0,153
-119,410	-200,000	-0,007	0,029
