DTS Sentinel unit serial number:	SN410029Multiplexer serial number:	ORYXHardware model number:	OX2-SRSoftware version number:	ORYX F/W v4,00 Oryx Data Collector v3.7.2.0data status	okinstallation	BH3 CH2differential loss correction	single-endedforward channel	channel 2reverse channel	N/Adate	2023/12/05time	12:12:28forward acquisition time	300,00reverse acquisition time	0,00gamma	499,1914k internal	0,3196k external	0,3196temperature offset calibration	1,0000default loss term (dB/km)	0,3820temperature slope calibration	1,0000multiplexer offset coefficient	1,0000multiplexer slope coefficient	1,0000fibre end	0,00T internal ref (°C)	9,75T ext. ref 1 (°C)	-4,81T ext. ref 2 (°C)	-4,89length (m)	temperature (°C)	Stokes	anti-Stokes-744,400	-200,000	-0,015	-0,086
-743,385	36,350	-0,250	0,160
-742,371	-200,000	0,005	-0,032
-741,356	174,323	-0,159	0,168
-740,342	113,035	-0,058	0,051
-739,327	-174,858	-0,117	-0,002
-738,312	-200,000	-0,036	-0,187
-737,298	47,323	-0,265	0,179
-736,283	-83,681	-0,157	0,036
-735,269	204,510	-0,156	0,176
-734,254	146,658	0,117	-0,115
-733,239	-99,225	-0,309	0,056
-732,225	47,131	0,156	-0,105
-731,210	526,780	-0,040	0,069
-730,196	170,998	0,086	0,090
-729,181	266,120	-0,036	-0,046
-728,167	57,106	0,165	-0,117
-727,152	-200,000	0,008	-0,095
-726,137	45,449	-0,063	-0,042
-725,123	-49,018	-0,174	-0,060
-724,108	800,000	-0,014	0,031
-723,094	564,139	0,030	0,053
-722,079	80,401	-0,105	-0,082
-721,064	107,164	0,103	-0,089
-720,050	-200,000	-0,018	-0,077
-719,035	-167,049	-0,157	0,005
-718,021	-200,000	-0,002	-0,013
-717,006	43,688	-0,090	-0,060
-715,991	-91,070	-0,124	-0,026
-714,977	152,286	-0,108	-0,108
-713,962	248,109	-0,094	-0,116
-712,948	-115,999	0,098	0,013
-711,933	-115,841	-0,123	-0,017
-710,918	-200,000	0,015	0,181
-709,904	148,131	-0,148	0,146
-708,889	-37,459	-0,124	0,048
-707,875	51,530	-0,058	-0,040
-706,860	800,000	-0,016	-0,043
-705,845	-200,000	0,017	-0,108
-704,831	-179,410	-0,122	-0,002
-703,816	-88,739	0,059	0,013
-702,802	-200,000	-0,000	0,003
-701,787	19,289	-0,030	-0,018
-700,772	22,547	-0,031	-0,018
-699,758	800,000	0,040	0,122
-698,743	-103,572	0,146	0,025
-697,729	-144,536	0,081	0,005
-696,714	503,386	0,011	0,019
-695,699	-200,000	0,005	0,031
-694,685	-107,318	0,056	-0,009
-693,670	-49,578	0,074	0,026
-692,656	-69,309	-0,094	0,026
-691,641	-15,900	0,089	0,041
-690,627	159,162	0,103	0,104
-689,612	-115,390	-0,189	0,026
-688,597	-200,000	0,021	-0,127
-687,583	-135,842	-0,154	0,013
-686,568	166,713	-0,030	-0,031
-685,554	-16,415	-0,092	-0,042
-684,539	622,811	-0,077	-0,141
-683,524	-75,996	0,123	0,031
-682,510	800,000	-0,020	0,054
-681,495	-97,860	-0,146	0,027
-680,481	-200,000	0,023	0,084
-679,466	403,410	-0,039	-0,060
-678,451	39,259	0,081	-0,053
-677,437	-58,970	-0,062	0,019
-676,422	-54,189	0,106	0,035
-675,408	-40,763	0,096	0,036
-674,393	1,708	0,077	-0,040
-673,378	-200,000	0,011	-0,081
-672,364	-73,414	-0,021	0,006
-671,349	-200,000	0,006	-0,098
-670,335	-104,455	0,141	-0,023
-669,320	800,000	0,053	0,117
-668,305	-200,000	0,014	-0,157
-667,291	-200,000	-0,008	0,028
-666,276	44,278	0,100	0,067
-665,262	-120,764	-0,049	0,006
-664,247	131,701	0,109	0,101
-663,232	-5,209	-0,036	0,018
-662,218	800,000	-0,026	0,071
-661,203	185,343	0,051	-0,055
-660,189	-22,751	-0,215	0,094
-659,174	77,472	0,090	0,070
-658,159	-200,000	-0,002	0,055
-657,145	-183,879	-0,074	-0,001
-656,130	-200,000	0,013	-0,048
-655,116	-200,000	0,012	-0,055
-654,101	-161,202	0,121	-0,004
-653,086	-200,000	0,020	-0,219
-652,072	-84,570	-0,057	-0,013
-651,057	-31,320	-0,066	0,027
-650,043	-31,996	-0,119	0,048
-649,028	800,000	0,003	0,008
-648,014	-200,000	0,002	-0,015
-646,999	157,720	0,071	0,071
-645,984	-86,251	-0,090	-0,020
-644,970	800,000	0,035	-0,095
-643,955	556,157	-0,038	0,067
-642,941	800,000	-0,066	-0,167
-641,926	-78,122	0,094	-0,023
-640,911	292,937	-0,033	0,043
-639,897	800,000	0,072	0,146
-638,882	-13,748	-0,101	-0,047
-637,868	15,943	0,059	0,034
-636,853	252,392	-0,076	-0,094
-635,838	537,301	0,025	-0,043
-634,824	-200,000	0,008	-0,028
-633,809	17,775	-0,057	-0,033
-632,795	800,000	0,027	0,079
-631,780	-200,000	0,001	-0,081
-630,765	-160,859	-0,031	0,001
-629,751	-93,120	-0,083	-0,017
-628,736	800,000	-0,071	-0,150
-627,722	800,000	-0,024	-0,059
-626,707	-200,000	0,024	-0,121
-625,692	800,000	0,011	0,031
-624,678	0,719	-0,100	-0,052
-623,663	141,098	-0,120	-0,115
-622,649	174,503	-0,152	-0,160
-621,634	800,000	-0,010	0,021
-620,619	-131,542	0,028	-0,003
-619,605	62,413	-0,057	0,041
-618,590	422,412	0,065	0,101
-617,576	-49,615	-0,052	-0,018
-616,561	800,000	0,020	-0,055
-615,546	-200,000	-0,002	-0,079
-614,532	762,641	-0,023	-0,046
-613,517	109,405	0,126	0,109
-612,503	-60,823	0,070	-0,021
-611,488	-40,839	-0,047	0,018
-610,474	87,029	0,044	0,036
-609,459	91,776	-0,095	-0,077
-608,444	85,434	-0,085	-0,068
-607,430	-128,618	-0,087	-0,009
-606,415	89,406	-0,077	-0,062
-605,401	-200,000	0,057	0,000
-604,386	-141,992	-0,111	-0,008
-603,371	-87,066	0,032	0,007
-602,357	587,509	-0,042	0,075
-601,342	604,110	-0,069	-0,125
-600,328	-77,892	-0,062	-0,015
-599,313	528,748	-0,086	-0,147
-598,298	800,000	-0,043	-0,113
-597,284	118,404	0,037	0,034
-596,269	800,000	0,018	-0,049
-595,255	-116,809	-0,018	-0,002
-594,240	-200,000	-0,007	0,076
-593,225	74,617	-0,035	0,026
-592,211	-84,965	-0,060	-0,014
-591,196	-72,031	0,203	0,054
-590,182	-200,000	0,026	-0,092
-589,167	261,626	0,016	0,020
-588,152	60,259	0,118	-0,085
-587,138	148,770	-0,075	0,073
-586,123	-46,855	0,059	-0,021
-585,109	259,320	-0,111	0,139
-584,094	-80,150	-0,062	-0,015
-583,079	-200,000	0,022	0,106
-582,065	414,387	0,018	-0,029
-581,050	519,901	0,082	0,139
-580,036	282,750	-0,098	0,128
-579,021	-200,000	-0,002	0,061
-578,006	-80,952	-0,081	0,019
-576,992	-40,294	0,088	-0,033
-575,977	-111,123	0,122	0,018
-574,963	-200,000	0,002	0,028
-573,948	234,554	-0,037	0,045
-572,934	204,431	0,135	0,151
-571,919	161,051	-0,063	-0,064
-570,904	800,000	-0,020	-0,042
-569,890	-97,383	0,063	0,012
-568,875	200,732	0,146	-0,163
-567,861	-112,031	0,090	0,013
-566,846	-135,629	0,125	0,011
-565,831	-200,000	-0,017	0,078
-564,817	-200,000	-0,019	0,074
-563,802	-200,000	0,022	-0,075
-562,788	133,882	-0,110	-0,103
-561,773	337,061	0,067	-0,094
-560,758	-76,508	0,076	-0,019
-559,744	165,347	0,094	0,096
-558,729	-5,378	0,087	-0,043
-557,715	-200,000	-0,009	0,086
-556,700	-154,703	-0,060	0,003
-555,685	800,000	-0,067	0,137
-554,671	142,879	-0,085	-0,082
-553,656	-126,100	0,086	0,009
-552,642	-200,000	-0,017	0,098
-551,627	323,893	0,026	0,037
-550,612	28,955	0,104	-0,064
-549,598	-134,607	-0,210	0,018
-548,583	547,903	0,039	0,067
-547,569	174,763	-0,072	0,076
-546,554	-200,000	0,008	0,093
-545,539	800,000	0,032	-0,065
-544,525	-200,000	0,040	0,156
-543,510	-95,656	-0,128	0,024
-542,496	-200,000	0,015	-0,067
-541,481	111,479	-0,067	0,058
-540,466	40,875	-0,031	0,020
-539,452	53,304	0,108	0,075
-538,437	46,994	-0,055	0,037
-537,423	211,057	0,030	-0,034
-536,408	44,065	0,152	0,101
-535,393	-200,000	0,020	-0,139
-534,379	-200,000	0,019	-0,224
-533,364	-200,000	0,013	-0,076
-532,350	240,397	0,099	-0,120
-531,335	800,000	0,025	0,052
-530,321	62,880	-0,069	0,049
-529,306	800,000	-0,036	0,099
-528,291	766,041	-0,035	-0,070
-527,277	218,752	0,066	-0,076
-526,262	-200,000	-0,009	0,055
-525,248	34,299	0,042	0,027
-524,233	-200,000	-0,001	0,046
-523,218	241,695	0,094	-0,114
-522,204	352,569	0,064	-0,092
-521,189	293,474	-0,081	-0,107
-520,175	73,229	-0,048	-0,037
-519,160	11,128	-0,060	-0,033
-518,145	197,708	0,114	0,126
-517,131	-68,629	0,146	-0,041
-516,116	-0,206	0,124	0,063
-515,102	184,184	0,121	0,130
-514,087	657,064	-0,085	0,159
-513,072	225,195	-0,083	0,097
-512,058	-200,000	-0,039	-0,138
-511,043	-200,000	-0,017	0,128
-510,029	104,816	-0,017	0,014
-509,014	26,912	-0,065	0,039
-507,999	105,265	0,080	-0,068
-506,985	287,238	0,066	-0,086
-505,970	508,180	-0,053	-0,090
-504,956	662,464	0,028	-0,052
-503,941	376,937	0,116	0,172
-502,926	-200,000	-0,025	0,108
-501,912	-105,198	0,096	0,016
-500,897	800,000	0,030	0,082
-499,883	-36,576	0,056	-0,021
-498,868	-100,389	-0,166	0,029
-497,853	-51,395	0,149	-0,050
-496,839	800,000	-0,013	0,040
-495,824	-200,000	0,012	-0,072
-494,810	-200,000	0,013	0,140
-493,795	-186,642	-0,058	0,001
-492,781	128,719	0,070	0,064
-491,766	-68,218	-0,131	-0,037
-490,751	-127,167	-0,074	-0,008
-489,737	-27,304	0,059	-0,025
-488,722	-200,000	-0,022	0,091
-487,708	-200,000	0,023	0,145
-486,693	-185,544	-0,028	0,000
-485,678	-157,881	0,127	0,005
-484,664	-200,000	-0,013	0,102
-483,649	52,314	-0,035	-0,024
-482,635	-69,926	-0,176	0,048
-481,620	-200,000	0,066	0,211
-480,605	422,950	0,024	0,037
-479,591	24,348	-0,053	0,032
-478,576	96,297	-0,061	-0,050
-477,562	-23,800	-0,057	-0,024
-476,547	-32,530	-0,031	-0,012
-475,532	-49,024	0,018	0,006
-474,518	-31,159	-0,085	-0,034
-473,503	-105,552	-0,066	0,011
-472,489	89,280	0,042	0,034
-471,474	82,398	-0,086	0,067
-470,459	800,000	0,041	-0,087
-469,445	157,086	-0,127	-0,127
-468,430	-112,821	-0,072	0,010
-467,416	-200,000	0,026	0,192
-466,401	-158,867	0,101	0,004
-465,386	44,620	-0,057	0,038
-464,372	-38,165	0,046	0,017
-463,357	14,718	-0,077	-0,043
-462,343	-200,000	0,014	-0,085
-461,328	800,000	-0,007	0,022
-460,313	-200,000	0,002	0,129
-459,299	458,185	0,078	0,125
-458,284	-200,000	0,024	0,131
-457,270	-200,000	-0,020	0,089
-456,255	800,000	0,024	0,075
-455,241	26,649	-0,046	0,028
-454,226	800,000	0,058	-0,155
-453,211	800,000	-0,020	-0,047
-452,197	800,000	0,015	-0,031
-451,182	800,000	-0,012	0,037
-450,168	519,471	0,058	0,099
-449,153	295,703	-0,064	0,085
-448,138	572,312	-0,009	-0,015
-447,124	173,803	-0,071	-0,074
-446,109	-200,000	0,019	-0,064
-445,095	-83,797	0,229	0,052
-444,080	796,228	0,024	-0,048
-443,065	-200,000	-0,020	-0,083
-442,051	-1,728	0,098	-0,049
-441,036	-200,000	0,005	-0,090
-440,022	-147,090	-0,152	-0,009
-439,007	144,364	0,021	-0,021
-437,992	800,000	0,051	0,118
-436,978	131,717	0,139	0,129
-435,963	-131,805	-0,093	0,009
-434,949	800,000	-0,008	-0,017
-433,934	128,599	-0,081	0,075
-432,919	677,397	0,066	-0,124
-431,905	-170,316	-0,147	0,004
-430,890	-130,167	-0,041	0,004
-429,876	290,996	0,024	-0,032
-428,861	-81,764	0,113	-0,026
-427,846	197,798	0,080	-0,088
-426,832	-200,000	0,006	-0,109
-425,817	-200,000	-0,003	0,032
-424,803	-7,299	0,038	-0,019
-423,788	86,388	0,093	0,074
-422,773	123,808	-0,053	0,048
-421,759	7,036	0,094	0,050
-420,744	800,000	-0,025	0,062
-419,730	-200,000	0,027	-0,128
-418,715	-85,265	-0,156	-0,035
-417,701	-101,366	-0,113	-0,020
-416,686	32,833	-0,088	0,054
-415,671	-89,115	0,173	0,036
-414,657	-44,428	-0,076	-0,027
-413,642	69,767	-0,053	0,039
-412,628	800,000	-0,046	-0,094
-411,613	-14,018	0,064	-0,030
-410,598	800,000	-0,059	-0,174
-409,584	35,015	-0,064	-0,040
-408,569	-42,991	-0,054	-0,020
-407,555	12,334	0,028	-0,016
-406,540	432,857	-0,105	0,165
-405,525	190,213	0,013	0,014
-404,511	-52,124	-0,081	0,027
-403,496	-200,000	-0,009	-0,039
-402,482	-105,117	-0,071	0,011
-401,467	-200,000	0,013	0,073
-400,452	-200,000	0,039	0,130
-399,438	-104,759	-0,079	-0,013
-398,423	800,000	0,048	-0,105
-397,409	-30,308	0,067	-0,027
-396,394	-98,020	-0,091	-0,017
-395,379	207,892	0,106	-0,119
-394,365	107,944	-0,135	0,115
-393,350	-200,000	-0,001	0,044
-392,336	-200,000	0,003	0,180
-391,321	-200,000	-0,016	0,052
-390,306	157,261	-0,090	0,089
-389,292	800,000	-0,022	-0,051
-388,277	-14,169	-0,103	-0,048
-387,263	-200,000	0,000	0,105
-386,248	-83,790	0,007	0,002
-385,233	800,000	-0,022	-0,057
-384,219	43,715	-0,020	-0,013
-383,204	800,000	0,015	0,033
-382,190	268,316	-0,037	0,047
-381,175	131,161	-0,137	-0,126
-380,160	800,000	0,044	0,105
-379,146	735,026	0,059	0,115
-378,131	3,205	0,087	0,045
-377,117	239,372	-0,086	0,103
-376,102	12,107	-0,017	0,009
-375,088	75,060	-0,042	-0,032
-374,073	-200,000	0,010	-0,122
-373,058	132,065	-0,029	0,027
-372,044	-200,000	-0,002	0,046
-371,029	800,000	0,044	0,100
-370,015	398,938	-0,062	0,093
-369,000	-68,977	0,030	-0,008
-367,985	263,703	-0,057	0,071
-366,971	-90,827	0,031	-0,006
-365,956	113,555	0,056	0,049
-364,942	-51,048	-0,029	0,010
-363,927	412,450	0,060	-0,092
-362,912	7,417	0,048	0,025
-361,898	173,338	0,042	0,044
-360,883	-40,911	-0,102	-0,037
-359,869	-164,978	-0,104	0,003
-358,854	186,319	-0,034	-0,037
-357,839	-200,000	0,027	0,242
-356,825	-200,000	-0,000	0,071
-355,810	-154,664	-0,240	0,011
-354,796	120,963	0,032	0,029
-353,781	176,495	-0,071	-0,074
-352,766	411,897	0,043	-0,066
-351,752	5,683	-0,079	0,042
-350,737	-12,620	0,077	-0,036
-349,723	-66,819	0,067	0,019
-348,708	-200,000	0,006	0,104
-347,693	-7,263	0,106	0,052
-346,679	-200,000	0,033	-0,184
-345,664	800,000	0,017	-0,036
-344,650	-41,736	0,089	-0,033
-343,635	-200,000	-0,045	-0,152
-342,620	195,565	0,079	0,086
-341,606	-182,777	0,040	-0,000
-340,591	432,664	0,062	-0,097
-339,577	800,000	-0,033	0,074
-338,562	94,623	-0,066	-0,054
-337,548	166,086	0,068	0,069
-336,533	-20,199	0,084	0,037
-335,518	712,372	0,022	-0,042
-334,504	800,000	0,043	-0,088
-333,489	800,000	-0,053	-0,128
-332,475	-166,124	0,062	-0,002
-331,460	-200,000	0,013	-0,159
-330,445	800,000	0,063	-0,141
-329,431	281,708	0,095	-0,123
-328,416	-200,000	-0,000	-0,062
-327,402	-200,000	0,003	0,018
-326,387	800,000	0,004	0,008
-325,372	7,517	-0,017	0,009
-324,358	-200,000	0,017	-0,098
-323,343	380,614	-0,047	-0,069
-322,329	297,263	0,103	-0,136
-321,314	-200,000	-0,006	0,026
-320,299	-106,486	-0,037	0,006
-319,285	-77,976	-0,029	0,007
-318,270	144,388	-0,038	-0,036
-317,256	273,070	-0,108	-0,137
-316,241	212,830	-0,047	-0,054
-315,226	149,812	-0,004	-0,004
-314,212	313,614	0,057	0,077
-313,197	-28,336	-0,116	0,048
-312,183	55,975	0,027	0,019
-311,168	176,012	0,062	-0,064
-310,153	582,366	-0,043	0,076
-309,139	-52,926	-0,077	-0,025
-308,124	399,961	-0,018	0,027
-307,110	-132,962	0,094	0,008
-306,095	222,653	-0,047	-0,055
-305,080	-200,000	-0,019	-0,101
-304,066	-101,025	0,075	-0,013
-303,051	-131,791	-0,147	-0,014
-302,037	402,560	0,115	-0,173
-301,022	52,680	0,055	-0,038
-300,008	341,522	-0,038	0,053
-298,993	-109,962	0,163	0,024
-297,978	109,978	-0,090	0,077
-296,964	-200,000	-0,011	-0,061
-295,949	800,000	-0,061	-0,174
-294,935	76,621	0,072	-0,055
-293,920	-138,881	0,106	-0,008
-292,905	326,028	-0,060	0,082
-291,891	-200,000	-0,024	0,088
-290,876	212,081	0,079	-0,089
-289,862	314,691	0,047	-0,064
-288,847	48,809	0,084	0,056
-287,832	-51,661	-0,227	0,075
-286,818	-200,000	0,010	-0,047
-285,803	800,000	-0,022	-0,061
-284,789	157,652	0,125	-0,124
-283,774	-48,890	-0,081	-0,028
-282,759	314,311	-0,046	-0,062
-281,745	-200,000	0,001	-0,161
-280,730	197,313	-0,059	0,064
-279,716	800,000	0,099	0,199
-278,701	29,504	0,050	0,030
-277,686	-21,881	0,090	0,039
-276,672	-54,704	0,073	0,023
-275,657	800,000	0,020	-0,042
-274,643	11,628	0,153	-0,084
-273,628	-200,000	0,024	0,095
-272,613	62,761	-0,129	0,092
-271,599	108,970	-0,019	-0,016
-270,584	-101,723	0,253	-0,043
-269,570	129,412	-0,040	-0,037
-268,555	-82,904	0,109	-0,025
-267,540	-200,000	0,005	-0,120
-266,526	-200,000	-0,018	-0,060
-265,511	444,834	-0,045	0,070
-264,497	-3,930	-0,028	0,014
-263,482	800,000	-0,116	0,265
-262,467	21,125	0,028	-0,016
-261,453	800,000	0,002	0,005
-260,438	-87,960	-0,089	0,019
-259,424	800,000	-0,036	0,090
-258,409	98,806	0,100	0,083
-257,395	-200,000	0,017	0,072
-256,380	-23,063	0,046	-0,020
-255,365	-110,032	0,090	0,013
-254,351	93,399	-0,112	0,091
-253,336	-110,137	-0,059	-0,009
-252,322	-6,134	-0,070	-0,034
-251,307	166,691	-0,076	-0,077
-250,292	99,066	0,045	-0,038
-249,278	11,136	0,076	0,042
-248,263	391,896	0,043	-0,064
-247,249	-200,000	0,033	0,107
-246,234	-39,673	-0,105	-0,039
-245,219	0,267	-0,108	0,055
-244,205	259,610	0,045	-0,056
-243,190	329,852	-0,024	-0,033
-242,176	800,000	-0,024	-0,058
-241,161	-99,122	0,034	-0,006
-240,146	-43,467	-0,064	0,023
-239,132	42,128	0,139	-0,090
-238,117	800,000	0,022	-0,062
-237,103	-200,000	0,016	0,120
-236,088	800,000	-0,029	-0,085
-235,073	739,033	0,071	0,137
-234,059	657,641	0,032	0,059
-233,044	538,695	-0,050	0,085
-232,030	-200,000	-0,005	0,068
-231,015	-103,276	-0,084	-0,014
-230,000	800,000	-0,049	-0,129
-228,986	-44,649	0,087	0,031
-227,971	262,482	-0,038	0,048
-226,957	-93,925	0,090	-0,018
-225,942	-200,000	-0,000	0,031
-224,927	76,854	0,040	0,030
-223,913	84,610	-0,066	0,051
-222,898	-200,000	-0,012	0,067
-221,884	-170,062	-0,168	-0,004
-220,869	800,000	0,046	-0,100
-219,855	-18,314	-0,104	-0,046
-218,840	44,227	0,034	-0,022
-217,825	-157,129	-0,126	-0,005
-216,811	-45,735	0,024	0,008
-215,796	-200,000	-0,003	-0,073
-214,782	-119,756	-0,155	-0,019
-213,767	684,658	0,075	-0,141
-212,752	52,301	0,022	-0,015
-211,738	-200,000	-0,001	0,022
-210,723	645,974	-0,078	0,143
-209,709	800,000	0,020	-0,056
-208,694	255,609	0,050	-0,061
-207,679	-130,911	0,059	0,006
-206,665	4,042	-0,105	0,055
-205,650	178,663	0,015	0,016
-204,636	-200,000	0,053	0,182
-203,621	-200,000	0,011	0,053
-202,606	-159,185	-0,142	0,006
-201,592	-26,053	0,102	-0,043
-200,577	4,737	-0,049	-0,026
-199,563	140,119	-0,021	0,020
-198,548	800,000	0,051	-0,125
-197,533	749,831	0,010	0,019
-196,519	-28,329	-0,050	-0,021
-195,504	-200,000	0,004	-0,080
-194,490	310,309	-0,060	-0,080
-193,475	800,000	0,015	0,036
-192,460	-200,000	0,019	0,105
-191,446	76,780	0,117	0,089
-190,431	204,131	0,117	0,129
-189,417	800,000	0,048	0,117
-188,402	258,296	0,038	-0,046
-187,387	49,935	-0,096	-0,064
-186,373	421,918	-0,033	0,050
-185,358	-154,610	0,119	-0,006
-184,344	800,000	0,010	-0,025
-183,329	-200,000	-0,012	-0,053
-182,315	800,000	0,008	-0,022
-181,300	800,000	0,043	0,118
-180,285	-200,000	-0,010	-0,092
-179,271	25,030	0,110	-0,065
-178,256	352,777	-0,097	-0,137
-177,242	21,599	0,074	0,043
-176,227	-93,088	0,174	-0,034
-175,212	-70,209	0,032	0,009
-174,198	800,000	-0,023	-0,048
-173,183	237,605	-0,099	-0,117
-172,169	-41,017	0,208	0,076
-171,154	-200,000	-0,029	-0,110
-170,139	182,164	-0,114	0,120
-169,125	-65,733	0,154	0,044
-168,110	-200,000	-0,036	-0,152
-167,096	-57,145	-0,040	0,012
-166,081	22,834	0,090	0,052
-165,066	618,736	-0,033	0,059
-164,052	130,556	0,135	-0,123
-163,037	103,216	-0,041	-0,034
-162,023	-66,919	0,126	0,035
-161,008	800,000	-0,033	0,081
-159,993	-57,697	-0,136	0,042
-158,979	-200,000	-0,010	-0,087
-157,964	-200,000	-0,017	-0,122
-156,950	-88,552	-0,119	0,025
-155,935	-200,000	0,026	0,105
-154,920	-200,000	0,006	0,060
-153,906	177,370	-0,060	-0,062
-152,891	298,206	0,118	-0,155
-151,877	-59,935	0,083	0,025
-150,862	-200,000	-0,017	0,164
-149,847	800,000	0,020	-0,054
-148,833	-163,847	0,091	-0,003
-147,818	-62,192	-0,145	-0,043
-146,804	-200,000	-0,015	-0,099
-145,789	800,000	0,047	-0,143
-144,775	-79,931	-0,119	-0,028
-143,760	123,300	-0,022	-0,020
-142,745	483,668	0,069	-0,112
-141,731	421,889	0,023	-0,036
-140,716	-20,911	0,125	-0,054
-139,702	-90,879	0,134	-0,027
-138,687	-42,417	0,150	-0,054
-137,672	-49,297	0,063	-0,021
-136,658	-200,000	-0,002	-0,085
-135,643	679,840	-0,061	-0,114
-134,629	-200,000	0,023	0,098
-133,614	-45,794	0,037	0,013
-132,599	7,774	0,105	-0,056
-131,585	-64,216	-0,137	0,039
-130,570	352,950	0,024	-0,034
-129,556	-78,352	-0,035	-0,009
-128,541	-200,000	0,015	-0,171
-127,526	-200,000	-0,001	0,084
-126,512	-200,000	0,008	0,078
-125,497	-34,694	0,119	-0,046
-124,483	29,565	0,069	-0,042
-123,468	-200,000	0,007	-0,096
-122,453	-200,000	-0,028	-0,136
-121,439	-82,427	-0,081	-0,018
-120,424	800,000	0,028	0,057
-119,410	72,077	-0,009	-0,007
-118,395	-200,000	-0,000	0,025
