DTS Sentinel unit serial number:	SN410029Multiplexer serial number:	ORYXHardware model number:	OX2-SRSoftware version number:	ORYX F/W v4,00 Oryx Data Collector v3.7.2.0data status	okinstallation	BH3 CH2differential loss correction	single-endedforward channel	channel 2reverse channel	N/Adate	2023/12/05time	19:37:28forward acquisition time	300,00reverse acquisition time	0,00gamma	499,1914k internal	0,3194k external	0,3194temperature offset calibration	1,0000default loss term (dB/km)	0,3820temperature slope calibration	1,0000multiplexer offset coefficient	1,0000multiplexer slope coefficient	1,0000fibre end	0,00T internal ref (°C)	10,62T ext. ref 1 (°C)	-3,88T ext. ref 2 (°C)	-4,01length (m)	temperature (°C)	Stokes	anti-Stokes-744,400	800,000	-0,047	-0,103
-743,385	-165,243	-0,148	-0,005
-742,371	527,660	0,053	-0,091
-741,356	-38,290	-0,278	0,107
-740,342	166,734	-0,013	-0,014
-739,327	368,872	-0,124	0,183
-738,312	-200,000	-0,035	-0,147
-737,298	-54,055	-0,232	0,077
-736,283	222,154	-0,028	0,033
-735,269	544,052	-0,093	0,162
-734,254	-8,747	-0,074	-0,036
-733,239	-120,296	-0,417	0,051
-732,225	-11,899	0,093	0,044
-731,210	142,023	-0,048	-0,046
-730,196	29,083	-0,101	-0,063
-729,181	20,929	0,170	-0,100
-728,167	668,802	0,018	0,034
-727,152	-200,000	0,012	-0,046
-726,137	2,287	-0,076	-0,040
-725,123	-200,000	0,029	-0,165
-724,108	27,772	-0,136	-0,083
-723,094	-200,000	-0,057	-0,269
-722,079	-200,000	-0,001	-0,165
-721,064	-139,040	-0,025	-0,002
-720,050	-96,046	0,105	0,020
-719,035	-66,681	0,036	-0,010
-718,021	-200,000	0,013	0,106
-717,006	-200,000	-0,021	-0,076
-715,991	-24,771	-0,158	-0,068
-714,977	20,292	-0,180	-0,106
-713,962	-81,292	-0,060	-0,014
-712,948	-200,000	0,043	-0,177
-711,933	-94,276	-0,124	0,025
-710,918	342,366	-0,071	-0,102
-709,904	545,918	-0,052	0,091
-708,889	-137,757	0,025	-0,002
-707,875	-60,188	-0,059	-0,018
-706,860	246,725	-0,035	0,043
-705,845	800,000	0,099	-0,216
-704,831	-200,000	0,001	0,060
-703,816	800,000	-0,046	0,110
-702,802	-200,000	-0,007	-0,038
-701,787	-40,640	-0,049	-0,018
-700,772	-49,554	-0,128	0,044
-699,758	189,080	0,091	-0,099
-698,743	332,335	0,082	-0,116
-697,729	-187,053	0,066	-0,001
-696,714	47,643	-0,012	-0,008
-695,699	295,281	0,041	-0,055
-694,685	581,541	-0,044	0,078
-693,670	140,004	-0,042	-0,040
-692,656	139,123	0,077	-0,074
-691,641	1,809	0,075	0,039
-690,627	100,459	0,067	-0,057
-689,612	12,864	-0,084	-0,047
-688,597	-129,226	-0,146	0,015
-687,583	-75,069	-0,121	0,031
-686,568	72,548	-0,020	0,015
-685,554	-143,105	-0,137	-0,009
-684,539	40,506	-0,048	-0,032
-683,524	-76,125	0,092	-0,024
-682,510	156,078	0,084	0,084
-681,495	-116,194	0,054	0,007
-680,481	-48,637	0,066	-0,023
-679,466	84,613	-0,151	-0,120
-678,451	-200,000	0,003	0,144
-677,437	88,390	-0,115	0,092
-676,422	-200,000	-0,008	-0,048
-675,408	800,000	0,022	0,063
-674,393	-3,563	-0,020	0,010
-673,378	-200,000	0,011	0,091
-672,364	213,461	-0,081	-0,093
-671,349	-200,000	0,020	-0,075
-670,335	15,709	-0,013	-0,007
-669,320	-200,000	-0,003	0,098
-668,305	-129,298	-0,087	-0,009
-667,291	-200,000	0,006	-0,038
-666,276	168,936	-0,041	-0,043
-665,262	-75,480	-0,040	-0,010
-664,247	-21,225	0,093	0,041
-663,232	131,099	-0,145	0,135
-662,218	134,675	-0,041	0,038
-661,203	-48,496	-0,025	-0,009
-660,189	687,823	0,007	-0,013
-659,174	785,003	-0,039	-0,078
-658,159	-95,726	0,102	-0,020
-657,145	-200,000	-0,010	0,090
-656,130	183,167	0,097	0,104
-655,116	-200,000	-0,001	0,009
-654,101	-200,000	-0,015	-0,081
-653,086	35,981	0,093	0,060
-652,072	57,024	-0,088	0,062
-651,057	432,464	-0,075	-0,118
-650,043	156,536	-0,039	-0,039
-649,028	416,283	0,064	0,099
-648,014	-27,428	0,076	-0,032
-646,999	-65,648	0,058	-0,017
-645,984	-96,959	0,109	0,020
-644,970	21,120	-0,107	0,063
-643,955	50,656	-0,040	-0,028
-642,941	-89,258	-0,078	0,017
-641,926	27,075	-0,084	0,051
-640,911	-28,446	0,013	-0,006
-639,897	800,000	-0,013	-0,036
-638,882	800,000	-0,030	0,065
-637,868	-40,047	-0,027	-0,010
-636,853	-179,477	-0,194	-0,003
-635,838	-127,713	0,069	-0,007
-634,824	-40,474	-0,048	0,018
-633,809	16,600	0,118	0,068
-632,795	424,699	-0,111	0,174
-631,780	-200,000	-0,023	0,119
-630,765	-200,000	0,010	-0,065
-629,751	-129,365	-0,098	-0,010
-628,736	58,579	-0,121	-0,086
-627,722	-200,000	-0,025	-0,181
-626,707	147,640	0,071	0,069
-625,692	180,876	0,051	0,055
-624,678	-143,066	-0,091	-0,006
-623,663	289,314	0,076	0,100
-622,649	-200,000	0,037	0,123
-621,634	11,355	-0,053	0,030
-620,619	-90,865	-0,170	-0,035
-619,605	12,373	0,071	-0,040
-618,590	268,295	0,098	0,125
-617,576	-66,708	0,036	0,010
-616,561	236,719	0,046	0,055
-615,546	800,000	-0,011	-0,024
-614,532	-200,000	0,006	-0,085
-613,517	-10,224	0,007	0,003
-612,503	273,643	0,043	-0,056
-611,488	-200,000	-0,007	-0,044
-610,474	-67,366	0,031	0,009
-609,459	9,410	-0,062	0,034
-608,444	91,394	-0,173	-0,141
-607,430	-35,261	0,116	-0,046
-606,415	-152,147	-0,046	-0,002
-605,401	699,584	0,023	-0,044
-604,386	108,355	0,066	0,057
-603,371	-30,768	0,126	0,051
-602,357	8,804	0,096	-0,052
-601,342	-182,260	0,014	0,000
-600,328	441,250	-0,035	-0,055
-599,313	800,000	-0,075	0,155
-598,298	-200,000	0,014	-0,060
-597,284	177,036	0,030	0,032
-596,269	342,526	-0,100	0,143
-595,255	-32,799	-0,013	0,005
-594,240	-200,000	-0,009	-0,031
-593,225	84,521	-0,087	0,069
-592,211	-96,526	-0,024	-0,005
-591,196	-53,741	-0,079	0,026
-590,182	-156,949	0,064	0,003
-589,167	72,724	0,123	0,093
-588,152	800,000	0,048	0,138
-587,138	-200,000	0,002	0,022
-586,123	-91,867	-0,226	-0,046
-585,109	146,950	0,123	-0,120
-584,094	62,206	-0,054	0,039
-583,079	-61,474	-0,027	0,008
-582,065	-200,000	0,030	0,155
-581,050	-200,000	0,009	0,143
-580,036	-200,000	0,008	0,042
-579,021	800,000	-0,003	-0,008
-578,006	-200,000	0,016	-0,127
-576,992	656,759	-0,012	-0,023
-575,977	103,083	0,096	-0,082
-574,963	-1,297	0,114	-0,058
-573,948	-125,956	-0,176	-0,019
-572,934	-124,771	0,099	0,011
-571,919	-104,287	0,119	-0,020
-570,904	-189,599	-0,123	-0,001
-569,890	526,702	-0,082	-0,141
-568,875	171,578	-0,108	-0,112
-567,861	218,110	0,060	-0,070
-566,846	380,457	0,143	0,213
-565,831	-83,759	-0,124	0,029
-564,817	800,000	0,040	-0,112
-563,802	209,941	0,140	-0,159
-562,788	800,000	0,059	-0,133
-561,773	60,132	-0,006	-0,005
-560,758	-200,000	0,032	0,155
-559,744	56,395	-0,054	-0,038
-558,729	-101,159	-0,069	0,012
-557,715	800,000	0,010	-0,028
-556,700	800,000	0,059	-0,152
-555,685	-27,415	-0,127	-0,053
-554,671	57,218	-0,065	-0,046
-553,656	261,422	-0,030	-0,037
-552,642	-99,733	-0,101	-0,018
-551,627	-54,193	0,244	-0,080
-550,612	-200,000	0,015	0,077
-549,598	-113,765	-0,026	-0,004
-548,583	800,000	0,060	-0,127
-547,569	-200,000	0,001	0,066
-546,554	-200,000	-0,042	0,141
-545,539	178,152	0,024	-0,026
-544,525	205,974	0,025	0,028
-543,510	-155,595	-0,076	0,003
-542,496	800,000	0,046	-0,114
-541,481	800,000	0,019	-0,041
-540,466	83,782	0,099	-0,078
-539,452	216,078	0,047	-0,054
-538,437	800,000	0,047	0,113
-537,423	-16,194	0,111	0,051
-536,408	45,243	-0,099	0,066
-535,393	-135,171	0,066	0,006
-534,379	-200,000	-0,027	-0,124
-533,364	800,000	0,029	-0,082
-532,350	-200,000	-0,005	-0,031
-531,335	54,492	0,212	-0,147
-530,321	-200,000	-0,004	-0,102
-529,306	-200,000	-0,010	-0,035
-528,291	-200,000	-0,016	-0,062
-527,277	-156,097	0,058	-0,003
-526,262	800,000	-0,034	0,096
-525,248	55,452	0,027	0,019
-524,233	93,569	0,043	-0,035
-523,218	-200,000	-0,001	0,148
-522,204	800,000	0,068	0,167
-521,189	234,893	-0,087	-0,104
-520,175	800,000	-0,032	-0,069
-519,160	-155,371	-0,122	-0,006
-518,145	-47,001	-0,086	0,030
-517,131	129,712	-0,081	-0,074
-516,116	-23,017	0,090	0,039
-515,102	306,345	-0,070	0,094
-514,087	265,910	-0,122	-0,154
-513,072	19,085	0,066	-0,038
-512,058	-44,413	-0,060	-0,022
-511,043	-116,769	-0,012	0,002
-510,029	-200,000	0,006	-0,044
-509,014	-85,084	0,180	0,040
-507,999	248,842	-0,095	0,117
-506,985	800,000	-0,017	-0,041
-505,970	663,470	-0,089	-0,166
-504,956	-200,000	-0,024	0,086
-503,941	-191,729	-0,027	0,000
-502,926	-200,000	-0,003	-0,012
-501,912	-33,239	-0,135	0,054
-500,897	-200,000	0,025	0,082
-499,883	-139,752	0,077	0,006
-498,868	113,165	-0,116	0,102
-497,853	244,800	0,043	-0,052
-496,839	-45,621	-0,163	0,058
-495,824	106,140	-0,151	0,129
-494,810	193,725	0,022	0,024
-493,795	27,472	0,085	-0,052
-492,781	-66,523	-0,049	-0,014
-491,766	123,732	-0,051	-0,047
-490,751	-50,637	0,042	-0,014
-489,737	800,000	-0,063	-0,138
-488,722	-4,160	0,006	0,003
-487,708	50,027	-0,017	0,011
-486,693	183,757	-0,071	0,076
-485,678	-200,000	0,012	-0,058
-484,664	411,782	0,052	-0,081
-483,649	103,477	-0,058	0,049
-482,635	171,056	-0,022	-0,023
-481,620	800,000	-0,026	-0,058
-480,605	-200,000	-0,001	-0,096
-479,591	800,000	0,067	0,142
-478,576	473,128	-0,004	0,006
-477,562	24,507	-0,092	-0,055
-476,547	411,387	-0,073	-0,112
-475,532	800,000	-0,013	-0,038
-474,518	-81,197	0,076	-0,018
-473,503	-200,000	0,016	-0,070
-472,489	-5,066	0,053	0,026
-471,474	-31,747	0,044	-0,018
-470,459	-200,000	0,018	0,076
-469,445	-129,363	-0,117	0,012
-468,430	106,749	-0,086	0,073
-467,416	759,310	0,059	0,117
-466,401	800,000	-0,052	0,123
-465,386	800,000	-0,038	0,080
-464,372	501,127	0,077	0,128
-463,357	502,374	-0,051	0,085
-462,343	65,433	-0,052	-0,038
-461,328	172,754	0,106	-0,110
-460,313	-53,072	-0,118	-0,039
-459,299	597,592	0,064	-0,114
-458,284	-200,000	0,012	-0,042
-457,270	-200,000	0,010	-0,138
-456,255	161,047	-0,017	-0,017
-455,241	800,000	0,049	-0,131
-454,226	800,000	-0,040	-0,094
-453,211	-200,000	-0,046	-0,166
-452,197	-200,000	-0,017	-0,076
-451,182	29,524	-0,055	0,034
-450,168	-200,000	-0,017	0,065
-449,153	73,785	-0,121	-0,092
-448,138	141,050	0,033	-0,032
-447,124	-200,000	-0,010	-0,064
-446,109	-17,548	0,047	-0,021
-445,095	800,000	-0,047	0,140
-444,080	800,000	0,044	0,116
-443,065	-200,000	0,005	0,066
-442,051	357,258	-0,019	-0,028
-441,036	99,853	0,054	-0,045
-440,022	-1,468	0,048	-0,024
-439,007	296,891	-0,052	-0,069
-437,992	-200,000	0,033	0,199
-436,978	-87,958	0,096	-0,021
-435,963	214,061	-0,083	0,094
-434,949	-47,169	0,109	-0,038
-433,934	800,000	0,029	-0,087
-432,919	608,597	0,019	-0,035
-431,905	57,899	-0,142	-0,100
-430,890	-134,654	0,184	0,016
-429,876	311,008	0,069	0,093
-428,861	206,218	-0,101	0,114
-427,846	-31,842	-0,044	-0,018
-426,832	122,274	0,057	0,051
-425,817	-25,387	-0,046	0,019
-424,803	36,520	-0,078	0,050
-423,788	268,874	0,022	-0,028
-422,773	-200,000	0,006	0,059
-421,759	-25,175	0,014	0,006
-420,744	-200,000	-0,027	-0,134
-419,730	182,993	0,091	-0,097
-418,715	526,427	-0,085	0,145
-417,701	-111,472	0,092	-0,013
-416,686	36,005	-0,033	0,021
-415,671	72,128	0,085	0,063
-414,657	412,211	-0,028	0,043
-413,642	752,460	-0,040	-0,078
-412,628	-97,647	0,049	-0,009
-411,613	-200,000	-0,002	-0,014
-410,598	-97,648	0,076	0,014
-409,584	367,419	0,052	-0,075
-408,569	86,881	0,066	-0,053
-407,555	-84,049	0,050	0,011
-406,540	543,555	0,018	0,032
-405,525	-21,294	-0,117	-0,051
-404,511	116,844	0,017	-0,015
-403,496	386,551	-0,018	-0,027
-402,482	-4,210	-0,109	-0,054
-401,467	750,086	0,018	0,036
-400,452	-200,000	-0,001	0,043
-399,438	25,446	0,096	0,057
-398,423	42,586	-0,028	-0,018
-397,409	-200,000	-0,001	-0,107
-396,394	-55,462	0,267	-0,086
-395,379	-200,000	0,015	0,143
-394,365	-178,501	0,208	-0,003
-393,350	222,062	-0,072	-0,083
-392,336	-31,606	0,142	0,057
-391,321	258,718	-0,041	0,051
-390,306	-200,000	0,015	0,117
-389,292	800,000	-0,014	0,032
-388,277	58,641	-0,088	0,062
-387,263	21,862	0,037	0,022
-386,248	18,472	-0,057	-0,032
-385,233	-200,000	-0,024	0,105
-384,219	-200,000	-0,005	0,136
-383,204	-122,225	-0,163	0,019
-382,190	256,065	0,028	-0,034
-381,175	94,514	-0,030	-0,025
-380,160	72,476	0,016	-0,012
-379,146	291,236	0,056	-0,074
-378,131	52,345	0,178	0,122
-377,117	70,771	0,067	-0,049
-376,102	578,259	-0,075	-0,132
-375,088	800,000	0,014	-0,037
-374,073	101,762	-0,124	-0,104
-373,058	-200,000	0,005	0,115
-372,044	-134,318	-0,112	-0,010
-371,029	105,374	0,047	-0,040
-370,015	-200,000	0,014	0,057
-369,000	200,352	-0,042	0,047
-367,985	611,804	-0,042	-0,075
-366,971	6,324	0,102	0,054
-365,956	87,194	-0,140	0,111
-364,942	-200,000	0,031	0,108
-363,927	-200,000	0,015	-0,060
-362,912	-30,867	0,176	0,071
-361,898	284,278	-0,062	0,080
-360,883	755,938	0,013	-0,025
-359,869	-200,000	-0,006	0,051
-358,854	764,762	0,012	-0,024
-357,839	-127,045	0,081	0,008
-356,825	97,468	0,027	-0,022
-355,810	425,330	0,009	-0,014
-354,796	-60,791	0,013	0,004
-353,781	89,826	-0,080	0,064
-352,766	-36,542	-0,141	0,054
-351,752	-65,704	0,110	-0,031
-350,737	316,097	0,019	0,025
-349,723	228,330	-0,022	-0,025
-348,708	800,000	0,013	-0,027
-347,693	119,385	0,008	0,007
-346,679	568,422	0,075	-0,132
-345,664	302,016	0,025	-0,034
-344,650	364,087	-0,074	0,108
-343,635	-75,866	0,013	-0,003
-342,620	256,595	-0,047	0,058
-341,606	-112,566	-0,081	-0,011
-340,591	129,649	0,064	-0,059
-339,577	-200,000	0,017	0,117
-338,562	112,187	-0,024	0,021
-337,548	-88,930	0,055	0,012
-336,533	-200,000	0,012	-0,094
-335,518	537,342	0,090	0,155
-334,504	220,073	-0,027	0,031
-333,489	70,797	-0,077	-0,057
-332,475	-200,000	-0,029	-0,123
-331,460	693,669	-0,081	-0,153
-330,445	633,747	-0,070	-0,128
-329,431	-45,748	0,039	-0,014
-328,416	217,038	0,097	-0,111
-327,402	609,822	0,034	-0,062
-326,387	468,713	0,033	-0,053
-325,372	-28,206	-0,051	0,021
-324,358	-106,040	0,101	-0,016
-323,343	-200,000	-0,002	-0,010
-322,329	-200,000	-0,023	-0,139
-321,314	-200,000	0,007	0,024
-320,299	-200,000	0,005	-0,043
-319,285	-200,000	-0,014	0,064
-318,270	65,919	-0,120	0,087
-317,256	-111,077	-0,113	0,016
-316,241	22,028	-0,128	0,075
-315,226	-200,000	-0,011	-0,079
-314,212	-173,598	0,087	0,002
-313,197	-83,179	-0,014	0,003
-312,183	-91,856	0,075	-0,015
-311,168	96,020	-0,047	-0,038
-310,153	76,373	0,088	-0,067
-309,139	156,053	-0,134	-0,132
-308,124	383,732	-0,019	-0,029
-307,110	5,749	0,131	-0,069
-306,095	-200,000	0,025	-0,117
-305,080	350,498	-0,039	0,055
-304,066	646,867	-0,047	0,086
-303,051	-136,390	0,147	0,012
-302,037	706,502	-0,047	-0,090
-301,022	-200,000	0,005	-0,139
-300,008	646,390	0,074	0,135
-298,993	-200,000	0,008	0,045
-297,978	-200,000	0,050	0,176
-296,964	73,970	-0,030	0,022
-295,949	-200,000	0,000	0,026
-294,935	800,000	0,004	-0,010
-293,920	451,185	-0,051	0,081
-292,905	-91,662	0,067	-0,014
-291,891	360,341	0,017	0,025
-290,876	-200,000	0,008	0,113
-289,862	88,872	-0,134	0,107
-288,847	-200,000	0,006	0,077
-287,832	153,589	-0,074	-0,073
-286,818	-200,000	-0,012	0,088
-285,803	-200,000	0,009	0,147
-284,789	-37,226	-0,054	-0,021
-283,774	71,520	0,088	0,066
-282,759	113,165	-0,044	0,039
-281,745	-94,597	-0,130	-0,025
-280,730	-31,307	0,048	0,019
-279,716	255,773	0,081	0,100
-278,701	800,000	0,039	0,102
-277,686	-200,000	-0,005	0,052
-276,672	-129,727	-0,101	-0,010
-275,657	438,347	0,006	0,009
-274,643	-41,133	-0,025	-0,009
-273,628	21,063	-0,064	-0,037
-272,613	217,429	0,088	-0,101
-271,599	-39,350	0,076	-0,028
-270,584	7,926	-0,053	-0,029
-269,570	-200,000	-0,012	0,090
-268,555	-200,000	-0,010	-0,153
-267,540	800,000	-0,007	0,015
-266,526	32,703	0,036	-0,022
-265,511	21,079	0,041	0,024
-264,497	-137,546	0,048	0,004
-263,482	151,963	0,056	-0,054
-262,467	109,195	0,103	0,088
-261,453	-66,985	0,072	0,020
-260,438	467,686	-0,044	-0,071
-259,424	-200,000	0,005	-0,039
-258,409	110,157	0,064	0,055
-257,395	-45,232	-0,067	0,024
-256,380	229,313	-0,057	0,067
-255,365	44,271	-0,039	0,025
-254,351	507,443	0,106	0,176
-253,336	-200,000	-0,059	0,220
-252,322	-200,000	0,025	-0,104
-251,307	800,000	0,050	-0,123
-250,292	58,456	0,091	0,064
-249,278	481,264	0,057	-0,092
-248,263	-200,000	0,002	0,040
-247,249	61,263	0,050	-0,035
-246,234	185,995	-0,083	-0,088
-245,219	184,135	0,016	0,017
-244,205	-28,203	-0,054	-0,022
-243,190	-200,000	-0,004	-0,097
-242,176	55,301	0,133	-0,092
-241,161	-19,317	0,121	0,054
-240,146	-116,987	0,145	0,019
-239,132	800,000	-0,051	0,113
-238,117	-4,500	-0,065	-0,032
-237,103	-200,000	-0,017	-0,058
-236,088	-94,091	0,155	-0,030
-235,073	800,000	0,066	0,131
-234,059	800,000	0,062	0,154
-233,044	-63,841	0,104	0,030
-232,030	-84,341	0,057	0,013
-231,015	172,817	-0,073	-0,075
-230,000	-200,000	0,013	-0,043
-228,986	-49,462	0,140	-0,048
-227,971	-11,748	0,128	0,060
-226,957	800,000	0,045	0,092
-225,942	-200,000	0,013	0,119
-224,927	-147,079	-0,032	-0,002
-223,913	800,000	0,046	0,102
-222,898	-73,224	0,019	0,005
-221,884	-200,000	-0,017	-0,115
-220,869	-189,505	0,107	0,001
-219,855	-200,000	0,020	-0,115
-218,840	-117,039	-0,152	-0,020
-217,825	259,851	-0,065	0,081
-216,811	-126,148	0,111	-0,012
-215,796	379,331	0,056	0,083
-214,782	-56,401	-0,083	-0,026
-213,767	88,575	-0,055	-0,044
-212,752	-75,363	0,077	-0,020
-211,738	-25,201	-0,071	-0,030
-210,723	208,583	-0,044	-0,049
-209,709	-154,004	-0,105	-0,005
-208,694	31,516	-0,047	-0,029
-207,679	-93,809	-0,087	-0,017
-206,665	-200,000	-0,034	-0,119
-205,650	-45,282	0,059	0,021
-204,636	-200,000	0,000	0,040
-203,621	161,239	-0,058	-0,058
-202,606	800,000	0,035	-0,079
-201,592	-105,743	-0,071	-0,011
-200,577	297,019	0,041	-0,053
-199,563	-20,601	0,130	-0,057
-198,548	-17,019	-0,142	0,064
-197,533	-36,825	0,060	0,023
-196,519	624,165	0,048	0,087
-195,504	-66,659	-0,063	0,018
-194,490	230,945	-0,034	-0,040
-193,475	380,720	-0,038	0,056
-192,460	-200,000	0,014	-0,163
-191,446	-18,525	-0,091	-0,040
-190,431	15,975	0,107	-0,060
-189,417	-84,584	-0,113	-0,025
-188,402	-200,000	0,009	-0,096
-187,387	-200,000	-0,120	0,000
-186,373	39,366	-0,046	0,029
-185,358	80,235	-0,047	-0,036
-184,344	-6,935	-0,046	0,022
-183,329	40,248	0,048	-0,031
-182,315	-200,000	-0,009	0,081
-181,300	800,000	-0,034	0,106
-180,285	800,000	0,040	-0,101
-179,271	151,493	-0,106	-0,103
-178,256	-11,016	-0,108	0,051
-177,242	17,208	-0,089	0,050
-176,227	48,527	0,057	-0,038
-175,212	15,254	-0,050	-0,028
-174,198	-56,926	0,158	0,050
-173,183	-200,000	0,006	-0,033
-172,169	56,073	0,078	-0,054
-171,154	114,848	0,033	0,029
-170,139	-126,048	-0,062	-0,007
-169,125	-75,959	0,170	0,043
-168,110	196,714	0,086	0,094
-167,096	800,000	-0,063	0,124
-166,081	-200,000	0,007	-0,057
-165,066	21,445	-0,117	-0,068
-164,052	-200,000	-0,008	-0,044
-163,037	72,133	-0,031	0,023
-162,023	34,553	0,071	0,044
-161,008	-99,645	0,044	0,008
-159,993	510,464	-0,043	0,071
-158,979	-12,448	-0,103	-0,048
-157,964	633,180	-0,076	-0,138
-156,950	-70,229	-0,125	0,034
-155,935	-200,000	-0,011	0,059
-154,920	800,000	-0,045	-0,109
-153,906	800,000	-0,035	0,082
-152,891	800,000	0,061	0,161
-151,877	-69,265	-0,167	-0,045
-150,862	-140,665	-0,024	-0,002
-149,847	742,968	-0,031	-0,059
-148,833	-200,000	0,036	-0,151
-147,818	-144,060	-0,026	-0,002
-146,804	105,954	0,074	0,063
-145,789	155,427	-0,044	0,043
-144,775	-120,902	0,125	-0,015
-143,760	47,857	-0,018	0,012
-142,745	-70,900	-0,031	0,008
-141,731	800,000	-0,049	0,113
-140,716	-51,943	-0,044	-0,015
-139,702	800,000	0,041	0,114
-138,687	478,106	0,060	0,096
-137,672	-61,430	0,017	-0,005
-136,658	-200,000	0,000	-0,166
-135,643	800,000	-0,073	-0,161
-134,629	800,000	0,013	-0,037
-133,614	11,639	0,144	0,078
-132,599	-43,637	0,099	0,035
-131,585	800,000	0,103	0,248
-130,570	-200,000	-0,041	-0,000
-129,556	-200,000	0,013	-0,184
-128,541	-156,891	-0,067	0,003
-127,526	-90,512	-0,041	-0,008
-126,512	-200,000	-0,000	-0,236
-125,497	33,760	0,095	-0,059
-124,483	-22,601	0,077	0,033
-123,468	-200,000	0,003	-0,130
-122,453	212,286	-0,127	-0,143
-121,439	-200,000	0,009	0,090
-120,424	647,925	-0,052	0,095
-119,410	164,200	0,096	0,097
