DTS Sentinel unit serial number:	SN410029Multiplexer serial number:	ORYXHardware model number:	OX2-SRSoftware version number:	ORYX F/W v4,00 Oryx Data Collector v3.7.2.0data status	okinstallation	BH3 CH2differential loss correction	single-endedforward channel	channel 2reverse channel	N/Adate	2023/12/05time	14:02:28forward acquisition time	300,00reverse acquisition time	0,00gamma	499,1914k internal	0,3194k external	0,3194temperature offset calibration	1,0000default loss term (dB/km)	0,3820temperature slope calibration	1,0000multiplexer offset coefficient	1,0000multiplexer slope coefficient	1,0000fibre end	0,00T internal ref (°C)	10,74T ext. ref 1 (°C)	-3,11T ext. ref 2 (°C)	-3,27length (m)	temperature (°C)	Stokes	anti-Stokes-744,400	-200,000	-0,029	-0,269
-743,385	-85,719	-0,142	0,032
-742,371	800,000	0,054	0,117
-741,356	67,040	-0,145	0,108
-740,342	-115,640	0,068	0,009
-739,327	19,366	-0,171	0,100
-738,312	-200,000	-0,006	-0,113
-737,298	-131,143	-0,180	0,017
-736,283	-0,983	-0,079	-0,041
-735,269	511,293	-0,178	0,304
-734,254	105,736	-0,187	-0,161
-733,239	-77,479	-0,293	-0,073
-732,225	348,843	0,034	-0,049
-731,210	191,664	0,053	0,059
-730,196	-200,000	0,001	0,083
-729,181	-200,000	0,000	0,062
-728,167	-200,000	0,011	0,072
-727,152	12,320	-0,056	-0,031
-726,137	800,000	-0,020	-0,057
-725,123	165,481	-0,110	-0,113
-724,108	55,582	-0,066	-0,047
-723,094	407,533	-0,096	-0,149
-722,079	800,000	-0,038	-0,117
-721,064	-84,302	0,117	-0,027
-720,050	800,000	0,032	-0,075
-719,035	64,758	0,061	0,045
-718,021	-163,211	0,031	-0,001
-717,006	800,000	-0,083	-0,173
-715,991	800,000	-0,045	-0,124
-714,977	152,939	-0,047	0,046
-713,962	-200,000	-0,055	-0,184
-712,948	-46,369	-0,062	0,022
-711,933	60,798	0,079	-0,057
-710,918	108,489	-0,039	-0,034
-709,904	800,000	-0,029	-0,090
-708,889	435,607	-0,093	-0,148
-707,875	-183,771	-0,123	-0,001
-706,860	800,000	0,066	-0,141
-705,845	800,000	-0,017	0,045
-704,831	15,503	0,048	0,027
-703,816	625,402	0,061	-0,112
-702,802	-105,552	-0,210	-0,034
-701,787	-200,000	-0,028	-0,109
-700,772	130,286	0,009	-0,008
-699,758	305,874	-0,025	-0,034
-698,743	800,000	0,038	0,107
-697,729	339,577	0,043	-0,061
-696,714	56,667	-0,025	-0,018
-695,699	-16,784	-0,134	-0,061
-694,685	517,611	-0,051	-0,088
-693,670	381,634	-0,094	-0,141
-692,656	800,000	0,015	-0,037
-691,641	-95,396	-0,167	0,032
-690,627	-133,826	0,090	0,008
-689,612	136,143	-0,047	-0,044
-688,597	101,090	-0,090	0,076
-687,583	-123,761	-0,167	-0,019
-686,568	800,000	-0,101	-0,225
-685,554	643,389	-0,031	-0,057
-684,539	-200,000	0,006	0,085
-683,524	272,748	-0,104	0,134
-682,510	79,689	0,067	-0,052
-681,495	-200,000	0,022	0,079
-680,481	-9,737	-0,039	0,019
-679,466	328,398	-0,029	-0,040
-678,451	-86,922	-0,088	0,019
-677,437	-35,913	0,212	0,083
-676,422	438,617	0,058	-0,092
-675,408	800,000	-0,046	0,113
-674,393	290,419	-0,050	-0,066
-673,378	750,409	0,044	0,086
-672,364	239,419	-0,102	0,123
-671,349	-13,891	0,041	-0,019
-670,335	-68,721	-0,120	0,033
-669,320	800,000	-0,059	0,122
-668,305	-200,000	-0,011	0,052
-667,291	-9,555	0,021	-0,010
-666,276	145,638	-0,117	-0,114
-665,262	-200,000	0,021	-0,119
-664,247	175,424	-0,078	-0,082
-663,232	-44,483	-0,087	-0,032
-662,218	-100,988	-0,032	0,006
-661,203	-200,000	-0,011	0,036
-660,189	800,000	-0,074	-0,174
-659,174	-143,312	0,082	0,006
-658,159	-105,125	-0,139	-0,023
-657,145	-200,000	0,046	-0,149
-656,130	389,742	-0,051	0,078
-655,116	-200,000	-0,021	0,092
-654,101	772,986	-0,037	0,074
-653,086	260,872	-0,018	0,022
-652,072	39,598	-0,076	0,049
-651,057	522,712	0,008	0,014
-650,043	28,750	-0,037	-0,022
-649,028	-127,366	-0,058	-0,006
-648,014	81,715	0,131	0,103
-646,999	366,818	0,099	0,146
-645,984	-200,000	-0,149	-0,000
-644,970	800,000	0,036	-0,107
-643,955	-90,430	0,033	0,007
-642,941	-200,000	-0,001	-0,008
-641,926	800,000	-0,022	0,055
-640,911	358,564	0,026	0,037
-639,897	-112,781	0,024	0,003
-638,882	-200,000	-0,022	0,153
-637,868	303,315	-0,027	0,037
-636,853	-68,065	-0,084	-0,024
-635,838	-34,970	-0,121	-0,048
-634,824	-81,973	-0,063	0,015
-633,809	89,320	0,088	-0,071
-632,795	-48,749	-0,043	0,015
-631,780	181,095	-0,024	0,026
-630,765	702,066	0,045	-0,087
-629,751	800,000	-0,040	-0,107
-628,736	800,000	-0,022	-0,051
-627,722	-142,281	-0,070	0,005
-626,707	74,376	-0,092	-0,070
-625,692	-200,000	0,047	0,182
-624,678	40,110	-0,056	0,036
-623,663	-200,000	0,002	0,011
-622,649	39,963	-0,088	-0,057
-621,634	209,030	-0,089	-0,101
-620,619	617,264	0,091	-0,166
-619,605	200,533	-0,072	-0,081
-618,590	-200,000	0,003	-0,012
-617,576	4,992	-0,083	0,044
-616,561	-200,000	-0,018	0,068
-615,546	800,000	0,016	0,035
-614,532	735,083	-0,040	0,077
-613,517	7,073	0,072	-0,039
-612,503	658,500	0,015	-0,028
-611,488	-51,223	0,028	-0,009
-610,474	34,170	-0,031	-0,019
-609,459	-106,677	-0,144	-0,023
-608,444	-200,000	-0,010	-0,207
-607,430	-37,827	0,076	0,029
-606,415	-75,602	-0,093	0,024
-605,401	-200,000	0,001	-0,063
-604,386	91,757	0,065	0,053
-603,371	-110,032	0,083	0,012
-602,357	800,000	0,040	-0,081
-601,342	-200,000	-0,015	0,048
-600,328	-79,520	-0,099	-0,024
-599,313	332,903	-0,080	-0,113
-598,298	-133,266	0,095	0,009
-597,284	-200,000	0,013	0,098
-596,269	-200,000	0,025	-0,116
-595,255	-95,715	0,056	-0,011
-594,240	478,868	0,077	-0,126
-593,225	-1,011	0,095	-0,049
-592,211	-200,000	-0,003	-0,100
-591,196	-49,857	-0,028	-0,010
-590,182	277,617	0,042	0,054
-589,167	800,000	0,047	0,125
-588,152	221,965	-0,093	0,109
-587,138	-62,120	0,003	-0,001
-586,123	-200,000	0,006	-0,029
-585,109	-2,092	-0,083	-0,042
-584,094	39,704	0,031	0,020
-583,079	-200,000	0,008	0,037
-582,065	-200,000	-0,002	0,012
-581,050	-200,000	-0,009	0,030
-580,036	181,815	-0,108	0,115
-579,021	-200,000	0,002	0,015
-578,006	18,537	0,051	-0,030
-576,992	-176,529	-0,100	-0,002
-575,977	800,000	-0,031	-0,085
-574,963	-150,444	0,134	0,007
-573,948	752,725	0,031	0,060
-572,934	-200,000	0,016	0,087
-571,919	-52,799	0,063	-0,021
-570,904	20,635	-0,048	0,028
-569,890	-200,000	0,023	-0,095
-568,875	800,000	-0,018	-0,037
-567,861	-200,000	-0,007	-0,028
-566,846	174,935	0,063	-0,066
-565,831	-200,000	0,012	-0,074
-564,817	34,874	0,076	-0,048
-563,802	135,385	-0,102	-0,096
-562,788	-200,000	0,008	0,118
-561,773	-140,003	-0,151	0,011
-560,758	-37,992	0,089	-0,034
-559,744	-129,947	0,044	0,004
-558,729	-200,000	0,009	0,073
-557,715	157,250	0,044	-0,045
-556,700	-200,000	-0,024	0,082
-555,685	-200,000	-0,002	-0,162
-554,671	330,237	0,043	-0,060
-553,656	145,290	-0,060	-0,058
-552,642	215,593	0,041	0,047
-551,627	-124,118	0,083	0,009
-550,612	800,000	0,084	-0,186
-549,598	245,001	0,094	-0,114
-548,583	800,000	-0,072	-0,219
-547,569	-49,862	-0,099	-0,034
-546,554	450,041	0,096	0,154
-545,539	-111,276	-0,012	0,002
-544,525	71,071	0,107	-0,080
-543,510	-200,000	-0,012	0,049
-542,496	800,000	0,052	-0,138
-541,481	800,000	0,069	-0,155
-540,466	416,403	-0,094	-0,145
-539,452	-200,000	-0,022	-0,140
-538,437	601,358	0,023	0,041
-537,423	-200,000	0,040	0,186
-536,408	-119,122	0,027	-0,003
-535,393	-139,363	-0,157	0,012
-534,379	325,105	-0,062	-0,086
-533,364	461,230	-0,014	0,023
-532,350	-113,115	0,064	0,009
-531,335	800,000	-0,011	0,033
-530,321	-200,000	0,027	0,107
-529,306	232,356	0,008	-0,010
-528,291	276,702	0,046	-0,059
-527,277	96,024	-0,118	-0,097
-526,262	331,299	-0,030	-0,042
-525,248	-17,584	0,033	0,015
-524,233	332,873	0,082	-0,115
-523,218	80,963	0,071	-0,055
-522,204	-32,092	-0,162	0,065
-521,189	-150,254	0,057	0,003
-520,175	6,552	-0,111	-0,059
-519,160	-200,000	0,017	0,117
-518,145	342,772	0,035	0,049
-517,131	-200,000	0,009	0,039
-516,116	-200,000	-0,010	0,082
-515,102	521,957	-0,019	-0,032
-514,087	-200,000	0,034	-0,131
-513,072	-200,000	-0,028	0,091
-512,058	-149,544	-0,114	0,006
-511,043	-104,438	0,080	-0,013
-510,029	-102,148	0,094	0,016
-509,014	407,879	-0,031	0,048
-507,999	800,000	0,046	0,116
-506,985	800,000	0,023	-0,074
-505,970	132,407	0,033	0,031
-504,956	115,306	0,099	0,087
-503,941	-148,876	0,105	-0,006
-502,926	-200,000	-0,017	-0,099
-501,912	226,419	-0,095	0,112
-500,897	274,665	0,022	0,028
-499,883	800,000	0,080	-0,195
-498,868	-51,282	0,071	-0,024
-497,853	-200,000	-0,023	-0,091
-496,839	-200,000	-0,006	-0,073
-495,824	-183,808	0,055	0,001
-494,810	-200,000	0,013	-0,077
-493,795	339,794	-0,066	0,093
-492,781	-200,000	-0,054	0,000
-491,766	800,000	-0,041	-0,130
-490,751	41,340	0,104	0,068
-489,737	-200,000	0,008	-0,091
-488,722	-200,000	0,022	0,148
-487,708	-200,000	0,001	0,136
-486,693	-173,694	0,091	-0,002
-485,678	-193,440	-0,055	0,000
-484,664	-38,027	-0,029	-0,011
-483,649	800,000	0,010	0,028
-482,635	152,975	-0,108	0,107
-481,620	31,359	0,096	0,060
-480,605	-200,000	0,007	0,062
-479,591	638,286	-0,071	0,131
-478,576	-144,578	-0,077	-0,005
-477,562	-5,923	-0,139	-0,068
-476,547	-200,000	-0,027	-0,093
-475,532	-48,593	0,117	-0,040
-474,518	342,076	0,057	0,080
-473,503	-158,119	0,083	0,003
-472,489	-53,468	0,047	-0,016
-471,474	-81,835	-0,099	-0,023
-470,459	220,188	0,077	-0,089
-469,445	512,599	0,079	-0,134
-468,430	-200,000	0,023	0,130
-467,416	-200,000	0,002	-0,103
-466,401	-200,000	0,039	0,168
-465,386	800,000	0,026	-0,063
-464,372	800,000	0,012	-0,034
-463,357	83,772	-0,103	-0,081
-462,343	-81,479	0,072	-0,017
-461,328	800,000	-0,037	-0,096
-460,313	249,821	0,021	-0,026
-459,299	-92,366	0,076	-0,015
-458,284	-1,578	0,089	-0,045
-457,270	11,750	-0,096	0,053
-456,255	800,000	0,046	-0,115
-455,241	-69,490	-0,050	0,014
-454,226	-169,322	0,090	-0,002
-453,211	231,107	-0,048	-0,057
-452,197	336,113	0,063	0,088
-451,182	421,392	0,041	0,063
-450,168	800,000	0,017	-0,052
-449,153	-29,117	-0,207	-0,085
-448,138	473,553	0,051	0,083
-447,124	27,211	-0,112	-0,068
-446,109	800,000	-0,056	-0,141
-445,095	625,714	0,097	0,177
-444,080	385,340	0,037	-0,055
-443,065	94,597	0,047	-0,039
-442,051	-106,312	-0,039	-0,006
-441,036	-77,877	-0,077	0,019
-440,022	271,270	-0,036	-0,045
-439,007	321,257	0,007	0,009
-437,992	800,000	0,025	0,066
-436,978	52,924	-0,023	0,016
-435,963	-200,000	-0,018	0,082
-434,949	141,286	-0,023	-0,022
-433,934	10,496	-0,214	-0,117
-432,919	212,180	-0,098	-0,111
-431,905	800,000	-0,023	0,052
-430,890	428,684	-0,019	0,029
-429,876	-200,000	-0,016	0,068
-428,861	126,080	0,034	0,031
-427,846	-200,000	0,006	0,063
-426,832	-8,439	-0,064	-0,031
-425,817	800,000	-0,003	-0,009
-424,803	30,248	0,042	-0,026
-423,788	434,430	0,097	0,152
-422,773	-200,000	-0,007	0,041
-421,759	8,581	0,155	-0,084
-420,744	-200,000	-0,001	0,048
-419,730	-200,000	0,027	-0,107
-418,715	-49,463	0,034	-0,012
-417,701	-200,000	0,003	-0,116
-416,686	-200,000	0,040	-0,181
-415,671	210,804	0,065	-0,074
-414,657	-147,875	-0,104	-0,006
-413,642	-89,428	-0,205	0,043
-412,628	-81,889	-0,103	0,024
-411,613	-36,644	-0,067	-0,026
-410,598	-149,185	-0,089	-0,005
-409,584	488,383	0,069	0,114
-408,569	-200,000	-0,012	-0,065
-407,555	209,701	0,118	0,133
-406,540	-60,417	-0,068	0,021
-405,525	-58,376	-0,121	-0,038
-404,511	-92,317	0,031	0,006
-403,496	372,493	-0,050	0,073
-402,482	-200,000	0,015	-0,056
-401,467	-7,684	0,053	-0,026
-400,452	-200,000	-0,024	-0,113
-399,438	243,188	-0,009	0,011
-398,423	134,686	-0,025	0,024
-397,409	446,469	-0,046	0,074
-396,394	-200,000	0,006	0,035
-395,379	-200,000	-0,010	0,098
-394,365	197,944	0,084	0,092
-393,350	-200,000	0,006	0,184
-392,336	728,112	0,051	-0,097
-391,321	10,734	0,079	-0,043
-390,306	-186,053	-0,043	0,000
-389,292	2,431	0,048	-0,025
-388,277	242,949	0,043	-0,051
-387,263	-200,000	-0,002	-0,012
-386,248	58,798	0,179	0,126
-385,233	5,926	-0,186	0,099
-384,219	-62,572	0,125	0,037
-383,204	-200,000	-0,020	0,064
-382,190	800,000	-0,023	-0,054
-381,175	46,639	-0,105	-0,070
-380,160	-200,000	0,003	0,051
-379,146	81,299	-0,120	0,093
-378,131	119,248	-0,065	0,058
-377,117	-200,000	-0,000	-0,056
-376,102	800,000	-0,068	-0,161
-375,088	117,052	-0,061	-0,054
-374,073	47,778	-0,075	-0,050
-373,058	22,381	0,059	0,035
-372,044	800,000	0,081	0,166
-371,029	-200,000	-0,004	0,139
-370,015	-106,512	0,073	-0,012
-369,000	-117,552	0,009	-0,001
-367,985	65,355	-0,051	0,037
-366,971	225,498	-0,034	0,040
-365,956	800,000	-0,004	0,008
-364,942	748,158	0,055	0,106
-363,927	250,842	0,116	0,142
-362,912	49,536	0,083	-0,056
-361,898	652,148	-0,022	0,040
-360,883	47,287	-0,026	0,018
-359,869	55,291	0,036	-0,025
-358,854	-88,322	-0,114	0,024
-357,839	-52,760	0,126	-0,041
-356,825	388,589	0,046	0,068
-355,810	-173,869	0,025	-0,001
-354,796	-93,704	0,152	-0,030
-353,781	-90,486	-0,171	-0,035
-352,766	2,118	-0,034	-0,017
-351,752	800,000	0,022	0,055
-350,737	-103,849	0,178	-0,030
-349,723	800,000	0,054	-0,153
-348,708	800,000	-0,024	-0,062
-347,693	-67,860	0,070	0,020
-346,679	-21,727	-0,029	-0,013
-345,664	-38,616	-0,087	-0,033
-344,650	-200,000	-0,004	-0,022
-343,635	800,000	-0,026	0,055
-342,620	-27,893	0,045	-0,019
-341,606	228,085	-0,055	-0,065
-340,591	-120,334	0,070	-0,009
-339,577	-146,362	-0,024	-0,001
-338,562	-33,685	-0,117	0,046
-337,548	-200,000	0,003	-0,043
-336,533	-200,000	-0,017	0,069
-335,518	-200,000	-0,026	0,191
-334,504	686,243	0,079	-0,149
-333,489	238,536	-0,086	-0,102
-332,475	66,774	-0,152	0,111
-331,460	122,540	0,085	-0,076
-330,445	178,103	0,095	-0,099
-329,431	-114,298	-0,099	-0,014
-328,416	-34,186	0,117	0,046
-327,402	475,764	-0,064	0,104
-326,387	102,335	-0,038	0,032
-325,372	84,874	-0,111	-0,087
-324,358	-122,682	-0,159	-0,018
-323,343	243,638	0,091	0,109
-322,329	49,722	-0,081	0,055
-321,314	-54,359	0,154	0,050
-320,299	52,149	0,089	0,060
-319,285	800,000	-0,018	0,049
-318,270	28,479	0,097	0,059
-317,256	-200,000	-0,004	-0,168
-316,241	-200,000	0,001	-0,146
-315,226	800,000	-0,026	-0,056
-314,212	-58,050	0,027	-0,008
-313,197	676,752	0,093	0,175
-312,183	-18,066	0,099	0,044
-311,168	406,213	0,031	-0,046
-310,153	-16,123	-0,065	0,029
-309,139	-137,573	0,129	-0,010
-308,124	800,000	-0,027	0,068
-307,110	57,781	0,128	0,090
-306,095	-107,309	0,123	-0,019
-305,080	-6,775	-0,113	-0,055
-304,066	-86,043	0,103	0,023
-303,051	11,387	-0,094	0,052
-302,037	-200,000	0,023	-0,079
-301,022	-200,000	0,015	-0,130
-300,008	-120,513	0,093	0,011
-298,993	774,036	0,069	0,136
-297,978	-85,998	0,069	0,015
-296,964	32,152	-0,047	0,029
-295,949	136,802	-0,098	-0,092
-294,935	224,385	0,092	-0,106
-293,920	339,209	-0,036	-0,051
-292,905	800,000	0,041	0,099
-291,891	-151,572	0,236	-0,012
-290,876	-200,000	-0,047	0,166
-289,862	2,516	-0,014	0,007
-288,847	239,466	-0,040	-0,047
-287,832	-200,000	0,033	-0,105
-286,818	800,000	-0,022	-0,066
-285,803	-22,676	0,078	0,033
-284,789	353,373	0,103	0,146
-283,774	155,846	-0,066	0,065
-282,759	-200,000	-0,010	0,117
-281,745	-200,000	-0,027	-0,086
-280,730	800,000	0,019	-0,048
-279,716	536,201	-0,084	-0,144
-278,701	-200,000	0,041	-0,148
-277,686	459,622	0,004	0,006
-276,672	178,795	0,022	-0,023
-275,657	-80,604	-0,111	-0,026
-274,643	-200,000	-0,010	-0,077
-273,628	-134,764	-0,090	0,008
-272,613	-200,000	-0,021	0,093
-271,599	-6,381	0,085	-0,041
-270,584	800,000	0,009	0,029
-269,570	800,000	0,039	0,095
-268,555	408,754	0,091	0,138
-267,540	43,555	-0,142	0,093
-266,526	-101,720	0,062	0,011
-265,511	-25,636	0,116	0,049
-264,497	86,946	0,028	-0,022
-263,482	800,000	0,018	0,046
-262,467	-50,248	0,169	-0,057
-261,453	-72,727	-0,176	-0,046
-260,438	91,425	0,059	0,048
-259,424	800,000	0,012	-0,025
-258,409	-200,000	0,004	-0,063
-257,395	263,571	0,052	-0,065
-256,380	800,000	0,017	-0,039
-255,365	562,666	0,007	0,013
-254,351	-23,422	0,094	0,040
-253,336	-105,861	-0,051	0,008
-252,322	37,850	-0,127	-0,081
-251,307	71,723	0,143	0,106
-250,292	485,334	-0,083	0,135
-249,278	-200,000	-0,010	0,035
-248,263	800,000	0,063	0,192
-247,249	-51,147	-0,063	0,021
-246,234	-200,000	0,013	-0,059
-245,219	-57,387	-0,086	0,027
-244,205	-95,879	-0,066	0,013
-243,190	227,717	0,089	-0,104
-242,176	318,685	0,077	0,105
-241,161	116,429	-0,049	-0,043
-240,146	-200,000	-0,001	-0,092
-239,132	-200,000	-0,012	-0,092
-238,117	176,827	0,132	-0,138
-237,103	-59,795	-0,095	0,029
-236,088	-105,474	0,115	-0,018
-235,073	87,505	-0,070	-0,055
-234,059	19,092	0,076	-0,043
-233,044	477,281	-0,086	0,140
-232,030	205,945	-0,086	0,096
-231,015	-0,852	0,056	-0,028
-230,000	216,613	0,069	0,078
-228,986	331,482	-0,038	0,052
-227,971	-70,653	0,014	0,004
-226,957	-200,000	0,032	-0,122
-225,942	145,940	0,068	0,065
-224,927	-1,818	0,138	-0,069
-223,913	21,577	-0,065	0,037
-222,898	800,000	0,027	-0,064
-221,884	-200,000	0,028	-0,173
-220,869	-70,823	0,048	0,013
-219,855	17,393	-0,048	-0,027
-218,840	29,913	0,119	0,072
-217,825	216,949	-0,069	0,078
-216,811	-146,498	-0,071	0,004
-215,796	152,523	-0,066	-0,065
-214,782	800,000	0,046	-0,139
-213,767	472,711	-0,090	0,146
-212,752	-67,328	-0,088	-0,025
-211,738	-97,384	0,020	0,004
-210,723	-100,048	-0,022	-0,004
-209,709	-200,000	0,023	-0,184
-208,694	-90,624	-0,100	0,021
-207,679	-200,000	0,026	0,116
-206,665	800,000	-0,042	-0,091
-205,650	-200,000	0,009	0,101
-204,636	205,533	-0,097	0,108
-203,621	-200,000	0,009	-0,044
-202,606	-139,063	-0,085	0,007
-201,592	-91,804	-0,163	-0,033
-200,577	-169,412	0,170	0,004
-199,563	-25,682	-0,153	0,064
-198,548	-47,435	-0,078	-0,027
-197,533	-200,000	-0,006	0,114
-196,519	701,878	0,114	0,214
-195,504	800,000	-0,047	-0,144
-194,490	-200,000	0,043	-0,284
-193,475	43,946	-0,081	-0,053
-192,460	325,463	0,029	0,039
-191,446	319,742	-0,060	0,081
-190,431	-200,000	-0,007	0,039
-189,417	424,944	0,082	0,126
-188,402	-70,370	-0,077	0,021
-187,387	372,485	-0,056	-0,082
-186,373	289,708	0,012	0,016
-185,358	91,017	-0,019	0,015
-184,344	-167,965	0,121	-0,003
-183,329	33,260	0,079	0,049
-182,315	608,555	-0,092	0,164
-181,300	-200,000	0,016	0,103
-180,285	66,862	-0,205	0,148
-179,271	-124,703	-0,086	-0,009
-178,256	-20,618	0,120	0,052
-177,242	413,328	0,025	-0,039
-176,227	800,000	0,107	0,242
-175,212	118,306	-0,104	0,092
-174,198	28,874	-0,080	0,048
-173,183	122,904	0,072	-0,064
-172,169	-85,218	-0,067	-0,015
-171,154	-140,396	0,047	-0,003
-170,139	-200,000	-0,022	0,102
-169,125	800,000	0,045	0,090
-168,110	512,241	-0,063	0,105
-167,096	-200,000	-0,042	0,135
-166,081	-200,000	-0,019	-0,063
-165,066	-200,000	-0,017	0,080
-164,052	-25,600	-0,094	-0,039
-163,037	367,736	-0,068	-0,098
-162,023	-200,000	0,000	-0,092
-161,008	-2,501	0,126	0,063
-159,993	800,000	-0,016	0,035
-158,979	25,655	-0,094	-0,056
-157,964	-200,000	-0,005	-0,035
-156,950	26,219	-0,012	0,007
-155,935	800,000	-0,018	-0,047
-154,920	-200,000	-0,012	-0,112
-153,906	39,008	0,031	-0,020
-152,891	-72,778	-0,098	0,025
-151,877	73,937	0,151	0,113
-150,862	-200,000	-0,200	0,000
-149,847	-200,000	-0,013	-0,071
-148,833	-200,000	0,032	-0,137
-147,818	-200,000	0,031	0,113
-146,804	800,000	-0,061	0,121
-145,789	-27,694	0,051	-0,021
-144,775	-75,510	-0,176	-0,044
-143,760	800,000	-0,061	-0,167
-142,745	232,092	0,028	0,033
-141,731	800,000	-0,009	0,019
-140,716	69,195	0,029	0,021
-139,702	135,418	0,104	-0,097
-138,687	-200,000	0,001	0,039
-137,672	625,905	-0,057	-0,102
-136,658	61,060	-0,047	0,033
-135,643	-21,500	0,063	0,027
-134,629	-82,827	-0,050	0,011
-133,614	21,027	0,091	-0,053
-132,599	-22,355	-0,077	-0,033
-131,585	-41,389	0,014	-0,005
-130,570	-84,397	0,044	0,010
-129,556	120,236	-0,160	-0,142
-128,541	-63,084	-0,089	0,026
-127,526	38,049	0,074	0,046
-126,512	-2,898	0,088	-0,043
-125,497	66,753	-0,142	0,102
-124,483	-200,000	0,026	0,129
-123,468	-23,855	-0,094	0,040
-122,453	471,929	-0,060	0,097
-121,439	-59,042	0,085	-0,026
-120,424	-4,134	0,152	0,075
-119,410	-75,742	-0,113	-0,028
