DTS Sentinel unit serial number:	SN410029Multiplexer serial number:	ORYXHardware model number:	OX2-SRSoftware version number:	ORYX F/W v4,00 Oryx Data Collector v3.7.2.0data status	okinstallation	BH3 CH2differential loss correction	single-endedforward channel	channel 2reverse channel	N/Adate	2023/12/05time	16:12:28forward acquisition time	300,00reverse acquisition time	0,00gamma	499,1914k internal	0,3192k external	0,3192temperature offset calibration	1,0000default loss term (dB/km)	0,3820temperature slope calibration	1,0000multiplexer offset coefficient	1,0000multiplexer slope coefficient	1,0000fibre end	0,00T internal ref (°C)	11,07T ext. ref 1 (°C)	-3,32T ext. ref 2 (°C)	-3,55length (m)	temperature (°C)	Stokes	anti-Stokes-744,400	800,000	-0,095	-0,205
-743,385	228,493	-0,090	0,108
-742,371	-200,000	-0,038	-0,137
-741,356	-9,509	-0,212	0,103
-740,342	-48,870	0,095	-0,033
-739,327	-137,866	-0,237	-0,019
-738,312	-200,000	-0,069	-0,241
-737,298	107,563	-0,185	0,160
-736,283	800,000	-0,078	-0,217
-735,269	-4,530	-0,168	0,084
-734,254	693,766	-0,081	-0,156
-733,239	-188,933	-0,396	0,003
-732,225	-16,233	0,069	0,032
-731,210	-42,764	0,007	0,003
-730,196	-94,528	-0,076	-0,015
-729,181	10,421	0,148	0,082
-728,167	800,000	0,023	0,056
-727,152	216,781	-0,057	0,066
-726,137	120,125	-0,056	0,051
-725,123	-73,274	-0,073	0,019
-724,108	-144,695	-0,086	-0,006
-723,094	705,765	0,018	0,036
-722,079	62,556	-0,066	-0,048
-721,064	-2,988	-0,109	-0,055
-720,050	119,171	0,069	-0,062
-719,035	398,866	-0,071	0,109
-718,021	-18,619	0,081	-0,036
-717,006	800,000	-0,048	-0,105
-715,991	-200,000	0,013	-0,156
-714,977	-200,000	0,006	-0,091
-713,962	800,000	0,007	0,018
-712,948	154,625	0,047	-0,047
-711,933	-92,080	-0,101	0,021
-710,918	-34,605	-0,086	-0,034
-709,904	-62,643	-0,042	0,013
-708,889	-56,323	-0,063	-0,020
-707,875	-56,982	-0,168	-0,054
-706,860	193,190	-0,113	0,125
-705,845	-200,000	0,016	0,136
-704,831	228,299	0,054	0,064
-703,816	-200,000	0,003	-0,096
-702,802	95,022	-0,075	0,062
-701,787	164,989	-0,094	-0,096
-700,772	800,000	-0,027	0,076
-699,758	-93,441	-0,070	-0,014
-698,743	-200,000	-0,005	-0,098
-697,729	-200,000	0,033	-0,188
-696,714	-21,867	0,040	0,018
-695,699	-80,808	-0,037	0,009
-694,685	-200,000	-0,020	0,078
-693,670	-105,201	-0,158	-0,026
-692,656	-43,568	0,146	-0,053
-691,641	-93,645	-0,140	0,028
-690,627	478,241	0,067	-0,111
-689,612	4,291	-0,002	-0,001
-688,597	192,780	0,003	0,003
-687,583	199,281	-0,124	-0,138
-686,568	-200,000	0,001	-0,221
-685,554	-72,893	0,057	-0,015
-684,539	199,146	-0,060	-0,067
-683,524	40,468	0,128	0,084
-682,510	313,965	0,033	-0,046
-681,495	209,401	-0,102	0,116
-680,481	-161,941	-0,079	0,003
-679,466	29,874	-0,107	-0,066
-678,451	-200,000	-0,009	0,042
-677,437	-200,000	-0,036	0,126
-676,422	214,340	0,031	0,035
-675,408	-89,670	-0,050	0,011
-674,393	-21,742	0,065	-0,029
-673,378	137,923	0,111	-0,106
-672,364	96,640	-0,134	-0,111
-671,349	-101,256	0,159	-0,028
-670,335	800,000	0,001	-0,004
-669,320	29,067	0,028	0,017
-668,305	-33,892	-0,025	0,010
-667,291	-91,968	-0,060	0,012
-666,276	-6,968	-0,067	-0,033
-665,262	-71,908	-0,198	-0,053
-664,247	800,000	0,047	-0,135
-663,232	800,000	0,068	-0,150
-662,218	-169,001	0,079	-0,002
-661,203	161,445	-0,038	0,038
-660,189	800,000	0,031	-0,063
-659,174	-42,380	0,061	-0,023
-658,159	-136,298	-0,081	0,007
-657,145	-118,429	0,138	-0,018
-656,130	-78,812	-0,100	0,025
-655,116	-200,000	-0,007	0,089
-654,101	-125,843	0,068	-0,007
-653,086	-200,000	0,019	-0,069
-652,072	-48,220	-0,032	-0,011
-651,057	800,000	-0,052	0,105
-650,043	800,000	0,033	0,082
-649,028	-72,912	-0,158	0,042
-648,014	-200,000	-0,001	-0,058
-646,999	-113,694	-0,115	0,016
-645,984	167,635	0,053	0,055
-644,970	237,611	0,073	0,088
-643,955	461,573	0,052	0,084
-642,941	159,975	0,124	-0,125
-641,926	27,427	0,122	-0,074
-640,911	-35,920	0,053	-0,021
-639,897	-114,212	0,151	0,021
-638,882	-114,873	0,077	-0,011
-637,868	-32,679	-0,070	0,028
-636,853	-48,268	-0,013	0,004
-635,838	-164,546	-0,085	-0,003
-634,824	202,606	0,073	-0,082
-633,809	-189,954	0,130	-0,001
-632,795	-87,498	0,060	0,013
-631,780	-200,000	-0,024	0,125
-630,765	-3,330	-0,172	0,087
-629,751	-200,000	-0,004	-0,173
-628,736	-22,667	-0,075	-0,033
-627,722	800,000	0,063	-0,153
-626,707	-107,068	-0,155	-0,025
-625,692	23,258	-0,087	0,052
-624,678	-120,550	0,152	0,019
-623,663	81,275	-0,091	0,071
-622,649	-200,000	-0,009	0,069
-621,634	-200,000	0,016	0,115
-620,619	430,333	-0,065	0,102
-619,605	186,323	-0,054	-0,058
-618,590	-200,000	-0,003	0,109
-617,576	800,000	0,061	0,178
-616,561	-200,000	0,016	0,083
-615,546	384,875	-0,029	-0,044
-614,532	800,000	-0,043	-0,135
-613,517	-28,756	-0,102	0,042
-612,503	-23,892	-0,028	0,012
-611,488	125,247	0,053	-0,048
-610,474	-105,500	0,026	-0,004
-609,459	-200,000	-0,021	-0,119
-608,444	800,000	0,018	-0,048
-607,430	25,063	0,107	-0,064
-606,415	141,729	-0,121	-0,116
-605,401	-7,553	0,054	0,027
-604,386	430,493	0,022	-0,035
-603,371	66,075	-0,047	-0,034
-602,357	-167,825	0,079	-0,002
-601,342	169,848	0,027	-0,028
-600,328	-19,953	-0,128	-0,057
-599,313	-182,594	0,013	-0,000
-598,298	800,000	-0,078	0,196
-597,284	516,148	0,046	0,079
-596,269	800,000	0,007	-0,014
-595,255	580,074	0,047	0,083
-594,240	-49,951	-0,122	0,042
-593,225	800,000	0,058	-0,168
-592,211	-200,000	0,021	0,081
-591,196	46,938	-0,187	0,126
-590,182	23,465	-0,071	0,042
-589,167	567,677	0,023	-0,041
-588,152	788,046	-0,051	0,102
-587,138	800,000	0,032	-0,073
-586,123	-128,619	-0,122	-0,012
-585,109	394,912	-0,099	0,151
-584,094	39,864	0,130	0,084
-583,079	65,838	0,069	0,050
-582,065	-73,719	-0,153	0,040
-581,050	112,332	0,165	0,144
-580,036	313,295	0,019	0,027
-579,021	-77,621	-0,106	-0,026
-578,006	10,631	-0,097	-0,053
-576,992	673,474	-0,019	-0,035
-575,977	-200,000	-0,012	0,128
-574,963	-39,157	0,156	0,059
-573,948	800,000	-0,006	0,012
-572,934	154,184	-0,127	-0,126
-571,919	-200,000	0,022	-0,117
-570,904	-200,000	0,028	-0,188
-569,890	-101,795	0,095	-0,016
-568,875	-16,700	-0,138	-0,063
-567,861	-137,163	0,034	0,003
-566,846	488,663	-0,062	0,103
-565,831	800,000	-0,021	0,053
-564,817	-200,000	0,012	-0,063
-563,802	-200,000	-0,066	-0,245
-562,788	-32,649	0,059	0,023
-561,773	112,670	0,104	0,091
-560,758	800,000	-0,041	0,120
-559,744	-124,621	-0,062	-0,007
-558,729	-23,283	-0,031	-0,013
-557,715	-15,092	-0,090	0,041
-556,700	7,795	-0,085	-0,046
-555,685	-125,133	0,041	-0,004
-554,671	131,267	-0,035	-0,032
-553,656	800,000	0,054	-0,156
-552,642	438,242	-0,100	0,158
-551,627	800,000	0,017	0,038
-550,612	-29,942	0,058	-0,024
-549,598	24,924	-0,073	-0,044
-548,583	0,231	-0,107	0,055
-547,569	-200,000	-0,019	0,188
-546,554	615,390	0,042	0,076
-545,539	362,731	0,046	0,067
-544,525	409,045	0,080	-0,123
-543,510	-54,264	-0,065	-0,021
-542,496	-24,417	-0,083	0,036
-541,481	423,032	-0,040	-0,063
-540,466	-32,298	0,082	-0,033
-539,452	-200,000	-0,001	0,103
-538,437	800,000	0,045	0,118
-537,423	492,944	-0,101	0,167
-536,408	-61,724	0,047	0,014
-535,393	260,475	-0,037	-0,046
-534,379	-200,000	-0,038	-0,214
-533,364	-20,181	0,038	0,017
-532,350	800,000	-0,004	0,009
-531,335	254,082	-0,053	0,066
-530,321	387,565	-0,074	0,111
-529,306	-69,391	-0,147	0,040
-528,291	-200,000	0,013	-0,049
-527,277	-200,000	-0,006	-0,110
-526,262	800,000	-0,046	0,098
-525,248	-53,642	0,084	-0,028
-524,233	-118,558	0,218	0,028
-523,218	788,441	-0,010	-0,020
-522,204	348,878	-0,076	0,109
-521,189	-61,917	-0,097	0,029
-520,175	110,705	0,048	-0,042
-519,160	89,670	-0,083	-0,067
-518,145	57,475	0,044	-0,031
-517,131	737,782	-0,073	0,142
-516,116	800,000	0,019	0,044
-515,102	318,138	0,030	-0,041
-514,087	195,768	-0,037	0,041
-513,072	800,000	0,025	0,079
-512,058	800,000	-0,016	-0,050
-511,043	-8,295	-0,067	0,033
-510,029	4,047	0,100	-0,053
-509,014	-200,000	-0,001	-0,036
-507,999	613,462	-0,017	0,032
-506,985	-200,000	0,002	-0,046
-505,970	298,104	-0,022	-0,029
-504,956	-200,000	-0,011	0,055
-503,941	-159,710	0,034	0,001
-502,926	56,806	0,050	-0,035
-501,912	261,799	0,052	0,065
-500,897	-87,559	0,050	0,011
-499,883	-41,272	-0,100	-0,037
-498,868	-4,651	-0,115	-0,057
-497,853	-126,940	-0,041	0,004
-496,839	-200,000	-0,011	0,100
-495,824	236,517	0,063	-0,076
-494,810	-79,140	0,198	-0,048
-493,795	-200,000	-0,038	0,162
-492,781	-52,347	-0,132	-0,044
-491,766	59,160	0,088	-0,062
-490,751	-200,000	-0,013	-0,120
-489,737	-4,648	-0,067	0,033
-488,722	-29,059	0,165	-0,068
-487,708	-170,476	-0,024	0,001
-486,693	-164,607	0,110	0,004
-485,678	-44,407	-0,151	-0,054
-484,664	60,246	0,027	-0,019
-483,649	11,229	-0,074	-0,041
-482,635	-200,000	-0,003	-0,041
-481,620	-200,000	0,003	-0,025
-480,605	-200,000	0,008	0,097
-479,591	-29,965	-0,020	0,008
-478,576	-24,166	-0,039	-0,017
-477,562	-49,194	-0,158	0,054
-476,547	-65,486	0,142	-0,041
-475,532	-200,000	-0,003	-0,037
-474,518	69,647	-0,081	0,060
-473,503	-200,000	0,003	0,035
-472,489	-200,000	-0,017	0,105
-471,474	237,345	0,084	0,101
-470,459	-105,398	-0,077	0,012
-469,445	800,000	-0,028	-0,058
-468,430	-11,522	0,132	-0,062
-467,416	-200,000	0,031	0,147
-466,401	-200,000	0,019	0,116
-465,386	65,835	0,137	0,100
-464,372	-200,000	0,007	-0,046
-463,357	-73,100	-0,214	-0,056
-462,343	800,000	-0,015	-0,046
-461,328	245,450	-0,089	0,108
-460,313	430,817	0,043	-0,067
-459,299	-18,651	0,087	-0,039
-458,284	-200,000	-0,002	0,014
-457,270	400,751	-0,057	0,087
-456,255	-45,404	0,075	0,027
-455,241	-0,649	-0,049	0,025
-454,226	317,896	0,072	-0,099
-453,211	-200,000	-0,001	0,140
-452,197	-158,269	0,106	-0,004
-451,182	-200,000	-0,013	-0,090
-450,168	-121,245	0,030	-0,004
-449,153	284,885	0,111	-0,145
-448,138	154,730	-0,074	-0,073
-447,124	-189,712	0,061	-0,000
-446,109	-142,325	-0,068	-0,005
-445,095	800,000	0,053	-0,128
-444,080	641,011	-0,005	0,009
-443,065	62,923	0,089	0,064
-442,051	120,812	0,046	-0,041
-441,036	800,000	0,018	-0,047
-440,022	800,000	0,037	-0,094
-439,007	18,239	-0,023	0,013
-437,992	126,230	0,082	0,075
-436,978	800,000	-0,026	0,069
-435,963	800,000	0,043	0,111
-434,949	-12,934	-0,052	-0,024
-433,934	113,107	0,105	0,092
-432,919	146,393	-0,025	0,024
-431,905	-15,742	0,033	-0,015
-430,890	19,824	-0,092	-0,053
-429,876	-167,201	0,078	0,002
-428,861	-200,000	0,006	0,046
-427,846	-1,121	-0,045	-0,023
-426,832	-60,194	-0,061	0,019
-425,817	-200,000	-0,013	-0,052
-424,803	-68,487	-0,063	0,017
-423,788	-149,587	-0,055	-0,003
-422,773	14,565	-0,050	-0,028
-421,759	-200,000	0,009	-0,037
-420,744	307,889	-0,111	-0,149
-419,730	43,388	-0,021	-0,014
-418,715	-200,000	0,017	-0,135
-417,701	800,000	-0,032	0,085
-416,686	-47,082	0,115	0,040
-415,671	111,871	0,064	-0,055
-414,657	-200,000	-0,015	-0,055
-413,642	6,961	0,058	-0,031
-412,628	200,379	0,039	0,043
-411,613	30,910	-0,170	0,105
-410,598	324,604	-0,103	-0,142
-409,584	62,067	0,081	0,058
-408,569	66,479	0,082	0,060
-407,555	50,678	0,106	-0,072
-406,540	-3,657	-0,066	-0,033
-405,525	14,420	0,064	0,036
-404,511	78,882	0,022	-0,017
-403,496	-126,339	0,094	-0,010
-402,482	-116,214	0,078	0,010
-401,467	-200,000	-0,005	0,206
-400,452	34,396	0,066	0,041
-399,438	-7,857	-0,055	0,026
-398,423	74,360	0,090	0,068
-397,409	109,523	0,087	-0,075
-396,394	350,186	0,034	-0,048
-395,379	255,943	0,022	-0,028
-394,365	-42,244	0,074	0,027
-393,350	-200,000	-0,014	0,193
-392,336	800,000	0,069	0,172
-391,321	153,783	-0,064	-0,063
-390,306	-200,000	0,000	0,110
-389,292	-200,000	0,008	-0,062
-388,277	-200,000	0,027	-0,095
-387,263	-62,061	0,031	0,009
-386,248	-200,000	-0,005	-0,028
-385,233	-104,049	-0,062	0,010
-384,219	248,547	0,124	-0,151
-383,204	29,227	0,062	-0,038
-382,190	-200,000	-0,008	-0,033
-381,175	-87,983	0,145	0,031
-380,160	-3,323	0,069	0,034
-379,146	-150,950	0,110	0,006
-378,131	-200,000	-0,019	-0,126
-377,117	-21,242	-0,099	-0,043
-376,102	208,798	0,052	-0,059
-375,088	-57,590	-0,080	0,025
-374,073	-93,610	0,103	-0,020
-373,058	-141,831	-0,144	-0,010
-372,044	19,661	-0,062	0,036
-371,029	-44,230	-0,099	0,036
-370,015	294,020	0,116	0,152
-369,000	800,000	-0,042	0,094
-367,985	3,336	-0,010	0,005
-366,971	366,106	0,043	0,063
-365,956	-200,000	-0,001	0,071
-364,942	-117,601	0,089	-0,011
-363,927	-200,000	0,024	-0,157
-362,912	-200,000	-0,017	-0,066
-361,898	-178,765	-0,091	0,001
-360,883	775,500	-0,075	-0,148
-359,869	800,000	0,043	-0,101
-358,854	343,842	0,016	-0,023
-357,839	174,329	0,097	0,101
-356,825	696,079	0,048	0,091
-355,810	800,000	-0,038	0,099
-354,796	-99,600	0,045	0,008
-353,781	-62,480	-0,121	0,036
-352,766	-72,733	0,104	-0,027
-351,752	-200,000	0,001	-0,093
-350,737	240,061	0,145	0,173
-349,723	460,769	0,061	0,098
-348,708	176,316	0,081	0,084
-347,693	94,525	-0,097	-0,079
-346,679	168,435	-0,051	0,052
-345,664	489,880	-0,072	-0,118
-344,650	-81,661	0,145	-0,034
-343,635	-176,299	0,026	0,000
-342,620	-200,000	0,025	0,085
-341,606	220,311	-0,044	0,050
-340,591	-93,848	0,029	-0,006
-339,577	634,726	-0,032	0,058
-338,562	-75,368	-0,069	-0,017
-337,548	-91,691	-0,178	-0,036
-336,533	-134,278	0,132	0,012
-335,518	21,868	0,020	-0,012
-334,504	7,644	-0,041	0,022
-333,489	108,019	-0,088	0,075
-332,475	56,540	0,036	0,025
-331,460	-59,426	0,064	-0,019
-330,445	-113,926	-0,063	-0,009
-329,431	-143,030	0,173	-0,012
-328,416	-78,105	0,038	-0,009
-327,402	129,860	-0,089	0,082
-326,387	-13,031	-0,114	0,053
-325,372	-200,000	0,005	0,027
-324,358	19,071	-0,044	-0,025
-323,343	-200,000	0,013	0,100
-322,329	-146,113	0,157	0,010
-321,314	-122,753	-0,114	-0,013
-320,299	4,850	0,043	0,023
-319,285	524,463	-0,012	-0,020
-318,270	261,278	-0,089	-0,111
-317,256	-200,000	0,020	-0,075
-316,241	-97,755	-0,061	0,011
-315,226	-11,099	0,116	-0,055
-314,212	32,699	-0,088	-0,055
-313,197	-200,000	-0,006	0,037
-312,183	-136,160	0,152	0,013
-311,168	578,830	0,035	0,061
-310,153	-15,075	0,071	-0,032
-309,139	-84,785	0,034	0,008
-308,124	800,000	0,004	0,012
-307,110	321,095	0,030	-0,041
-306,095	800,000	-0,011	-0,024
-305,080	157,148	-0,034	0,034
-304,066	800,000	-0,006	0,013
-303,051	709,991	-0,034	-0,066
-302,037	-200,000	-0,002	-0,158
-301,022	-9,318	0,019	-0,009
-300,008	-200,000	0,149	0,000
-298,993	-61,325	-0,122	0,037
-297,978	499,229	-0,046	-0,076
-296,964	513,124	-0,040	0,068
-295,949	231,498	-0,068	0,080
-294,935	-72,457	0,064	0,017
-293,920	-72,120	0,113	0,030
-292,905	-200,000	-0,040	-0,187
-291,891	-200,000	0,036	-0,159
-290,876	-28,637	-0,020	-0,008
-289,862	-5,207	-0,111	-0,054
-288,847	800,000	0,005	-0,012
-287,832	-200,000	-0,002	-0,092
-286,818	-200,000	-0,011	0,037
-285,803	-76,905	-0,109	0,027
-284,789	89,612	-0,028	0,023
-283,774	52,107	-0,134	-0,091
-282,759	-89,598	0,044	0,009
-281,745	-167,199	-0,116	0,003
-280,730	800,000	-0,057	-0,152
-279,716	302,479	-0,011	-0,015
-278,701	772,992	-0,064	0,125
-277,686	-35,043	-0,066	-0,026
-276,672	800,000	0,045	0,092
-275,657	357,015	-0,048	0,069
-274,643	330,515	-0,007	0,010
-273,628	-200,000	0,039	-0,146
-272,613	284,763	0,080	-0,104
-271,599	80,934	-0,030	0,023
-270,584	752,287	-0,035	0,068
-269,570	800,000	0,030	-0,092
-268,555	66,202	0,031	-0,023
-267,540	625,587	-0,043	-0,078
-266,526	-200,000	-0,039	-0,165
-265,511	630,808	0,043	0,078
-264,497	113,062	-0,030	0,026
-263,482	-61,519	0,099	0,029
-262,467	195,252	-0,059	0,064
-261,453	39,338	-0,113	0,072
-260,438	-16,137	-0,081	-0,037
-259,424	-119,779	0,082	0,010
-258,409	720,766	-0,051	0,097
-257,395	-63,398	-0,063	0,018
-256,380	-90,659	-0,120	0,025
-255,365	-52,624	0,064	0,021
-254,351	346,017	0,038	-0,054
-253,336	800,000	-0,018	-0,037
-252,322	-6,040	-0,093	-0,046
-251,307	800,000	-0,058	0,122
-250,292	0,426	-0,018	-0,009
-249,278	197,462	0,091	0,100
-248,263	130,146	0,145	0,132
-247,249	-200,000	0,005	-0,073
-246,234	-101,723	-0,030	-0,005
-245,219	39,950	-0,087	-0,056
-244,205	800,000	-0,004	-0,009
-243,190	115,942	0,108	-0,095
-242,176	-97,564	0,080	-0,015
-241,161	-200,000	0,007	0,028
-240,146	45,866	-0,031	0,021
-239,132	-48,836	0,157	-0,054
-238,117	-32,226	0,109	-0,043
-237,103	-34,048	0,085	-0,033
-236,088	26,263	-0,058	-0,035
-235,073	-200,000	-0,018	0,067
-234,059	286,911	0,076	0,098
-233,044	270,106	-0,100	0,127
-232,030	41,040	0,077	0,050
-231,015	29,790	-0,037	-0,022
-230,000	-27,188	-0,019	-0,008
-228,986	356,756	0,049	-0,070
-227,971	-43,364	0,105	0,038
-226,957	714,599	-0,032	-0,061
-225,942	460,623	0,017	-0,026
-224,927	309,679	-0,056	0,075
-223,913	189,034	-0,093	-0,100
-222,898	-54,321	-0,092	-0,030
-221,884	-114,877	0,083	-0,011
-220,869	-200,000	0,020	0,106
-219,855	15,218	0,085	-0,047
-218,840	-200,000	-0,019	0,108
-217,825	243,714	0,143	0,172
-216,811	196,076	-0,021	-0,023
-215,796	0,825	-0,118	0,060
-214,782	-200,000	0,004	-0,018
-213,767	-200,000	-0,004	-0,054
-212,752	56,935	-0,040	-0,028
-211,738	40,356	0,143	0,092
-210,723	609,122	-0,019	0,034
-209,709	-92,765	0,089	0,018
-208,694	-58,926	-0,059	0,018
-207,679	800,000	0,045	-0,102
-206,665	-90,205	0,064	-0,013
-205,650	-195,866	0,097	0,000
-204,636	-104,080	-0,078	-0,013
-203,621	-88,955	0,055	-0,012
-202,606	-57,272	0,091	-0,028
-201,592	718,584	-0,070	-0,134
-200,577	-167,688	-0,072	-0,002
-199,563	-200,000	0,018	-0,135
-198,548	386,584	-0,040	-0,059
-197,533	84,389	-0,021	-0,016
-196,519	196,943	0,037	0,041
-195,504	-123,908	-0,030	0,003
-194,490	-33,380	0,095	-0,037
-193,475	-200,000	-0,040	-0,193
-192,460	-200,000	-0,010	-0,092
-191,446	23,020	-0,110	-0,064
-190,431	-127,472	0,183	0,019
-189,417	-87,997	-0,046	-0,010
-188,402	480,634	-0,052	0,084
-187,387	-59,244	-0,035	-0,011
-186,373	-144,641	-0,081	0,005
-185,358	-26,486	-0,059	-0,025
-184,344	-142,556	0,162	-0,011
-183,329	281,019	0,060	-0,077
-182,315	800,000	-0,064	-0,164
-181,300	-119,109	0,082	0,010
-180,285	-180,154	0,049	0,001
-179,271	800,000	-0,017	-0,035
-178,256	-41,982	0,082	-0,030
-177,242	800,000	-0,023	-0,070
-176,227	-64,655	0,116	0,033
-175,212	555,112	0,076	0,131
-174,198	300,142	-0,061	-0,080
-173,183	-74,213	0,032	-0,008
-172,169	800,000	0,036	-0,109
-171,154	-200,000	-0,008	-0,079
-170,139	636,590	0,034	-0,063
-169,125	-102,965	0,085	-0,014
-168,110	372,520	-0,043	0,062
-167,096	59,707	-0,061	-0,043
-166,081	-0,054	-0,075	-0,038
-165,066	50,647	-0,081	-0,054
-164,052	-95,252	0,059	0,011
-163,037	454,672	0,018	0,028
-162,023	-200,000	0,012	-0,105
-161,008	133,973	-0,169	0,156
-159,993	-200,000	-0,016	-0,113
-158,979	48,104	-0,173	-0,115
-157,964	-50,173	-0,178	0,060
-156,950	-200,000	0,008	0,106
-155,935	-200,000	-0,008	-0,097
-154,920	-200,000	-0,018	0,105
-153,906	313,458	-0,050	0,067
-152,891	313,810	0,061	0,082
-151,877	75,310	-0,114	0,085
-150,862	138,666	-0,023	-0,021
-149,847	-113,288	0,014	-0,002
-148,833	7,750	0,103	0,055
-147,818	-200,000	0,010	0,064
-146,804	87,920	-0,088	0,070
-145,789	-200,000	-0,018	-0,069
-144,775	-200,000	-0,017	0,094
-143,760	331,442	0,060	0,083
-142,745	-200,000	-0,012	-0,158
-141,731	288,853	-0,017	-0,022
-140,716	-1,499	0,073	0,037
-139,702	765,782	-0,044	0,085
-138,687	-200,000	-0,045	-0,245
-137,672	800,000	0,040	-0,085
-136,658	38,475	-0,053	-0,033
-135,643	-98,960	-0,093	-0,017
-134,629	-54,738	-0,167	0,053
-133,614	-36,382	-0,069	0,026
-132,599	-49,260	-0,092	0,031
-131,585	-44,589	-0,078	-0,028
-130,570	152,231	0,045	0,044
-129,556	56,124	0,093	0,064
-128,541	-122,647	-0,104	-0,012
-127,526	15,637	0,009	-0,005
-126,512	569,149	-0,039	0,068
-125,497	800,000	-0,047	0,125
-124,483	800,000	-0,033	0,080
-123,468	-33,102	-0,045	-0,018
-122,453	-99,278	-0,090	-0,016
-121,439	3,395	-0,051	0,026
-120,424	158,676	0,084	0,083
-119,410	62,506	-0,042	-0,030
