DTS Sentinel unit serial number:	SN410029Multiplexer serial number:	ORYXHardware model number:	OX2-SRSoftware version number:	ORYX F/W v4,00 Oryx Data Collector v3.7.2.0data status	okinstallation	BH3 CH2differential loss correction	single-endedforward channel	channel 2reverse channel	N/Adate	2023/12/06time	00:37:28forward acquisition time	300,00reverse acquisition time	0,00gamma	499,1914k internal	0,3196k external	0,3196temperature offset calibration	1,0000default loss term (dB/km)	0,3820temperature slope calibration	1,0000multiplexer offset coefficient	1,0000multiplexer slope coefficient	1,0000fibre end	0,00T internal ref (°C)	9,38T ext. ref 1 (°C)	-5,49T ext. ref 2 (°C)	-5,57length (m)	temperature (°C)	Stokes	anti-Stokes-744,400	442,204	-0,101	-0,161
-743,385	-127,013	-0,296	-0,031
-742,371	-110,957	-0,059	0,009
-741,356	638,601	-0,108	0,201
-740,342	278,695	0,038	-0,049
-739,327	214,600	-0,166	0,191
-738,312	153,176	-0,153	-0,152
-737,298	-73,804	-0,321	0,084
-736,283	172,314	0,083	-0,087
-735,269	68,214	-0,101	0,075
-734,254	800,000	-0,051	-0,152
-733,239	-63,931	-0,379	-0,112
-732,225	606,555	0,069	-0,125
-731,210	-200,000	0,006	0,099
-730,196	90,129	-0,112	0,091
-729,181	90,953	-0,033	-0,027
-728,167	26,145	-0,105	-0,064
-727,152	800,000	-0,041	-0,112
-726,137	-200,000	0,016	0,121
-725,123	-132,242	-0,138	0,013
-724,108	215,433	-0,065	-0,076
-723,094	2,653	-0,124	-0,065
-722,079	-200,000	-0,019	-0,089
-721,064	-22,067	-0,075	0,033
-720,050	-200,000	0,009	0,085
-719,035	-40,387	-0,122	0,046
-718,021	-109,994	-0,064	-0,010
-717,006	800,000	-0,002	0,005
-715,991	39,494	-0,073	-0,047
-714,977	14,814	-0,051	-0,029
-713,962	800,000	-0,049	-0,113
-712,948	-56,922	-0,100	-0,032
-711,933	181,280	0,140	-0,150
-710,918	-200,000	0,009	0,108
-709,904	800,000	-0,049	-0,132
-708,889	-119,517	-0,171	0,021
-707,875	182,199	-0,111	-0,119
-706,860	110,467	-0,030	-0,026
-705,845	-63,797	0,092	-0,027
-704,831	83,241	0,115	0,091
-703,816	800,000	0,034	-0,080
-702,802	-200,000	-0,010	0,090
-701,787	569,363	-0,071	-0,127
-700,772	-200,000	-0,030	0,146
-699,758	-200,000	0,008	-0,197
-698,743	56,087	0,055	0,039
-697,729	83,039	-0,018	0,014
-696,714	-200,000	-0,005	-0,079
-695,699	-42,231	-0,075	0,028
-694,685	483,993	-0,017	-0,028
-693,670	800,000	0,013	0,041
-692,656	-200,000	0,000	-0,056
-691,641	-46,282	0,125	-0,045
-690,627	-100,193	0,052	-0,009
-689,612	39,670	0,104	0,068
-688,597	521,171	0,013	0,023
-687,583	-200,000	0,000	-0,116
-686,568	800,000	0,031	-0,083
-685,554	131,553	-0,116	-0,108
-684,539	238,500	-0,055	0,067
-683,524	-143,209	-0,199	0,014
-682,510	-200,000	-0,024	-0,132
-681,495	312,912	-0,089	-0,121
-680,481	-186,827	-0,160	0,002
-679,466	-200,000	-0,033	-0,165
-678,451	-73,636	-0,141	0,037
-677,437	-200,000	0,004	-0,045
-676,422	-91,546	0,067	-0,014
-675,408	-200,000	-0,003	0,019
-674,393	-76,476	-0,114	-0,029
-673,378	-36,895	-0,144	0,056
-672,364	-200,000	-0,030	-0,114
-671,349	-57,195	0,113	-0,036
-670,335	-200,000	0,013	0,089
-669,320	-200,000	0,017	-0,104
-668,305	461,157	0,024	-0,039
-667,291	-6,266	-0,026	-0,013
-666,276	-200,000	-0,026	-0,125
-665,262	237,046	-0,132	0,160
-664,247	81,501	-0,054	-0,043
-663,232	-200,000	-0,019	0,098
-662,218	29,311	0,066	0,041
-661,203	371,372	0,041	0,060
-660,189	-120,026	-0,112	-0,014
-659,174	800,000	0,043	-0,107
-658,159	425,212	-0,059	-0,093
-657,145	800,000	0,098	-0,255
-656,130	-200,000	0,022	-0,108
-655,116	0,213	0,051	-0,026
-654,101	292,184	0,049	-0,066
-653,086	202,052	-0,077	0,087
-652,072	-200,000	-0,005	0,129
-651,057	800,000	-0,027	-0,083
-650,043	98,590	0,090	-0,075
-649,028	81,070	-0,086	-0,067
-648,014	800,000	-0,050	-0,110
-646,999	-200,000	-0,028	0,114
-645,984	-200,000	0,002	0,036
-644,970	72,510	0,053	-0,040
-643,955	386,491	-0,049	0,074
-642,941	145,600	0,102	-0,099
-641,926	-200,000	-0,013	-0,043
-640,911	-200,000	0,012	0,113
-639,897	-50,121	0,060	0,020
-638,882	-53,976	-0,091	0,030
-637,868	686,982	-0,061	-0,117
-636,853	0,265	0,082	-0,042
-635,838	609,823	-0,100	-0,182
-634,824	446,864	-0,030	-0,048
-633,809	684,658	-0,021	-0,040
-632,795	-130,436	0,108	0,010
-631,780	1,487	0,087	-0,045
-630,765	-21,777	-0,140	0,062
-629,751	-200,000	0,017	-0,105
-628,736	-2,156	-0,077	0,039
-627,722	-200,000	0,025	0,106
-626,707	701,266	-0,036	0,069
-625,692	82,407	-0,083	-0,065
-624,678	216,712	0,076	0,087
-623,663	380,356	0,059	0,087
-622,649	79,046	-0,086	-0,067
-621,634	-200,000	0,002	-0,009
-620,619	328,914	-0,060	0,083
-619,605	28,484	0,057	0,035
-618,590	468,461	-0,011	-0,018
-617,576	-200,000	0,031	0,153
-616,561	-200,000	-0,002	-0,112
-615,546	-5,174	-0,103	-0,051
-614,532	263,157	-0,106	-0,134
-613,517	-28,242	0,065	-0,027
-612,503	419,798	0,031	0,049
-611,488	800,000	-0,007	-0,017
-610,474	-124,514	-0,103	-0,011
-609,459	800,000	0,004	-0,008
-608,444	800,000	0,036	0,108
-607,430	72,649	-0,066	-0,050
-606,415	505,857	0,040	-0,067
-605,401	-162,553	-0,118	-0,004
-604,386	-21,254	0,090	0,040
-603,371	-145,825	0,082	-0,005
-602,357	135,227	0,076	0,072
-601,342	-42,879	0,068	0,025
-600,328	-200,000	-0,031	-0,182
-599,313	-200,000	0,008	-0,117
-598,298	72,044	0,024	-0,018
-597,284	289,465	0,048	-0,063
-596,269	124,282	-0,017	0,016
-595,255	-85,963	0,061	-0,014
-594,240	80,373	-0,103	0,080
-593,225	148,451	-0,113	-0,111
-592,211	127,537	0,087	-0,080
-591,196	317,447	-0,013	-0,019
-590,182	-55,601	0,180	0,058
-589,167	-200,000	0,019	-0,098
-588,152	37,392	-0,046	0,030
-587,138	8,538	0,061	0,033
-586,123	-96,505	-0,156	-0,030
-585,109	-200,000	-0,060	-0,227
-584,094	65,898	0,089	-0,065
-583,079	122,734	-0,049	0,045
-582,065	356,387	0,048	-0,069
-581,050	800,000	-0,054	-0,111
-580,036	800,000	-0,019	0,049
-579,021	-115,634	-0,051	0,007
-578,006	800,000	0,050	-0,133
-576,992	-14,759	-0,094	0,043
-575,977	11,817	0,015	-0,008
-574,963	-97,774	0,108	-0,020
-573,948	555,254	-0,085	0,148
-572,934	27,511	-0,078	-0,047
-571,919	216,053	-0,086	-0,099
-570,904	800,000	-0,012	0,034
-569,890	-26,738	0,003	0,001
-568,875	800,000	0,039	-0,102
-567,861	3,283	0,055	-0,029
-566,846	281,337	0,034	0,044
-565,831	800,000	0,015	0,033
-564,817	137,096	-0,023	-0,022
-563,802	53,972	-0,147	-0,102
-562,788	470,509	-0,054	0,089
-561,773	-200,000	-0,012	-0,061
-560,758	266,788	0,052	0,066
-559,744	209,752	-0,025	-0,028
-558,729	-62,646	0,040	0,012
-557,715	-71,004	-0,226	0,061
-556,700	-33,087	-0,071	-0,028
-555,685	-200,000	-0,001	-0,053
-554,671	800,000	-0,023	-0,064
-553,656	133,346	0,078	0,073
-552,642	73,541	0,107	-0,081
-551,627	236,310	0,048	0,058
-550,612	706,195	-0,046	-0,088
-549,598	-76,810	-0,084	0,021
-548,583	33,524	0,073	-0,045
-547,569	800,000	-0,042	-0,104
-546,554	-104,115	-0,089	-0,015
-545,539	-200,000	-0,013	0,047
-544,525	-145,084	0,140	0,009
-543,510	-200,000	-0,002	0,113
-542,496	156,287	-0,077	-0,076
-541,481	269,659	0,058	-0,074
-540,466	108,909	0,105	0,091
-539,452	-4,467	0,089	-0,044
-538,437	10,800	0,139	0,077
-537,423	-200,000	0,010	0,071
-536,408	413,955	-0,047	0,072
-535,393	-140,018	0,072	0,005
-534,379	-200,000	0,004	0,123
-533,364	8,289	0,145	0,078
-532,350	-111,578	0,022	0,003
-531,335	-200,000	0,002	-0,041
-530,321	800,000	0,017	-0,050
-529,306	105,732	-0,022	0,019
-528,291	42,300	-0,050	0,032
-527,277	208,190	-0,113	-0,128
-526,262	-200,000	0,005	-0,101
-525,248	37,230	0,049	-0,031
-524,233	-29,944	0,096	-0,039
-523,218	-38,355	-0,109	0,041
-522,204	-200,000	-0,012	-0,055
-521,189	-200,000	0,002	-0,163
-520,175	-138,743	-0,110	-0,009
-519,160	142,173	0,057	0,055
-518,145	800,000	-0,042	-0,125
-517,131	467,164	0,058	-0,094
-516,116	-139,400	0,132	-0,010
-515,102	478,327	-0,037	0,061
-514,087	-200,000	-0,010	0,042
-513,072	-200,000	-0,025	-0,161
-512,058	-36,309	-0,097	-0,038
-511,043	-63,004	-0,066	0,019
-510,029	-200,000	0,048	0,163
-509,014	-200,000	-0,003	-0,015
-507,999	41,080	-0,067	0,044
-506,985	800,000	0,045	0,135
-505,970	-200,000	0,007	-0,058
-504,956	800,000	-0,003	-0,009
-503,941	-32,691	0,077	0,031
-502,926	618,627	-0,072	0,132
-501,912	-82,421	0,059	-0,014
-500,897	213,541	0,013	-0,015
-499,883	-171,240	0,044	0,001
-498,868	800,000	0,055	-0,119
-497,853	-128,234	-0,089	-0,009
-496,839	418,534	0,012	-0,018
-495,824	800,000	-0,035	0,085
-494,810	-200,000	0,017	-0,061
-493,795	-147,276	-0,096	0,006
-492,781	800,000	-0,032	-0,078
-491,766	-27,265	-0,129	-0,054
-490,751	-200,000	-0,021	-0,076
-489,737	165,491	0,080	-0,081
-488,722	-47,614	-0,044	-0,015
-487,708	421,423	0,082	0,127
-486,693	64,746	0,101	0,074
-485,678	455,375	0,032	-0,051
-484,664	-72,902	-0,094	-0,025
-483,649	-12,246	-0,097	-0,046
-482,635	166,080	-0,019	0,019
-481,620	87,691	0,019	0,015
-480,605	-200,000	0,024	-0,120
-479,591	-7,142	-0,105	0,051
-478,576	-200,000	0,005	0,123
-477,562	-200,000	0,006	0,022
-476,547	-17,452	-0,085	-0,038
-475,532	-82,843	0,065	0,015
-474,518	-27,549	0,077	0,032
-473,503	2,713	-0,102	-0,053
-472,489	-200,000	-0,010	0,085
-471,474	800,000	-0,056	-0,115
-470,459	-91,095	-0,061	-0,013
-469,445	281,833	-0,093	-0,120
-468,430	350,807	-0,113	0,161
-467,416	149,964	0,076	0,074
-466,401	113,300	0,137	0,120
-465,386	84,132	0,083	-0,066
-464,372	302,875	0,086	-0,115
-463,357	-122,781	-0,306	-0,035
-462,343	800,000	0,016	-0,049
-461,328	-182,123	-0,207	-0,003
-460,313	72,374	-0,078	0,059
-459,299	800,000	0,036	0,092
-458,284	216,361	-0,102	-0,117
-457,270	294,208	-0,076	0,100
-456,255	-200,000	-0,021	0,128
-455,241	747,112	-0,086	-0,169
-454,226	-152,198	-0,129	-0,007
-453,211	121,330	0,066	-0,059
-452,197	23,062	0,129	-0,076
-451,182	-27,571	0,046	-0,019
-450,168	239,227	-0,076	0,091
-449,153	-75,139	-0,178	-0,045
-448,138	173,519	0,071	-0,074
-447,124	-29,576	0,135	-0,055
-446,109	-200,000	-0,008	0,157
-445,095	800,000	0,009	0,020
-444,080	-55,199	0,049	-0,016
-443,065	-200,000	0,025	0,079
-442,051	59,062	0,141	0,100
-441,036	404,285	-0,006	-0,009
-440,022	-120,110	-0,128	-0,016
-439,007	676,305	0,066	0,123
-437,992	-18,118	-0,034	-0,015
-436,978	800,000	-0,024	0,060
-435,963	-119,354	0,130	-0,016
-434,949	134,876	0,084	-0,079
-433,934	-200,000	0,013	0,097
-432,919	-130,775	0,053	0,005
-431,905	-200,000	-0,000	-0,047
-430,890	800,000	-0,021	0,060
-429,876	-200,000	0,011	0,178
-428,861	18,598	0,135	0,077
-427,846	446,343	-0,090	0,143
-426,832	-162,005	0,050	-0,002
-425,817	-200,000	-0,006	-0,109
-424,803	378,840	-0,070	-0,104
-423,788	300,818	-0,045	0,060
-422,773	-200,000	-0,028	0,103
-421,759	-19,696	0,077	0,034
-420,744	-145,045	0,038	0,002
-419,730	111,458	0,010	-0,008
-418,715	-1,676	-0,119	-0,060
-417,701	-200,000	0,000	0,041
-416,686	-200,000	-0,049	0,160
-415,671	800,000	0,058	0,118
-414,657	-11,553	-0,100	0,047
-413,642	279,172	-0,016	0,020
-412,628	-200,000	-0,003	0,014
-411,613	-68,016	0,055	0,015
-410,598	464,037	-0,017	-0,028
-409,584	-200,000	0,016	0,083
-408,569	-19,735	0,107	0,048
-407,555	153,753	0,038	0,038
-406,540	260,173	0,078	-0,097
-405,525	12,162	-0,087	0,048
-404,511	82,501	-0,042	0,033
-403,496	800,000	0,053	-0,142
-402,482	638,783	0,034	-0,062
-401,467	-200,000	0,053	0,174
-400,452	-33,092	0,157	0,062
-399,438	49,984	0,113	-0,076
-398,423	77,045	-0,072	0,055
-397,409	246,083	0,036	-0,044
-396,394	-1,824	0,055	0,028
-395,379	-49,663	-0,118	0,040
-394,365	707,908	-0,059	-0,112
-393,350	-42,055	0,037	0,014
-392,336	800,000	-0,049	0,113
-391,321	310,970	-0,039	-0,053
-390,306	-79,874	-0,103	-0,025
-389,292	800,000	-0,008	0,022
-388,277	800,000	0,012	-0,027
-387,263	5,816	0,049	-0,026
-386,248	300,330	0,083	0,111
-385,233	-23,192	-0,065	0,028
-384,219	-57,175	0,116	-0,037
-383,204	-15,395	-0,110	0,050
-382,190	800,000	-0,025	0,075
-381,175	40,154	0,081	0,052
-380,160	-200,000	-0,006	0,118
-379,146	73,614	-0,073	0,055
-378,131	1,885	-0,108	0,056
-377,117	70,542	0,084	0,062
-376,102	-95,130	0,082	-0,016
-375,088	159,896	-0,096	-0,096
-374,073	6,778	-0,033	-0,017
-373,058	139,118	0,122	-0,115
-372,044	764,263	-0,032	-0,063
-371,029	106,656	0,061	0,052
-370,015	9,948	0,115	-0,062
-369,000	800,000	-0,061	-0,126
-367,985	-143,197	0,098	0,007
-366,971	181,812	0,045	-0,048
-365,956	-53,675	0,074	0,024
-364,942	220,663	0,087	0,100
-363,927	349,486	0,010	0,014
-362,912	-200,000	-0,005	0,048
-361,898	-181,279	0,128	-0,002
-360,883	776,317	-0,050	0,099
-359,869	-200,000	0,016	-0,182
-358,854	-70,390	-0,116	0,031
-357,839	-200,000	0,006	0,093
-356,825	800,000	0,054	-0,158
-355,810	-60,969	-0,091	-0,027
-354,796	-64,153	-0,063	-0,018
-353,781	572,013	0,050	-0,087
-352,766	-86,449	-0,062	0,014
-351,752	-200,000	-0,029	0,112
-350,737	253,430	-0,030	0,037
-349,723	101,816	-0,072	0,060
-348,708	92,252	-0,066	0,053
-347,693	161,837	-0,018	0,018
-346,679	-129,077	-0,139	-0,014
-345,664	-200,000	0,002	0,014
-344,650	800,000	-0,038	-0,077
-343,635	-56,788	0,092	-0,029
-342,620	11,604	0,063	-0,034
-341,606	-200,000	0,007	0,028
-340,591	-200,000	0,008	0,115
-339,577	-87,221	-0,061	0,013
-338,562	-81,909	-0,040	0,009
-337,548	96,195	0,128	-0,105
-336,533	554,460	0,007	0,012
-335,518	45,923	0,075	-0,050
-334,504	20,951	0,115	-0,066
-333,489	93,136	-0,055	-0,044
-332,475	-55,581	-0,117	0,037
-331,460	124,849	-0,068	0,061
-330,445	93,555	0,054	0,044
-329,431	-200,000	0,005	0,062
-328,416	-57,454	0,130	0,041
-327,402	-128,913	0,030	-0,003
-326,387	800,000	-0,072	-0,144
-325,372	-200,000	0,019	-0,145
-324,358	112,954	-0,196	-0,170
-323,343	-200,000	-0,009	0,089
-322,329	331,771	-0,061	0,085
-321,314	20,289	0,068	0,039
-320,299	-55,188	0,082	-0,026
-319,285	202,777	-0,080	0,088
-318,270	304,849	-0,077	-0,103
-317,256	470,320	-0,044	-0,072
-316,241	421,741	0,071	-0,110
-315,226	-200,000	0,084	0,000
-314,212	108,617	0,146	0,125
-313,197	-200,000	-0,007	0,172
-312,183	-200,000	-0,016	0,164
-311,168	14,563	-0,073	0,041
-310,153	-156,599	-0,030	-0,001
-309,139	-69,801	0,099	-0,027
-308,124	41,817	0,183	0,118
-307,110	291,032	0,014	-0,018
-306,095	-200,000	0,025	-0,116
-305,080	-200,000	-0,003	0,011
-304,066	-0,927	-0,093	-0,047
-303,051	356,373	-0,082	-0,118
-302,037	-108,893	-0,074	-0,011
-301,022	226,301	0,031	-0,036
-300,008	71,390	0,022	-0,016
-298,993	-200,000	0,003	0,122
-297,978	212,160	-0,053	-0,060
-296,964	-64,626	-0,150	-0,043
-295,949	-131,687	0,108	-0,010
-294,935	26,331	-0,133	-0,080
-293,920	-200,000	0,005	0,018
-292,905	363,854	0,118	-0,171
-291,891	98,609	0,154	-0,127
-290,876	34,914	-0,194	0,122
-289,862	800,000	-0,032	0,068
-288,847	-35,910	-0,089	-0,034
-287,832	29,050	-0,035	-0,021
-286,818	-2,109	-0,092	0,046
-285,803	-200,000	0,027	0,094
-284,789	-143,414	0,036	0,002
-283,774	218,920	0,067	0,077
-282,759	-75,033	0,046	-0,012
-281,745	-200,000	0,013	-0,069
-280,730	8,066	-0,188	-0,101
-279,716	113,748	-0,037	0,032
-278,701	-200,000	-0,032	-0,137
-277,686	-72,930	0,115	0,030
-276,672	179,398	0,145	0,152
-275,657	-200,000	-0,017	0,131
-274,643	-200,000	-0,017	0,174
-273,628	-50,809	0,110	-0,037
-272,613	-137,060	-0,056	0,004
-271,599	-184,983	0,038	0,000
-270,584	-200,000	0,006	0,122
-269,570	800,000	0,029	0,081
-268,555	-200,000	-0,001	0,081
-267,540	-189,107	-0,118	-0,001
-266,526	222,743	0,033	0,038
-265,511	638,781	0,055	0,101
-264,497	-60,211	-0,055	0,017
-263,482	67,001	0,034	-0,025
-262,467	800,000	-0,023	0,058
-261,453	261,845	-0,035	0,043
-260,438	59,816	-0,014	0,010
-259,424	-200,000	-0,048	-0,158
-258,409	-77,370	-0,055	0,014
-257,395	283,474	0,036	0,047
-256,380	345,471	-0,021	0,029
-255,365	-181,473	-0,064	-0,001
-254,351	115,447	0,129	0,113
-253,336	-200,000	0,011	0,091
-252,322	-76,656	0,038	-0,010
-251,307	-41,886	-0,203	-0,074
-250,292	-81,822	-0,122	-0,028
-249,278	-38,974	0,072	-0,027
-248,263	800,000	-0,036	-0,075
-247,249	800,000	0,020	0,060
-246,234	159,656	0,044	-0,044
-245,219	-200,000	-0,033	-0,106
-244,205	19,979	0,038	-0,022
-243,190	-75,324	0,099	0,025
-242,176	153,016	-0,097	0,095
-241,161	549,578	-0,082	0,140
-240,146	-119,204	0,197	-0,024
-239,132	328,381	-0,047	0,065
-238,117	8,098	-0,052	0,028
-237,103	-200,000	0,012	-0,067
-236,088	-130,436	-0,060	0,006
-235,073	-200,000	0,016	-0,066
-234,059	14,457	-0,143	0,079
-233,044	-39,568	-0,091	0,034
-232,030	-200,000	0,022	0,098
-231,015	121,946	-0,097	0,087
-230,000	404,815	-0,047	-0,071
-228,986	800,000	0,058	0,119
-227,971	-102,427	0,018	0,003
-226,957	162,895	0,201	0,201
-225,942	-154,512	0,068	0,003
-224,927	152,760	-0,073	-0,071
-223,913	24,320	-0,030	0,018
-222,898	39,142	0,020	-0,013
-221,884	195,469	-0,055	-0,059
-220,869	195,036	0,041	-0,044
-219,855	161,914	0,039	-0,039
-218,840	66,893	0,066	-0,048
-217,825	800,000	0,005	-0,010
-216,811	362,330	0,071	-0,102
-215,796	-76,643	0,098	-0,024
-214,782	33,633	-0,126	-0,078
-213,767	89,529	0,093	0,074
-212,752	-200,000	0,010	-0,066
-211,738	-5,902	0,020	0,010
-210,723	41,068	-0,069	-0,044
-209,709	55,611	0,027	0,019
-208,694	-21,945	-0,072	0,031
-207,679	-171,827	-0,135	0,003
-206,665	13,055	0,058	0,032
-205,650	-200,000	0,078	-0,000
-204,636	-130,780	0,082	0,008
-203,621	515,272	0,109	0,181
-202,606	800,000	-0,018	-0,039
-201,592	125,090	-0,118	0,106
-200,577	-4,867	-0,124	0,061
-199,563	111,053	0,158	-0,136
-198,548	14,693	0,064	-0,036
-197,533	-73,976	-0,086	0,022
-196,519	-200,000	0,001	0,106
-195,504	57,253	0,008	-0,006
-194,490	-122,313	-0,065	0,007
-193,475	52,331	0,016	0,011
-192,460	180,272	-0,113	-0,118
-191,446	800,000	0,040	0,082
-190,431	51,158	0,115	-0,078
-189,417	102,405	0,081	0,067
-188,402	657,738	-0,041	-0,075
-187,387	800,000	-0,040	-0,103
-186,373	253,564	0,070	-0,085
-185,358	468,999	0,050	-0,080
-184,344	65,822	0,114	-0,082
-183,329	63,746	0,131	0,093
-182,315	65,548	0,036	0,026
-181,300	-131,543	0,094	-0,009
-180,285	-143,101	-0,105	0,007
-179,271	261,665	-0,091	-0,113
-178,256	-87,130	0,102	-0,022
-177,242	-137,223	0,168	0,013
-176,227	-200,000	-0,035	0,000
-175,212	98,154	0,054	0,045
-174,198	800,000	0,011	-0,026
-173,183	131,320	0,089	-0,082
-172,169	-200,000	-0,005	-0,084
-171,154	72,538	0,021	0,015
-170,139	800,000	0,048	-0,121
-169,125	333,687	0,052	0,071
-168,110	25,392	0,110	-0,065
-167,096	138,753	0,020	-0,019
-166,081	-200,000	0,011	-0,135
-165,066	126,010	0,049	-0,044
-164,052	-23,496	0,054	-0,023
-163,037	8,091	0,093	-0,049
-162,023	-122,272	0,041	0,005
-161,008	194,295	-0,128	0,139
-159,993	-162,071	0,037	0,001
-158,979	800,000	0,013	-0,028
-157,964	-37,151	-0,073	-0,028
-156,950	-60,341	-0,062	0,019
-155,935	-200,000	-0,008	0,058
-154,920	800,000	-0,013	0,029
-153,906	-200,000	-0,012	0,069
-152,891	470,984	0,055	0,088
-151,877	-8,562	0,061	-0,029
-150,862	65,198	0,057	-0,041
-149,847	-30,095	-0,095	0,038
-148,833	194,630	-0,038	-0,041
-147,818	-0,289	-0,083	0,042
-146,804	490,742	0,055	0,090
-145,789	191,509	0,005	-0,005
-144,775	280,525	0,068	0,086
-143,760	31,369	-0,164	-0,100
-142,745	-64,689	-0,129	-0,037
-141,731	-24,842	-0,126	-0,053
-140,716	-200,000	-0,012	-0,047
-139,702	130,402	-0,072	0,066
-138,687	-200,000	0,019	0,061
-137,672	-200,000	0,015	-0,176
-136,658	-200,000	-0,015	-0,132
-135,643	-200,000	0,008	-0,027
-134,629	-91,561	0,045	0,009
-133,614	716,759	-0,049	0,094
-132,599	353,266	-0,086	0,122
-131,585	800,000	0,030	0,066
-130,570	-200,000	0,008	-0,061
-129,556	-55,145	-0,094	-0,030
-128,541	-98,218	0,099	-0,018
-127,526	-81,136	-0,078	0,018
-126,512	170,457	0,082	0,084
-125,497	-164,922	0,121	0,004
-124,483	235,764	-0,107	0,125
-123,468	220,062	0,012	-0,013
-122,453	346,808	-0,076	-0,106
-121,439	37,760	-0,024	-0,015
-120,424	-200,000	-0,007	-0,120
-119,410	301,705	0,041	-0,053
-118,395	-29,805	-0,130	-0,053
