DTS Sentinel unit serial number:	SN410029Multiplexer serial number:	ORYXHardware model number:	OX2-SRSoftware version number:	ORYX F/W v4,00 Oryx Data Collector v3.7.2.0data status	okinstallation	BH3 CH2differential loss correction	single-endedforward channel	channel 2reverse channel	N/Adate	2023/12/05time	15:02:28forward acquisition time	300,00reverse acquisition time	0,00gamma	499,1914k internal	0,3193k external	0,3193temperature offset calibration	1,0000default loss term (dB/km)	0,3820temperature slope calibration	1,0000multiplexer offset coefficient	1,0000multiplexer slope coefficient	1,0000fibre end	0,00T internal ref (°C)	11,00T ext. ref 1 (°C)	-3,22T ext. ref 2 (°C)	-3,34length (m)	temperature (°C)	Stokes	anti-Stokes-744,400	-200,000	0,009	-0,089
-743,385	-26,027	-0,222	0,095
-742,371	-63,188	-0,020	-0,006
-741,356	-200,000	-0,038	0,281
-740,342	-111,734	-0,145	-0,021
-739,327	-81,466	-0,310	0,074
-738,312	-200,000	-0,051	-0,184
-737,298	-164,735	-0,322	-0,010
-736,283	800,000	-0,047	-0,126
-735,269	61,863	-0,063	0,046
-734,254	-200,000	-0,042	-0,151
-733,239	-143,073	-0,402	-0,028
-732,225	-200,000	-0,029	-0,114
-731,210	42,068	0,081	0,053
-730,196	-72,208	-0,147	-0,039
-729,181	52,694	-0,201	-0,140
-728,167	-78,174	-0,087	-0,022
-727,152	-76,760	0,053	-0,013
-726,137	-200,000	-0,032	-0,139
-725,123	-131,280	0,048	0,005
-724,108	-200,000	-0,022	-0,168
-723,094	206,604	-0,074	-0,084
-722,079	616,129	0,004	-0,007
-721,064	800,000	0,043	-0,089
-720,050	-132,364	0,083	-0,008
-719,035	-200,000	0,008	-0,086
-718,021	146,203	0,064	0,062
-717,006	62,204	-0,029	-0,021
-715,991	-200,000	0,017	-0,164
-714,977	185,364	-0,126	-0,137
-713,962	431,748	-0,057	-0,091
-712,948	557,495	0,048	0,084
-711,933	-200,000	-0,005	-0,083
-710,918	98,013	-0,086	-0,072
-709,904	607,698	-0,017	-0,031
-708,889	-94,287	-0,177	0,035
-707,875	-200,000	-0,001	-0,052
-706,860	196,372	-0,088	0,098
-705,845	500,392	-0,030	0,050
-704,831	-90,773	0,075	-0,016
-703,816	-68,870	-0,131	0,037
-702,802	63,589	-0,037	-0,027
-701,787	45,209	-0,111	-0,074
-700,772	800,000	0,034	0,077
-699,758	264,825	-0,099	-0,126
-698,743	-200,000	0,007	-0,049
-697,729	800,000	0,058	-0,121
-696,714	-0,827	0,083	0,043
-695,699	-140,061	-0,242	-0,018
-694,685	421,082	0,042	0,066
-693,670	800,000	-0,030	-0,071
-692,656	302,827	-0,037	0,049
-691,641	207,120	0,008	-0,009
-690,627	-200,000	-0,014	0,202
-689,612	800,000	0,035	0,078
-688,597	147,789	-0,123	-0,121
-687,583	-200,000	0,030	0,098
-686,568	-115,859	-0,067	-0,009
-685,554	61,214	-0,139	-0,101
-684,539	-157,828	-0,036	-0,002
-683,524	125,170	0,031	-0,028
-682,510	800,000	-0,009	-0,027
-681,495	447,943	0,021	0,034
-680,481	668,170	-0,073	0,138
-679,466	287,050	0,057	0,075
-678,451	800,000	-0,018	-0,044
-677,437	162,601	-0,079	0,081
-676,422	68,774	0,061	-0,046
-675,408	105,669	0,095	0,081
-674,393	121,592	0,045	0,040
-673,378	-96,544	-0,072	-0,014
-672,364	136,142	-0,130	-0,123
-671,349	337,680	-0,060	-0,085
-670,335	233,467	0,110	-0,132
-669,320	11,248	-0,042	0,023
-668,305	800,000	-0,028	0,069
-667,291	800,000	-0,055	-0,127
-666,276	-200,000	-0,022	-0,141
-665,262	-200,000	-0,015	-0,079
-664,247	554,131	0,056	-0,098
-663,232	-4,243	-0,086	-0,043
-662,218	-200,000	-0,058	0,213
-661,203	27,474	0,070	0,043
-660,189	79,779	-0,118	-0,092
-659,174	-3,504	0,095	0,048
-658,159	-200,000	-0,005	-0,120
-657,145	-108,387	-0,086	0,013
-656,130	4,792	0,076	0,040
-655,116	-107,592	0,073	0,012
-654,101	-200,000	-0,043	-0,164
-653,086	-6,088	-0,070	0,035
-652,072	11,705	0,100	0,055
-651,057	401,549	-0,082	-0,126
-650,043	800,000	-0,059	-0,146
-649,028	350,632	-0,070	-0,100
-648,014	-200,000	0,001	0,060
-646,999	800,000	-0,031	0,068
-645,984	-200,000	0,025	0,112
-644,970	-38,143	-0,169	-0,065
-643,955	-200,000	-0,019	-0,077
-642,941	-200,000	0,018	-0,098
-641,926	339,382	-0,030	-0,043
-640,911	-200,000	0,017	-0,084
-639,897	-27,508	0,232	0,098
-638,882	278,838	0,083	0,107
-637,868	-200,000	0,035	0,130
-636,853	301,460	0,037	-0,050
-635,838	167,840	-0,076	-0,079
-634,824	-50,911	0,099	-0,034
-633,809	292,915	0,082	0,109
-632,795	-200,000	0,002	0,016
-631,780	-200,000	-0,034	0,131
-630,765	-15,665	-0,058	-0,027
-629,751	-86,875	-0,111	0,024
-628,736	-200,000	0,007	0,052
-627,722	231,191	0,042	0,050
-626,707	-200,000	-0,013	0,091
-625,692	-0,394	0,056	0,029
-624,678	-200,000	-0,018	-0,075
-623,663	-140,690	-0,166	0,012
-622,649	-92,576	0,105	0,021
-621,634	130,986	-0,057	-0,054
-620,619	800,000	-0,044	-0,102
-619,605	-200,000	-0,010	-0,041
-618,590	-200,000	0,058	0,000
-617,576	-90,442	-0,060	-0,013
-616,561	467,753	0,074	0,121
-615,546	-200,000	-0,006	0,087
-614,532	189,907	0,040	0,043
-613,517	-47,408	-0,085	-0,030
-612,503	-14,715	0,076	-0,035
-611,488	-19,561	0,120	-0,054
-610,474	-200,000	0,017	-0,064
-609,459	-100,552	-0,176	-0,031
-608,444	169,163	-0,044	0,045
-607,430	476,228	-0,071	-0,117
-606,415	800,000	-0,028	-0,057
-605,401	-27,946	0,110	0,046
-604,386	800,000	-0,020	-0,044
-603,371	-21,660	0,085	-0,037
-602,357	196,704	-0,056	-0,062
-601,342	-200,000	-0,008	-0,055
-600,328	228,907	-0,073	-0,086
-599,313	-200,000	-0,012	-0,127
-598,298	6,213	-0,119	0,064
-597,284	97,024	0,092	0,076
-596,269	-87,476	0,125	0,027
-595,255	122,492	-0,042	0,038
-594,240	78,431	-0,053	-0,041
-593,225	12,326	-0,063	0,035
-592,211	-100,235	-0,112	-0,020
-591,196	-147,379	0,041	0,002
-590,182	42,035	-0,029	0,019
-589,167	-85,997	0,047	0,010
-588,152	800,000	-0,017	0,035
-587,138	-200,000	0,043	0,000
-586,123	490,774	0,032	-0,054
-585,109	800,000	0,023	-0,060
-584,094	-60,249	-0,112	-0,034
-583,079	395,082	0,063	0,096
-582,065	144,885	0,131	-0,127
-581,050	-75,907	-0,033	-0,008
-580,036	-0,260	-0,053	-0,027
-579,021	-86,665	0,033	0,007
-578,006	-121,625	-0,115	0,014
-576,992	800,000	0,047	0,119
-575,977	555,387	0,061	-0,107
-574,963	-149,116	0,051	0,003
-573,948	291,022	0,058	-0,076
-572,934	105,873	0,100	0,086
-571,919	-200,000	0,009	0,041
-570,904	95,468	-0,198	-0,164
-569,890	800,000	-0,010	-0,029
-568,875	-15,462	0,089	0,041
-567,861	552,901	0,066	-0,116
-566,846	42,727	-0,038	0,025
-565,831	800,000	0,047	0,144
-564,817	198,924	0,064	-0,071
-563,802	247,943	-0,108	-0,133
-562,788	-200,000	-0,021	-0,079
-561,773	-97,681	0,108	-0,020
-560,758	-87,350	0,053	0,012
-559,744	-14,691	-0,089	0,041
-558,729	800,000	-0,020	0,056
-557,715	37,613	-0,069	-0,044
-556,700	-66,497	0,059	0,017
-555,685	337,788	-0,073	-0,104
-554,671	313,967	0,066	0,090
-553,656	154,287	0,105	0,104
-552,642	800,000	-0,041	-0,090
-551,627	-200,000	0,008	0,043
-550,612	-200,000	-0,021	-0,112
-549,598	800,000	-0,022	-0,045
-548,583	-200,000	-0,009	0,051
-547,569	800,000	-0,015	0,034
-546,554	-23,904	0,068	-0,029
-545,539	41,705	0,085	0,056
-544,525	544,593	-0,021	-0,037
-543,510	-200,000	-0,008	0,070
-542,496	-28,109	0,089	0,037
-541,481	120,077	0,047	-0,042
-540,466	-41,262	-0,156	-0,058
-539,452	800,000	-0,030	0,073
-538,437	173,099	-0,071	0,074
-537,423	-47,134	0,071	0,025
-536,408	7,524	0,040	0,022
-535,393	800,000	-0,019	-0,049
-534,379	-200,000	-0,020	0,069
-533,364	455,219	-0,043	0,069
-532,350	-50,206	0,039	-0,013
-531,335	392,795	0,065	0,097
-530,321	38,857	0,021	0,014
-529,306	67,722	0,005	-0,004
-528,291	83,096	-0,136	-0,107
-527,277	208,928	-0,026	0,029
-526,262	-90,959	-0,154	0,032
-525,248	800,000	-0,053	0,165
-524,233	612,491	-0,098	0,177
-523,218	741,272	0,081	0,158
-522,204	144,519	-0,071	0,068
-521,189	589,845	0,043	0,077
-520,175	335,267	-0,027	-0,038
-519,160	-40,592	-0,025	0,009
-518,145	232,263	0,059	0,070
-517,131	800,000	-0,022	0,063
-516,116	-8,869	0,039	0,019
-515,102	-200,000	0,014	0,060
-514,087	604,397	-0,059	-0,107
-513,072	-50,118	-0,063	0,021
-512,058	-117,727	-0,003	0,000
-511,043	170,243	-0,071	-0,074
-510,029	33,513	-0,040	0,025
-509,014	9,533	0,115	-0,063
-507,999	116,658	0,129	-0,114
-506,985	280,925	-0,022	-0,029
-505,970	275,896	0,077	-0,099
-504,956	-200,000	0,002	0,062
-503,941	111,982	-0,074	0,065
-502,926	720,057	0,043	-0,083
-501,912	514,093	-0,083	0,140
-500,897	193,607	0,045	-0,049
-499,883	76,769	-0,019	0,014
-498,868	-53,662	0,070	0,023
-497,853	-197,481	0,099	-0,000
-496,839	-99,589	0,195	0,035
-495,824	800,000	-0,014	0,038
-494,810	800,000	-0,003	-0,007
-493,795	800,000	-0,083	-0,190
-492,781	370,281	-0,087	0,127
-491,766	254,624	-0,069	0,086
-490,751	163,524	-0,023	0,024
-489,737	190,110	-0,062	0,067
-488,722	202,014	-0,041	0,046
-487,708	358,763	-0,069	0,100
-486,693	-61,810	0,003	-0,001
-485,678	-200,000	0,018	0,106
-484,664	-200,000	-0,014	-0,092
-483,649	800,000	0,017	-0,036
-482,635	41,114	-0,034	-0,022
-481,620	-13,519	0,074	0,034
-480,605	-46,234	-0,105	-0,037
-479,591	261,738	0,063	-0,079
-478,576	-200,000	0,001	-0,108
-477,562	466,666	-0,023	0,037
-476,547	626,259	-0,025	0,046
-475,532	-26,893	-0,110	-0,046
-474,518	-58,516	-0,054	0,017
-473,503	-106,911	0,120	-0,019
-472,489	89,882	0,103	-0,083
-471,474	-57,285	-0,097	0,031
-470,459	-200,000	-0,018	0,092
-469,445	-200,000	-0,026	-0,097
-468,430	-131,235	-0,072	0,007
-467,416	800,000	-0,047	0,097
-466,401	175,989	-0,051	0,053
-465,386	-147,365	0,081	-0,005
-464,372	-69,822	-0,086	-0,024
-463,357	800,000	-0,019	-0,055
-462,343	79,477	0,033	-0,025
-461,328	-51,267	0,178	-0,060
-460,313	-200,000	0,022	-0,086
-459,299	-200,000	-0,005	0,045
-458,284	245,162	-0,020	0,025
-457,270	-200,000	-0,029	-0,136
-456,255	252,204	0,056	0,069
-455,241	800,000	-0,051	-0,110
-454,226	-200,000	-0,015	-0,122
-453,211	-200,000	0,009	0,094
-452,197	-200,000	0,005	-0,173
-451,182	121,970	0,043	0,038
-450,168	-200,000	-0,013	0,045
-449,153	800,000	-0,056	0,141
-448,138	-200,000	-0,002	-0,086
-447,124	124,028	-0,040	0,037
-446,109	-200,000	-0,002	0,065
-445,095	-29,559	0,181	-0,074
-444,080	-200,000	0,007	0,043
-443,065	-200,000	-0,019	-0,214
-442,051	800,000	-0,016	0,044
-441,036	-39,357	-0,033	-0,013
-440,022	-200,000	-0,011	-0,063
-439,007	-200,000	0,025	-0,094
-437,992	-105,019	-0,047	0,008
-436,978	8,918	0,055	-0,030
-435,963	-200,000	-0,002	0,079
-434,949	83,395	-0,028	0,022
-433,934	-85,621	-0,030	-0,007
-432,919	236,470	-0,013	0,015
-431,905	268,204	-0,031	0,039
-430,890	133,336	0,097	-0,090
-429,876	-79,392	0,101	0,024
-428,861	-200,000	-0,000	-0,065
-427,846	448,140	0,036	0,057
-426,832	157,243	-0,153	-0,153
-425,817	-200,000	-0,006	-0,099
-424,803	-21,808	-0,060	0,026
-423,788	-88,823	0,105	0,022
-422,773	-200,000	0,054	0,176
-421,759	800,000	-0,023	0,051
-420,744	-200,000	0,003	-0,134
-419,730	-12,213	-0,261	0,123
-418,715	-200,000	-0,010	-0,061
-417,701	-200,000	0,012	-0,091
-416,686	-200,000	-0,009	0,033
-415,671	-18,820	0,103	0,046
-414,657	-200,000	0,017	0,156
-413,642	269,193	-0,099	-0,126
-412,628	401,773	0,062	0,094
-411,613	170,868	-0,088	0,091
-410,598	456,501	-0,067	-0,108
-409,584	137,844	0,043	-0,040
-408,569	-84,610	0,125	0,028
-407,555	-90,288	-0,155	-0,032
-406,540	-13,879	0,088	-0,041
-405,525	-117,487	-0,066	-0,008
-404,511	422,143	-0,057	-0,088
-403,496	-24,986	-0,052	-0,022
-402,482	-200,000	0,008	-0,085
-401,467	-11,889	0,144	0,068
-400,452	-66,380	0,114	0,032
-399,438	-94,907	0,107	-0,021
-398,423	-113,337	-0,052	-0,007
-397,409	-15,830	-0,022	-0,010
-396,394	8,038	-0,021	-0,011
-395,379	800,000	0,063	0,154
-394,365	-31,801	0,124	0,050
-393,350	-73,181	0,140	-0,037
-392,336	238,371	-0,047	0,056
-391,321	257,114	-0,112	-0,138
-390,306	219,313	0,113	-0,130
-389,292	383,465	-0,056	0,084
-388,277	-200,000	-0,009	-0,062
-387,263	800,000	0,028	-0,083
-386,248	53,036	0,024	0,017
-385,233	800,000	-0,043	0,120
-384,219	-144,040	-0,182	-0,012
-383,204	-200,000	-0,034	-0,176
-382,190	-110,878	0,105	-0,015
-381,175	-200,000	0,006	-0,101
-380,160	-200,000	0,036	-0,122
-379,146	282,425	0,040	-0,052
-378,131	139,062	0,163	0,154
-377,117	-86,660	-0,066	0,014
-376,102	101,165	-0,068	-0,057
-375,088	800,000	-0,055	-0,153
-374,073	-200,000	0,036	-0,117
-373,058	318,442	0,039	0,053
-372,044	525,106	0,100	0,170
-371,029	74,113	-0,092	-0,069
-370,015	-59,964	0,053	-0,016
-369,000	74,953	-0,063	0,048
-367,985	519,028	0,046	-0,078
-366,971	536,553	0,043	0,074
-365,956	-6,462	0,066	0,032
-364,942	374,375	0,067	-0,099
-363,927	272,687	-0,052	0,066
-362,912	114,669	0,046	-0,040
-361,898	-200,000	-0,016	0,054
-360,883	762,844	-0,043	-0,084
-359,869	800,000	-0,013	0,030
-358,854	-54,805	-0,008	-0,003
-357,839	10,915	0,110	-0,060
-356,825	138,555	-0,050	0,047
-355,810	-79,673	-0,070	0,017
-354,796	-89,776	0,147	0,031
-353,781	-100,787	-0,110	-0,019
-352,766	-144,271	0,096	0,006
-351,752	-36,044	-0,050	0,019
-350,737	-200,000	0,011	0,086
-349,723	800,000	-0,016	0,037
-348,708	-132,602	0,146	0,013
-347,693	-126,984	-0,210	-0,022
-346,679	800,000	0,005	0,012
-345,664	282,563	0,044	-0,057
-344,650	-115,857	-0,084	-0,011
-343,635	173,072	0,102	0,106
-342,620	284,494	0,067	-0,087
-341,606	800,000	-0,025	-0,075
-340,591	-127,063	-0,069	0,007
-339,577	-200,000	-0,010	-0,102
-338,562	-20,208	-0,134	-0,059
-337,548	-200,000	0,012	0,045
-336,533	-200,000	0,013	-0,053
-335,518	800,000	-0,033	0,093
-334,504	426,135	-0,032	-0,050
-333,489	-73,131	0,110	0,029
-332,475	-200,000	0,026	-0,089
-331,460	-200,000	0,010	-0,105
-330,445	32,932	0,114	-0,071
-329,431	800,000	0,017	-0,037
-328,416	-200,000	0,002	0,067
-327,402	-16,207	0,084	0,038
-326,387	-200,000	-0,006	0,085
-325,372	-126,315	0,135	0,014
-324,358	-200,000	0,028	-0,117
-323,343	-49,189	0,102	0,035
-322,329	556,351	0,013	-0,022
-321,314	343,902	0,073	0,103
-320,299	296,227	0,062	-0,082
-319,285	-80,050	0,078	-0,019
-318,270	102,488	0,083	-0,070
-317,256	-82,441	0,062	-0,014
-316,241	426,473	0,087	0,135
-315,226	800,000	0,117	-0,236
-314,212	141,641	0,065	0,062
-313,197	-200,000	-0,010	0,040
-312,183	-200,000	-0,024	0,202
-311,168	74,864	-0,051	-0,038
-310,153	-133,418	-0,121	-0,011
-309,139	800,000	-0,016	0,046
-308,124	63,764	0,025	-0,018
-307,110	-60,158	-0,089	-0,027
-306,095	-200,000	0,005	0,045
-305,080	27,756	0,106	0,064
-304,066	800,000	-0,022	-0,045
-303,051	800,000	-0,069	0,176
-302,037	3,087	0,147	-0,077
-301,022	-104,180	-0,146	-0,024
-300,008	116,724	0,116	0,102
-298,993	195,277	-0,056	-0,061
-297,978	800,000	0,005	0,015
-296,964	800,000	-0,037	0,087
-295,949	318,416	0,092	-0,125
-294,935	-163,705	0,147	0,005
-293,920	-200,000	0,019	0,161
-292,905	16,434	0,018	-0,010
-291,891	374,163	-0,035	-0,052
-290,876	-200,000	0,000	-0,073
-289,862	20,576	0,023	-0,013
-288,847	439,908	-0,060	0,094
-287,832	100,108	-0,044	0,037
-286,818	475,487	0,037	-0,061
-285,803	532,940	0,082	-0,140
-284,789	-200,000	0,009	0,064
-283,774	144,523	-0,040	-0,038
-282,759	-162,902	-0,196	0,007
-281,745	-200,000	-0,008	0,151
-280,730	144,443	-0,068	-0,065
-279,716	-57,670	-0,066	-0,021
-278,701	-55,806	-0,036	0,011
-277,686	36,752	0,050	0,032
-276,672	683,164	-0,086	0,161
-275,657	-200,000	-0,016	0,066
-274,643	78,159	-0,144	0,110
-273,628	800,000	0,017	-0,039
-272,613	98,097	-0,041	-0,034
-271,599	-47,938	-0,092	-0,032
-270,584	-197,221	0,123	0,001
-269,570	8,339	-0,106	0,057
-268,555	227,131	0,066	-0,077
-267,540	242,142	-0,045	-0,055
-266,526	800,000	0,035	-0,084
-265,511	-76,381	-0,086	0,021
-264,497	-71,867	0,090	0,024
-263,482	800,000	0,011	0,034
-262,467	58,036	-0,038	0,027
-261,453	-45,730	-0,063	0,022
-260,438	528,340	0,034	-0,057
-259,424	-135,188	0,096	-0,008
-258,409	-200,000	0,014	-0,056
-257,395	-200,000	-0,011	0,206
-256,380	800,000	0,028	0,068
-255,365	735,510	0,057	0,111
-254,351	445,111	-0,047	-0,075
-253,336	-114,912	-0,158	-0,021
-252,322	15,121	-0,078	-0,044
-251,307	-154,712	-0,080	0,004
-250,292	33,559	-0,062	-0,038
-249,278	-200,000	-0,016	0,113
-248,263	-200,000	0,023	-0,098
-247,249	367,176	0,030	-0,043
-246,234	13,259	-0,095	-0,053
-245,219	800,000	-0,044	0,093
-244,205	202,356	-0,012	-0,013
-243,190	-200,000	0,013	-0,069
-242,176	800,000	0,034	0,088
-241,161	-91,275	0,084	0,017
-240,146	360,720	-0,035	-0,050
-239,132	-95,135	-0,180	-0,034
-238,117	59,313	-0,113	-0,079
-237,103	800,000	-0,062	0,153
-236,088	-26,815	0,085	0,035
-235,073	46,942	0,053	-0,035
-234,059	-200,000	0,011	0,055
-233,044	800,000	0,017	0,039
-232,030	-168,351	-0,056	-0,002
-231,015	-54,708	0,012	-0,004
-230,000	-200,000	-0,012	-0,091
-228,986	-19,580	0,065	-0,029
-227,971	127,836	0,030	0,027
-226,957	800,000	-0,002	0,006
-225,942	-7,914	0,095	0,046
-224,927	145,527	-0,100	0,096
-223,913	730,259	-0,025	0,048
-222,898	-200,000	0,022	0,097
-221,884	-200,000	-0,003	0,161
-220,869	233,629	-0,095	0,112
-219,855	-29,900	-0,068	-0,028
-218,840	-66,087	0,108	-0,031
-217,825	-103,206	-0,020	-0,003
-216,811	75,312	-0,149	-0,112
-215,796	800,000	-0,038	0,079
-214,782	-144,064	0,124	0,008
-213,767	135,632	-0,010	-0,009
-212,752	101,900	0,018	-0,015
-211,738	-92,729	0,031	0,006
-210,723	-164,244	-0,088	-0,003
-209,709	218,471	-0,023	0,027
-208,694	217,307	0,071	0,080
-207,679	335,200	-0,049	-0,067
-206,665	507,938	0,035	-0,059
-205,650	451,158	0,079	0,125
-204,636	424,170	-0,085	0,131
-203,621	59,919	-0,018	-0,013
-202,606	-99,267	0,042	-0,007
-201,592	232,456	0,019	0,022
-200,577	186,097	-0,096	-0,102
-199,563	61,069	-0,028	-0,020
-198,548	800,000	0,023	-0,056
-197,533	370,009	-0,036	0,052
-196,519	-66,677	0,048	0,013
-195,504	112,255	0,048	0,041
-194,490	74,911	-0,101	-0,076
-193,475	-200,000	0,010	-0,064
-192,460	343,361	-0,067	0,094
-191,446	300,882	-0,054	-0,072
-190,431	-11,720	0,150	0,070
-189,417	66,277	-0,068	0,049
-188,402	-5,356	0,066	0,032
-187,387	-185,319	-0,171	0,002
-186,373	560,414	0,020	-0,034
-185,358	597,966	0,063	-0,111
-184,344	450,886	0,030	-0,047
-183,329	-200,000	-0,002	0,050
-182,315	800,000	0,051	-0,104
-181,300	24,852	-0,074	0,044
-180,285	-14,160	-0,067	-0,031
-179,271	283,371	-0,102	-0,131
-178,256	114,941	-0,054	-0,047
-177,242	275,542	0,035	0,045
-176,227	800,000	-0,043	0,136
-175,212	800,000	0,020	-0,044
-174,198	-41,985	0,037	-0,014
-173,183	-157,680	-0,088	-0,004
-172,169	800,000	0,027	-0,060
-171,154	800,000	-0,035	-0,109
-170,139	3,908	-0,059	0,031
-169,125	-200,000	-0,004	0,023
-168,110	-28,706	0,177	-0,072
-167,096	396,306	0,014	0,021
-166,081	-127,456	0,129	-0,013
-165,066	-200,000	0,039	0,139
-164,052	-200,000	0,044	-0,158
-163,037	209,149	-0,014	0,016
-162,023	273,626	0,018	0,022
-161,008	-72,628	0,038	-0,010
-159,993	588,984	0,034	0,060
-158,979	34,734	0,140	-0,087
-157,964	-35,522	-0,102	0,039
-156,950	-200,000	-0,000	-0,016
-155,935	123,055	0,051	0,046
-154,920	641,368	-0,029	0,053
-153,906	800,000	0,022	0,043
-152,891	-95,257	0,093	-0,018
-151,877	-150,390	-0,122	0,007
-150,862	343,675	-0,105	-0,147
-149,847	-200,000	-0,007	-0,041
-148,833	53,103	-0,066	-0,045
-147,818	336,798	-0,092	-0,127
-146,804	800,000	0,012	-0,028
-145,789	112,963	0,084	0,073
-144,775	32,736	-0,185	-0,114
-143,760	-38,178	-0,108	-0,041
-142,745	12,991	0,144	0,079
-141,731	-200,000	-0,001	-0,016
-140,716	132,569	-0,034	-0,031
-139,702	-200,000	-0,001	-0,124
-138,687	-200,000	-0,007	0,082
-137,672	54,695	0,111	0,076
-136,658	30,346	-0,131	-0,080
-135,643	-200,000	-0,017	0,075
-134,629	-200,000	-0,014	-0,136
-133,614	-200,000	0,026	-0,096
-132,599	800,000	-0,019	0,050
-131,585	127,497	0,126	0,114
-130,570	-200,000	-0,007	-0,092
-129,556	120,021	0,038	0,033
-128,541	180,018	-0,045	0,047
-127,526	-200,000	0,032	0,155
-126,512	245,203	0,024	0,029
-125,497	110,088	0,066	-0,057
-124,483	-57,208	0,058	0,018
-123,468	-66,919	-0,088	0,025
-122,453	289,082	-0,056	-0,072
-121,439	-76,856	-0,148	-0,037
-120,424	-149,780	-0,051	0,003
