DTS Sentinel unit serial number:	SN410029Multiplexer serial number:	ORYXHardware model number:	OX2-SRSoftware version number:	ORYX F/W v4,00 Oryx Data Collector v3.7.2.0data status	okinstallation	BH3 CH2differential loss correction	single-endedforward channel	channel 2reverse channel	N/Adate	2023/12/06time	07:52:28forward acquisition time	300,00reverse acquisition time	0,00gamma	499,1914k internal	0,3197k external	0,3197temperature offset calibration	1,0000default loss term (dB/km)	0,3820temperature slope calibration	1,0000multiplexer offset coefficient	1,0000multiplexer slope coefficient	1,0000fibre end	0,00T internal ref (°C)	8,78T ext. ref 1 (°C)	-5,86T ext. ref 2 (°C)	-5,96length (m)	temperature (°C)	Stokes	anti-Stokes-744,400	-200,000	-0,003	-0,145
-743,385	20,738	-0,209	0,123
-742,371	-53,815	-0,032	0,011
-741,356	782,875	-0,146	0,294
-740,342	726,845	0,064	-0,126
-739,327	-181,776	-0,339	-0,005
-738,312	-200,000	0,008	-0,094
-737,298	-133,785	-0,410	0,037
-736,283	-200,000	0,016	-0,086
-735,269	59,467	-0,248	0,178
-734,254	800,000	0,015	-0,043
-733,239	-32,839	-0,401	-0,162
-732,225	-200,000	-0,000	0,014
-731,210	53,323	0,098	0,068
-730,196	23,821	0,097	-0,058
-729,181	-200,000	-0,019	-0,140
-728,167	389,034	0,060	-0,091
-727,152	800,000	-0,028	-0,091
-726,137	27,437	0,028	-0,017
-725,123	-87,766	0,016	0,004
-724,108	800,000	-0,107	-0,231
-723,094	439,934	-0,094	-0,149
-722,079	8,054	-0,120	0,066
-721,064	-200,000	-0,025	-0,089
-720,050	50,119	0,086	-0,059
-719,035	126,733	-0,084	-0,077
-718,021	-200,000	-0,012	-0,102
-717,006	137,059	-0,035	-0,033
-715,991	-198,663	-0,227	0,001
-714,977	-200,000	0,011	-0,104
-713,962	534,366	0,067	-0,115
-712,948	-200,000	-0,030	0,179
-711,933	483,081	-0,045	-0,075
-710,918	-200,000	0,015	-0,054
-709,904	-153,716	-0,089	-0,004
-708,889	800,000	-0,032	-0,067
-707,875	555,955	-0,034	-0,059
-706,860	-70,100	-0,038	-0,010
-705,845	2,932	-0,143	-0,075
-704,831	-82,923	0,039	-0,009
-703,816	78,041	-0,064	0,050
-702,802	65,501	0,017	-0,012
-701,787	282,800	-0,084	-0,109
-700,772	54,033	-0,090	0,063
-699,758	-200,000	0,003	-0,026
-698,743	-198,984	-0,221	-0,001
-697,729	-200,000	-0,015	0,090
-696,714	-156,474	0,076	0,003
-695,699	-24,581	-0,151	-0,065
-694,685	775,903	-0,038	-0,076
-693,670	-200,000	-0,019	-0,117
-692,656	292,297	-0,038	-0,050
-691,641	-115,330	0,055	-0,007
-690,627	-200,000	0,002	0,031
-689,612	-35,988	0,039	-0,015
-688,597	-128,644	-0,079	0,008
-687,583	50,809	-0,114	-0,078
-686,568	-60,898	0,161	-0,049
-685,554	-120,764	-0,137	0,017
-684,539	114,334	0,099	0,088
-683,524	-49,530	0,048	0,017
-682,510	-147,028	-0,072	-0,004
-681,495	-16,975	-0,078	0,036
-680,481	-200,000	-0,024	-0,210
-679,466	667,116	-0,067	-0,126
-678,451	-200,000	0,024	-0,100
-677,437	113,672	0,066	0,058
-676,422	184,247	0,093	-0,101
-675,408	-200,000	-0,013	0,061
-674,393	98,585	-0,101	0,085
-673,378	-200,000	-0,005	-0,153
-672,364	-71,866	-0,065	-0,018
-671,349	188,648	0,022	0,024
-670,335	-200,000	-0,004	-0,076
-669,320	235,255	-0,043	-0,052
-668,305	-89,953	0,056	0,012
-667,291	-10,077	0,075	0,036
-666,276	251,695	-0,118	-0,146
-665,262	-139,983	0,073	0,006
-664,247	-200,000	0,003	-0,040
-663,232	65,437	-0,071	-0,052
-662,218	-200,000	0,006	0,069
-661,203	367,079	0,036	0,053
-660,189	-200,000	0,005	-0,053
-659,174	22,907	0,056	0,033
-658,159	-79,409	-0,080	0,019
-657,145	-200,000	0,027	-0,135
-656,130	165,700	0,090	0,092
-655,116	42,361	0,113	-0,074
-654,101	-200,000	-0,040	0,135
-653,086	721,331	0,078	-0,152
-652,072	-44,670	-0,081	-0,029
-651,057	800,000	-0,045	-0,130
-650,043	-200,000	0,036	-0,155
-649,028	-27,379	-0,085	-0,036
-648,014	-200,000	-0,008	-0,068
-646,999	800,000	-0,020	0,053
-645,984	490,092	0,077	-0,129
-644,970	-200,000	-0,001	0,009
-643,955	-137,530	-0,153	0,012
-642,941	-200,000	0,046	-0,153
-641,926	138,979	-0,106	0,101
-640,911	-39,795	-0,071	-0,027
-639,897	-200,000	-0,004	0,253
-638,882	-87,702	0,057	0,012
-637,868	-132,521	-0,075	0,007
-636,853	-141,361	-0,131	0,010
-635,838	-155,678	0,107	0,005
-634,824	138,650	-0,111	-0,106
-633,809	20,241	0,106	0,062
-632,795	341,893	0,047	0,066
-631,780	-200,000	-0,028	-0,176
-630,765	91,766	-0,086	0,070
-629,751	-39,269	-0,070	-0,026
-628,736	-200,000	0,000	-0,031
-627,722	-200,000	0,018	-0,160
-626,707	-106,926	-0,107	-0,017
-625,692	91,799	0,091	0,074
-624,678	-200,000	-0,011	-0,054
-623,663	83,737	-0,039	-0,031
-622,649	139,629	-0,079	-0,075
-621,634	-176,569	0,042	0,001
-620,619	223,324	-0,033	0,038
-619,605	127,962	0,060	0,055
-618,590	-200,000	-0,041	0,139
-617,576	-110,996	-0,101	0,015
-616,561	-200,000	-0,001	-0,043
-615,546	-147,208	-0,074	-0,005
-614,532	-129,215	-0,095	-0,009
-613,517	78,575	-0,068	0,053
-612,503	-86,321	-0,145	0,032
-611,488	-66,794	-0,087	0,025
-610,474	-200,000	0,012	-0,124
-609,459	-55,904	0,060	-0,019
-608,444	757,031	0,047	-0,092
-607,430	78,123	-0,083	0,064
-606,415	-200,000	-0,019	-0,144
-605,401	0,961	0,030	0,016
-604,386	147,266	0,123	0,120
-603,371	128,969	-0,125	-0,115
-602,357	34,984	0,161	-0,102
-601,342	800,000	-0,021	0,059
-600,328	-82,364	-0,167	-0,039
-599,313	-171,371	-0,192	0,005
-598,298	800,000	-0,068	-0,166
-597,284	122,602	-0,028	0,025
-596,269	110,449	0,174	0,151
-595,255	800,000	0,033	0,096
-594,240	2,924	-0,002	-0,001
-593,225	104,013	-0,076	-0,064
-592,211	800,000	-0,011	-0,021
-591,196	-15,589	-0,016	0,008
-590,182	800,000	0,075	0,155
-589,167	174,625	-0,016	-0,017
-588,152	617,761	-0,047	0,085
-587,138	304,200	0,044	0,060
-586,123	28,511	-0,092	-0,056
-585,109	-200,000	-0,020	0,086
-584,094	-200,000	-0,029	0,098
-583,079	10,440	0,010	-0,005
-582,065	-200,000	-0,005	0,108
-581,050	800,000	-0,061	0,126
-580,036	-137,354	-0,162	-0,013
-579,021	136,336	0,032	-0,030
-578,006	-129,630	-0,121	0,012
-576,992	-200,000	-0,003	0,060
-575,977	-115,188	-0,028	-0,004
-574,963	-15,359	0,083	-0,038
-573,948	46,988	0,083	-0,056
-572,934	-200,000	-0,012	0,094
-571,919	-25,316	-0,049	-0,021
-570,904	-200,000	-0,003	-0,036
-569,890	120,789	0,023	0,020
-568,875	62,992	-0,021	-0,015
-567,861	75,510	0,025	-0,019
-566,846	-11,441	0,089	-0,042
-565,831	800,000	-0,025	0,073
-564,817	800,000	0,075	0,195
-563,802	-103,618	-0,156	-0,026
-562,788	19,083	0,074	-0,043
-561,773	320,029	0,058	0,079
-560,758	-103,645	0,036	0,006
-559,744	117,030	0,062	0,055
-558,729	4,457	-0,055	-0,029
-557,715	66,543	-0,089	-0,065
-556,700	-53,145	-0,022	0,007
-555,685	305,901	0,069	-0,093
-554,671	-184,822	-0,156	0,002
-553,656	-200,000	0,007	-0,068
-552,642	800,000	-0,031	0,092
-551,627	352,109	0,054	-0,077
-550,612	301,505	-0,065	-0,087
-549,598	107,785	-0,046	0,040
-548,583	-200,000	-0,010	-0,126
-547,569	-200,000	0,007	0,067
-546,554	-200,000	0,030	0,100
-545,539	299,415	0,034	-0,045
-544,525	-15,192	0,142	-0,066
-543,510	800,000	0,058	-0,134
-542,496	-127,161	0,168	-0,018
-541,481	-200,000	0,011	0,040
-540,466	-200,000	-0,006	-0,109
-539,452	241,708	0,120	-0,145
-538,437	-200,000	0,014	-0,115
-537,423	800,000	-0,013	0,040
-536,408	-200,000	0,002	0,088
-535,393	-145,598	-0,160	0,010
-534,379	255,822	0,022	-0,027
-533,364	231,382	0,108	-0,129
-532,350	-76,976	0,101	0,025
-531,335	-49,966	-0,066	0,022
-530,321	800,000	-0,021	-0,053
-529,306	-167,642	0,087	-0,002
-528,291	-200,000	-0,051	-0,164
-527,277	-145,489	-0,049	-0,003
-526,262	800,000	-0,017	0,050
-525,248	-200,000	0,004	-0,133
-524,233	83,469	0,064	-0,050
-523,218	469,984	-0,036	-0,058
-522,204	284,365	-0,092	-0,120
-521,189	-200,000	-0,024	-0,134
-520,175	-68,058	0,027	0,007
-519,160	-200,000	-0,011	-0,171
-518,145	-200,000	-0,003	-0,066
-517,131	-171,639	0,147	-0,003
-516,116	130,990	0,067	0,062
-515,102	-200,000	-0,010	0,055
-514,087	-200,000	-0,004	-0,019
-513,072	445,706	-0,083	-0,133
-512,058	332,276	-0,086	-0,120
-511,043	-126,359	-0,042	-0,005
-510,029	305,010	-0,083	-0,112
-509,014	-200,000	0,021	0,107
-507,999	131,397	-0,103	0,096
-506,985	49,202	0,094	0,064
-505,970	559,365	-0,026	-0,045
-504,956	-200,000	-0,010	-0,170
-503,941	175,995	-0,062	0,065
-502,926	-17,376	0,126	-0,057
-501,912	13,047	0,088	0,049
-500,897	-107,412	-0,031	0,005
-499,883	302,583	-0,057	-0,076
-498,868	24,340	-0,128	0,076
-497,853	-200,000	-0,015	-0,067
-496,839	-108,757	0,214	0,033
-495,824	492,352	-0,081	-0,135
-494,810	109,211	0,106	0,092
-493,795	-200,000	0,006	0,074
-492,781	9,673	0,168	0,092
-491,766	-76,295	-0,206	0,052
-490,751	359,470	-0,067	0,098
-489,737	275,193	0,020	0,026
-488,722	800,000	0,043	0,099
-487,708	4,720	0,156	0,082
-486,693	345,085	-0,064	0,091
-485,678	-72,299	-0,058	0,015
-484,664	-16,501	-0,128	-0,058
-483,649	139,091	0,116	-0,110
-482,635	-15,479	0,121	0,055
-481,620	138,828	0,142	0,135
-480,605	-200,000	-0,032	0,156
-479,591	-60,584	-0,137	0,042
-478,576	-6,385	0,058	-0,028
-477,562	336,762	-0,078	-0,110
-476,547	800,000	-0,061	-0,185
-475,532	114,413	-0,107	0,094
-474,518	-200,000	-0,011	0,071
-473,503	-16,643	0,095	0,043
-472,489	-200,000	-0,001	0,122
-471,474	183,758	0,087	0,093
-470,459	38,691	0,102	0,066
-469,445	-200,000	0,016	0,054
-468,430	800,000	-0,009	0,022
-467,416	-200,000	-0,004	0,110
-466,401	233,109	0,085	-0,101
-465,386	-200,000	0,018	0,142
-464,372	-200,000	-0,027	-0,145
-463,357	-104,642	-0,122	0,020
-462,343	794,110	-0,088	-0,175
-461,328	-28,486	0,031	-0,013
-460,313	68,045	0,064	0,047
-459,299	-157,701	0,143	-0,006
-458,284	-200,000	-0,027	-0,095
-457,270	-200,000	0,014	0,054
-456,255	116,917	-0,062	0,055
-455,241	-200,000	0,030	-0,121
-454,226	800,000	0,050	0,101
-453,211	-186,382	0,073	-0,001
-452,197	-200,000	0,011	0,038
-451,182	116,618	0,090	0,079
-450,168	30,589	-0,090	-0,055
-449,153	-200,000	-0,008	0,030
-448,138	-4,392	0,052	0,026
-447,124	800,000	0,045	-0,095
-446,109	44,650	-0,038	0,025
-445,095	-41,602	0,048	-0,018
-444,080	182,548	0,038	0,040
-443,065	128,102	0,094	-0,086
-442,051	210,868	-0,109	-0,124
-441,036	-9,387	0,101	-0,048
-440,022	368,307	-0,044	0,064
-439,007	-200,000	-0,013	-0,074
-437,992	156,923	0,104	-0,104
-436,978	800,000	0,036	0,105
-435,963	-200,000	0,025	0,103
-434,949	653,774	0,049	-0,091
-433,934	-200,000	0,020	-0,142
-432,919	168,806	-0,071	-0,072
-431,905	-200,000	0,003	-0,113
-430,890	-200,000	0,007	0,077
-429,876	47,473	0,019	-0,013
-428,861	-35,061	-0,095	0,037
-427,846	-51,816	-0,151	0,050
-426,832	-157,036	-0,005	-0,000
-425,817	159,048	-0,022	-0,022
-424,803	-37,573	0,193	0,074
-423,788	245,825	0,028	-0,034
-422,773	183,940	0,062	0,066
-421,759	-200,000	0,005	0,104
-420,744	-200,000	-0,015	0,115
-419,730	-119,787	-0,026	-0,003
-418,715	-200,000	0,020	-0,134
-417,701	-2,793	0,064	-0,032
-416,686	-200,000	0,008	-0,086
-415,671	18,422	0,090	0,051
-414,657	-35,837	0,119	0,046
-413,642	-53,086	0,048	0,016
-412,628	800,000	0,035	-0,105
-411,613	-63,943	-0,119	-0,035
-410,598	-17,564	0,131	-0,059
-409,584	0,494	-0,049	-0,025
-408,569	-200,000	-0,013	-0,201
-407,555	-54,297	0,068	-0,022
-406,540	-68,598	0,025	0,007
-405,525	-200,000	0,000	-0,129
-404,511	-40,944	-0,036	0,013
-403,496	-70,103	0,054	0,015
-402,482	337,566	-0,033	0,046
-401,467	-124,197	0,055	0,006
-400,452	446,631	-0,019	-0,030
-399,438	-200,000	0,018	-0,092
-398,423	-200,000	0,008	-0,162
-397,409	715,361	-0,059	-0,112
-396,394	442,378	0,052	-0,081
-395,379	800,000	0,055	-0,112
-394,365	88,994	-0,052	0,042
-393,350	-200,000	0,036	0,131
-392,336	39,906	0,081	-0,052
-391,321	800,000	0,022	-0,065
-390,306	-200,000	-0,025	-0,141
-389,292	33,033	-0,049	-0,030
-388,277	-65,706	-0,031	0,009
-387,263	154,301	-0,015	-0,015
-386,248	214,874	-0,027	-0,031
-385,233	-200,000	0,002	0,050
-384,219	-200,000	-0,012	0,069
-383,204	-113,041	-0,118	-0,016
-382,190	126,374	-0,122	0,111
-381,175	528,558	0,034	-0,058
-380,160	800,000	-0,008	0,018
-379,146	800,000	0,034	0,076
-378,131	681,529	-0,045	0,085
-377,117	76,194	-0,091	0,069
-376,102	7,220	-0,182	-0,097
-375,088	27,924	-0,026	0,016
-374,073	-200,000	-0,034	-0,131
-373,058	36,111	0,078	0,049
-372,044	-200,000	0,039	0,153
-371,029	13,976	0,137	-0,076
-370,015	24,130	0,081	0,048
-369,000	107,196	0,068	0,058
-367,985	800,000	0,044	-0,097
-366,971	-103,322	0,156	-0,026
-365,956	-45,365	-0,007	-0,002
-364,942	-200,000	-0,025	0,185
-363,927	32,545	0,161	0,100
-362,912	703,437	-0,024	0,045
-361,898	90,802	-0,055	-0,044
-360,883	-200,000	0,003	0,096
-359,869	-200,000	0,019	0,103
-358,854	800,000	0,029	0,070
-357,839	146,212	0,080	0,077
-356,825	406,751	0,023	0,035
-355,810	1,336	0,097	0,050
-354,796	-89,267	0,176	-0,037
-353,781	-32,238	0,087	0,035
-352,766	116,102	-0,065	-0,057
-351,752	-200,000	-0,048	-0,182
-350,737	707,123	-0,057	0,108
-349,723	-200,000	-0,030	0,239
-348,708	-200,000	0,024	0,110
-347,693	38,020	0,052	0,033
-346,679	747,142	-0,069	0,134
-345,664	800,000	0,036	-0,101
-344,650	36,919	-0,123	-0,078
-343,635	-65,297	0,144	-0,041
-342,620	-200,000	0,007	0,085
-341,606	347,437	0,060	0,086
-340,591	142,553	-0,039	0,038
-339,577	321,978	0,038	0,052
-338,562	341,148	-0,027	-0,038
-337,548	78,656	-0,009	0,007
-336,533	-200,000	0,008	0,102
-335,518	249,390	-0,053	0,064
-334,504	-107,838	-0,128	0,020
-333,489	-8,269	0,166	-0,080
-332,475	-76,394	-0,027	-0,007
-331,460	26,682	-0,096	-0,058
-330,445	800,000	0,042	-0,105
-329,431	269,881	0,037	-0,047
-328,416	-3,596	-0,033	-0,016
-327,402	148,751	0,123	0,119
-326,387	-200,000	0,009	-0,059
-325,372	-200,000	-0,002	0,059
-324,358	-73,741	-0,078	-0,020
-323,343	-127,279	-0,093	-0,010
-322,329	800,000	-0,028	0,075
-321,314	-113,846	0,126	-0,017
-320,299	338,574	0,077	0,107
-319,285	-170,630	-0,139	0,003
-318,270	469,929	0,072	-0,117
-317,256	-124,401	0,072	0,008
-316,241	41,801	-0,156	-0,101
-315,226	101,734	-0,113	0,095
-314,212	-200,000	0,007	0,028
-313,197	196,027	0,075	-0,082
-312,183	-110,431	-0,140	0,021
-311,168	-79,394	-0,107	-0,026
-310,153	40,213	0,049	-0,031
-309,139	-29,337	-0,029	0,012
-308,124	32,845	0,057	0,035
-307,110	174,554	0,073	0,076
-306,095	219,191	0,124	0,142
-305,080	-42,289	-0,198	0,072
-304,066	109,977	0,076	-0,065
-303,051	123,708	0,126	0,113
-302,037	88,517	-0,083	0,066
-301,022	-13,670	-0,029	-0,013
-300,008	396,024	0,020	0,030
-298,993	188,597	-0,044	-0,047
-297,978	-200,000	0,001	0,081
-296,964	244,132	-0,084	-0,102
-295,949	-68,682	-0,114	-0,031
-294,935	-128,401	-0,184	0,018
-293,920	34,030	0,121	-0,075
-292,905	800,000	0,046	0,134
-291,891	189,589	0,160	0,172
-290,876	-200,000	-0,004	0,098
-289,862	-200,000	0,002	-0,032
-288,847	593,437	0,042	-0,075
-287,832	800,000	0,067	-0,161
-286,818	800,000	-0,080	-0,174
-285,803	206,489	-0,015	0,016
-284,789	800,000	0,025	-0,073
-283,774	-123,697	0,063	-0,007
-282,759	23,940	-0,077	-0,045
-281,745	-200,000	0,022	-0,117
-280,730	-200,000	-0,009	-0,095
-279,716	-200,000	-0,016	-0,068
-278,701	717,120	0,064	-0,122
-277,686	-200,000	-0,008	-0,030
-276,672	800,000	0,029	-0,074
-275,657	91,679	-0,030	0,024
-274,643	202,043	0,013	-0,014
-273,628	-200,000	-0,030	-0,179
-272,613	-45,467	-0,091	0,032
-271,599	-118,246	0,111	-0,014
-270,584	-51,780	0,077	0,025
-269,570	-200,000	-0,049	0,200
-268,555	165,886	0,064	-0,065
-267,540	-200,000	-0,005	-0,081
-266,526	800,000	-0,051	-0,103
-265,511	-200,000	0,003	0,041
-264,497	-61,097	0,112	-0,034
-263,482	-200,000	0,025	0,105
-262,467	200,584	0,057	-0,062
-261,453	493,312	-0,043	-0,071
-260,438	406,761	-0,073	0,110
-259,424	-0,975	0,015	-0,007
-258,409	67,704	0,043	0,031
-257,395	131,945	0,076	-0,070
-256,380	45,078	-0,096	0,063
-255,365	-141,723	-0,132	0,009
-254,351	-47,809	-0,076	0,026
-253,336	-200,000	0,004	-0,120
-252,322	-5,928	-0,184	0,089
-251,307	12,500	-0,046	0,025
-250,292	-200,000	0,008	-0,034
-249,278	800,000	0,041	0,108
-248,263	421,967	-0,056	0,085
-247,249	70,333	0,053	0,039
-246,234	425,655	0,051	-0,079
-245,219	-200,000	-0,016	-0,066
-244,205	44,580	-0,099	-0,065
-243,190	-93,431	0,086	-0,017
-242,176	320,070	0,033	0,045
-241,161	389,665	0,012	0,018
-240,146	-200,000	0,036	-0,176
-239,132	319,714	0,088	-0,120
-238,117	-59,102	-0,130	-0,040
-237,103	10,117	0,076	-0,041
-236,088	359,570	0,091	-0,130
-235,073	800,000	0,004	-0,012
-234,059	431,832	0,055	0,086
-233,044	-200,000	-0,026	0,088
-232,030	27,249	-0,062	-0,037
-231,015	443,734	-0,019	0,030
-230,000	12,292	-0,093	-0,051
-228,986	-23,902	-0,060	0,026
-227,971	800,000	0,009	0,019
-226,957	221,633	0,088	0,102
-225,942	641,548	0,040	0,073
-224,927	302,149	0,050	0,067
-223,913	-200,000	-0,003	0,032
-222,898	130,322	-0,108	-0,099
-221,884	-37,713	0,053	0,020
-220,869	93,508	0,030	-0,024
-219,855	-200,000	0,032	0,101
-218,840	-36,362	-0,067	0,026
-217,825	800,000	0,049	-0,098
-216,811	-93,325	0,066	-0,013
-215,796	-81,467	-0,099	0,023
-214,782	-150,581	-0,089	0,005
-213,767	9,346	-0,044	-0,024
-212,752	-200,000	0,000	0,027
-211,738	454,569	-0,017	0,027
-210,723	420,884	0,007	-0,011
-209,709	-46,547	-0,035	-0,012
-208,694	-108,239	-0,056	0,009
-207,679	800,000	0,052	-0,127
-206,665	800,000	-0,013	0,035
-205,650	800,000	-0,044	0,092
-204,636	-200,000	0,031	0,122
-203,621	-200,000	0,012	0,113
-202,606	-54,807	0,147	0,047
-201,592	-105,722	-0,068	0,011
-200,577	45,491	-0,090	-0,059
-199,563	11,505	0,034	-0,018
-198,548	127,570	0,093	0,084
-197,533	800,000	-0,057	0,143
-196,519	-200,000	-0,013	0,066
-195,504	227,796	0,031	-0,036
-194,490	-200,000	0,007	0,065
-193,475	252,239	-0,066	0,080
-192,460	96,132	0,105	0,085
-191,446	66,944	-0,074	0,054
-190,431	-137,582	0,178	0,014
-189,417	-136,997	-0,067	-0,005
-188,402	-200,000	-0,005	0,032
-187,387	55,464	0,074	-0,051
-186,373	-154,013	-0,101	-0,005
-185,358	195,788	0,037	-0,040
-184,344	-200,000	-0,001	0,063
-183,329	800,000	-0,069	0,138
-182,315	718,863	-0,068	0,129
-181,300	-200,000	0,019	0,064
-180,285	-35,754	-0,096	0,037
-179,271	363,968	0,023	-0,033
-178,256	800,000	-0,010	-0,030
-177,242	151,710	0,046	0,045
-176,227	56,825	-0,087	0,060
-175,212	-200,000	0,003	0,016
-174,198	-200,000	0,007	-0,145
-173,183	-144,092	0,053	0,003
-172,169	-94,900	-0,054	0,010
-171,154	150,118	0,067	-0,065
-170,139	-200,000	-0,013	0,074
-169,125	-200,000	-0,006	-0,046
-168,110	-162,558	0,107	0,004
-167,096	-200,000	-0,015	0,061
-166,081	-57,622	-0,052	0,016
-165,066	800,000	0,040	-0,092
-164,052	-131,618	-0,037	0,003
-163,037	604,449	0,061	0,108
-162,023	788,242	0,022	0,043
-161,008	33,581	0,070	0,043
-159,993	-84,432	-0,113	-0,025
-158,979	256,892	-0,106	-0,130
-157,964	800,000	-0,024	-0,050
-156,950	-200,000	-0,015	-0,137
-155,935	-63,614	0,071	0,021
-154,920	606,845	0,091	0,163
-153,906	30,594	0,063	-0,039
-152,891	184,915	-0,049	0,052
-151,877	-60,658	0,081	0,024
-150,862	-93,399	-0,058	-0,011
-149,847	800,000	0,029	-0,064
-148,833	-144,996	0,098	0,006
-147,818	-183,232	0,082	0,001
-146,804	-180,755	0,113	-0,002
-145,789	-128,734	-0,032	0,003
-144,775	-174,549	-0,135	-0,003
-143,760	-200,000	0,008	-0,065
-142,745	561,714	0,053	-0,092
-141,731	588,241	0,067	0,119
-140,716	-200,000	-0,020	0,113
-139,702	800,000	0,042	-0,085
-138,687	146,163	0,058	0,055
-137,672	251,499	0,060	-0,072
-136,658	800,000	-0,026	-0,064
-135,643	-200,000	-0,004	-0,069
-134,629	800,000	-0,025	0,056
-133,614	451,851	0,034	0,054
-132,599	-200,000	0,004	0,141
-131,585	-76,300	0,047	-0,012
-130,570	-200,000	0,017	0,106
-129,556	-200,000	0,016	-0,111
-128,541	14,516	-0,132	-0,073
-127,526	65,079	0,091	-0,065
-126,512	539,387	-0,038	0,065
-125,497	800,000	0,010	0,020
-124,483	-200,000	0,018	0,061
-123,468	249,357	0,031	0,038
-122,453	-112,508	-0,183	0,026
-121,439	46,340	-0,171	0,112
-120,424	-104,394	-0,007	-0,001
-119,410	-80,910	-0,054	0,013
