DTS Sentinel unit serial number:	SN410029Multiplexer serial number:	ORYXHardware model number:	OX2-SRSoftware version number:	ORYX F/W v4,00 Oryx Data Collector v3.7.2.0data status	okinstallation	BH3 CH2differential loss correction	single-endedforward channel	channel 2reverse channel	N/Adate	2023/12/05time	22:42:28forward acquisition time	300,00reverse acquisition time	0,00gamma	499,1914k internal	0,3194k external	0,3194temperature offset calibration	1,0000default loss term (dB/km)	0,3820temperature slope calibration	1,0000multiplexer offset coefficient	1,0000multiplexer slope coefficient	1,0000fibre end	0,00T internal ref (°C)	9,87T ext. ref 1 (°C)	-5,22T ext. ref 2 (°C)	-5,31length (m)	temperature (°C)	Stokes	anti-Stokes-744,400	800,000	-0,104	-0,210
-743,385	207,878	-0,148	0,169
-742,371	194,245	0,037	0,041
-741,356	-48,180	-0,230	0,080
-740,342	-200,000	0,030	-0,151
-739,327	-80,884	-0,315	0,075
-738,312	800,000	-0,066	-0,178
-737,298	-91,069	-0,154	0,032
-736,283	-88,659	-0,056	0,012
-735,269	432,314	-0,158	0,251
-734,254	2,690	0,103	0,054
-733,239	-72,758	-0,502	-0,134
-732,225	253,881	0,082	-0,102
-731,210	33,084	0,157	0,099
-730,196	-161,945	-0,083	-0,003
-729,181	800,000	0,042	-0,090
-728,167	16,018	-0,063	-0,036
-727,152	-99,951	0,087	0,016
-726,137	29,891	-0,018	0,011
-725,123	-200,000	0,001	-0,120
-724,108	396,787	0,045	-0,069
-723,094	-200,000	-0,059	-0,224
-722,079	65,987	-0,141	-0,104
-721,064	-200,000	0,002	-0,040
-720,050	244,476	-0,090	-0,110
-719,035	-181,250	0,099	-0,001
-718,021	10,057	0,054	-0,030
-717,006	341,169	-0,141	-0,201
-715,991	8,357	-0,118	-0,064
-714,977	-200,000	0,009	-0,097
-713,962	-169,297	0,110	-0,003
-712,948	-44,557	-0,094	0,034
-711,933	-200,000	-0,004	0,135
-710,918	800,000	0,016	0,042
-709,904	800,000	-0,029	0,061
-708,889	402,873	-0,069	-0,107
-707,875	-85,828	0,025	0,006
-706,860	-155,189	0,081	-0,004
-705,845	583,273	-0,032	0,058
-704,831	-200,000	0,020	0,069
-703,816	176,006	-0,038	-0,040
-702,802	-92,386	0,016	-0,003
-701,787	127,043	-0,079	-0,073
-700,772	-128,279	-0,083	-0,009
-699,758	375,423	0,152	0,227
-698,743	-151,262	0,127	0,007
-697,729	562,132	0,051	0,090
-696,714	-43,518	0,037	0,014
-695,699	-33,089	-0,084	-0,034
-694,685	-200,000	0,010	-0,185
-693,670	800,000	-0,024	0,067
-692,656	-200,000	0,005	-0,157
-691,641	79,089	0,062	0,048
-690,627	800,000	0,006	0,016
-689,612	-132,726	-0,101	0,009
-688,597	421,109	-0,049	0,076
-687,583	-200,000	-0,013	-0,073
-686,568	421,901	-0,037	-0,058
-685,554	256,530	-0,063	-0,079
-684,539	659,769	0,014	0,026
-683,524	3,500	0,070	-0,037
-682,510	-4,978	0,139	-0,069
-681,495	-74,409	-0,089	0,023
-680,481	65,128	-0,086	-0,063
-679,466	-0,173	-0,097	-0,050
-678,451	22,928	-0,007	0,004
-677,437	234,067	-0,058	-0,070
-676,422	243,820	0,081	0,098
-675,408	-59,382	-0,057	0,018
-674,393	-72,348	-0,167	-0,045
-673,378	349,446	-0,051	-0,073
-672,364	-87,301	-0,180	0,039
-671,349	-93,579	0,056	0,011
-670,335	267,591	-0,008	0,010
-669,320	-105,253	0,049	-0,008
-668,305	-149,029	-0,079	0,005
-667,291	107,396	-0,091	-0,079
-666,276	72,375	-0,098	-0,074
-665,262	79,741	-0,130	-0,101
-664,247	-200,000	-0,200	0,000
-663,232	46,206	0,112	0,076
-662,218	-200,000	0,010	-0,097
-661,203	800,000	-0,010	0,023
-660,189	53,077	-0,088	-0,061
-659,174	185,499	-0,084	-0,091
-658,159	72,517	-0,075	-0,057
-657,145	125,003	0,064	0,059
-656,130	535,782	-0,051	0,088
-655,116	-200,000	-0,009	0,065
-654,101	-200,000	0,033	0,189
-653,086	111,298	-0,041	-0,036
-652,072	-200,000	-0,001	-0,009
-651,057	22,118	-0,139	0,082
-650,043	282,535	0,038	0,050
-649,028	113,076	-0,160	-0,141
-648,014	-154,243	-0,083	0,004
-646,999	-95,891	-0,130	0,025
-645,984	-53,909	0,127	-0,042
-644,970	-8,095	-0,052	0,025
-643,955	-113,157	-0,107	0,015
-642,941	-95,339	0,072	-0,014
-641,926	551,245	-0,058	0,102
-640,911	76,538	-0,047	-0,036
-639,897	-200,000	0,001	0,064
-638,882	151,316	-0,045	-0,044
-637,868	395,030	-0,038	-0,058
-636,853	-200,000	-0,016	-0,103
-635,838	-200,000	-0,006	-0,023
-634,824	197,568	-0,015	-0,017
-633,809	-200,000	0,018	0,101
-632,795	133,026	0,026	0,025
-631,780	-200,000	0,004	0,031
-630,765	-82,040	-0,166	0,039
-629,751	-200,000	0,005	-0,103
-628,736	-200,000	0,007	0,067
-627,722	800,000	0,045	0,107
-626,707	-37,637	-0,109	-0,042
-625,692	87,506	0,110	0,088
-624,678	162,620	-0,036	-0,037
-623,663	-200,000	-0,003	0,021
-622,649	137,044	0,069	-0,065
-621,634	-131,232	-0,149	-0,014
-620,619	-200,000	-0,005	-0,152
-619,605	-18,334	0,125	-0,057
-618,590	122,767	-0,053	0,048
-617,576	800,000	0,066	0,192
-616,561	-200,000	-0,016	-0,115
-615,546	-200,000	-0,004	-0,116
-614,532	219,628	-0,142	-0,165
-613,517	-40,609	-0,106	0,040
-612,503	-200,000	-0,001	-0,019
-611,488	19,835	0,003	-0,002
-610,474	-186,066	0,044	0,000
-609,459	102,131	0,028	0,024
-608,444	122,114	-0,045	0,041
-607,430	114,414	-0,111	-0,098
-606,415	96,025	0,044	-0,036
-605,401	-37,377	-0,038	-0,014
-604,386	-130,759	0,132	-0,013
-603,371	800,000	-0,059	0,170
-602,357	-200,000	0,040	0,160
-601,342	-116,192	-0,170	0,023
-600,328	-89,676	-0,031	-0,007
-599,313	-29,468	-0,083	-0,034
-598,298	227,885	-0,050	-0,059
-597,284	72,986	-0,098	0,074
-596,269	454,996	0,080	0,128
-595,255	71,471	-0,124	0,093
-594,240	40,067	-0,072	0,047
-593,225	20,031	-0,093	0,054
-592,211	-200,000	0,001	-0,031
-591,196	585,921	0,053	0,095
-590,182	98,913	-0,039	-0,033
-589,167	706,524	0,061	0,118
-588,152	6,707	-0,149	-0,080
-587,138	-173,407	0,066	0,001
-586,123	-115,479	0,049	-0,007
-585,109	-22,763	-0,012	0,005
-584,094	126,431	-0,103	0,094
-583,079	-32,789	0,027	-0,011
-582,065	800,000	-0,007	0,018
-581,050	57,268	0,037	-0,026
-580,036	-200,000	-0,002	-0,039
-579,021	86,744	-0,085	-0,068
-578,006	67,799	-0,091	0,067
-576,992	-54,727	-0,075	-0,024
-575,977	-126,445	-0,047	-0,005
-574,963	-200,000	0,000	-0,079
-573,948	103,524	0,106	0,090
-572,934	255,884	0,075	-0,093
-571,919	-97,525	-0,075	-0,014
-570,904	-200,000	0,015	-0,054
-569,890	800,000	-0,031	0,082
-568,875	-79,367	-0,043	-0,010
-567,861	-100,158	-0,150	0,027
-566,846	-200,000	-0,025	0,099
-565,831	70,755	0,134	0,101
-564,817	-200,000	-0,012	0,151
-563,802	305,011	-0,025	0,033
-562,788	-105,107	-0,040	0,006
-561,773	423,957	0,074	0,115
-560,758	-12,906	-0,095	-0,044
-559,744	354,395	0,096	0,139
-558,729	535,663	-0,033	0,057
-557,715	91,152	0,015	0,012
-556,700	-64,938	-0,187	-0,054
-555,685	-73,947	-0,032	0,008
-554,671	-200,000	-0,022	0,095
-553,656	800,000	0,035	0,101
-552,642	612,450	0,077	0,140
-551,627	85,975	-0,082	-0,065
-550,612	-131,183	-0,101	0,010
-549,598	-200,000	0,034	-0,136
-548,583	-200,000	0,056	-0,208
-547,569	16,539	-0,158	-0,090
-546,554	274,785	0,126	0,161
-545,539	-50,106	0,050	0,017
-544,525	-14,479	0,128	0,059
-543,510	11,128	-0,090	0,050
-542,496	-140,387	-0,054	0,004
-541,481	-200,000	-0,040	-0,129
-540,466	10,512	-0,099	-0,054
-539,452	-200,000	-0,007	0,097
-538,437	47,585	0,112	0,076
-537,423	-200,000	0,019	-0,097
-536,408	724,092	-0,035	0,068
-535,393	198,931	0,072	-0,080
-534,379	248,489	0,023	0,028
-533,364	158,156	0,042	-0,043
-532,350	800,000	-0,024	-0,053
-531,335	-167,077	-0,065	0,002
-530,321	-34,150	-0,077	0,030
-529,306	668,503	0,009	0,016
-528,291	115,926	-0,085	0,075
-527,277	168,816	0,013	0,013
-526,262	654,177	0,034	0,064
-525,248	800,000	-0,062	0,137
-524,233	113,257	0,111	0,097
-523,218	-200,000	0,012	0,064
-522,204	-200,000	0,010	0,091
-521,189	86,854	-0,077	0,061
-520,175	-26,586	-0,077	-0,032
-519,160	-200,000	0,017	0,103
-518,145	-42,290	-0,114	0,042
-517,131	800,000	0,046	0,099
-516,116	-200,000	-0,003	0,127
-515,102	-200,000	0,003	-0,090
-514,087	-200,000	-0,010	-0,185
-513,072	15,654	-0,033	0,019
-512,058	423,686	-0,032	-0,049
-511,043	800,000	0,033	0,101
-510,029	2,737	0,048	-0,025
-509,014	800,000	0,071	-0,172
-507,999	-92,090	-0,168	0,034
-506,985	-200,000	-0,015	0,056
-505,970	257,167	-0,076	-0,095
-504,956	139,450	0,025	0,024
-503,941	800,000	-0,053	-0,117
-502,926	-200,000	-0,037	0,134
-501,912	800,000	-0,048	0,115
-500,897	-200,000	-0,019	-0,102
-499,883	800,000	0,026	0,070
-498,868	800,000	-0,023	-0,075
-497,853	406,907	0,072	-0,111
-496,839	136,457	-0,075	0,071
-495,824	800,000	0,052	0,116
-494,810	-200,000	-0,019	-0,089
-493,795	-200,000	0,018	-0,103
-492,781	800,000	0,095	-0,246
-491,766	401,534	-0,021	-0,032
-490,751	82,553	-0,010	-0,008
-489,737	800,000	-0,038	-0,112
-488,722	-71,974	0,055	-0,015
-487,708	162,251	0,076	0,077
-486,693	200,741	0,041	0,045
-485,678	234,559	0,043	-0,051
-484,664	-125,835	0,136	-0,015
-483,649	166,684	-0,064	-0,066
-482,635	177,126	0,099	0,104
-481,620	-61,349	0,123	-0,037
-480,605	-84,488	-0,052	0,012
-479,591	466,995	-0,033	0,053
-478,576	147,704	-0,029	0,028
-477,562	800,000	-0,022	0,066
-476,547	619,446	-0,022	-0,040
-475,532	-105,787	-0,084	-0,014
-474,518	521,215	0,060	0,102
-473,503	-200,000	0,007	0,028
-472,489	-113,499	0,086	0,012
-471,474	5,563	0,046	-0,025
-470,459	113,958	-0,036	-0,031
-469,445	641,465	-0,031	0,057
-468,430	800,000	0,059	0,168
-467,416	568,589	-0,019	0,034
-466,401	247,419	0,062	0,076
-465,386	105,203	0,117	-0,099
-464,372	-128,130	-0,041	0,004
-463,357	-200,000	-0,034	-0,110
-462,343	-200,000	0,017	-0,109
-461,328	-42,650	0,177	-0,065
-460,313	194,478	0,055	0,060
-459,299	276,486	0,042	0,054
-458,284	72,186	0,096	0,072
-457,270	-31,752	-0,030	-0,012
-456,255	-10,233	-0,099	-0,047
-455,241	800,000	-0,029	-0,074
-454,226	-200,000	-0,014	-0,158
-453,211	800,000	0,029	-0,068
-452,197	-200,000	0,006	0,038
-451,182	800,000	0,029	-0,059
-450,168	550,556	0,048	0,083
-449,153	-200,000	-0,044	-0,193
-448,138	-200,000	0,001	0,028
-447,124	-66,426	-0,054	0,015
-446,109	10,219	-0,052	0,029
-445,095	653,496	-0,038	0,071
-444,080	-92,688	-0,123	-0,025
-443,065	-66,146	-0,026	0,007
-442,051	-8,641	-0,101	-0,048
-441,036	800,000	0,039	-0,085
-440,022	-39,982	0,050	-0,019
-439,007	317,546	-0,056	-0,076
-437,992	-200,000	-0,048	0,190
-436,978	30,994	0,005	-0,003
-435,963	339,622	0,029	0,041
-434,949	-20,140	0,110	-0,049
-433,934	90,874	-0,076	-0,061
-432,919	-32,581	0,152	-0,061
-431,905	-200,000	0,001	-0,037
-430,890	800,000	0,048	0,110
-429,876	65,927	-0,047	-0,035
-428,861	-156,648	0,061	-0,003
-427,846	355,792	0,022	-0,031
-426,832	-41,360	-0,131	0,048
-425,817	541,079	0,034	-0,058
-424,803	-200,000	0,015	-0,132
-423,788	-8,608	-0,015	0,007
-422,773	-200,000	-0,019	0,099
-421,759	23,353	0,023	0,013
-420,744	-200,000	-0,001	-0,040
-419,730	639,387	-0,075	-0,138
-418,715	-200,000	0,000	-0,015
-417,701	-96,730	-0,067	-0,013
-416,686	-132,278	-0,027	-0,002
-415,671	102,139	-0,191	0,161
-414,657	85,970	0,116	0,092
-413,642	-92,662	0,076	0,015
-412,628	85,041	-0,088	0,069
-411,613	-94,472	-0,101	0,020
-410,598	-152,145	-0,027	0,001
-409,584	-152,783	0,070	-0,004
-408,569	1,654	-0,021	0,011
-407,555	-164,012	0,138	-0,005
-406,540	1,944	-0,042	0,022
-405,525	292,201	-0,141	-0,186
-404,511	800,000	0,096	-0,286
-403,496	-28,843	-0,067	-0,028
-402,482	460,184	0,025	0,040
-401,467	80,800	0,040	0,031
-400,452	800,000	-0,038	-0,100
-399,438	-200,000	-0,000	0,101
-398,423	-67,582	-0,040	-0,011
-397,409	544,718	-0,035	0,061
-396,394	134,367	0,028	-0,026
-395,379	418,823	-0,074	0,114
-394,365	800,000	-0,042	0,100
-393,350	800,000	-0,054	0,121
-392,336	-200,000	0,034	-0,125
-391,321	-173,514	0,014	-0,000
-390,306	46,187	0,152	-0,101
-389,292	3,110	-0,013	-0,007
-388,277	-200,000	-0,034	-0,165
-387,263	-169,582	-0,050	-0,001
-386,248	82,643	0,122	0,095
-385,233	-200,000	-0,056	0,193
-384,219	-200,000	-0,011	0,105
-383,204	78,571	-0,100	-0,077
-382,190	-200,000	0,007	-0,147
-381,175	41,366	-0,089	0,058
-380,160	-200,000	0,005	0,024
-379,146	220,670	0,030	0,034
-378,131	298,514	-0,107	0,142
-377,117	-169,276	-0,059	0,002
-376,102	800,000	-0,053	0,114
-375,088	800,000	0,021	0,061
-374,073	-200,000	-0,014	0,063
-373,058	-105,147	0,112	-0,018
-372,044	-11,495	0,190	0,089
-371,029	-58,603	0,056	-0,017
-370,015	169,767	-0,036	-0,037
-369,000	-71,571	-0,017	0,005
-367,985	168,458	-0,015	-0,015
-366,971	-200,000	0,008	-0,029
-365,956	800,000	0,012	-0,032
-364,942	72,351	0,073	-0,055
-363,927	-57,488	0,204	0,064
-362,912	-68,436	-0,171	0,047
-361,898	-102,451	0,051	0,009
-360,883	-146,327	-0,063	0,004
-359,869	176,792	0,042	-0,044
-358,854	-137,986	0,169	-0,013
-357,839	-101,629	-0,127	-0,022
-356,825	406,015	0,062	-0,095
-355,810	-24,503	-0,088	0,038
-354,796	-200,000	0,014	0,101
-353,781	-200,000	0,000	0,049
-352,766	21,960	-0,075	0,044
-351,752	588,128	-0,023	-0,040
-350,737	-200,000	-0,005	0,091
-349,723	-200,000	-0,007	0,069
-348,708	-200,000	0,013	0,048
-347,693	800,000	-0,041	-0,127
-346,679	439,233	-0,060	-0,094
-345,664	344,345	0,030	-0,042
-344,650	-200,000	0,007	-0,086
-343,635	-18,164	0,068	-0,030
-342,620	-61,344	0,009	-0,003
-341,606	70,856	-0,124	0,092
-340,591	-9,119	-0,102	-0,049
-339,577	800,000	0,063	-0,127
-338,562	800,000	0,041	0,096
-337,548	-54,260	0,132	0,043
-336,533	-7,814	0,069	0,033
-335,518	156,954	-0,052	-0,051
-334,504	-36,621	0,122	0,047
-333,489	314,464	-0,118	0,160
-332,475	-25,765	-0,020	0,008
-331,460	191,102	-0,101	-0,109
-330,445	800,000	0,061	-0,130
-329,431	-200,000	-0,006	-0,113
-328,416	52,970	-0,034	-0,023
-327,402	145,422	0,023	0,022
-326,387	-56,708	-0,020	0,006
-325,372	-200,000	0,002	-0,059
-324,358	800,000	-0,017	-0,053
-323,343	-200,000	-0,006	-0,029
-322,329	589,244	0,037	-0,066
-321,314	396,452	0,060	0,090
-320,299	80,285	-0,096	0,074
-319,285	-123,175	0,010	-0,001
-318,270	-200,000	-0,011	-0,123
-317,256	364,313	-0,051	-0,074
-316,241	-22,812	0,041	0,018
-315,226	-52,103	-0,063	0,021
-314,212	-5,281	0,118	0,058
-313,197	-200,000	0,021	0,131
-312,183	-200,000	0,032	-0,103
-311,168	14,989	-0,066	-0,037
-310,153	800,000	-0,048	-0,138
-309,139	-174,980	-0,089	0,002
-308,124	800,000	0,049	-0,103
-307,110	800,000	0,031	-0,092
-306,095	-89,670	0,049	0,010
-305,080	-200,000	-0,033	-0,126
-304,066	800,000	0,020	0,057
-303,051	9,528	-0,135	-0,073
-302,037	-200,000	0,003	-0,157
-301,022	-88,588	-0,028	-0,006
-300,008	-51,820	-0,055	0,018
-298,993	465,144	0,045	0,073
-297,978	-8,133	-0,141	0,068
-296,964	73,288	-0,160	0,120
-295,949	-20,513	0,066	-0,029
-294,935	-200,000	-0,039	-0,128
-293,920	800,000	0,028	-0,076
-292,905	-191,941	-0,049	0,000
-291,891	100,385	0,109	-0,091
-290,876	-103,895	0,082	0,014
-289,862	17,477	-0,149	-0,085
-288,847	-26,851	0,035	-0,015
-287,832	-36,102	0,049	-0,019
-286,818	106,387	-0,006	0,005
-285,803	800,000	0,058	0,126
-284,789	-200,000	-0,030	0,156
-283,774	-38,582	0,148	0,056
-282,759	-200,000	0,017	-0,066
-281,745	404,671	-0,086	-0,131
-280,730	148,409	-0,055	-0,053
-279,716	-37,940	-0,057	0,022
-278,701	-200,000	-0,012	0,097
-277,686	729,088	-0,023	-0,045
-276,672	-200,000	0,050	0,183
-275,657	-22,291	0,054	-0,023
-274,643	-104,786	-0,111	-0,018
-273,628	-200,000	-0,018	0,087
-272,613	77,432	0,021	0,016
-271,599	336,545	0,043	-0,061
-270,584	-104,045	0,095	-0,016
-269,570	672,968	0,025	0,047
-268,555	164,779	0,069	-0,070
-267,540	54,447	-0,053	0,037
-266,526	-80,432	-0,110	0,026
-265,511	-169,550	-0,073	0,002
-264,497	-121,468	-0,084	-0,010
-263,482	-200,000	-0,012	-0,039
-262,467	-74,244	0,122	-0,031
-261,453	437,164	-0,015	0,024
-260,438	228,939	-0,062	-0,073
-259,424	551,870	-0,040	-0,069
-258,409	-13,312	0,158	0,073
-257,395	200,124	0,130	0,143
-256,380	111,414	0,135	0,116
-255,365	204,702	0,012	-0,013
-254,351	-200,000	-0,001	0,015
-253,336	61,625	-0,063	0,045
-252,322	299,304	0,075	0,099
-251,307	-200,000	0,020	-0,075
-250,292	-145,682	-0,064	0,004
-249,278	33,492	0,055	0,034
-248,263	-56,568	0,198	0,062
-247,249	800,000	-0,020	-0,041
-246,234	98,554	0,033	-0,027
-245,219	-200,000	0,018	-0,086
-244,205	105,250	-0,065	0,055
-243,190	14,754	0,058	-0,032
-242,176	-92,756	0,063	0,012
-241,161	-67,574	0,032	0,009
-240,146	-42,546	-0,023	-0,008
-239,132	417,841	-0,079	0,122
-238,117	504,293	-0,036	-0,059
-237,103	631,401	0,072	-0,131
-236,088	623,544	-0,005	-0,009
-235,073	88,512	0,119	-0,094
-234,059	-147,321	0,184	-0,011
-233,044	5,331	-0,109	0,057
-232,030	297,977	0,035	-0,046
-231,015	395,900	-0,061	-0,092
-230,000	-90,347	0,066	0,014
-228,986	-200,000	0,009	-0,127
-227,971	190,858	0,103	0,110
-226,957	780,568	0,026	0,051
-225,942	-137,204	0,073	0,006
-224,927	210,439	0,081	-0,091
-223,913	-161,720	0,099	-0,004
-222,898	-144,868	-0,066	0,004
-221,884	545,440	-0,046	-0,078
-220,869	-68,390	0,041	0,011
-219,855	213,641	-0,054	0,061
-218,840	-122,154	0,068	-0,008
-217,825	-200,000	0,005	0,066
-216,811	-137,782	-0,028	0,002
-215,796	-97,407	-0,045	0,008
-214,782	-101,663	0,144	-0,025
-213,767	800,000	-0,048	0,108
-212,752	-200,000	-0,002	-0,061
-211,738	-157,165	0,137	0,006
-210,723	315,808	-0,062	-0,084
-209,709	800,000	-0,035	-0,071
-208,694	800,000	-0,030	0,082
-207,679	-200,000	0,054	-0,230
-206,665	333,418	0,024	-0,033
-205,650	-171,164	-0,055	0,001
-204,636	319,314	0,035	0,047
-203,621	133,390	0,048	0,044
-202,606	-56,210	0,085	0,027
-201,592	109,660	-0,042	-0,036
-200,577	-63,127	0,096	-0,028
-199,563	-6,907	-0,028	-0,014
-198,548	-99,013	0,029	-0,005
-197,533	16,079	0,193	0,108
-196,519	-47,579	0,165	0,057
-195,504	215,714	-0,060	-0,069
-194,490	-36,178	-0,019	0,007
-193,475	-200,000	-0,007	-0,146
-192,460	-200,000	0,020	0,179
-191,446	-200,000	-0,007	0,077
-190,431	-200,000	0,010	-0,057
-189,417	-200,000	0,030	-0,101
-188,402	-200,000	-0,039	0,155
-187,387	429,706	0,057	0,088
-186,373	11,491	0,048	-0,026
-185,358	-200,000	0,002	0,077
-184,344	291,640	0,107	0,139
-183,329	110,456	0,032	0,027
-182,315	-78,231	0,080	-0,020
-181,300	18,403	-0,061	-0,035
-180,285	-200,000	-0,005	0,086
-179,271	235,459	-0,082	-0,097
-178,256	-67,610	0,037	-0,010
-177,242	202,505	0,041	-0,045
-176,227	226,167	0,068	0,079
-175,212	132,610	0,034	-0,031
-174,198	-50,456	0,037	0,012
-173,183	32,197	0,023	0,014
-172,169	257,461	0,042	-0,051
-171,154	484,270	0,028	0,046
-170,139	-22,385	0,111	0,048
-169,125	-200,000	-0,018	0,064
-168,110	-41,488	0,110	-0,040
-167,096	26,366	0,025	0,015
-166,081	20,843	0,070	-0,040
-165,066	800,000	-0,066	-0,164
-164,052	800,000	-0,052	-0,156
-163,037	464,699	0,037	0,059
-162,023	-200,000	-0,018	0,100
-161,008	-15,844	0,094	-0,042
-159,993	734,435	0,047	-0,090
-158,979	-200,000	0,045	-0,224
-157,964	594,563	-0,026	-0,047
-156,950	672,024	0,012	-0,022
-155,935	800,000	0,022	0,044
-154,920	-29,611	0,061	-0,025
-153,906	800,000	0,018	0,053
-152,891	224,968	-0,019	0,022
-151,877	46,310	-0,107	-0,070
-150,862	-13,952	-0,030	0,014
-149,847	56,737	0,063	-0,044
-148,833	317,470	-0,083	-0,113
-147,818	31,866	0,029	-0,018
-146,804	-10,872	-0,077	-0,036
-145,789	800,000	0,066	0,135
-144,775	-200,000	0,021	-0,077
-143,760	-90,579	-0,174	-0,036
-142,745	82,674	-0,091	-0,070
-141,731	145,700	-0,134	-0,128
-140,716	-118,231	-0,041	0,005
-139,702	-24,345	-0,070	-0,030
-138,687	266,754	0,057	-0,071
-137,672	-105,236	0,131	-0,021
-136,658	-63,244	-0,142	-0,041
-135,643	800,000	-0,076	-0,160
-134,629	205,989	-0,077	-0,085
-133,614	800,000	0,025	-0,065
-132,599	-0,119	0,164	0,083
-131,585	-200,000	-0,008	0,102
-130,570	-200,000	-0,002	0,028
-129,556	156,881	-0,008	0,008
-128,541	-149,230	-0,137	0,008
-127,526	-110,993	0,131	-0,019
-126,512	504,569	0,053	-0,088
-125,497	148,973	0,053	0,051
-124,483	-34,332	0,051	0,020
-123,468	101,973	-0,109	-0,091
-122,453	636,751	0,014	0,025
-121,439	31,143	0,090	-0,055
-120,424	230,687	-0,112	-0,131
-119,410	-200,000	-0,023	0,119
