DTS Sentinel unit serial number:	SN410029Multiplexer serial number:	ORYXHardware model number:	OX2-SRSoftware version number:	ORYX F/W v4,00 Oryx Data Collector v3.7.2.0data status	okinstallation	BH3 CH2differential loss correction	single-endedforward channel	channel 2reverse channel	N/Adate	2023/12/06time	08:02:28forward acquisition time	300,00reverse acquisition time	0,00gamma	499,1914k internal	0,3197k external	0,3197temperature offset calibration	1,0000default loss term (dB/km)	0,3820temperature slope calibration	1,0000multiplexer offset coefficient	1,0000multiplexer slope coefficient	1,0000fibre end	0,00T internal ref (°C)	8,78T ext. ref 1 (°C)	-5,88T ext. ref 2 (°C)	-5,99length (m)	temperature (°C)	Stokes	anti-Stokes-744,400	64,158	-0,123	-0,090
-743,385	206,610	-0,245	0,278
-742,371	-200,000	-0,004	-0,059
-741,356	62,996	-0,215	0,157
-740,342	-200,000	-0,044	-0,143
-739,327	800,000	-0,072	0,225
-738,312	-200,000	-0,041	-0,164
-737,298	-90,282	-0,246	-0,052
-736,283	-114,403	-0,125	-0,017
-735,269	119,429	-0,083	-0,075
-734,254	-6,007	0,035	0,017
-733,239	-81,674	-0,372	-0,088
-732,225	-32,406	-0,027	-0,011
-731,210	323,481	0,053	0,074
-730,196	-18,850	-0,030	-0,014
-729,181	220,225	-0,064	-0,075
-728,167	-105,912	-0,061	0,010
-727,152	-200,000	-0,024	-0,102
-726,137	461,193	-0,059	-0,096
-725,123	362,943	-0,025	-0,037
-724,108	-200,000	-0,006	0,063
-723,094	176,700	-0,128	0,136
-722,079	176,215	-0,068	-0,072
-721,064	-39,870	0,162	0,061
-720,050	71,185	0,062	-0,046
-719,035	-200,000	-0,006	0,031
-718,021	-27,390	-0,071	0,030
-717,006	800,000	-0,038	-0,088
-715,991	-200,000	0,030	-0,201
-714,977	-200,000	0,004	-0,184
-713,962	-55,721	0,145	-0,047
-712,948	-139,664	-0,104	0,008
-711,933	-29,400	0,102	-0,042
-710,918	32,819	-0,062	-0,039
-709,904	177,879	0,017	-0,018
-708,889	-200,000	0,023	-0,129
-707,875	711,331	-0,060	-0,116
-706,860	-102,063	-0,071	-0,012
-705,845	14,149	-0,035	-0,020
-704,831	231,064	-0,029	-0,034
-703,816	-200,000	-0,004	0,098
-702,802	800,000	0,048	0,115
-701,787	247,222	-0,074	-0,091
-700,772	-200,000	0,037	0,124
-699,758	573,183	-0,043	-0,077
-698,743	-200,000	0,092	0,000
-697,729	126,164	-0,034	-0,031
-696,714	-200,000	0,022	-0,073
-695,699	651,844	-0,030	-0,056
-694,685	370,011	0,036	-0,054
-693,670	-14,893	0,113	-0,052
-692,656	-76,684	0,077	0,020
-691,641	55,127	0,134	0,094
-690,627	330,236	0,054	0,076
-689,612	800,000	-0,046	0,116
-688,597	-166,526	-0,060	-0,002
-687,583	-200,000	0,046	-0,219
-686,568	-28,719	0,114	-0,048
-685,554	-94,989	-0,140	0,027
-684,539	405,229	0,052	-0,080
-683,524	-71,984	-0,048	-0,013
-682,510	-62,530	0,075	0,023
-681,495	26,385	0,079	0,048
-680,481	78,128	-0,094	-0,073
-679,466	-200,000	-0,022	-0,110
-678,451	798,049	-0,051	-0,102
-677,437	-70,158	0,075	0,021
-676,422	-59,670	0,102	-0,032
-675,408	148,413	-0,204	0,200
-674,393	140,722	-0,059	-0,056
-673,378	-200,000	-0,030	-0,180
-672,364	-200,000	0,006	-0,127
-671,349	-130,711	0,055	-0,005
-670,335	-200,000	-0,005	-0,031
-669,320	64,106	-0,077	-0,056
-668,305	-200,000	0,022	0,079
-667,291	-48,273	-0,084	-0,029
-666,276	-200,000	-0,022	0,072
-665,262	800,000	-0,031	-0,067
-664,247	364,236	0,009	0,013
-663,232	-200,000	0,027	0,158
-662,218	-53,572	-0,087	0,029
-661,203	68,141	0,104	0,077
-660,189	800,000	-0,070	-0,184
-659,174	7,443	-0,193	0,105
-658,159	-200,000	-0,008	0,041
-657,145	170,620	-0,079	-0,082
-656,130	-19,899	0,099	0,044
-655,116	23,882	0,024	-0,014
-654,101	-67,523	0,073	0,021
-653,086	-179,786	-0,120	-0,002
-652,072	-145,574	0,046	0,003
-651,057	-88,939	-0,153	-0,033
-650,043	-200,000	-0,016	-0,116
-649,028	-200,000	0,046	-0,189
-648,014	216,894	-0,095	0,109
-646,999	-200,000	-0,024	0,138
-645,984	8,808	-0,013	-0,007
-644,970	170,270	0,071	-0,073
-643,955	464,347	-0,060	-0,098
-642,941	-139,963	-0,059	-0,004
-641,926	-143,765	0,093	0,006
-640,911	-115,041	-0,113	-0,015
-639,897	-200,000	0,004	0,052
-638,882	-139,316	0,058	0,004
-637,868	28,573	0,065	0,040
-636,853	-148,403	-0,127	0,007
-635,838	-115,274	0,039	-0,005
-634,824	20,836	0,067	0,040
-633,809	-73,493	0,118	-0,031
-632,795	-114,095	0,123	0,017
-631,780	516,812	0,031	-0,052
-630,765	-30,597	-0,084	-0,034
-629,751	-200,000	0,008	-0,054
-628,736	-29,720	0,049	0,020
-627,722	-200,000	0,013	-0,056
-626,707	86,786	0,067	-0,053
-625,692	-28,221	-0,082	0,034
-624,678	-200,000	0,018	-0,063
-623,663	-62,466	-0,204	0,061
-622,649	-37,845	-0,107	-0,041
-621,634	-38,751	-0,101	-0,038
-620,619	270,863	-0,057	0,073
-619,605	236,834	0,104	0,125
-618,590	-89,727	-0,057	0,012
-617,576	-200,000	0,010	-0,093
-616,561	-179,343	-0,014	0,000
-615,546	654,893	-0,026	0,049
-614,532	-114,660	-0,187	-0,026
-613,517	800,000	-0,025	-0,075
-612,503	-64,059	0,134	0,040
-611,488	565,112	-0,051	0,090
-610,474	31,093	-0,014	-0,009
-609,459	118,009	0,094	0,084
-608,444	-200,000	-0,027	-0,122
-607,430	-151,792	-0,069	0,004
-606,415	134,685	0,035	-0,033
-605,401	181,074	0,056	-0,060
-604,386	-29,614	-0,055	0,023
-603,371	-140,810	0,131	-0,010
-602,357	423,687	0,051	0,079
-601,342	716,262	-0,060	0,115
-600,328	204,998	-0,029	-0,033
-599,313	-38,145	-0,190	-0,073
-598,298	-200,000	0,011	-0,109
-597,284	-42,996	0,160	0,059
-596,269	-200,000	0,011	0,157
-595,255	800,000	0,041	0,122
-594,240	-136,790	0,097	-0,008
-593,225	35,240	-0,112	-0,071
-592,211	92,424	-0,136	-0,111
-591,196	-190,456	0,133	0,001
-590,182	-200,000	-0,009	-0,031
-589,167	-200,000	-0,000	0,050
-588,152	22,049	-0,069	-0,041
-587,138	-200,000	0,023	-0,124
-586,123	-103,955	-0,124	0,021
-585,109	36,708	-0,109	-0,070
-584,094	-200,000	0,029	-0,198
-583,079	800,000	-0,041	0,098
-582,065	-5,596	0,064	-0,032
-581,050	-200,000	-0,002	-0,091
-580,036	800,000	0,064	0,167
-579,021	800,000	-0,018	-0,045
-578,006	789,273	0,037	0,073
-576,992	442,297	-0,020	-0,031
-575,977	52,804	0,054	0,037
-574,963	-103,987	-0,104	-0,017
-573,948	-76,868	0,036	0,009
-572,934	-103,442	-0,049	0,008
-571,919	-31,934	-0,116	-0,047
-570,904	312,519	0,055	-0,075
-569,890	-200,000	0,027	-0,146
-568,875	800,000	0,065	-0,134
-567,861	-103,677	-0,054	-0,009
-566,846	-200,000	0,002	0,150
-565,831	-200,000	-0,017	-0,086
-564,817	-12,955	-0,037	-0,017
-563,802	-200,000	0,035	-0,000
-562,788	-200,000	-0,002	0,121
-561,773	365,641	0,041	0,060
-560,758	37,652	0,085	-0,054
-559,744	572,640	-0,006	-0,010
-558,729	-103,994	0,149	-0,025
-557,715	-200,000	0,006	0,065
-556,700	-53,905	-0,173	0,057
-555,685	-48,413	-0,018	-0,006
-554,671	-200,000	0,023	0,095
-553,656	173,503	0,038	-0,040
-552,642	800,000	0,023	-0,067
-551,627	-200,000	-0,001	0,078
-550,612	36,057	-0,057	0,036
-549,598	312,515	-0,085	-0,116
-548,583	-200,000	0,028	-0,125
-547,569	-7,338	0,064	-0,031
-546,554	800,000	0,042	-0,121
-545,539	208,942	-0,075	-0,085
-544,525	64,861	0,033	0,024
-543,510	-12,055	-0,156	-0,074
-542,496	800,000	0,063	-0,159
-541,481	-200,000	-0,015	-0,066
-540,466	-143,340	-0,186	-0,013
-539,452	-16,998	0,124	0,056
-538,437	800,000	-0,074	0,164
-537,423	800,000	-0,018	-0,051
-536,408	-65,717	0,053	0,015
-535,393	45,851	-0,024	-0,016
-534,379	800,000	-0,022	-0,053
-533,364	-15,216	-0,055	0,025
-532,350	568,062	-0,068	0,120
-531,335	-95,297	0,098	-0,019
-530,321	-70,032	0,063	0,017
-529,306	-15,531	-0,095	-0,043
-528,291	671,486	-0,044	0,083
-527,277	-200,000	-0,026	-0,090
-526,262	800,000	-0,012	0,026
-525,248	-200,000	0,004	0,076
-524,233	633,038	-0,031	0,058
-523,218	-136,398	-0,044	0,004
-522,204	306,765	-0,043	-0,058
-521,189	800,000	-0,094	-0,191
-520,175	-200,000	-0,024	-0,169
-519,160	800,000	0,054	0,139
-518,145	-200,000	-0,029	-0,128
-517,131	-55,775	0,095	-0,030
-516,116	800,000	0,045	0,135
-515,102	540,142	0,034	0,059
-514,087	-70,874	-0,124	0,034
-513,072	-200,000	0,011	-0,138
-512,058	626,141	-0,080	-0,147
-511,043	346,862	-0,012	0,018
-510,029	172,210	0,098	0,101
-509,014	190,180	0,100	0,109
-507,999	-200,000	-0,007	0,118
-506,985	-200,000	0,000	-0,130
-505,970	-200,000	0,019	-0,066
-504,956	800,000	-0,065	-0,152
-503,941	-65,761	0,022	-0,006
-502,926	-200,000	-0,005	0,094
-501,912	-96,181	0,075	-0,014
-500,897	-200,000	-0,012	0,149
-499,883	800,000	-0,015	-0,041
-498,868	-200,000	0,005	-0,036
-497,853	-200,000	0,014	-0,085
-496,839	182,777	-0,092	-0,098
-495,824	113,190	0,134	0,117
-494,810	-91,375	0,067	0,014
-493,795	-200,000	0,023	0,098
-492,781	0,641	-0,109	-0,056
-491,766	-200,000	-0,027	-0,119
-490,751	276,813	0,068	-0,087
-489,737	21,933	-0,012	-0,007
-488,722	-200,000	0,028	0,090
-487,708	-66,305	0,122	-0,035
-486,693	800,000	-0,059	0,141
-485,678	-97,451	-0,028	0,005
-484,664	800,000	-0,036	-0,093
-483,649	-200,000	-0,010	-0,103
-482,635	485,096	-0,032	0,053
-481,620	800,000	0,039	-0,101
-480,605	-92,403	-0,033	-0,007
-479,591	-42,085	-0,082	-0,030
-478,576	-179,140	-0,069	-0,001
-477,562	-72,746	0,053	-0,014
-476,547	-200,000	0,022	-0,106
-475,532	-33,792	-0,109	-0,043
-474,518	800,000	0,023	0,054
-473,503	800,000	0,055	-0,115
-472,489	800,000	0,066	0,142
-471,474	-200,000	-0,017	-0,126
-470,459	800,000	0,031	-0,077
-469,445	-200,000	0,028	0,122
-468,430	456,109	-0,044	0,071
-467,416	85,343	0,040	0,032
-466,401	-200,000	0,012	0,079
-465,386	-48,661	-0,111	-0,038
-464,372	-148,200	-0,050	-0,003
-463,357	57,462	-0,092	-0,065
-462,343	486,808	-0,030	-0,050
-461,328	-125,385	-0,056	0,006
-460,313	273,408	0,104	-0,132
-459,299	-85,250	0,182	-0,041
-458,284	-200,000	-0,022	0,116
-457,270	-22,144	0,054	-0,024
-456,255	145,459	-0,041	0,040
-455,241	-25,390	-0,030	0,013
-454,226	101,528	-0,059	0,049
-453,211	-28,055	0,051	-0,021
-452,197	-200,000	0,005	0,137
-451,182	800,000	-0,036	0,091
-450,168	80,966	0,061	0,047
-449,153	124,671	-0,037	-0,033
-448,138	701,447	-0,101	-0,193
-447,124	-200,000	0,024	-0,173
-446,109	-103,926	0,034	0,006
-445,095	184,280	0,101	-0,108
-444,080	800,000	0,052	0,112
-443,065	-200,000	-0,007	0,143
-442,051	-200,000	0,042	0,143
-441,036	800,000	-0,023	-0,057
-440,022	12,382	-0,063	-0,035
-439,007	503,623	0,047	0,078
-437,992	407,589	-0,062	-0,094
-436,978	1,173	0,052	0,027
-435,963	756,408	0,054	0,106
-434,949	-200,000	0,000	-0,020
-433,934	-88,028	-0,113	-0,024
-432,919	44,583	-0,033	-0,022
-431,905	19,544	-0,045	0,026
-430,890	-81,095	0,155	0,037
-429,876	454,822	0,032	-0,051
-428,861	166,948	-0,015	0,016
-427,846	-66,394	-0,183	-0,052
-426,832	551,430	-0,025	-0,044
-425,817	81,646	0,106	-0,082
-424,803	-9,652	-0,054	0,026
-423,788	660,084	0,089	0,165
-422,773	800,000	0,053	-0,136
-421,759	136,659	-0,096	-0,091
-420,744	-200,000	-0,010	0,056
-419,730	-21,170	0,080	0,035
-418,715	-200,000	0,005	-0,131
-417,701	80,629	0,046	-0,036
-416,686	-23,772	0,136	0,058
-415,671	800,000	0,017	0,045
-414,657	-36,675	0,074	-0,028
-413,642	34,575	0,080	0,050
-412,628	386,046	-0,094	0,139
-411,613	579,941	0,076	0,135
-410,598	-200,000	-0,035	0,186
-409,584	279,065	0,044	-0,057
-408,569	-66,049	0,117	-0,033
-407,555	65,036	0,071	0,052
-406,540	655,103	0,053	0,098
-405,525	800,000	-0,032	-0,090
-404,511	-200,000	0,013	-0,093
-403,496	-128,033	0,102	0,010
-402,482	220,022	0,091	0,105
-401,467	800,000	0,012	0,025
-400,452	-200,000	0,002	-0,019
-399,438	-78,381	-0,173	-0,042
-398,423	-67,449	0,081	0,023
-397,409	-102,981	-0,056	0,009
-396,394	-129,551	0,106	-0,010
-395,379	233,622	-0,084	-0,099
-394,365	-147,287	0,161	-0,010
-393,350	-200,000	0,028	0,121
-392,336	-116,545	0,108	-0,014
-391,321	43,126	0,142	0,093
-390,306	-82,048	-0,220	-0,051
-389,292	11,664	-0,064	-0,035
-388,277	800,000	0,061	0,148
-387,263	800,000	-0,031	-0,089
-386,248	198,294	0,039	0,043
-385,233	-200,000	-0,039	0,195
-384,219	800,000	0,016	0,039
-383,204	68,753	-0,053	0,039
-382,190	-200,000	-0,023	-0,077
-381,175	-70,319	0,047	-0,013
-380,160	800,000	0,048	0,124
-379,146	-69,351	-0,184	0,050
-378,131	-200,000	-0,002	-0,033
-377,117	408,562	0,062	-0,094
-376,102	47,045	-0,060	-0,040
-375,088	511,772	0,027	-0,045
-374,073	-9,885	-0,075	0,036
-373,058	800,000	0,072	0,150
-372,044	69,132	-0,062	-0,046
-371,029	259,195	-0,049	0,061
-370,015	436,448	-0,041	-0,065
-369,000	-49,999	-0,193	-0,065
-367,985	93,888	0,014	-0,011
-366,971	115,764	0,085	0,075
-365,956	800,000	-0,020	0,062
-364,942	-200,000	-0,030	0,128
-363,927	-44,834	0,092	-0,033
-362,912	360,587	-0,093	0,135
-361,898	179,179	0,072	0,076
-360,883	-15,794	-0,075	0,034
-359,869	25,420	-0,111	-0,066
-358,854	-53,492	-0,018	0,006
-357,839	-6,616	-0,107	0,052
-356,825	65,655	0,051	-0,037
-355,810	86,215	0,052	-0,041
-354,796	26,805	-0,154	-0,092
-353,781	-91,581	0,106	0,022
-352,766	230,338	0,094	-0,110
-351,752	-30,074	0,067	0,027
-350,737	-12,567	0,113	-0,052
-349,723	-200,000	-0,030	-0,158
-348,708	98,403	0,024	-0,020
-347,693	115,759	0,089	0,078
-346,679	-56,638	-0,190	-0,060
-345,664	44,045	-0,025	0,017
-344,650	228,205	0,103	0,121
-343,635	-200,000	-0,007	-0,095
-342,620	22,753	0,083	-0,048
-341,606	-200,000	0,000	-0,005
-340,591	492,228	-0,048	-0,079
-339,577	800,000	-0,052	-0,109
-338,562	-18,865	0,039	0,017
-337,548	586,011	0,056	-0,099
-336,533	-80,609	0,073	0,017
-335,518	-107,650	0,134	0,021
-334,504	126,003	0,076	0,069
-333,489	57,865	-0,176	0,123
-332,475	-10,303	0,048	-0,023
-331,460	284,929	-0,092	-0,119
-330,445	-200,000	-0,041	0,155
-329,431	800,000	-0,017	0,044
-328,416	-32,204	0,112	0,045
-327,402	800,000	-0,023	-0,062
-326,387	495,231	-0,066	-0,109
-325,372	58,144	0,096	-0,067
-324,358	415,665	-0,093	0,143
-323,343	-142,614	0,084	-0,006
-322,329	8,910	-0,052	-0,028
-321,314	613,954	-0,024	0,042
-320,299	-200,000	-0,022	0,074
-319,285	-78,369	-0,055	0,013
-318,270	-75,242	0,095	0,024
-317,256	64,847	0,066	-0,048
-316,241	385,218	-0,053	0,078
-315,226	-31,900	0,041	-0,016
-314,212	-200,000	-0,007	-0,039
-313,197	-46,731	0,077	0,027
-312,183	-49,395	0,025	0,009
-311,168	800,000	-0,045	-0,099
-310,153	761,327	0,031	-0,061
-309,139	156,061	-0,053	0,052
-308,124	387,353	0,072	0,106
-307,110	39,176	0,068	0,043
-306,095	-47,397	0,093	0,032
-305,080	262,968	0,116	0,145
-304,066	-138,357	-0,076	-0,006
-303,051	-21,945	-0,079	-0,034
-302,037	-200,000	-0,010	-0,074
-301,022	-200,000	-0,002	0,071
-300,008	121,155	0,147	-0,131
-298,993	-91,125	-0,076	-0,016
-297,978	15,535	0,056	-0,031
-296,964	174,721	-0,006	-0,007
-295,949	-200,000	-0,004	0,138
-294,935	-63,541	-0,082	-0,024
-293,920	94,263	0,078	0,063
-292,905	492,026	0,086	0,142
-291,891	-200,000	0,004	0,044
-290,876	-98,375	0,082	-0,015
-289,862	-114,122	0,063	0,009
-288,847	-94,689	-0,091	0,018
-287,832	93,879	0,059	0,048
-286,818	-64,813	0,014	-0,004
-285,803	-200,000	0,004	-0,086
-284,789	-200,000	0,049	0,244
-283,774	22,016	0,091	0,053
-282,759	623,059	-0,036	-0,066
-281,745	130,973	0,115	-0,106
-280,730	760,056	0,063	0,123
-279,716	-200,000	-0,009	-0,090
-278,701	-200,000	0,004	0,105
-277,686	-186,461	0,022	-0,000
-276,672	-200,000	-0,005	0,061
-275,657	800,000	0,058	-0,122
-274,643	-60,620	-0,065	-0,020
-273,628	383,663	-0,055	-0,081
-272,613	-34,931	0,031	0,012
-271,599	160,598	0,039	-0,039
-270,584	-200,000	0,006	-0,097
-269,570	-165,633	-0,011	0,000
-268,555	-84,082	0,041	-0,009
-267,540	-200,000	-0,021	-0,084
-266,526	135,395	-0,117	-0,109
-265,511	96,453	0,013	-0,011
-264,497	745,442	-0,018	-0,035
-263,482	-200,000	0,001	-0,047
-262,467	59,691	-0,052	-0,036
-261,453	474,484	0,083	-0,134
-260,438	208,868	-0,041	0,045
-259,424	-200,000	-0,021	0,132
-258,409	48,039	0,052	0,034
-257,395	144,317	0,041	-0,039
-256,380	215,993	0,050	0,057
-255,365	-200,000	0,013	0,059
-254,351	-200,000	0,042	0,171
-253,336	-200,000	-0,004	0,033
-252,322	800,000	0,022	0,053
-251,307	642,924	0,048	0,088
-250,292	-200,000	-0,025	0,223
-249,278	62,412	-0,084	0,059
-248,263	800,000	0,012	0,030
-247,249	-200,000	0,003	0,027
-246,234	-200,000	-0,014	0,068
-245,219	800,000	0,019	0,053
-244,205	-46,525	0,035	0,012
-243,190	343,901	-0,038	0,053
-242,176	-167,288	0,067	0,002
-241,161	133,801	-0,032	0,030
-240,146	-35,233	-0,135	-0,052
-239,132	-128,921	0,121	0,012
-238,117	-200,000	-0,014	-0,063
-237,103	-200,000	0,008	-0,113
-236,088	-200,000	0,006	-0,050
-235,073	172,804	-0,106	0,109
-234,059	158,385	0,026	0,026
-233,044	26,503	0,114	0,068
-232,030	-67,381	-0,053	0,015
-231,015	800,000	-0,030	-0,076
-230,000	800,000	0,042	-0,092
-228,986	-0,642	0,053	0,027
-227,971	94,183	-0,037	-0,030
-226,957	621,907	-0,079	0,143
-225,942	50,842	0,114	0,077
-224,927	-200,000	0,019	0,100
-223,913	118,304	-0,012	-0,011
-222,898	-93,930	-0,098	-0,019
-221,884	346,048	0,063	-0,089
-220,869	-70,477	0,110	-0,029
-219,855	-60,871	-0,112	0,034
-218,840	5,278	0,054	0,028
-217,825	32,223	-0,067	0,041
-216,811	76,248	-0,045	-0,034
-215,796	-69,351	-0,053	0,015
-214,782	-200,000	-0,004	-0,091
-213,767	200,288	-0,057	0,062
-212,752	-200,000	-0,012	0,137
-211,738	-200,000	-0,000	0,058
-210,723	-0,563	-0,129	-0,065
-209,709	-15,837	-0,112	-0,050
-208,694	-200,000	0,046	0,000
-207,679	-56,290	-0,066	-0,021
-206,665	94,060	0,132	0,106
-205,650	800,000	-0,023	0,048
-204,636	447,680	-0,070	0,111
-203,621	-200,000	0,033	0,104
-202,606	-92,661	-0,062	0,012
-201,592	27,293	-0,098	0,058
-200,577	-7,415	0,129	0,062
-199,563	-48,320	0,149	0,051
-198,548	582,780	0,013	0,023
-197,533	-98,643	0,060	0,011
-196,519	800,000	-0,062	0,131
-195,504	-200,000	-0,004	-0,028
-194,490	-122,444	-0,097	0,011
-193,475	258,995	0,099	-0,122
-192,460	80,391	0,018	0,014
-191,446	-200,000	-0,034	0,162
-190,431	-200,000	0,039	-0,130
-189,417	800,000	-0,040	0,112
-188,402	-200,000	0,016	0,068
-187,387	-200,000	-0,004	0,031
-186,373	-27,323	-0,050	0,021
-185,358	10,398	0,130	-0,070
-184,344	57,516	-0,053	0,037
-183,329	302,749	0,056	-0,074
-182,315	522,198	-0,034	-0,058
-181,300	-109,270	-0,103	-0,015
-180,285	502,271	-0,072	-0,119
-179,271	464,538	-0,020	-0,031
-178,256	-200,000	-0,018	-0,158
-177,242	-37,143	0,109	0,042
-176,227	71,478	-0,070	-0,052
-175,212	800,000	-0,067	0,147
-174,198	191,392	0,105	-0,113
-173,183	-83,489	-0,193	-0,044
-172,169	-200,000	0,012	-0,128
-171,154	-200,000	-0,001	-0,236
-170,139	146,944	-0,063	0,060
-169,125	380,318	0,056	0,082
-168,110	800,000	-0,029	0,058
-167,096	-1,823	0,037	-0,018
-166,081	-200,000	0,035	-0,137
-165,066	149,045	-0,079	-0,077
-164,052	-160,094	0,065	-0,002
-163,037	335,664	-0,070	-0,097
-162,023	-112,878	0,091	0,013
-161,008	-86,273	-0,153	0,033
-159,993	-46,203	-0,061	-0,021
-158,979	-200,000	0,013	-0,101
-157,964	-185,821	0,083	0,001
-156,950	-200,000	-0,018	-0,129
-155,935	-200,000	-0,017	-0,063
-154,920	402,489	-0,068	-0,102
-153,906	142,309	0,058	0,055
-152,891	-70,622	-0,160	0,043
-151,877	-109,785	-0,047	-0,007
-150,862	117,700	-0,106	-0,093
-149,847	170,230	-0,026	-0,027
-148,833	159,909	0,067	-0,066
-147,818	-165,344	-0,074	0,002
-146,804	338,124	0,079	0,110
-145,789	225,155	-0,026	-0,030
-144,775	64,520	-0,086	0,061
-143,760	-200,000	-0,006	-0,149
-142,745	283,882	-0,086	-0,111
-141,731	-42,734	0,062	-0,022
-140,716	-110,097	-0,050	-0,007
-139,702	-170,029	0,157	-0,004
-138,687	-53,605	-0,092	0,030
-137,672	-127,492	-0,096	-0,010
-136,658	216,980	0,048	-0,054
-135,643	34,084	-0,092	0,057
-134,629	567,013	0,024	-0,041
-133,614	-200,000	-0,002	-0,111
-132,599	-200,000	-0,008	0,069
-131,585	108,848	-0,078	0,066
-130,570	800,000	0,038	-0,084
-129,556	15,904	-0,046	-0,026
-128,541	132,411	0,040	0,037
-127,526	800,000	0,010	0,029
-126,512	269,459	0,029	0,036
-125,497	-69,105	-0,055	0,015
-124,483	128,485	0,067	-0,061
-123,468	-171,638	-0,052	-0,001
-122,453	67,239	0,073	-0,053
-121,439	-200,000	0,018	-0,070
-120,424	-200,000	-0,024	0,082
