DTS Sentinel unit serial number:	SN410029Multiplexer serial number:	ORYXHardware model number:	OX2-SRSoftware version number:	ORYX F/W v4,00 Oryx Data Collector v3.7.2.0data status	okinstallation	BH3 CH2differential loss correction	single-endedforward channel	channel 2reverse channel	N/Adate	2023/12/06time	03:07:28forward acquisition time	300,00reverse acquisition time	0,00gamma	499,1914k internal	0,3197k external	0,3197temperature offset calibration	1,0000default loss term (dB/km)	0,3820temperature slope calibration	1,0000multiplexer offset coefficient	1,0000multiplexer slope coefficient	1,0000fibre end	0,00T internal ref (°C)	8,96T ext. ref 1 (°C)	-5,83T ext. ref 2 (°C)	-5,92length (m)	temperature (°C)	Stokes	anti-Stokes-744,400	-200,000	0,009	-0,078
-743,385	796,026	-0,122	0,246
-742,371	-200,000	0,026	-0,152
-741,356	76,485	-0,194	0,150
-740,342	-200,000	-0,010	-0,092
-739,327	-72,010	-0,187	-0,050
-738,312	-62,403	-0,082	-0,025
-737,298	-48,045	-0,288	0,101
-736,283	-9,600	-0,080	0,039
-735,269	67,518	-0,105	0,078
-734,254	29,375	-0,020	0,012
-733,239	-70,567	-0,364	-0,100
-732,225	-10,996	0,025	0,012
-731,210	557,678	0,094	0,166
-730,196	556,529	-0,086	-0,151
-729,181	-200,000	0,013	-0,068
-728,167	-200,000	-0,018	-0,091
-727,152	139,461	0,137	-0,131
-726,137	60,969	-0,032	0,023
-725,123	670,478	0,065	-0,123
-724,108	-81,880	-0,132	0,031
-723,094	-200,000	-0,015	-0,092
-722,079	300,878	-0,067	-0,091
-721,064	25,004	-0,153	0,092
-720,050	-100,342	0,078	-0,014
-719,035	30,718	-0,031	0,019
-718,021	16,249	0,061	0,035
-717,006	800,000	-0,052	-0,138
-715,991	-200,000	0,033	-0,144
-714,977	142,610	-0,054	-0,053
-713,962	419,512	-0,025	-0,038
-712,948	-40,545	0,065	0,025
-711,933	-75,417	-0,128	0,033
-710,918	194,777	0,045	0,050
-709,904	-200,000	-0,019	-0,108
-708,889	-200,000	-0,004	0,028
-707,875	-91,083	-0,072	-0,015
-706,860	-84,753	-0,152	0,034
-705,845	-10,409	0,073	0,035
-704,831	-88,154	0,104	-0,022
-703,816	-200,000	0,004	0,015
-702,802	337,556	-0,029	-0,041
-701,787	-200,000	0,046	-0,218
-700,772	-200,000	0,013	-0,080
-699,758	548,791	0,043	-0,075
-698,743	-135,799	0,170	-0,014
-697,729	-200,000	0,029	0,135
-696,714	-108,666	-0,125	-0,019
-695,699	150,120	-0,029	0,029
-694,685	-38,976	-0,062	0,024
-693,670	-200,000	-0,011	-0,037
-692,656	-133,941	-0,033	0,003
-691,641	560,596	0,039	-0,068
-690,627	-200,000	0,007	-0,119
-689,612	65,100	0,065	0,048
-688,597	34,952	0,091	-0,058
-687,583	203,260	-0,127	0,143
-686,568	-19,666	0,044	-0,020
-685,554	-200,000	-0,021	0,083
-684,539	24,190	-0,119	-0,071
-683,524	-200,000	-0,002	-0,086
-682,510	-167,133	-0,117	0,003
-681,495	35,973	-0,046	0,030
-680,481	40,866	-0,156	-0,102
-679,466	-200,000	0,029	-0,121
-678,451	-200,000	-0,002	0,155
-677,437	-52,702	-0,067	-0,022
-676,422	-50,486	0,023	0,008
-675,408	800,000	0,018	-0,056
-674,393	-172,979	0,100	0,002
-673,378	-200,000	0,008	0,056
-672,364	-200,000	0,009	-0,117
-671,349	181,992	-0,070	-0,075
-670,335	-154,256	0,111	0,005
-669,320	800,000	0,060	0,124
-668,305	800,000	0,047	0,113
-667,291	800,000	-0,024	0,077
-666,276	800,000	-0,027	0,087
-665,262	800,000	-0,080	-0,174
-664,247	-26,853	0,179	-0,076
-663,232	-200,000	0,014	0,075
-662,218	258,947	-0,009	-0,011
-661,203	156,128	-0,087	0,087
-660,189	177,642	0,119	0,126
-659,174	3,714	-0,105	0,055
-658,159	105,827	-0,058	0,050
-657,145	72,739	-0,096	-0,073
-656,130	109,467	-0,025	-0,022
-655,116	800,000	-0,049	-0,112
-654,101	259,687	-0,012	-0,015
-653,086	268,576	0,027	-0,035
-652,072	323,512	-0,034	0,048
-651,057	276,199	-0,042	-0,054
-650,043	135,076	-0,098	-0,093
-649,028	7,079	0,051	0,027
-648,014	800,000	-0,046	0,111
-646,999	-199,119	-0,052	-0,000
-645,984	-115,996	0,162	-0,022
-644,970	-200,000	0,005	-0,044
-643,955	242,139	-0,046	0,055
-642,941	800,000	-0,041	-0,108
-641,926	-164,218	0,031	0,001
-640,911	280,066	-0,104	-0,135
-639,897	333,551	0,071	0,100
-638,882	204,004	0,075	0,085
-637,868	769,700	-0,036	0,071
-636,853	391,920	-0,048	-0,073
-635,838	782,833	0,040	-0,079
-634,824	229,892	-0,093	-0,110
-633,809	-200,000	-0,002	0,134
-632,795	-71,647	0,183	0,049
-631,780	-87,245	0,088	0,019
-630,765	1,237	-0,010	0,005
-629,751	-158,964	0,009	0,000
-628,736	-0,446	-0,049	-0,025
-627,722	-97,973	0,097	0,018
-626,707	-54,072	0,017	0,006
-625,692	66,678	0,125	0,092
-624,678	91,593	0,023	-0,019
-623,663	-59,358	0,075	-0,023
-622,649	-200,000	-0,011	-0,040
-621,634	659,894	-0,040	-0,076
-620,619	280,142	-0,091	-0,119
-619,605	196,588	-0,049	0,054
-618,590	49,927	-0,082	0,056
-617,576	-77,222	0,134	-0,033
-616,561	-62,873	0,009	0,003
-615,546	44,715	0,037	-0,025
-614,532	258,653	-0,052	-0,065
-613,517	485,419	-0,101	0,167
-612,503	120,211	0,087	0,078
-611,488	-85,418	0,077	-0,017
-610,474	800,000	0,011	0,033
-609,459	-110,153	0,116	-0,017
-608,444	-200,000	0,007	-0,077
-607,430	9,152	0,046	0,025
-606,415	80,228	-0,157	-0,122
-605,401	662,558	0,052	-0,097
-604,386	-200,000	-0,031	-0,117
-603,371	7,867	0,117	0,063
-602,357	-200,000	0,010	-0,046
-601,342	100,043	0,054	0,045
-600,328	325,413	-0,018	-0,025
-599,313	236,962	0,045	-0,054
-598,298	-200,000	0,021	-0,100
-597,284	800,000	-0,058	-0,168
-596,269	-200,000	-0,017	0,090
-595,255	800,000	0,059	0,149
-594,240	-129,943	-0,194	-0,019
-593,225	-68,112	-0,043	0,012
-592,211	-147,332	0,097	0,006
-591,196	-147,916	0,134	-0,008
-590,182	-133,465	0,065	-0,006
-589,167	800,000	0,016	0,048
-588,152	609,271	-0,026	0,047
-587,138	-200,000	-0,004	0,021
-586,123	-200,000	-0,021	0,124
-585,109	220,181	-0,082	-0,095
-584,094	800,000	-0,015	-0,038
-583,079	-53,364	-0,109	0,036
-582,065	78,935	0,139	0,108
-581,050	800,000	-0,038	-0,091
-580,036	91,956	-0,099	-0,080
-579,021	28,437	-0,006	-0,004
-578,006	29,001	0,047	-0,029
-576,992	-200,000	0,025	0,129
-575,977	147,262	0,038	0,037
-574,963	87,869	-0,058	0,047
-573,948	-200,000	-0,009	-0,043
-572,934	516,141	0,050	0,086
-571,919	800,000	-0,024	-0,056
-570,904	-83,668	-0,034	-0,008
-569,890	524,453	0,073	-0,125
-568,875	445,047	-0,030	0,048
-567,861	220,897	-0,011	-0,013
-566,846	267,482	-0,101	0,128
-565,831	740,388	-0,050	-0,098
-564,817	-200,000	0,004	-0,040
-563,802	800,000	-0,037	0,093
-562,788	617,738	-0,072	-0,131
-561,773	151,787	-0,070	-0,069
-560,758	34,799	-0,085	0,054
-559,744	286,684	0,062	0,081
-558,729	-200,000	0,008	-0,054
-557,715	216,852	-0,080	0,092
-556,700	122,196	-0,103	0,093
-555,685	-200,000	0,022	-0,157
-554,671	770,766	-0,047	0,092
-553,656	596,796	0,020	0,036
-552,642	19,631	-0,076	0,044
-551,627	-200,000	-0,005	0,042
-550,612	-41,796	0,106	-0,039
-549,598	-123,262	-0,106	0,012
-548,583	167,955	-0,067	0,069
-547,569	-200,000	-0,048	0,158
-546,554	-200,000	0,026	-0,151
-545,539	-200,000	0,032	-0,115
-544,525	-200,000	-0,003	0,022
-543,510	-200,000	0,020	-0,101
-542,496	22,436	-0,079	-0,047
-541,481	101,495	-0,033	-0,028
-540,466	-128,902	-0,024	-0,002
-539,452	-18,503	0,172	0,077
-538,437	-43,766	0,107	-0,039
-537,423	800,000	-0,054	0,126
-536,408	800,000	0,029	0,069
-535,393	50,216	0,120	-0,081
-534,379	-200,000	-0,030	-0,122
-533,364	-200,000	-0,010	-0,045
-532,350	-123,776	0,116	0,013
-531,335	-200,000	-0,016	0,077
-530,321	-117,973	-0,055	-0,007
-529,306	38,446	-0,084	0,054
-528,291	301,736	-0,045	0,061
-527,277	-181,451	-0,111	0,002
-526,262	140,453	0,075	0,071
-525,248	-25,498	-0,035	-0,015
-524,233	192,201	0,052	0,057
-523,218	33,111	-0,072	-0,045
-522,204	-51,369	-0,075	0,025
-521,189	238,958	-0,074	-0,089
-520,175	445,065	0,034	-0,054
-519,160	238,813	-0,089	-0,107
-518,145	393,926	0,105	-0,159
-517,131	44,318	0,068	-0,045
-516,116	530,936	-0,058	0,099
-515,102	-200,000	0,017	0,083
-514,087	-74,840	-0,131	0,034
-513,072	-200,000	0,002	0,029
-512,058	82,307	-0,067	0,053
-511,043	75,414	-0,104	0,079
-510,029	-200,000	-0,024	0,184
-509,014	148,910	0,034	-0,033
-507,999	-140,304	0,036	-0,003
-506,985	800,000	0,031	-0,091
-505,970	800,000	-0,019	0,059
-504,956	303,093	0,057	-0,076
-503,941	-200,000	0,014	0,060
-502,926	545,588	-0,029	-0,050
-501,912	34,527	0,122	-0,077
-500,897	277,000	0,045	-0,057
-499,883	167,562	-0,067	-0,069
-498,868	-73,522	-0,128	-0,034
-497,853	742,398	0,063	-0,123
-496,839	142,740	-0,120	-0,115
-495,824	-200,000	0,016	-0,095
-494,810	800,000	0,022	0,057
-493,795	481,127	-0,067	-0,111
-492,781	-200,000	0,001	-0,167
-491,766	-64,047	-0,116	0,034
-490,751	154,074	0,056	-0,055
-489,737	280,534	-0,011	0,014
-488,722	-91,847	-0,101	0,021
-487,708	-200,000	-0,032	-0,128
-486,693	591,089	0,011	-0,020
-485,678	-200,000	0,030	0,120
-484,664	24,875	-0,113	-0,068
-483,649	167,586	0,012	0,012
-482,635	-85,525	0,014	0,003
-481,620	-132,286	0,083	0,008
-480,605	-170,378	0,069	-0,002
-479,591	20,406	0,133	-0,077
-478,576	57,938	0,126	0,089
-477,562	800,000	-0,064	-0,148
-476,547	544,257	-0,040	-0,069
-475,532	-48,804	-0,036	-0,012
-474,518	111,737	-0,106	0,092
-473,503	-174,494	0,050	0,001
-472,489	60,810	0,090	-0,064
-471,474	2,254	-0,099	0,052
-470,459	6,505	-0,016	-0,008
-469,445	-45,677	-0,137	0,048
-468,430	596,747	0,010	0,019
-467,416	137,656	-0,067	-0,063
-466,401	12,484	0,040	0,022
-465,386	-110,507	-0,097	-0,014
-464,372	55,976	0,042	-0,029
-463,357	800,000	-0,068	-0,180
-462,343	-70,704	-0,084	-0,023
-461,328	800,000	0,024	0,052
-460,313	-200,000	0,003	-0,121
-459,299	-146,967	-0,056	0,003
-458,284	-46,027	0,112	-0,039
-457,270	66,122	0,089	0,065
-456,255	442,685	-0,023	-0,036
-455,241	-79,830	-0,076	-0,018
-454,226	-87,002	-0,062	0,013
-453,211	95,175	-0,040	0,033
-452,197	201,294	0,054	0,060
-451,182	-200,000	-0,001	-0,039
-450,168	-200,000	-0,013	0,102
-449,153	85,896	0,111	-0,088
-448,138	41,939	-0,129	-0,084
-447,124	61,951	-0,058	-0,041
-446,109	114,189	-0,081	0,071
-445,095	-120,514	0,022	-0,003
-444,080	245,781	-0,041	-0,050
-443,065	458,818	0,023	-0,037
-442,051	-14,751	0,156	-0,072
-441,036	281,515	-0,091	-0,117
-440,022	-200,000	-0,005	-0,055
-439,007	607,965	0,072	0,130
-437,992	-200,000	0,019	0,115
-436,978	800,000	-0,023	-0,050
-435,963	162,419	-0,055	-0,056
-434,949	-113,339	0,187	0,026
-433,934	70,504	-0,166	-0,123
-432,919	800,000	0,053	-0,117
-431,905	303,631	0,019	0,025
-430,890	107,849	-0,048	-0,041
-429,876	61,436	0,088	0,063
-428,861	-200,000	-0,020	0,119
-427,846	102,133	0,057	0,048
-426,832	800,000	0,028	0,084
-425,817	-200,000	-0,001	0,066
-424,803	355,989	-0,015	0,021
-423,788	-9,811	0,204	0,097
-422,773	-46,017	0,099	-0,035
-421,759	-43,760	0,130	0,047
-420,744	-32,326	-0,075	-0,030
-419,730	-200,000	-0,013	0,061
-418,715	-119,592	-0,079	-0,010
-417,701	800,000	-0,044	0,112
-416,686	-200,000	-0,014	0,067
-415,671	426,860	0,037	-0,057
-414,657	-166,937	-0,174	-0,005
-413,642	800,000	0,081	-0,174
-412,628	441,170	-0,084	-0,132
-411,613	800,000	0,028	-0,062
-410,598	-46,038	-0,046	-0,016
-409,584	-200,000	0,038	0,154
-408,569	-200,000	0,009	0,039
-407,555	-200,000	-0,009	0,108
-406,540	-55,084	0,059	0,019
-405,525	-200,000	-0,010	0,096
-404,511	-200,000	-0,026	-0,124
-403,496	33,216	0,060	0,037
-402,482	203,943	0,083	0,092
-401,467	-53,323	0,183	-0,060
-400,452	200,754	-0,032	-0,035
-399,438	262,865	0,089	0,111
-398,423	800,000	0,035	0,105
-397,409	179,510	0,054	-0,057
-396,394	-200,000	-0,017	-0,095
-395,379	439,037	0,083	0,130
-394,365	800,000	-0,052	0,118
-393,350	-115,018	0,113	-0,015
-392,336	-200,000	-0,027	-0,088
-391,321	365,858	0,056	0,082
-390,306	231,796	0,058	0,068
-389,292	800,000	0,029	-0,092
-388,277	715,925	0,104	0,199
-387,263	-128,253	0,075	-0,008
-386,248	-94,594	-0,136	0,026
-385,233	474,081	0,057	0,093
-384,219	582,402	-0,044	-0,078
-383,204	-200,000	-0,026	-0,126
-382,190	-18,971	-0,106	-0,047
-381,175	-23,266	-0,070	-0,030
-380,160	8,284	0,082	-0,044
-379,146	397,571	0,110	0,165
-378,131	98,501	0,120	0,099
-377,117	-5,047	0,041	0,020
-376,102	-8,822	-0,114	0,055
-375,088	539,163	-0,060	-0,103
-374,073	72,656	0,036	-0,027
-373,058	-136,141	-0,072	0,006
-372,044	203,193	-0,019	0,021
-371,029	-200,000	-0,025	-0,080
-370,015	800,000	-0,037	-0,083
-369,000	436,137	-0,034	-0,053
-367,985	-18,368	-0,091	0,041
-366,971	670,607	0,077	-0,145
-365,956	40,447	0,087	0,056
-364,942	487,314	0,053	0,087
-363,927	-108,213	-0,040	0,006
-362,912	613,438	-0,005	0,009
-361,898	188,889	0,034	0,037
-360,883	-12,605	-0,055	-0,025
-359,869	259,359	0,043	0,053
-358,854	-42,504	0,101	0,037
-357,839	500,371	0,074	0,124
-356,825	50,705	0,083	0,057
-355,810	578,899	-0,044	-0,078
-354,796	722,080	0,039	-0,074
-353,781	96,550	-0,100	-0,082
-352,766	-123,782	-0,132	-0,015
-351,752	7,687	0,059	-0,032
-350,737	800,000	0,075	0,173
-349,723	-116,405	-0,067	0,009
-348,708	-82,733	0,065	-0,015
-347,693	800,000	-0,002	0,005
-346,679	800,000	0,018	-0,048
-345,664	800,000	0,011	0,030
-344,650	-200,000	-0,020	0,069
-343,635	369,144	-0,029	-0,042
-342,620	800,000	-0,036	0,090
-341,606	308,628	0,100	0,135
-340,591	-69,345	-0,140	0,038
-339,577	-32,098	-0,161	0,064
-338,562	74,639	0,063	-0,047
-337,548	57,072	-0,141	-0,098
-336,533	-154,882	0,131	0,006
-335,518	-3,358	0,078	0,039
-334,504	71,394	0,073	0,054
-333,489	-23,633	-0,142	-0,061
-332,475	-88,467	-0,020	-0,004
-331,460	-118,925	-0,014	-0,002
-330,445	22,032	-0,072	0,042
-329,431	406,403	-0,015	-0,023
-328,416	-200,000	0,016	0,066
-327,402	-71,864	-0,086	0,023
-326,387	69,830	0,009	0,006
-325,372	-200,000	0,000	0,091
-324,358	-141,687	-0,114	0,008
-323,343	94,927	0,035	0,028
-322,329	266,542	0,047	-0,059
-321,314	-200,000	0,017	0,056
-320,299	200,748	0,108	0,119
-319,285	-76,253	-0,045	-0,011
-318,270	-200,000	0,014	0,112
-317,256	165,292	-0,128	0,130
-316,241	114,729	-0,099	-0,087
-315,226	-200,000	-0,031	-0,127
-314,212	-78,259	-0,068	0,017
-313,197	-200,000	0,014	0,068
-312,183	800,000	-0,013	0,028
-311,168	345,378	0,068	-0,096
-310,153	87,688	0,098	-0,077
-309,139	-160,048	0,035	-0,001
-308,124	120,529	0,048	0,043
-307,110	273,989	0,040	-0,050
-306,095	166,140	0,064	-0,065
-305,080	17,149	0,042	-0,024
-304,066	271,346	0,103	-0,130
-303,051	-6,322	-0,090	-0,044
-302,037	186,809	-0,080	-0,085
-301,022	521,494	0,040	-0,068
-300,008	-200,000	-0,034	-0,166
-298,993	800,000	0,030	-0,064
-297,978	480,614	0,015	0,024
-296,964	800,000	-0,012	0,034
-295,949	-37,262	-0,053	0,020
-294,935	-134,570	-0,031	-0,003
-293,920	800,000	0,012	0,038
-292,905	321,505	-0,036	0,049
-291,891	800,000	0,025	-0,070
-290,876	-44,404	0,050	-0,018
-289,862	226,526	-0,053	-0,062
-288,847	-113,999	0,067	-0,009
-287,832	67,160	-0,161	0,117
-286,818	-98,588	-0,102	-0,019
-285,803	107,918	0,037	0,031
-284,789	760,256	0,018	0,036
-283,774	800,000	-0,050	0,127
-282,759	161,211	-0,039	-0,039
-281,745	-83,155	-0,192	0,044
-280,730	-80,066	0,166	0,039
-279,716	141,843	-0,060	0,056
-278,701	75,706	0,070	-0,053
-277,686	-21,502	0,126	0,055
-276,672	-97,977	-0,030	-0,006
-275,657	90,077	0,031	0,025
-274,643	-58,255	-0,026	0,008
-273,628	363,232	0,071	0,102
-272,613	-119,009	0,011	-0,001
-271,599	311,368	0,066	0,088
-270,584	42,609	-0,097	0,063
-269,570	-28,479	0,031	0,013
-268,555	-200,000	0,005	-0,109
-267,540	800,000	0,055	-0,154
-266,526	-200,000	0,001	-0,040
-265,511	2,256	-0,161	-0,083
-264,497	74,228	-0,065	0,049
-263,482	-40,107	0,117	-0,043
-262,467	-14,269	0,134	0,062
-261,453	59,657	-0,125	0,088
-260,438	-131,749	-0,078	-0,007
-259,424	-200,000	-0,004	-0,023
-258,409	446,892	0,080	-0,126
-257,395	1,003	-0,105	-0,054
-256,380	101,136	0,070	0,059
-255,365	74,571	0,026	-0,020
-254,351	53,107	-0,035	-0,024
-253,336	94,861	-0,104	0,085
-252,322	304,050	0,046	-0,062
-251,307	-200,000	-0,004	-0,019
-250,292	-37,463	0,097	-0,037
-249,278	158,251	-0,062	-0,062
-248,263	800,000	-0,081	0,173
-247,249	-54,933	-0,082	0,026
-246,234	-83,529	0,086	-0,019
-245,219	62,548	-0,080	-0,057
-244,205	-200,000	0,010	0,092
-243,190	-200,000	-0,004	-0,022
-242,176	368,209	0,032	-0,046
-241,161	-150,223	-0,016	0,001
-240,146	-200,000	-0,005	-0,038
-239,132	-200,000	-0,003	-0,045
-238,117	-31,800	-0,023	0,009
-237,103	471,254	-0,050	0,081
-236,088	662,574	0,077	-0,142
-235,073	602,945	0,029	-0,051
-234,059	-40,590	0,060	0,022
-233,044	149,819	0,119	0,115
-232,030	-124,878	-0,174	0,019
-231,015	77,869	0,102	0,078
-230,000	487,058	0,025	-0,040
-228,986	21,088	-0,110	0,064
-227,971	-95,342	0,113	0,022
-226,957	-200,000	-0,013	0,103
-225,942	-34,656	-0,135	-0,052
-224,927	-103,674	0,054	0,009
-223,913	-200,000	-0,005	-0,043
-222,898	43,305	-0,094	-0,061
-221,884	-137,930	0,128	0,010
-220,869	102,586	0,078	0,065
-219,855	-200,000	-0,026	-0,118
-218,840	-72,445	-0,060	-0,016
-217,825	-200,000	-0,022	0,150
-216,811	-200,000	0,013	0,076
-215,796	-128,557	0,075	-0,008
-214,782	-51,641	0,050	0,017
-213,767	-56,282	-0,047	-0,015
-212,752	132,077	0,076	0,070
-211,738	-124,975	0,070	0,008
-210,723	-200,000	-0,006	-0,068
-209,709	-200,000	-0,008	-0,041
-208,694	-127,541	-0,076	0,008
-207,679	-200,000	-0,030	0,000
-206,665	-33,439	0,103	0,040
-205,650	673,734	-0,016	-0,030
-204,636	-200,000	-0,025	0,132
-203,621	-200,000	0,013	-0,076
-202,606	-200,000	0,040	0,163
-201,592	-200,000	-0,011	0,040
-200,577	110,054	0,062	-0,053
-199,563	-200,000	-0,024	-0,115
-198,548	-200,000	-0,022	0,148
-197,533	-56,373	-0,209	-0,066
-196,519	66,038	-0,024	-0,018
-195,504	236,005	-0,101	0,119
-194,490	78,160	0,067	-0,051
-193,475	-200,000	-0,001	-0,058
-192,460	46,292	0,074	0,048
-191,446	-200,000	0,001	0,087
-190,431	28,485	0,128	0,077
-189,417	214,041	0,068	-0,076
-188,402	-200,000	0,022	-0,150
-187,387	-200,000	-0,039	-0,131
-186,373	18,206	-0,037	-0,021
-185,358	182,103	0,049	0,051
-184,344	800,000	0,029	-0,062
-183,329	800,000	0,021	-0,054
-182,315	-200,000	0,019	0,080
-181,300	529,809	0,025	-0,043
-180,285	3,652	-0,070	0,037
-179,271	-50,999	-0,045	0,015
-178,256	-200,000	0,006	-0,027
-177,242	-72,130	0,059	0,015
-176,227	-200,000	0,008	0,070
-175,212	32,128	0,064	0,039
-174,198	-51,586	-0,137	0,045
-173,183	-97,552	0,116	-0,021
-172,169	-3,843	-0,023	-0,011
-171,154	-74,700	0,136	-0,035
-170,139	279,639	-0,077	-0,098
-169,125	-200,000	0,027	-0,099
-168,110	-79,521	0,074	-0,018
-167,096	800,000	-0,062	-0,143
-166,081	-68,839	0,007	-0,002
-165,066	800,000	0,031	-0,080
-164,052	600,602	0,085	-0,150
-163,037	800,000	0,027	-0,055
-162,023	800,000	-0,040	0,093
-161,008	148,520	0,100	0,096
-159,993	162,263	-0,043	0,043
-158,979	-200,000	0,001	0,020
-157,964	20,769	-0,130	-0,074
-156,950	800,000	0,063	0,185
-155,935	717,804	0,061	0,116
-154,920	461,505	-0,095	0,151
-153,906	300,322	-0,056	0,074
-152,891	-92,986	-0,029	-0,006
-151,877	-44,399	-0,104	0,037
-150,862	18,482	-0,027	-0,015
-149,847	-200,000	-0,033	-0,108
-148,833	48,328	-0,029	0,019
-147,818	-129,622	0,103	-0,010
-146,804	-56,358	-0,064	0,020
-145,789	-62,601	0,059	-0,017
-144,775	-75,507	-0,072	0,018
-143,760	800,000	0,088	-0,191
-142,745	800,000	-0,072	-0,149
-141,731	-200,000	-0,023	-0,187
-140,716	-200,000	0,048	0,182
-139,702	800,000	0,048	0,118
-138,687	735,185	-0,003	-0,005
-137,672	-200,000	0,022	-0,071
-136,658	88,709	0,187	-0,148
-135,643	28,812	0,071	-0,043
-134,629	46,883	-0,018	0,012
-133,614	158,687	0,073	0,072
-132,599	800,000	0,061	0,131
-131,585	-173,812	0,032	0,001
-130,570	800,000	-0,021	0,051
-129,556	-88,455	0,039	0,008
-128,541	-200,000	0,017	0,067
-127,526	-114,306	-0,042	-0,006
-126,512	3,796	0,138	-0,071
-125,497	-73,911	0,157	-0,040
-124,483	339,801	-0,055	-0,076
-123,468	291,721	0,058	-0,076
-122,453	-200,000	-0,019	-0,159
-121,439	-200,000	-0,007	-0,120
-120,424	-200,000	0,001	0,115
-119,410	43,853	-0,099	0,065
-118,395	800,000	-0,039	0,112
