DTS Sentinel unit serial number:	SN410029Multiplexer serial number:	ORYXHardware model number:	OX2-SRSoftware version number:	ORYX F/W v4,00 Oryx Data Collector v3.7.2.0data status	okinstallation	BH3 CH2differential loss correction	single-endedforward channel	channel 2reverse channel	N/Adate	2023/12/05time	11:12:28forward acquisition time	300,00reverse acquisition time	0,00gamma	499,1914k internal	0,3196k external	0,3196temperature offset calibration	1,0000default loss term (dB/km)	0,3820temperature slope calibration	1,0000multiplexer offset coefficient	1,0000multiplexer slope coefficient	1,0000fibre end	0,00T internal ref (°C)	9,69T ext. ref 1 (°C)	-5,13T ext. ref 2 (°C)	-5,23length (m)	temperature (°C)	Stokes	anti-Stokes-744,400	-200,000	0,045	-0,168
-743,385	146,861	-0,227	0,222
-742,371	-200,000	0,006	-0,147
-741,356	-129,992	-0,134	0,013
-740,342	533,735	-0,068	-0,119
-739,327	-52,874	-0,257	0,086
-738,312	227,594	-0,147	-0,175
-737,298	-1,683	-0,256	0,131
-736,283	800,000	-0,025	-0,055
-735,269	216,334	-0,099	0,115
-734,254	185,397	0,095	-0,102
-733,239	-155,471	-0,367	-0,017
-732,225	242,112	0,105	-0,128
-731,210	542,608	0,061	0,106
-730,196	800,000	0,031	0,064
-729,181	-105,349	0,110	-0,018
-728,167	100,741	0,075	-0,063
-727,152	-200,000	0,028	-0,097
-726,137	369,759	-0,029	0,042
-725,123	-123,942	-0,047	0,005
-724,108	800,000	-0,048	-0,115
-723,094	153,249	-0,077	-0,077
-722,079	340,797	0,034	-0,048
-721,064	440,497	-0,040	-0,063
-720,050	616,888	-0,051	-0,093
-719,035	-200,000	-0,025	-0,089
-718,021	-200,000	0,002	0,022
-717,006	13,813	0,066	-0,037
-715,991	237,349	-0,106	-0,128
-714,977	128,792	-0,039	-0,037
-713,962	141,921	0,089	-0,086
-712,948	415,509	-0,021	0,032
-711,933	83,870	-0,028	-0,022
-710,918	-168,617	-0,146	0,004
-709,904	-200,000	0,006	0,033
-708,889	-81,813	0,047	0,011
-707,875	177,453	0,068	0,072
-706,860	-151,107	0,134	0,007
-705,845	-149,884	-0,065	0,004
-704,831	-200,000	0,038	0,122
-703,816	800,000	0,033	0,102
-702,802	-102,424	-0,047	-0,008
-701,787	-200,000	0,021	-0,135
-700,772	-105,850	-0,111	-0,018
-699,758	105,590	0,062	-0,053
-698,743	159,330	-0,027	0,027
-697,729	-76,537	0,128	-0,032
-696,714	-200,000	-0,005	0,151
-695,699	557,560	-0,022	-0,039
-694,685	82,351	-0,104	-0,082
-693,670	-179,846	-0,070	0,001
-692,656	-37,659	0,072	-0,028
-691,641	383,030	0,058	-0,088
-690,627	-1,025	-0,127	0,065
-689,612	-43,179	-0,038	-0,014
-688,597	243,292	0,094	-0,114
-687,583	50,585	-0,162	-0,111
-686,568	4,248	0,160	-0,085
-685,554	-200,000	0,024	-0,193
-684,539	-200,000	0,012	-0,083
-683,524	384,175	0,063	0,094
-682,510	-83,525	0,024	-0,006
-681,495	303,825	0,055	-0,074
-680,481	800,000	-0,038	-0,091
-679,466	167,807	-0,046	-0,048
-678,451	-90,062	-0,153	0,032
-677,437	800,000	0,020	-0,046
-676,422	-70,109	0,107	-0,029
-675,408	-21,075	0,088	-0,039
-674,393	-200,000	0,011	0,048
-673,378	-200,000	0,025	-0,103
-672,364	-200,000	-0,001	-0,155
-671,349	96,621	-0,076	-0,063
-670,335	44,111	0,019	0,012
-669,320	-144,363	-0,063	-0,004
-668,305	-66,479	-0,041	-0,012
-667,291	-130,772	0,133	0,013
-666,276	-200,000	0,044	-0,150
-665,262	800,000	0,016	0,041
-664,247	2,294	-0,080	-0,042
-663,232	795,834	-0,088	-0,177
-662,218	800,000	0,048	-0,111
-661,203	-200,000	0,017	0,073
-660,189	-112,297	-0,137	-0,020
-659,174	129,941	-0,037	0,035
-658,159	-200,000	0,012	-0,076
-657,145	-200,000	-0,058	-0,211
-656,130	-200,000	-0,007	-0,208
-655,116	20,241	0,114	-0,067
-654,101	16,873	0,057	0,033
-653,086	114,778	-0,069	0,061
-652,072	800,000	-0,031	-0,087
-651,057	-144,744	-0,063	-0,004
-650,043	-172,696	-0,050	-0,001
-649,028	800,000	0,053	-0,123
-648,014	-98,243	-0,029	-0,005
-646,999	-108,906	0,056	0,009
-645,984	106,116	-0,110	0,095
-644,970	-200,000	-0,013	-0,117
-643,955	-200,000	-0,017	-0,065
-642,941	138,774	-0,019	-0,018
-641,926	-12,334	-0,061	-0,029
-640,911	-200,000	0,009	-0,038
-639,897	716,725	-0,003	-0,006
-638,882	96,517	0,079	-0,066
-637,868	-117,584	0,055	0,007
-636,853	-200,000	-0,000	-0,005
-635,838	-63,121	-0,140	-0,042
-634,824	-200,000	-0,015	-0,094
-633,809	-104,243	-0,097	-0,016
-632,795	800,000	-0,020	0,046
-631,780	194,584	-0,117	-0,129
-630,765	26,567	0,032	-0,020
-629,751	-200,000	0,003	-0,090
-628,736	-75,889	-0,125	-0,032
-627,722	-200,000	0,013	0,056
-626,707	800,000	0,038	-0,119
-625,692	-0,940	-0,055	0,028
-624,678	-200,000	0,002	-0,009
-623,663	108,429	0,115	-0,099
-622,649	-164,299	-0,165	0,005
-621,634	-119,762	0,067	0,008
-620,619	-200,000	-0,007	-0,048
-619,605	171,577	-0,069	-0,072
-618,590	-200,000	0,016	0,193
-617,576	36,301	-0,071	0,045
-616,561	94,023	-0,051	0,042
-615,546	800,000	-0,051	-0,144
-614,532	800,000	-0,048	-0,119
-613,517	-25,950	0,035	0,015
-612,503	171,225	0,086	-0,090
-611,488	800,000	-0,084	0,179
-610,474	67,343	-0,065	0,048
-609,459	-48,523	-0,025	0,009
-608,444	394,947	-0,021	-0,031
-607,430	197,150	0,077	-0,085
-606,415	64,169	-0,142	-0,104
-605,401	566,208	-0,052	-0,092
-604,386	-176,541	0,077	0,001
-603,371	-200,000	0,011	0,048
-602,357	-48,040	0,065	0,023
-601,342	-113,877	-0,077	0,011
-600,328	-157,781	-0,064	0,003
-599,313	203,169	-0,026	0,029
-598,298	-200,000	-0,013	-0,059
-597,284	-97,702	0,059	-0,011
-596,269	-33,156	0,145	-0,058
-595,255	-25,281	0,041	0,017
-594,240	5,093	0,065	-0,035
-593,225	-82,026	-0,085	-0,020
-592,211	173,959	-0,096	-0,100
-591,196	166,601	-0,077	-0,079
-590,182	-53,779	-0,009	-0,003
-589,167	-17,402	0,074	0,034
-588,152	-16,332	0,020	-0,009
-587,138	14,060	0,048	-0,027
-586,123	800,000	-0,010	-0,032
-585,109	-200,000	0,006	-0,091
-584,094	269,043	-0,035	0,045
-583,079	579,222	0,031	0,056
-582,065	800,000	0,045	0,128
-581,050	182,892	0,023	-0,025
-580,036	5,718	-0,102	-0,055
-579,021	800,000	0,039	-0,090
-578,006	-200,000	-0,009	-0,057
-576,992	149,559	0,073	0,072
-575,977	558,423	-0,038	-0,067
-574,963	286,393	0,050	-0,065
-573,948	356,200	0,043	-0,061
-572,934	-39,150	-0,065	0,025
-571,919	-200,000	-0,020	-0,080
-570,904	359,960	-0,045	-0,066
-569,890	30,972	-0,016	-0,010
-568,875	-94,917	0,099	-0,019
-567,861	267,759	-0,023	0,030
-566,846	-200,000	0,014	0,085
-565,831	-43,558	-0,106	-0,038
-564,817	79,619	-0,065	-0,051
-563,802	800,000	0,050	-0,146
-562,788	-187,410	0,072	-0,001
-561,773	-200,000	0,001	0,058
-560,758	-102,618	-0,122	0,021
-559,744	72,556	0,028	0,021
-558,729	-200,000	0,003	0,069
-557,715	-200,000	-0,008	-0,093
-556,700	-200,000	0,001	-0,104
-555,685	-45,097	-0,105	0,038
-554,671	346,742	0,084	0,121
-553,656	183,949	0,019	0,020
-552,642	-200,000	-0,021	0,069
-551,627	-55,104	0,174	-0,056
-550,612	-200,000	0,023	-0,151
-549,598	-10,992	-0,131	-0,062
-548,583	126,219	-0,028	-0,026
-547,569	-1,956	-0,039	-0,020
-546,554	-200,000	0,025	0,103
-545,539	-89,105	-0,090	0,019
-544,525	-66,690	0,019	-0,006
-543,510	-152,140	-0,061	-0,003
-542,496	560,766	-0,059	0,104
-541,481	-69,796	-0,198	0,054
-540,466	800,000	-0,081	0,214
-539,452	-103,524	0,175	0,029
-538,437	115,090	0,056	0,049
-537,423	26,419	0,048	-0,029
-536,408	-36,439	0,162	-0,063
-535,393	102,336	-0,137	-0,116
-534,379	-69,464	-0,070	-0,019
-533,364	97,789	0,122	0,101
-532,350	800,000	0,031	0,082
-531,335	266,529	0,076	-0,096
-530,321	-34,521	0,078	-0,031
-529,306	-121,647	-0,056	0,007
-528,291	-168,046	-0,107	-0,003
-527,277	134,798	0,067	-0,063
-526,262	-77,847	-0,153	0,038
-525,248	514,558	0,103	0,175
-524,233	310,744	-0,034	0,046
-523,218	-8,483	-0,038	0,018
-522,204	24,101	0,115	0,068
-521,189	211,918	-0,110	0,126
-520,175	-200,000	-0,017	0,068
-519,160	674,030	-0,033	0,062
-518,145	-164,382	-0,066	0,002
-517,131	-81,664	0,085	-0,020
-516,116	800,000	0,018	-0,041
-515,102	-200,000	0,015	-0,067
-514,087	192,023	-0,026	-0,028
-513,072	135,219	-0,108	-0,102
-512,058	-200,000	-0,018	-0,083
-511,043	-200,000	0,012	0,085
-510,029	-91,004	0,069	-0,014
-509,014	462,277	0,014	-0,023
-507,999	775,168	-0,013	0,026
-506,985	-200,000	0,007	0,056
-505,970	-200,000	-0,023	-0,093
-504,956	-200,000	-0,001	0,066
-503,941	61,794	-0,055	0,039
-502,926	800,000	0,028	0,084
-501,912	-200,000	-0,008	0,094
-500,897	159,836	-0,065	0,065
-499,883	138,388	0,058	-0,055
-498,868	638,077	0,037	-0,068
-497,853	196,048	-0,008	0,008
-496,839	111,353	0,105	0,091
-495,824	332,222	-0,094	0,131
-494,810	399,595	0,042	0,063
-493,795	73,151	0,070	0,053
-492,781	130,696	0,025	-0,024
-491,766	358,918	-0,054	-0,078
-490,751	-200,000	0,047	-0,221
-489,737	58,721	0,123	0,087
-488,722	800,000	0,018	0,044
-487,708	4,195	0,057	-0,030
-486,693	-64,232	0,146	-0,043
-485,678	-200,000	-0,065	-0,209
-484,664	-200,000	0,003	0,021
-483,649	27,625	-0,142	-0,086
-482,635	-55,952	0,122	0,039
-481,620	-194,738	0,204	-0,001
-480,605	800,000	-0,027	-0,068
-479,591	-80,674	0,131	-0,031
-478,576	-124,904	-0,071	0,008
-477,562	800,000	0,067	-0,163
-476,547	-94,979	-0,106	-0,020
-475,532	137,681	0,132	-0,125
-474,518	-200,000	0,002	-0,109
-473,503	-200,000	-0,011	0,051
-472,489	-200,000	0,020	-0,090
-471,474	340,693	0,041	0,058
-470,459	-46,093	0,124	0,044
-469,445	800,000	0,030	-0,096
-468,430	-157,548	-0,061	-0,003
-467,416	88,359	0,029	-0,023
-466,401	210,387	-0,020	0,023
-465,386	800,000	-0,069	0,204
-464,372	800,000	0,041	0,106
-463,357	-70,582	0,042	-0,011
-462,343	800,000	0,023	-0,053
-461,328	140,819	-0,055	-0,053
-460,313	-102,620	0,107	-0,018
-459,299	282,351	0,049	0,063
-458,284	-72,124	-0,053	0,014
-457,270	800,000	0,037	-0,083
-456,255	87,889	-0,127	-0,101
-455,241	202,668	-0,130	-0,144
-454,226	-200,000	0,020	-0,136
-453,211	-25,591	-0,094	-0,040
-452,197	60,786	0,085	0,060
-451,182	-19,513	0,066	0,029
-450,168	-200,000	0,010	0,043
-449,153	-90,743	-0,028	0,006
-448,138	238,394	-0,052	-0,062
-447,124	14,335	-0,130	0,073
-446,109	128,061	-0,027	-0,025
-445,095	-131,874	-0,136	-0,013
-444,080	-62,118	0,203	-0,061
-443,065	-88,954	0,111	0,023
-442,051	-93,995	-0,252	-0,049
-441,036	88,068	-0,066	-0,053
-440,022	-200,000	0,004	-0,067
-439,007	-48,307	0,108	-0,037
-437,992	-77,873	0,059	-0,015
-436,978	-72,958	-0,115	-0,030
-435,963	76,388	-0,077	-0,059
-434,949	348,865	0,032	0,046
-433,934	-154,029	0,108	0,005
-432,919	736,991	0,063	-0,122
-431,905	134,428	-0,054	-0,051
-430,890	74,524	0,107	-0,081
-429,876	-200,000	-0,006	0,056
-428,861	-200,000	0,012	-0,058
-427,846	523,666	0,043	0,073
-426,832	351,338	-0,063	-0,090
-425,817	-200,000	-0,005	0,018
-424,803	-50,146	-0,063	-0,021
-423,788	-200,000	0,004	-0,098
-422,773	-168,800	0,238	0,006
-421,759	-200,000	0,001	0,084
-420,744	26,323	-0,007	-0,004
-419,730	-200,000	-0,020	-0,152
-418,715	658,897	-0,120	-0,223
-417,701	90,559	-0,042	-0,034
-416,686	-106,091	0,104	0,017
-415,671	-200,000	-0,016	-0,059
-414,657	70,030	0,155	-0,115
-413,642	-200,000	0,019	0,061
-412,628	-74,923	-0,110	0,028
-411,613	800,000	-0,047	-0,110
-410,598	34,315	-0,034	-0,021
-409,584	-79,840	0,131	-0,031
-408,569	171,498	-0,048	-0,050
-407,555	-121,686	0,033	-0,004
-406,540	38,510	0,057	0,037
-405,525	-200,000	-0,010	-0,087
-404,511	-200,000	0,006	-0,076
-403,496	399,804	-0,074	-0,111
-402,482	171,955	-0,059	-0,061
-401,467	126,006	0,067	0,061
-400,452	800,000	-0,051	0,140
-399,438	-200,000	0,003	0,021
-398,423	-83,086	-0,058	-0,013
-397,409	-81,377	0,073	0,017
-396,394	386,452	0,034	0,050
-395,379	-200,000	-0,015	-0,140
-394,365	-200,000	0,008	-0,051
-393,350	96,230	0,115	0,095
-392,336	-143,339	0,184	-0,012
-391,321	-122,479	-0,052	-0,006
-390,306	-37,800	0,050	0,019
-389,292	-122,608	-0,158	-0,018
-388,277	800,000	-0,051	0,104
-387,263	67,855	-0,044	0,032
-386,248	128,506	0,039	0,036
-385,233	800,000	-0,053	0,145
-384,219	-200,000	-0,027	-0,151
-383,204	-200,000	0,006	-0,019
-382,190	370,455	-0,051	0,074
-381,175	-74,675	0,148	0,038
-380,160	-46,136	-0,140	0,049
-379,146	111,847	0,095	0,082
-378,131	719,352	0,034	-0,064
-377,117	-132,452	-0,116	-0,011
-376,102	123,443	0,041	-0,037
-375,088	-9,341	-0,052	-0,025
-374,073	-16,116	0,110	0,050
-373,058	161,225	-0,037	0,037
-372,044	-31,836	0,127	0,051
-371,029	396,018	-0,028	0,041
-370,015	-200,000	0,024	0,135
-369,000	31,255	0,078	0,048
-367,985	-200,000	0,001	-0,042
-366,971	800,000	-0,030	0,081
-365,956	-200,000	-0,009	0,098
-364,942	2,715	0,104	-0,054
-363,927	549,861	-0,051	0,087
-362,912	159,344	-0,061	0,061
-361,898	-200,000	0,013	-0,116
-360,883	-200,000	-0,006	-0,098
-359,869	-47,539	0,122	-0,042
-358,854	800,000	-0,026	-0,056
-357,839	-100,530	-0,120	0,021
-356,825	-200,000	-0,003	0,127
-355,810	-29,667	0,121	0,049
-354,796	800,000	-0,047	0,133
-353,781	800,000	0,035	0,094
-352,766	-200,000	-0,021	-0,088
-351,752	98,486	0,125	-0,103
-350,737	-10,287	0,033	0,016
-349,723	91,229	-0,054	-0,044
-348,708	-200,000	0,001	-0,048
-347,693	-129,356	-0,097	-0,010
-346,679	800,000	-0,066	-0,143
-345,664	800,000	-0,014	-0,036
-344,650	148,706	-0,116	-0,112
-343,635	800,000	-0,015	0,046
-342,620	250,759	0,067	0,082
-341,606	-83,696	0,071	-0,016
-340,591	800,000	0,021	-0,050
-339,577	-70,187	-0,161	0,044
-338,562	35,967	0,119	-0,075
-337,548	-200,000	0,037	-0,122
-336,533	-18,570	0,063	0,028
-335,518	-68,748	0,152	0,042
-334,504	-158,963	0,049	-0,002
-333,489	800,000	0,012	-0,037
-332,475	11,104	-0,019	-0,011
-331,460	800,000	0,027	0,056
-330,445	101,441	-0,040	-0,033
-329,431	461,377	0,042	0,067
-328,416	433,948	0,060	0,093
-327,402	800,000	-0,023	0,068
-326,387	-34,515	0,055	0,021
-325,372	342,506	0,100	-0,140
-324,358	-108,660	0,015	0,002
-323,343	-200,000	-0,003	-0,118
-322,329	-200,000	0,004	0,104
-321,314	173,359	0,051	0,053
-320,299	-200,000	0,006	0,093
-319,285	16,576	-0,061	-0,034
-318,270	83,316	-0,116	-0,090
-317,256	109,472	-0,052	0,044
-316,241	-36,559	0,081	-0,031
-315,226	-54,987	0,007	-0,002
-314,212	-200,000	0,004	0,055
-313,197	264,539	-0,122	0,153
-312,183	-200,000	-0,018	0,137
-311,168	-200,000	0,021	-0,130
-310,153	-200,000	0,029	0,229
-309,139	173,152	-0,046	0,047
-308,124	-200,000	-0,004	-0,055
-307,110	-40,776	-0,048	0,018
-306,095	-200,000	0,032	0,111
-305,080	-200,000	-0,022	0,100
-304,066	187,152	0,055	-0,059
-303,051	178,950	0,027	0,029
-302,037	-45,416	-0,091	-0,032
-301,022	455,371	0,075	0,120
-300,008	800,000	-0,033	0,090
-298,993	324,915	-0,085	0,117
-297,978	-200,000	0,033	0,180
-296,964	-200,000	0,032	-0,112
-295,949	800,000	-0,036	-0,080
-294,935	-200,000	0,015	-0,054
-293,920	-200,000	0,004	0,114
-292,905	-14,676	-0,141	0,065
-291,891	-126,028	-0,080	-0,009
-290,876	800,000	0,036	0,077
-289,862	-10,258	-0,085	-0,040
-288,847	338,852	0,133	-0,186
-287,832	274,116	0,062	-0,079
-286,818	-200,000	-0,003	0,056
-285,803	-137,174	-0,160	0,013
-284,789	-101,210	-0,086	0,015
-283,774	-15,119	0,074	-0,034
-282,759	274,792	-0,022	0,028
-281,745	402,577	0,029	0,044
-280,730	22,311	-0,058	-0,034
-279,716	82,129	-0,079	-0,061
-278,701	-32,417	0,055	-0,022
-277,686	-200,000	0,004	0,032
-276,672	800,000	0,062	0,154
-275,657	-200,000	0,003	0,129
-274,643	235,704	-0,052	0,061
-273,628	169,080	0,032	0,032
-272,613	472,613	-0,067	0,109
-271,599	-200,000	-0,022	0,078
-270,584	69,618	0,169	0,125
-269,570	-200,000	0,001	-0,024
-268,555	489,132	-0,013	-0,022
-267,540	-200,000	0,005	0,117
-266,526	800,000	-0,055	-0,113
-265,511	258,483	-0,022	-0,027
-264,497	305,628	-0,059	0,079
-263,482	-200,000	0,066	0,223
-262,467	-200,000	-0,016	0,081
-261,453	800,000	-0,024	0,049
-260,438	-21,997	-0,141	0,061
-259,424	-34,664	0,011	0,004
-258,409	-200,000	0,012	0,047
-257,395	331,154	0,031	0,044
-256,380	-99,803	0,208	0,037
-255,365	468,804	0,020	0,032
-254,351	185,882	0,019	0,020
-253,336	-20,302	-0,063	0,028
-252,322	-60,158	-0,088	0,027
-251,307	-41,572	-0,075	-0,027
-250,292	116,114	0,103	0,090
-249,278	-169,637	0,042	0,001
-248,263	-128,871	-0,239	-0,024
-247,249	-200,000	0,001	0,047
-246,234	-19,658	-0,090	0,039
-245,219	112,982	-0,109	-0,094
-244,205	-200,000	0,005	-0,136
-243,190	-200,000	-0,003	-0,024
-242,176	63,480	0,070	0,050
-241,161	-200,000	-0,017	0,102
-240,146	-200,000	0,005	0,022
-239,132	800,000	0,060	-0,168
-238,117	800,000	0,029	-0,064
-237,103	-200,000	-0,020	-0,097
-236,088	2,601	-0,034	-0,018
-235,073	-77,609	-0,109	-0,027
-234,059	78,556	0,126	0,096
-233,044	-200,000	0,018	0,137
-232,030	513,042	-0,044	0,073
-231,015	450,694	0,009	-0,015
-230,000	83,625	-0,044	0,034
-228,986	242,932	0,107	0,129
-227,971	277,874	0,100	0,128
-226,957	-200,000	-0,017	0,145
-225,942	61,823	0,044	0,031
-224,927	800,000	0,045	0,099
-223,913	-31,691	-0,079	-0,032
-222,898	-103,185	0,067	-0,011
-221,884	-60,953	-0,122	0,037
-220,869	505,743	-0,043	-0,072
-219,855	-200,000	0,005	-0,021
-218,840	5,296	0,036	-0,019
-217,825	-163,049	0,028	0,001
-216,811	86,968	-0,069	0,054
-215,796	800,000	-0,057	-0,170
-214,782	-169,929	0,177	-0,004
-213,767	31,300	-0,098	-0,060
-212,752	-108,733	0,046	0,007
-211,738	-85,356	0,107	-0,024
-210,723	36,968	-0,101	0,063
-209,709	80,015	0,029	0,022
-208,694	-200,000	-0,001	-0,050
-207,679	-58,513	-0,083	-0,025
-206,665	-43,725	0,031	-0,011
-205,650	36,319	-0,110	-0,069
-204,636	-200,000	0,015	0,111
-203,621	800,000	0,021	0,043
-202,606	800,000	-0,018	-0,044
-201,592	-200,000	-0,005	-0,027
-200,577	-107,795	-0,083	-0,013
-199,563	-111,688	-0,141	-0,020
-198,548	-200,000	-0,004	0,070
-197,533	777,574	0,106	0,207
-196,519	800,000	0,027	0,068
-195,504	118,769	0,071	0,063
-194,490	-113,302	-0,185	-0,026
-193,475	2,075	-0,007	0,004
-192,460	-89,963	-0,052	0,011
-191,446	251,644	0,109	0,133
-190,431	744,408	0,040	-0,078
-189,417	-32,076	-0,153	0,061
-188,402	207,533	0,109	-0,122
-187,387	589,989	0,069	0,121
-186,373	164,996	-0,099	-0,100
-185,358	-134,408	0,043	0,004
-184,344	352,620	0,076	0,108
-183,329	-53,916	-0,167	-0,054
-182,315	127,812	-0,064	0,058
-181,300	-51,464	-0,041	-0,014
-180,285	84,614	0,053	-0,041
-179,271	49,770	-0,063	0,042
-178,256	138,455	0,135	-0,126
-177,242	-200,000	0,018	0,091
-176,227	-200,000	0,057	0,190
-175,212	620,037	-0,014	0,026
-174,198	-133,897	0,139	0,012
-173,183	343,828	0,017	-0,023
-172,169	-73,758	-0,037	-0,009
-171,154	-200,000	-0,074	0,000
-170,139	299,958	0,020	-0,026
-169,125	-126,423	0,084	-0,009
-168,110	519,139	-0,071	-0,119
-167,096	800,000	0,022	-0,065
-166,081	-38,004	0,132	0,050
-165,066	7,154	0,065	-0,035
-164,052	136,954	0,093	0,087
-163,037	-45,621	-0,026	-0,009
-162,023	136,126	-0,138	0,128
-161,008	-42,351	0,091	-0,033
-159,993	160,128	-0,040	0,040
-158,979	588,543	0,061	-0,108
-157,964	115,928	-0,023	0,020
-156,950	303,560	0,096	-0,127
-155,935	-51,626	-0,029	0,010
-154,920	800,000	0,039	-0,083
-153,906	535,422	0,060	0,101
-152,891	-124,210	0,063	0,007
-151,877	337,542	-0,074	-0,102
-150,862	38,419	0,091	0,058
-149,847	35,480	0,015	0,010
-148,833	17,892	0,124	0,070
-147,818	800,000	0,069	0,151
-146,804	60,656	0,088	0,062
-145,789	-200,000	0,005	0,036
-144,775	11,312	0,134	0,073
-143,760	142,781	0,126	-0,119
-142,745	-185,448	-0,064	-0,001
-141,731	800,000	0,035	0,095
-140,716	107,350	0,099	0,084
-139,702	-200,000	-0,001	0,177
-138,687	800,000	0,043	0,108
-137,672	653,674	-0,080	-0,147
-136,658	192,835	0,041	-0,044
-135,643	-200,000	-0,006	-0,070
-134,629	-87,959	-0,086	-0,018
-133,614	-70,076	0,072	0,019
-132,599	-200,000	0,014	0,047
-131,585	91,147	-0,087	0,069
-130,570	3,041	0,021	0,011
-129,556	-119,902	-0,186	-0,022
-128,541	-30,652	0,151	-0,060
-127,526	-51,101	-0,094	0,031
-126,512	800,000	0,022	0,067
-125,497	2,906	-0,101	0,052
-124,483	12,183	0,067	-0,037
-123,468	-200,000	0,012	0,095
-122,453	56,803	0,083	-0,057
-121,439	121,447	0,036	-0,032
-120,424	-93,195	-0,128	0,025
-119,410	565,820	0,050	0,087
