DTS Sentinel unit serial number:	SN410029Multiplexer serial number:	ORYXHardware model number:	OX2-SRSoftware version number:	ORYX F/W v4,00 Oryx Data Collector v3.7.2.0data status	okinstallation	BH3 CH2differential loss correction	single-endedforward channel	channel 2reverse channel	N/Adate	2023/12/05time	10:27:28forward acquisition time	300,00reverse acquisition time	0,00gamma	499,1914k internal	0,3184k external	0,3184temperature offset calibration	1,0000default loss term (dB/km)	0,3820temperature slope calibration	1,0000multiplexer offset coefficient	1,0000multiplexer slope coefficient	1,0000fibre end	0,00T internal ref (°C)	10,04T ext. ref 1 (°C)	-4,93T ext. ref 2 (°C)	-5,12length (m)	temperature (°C)	Stokes	anti-Stokes-744,400	426,651	0,044	0,069
-743,385	-109,144	-0,198	0,030
-742,371	764,161	-0,025	-0,050
-741,356	-29,407	-0,285	0,119
-740,342	295,852	0,082	-0,109
-739,327	-100,348	-0,248	0,044
-738,312	17,645	0,081	-0,047
-737,298	-115,578	-0,215	0,029
-736,283	205,372	-0,115	-0,131
-735,269	261,447	-0,195	0,247
-734,254	563,734	0,088	-0,156
-733,239	-138,092	-0,500	-0,040
-732,225	-150,278	0,201	0,011
-731,210	167,946	0,089	0,092
-730,196	-82,381	-0,157	-0,037
-729,181	-40,028	0,049	0,019
-728,167	-44,575	0,072	0,026
-727,152	800,000	0,014	-0,036
-726,137	-33,866	-0,143	-0,057
-725,123	-162,592	-0,101	-0,004
-724,108	454,908	-0,061	-0,099
-723,094	336,967	-0,034	-0,048
-722,079	-144,067	-0,098	0,007
-721,064	-137,706	-0,127	0,010
-720,050	-200,000	-0,001	-0,092
-719,035	474,676	0,071	0,117
-718,021	-200,000	0,022	-0,093
-717,006	-122,003	-0,212	-0,025
-715,991	800,000	0,028	-0,071
-714,977	254,603	-0,038	0,048
-713,962	638,550	0,084	-0,156
-712,948	524,773	-0,033	-0,056
-711,933	46,942	-0,059	-0,040
-710,918	227,360	-0,077	0,092
-709,904	-90,908	-0,149	-0,031
-708,889	-83,395	0,126	-0,029
-707,875	41,645	-0,071	-0,047
-706,860	-85,894	0,124	0,028
-705,845	-114,595	0,120	-0,017
-704,831	83,689	0,033	0,026
-703,816	325,954	-0,076	0,106
-702,802	108,003	-0,070	-0,061
-701,787	174,468	-0,034	-0,036
-700,772	-200,000	-0,007	-0,027
-699,758	167,960	-0,063	-0,065
-698,743	-11,027	0,039	-0,019
-697,729	173,305	-0,062	-0,066
-696,714	214,451	0,115	-0,133
-695,699	-200,000	0,027	-0,098
-694,685	-200,000	-0,007	-0,058
-693,670	-65,459	-0,139	-0,041
-692,656	800,000	0,008	0,019
-691,641	71,093	0,169	-0,128
-690,627	-200,000	-0,004	-0,074
-689,612	800,000	0,011	-0,023
-688,597	-200,000	0,020	-0,168
-687,583	435,257	-0,052	-0,084
-686,568	-200,000	0,043	-0,141
-685,554	104,990	0,098	-0,085
-684,539	800,000	0,031	0,068
-683,524	-41,789	-0,024	0,009
-682,510	314,510	-0,063	-0,087
-681,495	231,866	0,056	-0,068
-680,481	12,272	-0,051	0,029
-679,466	-155,252	-0,029	-0,001
-678,451	179,444	0,054	0,058
-677,437	103,109	-0,079	0,068
-676,422	-155,114	0,126	0,006
-675,408	144,935	0,044	0,042
-674,393	30,335	-0,011	0,007
-673,378	599,668	-0,094	-0,171
-672,364	450,858	-0,071	-0,114
-671,349	284,034	0,010	0,014
-670,335	-200,000	0,036	0,163
-669,320	-170,101	-0,035	0,001
-668,305	188,211	-0,067	0,073
-667,291	560,155	-0,017	0,030
-666,276	-200,000	-0,009	-0,106
-665,262	-200,000	-0,002	-0,098
-664,247	-8,369	0,011	-0,006
-663,232	-200,000	-0,035	0,175
-662,218	-200,000	-0,034	-0,112
-661,203	-200,000	-0,007	-0,024
-660,189	-200,000	-0,002	0,074
-659,174	198,499	-0,059	0,065
-658,159	800,000	0,050	-0,104
-657,145	800,000	0,069	-0,142
-656,130	-148,843	0,168	-0,010
-655,116	-200,000	0,021	0,095
-654,101	-200,000	0,016	0,071
-653,086	800,000	-0,035	0,109
-652,072	194,296	0,013	0,014
-651,057	-11,672	-0,178	-0,085
-650,043	183,155	-0,111	-0,120
-649,028	-52,459	0,046	-0,016
-648,014	800,000	0,008	0,023
-646,999	116,306	-0,013	-0,012
-645,984	800,000	0,023	-0,054
-644,970	-26,205	-0,066	0,028
-643,955	-157,663	-0,068	0,003
-642,941	487,232	-0,044	-0,074
-641,926	515,120	0,038	-0,065
-640,911	-106,747	0,046	-0,007
-639,897	-117,274	0,042	-0,006
-638,882	4,246	-0,127	-0,067
-637,868	-14,430	-0,040	-0,019
-636,853	255,029	0,021	-0,026
-635,838	-2,983	-0,119	-0,060
-634,824	-39,908	-0,048	-0,018
-633,809	-200,000	-0,018	-0,065
-632,795	800,000	-0,059	0,155
-631,780	-82,485	-0,045	0,010
-630,765	800,000	-0,027	-0,057
-629,751	-39,214	-0,052	-0,020
-628,736	120,457	-0,082	-0,075
-627,722	-98,972	0,117	-0,021
-626,707	229,730	0,107	-0,128
-625,692	-132,261	-0,110	0,010
-624,678	-18,781	0,050	-0,022
-623,663	47,118	-0,132	0,089
-622,649	-200,000	-0,011	0,059
-621,634	108,045	-0,101	0,087
-620,619	147,336	0,051	-0,050
-619,605	-66,600	-0,042	-0,012
-618,590	32,059	0,079	0,049
-617,576	-48,798	0,077	-0,027
-616,561	800,000	-0,019	0,043
-615,546	-138,085	0,027	-0,002
-614,532	6,352	-0,100	-0,054
-613,517	-200,000	0,004	-0,099
-612,503	74,620	-0,052	-0,040
-611,488	-137,786	-0,040	0,003
-610,474	507,702	0,045	-0,076
-609,459	164,016	-0,062	0,063
-608,444	-55,977	-0,059	-0,019
-607,430	-150,626	0,079	-0,004
-606,415	-200,000	0,003	-0,048
-605,401	3,501	-0,109	-0,058
-604,386	-200,000	0,004	-0,037
-603,371	-165,849	0,106	0,003
-602,357	-25,282	0,098	0,042
-601,342	800,000	0,021	-0,066
-600,328	-200,000	0,004	0,017
-599,313	-95,246	-0,128	-0,025
-598,298	-62,206	-0,101	0,030
-597,284	-115,299	0,194	0,026
-596,269	163,915	-0,077	0,079
-595,255	-26,407	-0,015	-0,006
-594,240	137,648	0,023	-0,022
-593,225	76,065	-0,046	-0,036
-592,211	-200,000	0,074	-0,276
-591,196	800,000	0,057	-0,171
-590,182	-6,572	0,094	0,046
-589,167	-30,258	0,061	-0,025
-588,152	324,887	0,064	-0,089
-587,138	627,895	0,037	0,069
-586,123	800,000	-0,064	0,159
-585,109	88,443	0,042	-0,034
-584,094	458,440	0,044	0,071
-583,079	475,499	-0,063	0,104
-582,065	56,041	-0,078	0,055
-581,050	-161,369	-0,100	-0,004
-580,036	-84,930	-0,155	-0,035
-579,021	42,860	0,043	-0,029
-578,006	800,000	-0,067	-0,156
-576,992	57,992	-0,051	-0,036
-575,977	-200,000	0,020	0,086
-574,963	37,165	0,093	-0,060
-573,948	494,080	-0,039	0,066
-572,934	-67,008	0,088	-0,025
-571,919	800,000	-0,022	-0,061
-570,904	-113,466	0,045	-0,006
-569,890	-107,636	0,060	-0,009
-568,875	-134,634	0,068	0,006
-567,861	-7,245	0,089	-0,044
-566,846	186,607	0,087	0,094
-565,831	-67,491	-0,038	-0,011
-564,817	76,732	-0,106	0,081
-563,802	-200,000	-0,031	0,109
-562,788	-200,000	0,005	-0,073
-561,773	404,319	-0,028	-0,043
-560,758	258,346	-0,033	-0,041
-559,744	800,000	0,044	0,134
-558,729	616,716	-0,041	0,075
-557,715	-191,656	-0,088	-0,001
-556,700	-55,765	0,064	-0,021
-555,685	-181,488	-0,096	0,001
-554,671	16,573	-0,053	-0,030
-553,656	-200,000	0,025	0,092
-552,642	-200,000	0,035	0,175
-551,627	-126,285	0,063	-0,007
-550,612	448,220	0,061	-0,098
-549,598	183,958	-0,077	-0,083
-548,583	469,767	-0,045	-0,074
-547,569	203,114	0,051	-0,058
-546,554	-56,714	0,059	-0,019
-545,539	-42,300	0,095	0,035
-544,525	408,571	0,108	0,166
-543,510	-200,000	-0,008	0,039
-542,496	-121,339	0,047	0,006
-541,481	800,000	0,020	-0,061
-540,466	112,112	-0,049	-0,043
-539,452	800,000	-0,025	0,070
-538,437	-22,415	-0,086	0,038
-537,423	-200,000	0,014	0,071
-536,408	-155,149	-0,088	0,004
-535,393	-54,847	0,072	-0,023
-534,379	-200,000	0,014	-0,090
-533,364	-192,363	0,021	0,000
-532,350	64,082	-0,054	-0,039
-531,335	-156,340	0,045	-0,002
-530,321	-200,000	0,020	-0,081
-529,306	-106,578	0,076	0,012
-528,291	136,642	-0,143	-0,136
-527,277	800,000	0,040	-0,116
-526,262	79,026	0,030	-0,023
-525,248	632,472	0,065	-0,120
-524,233	-71,119	0,106	-0,029
-523,218	11,927	-0,131	0,073
-522,204	487,419	0,073	0,120
-521,189	-200,000	-0,006	-0,024
-520,175	60,926	-0,055	-0,039
-519,160	-200,000	-0,005	0,021
-518,145	-43,935	-0,085	0,031
-517,131	-25,878	0,065	-0,028
-516,116	-200,000	-0,019	0,065
-515,102	-2,989	0,031	0,016
-514,087	-68,469	0,124	0,035
-513,072	36,381	-0,093	-0,059
-512,058	-200,000	-0,007	-0,029
-511,043	-41,054	0,211	0,079
-510,029	523,847	-0,063	0,108
-509,014	-200,000	0,014	-0,056
-507,999	61,413	0,093	0,067
-506,985	-200,000	0,014	-0,061
-505,970	-79,704	0,060	-0,015
-504,956	59,419	0,064	0,046
-503,941	87,506	0,084	-0,068
-502,926	-160,312	-0,071	0,003
-501,912	528,535	0,022	-0,038
-500,897	800,000	0,023	0,059
-499,883	-200,000	-0,008	0,175
-498,868	-102,768	-0,098	-0,017
-497,853	300,464	-0,068	-0,091
-496,839	-1,290	0,157	-0,080
-495,824	171,977	-0,043	0,044
-494,810	202,012	0,071	0,079
-493,795	195,520	-0,077	-0,085
-492,781	-162,419	-0,068	0,002
-491,766	239,830	0,044	0,054
-490,751	-50,587	-0,080	-0,027
-489,737	-23,735	0,127	0,055
-488,722	191,805	-0,011	0,012
-487,708	-22,886	-0,076	0,033
-486,693	-154,927	0,161	-0,008
-485,678	-200,000	-0,006	0,085
-484,664	478,565	0,087	-0,143
-483,649	-153,361	-0,063	0,003
-482,635	-89,924	-0,053	0,011
-481,620	800,000	0,032	0,095
-480,605	800,000	0,013	0,028
-479,591	728,437	-0,050	0,096
-478,576	-110,333	0,040	0,006
-477,562	80,361	0,016	0,013
-476,547	93,544	-0,166	-0,136
-475,532	-78,399	0,069	0,017
-474,518	59,038	-0,102	-0,073
-473,503	-67,914	0,065	0,018
-472,489	-60,784	-0,222	-0,067
-471,474	-59,930	0,077	-0,024
-470,459	22,716	-0,046	-0,027
-469,445	29,868	-0,105	0,065
-468,430	126,663	-0,037	0,034
-467,416	-24,412	0,157	0,067
-466,401	800,000	0,022	0,045
-465,386	800,000	0,006	-0,017
-464,372	800,000	-0,067	-0,155
-463,357	293,517	0,044	0,058
-462,343	581,337	-0,048	0,086
-461,328	800,000	-0,061	-0,178
-460,313	192,947	0,028	0,030
-459,299	681,593	0,092	0,174
-458,284	-200,000	0,017	0,085
-457,270	766,954	0,018	0,036
-456,255	44,639	-0,161	-0,107
-455,241	-138,658	0,105	0,008
-454,226	-134,390	-0,118	-0,010
-453,211	6,122	-0,007	-0,004
-452,197	800,000	-0,026	0,072
-451,182	242,769	0,075	0,091
-450,168	82,342	0,082	0,064
-449,153	19,518	-0,096	0,055
-448,138	-200,000	-0,013	0,064
-447,124	55,339	0,042	-0,030
-446,109	-141,740	-0,063	-0,005
-445,095	2,704	0,148	0,077
-444,080	-200,000	0,019	-0,126
-443,065	-101,662	0,098	0,017
-442,051	-9,986	-0,029	0,014
-441,036	800,000	-0,037	-0,076
-440,022	245,806	0,061	-0,074
-439,007	46,703	-0,109	0,073
-437,992	390,009	-0,034	0,050
-436,978	85,244	0,057	0,045
-435,963	-200,000	0,001	-0,012
-434,949	73,304	0,067	-0,051
-433,934	-76,436	-0,038	-0,010
-432,919	183,360	-0,059	-0,063
-431,905	-200,000	0,010	-0,069
-430,890	-200,000	-0,005	0,038
-429,876	800,000	-0,037	0,079
-428,861	-200,000	-0,009	0,095
-427,846	800,000	0,050	-0,128
-426,832	194,234	0,109	0,119
-425,817	-85,332	-0,118	-0,026
-424,803	319,460	-0,139	-0,191
-423,788	5,130	0,065	-0,034
-422,773	-200,000	-0,021	-0,067
-421,759	800,000	0,055	0,118
-420,744	14,223	0,096	0,054
-419,730	-144,972	-0,069	0,004
-418,715	-200,000	-0,034	-0,216
-417,701	-63,047	0,076	0,022
-416,686	-66,715	-0,030	0,008
-415,671	219,909	-0,048	0,056
-414,657	-200,000	0,044	0,249
-413,642	-130,985	-0,085	0,008
-412,628	33,863	0,158	-0,099
-411,613	-200,000	0,003	0,105
-410,598	120,007	-0,108	-0,096
-409,584	-200,000	-0,011	-0,104
-408,569	226,643	0,057	0,067
-407,555	331,038	-0,058	0,080
-406,540	30,168	0,013	-0,008
-405,525	288,413	0,041	-0,054
-404,511	348,511	-0,112	-0,159
-403,496	-163,450	-0,216	0,007
-402,482	-200,000	-0,014	-0,061
-401,467	18,165	0,061	0,035
-400,452	632,576	0,028	-0,051
-399,438	-200,000	-0,002	0,101
-398,423	81,436	0,060	-0,047
-397,409	280,380	-0,071	0,091
-396,394	177,034	-0,065	-0,068
-395,379	-200,000	-0,007	-0,053
-394,365	198,739	0,026	0,029
-393,350	-110,046	0,014	0,002
-392,336	293,662	0,025	0,033
-391,321	-200,000	0,015	-0,117
-390,306	44,027	0,026	-0,017
-389,292	-197,420	0,068	-0,000
-388,277	281,863	0,021	0,027
-387,263	-200,000	0,012	0,107
-386,248	-200,000	0,027	0,139
-385,233	800,000	-0,009	-0,026
-384,219	689,356	-0,018	0,033
-383,204	110,343	-0,136	-0,117
-382,190	800,000	-0,015	0,046
-381,175	178,434	-0,074	-0,078
-380,160	-15,337	-0,069	-0,032
-379,146	-200,000	0,014	0,076
-378,131	404,538	-0,079	-0,121
-377,117	-200,000	-0,010	-0,067
-376,102	-87,883	-0,053	-0,011
-375,088	-155,028	-0,080	0,004
-374,073	-142,529	0,071	0,005
-373,058	800,000	0,062	-0,161
-372,044	-100,459	-0,065	0,011
-371,029	205,149	-0,031	0,034
-370,015	-200,000	-0,012	0,043
-369,000	-25,631	0,100	0,042
-367,985	-81,719	-0,110	-0,026
-366,971	150,064	0,102	0,100
-365,956	800,000	-0,040	0,116
-364,942	3,693	0,155	0,081
-363,927	28,891	0,063	-0,038
-362,912	800,000	0,023	-0,057
-361,898	-101,215	0,076	-0,013
-360,883	-19,115	-0,135	0,060
-359,869	-200,000	-0,007	0,064
-358,854	300,171	0,048	0,063
-357,839	-127,222	0,013	0,001
-356,825	148,577	0,085	0,083
-355,810	-32,904	-0,031	-0,012
-354,796	85,779	-0,086	0,068
-353,781	-200,000	-0,000	-0,109
-352,766	10,724	-0,075	0,041
-351,752	313,773	0,022	-0,030
-350,737	-23,095	-0,061	0,026
-349,723	-200,000	-0,011	-0,035
-348,708	-128,873	0,093	-0,009
-347,693	141,069	0,045	0,042
-346,679	-74,474	-0,081	0,021
-345,664	800,000	-0,050	-0,105
-344,650	-117,419	0,063	0,008
-343,635	-139,264	-0,079	0,006
-342,620	-89,667	0,177	-0,037
-341,606	-200,000	0,006	0,054
-340,591	-9,738	0,069	0,033
-339,577	-1,753	-0,114	-0,058
-338,562	800,000	-0,043	-0,096
-337,548	-200,000	0,007	0,045
-336,533	-52,841	-0,070	0,023
-335,518	-95,484	0,087	0,017
-334,504	800,000	0,026	0,081
-333,489	-200,000	-0,011	0,122
-332,475	800,000	0,098	-0,196
-331,460	-200,000	-0,022	0,095
-330,445	800,000	0,067	-0,144
-329,431	162,590	-0,100	0,101
-328,416	800,000	-0,022	-0,064
-327,402	800,000	-0,021	0,060
-326,387	264,023	-0,029	0,036
-325,372	239,810	0,122	-0,146
-324,358	-200,000	-0,010	0,052
-323,343	800,000	-0,037	-0,094
-322,329	-200,000	-0,022	-0,153
-321,314	-19,149	0,132	-0,059
-320,299	4,219	0,066	0,034
-319,285	295,898	-0,069	0,091
-318,270	669,642	0,026	0,049
-317,256	-58,124	-0,031	0,010
-316,241	72,036	0,014	-0,011
-315,226	2,584	-0,136	-0,070
-314,212	-132,740	0,098	-0,009
-313,197	-200,000	-0,019	0,065
-312,183	-124,930	0,096	0,011
-311,168	-200,000	-0,057	-0,193
-310,153	-22,088	0,052	0,023
-309,139	129,392	-0,027	-0,025
-308,124	800,000	0,025	0,061
-307,110	-200,000	0,009	0,234
-306,095	775,827	-0,016	-0,031
-305,080	-200,000	0,029	0,211
-304,066	-72,059	0,066	-0,017
-303,051	-143,376	-0,115	-0,008
-302,037	247,706	-0,042	-0,051
-301,022	800,000	-0,025	-0,051
-300,008	56,911	0,141	0,099
-298,993	452,519	0,010	0,016
-297,978	800,000	-0,054	0,110
-296,964	275,562	0,069	-0,088
-295,949	-200,000	0,008	-0,031
-294,935	-200,000	-0,033	-0,114
-293,920	-117,185	0,182	0,024
-292,905	-200,000	0,021	0,155
-291,891	-179,756	0,034	-0,001
-290,876	800,000	0,037	-0,093
-289,862	-43,849	-0,087	-0,031
-288,847	800,000	-0,056	-0,128
-287,832	140,193	-0,056	-0,053
-286,818	-110,829	0,207	-0,030
-285,803	-200,000	-0,012	0,075
-284,789	-200,000	-0,013	-0,054
-283,774	-115,934	-0,069	0,009
-282,759	2,773	-0,085	-0,044
-281,745	20,374	-0,165	-0,096
-280,730	-200,000	0,004	-0,148
-279,716	508,973	-0,056	-0,095
-278,701	719,007	-0,051	0,097
-277,686	800,000	0,045	0,101
-276,672	11,939	-0,080	-0,044
-275,657	72,105	0,067	-0,050
-274,643	-200,000	-0,006	-0,031
-273,628	155,845	-0,121	-0,120
-272,613	-200,000	-0,002	0,095
-271,599	800,000	0,026	-0,075
-270,584	-97,035	-0,028	0,005
-269,570	-200,000	-0,018	0,082
-268,555	-172,510	0,145	0,003
-267,540	527,179	-0,034	0,058
-266,526	-200,000	-0,005	-0,105
-265,511	162,825	-0,043	0,043
-264,497	-200,000	-0,004	0,136
-263,482	-8,173	0,119	0,057
-262,467	800,000	-0,027	-0,075
-261,453	-156,935	0,049	-0,002
-260,438	118,142	0,049	-0,043
-259,424	-168,945	-0,085	-0,002
-258,409	6,312	0,054	-0,028
-257,395	33,603	0,061	0,038
-256,380	-200,000	-0,018	0,063
-255,365	-158,204	0,035	0,001
-254,351	-112,487	-0,132	-0,019
-253,336	-159,076	0,215	0,009
-252,322	-49,371	-0,079	0,027
-251,307	244,146	0,019	0,023
-250,292	164,613	-0,047	0,048
-249,278	301,359	0,107	0,143
-248,263	47,850	-0,160	0,107
-247,249	-133,861	0,052	-0,005
-246,234	601,328	-0,022	-0,039
-245,219	206,563	0,034	0,038
-244,205	-113,583	-0,087	0,012
-243,190	-145,492	0,042	-0,003
-242,176	544,372	0,082	0,141
-241,161	-200,000	0,030	0,313
-240,146	-200,000	-0,003	-0,068
-239,132	800,000	-0,032	-0,093
-238,117	-200,000	-0,016	-0,116
-237,103	800,000	-0,009	-0,024
-236,088	778,795	-0,035	0,069
-235,073	39,389	0,053	-0,034
-234,059	-200,000	0,013	-0,078
-233,044	-200,000	0,001	0,050
-232,030	-154,372	-0,110	-0,005
-231,015	-200,000	0,014	-0,084
-230,000	-200,000	0,018	0,138
-228,986	800,000	-0,046	-0,140
-227,971	583,299	-0,027	0,047
-226,957	2,985	0,058	0,030
-225,942	406,454	0,029	-0,044
-224,927	-122,546	-0,070	-0,008
-223,913	5,926	-0,027	-0,014
-222,898	231,992	0,055	-0,064
-221,884	-38,354	0,141	0,053
-220,869	-102,014	0,115	0,020
-219,855	-200,000	-0,000	0,057
-218,840	-4,201	0,081	0,040
-217,825	-200,000	0,009	-0,031
-216,811	-79,805	-0,027	0,007
-215,796	-200,000	0,012	-0,069
-214,782	-143,495	-0,105	0,007
-213,767	-12,395	0,150	0,070
-212,752	-200,000	-0,015	0,076
-211,738	-7,161	0,131	0,063
-210,723	107,360	-0,078	-0,066
-209,709	-160,214	-0,040	-0,002
-208,694	204,407	-0,052	0,057
-207,679	47,680	-0,174	0,116
-206,665	-200,000	0,011	0,158
-205,650	408,575	-0,023	0,035
-204,636	800,000	-0,033	0,103
-203,621	-45,340	-0,151	-0,053
-202,606	-42,882	0,106	-0,038
-201,592	42,192	0,155	-0,101
-200,577	574,699	-0,080	-0,141
-199,563	86,087	0,098	-0,077
-198,548	298,533	0,116	0,153
-197,533	800,000	0,020	0,050
-196,519	-79,325	0,089	0,021
-195,504	196,844	-0,085	0,092
-194,490	-81,522	-0,062	0,014
-193,475	29,001	-0,112	-0,068
-192,460	41,507	0,076	0,049
-191,446	800,000	0,034	0,085
-190,431	-103,362	-0,026	-0,004
-189,417	-200,000	-0,016	-0,063
-188,402	-32,793	-0,117	-0,046
-187,387	32,899	-0,146	-0,090
-186,373	-62,913	0,039	-0,012
-185,358	10,926	0,086	-0,047
-184,344	800,000	-0,052	0,142
-183,329	250,861	-0,067	0,082
-182,315	800,000	-0,033	0,078
-181,300	-48,092	0,187	-0,064
-180,285	448,438	-0,096	-0,152
-179,271	-113,336	-0,079	-0,011
-178,256	-200,000	-0,009	-0,048
-177,242	119,130	-0,040	0,035
-176,227	800,000	0,044	0,092
-175,212	153,132	0,090	0,088
-174,198	23,868	0,009	0,005
-173,183	-32,488	0,097	-0,038
-172,169	330,885	-0,077	-0,107
-171,154	-200,000	-0,024	-0,104
-170,139	-71,242	0,031	-0,008
-169,125	-200,000	-0,006	-0,042
-168,110	-101,011	-0,060	-0,010
-167,096	-85,371	0,117	-0,026
-166,081	708,000	-0,057	0,107
-165,066	-200,000	-0,027	-0,087
-164,052	-112,984	0,167	-0,023
-163,037	800,000	-0,013	-0,029
-162,023	83,606	0,068	0,053
-161,008	375,588	0,011	0,016
-159,993	-62,988	-0,094	-0,028
-158,979	-76,330	0,095	0,024
-157,964	763,947	-0,024	-0,047
-156,950	800,000	-0,040	-0,091
-155,935	69,056	0,071	0,052
-154,920	384,131	0,072	0,106
-153,906	-152,883	-0,103	0,005
-152,891	128,567	-0,026	-0,024
-151,877	147,412	-0,073	-0,070
-150,862	-200,000	0,003	0,053
-149,847	-200,000	-0,013	0,047
-148,833	800,000	-0,039	-0,094
-147,818	800,000	-0,052	-0,124
-146,804	-27,655	0,057	0,023
-145,789	-200,000	0,004	-0,021
-144,775	800,000	0,051	-0,132
-143,760	-79,996	-0,114	-0,027
-142,745	412,670	0,062	0,094
-141,731	579,591	-0,051	-0,089
-140,716	89,838	0,028	-0,022
-139,702	-139,834	0,136	-0,010
-138,687	406,078	-0,044	-0,066
-137,672	-200,000	-0,019	-0,128
-136,658	44,449	0,013	0,008
-135,643	-200,000	-0,041	-0,158
-134,629	-96,204	-0,016	-0,003
-133,614	800,000	-0,042	0,108
-132,599	-200,000	-0,006	0,130
-131,585	41,067	0,079	0,051
-130,570	-57,686	-0,087	-0,027
-129,556	-16,896	0,038	-0,017
-128,541	-76,839	0,029	-0,007
-127,526	-53,381	0,096	-0,031
-126,512	-104,370	-0,098	-0,016
-125,497	-127,106	0,155	-0,016
-124,483	453,074	0,061	0,097
-123,468	-69,718	-0,125	-0,034
-122,453	0,386	-0,104	0,053
-121,439	-46,150	-0,071	0,025
-120,424	-99,267	-0,090	-0,016
