DTS Sentinel unit serial number:	SN410029Multiplexer serial number:	ORYXHardware model number:	OX2-SRSoftware version number:	ORYX F/W v4,00 Oryx Data Collector v3.7.2.0data status	okinstallation	BH3 CH2differential loss correction	single-endedforward channel	channel 2reverse channel	N/Adate	2023/12/05time	17:32:28forward acquisition time	300,00reverse acquisition time	0,00gamma	499,1914k internal	0,3193k external	0,3193temperature offset calibration	1,0000default loss term (dB/km)	0,3820temperature slope calibration	1,0000multiplexer offset coefficient	1,0000multiplexer slope coefficient	1,0000fibre end	0,00T internal ref (°C)	10,87T ext. ref 1 (°C)	-3,83T ext. ref 2 (°C)	-4,01length (m)	temperature (°C)	Stokes	anti-Stokes-744,400	200,847	-0,044	-0,049
-743,385	29,468	-0,216	0,133
-742,371	116,054	-0,150	-0,134
-741,356	736,808	-0,081	0,159
-740,342	494,354	0,053	-0,089
-739,327	-167,522	-0,309	-0,009
-738,312	800,000	-0,055	-0,153
-737,298	92,331	-0,072	0,059
-736,283	261,148	-0,041	-0,052
-735,269	-30,769	-0,234	0,096
-734,254	800,000	0,016	-0,034
-733,239	-44,081	-0,416	-0,152
-732,225	48,424	0,111	-0,076
-731,210	-200,000	0,016	0,082
-730,196	311,245	0,030	-0,042
-729,181	90,660	0,100	-0,081
-728,167	280,016	0,042	-0,055
-727,152	-200,000	-0,013	-0,087
-726,137	-200,000	-0,008	-0,123
-725,123	-200,000	0,017	-0,088
-724,108	168,329	-0,121	-0,126
-723,094	-68,588	-0,039	-0,011
-722,079	-120,671	-0,191	-0,023
-721,064	223,104	-0,060	-0,070
-720,050	-180,064	0,149	-0,002
-719,035	112,982	-0,135	0,120
-718,021	800,000	-0,063	-0,132
-717,006	656,354	-0,076	0,142
-715,991	361,889	-0,059	-0,087
-714,977	257,835	-0,092	-0,116
-713,962	158,477	-0,062	0,063
-712,948	-200,000	0,019	0,083
-711,933	800,000	-0,084	-0,179
-710,918	-82,835	-0,106	-0,025
-709,904	214,561	-0,064	-0,074
-708,889	-200,000	-0,015	-0,220
-707,875	-200,000	0,008	-0,078
-706,860	800,000	-0,035	0,083
-705,845	15,095	-0,058	0,033
-704,831	235,025	-0,046	-0,055
-703,816	92,883	0,013	0,011
-702,802	-94,525	0,017	-0,003
-701,787	-32,603	-0,129	-0,052
-700,772	272,962	-0,033	-0,042
-699,758	-75,409	0,169	-0,044
-698,743	-149,623	0,068	-0,004
-697,729	220,451	-0,027	0,031
-696,714	-52,889	0,091	0,030
-695,699	-200,000	0,019	-0,109
-694,685	-200,000	0,036	-0,167
-693,670	-200,000	0,001	-0,088
-692,656	-200,000	-0,019	-0,184
-691,641	-26,079	0,069	0,030
-690,627	800,000	-0,034	-0,106
-689,612	800,000	-0,018	0,053
-688,597	15,490	-0,061	0,035
-687,583	-120,944	-0,124	-0,015
-686,568	-33,404	0,028	-0,011
-685,554	-63,144	-0,161	0,048
-684,539	-86,807	0,192	-0,042
-683,524	5,309	-0,063	0,034
-682,510	-200,000	0,001	-0,065
-681,495	-20,170	0,077	0,034
-680,481	-76,280	-0,169	0,043
-679,466	35,938	-0,092	0,059
-678,451	800,000	0,051	0,128
-677,437	66,052	-0,083	0,061
-676,422	800,000	-0,045	0,099
-675,408	133,845	-0,026	-0,024
-674,393	85,199	0,101	-0,080
-673,378	487,463	-0,070	0,116
-672,364	-200,000	0,001	-0,152
-671,349	148,633	-0,164	-0,161
-670,335	185,599	0,075	0,082
-669,320	336,675	-0,021	-0,030
-668,305	40,750	-0,039	0,026
-667,291	246,204	-0,028	-0,034
-666,276	9,593	-0,079	0,043
-665,262	49,869	-0,156	0,107
-664,247	-200,000	0,018	-0,178
-663,232	119,349	-0,022	-0,020
-662,218	2,124	-0,059	0,031
-661,203	-166,508	-0,121	0,004
-660,189	800,000	0,024	0,056
-659,174	14,179	-0,128	-0,073
-658,159	-118,249	-0,048	0,006
-657,145	22,235	-0,081	-0,048
-656,130	-63,093	-0,152	-0,045
-655,116	214,144	-0,031	0,036
-654,101	-93,848	0,107	-0,021
-653,086	291,009	0,015	0,020
-652,072	-75,905	-0,012	0,003
-651,057	58,140	-0,094	-0,067
-650,043	157,462	0,068	-0,068
-649,028	-97,331	-0,047	-0,009
-648,014	109,528	0,104	0,091
-646,999	800,000	-0,036	0,104
-645,984	-124,667	-0,091	0,010
-644,970	-161,399	-0,130	0,005
-643,955	750,367	-0,070	-0,139
-642,941	-30,437	-0,133	0,055
-641,926	-147,240	-0,063	0,004
-640,911	161,660	0,052	-0,053
-639,897	9,016	-0,056	0,031
-638,882	-135,995	-0,005	-0,000
-637,868	-95,947	-0,068	0,013
-636,853	265,429	0,059	0,074
-635,838	671,485	0,039	-0,074
-634,824	326,367	0,059	-0,082
-633,809	-95,741	0,082	0,016
-632,795	283,083	-0,061	-0,079
-631,780	-200,000	-0,033	0,138
-630,765	-60,697	0,058	0,018
-629,751	-43,575	-0,160	0,058
-628,736	-73,190	-0,062	-0,016
-627,722	-200,000	0,005	-0,115
-626,707	79,677	0,034	0,026
-625,692	-200,000	0,001	0,006
-624,678	-77,151	-0,122	-0,031
-623,663	-107,915	-0,134	0,021
-622,649	390,822	0,032	-0,048
-621,634	-112,288	-0,207	0,030
-620,619	-200,000	0,004	0,074
-619,605	-20,092	-0,056	0,025
-618,590	-137,643	0,106	-0,009
-617,576	171,326	0,062	-0,064
-616,561	-132,545	-0,070	-0,006
-615,546	800,000	0,046	-0,140
-614,532	800,000	-0,089	-0,215
-613,517	-49,012	0,093	-0,032
-612,503	-200,000	0,028	0,134
-611,488	-10,257	-0,064	-0,031
-610,474	45,896	-0,096	0,064
-609,459	29,372	-0,087	0,053
-608,444	800,000	-0,030	-0,081
-607,430	-140,990	0,105	0,008
-606,415	-23,667	0,035	-0,015
-605,401	-27,008	0,109	-0,046
-604,386	-44,505	0,116	0,042
-603,371	-200,000	0,029	-0,159
-602,357	-20,090	-0,066	0,030
-601,342	-200,000	-0,013	-0,098
-600,328	24,267	-0,041	0,024
-599,313	48,856	0,054	0,037
-598,298	147,922	0,063	-0,061
-597,284	87,268	-0,099	0,079
-596,269	104,947	0,025	0,021
-595,255	800,000	0,015	0,039
-594,240	800,000	-0,026	0,058
-593,225	800,000	0,016	0,042
-592,211	-150,417	-0,113	0,006
-591,196	-131,520	0,045	-0,004
-590,182	-78,717	-0,228	0,056
-589,167	-139,088	0,018	-0,001
-588,152	-200,000	0,006	0,128
-587,138	97,575	-0,064	-0,053
-586,123	-200,000	-0,021	-0,172
-585,109	-59,497	-0,151	-0,047
-584,094	149,290	0,167	-0,163
-583,079	-98,269	-0,126	0,023
-582,065	800,000	0,016	-0,045
-581,050	43,310	-0,086	0,057
-580,036	-46,148	0,093	0,033
-579,021	568,278	-0,043	-0,076
-578,006	51,991	-0,078	-0,054
-576,992	-200,000	0,005	-0,097
-575,977	122,514	0,024	0,022
-574,963	800,000	0,051	0,110
-573,948	-200,000	-0,026	0,110
-572,934	800,000	0,023	0,071
-571,919	200,076	0,086	-0,096
-570,904	-200,000	0,016	-0,134
-569,890	-142,567	-0,062	0,004
-568,875	-200,000	-0,013	-0,055
-567,861	57,807	-0,070	-0,049
-566,846	800,000	0,064	0,136
-565,831	202,611	-0,071	0,080
-564,817	-174,668	-0,041	-0,001
-563,802	-128,268	-0,021	0,002
-562,788	-139,777	0,028	0,002
-561,773	377,710	0,027	0,040
-560,758	-18,842	0,100	0,045
-559,744	98,507	0,084	-0,070
-558,729	-130,609	0,004	0,000
-557,715	800,000	-0,089	-0,200
-556,700	-80,091	-0,038	-0,009
-555,685	-70,955	0,058	0,016
-554,671	287,481	-0,125	0,165
-553,656	-200,000	-0,006	0,043
-552,642	594,970	0,043	-0,077
-551,627	-200,000	0,038	0,126
-550,612	800,000	0,036	0,086
-549,598	-200,000	-0,027	-0,088
-548,583	-3,260	0,047	0,024
-547,569	-200,000	0,030	-0,120
-546,554	251,469	0,072	0,088
-545,539	-127,302	-0,054	-0,006
-544,525	-87,895	0,055	-0,012
-543,510	800,000	-0,043	0,111
-542,496	17,909	-0,127	-0,073
-541,481	800,000	-0,036	-0,091
-540,466	-200,000	0,007	0,107
-539,452	-200,000	0,001	-0,076
-538,437	-30,535	0,080	0,033
-537,423	-131,953	0,086	-0,008
-536,408	237,397	0,109	-0,131
-535,393	800,000	-0,056	-0,122
-534,379	721,449	0,025	-0,049
-533,364	-200,000	-0,002	0,123
-532,350	43,160	-0,055	-0,036
-531,335	800,000	0,050	0,122
-530,321	-53,102	0,064	0,021
-529,306	-38,899	0,016	0,006
-528,291	-200,000	-0,020	-0,117
-527,277	-148,278	-0,140	-0,008
-526,262	800,000	-0,021	0,051
-525,248	800,000	0,019	0,040
-524,233	10,257	0,075	-0,041
-523,218	800,000	0,081	0,170
-522,204	485,314	0,029	-0,049
-521,189	800,000	-0,021	-0,048
-520,175	23,335	-0,029	0,017
-519,160	2,672	-0,142	-0,074
-518,145	141,333	0,088	0,084
-517,131	-200,000	-0,036	0,184
-516,116	-182,860	0,133	-0,002
-515,102	483,355	-0,063	0,104
-514,087	316,378	-0,021	0,028
-513,072	-162,852	-0,087	-0,003
-512,058	-0,747	-0,107	-0,055
-511,043	-37,954	-0,070	-0,027
-510,029	-9,143	0,083	-0,040
-509,014	79,876	0,068	-0,053
-507,999	178,511	0,040	0,042
-506,985	800,000	0,073	-0,187
-505,970	-122,175	-0,145	0,017
-504,956	-197,541	-0,081	0,000
-503,941	11,407	-0,080	-0,044
-502,926	-2,391	0,071	0,036
-501,912	3,608	0,082	0,043
-500,897	-200,000	-0,011	-0,068
-499,883	27,351	-0,089	0,054
-498,868	800,000	-0,047	-0,104
-497,853	800,000	0,018	-0,039
-496,839	-87,058	0,137	0,030
-495,824	291,645	0,055	0,072
-494,810	-200,000	0,009	0,038
-493,795	800,000	0,053	0,155
-492,781	324,972	-0,072	-0,100
-491,766	-90,400	-0,007	-0,001
-490,751	71,705	-0,110	-0,083
-489,737	122,828	0,048	-0,044
-488,722	71,667	0,008	-0,006
-487,708	106,357	-0,089	0,076
-486,693	-152,831	0,099	0,005
-485,678	527,916	0,014	0,023
-484,664	-200,000	-0,007	-0,037
-483,649	302,470	-0,041	-0,055
-482,635	174,791	-0,043	-0,045
-481,620	-55,112	0,103	-0,033
-480,605	800,000	0,017	-0,036
-479,591	357,857	-0,101	0,146
-478,576	50,059	-0,087	-0,059
-477,562	-57,091	-0,109	0,034
-476,547	-200,000	0,000	-0,025
-475,532	-200,000	-0,021	-0,074
-474,518	417,366	0,023	-0,035
-473,503	-200,000	-0,027	-0,088
-472,489	72,559	0,044	0,033
-471,474	293,631	-0,029	-0,039
-470,459	-200,000	0,019	0,085
-469,445	800,000	0,024	-0,055
-468,430	134,184	0,029	0,027
-467,416	-88,917	0,107	0,023
-466,401	-9,324	0,054	-0,026
-465,386	609,523	0,047	0,085
-464,372	350,047	0,052	0,074
-463,357	80,983	0,064	-0,050
-462,343	-200,000	0,008	-0,083
-461,328	151,077	0,007	0,007
-460,313	-74,350	0,078	0,020
-459,299	800,000	0,070	-0,157
-458,284	-127,106	-0,055	-0,006
-457,270	97,970	0,125	-0,104
-456,255	420,256	-0,098	0,151
-455,241	442,390	-0,066	0,105
-454,226	-107,345	-0,093	0,015
-453,211	123,434	-0,034	-0,030
-452,197	-125,221	0,059	-0,006
-451,182	307,694	-0,022	0,030
-450,168	800,000	-0,018	-0,036
-449,153	-91,494	-0,076	-0,015
-448,138	-68,460	-0,057	0,016
-447,124	522,304	0,044	-0,075
-446,109	87,441	0,035	-0,028
-445,095	800,000	0,001	-0,005
-444,080	-200,000	0,000	0,115
-443,065	99,106	-0,058	-0,049
-442,051	-200,000	-0,004	-0,076
-441,036	-144,623	-0,134	0,009
-440,022	399,221	-0,129	-0,195
-439,007	461,496	-0,051	0,082
-437,992	-82,949	0,159	-0,037
-436,978	30,579	0,043	-0,027
-435,963	-78,243	0,113	-0,028
-434,949	107,267	-0,040	-0,035
-433,934	-200,000	-0,020	-0,065
-432,919	-161,683	-0,094	-0,003
-431,905	-200,000	0,008	0,056
-430,890	-64,250	0,061	0,018
-429,876	333,514	0,042	0,059
-428,861	214,856	-0,036	-0,042
-427,846	-200,000	0,025	0,081
-426,832	81,773	-0,032	0,025
-425,817	141,720	0,054	-0,051
-424,803	-200,000	0,013	-0,058
-423,788	153,714	0,078	0,077
-422,773	-200,000	-0,003	-0,025
-421,759	297,993	0,068	0,090
-420,744	44,203	-0,047	0,031
-419,730	800,000	-0,057	-0,121
-418,715	70,972	-0,052	0,039
-417,701	204,109	0,044	-0,049
-416,686	-94,864	0,059	0,011
-415,671	753,727	-0,042	-0,081
-414,657	41,304	0,098	0,064
-413,642	800,000	-0,059	0,149
-412,628	203,690	0,066	0,074
-411,613	800,000	-0,080	-0,185
-410,598	-99,787	-0,106	0,019
-409,584	702,538	0,039	-0,074
-408,569	-200,000	0,004	-0,034
-407,555	204,034	0,140	0,157
-406,540	800,000	0,020	0,051
-405,525	101,658	-0,015	-0,013
-404,511	-128,767	0,068	0,007
-403,496	320,591	-0,034	-0,046
-402,482	-200,000	0,004	-0,023
-401,467	146,006	0,129	0,124
-400,452	-200,000	-0,023	0,142
-399,438	89,724	-0,092	0,073
-398,423	-200,000	0,010	-0,091
-397,409	-200,000	-0,009	0,056
-396,394	122,417	0,013	-0,012
-395,379	-191,965	0,131	0,001
-394,365	-57,627	0,250	0,078
-393,350	96,074	-0,163	0,134
-392,336	800,000	0,054	0,140
-391,321	416,435	0,059	-0,091
-390,306	-69,896	0,083	0,023
-389,292	-120,559	0,025	0,003
-388,277	717,154	-0,097	-0,187
-387,263	349,071	0,057	-0,082
-386,248	800,000	0,039	0,079
-385,233	93,042	-0,137	-0,112
-384,219	281,785	-0,061	-0,079
-383,204	-2,105	-0,081	-0,041
-382,190	206,024	-0,156	-0,175
-381,175	-143,881	0,071	-0,005
-380,160	-200,000	-0,009	-0,054
-379,146	68,382	0,037	-0,027
-378,131	-200,000	-0,001	-0,094
-377,117	-141,829	0,056	-0,004
-376,102	579,982	0,050	-0,089
-375,088	-80,805	-0,112	-0,026
-374,073	800,000	0,067	-0,139
-373,058	-200,000	0,012	-0,062
-372,044	-200,000	0,002	0,019
-371,029	110,412	0,028	0,024
-370,015	-55,690	0,037	0,012
-369,000	100,400	0,020	0,016
-367,985	800,000	-0,022	-0,063
-366,971	-200,000	0,012	-0,060
-365,956	529,567	0,026	-0,044
-364,942	800,000	0,035	-0,079
-363,927	-117,567	-0,178	-0,023
-362,912	130,517	0,119	0,110
-361,898	57,087	-0,041	-0,028
-360,883	-147,310	-0,071	0,004
-359,869	499,390	-0,069	-0,115
-358,854	-200,000	-0,027	0,089
-357,839	-200,000	0,021	-0,076
-356,825	37,601	0,103	-0,066
-355,810	-200,000	0,002	0,033
-354,796	214,226	-0,068	0,077
-353,781	392,153	0,035	-0,052
-352,766	-200,000	0,006	-0,091
-351,752	-84,954	0,056	0,012
-350,737	747,099	0,044	-0,086
-349,723	414,925	-0,064	0,098
-348,708	-90,381	0,095	-0,020
-347,693	341,773	0,028	0,039
-346,679	-53,252	0,184	-0,060
-345,664	343,553	-0,021	0,030
-344,650	-200,000	-0,001	0,016
-343,635	800,000	0,029	0,086
-342,620	3,296	0,109	0,057
-341,606	160,860	0,059	0,059
-340,591	181,894	-0,069	-0,073
-339,577	-88,878	-0,105	0,022
-338,562	-110,202	0,129	0,019
-337,548	-68,296	-0,083	0,023
-336,533	111,859	0,058	0,051
-335,518	-155,884	0,001	0,000
-334,504	-114,392	-0,075	0,010
-333,489	18,958	-0,011	-0,006
-332,475	-15,605	0,008	-0,004
-331,460	-42,439	0,048	-0,018
-330,445	800,000	-0,027	0,057
-329,431	700,614	0,035	-0,067
-328,416	-200,000	0,038	0,138
-327,402	112,907	0,065	0,057
-326,387	766,568	0,007	0,013
-325,372	408,657	0,056	0,086
-324,358	410,705	0,073	0,111
-323,343	800,000	0,019	0,052
-322,329	-200,000	-0,002	-0,057
-321,314	-53,216	0,037	0,012
-320,299	-15,338	0,069	-0,031
-319,285	-143,713	0,104	0,007
-318,270	-44,590	0,063	0,022
-317,256	158,324	-0,141	-0,140
-316,241	191,728	0,043	0,047
-315,226	-200,000	0,013	0,075
-314,212	-146,246	-0,034	0,002
-313,197	-31,635	0,154	0,062
-312,183	45,345	0,031	-0,021
-311,168	-147,154	-0,064	0,004
-310,153	-145,597	-0,041	0,003
-309,139	-110,822	-0,124	0,018
-308,124	295,363	-0,018	-0,024
-307,110	-200,000	0,035	0,246
-306,095	-200,000	0,039	0,157
-305,080	-90,398	0,079	-0,016
-304,066	-109,557	0,082	0,012
-303,051	-200,000	0,010	0,047
-302,037	-200,000	0,008	0,078
-301,022	734,680	0,088	0,170
-300,008	-24,929	0,062	0,026
-298,993	-200,000	-0,037	0,170
-297,978	-200,000	-0,032	0,103
-296,964	800,000	-0,023	-0,047
-295,949	-200,000	0,004	-0,091
-294,935	52,269	-0,072	-0,049
-293,920	-29,915	0,074	0,030
-292,905	-95,607	-0,065	-0,012
-291,891	127,948	0,138	0,125
-290,876	-200,000	0,004	0,015
-289,862	-80,397	-0,091	0,022
-288,847	-32,656	-0,094	-0,037
-287,832	367,641	-0,123	-0,178
-286,818	26,427	-0,094	0,056
-285,803	-200,000	0,000	-0,040
-284,789	139,805	-0,075	0,071
-283,774	800,000	0,053	0,143
-282,759	143,657	0,077	0,073
-281,745	56,353	0,089	0,062
-280,730	484,012	-0,074	0,121
-279,716	-200,000	-0,084	0,000
-278,701	-87,464	0,048	0,010
-277,686	463,954	-0,067	0,108
-276,672	-108,383	0,147	-0,022
-275,657	800,000	-0,007	0,021
-274,643	51,965	0,032	-0,022
-273,628	-200,000	-0,008	-0,061
-272,613	511,529	0,070	0,116
-271,599	-108,391	0,030	-0,005
-270,584	-57,145	-0,125	0,039
-269,570	-200,000	-0,006	0,055
-268,555	-200,000	-0,007	0,042
-267,540	-88,411	-0,111	-0,024
-266,526	-200,000	-0,030	-0,106
-265,511	160,169	-0,058	-0,058
-264,497	-200,000	-0,021	-0,127
-263,482	44,753	0,161	-0,105
-262,467	-65,685	-0,137	0,039
-261,453	-200,000	-0,030	0,117
-260,438	45,464	-0,089	-0,058
-259,424	6,671	-0,116	0,062
-258,409	272,799	-0,136	-0,172
-257,395	-89,826	-0,097	0,020
-256,380	138,593	0,056	-0,052
-255,365	-47,080	-0,057	-0,020
-254,351	130,151	0,017	-0,015
-253,336	800,000	-0,029	-0,071
-252,322	-125,030	-0,077	-0,008
-251,307	800,000	0,022	0,066
-250,292	-200,000	0,017	0,161
-249,278	110,160	-0,088	0,076
-248,263	-200,000	-0,001	0,055
-247,249	154,784	-0,067	0,066
-246,234	110,306	0,072	0,062
-245,219	235,004	-0,116	-0,137
-244,205	-123,967	0,040	0,004
-243,190	260,946	0,029	0,036
-242,176	-200,000	0,008	0,210
-241,161	-200,000	0,009	0,076
-240,146	800,000	0,031	-0,086
-239,132	-75,203	0,051	0,013
-238,117	-53,797	-0,115	0,037
-237,103	800,000	0,076	-0,172
-236,088	-15,311	0,007	0,003
-235,073	-200,000	-0,005	0,087
-234,059	-30,957	0,093	-0,037
-233,044	126,251	-0,061	0,055
-232,030	27,892	0,025	0,015
-231,015	-69,231	-0,081	0,022
-230,000	-200,000	0,045	-0,154
-228,986	95,670	0,077	-0,063
-227,971	-200,000	-0,011	0,058
-226,957	285,199	0,046	-0,059
-225,942	184,650	-0,049	0,051
-224,927	-200,000	0,029	-0,102
-223,913	-200,000	0,006	-0,028
-222,898	-25,449	0,089	-0,037
-221,884	286,882	-0,037	-0,048
-220,869	-171,485	-0,029	0,001
-219,855	-74,446	0,057	0,015
-218,840	63,951	-0,120	0,086
-217,825	-108,228	0,149	0,023
-216,811	800,000	-0,041	-0,119
-215,796	638,360	-0,057	-0,104
-214,782	800,000	-0,043	-0,121
-213,767	195,102	-0,055	0,060
-212,752	-102,977	0,050	-0,008
-211,738	-200,000	-0,003	0,133
-210,723	-93,721	-0,170	-0,033
-209,709	183,084	0,060	0,063
-208,694	-2,074	-0,072	-0,036
-207,679	152,008	-0,076	0,074
-206,665	226,181	0,069	0,080
-205,650	274,958	0,048	-0,061
-204,636	93,959	0,064	-0,052
-203,621	-200,000	0,008	-0,052
-202,606	-105,952	0,115	0,018
-201,592	-200,000	-0,036	-0,170
-200,577	-137,213	-0,178	-0,014
-199,563	346,089	0,036	-0,051
-198,548	94,247	-0,015	0,012
-197,533	63,885	0,136	0,097
-196,519	258,950	0,016	0,020
-195,504	101,763	-0,108	0,090
-194,490	-109,981	-0,077	-0,011
-193,475	-33,082	0,030	-0,012
-192,460	-7,695	-0,025	0,012
-191,446	-78,038	-0,111	-0,027
-190,431	800,000	-0,051	0,144
-189,417	-200,000	-0,005	0,065
-188,402	225,150	-0,023	0,027
-187,387	-46,302	-0,033	-0,012
-186,373	58,373	0,030	-0,021
-185,358	140,127	0,138	-0,130
-184,344	-80,694	0,145	-0,034
-183,329	-63,033	0,103	-0,030
-182,315	800,000	-0,024	0,062
-181,300	-136,910	0,149	0,012
-180,285	-200,000	-0,003	-0,099
-179,271	-70,251	0,056	-0,015
-178,256	439,834	0,061	0,096
-177,242	301,199	-0,032	-0,043
-176,227	800,000	-0,006	-0,017
-175,212	106,815	0,064	-0,054
-174,198	139,341	0,012	-0,011
-173,183	-200,000	0,024	0,076
-172,169	-97,220	-0,111	-0,020
-171,154	25,026	0,064	-0,038
-170,139	16,780	0,089	-0,050
-169,125	233,807	0,076	-0,089
-168,110	-26,577	0,082	0,034
-167,096	345,480	0,069	-0,097
-166,081	7,027	0,105	0,056
-165,066	243,255	-0,076	-0,091
-164,052	-65,664	0,053	-0,015
-163,037	190,957	-0,060	0,065
-162,023	-103,731	-0,080	0,013
-161,008	-200,000	-0,015	-0,076
-159,993	290,852	-0,062	0,080
-158,979	255,965	-0,046	-0,056
-157,964	157,979	0,072	-0,071
-156,950	-97,325	0,086	-0,016
-155,935	-3,959	0,122	0,060
-154,920	800,000	-0,006	0,018
-153,906	-200,000	-0,025	0,079
-152,891	-97,378	0,062	0,011
-151,877	-122,768	-0,115	0,013
-150,862	363,937	0,055	-0,080
-149,847	76,152	0,014	0,011
-148,833	-70,819	-0,063	0,017
-147,818	65,349	0,036	0,026
-146,804	-200,000	0,011	0,093
-145,789	800,000	0,048	0,108
-144,775	-200,000	0,020	-0,144
-143,760	800,000	-0,027	-0,071
-142,745	-31,084	-0,185	-0,074
-141,731	-200,000	0,002	-0,056
-140,716	-28,902	0,088	0,036
-139,702	611,413	-0,039	-0,071
-138,687	-200,000	-0,051	-0,160
-137,672	-200,000	-0,022	-0,089
-136,658	285,980	-0,099	-0,127
-135,643	-200,000	-0,011	-0,103
-134,629	706,956	0,045	-0,086
-133,614	-107,578	0,050	-0,008
-132,599	-200,000	-0,006	-0,052
-131,585	-3,693	0,091	0,045
-130,570	191,640	0,067	-0,072
-129,556	503,304	0,026	0,043
-128,541	116,842	0,057	0,050
-127,526	-4,081	-0,160	0,079
-126,512	671,209	0,052	0,096
-125,497	27,073	0,083	0,050
-124,483	522,587	0,036	-0,061
-123,468	-200,000	0,014	0,092
-122,453	-163,857	-0,191	-0,006
-121,439	-200,000	-0,013	0,060
-120,424	-27,126	-0,110	0,046
-119,410	800,000	0,021	-0,058
-118,395	-72,748	0,070	-0,018
