DTS Sentinel unit serial number:	SN410029Multiplexer serial number:	ORYXHardware model number:	OX2-SRSoftware version number:	ORYX F/W v4,00 Oryx Data Collector v3.7.2.0data status	okinstallation	BH3 CH2differential loss correction	single-endedforward channel	channel 2reverse channel	N/Adate	2023/12/06time	01:47:28forward acquisition time	300,00reverse acquisition time	0,00gamma	499,1914k internal	0,3196k external	0,3196temperature offset calibration	1,0000default loss term (dB/km)	0,3820temperature slope calibration	1,0000multiplexer offset coefficient	1,0000multiplexer slope coefficient	1,0000fibre end	0,00T internal ref (°C)	9,14T ext. ref 1 (°C)	-5,78T ext. ref 2 (°C)	-5,86length (m)	temperature (°C)	Stokes	anti-Stokes-744,400	-200,000	0,015	-0,147
-743,385	-154,092	-0,188	0,009
-742,371	65,926	0,068	0,050
-741,356	229,667	-0,165	0,197
-740,342	-39,082	-0,131	0,050
-739,327	-142,036	-0,152	0,011
-738,312	603,180	0,092	-0,167
-737,298	-186,992	-0,226	0,002
-736,283	-21,151	0,039	0,017
-735,269	-103,623	-0,107	0,018
-734,254	-200,000	-0,010	-0,108
-733,239	-35,398	-0,407	-0,160
-732,225	-17,082	0,172	0,079
-731,210	334,540	0,056	0,080
-730,196	-109,053	-0,052	-0,008
-729,181	37,162	-0,100	-0,065
-728,167	100,519	0,060	-0,050
-727,152	240,708	-0,081	0,099
-726,137	-31,116	-0,059	-0,024
-725,123	-200,000	0,004	0,064
-724,108	-15,756	-0,158	0,073
-723,094	272,886	0,074	-0,096
-722,079	-200,000	0,022	-0,129
-721,064	-200,000	-0,024	-0,080
-720,050	48,708	-0,062	-0,042
-719,035	-115,105	0,023	-0,003
-718,021	-105,206	-0,081	0,013
-717,006	800,000	-0,037	0,103
-715,991	-19,554	-0,162	-0,073
-714,977	131,319	-0,055	-0,052
-713,962	381,814	0,031	0,046
-712,948	122,299	0,140	0,127
-711,933	-200,000	0,008	0,161
-710,918	-200,000	0,010	-0,045
-709,904	-97,633	-0,061	0,011
-708,889	-200,000	0,014	-0,196
-707,875	800,000	0,056	-0,113
-706,860	-87,701	-0,098	0,021
-705,845	-200,000	-0,001	-0,030
-704,831	396,857	-0,021	-0,032
-703,816	125,383	-0,031	-0,029
-702,802	745,009	-0,030	-0,058
-701,787	-103,207	-0,004	-0,001
-700,772	-145,329	0,058	0,004
-699,758	-4,128	-0,133	-0,067
-698,743	-90,114	0,074	0,016
-697,729	31,772	0,076	-0,048
-696,714	465,352	-0,102	-0,166
-695,699	233,400	0,056	0,067
-694,685	-112,513	-0,079	0,011
-693,670	-106,967	0,031	-0,005
-692,656	-200,000	0,013	-0,132
-691,641	-45,981	0,112	0,040
-690,627	-68,660	0,072	-0,020
-689,612	292,106	0,032	0,042
-688,597	-23,916	-0,184	-0,080
-687,583	-34,583	-0,105	0,042
-686,568	768,550	-0,027	-0,054
-685,554	-149,756	-0,010	0,001
-684,539	-99,347	0,071	0,013
-683,524	259,358	-0,029	-0,036
-682,510	438,662	-0,064	-0,101
-681,495	800,000	-0,054	-0,134
-680,481	-71,907	-0,164	-0,044
-679,466	-200,000	-0,019	-0,113
-678,451	-200,000	0,007	-0,126
-677,437	-9,463	0,028	0,014
-676,422	682,203	0,029	0,056
-675,408	-200,000	0,009	0,043
-674,393	424,560	0,030	-0,047
-673,378	359,384	0,013	0,019
-672,364	-200,000	-0,008	-0,065
-671,349	115,761	-0,144	0,128
-670,335	74,423	0,152	-0,116
-669,320	-200,000	0,041	0,000
-668,305	-200,000	-0,020	-0,089
-667,291	170,901	0,038	0,040
-666,276	632,763	0,022	0,040
-665,262	-200,000	-0,008	0,024
-664,247	324,138	0,016	0,022
-663,232	31,885	-0,057	-0,036
-662,218	32,689	0,063	-0,039
-661,203	558,705	0,031	0,055
-660,189	-200,000	-0,028	-0,133
-659,174	-200,000	-0,001	-0,010
-658,159	-66,896	-0,078	-0,022
-657,145	446,351	-0,057	-0,091
-656,130	458,618	0,014	-0,022
-655,116	800,000	-0,022	-0,050
-654,101	-43,365	0,120	0,044
-653,086	640,342	0,049	-0,090
-652,072	94,925	0,029	0,024
-651,057	205,705	-0,115	-0,130
-650,043	-200,000	-0,009	-0,054
-649,028	13,758	-0,037	0,021
-648,014	-200,000	-0,026	0,105
-646,999	89,867	-0,105	-0,085
-645,984	-200,000	-0,021	0,073
-644,970	-200,000	-0,002	0,007
-643,955	24,966	-0,113	0,068
-642,941	800,000	-0,027	-0,059
-641,926	-200,000	0,011	-0,050
-640,911	114,187	-0,066	0,058
-639,897	35,261	0,046	0,029
-638,882	502,372	-0,030	-0,050
-637,868	408,490	-0,028	-0,043
-636,853	123,910	-0,068	0,062
-635,838	800,000	-0,035	-0,109
-634,824	47,952	0,119	-0,080
-633,809	-112,582	0,013	0,002
-632,795	-16,205	0,107	0,049
-631,780	-200,000	-0,020	0,128
-630,765	-200,000	0,008	-0,039
-629,751	115,164	0,046	-0,040
-628,736	-30,157	-0,066	-0,027
-627,722	-159,205	0,176	0,007
-626,707	375,072	0,059	0,087
-625,692	-106,159	0,104	0,017
-624,678	800,000	-0,035	0,094
-623,663	800,000	0,077	0,210
-622,649	106,341	-0,021	-0,018
-621,634	-2,370	0,015	0,008
-620,619	-107,286	-0,114	-0,018
-619,605	-200,000	0,001	0,035
-618,590	-15,152	-0,139	0,064
-617,576	-200,000	-0,029	0,106
-616,561	800,000	-0,018	0,041
-615,546	-200,000	-0,022	-0,143
-614,532	-200,000	0,000	0,096
-613,517	122,714	-0,071	0,064
-612,503	47,447	-0,069	0,046
-611,488	-72,068	0,187	-0,050
-610,474	181,592	0,060	-0,064
-609,459	800,000	-0,009	-0,022
-608,444	172,211	-0,077	0,081
-607,430	-99,224	0,085	0,015
-606,415	-145,539	-0,152	0,010
-605,401	-147,969	0,081	-0,005
-604,386	-85,817	0,053	-0,012
-603,371	372,214	-0,030	-0,044
-602,357	749,308	0,072	-0,142
-601,342	-200,000	-0,006	-0,048
-600,328	-200,000	0,003	0,060
-599,313	-62,325	-0,032	-0,010
-598,298	-138,965	-0,106	-0,008
-597,284	404,079	0,059	0,090
-596,269	-200,000	0,006	0,099
-595,255	-44,434	-0,120	0,043
-594,240	59,273	-0,024	0,017
-593,225	-200,000	-0,024	-0,157
-592,211	800,000	0,025	0,056
-591,196	261,897	-0,041	0,051
-590,182	-145,036	0,127	0,008
-589,167	-200,000	0,014	0,074
-588,152	15,222	0,079	0,045
-587,138	-200,000	0,004	-0,091
-586,123	-60,700	-0,151	-0,046
-585,109	102,234	-0,097	-0,082
-584,094	-200,000	0,000	0,107
-583,079	148,268	0,036	-0,035
-582,065	-200,000	0,026	0,144
-581,050	800,000	0,012	-0,034
-580,036	-200,000	0,000	-0,057
-579,021	749,476	-0,015	0,029
-578,006	196,241	-0,055	-0,060
-576,992	27,277	-0,090	-0,054
-575,977	-102,829	-0,171	-0,029
-574,963	-12,817	0,117	-0,055
-573,948	-200,000	0,003	-0,157
-572,934	-200,000	-0,020	0,075
-571,919	-200,000	-0,019	-0,071
-570,904	-45,207	0,047	-0,017
-569,890	62,935	0,111	-0,080
-568,875	173,801	-0,078	-0,081
-567,861	800,000	0,045	-0,091
-566,846	-200,000	-0,003	0,107
-565,831	-22,747	0,144	-0,063
-564,817	55,983	-0,133	-0,093
-563,802	612,114	-0,073	-0,132
-562,788	49,157	0,028	0,019
-561,773	-161,416	0,123	-0,005
-560,758	800,000	0,035	0,108
-559,744	-121,254	0,087	0,010
-558,729	141,042	-0,125	-0,120
-557,715	51,729	0,142	-0,098
-556,700	-119,355	0,073	-0,009
-555,685	21,389	-0,021	-0,012
-554,671	-131,029	0,084	0,008
-553,656	-67,055	0,065	-0,019
-552,642	121,493	0,134	0,120
-551,627	37,786	0,051	-0,033
-550,612	-200,000	-0,024	-0,096
-549,598	-111,971	0,102	-0,015
-548,583	-200,000	-0,027	-0,158
-547,569	-32,775	0,063	-0,025
-546,554	-42,900	-0,092	0,034
-545,539	-5,943	-0,082	-0,041
-544,525	78,321	-0,041	0,032
-543,510	139,554	-0,101	-0,096
-542,496	192,827	0,060	-0,065
-541,481	-103,362	-0,062	-0,010
-540,466	-79,064	0,154	-0,037
-539,452	-200,000	-0,012	0,104
-538,437	376,985	0,042	0,062
-537,423	22,286	-0,103	0,061
-536,408	146,252	-0,107	0,103
-535,393	313,722	-0,054	-0,074
-534,379	-110,148	-0,050	0,007
-533,364	-44,734	0,051	-0,018
-532,350	-37,384	0,081	-0,031
-531,335	193,585	0,046	0,050
-530,321	158,492	0,078	0,079
-529,306	186,224	-0,115	0,124
-528,291	-200,000	-0,000	-0,025
-527,277	666,768	-0,022	0,040
-526,262	-71,340	0,159	-0,043
-525,248	800,000	0,018	-0,043
-524,233	405,251	0,076	-0,116
-523,218	-141,371	-0,062	0,004
-522,204	494,937	0,035	0,058
-521,189	-13,982	-0,085	0,040
-520,175	-28,940	-0,128	-0,053
-519,160	278,794	0,005	0,006
-518,145	72,510	0,115	-0,087
-517,131	-200,000	0,018	0,091
-516,116	-174,807	-0,084	-0,002
-515,102	248,892	0,062	0,076
-514,087	224,946	-0,084	-0,099
-513,072	520,278	0,008	-0,014
-512,058	530,590	-0,109	-0,186
-511,043	-200,000	0,011	0,059
-510,029	800,000	0,014	0,039
-509,014	-200,000	0,009	0,091
-507,999	-200,000	0,007	0,027
-506,985	-56,279	-0,059	0,019
-505,970	427,249	0,054	-0,084
-504,956	104,912	-0,069	-0,058
-503,941	-24,688	0,052	-0,022
-502,926	-200,000	0,009	0,046
-501,912	-200,000	-0,002	0,058
-500,897	-32,444	0,052	-0,021
-499,883	-93,895	-0,130	-0,026
-498,868	-200,000	0,005	0,050
-497,853	202,070	0,016	-0,017
-496,839	-14,625	-0,077	-0,035
-495,824	94,032	0,099	0,081
-494,810	800,000	-0,037	0,083
-493,795	55,333	0,066	0,046
-492,781	-200,000	0,003	-0,044
-491,766	-97,228	-0,175	-0,033
-490,751	58,934	-0,094	-0,066
-489,737	-88,913	-0,124	0,026
-488,722	-133,518	0,135	0,012
-487,708	-95,833	-0,052	0,010
-486,693	-200,000	0,010	-0,071
-485,678	-100,354	0,034	0,006
-484,664	-84,169	0,117	-0,027
-483,649	71,277	-0,043	-0,032
-482,635	-23,918	0,075	0,032
-481,620	-20,658	-0,099	0,044
-480,605	-200,000	-0,008	0,092
-479,591	-200,000	0,039	0,199
-478,576	264,488	0,043	0,054
-477,562	278,208	-0,109	-0,141
-476,547	-200,000	0,012	-0,068
-475,532	269,297	-0,019	-0,024
-474,518	332,717	0,110	0,153
-473,503	-52,946	0,057	0,019
-472,489	-14,420	-0,042	-0,019
-471,474	512,287	0,097	0,163
-470,459	-141,283	0,109	-0,008
-469,445	766,649	0,013	0,025
-468,430	800,000	0,005	0,014
-467,416	411,016	0,011	0,016
-466,401	755,114	0,037	0,072
-465,386	800,000	0,043	0,105
-464,372	-200,000	-0,001	-0,145
-463,357	544,009	0,052	0,090
-462,343	485,576	-0,059	-0,098
-461,328	-200,000	0,003	-0,043
-460,313	-200,000	0,017	0,118
-459,299	-171,198	-0,130	-0,003
-458,284	402,427	0,087	0,132
-457,270	110,275	-0,122	0,105
-456,255	156,662	0,050	0,050
-455,241	318,281	-0,068	-0,093
-454,226	-26,422	-0,026	-0,011
-453,211	800,000	0,008	0,019
-452,197	800,000	-0,028	0,065
-451,182	-115,920	0,117	0,016
-450,168	252,693	-0,030	0,037
-449,153	-200,000	0,019	-0,114
-448,138	-11,174	-0,094	0,044
-447,124	79,532	0,079	-0,061
-446,109	178,450	-0,052	-0,055
-445,095	475,611	-0,037	-0,060
-444,080	687,743	0,081	0,154
-443,065	237,007	-0,023	-0,027
-442,051	-200,000	-0,006	0,040
-441,036	174,343	0,024	0,025
-440,022	409,060	0,061	-0,093
-439,007	-200,000	0,062	-0,223
-437,992	-1,693	0,085	0,043
-436,978	-200,000	0,031	0,139
-435,963	566,666	0,026	0,046
-434,949	68,355	-0,067	-0,050
-433,934	194,406	-0,054	-0,059
-432,919	612,031	-0,082	-0,148
-431,905	335,772	0,036	-0,050
-430,890	-200,000	-0,019	0,101
-429,876	800,000	-0,014	0,040
-428,861	-200,000	-0,004	0,084
-427,846	-94,177	-0,074	0,014
-426,832	-200,000	0,006	-0,057
-425,817	686,989	0,016	-0,031
-424,803	587,102	-0,052	-0,092
-423,788	512,645	0,034	0,057
-422,773	-23,983	0,064	0,027
-421,759	-133,062	-0,127	0,011
-420,744	43,743	-0,089	0,058
-419,730	151,962	0,009	-0,009
-418,715	38,243	-0,097	-0,062
-417,701	71,617	-0,043	-0,032
-416,686	586,074	-0,039	0,070
-415,671	611,101	-0,023	0,042
-414,657	428,234	0,041	0,063
-413,642	-200,000	-0,004	0,123
-412,628	800,000	0,010	0,026
-411,613	-106,721	-0,078	-0,012
-410,598	-200,000	0,010	-0,071
-409,584	800,000	0,032	0,085
-408,569	159,360	0,048	0,048
-407,555	800,000	0,008	-0,022
-406,540	689,096	0,005	-0,009
-405,525	-91,028	-0,087	-0,018
-404,511	-88,351	-0,144	-0,031
-403,496	236,424	-0,054	0,064
-402,482	-89,442	0,055	-0,012
-401,467	730,733	-0,005	0,009
-400,452	800,000	-0,051	0,121
-399,438	256,612	-0,028	-0,035
-398,423	-20,983	0,053	0,023
-397,409	-200,000	-0,007	-0,032
-396,394	301,403	-0,052	-0,070
-395,379	-200,000	-0,001	0,076
-394,365	8,299	-0,024	0,013
-393,350	-200,000	0,015	0,097
-392,336	-200,000	0,008	0,134
-391,321	800,000	-0,021	0,063
-390,306	526,201	0,045	0,077
-389,292	800,000	-0,045	-0,127
-388,277	-200,000	0,006	0,114
-387,263	17,648	0,040	-0,023
-386,248	-200,000	0,010	0,119
-385,233	729,620	0,019	0,036
-384,219	169,657	-0,102	-0,105
-383,204	314,477	-0,059	-0,079
-382,190	145,552	-0,070	-0,067
-381,175	-104,982	0,129	0,021
-380,160	186,929	-0,046	0,050
-379,146	-200,000	-0,032	0,155
-378,131	131,945	0,051	0,047
-377,117	800,000	-0,023	0,057
-376,102	-165,900	0,102	0,003
-375,088	100,806	-0,107	-0,089
-374,073	800,000	0,029	-0,083
-373,058	800,000	0,018	0,045
-372,044	-104,777	0,019	0,003
-371,029	-200,000	-0,001	0,010
-370,015	800,000	-0,030	-0,066
-369,000	-42,539	-0,173	0,063
-367,985	-58,379	-0,117	-0,036
-366,971	-200,000	0,000	-0,066
-365,956	77,346	-0,071	0,054
-364,942	800,000	0,045	0,117
-363,927	-66,248	0,056	0,016
-362,912	84,655	0,105	-0,083
-361,898	-105,804	-0,156	0,025
-360,883	-20,476	-0,166	-0,073
-359,869	36,998	-0,015	0,009
-358,854	800,000	-0,014	-0,040
-357,839	-200,000	0,023	-0,138
-356,825	800,000	-0,026	0,066
-355,810	-98,315	-0,094	0,017
-354,796	-34,464	0,060	0,023
-353,781	-103,351	-0,089	0,015
-352,766	-81,498	-0,120	0,028
-351,752	-158,130	0,119	0,005
-350,737	484,466	-0,030	0,049
-349,723	-142,139	0,162	0,011
-348,708	15,652	0,030	0,017
-347,693	32,138	0,152	-0,094
-346,679	190,811	-0,092	-0,100
-345,664	-126,517	-0,142	-0,015
-344,650	-11,895	0,130	-0,061
-343,635	-163,827	-0,238	-0,008
-342,620	-7,688	0,113	0,054
-341,606	800,000	-0,060	-0,121
-340,591	-78,125	-0,154	-0,038
-339,577	-104,366	-0,109	-0,018
-338,562	-23,628	0,165	-0,071
-337,548	197,886	0,053	0,058
-336,533	800,000	0,068	0,155
-335,518	242,421	0,077	0,093
-334,504	-19,714	-0,084	-0,037
-333,489	7,160	-0,179	-0,096
-332,475	239,541	-0,099	-0,118
-331,460	-132,535	0,037	0,003
-330,445	36,019	-0,044	0,028
-329,431	800,000	0,043	0,100
-328,416	800,000	0,060	0,129
-327,402	800,000	0,061	0,156
-326,387	-200,000	-0,000	-0,050
-325,372	-200,000	-0,015	-0,091
-324,358	-200,000	0,024	0,152
-323,343	-102,494	-0,196	-0,033
-322,329	-200,000	-0,003	0,095
-321,314	120,620	-0,059	0,052
-320,299	-53,011	0,110	0,036
-319,285	26,998	0,067	-0,040
-318,270	-200,000	0,008	-0,075
-317,256	800,000	0,023	-0,063
-316,241	-24,344	0,070	-0,030
-315,226	658,883	-0,032	-0,059
-314,212	490,365	0,068	-0,111
-313,197	384,692	0,045	0,067
-312,183	49,721	0,051	0,034
-311,168	800,000	-0,021	-0,043
-310,153	-200,000	0,010	0,116
-309,139	800,000	0,029	-0,078
-308,124	-200,000	-0,043	0,144
-307,110	-163,542	0,141	-0,005
-306,095	800,000	-0,021	0,053
-305,080	45,963	0,129	0,085
-304,066	658,247	-0,119	-0,220
-303,051	-182,055	-0,152	-0,002
-302,037	141,361	0,054	0,051
-301,022	258,559	-0,047	-0,058
-300,008	-114,481	0,126	0,017
-298,993	295,456	0,038	0,050
-297,978	-163,013	-0,061	0,002
-296,964	28,695	-0,075	-0,046
-295,949	-20,702	-0,110	0,048
-294,935	-84,260	0,113	0,025
-293,920	261,252	0,044	-0,055
-292,905	-200,000	0,013	-0,087
-291,891	-200,000	-0,001	-0,078
-290,876	106,775	0,058	0,050
-289,862	-60,808	-0,102	0,031
-288,847	111,470	-0,034	-0,029
-287,832	800,000	-0,051	-0,102
-286,818	-115,555	-0,036	-0,005
-285,803	12,590	0,080	0,044
-284,789	795,899	0,069	0,137
-283,774	-3,655	0,082	-0,041
-282,759	-126,813	0,098	-0,010
-281,745	800,000	0,019	-0,047
-280,730	800,000	-0,009	0,027
-279,716	58,999	0,054	-0,038
-278,701	-2,850	0,063	0,031
-277,686	-90,247	-0,066	0,014
-276,672	-200,000	-0,002	0,058
-275,657	-161,909	-0,115	-0,004
-274,643	217,418	0,064	0,074
-273,628	253,932	-0,025	-0,030
-272,613	-30,097	0,073	-0,030
-271,599	800,000	-0,050	0,155
-270,584	-200,000	0,004	-0,014
-269,570	115,346	0,119	0,104
-268,555	256,513	-0,036	0,044
-267,540	181,678	0,068	-0,071
-266,526	-200,000	-0,004	-0,021
-265,511	800,000	-0,056	-0,134
-264,497	-200,000	0,005	-0,027
-263,482	-200,000	-0,012	0,059
-262,467	502,609	0,048	0,079
-261,453	-8,142	-0,086	-0,041
-260,438	468,412	0,054	-0,086
-259,424	504,440	-0,111	-0,185
-258,409	591,232	-0,044	-0,077
-257,395	-200,000	-0,000	-0,011
-256,380	56,154	-0,042	0,029
-255,365	-200,000	0,010	-0,044
-254,351	-200,000	-0,010	0,140
-253,336	652,439	-0,082	-0,151
-252,322	-4,118	0,097	-0,048
-251,307	12,539	0,129	0,071
-250,292	-45,807	-0,085	-0,030
-249,278	57,229	0,062	-0,043
-248,263	-96,348	-0,063	0,012
-247,249	-200,000	-0,006	0,031
-246,234	200,007	0,117	0,129
-245,219	-93,088	0,028	-0,005
-244,205	27,314	-0,123	-0,073
-243,190	157,805	-0,114	0,113
-242,176	587,284	0,055	0,097
-241,161	13,449	0,078	-0,043
-240,146	146,623	-0,031	0,030
-239,132	414,073	0,100	-0,153
-238,117	613,128	-0,060	0,108
-237,103	88,145	0,110	-0,087
-236,088	-200,000	-0,002	-0,086
-235,073	92,963	0,069	-0,056
-234,059	-27,313	-0,065	0,027
-233,044	800,000	0,078	-0,184
-232,030	114,724	-0,057	-0,050
-231,015	-200,000	0,001	0,089
-230,000	800,000	0,018	-0,042
-228,986	13,041	-0,119	0,065
-227,971	-200,000	-0,026	0,000
-226,957	-73,283	0,124	0,032
-225,942	800,000	0,037	0,080
-224,927	58,901	-0,043	-0,030
-223,913	-200,000	0,019	-0,138
-222,898	-200,000	0,006	-0,087
-221,884	-200,000	-0,022	0,132
-220,869	124,805	0,049	0,044
-219,855	800,000	0,025	0,076
-218,840	53,853	0,054	0,037
-217,825	513,041	0,023	0,039
-216,811	-200,000	0,048	0,170
-215,796	507,097	-0,041	0,069
-214,782	800,000	0,018	-0,052
-213,767	68,518	-0,102	-0,074
-212,752	69,954	-0,040	-0,029
-211,738	-200,000	0,036	0,119
-210,723	800,000	-0,045	0,113
-209,709	-200,000	0,004	-0,135
-208,694	-0,813	-0,013	0,007
-207,679	490,635	-0,034	-0,055
-206,665	-93,521	0,122	0,024
-205,650	46,831	0,149	0,099
-204,636	131,592	0,061	0,056
-203,621	-1,290	0,134	0,067
-202,606	336,162	-0,080	-0,111
-201,592	-200,000	-0,027	-0,112
-200,577	30,467	0,038	0,023
-199,563	111,770	-0,051	-0,044
-198,548	-34,339	0,087	0,034
-197,533	-35,141	0,006	0,002
-196,519	-200,000	-0,035	-0,149
-195,504	800,000	-0,047	-0,095
-194,490	-61,039	-0,128	0,038
-193,475	359,490	0,077	-0,110
-192,460	-113,336	-0,013	0,002
-191,446	-200,000	0,027	-0,183
-190,431	12,626	0,105	0,057
-189,417	313,789	-0,030	-0,040
-188,402	800,000	-0,057	-0,117
-187,387	-200,000	-0,015	-0,121
-186,373	91,131	0,080	-0,064
-185,358	-200,000	-0,001	-0,065
-184,344	-200,000	-0,010	-0,140
-183,329	66,268	-0,011	-0,008
-182,315	-42,135	0,040	0,014
-181,300	-20,732	-0,069	0,030
-180,285	-15,162	0,033	-0,015
-179,271	-97,078	-0,045	-0,008
-178,256	328,281	-0,027	-0,037
-177,242	386,917	0,070	0,103
-176,227	89,804	-0,067	-0,054
-175,212	451,499	0,103	0,162
-174,198	51,937	-0,051	-0,035
-173,183	438,957	0,015	0,023
-172,169	-87,924	-0,099	0,021
-171,154	-137,514	-0,056	0,004
-170,139	-200,000	0,023	-0,089
-169,125	-200,000	0,019	-0,134
-168,110	-22,190	0,055	0,024
-167,096	800,000	0,052	0,115
-166,081	478,286	0,034	0,055
-165,066	-200,000	0,053	-0,176
-164,052	800,000	-0,053	-0,132
-163,037	100,441	0,096	0,079
-162,023	800,000	0,064	0,167
-161,008	-118,812	0,165	-0,020
-159,993	21,107	0,076	-0,044
-158,979	-111,283	-0,050	0,007
-157,964	-200,000	0,046	-0,270
-156,950	212,888	0,077	0,087
-155,935	-200,000	0,022	0,079
-154,920	800,000	-0,015	0,048
-153,906	-200,000	0,018	-0,065
-152,891	-200,000	0,012	-0,071
-151,877	418,956	-0,066	-0,101
-150,862	-200,000	-0,009	-0,081
-149,847	-166,327	0,093	0,003
-148,833	350,633	0,083	0,117
-147,818	800,000	-0,028	0,059
-146,804	800,000	0,022	-0,056
-145,789	-200,000	-0,009	-0,163
-144,775	-30,076	-0,133	-0,054
-143,760	6,449	-0,120	-0,063
-142,745	601,520	0,008	-0,014
-141,731	-114,197	0,167	0,023
-140,716	-79,924	0,084	-0,020
-139,702	85,401	-0,067	-0,053
-138,687	-200,000	-0,039	0,150
-137,672	-17,254	0,138	-0,062
-136,658	428,601	-0,028	-0,043
-135,643	506,245	-0,067	-0,112
-134,629	29,384	0,014	0,008
-133,614	-8,467	0,068	-0,032
-132,599	-15,188	0,056	0,025
-131,585	59,836	0,055	0,039
-130,570	49,825	-0,162	-0,108
-129,556	-200,000	-0,003	0,031
-128,541	440,248	-0,100	-0,155
-127,526	138,211	-0,081	0,076
-126,512	15,404	0,070	0,039
-125,497	-167,986	0,029	0,001
-124,483	-65,078	0,052	-0,015
-123,468	278,430	-0,045	0,057
-122,453	800,000	-0,043	-0,101
-121,439	-200,000	0,006	0,070
-120,424	82,975	-0,065	-0,050
-119,410	386,442	0,056	0,082
