DTS Sentinel unit serial number:	SN410029Multiplexer serial number:	ORYXHardware model number:	OX2-SRSoftware version number:	ORYX F/W v4,00 Oryx Data Collector v3.7.2.0data status	okinstallation	BH3 CH2differential loss correction	single-endedforward channel	channel 2reverse channel	N/Adate	2023/12/05time	15:12:28forward acquisition time	300,00reverse acquisition time	0,00gamma	499,1914k internal	0,3193k external	0,3193temperature offset calibration	1,0000default loss term (dB/km)	0,3820temperature slope calibration	1,0000multiplexer offset coefficient	1,0000multiplexer slope coefficient	1,0000fibre end	0,00T internal ref (°C)	11,02T ext. ref 1 (°C)	-3,24T ext. ref 2 (°C)	-3,35length (m)	temperature (°C)	Stokes	anti-Stokes-744,400	221,357	-0,072	-0,084
-743,385	-134,667	-0,151	-0,013
-742,371	263,024	-0,042	-0,053
-741,356	-121,475	-0,132	0,016
-740,342	-31,367	-0,172	-0,070
-739,327	133,609	-0,179	0,169
-738,312	800,000	0,031	-0,071
-737,298	43,440	-0,226	0,150
-736,283	31,639	-0,013	0,008
-735,269	-144,808	-0,142	0,009
-734,254	-200,000	-0,011	-0,060
-733,239	-116,940	-0,454	-0,060
-732,225	-145,942	0,020	0,001
-731,210	441,955	-0,116	0,186
-730,196	334,148	-0,046	0,064
-729,181	-28,509	-0,075	-0,031
-728,167	800,000	-0,049	0,116
-727,152	-80,208	-0,090	0,022
-726,137	-16,511	-0,147	0,068
-725,123	-32,055	-0,240	-0,098
-724,108	-200,000	-0,027	-0,102
-723,094	173,555	-0,147	-0,154
-722,079	309,615	-0,047	0,064
-721,064	-200,000	0,007	0,097
-720,050	144,242	0,071	-0,069
-719,035	-200,000	-0,001	0,023
-718,021	570,145	-0,069	-0,123
-717,006	-78,669	-0,130	0,032
-715,991	110,672	-0,114	-0,100
-714,977	-76,419	-0,076	-0,019
-713,962	-200,000	0,003	-0,153
-712,948	-75,725	-0,075	-0,019
-711,933	-200,000	0,012	0,120
-710,918	17,733	0,077	0,044
-709,904	720,662	0,014	0,026
-708,889	15,843	-0,079	0,045
-707,875	-200,000	-0,018	-0,066
-706,860	-143,747	-0,050	0,003
-705,845	-1,056	-0,093	0,048
-704,831	40,918	0,055	0,036
-703,816	29,055	-0,119	-0,074
-702,802	-74,104	-0,094	-0,025
-701,787	-40,591	-0,254	-0,095
-700,772	-99,731	-0,077	-0,014
-699,758	-76,721	0,103	-0,026
-698,743	153,386	-0,024	0,024
-697,729	-200,000	0,016	0,100
-696,714	-200,000	0,029	0,138
-695,699	-107,628	-0,034	-0,005
-694,685	-88,526	-0,145	-0,031
-693,670	-26,415	-0,170	-0,072
-692,656	-101,912	0,063	-0,011
-691,641	-200,000	0,002	0,132
-690,627	-61,414	-0,071	0,021
-689,612	47,480	-0,139	-0,094
-688,597	16,156	-0,006	-0,004
-687,583	-200,000	-0,006	-0,038
-686,568	62,081	-0,067	0,049
-685,554	-200,000	-0,016	0,099
-684,539	-123,285	0,081	0,009
-683,524	98,926	0,077	-0,065
-682,510	-200,000	0,010	-0,061
-681,495	-61,002	-0,108	0,033
-680,481	-200,000	-0,009	-0,072
-679,466	-161,143	-0,067	-0,002
-678,451	-9,474	-0,049	0,024
-677,437	800,000	-0,049	-0,154
-676,422	252,020	0,071	0,088
-675,408	6,245	0,063	0,034
-674,393	-200,000	-0,012	0,052
-673,378	-200,000	-0,045	-0,261
-672,364	-200,000	-0,030	-0,112
-671,349	-79,583	0,071	0,017
-670,335	-5,059	-0,085	0,043
-669,320	-114,314	-0,026	-0,004
-668,305	800,000	-0,029	-0,067
-667,291	-1,931	-0,073	-0,037
-666,276	-200,000	-0,001	0,026
-665,262	-88,626	-0,159	0,034
-664,247	-110,516	0,049	-0,007
-663,232	-200,000	0,000	-0,052
-662,218	-64,919	-0,072	-0,021
-661,203	-200,000	0,040	0,133
-660,189	-46,477	-0,040	0,014
-659,174	-200,000	-0,018	-0,110
-658,159	-200,000	0,011	-0,120
-657,145	-173,174	0,040	-0,001
-656,130	-200,000	-0,003	0,054
-655,116	167,886	0,069	0,071
-654,101	119,742	0,023	0,021
-653,086	-200,000	0,030	-0,124
-652,072	709,351	0,006	-0,012
-651,057	-110,506	-0,092	-0,014
-650,043	-2,668	0,081	-0,041
-649,028	-96,904	0,085	-0,016
-648,014	74,169	-0,028	-0,021
-646,999	-99,928	-0,105	-0,019
-645,984	-115,139	0,123	-0,017
-644,970	-18,396	0,072	-0,033
-643,955	-75,143	-0,067	0,017
-642,941	-200,000	-0,005	-0,146
-641,926	519,883	-0,062	-0,106
-640,911	-200,000	-0,001	0,071
-639,897	399,262	-0,046	0,071
-638,882	800,000	-0,026	0,075
-637,868	-42,209	-0,063	-0,023
-636,853	73,641	-0,021	-0,016
-635,838	-200,000	-0,023	0,104
-634,824	-88,338	-0,065	0,014
-633,809	364,614	0,026	0,039
-632,795	-200,000	-0,013	0,055
-631,780	83,527	-0,056	0,044
-630,765	-200,000	-0,024	-0,105
-629,751	-200,000	0,013	-0,044
-628,736	-93,800	-0,120	-0,024
-627,722	-200,000	-0,015	0,056
-626,707	-30,982	0,134	-0,055
-625,692	170,650	-0,049	0,051
-624,678	-200,000	0,011	-0,077
-623,663	-60,587	0,075	-0,023
-622,649	800,000	-0,025	-0,073
-621,634	-27,410	-0,155	-0,065
-620,619	-200,000	-0,030	-0,134
-619,605	-63,563	-0,144	0,043
-618,590	-200,000	0,021	-0,088
-617,576	-105,886	-0,044	0,007
-616,561	-52,891	0,152	0,050
-615,546	324,798	-0,073	-0,101
-614,532	286,629	0,055	-0,072
-613,517	-88,789	-0,036	-0,008
-612,503	-200,000	0,035	-0,216
-611,488	691,960	-0,032	0,061
-610,474	-82,034	-0,083	0,020
-609,459	-200,000	0,005	-0,089
-608,444	300,448	-0,048	-0,064
-607,430	158,128	-0,068	-0,068
-606,415	157,864	-0,055	-0,055
-605,401	54,041	0,059	-0,041
-604,386	-200,000	0,003	0,081
-603,371	800,000	0,018	0,050
-602,357	-200,000	0,026	0,089
-601,342	111,691	0,035	0,031
-600,328	710,534	-0,029	-0,055
-599,313	-53,567	-0,061	0,020
-598,298	-116,409	0,099	0,013
-597,284	-117,214	0,096	-0,013
-596,269	157,627	0,071	0,071
-595,255	471,980	-0,024	0,040
-594,240	652,545	0,036	-0,066
-593,225	-42,035	-0,129	-0,048
-592,211	129,034	-0,111	-0,103
-591,196	-42,427	0,205	0,075
-590,182	800,000	0,036	-0,074
-589,167	109,999	0,069	-0,060
-588,152	19,785	0,066	0,039
-587,138	744,739	-0,021	0,041
-586,123	-40,270	-0,065	-0,025
-585,109	800,000	0,020	-0,056
-584,094	800,000	0,024	-0,057
-583,079	-200,000	0,025	0,091
-582,065	800,000	0,059	0,141
-581,050	-79,545	0,065	-0,016
-580,036	522,060	-0,042	-0,071
-579,021	-117,563	0,179	-0,023
-578,006	322,756	-0,114	-0,158
-576,992	-200,000	-0,014	-0,130
-575,977	-200,000	-0,020	0,075
-574,963	-200,000	-0,002	-0,057
-573,948	-143,996	-0,098	0,007
-572,934	-12,124	0,110	-0,052
-571,919	-37,530	0,066	-0,025
-570,904	546,510	-0,052	-0,090
-569,890	-39,722	-0,165	0,062
-568,875	133,981	0,074	-0,070
-567,861	787,466	-0,005	0,011
-566,846	-95,245	0,130	0,025
-565,831	180,521	-0,066	0,070
-564,817	175,730	-0,078	-0,082
-563,802	366,329	0,055	-0,080
-562,788	800,000	-0,040	-0,109
-561,773	43,419	-0,059	0,039
-560,758	-61,244	0,122	0,037
-559,744	-6,163	0,030	-0,015
-558,729	191,995	-0,054	0,059
-557,715	-157,091	0,165	0,007
-556,700	87,783	-0,082	0,066
-555,685	237,150	-0,073	-0,087
-554,671	-60,513	0,093	0,028
-553,656	323,066	0,066	0,091
-552,642	-25,410	0,077	0,033
-551,627	-200,000	0,022	0,172
-550,612	-108,686	-0,095	-0,015
-549,598	88,368	-0,099	-0,079
-548,583	-200,000	0,018	-0,113
-547,569	-143,435	0,036	0,002
-546,554	-8,507	0,057	0,028
-545,539	800,000	-0,036	-0,090
-544,525	303,280	0,049	0,065
-543,510	745,478	0,015	-0,029
-542,496	-200,000	0,008	0,133
-541,481	590,342	-0,089	-0,160
-540,466	-200,000	-0,002	0,059
-539,452	573,474	0,020	-0,035
-538,437	-200,000	-0,000	0,054
-537,423	800,000	0,021	-0,054
-536,408	221,533	0,044	-0,051
-535,393	12,297	-0,115	-0,064
-534,379	601,959	0,045	0,082
-533,364	-200,000	-0,005	0,021
-532,350	-200,000	-0,011	-0,053
-531,335	-200,000	0,018	-0,086
-530,321	-200,000	-0,047	0,168
-529,306	-200,000	0,035	0,263
-528,291	182,803	0,058	-0,062
-527,277	-200,000	0,004	-0,020
-526,262	-200,000	0,004	-0,090
-525,248	-200,000	-0,008	0,067
-524,233	800,000	-0,046	0,102
-523,218	-200,000	-0,003	0,158
-522,204	-200,000	-0,020	0,064
-521,189	800,000	0,007	0,021
-520,175	-142,090	-0,222	0,016
-519,160	459,246	0,019	-0,031
-518,145	-200,000	0,003	-0,114
-517,131	180,890	0,146	0,155
-516,116	-101,173	-0,102	0,018
-515,102	-142,814	-0,039	0,003
-514,087	135,168	-0,125	-0,118
-513,072	79,775	0,121	-0,094
-512,058	-200,000	0,000	0,015
-511,043	-107,822	-0,051	0,008
-510,029	89,954	0,052	0,042
-509,014	-47,445	-0,105	0,037
-507,999	-42,323	-0,139	-0,051
-506,985	165,614	0,048	0,049
-505,970	800,000	-0,018	-0,055
-504,956	271,255	-0,050	-0,064
-503,941	-116,188	0,091	-0,012
-502,926	33,833	-0,072	-0,045
-501,912	-38,994	0,029	0,011
-500,897	131,341	0,092	0,085
-499,883	99,963	-0,081	0,068
-498,868	72,678	-0,090	-0,067
-497,853	76,080	0,057	0,043
-496,839	-126,413	0,080	0,009
-495,824	-8,141	0,110	-0,053
-494,810	131,585	0,061	-0,056
-493,795	622,711	0,023	0,042
-492,781	520,302	0,016	-0,027
-491,766	-200,000	-0,021	-0,121
-490,751	-66,702	-0,139	0,039
-489,737	-200,000	0,003	0,058
-488,722	-2,274	0,091	0,046
-487,708	132,812	-0,097	-0,090
-486,693	-200,000	0,003	-0,022
-485,678	339,479	-0,060	-0,085
-484,664	738,150	0,063	0,123
-483,649	-200,000	0,029	0,131
-482,635	106,640	0,055	-0,047
-481,620	-200,000	0,015	0,113
-480,605	480,385	-0,078	-0,128
-479,591	288,137	0,079	-0,104
-478,576	-200,000	-0,032	-0,150
-477,562	186,085	-0,158	-0,170
-476,547	-128,960	-0,033	-0,003
-475,532	268,438	0,035	0,045
-474,518	80,513	0,036	0,028
-473,503	800,000	0,021	0,048
-472,489	-95,520	0,057	-0,011
-471,474	87,801	-0,084	0,067
-470,459	-200,000	-0,000	-0,046
-469,445	800,000	-0,015	-0,038
-468,430	-200,000	0,013	0,150
-467,416	800,000	0,029	-0,073
-466,401	246,082	0,019	0,023
-465,386	-41,521	-0,031	0,011
-464,372	-200,000	0,004	-0,034
-463,357	-33,460	0,018	-0,007
-462,343	80,150	-0,053	-0,041
-461,328	-7,509	0,120	0,058
-460,313	-102,646	-0,057	-0,010
-459,299	800,000	0,058	0,170
-458,284	-200,000	0,022	0,162
-457,270	-156,493	-0,101	-0,004
-456,255	-200,000	-0,001	-0,067
-455,241	-17,726	-0,072	0,032
-454,226	37,139	-0,077	0,049
-453,211	-28,243	-0,143	0,059
-452,197	-27,092	-0,074	0,031
-451,182	-200,000	0,032	-0,105
-450,168	800,000	-0,029	0,071
-449,153	524,445	0,062	-0,106
-448,138	698,180	-0,034	-0,064
-447,124	-102,503	-0,070	-0,012
-446,109	214,133	-0,020	0,023
-445,095	11,612	0,024	-0,013
-444,080	15,294	0,066	-0,037
-443,065	-200,000	-0,029	-0,116
-442,051	-75,857	0,103	-0,026
-441,036	-200,000	-0,017	0,154
-440,022	460,468	0,050	-0,080
-439,007	-89,444	-0,067	-0,014
-437,992	-3,991	0,152	0,076
-436,978	682,823	0,030	0,057
-435,963	100,536	-0,051	0,043
-434,949	-9,079	0,080	-0,038
-433,934	206,943	-0,079	-0,089
-432,919	-200,000	0,011	-0,049
-431,905	-200,000	-0,032	0,146
-430,890	-200,000	0,015	-0,065
-429,876	800,000	0,026	0,067
-428,861	48,218	-0,074	-0,050
-427,846	-200,000	0,029	0,133
-426,832	-200,000	0,023	0,105
-425,817	-200,000	0,015	0,079
-424,803	-52,500	0,120	-0,040
-423,788	6,189	0,100	-0,053
-422,773	800,000	-0,030	0,061
-421,759	-178,275	0,105	0,002
-420,744	186,950	-0,096	-0,103
-419,730	-200,000	-0,110	0,000
-418,715	-49,273	-0,095	-0,033
-417,701	279,441	-0,029	0,037
-416,686	50,492	0,062	0,042
-415,671	-47,607	0,069	0,024
-414,657	-200,000	0,009	0,135
-413,642	-24,713	0,087	0,037
-412,628	156,843	-0,069	-0,068
-411,613	800,000	0,052	-0,126
-410,598	800,000	0,037	-0,081
-409,584	58,905	-0,147	-0,104
-408,569	-55,384	-0,039	-0,012
-407,555	113,215	0,114	-0,099
-406,540	-200,000	-0,003	-0,068
-405,525	188,528	0,038	0,041
-404,511	170,061	0,060	-0,061
-403,496	74,109	-0,081	-0,061
-402,482	-94,445	0,068	0,013
-401,467	166,182	0,028	0,028
-400,452	157,441	-0,081	0,081
-399,438	26,537	-0,108	-0,065
-398,423	421,522	0,045	0,070
-397,409	-200,000	0,019	-0,172
-396,394	-200,000	0,005	-0,129
-395,379	-200,000	0,018	-0,086
-394,365	80,213	0,115	-0,089
-393,350	800,000	0,044	-0,091
-392,336	56,267	0,081	-0,056
-391,321	87,005	0,025	-0,020
-390,306	-200,000	-0,014	0,054
-389,292	-67,001	0,122	-0,034
-388,277	-142,213	-0,118	-0,008
-387,263	-149,040	-0,053	-0,003
-386,248	61,463	0,044	-0,032
-385,233	800,000	-0,054	0,149
-384,219	-97,007	0,027	-0,005
-383,204	-28,974	0,034	0,014
-382,190	-136,439	0,065	0,005
-381,175	-146,534	0,110	-0,007
-380,160	-44,535	0,186	0,067
-379,146	516,978	0,072	0,121
-378,131	669,644	0,043	0,080
-377,117	124,032	0,041	0,037
-376,102	10,375	0,046	0,025
-375,088	-37,622	0,040	-0,015
-374,073	63,583	-0,081	0,058
-373,058	-200,000	0,005	0,114
-372,044	-190,993	-0,099	0,001
-371,029	-90,344	-0,146	0,030
-370,015	800,000	0,030	-0,063
-369,000	-200,000	-0,033	-0,106
-367,985	378,659	0,088	-0,129
-366,971	-63,672	-0,033	0,010
-365,956	800,000	0,063	-0,133
-364,942	800,000	-0,075	0,215
-363,927	800,000	0,046	0,108
-362,912	-69,439	-0,144	-0,039
-361,898	-200,000	0,012	-0,043
-360,883	-200,000	-0,013	-0,041
-359,869	-200,000	-0,003	-0,036
-358,854	-49,702	0,149	0,051
-357,839	46,964	0,137	0,091
-356,825	800,000	-0,034	0,080
-355,810	800,000	-0,076	0,172
-354,796	371,734	-0,020	0,030
-353,781	-200,000	-0,021	-0,176
-352,766	113,914	0,039	-0,034
-351,752	-112,596	0,027	-0,004
-350,737	179,046	-0,034	0,035
-349,723	800,000	0,031	0,067
-348,708	-200,000	0,029	-0,107
-347,693	-200,000	-0,027	-0,206
-346,679	800,000	0,022	0,045
-345,664	-58,970	-0,072	-0,022
-344,650	776,714	0,068	-0,135
-343,635	27,202	-0,081	0,049
-342,620	-20,368	-0,101	0,044
-341,606	660,039	-0,038	0,070
-340,591	192,113	-0,082	0,089
-339,577	-55,082	-0,051	0,016
-338,562	186,014	-0,074	-0,079
-337,548	340,608	0,079	0,111
-336,533	-104,718	0,174	0,029
-335,518	93,716	0,040	0,032
-334,504	73,358	-0,100	0,075
-333,489	-115,169	-0,106	0,014
-332,475	-165,271	0,045	0,001
-331,460	-97,674	-0,023	0,004
-330,445	797,748	0,034	-0,067
-329,431	42,045	0,051	-0,033
-328,416	762,048	0,024	-0,047
-327,402	800,000	0,052	0,126
-326,387	63,069	-0,095	0,068
-325,372	800,000	-0,055	-0,121
-324,358	-51,065	-0,086	0,029
-323,343	-200,000	0,024	0,082
-322,329	365,319	0,032	0,046
-321,314	-23,972	-0,026	-0,011
-320,299	9,220	0,033	-0,018
-319,285	90,949	-0,018	0,014
-318,270	42,762	-0,131	0,086
-317,256	-200,000	-0,032	-0,116
-316,241	735,541	-0,041	-0,078
-315,226	-200,000	0,025	-0,098
-314,212	-200,000	0,017	0,125
-313,197	-200,000	-0,002	-0,059
-312,183	-51,120	-0,197	-0,066
-311,168	-200,000	-0,029	-0,102
-310,153	-200,000	-0,001	-0,196
-309,139	107,519	-0,073	0,062
-308,124	-6,883	0,033	0,016
-307,110	-80,160	-0,047	0,011
-306,095	84,287	0,087	0,068
-305,080	-76,595	-0,136	0,034
-304,066	-90,237	0,046	-0,010
-303,051	-200,000	-0,001	-0,076
-302,037	674,762	0,035	-0,066
-301,022	800,000	-0,022	0,049
-300,008	-33,008	0,143	0,057
-298,993	281,842	0,089	0,115
-297,978	111,493	0,071	0,062
-296,964	1,372	0,040	-0,021
-295,949	-200,000	-0,003	-0,125
-294,935	261,240	0,058	0,072
-293,920	57,886	-0,025	0,017
-292,905	127,566	0,091	0,083
-291,891	-200,000	-0,026	0,137
-290,876	-200,000	0,005	0,117
-289,862	465,759	-0,087	-0,140
-288,847	-106,907	-0,055	-0,009
-287,832	67,085	-0,067	-0,049
-286,818	357,601	-0,035	-0,050
-285,803	11,155	-0,084	0,046
-284,789	128,727	-0,054	0,050
-283,774	124,397	-0,120	0,108
-282,759	-200,000	-0,036	0,136
-281,745	-200,000	-0,000	0,097
-280,730	223,299	0,062	-0,071
-279,716	-200,000	0,004	0,120
-278,701	-200,000	0,043	0,145
-277,686	-200,000	-0,011	-0,111
-276,672	-200,000	0,029	0,182
-275,657	800,000	0,069	0,156
-274,643	-85,710	-0,168	-0,037
-273,628	-21,559	-0,091	-0,040
-272,613	281,184	0,037	-0,047
-271,599	-200,000	0,007	0,077
-270,584	-200,000	-0,017	0,067
-269,570	-167,527	0,127	0,004
-268,555	800,000	0,042	-0,098
-267,540	95,934	0,142	-0,116
-266,526	598,432	-0,051	-0,090
-265,511	498,195	-0,022	-0,036
-264,497	165,437	0,095	0,096
-263,482	49,361	0,094	0,063
-262,467	483,469	0,075	0,123
-261,453	220,869	0,106	-0,122
-260,438	-112,493	-0,128	-0,018
-259,424	272,309	-0,071	-0,090
-258,409	195,588	0,078	-0,085
-257,395	146,861	-0,078	-0,075
-256,380	106,759	0,041	0,035
-255,365	97,250	0,064	-0,052
-254,351	-140,788	-0,027	-0,002
-253,336	-200,000	-0,005	0,099
-252,322	-200,000	-0,004	-0,064
-251,307	784,712	0,079	-0,156
-250,292	126,331	-0,046	0,042
-249,278	-126,081	0,042	0,004
-248,263	-80,424	0,086	0,020
-247,249	189,335	0,065	0,070
-246,234	-61,662	0,058	0,017
-245,219	-12,656	-0,093	-0,043
-244,205	-200,000	0,032	0,112
-243,190	325,331	-0,091	0,125
-242,176	800,000	0,049	0,118
-241,161	321,035	0,010	-0,014
-240,146	447,518	0,087	0,138
-239,132	269,687	-0,043	0,055
-238,117	310,827	0,016	0,021
-237,103	-15,537	-0,077	-0,035
-236,088	348,808	-0,129	0,182
-235,073	-186,311	0,139	-0,001
-234,059	365,488	0,067	0,097
-233,044	800,000	0,060	0,155
-232,030	-200,000	0,034	-0,130
-231,015	-200,000	-0,001	-0,072
-230,000	331,572	-0,091	0,125
-228,986	-200,000	0,001	-0,032
-227,971	73,679	-0,134	-0,100
-226,957	-200,000	0,032	0,116
-225,942	800,000	-0,024	0,048
-224,927	-200,000	0,017	0,081
-223,913	23,521	0,029	-0,017
-222,898	278,282	-0,081	-0,103
-221,884	-146,777	0,085	0,005
-220,869	362,261	0,051	0,073
-219,855	-117,059	0,058	0,008
-218,840	153,448	0,127	0,124
-217,825	625,196	-0,034	0,061
-216,811	-200,000	-0,011	-0,062
-215,796	95,448	-0,051	0,041
-214,782	98,017	-0,035	0,028
-213,767	-144,660	0,191	-0,012
-212,752	-134,342	-0,114	-0,010
-211,738	586,301	-0,103	-0,181
-210,723	96,085	0,076	0,062
-209,709	100,271	-0,086	-0,071
-208,694	800,000	0,047	-0,095
-207,679	44,225	-0,030	0,020
-206,665	30,922	-0,047	0,029
-205,650	4,358	0,154	-0,080
-204,636	-200,000	-0,005	-0,025
-203,621	800,000	0,013	0,032
-202,606	-200,000	0,001	0,033
-201,592	-200,000	0,021	-0,070
-200,577	-146,381	-0,088	0,005
-199,563	-43,985	0,072	0,026
-198,548	39,179	0,158	0,101
-197,533	220,919	0,039	-0,045
-196,519	-5,843	-0,033	0,016
-195,504	-50,877	0,058	-0,019
-194,490	-200,000	-0,022	-0,102
-193,475	-200,000	0,001	-0,067
-192,460	58,656	0,049	0,034
-191,446	-50,897	0,155	-0,052
-190,431	-86,339	0,045	-0,010
-189,417	-122,297	-0,068	-0,008
-188,402	146,590	-0,132	0,127
-187,387	-200,000	-0,000	0,074
-186,373	-7,579	0,053	0,026
-185,358	-70,637	-0,078	-0,021
-184,344	460,158	0,022	-0,035
-183,329	-108,280	-0,056	0,009
-182,315	-200,000	-0,029	0,142
-181,300	144,236	-0,079	-0,076
-180,285	-200,000	-0,007	-0,131
-179,271	79,769	-0,045	-0,034
-178,256	40,204	-0,141	-0,090
-177,242	-130,876	0,044	-0,004
-176,227	22,637	0,110	-0,064
-175,212	226,664	0,032	-0,037
-174,198	139,906	-0,094	0,089
-173,183	-28,589	-0,057	0,024
-172,169	89,186	-0,079	0,062
-171,154	-200,000	-0,024	0,106
-170,139	60,733	0,133	0,094
-169,125	-7,917	0,035	0,017
-168,110	-184,593	0,058	0,001
-167,096	-62,376	-0,066	-0,020
-166,081	-200,000	-0,005	-0,039
-165,066	-200,000	-0,023	-0,122
-164,052	-86,080	-0,098	0,021
-163,037	-54,454	0,046	0,015
-162,023	437,321	0,054	0,083
-161,008	-146,477	0,031	0,002
-159,993	31,827	0,081	0,049
-158,979	-200,000	-0,044	-0,163
-157,964	84,977	-0,206	-0,161
-156,950	719,410	-0,027	-0,051
-155,935	800,000	0,013	0,040
-154,920	107,776	0,082	-0,070
-153,906	800,000	-0,012	0,037
-152,891	-200,000	-0,033	0,121
-151,877	-200,000	-0,005	0,083
-150,862	-200,000	-0,028	-0,118
-149,847	-33,253	0,064	-0,025
-148,833	800,000	0,048	0,123
-147,818	114,299	0,089	-0,078
-146,804	63,602	-0,121	-0,086
-145,789	-200,000	0,015	0,055
-144,775	800,000	-0,003	-0,007
-143,760	113,699	0,067	-0,058
-142,745	-200,000	-0,005	-0,051
-141,731	-200,000	-0,009	0,124
-140,716	-47,509	0,084	0,029
-139,702	598,097	0,035	-0,061
-138,687	10,557	0,065	0,035
-137,672	50,640	0,168	-0,113
-136,658	88,984	-0,026	-0,021
-135,643	291,049	-0,095	-0,123
-134,629	-149,248	-0,030	-0,002
-133,614	-200,000	-0,001	0,058
-132,599	800,000	-0,022	-0,049
-131,585	800,000	-0,079	0,184
-130,570	178,860	-0,093	-0,097
-129,556	-200,000	0,007	-0,078
-128,541	-200,000	0,013	0,068
-127,526	135,684	-0,013	0,012
-126,512	-200,000	0,018	-0,145
-125,497	72,022	-0,114	-0,084
-124,483	-100,120	0,027	0,005
-123,468	49,495	-0,081	0,054
-122,453	401,242	0,042	0,063
-121,439	-81,854	-0,138	-0,032
-120,424	800,000	0,018	0,039
-119,410	144,669	0,018	-0,017
