DTS Sentinel unit serial number:	SN410029Multiplexer serial number:	ORYXHardware model number:	OX2-SRSoftware version number:	ORYX F/W v4,00 Oryx Data Collector v3.7.2.0data status	okinstallation	BH3 CH2differential loss correction	single-endedforward channel	channel 2reverse channel	N/Adate	2023/12/05time	21:42:28forward acquisition time	300,00reverse acquisition time	0,00gamma	499,1914k internal	0,3194k external	0,3194temperature offset calibration	1,0000default loss term (dB/km)	0,3820temperature slope calibration	1,0000multiplexer offset coefficient	1,0000multiplexer slope coefficient	1,0000fibre end	0,00T internal ref (°C)	10,25T ext. ref 1 (°C)	-4,73T ext. ref 2 (°C)	-4,82length (m)	temperature (°C)	Stokes	anti-Stokes-744,400	-200,000	0,009	-0,094
-743,385	244,717	-0,132	0,162
-742,371	-200,000	0,014	-0,063
-741,356	191,344	-0,129	0,142
-740,342	644,396	0,052	-0,096
-739,327	11,572	-0,222	0,124
-738,312	44,713	-0,143	-0,096
-737,298	-86,846	-0,180	-0,040
-736,283	-200,000	-0,000	-0,222
-735,269	-18,173	-0,171	0,078
-734,254	-84,755	-0,188	-0,043
-733,239	-64,949	-0,289	-0,085
-732,225	-200,000	-0,038	-0,137
-731,210	3,599	-0,045	0,024
-730,196	-200,000	-0,016	-0,105
-729,181	132,999	-0,046	-0,043
-728,167	800,000	-0,050	-0,102
-727,152	173,326	-0,042	0,045
-726,137	-71,078	0,096	-0,026
-725,123	131,933	-0,066	0,062
-724,108	-157,494	-0,156	0,007
-723,094	33,222	-0,132	-0,084
-722,079	-200,000	0,000	-0,003
-721,064	369,760	0,081	-0,120
-720,050	-200,000	-0,025	-0,121
-719,035	800,000	0,015	0,044
-718,021	-200,000	0,015	-0,073
-717,006	255,605	-0,045	0,056
-715,991	-200,000	-0,008	-0,061
-714,977	-13,289	-0,120	-0,057
-713,962	361,397	0,030	0,044
-712,948	284,706	0,065	-0,085
-711,933	-200,000	0,012	-0,048
-710,918	-134,697	0,060	0,005
-709,904	1,937	0,117	-0,061
-708,889	197,662	0,065	-0,072
-707,875	-200,000	-0,015	-0,155
-706,860	-6,247	0,021	-0,011
-705,845	353,731	0,039	0,057
-704,831	33,089	0,167	0,105
-703,816	208,055	-0,051	-0,058
-702,802	-200,000	0,019	-0,121
-701,787	800,000	-0,058	-0,133
-700,772	-200,000	0,017	-0,067
-699,758	-3,499	0,083	0,042
-698,743	-200,000	0,020	-0,073
-697,729	-55,734	0,014	0,005
-696,714	-70,322	0,022	0,006
-695,699	322,648	-0,044	0,061
-694,685	-200,000	-0,025	-0,127
-693,670	435,002	-0,080	-0,128
-692,656	310,145	-0,025	0,034
-691,641	124,749	0,172	0,158
-690,627	-95,058	0,139	-0,027
-689,612	800,000	0,060	0,137
-688,597	-75,096	0,073	0,019
-687,583	238,102	0,061	0,074
-686,568	-200,000	-0,020	0,101
-685,554	71,711	-0,078	-0,059
-684,539	-200,000	0,026	-0,202
-683,524	-132,625	-0,022	-0,002
-682,510	-22,407	-0,029	-0,013
-681,495	47,053	-0,030	0,020
-680,481	308,944	0,045	0,062
-679,466	-200,000	0,012	-0,055
-678,451	-200,000	-0,007	-0,116
-677,437	-31,928	0,027	-0,011
-676,422	800,000	0,047	0,139
-675,408	44,544	-0,113	-0,075
-674,393	800,000	-0,037	-0,088
-673,378	248,646	-0,043	0,053
-672,364	-185,164	-0,095	0,001
-671,349	-200,000	-0,005	-0,061
-670,335	800,000	0,049	0,099
-669,320	127,024	0,128	0,118
-668,305	-16,133	-0,035	-0,016
-667,291	-96,321	-0,119	-0,023
-666,276	-139,110	0,041	0,003
-665,262	137,631	0,078	0,075
-664,247	586,420	0,045	0,081
-663,232	800,000	-0,031	0,069
-662,218	-40,395	0,078	0,029
-661,203	-200,000	-0,001	0,042
-660,189	-37,328	-0,146	-0,056
-659,174	-57,523	-0,068	-0,021
-658,159	800,000	-0,045	0,134
-657,145	39,199	-0,053	-0,034
-656,130	721,756	-0,034	0,066
-655,116	-200,000	-0,004	-0,074
-654,101	-200,000	-0,002	-0,028
-653,086	-38,473	-0,178	0,068
-652,072	-200,000	0,017	0,153
-651,057	171,007	-0,077	-0,080
-650,043	188,583	0,069	-0,075
-649,028	800,000	-0,033	0,084
-648,014	-200,000	-0,035	0,119
-646,999	800,000	0,088	0,202
-645,984	800,000	0,076	0,160
-644,970	-46,468	0,054	-0,019
-643,955	548,444	0,067	-0,116
-642,941	33,325	-0,019	0,012
-641,926	72,862	0,030	0,023
-640,911	22,047	0,033	0,019
-639,897	3,840	0,141	0,074
-638,882	-57,360	-0,216	-0,068
-637,868	217,211	0,081	0,093
-636,853	-200,000	-0,015	-0,101
-635,838	329,595	-0,039	-0,055
-634,824	-62,211	0,161	-0,048
-633,809	-200,000	-0,020	-0,093
-632,795	-200,000	0,009	0,074
-631,780	54,230	-0,036	0,025
-630,765	163,885	-0,019	0,020
-629,751	-86,579	-0,186	-0,041
-628,736	617,882	0,037	-0,069
-627,722	74,750	0,088	-0,068
-626,707	-131,161	0,096	-0,009
-625,692	800,000	0,024	-0,073
-624,678	-200,000	0,029	0,097
-623,663	66,453	-0,013	0,010
-622,649	-70,171	0,142	-0,039
-621,634	800,000	-0,037	-0,097
-620,619	215,581	-0,026	-0,030
-619,605	-38,081	0,068	-0,026
-618,590	-118,187	0,151	0,019
-617,576	402,503	-0,018	0,028
-616,561	127,111	-0,092	0,085
-615,546	15,213	0,051	0,029
-614,532	800,000	-0,017	0,035
-613,517	800,000	0,039	0,081
-612,503	-145,635	-0,120	-0,008
-611,488	100,752	-0,077	-0,065
-610,474	594,425	-0,063	-0,114
-609,459	121,857	-0,081	-0,073
-608,444	-33,735	0,140	-0,056
-607,430	800,000	-0,012	-0,027
-606,415	800,000	-0,046	-0,099
-605,401	-200,000	-0,033	-0,121
-604,386	226,746	-0,071	0,083
-603,371	800,000	-0,003	0,009
-602,357	-197,244	-0,074	0,000
-601,342	800,000	-0,033	-0,068
-600,328	437,304	0,021	-0,033
-599,313	800,000	-0,068	-0,152
-598,298	-80,337	0,129	-0,031
-597,284	46,826	-0,145	0,097
-596,269	140,545	0,061	0,058
-595,255	-117,843	-0,052	-0,007
-594,240	-0,268	-0,087	-0,045
-593,225	-48,757	0,030	-0,010
-592,211	-41,969	-0,041	0,015
-591,196	-200,000	0,018	0,072
-590,182	-162,395	0,138	-0,005
-589,167	800,000	-0,051	0,128
-588,152	-200,000	0,005	0,039
-587,138	-66,974	-0,068	0,019
-586,123	-157,155	-0,040	0,002
-585,109	264,112	0,013	0,016
-584,094	33,170	-0,019	-0,012
-583,079	-47,382	0,127	-0,044
-582,065	-200,000	0,007	0,125
-581,050	-50,706	-0,054	0,018
-580,036	-112,470	0,043	-0,006
-579,021	8,758	-0,098	-0,053
-578,006	-200,000	-0,003	0,016
-576,992	-200,000	-0,012	-0,205
-575,977	-200,000	-0,002	0,160
-574,963	-200,000	0,017	0,157
-573,948	-73,331	0,122	0,032
-572,934	178,204	-0,086	0,091
-571,919	-0,971	-0,081	0,041
-570,904	47,255	-0,062	0,042
-569,890	-15,714	-0,098	-0,045
-568,875	-200,000	-0,008	0,127
-567,861	72,463	0,065	-0,049
-566,846	440,837	0,022	-0,035
-565,831	572,802	0,032	-0,057
-564,817	-200,000	-0,033	-0,135
-563,802	-22,406	-0,093	-0,040
-562,788	470,737	-0,055	-0,090
-561,773	-136,198	0,028	-0,002
-560,758	346,582	-0,020	-0,029
-559,744	-77,004	0,077	0,019
-558,729	-112,469	0,194	-0,028
-557,715	-200,000	-0,006	-0,044
-556,700	800,000	0,027	0,071
-555,685	62,369	-0,041	0,029
-554,671	192,353	-0,087	0,095
-553,656	-12,250	-0,013	0,006
-552,642	-138,286	0,212	0,017
-551,627	800,000	0,029	-0,084
-550,612	-200,000	-0,006	-0,063
-549,598	800,000	-0,056	-0,128
-548,583	-110,201	-0,096	-0,014
-547,569	-17,932	0,103	0,046
-546,554	-102,893	-0,019	0,003
-545,539	613,908	-0,025	0,046
-544,525	219,890	0,086	0,099
-543,510	-200,000	0,026	0,210
-542,496	800,000	-0,055	-0,119
-541,481	-200,000	-0,007	-0,026
-540,466	715,735	-0,042	0,081
-539,452	560,018	-0,030	0,053
-538,437	-143,005	-0,019	-0,001
-537,423	-69,514	-0,137	-0,038
-536,408	-25,703	-0,146	-0,062
-535,393	800,000	0,022	-0,053
-534,379	-200,000	-0,008	0,054
-533,364	800,000	-0,052	-0,104
-532,350	-39,035	-0,113	0,043
-531,335	800,000	0,052	0,114
-530,321	388,381	0,004	-0,006
-529,306	-159,387	0,049	0,002
-528,291	-35,723	0,105	-0,041
-527,277	53,863	-0,148	-0,102
-526,262	800,000	0,014	0,042
-525,248	390,847	0,058	0,088
-524,233	-136,402	0,060	-0,005
-523,218	5,508	0,199	-0,106
-522,204	-119,934	0,054	-0,007
-521,189	143,513	-0,035	-0,034
-520,175	800,000	-0,089	-0,206
-519,160	375,377	0,017	-0,025
-518,145	67,941	0,112	-0,082
-517,131	20,897	-0,116	-0,068
-516,116	-148,886	0,090	0,005
-515,102	800,000	0,025	0,077
-514,087	-200,000	-0,028	-0,118
-513,072	-200,000	0,057	-0,214
-512,058	18,603	0,063	0,036
-511,043	44,739	-0,076	-0,051
-510,029	800,000	0,029	0,072
-509,014	800,000	0,069	0,170
-507,999	508,816	0,031	-0,053
-506,985	662,367	-0,066	-0,123
-505,970	-200,000	-0,011	-0,070
-504,956	-200,000	-0,002	-0,138
-503,941	-67,304	-0,029	-0,008
-502,926	-10,433	-0,081	0,039
-501,912	-200,000	0,000	0,080
-500,897	227,726	-0,059	0,070
-499,883	217,835	-0,021	0,024
-498,868	22,208	-0,121	-0,071
-497,853	143,641	0,078	-0,075
-496,839	313,194	0,050	0,068
-495,824	800,000	-0,074	0,160
-494,810	-200,000	0,024	-0,100
-493,795	281,490	-0,062	-0,081
-492,781	-97,543	-0,082	-0,015
-491,766	680,648	0,066	-0,126
-490,751	578,423	0,058	-0,102
-489,737	-61,199	0,099	0,030
-488,722	-200,000	0,022	-0,074
-487,708	217,390	0,093	0,108
-486,693	20,818	-0,086	0,050
-485,678	115,799	-0,059	0,052
-484,664	188,801	-0,064	0,069
-483,649	-200,000	-0,026	-0,095
-482,635	-200,000	-0,023	-0,121
-481,620	45,983	-0,050	-0,033
-480,605	-200,000	0,020	0,100
-479,591	-32,334	-0,097	-0,039
-478,576	-200,000	-0,019	-0,078
-477,562	553,265	0,085	-0,149
-476,547	-125,956	0,063	0,007
-475,532	-200,000	-0,013	-0,073
-474,518	-162,119	-0,045	-0,002
-473,503	-53,292	0,069	-0,023
-472,489	76,016	0,056	-0,043
-471,474	50,130	-0,025	0,017
-470,459	-68,389	-0,136	0,038
-469,445	-154,919	-0,027	0,001
-468,430	-82,093	0,108	-0,025
-467,416	24,996	-0,060	0,036
-466,401	-36,089	0,048	-0,018
-465,386	-200,000	-0,018	-0,077
-464,372	-200,000	0,014	-0,082
-463,357	364,685	-0,059	-0,086
-462,343	137,847	-0,065	0,061
-461,328	-200,000	-0,010	0,036
-460,313	800,000	0,050	0,117
-459,299	-200,000	0,039	0,182
-458,284	-200,000	0,002	0,044
-457,270	558,836	0,064	0,111
-456,255	104,630	0,039	0,033
-455,241	800,000	0,015	-0,040
-454,226	-116,320	-0,034	-0,005
-453,211	478,303	0,062	-0,101
-452,197	-200,000	-0,000	-0,017
-451,182	-102,590	0,068	-0,012
-450,168	303,583	-0,057	-0,076
-449,153	-105,300	-0,028	0,005
-448,138	146,723	-0,031	0,030
-447,124	-200,000	-0,019	0,101
-446,109	109,566	-0,022	-0,019
-445,095	153,621	0,142	-0,140
-444,080	311,050	0,042	-0,057
-443,065	-145,604	-0,150	-0,010
-442,051	-200,000	0,002	-0,072
-441,036	-200,000	-0,025	0,172
-440,022	-200,000	-0,011	-0,052
-439,007	2,739	-0,044	-0,023
-437,992	-139,635	0,106	0,008
-436,978	-200,000	-0,006	-0,070
-435,963	-99,343	0,039	-0,007
-434,949	172,296	-0,039	0,040
-433,934	26,260	0,069	-0,041
-432,919	-127,738	0,042	-0,004
-431,905	-135,419	-0,071	-0,006
-430,890	165,304	0,048	0,049
-429,876	-200,000	0,030	0,110
-428,861	34,323	0,077	0,048
-427,846	-200,000	0,021	0,097
-426,832	-55,930	0,055	0,018
-425,817	30,813	0,082	-0,050
-424,803	-74,335	-0,061	0,016
-423,788	77,369	0,096	-0,074
-422,773	275,072	-0,022	-0,029
-421,759	-200,000	-0,001	-0,014
-420,744	-108,843	-0,048	0,007
-419,730	800,000	-0,021	0,049
-418,715	24,335	0,155	0,092
-417,701	-52,936	0,037	-0,012
-416,686	800,000	0,025	-0,071
-415,671	800,000	-0,023	-0,052
-414,657	-137,010	-0,098	0,008
-413,642	-200,000	-0,007	0,026
-412,628	-84,650	-0,085	-0,019
-411,613	-151,963	-0,111	0,006
-410,598	-200,000	-0,005	-0,130
-409,584	-112,162	-0,078	-0,011
-408,569	-36,764	0,172	0,066
-407,555	-18,181	0,125	0,056
-406,540	-200,000	0,010	0,049
-405,525	55,932	-0,049	-0,034
-404,511	162,401	-0,099	-0,100
-403,496	371,771	0,052	-0,076
-402,482	-200,000	0,025	-0,088
-401,467	89,561	0,103	0,083
-400,452	62,945	0,075	0,054
-399,438	-30,752	0,105	0,043
-398,423	108,962	-0,062	0,054
-397,409	-119,386	-0,052	0,006
-396,394	67,081	-0,085	-0,062
-395,379	506,720	0,040	0,067
-394,365	26,843	-0,088	-0,053
-393,350	90,450	0,048	-0,039
-392,336	-200,000	0,013	0,102
-391,321	-129,112	-0,020	-0,002
-390,306	333,954	0,060	0,084
-389,292	183,376	-0,068	-0,072
-388,277	66,524	0,060	-0,044
-387,263	50,869	-0,119	0,081
-386,248	-111,004	0,252	0,037
-385,233	-200,000	0,008	0,121
-384,219	664,237	0,019	-0,035
-383,204	136,335	-0,121	0,114
-382,190	-200,000	0,020	0,064
-381,175	143,626	-0,062	-0,059
-380,160	-69,940	0,060	-0,016
-379,146	-21,272	-0,076	-0,033
-378,131	304,789	0,076	0,102
-377,117	544,136	0,016	-0,028
-376,102	533,073	-0,084	-0,143
-375,088	800,000	-0,015	0,040
-374,073	-103,599	-0,143	0,024
-373,058	800,000	0,053	0,120
-372,044	-135,746	0,083	0,007
-371,029	-200,000	0,009	0,056
-370,015	-200,000	0,000	0,064
-369,000	-200,000	-0,008	-0,090
-367,985	-31,934	-0,079	0,032
-366,971	-200,000	-0,010	0,033
-365,956	-6,406	0,058	-0,029
-364,942	680,558	0,021	0,040
-363,927	800,000	0,009	-0,027
-362,912	-161,127	0,100	0,004
-361,898	-200,000	-0,017	-0,069
-360,883	800,000	-0,052	-0,150
-359,869	-200,000	0,008	-0,182
-358,854	419,239	0,052	0,080
-357,839	59,287	-0,125	-0,089
-356,825	-200,000	-0,010	-0,067
-355,810	800,000	0,074	0,167
-354,796	-200,000	-0,018	0,103
-353,781	-92,797	-0,136	-0,027
-352,766	144,006	0,095	-0,091
-351,752	149,016	-0,049	0,047
-350,737	-200,000	0,023	-0,123
-349,723	45,881	0,113	0,075
-348,708	800,000	-0,035	0,090
-347,693	-200,000	0,005	0,106
-346,679	91,048	0,106	0,085
-345,664	74,151	-0,056	-0,042
-344,650	-120,938	0,055	-0,007
-343,635	49,987	-0,054	-0,036
-342,620	800,000	-0,022	0,055
-341,606	27,118	0,093	-0,056
-340,591	-200,000	-0,006	-0,054
-339,577	-200,000	-0,027	0,138
-338,562	800,000	-0,044	-0,094
-337,548	128,302	-0,046	0,042
-336,533	-92,564	0,130	-0,026
-335,518	-31,033	0,147	-0,059
-334,504	800,000	-0,010	-0,021
-333,489	-200,000	0,011	-0,113
-332,475	800,000	0,025	-0,062
-331,460	61,863	0,094	-0,067
-330,445	-16,107	0,014	-0,006
-329,431	79,819	0,052	0,040
-328,416	503,072	0,051	0,084
-327,402	-28,323	-0,054	0,022
-326,387	349,946	-0,014	0,019
-325,372	243,337	-0,037	0,044
-324,358	-120,520	-0,098	-0,012
-323,343	-200,000	0,025	0,092
-322,329	800,000	0,041	0,100
-321,314	-140,447	0,083	0,006
-320,299	-187,814	0,071	-0,001
-319,285	190,048	-0,124	-0,133
-318,270	303,913	-0,064	-0,086
-317,256	-149,807	0,046	0,003
-316,241	-200,000	0,005	-0,016
-315,226	509,755	-0,038	-0,063
-314,212	800,000	0,020	-0,044
-313,197	-4,194	0,072	0,035
-312,183	410,824	-0,022	0,033
-311,168	-2,944	0,137	-0,068
-310,153	-149,031	-0,074	-0,004
-309,139	-194,932	0,115	0,001
-308,124	-114,532	0,077	-0,010
-307,110	800,000	-0,036	0,082
-306,095	-200,000	0,021	0,110
-305,080	-111,719	-0,108	0,016
-304,066	800,000	-0,051	0,117
-303,051	-200,000	-0,011	-0,037
-302,037	182,498	0,086	0,091
-301,022	-74,025	-0,027	-0,007
-300,008	800,000	0,036	0,073
-298,993	-170,506	-0,054	-0,001
-297,978	484,182	-0,057	-0,093
-296,964	-175,117	0,048	0,001
-295,949	62,615	-0,089	-0,064
-294,935	-173,985	-0,067	0,001
-293,920	-200,000	-0,025	-0,178
-292,905	59,182	0,080	-0,056
-291,891	-200,000	0,000	-0,008
-290,876	20,130	0,073	0,042
-289,862	-200,000	0,024	-0,113
-288,847	-200,000	0,019	-0,103
-287,832	225,720	0,043	-0,050
-286,818	-200,000	0,004	-0,067
-285,803	800,000	-0,036	-0,073
-284,789	-200,000	-0,032	-0,139
-283,774	-80,783	0,087	-0,021
-282,759	-200,000	-0,004	0,057
-281,745	-200,000	0,015	-0,082
-280,730	-84,359	0,118	-0,027
-279,716	-200,000	-0,025	0,114
-278,701	-16,983	0,053	-0,024
-277,686	-200,000	-0,011	-0,045
-276,672	-74,286	-0,041	0,011
-275,657	10,642	0,053	0,029
-274,643	-195,934	-0,081	0,000
-273,628	327,579	0,038	0,052
-272,613	-200,000	0,002	-0,096
-271,599	-54,837	0,056	-0,018
-270,584	452,698	-0,054	0,086
-269,570	800,000	0,036	-0,084
-268,555	167,238	-0,040	0,040
-267,540	-90,819	-0,123	0,025
-266,526	94,369	-0,054	-0,044
-265,511	201,290	0,023	-0,025
-264,497	-200,000	0,000	0,103
-263,482	-37,821	-0,047	-0,018
-262,467	259,963	0,054	-0,067
-261,453	46,236	-0,052	-0,034
-260,438	83,154	-0,095	0,074
-259,424	6,008	0,048	-0,025
-258,409	800,000	-0,071	-0,205
-257,395	-200,000	-0,005	0,090
-256,380	-78,260	0,053	-0,013
-255,365	-200,000	0,017	-0,074
-254,351	46,329	-0,015	-0,010
-253,336	800,000	-0,004	0,011
-252,322	10,431	-0,061	0,033
-251,307	201,538	0,051	0,057
-250,292	-8,673	0,065	0,031
-249,278	228,507	-0,061	0,071
-248,263	259,047	0,043	0,053
-247,249	-200,000	0,039	0,122
-246,234	-200,000	-0,005	-0,187
-245,219	-200,000	-0,024	-0,077
-244,205	-22,080	0,104	0,045
-243,190	6,664	-0,099	0,052
-242,176	-7,630	-0,032	0,016
-241,161	-80,647	0,042	0,010
-240,146	347,549	-0,071	0,100
-239,132	-200,000	0,038	0,169
-238,117	-88,225	0,067	-0,014
-237,103	143,137	-0,097	-0,093
-236,088	47,688	-0,081	-0,054
-235,073	-200,000	-0,008	-0,179
-234,059	14,370	-0,048	-0,027
-233,044	800,000	-0,034	-0,074
-232,030	273,083	-0,011	0,015
-231,015	800,000	0,008	0,017
-230,000	800,000	-0,061	0,164
-228,986	-200,000	0,003	0,082
-227,971	-63,334	-0,103	0,030
-226,957	-128,777	-0,077	0,008
-225,942	-200,000	-0,006	0,118
-224,927	800,000	0,015	-0,030
-223,913	-200,000	0,011	0,040
-222,898	-46,411	-0,091	0,032
-221,884	-36,846	0,093	0,036
-220,869	68,802	-0,069	-0,051
-219,855	-29,200	0,059	-0,024
-218,840	-111,029	-0,083	-0,012
-217,825	-200,000	-0,000	0,033
-216,811	324,346	0,028	0,038
-215,796	237,829	-0,015	-0,018
-214,782	-149,735	-0,090	0,005
-213,767	800,000	-0,024	0,061
-212,752	15,044	0,195	0,109
-211,738	-91,666	-0,078	-0,016
-210,723	199,566	-0,010	-0,011
-209,709	83,698	0,057	0,044
-208,694	-139,099	-0,025	-0,002
-207,679	-200,000	-0,013	-0,090
-206,665	-25,009	-0,071	-0,030
-205,650	-147,098	0,019	-0,001
-204,636	80,434	0,138	0,106
-203,621	-200,000	-0,010	0,158
-202,606	-12,809	-0,039	0,018
-201,592	-200,000	-0,001	0,017
-200,577	211,743	-0,112	-0,126
-199,563	-68,252	0,090	-0,025
-198,548	137,651	0,088	-0,082
-197,533	-63,632	0,039	-0,011
-196,519	800,000	0,029	0,079
-195,504	-200,000	0,002	0,028
-194,490	78,612	-0,113	-0,086
-193,475	32,214	0,045	-0,028
-192,460	171,367	-0,092	0,094
-191,446	77,334	-0,078	0,059
-190,431	-200,000	0,008	0,057
-189,417	230,519	0,009	-0,011
-188,402	-28,378	-0,188	-0,077
-187,387	42,579	0,073	-0,048
-186,373	52,850	-0,117	-0,080
-185,358	-92,777	0,098	-0,019
-184,344	-200,000	0,024	0,136
-183,329	-200,000	0,024	0,111
-182,315	-200,000	0,022	0,126
-181,300	384,345	-0,065	0,097
-180,285	13,245	-0,168	0,092
-179,271	335,905	0,062	-0,086
-178,256	31,259	0,137	0,084
-177,242	-200,000	0,007	0,028
-176,227	800,000	0,060	0,166
-175,212	-200,000	-0,017	-0,117
-174,198	46,650	0,093	-0,061
-173,183	-200,000	0,018	0,070
-172,169	-83,156	-0,059	-0,013
-171,154	133,842	-0,033	-0,030
-170,139	-200,000	0,002	-0,009
-169,125	-200,000	-0,052	0,208
-168,110	120,032	0,019	-0,017
-167,096	494,886	0,008	0,014
-166,081	-200,000	0,000	-0,042
-165,066	-15,362	-0,115	-0,052
-164,052	-200,000	-0,000	0,076
-163,037	-74,666	-0,102	-0,026
-162,023	800,000	-0,011	-0,032
-161,008	-200,000	-0,024	0,135
-159,993	362,742	-0,027	-0,038
-158,979	-200,000	-0,020	0,157
-157,964	-117,090	-0,050	-0,006
-156,950	271,871	-0,002	-0,003
-155,935	142,454	0,107	-0,101
-154,920	55,881	-0,120	0,083
-153,906	234,823	0,110	0,129
-152,891	32,146	0,036	-0,022
-151,877	-200,000	-0,001	-0,093
-150,862	-0,575	0,116	-0,059
-149,847	800,000	0,022	0,068
-148,833	-200,000	-0,001	0,144
-147,818	800,000	-0,055	-0,120
-146,804	-200,000	0,013	-0,058
-145,789	9,058	0,081	0,043
-144,775	136,143	-0,098	0,091
-143,760	16,265	-0,125	-0,070
-142,745	144,750	0,066	-0,063
-141,731	-151,831	0,036	0,002
-140,716	59,602	0,080	-0,056
-139,702	-151,765	0,153	-0,008
-138,687	66,652	0,035	-0,025
-137,672	312,117	-0,054	0,072
-136,658	44,592	-0,045	0,029
-135,643	-101,539	0,083	-0,014
-134,629	-50,350	-0,082	-0,028
-133,614	59,039	0,148	0,103
-132,599	800,000	-0,031	0,073
-131,585	42,655	0,058	0,037
-130,570	-88,973	-0,125	0,026
-129,556	-107,702	0,047	0,007
-128,541	-42,678	0,061	0,022
-127,526	-42,182	0,081	-0,029
-126,512	58,420	-0,092	0,064
-125,497	800,000	-0,049	0,118
-124,483	402,848	0,086	0,128
-123,468	-63,782	-0,060	-0,017
-122,453	-82,957	0,094	0,021
-121,439	800,000	-0,031	-0,082
-120,424	-95,283	-0,112	-0,021
