DTS Sentinel unit serial number:	SN410029Multiplexer serial number:	ORYXHardware model number:	OX2-SRSoftware version number:	ORYX F/W v4,00 Oryx Data Collector v3.7.2.0data status	okinstallation	BH3 CH2differential loss correction	single-endedforward channel	channel 2reverse channel	N/Adate	2023/12/05time	23:32:29forward acquisition time	300,00reverse acquisition time	0,00gamma	499,1914k internal	0,3195k external	0,3195temperature offset calibration	1,0000default loss term (dB/km)	0,3820temperature slope calibration	1,0000multiplexer offset coefficient	1,0000multiplexer slope coefficient	1,0000fibre end	0,00T internal ref (°C)	9,56T ext. ref 1 (°C)	-5,44T ext. ref 2 (°C)	-5,54length (m)	temperature (°C)	Stokes	anti-Stokes-744,400	18,257	-0,077	-0,045
-743,385	140,287	-0,181	0,174
-742,371	311,462	-0,114	-0,156
-741,356	34,274	-0,194	0,123
-740,342	-115,814	0,112	-0,015
-739,327	100,176	-0,209	0,177
-738,312	19,848	0,049	-0,029
-737,298	-45,577	-0,257	0,092
-736,283	58,410	-0,100	-0,072
-735,269	118,353	-0,225	0,202
-734,254	517,251	0,049	-0,084
-733,239	-199,942	-0,530	0,002
-732,225	-122,998	0,147	-0,017
-731,210	800,000	0,028	0,081
-730,196	-200,000	-0,025	-0,114
-729,181	-126,925	-0,064	0,007
-728,167	32,176	-0,139	-0,087
-727,152	-43,854	-0,090	-0,033
-726,137	800,000	0,036	-0,094
-725,123	271,000	-0,098	-0,126
-724,108	464,849	-0,080	-0,131
-723,094	-119,688	-0,023	0,003
-722,079	252,029	-0,072	0,089
-721,064	-6,176	-0,057	-0,028
-720,050	800,000	-0,046	-0,136
-719,035	5,031	0,064	-0,034
-718,021	57,154	-0,137	-0,097
-717,006	177,468	0,082	-0,088
-715,991	428,058	-0,077	-0,122
-714,977	800,000	-0,065	-0,136
-713,962	160,186	-0,048	-0,049
-712,948	159,452	-0,020	-0,020
-711,933	-200,000	0,034	-0,167
-710,918	81,071	-0,016	-0,013
-709,904	-117,911	-0,171	0,022
-708,889	338,716	0,020	0,028
-707,875	55,349	0,068	-0,048
-706,860	-200,000	0,018	0,058
-705,845	-200,000	0,017	0,101
-704,831	-52,967	-0,105	0,035
-703,816	-200,000	-0,010	-0,139
-702,802	14,121	-0,131	-0,074
-701,787	-200,000	0,013	0,083
-700,772	800,000	-0,024	0,057
-699,758	-200,000	0,033	-0,135
-698,743	800,000	-0,039	0,118
-697,729	171,848	-0,007	-0,007
-696,714	-200,000	0,012	-0,041
-695,699	17,135	-0,088	0,051
-694,685	30,658	-0,122	-0,075
-693,670	800,000	-0,047	-0,111
-692,656	800,000	-0,063	-0,152
-691,641	-104,654	0,164	0,027
-690,627	44,125	0,141	0,094
-689,612	305,728	0,057	0,077
-688,597	-193,461	-0,031	-0,000
-687,583	800,000	0,015	0,039
-686,568	-38,803	-0,175	0,067
-685,554	5,812	0,020	-0,011
-684,539	106,557	0,031	-0,026
-683,524	321,573	0,021	-0,029
-682,510	420,737	0,080	0,125
-681,495	174,681	0,074	0,078
-680,481	800,000	0,025	0,079
-679,466	-151,418	-0,144	0,008
-678,451	10,261	-0,056	-0,031
-677,437	125,433	-0,013	0,012
-676,422	-200,000	-0,016	-0,056
-675,408	-200,000	0,028	0,143
-674,393	800,000	0,043	-0,106
-673,378	-200,000	-0,013	0,058
-672,364	-48,830	-0,038	-0,013
-671,349	563,908	-0,104	-0,184
-670,335	-200,000	0,005	0,168
-669,320	34,935	0,072	0,046
-668,305	-200,000	-0,006	-0,040
-667,291	196,113	-0,059	-0,066
-666,276	309,838	-0,048	0,065
-665,262	-33,534	-0,043	-0,017
-664,247	-7,994	-0,103	0,050
-663,232	-200,000	-0,011	0,039
-662,218	21,720	0,099	-0,058
-661,203	233,797	-0,027	0,032
-660,189	-200,000	0,016	0,076
-659,174	-88,568	-0,155	-0,033
-658,159	252,550	-0,059	-0,073
-657,145	-133,839	0,063	-0,006
-656,130	124,882	0,041	-0,037
-655,116	-58,628	0,119	-0,037
-654,101	800,000	0,004	0,009
-653,086	800,000	-0,016	0,038
-652,072	-200,000	0,003	-0,072
-651,057	644,318	-0,066	-0,123
-650,043	-111,345	-0,127	0,019
-649,028	-75,086	-0,072	-0,019
-648,014	-142,551	-0,094	-0,007
-646,999	91,303	-0,108	-0,088
-645,984	759,386	0,079	0,156
-644,970	-135,142	-0,113	-0,010
-643,955	-200,000	0,002	-0,055
-642,941	-200,000	0,015	-0,111
-641,926	-132,672	-0,095	-0,009
-640,911	-114,952	0,191	0,026
-639,897	-76,919	-0,012	0,003
-638,882	-28,959	0,047	-0,020
-637,868	226,175	-0,039	-0,046
-636,853	506,781	0,012	-0,020
-635,838	488,618	-0,012	-0,021
-634,824	89,392	-0,071	-0,057
-633,809	136,341	-0,095	0,090
-632,795	795,365	-0,019	-0,039
-631,780	216,211	0,030	0,035
-630,765	-143,773	-0,192	-0,013
-629,751	14,982	-0,190	-0,108
-628,736	1,188	0,053	0,027
-627,722	678,952	-0,062	-0,118
-626,707	-42,226	-0,160	-0,059
-625,692	318,647	-0,066	0,091
-624,678	69,443	0,100	-0,074
-623,663	313,624	0,050	0,068
-622,649	800,000	-0,054	-0,112
-621,634	13,571	-0,078	-0,044
-620,619	380,879	-0,037	0,055
-619,605	172,672	0,076	0,079
-618,590	237,327	-0,083	-0,100
-617,576	-200,000	-0,010	0,068
-616,561	-200,000	-0,083	0,000
-615,546	-28,467	-0,044	-0,018
-614,532	-200,000	-0,006	0,090
-613,517	778,979	0,055	0,110
-612,503	-97,509	-0,099	0,018
-611,488	-200,000	0,019	0,102
-610,474	-85,905	0,076	-0,017
-609,459	515,968	0,061	-0,103
-608,444	415,846	0,053	-0,083
-607,430	-55,695	0,093	-0,030
-606,415	585,395	0,062	-0,111
-605,401	-2,644	-0,072	0,036
-604,386	800,000	0,045	0,132
-603,371	254,390	-0,028	-0,035
-602,357	65,204	0,012	-0,009
-601,342	800,000	-0,037	-0,082
-600,328	316,303	-0,099	0,135
-599,313	-110,903	-0,038	0,006
-598,298	-200,000	-0,041	-0,178
-597,284	-125,014	0,112	-0,012
-596,269	797,764	-0,011	0,022
-595,255	156,174	-0,115	0,115
-594,240	-200,000	-0,003	-0,084
-593,225	800,000	-0,042	-0,089
-592,211	66,504	0,122	-0,090
-591,196	186,197	-0,066	0,071
-590,182	800,000	-0,042	0,128
-589,167	-200,000	0,044	0,179
-588,152	800,000	0,069	-0,145
-587,138	-85,387	0,081	0,018
-586,123	-131,571	-0,124	-0,012
-585,109	363,530	-0,016	0,024
-584,094	481,722	0,032	-0,053
-583,079	-200,000	-0,001	-0,043
-582,065	-200,000	-0,008	-0,080
-581,050	438,084	-0,037	-0,058
-580,036	800,000	0,022	-0,063
-579,021	-54,219	-0,081	0,027
-578,006	-200,000	0,013	0,099
-576,992	83,202	0,072	-0,056
-575,977	-122,427	-0,048	0,006
-574,963	-116,752	0,101	0,013
-573,948	353,599	-0,051	0,074
-572,934	-200,000	-0,015	0,052
-571,919	-74,628	0,025	-0,006
-570,904	-200,000	-0,001	-0,169
-569,890	47,319	0,028	0,019
-568,875	279,960	0,021	0,028
-567,861	112,559	0,071	0,062
-566,846	420,058	-0,054	0,083
-565,831	-71,138	0,024	-0,007
-564,817	250,601	-0,114	-0,141
-563,802	800,000	-0,055	-0,113
-562,788	-15,284	0,032	0,015
-561,773	-88,001	0,190	-0,041
-560,758	-200,000	0,011	0,116
-559,744	800,000	0,019	0,047
-558,729	3,796	-0,041	-0,022
-557,715	127,711	0,049	0,045
-556,700	39,219	-0,104	-0,067
-555,685	-21,517	0,098	-0,043
-554,671	130,136	0,131	0,121
-553,656	702,302	0,046	-0,089
-552,642	159,728	0,130	0,131
-551,627	-200,000	-0,027	-0,103
-550,612	-161,674	-0,166	-0,006
-549,598	-31,360	-0,071	-0,029
-548,583	425,922	-0,028	-0,044
-547,569	-77,879	0,152	0,038
-546,554	538,639	-0,009	0,015
-545,539	-60,949	0,049	0,015
-544,525	488,588	0,094	-0,156
-543,510	50,845	-0,025	0,017
-542,496	-95,379	-0,068	-0,013
-541,481	100,709	0,118	0,099
-540,466	-200,000	-0,006	-0,030
-539,452	75,144	0,095	0,073
-538,437	65,558	0,039	0,028
-537,423	-200,000	0,010	-0,055
-536,408	-200,000	0,019	0,061
-535,393	-56,379	0,120	-0,038
-534,379	800,000	-0,027	-0,058
-533,364	-83,809	-0,099	-0,023
-532,350	-200,000	-0,007	0,032
-531,335	12,196	-0,050	-0,028
-530,321	-200,000	-0,006	0,021
-529,306	18,090	0,049	0,028
-528,291	-200,000	-0,004	0,064
-527,277	422,863	-0,064	-0,099
-526,262	800,000	0,028	-0,065
-525,248	-200,000	0,023	-0,125
-524,233	-155,896	-0,146	0,007
-523,218	-31,232	0,150	-0,061
-522,204	-25,183	-0,106	-0,045
-521,189	109,111	0,056	-0,048
-520,175	-200,000	0,034	0,175
-519,160	800,000	-0,049	0,149
-518,145	218,159	0,051	0,059
-517,131	-173,868	0,146	-0,003
-516,116	-200,000	0,004	-0,034
-515,102	800,000	0,054	-0,145
-514,087	-200,000	-0,009	-0,155
-513,072	-190,595	-0,067	0,001
-512,058	42,024	0,070	-0,046
-511,043	-58,957	-0,095	-0,029
-510,029	756,728	0,045	0,088
-509,014	-200,000	0,040	0,167
-507,999	-132,663	-0,135	-0,012
-506,985	184,517	0,029	0,031
-505,970	82,746	-0,081	-0,064
-504,956	9,362	0,038	-0,021
-503,941	23,333	-0,157	0,093
-502,926	800,000	0,061	0,137
-501,912	13,999	-0,097	0,054
-500,897	-200,000	-0,017	0,121
-499,883	-2,724	0,065	0,033
-498,868	-85,895	-0,078	0,017
-497,853	85,095	-0,051	-0,040
-496,839	-200,000	0,024	-0,097
-495,824	199,349	0,028	-0,031
-494,810	-121,903	0,041	-0,005
-493,795	148,593	-0,070	0,069
-492,781	12,263	-0,030	0,016
-491,766	115,827	0,034	-0,030
-490,751	-103,267	-0,158	-0,027
-489,737	-13,773	0,097	-0,045
-488,722	800,000	0,017	-0,043
-487,708	-47,495	0,045	0,016
-486,693	276,295	-0,111	0,143
-485,678	33,292	-0,134	-0,084
-484,664	-111,881	0,085	0,012
-483,649	-200,000	0,040	0,195
-482,635	7,036	0,142	-0,076
-481,620	489,541	0,080	0,132
-480,605	800,000	0,033	0,079
-479,591	800,000	-0,040	0,105
-478,576	-200,000	0,003	0,048
-477,562	-200,000	-0,024	0,107
-476,547	-200,000	0,005	-0,168
-475,532	-200,000	-0,008	-0,038
-474,518	69,704	0,091	0,068
-473,503	161,427	0,017	0,018
-472,489	-39,643	-0,107	0,040
-471,474	20,562	0,105	-0,061
-470,459	-18,406	-0,053	0,024
-469,445	-73,140	0,184	-0,048
-468,430	10,801	-0,079	-0,043
-467,416	-35,374	0,052	0,020
-466,401	312,893	0,045	0,062
-465,386	-41,789	0,012	-0,004
-464,372	7,815	0,092	-0,049
-463,357	-200,000	0,019	-0,116
-462,343	800,000	0,040	-0,111
-461,328	170,345	0,043	-0,045
-460,313	800,000	0,024	0,051
-459,299	-123,213	-0,057	-0,006
-458,284	800,000	0,066	0,140
-457,270	800,000	-0,033	0,081
-456,255	-200,000	0,025	-0,097
-455,241	110,358	-0,111	-0,096
-454,226	-96,214	-0,123	-0,023
-453,211	-13,187	-0,049	0,023
-452,197	251,727	0,091	0,111
-451,182	-200,000	-0,015	-0,118
-450,168	800,000	0,042	0,102
-449,153	-28,578	-0,122	0,050
-448,138	800,000	0,017	-0,049
-447,124	-13,189	-0,157	0,073
-446,109	30,946	-0,123	0,076
-445,095	-10,071	0,082	0,039
-444,080	-87,201	-0,132	0,029
-443,065	206,549	-0,024	0,027
-442,051	251,086	0,128	-0,157
-441,036	-200,000	-0,003	0,102
-440,022	467,155	0,037	-0,061
-439,007	800,000	-0,014	-0,028
-437,992	-200,000	-0,012	0,048
-436,978	-47,939	0,096	0,033
-435,963	111,888	-0,007	0,006
-434,949	800,000	0,018	0,048
-433,934	0,350	-0,056	0,029
-432,919	-2,469	0,036	0,018
-431,905	443,034	-0,023	-0,036
-430,890	-126,321	-0,079	0,008
-429,876	339,256	-0,033	0,046
-428,861	-105,268	-0,037	0,006
-427,846	-42,136	0,129	0,047
-426,832	-200,000	0,006	-0,062
-425,817	20,716	-0,095	-0,055
-424,803	628,152	0,047	-0,086
-423,788	-9,224	0,089	0,043
-422,773	-131,363	0,090	0,008
-421,759	9,978	0,120	0,065
-420,744	-200,000	-0,037	-0,118
-419,730	76,531	-0,103	-0,078
-418,715	-16,371	-0,051	0,023
-417,701	616,560	0,035	0,064
-416,686	-200,000	0,016	-0,126
-415,671	-23,670	0,100	-0,043
-414,657	185,183	0,057	0,061
-413,642	-200,000	0,019	0,105
-412,628	-70,834	-0,075	0,020
-411,613	-51,755	-0,091	0,030
-410,598	-200,000	-0,039	-0,177
-409,584	800,000	0,027	0,077
-408,569	800,000	-0,022	0,057
-407,555	800,000	0,029	0,093
-406,540	107,748	-0,039	-0,034
-405,525	-200,000	-0,019	0,082
-404,511	800,000	-0,022	-0,066
-403,496	-159,670	-0,005	0,000
-402,482	-102,253	0,044	0,008
-401,467	-200,000	0,020	0,092
-400,452	-157,140	0,067	-0,003
-399,438	800,000	0,049	0,155
-398,423	-183,942	0,080	-0,001
-397,409	-54,102	-0,106	0,034
-396,394	-88,842	0,099	-0,021
-395,379	-200,000	0,011	0,040
-394,365	348,410	0,045	-0,063
-393,350	-200,000	0,011	0,107
-392,336	432,917	0,078	0,123
-391,321	-6,997	-0,068	0,033
-390,306	-30,133	-0,131	-0,053
-389,292	-67,659	-0,113	0,032
-388,277	-153,045	0,071	-0,004
-387,263	800,000	-0,032	0,067
-386,248	-200,000	0,162	-0,001
-385,233	800,000	0,031	-0,065
-384,219	-200,000	0,010	-0,032
-383,204	-68,146	-0,030	0,008
-382,190	-140,825	-0,119	0,009
-381,175	50,458	0,034	0,023
-380,160	285,089	-0,032	0,041
-379,146	800,000	0,024	0,050
-378,131	-50,545	0,098	-0,033
-377,117	-80,547	-0,130	-0,031
-376,102	25,412	-0,119	-0,071
-375,088	-200,000	-0,012	-0,046
-374,073	9,956	0,045	0,025
-373,058	31,091	0,108	-0,066
-372,044	-161,313	-0,120	-0,004
-371,029	308,570	0,056	0,075
-370,015	800,000	-0,031	-0,081
-369,000	-126,223	0,158	-0,017
-367,985	337,490	0,069	-0,096
-366,971	201,982	-0,023	-0,025
-365,956	-200,000	0,002	-0,024
-364,942	-64,010	-0,078	-0,023
-363,927	-124,771	0,060	0,007
-362,912	121,257	-0,019	-0,017
-361,898	506,197	0,010	0,017
-360,883	438,960	0,094	-0,148
-359,869	-10,933	0,035	0,017
-358,854	800,000	-0,060	0,122
-357,839	-92,009	0,137	-0,028
-356,825	-200,000	0,004	0,130
-355,810	-200,000	-0,006	-0,086
-354,796	-144,921	0,026	-0,002
-353,781	-200,000	0,006	0,019
-352,766	-200,000	-0,016	-0,110
-351,752	-97,530	0,067	0,012
-350,737	136,542	-0,034	-0,032
-349,723	-36,462	0,173	0,066
-348,708	-45,479	0,065	0,023
-347,693	120,355	-0,044	0,039
-346,679	123,198	0,112	-0,101
-345,664	158,010	0,158	-0,157
-344,650	-4,582	0,093	-0,046
-343,635	-200,000	0,012	0,072
-342,620	131,996	-0,069	0,064
-341,606	45,447	0,116	-0,076
-340,591	86,767	-0,175	-0,138
-339,577	-2,448	0,164	0,082
-338,562	354,730	-0,063	-0,090
-337,548	456,203	-0,013	0,021
-336,533	800,000	0,022	-0,044
-335,518	-104,747	0,166	-0,027
-334,504	-200,000	0,027	-0,090
-333,489	36,593	-0,092	-0,058
-332,475	-116,407	-0,074	-0,010
-331,460	292,351	-0,047	-0,061
-330,445	-200,000	0,028	-0,102
-329,431	800,000	-0,064	0,128
-328,416	87,421	0,125	-0,099
-327,402	-10,848	-0,127	0,060
-326,387	701,377	-0,025	0,048
-325,372	146,284	-0,046	0,045
-324,358	142,214	0,035	0,034
-323,343	331,521	0,060	-0,083
-322,329	116,542	-0,107	0,094
-321,314	-141,200	0,132	-0,009
-320,299	457,404	-0,035	0,056
-319,285	-200,000	-0,014	0,055
-318,270	590,463	-0,062	0,109
-317,256	-79,626	0,109	0,026
-316,241	800,000	-0,007	-0,016
-315,226	-200,000	-0,002	0,063
-314,212	-158,387	0,062	-0,003
-313,197	381,066	-0,098	0,144
-312,183	543,794	0,022	-0,038
-311,168	563,245	-0,025	-0,043
-310,153	-68,525	-0,105	-0,029
-309,139	800,000	-0,063	-0,133
-308,124	-200,000	-0,005	0,127
-307,110	-85,440	-0,012	-0,003
-306,095	-200,000	0,001	0,129
-305,080	-103,300	-0,031	-0,005
-304,066	-200,000	0,007	-0,040
-303,051	19,782	-0,040	-0,023
-302,037	222,994	-0,019	-0,022
-301,022	-19,977	-0,038	-0,017
-300,008	57,300	-0,054	0,038
-298,993	-200,000	-0,014	-0,104
-297,978	-41,205	-0,023	-0,008
-296,964	-119,575	0,031	0,004
-295,949	230,300	-0,120	-0,141
-294,935	-62,375	-0,055	-0,016
-293,920	-160,075	-0,049	-0,002
-292,905	-112,261	0,054	0,008
-291,891	-200,000	-0,000	0,045
-290,876	481,742	-0,034	0,056
-289,862	-76,268	0,124	-0,031
-288,847	395,123	0,058	0,086
-287,832	263,800	-0,082	-0,102
-286,818	-200,000	-0,015	0,071
-285,803	70,528	0,029	-0,021
-284,789	-200,000	0,019	0,131
-283,774	-200,000	-0,007	-0,125
-282,759	-200,000	-0,029	-0,125
-281,745	371,037	-0,096	-0,140
-280,730	20,324	0,042	-0,024
-279,716	105,377	-0,072	-0,061
-278,701	-72,852	0,053	0,014
-277,686	-200,000	0,017	0,076
-276,672	-36,196	0,080	0,031
-275,657	-139,590	0,088	-0,007
-274,643	-200,000	-0,008	-0,166
-273,628	-119,140	-0,113	0,014
-272,613	147,160	0,015	-0,014
-271,599	39,705	0,107	-0,069
-270,584	-200,000	-0,017	0,111
-269,570	571,711	0,035	0,061
-268,555	-27,717	0,048	-0,020
-267,540	14,304	-0,167	0,093
-266,526	155,625	-0,064	-0,064
-265,511	-200,000	0,038	0,122
-264,497	-18,615	-0,077	-0,034
-263,482	135,878	-0,094	-0,087
-262,467	-82,346	-0,019	-0,004
-261,453	-189,786	-0,114	-0,001
-260,438	763,576	0,034	-0,067
-259,424	16,301	0,095	0,053
-258,409	800,000	0,016	0,045
-257,395	-131,257	0,039	0,004
-256,380	-117,386	0,121	0,015
-255,365	173,890	0,054	-0,056
-254,351	-200,000	0,002	-0,088
-253,336	-138,071	-0,057	-0,004
-252,322	800,000	0,093	-0,205
-251,307	450,243	0,035	-0,055
-250,292	108,842	0,049	-0,042
-249,278	-200,000	-0,005	0,030
-248,263	-200,000	-0,001	0,058
-247,249	174,214	0,096	0,099
-246,234	204,171	-0,053	0,058
-245,219	-55,942	-0,122	0,039
-244,205	-107,150	-0,035	0,005
-243,190	-19,996	-0,079	-0,035
-242,176	-200,000	0,015	0,053
-241,161	632,186	0,038	0,068
-240,146	-200,000	-0,014	-0,078
-239,132	-200,000	-0,003	-0,033
-238,117	-41,258	0,015	-0,005
-237,103	-83,014	-0,129	-0,029
-236,088	-200,000	0,004	-0,144
-235,073	121,592	0,080	-0,071
-234,059	-37,818	0,082	-0,031
-233,044	-117,633	0,063	0,008
-232,030	442,999	-0,019	0,030
-231,015	8,923	0,092	0,050
-230,000	281,698	-0,061	-0,079
-228,986	-200,000	0,020	-0,085
-227,971	-200,000	-0,004	0,156
-226,957	-111,323	0,080	0,012
-225,942	800,000	0,041	0,120
-224,927	-200,000	-0,020	0,064
-223,913	134,556	-0,059	0,055
-222,898	-41,051	0,054	0,020
-221,884	-121,967	0,095	-0,011
-220,869	-200,000	-0,006	0,068
-219,855	282,990	0,068	0,087
-218,840	509,636	-0,097	0,162
-217,825	-93,213	-0,174	0,034
-216,811	513,004	0,055	-0,091
-215,796	81,076	0,031	0,024
-214,782	-200,000	-0,002	0,035
-213,767	-200,000	0,046	-0,164
-212,752	-44,640	-0,040	0,014
-211,738	90,631	-0,054	0,043
-210,723	783,673	-0,054	-0,106
-209,709	-200,000	0,004	0,042
-208,694	-200,000	-0,023	-0,099
-207,679	680,493	-0,022	0,041
-206,665	116,268	-0,047	-0,041
-205,650	-200,000	-0,007	-0,048
-204,636	733,866	0,088	0,170
-203,621	-13,265	0,094	0,043
-202,606	-200,000	-0,081	0,000
-201,592	-40,040	-0,133	0,049
-200,577	-200,000	-0,009	0,060
-199,563	43,000	0,049	0,032
-198,548	116,879	0,063	0,055
-197,533	90,444	-0,069	0,055
-196,519	-14,159	0,194	0,089
-195,504	22,939	0,092	0,054
-194,490	11,709	-0,138	-0,075
-193,475	407,312	-0,094	-0,141
-192,460	262,294	-0,066	0,082
-191,446	800,000	0,017	0,039
-190,431	-3,529	-0,068	0,034
-189,417	-105,036	0,140	-0,023
-188,402	789,467	-0,031	0,062
-187,387	296,148	-0,063	-0,082
-186,373	800,000	0,007	-0,020
-185,358	209,171	-0,032	-0,036
-184,344	-168,492	0,159	-0,004
-183,329	35,678	-0,079	0,049
-182,315	-171,509	-0,113	-0,003
-181,300	-200,000	-0,028	-0,094
-180,285	58,580	0,105	0,073
-179,271	690,365	-0,055	-0,103
-178,256	-200,000	0,015	0,098
-177,242	-132,406	0,110	-0,010
-176,227	131,870	0,082	0,075
-175,212	-200,000	-0,039	0,176
-174,198	722,829	0,093	-0,177
-173,183	-73,450	0,218	-0,056
-172,169	74,329	-0,079	-0,059
-171,154	-126,010	-0,128	0,014
-170,139	639,629	0,028	-0,051
-169,125	465,436	0,023	0,036
-168,110	-92,323	-0,067	0,013
-167,096	-112,963	0,092	-0,013
-166,081	-200,000	0,003	-0,035
-165,066	259,426	-0,066	0,081
-164,052	70,095	-0,075	-0,055
-163,037	660,496	-0,076	0,139
-162,023	-121,901	-0,064	-0,007
-161,008	6,316	-0,034	0,018
-159,993	800,000	0,014	0,030
-158,979	272,738	-0,039	-0,049
-157,964	800,000	0,023	-0,068
-156,950	800,000	0,050	-0,124
-155,935	-35,152	-0,061	0,024
-154,920	285,379	0,030	0,039
-153,906	-200,000	-0,026	0,167
-152,891	800,000	-0,049	-0,106
-151,877	-91,514	0,102	-0,021
-150,862	218,425	-0,041	0,047
-149,847	218,219	-0,083	-0,094
-148,833	800,000	0,017	-0,037
-147,818	-200,000	-0,002	0,028
-146,804	-200,000	0,039	-0,146
-145,789	800,000	0,030	0,059
-144,775	-79,724	-0,104	0,025
-143,760	232,096	0,060	-0,070
-142,745	-172,448	-0,114	0,003
-141,731	257,954	-0,039	0,048
-140,716	-200,000	0,143	0,000
-139,702	662,915	0,034	-0,063
-138,687	-55,201	-0,081	0,026
-137,672	248,374	0,059	-0,071
-136,658	155,339	-0,062	-0,061
-135,643	196,079	-0,097	-0,105
-134,629	-200,000	-0,027	-0,131
-133,614	464,941	-0,008	-0,014
-132,599	91,031	0,080	0,064
-131,585	-87,469	0,153	0,033
-130,570	-144,285	-0,062	-0,004
-129,556	-45,883	0,042	-0,015
-128,541	800,000	0,028	-0,064
-127,526	-200,000	0,019	0,072
-126,512	331,433	0,107	0,147
-125,497	354,097	-0,060	0,085
-124,483	-200,000	0,006	0,047
-123,468	800,000	-0,063	0,153
-122,453	618,836	0,015	-0,027
-121,439	177,066	-0,092	-0,096
-120,424	-200,000	0,049	0,203
-119,410	97,370	0,075	0,061
