DTS Sentinel unit serial number:	SN410029Multiplexer serial number:	ORYXHardware model number:	OX2-SRSoftware version number:	ORYX F/W v4,00 Oryx Data Collector v3.7.2.0data status	okinstallation	BH3 CH2differential loss correction	single-endedforward channel	channel 2reverse channel	N/Adate	2023/12/05time	22:47:28forward acquisition time	300,00reverse acquisition time	0,00gamma	499,1914k internal	0,3194k external	0,3194temperature offset calibration	1,0000default loss term (dB/km)	0,3820temperature slope calibration	1,0000multiplexer offset coefficient	1,0000multiplexer slope coefficient	1,0000fibre end	0,00T internal ref (°C)	9,83T ext. ref 1 (°C)	-5,25T ext. ref 2 (°C)	-5,34length (m)	temperature (°C)	Stokes	anti-Stokes-744,400	231,324	0,079	-0,094
-743,385	500,055	-0,136	0,230
-742,371	-200,000	0,012	0,057
-741,356	-14,452	-0,293	0,137
-740,342	800,000	0,034	-0,076
-739,327	60,833	-0,242	0,175
-738,312	-200,000	-0,047	-0,202
-737,298	-6,342	-0,164	0,081
-736,283	-200,000	-0,013	-0,064
-735,269	-107,959	-0,117	-0,018
-734,254	488,989	-0,108	-0,180
-733,239	-83,539	-0,413	0,095
-732,225	-49,878	0,114	0,039
-731,210	-120,996	-0,067	-0,008
-730,196	-200,000	0,003	0,119
-729,181	-200,000	0,007	-0,074
-728,167	-200,000	-0,033	-0,116
-727,152	800,000	0,050	-0,124
-726,137	99,671	0,080	-0,068
-725,123	-200,000	0,003	0,064
-724,108	-18,771	-0,136	-0,062
-723,094	-113,145	-0,200	0,028
-722,079	-200,000	0,004	-0,122
-721,064	334,266	-0,043	0,061
-720,050	107,580	0,063	-0,054
-719,035	349,839	0,024	-0,034
-718,021	117,148	-0,047	-0,042
-717,006	-200,000	-0,029	-0,152
-715,991	-98,872	-0,109	0,020
-714,977	800,000	-0,012	-0,034
-713,962	-101,557	-0,094	0,016
-712,948	-58,783	0,133	-0,042
-711,933	-164,573	-0,094	-0,003
-710,918	-133,876	0,098	0,009
-709,904	36,693	-0,053	0,034
-708,889	3,411	0,080	0,043
-707,875	-200,000	0,043	-0,175
-706,860	-200,000	-0,035	0,117
-705,845	-200,000	-0,045	0,000
-704,831	87,032	0,097	-0,078
-703,816	0,111	-0,127	-0,066
-702,802	-88,797	-0,059	0,013
-701,787	-135,200	-0,084	0,007
-700,772	-11,983	-0,024	0,011
-699,758	38,414	0,036	0,023
-698,743	129,254	0,020	-0,019
-697,729	-16,049	0,202	0,093
-696,714	-200,000	-0,025	0,142
-695,699	-43,844	0,049	-0,018
-694,685	-12,594	0,009	0,004
-693,670	800,000	0,023	-0,057
-692,656	800,000	-0,073	0,171
-691,641	-106,179	0,134	0,022
-690,627	800,000	0,044	-0,107
-689,612	-200,000	-0,002	-0,016
-688,597	381,695	0,025	0,038
-687,583	800,000	-0,069	0,160
-686,568	20,985	-0,079	-0,047
-685,554	270,682	-0,109	0,139
-684,539	64,417	0,076	-0,056
-683,524	145,035	0,167	-0,163
-682,510	-105,322	-0,081	-0,013
-681,495	240,559	-0,015	0,018
-680,481	-22,227	-0,107	-0,047
-679,466	-4,411	-0,083	0,042
-678,451	176,764	-0,032	-0,033
-677,437	-200,000	-0,001	0,119
-676,422	209,358	-0,050	0,057
-675,408	800,000	-0,028	-0,059
-674,393	17,315	-0,072	0,042
-673,378	93,801	-0,042	-0,035
-672,364	541,012	-0,167	-0,290
-671,349	386,197	-0,064	-0,097
-670,335	-36,611	-0,083	0,032
-669,320	122,610	0,013	0,012
-668,305	284,367	-0,114	0,150
-667,291	-114,666	0,157	-0,022
-666,276	7,148	0,176	-0,095
-665,262	-200,000	-0,016	-0,078
-664,247	-200,000	0,022	-0,072
-663,232	17,192	-0,163	-0,094
-662,218	-3,622	0,139	0,070
-661,203	800,000	-0,078	0,217
-660,189	-44,822	0,046	-0,017
-659,174	56,647	-0,071	-0,050
-658,159	-18,059	-0,096	-0,044
-657,145	-200,000	-0,008	0,052
-656,130	329,049	-0,044	0,061
-655,116	-200,000	-0,016	0,114
-654,101	-200,000	-0,020	0,081
-653,086	800,000	-0,076	-0,169
-652,072	564,095	0,077	-0,136
-651,057	-44,551	-0,036	-0,013
-650,043	130,619	-0,020	-0,019
-649,028	-107,688	-0,050	-0,008
-648,014	104,209	0,132	0,112
-646,999	-119,163	-0,008	0,001
-645,984	127,515	-0,110	-0,101
-644,970	164,213	-0,094	0,096
-643,955	-200,000	0,005	-0,032
-642,941	800,000	0,037	-0,106
-641,926	363,520	-0,054	0,079
-640,911	-66,497	0,049	0,014
-639,897	-162,372	0,109	0,004
-638,882	46,073	-0,144	0,097
-637,868	-45,521	0,118	-0,042
-636,853	87,809	-0,070	0,056
-635,838	151,782	-0,103	0,102
-634,824	-179,223	0,070	-0,001
-633,809	-200,000	-0,040	0,199
-632,795	320,230	0,043	-0,060
-631,780	193,101	-0,078	0,086
-630,765	-200,000	-0,023	-0,107
-629,751	477,301	-0,036	-0,060
-628,736	2,199	-0,169	-0,088
-627,722	24,345	0,024	0,014
-626,707	-200,000	0,000	-0,003
-625,692	71,015	-0,064	0,048
-624,678	-101,379	-0,141	0,025
-623,663	800,000	-0,042	-0,103
-622,649	62,357	-0,091	0,066
-621,634	-200,000	-0,011	0,038
-620,619	-200,000	0,004	0,066
-619,605	369,459	0,005	-0,007
-618,590	-200,000	0,025	0,122
-617,576	-18,741	0,078	0,035
-616,561	-200,000	0,007	-0,086
-615,546	263,171	-0,063	-0,080
-614,532	800,000	0,071	-0,156
-613,517	3,403	-0,077	0,041
-612,503	110,472	0,078	-0,068
-611,488	800,000	-0,038	0,081
-610,474	34,421	-0,056	0,036
-609,459	-200,000	0,013	-0,047
-608,444	-200,000	0,006	-0,059
-607,430	123,415	-0,027	-0,025
-606,415	-115,553	0,161	-0,022
-605,401	800,000	0,119	0,302
-604,386	295,369	-0,012	0,016
-603,371	-200,000	-0,000	0,117
-602,357	517,721	0,022	-0,038
-601,342	-101,117	-0,078	0,014
-600,328	89,312	-0,108	-0,087
-599,313	800,000	0,033	-0,088
-598,298	-200,000	0,024	-0,082
-597,284	56,124	-0,091	0,064
-596,269	-200,000	0,024	0,082
-595,255	287,875	0,011	0,014
-594,240	-200,000	-0,052	-0,255
-593,225	800,000	-0,056	-0,164
-592,211	-44,441	0,063	0,023
-591,196	-200,000	-0,011	0,046
-590,182	-140,253	-0,055	-0,004
-589,167	-93,598	0,078	-0,015
-588,152	800,000	-0,040	0,098
-587,138	-200,000	-0,020	0,149
-586,123	57,014	-0,051	-0,036
-585,109	206,024	0,087	0,098
-584,094	152,989	-0,041	0,040
-583,079	-200,000	0,007	0,048
-582,065	80,020	0,186	0,145
-581,050	-200,000	-0,007	0,115
-580,036	-13,999	-0,050	-0,023
-579,021	-200,000	-0,001	-0,012
-578,006	329,360	-0,034	0,047
-576,992	139,294	0,092	0,088
-575,977	77,788	0,002	0,001
-574,963	-146,591	-0,073	0,004
-573,948	-110,112	0,134	-0,020
-572,934	-200,000	-0,039	-0,168
-571,919	90,161	0,097	-0,079
-570,904	14,069	0,155	-0,087
-569,890	250,652	0,036	0,044
-568,875	-200,000	-0,010	-0,119
-567,861	-145,481	0,025	0,002
-566,846	91,013	0,044	-0,035
-565,831	69,021	-0,147	0,109
-564,817	-200,000	-0,010	-0,124
-563,802	318,148	-0,031	0,043
-562,788	-200,000	0,014	0,113
-561,773	27,148	0,096	0,058
-560,758	-48,332	-0,167	-0,058
-559,744	-58,218	0,118	-0,037
-558,729	-200,000	0,006	-0,073
-557,715	-13,454	-0,097	0,045
-556,700	-27,313	0,126	-0,053
-555,685	-187,953	-0,050	-0,000
-554,671	-138,225	0,085	-0,007
-553,656	800,000	-0,044	-0,113
-552,642	800,000	-0,029	0,074
-551,627	-200,000	0,030	0,140
-550,612	-48,274	-0,038	0,013
-549,598	224,721	-0,114	-0,133
-548,583	800,000	0,038	-0,080
-547,569	-38,715	-0,049	-0,019
-546,554	138,508	0,091	-0,086
-545,539	567,009	0,023	-0,040
-544,525	298,104	-0,022	0,029
-543,510	101,405	0,126	-0,106
-542,496	-200,000	-0,030	-0,109
-541,481	-200,000	-0,009	-0,114
-540,466	161,937	0,039	0,040
-539,452	800,000	0,032	-0,091
-538,437	63,176	0,173	0,126
-537,423	528,049	0,014	-0,025
-536,408	-200,000	0,013	-0,119
-535,393	45,814	-0,071	-0,048
-534,379	-2,695	-0,060	-0,030
-533,364	-200,000	0,030	-0,097
-532,350	-200,000	0,027	-0,129
-531,335	593,717	0,068	-0,122
-530,321	-43,171	-0,029	0,010
-529,306	-3,167	0,060	-0,030
-528,291	-78,901	-0,060	-0,015
-527,277	71,909	0,095	0,072
-526,262	-74,962	0,045	0,012
-525,248	-200,000	-0,132	-0,000
-524,233	9,150	0,048	0,026
-523,218	800,000	-0,044	-0,108
-522,204	349,972	-0,118	-0,168
-521,189	-200,000	-0,023	-0,156
-520,175	336,491	-0,064	-0,090
-519,160	-200,000	-0,003	-0,065
-518,145	-103,751	0,111	0,019
-517,131	-81,735	0,106	0,025
-516,116	-200,000	0,007	0,058
-515,102	-50,729	-0,048	0,016
-514,087	70,394	0,126	-0,094
-513,072	800,000	-0,022	-0,054
-512,058	-200,000	-0,007	0,031
-511,043	-16,358	-0,163	-0,075
-510,029	163,543	0,097	0,098
-509,014	-200,000	0,001	0,069
-507,999	92,929	-0,027	-0,022
-506,985	75,931	-0,153	-0,116
-505,970	121,236	-0,068	-0,062
-504,956	-200,000	-0,015	-0,093
-503,941	571,922	-0,019	-0,034
-502,926	11,312	0,103	-0,057
-501,912	-200,000	-0,017	-0,133
-500,897	800,000	0,018	0,038
-499,883	587,644	-0,024	-0,043
-498,868	-200,000	-0,009	0,102
-497,853	257,102	-0,013	0,016
-496,839	192,589	-0,009	0,010
-495,824	452,661	0,058	0,093
-494,810	-19,479	0,069	-0,031
-493,795	101,974	-0,035	0,029
-492,781	-17,350	0,185	0,084
-491,766	13,372	0,015	0,009
-490,751	-200,000	0,016	-0,090
-489,737	-200,000	-0,009	0,073
-488,722	206,131	0,086	0,097
-487,708	312,597	0,066	-0,089
-486,693	-56,790	-0,121	0,039
-485,678	1,973	-0,113	0,059
-484,664	-45,642	0,046	0,016
-483,649	-23,909	-0,067	-0,029
-482,635	281,227	-0,066	0,085
-481,620	-200,000	-0,007	0,122
-480,605	800,000	0,053	0,121
-479,591	800,000	0,014	-0,030
-478,576	318,924	0,104	0,143
-477,562	-0,280	-0,094	-0,048
-476,547	14,545	0,038	-0,021
-475,532	800,000	-0,026	-0,069
-474,518	-200,000	-0,008	-0,080
-473,503	395,850	0,034	0,051
-472,489	-37,119	-0,083	-0,032
-471,474	-70,213	-0,032	0,009
-470,459	189,907	-0,027	-0,030
-469,445	59,986	-0,044	-0,031
-468,430	-19,709	0,055	0,025
-467,416	-53,070	0,110	0,036
-466,401	800,000	0,042	-0,114
-465,386	396,052	0,023	0,035
-464,372	433,230	-0,021	0,033
-463,357	143,392	-0,176	-0,169
-462,343	311,491	0,125	-0,170
-461,328	800,000	-0,003	-0,007
-460,313	-200,000	-0,002	0,020
-459,299	88,027	0,119	-0,095
-458,284	18,818	0,082	-0,047
-457,270	-200,000	0,009	0,088
-456,255	-5,082	0,052	-0,026
-455,241	149,295	-0,081	-0,079
-454,226	-74,654	-0,125	0,032
-453,211	-50,850	-0,060	-0,020
-452,197	-200,000	-0,018	0,068
-451,182	-90,338	0,048	-0,010
-450,168	-200,000	0,003	0,075
-449,153	-83,765	-0,077	-0,018
-448,138	-200,000	-0,009	0,092
-447,124	129,778	-0,037	-0,034
-446,109	64,846	0,110	-0,080
-445,095	-200,000	0,018	0,143
-444,080	-200,000	-0,022	0,151
-443,065	-200,000	-0,035	-0,151
-442,051	800,000	-0,035	-0,094
-441,036	382,656	-0,142	-0,211
-440,022	800,000	-0,028	-0,061
-439,007	11,543	0,108	0,060
-437,992	20,860	0,141	0,082
-436,978	14,499	0,195	-0,109
-435,963	67,470	0,051	0,037
-434,949	571,368	-0,119	0,209
-433,934	-15,869	-0,052	-0,024
-432,919	311,042	0,066	-0,089
-431,905	62,206	-0,090	-0,065
-430,890	800,000	0,071	0,147
-429,876	-200,000	-0,011	0,078
-428,861	800,000	-0,089	0,208
-427,846	800,000	-0,018	0,047
-426,832	-140,867	0,103	0,008
-425,817	-28,355	-0,103	0,043
-424,803	194,238	0,098	0,107
-423,788	-5,735	-0,149	-0,073
-422,773	64,297	0,037	0,027
-421,759	509,883	-0,011	-0,019
-420,744	-139,890	-0,191	-0,014
-419,730	30,323	-0,064	0,039
-418,715	-200,000	-0,013	-0,099
-417,701	-107,460	0,121	-0,019
-416,686	-162,240	0,183	0,006
-415,671	-200,000	0,201	0,000
-414,657	44,716	-0,035	0,023
-413,642	99,060	-0,101	0,084
-412,628	-65,211	-0,086	0,025
-411,613	-75,473	-0,100	-0,026
-410,598	360,055	0,010	-0,014
-409,584	-119,332	0,134	0,017
-408,569	-63,996	0,143	0,042
-407,555	103,511	0,111	0,093
-406,540	-173,771	-0,085	-0,002
-405,525	-200,000	-0,002	-0,074
-404,511	24,101	-0,089	-0,053
-403,496	-67,738	-0,004	-0,001
-402,482	-85,191	-0,058	0,013
-401,467	-138,364	0,136	0,011
-400,452	-60,766	-0,102	0,031
-399,438	-200,000	0,003	0,071
-398,423	-179,137	-0,099	-0,002
-397,409	107,298	0,045	-0,039
-396,394	-200,000	0,002	0,023
-395,379	229,573	-0,043	-0,051
-394,365	-150,843	0,021	-0,001
-393,350	-139,916	0,056	0,004
-392,336	-200,000	-0,022	0,191
-391,321	-85,637	0,067	-0,015
-390,306	130,005	0,034	0,031
-389,292	-41,344	0,059	-0,022
-388,277	83,690	-0,075	0,058
-387,263	-89,511	-0,094	0,020
-386,248	-200,000	-0,002	0,101
-385,233	362,343	-0,024	-0,035
-384,219	-200,000	-0,009	0,060
-383,204	332,407	0,058	-0,081
-382,190	282,643	-0,031	0,040
-381,175	277,373	-0,037	-0,047
-380,160	800,000	-0,026	0,060
-379,146	19,220	-0,072	0,041
-378,131	53,517	0,185	-0,127
-377,117	-200,000	-0,001	-0,039
-376,102	393,265	-0,057	-0,085
-375,088	-61,655	0,065	-0,019
-374,073	-200,000	-0,006	0,108
-373,058	144,791	0,061	0,058
-372,044	-200,000	0,027	-0,108
-371,029	-200,000	0,034	-0,128
-370,015	800,000	-0,053	-0,148
-369,000	-14,375	-0,108	0,050
-367,985	28,041	0,019	0,012
-366,971	-200,000	-0,062	-0,220
-365,956	-16,050	0,020	-0,009
-364,942	800,000	0,053	0,133
-363,927	311,448	0,089	0,121
-362,912	594,917	0,031	0,055
-361,898	582,730	0,043	0,076
-360,883	580,566	0,042	0,074
-359,869	800,000	-0,013	0,037
-358,854	111,643	0,083	0,072
-357,839	693,876	0,021	-0,040
-356,825	800,000	-0,009	0,020
-355,810	-63,412	0,111	0,033
-354,796	-63,853	0,022	-0,006
-353,781	-200,000	0,045	-0,175
-352,766	-76,506	0,023	0,006
-351,752	4,078	-0,061	-0,032
-350,737	104,005	0,063	-0,053
-349,723	574,658	0,080	0,141
-348,708	-189,601	-0,070	-0,001
-347,693	800,000	0,061	0,133
-346,679	65,830	-0,091	0,066
-345,664	8,511	-0,048	0,026
-344,650	800,000	-0,029	0,059
-343,635	449,906	0,074	-0,117
-342,620	-131,817	0,038	0,004
-341,606	800,000	0,019	-0,054
-340,591	-200,000	-0,019	0,094
-339,577	106,961	-0,106	-0,091
-338,562	800,000	0,051	-0,113
-337,548	250,320	-0,035	0,043
-336,533	-180,706	0,097	0,001
-335,518	800,000	-0,050	-0,102
-334,504	-91,210	0,117	-0,024
-333,489	430,489	0,006	0,009
-332,475	161,661	-0,016	0,016
-331,460	11,281	-0,072	0,039
-330,445	-89,546	-0,075	0,016
-329,431	62,701	-0,040	-0,029
-328,416	-94,941	0,025	0,005
-327,402	284,676	-0,012	0,016
-326,387	148,514	-0,067	0,065
-325,372	-102,160	-0,075	0,013
-324,358	-32,817	-0,137	0,054
-323,343	428,216	-0,038	-0,059
-322,329	800,000	0,071	-0,170
-321,314	67,480	-0,081	0,059
-320,299	800,000	0,004	0,011
-319,285	-46,484	-0,040	0,014
-318,270	-175,606	-0,115	-0,002
-317,256	-200,000	0,009	-0,050
-316,241	60,970	0,031	-0,022
-315,226	-200,000	0,007	-0,090
-314,212	-56,478	0,086	0,027
-313,197	158,171	-0,079	-0,078
-312,183	48,208	0,039	-0,026
-311,168	-200,000	0,020	-0,130
-310,153	-55,217	-0,035	0,011
-309,139	177,211	0,104	-0,109
-308,124	-200,000	-0,010	0,051
-307,110	-200,000	0,029	0,150
-306,095	78,007	0,163	0,125
-305,080	-95,621	-0,096	0,018
-304,066	800,000	0,025	-0,066
-303,051	96,862	0,043	-0,035
-302,037	-68,083	0,136	-0,038
-301,022	320,059	0,012	0,017
-300,008	-33,343	0,108	-0,043
-298,993	-200,000	-0,024	-0,113
-297,978	-107,356	0,057	-0,009
-296,964	-200,000	0,028	0,117
-295,949	-83,843	-0,081	0,018
-294,935	65,195	0,108	0,078
-293,920	-200,000	-0,001	-0,054
-292,905	800,000	0,059	-0,134
-291,891	592,999	0,081	0,143
-290,876	303,072	-0,105	0,140
-289,862	-200,000	0,044	-0,200
-288,847	61,990	-0,095	-0,068
-287,832	-200,000	-0,034	-0,118
-286,818	317,108	-0,013	0,018
-285,803	574,600	-0,039	-0,068
-284,789	-82,217	0,052	-0,012
-283,774	-145,678	-0,140	0,009
-282,759	115,034	0,016	-0,014
-281,745	130,832	-0,016	-0,014
-280,730	200,644	-0,057	-0,063
-279,716	143,442	0,032	-0,030
-278,701	101,437	-0,134	-0,112
-277,686	-19,128	-0,026	-0,012
-276,672	-9,112	-0,127	0,061
-275,657	800,000	0,053	-0,111
-274,643	-10,846	-0,121	-0,057
-273,628	-62,103	-0,153	-0,045
-272,613	177,775	0,050	-0,053
-271,599	-200,000	0,001	0,112
-270,584	57,138	0,005	0,004
-269,570	342,840	-0,051	0,071
-268,555	447,826	-0,055	0,087
-267,540	273,714	-0,070	0,089
-266,526	187,132	-0,066	0,070
-265,511	-68,045	-0,136	-0,038
-264,497	-107,058	0,012	0,002
-263,482	-124,818	0,089	0,010
-262,467	-200,000	-0,039	-0,133
-261,453	130,043	-0,082	0,075
-260,438	-167,613	-0,075	-0,002
-259,424	55,948	-0,046	-0,032
-258,409	-150,689	-0,053	-0,003
-257,395	-200,000	-0,001	0,052
-256,380	-200,000	0,000	-0,068
-255,365	-56,911	-0,084	-0,026
-254,351	-57,635	0,115	0,036
-253,336	800,000	0,033	-0,098
-252,322	-200,000	0,014	-0,047
-251,307	-56,855	-0,113	-0,035
-250,292	-200,000	0,024	0,127
-249,278	-200,000	0,002	0,067
-248,263	6,485	0,023	0,012
-247,249	-29,274	-0,037	-0,015
-246,234	-52,556	0,091	-0,030
-245,219	342,638	0,027	0,038
-244,205	-200,000	0,022	-0,111
-243,190	800,000	-0,043	0,107
-242,176	-37,624	0,048	-0,018
-241,161	-200,000	0,018	0,062
-240,146	-200,000	0,041	0,138
-239,132	80,365	-0,111	0,085
-238,117	364,706	-0,097	0,141
-237,103	-9,081	0,013	-0,006
-236,088	34,668	0,097	0,060
-235,073	37,059	-0,095	0,060
-234,059	30,341	0,021	-0,013
-233,044	200,678	-0,037	-0,041
-232,030	126,309	-0,091	-0,082
-231,015	800,000	0,032	-0,065
-230,000	447,191	0,075	-0,118
-228,986	800,000	0,021	0,044
-227,971	525,820	-0,009	0,015
-226,957	130,713	0,154	0,141
-225,942	-95,447	0,053	0,010
-224,927	229,630	-0,110	-0,128
-223,913	-200,000	0,013	0,080
-222,898	219,155	0,067	-0,077
-221,884	-200,000	0,011	0,057
-220,869	-4,417	0,063	0,031
-219,855	-200,000	-0,023	0,216
-218,840	-200,000	-0,006	0,129
-217,825	800,000	0,024	0,047
-216,811	-26,839	-0,057	-0,024
-215,796	279,090	0,108	0,138
-214,782	1,525	-0,136	-0,069
-213,767	-130,401	0,104	0,010
-212,752	-65,739	0,147	-0,042
-211,738	-200,000	-0,004	-0,116
-210,723	-29,927	0,056	-0,023
-209,709	800,000	-0,041	-0,090
-208,694	10,757	-0,148	-0,080
-207,679	-161,578	0,068	0,002
-206,665	208,422	0,058	0,065
-205,650	800,000	0,010	-0,026
-204,636	800,000	0,035	0,106
-203,621	30,150	0,255	-0,155
-202,606	531,749	0,036	0,061
-201,592	-51,608	-0,038	0,012
-200,577	297,289	-0,105	0,138
-199,563	37,878	0,073	0,046
-198,548	397,014	-0,109	0,163
-197,533	68,133	-0,075	-0,054
-196,519	-179,149	0,085	-0,001
-195,504	78,121	-0,037	0,028
-194,490	-200,000	0,003	-0,130
-193,475	-200,000	-0,001	-0,014
-192,460	512,855	-0,035	-0,058
-191,446	-0,279	-0,063	-0,032
-190,431	355,400	-0,031	0,044
-189,417	233,152	0,047	-0,056
-188,402	-73,908	0,062	0,016
-187,387	-200,000	0,010	-0,042
-186,373	-74,923	0,102	0,026
-185,358	20,581	0,052	0,030
-184,344	39,929	0,050	0,032
-183,329	-124,901	0,053	-0,006
-182,315	143,097	0,059	0,056
-181,300	-148,828	-0,136	0,008
-180,285	204,133	-0,031	0,035
-179,271	-39,682	-0,129	0,048
-178,256	133,337	-0,107	0,098
-177,242	90,215	0,064	0,051
-176,227	38,216	-0,130	0,082
-175,212	420,792	0,034	-0,052
-174,198	-200,000	0,037	0,160
-173,183	-200,000	-0,013	-0,065
-172,169	800,000	-0,083	-0,166
-171,154	-36,130	0,095	-0,036
-170,139	-16,065	-0,066	-0,030
-169,125	800,000	-0,041	0,096
-168,110	800,000	0,066	0,136
-167,096	-14,093	-0,028	0,013
-166,081	781,561	-0,033	0,066
-165,066	-84,530	-0,070	-0,016
-164,052	320,420	-0,003	0,004
-163,037	-200,000	0,016	0,083
-162,023	48,687	0,076	0,051
-161,008	-120,933	0,051	0,006
-159,993	-200,000	0,023	-0,119
-158,979	128,927	0,088	-0,080
-157,964	271,453	-0,051	0,065
-156,950	296,840	0,031	0,040
-155,935	800,000	-0,001	-0,004
-154,920	-200,000	0,002	0,012
-153,906	561,674	0,065	0,113
-152,891	-200,000	-0,007	-0,036
-151,877	138,909	0,077	-0,072
-150,862	228,444	-0,086	-0,100
-149,847	-139,891	0,086	0,006
-148,833	-200,000	-0,027	-0,177
-147,818	-162,000	0,257	0,009
-146,804	-200,000	-0,006	-0,134
-145,789	800,000	0,056	-0,145
-144,775	29,073	-0,041	0,025
-143,760	252,011	-0,054	0,065
-142,745	-200,000	-0,003	-0,025
-141,731	-200,000	-0,036	0,151
-140,716	-77,004	-0,055	0,014
-139,702	760,894	-0,067	0,129
-138,687	328,698	0,062	0,085
-137,672	-133,545	-0,068	0,006
-136,658	-200,000	-0,015	-0,113
-135,643	-159,661	-0,177	-0,007
-134,629	800,000	-0,034	0,091
-133,614	-200,000	0,002	0,108
-132,599	-200,000	0,006	0,038
-131,585	800,000	0,019	0,058
-130,570	-200,000	0,017	-0,087
-129,556	-200,000	-0,019	-0,103
-128,541	-9,688	-0,065	0,031
-127,526	-14,343	-0,030	0,014
-126,512	61,869	0,038	-0,027
-125,497	-200,000	0,014	0,047
-124,483	800,000	0,030	0,086
-123,468	-84,917	-0,113	0,025
-122,453	800,000	-0,063	0,178
-121,439	-200,000	-0,002	-0,125
-120,424	235,348	-0,031	-0,036
-119,410	293,352	0,045	0,058
-118,395	288,049	0,090	0,116
