DTS Sentinel unit serial number:	SN410029Multiplexer serial number:	ORYXHardware model number:	OX2-SRSoftware version number:	ORYX F/W v4,00 Oryx Data Collector v3.7.2.0data status	okinstallation	BH3 CH2differential loss correction	single-endedforward channel	channel 2reverse channel	N/Adate	2023/12/06time	02:57:28forward acquisition time	300,00reverse acquisition time	0,00gamma	499,1914k internal	0,3197k external	0,3197temperature offset calibration	1,0000default loss term (dB/km)	0,3820temperature slope calibration	1,0000multiplexer offset coefficient	1,0000multiplexer slope coefficient	1,0000fibre end	0,00T internal ref (°C)	8,97T ext. ref 1 (°C)	-5,87T ext. ref 2 (°C)	-5,94length (m)	temperature (°C)	Stokes	anti-Stokes-744,400	183,622	-0,111	-0,120
-743,385	72,610	-0,247	0,187
-742,371	-3,297	0,063	-0,032
-741,356	22,046	-0,231	0,137
-740,342	19,976	0,042	0,025
-739,327	-157,686	-0,316	-0,013
-738,312	-200,000	-0,016	-0,055
-737,298	-200,000	-0,054	0,267
-736,283	800,000	-0,033	-0,072
-735,269	202,900	-0,132	0,149
-734,254	-60,970	-0,036	0,011
-733,239	-29,725	-0,313	-0,129
-732,225	-200,000	0,035	-0,161
-731,210	55,815	-0,096	-0,068
-730,196	205,725	0,026	-0,030
-729,181	-200,000	-0,002	-0,133
-728,167	-14,948	-0,095	-0,044
-727,152	-64,118	0,046	0,014
-726,137	44,612	-0,140	-0,094
-725,123	-200,000	-0,026	0,134
-724,108	800,000	-0,054	-0,131
-723,094	5,509	0,028	-0,015
-722,079	-171,259	-0,104	0,002
-721,064	-200,000	0,008	0,079
-720,050	29,269	-0,116	-0,071
-719,035	-91,801	0,022	0,005
-718,021	-200,000	0,003	0,014
-717,006	-53,616	-0,231	-0,076
-715,991	-40,630	-0,159	-0,060
-714,977	-27,590	-0,114	-0,048
-713,962	327,332	-0,049	0,068
-712,948	-109,691	-0,054	-0,008
-711,933	800,000	0,041	-0,088
-710,918	-196,157	-0,208	0,001
-709,904	12,821	0,103	-0,058
-708,889	138,752	-0,076	-0,072
-707,875	-200,000	0,003	0,013
-706,860	800,000	0,016	0,043
-705,845	256,724	0,063	-0,078
-704,831	-200,000	-0,003	0,042
-703,816	50,827	0,029	0,020
-702,802	-92,607	-0,017	0,004
-701,787	-200,000	0,007	-0,073
-700,772	-45,268	-0,101	-0,036
-699,758	-128,712	0,159	0,016
-698,743	-200,000	0,000	-0,057
-697,729	-126,380	-0,179	-0,019
-696,714	800,000	0,026	-0,074
-695,699	-121,362	-0,207	-0,025
-694,685	-200,000	0,020	0,156
-693,670	-63,417	-0,099	-0,029
-692,656	-32,488	-0,071	-0,029
-691,641	-200,000	-0,010	0,124
-690,627	9,958	0,041	-0,022
-689,612	-41,631	0,187	-0,069
-688,597	-113,988	-0,107	0,015
-687,583	-200,000	-0,019	0,062
-686,568	254,681	-0,047	0,059
-685,554	42,228	-0,086	-0,057
-684,539	204,595	0,084	-0,094
-683,524	542,113	0,018	-0,031
-682,510	-200,000	0,026	-0,139
-681,495	55,134	0,033	-0,023
-680,481	-78,169	-0,161	0,040
-679,466	800,000	0,037	-0,105
-678,451	222,650	-0,053	-0,063
-677,437	122,168	0,024	-0,021
-676,422	78,354	0,034	-0,026
-675,408	-200,000	0,031	0,130
-674,393	-68,979	0,090	0,025
-673,378	800,000	0,064	-0,133
-672,364	-72,552	-0,212	-0,057
-671,349	-124,803	-0,137	-0,015
-670,335	-200,000	-0,031	0,130
-669,320	-51,468	0,077	-0,026
-668,305	13,698	-0,036	-0,020
-667,291	196,419	0,044	-0,049
-666,276	800,000	0,029	0,065
-665,262	-200,000	-0,036	-0,193
-664,247	-200,000	0,008	0,034
-663,232	800,000	0,032	0,075
-662,218	71,068	-0,052	0,039
-661,203	-177,511	-0,055	-0,001
-660,189	685,536	0,023	-0,043
-659,174	28,052	0,023	-0,014
-658,159	183,280	-0,037	-0,039
-657,145	-200,000	0,040	-0,153
-656,130	188,397	-0,057	-0,062
-655,116	-151,659	0,092	-0,005
-654,101	-101,452	-0,016	-0,003
-653,086	20,712	-0,121	-0,071
-652,072	-140,680	-0,112	-0,008
-651,057	-61,165	-0,032	-0,010
-650,043	-200,000	0,009	0,038
-649,028	800,000	-0,042	0,091
-648,014	-200,000	0,014	0,131
-646,999	-200,000	-0,010	0,083
-645,984	-63,777	0,097	0,029
-644,970	40,551	-0,069	-0,045
-643,955	-134,686	0,123	-0,011
-642,941	-74,098	-0,202	-0,053
-641,926	-200,000	-0,001	-0,073
-640,911	11,573	0,082	-0,045
-639,897	-199,961	0,078	-0,000
-638,882	163,935	0,008	-0,008
-637,868	-200,000	0,018	-0,127
-636,853	800,000	0,019	-0,053
-635,838	800,000	0,018	0,047
-634,824	-200,000	0,001	0,141
-633,809	800,000	-0,044	-0,094
-632,795	54,044	0,078	-0,055
-631,780	-79,033	-0,054	0,013
-630,765	800,000	-0,003	0,007
-629,751	501,898	-0,092	0,155
-628,736	152,800	-0,035	-0,035
-627,722	-105,030	-0,080	-0,013
-626,707	-61,246	-0,052	0,016
-625,692	269,635	0,078	0,099
-624,678	370,755	0,049	0,072
-623,663	564,886	0,052	-0,091
-622,649	337,671	-0,050	-0,071
-621,634	253,246	0,015	-0,019
-620,619	-200,000	0,004	-0,023
-619,605	137,429	-0,030	-0,028
-618,590	-20,923	0,138	-0,061
-617,576	70,711	0,102	0,077
-616,561	-47,007	0,087	0,031
-615,546	444,548	0,037	-0,058
-614,532	-200,000	-0,009	-0,111
-613,517	754,612	0,015	0,029
-612,503	-200,000	0,029	-0,112
-611,488	-200,000	-0,050	0,173
-610,474	800,000	0,038	-0,078
-609,459	12,967	-0,046	0,026
-608,444	800,000	0,038	-0,114
-607,430	-200,000	-0,001	-0,078
-606,415	-200,000	0,035	0,157
-605,401	514,750	-0,072	-0,122
-604,386	-139,552	0,130	0,010
-603,371	4,005	0,109	0,058
-602,357	424,468	-0,044	-0,069
-601,342	-200,000	-0,030	-0,204
-600,328	-90,626	-0,089	-0,018
-599,313	-94,336	0,031	-0,006
-598,298	-100,124	-0,028	-0,005
-597,284	150,906	0,100	0,099
-596,269	257,249	0,029	0,036
-595,255	-200,000	0,025	-0,114
-594,240	69,593	-0,072	-0,054
-593,225	800,000	0,068	-0,163
-592,211	-200,000	-0,048	0,226
-591,196	-200,000	-0,007	0,053
-590,182	-76,202	-0,127	-0,032
-589,167	82,675	0,112	0,088
-588,152	-18,981	0,068	-0,031
-587,138	749,598	-0,030	-0,059
-586,123	205,228	0,056	-0,063
-585,109	44,263	-0,103	-0,068
-584,094	-200,000	-0,010	-0,097
-583,079	800,000	-0,010	0,028
-582,065	262,685	-0,045	-0,056
-581,050	-90,644	-0,079	0,016
-580,036	-200,000	0,024	-0,123
-579,021	141,764	-0,106	-0,102
-578,006	10,723	-0,119	-0,066
-576,992	664,389	-0,044	0,083
-575,977	332,474	0,043	0,061
-574,963	79,088	0,071	0,055
-573,948	-71,767	-0,121	0,032
-572,934	800,000	0,015	0,040
-571,919	136,529	0,068	-0,065
-570,904	610,711	-0,068	-0,123
-569,890	268,326	-0,027	0,034
-568,875	800,000	0,016	0,037
-567,861	537,239	-0,060	-0,103
-566,846	177,453	-0,053	0,056
-565,831	-156,022	-0,137	0,006
-564,817	-101,260	0,113	-0,020
-563,802	-145,859	-0,080	0,005
-562,788	800,000	-0,030	0,072
-561,773	346,833	0,030	0,043
-560,758	-200,000	0,006	0,094
-559,744	-200,000	0,024	0,091
-558,729	-17,997	-0,018	-0,008
-557,715	190,062	0,045	-0,048
-556,700	-142,715	-0,096	0,007
-555,685	-200,000	0,003	-0,122
-554,671	44,282	0,066	-0,044
-553,656	-200,000	0,011	0,129
-552,642	-43,359	0,044	-0,016
-551,627	800,000	-0,003	-0,007
-550,612	16,461	0,156	-0,089
-549,598	70,752	-0,075	-0,056
-548,583	-33,146	-0,056	-0,022
-547,569	800,000	0,003	0,010
-546,554	800,000	-0,046	-0,132
-545,539	800,000	0,041	0,096
-544,525	-200,000	-0,026	-0,101
-543,510	-46,922	-0,024	-0,009
-542,496	-143,633	-0,105	0,007
-541,481	6,974	-0,016	-0,009
-540,466	-56,488	-0,047	0,015
-539,452	-200,000	-0,005	0,046
-538,437	-111,486	0,023	0,003
-537,423	144,914	0,097	0,093
-536,408	-20,830	0,107	-0,047
-535,393	392,347	0,070	-0,105
-534,379	221,086	-0,053	0,061
-533,364	-200,000	-0,005	-0,094
-532,350	34,660	0,012	-0,008
-531,335	-200,000	0,047	-0,161
-530,321	-86,501	0,030	-0,007
-529,306	-200,000	-0,027	0,089
-528,291	527,311	-0,042	0,072
-527,277	162,417	0,023	0,023
-526,262	-49,038	-0,066	0,023
-525,248	283,536	-0,068	0,089
-524,233	-125,691	0,248	0,027
-523,218	303,496	0,038	0,050
-522,204	-133,797	0,136	0,012
-521,189	159,204	-0,052	-0,052
-520,175	10,042	0,040	-0,022
-519,160	4,784	-0,172	-0,091
-518,145	-139,620	0,139	-0,011
-517,131	-34,357	0,093	0,037
-516,116	169,948	-0,098	0,101
-515,102	-104,988	-0,044	0,007
-514,087	123,059	-0,072	-0,065
-513,072	390,015	-0,100	-0,150
-512,058	-108,602	-0,160	-0,025
-511,043	-50,668	0,051	-0,017
-510,029	-200,000	0,003	-0,023
-509,014	-200,000	0,020	0,141
-507,999	-200,000	-0,001	0,019
-506,985	-97,184	-0,106	-0,020
-505,970	84,697	0,065	-0,051
-504,956	-17,910	-0,026	-0,012
-503,941	800,000	0,029	-0,070
-502,926	215,225	0,032	0,036
-501,912	-200,000	-0,007	0,123
-500,897	75,960	-0,065	0,049
-499,883	-78,505	0,101	0,025
-498,868	-200,000	-0,028	0,091
-497,853	-21,525	-0,048	0,021
-496,839	-200,000	-0,024	-0,151
-495,824	-16,307	0,092	-0,042
-494,810	-85,386	0,070	-0,016
-493,795	800,000	-0,012	-0,037
-492,781	800,000	0,053	-0,112
-491,766	-163,990	-0,084	-0,003
-490,751	800,000	-0,033	-0,069
-489,737	800,000	-0,030	-0,062
-488,722	-120,194	0,073	0,009
-487,708	173,151	-0,037	0,039
-486,693	43,207	0,108	0,071
-485,678	-200,000	-0,016	0,065
-484,664	-40,878	-0,105	-0,039
-483,649	130,638	0,028	0,026
-482,635	-59,509	-0,092	-0,028
-481,620	-200,000	-0,009	-0,050
-480,605	-119,599	0,078	-0,010
-479,591	800,000	-0,056	0,121
-478,576	-26,810	-0,085	0,036
-477,562	-142,088	-0,054	-0,004
-476,547	222,289	-0,023	0,027
-475,532	171,500	0,056	-0,058
-474,518	-34,901	-0,065	0,026
-473,503	-50,775	0,107	0,036
-472,489	45,167	-0,105	-0,069
-471,474	-200,000	-0,015	0,084
-470,459	-0,761	-0,112	0,057
-469,445	800,000	0,016	0,044
-468,430	380,484	-0,081	0,119
-467,416	257,367	0,064	-0,079
-466,401	188,770	0,096	0,104
-465,386	-54,319	-0,086	0,028
-464,372	239,455	-0,052	0,063
-463,357	-159,045	0,109	-0,004
-462,343	800,000	-0,016	0,046
-461,328	-200,000	0,012	-0,059
-460,313	107,979	0,080	0,069
-459,299	-164,803	-0,145	-0,005
-458,284	307,053	-0,040	-0,054
-457,270	-200,000	-0,015	0,089
-456,255	-75,397	-0,097	-0,025
-455,241	100,904	-0,019	0,016
-454,226	48,001	-0,098	0,066
-453,211	-200,000	-0,011	-0,064
-452,197	625,024	-0,042	0,076
-451,182	-200,000	0,015	0,121
-450,168	728,111	0,035	0,067
-449,153	-200,000	0,019	0,093
-448,138	38,277	0,058	0,037
-447,124	-90,528	0,031	-0,006
-446,109	-57,077	0,031	-0,010
-445,095	15,719	0,123	-0,069
-444,080	800,000	-0,038	0,098
-443,065	-23,959	-0,137	0,059
-442,051	-58,794	0,090	-0,028
-441,036	208,156	-0,020	-0,022
-440,022	54,915	0,057	0,039
-439,007	-56,523	0,135	0,043
-437,992	36,974	0,068	-0,044
-436,978	12,314	-0,025	0,014
-435,963	-90,854	0,108	0,022
-434,949	25,563	-0,083	0,050
-433,934	204,259	-0,045	0,050
-432,919	-91,815	-0,097	-0,020
-431,905	199,047	0,053	-0,058
-430,890	800,000	0,037	-0,074
-429,876	-200,000	-0,017	0,095
-428,861	457,905	0,022	0,035
-427,846	-98,070	0,032	-0,006
-426,832	668,262	-0,022	0,041
-425,817	75,565	0,123	-0,093
-424,803	554,838	0,038	-0,066
-423,788	-86,516	0,072	-0,016
-422,773	-200,000	0,016	0,053
-421,759	800,000	0,054	0,127
-420,744	263,134	0,057	-0,072
-419,730	616,605	-0,095	-0,172
-418,715	-3,923	0,116	-0,058
-417,701	551,755	-0,068	-0,117
-416,686	69,169	0,089	-0,065
-415,671	-200,000	0,025	-0,084
-414,657	-73,702	-0,095	0,025
-413,642	-200,000	-0,001	0,117
-412,628	-148,641	-0,106	-0,006
-411,613	198,974	-0,076	0,084
-410,598	46,993	0,045	-0,030
-409,584	588,272	-0,101	0,180
-408,569	124,732	0,061	-0,055
-407,555	-55,158	0,075	0,024
-406,540	23,463	-0,061	-0,036
-405,525	418,904	0,102	-0,157
-404,511	800,000	-0,042	-0,086
-403,496	-16,575	0,094	-0,043
-402,482	149,763	0,105	-0,102
-401,467	-53,258	-0,083	-0,027
-400,452	-26,842	0,057	-0,024
-399,438	-200,000	0,023	0,100
-398,423	800,000	0,021	-0,064
-397,409	-200,000	0,018	-0,069
-396,394	800,000	-0,057	-0,148
-395,379	129,851	0,043	0,039
-394,365	-200,000	-0,007	-0,049
-393,350	-128,221	-0,124	0,013
-392,336	351,528	0,029	0,041
-391,321	-200,000	0,012	0,056
-390,306	262,860	-0,045	-0,057
-389,292	-113,081	-0,066	-0,009
-388,277	507,701	0,031	0,052
-387,263	60,896	0,026	0,018
-386,248	-200,000	-0,042	0,228
-385,233	-138,487	-0,073	-0,006
-384,219	800,000	0,018	-0,045
-383,204	800,000	0,052	0,139
-382,190	13,260	-0,138	-0,076
-381,175	-200,000	0,004	0,107
-380,160	168,633	0,045	0,047
-379,146	-30,051	0,059	-0,024
-378,131	249,931	0,073	0,089
-377,117	-68,877	0,084	-0,023
-376,102	800,000	-0,040	-0,103
-375,088	-200,000	0,029	-0,120
-374,073	800,000	0,039	-0,109
-373,058	-27,066	0,063	0,026
-372,044	-98,265	-0,043	0,008
-371,029	23,297	0,052	0,031
-370,015	50,507	-0,041	-0,027
-369,000	188,517	-0,050	-0,053
-367,985	653,160	-0,025	0,047
-366,971	-200,000	0,004	0,016
-365,956	304,295	0,027	0,036
-364,942	14,889	-0,013	-0,007
-363,927	-200,000	-0,003	0,117
-362,912	-0,337	-0,089	0,045
-361,898	800,000	-0,019	0,045
-360,883	130,075	-0,026	-0,024
-359,869	196,807	-0,151	-0,166
-358,854	-200,000	0,009	0,046
-357,839	163,807	-0,030	0,030
-356,825	-200,000	-0,030	0,094
-355,810	800,000	-0,055	-0,126
-354,796	-200,000	-0,003	-0,049
-353,781	-200,000	0,018	-0,117
-352,766	268,424	-0,073	-0,092
-351,752	163,111	0,041	-0,041
-350,737	169,687	0,118	0,121
-349,723	634,448	-0,058	0,105
-348,708	-47,998	0,019	0,006
-347,693	-200,000	0,007	-0,035
-346,679	-200,000	-0,017	-0,125
-345,664	118,623	-0,124	-0,110
-344,650	-20,659	0,030	0,013
-343,635	800,000	0,022	0,047
-342,620	-200,000	-0,019	0,198
-341,606	-200,000	0,009	0,086
-340,591	319,761	0,037	0,051
-339,577	800,000	-0,070	-0,215
-338,562	280,837	0,052	0,067
-337,548	434,504	0,056	0,087
-336,533	474,014	-0,048	-0,079
-335,518	-45,752	0,059	0,021
-334,504	-60,332	-0,091	0,028
-333,489	106,396	0,026	-0,022
-332,475	138,788	0,036	-0,034
-331,460	-118,881	0,060	0,008
-330,445	188,225	-0,020	-0,021
-329,431	91,754	0,044	-0,036
-328,416	-200,000	0,006	-0,031
-327,402	140,809	-0,061	-0,058
-326,387	800,000	0,004	0,008
-325,372	545,105	0,010	0,017
-324,358	420,375	-0,009	-0,014
-323,343	-200,000	0,002	-0,053
-322,329	37,729	-0,051	0,032
-321,314	702,069	0,072	0,136
-320,299	-200,000	-0,028	-0,101
-319,285	-167,693	0,048	0,001
-318,270	-99,279	-0,207	-0,037
-317,256	-88,453	-0,073	-0,015
-316,241	288,557	0,080	0,104
-315,226	800,000	0,066	0,157
-314,212	261,974	0,061	0,076
-313,197	800,000	-0,094	0,210
-312,183	42,983	-0,092	0,060
-311,168	-200,000	0,019	-0,089
-310,153	-200,000	-0,008	0,086
-309,139	-200,000	-0,039	-0,135
-308,124	-200,000	-0,026	-0,217
-307,110	-33,531	0,192	0,076
-306,095	-200,000	0,026	-0,158
-305,080	-40,508	0,073	-0,027
-304,066	38,638	-0,109	-0,069
-303,051	233,271	-0,039	-0,045
-302,037	-23,862	0,095	0,041
-301,022	437,066	-0,071	0,111
-300,008	17,674	0,088	-0,050
-298,993	-88,392	0,022	0,005
-297,978	-200,000	0,004	0,025
-296,964	-25,977	0,016	0,007
-295,949	329,039	-0,039	-0,053
-294,935	800,000	0,008	0,019
-293,920	528,892	-0,032	0,055
-292,905	165,155	0,077	0,078
-291,891	-25,651	0,116	0,049
-290,876	-127,654	0,044	-0,004
-289,862	143,745	-0,069	0,066
-288,847	12,229	-0,061	0,033
-287,832	-27,118	-0,078	-0,032
-286,818	800,000	0,032	0,070
-285,803	800,000	0,049	0,136
-284,789	154,985	-0,028	0,028
-283,774	-200,000	0,009	0,029
-282,759	14,595	0,050	0,028
-281,745	-126,668	-0,053	0,006
-280,730	265,720	0,105	0,132
-279,716	-41,498	-0,145	-0,053
-278,701	128,016	-0,049	-0,045
-277,686	87,732	-0,045	0,036
-276,672	-200,000	-0,006	0,145
-275,657	58,808	-0,038	0,027
-274,643	-138,531	-0,057	-0,004
-273,628	119,144	-0,091	-0,081
-272,613	130,185	0,053	-0,049
-271,599	800,000	0,011	0,031
-270,584	800,000	0,007	0,017
-269,570	59,535	0,135	0,095
-268,555	-77,219	-0,060	0,015
-267,540	800,000	-0,034	-0,100
-266,526	-125,257	-0,172	0,019
-265,511	443,626	-0,021	-0,032
-264,497	114,592	-0,080	-0,070
-263,482	800,000	-0,014	0,036
-262,467	72,381	0,109	0,081
-261,453	117,555	-0,047	0,041
-260,438	100,060	-0,133	-0,110
-259,424	66,766	0,014	-0,010
-258,409	-101,325	0,010	0,002
-257,395	-21,073	0,062	-0,027
-256,380	698,712	-0,052	0,099
-255,365	277,929	0,073	0,093
-254,351	82,530	-0,111	0,086
-253,336	-63,785	-0,060	0,018
-252,322	728,917	-0,055	-0,106
-251,307	-103,987	-0,064	-0,011
-250,292	270,065	0,074	0,093
-249,278	3,441	0,077	0,040
-248,263	175,549	-0,041	-0,043
-247,249	-200,000	0,011	0,137
-246,234	-97,069	-0,147	-0,027
-245,219	-200,000	-0,024	-0,159
-244,205	-31,011	-0,080	-0,032
-243,190	10,325	-0,009	-0,005
-242,176	-200,000	0,020	-0,067
-241,161	-91,784	-0,161	0,032
-240,146	-24,677	0,191	0,081
-239,132	505,692	0,042	0,069
-238,117	-200,000	0,034	-0,112
-237,103	-200,000	-0,009	0,038
-236,088	223,531	-0,042	0,049
-235,073	800,000	0,010	0,024
-234,059	-22,393	0,093	-0,040
-233,044	-81,939	0,041	-0,009
-232,030	-200,000	0,004	-0,022
-231,015	578,170	0,032	-0,056
-230,000	2,461	0,096	-0,049
-228,986	-108,831	0,084	0,013
-227,971	-177,176	-0,177	-0,003
-226,957	167,436	0,093	-0,094
-225,942	413,001	0,073	0,111
-224,927	155,194	0,135	0,133
-223,913	31,816	0,042	-0,026
-222,898	-95,187	-0,047	0,009
-221,884	387,529	0,062	0,091
-220,869	-58,527	0,146	-0,045
-219,855	800,000	0,015	-0,042
-218,840	800,000	0,025	-0,062
-217,825	224,814	0,031	-0,035
-216,811	152,817	0,077	-0,075
-215,796	379,368	-0,107	-0,157
-214,782	-85,274	-0,124	-0,027
-213,767	418,393	0,059	0,090
-212,752	-129,884	0,143	-0,014
-211,738	-45,549	-0,123	-0,043
-210,723	347,555	-0,055	-0,078
-209,709	251,678	-0,070	-0,086
-208,694	255,330	-0,097	-0,119
-207,679	232,641	-0,040	-0,047
-206,665	-31,205	0,012	-0,005
-205,650	175,079	0,065	0,067
-204,636	-200,000	0,023	0,122
-203,621	800,000	-0,020	0,052
-202,606	-200,000	0,043	-0,177
-201,592	281,870	-0,100	0,128
-200,577	-49,812	0,032	0,011
-199,563	193,071	-0,123	-0,133
-198,548	-200,000	0,042	0,143
-197,533	71,333	0,098	0,072
-196,519	-28,732	0,121	0,049
-195,504	-34,649	-0,034	0,013
-194,490	-200,000	-0,045	-0,157
-193,475	-200,000	0,016	-0,207
-192,460	-44,857	-0,085	-0,030
-191,446	247,766	0,064	0,078
-190,431	277,047	0,128	-0,163
-189,417	121,201	0,076	0,067
-188,402	-200,000	0,029	0,095
-187,387	-41,526	-0,091	-0,033
-186,373	417,032	-0,033	0,051
-185,358	800,000	-0,008	-0,025
-184,344	-130,141	0,116	0,011
-183,329	70,774	-0,030	0,022
-182,315	70,004	0,095	-0,070
-181,300	-29,561	0,061	0,025
-180,285	128,033	0,097	0,088
-179,271	299,881	-0,042	0,055
-178,256	-177,611	0,050	-0,001
-177,242	-62,744	-0,134	0,039
-176,227	-130,058	0,137	0,013
-175,212	-200,000	-0,007	0,032
-174,198	-160,974	0,085	-0,003
-173,183	-200,000	-0,003	0,092
-172,169	800,000	-0,083	-0,186
-171,154	-137,740	-0,136	0,011
-170,139	-161,198	0,054	0,002
-169,125	81,729	0,064	0,050
-168,110	-151,311	0,074	-0,004
-167,096	710,939	0,072	0,136
-166,081	-200,000	0,022	-0,085
-165,066	613,221	0,045	-0,081
-164,052	800,000	-0,055	-0,156
-163,037	467,563	0,088	-0,141
-162,023	217,054	-0,074	0,084
-161,008	-200,000	0,065	-0,000
-159,993	136,120	0,125	0,116
-158,979	-200,000	0,012	-0,040
-157,964	-75,850	-0,090	-0,023
-156,950	-166,779	-0,073	-0,002
-155,935	301,187	0,013	0,017
-154,920	118,066	-0,069	0,061
-153,906	235,661	-0,120	0,142
-152,891	-200,000	0,012	0,093
-151,877	-156,560	-0,192	0,008
-150,862	-200,000	-0,019	0,075
-149,847	-124,821	-0,090	-0,010
-148,833	796,022	0,053	-0,105
-147,818	-71,743	0,161	0,042
-146,804	-200,000	-0,012	0,157
-145,789	-37,414	0,109	-0,041
-144,775	4,335	-0,108	-0,056
-143,760	-54,810	0,019	-0,006
-142,745	-200,000	0,003	-0,107
-141,731	800,000	-0,040	-0,122
-140,716	66,583	0,101	0,073
-139,702	800,000	0,061	0,159
-138,687	-125,810	0,075	-0,008
-137,672	800,000	0,020	0,056
-136,658	144,304	-0,069	0,065
-135,643	800,000	-0,016	-0,044
-134,629	205,302	0,072	0,080
-133,614	-200,000	0,009	0,075
-132,599	-27,827	0,075	-0,031
-131,585	-200,000	0,005	0,038
-130,570	396,984	-0,016	0,024
-129,556	800,000	0,072	0,208
-128,541	195,581	-0,030	-0,033
-127,526	-58,874	-0,156	-0,048
-126,512	288,136	-0,055	0,071
-125,497	-101,425	-0,025	-0,004
-124,483	-200,000	-0,006	0,089
-123,468	18,097	0,109	0,062
-122,453	800,000	-0,058	-0,181
-121,439	159,769	0,106	-0,105
-120,424	365,070	-0,036	-0,052
-119,410	49,896	-0,079	-0,053
