DTS Sentinel unit serial number:	SN410029Multiplexer serial number:	ORYXHardware model number:	OX2-SRSoftware version number:	ORYX F/W v4,00 Oryx Data Collector v3.7.2.0data status	okinstallation	BH3 CH2differential loss correction	single-endedforward channel	channel 2reverse channel	N/Adate	2023/12/06time	00:17:28forward acquisition time	300,00reverse acquisition time	0,00gamma	499,1914k internal	0,3196k external	0,3196temperature offset calibration	1,0000default loss term (dB/km)	0,3820temperature slope calibration	1,0000multiplexer offset coefficient	1,0000multiplexer slope coefficient	1,0000fibre end	0,00T internal ref (°C)	9,44T ext. ref 1 (°C)	-5,38T ext. ref 2 (°C)	-5,45length (m)	temperature (°C)	Stokes	anti-Stokes-744,400	-200,000	0,006	-0,031
-743,385	-53,319	-0,119	0,040
-742,371	-200,000	-0,024	-0,132
-741,356	-83,532	-0,217	0,050
-740,342	-200,000	-0,006	-0,112
-739,327	55,197	-0,267	0,188
-738,312	195,112	-0,104	-0,115
-737,298	-145,509	-0,196	0,013
-736,283	349,755	-0,105	-0,151
-735,269	-122,755	-0,197	-0,023
-734,254	-86,605	-0,066	0,015
-733,239	-64,092	-0,454	-0,134
-732,225	-101,631	0,084	-0,015
-731,210	800,000	-0,014	0,029
-730,196	-200,000	0,002	-0,127
-729,181	-125,602	-0,136	0,015
-728,167	800,000	-0,044	-0,127
-727,152	23,400	0,070	0,042
-726,137	-129,725	-0,144	-0,014
-725,123	616,380	-0,074	-0,136
-724,108	-26,873	-0,120	-0,051
-723,094	-70,551	-0,079	-0,022
-722,079	-64,957	-0,066	0,019
-721,064	-33,417	-0,091	-0,036
-720,050	800,000	-0,029	-0,087
-719,035	214,230	-0,063	0,072
-718,021	230,571	-0,051	-0,061
-717,006	800,000	-0,030	0,065
-715,991	-36,888	-0,147	0,057
-714,977	-51,359	-0,033	0,011
-713,962	-200,000	0,002	-0,084
-712,948	65,322	0,030	-0,022
-711,933	-91,406	-0,088	-0,018
-710,918	-40,482	0,123	0,046
-709,904	-76,578	-0,214	0,054
-708,889	-27,704	-0,100	0,042
-707,875	19,740	-0,064	0,037
-706,860	-200,000	-0,002	0,044
-705,845	93,555	0,131	-0,108
-704,831	285,484	-0,100	0,131
-703,816	-200,000	-0,003	-0,116
-702,802	-13,585	-0,119	-0,056
-701,787	639,515	-0,025	0,046
-700,772	-200,000	-0,007	-0,138
-699,758	-52,373	-0,083	0,028
-698,743	-9,922	0,099	0,048
-697,729	-200,000	-0,001	-0,043
-696,714	15,168	0,085	-0,048
-695,699	800,000	-0,009	-0,020
-694,685	-1,531	-0,100	-0,051
-693,670	800,000	-0,020	-0,062
-692,656	-161,437	-0,056	0,002
-691,641	-60,202	0,046	0,014
-690,627	800,000	-0,045	0,092
-689,612	-200,000	0,004	0,036
-688,597	-200,000	0,028	0,104
-687,583	14,521	-0,136	-0,077
-686,568	96,057	-0,079	-0,066
-685,554	-44,087	0,086	0,031
-684,539	-40,708	-0,110	-0,041
-683,524	203,406	0,117	0,132
-682,510	201,244	0,079	-0,088
-681,495	-34,627	-0,071	0,028
-680,481	-62,085	-0,025	-0,007
-679,466	42,037	-0,118	-0,078
-678,451	552,380	-0,031	0,054
-677,437	-200,000	0,031	-0,108
-676,422	117,513	0,102	0,091
-675,408	-200,000	0,013	-0,053
-674,393	37,843	-0,154	-0,099
-673,378	327,959	-0,075	-0,104
-672,364	-200,000	0,013	-0,264
-671,349	-67,286	-0,198	0,056
-670,335	-134,393	-0,057	0,005
-669,320	428,135	0,059	0,092
-668,305	800,000	-0,045	0,102
-667,291	285,550	-0,026	0,034
-666,276	153,640	-0,038	0,038
-665,262	-116,072	-0,101	0,014
-664,247	17,626	0,116	0,067
-663,232	394,241	-0,031	0,048
-662,218	-45,313	0,084	-0,030
-661,203	192,569	0,108	-0,118
-660,189	34,308	0,068	0,043
-659,174	800,000	-0,022	-0,061
-658,159	252,525	-0,117	-0,145
-657,145	9,405	0,047	0,026
-656,130	24,403	0,025	-0,015
-655,116	-200,000	-0,018	0,120
-654,101	193,936	0,032	0,035
-653,086	-66,070	-0,113	-0,033
-652,072	-3,499	-0,168	-0,084
-651,057	-2,722	0,002	-0,001
-650,043	-58,791	0,021	-0,007
-649,028	-200,000	0,038	-0,230
-648,014	-200,000	-0,006	-0,031
-646,999	-200,000	-0,003	-0,049
-645,984	731,246	0,055	-0,107
-644,970	323,470	-0,037	-0,051
-643,955	-88,579	-0,055	0,012
-642,941	-154,347	-0,123	-0,006
-641,926	78,928	0,101	-0,079
-640,911	-200,000	-0,028	0,130
-639,897	-21,654	0,181	0,080
-638,882	273,272	0,073	0,094
-637,868	-104,912	0,056	0,009
-636,853	800,000	0,009	0,020
-635,838	533,344	-0,069	-0,119
-634,824	154,035	0,115	0,114
-633,809	43,447	-0,015	0,010
-632,795	-200,000	-0,008	-0,093
-631,780	-200,000	0,023	0,084
-630,765	-200,000	0,020	0,122
-629,751	-200,000	-0,016	-0,143
-628,736	-200,000	-0,033	-0,137
-627,722	309,286	-0,040	0,055
-626,707	356,699	-0,054	-0,079
-625,692	-200,000	0,011	-0,038
-624,678	-94,779	0,093	0,018
-623,663	-106,975	-0,205	-0,032
-622,649	-59,722	0,110	0,034
-621,634	-22,146	-0,116	-0,051
-620,619	-200,000	0,003	-0,036
-619,605	-64,240	-0,116	-0,034
-618,590	-40,722	0,151	-0,056
-617,576	-96,586	0,087	0,017
-616,561	-200,000	-0,046	0,163
-615,546	800,000	0,037	-0,111
-614,532	-42,833	-0,090	-0,033
-613,517	-130,520	-0,143	-0,014
-612,503	387,665	-0,020	0,030
-611,488	-197,159	0,074	0,000
-610,474	800,000	-0,024	0,066
-609,459	257,269	-0,027	-0,034
-608,444	-104,300	-0,063	0,010
-607,430	223,953	-0,040	-0,047
-606,415	-135,024	-0,033	-0,003
-605,401	591,928	-0,027	0,048
-604,386	46,868	0,061	0,041
-603,371	-98,398	0,100	0,018
-602,357	800,000	0,029	-0,079
-601,342	-92,922	-0,036	0,007
-600,328	-200,000	0,017	-0,093
-599,313	383,566	0,034	0,050
-598,298	-0,769	-0,086	-0,044
-597,284	-200,000	-0,018	-0,102
-596,269	775,934	-0,011	0,021
-595,255	-139,002	-0,148	0,011
-594,240	800,000	-0,008	-0,024
-593,225	349,955	0,093	-0,134
-592,211	-200,000	0,008	-0,065
-591,196	-67,958	-0,033	-0,009
-590,182	-200,000	-0,045	0,179
-589,167	50,713	0,036	0,024
-588,152	-200,000	0,009	0,065
-587,138	19,028	-0,124	0,072
-586,123	-200,000	-0,010	0,070
-585,109	230,977	0,078	-0,093
-584,094	69,048	0,157	-0,117
-583,079	-53,150	0,090	0,030
-582,065	191,017	0,026	-0,028
-581,050	-200,000	-0,012	0,064
-580,036	-200,000	-0,015	0,061
-579,021	-117,582	0,128	-0,017
-578,006	64,471	-0,152	-0,111
-576,992	-71,089	0,095	0,026
-575,977	-162,347	0,056	0,002
-574,963	107,472	0,096	0,082
-573,948	-200,000	0,018	0,101
-572,934	213,668	0,041	0,047
-571,919	-200,000	-0,003	-0,099
-570,904	800,000	0,036	-0,108
-569,890	-200,000	0,021	0,141
-568,875	206,895	-0,056	-0,063
-567,861	87,091	-0,059	0,047
-566,846	602,682	0,062	0,112
-565,831	-97,020	-0,122	0,023
-564,817	-200,000	-0,028	-0,092
-563,802	800,000	-0,045	-0,127
-562,788	21,697	-0,101	-0,059
-561,773	-116,990	0,090	0,012
-560,758	800,000	-0,035	0,079
-559,744	37,629	0,217	0,139
-558,729	-200,000	-0,015	-0,085
-557,715	-16,744	-0,049	-0,022
-556,700	60,934	-0,091	0,065
-555,685	280,917	0,049	0,064
-554,671	800,000	0,013	0,028
-553,656	-114,768	0,074	-0,010
-552,642	-191,811	0,077	-0,001
-551,627	22,384	-0,010	0,006
-550,612	-200,000	0,001	0,043
-549,598	-200,000	-0,051	-0,182
-548,583	-70,504	-0,174	-0,047
-547,569	-200,000	0,014	0,066
-546,554	200,779	0,014	0,016
-545,539	-200,000	0,024	-0,140
-544,525	117,072	-0,039	-0,035
-543,510	35,468	-0,138	-0,087
-542,496	-200,000	0,051	-0,176
-541,481	800,000	-0,015	-0,031
-540,466	131,141	0,080	-0,075
-539,452	367,806	-0,062	0,090
-538,437	92,495	-0,041	0,033
-537,423	44,006	-0,023	-0,015
-536,408	81,344	0,126	0,098
-535,393	-64,552	-0,066	-0,019
-534,379	800,000	-0,019	-0,039
-533,364	-119,149	-0,022	0,003
-532,350	-200,000	-0,012	-0,088
-531,335	602,086	0,046	0,082
-530,321	-20,546	-0,062	-0,028
-529,306	800,000	0,026	0,083
-528,291	589,372	-0,031	0,056
-527,277	-34,457	-0,082	0,032
-526,262	41,856	0,050	-0,033
-525,248	-200,000	-0,012	-0,056
-524,233	-4,361	-0,061	0,030
-523,218	57,415	-0,039	0,027
-522,204	161,696	-0,030	-0,031
-521,189	270,761	-0,057	0,072
-520,175	52,639	0,019	0,013
-519,160	-200,000	-0,021	0,088
-518,145	800,000	0,015	-0,036
-517,131	-123,201	0,134	0,015
-516,116	-65,355	-0,024	0,007
-515,102	-200,000	-0,009	-0,126
-514,087	-99,296	0,056	-0,010
-513,072	-3,214	-0,128	-0,064
-512,058	547,950	0,018	-0,031
-511,043	-200,000	0,006	0,125
-510,029	327,559	0,048	0,066
-509,014	-0,684	0,093	0,047
-507,999	107,773	0,031	0,027
-506,985	800,000	0,016	-0,044
-505,970	71,669	-0,141	-0,106
-504,956	-36,289	-0,122	0,047
-503,941	-200,000	-0,019	0,076
-502,926	-9,268	0,027	0,013
-501,912	2,636	0,111	0,058
-500,897	800,000	0,040	0,083
-499,883	-57,306	-0,072	-0,023
-498,868	-52,259	-0,069	-0,023
-497,853	273,145	0,064	0,081
-496,839	-6,337	0,084	-0,041
-495,824	800,000	0,054	-0,128
-494,810	-64,608	0,051	0,015
-493,795	386,400	0,045	0,067
-492,781	-69,177	-0,083	0,023
-491,766	673,882	-0,078	-0,146
-490,751	800,000	0,053	-0,110
-489,737	731,092	-0,035	0,067
-488,722	-200,000	0,016	0,110
-487,708	800,000	-0,028	0,070
-486,693	315,390	-0,064	0,088
-485,678	-92,340	-0,045	0,009
-484,664	53,122	0,006	0,004
-483,649	-16,849	0,068	0,031
-482,635	800,000	0,051	-0,113
-481,620	33,121	0,067	0,042
-480,605	120,519	0,060	0,054
-479,591	-200,000	0,002	0,127
-478,576	-77,756	-0,077	0,019
-477,562	-146,260	-0,068	0,004
-476,547	-200,000	0,008	-0,046
-475,532	100,582	0,078	-0,066
-474,518	58,390	-0,132	0,093
-473,503	-2,322	0,092	-0,046
-472,489	-124,761	-0,017	-0,002
-471,474	800,000	-0,027	-0,073
-470,459	308,911	0,025	-0,034
-469,445	-200,000	-0,004	0,048
-468,430	-119,387	0,224	0,028
-467,416	-142,969	-0,050	0,003
-466,401	44,284	-0,132	0,087
-465,386	123,715	-0,062	0,056
-464,372	-200,000	-0,027	0,196
-463,357	-80,888	-0,013	0,003
-462,343	136,852	-0,074	-0,070
-461,328	-98,839	-0,036	-0,007
-460,313	77,629	-0,042	0,032
-459,299	-55,438	-0,077	-0,025
-458,284	48,096	0,036	-0,024
-457,270	-200,000	-0,015	0,059
-456,255	-4,147	0,108	0,054
-455,241	-200,000	-0,012	0,131
-454,226	419,832	0,065	-0,100
-453,211	-200,000	-0,013	-0,118
-452,197	800,000	0,026	-0,063
-451,182	87,916	0,061	0,048
-450,168	-82,289	-0,092	0,021
-449,153	58,135	-0,197	-0,139
-448,138	26,018	-0,092	0,055
-447,124	-200,000	0,059	0,213
-446,109	-200,000	0,007	0,117
-445,095	-63,675	0,057	0,017
-444,080	800,000	0,046	-0,116
-443,065	242,821	-0,096	-0,116
-442,051	-200,000	0,005	-0,045
-441,036	-200,000	-0,005	0,047
-440,022	-200,000	0,001	-0,161
-439,007	-200,000	-0,011	-0,058
-437,992	-102,110	0,060	0,010
-436,978	370,727	-0,062	0,091
-435,963	-50,047	0,029	0,010
-434,949	-200,000	-0,019	0,072
-433,934	-200,000	-0,025	-0,088
-432,919	-91,113	-0,036	-0,007
-431,905	-175,097	0,101	0,002
-430,890	592,575	0,085	0,152
-429,876	574,968	-0,061	0,107
-428,861	112,931	-0,135	0,117
-427,846	-70,571	-0,071	-0,019
-426,832	-148,635	0,140	-0,008
-425,817	-118,285	-0,162	-0,020
-424,803	705,322	-0,019	0,036
-423,788	73,161	0,041	-0,031
-422,773	143,185	0,057	0,054
-421,759	5,431	-0,083	0,044
-420,744	-163,775	0,026	0,001
-419,730	185,602	0,072	-0,077
-418,715	800,000	-0,036	-0,110
-417,701	-200,000	-0,010	0,053
-416,686	-44,479	0,048	0,017
-415,671	116,079	-0,127	0,112
-414,657	-3,265	-0,045	0,023
-413,642	133,575	0,059	0,055
-412,628	-88,634	-0,115	0,024
-411,613	324,141	-0,038	-0,052
-410,598	-44,476	-0,102	-0,036
-409,584	-92,384	0,081	0,016
-408,569	-200,000	0,022	0,197
-407,555	56,234	0,152	0,106
-406,540	-180,463	-0,105	0,002
-405,525	800,000	0,057	0,151
-404,511	-200,000	-0,019	-0,065
-403,496	800,000	-0,048	-0,145
-402,482	-132,870	0,080	-0,007
-401,467	-30,933	0,053	0,022
-400,452	-28,513	0,092	-0,038
-399,438	484,590	-0,107	0,176
-398,423	73,282	0,034	0,025
-397,409	-200,000	-0,029	-0,260
-396,394	218,128	-0,041	-0,047
-395,379	231,993	0,046	-0,055
-394,365	-200,000	-0,002	0,034
-393,350	74,970	-0,043	0,032
-392,336	-200,000	-0,027	0,087
-391,321	-7,980	-0,029	0,014
-390,306	-123,595	-0,137	-0,015
-389,292	443,370	-0,035	0,055
-388,277	-41,046	-0,066	0,024
-387,263	-200,000	0,021	0,072
-386,248	160,422	-0,016	0,016
-385,233	-200,000	-0,004	0,105
-384,219	269,820	-0,085	0,108
-383,204	102,605	-0,035	0,029
-382,190	24,809	-0,129	-0,077
-381,175	90,721	-0,037	0,030
-380,160	281,495	0,047	-0,060
-379,146	-35,321	0,057	0,022
-378,131	800,000	-0,030	0,095
-377,117	70,848	0,096	0,071
-376,102	-121,774	-0,069	0,008
-375,088	4,047	-0,121	0,063
-374,073	3,210	0,060	0,031
-373,058	140,655	0,045	-0,043
-372,044	-96,104	0,090	0,017
-371,029	-110,298	0,074	-0,011
-370,015	-148,117	0,017	0,001
-369,000	-137,202	-0,168	-0,014
-367,985	-200,000	0,040	-0,148
-366,971	800,000	0,053	-0,107
-365,956	7,899	-0,023	0,012
-364,942	135,530	0,065	0,061
-363,927	114,028	-0,034	-0,029
-362,912	800,000	0,018	-0,041
-361,898	3,348	-0,110	0,057
-360,883	-200,000	-0,021	0,113
-359,869	82,377	0,091	0,071
-358,854	800,000	-0,020	-0,041
-357,839	408,130	0,077	0,117
-356,825	126,460	0,075	0,068
-355,810	-117,748	0,254	-0,032
-354,796	264,074	-0,129	-0,162
-353,781	252,083	-0,068	-0,084
-352,766	-176,271	-0,137	0,003
-351,752	-65,192	-0,063	-0,018
-350,737	182,477	-0,059	-0,062
-349,723	-50,039	0,099	0,033
-348,708	-200,000	0,001	-0,103
-347,693	-72,697	0,117	0,031
-346,679	-60,615	0,079	-0,024
-345,664	87,866	0,007	0,006
-344,650	10,545	-0,072	0,039
-343,635	141,049	0,116	0,110
-342,620	-45,733	-0,064	-0,023
-341,606	40,237	0,078	0,050
-340,591	-28,215	0,161	-0,067
-339,577	691,824	-0,077	-0,145
-338,562	139,267	0,062	-0,059
-337,548	-200,000	-0,180	0,000
-336,533	38,257	-0,014	-0,009
-335,518	-200,000	-0,017	0,103
-334,504	580,206	0,033	-0,058
-333,489	-200,000	0,004	-0,039
-332,475	-200,000	-0,003	0,054
-331,460	345,135	0,051	0,071
-330,445	599,079	0,035	0,062
-329,431	-158,051	-0,086	0,004
-328,416	13,216	0,086	-0,047
-327,402	36,463	-0,027	-0,017
-326,387	26,967	-0,109	-0,066
-325,372	-142,863	-0,077	0,005
-324,358	366,790	-0,062	-0,090
-323,343	-45,905	-0,111	0,039
-322,329	119,686	0,047	-0,041
-321,314	-200,000	0,010	0,090
-320,299	127,963	0,090	0,082
-319,285	-54,937	0,016	-0,005
-318,270	-200,000	0,001	-0,038
-317,256	457,309	-0,106	-0,169
-316,241	360,897	-0,027	0,039
-315,226	225,940	-0,085	-0,099
-314,212	261,175	0,091	-0,113
-313,197	-200,000	-0,021	0,076
-312,183	-94,500	-0,001	-0,000
-311,168	800,000	0,027	-0,060
-310,153	189,837	-0,089	0,096
-309,139	-200,000	-0,025	-0,117
-308,124	-200,000	0,000	-0,037
-307,110	170,279	0,100	0,102
-306,095	-99,527	0,072	-0,013
-305,080	-200,000	0,000	0,072
-304,066	-200,000	0,032	0,158
-303,051	800,000	-0,037	-0,092
-302,037	-70,168	-0,007	-0,002
-301,022	406,081	0,035	0,053
-300,008	392,449	0,072	-0,107
-298,993	800,000	-0,011	0,029
-297,978	-200,000	0,001	0,046
-296,964	176,738	0,007	-0,007
-295,949	335,316	0,082	-0,114
-294,935	13,808	-0,039	-0,021
-293,920	800,000	0,020	-0,054
-292,905	800,000	0,012	0,039
-291,891	48,842	-0,041	0,027
-290,876	-200,000	0,008	-0,027
-289,862	-84,904	0,078	-0,017
-288,847	362,720	-0,010	0,014
-287,832	478,732	0,027	-0,044
-286,818	219,952	-0,076	-0,087
-285,803	162,266	0,031	0,031
-284,789	494,356	0,028	-0,045
-283,774	-200,000	-0,013	0,158
-282,759	-149,730	0,023	-0,001
-281,745	-200,000	0,004	0,086
-280,730	192,653	-0,039	-0,042
-279,716	-162,891	0,017	0,001
-278,701	-200,000	0,001	0,017
-277,686	-29,836	0,096	-0,039
-276,672	12,133	-0,115	-0,063
-275,657	-60,608	0,107	-0,032
-274,643	34,575	-0,079	0,049
-273,628	-200,000	-0,015	-0,117
-272,613	-200,000	0,003	-0,018
-271,599	266,468	-0,060	0,075
-270,584	58,405	0,056	-0,040
-269,570	800,000	-0,014	0,040
-268,555	-56,092	0,084	0,027
-267,540	140,009	-0,073	0,069
-266,526	466,051	0,067	-0,107
-265,511	345,123	0,060	-0,085
-264,497	-100,069	0,166	-0,029
-263,482	-178,338	0,068	0,001
-262,467	24,959	0,093	0,055
-261,453	-36,573	0,092	0,035
-260,438	-200,000	0,001	-0,043
-259,424	222,409	-0,066	-0,077
-258,409	24,672	-0,035	-0,021
-257,395	-117,265	0,184	-0,024
-256,380	86,224	0,107	0,084
-255,365	800,000	0,014	0,044
-254,351	-3,067	-0,009	0,004
-253,336	800,000	0,044	-0,105
-252,322	396,800	-0,026	-0,039
-251,307	-200,000	0,025	-0,110
-250,292	-72,369	-0,098	0,026
-249,278	-200,000	0,015	0,059
-248,263	314,831	-0,059	0,079
-247,249	55,268	-0,025	0,017
-246,234	800,000	-0,015	-0,038
-245,219	642,346	0,051	-0,093
-244,205	-78,833	0,073	-0,018
-243,190	303,771	0,012	0,016
-242,176	749,426	-0,036	0,069
-241,161	800,000	0,019	0,055
-240,146	41,571	-0,118	0,076
-239,132	-200,000	0,002	-0,082
-238,117	693,996	0,124	-0,234
-237,103	626,840	-0,043	0,078
-236,088	347,927	-0,042	-0,059
-235,073	307,983	0,088	-0,118
-234,059	230,120	0,064	0,074
-233,044	-7,340	-0,034	-0,016
-232,030	-200,000	-0,007	-0,185
-231,015	-200,000	0,007	0,032
-230,000	800,000	0,026	-0,078
-228,986	-200,000	0,007	0,081
-227,971	800,000	-0,056	0,112
-226,957	648,423	0,090	0,166
-225,942	-200,000	-0,032	0,115
-224,927	41,786	0,028	-0,018
-223,913	654,411	0,021	-0,039
-222,898	-117,848	0,045	-0,006
-221,884	800,000	0,019	-0,059
-220,869	-200,000	-0,021	0,167
-219,855	200,997	0,043	0,047
-218,840	310,365	-0,089	-0,120
-217,825	-130,035	0,155	-0,015
-216,811	690,709	-0,065	-0,122
-215,796	-183,426	0,108	0,001
-214,782	283,058	-0,095	-0,122
-213,767	503,660	0,012	0,021
-212,752	-200,000	0,025	-0,104
-211,738	45,965	0,104	-0,069
-210,723	210,577	-0,049	0,055
-209,709	38,749	0,070	0,044
-208,694	392,699	-0,096	-0,143
-207,679	-142,782	-0,027	0,002
-206,665	58,637	-0,103	0,072
-205,650	742,682	0,061	0,118
-204,636	800,000	-0,033	0,092
-203,621	-56,055	-0,130	-0,041
-202,606	153,999	0,023	-0,022
-201,592	-59,147	-0,087	0,027
-200,577	195,769	-0,078	-0,085
-199,563	-141,213	-0,024	0,002
-198,548	494,974	-0,101	0,166
-197,533	-56,417	0,079	0,025
-196,519	-200,000	0,003	0,021
-195,504	58,181	-0,070	-0,049
-194,490	16,966	-0,111	-0,062
-193,475	-200,000	-0,010	-0,094
-192,460	159,875	-0,044	0,044
-191,446	775,517	-0,035	-0,068
-190,431	-200,000	0,008	-0,054
-189,417	-200,000	0,022	0,103
-188,402	-200,000	0,035	-0,128
-187,387	-80,717	-0,042	0,010
-186,373	-99,875	0,212	0,037
-185,358	800,000	-0,012	0,025
-184,344	800,000	-0,017	-0,039
-183,329	-70,351	0,128	0,034
-182,315	800,000	0,018	0,046
-181,300	-200,000	-0,010	-0,063
-180,285	800,000	-0,036	-0,105
-179,271	-200,000	-0,020	-0,087
-178,256	-200,000	0,019	-0,065
-177,242	-138,563	-0,125	-0,010
-176,227	67,992	-0,057	0,041
-175,212	-64,739	0,122	0,035
-174,198	8,169	-0,032	-0,017
-173,183	94,107	-0,071	-0,058
-172,169	-200,000	0,009	-0,156
-171,154	195,881	0,118	-0,128
-170,139	800,000	-0,031	0,067
-169,125	-200,000	-0,001	0,140
-168,110	120,577	-0,082	0,073
-167,096	-21,156	0,100	0,044
-166,081	40,479	-0,083	-0,053
-165,066	-200,000	0,046	0,264
-164,052	800,000	0,049	0,143
-163,037	10,356	-0,112	-0,061
-162,023	52,848	0,032	-0,022
-161,008	-158,747	0,197	-0,008
-159,993	-49,657	-0,053	0,018
-158,979	186,570	0,066	-0,070
-157,964	-118,468	-0,105	0,013
-156,950	-38,395	-0,066	-0,025
-155,935	487,237	0,044	0,071
-154,920	182,120	0,071	0,074
-153,906	-75,989	0,087	-0,022
-152,891	41,392	0,080	0,052
-151,877	46,301	-0,052	0,034
-150,862	-200,000	0,010	-0,144
-149,847	-200,000	-0,020	0,069
-148,833	122,238	-0,074	-0,066
-147,818	-135,233	-0,081	0,007
-146,804	-200,000	-0,017	-0,149
-145,789	31,026	0,091	-0,055
-144,775	-200,000	-0,016	-0,079
-143,760	105,329	0,051	-0,043
-142,745	800,000	0,027	-0,085
-141,731	4,922	0,085	0,045
-140,716	-22,576	-0,074	-0,032
-139,702	289,971	-0,009	0,011
-138,687	14,102	0,019	0,011
-137,672	-98,956	-0,103	0,018
-136,658	-9,530	-0,027	0,013
-135,643	-62,233	-0,151	-0,044
-134,629	146,067	-0,099	-0,095
-133,614	50,790	0,078	-0,052
-132,599	-200,000	0,002	0,060
-131,585	-200,000	0,009	-0,101
-130,570	-185,669	0,042	0,000
-129,556	271,610	-0,059	-0,074
-128,541	450,483	-0,047	-0,075
-127,526	122,832	-0,025	0,022
-126,512	-95,687	0,045	0,008
-125,497	68,625	0,127	0,092
-124,483	-200,000	-0,026	-0,120
-123,468	-200,000	0,026	-0,082
-122,453	135,149	-0,088	-0,081
-121,439	-50,560	0,181	0,060
-120,424	20,732	0,091	0,052
-119,410	309,743	0,060	-0,080
-118,395	-76,797	0,139	-0,034
