DTS Sentinel unit serial number:	SN410029Multiplexer serial number:	ORYXHardware model number:	OX2-SRSoftware version number:	ORYX F/W v4,00 Oryx Data Collector v3.7.2.0data status	okinstallation	BH3 CH2differential loss correction	single-endedforward channel	channel 2reverse channel	N/Adate	2023/12/05time	23:37:28forward acquisition time	300,00reverse acquisition time	0,00gamma	499,1914k internal	0,3195k external	0,3195temperature offset calibration	1,0000default loss term (dB/km)	0,3820temperature slope calibration	1,0000multiplexer offset coefficient	1,0000multiplexer slope coefficient	1,0000fibre end	0,00T internal ref (°C)	9,53T ext. ref 1 (°C)	-5,40T ext. ref 2 (°C)	-5,49length (m)	temperature (°C)	Stokes	anti-Stokes-744,400	304,407	-0,190	-0,258
-743,385	52,568	-0,127	-0,088
-742,371	-6,179	-0,140	-0,069
-741,356	800,000	-0,033	0,090
-740,342	151,070	-0,084	-0,083
-739,327	-87,234	-0,152	0,033
-738,312	53,634	0,047	-0,033
-737,298	-121,044	-0,299	-0,036
-736,283	-200,000	-0,012	-0,133
-735,269	-42,250	-0,257	0,095
-734,254	118,444	-0,106	-0,095
-733,239	-56,277	-0,389	-0,125
-732,225	-17,259	0,238	-0,109
-731,210	219,723	-0,084	0,098
-730,196	800,000	0,028	0,089
-729,181	44,799	-0,174	0,117
-728,167	-79,199	-0,198	0,049
-727,152	-200,000	0,009	0,163
-726,137	353,890	-0,089	-0,129
-725,123	-174,092	-0,077	0,002
-724,108	1,353	-0,106	-0,055
-723,094	130,086	-0,058	-0,054
-722,079	43,128	-0,074	-0,049
-721,064	-21,324	-0,071	0,031
-720,050	399,295	-0,001	0,002
-719,035	-79,854	-0,095	-0,023
-718,021	37,953	-0,033	-0,021
-717,006	-41,707	-0,145	-0,054
-715,991	60,687	-0,056	-0,040
-714,977	17,962	-0,076	-0,044
-713,962	46,751	-0,078	0,053
-712,948	-200,000	-0,003	0,059
-711,933	676,811	0,018	0,033
-710,918	800,000	0,028	0,060
-709,904	443,934	-0,128	-0,206
-708,889	98,012	-0,047	-0,039
-707,875	70,645	-0,148	-0,111
-706,860	-69,993	-0,072	0,020
-705,845	800,000	0,041	0,092
-704,831	-61,860	0,095	-0,029
-703,816	-200,000	0,018	0,063
-702,802	38,751	0,022	0,014
-701,787	-200,000	0,003	-0,165
-700,772	-50,333	-0,079	0,027
-699,758	-200,000	-0,004	-0,193
-698,743	142,059	-0,066	-0,064
-697,729	713,259	0,077	-0,149
-696,714	366,972	-0,032	0,047
-695,699	800,000	-0,037	-0,086
-694,685	757,089	0,100	-0,197
-693,670	-121,494	-0,137	-0,016
-692,656	-21,755	0,109	0,048
-691,641	-200,000	0,057	-0,000
-690,627	175,603	-0,053	0,056
-689,612	-27,570	-0,067	-0,028
-688,597	-47,281	-0,075	-0,026
-687,583	553,997	-0,060	-0,105
-686,568	-53,519	0,063	-0,021
-685,554	-200,000	-0,010	-0,125
-684,539	73,142	-0,049	0,037
-683,524	24,531	-0,053	0,032
-682,510	20,218	-0,102	0,060
-681,495	-97,981	-0,207	-0,038
-680,481	-17,433	0,082	0,038
-679,466	-200,000	0,008	0,032
-678,451	1,537	-0,088	0,046
-677,437	-1,338	0,052	-0,026
-676,422	392,365	0,092	-0,139
-675,408	-200,000	-0,045	-0,147
-674,393	800,000	-0,050	-0,125
-673,378	102,691	0,076	-0,064
-672,364	325,163	0,004	0,005
-671,349	149,325	-0,044	-0,043
-670,335	-25,177	-0,136	-0,058
-669,320	-200,000	0,005	0,059
-668,305	-120,586	-0,061	-0,007
-667,291	-112,435	-0,131	-0,019
-666,276	-85,635	-0,142	0,032
-665,262	-200,000	-0,007	-0,034
-664,247	95,609	0,001	-0,001
-663,232	-200,000	0,006	-0,112
-662,218	800,000	0,032	-0,103
-661,203	90,556	-0,087	0,071
-660,189	67,852	-0,037	-0,027
-659,174	95,771	-0,110	0,091
-658,159	-172,655	0,042	0,001
-657,145	-120,459	-0,097	0,012
-656,130	800,000	-0,021	0,048
-655,116	800,000	0,024	0,050
-654,101	-200,000	-0,025	0,134
-653,086	27,855	0,162	0,099
-652,072	-200,000	-0,003	-0,155
-651,057	4,502	-0,015	-0,008
-650,043	-5,454	-0,018	0,009
-649,028	-200,000	-0,001	0,036
-648,014	-107,533	-0,095	0,015
-646,999	96,115	0,007	0,006
-645,984	800,000	0,005	-0,014
-644,970	-124,718	-0,060	0,007
-643,955	38,956	-0,041	-0,026
-642,941	-86,636	-0,070	-0,016
-641,926	683,175	-0,046	0,087
-640,911	-11,139	0,066	0,031
-639,897	-153,921	0,098	-0,005
-638,882	-71,207	-0,091	0,025
-637,868	-142,506	-0,135	0,009
-636,853	-110,117	-0,185	0,028
-635,838	73,473	-0,063	-0,048
-634,824	-69,178	-0,102	0,028
-633,809	156,187	0,065	-0,066
-632,795	-200,000	0,002	0,042
-631,780	-134,473	-0,091	0,008
-630,765	800,000	-0,039	0,088
-629,751	800,000	0,058	-0,143
-628,736	6,875	0,063	-0,034
-627,722	-200,000	0,018	0,100
-626,707	98,233	-0,057	-0,048
-625,692	-200,000	-0,007	-0,030
-624,678	-121,061	-0,149	-0,018
-623,663	268,026	0,011	0,014
-622,649	-200,000	-0,018	0,151
-621,634	-200,000	0,050	-0,175
-620,619	61,188	-0,029	-0,021
-619,605	-81,814	0,085	0,020
-618,590	386,140	0,016	-0,024
-617,576	241,499	-0,068	-0,083
-616,561	-200,000	0,020	0,079
-615,546	19,660	-0,048	-0,028
-614,532	-200,000	0,007	-0,044
-613,517	-64,452	-0,099	-0,029
-612,503	11,800	-0,055	0,030
-611,488	-200,000	0,003	0,070
-610,474	-2,588	-0,022	-0,011
-609,459	-44,236	-0,117	0,042
-608,444	-200,000	-0,038	-0,184
-607,430	800,000	-0,018	-0,048
-606,415	208,935	-0,012	-0,014
-605,401	-45,472	0,163	0,058
-604,386	-200,000	0,038	0,147
-603,371	-9,628	0,063	-0,030
-602,357	129,471	-0,078	-0,072
-601,342	-200,000	0,010	-0,098
-600,328	800,000	-0,053	-0,162
-599,313	-136,152	0,145	-0,012
-598,298	-107,208	-0,073	-0,012
-597,284	-39,492	-0,033	-0,013
-596,269	119,066	-0,025	0,022
-595,255	86,867	0,078	-0,062
-594,240	16,300	-0,119	-0,068
-593,225	-36,820	0,045	-0,018
-592,211	310,024	-0,095	0,130
-591,196	-11,293	0,072	-0,034
-590,182	-37,509	-0,031	-0,012
-589,167	67,098	0,032	-0,024
-588,152	800,000	-0,005	-0,013
-587,138	14,928	-0,071	0,040
-586,123	-200,000	0,035	-0,233
-585,109	-132,533	-0,030	0,003
-584,094	-12,978	-0,113	0,053
-583,079	101,842	0,013	-0,011
-582,065	20,304	-0,040	0,023
-581,050	88,348	-0,045	-0,036
-580,036	419,920	0,061	-0,094
-579,021	442,508	-0,061	0,097
-578,006	-200,000	-0,018	0,089
-576,992	-74,256	-0,163	-0,042
-575,977	-9,322	0,081	0,039
-574,963	-200,000	-0,001	-0,175
-573,948	16,029	-0,053	-0,030
-572,934	658,253	-0,043	0,080
-571,919	84,340	-0,169	0,134
-570,904	277,162	0,014	-0,018
-569,890	148,774	0,025	-0,024
-568,875	-200,000	0,041	-0,141
-567,861	-62,655	-0,086	0,026
-566,846	267,704	-0,065	0,082
-565,831	-200,000	0,002	-0,103
-564,817	-200,000	-0,018	-0,103
-563,802	112,211	0,022	-0,020
-562,788	358,930	0,055	-0,079
-561,773	-200,000	0,005	-0,067
-560,758	-200,000	-0,007	0,058
-559,744	-24,918	0,076	0,032
-558,729	85,133	0,074	0,059
-557,715	27,253	-0,108	0,065
-556,700	-200,000	0,023	-0,105
-555,685	787,078	-0,071	-0,142
-554,671	-142,715	0,078	-0,005
-553,656	-92,105	-0,078	0,016
-552,642	-184,275	0,104	-0,001
-551,627	100,817	-0,091	0,076
-550,612	800,000	-0,041	0,092
-549,598	-123,233	-0,117	-0,013
-548,583	-200,000	-0,003	-0,080
-547,569	-4,896	-0,030	0,015
-546,554	128,415	-0,195	0,180
-545,539	592,344	0,043	0,078
-544,525	-73,191	-0,049	0,013
-543,510	-87,517	0,114	0,025
-542,496	-177,475	0,076	-0,001
-541,481	582,621	0,013	0,024
-540,466	-200,000	-0,015	0,096
-539,452	150,049	0,066	0,065
-538,437	357,797	-0,052	0,076
-537,423	-200,000	0,008	-0,049
-536,408	-127,947	0,076	-0,008
-535,393	-77,128	-0,074	-0,019
-534,379	38,182	-0,108	-0,069
-533,364	102,372	0,101	-0,085
-532,350	-62,346	0,082	-0,025
-531,335	116,152	0,111	0,099
-530,321	65,309	0,077	0,056
-529,306	367,620	0,064	-0,093
-528,291	-39,762	-0,145	0,054
-527,277	96,591	-0,063	-0,052
-526,262	-162,011	0,093	0,003
-525,248	-89,040	-0,050	-0,011
-524,233	800,000	0,040	0,106
-523,218	-53,048	-0,088	0,029
-522,204	78,655	-0,024	0,018
-521,189	325,544	-0,077	0,107
-520,175	-92,368	-0,098	0,020
-519,160	-150,485	0,115	0,006
-518,145	-200,000	-0,001	0,074
-517,131	-190,455	0,111	-0,001
-516,116	176,261	-0,095	0,100
-515,102	245,195	0,094	-0,114
-514,087	800,000	0,037	0,098
-513,072	112,843	0,097	-0,085
-512,058	-1,929	0,046	-0,023
-511,043	-200,000	-0,034	-0,133
-510,029	123,117	0,048	0,043
-509,014	800,000	-0,008	-0,017
-507,999	-179,153	0,084	-0,001
-506,985	800,000	-0,034	0,071
-505,970	-200,000	0,005	-0,053
-504,956	-200,000	0,024	-0,078
-503,941	16,408	-0,136	0,078
-502,926	-6,017	0,173	-0,085
-501,912	78,909	-0,086	-0,066
-500,897	-200,000	0,019	-0,105
-499,883	-200,000	-0,001	0,024
-498,868	3,788	-0,119	0,063
-497,853	-62,053	-0,006	0,002
-496,839	-140,451	0,038	-0,003
-495,824	4,432	-0,090	-0,047
-494,810	-126,289	0,082	0,009
-493,795	345,593	-0,067	-0,096
-492,781	92,327	0,029	-0,023
-491,766	-200,000	0,002	-0,112
-490,751	-70,294	-0,182	-0,050
-489,737	37,222	-0,117	0,075
-488,722	800,000	0,055	0,119
-487,708	-167,072	0,040	0,001
-486,693	-200,000	0,009	-0,030
-485,678	60,237	0,079	-0,056
-484,664	-200,000	-0,008	0,043
-483,649	81,410	0,061	0,048
-482,635	80,603	-0,044	0,034
-481,620	-50,783	-0,152	-0,051
-480,605	-6,820	0,110	-0,054
-479,591	3,120	0,050	-0,026
-478,576	-158,036	-0,181	-0,008
-477,562	630,095	-0,047	-0,086
-476,547	-200,000	-0,012	0,050
-475,532	-200,000	-0,003	0,055
-474,518	195,056	-0,075	-0,082
-473,503	800,000	0,066	0,141
-472,489	-117,420	-0,135	-0,017
-471,474	-200,000	0,023	-0,083
-470,459	-171,295	-0,150	-0,004
-469,445	-200,000	0,025	-0,137
-468,430	800,000	-0,020	-0,048
-467,416	-74,197	0,191	0,049
-466,401	103,984	0,011	0,009
-465,386	293,735	0,057	-0,076
-464,372	-200,000	-0,003	-0,018
-463,357	-200,000	0,023	-0,175
-462,343	-109,186	-0,162	0,025
-461,328	-117,438	-0,076	-0,010
-460,313	-69,612	0,102	0,028
-459,299	61,554	0,063	-0,045
-458,284	-200,000	0,012	0,082
-457,270	701,600	0,021	0,039
-456,255	185,967	-0,033	0,035
-455,241	317,311	-0,092	-0,125
-454,226	-74,012	0,134	-0,035
-453,211	-200,000	-0,008	-0,031
-452,197	-47,076	-0,058	-0,020
-451,182	-200,000	0,005	0,049
-450,168	-118,447	0,109	-0,014
-449,153	-200,000	-0,010	-0,207
-448,138	-105,913	-0,037	0,006
-447,124	-115,034	-0,074	0,010
-446,109	800,000	0,025	-0,059
-445,095	-12,032	0,037	0,018
-444,080	42,789	-0,104	0,068
-443,065	-200,000	0,025	0,088
-442,051	-44,923	-0,065	-0,023
-441,036	-98,959	0,114	-0,021
-440,022	-200,000	-0,000	0,006
-439,007	-26,793	-0,074	0,031
-437,992	-200,000	0,010	0,055
-436,978	800,000	-0,053	0,124
-435,963	-93,294	-0,083	0,017
-434,949	-91,926	0,008	-0,002
-433,934	-200,000	-0,026	-0,089
-432,919	-130,020	0,082	0,008
-431,905	800,000	0,029	-0,086
-430,890	-200,000	0,023	0,000
-429,876	13,067	0,026	0,014
-428,861	93,536	0,062	-0,051
-427,846	310,210	0,020	0,027
-426,832	108,073	0,102	0,088
-425,817	93,814	0,032	0,026
-424,803	-132,354	0,142	-0,013
-423,788	800,000	-0,017	0,038
-422,773	378,315	-0,056	0,083
-421,759	108,480	-0,041	0,036
-420,744	-99,475	-0,051	0,009
-419,730	160,135	0,032	-0,032
-418,715	149,373	0,081	-0,079
-417,701	-115,223	-0,159	-0,021
-416,686	800,000	-0,016	0,042
-415,671	102,745	0,072	-0,060
-414,657	-84,780	0,102	0,023
-413,642	134,606	-0,124	-0,116
-412,628	101,285	0,038	0,031
-411,613	303,278	-0,050	-0,067
-410,598	-124,985	0,022	-0,002
-409,584	-88,090	0,129	-0,028
-408,569	511,851	0,040	-0,067
-407,555	-90,735	-0,059	0,012
-406,540	800,000	0,043	-0,134
-405,525	-200,000	0,004	0,062
-404,511	-61,658	-0,157	-0,047
-403,496	465,149	-0,049	-0,079
-402,482	-141,065	-0,075	-0,005
-401,467	-103,263	0,091	-0,015
-400,452	168,269	-0,040	0,041
-399,438	447,503	0,012	-0,019
-398,423	800,000	-0,048	0,107
-397,409	83,543	-0,054	0,042
-396,394	542,421	-0,094	-0,161
-395,379	159,910	-0,095	0,095
-394,365	-200,000	0,002	0,096
-393,350	800,000	0,023	-0,047
-392,336	510,102	0,065	0,108
-391,321	185,778	-0,045	0,048
-390,306	-150,978	-0,083	0,004
-389,292	20,362	0,028	0,016
-388,277	800,000	0,056	0,112
-387,263	96,764	-0,099	0,081
-386,248	-200,000	0,015	-0,076
-385,233	800,000	-0,032	0,075
-384,219	95,127	0,076	-0,062
-383,204	281,424	0,078	-0,100
-382,190	-200,000	0,046	0,162
-381,175	-100,482	-0,099	0,017
-380,160	18,061	-0,126	0,072
-379,146	-49,163	0,118	-0,040
-378,131	-200,000	-0,019	0,189
-377,117	-200,000	-0,015	-0,186
-376,102	77,085	0,085	0,065
-375,088	-200,000	-0,025	-0,097
-374,073	118,785	0,069	0,062
-373,058	-200,000	0,019	0,079
-372,044	-59,689	0,073	0,022
-371,029	35,243	-0,022	-0,014
-370,015	-66,960	-0,068	-0,019
-369,000	559,567	-0,009	0,016
-367,985	113,701	0,007	-0,006
-366,971	164,862	0,077	-0,078
-365,956	-200,000	0,023	0,076
-364,942	44,091	-0,064	0,042
-363,927	-200,000	0,007	0,143
-362,912	284,682	0,053	-0,069
-361,898	-200,000	0,012	0,058
-360,883	115,434	0,046	0,041
-359,869	-83,198	-0,059	-0,013
-358,854	134,422	0,042	0,039
-357,839	89,118	0,064	0,051
-356,825	-83,668	0,114	-0,026
-355,810	-20,445	-0,139	-0,061
-354,796	-200,000	-0,015	-0,104
-353,781	-200,000	0,022	-0,071
-352,766	-42,557	0,056	0,020
-351,752	170,269	0,103	0,106
-350,737	-85,586	0,103	-0,023
-349,723	800,000	0,022	0,065
-348,708	-200,000	-0,006	0,041
-347,693	79,066	-0,035	-0,027
-346,679	113,622	-0,054	0,047
-345,664	-200,000	-0,018	0,069
-344,650	-83,970	0,044	-0,010
-343,635	123,090	-0,108	0,097
-342,620	800,000	0,014	0,032
-341,606	-200,000	-0,021	-0,125
-340,591	-113,493	0,084	0,012
-339,577	-18,402	-0,101	0,045
-338,562	518,704	-0,036	-0,061
-337,548	-88,046	-0,127	0,027
-336,533	485,728	0,041	0,067
-335,518	800,000	-0,030	0,092
-334,504	16,256	0,071	-0,040
-333,489	800,000	-0,026	-0,075
-332,475	5,911	0,105	0,055
-331,460	28,672	-0,134	0,081
-330,445	-37,149	0,100	-0,038
-329,431	-200,000	0,008	-0,080
-328,416	-200,000	-0,012	-0,084
-327,402	-200,000	0,014	-0,054
-326,387	-153,866	-0,077	0,004
-325,372	-90,703	-0,081	-0,017
-324,358	7,917	-0,076	-0,041
-323,343	800,000	-0,044	-0,122
-322,329	-94,980	0,144	-0,028
-321,314	-200,000	-0,008	0,052
-320,299	476,290	0,044	0,071
-319,285	601,515	-0,050	-0,089
-318,270	-200,000	-0,031	-0,148
-317,256	-27,476	0,121	-0,050
-316,241	-200,000	-0,008	0,087
-315,226	50,546	0,079	-0,053
-314,212	-153,265	0,054	-0,003
-313,197	131,860	0,052	-0,048
-312,183	130,123	0,085	-0,078
-311,168	-200,000	-0,023	0,077
-310,153	269,990	-0,047	0,059
-309,139	17,803	-0,125	-0,071
-308,124	113,405	0,059	-0,052
-307,110	800,000	0,037	-0,074
-306,095	-19,298	0,120	0,053
-305,080	-200,000	0,033	-0,128
-304,066	-75,535	-0,093	-0,024
-303,051	-69,657	-0,050	0,013
-302,037	23,234	-0,088	-0,052
-301,022	620,543	0,077	0,140
-300,008	-200,000	0,012	0,095
-298,993	-200,000	-0,005	0,028
-297,978	80,682	-0,052	0,040
-296,964	-138,777	0,061	-0,005
-295,949	-35,948	-0,144	-0,055
-294,935	-200,000	-0,009	-0,085
-293,920	-200,000	-0,030	-0,122
-292,905	-30,937	0,056	-0,023
-291,891	651,033	-0,037	-0,067
-290,876	-78,322	-0,073	-0,018
-289,862	800,000	0,014	0,042
-288,847	-200,000	0,024	-0,112
-287,832	800,000	-0,045	0,107
-286,818	81,907	-0,112	0,086
-285,803	-200,000	-0,010	0,093
-284,789	400,428	-0,094	0,142
-283,774	-170,348	0,124	0,003
-282,759	-33,356	0,187	-0,074
-281,745	-200,000	-0,043	-0,139
-280,730	164,809	-0,021	0,021
-279,716	-9,601	0,034	0,016
-278,701	-49,292	0,040	0,013
-277,686	-32,448	0,086	0,034
-276,672	800,000	-0,034	-0,080
-275,657	617,120	0,016	0,029
-274,643	411,257	-0,075	-0,115
-273,628	252,432	-0,043	-0,053
-272,613	379,956	-0,043	0,064
-271,599	8,995	0,068	0,037
-270,584	248,040	0,046	-0,056
-269,570	-200,000	0,002	0,087
-268,555	-200,000	0,001	0,104
-267,540	162,840	-0,086	0,086
-266,526	-55,801	0,096	0,031
-265,511	-200,000	-0,001	-0,036
-264,497	800,000	0,044	0,101
-263,482	596,373	0,022	0,038
-262,467	-200,000	-0,020	-0,083
-261,453	-143,754	0,062	0,004
-260,438	-66,155	0,100	-0,028
-259,424	-136,139	-0,038	0,003
-258,409	800,000	-0,019	0,050
-257,395	-103,448	-0,068	0,011
-256,380	630,700	-0,073	0,134
-255,365	337,617	0,047	0,065
-254,351	-117,862	0,117	-0,015
-253,336	800,000	-0,047	-0,147
-252,322	-200,000	0,001	0,072
-251,307	-142,576	-0,088	0,006
-250,292	-200,000	0,012	-0,139
-249,278	145,567	0,051	-0,049
-248,263	94,193	0,190	0,154
-247,249	218,741	-0,021	0,024
-246,234	-200,000	0,002	-0,071
-245,219	-159,702	0,119	-0,005
-244,205	467,968	-0,094	-0,151
-243,190	427,906	-0,067	0,104
-242,176	-74,899	0,098	0,025
-241,161	-200,000	0,006	-0,058
-240,146	-200,000	-0,025	-0,137
-239,132	265,812	0,051	-0,063
-238,117	-25,491	-0,073	-0,031
-237,103	34,568	0,104	-0,065
-236,088	-73,554	-0,069	-0,018
-235,073	800,000	0,061	0,151
-234,059	142,920	-0,077	-0,073
-233,044	337,422	-0,050	0,070
-232,030	47,267	0,094	-0,063
-231,015	800,000	0,062	0,124
-230,000	-200,000	-0,005	-0,033
-228,986	-30,711	0,112	-0,045
-227,971	-200,000	0,016	-0,050
-226,957	279,108	0,100	0,127
-225,942	-200,000	0,025	0,084
-224,927	728,993	0,047	-0,090
-223,913	800,000	0,038	0,082
-222,898	114,147	-0,028	-0,025
-221,884	303,403	-0,071	-0,094
-220,869	-63,028	0,126	-0,037
-219,855	-200,000	-0,012	0,039
-218,840	-66,677	0,049	0,014
-217,825	24,652	-0,027	-0,016
-216,811	800,000	-0,051	-0,107
-215,796	317,336	-0,018	-0,024
-214,782	-101,435	0,161	0,028
-213,767	164,347	0,071	0,072
-212,752	248,703	-0,055	0,067
-211,738	15,546	0,090	0,050
-210,723	351,213	0,014	0,020
-209,709	-123,648	0,106	0,012
-208,694	800,000	-0,040	-0,119
-207,679	-6,508	-0,078	-0,038
-206,665	-200,000	0,035	0,170
-205,650	-60,911	0,067	0,020
-204,636	-70,232	-0,043	0,012
-203,621	800,000	-0,001	0,002
-202,606	-18,489	-0,034	0,015
-201,592	-200,000	-0,001	-0,098
-200,577	170,005	-0,064	-0,066
-199,563	800,000	0,045	0,101
-198,548	777,146	0,106	0,208
-197,533	-200,000	0,013	0,105
-196,519	38,942	0,119	0,076
-195,504	512,090	-0,036	0,059
-194,490	800,000	0,008	-0,020
-193,475	91,174	0,135	0,108
-192,460	-18,871	0,100	-0,044
-191,446	-76,981	0,098	-0,024
-190,431	800,000	-0,030	0,077
-189,417	-185,551	0,039	0,000
-188,402	-71,709	0,086	0,023
-187,387	-46,732	0,058	-0,020
-186,373	47,726	-0,031	-0,021
-185,358	66,019	-0,059	0,042
-184,344	471,849	0,043	0,069
-183,329	800,000	-0,006	0,011
-182,315	-185,792	0,113	-0,001
-181,300	-200,000	0,002	-0,086
-180,285	-70,180	-0,243	-0,065
-179,271	271,277	0,042	-0,053
-178,256	313,204	0,064	0,086
-177,242	307,176	-0,038	-0,050
-176,227	-200,000	-0,010	0,077
-175,212	800,000	-0,022	-0,065
-174,198	-150,096	0,059	-0,003
-173,183	-107,485	0,071	-0,011
-172,169	203,534	0,032	0,035
-171,154	-123,862	0,072	-0,008
-170,139	18,512	0,179	0,102
-169,125	800,000	0,013	0,040
-168,110	93,536	0,048	0,039
-167,096	-200,000	0,027	0,085
-166,081	-52,409	0,034	-0,011
-165,066	-68,125	-0,140	0,039
-164,052	38,010	0,041	-0,026
-163,037	15,028	-0,170	0,094
-162,023	800,000	-0,020	0,043
-161,008	61,990	-0,047	0,034
-159,993	-116,869	0,081	0,010
-158,979	-140,311	-0,065	-0,005
-157,964	-36,916	0,089	0,034
-156,950	800,000	-0,048	0,132
-155,935	75,671	0,019	-0,014
-154,920	56,419	0,088	-0,061
-153,906	11,089	0,051	-0,028
-152,891	0,915	-0,099	-0,050
-151,877	800,000	-0,038	-0,092
-150,862	800,000	-0,016	-0,045
-149,847	-119,332	0,085	-0,010
-148,833	800,000	-0,065	0,146
-147,818	-59,171	0,065	0,020
-146,804	800,000	-0,083	0,181
-145,789	-124,364	0,104	0,011
-144,775	562,305	0,026	-0,045
-143,760	-150,282	-0,042	-0,002
-142,745	-200,000	0,018	-0,070
-141,731	2,267	0,077	0,040
-140,716	30,110	0,079	-0,048
-139,702	-87,850	0,129	0,027
-138,687	800,000	0,042	-0,103
-137,672	-122,858	-0,079	-0,009
-136,658	-84,993	-0,069	-0,015
-135,643	-115,429	0,021	-0,003
-134,629	-200,000	0,035	0,115
-133,614	-200,000	-0,022	-0,091
-132,599	95,564	-0,023	0,019
-131,585	-200,000	-0,010	0,036
-130,570	433,830	0,041	-0,064
-129,556	634,446	0,099	0,179
-128,541	800,000	-0,026	0,062
-127,526	-80,895	0,047	-0,011
-126,512	-52,128	0,025	-0,008
-125,497	-25,832	0,165	0,069
-124,483	164,382	0,112	0,112
-123,468	-150,576	-0,067	0,004
-122,453	-200,000	0,001	0,120
-121,439	-200,000	0,008	0,081
-120,424	557,685	-0,006	0,011
-119,410	-200,000	0,028	0,094
-118,395	-200,000	-0,011	0,036
