DTS Sentinel unit serial number:	SN410029Multiplexer serial number:	ORYXHardware model number:	OX2-SRSoftware version number:	ORYX F/W v4,00 Oryx Data Collector v3.7.2.0data status	okinstallation	BH3 CH2differential loss correction	single-endedforward channel	channel 2reverse channel	N/Adate	2023/12/06time	04:27:28forward acquisition time	300,00reverse acquisition time	0,00gamma	499,1914k internal	0,3197k external	0,3197temperature offset calibration	1,0000default loss term (dB/km)	0,3820temperature slope calibration	1,0000multiplexer offset coefficient	1,0000multiplexer slope coefficient	1,0000fibre end	0,00T internal ref (°C)	8,93T ext. ref 1 (°C)	-5,68T ext. ref 2 (°C)	-5,78length (m)	temperature (°C)	Stokes	anti-Stokes-744,400	20,284	-0,068	-0,040
-743,385	-24,807	-0,227	0,098
-742,371	35,468	-0,073	-0,046
-741,356	103,846	-0,159	0,136
-740,342	127,113	0,075	-0,069
-739,327	60,494	-0,200	0,144
-738,312	-200,000	0,007	-0,024
-737,298	-129,003	-0,351	0,035
-736,283	207,252	-0,041	-0,046
-735,269	208,784	-0,100	0,114
-734,254	800,000	0,081	-0,244
-733,239	-120,044	-0,500	-0,062
-732,225	-200,000	0,012	-0,115
-731,210	564,375	-0,089	0,157
-730,196	5,845	0,081	-0,043
-729,181	126,645	-0,062	0,057
-728,167	121,692	-0,048	0,043
-727,152	24,988	-0,063	-0,038
-726,137	706,272	0,061	-0,117
-725,123	-102,566	0,046	0,008
-724,108	-200,000	0,004	-0,153
-723,094	73,003	-0,141	-0,107
-722,079	99,013	-0,135	-0,114
-721,064	800,000	-0,030	0,076
-720,050	-79,932	-0,120	-0,029
-719,035	800,000	-0,030	-0,090
-718,021	-200,000	-0,024	-0,120
-717,006	40,400	-0,108	-0,071
-715,991	155,388	-0,101	-0,101
-714,977	-200,000	0,005	-0,079
-713,962	-200,000	0,008	-0,053
-712,948	153,241	-0,097	0,096
-711,933	45,343	-0,066	0,044
-710,918	-4,786	0,119	-0,059
-709,904	25,151	-0,241	-0,145
-708,889	-200,000	-0,003	-0,083
-707,875	7,863	-0,065	-0,035
-706,860	-77,714	0,092	0,023
-705,845	-200,000	0,016	0,065
-704,831	285,779	0,123	0,162
-703,816	103,384	-0,027	0,023
-702,802	-200,000	0,015	0,087
-701,787	-5,470	-0,115	-0,057
-700,772	-85,442	0,095	-0,021
-699,758	-27,211	-0,196	0,083
-698,743	-31,690	0,024	-0,010
-697,729	-200,000	-0,020	-0,114
-696,714	40,739	0,062	0,041
-695,699	101,962	0,098	-0,083
-694,685	-139,017	-0,100	0,008
-693,670	85,537	0,023	0,018
-692,656	800,000	0,021	-0,054
-691,641	126,516	0,051	-0,047
-690,627	-140,192	0,191	-0,014
-689,612	-200,000	0,000	0,209
-688,597	-174,397	-0,031	-0,001
-687,583	77,892	-0,158	-0,122
-686,568	-200,000	-0,025	-0,094
-685,554	80,173	0,066	0,051
-684,539	1,802	0,087	0,045
-683,524	-8,754	-0,102	0,049
-682,510	-78,706	0,044	0,011
-681,495	165,735	0,092	0,095
-680,481	-200,000	-0,005	-0,143
-679,466	70,301	0,061	-0,046
-678,451	50,666	-0,131	-0,090
-677,437	97,783	0,135	-0,113
-676,422	33,920	0,092	0,058
-675,408	-59,344	0,072	0,022
-674,393	-200,000	-0,008	-0,131
-673,378	-200,000	-0,012	-0,090
-672,364	800,000	-0,092	-0,294
-671,349	800,000	-0,091	-0,203
-670,335	13,956	0,052	-0,029
-669,320	59,136	0,037	-0,026
-668,305	-200,000	-0,018	-0,093
-667,291	84,443	-0,029	-0,023
-666,276	-200,000	0,006	-0,076
-665,262	-200,000	0,005	-0,063
-664,247	-149,756	-0,075	-0,004
-663,232	411,480	0,015	0,024
-662,218	-100,406	0,036	-0,006
-661,203	-200,000	0,014	-0,053
-660,189	263,365	-0,040	0,050
-659,174	-200,000	-0,033	-0,117
-658,159	505,779	0,091	-0,153
-657,145	800,000	-0,005	0,015
-656,130	784,834	-0,053	0,105
-655,116	-38,686	-0,152	0,058
-654,101	32,736	-0,047	0,029
-653,086	800,000	-0,027	-0,075
-652,072	-143,681	0,097	-0,007
-651,057	108,096	-0,076	0,066
-650,043	16,225	-0,122	-0,070
-649,028	112,156	0,056	0,049
-648,014	574,783	0,052	0,092
-646,999	-87,832	-0,126	-0,027
-645,984	266,167	0,110	0,140
-644,970	49,643	-0,083	0,057
-643,955	-33,775	-0,081	-0,032
-642,941	-13,251	-0,179	0,084
-641,926	170,186	-0,043	0,045
-640,911	-24,504	0,169	-0,073
-639,897	-53,547	0,056	0,018
-638,882	-200,000	0,003	-0,012
-637,868	800,000	0,069	-0,143
-636,853	-61,007	-0,080	-0,024
-635,838	-200,000	-0,022	-0,153
-634,824	-200,000	0,021	-0,175
-633,809	737,189	0,002	0,005
-632,795	-64,162	0,029	0,008
-631,780	800,000	0,067	0,159
-630,765	-172,040	-0,077	-0,002
-629,751	321,628	0,060	0,083
-628,736	-115,772	-0,236	0,032
-627,722	114,256	0,029	0,026
-626,707	11,347	-0,066	0,037
-625,692	11,154	-0,155	0,086
-624,678	-200,000	0,000	0,027
-623,663	508,144	-0,026	-0,043
-622,649	129,828	-0,048	-0,044
-621,634	781,091	-0,089	-0,178
-620,619	-107,179	0,043	-0,007
-619,605	202,417	0,076	-0,085
-618,590	32,386	0,101	-0,063
-617,576	-200,000	-0,015	0,093
-616,561	-200,000	-0,027	0,087
-615,546	800,000	-0,022	0,063
-614,532	-200,000	-0,037	-0,141
-613,517	-88,515	-0,095	-0,020
-612,503	676,526	-0,028	0,053
-611,488	-107,560	-0,024	0,004
-610,474	-37,962	0,120	-0,046
-609,459	550,553	0,065	0,114
-608,444	120,673	-0,111	-0,100
-607,430	-200,000	0,007	-0,142
-606,415	-200,000	0,033	-0,180
-605,401	214,813	-0,044	0,051
-604,386	-125,849	-0,085	0,009
-603,371	597,606	-0,029	0,052
-602,357	153,019	0,033	0,032
-601,342	-27,505	-0,062	0,026
-600,328	8,396	-0,040	0,022
-599,313	-200,000	-0,020	-0,097
-598,298	422,309	0,047	0,074
-597,284	-120,884	0,136	-0,016
-596,269	259,170	0,031	0,039
-595,255	60,459	0,169	0,121
-594,240	568,674	-0,046	-0,082
-593,225	-60,648	0,082	-0,025
-592,211	-200,000	-0,036	0,127
-591,196	239,871	-0,085	0,102
-590,182	413,368	0,024	0,038
-589,167	366,104	0,038	0,056
-588,152	-109,249	-0,245	-0,037
-587,138	73,347	-0,081	-0,061
-586,123	298,473	0,058	-0,077
-585,109	79,484	-0,097	-0,075
-584,094	535,936	0,056	0,097
-583,079	-57,000	-0,016	0,005
-582,065	-200,000	0,001	0,068
-581,050	278,431	0,027	-0,035
-580,036	-200,000	0,000	-0,087
-579,021	208,073	-0,022	-0,025
-578,006	1,797	0,088	-0,046
-576,992	-68,407	-0,111	-0,031
-575,977	-52,156	-0,045	-0,015
-574,963	369,826	-0,036	0,053
-573,948	33,397	-0,089	0,055
-572,934	102,597	-0,092	0,077
-571,919	-89,739	-0,130	-0,027
-570,904	800,000	-0,010	-0,029
-569,890	800,000	-0,031	-0,095
-568,875	4,602	0,150	0,079
-567,861	-200,000	-0,011	0,045
-566,846	223,092	0,059	-0,069
-565,831	-200,000	0,018	-0,113
-564,817	-200,000	0,005	0,037
-563,802	119,183	-0,133	-0,119
-562,788	290,113	-0,021	-0,027
-561,773	-200,000	0,033	-0,123
-560,758	-106,358	-0,100	0,016
-559,744	-131,640	0,215	-0,020
-558,729	-119,849	0,078	-0,010
-557,715	800,000	0,003	-0,006
-556,700	-200,000	0,012	0,096
-555,685	-47,726	-0,053	-0,019
-554,671	800,000	-0,033	0,092
-553,656	800,000	0,057	0,119
-552,642	4,900	-0,106	-0,056
-551,627	455,577	0,011	0,017
-550,612	683,648	-0,007	0,013
-549,598	93,815	0,069	-0,056
-548,583	-200,000	-0,050	-0,213
-547,569	-72,227	-0,110	0,029
-546,554	314,853	0,076	0,104
-545,539	-163,455	-0,129	-0,004
-544,525	-115,704	-0,063	0,008
-543,510	177,603	0,153	0,161
-542,496	162,112	-0,076	0,077
-541,481	-82,284	-0,065	-0,015
-540,466	468,220	-0,032	-0,053
-539,452	259,208	0,092	0,115
-538,437	1,237	0,112	-0,058
-537,423	265,880	0,152	-0,192
-536,408	-45,227	0,073	0,026
-535,393	103,889	-0,136	-0,115
-534,379	800,000	-0,006	0,012
-533,364	-86,195	-0,119	-0,026
-532,350	235,579	0,070	0,084
-531,335	562,490	-0,032	-0,055
-530,321	-86,849	-0,079	0,017
-529,306	-46,298	0,072	-0,026
-528,291	438,202	-0,036	-0,057
-527,277	213,599	-0,097	0,110
-526,262	-39,618	0,072	-0,027
-525,248	-19,573	0,039	0,018
-524,233	-200,000	0,008	0,141
-523,218	451,417	0,007	0,011
-522,204	533,608	0,058	0,100
-521,189	800,000	0,019	0,048
-520,175	35,918	0,060	-0,038
-519,160	340,668	-0,040	-0,057
-518,145	423,195	-0,108	-0,168
-517,131	-200,000	0,011	0,124
-516,116	390,767	-0,040	0,060
-515,102	800,000	0,011	-0,031
-514,087	-125,419	-0,096	0,010
-513,072	-33,107	-0,102	-0,041
-512,058	-200,000	-0,009	-0,192
-511,043	800,000	0,038	-0,078
-510,029	307,524	0,076	0,103
-509,014	-200,000	-0,007	0,146
-507,999	-200,000	-0,006	0,034
-506,985	-4,483	-0,118	-0,059
-505,970	367,308	-0,101	-0,147
-504,956	-64,469	0,092	0,027
-503,941	800,000	-0,030	0,091
-502,926	-200,000	0,017	0,073
-501,912	19,465	0,051	0,030
-500,897	676,402	-0,085	0,160
-499,883	-180,914	-0,128	-0,002
-498,868	-200,000	-0,004	-0,074
-497,853	32,362	0,079	-0,049
-496,839	198,678	0,013	0,014
-495,824	106,006	0,147	0,126
-494,810	-200,000	0,027	0,147
-493,795	-138,098	-0,082	0,006
-492,781	238,828	0,053	0,064
-491,766	-58,949	-0,105	-0,033
-490,751	-9,866	0,164	-0,078
-489,737	-149,577	-0,095	0,005
-488,722	211,287	0,127	0,144
-487,708	7,128	0,089	-0,048
-486,693	-64,881	0,112	-0,033
-485,678	237,215	-0,148	0,178
-484,664	112,582	-0,052	0,046
-483,649	-200,000	-0,001	-0,065
-482,635	-200,000	0,004	0,045
-481,620	676,890	-0,099	0,186
-480,605	646,651	0,064	0,118
-479,591	299,633	0,061	0,081
-478,576	-200,000	0,028	0,139
-477,562	256,688	-0,077	-0,096
-476,547	786,839	-0,029	0,057
-475,532	-200,000	-0,016	-0,092
-474,518	333,613	-0,072	0,101
-473,503	276,836	0,040	0,051
-472,489	-113,457	-0,096	0,013
-471,474	-126,652	0,080	0,008
-470,459	360,952	0,034	-0,050
-469,445	-64,873	-0,221	-0,064
-468,430	366,452	0,068	0,099
-467,416	-200,000	-0,002	-0,169
-466,401	75,625	0,132	0,100
-465,386	-200,000	-0,022	0,191
-464,372	800,000	0,002	-0,007
-463,357	739,794	-0,011	-0,022
-462,343	179,228	-0,070	-0,074
-461,328	-200,000	-0,020	-0,193
-460,313	-200,000	-0,015	0,142
-459,299	800,000	-0,042	0,095
-458,284	-25,929	-0,031	0,013
-457,270	42,342	-0,122	-0,080
-456,255	-109,582	-0,067	0,010
-455,241	33,473	0,044	0,027
-454,226	-200,000	0,018	-0,066
-453,211	-1,971	0,040	0,020
-452,197	-85,097	0,155	0,035
-451,182	11,640	0,062	0,034
-450,168	95,386	-0,096	0,079
-449,153	-200,000	0,031	0,162
-448,138	25,703	-0,225	0,135
-447,124	-86,336	-0,062	-0,014
-446,109	151,963	0,053	0,052
-445,095	312,295	0,055	0,074
-444,080	-28,098	0,157	0,065
-443,065	212,271	0,018	0,020
-442,051	-200,000	0,001	0,009
-441,036	800,000	-0,016	-0,038
-440,022	800,000	0,061	-0,141
-439,007	-91,112	0,166	-0,034
-437,992	216,584	-0,080	0,091
-436,978	800,000	0,029	0,074
-435,963	455,350	-0,012	0,018
-434,949	800,000	0,048	0,102
-433,934	800,000	-0,072	-0,219
-432,919	794,738	-0,054	-0,108
-431,905	-44,609	-0,084	-0,030
-430,890	236,009	0,045	0,053
-429,876	-200,000	-0,006	0,100
-428,861	-200,000	-0,009	0,169
-427,846	-108,000	-0,050	-0,008
-426,832	-200,000	0,011	0,092
-425,817	9,016	-0,033	-0,018
-424,803	800,000	0,024	-0,065
-423,788	-200,000	-0,007	-0,023
-422,773	53,523	0,175	-0,120
-421,759	247,909	-0,041	-0,050
-420,744	800,000	-0,036	-0,104
-419,730	-200,000	0,004	-0,113
-418,715	568,475	-0,066	-0,116
-417,701	-120,943	-0,069	0,008
-416,686	-200,000	-0,001	-0,086
-415,671	746,154	-0,056	0,109
-414,657	169,158	0,112	-0,115
-413,642	13,636	0,107	-0,060
-412,628	226,343	0,024	-0,028
-411,613	-200,000	0,018	-0,059
-410,598	-200,000	0,005	-0,074
-409,584	9,651	0,078	-0,042
-408,569	-200,000	0,012	-0,112
-407,555	-200,000	0,015	-0,113
-406,540	383,335	-0,036	0,054
-405,525	0,983	0,147	0,076
-404,511	-78,317	-0,116	-0,028
-403,496	-56,269	0,092	-0,029
-402,482	492,819	0,027	-0,045
-401,467	-60,611	0,049	-0,015
-400,452	-48,432	0,068	-0,024
-399,438	-27,051	0,185	0,077
-398,423	-110,970	-0,118	0,017
-397,409	75,839	0,057	0,043
-396,394	319,591	0,027	-0,037
-395,379	114,276	0,040	-0,035
-394,365	-94,806	0,100	0,019
-393,350	800,000	-0,016	0,045
-392,336	-200,000	0,018	-0,120
-391,321	-129,314	0,039	-0,004
-390,306	17,651	-0,187	-0,107
-389,292	411,953	0,035	-0,054
-388,277	-200,000	0,014	0,101
-387,263	-166,630	0,195	0,006
-386,248	-156,293	-0,041	-0,002
-385,233	316,391	-0,064	0,087
-384,219	-200,000	-0,009	0,036
-383,204	800,000	-0,075	-0,153
-382,190	103,625	0,039	-0,033
-381,175	-200,000	-0,013	0,075
-380,160	228,980	0,099	-0,116
-379,146	118,929	-0,007	0,006
-378,131	800,000	0,050	0,150
-377,117	-85,282	-0,096	0,021
-376,102	-200,000	0,033	0,148
-375,088	-9,791	-0,056	-0,027
-374,073	-200,000	0,007	0,121
-373,058	-45,028	0,037	-0,013
-372,044	-200,000	-0,015	-0,137
-371,029	-200,000	0,006	0,100
-370,015	-200,000	-0,011	0,038
-369,000	296,313	0,038	0,050
-367,985	-127,317	0,143	-0,015
-366,971	159,832	-0,038	0,038
-365,956	-96,708	-0,028	-0,005
-364,942	249,660	0,095	-0,116
-363,927	-15,262	-0,055	-0,025
-362,912	-112,540	-0,084	-0,012
-361,898	5,917	0,122	-0,065
-360,883	584,387	0,040	-0,070
-359,869	-3,572	-0,024	-0,012
-358,854	-200,000	0,013	-0,043
-357,839	-46,655	-0,100	0,035
-356,825	374,474	0,017	0,025
-355,810	-76,234	-0,065	-0,016
-354,796	1,735	0,023	-0,012
-353,781	374,318	-0,073	-0,107
-352,766	-97,777	0,114	-0,021
-351,752	-72,472	0,093	-0,024
-350,737	156,729	0,075	-0,074
-349,723	800,000	0,068	0,160
-348,708	1,875	0,029	-0,015
-347,693	-200,000	-0,020	-0,075
-346,679	-6,646	0,119	0,058
-345,664	795,575	0,027	0,054
-344,650	-200,000	-0,024	0,092
-343,635	613,661	0,041	0,073
-342,620	-200,000	0,037	0,121
-341,606	-89,318	0,098	-0,021
-340,591	-200,000	-0,004	-0,020
-339,577	-75,550	-0,066	-0,017
-338,562	-98,189	0,037	0,007
-337,548	-139,705	0,026	-0,002
-336,533	-137,344	-0,036	0,003
-335,518	800,000	-0,036	0,110
-334,504	43,811	0,070	0,046
-333,489	149,200	0,132	-0,128
-332,475	516,214	-0,030	-0,051
-331,460	-200,000	-0,010	-0,085
-330,445	-81,954	-0,089	-0,021
-329,431	-200,000	0,033	-0,108
-328,416	-163,310	-0,049	-0,002
-327,402	800,000	-0,061	0,131
-326,387	62,249	-0,023	0,016
-325,372	-46,855	0,056	0,020
-324,358	-37,609	0,199	-0,075
-323,343	-123,626	-0,047	-0,005
-322,329	646,696	-0,025	-0,046
-321,314	580,138	0,025	0,045
-320,299	-94,206	-0,075	-0,015
-319,285	-200,000	0,015	0,081
-318,270	-30,481	-0,086	-0,035
-317,256	164,793	0,010	0,010
-316,241	273,947	0,054	-0,069
-315,226	621,870	0,056	-0,102
-314,212	800,000	0,073	0,165
-313,197	107,095	0,104	0,088
-312,183	23,406	-0,107	-0,063
-311,168	-200,000	0,002	0,141
-310,153	-141,846	0,079	-0,006
-309,139	82,281	-0,154	0,120
-308,124	240,360	0,042	-0,051
-307,110	682,405	0,102	0,190
-306,095	-200,000	0,030	-0,171
-305,080	312,277	-0,058	0,078
-304,066	268,791	0,025	-0,032
-303,051	156,748	0,071	0,070
-302,037	-200,000	0,022	-0,126
-301,022	-33,212	0,060	-0,024
-300,008	259,811	-0,020	0,024
-298,993	800,000	-0,040	-0,090
-297,978	-200,000	-0,014	0,044
-296,964	-200,000	0,009	-0,115
-295,949	-89,563	-0,086	-0,018
-294,935	-133,859	0,148	0,013
-293,920	-69,593	0,081	-0,022
-292,905	47,418	0,062	-0,041
-291,891	-200,000	0,002	0,131
-290,876	-200,000	0,009	-0,118
-289,862	-88,994	-0,053	0,011
-288,847	35,385	-0,073	-0,046
-287,832	800,000	-0,052	-0,144
-286,818	16,996	-0,082	0,047
-285,803	800,000	-0,052	0,161
-284,789	345,342	0,123	0,173
-283,774	800,000	0,019	0,059
-282,759	800,000	-0,032	0,065
-281,745	-110,585	-0,098	-0,014
-280,730	-200,000	0,003	-0,114
-279,716	472,174	-0,031	0,049
-278,701	560,535	-0,063	0,108
-277,686	-30,981	0,125	0,050
-276,672	-64,883	0,071	0,020
-275,657	-173,356	-0,104	-0,002
-274,643	199,487	-0,085	-0,093
-273,628	65,765	-0,083	-0,060
-272,613	-200,000	0,005	-0,041
-271,599	-87,672	0,090	0,019
-270,584	-76,540	0,075	0,019
-269,570	-200,000	-0,032	0,118
-268,555	-200,000	0,002	0,083
-267,540	-200,000	-0,016	-0,061
-266,526	-150,162	-0,076	0,004
-265,511	1,780	0,081	-0,042
-264,497	-75,742	-0,047	0,012
-263,482	800,000	-0,027	-0,083
-262,467	35,229	-0,109	0,068
-261,453	-200,000	0,017	0,157
-260,438	80,323	-0,070	-0,053
-259,424	-200,000	-0,013	-0,054
-258,409	-200,000	0,013	-0,075
-257,395	-84,998	-0,023	-0,005
-256,380	-9,313	0,167	-0,079
-255,365	141,626	-0,019	-0,018
-254,351	-115,534	0,123	-0,016
-253,336	800,000	-0,019	0,053
-252,322	-72,456	0,140	-0,037
-251,307	-23,155	-0,089	-0,038
-250,292	721,596	-0,034	-0,066
-249,278	800,000	0,043	0,133
-248,263	345,321	-0,070	0,098
-247,249	-47,115	-0,053	-0,019
-246,234	800,000	0,058	0,114
-245,219	-200,000	0,038	-0,134
-244,205	23,366	-0,122	-0,071
-243,190	413,778	0,039	-0,059
-242,176	-41,558	0,059	-0,022
-241,161	-200,000	0,011	0,063
-240,146	133,122	-0,081	-0,075
-239,132	118,107	0,122	0,108
-238,117	-200,000	-0,015	-0,112
-237,103	-9,590	-0,063	-0,030
-236,088	-107,716	-0,065	0,010
-235,073	-76,796	0,067	-0,017
-234,059	226,885	0,137	0,159
-233,044	16,956	-0,063	-0,036
-232,030	800,000	-0,044	-0,109
-231,015	512,190	-0,050	0,083
-230,000	-81,388	0,208	-0,049
-228,986	185,475	-0,071	0,075
-227,971	800,000	-0,060	-0,135
-226,957	466,714	-0,051	-0,082
-225,942	800,000	0,020	0,063
-224,927	360,529	-0,054	-0,077
-223,913	-200,000	0,027	-0,092
-222,898	-200,000	0,012	-0,094
-221,884	-51,005	0,160	-0,053
-220,869	156,083	-0,030	-0,029
-219,855	-105,083	-0,060	-0,010
-218,840	51,957	0,103	-0,070
-217,825	800,000	-0,021	-0,060
-216,811	306,430	-0,052	0,069
-215,796	70,813	-0,101	0,075
-214,782	59,829	0,062	-0,044
-213,767	800,000	0,067	0,138
-212,752	120,728	0,153	-0,136
-211,738	-51,291	-0,157	-0,052
-210,723	526,794	0,014	0,024
-209,709	-66,898	0,074	0,021
-208,694	800,000	-0,020	-0,045
-207,679	-200,000	-0,017	-0,144
-206,665	31,542	0,062	-0,038
-205,650	-200,000	-0,010	-0,037
-204,636	800,000	0,047	0,100
-203,621	125,121	-0,034	-0,031
-202,606	137,379	-0,058	0,054
-201,592	150,088	0,064	-0,062
-200,577	-200,000	-0,016	-0,117
-199,563	-200,000	0,019	0,131
-198,548	-78,098	-0,125	-0,030
-197,533	800,000	0,029	0,073
-196,519	-200,000	0,002	-0,037
-195,504	-200,000	0,033	-0,115
-194,490	-200,000	-0,002	-0,090
-193,475	187,121	0,023	-0,025
-192,460	800,000	0,020	0,057
-191,446	-4,681	0,144	-0,071
-190,431	800,000	0,029	0,074
-189,417	-200,000	-0,020	0,072
-188,402	-200,000	-0,014	-0,123
-187,387	536,474	0,010	-0,017
-186,373	-80,637	-0,062	0,015
-185,358	-200,000	0,020	0,074
-184,344	-200,000	-0,004	-0,027
-183,329	788,025	-0,045	0,088
-182,315	-200,000	-0,020	-0,070
-181,300	411,304	-0,054	0,083
-180,285	141,340	-0,160	-0,151
-179,271	800,000	0,024	0,060
-178,256	139,411	-0,044	-0,041
-177,242	92,276	0,085	-0,068
-176,227	-200,000	0,007	0,068
-175,212	-48,608	-0,029	0,010
-174,198	-200,000	0,016	0,177
-173,183	-164,895	-0,089	-0,003
-172,169	-200,000	0,001	-0,053
-171,154	-68,559	-0,193	0,053
-170,139	800,000	0,022	0,044
-169,125	322,331	0,080	-0,109
-168,110	-68,511	-0,076	-0,021
-167,096	800,000	0,012	0,026
-166,081	-200,000	0,003	-0,089
-165,066	9,813	-0,105	-0,056
-164,052	298,709	0,122	0,161
-163,037	-163,576	-0,111	-0,004
-162,023	74,932	0,047	-0,035
-161,008	451,271	-0,022	-0,035
-159,993	264,132	0,043	0,053
-158,979	224,148	-0,148	-0,171
-157,964	26,153	0,056	0,033
-156,950	498,937	-0,050	-0,083
-155,935	-35,361	0,160	-0,062
-154,920	138,205	-0,050	0,047
-153,906	200,050	-0,081	0,088
-152,891	4,819	0,046	0,024
-151,877	-48,664	0,091	-0,031
-150,862	109,469	0,037	-0,031
-149,847	-200,000	-0,006	0,055
-148,833	-135,973	0,095	-0,008
-147,818	292,777	0,079	0,102
-146,804	272,484	0,128	0,161
-145,789	-12,293	-0,073	0,034
-144,775	-42,281	0,089	-0,032
-143,760	661,901	-0,067	-0,123
-142,745	455,480	-0,073	0,115
-141,731	-200,000	0,021	-0,114
-140,716	549,247	0,096	0,164
-139,702	55,334	0,082	0,056
-138,687	-104,138	-0,029	0,005
-137,672	589,519	0,063	0,111
-136,658	46,113	-0,141	-0,092
-135,643	223,957	-0,021	0,024
-134,629	-120,669	-0,086	0,010
-133,614	-141,898	0,073	-0,005
-132,599	-123,990	-0,090	-0,010
-131,585	203,632	0,046	0,051
-130,570	-74,328	-0,041	-0,010
-129,556	-200,000	-0,001	-0,081
-128,541	800,000	0,072	-0,168
-127,526	-200,000	0,008	0,103
-126,512	-200,000	0,013	0,049
-125,497	800,000	0,017	0,041
-124,483	212,558	-0,058	-0,065
-123,468	439,675	-0,058	0,090
-122,453	269,350	-0,096	-0,120
-121,439	8,205	0,037	-0,020
-120,424	25,027	0,096	0,056
-119,410	-52,771	0,025	-0,008
