DTS Sentinel unit serial number:	SN410029Multiplexer serial number:	ORYXHardware model number:	OX2-SRSoftware version number:	ORYX F/W v4,00 Oryx Data Collector v3.7.2.0data status	okinstallation	BH3 CH2differential loss correction	single-endedforward channel	channel 2reverse channel	N/Adate	2023/12/06time	05:42:28forward acquisition time	300,00reverse acquisition time	0,00gamma	499,1914k internal	0,3197k external	0,3197temperature offset calibration	1,0000default loss term (dB/km)	0,3820temperature slope calibration	1,0000multiplexer offset coefficient	1,0000multiplexer slope coefficient	1,0000fibre end	0,00T internal ref (°C)	8,92T ext. ref 1 (°C)	-5,67T ext. ref 2 (°C)	-5,79length (m)	temperature (°C)	Stokes	anti-Stokes-744,400	800,000	0,023	-0,070
-743,385	46,183	-0,114	0,077
-742,371	-200,000	0,002	-0,026
-741,356	-20,786	-0,234	0,104
-740,342	798,551	-0,050	-0,101
-739,327	42,553	-0,199	0,132
-738,312	-200,000	-0,004	-0,083
-737,298	67,885	-0,204	0,152
-736,283	220,995	0,129	-0,151
-735,269	-35,549	-0,244	0,096
-734,254	-200,000	-0,048	-0,159
-733,239	-55,749	-0,393	-0,127
-732,225	-133,829	0,114	-0,010
-731,210	18,524	0,075	0,043
-730,196	263,958	-0,084	-0,106
-729,181	-105,559	-0,143	-0,023
-728,167	538,980	0,052	-0,090
-727,152	102,937	0,046	-0,039
-726,137	-136,392	-0,023	0,002
-725,123	-115,548	-0,177	0,024
-724,108	-142,005	0,052	-0,004
-723,094	2,178	-0,197	-0,103
-722,079	25,680	0,115	-0,070
-721,064	477,891	-0,062	0,102
-720,050	-138,320	-0,165	-0,013
-719,035	-22,946	-0,009	-0,004
-718,021	168,216	0,113	-0,117
-717,006	-43,391	-0,212	-0,078
-715,991	-96,498	-0,065	-0,012
-714,977	415,470	0,104	-0,162
-713,962	-56,441	0,065	0,021
-712,948	-200,000	-0,003	-0,057
-711,933	800,000	-0,002	0,003
-710,918	422,914	-0,087	0,136
-709,904	728,209	-0,039	-0,076
-708,889	229,381	-0,070	0,083
-707,875	192,855	-0,050	-0,055
-706,860	186,736	0,118	-0,128
-705,845	295,359	-0,030	0,040
-704,831	-200,000	-0,004	0,108
-703,816	32,963	0,120	-0,076
-702,802	-88,325	-0,106	0,023
-701,787	800,000	-0,026	-0,056
-700,772	-178,168	-0,141	0,002
-699,758	-200,000	0,000	-0,104
-698,743	47,438	0,071	0,048
-697,729	277,914	-0,126	0,163
-696,714	356,416	0,088	0,127
-695,699	311,977	0,151	-0,206
-694,685	153,959	-0,156	-0,156
-693,670	242,805	-0,043	0,052
-692,656	-30,927	0,191	-0,078
-691,641	-37,907	-0,111	0,043
-690,627	-200,000	-0,018	-0,062
-689,612	0,625	-0,037	-0,019
-688,597	-112,505	0,041	0,006
-687,583	406,451	-0,011	0,017
-686,568	800,000	0,039	0,099
-685,554	203,254	0,027	-0,030
-684,539	800,000	-0,031	-0,089
-683,524	-74,751	0,040	0,010
-682,510	-200,000	-0,009	0,071
-681,495	-117,488	0,103	0,013
-680,481	-200,000	0,011	-0,064
-679,466	625,057	-0,032	-0,058
-678,451	-29,852	-0,134	-0,055
-677,437	-200,000	0,010	0,073
-676,422	97,966	-0,066	0,056
-675,408	800,000	-0,022	0,065
-674,393	554,231	0,050	0,087
-673,378	411,906	-0,011	-0,017
-672,364	59,779	-0,115	0,083
-671,349	-93,401	-0,052	-0,010
-670,335	-200,000	0,026	-0,127
-669,320	98,227	0,033	-0,027
-668,305	-200,000	-0,004	0,164
-667,291	152,505	-0,135	-0,134
-666,276	-200,000	0,003	-0,170
-665,262	-200,000	-0,021	-0,098
-664,247	30,761	-0,121	0,075
-663,232	755,529	0,067	-0,132
-662,218	-48,572	-0,068	-0,024
-661,203	-200,000	0,024	0,105
-660,189	95,972	-0,049	-0,041
-659,174	188,484	0,030	-0,033
-658,159	172,519	-0,054	0,056
-657,145	-12,543	-0,039	0,018
-656,130	-200,000	0,079	0,000
-655,116	681,400	0,036	0,067
-654,101	96,902	-0,061	0,051
-653,086	-45,008	-0,122	-0,044
-652,072	-153,733	-0,108	0,005
-651,057	-194,542	-0,196	-0,001
-650,043	-93,945	-0,016	-0,003
-649,028	530,852	0,031	-0,053
-648,014	-7,684	-0,044	0,022
-646,999	-200,000	-0,008	-0,028
-645,984	800,000	-0,050	0,147
-644,970	-181,245	-0,140	-0,002
-643,955	194,874	-0,061	-0,067
-642,941	-200,000	-0,015	-0,121
-641,926	-56,023	-0,114	-0,037
-640,911	-200,000	-0,006	-0,061
-639,897	482,494	-0,073	-0,120
-638,882	90,631	-0,025	-0,020
-637,868	-200,000	-0,005	0,040
-636,853	343,467	-0,113	-0,161
-635,838	800,000	0,059	-0,170
-634,824	800,000	-0,052	-0,135
-633,809	-18,483	-0,066	0,030
-632,795	262,437	0,094	0,119
-631,780	-200,000	-0,007	0,097
-630,765	288,206	-0,111	0,146
-629,751	-135,078	0,098	-0,008
-628,736	-200,000	0,010	-0,102
-627,722	800,000	-0,011	-0,027
-626,707	-110,185	0,043	-0,006
-625,692	165,322	0,130	0,133
-624,678	-109,509	0,122	0,018
-623,663	62,260	-0,032	-0,023
-622,649	2,070	-0,155	-0,081
-621,634	-47,722	-0,087	-0,030
-620,619	800,000	0,059	-0,125
-619,605	-200,000	-0,005	-0,066
-618,590	-200,000	0,009	0,082
-617,576	-200,000	0,008	0,071
-616,561	-11,955	-0,166	-0,079
-615,546	-138,617	-0,066	0,005
-614,532	800,000	-0,060	-0,143
-613,517	800,000	0,053	-0,123
-612,503	-39,579	0,045	0,017
-611,488	-194,067	-0,039	-0,000
-610,474	-128,211	-0,068	-0,007
-609,459	-200,000	0,025	0,112
-608,444	-200,000	0,008	-0,031
-607,430	232,618	-0,079	0,094
-606,415	800,000	-0,028	-0,080
-605,401	-3,800	0,049	0,024
-604,386	324,073	-0,068	0,094
-603,371	-3,457	0,214	0,108
-602,357	-51,928	-0,035	-0,012
-601,342	305,711	-0,012	-0,016
-600,328	-35,771	-0,092	-0,036
-599,313	679,068	-0,032	0,060
-598,298	21,676	-0,096	-0,056
-597,284	-128,446	-0,077	-0,008
-596,269	-200,000	-0,082	0,000
-595,255	-200,000	0,025	0,125
-594,240	194,053	-0,057	-0,063
-593,225	172,233	-0,056	-0,059
-592,211	-200,000	0,014	0,148
-591,196	-34,744	-0,069	-0,027
-590,182	27,664	0,093	0,056
-589,167	-79,550	0,020	-0,005
-588,152	289,546	-0,051	-0,067
-587,138	-200,000	0,015	0,054
-586,123	56,265	0,091	0,064
-585,109	749,450	0,029	-0,057
-584,094	-108,880	-0,126	0,019
-583,079	800,000	0,051	0,156
-582,065	-62,451	0,046	-0,014
-581,050	800,000	-0,043	0,095
-580,036	800,000	-0,068	0,208
-579,021	-121,731	0,033	0,004
-578,006	-200,000	0,000	-0,029
-576,992	140,875	-0,115	0,110
-575,977	278,734	0,022	0,028
-574,963	-80,761	0,148	0,035
-573,948	196,552	0,077	0,085
-572,934	-200,000	0,051	0,211
-571,919	800,000	-0,008	-0,024
-570,904	-12,804	-0,101	-0,047
-569,890	-200,000	-0,058	-0,187
-568,875	800,000	-0,031	0,067
-567,861	-65,058	-0,112	0,033
-566,846	-200,000	0,010	0,096
-565,831	-166,328	0,086	0,003
-564,817	51,750	-0,084	-0,057
-563,802	-200,000	0,002	0,009
-562,788	154,132	-0,030	-0,030
-561,773	45,412	-0,154	0,103
-560,758	-200,000	0,002	-0,045
-559,744	279,330	0,008	-0,010
-558,729	309,320	0,069	-0,094
-557,715	-164,324	-0,060	-0,002
-556,700	-40,722	-0,203	-0,076
-555,685	-200,000	0,007	0,080
-554,671	238,906	-0,052	0,062
-553,656	800,000	-0,039	0,078
-552,642	28,657	-0,089	-0,054
-551,627	249,603	0,036	0,045
-550,612	-114,726	-0,070	-0,010
-549,598	291,804	0,041	-0,054
-548,583	51,147	0,028	-0,019
-547,569	-11,794	-0,034	0,016
-546,554	106,441	0,116	-0,100
-545,539	-200,000	0,025	0,150
-544,525	560,181	0,078	0,136
-543,510	-114,081	-0,088	0,012
-542,496	-200,000	-0,043	-0,175
-541,481	421,752	0,060	-0,093
-540,466	-129,880	0,070	-0,007
-539,452	205,224	0,027	0,030
-538,437	-200,000	0,004	-0,035
-537,423	319,535	0,087	0,119
-536,408	7,959	-0,102	-0,055
-535,393	-44,401	-0,132	0,048
-534,379	586,031	0,019	0,034
-533,364	199,510	-0,067	-0,074
-532,350	112,416	0,100	0,087
-531,335	-11,271	-0,056	0,027
-530,321	-132,850	0,139	-0,013
-529,306	-163,449	-0,105	0,004
-528,291	188,157	-0,047	-0,051
-527,277	260,100	-0,140	-0,174
-526,262	88,342	0,093	0,074
-525,248	-12,436	0,020	0,009
-524,233	-200,000	0,031	-0,109
-523,218	142,640	-0,056	0,054
-522,204	-97,559	-0,093	-0,017
-521,189	-82,051	-0,113	-0,026
-520,175	200,571	-0,061	-0,068
-519,160	-200,000	0,021	-0,095
-518,145	71,875	-0,066	-0,049
-517,131	-200,000	-0,029	0,127
-516,116	-200,000	-0,013	-0,053
-515,102	800,000	0,029	-0,074
-514,087	-67,818	-0,111	-0,031
-513,072	-200,000	0,001	-0,094
-512,058	-7,294	-0,094	-0,046
-511,043	-200,000	0,007	0,063
-510,029	-200,000	-0,011	0,055
-509,014	-176,113	-0,057	0,001
-507,999	-26,782	0,142	0,059
-506,985	800,000	-0,020	-0,045
-505,970	-10,371	0,105	-0,050
-504,956	800,000	0,015	0,039
-503,941	41,634	-0,084	0,055
-502,926	-67,662	0,142	-0,040
-501,912	-200,000	-0,001	0,049
-500,897	589,867	-0,028	0,051
-499,883	800,000	0,071	0,153
-498,868	-200,000	-0,024	-0,108
-497,853	-2,068	0,069	-0,035
-496,839	800,000	-0,052	-0,112
-495,824	33,115	0,112	-0,070
-494,810	83,728	0,033	-0,026
-493,795	-84,377	-0,087	0,020
-492,781	-147,112	0,037	0,002
-491,766	-200,000	-0,048	-0,240
-490,751	110,505	-0,057	-0,050
-489,737	-64,525	0,105	-0,030
-488,722	-99,921	0,162	0,029
-487,708	800,000	0,012	0,032
-486,693	87,233	0,037	0,029
-485,678	-133,891	-0,103	-0,009
-484,664	256,233	-0,083	-0,103
-483,649	-200,000	-0,006	-0,228
-482,635	-200,000	-0,006	-0,094
-481,620	800,000	0,050	-0,103
-480,605	-200,000	0,039	-0,184
-479,591	-130,166	0,074	-0,007
-478,576	-75,922	-0,029	0,007
-477,562	93,094	-0,088	-0,072
-476,547	12,675	-0,100	0,056
-475,532	-145,706	0,048	0,003
-474,518	800,000	0,054	0,118
-473,503	-96,821	0,196	0,037
-472,489	493,193	0,029	-0,048
-471,474	-106,573	0,163	-0,026
-470,459	800,000	0,014	-0,043
-469,445	-33,886	-0,066	0,026
-468,430	129,508	0,118	-0,109
-467,416	-200,000	0,015	0,123
-466,401	-160,003	0,050	0,002
-465,386	-200,000	-0,022	-0,111
-464,372	-54,738	-0,068	-0,022
-463,357	131,041	-0,138	-0,128
-462,343	220,636	0,021	0,024
-461,328	-4,719	0,123	0,061
-460,313	460,836	0,042	-0,067
-459,299	-81,380	0,061	0,014
-458,284	800,000	-0,027	0,064
-457,270	-42,755	0,031	0,011
-456,255	-75,465	-0,106	-0,027
-455,241	-60,390	0,077	0,023
-454,226	-119,275	0,081	0,010
-453,211	-200,000	-0,023	-0,091
-452,197	-53,670	0,110	-0,036
-451,182	-90,558	0,112	0,023
-450,168	-109,531	0,088	0,013
-449,153	48,108	0,100	-0,067
-448,138	-141,441	-0,064	0,005
-447,124	-29,676	-0,144	-0,059
-446,109	-91,754	0,073	0,015
-445,095	146,282	0,090	-0,087
-444,080	347,749	0,027	0,038
-443,065	-56,694	-0,011	-0,003
-442,051	-200,000	0,024	0,081
-441,036	20,330	-0,058	-0,034
-440,022	68,097	0,086	0,063
-439,007	175,907	-0,121	-0,127
-437,992	-200,000	-0,013	-0,041
-436,978	567,530	-0,059	0,103
-435,963	115,578	0,074	-0,065
-434,949	-139,849	0,098	-0,007
-433,934	-63,061	-0,056	0,017
-432,919	-75,891	0,091	-0,023
-431,905	515,526	0,053	-0,089
-430,890	-200,000	0,008	-0,061
-429,876	-128,758	0,150	-0,015
-428,861	800,000	-0,054	0,137
-427,846	-21,936	-0,155	-0,068
-426,832	-100,913	-0,119	0,021
-425,817	90,573	-0,039	-0,031
-424,803	800,000	0,070	-0,173
-423,788	6,480	-0,030	-0,016
-422,773	371,692	0,077	0,113
-421,759	-84,001	0,095	0,021
-420,744	800,000	-0,020	0,047
-419,730	720,450	-0,080	-0,154
-418,715	-153,954	0,058	0,003
-417,701	-200,000	0,005	-0,050
-416,686	-200,000	0,015	0,093
-415,671	-200,000	0,023	0,148
-414,657	-10,374	0,077	0,037
-413,642	327,841	0,055	0,076
-412,628	-200,000	-0,040	0,139
-411,613	800,000	-0,023	-0,069
-410,598	179,020	-0,030	0,032
-409,584	117,059	0,159	-0,140
-408,569	-200,000	0,012	0,076
-407,555	55,771	-0,053	-0,037
-406,540	-0,151	0,030	-0,015
-405,525	488,480	0,035	-0,057
-404,511	-200,000	-0,053	-0,000
-403,496	-200,000	0,018	-0,065
-402,482	225,367	0,048	0,056
-401,467	72,178	0,048	0,036
-400,452	-139,225	0,036	-0,003
-399,438	181,496	-0,085	0,090
-398,423	212,163	-0,033	-0,037
-397,409	-186,593	-0,020	0,000
-396,394	-49,313	-0,061	-0,021
-395,379	364,067	0,029	-0,043
-394,365	235,044	0,061	0,073
-393,350	68,934	0,068	0,050
-392,336	-39,255	-0,091	0,034
-391,321	-196,697	0,137	0,001
-390,306	318,921	-0,059	-0,081
-389,292	607,300	-0,033	-0,059
-388,277	-200,000	-0,002	-0,069
-387,263	-110,313	0,056	-0,008
-386,248	41,399	0,039	0,025
-385,233	12,569	0,107	0,059
-384,219	62,706	0,129	0,092
-383,204	-200,000	-0,031	-0,170
-382,190	-200,000	-0,018	0,136
-381,175	-200,000	0,001	-0,042
-380,160	800,000	0,037	0,076
-379,146	-107,146	0,059	0,009
-378,131	-14,834	-0,057	-0,026
-377,117	-117,515	-0,113	0,014
-376,102	173,893	-0,052	-0,053
-375,088	-112,165	0,147	-0,021
-374,073	-200,000	0,013	-0,093
-373,058	481,148	-0,026	0,043
-372,044	237,090	0,057	-0,068
-371,029	800,000	0,022	0,052
-370,015	216,641	0,061	-0,070
-369,000	100,996	0,046	-0,038
-367,985	82,338	-0,177	-0,137
-366,971	800,000	0,039	0,104
-365,956	-200,000	0,026	0,149
-364,942	500,968	0,029	0,047
-363,927	-200,000	-0,003	0,032
-362,912	-127,637	0,174	0,018
-361,898	-200,000	0,000	-0,037
-360,883	-200,000	0,024	-0,095
-359,869	-22,721	-0,057	0,025
-358,854	-99,881	0,083	0,015
-357,839	-200,000	-0,027	-0,091
-356,825	312,022	-0,069	0,093
-355,810	-94,037	0,102	-0,020
-354,796	-200,000	0,007	-0,029
-353,781	-40,852	0,107	-0,039
-352,766	29,536	-0,062	0,037
-351,752	-200,000	0,009	-0,064
-350,737	-132,503	0,141	-0,013
-349,723	-200,000	-0,003	0,046
-348,708	-61,588	-0,082	0,025
-347,693	-82,978	0,096	0,022
-346,679	268,869	-0,125	-0,158
-345,664	7,922	-0,047	-0,025
-344,650	52,988	0,085	-0,058
-343,635	-200,000	-0,021	0,240
-342,620	800,000	-0,075	0,208
-341,606	127,120	0,039	0,036
-340,591	-200,000	-0,003	-0,036
-339,577	-200,000	-0,006	0,142
-338,562	800,000	-0,037	-0,107
-337,548	72,121	0,051	0,038
-336,533	-16,640	0,082	-0,037
-335,518	-200,000	-0,013	-0,046
-334,504	-200,000	0,034	0,135
-333,489	-1,239	0,024	0,012
-332,475	25,525	0,010	-0,006
-331,460	69,553	0,103	0,076
-330,445	139,781	-0,093	0,088
-329,431	290,520	0,011	0,014
-328,416	315,886	0,006	0,008
-327,402	54,790	0,079	0,055
-326,387	-47,788	0,111	0,038
-325,372	-51,233	-0,183	-0,061
-324,358	375,647	-0,083	-0,122
-323,343	-194,887	-0,079	0,000
-322,329	78,732	-0,064	-0,049
-321,314	-200,000	0,005	0,072
-320,299	-161,166	0,106	-0,004
-319,285	202,323	0,035	0,038
-318,270	177,114	-0,194	-0,203
-317,256	-200,000	-0,027	-0,131
-316,241	-200,000	0,010	0,033
-315,226	-200,000	0,007	0,110
-314,212	158,894	0,029	0,028
-313,197	9,543	0,054	-0,029
-312,183	17,239	0,144	0,082
-311,168	-171,924	0,184	0,004
-310,153	190,457	-0,028	-0,030
-309,139	126,716	0,096	-0,087
-308,124	-56,315	-0,037	-0,012
-307,110	-200,000	0,001	0,031
-306,095	-109,821	-0,116	-0,017
-305,080	190,235	-0,007	-0,007
-304,066	-200,000	-0,024	-0,097
-303,051	382,839	-0,061	-0,089
-302,037	242,288	0,058	0,070
-301,022	800,000	0,024	-0,048
-300,008	-200,000	0,016	0,137
-298,993	-29,064	-0,037	0,015
-297,978	65,209	0,022	0,016
-296,964	13,269	0,045	0,025
-295,949	-200,000	-0,007	-0,053
-294,935	-144,784	0,062	0,004
-293,920	-200,000	0,028	-0,135
-292,905	659,869	-0,037	0,069
-291,891	49,621	0,069	0,046
-290,876	246,365	0,051	-0,062
-289,862	313,732	-0,051	-0,069
-288,847	47,978	-0,046	-0,031
-287,832	-200,000	-0,029	0,095
-286,818	-83,055	-0,043	-0,010
-285,803	-200,000	-0,005	0,071
-284,789	192,299	0,105	0,113
-283,774	77,420	0,067	-0,051
-282,759	-200,000	-0,038	-0,195
-281,745	356,907	-0,057	-0,081
-280,730	-64,836	-0,133	-0,038
-279,716	-19,378	-0,109	0,048
-278,701	-187,609	0,142	-0,001
-277,686	-94,709	0,098	-0,019
-276,672	-160,668	-0,078	0,003
-275,657	-200,000	0,009	0,177
-274,643	222,673	-0,055	0,064
-273,628	-147,690	-0,066	-0,004
-272,613	-31,815	-0,056	0,022
-271,599	-200,000	-0,019	-0,081
-270,584	94,674	0,083	0,067
-269,570	792,153	-0,057	0,113
-268,555	-200,000	0,015	0,072
-267,540	-26,827	-0,015	-0,006
-266,526	-184,997	-0,080	-0,001
-265,511	427,509	-0,065	-0,101
-264,497	199,190	0,047	0,052
-263,482	83,194	-0,050	-0,039
-262,467	-62,281	0,163	-0,048
-261,453	-11,034	-0,079	0,037
-260,438	619,461	-0,061	-0,110
-259,424	800,000	-0,019	0,045
-258,409	151,984	-0,100	-0,097
-257,395	-178,764	0,155	0,002
-256,380	800,000	-0,035	0,073
-255,365	-200,000	-0,000	0,119
-254,351	48,774	0,094	0,063
-253,336	-200,000	-0,000	0,039
-252,322	-200,000	0,050	-0,183
-251,307	183,088	0,048	-0,051
-250,292	4,652	0,105	-0,055
-249,278	800,000	0,044	0,094
-248,263	-200,000	-0,011	-0,094
-247,249	522,615	-0,033	0,055
-246,234	-51,127	-0,150	-0,050
-245,219	-153,274	-0,101	0,005
-244,205	-122,212	-0,147	0,017
-243,190	88,051	-0,063	0,050
-242,176	125,270	-0,076	-0,069
-241,161	54,361	0,091	0,063
-240,146	27,984	-0,142	0,086
-239,132	-200,000	-0,002	0,102
-238,117	12,466	-0,080	-0,044
-237,103	-44,492	-0,126	-0,045
-236,088	-124,101	-0,082	0,009
-235,073	140,434	0,143	0,135
-234,059	78,326	-0,107	0,082
-233,044	-80,575	0,127	-0,030
-232,030	-118,849	-0,081	0,010
-231,015	-198,401	0,113	-0,000
-230,000	87,974	0,047	-0,037
-228,986	306,816	0,026	-0,034
-227,971	584,876	0,054	-0,094
-226,957	-200,000	0,022	0,235
-225,942	68,993	-0,022	-0,016
-224,927	800,000	-0,006	0,014
-223,913	800,000	0,022	0,057
-222,898	91,840	-0,087	0,070
-221,884	188,255	-0,076	-0,082
-220,869	103,375	0,138	0,116
-219,855	-200,000	0,018	0,067
-218,840	254,002	0,072	0,089
-217,825	-63,809	-0,022	-0,006
-216,811	125,910	0,054	0,049
-215,796	158,371	-0,035	-0,035
-214,782	-118,625	0,058	0,007
-213,767	-200,000	-0,034	0,143
-212,752	71,779	0,065	-0,048
-211,738	146,227	0,023	0,022
-210,723	200,180	0,091	0,100
-209,709	-200,000	-0,012	-0,104
-208,694	55,233	-0,220	-0,152
-207,679	-101,265	0,157	-0,027
-206,665	417,547	-0,009	0,014
-205,650	-73,897	0,099	0,025
-204,636	7,732	0,152	-0,081
-203,621	-52,465	-0,049	0,016
-202,606	5,865	-0,078	0,041
-201,592	141,148	0,034	-0,032
-200,577	167,279	0,064	0,065
-199,563	-200,000	0,017	0,109
-198,548	234,533	-0,066	-0,078
-197,533	307,311	-0,101	-0,135
-196,519	-200,000	0,005	-0,064
-195,504	-20,321	0,068	0,030
-194,490	763,989	-0,066	-0,128
-193,475	100,490	-0,192	-0,159
-192,460	-200,000	0,002	-0,123
-191,446	-69,337	-0,111	0,030
-190,431	-200,000	0,000	-0,007
-189,417	114,925	-0,117	0,101
-188,402	-137,095	0,089	0,007
-187,387	-200,000	-0,003	-0,088
-186,373	161,020	0,033	0,033
-185,358	-60,004	-0,056	0,017
-184,344	800,000	0,051	0,118
-183,329	800,000	0,049	-0,128
-182,315	-89,918	-0,084	0,017
-181,300	22,730	0,111	0,065
-180,285	-120,573	-0,174	0,021
-179,271	57,783	0,035	0,024
-178,256	-102,062	0,158	0,027
-177,242	-200,000	-0,011	0,061
-176,227	789,218	0,013	0,026
-175,212	-200,000	-0,005	-0,050
-174,198	-98,673	0,149	0,027
-173,183	214,799	-0,103	0,117
-172,169	9,865	0,105	-0,056
-171,154	-34,034	0,083	-0,032
-170,139	121,037	-0,009	0,008
-169,125	326,989	0,046	-0,064
-168,110	-152,939	-0,100	0,005
-167,096	-200,000	0,043	0,147
-166,081	-61,163	-0,066	0,020
-165,066	217,767	0,025	-0,029
-164,052	-60,271	-0,213	0,064
-163,037	111,540	0,043	-0,037
-162,023	-36,222	0,087	-0,033
-161,008	-200,000	-0,008	0,071
-159,993	731,938	-0,102	0,196
-158,979	428,505	-0,061	0,094
-157,964	20,577	0,070	0,040
-156,950	-200,000	-0,015	-0,063
-155,935	-200,000	0,049	0,179
-154,920	664,139	0,072	0,133
-153,906	141,010	0,037	0,035
-152,891	800,000	0,014	0,037
-151,877	-132,498	-0,174	-0,016
-150,862	800,000	0,031	-0,082
-149,847	-85,498	0,070	-0,015
-148,833	-200,000	0,002	0,048
-147,818	-59,901	0,154	0,046
-146,804	-200,000	-0,005	0,084
-145,789	-200,000	0,009	-0,116
-144,775	93,398	-0,055	-0,045
-143,760	-78,593	0,021	0,005
-142,745	-48,272	-0,148	-0,051
-141,731	73,206	0,169	0,126
-140,716	216,639	0,104	0,118
-139,702	557,653	0,066	0,113
-138,687	23,767	0,091	0,053
-137,672	800,000	0,034	-0,073
-136,658	-58,628	-0,165	0,051
-135,643	-87,844	0,069	0,015
-134,629	48,981	0,096	-0,064
-133,614	-200,000	0,010	-0,051
-132,599	-91,096	0,139	0,028
-131,585	55,607	0,039	0,027
-130,570	504,773	-0,024	-0,040
-129,556	207,028	0,075	-0,083
-128,541	20,193	-0,128	-0,073
-127,526	47,465	0,059	0,039
-126,512	450,906	-0,040	0,063
-125,497	800,000	0,073	0,166
-124,483	-186,997	0,123	0,001
-123,468	-13,939	-0,127	0,058
-122,453	800,000	-0,056	-0,120
-121,439	65,554	-0,106	-0,076
-120,424	68,399	0,024	0,017
-119,410	-200,000	-0,014	0,091
