DTS Sentinel unit serial number:	SN410029Multiplexer serial number:	ORYXHardware model number:	OX2-SRSoftware version number:	ORYX F/W v4,00 Oryx Data Collector v3.7.2.0data status	okinstallation	BH3 CH2differential loss correction	single-endedforward channel	channel 2reverse channel	N/Adate	2023/12/05time	13:37:28forward acquisition time	300,00reverse acquisition time	0,00gamma	499,1914k internal	0,3195k external	0,3195temperature offset calibration	1,0000default loss term (dB/km)	0,3820temperature slope calibration	1,0000multiplexer offset coefficient	1,0000multiplexer slope coefficient	1,0000fibre end	0,00T internal ref (°C)	10,49T ext. ref 1 (°C)	-3,32T ext. ref 2 (°C)	-3,37length (m)	temperature (°C)	Stokes	anti-Stokes-744,400	-200,000	-0,054	-0,244
-743,385	-200,000	-0,011	0,125
-742,371	118,964	-0,144	-0,130
-741,356	-92,281	-0,176	0,036
-740,342	-200,000	0,006	0,152
-739,327	47,311	-0,060	0,041
-738,312	410,095	-0,104	-0,161
-737,298	-34,391	-0,172	0,069
-736,283	-200,000	-0,046	-0,168
-735,269	64,215	-0,237	0,173
-734,254	-96,558	-0,081	-0,015
-733,239	-99,807	-0,280	-0,051
-732,225	103,687	-0,030	-0,026
-731,210	597,490	0,016	0,028
-730,196	338,970	0,022	0,031
-729,181	122,175	-0,065	-0,060
-728,167	800,000	-0,051	0,149
-727,152	116,019	-0,131	-0,117
-726,137	101,711	-0,043	-0,037
-725,123	38,097	-0,074	-0,048
-724,108	-94,661	0,080	-0,016
-723,094	-200,000	0,010	-0,075
-722,079	139,371	-0,072	-0,069
-721,064	229,549	-0,114	0,136
-720,050	-173,988	0,139	-0,003
-719,035	-200,000	-0,001	0,006
-718,021	-200,000	0,007	0,083
-717,006	779,495	-0,032	0,064
-715,991	-59,208	-0,217	-0,068
-714,977	-98,633	-0,143	-0,026
-713,962	-54,380	-0,088	-0,029
-712,948	-54,129	0,053	-0,017
-711,933	-57,171	-0,112	0,036
-710,918	800,000	-0,057	-0,116
-709,904	360,759	-0,062	0,091
-708,889	83,409	-0,086	-0,068
-707,875	29,460	-0,206	-0,127
-706,860	204,654	0,078	-0,088
-705,845	-89,767	-0,079	-0,017
-704,831	800,000	-0,046	0,121
-703,816	6,297	-0,087	0,047
-702,802	800,000	0,045	-0,128
-701,787	375,219	-0,065	-0,097
-700,772	31,559	-0,011	-0,007
-699,758	-200,000	-0,017	0,074
-698,743	-200,000	-0,019	0,178
-697,729	-70,748	-0,062	-0,017
-696,714	201,219	0,072	0,081
-695,699	210,763	-0,112	0,128
-694,685	153,521	0,039	0,039
-693,670	-200,000	-0,046	-0,217
-692,656	73,626	-0,079	0,060
-691,641	-200,000	0,016	-0,072
-690,627	199,363	-0,089	0,100
-689,612	44,456	0,035	0,023
-688,597	800,000	-0,042	-0,092
-687,583	-200,000	0,015	-0,217
-686,568	800,000	-0,025	-0,058
-685,554	-200,000	-0,004	-0,051
-684,539	738,368	-0,051	-0,100
-683,524	214,552	-0,027	0,031
-682,510	-200,000	-0,049	0,167
-681,495	-77,748	-0,135	0,034
-680,481	800,000	-0,028	-0,067
-679,466	-47,058	-0,041	0,014
-678,451	28,997	-0,217	-0,133
-677,437	-79,457	0,040	0,010
-676,422	800,000	-0,043	0,091
-675,408	-200,000	0,011	0,059
-674,393	-136,772	0,045	0,004
-673,378	-23,601	-0,075	0,033
-672,364	39,196	0,031	-0,020
-671,349	-152,091	-0,202	0,010
-670,335	-112,231	-0,077	-0,011
-669,320	-64,158	-0,152	-0,045
-668,305	-200,000	0,014	0,195
-667,291	-31,708	-0,108	0,044
-666,276	-115,918	-0,165	-0,022
-665,262	-134,163	-0,123	-0,011
-664,247	800,000	-0,032	-0,079
-663,232	-200,000	0,020	-0,079
-662,218	137,123	0,093	0,089
-661,203	195,464	-0,018	-0,020
-660,189	-76,563	0,013	0,003
-659,174	-200,000	-0,036	-0,154
-658,159	97,532	-0,087	-0,073
-657,145	72,177	-0,081	0,061
-656,130	-75,667	0,036	-0,009
-655,116	-110,530	-0,017	0,002
-654,101	-200,000	-0,020	-0,069
-653,086	107,323	-0,095	0,082
-652,072	800,000	-0,036	-0,105
-651,057	-200,000	-0,024	-0,099
-650,043	97,977	0,066	0,055
-649,028	27,822	-0,049	-0,030
-648,014	-200,000	-0,008	0,056
-646,999	-200,000	0,008	0,087
-645,984	-200,000	0,013	0,099
-644,970	800,000	0,050	-0,126
-643,955	292,635	-0,080	-0,105
-642,941	-138,865	-0,079	-0,006
-641,926	-198,004	0,118	0,000
-640,911	655,857	-0,068	-0,128
-639,897	-200,000	0,006	0,039
-638,882	26,365	0,070	0,042
-637,868	-127,733	-0,128	-0,013
-636,853	-91,228	-0,075	-0,015
-635,838	140,067	-0,053	-0,050
-634,824	2,939	0,156	-0,082
-633,809	-145,527	0,068	-0,004
-632,795	-200,000	0,009	-0,035
-631,780	29,368	0,085	0,052
-630,765	266,605	-0,051	-0,065
-629,751	-200,000	-0,008	-0,061
-628,736	-200,000	0,026	-0,119
-627,722	-200,000	0,028	-0,109
-626,707	-117,094	0,124	-0,016
-625,692	28,669	-0,014	0,008
-624,678	65,362	-0,064	0,047
-623,663	-200,000	0,015	-0,053
-622,649	204,106	0,045	0,051
-621,634	-21,554	0,023	-0,010
-620,619	447,304	-0,039	-0,063
-619,605	-200,000	0,029	0,099
-618,590	145,085	0,036	-0,035
-617,576	-77,812	-0,135	0,034
-616,561	91,437	-0,050	-0,041
-615,546	47,904	-0,046	0,031
-614,532	-76,931	-0,115	-0,029
-613,517	189,746	0,101	0,110
-612,503	370,106	0,085	-0,125
-611,488	135,185	0,096	0,091
-610,474	800,000	0,089	0,207
-609,459	800,000	0,008	-0,019
-608,444	-200,000	0,000	0,061
-607,430	515,516	0,027	-0,046
-606,415	356,673	0,051	-0,073
-605,401	40,567	-0,075	-0,049
-604,386	-42,128	0,056	-0,021
-603,371	800,000	0,015	-0,045
-602,357	-66,108	0,066	-0,019
-601,342	-118,118	-0,063	-0,008
-600,328	-200,000	0,002	0,006
-599,313	84,798	-0,047	-0,037
-598,298	-97,349	0,027	-0,005
-597,284	-117,508	0,172	-0,022
-596,269	289,175	-0,066	-0,087
-595,255	800,000	0,030	-0,075
-594,240	483,603	-0,045	-0,075
-593,225	739,383	-0,088	-0,173
-592,211	-200,000	0,012	-0,045
-591,196	-200,000	0,010	-0,123
-590,182	-133,860	0,108	0,010
-589,167	-200,000	-0,005	0,076
-588,152	-200,000	-0,006	-0,039
-587,138	800,000	-0,026	0,069
-586,123	-200,000	-0,002	0,023
-585,109	321,789	-0,016	-0,022
-584,094	-115,248	-0,049	-0,007
-583,079	-17,801	-0,092	0,042
-582,065	-10,870	-0,063	0,030
-581,050	800,000	-0,052	0,142
-580,036	800,000	-0,066	0,142
-579,021	243,831	-0,075	-0,092
-578,006	-200,000	-0,009	-0,066
-576,992	-127,296	-0,030	-0,003
-575,977	227,824	-0,018	0,021
-574,963	28,837	-0,071	-0,044
-573,948	59,449	-0,023	-0,017
-572,934	800,000	0,024	-0,054
-571,919	-200,000	-0,075	0,000
-570,904	-52,470	-0,036	0,012
-569,890	266,947	0,045	0,057
-568,875	-46,593	-0,073	0,026
-567,861	230,310	0,040	0,048
-566,846	38,101	0,024	-0,016
-565,831	800,000	-0,044	0,107
-564,817	-86,682	-0,187	-0,041
-563,802	-200,000	-0,009	0,110
-562,788	-124,418	-0,037	0,004
-561,773	-200,000	0,007	0,051
-560,758	326,163	0,101	-0,140
-559,744	-11,133	-0,050	0,024
-558,729	174,007	0,039	-0,041
-557,715	800,000	-0,068	-0,173
-556,700	-157,810	-0,183	-0,008
-555,685	-200,000	0,009	0,060
-554,671	-49,009	-0,154	0,053
-553,656	-62,427	0,071	0,021
-552,642	283,487	0,050	-0,065
-551,627	800,000	-0,087	0,189
-550,612	-10,311	0,098	-0,047
-549,598	-200,000	0,015	-0,110
-548,583	22,626	0,141	-0,083
-547,569	-200,000	0,005	-0,112
-546,554	-3,747	0,143	0,072
-545,539	518,799	0,023	0,039
-544,525	35,656	0,111	0,070
-543,510	106,966	-0,098	0,084
-542,496	-108,437	-0,115	0,018
-541,481	-127,567	-0,062	0,006
-540,466	-200,000	-0,022	-0,112
-539,452	-200,000	0,012	0,101
-538,437	-38,470	-0,135	0,051
-537,423	-57,271	0,173	0,055
-536,408	-151,856	-0,128	0,007
-535,393	-105,402	0,108	-0,018
-534,379	18,707	-0,020	0,011
-533,364	260,541	-0,055	-0,069
-532,350	401,140	-0,072	0,110
-531,335	5,234	0,104	0,055
-530,321	-200,000	0,007	-0,050
-529,306	289,181	-0,064	-0,084
-528,291	800,000	-0,090	-0,231
-527,277	-41,419	-0,052	0,019
-526,262	-6,947	-0,124	0,061
-525,248	-200,000	-0,028	0,163
-524,233	505,640	0,071	0,119
-523,218	33,912	0,009	-0,006
-522,204	234,584	-0,072	-0,085
-521,189	-200,000	0,005	-0,062
-520,175	100,956	-0,025	0,021
-519,160	-22,068	-0,123	-0,054
-518,145	-200,000	-0,022	-0,120
-517,131	-121,595	-0,086	0,010
-516,116	23,683	0,032	-0,019
-515,102	78,766	0,072	0,056
-514,087	-11,350	-0,083	-0,039
-513,072	87,357	0,092	0,074
-512,058	-200,000	-0,010	-0,075
-511,043	648,632	-0,033	-0,062
-510,029	800,000	-0,040	0,086
-509,014	-155,600	-0,100	0,005
-507,999	-200,000	0,028	0,180
-506,985	87,966	-0,076	0,061
-505,970	111,390	-0,026	-0,023
-504,956	139,706	0,017	-0,016
-503,941	310,465	-0,006	0,008
-502,926	-200,000	-0,020	-0,066
-501,912	-200,000	0,015	0,063
-500,897	-53,300	0,137	0,045
-499,883	-200,000	-0,023	0,086
-498,868	-124,320	-0,127	-0,014
-497,853	800,000	-0,049	-0,132
-496,839	18,721	0,110	-0,063
-495,824	-200,000	0,016	0,086
-494,810	136,758	0,077	-0,072
-493,795	6,257	0,183	-0,097
-492,781	-115,294	-0,068	-0,009
-491,766	-10,185	0,035	-0,017
-490,751	800,000	-0,037	-0,115
-489,737	34,740	0,147	-0,092
-488,722	42,324	0,142	-0,093
-487,708	198,811	0,073	0,081
-486,693	800,000	-0,031	0,080
-485,678	800,000	0,046	-0,108
-484,664	800,000	-0,070	-0,140
-483,649	-8,753	0,110	0,053
-482,635	50,075	-0,146	-0,099
-481,620	-80,734	0,082	-0,020
-480,605	-31,342	0,166	0,067
-479,591	-200,000	0,029	0,098
-478,576	-97,434	-0,045	0,008
-477,562	-97,229	-0,110	-0,021
-476,547	-200,000	-0,028	0,214
-475,532	579,666	0,057	-0,100
-474,518	250,036	-0,033	-0,041
-473,503	-117,315	-0,029	0,004
-472,489	-200,000	0,015	0,251
-471,474	-31,085	0,066	-0,027
-470,459	-109,441	0,029	0,004
-469,445	-169,459	0,048	0,001
-468,430	75,979	0,033	0,025
-467,416	-200,000	0,014	0,073
-466,401	68,667	0,134	0,099
-465,386	-200,000	-0,003	-0,015
-464,372	-200,000	0,031	0,149
-463,357	277,863	-0,067	0,087
-462,343	-103,588	-0,079	-0,013
-461,328	474,225	-0,029	0,048
-460,313	-200,000	-0,036	0,137
-459,299	-118,320	0,124	-0,016
-458,284	-21,975	0,149	0,065
-457,270	-200,000	0,037	0,153
-456,255	90,075	-0,066	-0,053
-455,241	800,000	-0,037	-0,083
-454,226	-200,000	-0,003	-0,127
-453,211	318,157	0,012	0,017
-452,197	81,845	0,215	0,168
-451,182	-12,928	0,088	-0,041
-450,168	308,384	0,044	-0,059
-449,153	-200,000	-0,002	-0,101
-448,138	-200,000	0,003	0,037
-447,124	-101,435	0,146	0,025
-446,109	3,566	-0,145	-0,076
-445,095	354,083	0,038	0,055
-444,080	746,146	-0,020	0,039
-443,065	-100,697	0,019	0,003
-442,051	-121,880	-0,168	-0,020
-441,036	-159,413	-0,108	-0,004
-440,022	82,038	0,014	-0,011
-439,007	-92,098	-0,096	-0,019
-437,992	-92,352	0,058	-0,012
-436,978	2,775	-0,093	-0,048
-435,963	227,973	-0,055	0,065
-434,949	82,787	-0,050	-0,039
-433,934	-200,000	0,001	-0,103
-432,919	-111,948	-0,112	-0,016
-431,905	-103,661	-0,147	-0,024
-430,890	67,234	-0,011	-0,008
-429,876	5,655	0,117	0,062
-428,861	-200,000	0,007	0,159
-427,846	-200,000	0,045	-0,149
-426,832	-181,164	-0,057	-0,001
-425,817	-132,842	-0,136	-0,012
-424,803	-27,859	0,119	-0,049
-423,788	70,680	0,046	0,034
-422,773	182,899	-0,065	-0,069
-421,759	-45,455	0,124	-0,044
-420,744	-162,057	0,153	-0,005
-419,730	638,345	0,048	-0,088
-418,715	-200,000	-0,003	0,065
-417,701	242,270	-0,027	0,033
-416,686	-11,720	0,073	-0,034
-415,671	-200,000	0,014	-0,160
-414,657	-200,000	0,017	0,105
-413,642	304,089	0,092	0,123
-412,628	36,559	-0,097	0,061
-411,613	800,000	-0,026	-0,055
-410,598	-31,519	0,088	-0,036
-409,584	-35,310	-0,130	-0,051
-408,569	-139,609	0,058	0,004
-407,555	-111,369	0,111	0,016
-406,540	800,000	0,016	0,033
-405,525	477,502	0,044	-0,072
-404,511	-200,000	-0,011	-0,037
-403,496	800,000	0,006	-0,016
-402,482	800,000	-0,042	-0,091
-401,467	105,740	0,057	-0,048
-400,452	-75,349	-0,060	0,015
-399,438	-150,708	-0,152	-0,008
-398,423	800,000	0,058	-0,136
-397,409	-56,159	-0,106	0,034
-396,394	-200,000	-0,007	-0,081
-395,379	-139,555	0,097	0,007
-394,365	119,039	-0,069	0,061
-393,350	-115,303	-0,091	0,012
-392,336	-129,165	0,106	-0,011
-391,321	-200,000	-0,111	0,000
-390,306	189,766	0,016	0,017
-389,292	800,000	-0,051	-0,154
-388,277	214,322	-0,074	0,084
-387,263	-66,737	0,095	0,027
-386,248	272,744	0,107	0,135
-385,233	94,816	-0,074	0,060
-384,219	573,965	-0,058	-0,102
-383,204	-103,167	0,108	-0,018
-382,190	-121,178	-0,193	-0,023
-381,175	374,393	0,020	-0,030
-380,160	336,089	-0,039	0,055
-379,146	-68,620	0,015	0,004
-378,131	-119,487	0,126	-0,015
-377,117	-81,530	-0,072	-0,017
-376,102	800,000	0,056	-0,148
-375,088	-200,000	-0,016	0,062
-374,073	-200,000	-0,016	-0,057
-373,058	284,262	-0,058	-0,075
-372,044	215,607	-0,031	0,035
-371,029	208,237	-0,049	-0,055
-370,015	43,317	0,142	0,093
-369,000	68,702	-0,153	-0,113
-367,985	-200,000	0,006	0,071
-366,971	-69,482	-0,026	-0,007
-365,956	-29,745	0,063	-0,026
-364,942	-200,000	-0,009	0,165
-363,927	-3,103	0,104	0,052
-362,912	800,000	0,103	0,235
-361,898	-58,607	-0,072	-0,022
-360,883	127,026	-0,030	-0,027
-359,869	800,000	0,039	-0,078
-358,854	800,000	0,027	0,056
-357,839	-200,000	0,032	0,119
-356,825	471,193	-0,029	0,047
-355,810	-29,920	0,097	0,039
-354,796	95,745	-0,065	-0,053
-353,781	800,000	-0,055	-0,112
-352,766	800,000	-0,039	-0,098
-351,752	189,212	-0,043	0,046
-350,737	145,080	0,031	0,030
-349,723	-44,652	0,157	0,056
-348,708	800,000	0,006	0,016
-347,693	-200,000	-0,034	0,122
-346,679	-200,000	0,013	-0,060
-345,664	800,000	0,021	-0,051
-344,650	-107,326	0,026	-0,004
-343,635	-200,000	-0,013	0,134
-342,620	47,097	-0,039	0,026
-341,606	-200,000	-0,001	-0,025
-340,591	-121,726	-0,056	-0,007
-339,577	800,000	-0,080	-0,214
-338,562	-200,000	0,033	-0,121
-337,548	800,000	0,040	-0,123
-336,533	-100,088	0,181	-0,032
-335,518	-140,325	0,103	-0,008
-334,504	800,000	0,008	-0,016
-333,489	-200,000	0,001	-0,009
-332,475	-200,000	0,005	-0,027
-331,460	23,016	-0,061	-0,036
-330,445	19,224	0,096	-0,055
-329,431	367,760	0,035	-0,050
-328,416	481,595	0,069	0,112
-327,402	735,050	0,064	-0,124
-326,387	800,000	0,007	0,019
-325,372	54,354	-0,168	-0,116
-324,358	357,935	-0,136	-0,196
-323,343	51,781	0,113	0,077
-322,329	-200,000	-0,011	-0,051
-321,314	-200,000	0,018	-0,113
-320,299	-200,000	0,004	-0,088
-319,285	224,254	0,058	-0,067
-318,270	-168,494	0,100	-0,003
-317,256	800,000	-0,046	0,122
-316,241	-200,000	0,018	0,075
-315,226	450,301	0,047	0,074
-314,212	17,576	0,107	-0,061
-313,197	524,036	0,068	-0,115
-312,183	800,000	-0,053	0,109
-311,168	-200,000	-0,004	-0,043
-310,153	277,251	-0,028	0,035
-309,139	257,835	-0,068	0,085
-308,124	90,831	-0,078	0,063
-307,110	-49,430	0,043	-0,015
-306,095	-200,000	-0,011	-0,063
-305,080	-9,926	-0,092	0,044
-304,066	177,165	-0,061	0,064
-303,051	-200,000	0,005	0,022
-302,037	-159,914	0,109	-0,004
-301,022	-42,962	0,074	0,027
-300,008	-64,615	0,094	-0,027
-298,993	-200,000	-0,001	0,045
-297,978	-200,000	0,008	-0,049
-296,964	-200,000	-0,027	-0,087
-295,949	-99,154	-0,071	0,013
-294,935	93,329	-0,103	0,083
-293,920	800,000	0,016	0,042
-292,905	315,593	0,033	0,044
-291,891	750,010	-0,022	-0,042
-290,876	800,000	0,024	0,067
-289,862	569,718	-0,058	-0,101
-288,847	-110,832	0,041	0,006
-287,832	-200,000	-0,005	-0,088
-286,818	452,767	-0,094	-0,150
-285,803	-112,884	-0,085	-0,012
-284,789	320,354	0,079	0,108
-283,774	524,199	0,038	0,064
-282,759	273,657	-0,042	-0,054
-281,745	800,000	-0,048	-0,103
-280,730	-78,865	-0,067	0,016
-279,716	195,754	0,061	-0,066
-278,701	-98,702	-0,070	0,013
-277,686	-200,000	0,008	0,119
-276,672	800,000	-0,034	0,103
-275,657	-200,000	0,005	-0,097
-274,643	187,225	0,027	0,028
-273,628	800,000	-0,031	0,070
-272,613	122,295	0,060	-0,054
-271,599	-200,000	-0,012	-0,075
-270,584	-200,000	0,013	-0,086
-269,570	41,562	0,032	0,021
-268,555	176,655	-0,056	-0,058
-267,540	-88,931	0,127	0,027
-266,526	232,929	0,051	-0,061
-265,511	-117,182	-0,154	-0,020
-264,497	-200,000	-0,002	-0,057
-263,482	443,571	-0,046	0,072
-262,467	800,000	0,028	0,062
-261,453	173,080	0,025	-0,026
-260,438	-20,095	-0,052	-0,023
-259,424	-200,000	0,004	-0,083
-258,409	-200,000	0,006	0,023
-257,395	-97,339	0,054	0,010
-256,380	-168,356	-0,082	0,002
-255,365	160,060	0,067	-0,067
-254,351	-200,000	-0,040	0,144
-253,336	473,271	-0,052	0,084
-252,322	-45,591	-0,155	-0,055
-251,307	344,283	-0,086	0,121
-250,292	-162,435	0,054	-0,002
-249,278	282,642	-0,058	0,074
-248,263	-103,153	0,118	-0,020
-247,249	8,926	0,062	-0,033
-246,234	10,940	-0,104	0,057
-245,219	-106,200	0,072	0,011
-244,205	-185,189	0,164	-0,002
-243,190	212,085	-0,039	0,044
-242,176	-81,050	0,073	0,017
-241,161	800,000	0,035	0,081
-240,146	800,000	-0,041	0,111
-239,132	-116,602	-0,072	0,009
-238,117	-101,367	-0,173	-0,030
-237,103	642,656	0,056	0,103
-236,088	313,265	-0,034	-0,046
-235,073	800,000	0,044	0,107
-234,059	-200,000	-0,011	0,122
-233,044	800,000	-0,004	-0,009
-232,030	800,000	0,050	0,155
-231,015	621,733	0,011	-0,019
-230,000	-200,000	-0,001	-0,114
-228,986	40,643	0,053	-0,034
-227,971	-200,000	0,009	0,066
-226,957	211,191	0,076	0,085
-225,942	800,000	-0,027	0,061
-224,927	143,331	0,103	-0,098
-223,913	-200,000	-0,017	-0,073
-222,898	14,541	-0,082	-0,046
-221,884	-140,311	0,059	-0,004
-220,869	584,209	0,037	0,065
-219,855	85,993	0,086	0,068
-218,840	-200,000	-0,000	0,021
-217,825	239,967	-0,041	-0,049
-216,811	81,007	0,046	0,035
-215,796	-66,782	0,061	-0,017
-214,782	-200,000	-0,047	0,000
-213,767	-131,167	-0,068	0,006
-212,752	162,588	-0,039	0,039
-211,738	70,535	0,013	0,009
-210,723	-45,372	-0,096	0,034
-209,709	321,935	-0,031	-0,042
-208,694	-13,219	0,080	-0,037
-207,679	-73,126	-0,093	-0,024
-206,665	-200,000	0,029	0,000
-205,650	-200,000	-0,009	0,039
-204,636	-200,000	-0,014	0,133
-203,621	-120,558	-0,084	0,010
-202,606	-200,000	-0,012	-0,083
-201,592	293,048	-0,044	0,057
-200,577	196,189	-0,070	0,076
-199,563	-4,646	0,044	0,022
-198,548	-200,000	-0,048	0,158
-197,533	-1,829	0,085	0,043
-196,519	156,265	-0,096	-0,094
-195,504	-200,000	0,007	-0,056
-194,490	800,000	-0,041	-0,112
-193,475	800,000	0,051	0,142
-192,460	349,976	-0,049	-0,069
-191,446	193,491	0,115	-0,125
-190,431	8,775	-0,017	-0,009
-189,417	-200,000	-0,002	0,056
-188,402	-200,000	0,000	-0,052
-187,387	800,000	-0,040	-0,097
-186,373	113,685	0,018	-0,015
-185,358	-97,736	-0,111	0,020
-184,344	451,369	0,045	-0,071
-183,329	-200,000	0,024	0,113
-182,315	327,705	-0,051	0,070
-181,300	-200,000	-0,005	-0,050
-180,285	99,207	-0,044	0,036
-179,271	-143,249	0,164	-0,011
-178,256	800,000	0,011	-0,025
-177,242	800,000	-0,044	-0,106
-176,227	126,769	0,033	0,030
-175,212	-200,000	0,012	-0,072
-174,198	-120,705	-0,092	-0,011
-173,183	253,778	-0,068	0,083
-172,169	-200,000	-0,004	-0,144
-171,154	-200,000	-0,011	0,095
-170,139	258,888	-0,032	0,039
-169,125	-200,000	0,012	0,176
-168,110	800,000	0,098	0,206
-167,096	-200,000	0,051	0,192
-166,081	321,750	0,065	0,089
-165,066	-200,000	0,003	-0,032
-164,052	-44,820	0,075	0,027
-163,037	800,000	-0,025	0,065
-162,023	-17,481	0,125	0,056
-161,008	-43,672	0,065	0,023
-159,993	-200,000	-0,007	-0,135
-158,979	426,130	-0,089	-0,137
-157,964	565,069	0,036	-0,062
-156,950	206,060	0,049	-0,054
-155,935	-114,470	0,050	0,007
-154,920	-200,000	0,004	0,017
-153,906	-200,000	0,011	0,113
-152,891	-200,000	-0,016	0,131
-151,877	-200,000	0,030	0,110
-150,862	-44,698	-0,116	-0,041
-149,847	474,211	0,059	-0,095
-148,833	-5,854	-0,057	0,028
-147,818	280,002	0,083	0,106
-146,804	-26,747	-0,105	0,043
-145,789	-200,000	0,012	-0,045
-144,775	62,026	-0,087	0,062
-143,760	46,671	-0,054	0,036
-142,745	-7,883	0,070	0,033
-141,731	480,336	0,015	0,024
-140,716	469,085	0,010	0,016
-139,702	800,000	-0,047	0,113
-138,687	-183,045	-0,084	0,001
-137,672	0,712	0,078	-0,040
-136,658	-200,000	-0,032	-0,116
-135,643	800,000	-0,023	-0,063
-134,629	36,833	0,043	0,027
-133,614	800,000	0,045	-0,093
-132,599	206,889	0,044	0,049
-131,585	121,647	-0,060	-0,053
-130,570	-9,056	-0,024	-0,011
-129,556	33,105	-0,164	-0,101
-128,541	-152,758	-0,079	-0,004
-127,526	-88,439	-0,046	0,010
-126,512	-200,000	-0,005	0,098
-125,497	221,380	0,065	0,075
-124,483	232,038	0,048	-0,056
-123,468	800,000	0,043	0,102
-122,453	253,496	-0,166	-0,202
-121,439	-200,000	-0,007	-0,147
