DTS Sentinel unit serial number:	SN410029Multiplexer serial number:	ORYXHardware model number:	OX2-SRSoftware version number:	ORYX F/W v4,00 Oryx Data Collector v3.7.2.0data status	okinstallation	BH3 CH2differential loss correction	single-endedforward channel	channel 2reverse channel	N/Adate	2023/12/05time	19:07:28forward acquisition time	300,00reverse acquisition time	0,00gamma	499,1914k internal	0,3193k external	0,3193temperature offset calibration	1,0000default loss term (dB/km)	0,3820temperature slope calibration	1,0000multiplexer offset coefficient	1,0000multiplexer slope coefficient	1,0000fibre end	0,00T internal ref (°C)	10,62T ext. ref 1 (°C)	-3,87T ext. ref 2 (°C)	-4,03length (m)	temperature (°C)	Stokes	anti-Stokes-744,400	-200,000	0,015	-0,179
-743,385	-17,706	-0,228	0,104
-742,371	800,000	0,037	-0,076
-741,356	-200,000	-0,026	0,211
-740,342	-200,000	-0,006	-0,040
-739,327	83,042	-0,164	0,130
-738,312	95,978	-0,113	-0,094
-737,298	34,950	-0,217	0,138
-736,283	-200,000	0,051	-0,204
-735,269	153,715	-0,135	0,135
-734,254	389,281	-0,057	-0,086
-733,239	-23,021	-0,307	-0,134
-732,225	365,013	0,094	-0,139
-731,210	36,928	-0,037	0,024
-730,196	-90,003	-0,031	-0,006
-729,181	-105,414	-0,045	-0,007
-728,167	676,077	-0,010	0,018
-727,152	-200,000	-0,017	-0,104
-726,137	236,764	-0,097	-0,117
-725,123	-9,988	-0,160	-0,077
-724,108	664,574	-0,070	-0,133
-723,094	17,572	-0,037	-0,021
-722,079	800,000	-0,057	-0,152
-721,064	258,643	0,041	0,052
-720,050	-29,989	0,087	0,036
-719,035	789,636	-0,007	-0,013
-718,021	172,268	-0,117	-0,123
-717,006	-97,386	-0,046	-0,009
-715,991	800,000	-0,050	-0,144
-714,977	-200,000	-0,007	-0,060
-713,962	522,123	-0,093	-0,159
-712,948	135,256	0,023	-0,021
-711,933	112,750	-0,016	-0,014
-710,918	-133,439	0,123	-0,011
-709,904	14,464	-0,077	-0,044
-708,889	-200,000	0,023	-0,076
-707,875	329,167	-0,059	-0,082
-706,860	-61,781	-0,085	-0,026
-705,845	-48,805	-0,103	-0,036
-704,831	-200,000	-0,008	-0,095
-703,816	-200,000	-0,004	-0,077
-702,802	-99,132	-0,127	-0,023
-701,787	175,795	0,024	-0,025
-700,772	-200,000	-0,002	-0,117
-699,758	-200,000	-0,004	-0,013
-698,743	-89,912	-0,056	-0,012
-697,729	-200,000	-0,014	-0,073
-696,714	-91,056	-0,018	-0,004
-695,699	-58,829	-0,099	-0,031
-694,685	-200,000	-0,016	-0,223
-693,670	-200,000	0,022	-0,106
-692,656	381,721	-0,015	-0,023
-691,641	-200,000	-0,001	-0,023
-690,627	-200,000	-0,005	-0,099
-689,612	-38,751	-0,134	0,051
-688,597	-200,000	0,002	-0,031
-687,583	-200,000	-0,007	-0,137
-686,568	-92,951	-0,089	-0,018
-685,554	62,827	0,066	-0,048
-684,539	59,747	-0,072	-0,052
-683,524	-52,714	0,157	0,052
-682,510	-34,692	0,070	0,028
-681,495	-95,650	0,113	0,022
-680,481	112,853	-0,083	-0,073
-679,466	-92,790	-0,081	-0,016
-678,451	-200,000	0,007	-0,024
-677,437	176,672	0,021	0,022
-676,422	-27,719	0,089	-0,037
-675,408	66,186	0,012	0,009
-674,393	-49,949	0,112	0,039
-673,378	-80,328	-0,123	-0,030
-672,364	-194,568	0,087	0,000
-671,349	57,629	-0,110	-0,078
-670,335	323,810	-0,051	-0,071
-669,320	-63,312	0,047	-0,014
-668,305	92,283	0,016	-0,013
-667,291	-66,720	0,049	-0,014
-666,276	-53,559	-0,138	-0,046
-665,262	-44,719	-0,077	-0,028
-664,247	-56,794	-0,124	-0,040
-663,232	-200,000	0,016	0,077
-662,218	11,988	-0,100	0,056
-661,203	51,175	-0,132	-0,091
-660,189	-200,000	0,032	-0,126
-659,174	132,383	-0,139	-0,130
-658,159	60,909	-0,125	0,090
-657,145	-200,000	-0,009	-0,066
-656,130	800,000	0,034	-0,091
-655,116	-200,000	-0,027	0,101
-654,101	482,589	-0,061	0,102
-653,086	-3,814	-0,097	0,049
-652,072	-113,185	0,081	0,012
-651,057	120,519	-0,067	-0,060
-650,043	44,331	-0,046	0,030
-649,028	-66,413	-0,100	0,029
-648,014	-200,000	0,028	0,099
-646,999	-26,327	-0,075	0,032
-645,984	-200,000	-0,020	-0,071
-644,970	-200,000	-0,015	-0,054
-643,955	-19,503	-0,077	0,035
-642,941	-200,000	-0,015	-0,087
-641,926	511,758	0,025	-0,043
-640,911	-61,896	-0,080	-0,024
-639,897	-200,000	0,006	-0,020
-638,882	-52,959	0,090	0,030
-637,868	-58,186	-0,138	-0,043
-636,853	-200,000	0,017	-0,058
-635,838	800,000	-0,027	-0,068
-634,824	800,000	0,053	0,117
-633,809	59,034	-0,006	0,004
-632,795	344,373	-0,053	-0,076
-631,780	58,979	-0,090	-0,064
-630,765	-175,564	0,133	-0,003
-629,751	55,923	0,106	-0,075
-628,736	474,434	-0,083	-0,136
-627,722	-182,835	-0,021	-0,000
-626,707	-99,369	-0,035	0,006
-625,692	-200,000	-0,005	0,072
-624,678	-50,926	-0,052	0,018
-623,663	38,834	0,090	0,058
-622,649	-161,087	-0,161	-0,006
-621,634	114,007	-0,107	-0,095
-620,619	134,547	0,051	-0,048
-619,605	509,701	0,077	0,131
-618,590	-118,858	-0,080	-0,010
-617,576	392,601	-0,056	0,085
-616,561	23,728	0,023	0,014
-615,546	228,527	0,065	0,077
-614,532	111,810	-0,014	0,012
-613,517	-200,000	-0,024	-0,182
-612,503	13,927	0,075	-0,042
-611,488	136,249	0,136	-0,129
-610,474	-200,000	-0,012	0,137
-609,459	153,073	-0,042	0,042
-608,444	11,070	-0,090	0,050
-607,430	147,650	-0,043	0,042
-606,415	-141,719	-0,070	-0,005
-605,401	800,000	-0,024	0,074
-604,386	-200,000	-0,010	0,077
-603,371	-85,577	-0,123	-0,028
-602,357	17,188	0,061	-0,035
-601,342	-200,000	0,003	0,031
-600,328	800,000	-0,036	-0,108
-599,313	800,000	0,003	-0,009
-598,298	-16,377	-0,080	0,037
-597,284	-139,109	0,085	0,007
-596,269	-35,227	0,015	0,006
-595,255	-3,145	-0,165	0,083
-594,240	-200,000	0,012	-0,065
-593,225	-200,000	-0,001	0,041
-592,211	-200,000	-0,006	0,078
-591,196	-6,222	0,083	-0,041
-590,182	-82,392	-0,055	-0,013
-589,167	-168,920	0,091	-0,002
-588,152	439,971	0,018	-0,029
-587,138	298,287	0,020	0,027
-586,123	264,734	-0,108	-0,136
-585,109	235,229	-0,117	-0,140
-584,094	745,802	-0,085	-0,166
-583,079	800,000	0,051	0,112
-582,065	106,891	-0,034	-0,029
-581,050	89,332	0,044	0,036
-580,036	-102,256	-0,015	-0,003
-579,021	-105,105	-0,096	0,016
-578,006	-200,000	-0,048	-0,183
-576,992	800,000	-0,020	-0,062
-575,977	-200,000	0,009	0,071
-574,963	-200,000	0,018	0,119
-573,948	-107,087	0,022	-0,003
-572,934	-200,000	-0,014	-0,100
-571,919	-127,466	-0,214	-0,022
-570,904	-132,386	-0,084	-0,008
-569,890	-64,111	-0,141	-0,041
-568,875	114,469	0,040	-0,036
-567,861	-48,954	-0,093	-0,032
-566,846	-90,014	-0,028	0,006
-565,831	-200,000	-0,014	-0,094
-564,817	89,765	-0,074	-0,060
-563,802	-2,706	0,073	-0,037
-562,788	-64,113	-0,161	0,047
-561,773	-42,203	-0,080	0,029
-560,758	-177,792	0,085	-0,001
-559,744	-200,000	-0,017	0,070
-558,729	-200,000	0,015	0,079
-557,715	-200,000	0,014	-0,105
-556,700	-200,000	0,013	-0,109
-555,685	800,000	-0,067	-0,196
-554,671	284,878	0,017	0,022
-553,656	27,433	-0,013	-0,008
-552,642	800,000	-0,017	0,038
-551,627	-10,174	0,148	0,071
-550,612	19,723	0,087	-0,050
-549,598	497,548	-0,058	-0,097
-548,583	-107,807	-0,104	-0,016
-547,569	425,570	-0,085	-0,133
-546,554	159,973	0,084	-0,085
-545,539	290,401	0,062	0,082
-544,525	800,000	-0,044	0,099
-543,510	-200,000	-0,026	-0,267
-542,496	129,483	-0,117	-0,108
-541,481	-200,000	-0,004	0,074
-540,466	-69,429	0,055	-0,015
-539,452	245,866	0,055	-0,067
-538,437	89,611	0,023	-0,019
-537,423	-60,525	0,128	0,039
-536,408	664,256	0,034	-0,064
-535,393	-200,000	-0,010	0,047
-534,379	21,109	-0,031	-0,018
-533,364	800,000	-0,027	-0,060
-532,350	144,226	0,128	0,124
-531,335	634,571	0,043	0,079
-530,321	133,134	-0,023	0,021
-529,306	800,000	-0,055	-0,167
-528,291	-128,839	-0,048	0,005
-527,277	800,000	-0,024	-0,062
-526,262	77,269	0,059	0,045
-525,248	228,992	0,020	-0,024
-524,233	-59,579	0,053	0,016
-523,218	-87,639	0,054	-0,012
-522,204	-200,000	0,012	0,100
-521,189	84,520	-0,099	0,078
-520,175	-39,342	-0,047	0,018
-519,160	-112,982	-0,078	-0,011
-518,145	-115,145	0,153	-0,021
-517,131	10,345	0,082	0,045
-516,116	-126,204	0,044	0,005
-515,102	245,501	-0,019	0,024
-514,087	409,172	0,078	-0,119
-513,072	-106,343	0,037	0,006
-512,058	-161,181	-0,057	0,002
-511,043	800,000	-0,025	-0,076
-510,029	37,551	0,077	-0,049
-509,014	800,000	-0,049	-0,106
-507,999	158,506	0,094	0,094
-506,985	324,130	-0,072	-0,100
-505,970	-194,814	0,109	-0,001
-504,956	800,000	0,025	0,066
-503,941	27,523	0,086	-0,052
-502,926	-200,000	0,015	0,100
-501,912	-200,000	0,021	0,082
-500,897	118,968	0,058	0,052
-499,883	143,012	-0,143	-0,137
-498,868	9,666	0,076	-0,041
-497,853	-61,657	-0,088	-0,026
-496,839	90,309	-0,092	-0,074
-495,824	-200,000	-0,041	0,000
-494,810	-142,648	0,074	0,005
-493,795	-40,751	0,108	0,040
-492,781	-128,921	-0,081	0,008
-491,766	140,927	0,074	-0,071
-490,751	35,480	0,120	-0,076
-489,737	92,408	-0,016	-0,013
-488,722	-81,105	0,102	0,024
-487,708	-20,336	-0,130	0,057
-486,693	143,064	0,114	0,109
-485,678	777,419	-0,066	-0,130
-484,664	73,128	0,040	-0,031
-483,649	240,773	-0,062	0,075
-482,635	-200,000	0,035	0,125
-481,620	-200,000	-0,009	-0,104
-480,605	800,000	0,019	-0,058
-479,591	137,169	0,092	0,087
-478,576	265,256	-0,048	-0,060
-477,562	-111,205	-0,096	-0,014
-476,547	-111,893	-0,127	0,018
-475,532	-102,840	0,075	0,013
-474,518	-200,000	0,046	0,159
-473,503	800,000	-0,039	0,079
-472,489	221,630	0,060	-0,070
-471,474	-200,000	0,007	-0,022
-470,459	116,582	-0,061	-0,054
-469,445	755,983	-0,039	-0,077
-468,430	531,470	-0,022	0,038
-467,416	185,232	-0,036	0,039
-466,401	53,141	0,209	0,144
-465,386	-200,000	0,005	-0,053
-464,372	800,000	-0,023	0,050
-463,357	-200,000	0,027	-0,113
-462,343	-84,787	-0,165	-0,037
-461,328	-1,599	0,103	-0,052
-460,313	737,828	0,057	-0,111
-459,299	-74,476	0,210	0,054
-458,284	572,200	0,037	0,065
-457,270	800,000	0,020	0,052
-456,255	-200,000	0,003	-0,075
-455,241	199,812	-0,070	-0,078
-454,226	800,000	-0,038	-0,119
-453,211	800,000	0,011	0,033
-452,197	-81,274	0,094	0,022
-451,182	14,248	-0,034	-0,019
-450,168	-200,000	-0,010	0,068
-449,153	79,922	0,036	-0,028
-448,138	20,686	-0,234	-0,136
-447,124	-200,000	0,003	-0,069
-446,109	-200,000	0,005	0,119
-445,095	-200,000	-0,012	-0,085
-444,080	138,923	0,085	-0,080
-443,065	-137,232	0,120	0,010
-442,051	-41,468	-0,138	-0,051
-441,036	235,918	-0,091	0,109
-440,022	349,465	0,087	0,124
-439,007	800,000	0,046	-0,129
-437,992	483,814	0,057	0,094
-436,978	-200,000	0,001	0,107
-435,963	800,000	0,039	0,108
-434,949	-200,000	-0,040	-0,206
-433,934	207,466	0,049	0,056
-432,919	120,120	-0,093	-0,083
-431,905	413,318	0,033	0,051
-430,890	-200,000	-0,017	-0,055
-429,876	381,506	0,012	-0,017
-428,861	34,598	-0,088	0,056
-427,846	-131,518	-0,081	0,008
-426,832	-120,097	-0,097	-0,012
-425,817	800,000	-0,021	0,056
-424,803	-200,000	-0,027	-0,184
-423,788	800,000	0,063	0,131
-422,773	800,000	0,065	0,144
-421,759	349,155	0,092	0,131
-420,744	800,000	-0,035	0,073
-419,730	-11,327	0,100	0,047
-418,715	421,150	-0,066	-0,103
-417,701	388,981	-0,067	-0,101
-416,686	800,000	0,066	0,146
-415,671	-72,903	-0,050	-0,013
-414,657	394,123	-0,053	0,079
-413,642	-139,795	0,057	-0,004
-412,628	381,841	-0,095	-0,141
-411,613	800,000	0,039	0,119
-410,598	236,201	0,068	-0,082
-409,584	-200,000	0,020	0,067
-408,569	-142,386	0,169	-0,012
-407,555	193,832	0,083	0,090
-406,540	223,176	0,083	0,097
-405,525	-19,430	0,062	0,028
-404,511	-50,418	-0,132	0,044
-403,496	61,269	-0,110	-0,079
-402,482	78,858	-0,060	0,046
-401,467	25,690	0,056	0,034
-400,452	-148,797	0,101	-0,006
-399,438	800,000	-0,041	0,100
-398,423	208,452	0,015	-0,017
-397,409	-40,014	-0,066	-0,025
-396,394	-200,000	0,006	0,111
-395,379	-104,181	0,092	-0,015
-394,365	-200,000	-0,013	0,061
-393,350	800,000	-0,001	-0,003
-392,336	42,373	0,014	0,009
-391,321	800,000	0,049	-0,112
-390,306	-44,039	-0,196	-0,070
-389,292	-145,916	-0,066	0,004
-388,277	-200,000	-0,043	0,000
-387,263	59,388	0,157	0,111
-386,248	-116,090	0,164	0,022
-385,233	216,196	-0,053	-0,060
-384,219	58,019	0,115	0,081
-383,204	122,981	0,067	0,060
-382,190	87,336	-0,053	0,042
-381,175	247,495	-0,082	-0,100
-380,160	800,000	0,032	-0,067
-379,146	347,188	0,096	0,136
-378,131	225,373	-0,037	0,043
-377,117	-200,000	-0,008	-0,053
-376,102	800,000	-0,055	0,139
-375,088	16,900	0,109	-0,062
-374,073	-200,000	-0,020	0,069
-373,058	-200,000	0,028	0,109
-372,044	-200,000	0,003	0,104
-371,029	-200,000	0,003	0,029
-370,015	-200,000	0,016	0,053
-369,000	-200,000	-0,019	0,083
-367,985	360,139	-0,041	-0,060
-366,971	-38,681	0,113	-0,043
-365,956	-74,162	0,045	0,012
-364,942	479,169	0,012	-0,019
-363,927	800,000	-0,023	0,055
-362,912	99,696	-0,009	0,007
-361,898	13,992	0,078	-0,044
-360,883	81,374	-0,117	-0,091
-359,869	166,666	0,067	0,068
-358,854	-200,000	-0,010	0,035
-357,839	-82,379	-0,096	0,022
-356,825	32,275	0,029	0,018
-355,810	-136,236	-0,130	-0,011
-354,796	-155,354	0,119	0,005
-353,781	269,584	-0,022	0,027
-352,766	800,000	-0,047	0,110
-351,752	-99,600	0,123	0,022
-350,737	800,000	0,109	0,238
-349,723	4,379	0,124	-0,065
-348,708	800,000	0,032	0,072
-347,693	-200,000	0,003	0,086
-346,679	47,063	-0,035	0,023
-345,664	-200,000	-0,002	-0,064
-344,650	250,906	0,144	-0,177
-343,635	-2,239	-0,070	-0,035
-342,620	182,734	0,032	-0,034
-341,606	-200,000	0,005	0,021
-340,591	-200,000	-0,031	0,177
-339,577	59,349	-0,093	-0,066
-338,562	163,407	-0,062	-0,063
-337,548	42,384	-0,155	-0,101
-336,533	-13,658	0,054	0,025
-335,518	-48,840	0,138	0,047
-334,504	-200,000	0,013	0,067
-333,489	-30,337	0,081	-0,033
-332,475	-200,000	0,020	-0,130
-331,460	800,000	-0,034	-0,068
-330,445	-42,438	-0,064	0,023
-329,431	-93,505	0,224	0,044
-328,416	-115,330	0,205	-0,028
-327,402	-58,834	0,179	0,055
-326,387	800,000	-0,030	-0,068
-325,372	295,356	-0,044	-0,058
-324,358	385,093	-0,024	0,035
-323,343	542,473	-0,027	0,046
-322,329	86,047	-0,037	-0,029
-321,314	289,617	0,108	0,141
-320,299	800,000	-0,070	0,149
-319,285	800,000	0,054	-0,165
-318,270	-67,484	0,075	0,021
-317,256	64,221	0,027	0,020
-316,241	192,243	-0,024	0,026
-315,226	66,839	0,033	0,024
-314,212	12,112	-0,049	-0,027
-313,197	-136,827	0,039	-0,003
-312,183	-127,250	0,072	-0,007
-311,168	169,652	-0,035	-0,036
-310,153	-33,702	-0,059	-0,023
-309,139	-200,000	-0,024	-0,112
-308,124	-123,066	0,056	0,006
-307,110	530,914	-0,066	0,112
-306,095	-200,000	0,013	0,115
-305,080	-50,350	0,086	0,029
-304,066	-200,000	0,006	0,064
-303,051	-81,856	-0,165	0,038
-302,037	159,859	0,033	-0,033
-301,022	377,103	0,129	-0,189
-300,008	-200,000	0,012	-0,049
-298,993	109,758	-0,041	-0,035
-297,978	5,664	0,033	-0,018
-296,964	-159,946	-0,100	-0,004
-295,949	237,247	-0,118	-0,141
-294,935	-112,328	0,032	0,004
-293,920	-200,000	0,004	-0,127
-292,905	458,876	-0,049	-0,079
-291,891	-4,504	0,106	0,052
-290,876	-81,522	-0,042	-0,010
-289,862	-1,179	-0,123	-0,062
-288,847	-156,266	0,077	0,003
-287,832	-200,000	-0,022	-0,155
-286,818	-200,000	-0,019	0,082
-285,803	32,729	0,066	0,041
-284,789	91,138	-0,103	0,083
-283,774	204,259	0,071	0,079
-282,759	292,406	0,063	0,083
-281,745	-28,549	-0,151	0,062
-280,730	800,000	-0,012	0,034
-279,716	-178,312	-0,097	-0,002
-278,701	-200,000	0,017	-0,096
-277,686	123,490	0,078	-0,070
-276,672	800,000	0,029	0,076
-275,657	-58,327	-0,098	0,030
-274,643	269,067	0,066	-0,082
-273,628	-43,087	0,064	-0,023
-272,613	23,061	-0,070	-0,041
-271,599	-200,000	0,002	0,013
-270,584	-26,500	0,095	0,040
-269,570	-200,000	0,013	-0,145
-268,555	27,740	-0,164	-0,099
-267,540	-200,000	0,020	-0,085
-266,526	303,139	-0,086	-0,114
-265,511	-91,144	0,083	-0,017
-264,497	-200,000	0,022	-0,105
-263,482	-129,592	0,185	0,018
-262,467	-51,710	-0,096	0,032
-261,453	58,608	0,011	-0,008
-260,438	800,000	-0,040	-0,109
-259,424	800,000	-0,039	-0,085
-258,409	226,578	-0,062	-0,072
-257,395	-102,135	-0,056	-0,009
-256,380	-36,944	-0,022	-0,008
-255,365	-155,501	-0,063	0,003
-254,351	210,254	-0,064	-0,072
-253,336	637,822	-0,023	0,043
-252,322	184,053	-0,091	0,096
-251,307	800,000	-0,037	0,084
-250,292	800,000	0,043	-0,095
-249,278	-200,000	0,009	-0,100
-248,263	800,000	0,039	0,120
-247,249	800,000	0,028	0,060
-246,234	229,015	0,009	-0,010
-245,219	-200,000	0,003	0,091
-244,205	-169,768	0,028	-0,001
-243,190	-20,026	0,132	-0,058
-242,176	128,565	-0,065	0,060
-241,161	-200,000	-0,019	0,094
-240,146	52,681	0,046	0,031
-239,132	-60,139	0,097	-0,029
-238,117	800,000	-0,038	0,077
-237,103	-57,907	-0,066	-0,020
-236,088	-200,000	-0,004	0,156
-235,073	20,969	0,032	0,018
-234,059	-200,000	0,006	-0,081
-233,044	-94,595	0,134	0,026
-232,030	393,075	0,011	0,016
-231,015	-200,000	0,009	0,033
-230,000	-109,133	0,139	-0,021
-228,986	800,000	0,052	-0,112
-227,971	-200,000	0,033	0,122
-226,957	41,812	0,121	0,079
-225,942	363,003	-0,048	-0,069
-224,927	7,428	-0,081	0,043
-223,913	93,991	0,095	-0,077
-222,898	237,960	0,046	0,054
-221,884	-200,000	-0,008	-0,045
-220,869	-200,000	-0,000	0,032
-219,855	293,737	-0,090	0,118
-218,840	-188,873	0,056	0,000
-217,825	-200,000	-0,023	-0,147
-216,811	237,950	0,059	-0,070
-215,796	219,036	-0,065	-0,075
-214,782	-170,717	0,118	0,003
-213,767	341,337	0,071	0,100
-212,752	227,428	0,043	0,050
-211,738	-93,772	0,252	-0,049
-210,723	-90,030	-0,077	0,016
-209,709	-200,000	0,013	0,041
-208,694	800,000	-0,020	-0,045
-207,679	10,086	-0,090	-0,049
-206,665	212,275	-0,036	0,041
-205,650	-137,126	0,054	0,004
-204,636	-200,000	-0,004	0,029
-203,621	-200,000	-0,027	0,174
-202,606	25,493	-0,112	-0,067
-201,592	-80,429	-0,062	-0,015
-200,577	230,054	-0,150	-0,176
-199,563	800,000	-0,033	-0,099
-198,548	-39,542	-0,130	-0,048
-197,533	293,755	-0,062	0,082
-196,519	311,032	-0,044	0,060
-195,504	405,934	0,042	-0,063
-194,490	22,600	-0,114	0,067
-193,475	42,240	-0,096	-0,062
-192,460	215,933	0,049	0,056
-191,446	-200,000	0,011	0,080
-190,431	-109,768	0,166	0,025
-189,417	-200,000	-0,003	0,036
-188,402	299,219	0,052	-0,069
-187,387	108,474	-0,028	-0,023
-186,373	393,407	-0,047	0,070
-185,358	122,612	-0,020	0,018
-184,344	-123,899	-0,089	-0,010
-183,329	800,000	0,025	0,059
-182,315	15,563	-0,067	0,037
-181,300	-94,825	0,121	0,023
-180,285	107,765	0,055	0,047
-179,271	-170,513	-0,069	0,002
-178,256	87,785	0,030	0,023
-177,242	-200,000	0,035	0,113
-176,227	-32,690	0,071	-0,028
-175,212	-27,557	0,185	-0,076
-174,198	-200,000	0,030	0,132
-173,183	714,657	-0,020	0,037
-172,169	-200,000	0,012	-0,040
-171,154	-172,687	-0,111	-0,002
-170,139	-69,361	-0,110	0,030
-169,125	39,622	0,035	0,022
-168,110	-120,043	0,090	0,011
-167,096	-200,000	0,007	0,139
-166,081	-200,000	-0,001	-0,065
-165,066	119,962	-0,062	-0,055
-164,052	-85,650	-0,042	-0,009
-163,037	171,253	-0,061	0,062
-162,023	216,166	-0,054	0,061
-161,008	800,000	0,040	0,082
-159,993	800,000	-0,080	0,181
-158,979	-110,765	-0,115	0,017
-157,964	-35,727	-0,041	-0,016
-156,950	-200,000	-0,024	0,141
-155,935	-51,712	-0,067	0,022
-154,920	120,173	0,034	-0,030
-153,906	28,624	-0,065	0,039
-152,891	42,796	0,084	-0,054
-151,877	6,558	0,157	-0,083
-150,862	-200,000	-0,033	-0,189
-149,847	800,000	-0,032	-0,074
-148,833	-200,000	-0,049	0,161
-147,818	-200,000	-0,150	-0,001
-146,804	800,000	0,028	0,067
-145,789	695,120	-0,051	0,096
-144,775	-78,689	0,055	-0,013
-143,760	782,425	-0,076	-0,148
-142,745	54,933	-0,054	0,037
-141,731	301,827	-0,037	0,048
-140,716	-200,000	0,015	-0,124
-139,702	220,998	-0,059	0,068
-138,687	147,451	0,027	0,026
-137,672	10,909	-0,133	0,072
-136,658	10,992	0,047	-0,026
-135,643	-26,286	-0,051	-0,021
-134,629	-200,000	-0,001	-0,090
-133,614	380,210	-0,031	-0,046
-132,599	55,207	0,039	-0,027
-131,585	145,700	-0,065	0,062
-130,570	101,515	-0,052	0,043
-129,556	-200,000	-0,032	0,108
-128,541	-200,000	-0,005	-0,028
-127,526	-151,846	0,088	-0,004
-126,512	-40,459	0,017	-0,006
-125,497	-112,577	0,081	-0,011
-124,483	543,263	-0,058	0,099
-123,468	330,660	0,085	-0,117
-122,453	800,000	-0,058	-0,137
-121,439	-200,000	-0,003	0,051
-120,424	-1,759	-0,031	-0,016
