DTS Sentinel unit serial number:	SN410029Multiplexer serial number:	ORYXHardware model number:	OX2-SRSoftware version number:	ORYX F/W v4,00 Oryx Data Collector v3.7.2.0data status	okinstallation	BH3 CH2differential loss correction	single-endedforward channel	channel 2reverse channel	N/Adate	2023/12/05time	21:07:28forward acquisition time	300,00reverse acquisition time	0,00gamma	499,1914k internal	0,3194k external	0,3194temperature offset calibration	1,0000default loss term (dB/km)	0,3820temperature slope calibration	1,0000multiplexer offset coefficient	1,0000multiplexer slope coefficient	1,0000fibre end	0,00T internal ref (°C)	10,37T ext. ref 1 (°C)	-4,46T ext. ref 2 (°C)	-4,54length (m)	temperature (°C)	Stokes	anti-Stokes-744,400	113,846	0,013	-0,012
-743,385	313,004	-0,090	0,124
-742,371	-200,000	0,019	-0,066
-741,356	475,016	-0,154	0,254
-740,342	-200,000	0,000	-0,021
-739,327	17,697	-0,221	0,128
-738,312	-200,000	-0,016	-0,237
-737,298	-154,665	-0,287	0,014
-736,283	250,078	-0,083	-0,103
-735,269	20,563	-0,178	0,104
-734,254	-200,000	-0,010	-0,178
-733,239	-63,220	-0,321	-0,096
-732,225	-166,844	0,184	0,005
-731,210	800,000	0,059	0,133
-730,196	108,361	-0,145	0,126
-729,181	274,738	0,009	-0,012
-728,167	303,409	0,090	-0,122
-727,152	282,932	0,050	-0,065
-726,137	735,490	0,039	-0,076
-725,123	170,560	-0,106	-0,110
-724,108	800,000	-0,019	-0,057
-723,094	-74,786	0,121	0,031
-722,079	-112,091	-0,148	-0,021
-721,064	36,168	0,027	0,017
-720,050	413,126	-0,015	-0,024
-719,035	99,026	-0,051	-0,043
-718,021	-149,697	-0,082	-0,005
-717,006	-110,000	-0,257	-0,039
-715,991	-0,349	-0,130	-0,067
-714,977	42,859	-0,112	-0,074
-713,962	-189,940	-0,068	-0,001
-712,948	328,266	-0,039	-0,055
-711,933	243,749	-0,073	-0,089
-710,918	368,735	-0,035	-0,052
-709,904	-33,644	-0,130	-0,052
-708,889	84,436	-0,045	-0,036
-707,875	-200,000	-0,007	-0,046
-706,860	207,286	0,079	-0,090
-705,845	77,077	-0,094	0,073
-704,831	-179,151	0,071	0,001
-703,816	-98,727	-0,118	-0,022
-702,802	42,313	-0,035	-0,023
-701,787	89,024	0,040	-0,032
-700,772	5,098	-0,095	0,051
-699,758	-99,096	-0,053	0,010
-698,743	43,643	0,049	-0,033
-697,729	368,218	0,029	0,042
-696,714	213,879	0,069	0,080
-695,699	800,000	-0,034	0,080
-694,685	-81,026	-0,050	0,012
-693,670	121,263	-0,101	-0,092
-692,656	125,431	-0,085	0,078
-691,641	3,208	-0,029	-0,016
-690,627	-57,176	0,130	0,042
-689,612	69,736	0,084	0,063
-688,597	-97,579	-0,131	-0,025
-687,583	386,736	-0,068	0,102
-686,568	-27,869	-0,047	0,020
-685,554	800,000	-0,085	0,269
-684,539	800,000	-0,019	0,039
-683,524	178,647	0,037	0,040
-682,510	40,189	0,056	0,037
-681,495	800,000	-0,066	0,151
-680,481	270,415	-0,021	-0,027
-679,466	-79,461	-0,169	-0,041
-678,451	-20,919	0,048	-0,021
-677,437	-70,953	0,059	0,016
-676,422	-200,000	0,023	-0,109
-675,408	-104,616	0,081	-0,013
-674,393	294,591	-0,108	-0,143
-673,378	80,867	-0,088	-0,069
-672,364	800,000	-0,021	-0,043
-671,349	-200,000	-0,001	0,083
-670,335	-110,675	0,133	-0,020
-669,320	-200,000	-0,019	-0,107
-668,305	-94,158	0,034	-0,007
-667,291	81,974	-0,015	0,012
-666,276	181,667	-0,067	-0,072
-665,262	-72,251	0,082	0,022
-664,247	316,415	0,056	0,077
-663,232	201,485	-0,035	0,039
-662,218	800,000	-0,033	-0,069
-661,203	-5,173	-0,055	0,027
-660,189	-200,000	0,026	0,095
-659,174	-200,000	-0,004	0,037
-658,159	-200,000	-0,007	-0,161
-657,145	357,400	-0,068	-0,099
-656,130	800,000	0,045	-0,106
-655,116	468,851	-0,020	-0,033
-654,101	-60,700	-0,081	0,025
-653,086	451,797	-0,040	0,064
-652,072	-200,000	-0,008	-0,035
-651,057	-200,000	-0,020	0,084
-650,043	125,313	0,044	-0,040
-649,028	-91,593	0,080	0,016
-648,014	-26,262	0,178	0,076
-646,999	-85,579	-0,088	0,020
-645,984	-200,000	-0,037	0,155
-644,970	369,127	0,064	-0,094
-643,955	-137,814	-0,118	0,009
-642,941	-200,000	-0,038	-0,230
-641,926	196,325	-0,093	0,103
-640,911	152,691	0,089	-0,088
-639,897	800,000	-0,042	0,090
-638,882	-85,250	-0,022	0,005
-637,868	617,984	0,041	-0,074
-636,853	-16,283	-0,088	-0,040
-635,838	270,732	0,058	0,074
-634,824	-200,000	0,022	-0,095
-633,809	-200,000	-0,035	0,119
-632,795	800,000	-0,015	0,033
-631,780	762,219	-0,062	0,122
-630,765	-4,430	-0,082	0,041
-629,751	450,666	-0,053	-0,085
-628,736	151,621	-0,040	-0,039
-627,722	-200,000	0,030	-0,111
-626,707	501,666	0,044	-0,074
-625,692	-198,253	0,066	0,000
-624,678	-187,971	0,130	0,001
-623,663	663,240	0,009	0,017
-622,649	-36,865	-0,101	0,039
-621,634	800,000	0,056	-0,139
-620,619	19,287	0,073	0,043
-619,605	412,062	0,086	-0,133
-618,590	-0,006	0,158	0,081
-617,576	10,979	0,109	-0,060
-616,561	800,000	0,073	-0,161
-615,546	-133,086	-0,042	-0,004
-614,532	-200,000	-0,004	0,015
-613,517	800,000	-0,054	0,124
-612,503	90,681	-0,025	0,021
-611,488	-106,932	0,110	0,018
-610,474	87,050	-0,033	-0,026
-609,459	154,222	-0,046	-0,045
-608,444	47,728	0,040	-0,027
-607,430	116,616	-0,080	-0,071
-606,415	800,000	-0,029	-0,069
-605,401	107,891	0,051	0,044
-604,386	800,000	0,031	0,097
-603,371	-79,511	0,038	-0,009
-602,357	800,000	-0,036	-0,086
-601,342	-61,552	-0,057	0,017
-600,328	82,436	-0,158	0,124
-599,313	800,000	0,048	-0,097
-598,298	353,454	0,053	-0,076
-597,284	81,330	-0,088	-0,069
-596,269	721,803	-0,022	-0,043
-595,255	-67,557	-0,103	-0,029
-594,240	-35,717	0,116	0,045
-593,225	800,000	0,025	0,057
-592,211	-112,902	0,033	-0,005
-591,196	-15,022	-0,162	-0,075
-590,182	-200,000	0,011	0,064
-589,167	-64,243	0,021	0,006
-588,152	-139,188	-0,062	0,005
-587,138	-200,000	-0,025	-0,109
-586,123	800,000	-0,028	-0,085
-585,109	258,031	0,035	-0,044
-584,094	800,000	-0,036	-0,097
-583,079	800,000	0,050	0,149
-582,065	-166,452	0,098	-0,003
-581,050	-112,599	-0,118	0,017
-580,036	23,531	-0,078	0,047
-579,021	-68,186	0,024	0,007
-578,006	765,445	0,067	-0,133
-576,992	-155,237	-0,106	0,005
-575,977	-3,758	0,130	-0,065
-574,963	-118,566	-0,168	-0,021
-573,948	800,000	0,088	0,213
-572,934	-21,997	0,085	-0,037
-571,919	78,971	-0,107	-0,083
-570,904	89,668	0,074	0,059
-569,890	-47,117	0,103	-0,036
-568,875	-138,827	0,119	-0,009
-567,861	40,131	0,057	-0,037
-566,846	276,435	-0,052	0,068
-565,831	769,729	0,050	-0,099
-564,817	246,956	-0,098	0,120
-563,802	29,400	-0,035	-0,021
-562,788	546,655	-0,073	0,126
-561,773	70,374	-0,067	-0,050
-560,758	84,271	0,084	0,066
-559,744	-200,000	-0,028	0,122
-558,729	-200,000	0,031	-0,114
-557,715	-200,000	-0,024	-0,122
-556,700	257,247	0,059	0,073
-555,685	800,000	-0,029	-0,082
-554,671	157,191	0,058	-0,058
-553,656	-6,574	0,085	0,042
-552,642	186,833	-0,025	0,027
-551,627	589,175	0,033	-0,058
-550,612	41,512	-0,101	-0,066
-549,598	-200,000	0,024	-0,083
-548,583	83,822	-0,076	0,060
-547,569	62,537	-0,061	0,044
-546,554	296,903	0,077	-0,103
-545,539	800,000	-0,027	-0,054
-544,525	800,000	0,052	0,148
-543,510	800,000	-0,082	-0,210
-542,496	555,927	-0,056	-0,097
-541,481	229,702	0,058	-0,069
-540,466	-200,000	0,011	-0,055
-539,452	-200,000	0,001	0,106
-538,437	-200,000	-0,008	-0,083
-537,423	-200,000	0,009	0,064
-536,408	123,875	0,073	0,066
-535,393	800,000	0,058	-0,118
-534,379	-53,872	-0,094	0,031
-533,364	133,666	-0,062	0,058
-532,350	-100,437	-0,040	0,007
-531,335	-122,858	0,018	-0,002
-530,321	547,485	-0,035	-0,060
-529,306	-165,196	-0,028	-0,001
-528,291	170,712	-0,030	-0,031
-527,277	255,256	-0,040	-0,050
-526,262	-73,919	0,081	0,021
-525,248	94,310	-0,040	-0,033
-524,233	-200,000	-0,015	0,148
-523,218	-200,000	0,009	0,056
-522,204	-200,000	0,003	-0,094
-521,189	435,131	0,047	0,074
-520,175	539,850	-0,045	-0,079
-519,160	154,570	0,031	-0,031
-518,145	191,904	0,100	-0,109
-517,131	-200,000	0,029	0,137
-516,116	94,672	0,103	0,085
-515,102	800,000	-0,012	0,026
-514,087	434,381	-0,052	-0,081
-513,072	-200,000	-0,044	-0,181
-512,058	-200,000	-0,007	-0,092
-511,043	-134,904	0,079	-0,007
-510,029	-7,710	-0,053	0,026
-509,014	77,846	-0,093	0,072
-507,999	-200,000	0,017	0,196
-506,985	190,187	-0,047	-0,051
-505,970	-200,000	-0,021	-0,070
-504,956	39,067	-0,026	-0,017
-503,941	800,000	-0,039	0,098
-502,926	38,281	0,062	-0,040
-501,912	-200,000	0,011	0,102
-500,897	44,792	0,074	0,049
-499,883	614,814	0,024	0,043
-498,868	5,003	-0,045	-0,024
-497,853	710,204	-0,075	0,143
-496,839	-113,340	0,112	-0,016
-495,824	630,657	0,009	-0,017
-494,810	-200,000	0,022	0,123
-493,795	270,333	-0,033	0,042
-492,781	-66,507	-0,029	0,008
-491,766	273,987	-0,030	-0,039
-490,751	245,553	0,035	-0,042
-489,737	-200,000	0,001	-0,035
-488,722	800,000	-0,033	0,068
-487,708	22,122	0,062	-0,036
-486,693	216,977	0,080	-0,092
-485,678	18,001	0,013	-0,007
-484,664	-200,000	-0,007	0,046
-483,649	-52,828	-0,011	-0,004
-482,635	-33,341	0,099	0,040
-481,620	-13,210	0,110	0,051
-480,605	-200,000	-0,000	-0,159
-479,591	11,564	0,056	0,031
-478,576	-42,654	-0,148	-0,054
-477,562	46,656	0,038	-0,026
-476,547	269,974	-0,036	-0,046
-475,532	63,791	0,084	0,061
-474,518	120,154	-0,030	-0,027
-473,503	800,000	0,066	0,157
-472,489	-130,837	-0,182	0,017
-471,474	-200,000	-0,019	-0,069
-470,459	15,637	-0,156	-0,088
-469,445	-133,875	0,082	-0,007
-468,430	166,964	0,031	0,032
-467,416	-98,759	-0,112	-0,020
-466,401	-200,000	0,006	-0,038
-465,386	-72,155	0,201	-0,053
-464,372	-200,000	0,018	0,080
-463,357	604,462	-0,048	-0,086
-462,343	-200,000	0,003	-0,170
-461,328	-200,000	-0,031	-0,110
-460,313	800,000	0,035	-0,101
-459,299	-29,938	0,067	0,027
-458,284	800,000	0,030	0,060
-457,270	800,000	0,051	-0,129
-456,255	25,379	0,079	-0,047
-455,241	177,085	-0,037	-0,039
-454,226	-43,709	-0,103	-0,037
-453,211	7,190	0,164	0,088
-452,197	553,574	-0,041	0,072
-451,182	-133,290	0,111	-0,010
-450,168	-200,000	-0,039	0,146
-449,153	239,110	-0,075	0,090
-448,138	193,543	0,022	-0,024
-447,124	327,797	0,066	0,092
-446,109	57,650	0,064	0,045
-445,095	-200,000	-0,009	0,115
-444,080	-16,190	0,007	-0,003
-443,065	-200,000	0,024	0,095
-442,051	-200,000	-0,003	0,080
-441,036	-85,954	0,077	-0,017
-440,022	-55,088	-0,059	-0,019
-439,007	-200,000	0,012	-0,228
-437,992	568,312	0,074	-0,131
-436,978	-200,000	-0,018	0,083
-435,963	-200,000	0,012	-0,096
-434,949	-188,949	0,096	-0,001
-433,934	96,731	-0,049	-0,041
-432,919	519,383	-0,085	-0,144
-431,905	772,674	-0,012	-0,023
-430,890	-132,986	-0,029	-0,003
-429,876	-34,301	0,041	-0,016
-428,861	252,011	0,048	-0,058
-427,846	-136,659	0,026	-0,002
-426,832	800,000	-0,017	-0,054
-425,817	393,345	0,033	0,049
-424,803	-30,072	0,182	0,074
-423,788	-47,896	-0,090	-0,031
-422,773	-8,070	0,120	0,058
-421,759	-200,000	0,040	0,163
-420,744	-12,255	0,048	-0,023
-419,730	635,227	-0,021	0,039
-418,715	-106,199	-0,127	-0,020
-417,701	463,147	-0,068	-0,109
-416,686	800,000	-0,040	-0,115
-415,671	-1,970	0,063	0,032
-414,657	-200,000	0,011	-0,100
-413,642	276,821	-0,076	0,098
-412,628	155,901	-0,027	-0,026
-411,613	-200,000	-0,041	-0,200
-410,598	55,890	0,060	0,042
-409,584	427,589	-0,012	-0,019
-408,569	361,617	0,104	0,150
-407,555	442,470	-0,018	-0,029
-406,540	102,573	-0,019	0,016
-405,525	-200,000	-0,006	-0,034
-404,511	800,000	0,033	-0,069
-403,496	-200,000	0,005	-0,127
-402,482	230,891	0,023	0,027
-401,467	-54,563	0,144	-0,047
-400,452	692,599	0,039	0,075
-399,438	-166,320	0,066	-0,002
-398,423	800,000	0,078	-0,219
-397,409	171,540	-0,058	-0,060
-396,394	-43,879	-0,102	-0,037
-395,379	28,090	0,068	-0,041
-394,365	392,679	0,011	0,016
-393,350	-104,731	0,076	-0,013
-392,336	800,000	-0,026	-0,063
-391,321	196,571	-0,067	0,073
-390,306	-200,000	-0,001	0,022
-389,292	-164,881	0,058	-0,002
-388,277	36,646	-0,060	-0,038
-387,263	97,886	0,036	0,029
-386,248	-200,000	0,000	-0,003
-385,233	800,000	0,061	0,127
-384,219	-122,966	-0,129	0,015
-383,204	-23,426	-0,196	-0,084
-382,190	800,000	-0,055	-0,120
-381,175	-138,341	-0,108	0,008
-380,160	630,889	-0,046	-0,083
-379,146	-47,206	0,122	0,043
-378,131	800,000	0,032	-0,072
-377,117	22,472	0,116	0,068
-376,102	4,100	-0,086	0,045
-375,088	317,431	0,074	-0,101
-374,073	-200,000	-0,008	-0,134
-373,058	-35,154	-0,104	-0,040
-372,044	48,661	0,088	0,059
-371,029	-1,140	0,130	0,066
-370,015	-146,507	-0,120	-0,007
-369,000	132,545	-0,181	-0,168
-367,985	-32,671	0,029	-0,011
-366,971	153,908	-0,140	-0,138
-365,956	800,000	0,054	-0,113
-364,942	154,165	-0,054	0,053
-363,927	-93,731	0,018	-0,004
-362,912	-200,000	-0,019	-0,059
-361,898	89,165	-0,036	-0,029
-360,883	800,000	0,040	-0,109
-359,869	195,836	-0,027	-0,029
-358,854	800,000	0,083	0,223
-357,839	-103,374	0,047	-0,008
-356,825	-171,378	0,046	0,001
-355,810	-200,000	0,002	0,061
-354,796	-36,542	-0,102	-0,039
-353,781	112,671	-0,082	0,072
-352,766	-200,000	-0,006	0,086
-351,752	108,672	0,028	0,024
-350,737	116,716	0,014	-0,012
-349,723	800,000	-0,019	0,038
-348,708	262,513	-0,040	0,049
-347,693	800,000	-0,016	-0,033
-346,679	190,300	-0,173	-0,187
-345,664	356,647	-0,077	0,111
-344,650	374,839	-0,055	0,080
-343,635	-86,696	0,013	0,003
-342,620	-82,103	0,087	-0,020
-341,606	35,352	-0,031	0,019
-340,591	74,375	-0,058	-0,044
-339,577	-21,298	-0,090	-0,039
-338,562	90,069	-0,061	-0,049
-337,548	625,119	-0,023	0,042
-336,533	185,518	-0,079	0,085
-335,518	-30,912	0,159	-0,064
-334,504	-172,264	0,077	0,002
-333,489	-7,252	-0,127	-0,062
-332,475	800,000	0,047	0,117
-331,460	16,795	-0,020	-0,011
-330,445	-157,089	0,048	-0,002
-329,431	-38,399	-0,071	-0,027
-328,416	8,850	-0,100	0,054
-327,402	101,348	0,050	-0,042
-326,387	-191,864	0,079	-0,001
-325,372	224,727	-0,042	0,048
-324,358	-33,499	-0,145	-0,057
-323,343	260,287	0,038	0,047
-322,329	800,000	-0,029	-0,088
-321,314	-117,875	-0,086	-0,011
-320,299	-108,187	-0,020	-0,003
-319,285	-144,991	-0,063	-0,004
-318,270	-41,012	-0,136	-0,050
-317,256	34,417	-0,184	-0,115
-316,241	237,808	0,067	-0,079
-315,226	-102,865	0,055	-0,009
-314,212	800,000	-0,058	0,127
-313,197	-90,949	-0,065	0,013
-312,183	-88,039	0,037	0,008
-311,168	-4,855	-0,129	0,064
-310,153	74,720	-0,040	-0,030
-309,139	800,000	0,035	0,085
-308,124	289,882	-0,039	-0,051
-307,110	800,000	0,062	0,144
-306,095	-123,653	0,066	-0,007
-305,080	-58,570	-0,094	0,029
-304,066	-87,722	-0,162	-0,035
-303,051	800,000	0,016	-0,036
-302,037	800,000	0,055	0,141
-301,022	-200,000	0,017	-0,054
-300,008	486,368	0,033	0,055
-298,993	198,333	0,066	0,073
-297,978	-29,301	-0,042	-0,017
-296,964	-28,511	0,124	-0,051
-295,949	800,000	-0,059	-0,136
-294,935	233,452	0,072	-0,085
-293,920	589,575	-0,058	0,102
-292,905	-200,000	0,018	0,085
-291,891	-161,490	-0,063	-0,002
-290,876	11,457	-0,040	-0,022
-289,862	-29,841	0,091	0,037
-288,847	800,000	0,022	-0,044
-287,832	-84,514	0,084	0,019
-286,818	116,137	-0,059	-0,051
-285,803	-154,889	-0,033	-0,002
-284,789	136,547	-0,064	-0,060
-283,774	104,467	0,091	0,076
-282,759	798,291	-0,021	0,042
-281,745	-119,995	-0,075	-0,009
-280,730	569,882	-0,055	-0,097
-279,716	86,492	0,049	0,038
-278,701	800,000	0,044	0,099
-277,686	800,000	-0,017	0,048
-276,672	229,293	0,064	-0,075
-275,657	259,711	-0,028	0,034
-274,643	-64,870	-0,080	0,023
-273,628	-200,000	0,002	0,076
-272,613	332,048	0,068	0,094
-271,599	671,987	0,032	-0,060
-270,584	51,563	0,029	-0,020
-269,570	-74,517	-0,055	-0,014
-268,555	-119,220	-0,052	0,006
-267,540	-200,000	-0,012	-0,059
-266,526	-200,000	0,000	-0,100
-265,511	-200,000	-0,005	-0,087
-264,497	-129,468	0,227	-0,022
-263,482	146,868	-0,118	0,113
-262,467	206,727	-0,070	0,078
-261,453	270,997	-0,041	0,052
-260,438	-144,741	0,101	0,007
-259,424	-92,240	0,072	-0,014
-258,409	754,360	-0,089	-0,173
-257,395	268,648	0,040	-0,050
-256,380	140,447	0,068	-0,065
-255,365	800,000	0,056	0,152
-254,351	800,000	-0,017	-0,034
-253,336	800,000	-0,062	0,156
-252,322	103,900	-0,059	-0,050
-251,307	99,227	-0,070	-0,058
-250,292	587,982	0,059	0,104
-249,278	356,885	0,066	0,094
-248,263	795,700	0,020	-0,039
-247,249	448,058	-0,026	-0,042
-246,234	21,957	-0,037	-0,021
-245,219	-200,000	0,018	-0,110
-244,205	330,104	0,028	0,038
-243,190	-87,771	0,022	-0,005
-242,176	-149,666	0,135	0,008
-241,161	-200,000	0,004	0,069
-240,146	-200,000	0,041	0,189
-239,132	290,663	-0,065	0,085
-238,117	-16,911	-0,147	-0,066
-237,103	4,607	-0,028	-0,015
-236,088	-200,000	-0,001	0,046
-235,073	108,608	0,152	0,129
-234,059	-200,000	-0,012	0,077
-233,044	800,000	-0,026	0,061
-232,030	-161,265	-0,064	-0,002
-231,015	-200,000	0,015	0,130
-230,000	411,100	-0,072	-0,110
-228,986	-57,050	-0,105	-0,033
-227,971	225,606	0,046	-0,053
-226,957	-200,000	-0,020	0,078
-225,942	-111,472	0,074	-0,011
-224,927	63,924	0,014	0,010
-223,913	-94,382	0,132	-0,025
-222,898	85,630	-0,148	0,116
-221,884	35,426	-0,090	-0,056
-220,869	-64,349	0,148	0,043
-219,855	-200,000	-0,010	-0,071
-218,840	318,348	0,175	0,238
-217,825	261,836	-0,046	-0,057
-216,811	-135,592	-0,097	0,008
-215,796	-181,706	-0,101	0,001
-214,782	800,000	-0,017	-0,037
-213,767	453,459	0,026	0,041
-212,752	-66,654	0,043	-0,012
-211,738	-174,491	0,067	-0,001
-210,723	-200,000	-0,007	0,085
-209,709	361,973	0,068	-0,097
-208,694	-200,000	-0,021	0,099
-207,679	642,765	-0,079	0,144
-206,665	-68,950	0,163	0,045
-205,650	-17,222	0,171	0,077
-204,636	800,000	0,026	0,057
-203,621	-200,000	0,013	0,083
-202,606	206,954	0,088	0,098
-201,592	70,238	-0,077	-0,057
-200,577	-40,496	-0,069	-0,026
-199,563	800,000	-0,051	0,110
-198,548	173,778	0,017	0,018
-197,533	5,247	0,047	0,025
-196,519	-14,886	0,060	0,027
-195,504	-200,000	0,003	-0,014
-194,490	136,181	-0,054	0,051
-193,475	149,541	0,056	-0,054
-192,460	246,298	0,048	-0,058
-191,446	467,933	0,084	-0,135
-190,431	-64,331	-0,069	-0,020
-189,417	-2,898	-0,102	-0,051
-188,402	-200,000	-0,016	0,178
-187,387	-200,000	0,015	0,059
-186,373	18,770	-0,016	0,009
-185,358	-200,000	-0,007	0,045
-184,344	65,008	-0,036	-0,026
-183,329	-101,871	0,072	-0,012
-182,315	-42,135	0,098	0,035
-181,300	60,149	-0,204	0,143
-180,285	701,550	-0,064	0,120
-179,271	-98,738	-0,047	0,008
-178,256	-10,018	-0,058	0,028
-177,242	77,152	0,088	0,066
-176,227	-129,135	0,098	0,010
-175,212	-139,913	-0,094	-0,007
-174,198	78,958	0,040	0,031
-173,183	-71,300	0,081	-0,022
-172,169	194,253	0,052	-0,056
-171,154	55,676	-0,073	0,051
-170,139	310,207	-0,107	-0,143
-169,125	715,937	-0,024	-0,045
-168,110	800,000	-0,043	0,089
-167,096	608,068	-0,036	0,064
-166,081	-163,026	0,144	0,005
-165,066	800,000	-0,009	-0,018
-164,052	243,804	-0,051	0,061
-163,037	800,000	-0,057	0,124
-162,023	-5,841	0,121	0,059
-161,008	72,918	-0,013	0,009
-159,993	800,000	-0,033	-0,098
-158,979	124,039	0,058	-0,052
-157,964	194,212	0,041	0,045
-156,950	147,091	-0,123	0,118
-155,935	631,051	0,070	0,127
-154,920	42,975	0,043	0,028
-153,906	-94,494	0,148	0,028
-152,891	409,052	0,029	0,044
-151,877	-200,000	-0,017	0,172
-150,862	-200,000	0,018	-0,071
-149,847	5,114	-0,054	0,028
-148,833	-147,563	0,078	0,005
-147,818	-14,072	-0,038	0,018
-146,804	-153,997	0,142	-0,007
-145,789	-177,360	0,101	0,002
-144,775	-158,404	0,076	0,003
-143,760	57,364	-0,132	0,091
-142,745	-124,272	-0,103	0,011
-141,731	-200,000	-0,010	-0,078
-140,716	-126,074	-0,060	-0,006
-139,702	-200,000	0,049	0,209
-138,687	-200,000	-0,002	-0,024
-137,672	324,924	-0,031	-0,042
-136,658	-200,000	0,003	0,048
-135,643	417,467	0,114	-0,174
-134,629	43,959	-0,033	0,021
-133,614	-12,025	0,149	0,069
-132,599	178,533	0,029	-0,030
-131,585	-200,000	-0,000	0,063
-130,570	800,000	0,032	0,082
-129,556	-200,000	-0,008	0,042
-128,541	-200,000	-0,014	0,046
-127,526	442,240	0,029	0,045
-126,512	-48,479	0,074	0,025
-125,497	330,505	0,081	0,111
-124,483	-200,000	0,002	0,095
-123,468	800,000	-0,017	-0,040
-122,453	-200,000	-0,029	-0,096
-121,439	800,000	-0,058	0,147
-120,424	-200,000	0,005	-0,092
-119,410	396,208	0,043	-0,064
