DTS Sentinel unit serial number:	SN410029Multiplexer serial number:	ORYXHardware model number:	OX2-SRSoftware version number:	ORYX F/W v4,00 Oryx Data Collector v3.7.2.0data status	okinstallation	BH3 CH2differential loss correction	single-endedforward channel	channel 2reverse channel	N/Adate	2023/12/05time	16:37:28forward acquisition time	300,00reverse acquisition time	0,00gamma	499,1914k internal	0,3192k external	0,3192temperature offset calibration	1,0000default loss term (dB/km)	0,3820temperature slope calibration	1,0000multiplexer offset coefficient	1,0000multiplexer slope coefficient	1,0000fibre end	0,00T internal ref (°C)	11,03T ext. ref 1 (°C)	-3,58T ext. ref 2 (°C)	-3,76length (m)	temperature (°C)	Stokes	anti-Stokes-744,400	-200,000	0,004	-0,300
-743,385	800,000	-0,082	0,199
-742,371	21,741	-0,169	-0,100
-741,356	-1,745	-0,149	0,076
-740,342	-102,065	-0,082	-0,014
-739,327	-200,000	-0,022	0,129
-738,312	197,114	0,085	-0,094
-737,298	97,845	-0,193	0,162
-736,283	27,465	-0,116	-0,071
-735,269	44,123	-0,153	0,102
-734,254	101,801	-0,097	-0,082
-733,239	-157,502	-0,406	0,017
-732,225	-50,330	0,155	-0,053
-731,210	618,837	-0,076	0,139
-730,196	800,000	0,020	-0,048
-729,181	-2,413	0,069	-0,035
-728,167	540,642	-0,024	-0,041
-727,152	-18,422	-0,052	0,023
-726,137	137,563	-0,072	-0,069
-725,123	355,348	0,038	-0,055
-724,108	-18,662	-0,049	0,022
-723,094	-200,000	-0,001	-0,063
-722,079	376,864	-0,021	-0,032
-721,064	-17,980	0,040	-0,018
-720,050	31,086	0,122	-0,076
-719,035	-112,902	-0,113	-0,016
-718,021	-47,305	-0,168	-0,059
-717,006	-164,804	-0,028	0,001
-715,991	-200,000	0,033	-0,126
-714,977	142,865	-0,111	0,108
-713,962	91,874	-0,024	0,020
-712,948	-71,460	0,071	0,019
-711,933	800,000	0,038	-0,081
-710,918	45,643	-0,108	-0,073
-709,904	86,196	-0,135	-0,108
-708,889	-48,430	-0,093	-0,033
-707,875	-168,032	0,123	0,003
-706,860	-179,744	0,123	-0,002
-705,845	-200,000	0,002	-0,022
-704,831	41,588	-0,105	-0,069
-703,816	31,695	-0,070	-0,044
-702,802	-38,796	0,076	-0,029
-701,787	800,000	0,045	-0,120
-700,772	347,897	-0,033	0,047
-699,758	-200,000	0,028	0,104
-698,743	800,000	-0,038	-0,090
-697,729	800,000	-0,024	0,060
-696,714	101,726	-0,090	0,076
-695,699	-115,880	-0,180	-0,024
-694,685	73,540	0,053	0,041
-693,670	-38,745	-0,120	-0,046
-692,656	-200,000	0,010	-0,172
-691,641	76,275	-0,015	0,011
-690,627	800,000	-0,042	0,086
-689,612	111,483	-0,020	0,018
-688,597	19,816	0,095	-0,055
-687,583	1,681	0,015	0,008
-686,568	274,914	-0,072	-0,094
-685,554	800,000	-0,049	-0,112
-684,539	-21,558	0,085	0,037
-683,524	-102,632	-0,115	0,020
-682,510	-64,051	0,072	-0,021
-681,495	596,152	0,022	0,040
-680,481	-200,000	-0,051	-0,216
-679,466	-118,806	0,076	-0,010
-678,451	-200,000	-0,001	0,035
-677,437	-51,839	0,045	0,015
-676,422	-200,000	0,001	0,062
-675,408	-200,000	-0,006	0,020
-674,393	-71,121	0,181	0,049
-673,378	-73,024	-0,087	0,023
-672,364	800,000	-0,051	-0,130
-671,349	144,607	0,112	-0,109
-670,335	-5,653	-0,092	-0,046
-669,320	800,000	0,054	-0,113
-668,305	35,412	0,094	0,060
-667,291	800,000	0,020	-0,057
-666,276	-200,000	0,007	0,117
-665,262	-91,589	-0,131	-0,027
-664,247	-13,263	0,030	-0,014
-663,232	-133,494	-0,057	-0,005
-662,218	-15,591	0,150	-0,069
-661,203	237,970	-0,023	0,028
-660,189	54,315	-0,084	-0,059
-659,174	-200,000	0,013	-0,063
-658,159	-200,000	-0,011	-0,043
-657,145	-0,757	-0,055	-0,028
-656,130	381,555	0,039	0,058
-655,116	-144,797	0,050	-0,003
-654,101	300,909	-0,044	-0,059
-653,086	319,887	0,071	-0,098
-652,072	92,204	-0,156	0,127
-651,057	207,749	0,052	-0,059
-650,043	800,000	-0,065	0,152
-649,028	800,000	0,048	0,099
-648,014	-200,000	-0,019	0,139
-646,999	-200,000	-0,000	0,026
-645,984	47,690	-0,057	0,039
-644,970	130,582	-0,063	0,059
-643,955	276,604	-0,104	-0,135
-642,941	87,032	-0,114	-0,091
-641,926	-200,000	-0,026	-0,094
-640,911	139,109	0,027	-0,026
-639,897	800,000	-0,038	0,082
-638,882	167,422	-0,084	-0,087
-637,868	153,229	-0,023	0,023
-636,853	-200,000	0,008	-0,111
-635,838	297,338	0,035	-0,047
-634,824	-200,000	0,005	0,026
-633,809	754,266	-0,030	-0,059
-632,795	-57,111	0,084	-0,027
-631,780	-133,996	-0,092	0,008
-630,765	-100,065	0,012	-0,002
-629,751	148,634	-0,094	-0,092
-628,736	28,028	-0,043	-0,026
-627,722	291,093	-0,050	-0,066
-626,707	-200,000	0,014	0,131
-625,692	800,000	0,040	-0,114
-624,678	5,588	0,124	0,066
-623,663	23,471	-0,105	0,062
-622,649	56,372	0,138	0,097
-621,634	-87,167	-0,015	0,003
-620,619	44,646	-0,061	-0,040
-619,605	349,194	-0,018	-0,026
-618,590	195,057	-0,100	0,111
-617,576	-61,592	-0,044	0,013
-616,561	-200,000	-0,049	-0,000
-615,546	-0,269	-0,054	0,028
-614,532	-200,000	-0,001	-0,020
-613,517	393,290	-0,081	0,123
-612,503	-48,662	-0,107	0,037
-611,488	-132,819	0,080	-0,007
-610,474	-67,462	0,086	0,024
-609,459	776,511	-0,020	-0,040
-608,444	251,913	-0,028	0,035
-607,430	279,347	-0,114	0,148
-606,415	-37,200	0,117	-0,045
-605,401	133,792	0,044	0,042
-604,386	20,075	0,034	-0,020
-603,371	338,103	0,066	-0,094
-602,357	-27,984	-0,019	-0,008
-601,342	232,658	-0,084	0,100
-600,328	18,336	-0,058	0,034
-599,313	-200,000	0,013	0,142
-598,298	400,415	0,042	0,063
-597,284	-153,042	0,184	-0,009
-596,269	-63,649	0,106	-0,031
-595,255	163,306	-0,107	0,109
-594,240	-200,000	-0,000	-0,010
-593,225	147,217	-0,019	0,019
-592,211	-83,840	-0,063	-0,014
-591,196	380,674	0,091	-0,135
-590,182	600,039	-0,084	-0,152
-589,167	15,936	0,043	0,025
-588,152	-15,387	0,052	-0,024
-587,138	47,203	0,041	-0,027
-586,123	365,226	-0,076	-0,112
-585,109	215,495	-0,124	-0,142
-584,094	-200,000	-0,002	0,013
-583,079	-26,626	0,053	-0,022
-582,065	-25,674	0,096	0,041
-581,050	-200,000	-0,015	-0,065
-580,036	-20,180	-0,091	-0,041
-579,021	10,266	-0,149	-0,082
-578,006	-35,106	0,041	0,016
-576,992	800,000	-0,035	-0,091
-575,977	-147,894	-0,127	0,008
-574,963	-200,000	0,028	-0,130
-573,948	-122,296	-0,156	0,018
-572,934	672,192	-0,032	-0,060
-571,919	-77,041	-0,074	0,019
-570,904	800,000	-0,032	0,092
-569,890	149,396	-0,044	-0,043
-568,875	83,691	-0,075	-0,060
-567,861	-161,383	0,086	-0,003
-566,846	319,398	0,060	-0,083
-565,831	374,820	0,038	0,056
-564,817	142,820	0,029	-0,028
-563,802	-35,932	-0,035	-0,014
-562,788	466,629	0,057	-0,093
-561,773	608,427	-0,035	-0,064
-560,758	-81,735	0,076	0,018
-559,744	128,178	-0,120	0,110
-558,729	9,284	0,021	0,011
-557,715	-200,000	-0,007	0,070
-556,700	-42,819	-0,125	-0,046
-555,685	148,229	-0,171	-0,167
-554,671	-200,000	-0,009	0,119
-553,656	-200,000	0,017	0,100
-552,642	-94,776	0,121	0,023
-551,627	37,001	-0,082	-0,053
-550,612	24,038	0,058	-0,035
-549,598	-200,000	0,026	-0,114
-548,583	310,948	0,053	-0,072
-547,569	52,598	-0,133	0,092
-546,554	-156,643	-0,094	0,004
-545,539	-104,156	0,102	0,017
-544,525	569,048	0,026	0,045
-543,510	-93,169	0,053	0,011
-542,496	215,850	-0,025	0,029
-541,481	800,000	0,006	-0,016
-540,466	618,287	-0,074	-0,136
-539,452	-200,000	0,000	0,084
-538,437	26,072	0,006	-0,003
-537,423	-71,041	-0,062	-0,017
-536,408	800,000	-0,035	0,078
-535,393	59,068	-0,111	-0,079
-534,379	-74,330	-0,050	0,013
-533,364	-200,000	0,041	-0,144
-532,350	-50,754	-0,050	-0,017
-531,335	56,428	0,078	-0,055
-530,321	-200,000	0,011	-0,047
-529,306	-30,994	-0,086	0,035
-528,291	-200,000	0,001	-0,019
-527,277	-18,039	-0,130	-0,059
-526,262	130,556	-0,094	0,087
-525,248	800,000	0,025	0,072
-524,233	-72,051	0,067	0,018
-523,218	4,940	-0,025	0,013
-522,204	-200,000	-0,007	0,027
-521,189	82,827	0,066	0,052
-520,175	-151,115	0,088	-0,005
-519,160	-189,309	0,075	0,001
-518,145	101,511	0,020	0,017
-517,131	698,896	0,050	0,095
-516,116	231,142	0,010	-0,012
-515,102	-91,500	-0,105	-0,021
-514,087	800,000	0,008	-0,022
-513,072	-200,000	0,001	-0,015
-512,058	-87,216	-0,031	-0,007
-511,043	37,399	0,067	-0,043
-510,029	-200,000	0,021	0,140
-509,014	-191,030	0,033	-0,000
-507,999	-200,000	0,008	0,051
-506,985	38,288	0,088	-0,057
-505,970	123,110	-0,072	0,065
-504,956	800,000	0,052	-0,163
-503,941	10,368	-0,204	-0,112
-502,926	-200,000	-0,001	0,069
-501,912	469,249	0,046	0,075
-500,897	-154,732	-0,178	0,008
-499,883	-200,000	0,021	0,193
-498,868	-200,000	0,000	-0,030
-497,853	19,365	0,026	-0,015
-496,839	362,245	-0,031	-0,045
-495,824	53,219	0,062	-0,043
-494,810	800,000	-0,005	-0,013
-493,795	-200,000	-0,011	-0,064
-492,781	800,000	0,045	-0,093
-491,766	-200,000	-0,016	-0,116
-490,751	7,323	0,062	0,033
-489,737	800,000	0,024	0,063
-488,722	17,916	0,073	-0,042
-487,708	-33,182	0,094	-0,037
-486,693	-29,530	0,056	-0,023
-485,678	11,332	-0,108	-0,059
-484,664	201,066	-0,094	-0,104
-483,649	184,013	0,028	-0,030
-482,635	54,505	0,093	-0,065
-481,620	49,138	0,058	-0,039
-480,605	800,000	-0,030	-0,074
-479,591	221,236	-0,112	-0,130
-478,576	138,007	-0,028	0,027
-477,562	-200,000	0,022	-0,093
-476,547	316,994	0,056	-0,076
-475,532	-200,000	0,008	-0,197
-474,518	320,208	0,060	-0,082
-473,503	-83,135	0,127	0,029
-472,489	-75,925	0,053	0,013
-471,474	76,116	0,146	-0,112
-470,459	-200,000	0,024	-0,233
-469,445	-39,149	-0,104	0,039
-468,430	-200,000	0,025	-0,091
-467,416	800,000	0,012	0,028
-466,401	29,627	-0,046	0,028
-465,386	31,331	0,211	0,130
-464,372	-200,000	-0,021	-0,080
-463,357	39,590	0,129	-0,083
-462,343	-200,000	-0,057	-0,191
-461,328	433,495	0,063	0,099
-460,313	91,360	0,064	-0,051
-459,299	800,000	-0,040	-0,119
-458,284	-151,087	0,014	0,001
-457,270	800,000	0,015	0,034
-456,255	93,289	-0,047	-0,038
-455,241	-124,904	0,104	-0,011
-454,226	-200,000	0,031	-0,154
-453,211	72,839	-0,100	0,075
-452,197	307,070	0,054	-0,072
-451,182	-200,000	-0,020	0,066
-450,168	-8,327	-0,091	0,044
-449,153	-96,491	-0,040	-0,008
-448,138	800,000	0,007	0,018
-447,124	-65,184	-0,119	-0,034
-446,109	106,773	0,042	-0,036
-445,095	-78,730	0,136	0,033
-444,080	247,529	0,085	0,103
-443,065	293,659	0,062	-0,082
-442,051	10,930	-0,155	-0,085
-441,036	15,480	-0,050	-0,028
-440,022	546,083	-0,060	-0,104
-439,007	-200,000	-0,059	-0,248
-437,992	-73,046	0,085	-0,022
-436,978	93,262	0,149	0,121
-435,963	-200,000	0,046	-0,173
-434,949	470,276	-0,043	0,069
-433,934	-200,000	0,005	-0,022
-432,919	-200,000	0,055	-0,190
-431,905	-70,029	0,069	-0,019
-430,890	152,827	0,043	0,043
-429,876	16,661	0,049	0,028
-428,861	269,577	0,109	-0,138
-427,846	395,337	0,044	0,067
-426,832	-85,465	0,005	-0,001
-425,817	637,322	-0,062	-0,114
-424,803	-59,261	-0,139	0,043
-423,788	116,734	-0,031	-0,028
-422,773	-84,304	-0,097	-0,022
-421,759	-1,296	-0,100	-0,050
-420,744	265,650	0,009	0,012
-419,730	99,926	-0,088	0,073
-418,715	539,117	0,048	-0,083
-417,701	-84,789	-0,033	-0,007
-416,686	-200,000	-0,024	-0,212
-415,671	-200,000	-0,004	-0,035
-414,657	229,256	-0,023	-0,027
-413,642	800,000	-0,032	0,090
-412,628	686,126	-0,014	-0,027
-411,613	800,000	-0,007	-0,014
-410,598	-45,553	-0,078	-0,028
-409,584	-200,000	0,016	0,060
-408,569	-200,000	-0,003	-0,032
-407,555	-41,556	0,134	-0,049
-406,540	278,537	0,035	0,045
-405,525	-27,278	0,038	0,016
-404,511	-200,000	0,004	-0,034
-403,496	26,154	-0,045	-0,027
-402,482	-200,000	-0,017	0,112
-401,467	-200,000	0,037	0,203
-400,452	-200,000	-0,002	0,140
-399,438	109,282	-0,045	0,039
-398,423	76,087	-0,066	-0,050
-397,409	44,646	0,114	0,075
-396,394	224,566	-0,048	-0,056
-395,379	68,404	0,036	-0,026
-394,365	-64,449	0,033	-0,009
-393,350	123,473	-0,105	0,095
-392,336	-111,161	0,034	-0,005
-391,321	94,993	0,078	0,063
-390,306	500,001	-0,040	0,066
-389,292	800,000	-0,033	0,074
-388,277	343,797	-0,033	0,046
-387,263	137,572	0,067	-0,063
-386,248	-200,000	0,028	0,137
-385,233	483,389	-0,053	-0,087
-384,219	309,804	0,091	-0,123
-383,204	-15,227	-0,092	-0,042
-382,190	-200,000	-0,019	0,094
-381,175	-200,000	-0,020	0,086
-380,160	-200,000	0,027	0,093
-379,146	800,000	0,066	0,141
-378,131	-107,167	0,086	-0,014
-377,117	800,000	0,040	-0,086
-376,102	-200,000	-0,013	0,056
-375,088	789,928	-0,030	-0,060
-374,073	800,000	-0,010	0,025
-373,058	476,046	0,013	-0,022
-372,044	56,460	-0,036	-0,025
-371,029	207,655	-0,045	0,050
-370,015	-200,000	0,033	0,115
-369,000	-150,254	0,130	0,007
-367,985	92,422	-0,144	0,116
-366,971	800,000	-0,013	0,027
-365,956	-200,000	0,019	0,109
-364,942	-200,000	0,030	0,191
-363,927	-28,991	0,060	0,025
-362,912	800,000	0,064	0,186
-361,898	123,608	-0,098	0,088
-360,883	-94,349	-0,069	-0,013
-359,869	267,709	0,050	0,063
-358,854	100,630	-0,036	0,030
-357,839	-69,997	0,031	-0,008
-356,825	143,712	-0,042	-0,040
-355,810	195,820	0,089	0,097
-354,796	90,547	-0,148	-0,119
-353,781	-147,046	0,072	0,004
-352,766	48,842	0,013	-0,009
-351,752	152,560	-0,106	-0,104
-350,737	800,000	0,043	-0,125
-349,723	74,337	0,170	0,128
-348,708	197,146	-0,063	-0,069
-347,693	48,255	0,060	-0,040
-346,679	800,000	-0,010	0,032
-345,664	800,000	-0,055	0,149
-344,650	372,236	0,019	-0,028
-343,635	800,000	0,027	-0,071
-342,620	557,598	-0,025	0,044
-341,606	151,157	-0,092	0,089
-340,591	-46,556	-0,122	-0,043
-339,577	-200,000	0,002	-0,128
-338,562	47,153	-0,132	-0,088
-337,548	-53,146	0,090	0,029
-336,533	291,132	-0,073	-0,095
-335,518	177,336	0,129	0,135
-334,504	224,020	0,026	-0,030
-333,489	-142,638	0,040	-0,003
-332,475	-63,056	-0,172	-0,051
-331,460	-127,519	0,066	0,007
-330,445	-18,906	0,043	-0,019
-329,431	800,000	-0,014	0,034
-328,416	22,742	0,095	-0,056
-327,402	-14,511	0,137	-0,063
-326,387	-23,945	0,053	0,023
-325,372	116,252	0,058	0,051
-324,358	78,062	0,128	-0,098
-323,343	800,000	-0,055	-0,114
-322,329	215,280	0,131	0,149
-321,314	78,422	-0,143	0,110
-320,299	274,853	-0,040	-0,051
-319,285	89,154	-0,095	-0,076
-318,270	-48,787	-0,024	-0,008
-317,256	360,794	-0,035	-0,050
-316,241	-186,251	-0,088	-0,001
-315,226	-57,778	0,095	-0,030
-314,212	800,000	0,031	0,072
-313,197	-94,360	0,102	0,020
-312,183	54,845	-0,087	0,060
-311,168	800,000	0,019	-0,047
-310,153	460,185	-0,048	-0,077
-309,139	21,374	0,091	0,053
-308,124	-200,000	0,017	-0,101
-307,110	-200,000	-0,006	0,121
-306,095	209,058	0,057	0,064
-305,080	-94,171	-0,049	0,010
-304,066	351,795	-0,027	-0,038
-303,051	800,000	0,034	-0,078
-302,037	-200,000	0,001	0,096
-301,022	393,081	-0,037	-0,056
-300,008	67,744	-0,047	0,035
-298,993	-200,000	0,004	0,066
-297,978	-82,422	0,160	-0,037
-296,964	44,532	-0,046	0,030
-295,949	-84,344	0,061	-0,014
-294,935	-83,918	0,130	0,029
-293,920	262,420	-0,013	-0,016
-292,905	215,383	0,065	0,075
-291,891	-101,402	0,171	0,030
-290,876	72,478	0,038	0,028
-289,862	-200,000	-0,010	-0,032
-288,847	-200,000	0,014	-0,143
-287,832	-200,000	-0,009	0,073
-286,818	-200,000	-0,010	-0,049
-285,803	16,364	0,087	0,049
-284,789	287,860	0,053	0,069
-283,774	-15,466	0,122	0,055
-282,759	800,000	-0,045	0,129
-281,745	-117,254	-0,102	0,013
-280,730	295,063	0,081	-0,107
-279,716	-200,000	0,018	0,099
-278,701	-56,916	-0,061	0,019
-277,686	50,954	-0,075	0,051
-276,672	-70,501	-0,089	-0,024
-275,657	-51,916	0,105	-0,035
-274,643	119,034	-0,066	0,058
-273,628	256,938	-0,078	-0,096
-272,613	-200,000	-0,034	-0,113
-271,599	-38,900	-0,104	0,039
-270,584	444,512	0,067	0,105
-269,570	15,067	0,003	0,002
-268,555	452,339	0,032	-0,050
-267,540	-159,748	-0,167	0,006
-266,526	445,908	-0,099	-0,156
-265,511	-200,000	-0,021	0,154
-264,497	-200,000	-0,004	0,100
-263,482	-192,600	0,088	-0,001
-262,467	273,400	0,096	0,122
-261,453	-76,834	-0,029	0,007
-260,438	-200,000	0,000	-0,069
-259,424	-154,420	0,110	-0,005
-258,409	321,142	-0,017	0,024
-257,395	203,884	-0,027	0,030
-256,380	-3,310	0,121	-0,060
-255,365	191,502	-0,073	-0,079
-254,351	13,250	0,095	-0,052
-253,336	22,381	0,037	-0,022
-252,322	-131,277	-0,031	0,003
-251,307	800,000	0,026	-0,078
-250,292	69,953	-0,030	0,022
-249,278	49,064	0,112	0,075
-248,263	-72,783	-0,139	0,036
-247,249	800,000	0,020	0,055
-246,234	800,000	0,014	-0,030
-245,219	-7,078	-0,044	0,021
-244,205	250,355	0,047	-0,057
-243,190	46,399	-0,220	0,145
-242,176	-200,000	0,018	0,167
-241,161	-121,549	0,155	-0,018
-240,146	-66,886	0,057	0,016
-239,132	-200,000	-0,007	-0,100
-238,117	83,637	-0,163	-0,127
-237,103	-200,000	-0,011	-0,111
-236,088	59,686	0,100	0,070
-235,073	-134,725	0,066	-0,006
-234,059	-200,000	0,022	0,089
-233,044	4,362	-0,101	0,053
-232,030	-200,000	0,006	-0,055
-231,015	97,945	0,117	-0,096
-230,000	-135,548	0,019	-0,002
-228,986	18,437	0,020	-0,012
-227,971	800,000	0,035	0,100
-226,957	800,000	0,030	0,072
-225,942	213,104	-0,061	0,069
-224,927	155,163	0,029	0,029
-223,913	616,746	-0,045	-0,082
-222,898	47,432	-0,024	0,016
-221,884	691,257	-0,046	0,086
-220,869	411,908	0,029	0,044
-219,855	577,383	0,022	0,039
-218,840	-188,337	0,121	0,001
-217,825	-200,000	0,006	-0,039
-216,811	-200,000	0,003	0,086
-215,796	54,434	0,068	-0,047
-214,782	32,753	0,024	-0,015
-213,767	-200,000	-0,005	-0,096
-212,752	800,000	0,074	0,197
-211,738	327,003	0,042	0,058
-210,723	748,624	0,034	0,066
-209,709	-200,000	0,001	0,037
-208,694	-100,029	-0,074	0,013
-207,679	115,272	-0,052	-0,046
-206,665	94,442	0,026	-0,021
-205,650	-91,513	0,102	0,021
-204,636	-12,611	0,031	-0,014
-203,621	-200,000	0,023	0,101
-202,606	-200,000	0,036	-0,121
-201,592	103,328	0,079	-0,066
-200,577	-200,000	-0,018	-0,067
-199,563	800,000	-0,042	-0,103
-198,548	-49,756	0,046	0,015
-197,533	142,505	0,035	0,034
-196,519	-6,528	-0,117	0,057
-195,504	-200,000	0,010	0,100
-194,490	-48,051	-0,018	-0,006
-193,475	-200,000	0,001	-0,086
-192,460	18,207	-0,067	0,038
-191,446	-128,219	0,073	-0,007
-190,431	-41,590	0,027	-0,010
-189,417	800,000	-0,028	-0,065
-188,402	-32,761	0,091	-0,036
-187,387	76,382	-0,057	-0,043
-186,373	-9,035	-0,079	0,038
-185,358	208,828	-0,018	0,020
-184,344	-12,034	-0,047	0,022
-183,329	280,921	0,084	0,108
-182,315	800,000	0,034	0,072
-181,300	293,423	0,023	-0,030
-180,285	387,910	-0,051	0,076
-179,271	-192,951	-0,079	-0,000
-178,256	-200,000	0,007	0,028
-177,242	155,662	0,050	-0,049
-176,227	-200,000	-0,014	0,073
-175,212	83,183	0,089	0,069
-174,198	-200,000	-0,020	0,138
-173,183	190,380	-0,046	0,049
-172,169	305,374	-0,074	0,098
-171,154	-80,159	-0,101	0,024
-170,139	73,822	0,153	0,114
-169,125	-119,796	-0,130	-0,016
-168,110	228,009	0,090	0,105
-167,096	33,942	-0,098	0,061
-166,081	-200,000	0,034	0,126
-165,066	-150,594	-0,170	-0,009
-164,052	-90,610	0,039	-0,008
-163,037	334,703	0,070	-0,097
-162,023	85,162	0,024	0,019
-161,008	715,775	-0,040	-0,075
-159,993	115,838	0,049	0,042
-158,979	66,202	-0,071	-0,052
-157,964	83,121	-0,061	-0,047
-156,950	66,955	0,055	-0,040
-155,935	-200,000	0,031	0,152
-154,920	-29,537	-0,084	0,034
-153,906	22,676	0,100	0,058
-152,891	800,000	-0,086	0,237
-151,877	-200,000	0,023	-0,155
-150,862	800,000	-0,065	-0,134
-149,847	-96,753	-0,036	0,007
-148,833	-53,472	0,129	-0,042
-147,818	179,194	-0,068	-0,071
-146,804	11,145	0,082	0,044
-145,789	244,654	0,059	0,071
-144,775	800,000	-0,086	-0,178
-143,760	669,121	-0,041	-0,076
-142,745	-99,051	-0,115	-0,021
-141,731	-26,996	-0,153	0,063
-140,716	-10,712	-0,087	-0,041
-139,702	231,086	-0,028	-0,033
-138,687	779,563	0,041	-0,080
-137,672	178,260	-0,145	-0,151
-136,658	320,506	-0,115	0,155
-135,643	46,169	0,034	-0,023
-134,629	-200,000	-0,005	0,068
-133,614	-13,868	-0,078	-0,036
-132,599	298,257	-0,119	0,156
-131,585	800,000	0,034	0,087
-130,570	-80,626	-0,118	0,028
-129,556	-141,170	0,043	-0,003
-128,541	-130,455	-0,161	-0,015
-127,526	-147,390	-0,078	0,005
-126,512	-200,000	-0,023	0,083
-125,497	-134,664	-0,062	-0,005
-124,483	61,430	-0,111	-0,079
-123,468	800,000	-0,017	0,048
-122,453	800,000	-0,016	0,038
-121,439	569,229	0,038	-0,066
-120,424	49,700	0,139	-0,093
-119,410	-146,383	0,105	0,006
-118,395	800,000	0,026	0,079
-117,380	800,000	-0,063	0,133
