DTS Sentinel unit serial number:	SN410029Multiplexer serial number:	ORYXHardware model number:	OX2-SRSoftware version number:	ORYX F/W v4,00 Oryx Data Collector v3.7.2.0data status	okinstallation	BH3 CH2differential loss correction	single-endedforward channel	channel 2reverse channel	N/Adate	2023/12/06time	02:47:28forward acquisition time	300,00reverse acquisition time	0,00gamma	499,1914k internal	0,3197k external	0,3197temperature offset calibration	1,0000default loss term (dB/km)	0,3820temperature slope calibration	1,0000multiplexer offset coefficient	1,0000multiplexer slope coefficient	1,0000fibre end	0,00T internal ref (°C)	8,98T ext. ref 1 (°C)	-5,91T ext. ref 2 (°C)	-5,98length (m)	temperature (°C)	Stokes	anti-Stokes-744,400	434,869	-0,089	-0,141
-743,385	-124,055	-0,281	0,032
-742,371	90,833	0,115	-0,094
-741,356	-56,073	-0,305	0,098
-740,342	21,765	-0,071	-0,042
-739,327	59,782	-0,158	0,113
-738,312	24,734	-0,126	-0,076
-737,298	-133,869	-0,345	-0,031
-736,283	70,919	0,154	-0,116
-735,269	-123,686	-0,255	0,029
-734,254	-39,017	0,052	-0,020
-733,239	-21,193	-0,358	-0,158
-732,225	27,910	0,093	-0,057
-731,210	158,488	0,163	0,165
-730,196	-200,000	-0,007	0,093
-729,181	224,438	0,060	-0,071
-728,167	-48,858	-0,048	-0,017
-727,152	-11,174	0,102	0,049
-726,137	250,312	-0,069	-0,086
-725,123	-65,507	-0,134	-0,039
-724,108	61,211	0,042	-0,030
-723,094	346,940	-0,025	0,036
-722,079	206,795	-0,057	-0,065
-721,064	8,505	-0,174	0,095
-720,050	-200,000	0,013	-0,062
-719,035	132,830	-0,026	-0,024
-718,021	-200,000	-0,038	0,123
-717,006	-186,807	-0,094	0,001
-715,991	800,000	-0,059	0,165
-714,977	-96,533	-0,119	0,023
-713,962	-200,000	-0,005	-0,084
-712,948	217,003	-0,069	0,080
-711,933	184,562	-0,083	-0,089
-710,918	290,703	0,106	-0,141
-709,904	152,161	-0,049	0,049
-708,889	800,000	-0,065	-0,134
-707,875	800,000	-0,054	-0,145
-706,860	-200,000	0,005	-0,069
-705,845	434,624	-0,027	0,043
-704,831	800,000	0,052	0,118
-703,816	-171,782	-0,058	0,001
-702,802	-97,159	-0,055	0,010
-701,787	112,915	0,099	0,087
-700,772	774,138	0,022	0,044
-699,758	754,303	-0,060	0,118
-698,743	-200,000	-0,017	0,097
-697,729	13,982	-0,058	0,032
-696,714	305,250	-0,065	0,087
-695,699	800,000	0,008	-0,023
-694,685	385,914	-0,057	-0,085
-693,670	-200,000	-0,017	0,068
-692,656	55,681	-0,103	0,073
-691,641	255,573	0,070	0,087
-690,627	272,245	0,080	0,103
-689,612	126,640	0,031	0,028
-688,597	-200,000	0,011	0,041
-687,583	70,583	-0,101	-0,076
-686,568	314,196	0,013	0,018
-685,554	-102,843	0,102	-0,018
-684,539	-126,770	-0,085	-0,009
-683,524	593,264	-0,056	0,102
-682,510	466,501	0,037	-0,060
-681,495	39,230	-0,148	-0,096
-680,481	420,282	-0,017	-0,026
-679,466	-200,000	0,008	-0,141
-678,451	54,580	-0,092	-0,064
-677,437	46,092	0,022	-0,015
-676,422	140,450	-0,086	0,082
-675,408	800,000	-0,044	-0,123
-674,393	409,094	-0,102	-0,158
-673,378	12,762	-0,084	0,047
-672,364	490,461	-0,051	-0,085
-671,349	255,425	-0,138	0,172
-670,335	-54,382	-0,037	0,012
-669,320	-38,712	-0,123	-0,047
-668,305	800,000	0,030	0,080
-667,291	-200,000	0,005	0,097
-666,276	10,870	0,034	0,019
-665,262	800,000	0,090	-0,213
-664,247	-6,174	0,154	0,076
-663,232	-24,017	-0,186	-0,080
-662,218	800,000	-0,080	-0,171
-661,203	-78,832	0,161	-0,040
-660,189	-200,000	0,006	0,020
-659,174	-45,842	-0,212	-0,076
-658,159	800,000	-0,027	0,074
-657,145	-19,230	0,078	0,035
-656,130	16,823	-0,082	-0,047
-655,116	304,213	-0,044	-0,059
-654,101	-200,000	-0,012	0,049
-653,086	435,872	0,092	0,145
-652,072	772,822	-0,085	-0,169
-651,057	-200,000	0,006	-0,060
-650,043	-87,131	-0,080	0,018
-649,028	-200,000	0,003	-0,066
-648,014	-78,388	-0,134	0,033
-646,999	311,040	0,072	0,098
-645,984	-127,490	0,059	-0,006
-644,970	13,318	0,016	-0,009
-643,955	-98,470	0,040	-0,007
-642,941	-200,000	0,034	0,117
-641,926	-200,000	0,036	-0,243
-640,911	-38,026	-0,057	-0,022
-639,897	-1,082	0,124	-0,063
-638,882	-5,648	-0,118	-0,059
-637,868	800,000	-0,036	0,076
-636,853	262,670	-0,085	-0,108
-635,838	102,022	0,027	0,023
-634,824	-200,000	-0,035	-0,113
-633,809	-200,000	0,004	0,062
-632,795	800,000	0,058	0,174
-631,780	800,000	-0,013	0,030
-630,765	11,744	0,123	-0,068
-629,751	68,794	-0,151	-0,112
-628,736	-200,000	0,030	-0,126
-627,722	553,075	-0,011	0,020
-626,707	-50,934	-0,048	0,016
-625,692	-39,905	0,046	-0,017
-624,678	663,966	0,028	-0,052
-623,663	455,962	0,025	0,040
-622,649	800,000	0,070	-0,140
-621,634	-200,000	0,019	-0,117
-620,619	-200,000	-0,009	0,091
-619,605	320,274	0,042	0,058
-618,590	-114,629	0,064	-0,009
-617,576	-172,947	0,131	0,003
-616,561	-200,000	-0,005	-0,094
-615,546	-200,000	0,009	-0,184
-614,532	309,312	0,067	-0,091
-613,517	226,829	-0,041	-0,049
-612,503	-200,000	0,018	-0,078
-611,488	-110,675	-0,089	0,013
-610,474	39,667	0,026	-0,017
-609,459	800,000	0,022	-0,051
-608,444	-200,000	-0,019	-0,070
-607,430	305,316	0,076	-0,103
-606,415	586,300	0,023	-0,041
-605,401	178,700	-0,119	-0,126
-604,386	62,675	0,095	0,069
-603,371	15,083	0,097	-0,055
-602,357	695,017	0,021	-0,041
-601,342	-103,940	0,044	0,007
-600,328	800,000	0,060	-0,135
-599,313	24,225	-0,064	0,038
-598,298	53,010	-0,044	-0,030
-597,284	-92,635	-0,120	-0,024
-596,269	-139,474	-0,008	-0,001
-595,255	-200,000	-0,016	-0,084
-594,240	778,885	-0,022	-0,043
-593,225	180,072	-0,027	-0,028
-592,211	319,892	-0,062	-0,085
-591,196	-200,000	-0,017	-0,075
-590,182	-84,626	-0,198	-0,045
-589,167	800,000	-0,045	0,119
-588,152	93,576	-0,020	-0,016
-587,138	-160,681	-0,104	-0,004
-586,123	-114,468	0,161	0,022
-585,109	-200,000	-0,008	0,026
-584,094	-200,000	0,025	-0,094
-583,079	155,340	-0,082	-0,082
-582,065	-81,675	0,099	-0,023
-581,050	50,836	0,067	0,046
-580,036	86,942	-0,022	0,017
-579,021	-73,712	-0,124	0,032
-578,006	-81,225	-0,075	-0,018
-576,992	-25,552	-0,078	-0,033
-575,977	-200,000	0,018	0,150
-574,963	363,597	0,021	0,030
-573,948	-151,841	-0,059	-0,003
-572,934	-43,514	0,049	-0,018
-571,919	800,000	-0,015	0,045
-570,904	56,248	0,154	-0,108
-569,890	111,019	-0,066	-0,058
-568,875	-200,000	-0,007	-0,049
-567,861	-11,122	0,144	0,068
-566,846	747,726	0,086	0,169
-565,831	-200,000	-0,005	0,199
-564,817	175,518	-0,065	0,068
-563,802	778,280	0,077	-0,152
-562,788	511,503	-0,041	-0,069
-561,773	113,870	-0,062	0,054
-560,758	-200,000	-0,008	-0,109
-559,744	-97,806	-0,104	0,019
-558,729	-11,625	0,093	0,044
-557,715	-158,372	-0,124	-0,005
-556,700	-77,736	0,079	0,020
-555,685	316,095	0,046	-0,063
-554,671	800,000	0,027	-0,067
-553,656	85,201	0,057	0,045
-552,642	-200,000	0,053	-0,187
-551,627	106,050	-0,122	0,104
-550,612	-27,051	-0,062	0,026
-549,598	-78,036	0,088	-0,022
-548,583	766,934	-0,053	-0,105
-547,569	-37,428	0,172	-0,066
-546,554	-200,000	0,004	0,051
-545,539	673,188	-0,047	0,088
-544,525	-123,376	-0,072	-0,008
-543,510	-47,839	-0,116	-0,040
-542,496	-200,000	-0,042	-0,178
-541,481	434,445	0,030	-0,048
-540,466	40,463	-0,097	-0,063
-539,452	-131,823	0,089	0,008
-538,437	800,000	-0,037	-0,074
-537,423	234,393	0,117	0,140
-536,408	-200,000	-0,015	-0,090
-535,393	-200,000	-0,003	-0,104
-534,379	460,154	0,101	-0,164
-533,364	-55,898	0,106	-0,034
-532,350	-200,000	-0,006	0,086
-531,335	-200,000	-0,011	0,064
-530,321	-97,191	0,099	0,018
-529,306	800,000	0,031	-0,070
-528,291	-64,295	-0,007	-0,002
-527,277	343,780	-0,068	0,096
-526,262	332,858	-0,034	-0,048
-525,248	-200,000	0,014	0,058
-524,233	-200,000	0,006	0,024
-523,218	-144,024	0,130	0,009
-522,204	799,056	0,033	-0,065
-521,189	424,527	-0,099	0,154
-520,175	800,000	-0,034	0,072
-519,160	-68,598	-0,149	0,041
-518,145	16,531	-0,060	-0,034
-517,131	800,000	0,029	0,085
-516,116	499,530	0,057	0,095
-515,102	800,000	0,022	-0,049
-514,087	-200,000	0,053	0,179
-513,072	-68,461	-0,088	-0,025
-512,058	-200,000	-0,006	-0,112
-511,043	-109,007	-0,048	-0,007
-510,029	48,744	0,128	-0,087
-509,014	-119,180	0,040	0,005
-507,999	-102,782	-0,061	0,010
-506,985	-13,104	0,048	0,022
-505,970	328,809	-0,062	-0,087
-504,956	16,271	0,060	0,034
-503,941	-77,308	0,012	-0,003
-502,926	-22,591	-0,081	-0,035
-501,912	448,377	0,057	0,090
-500,897	-200,000	-0,065	-0,000
-499,883	-200,000	0,022	-0,144
-498,868	399,536	-0,034	-0,052
-497,853	62,538	0,108	-0,078
-496,839	-99,891	-0,066	0,012
-495,824	800,000	0,054	0,134
-494,810	800,000	0,041	-0,103
-493,795	800,000	-0,027	0,061
-492,781	-200,000	0,015	0,059
-491,766	-200,000	0,004	0,055
-490,751	-17,972	-0,079	-0,036
-489,737	800,000	0,054	0,118
-488,722	-67,531	0,097	-0,027
-487,708	-92,831	0,112	-0,022
-486,693	10,739	0,043	-0,024
-485,678	227,873	0,131	0,154
-484,664	-97,750	-0,048	0,009
-483,649	800,000	0,023	0,048
-482,635	-18,706	0,259	-0,116
-481,620	-32,112	-0,130	0,052
-480,605	80,154	0,042	0,033
-479,591	-82,983	-0,163	0,038
-478,576	-199,807	-0,043	-0,000
-477,562	-33,719	-0,063	0,025
-476,547	-200,000	-0,000	-0,077
-475,532	438,229	-0,076	0,119
-474,518	126,747	0,078	0,071
-473,503	-117,618	0,024	-0,003
-472,489	-48,171	0,092	-0,032
-471,474	133,143	0,021	-0,020
-470,459	-17,381	-0,113	-0,051
-469,445	-200,000	0,005	0,037
-468,430	-121,702	0,085	0,010
-467,416	117,474	-0,032	-0,028
-466,401	81,516	0,071	0,055
-465,386	800,000	-0,025	-0,059
-464,372	153,470	0,063	0,062
-463,357	523,478	-0,070	-0,118
-462,343	-200,000	0,013	-0,073
-461,328	-200,000	-0,006	-0,050
-460,313	-200,000	0,006	0,096
-459,299	-25,388	0,074	0,031
-458,284	800,000	-0,053	0,118
-457,270	232,680	0,037	0,043
-456,255	376,792	-0,093	0,137
-455,241	406,656	-0,044	-0,068
-454,226	-57,872	-0,198	0,062
-453,211	-200,000	-0,012	-0,047
-452,197	-200,000	0,025	-0,094
-451,182	-200,000	-0,001	-0,004
-450,168	-184,420	-0,100	0,001
-449,153	-200,000	0,033	0,129
-448,138	-158,486	-0,120	-0,005
-447,124	-200,000	-0,017	0,122
-446,109	91,799	-0,060	0,048
-445,095	-59,465	0,182	0,056
-444,080	-200,000	-0,001	0,148
-443,065	-200,000	-0,022	0,121
-442,051	-5,091	0,087	-0,043
-441,036	800,000	-0,037	-0,114
-440,022	800,000	-0,055	0,113
-439,007	211,217	-0,043	-0,049
-437,992	423,924	0,107	-0,167
-436,978	-15,986	0,231	0,105
-435,963	135,452	0,035	0,033
-434,949	794,121	0,026	0,053
-433,934	800,000	0,024	-0,052
-432,919	161,725	-0,064	0,064
-431,905	49,151	0,063	0,042
-430,890	-200,000	0,002	-0,060
-429,876	-51,631	0,085	0,028
-428,861	-119,500	-0,056	0,007
-427,846	-200,000	-0,011	-0,124
-426,832	-200,000	0,007	-0,102
-425,817	552,372	-0,055	0,095
-424,803	800,000	-0,044	-0,113
-423,788	229,079	-0,052	-0,061
-422,773	395,744	0,061	0,092
-421,759	-200,000	-0,012	-0,083
-420,744	-21,635	-0,014	-0,006
-419,730	-118,711	-0,111	-0,014
-418,715	-200,000	0,009	0,052
-417,701	800,000	-0,020	0,044
-416,686	32,459	0,121	0,075
-415,671	196,965	0,123	0,135
-414,657	-50,286	-0,038	0,013
-413,642	298,974	0,088	0,117
-412,628	800,000	-0,052	0,104
-411,613	7,620	-0,192	-0,103
-410,598	301,279	-0,015	0,020
-409,584	583,804	0,044	0,077
-408,569	-32,936	0,063	-0,025
-407,555	90,955	-0,140	-0,112
-406,540	39,526	0,050	-0,032
-405,525	-170,130	0,080	0,002
-404,511	-70,496	-0,078	0,021
-403,496	67,179	0,034	0,025
-402,482	-112,208	-0,109	-0,016
-401,467	800,000	0,073	0,178
-400,452	76,376	-0,020	-0,015
-399,438	-48,236	0,067	-0,023
-398,423	800,000	-0,038	0,082
-397,409	-67,017	-0,047	0,013
-396,394	92,114	0,129	0,104
-395,379	-119,894	-0,049	-0,006
-394,365	744,825	0,031	-0,061
-393,350	97,970	0,032	-0,026
-392,336	-200,000	0,012	0,142
-391,321	59,467	-0,106	0,075
-390,306	75,208	-0,093	-0,070
-389,292	52,194	-0,085	0,058
-388,277	800,000	-0,046	0,122
-387,263	128,239	0,088	0,080
-386,248	219,496	0,093	0,107
-385,233	-117,562	-0,165	-0,021
-384,219	-18,927	-0,083	0,037
-383,204	-200,000	0,009	-0,095
-382,190	-200,000	0,003	-0,172
-381,175	457,438	0,045	0,072
-380,160	175,338	0,102	-0,107
-379,146	307,867	0,081	-0,109
-378,131	-200,000	0,016	-0,075
-377,117	634,744	-0,043	-0,079
-376,102	800,000	0,025	-0,055
-375,088	111,423	-0,043	-0,037
-374,073	-51,186	-0,100	0,033
-373,058	-55,393	0,087	-0,028
-372,044	-200,000	0,000	0,087
-371,029	-69,188	0,070	0,019
-370,015	60,586	-0,094	-0,067
-369,000	-42,713	-0,109	-0,040
-367,985	-86,813	0,059	0,013
-366,971	-12,991	-0,060	-0,028
-365,956	-23,375	-0,104	0,045
-364,942	-148,234	0,112	-0,007
-363,927	-200,000	-0,006	-0,088
-362,912	6,809	-0,070	0,037
-361,898	186,468	-0,054	0,058
-360,883	-200,000	0,064	0,000
-359,869	-105,246	-0,076	-0,012
-358,854	800,000	0,070	0,176
-357,839	-200,000	-0,014	-0,054
-356,825	156,339	0,041	0,041
-355,810	-200,000	0,005	0,196
-354,796	-200,000	-0,004	-0,022
-353,781	-200,000	-0,035	-0,113
-352,766	280,725	0,087	-0,112
-351,752	-8,624	-0,053	0,025
-350,737	57,098	0,140	0,098
-349,723	31,995	0,094	0,058
-348,708	800,000	-0,030	-0,075
-347,693	-200,000	-0,012	-0,197
-346,679	-200,000	-0,002	-0,117
-345,664	-1,366	0,034	-0,017
-344,650	-59,621	-0,030	0,009
-343,635	8,256	0,013	-0,007
-342,620	447,212	-0,047	0,075
-341,606	-78,099	-0,034	0,008
-340,591	52,118	0,072	-0,049
-339,577	-94,635	-0,095	-0,018
-338,562	-33,640	-0,112	0,044
-337,548	364,739	0,019	0,028
-336,533	512,589	-0,028	0,048
-335,518	94,365	-0,053	0,043
-334,504	225,342	0,071	0,082
-333,489	-10,554	0,055	0,026
-332,475	81,572	-0,161	-0,124
-331,460	-200,000	0,019	-0,142
-330,445	-72,259	-0,037	0,010
-329,431	800,000	0,008	0,023
-328,416	27,267	-0,066	0,039
-327,402	800,000	0,017	0,043
-326,387	25,001	-0,087	0,051
-325,372	235,893	-0,063	0,075
-324,358	263,481	-0,054	0,068
-323,343	27,103	-0,119	-0,071
-322,329	-200,000	0,004	0,068
-321,314	-200,000	-0,007	-0,041
-320,299	-200,000	0,019	0,092
-319,285	55,033	0,102	0,071
-318,270	174,930	0,032	-0,033
-317,256	-200,000	-0,010	-0,050
-316,241	-200,000	0,002	-0,082
-315,226	55,121	0,090	0,062
-314,212	-200,000	-0,016	0,137
-313,197	-200,000	0,011	-0,102
-312,183	404,325	0,072	0,110
-311,168	-84,645	0,113	-0,025
-310,153	-195,396	-0,134	-0,001
-309,139	13,875	-0,015	0,008
-308,124	759,969	-0,031	-0,060
-307,110	143,203	-0,054	0,051
-306,095	94,440	0,083	-0,067
-305,080	-200,000	0,013	0,070
-304,066	124,304	0,055	-0,049
-303,051	-146,405	-0,076	-0,005
-302,037	202,616	-0,061	-0,068
-301,022	-25,646	0,141	0,059
-300,008	-200,000	0,016	0,174
-298,993	800,000	0,041	0,093
-297,978	800,000	-0,023	0,063
-296,964	-200,000	0,037	0,273
-295,949	800,000	0,043	0,099
-294,935	-100,025	-0,111	-0,020
-293,920	-200,000	0,007	-0,061
-292,905	-200,000	0,014	0,108
-291,891	-74,994	0,069	0,018
-290,876	68,257	0,105	0,077
-289,862	69,817	0,055	-0,041
-288,847	63,439	-0,077	0,055
-287,832	-26,514	0,087	0,036
-286,818	-94,500	0,082	-0,016
-285,803	-74,167	-0,033	0,008
-284,789	800,000	0,013	0,029
-283,774	-103,985	-0,038	0,006
-282,759	32,569	0,020	-0,012
-281,745	-41,841	-0,018	0,007
-280,730	166,289	-0,104	-0,106
-279,716	152,274	0,073	-0,071
-278,701	33,902	0,109	0,068
-277,686	557,817	0,052	0,090
-276,672	-200,000	-0,016	0,079
-275,657	800,000	-0,040	-0,107
-274,643	35,274	-0,090	-0,056
-273,628	85,726	-0,040	-0,032
-272,613	-102,727	-0,128	-0,022
-271,599	421,286	-0,046	0,071
-270,584	-44,150	-0,109	-0,039
-269,570	-63,531	-0,099	0,029
-268,555	321,086	0,055	0,075
-267,540	800,000	-0,027	0,073
-266,526	744,210	0,033	0,063
-265,511	279,355	0,092	-0,117
-264,497	-200,000	-0,002	-0,128
-263,482	-101,627	0,123	-0,021
-262,467	180,977	-0,092	0,097
-261,453	800,000	0,019	-0,047
-260,438	79,047	0,012	0,009
-259,424	800,000	-0,026	-0,073
-258,409	-200,000	-0,006	-0,099
-257,395	-200,000	-0,020	0,134
-256,380	-200,000	-0,001	0,005
-255,365	209,450	-0,061	-0,069
-254,351	-153,311	0,074	-0,004
-253,336	59,542	-0,042	-0,029
-252,322	-8,949	-0,111	0,053
-251,307	-42,290	-0,049	-0,018
-250,292	-200,000	0,026	0,102
-249,278	57,878	-0,083	0,058
-248,263	-57,129	-0,064	-0,020
-247,249	437,378	0,049	0,076
-246,234	383,062	0,047	0,069
-245,219	72,031	-0,064	-0,047
-244,205	800,000	0,033	-0,083
-243,190	-200,000	0,020	0,181
-242,176	800,000	-0,037	-0,114
-241,161	51,199	0,058	-0,039
-240,146	2,743	0,072	-0,037
-239,132	27,412	0,069	0,042
-238,117	-112,194	-0,157	0,022
-237,103	800,000	0,006	-0,013
-236,088	197,705	-0,082	-0,089
-235,073	230,569	0,071	-0,083
-234,059	-200,000	0,000	-0,007
-233,044	-69,038	-0,001	-0,000
-232,030	39,653	0,109	0,070
-231,015	800,000	-0,100	-0,212
-230,000	-39,388	-0,027	0,010
-228,986	-200,000	0,003	0,060
-227,971	-7,520	0,138	-0,067
-226,957	800,000	-0,042	0,109
-225,942	-23,436	-0,063	-0,027
-224,927	-59,643	-0,131	-0,040
-223,913	-200,000	-0,010	-0,089
-222,898	-200,000	-0,020	-0,190
-221,884	-200,000	-0,021	0,130
-220,869	116,152	0,144	-0,126
-219,855	800,000	0,040	-0,087
-218,840	800,000	0,053	0,128
-217,825	-200,000	-0,003	-0,024
-216,811	51,228	-0,080	-0,054
-215,796	-200,000	0,009	-0,050
-214,782	-200,000	0,001	-0,126
-213,767	350,184	-0,007	0,009
-212,752	221,968	0,084	0,097
-211,738	234,193	0,081	0,095
-210,723	56,721	0,021	-0,015
-209,709	-200,000	0,025	-0,106
-208,694	60,928	-0,053	-0,037
-207,679	193,794	0,030	-0,032
-206,665	-41,604	-0,159	0,058
-205,650	224,365	0,119	0,137
-204,636	104,505	-0,145	0,122
-203,621	27,938	-0,085	0,051
-202,606	800,000	-0,030	-0,077
-201,592	-113,730	-0,132	-0,018
-200,577	3,589	0,108	-0,056
-199,563	416,184	0,051	0,077
-198,548	551,092	-0,023	-0,040
-197,533	-200,000	0,026	0,141
-196,519	39,746	0,041	-0,026
-195,504	49,245	-0,049	-0,033
-194,490	-149,675	-0,163	0,009
-193,475	286,249	-0,020	0,026
-192,460	-200,000	-0,018	0,151
-191,446	800,000	-0,054	0,118
-190,431	-200,000	0,007	0,090
-189,417	-60,325	-0,117	0,035
-188,402	800,000	-0,032	-0,070
-187,387	75,813	-0,018	-0,014
-186,373	365,415	-0,077	-0,110
-185,358	-145,501	0,044	-0,003
-184,344	434,796	-0,080	-0,125
-183,329	488,985	0,069	0,112
-182,315	126,429	-0,010	-0,009
-181,300	45,010	0,080	-0,052
-180,285	107,937	0,068	0,057
-179,271	800,000	-0,020	-0,057
-178,256	-200,000	-0,008	-0,138
-177,242	-36,080	0,089	-0,034
-176,227	-51,118	0,217	-0,072
-175,212	-200,000	-0,011	0,077
-174,198	444,420	-0,072	0,113
-173,183	140,254	-0,037	0,034
-172,169	-200,000	0,001	-0,074
-171,154	245,087	0,048	0,058
-170,139	-103,238	0,095	0,016
-169,125	-200,000	-0,036	0,129
-168,110	193,244	0,106	0,114
-167,096	72,138	-0,132	-0,098
-166,081	-126,327	-0,071	0,007
-165,066	-200,000	0,007	-0,106
-164,052	800,000	-0,026	-0,059
-163,037	-30,502	0,126	-0,051
-162,023	100,446	0,028	0,023
-161,008	34,748	0,070	-0,044
-159,993	270,233	0,063	0,079
-158,979	-84,684	0,054	0,012
-157,964	-200,000	-0,000	-0,149
-156,950	-200,000	0,007	-0,105
-155,935	278,151	-0,017	0,022
-154,920	407,231	0,057	0,086
-153,906	-200,000	0,028	0,125
-152,891	-200,000	-0,016	-0,059
-151,877	368,395	0,054	0,078
-150,862	-200,000	0,011	-0,098
-149,847	109,725	-0,047	-0,040
-148,833	800,000	0,037	-0,089
-147,818	62,925	-0,026	-0,019
-146,804	217,014	0,029	0,033
-145,789	556,925	-0,055	0,095
-144,775	-14,442	0,052	-0,024
-143,760	641,912	0,029	-0,053
-142,745	37,993	-0,121	-0,076
-141,731	12,490	0,078	-0,042
-140,716	-54,044	-0,089	-0,029
-139,702	-21,358	0,137	0,059
-138,687	-96,685	0,125	-0,023
-137,672	-12,768	-0,031	-0,014
-136,658	800,000	-0,052	-0,133
-135,643	-0,802	0,050	0,025
-134,629	-126,010	0,029	0,003
-133,614	467,971	0,072	0,115
-132,599	47,598	0,089	0,059
-131,585	800,000	-0,066	0,175
-130,570	-200,000	0,006	-0,041
-129,556	174,229	-0,075	0,077
-128,541	-76,883	-0,028	-0,007
-127,526	-178,982	0,183	0,003
-126,512	651,764	0,060	0,109
-125,497	-130,983	0,047	0,004
-124,483	73,536	-0,061	0,046
-123,468	800,000	-0,021	0,059
-122,453	-131,607	-0,136	0,013
-121,439	-200,000	-0,000	-0,032
-120,424	-15,001	0,043	0,020
-119,410	-17,151	0,125	0,056
-118,395	800,000	-0,018	-0,051
