DTS Sentinel unit serial number:	SN410029Multiplexer serial number:	ORYXHardware model number:	OX2-SRSoftware version number:	ORYX F/W v4,00 Oryx Data Collector v3.7.2.0data status	okinstallation	BH3 CH2differential loss correction	single-endedforward channel	channel 2reverse channel	N/Adate	2023/12/05time	14:42:28forward acquisition time	300,00reverse acquisition time	0,00gamma	499,1914k internal	0,3193k external	0,3193temperature offset calibration	1,0000default loss term (dB/km)	0,3820temperature slope calibration	1,0000multiplexer offset coefficient	1,0000multiplexer slope coefficient	1,0000fibre end	0,00T internal ref (°C)	10,89T ext. ref 1 (°C)	-3,30T ext. ref 2 (°C)	-3,42length (m)	temperature (°C)	Stokes	anti-Stokes-744,400	25,499	-0,189	-0,115
-743,385	57,139	-0,197	0,140
-742,371	800,000	0,023	-0,065
-741,356	18,968	-0,179	0,104
-740,342	-19,111	-0,073	0,033
-739,327	153,984	-0,119	0,119
-738,312	-200,000	0,031	-0,197
-737,298	66,200	-0,122	0,090
-736,283	248,730	-0,123	-0,152
-735,269	361,745	-0,152	0,223
-734,254	86,713	-0,135	-0,108
-733,239	-177,754	-0,330	0,006
-732,225	505,103	0,057	-0,097
-731,210	170,179	-0,053	-0,055
-730,196	-200,000	-0,005	-0,025
-729,181	159,317	0,051	-0,051
-728,167	473,005	0,036	0,060
-727,152	800,000	-0,041	-0,111
-726,137	733,515	-0,051	-0,101
-725,123	-46,716	0,038	-0,014
-724,108	-8,941	-0,096	-0,047
-723,094	800,000	-0,040	-0,114
-722,079	-200,000	-0,001	0,014
-721,064	800,000	0,038	0,090
-720,050	282,496	0,029	0,038
-719,035	93,476	0,069	0,057
-718,021	-37,099	-0,100	-0,039
-717,006	379,573	-0,094	0,140
-715,991	143,073	-0,078	-0,076
-714,977	18,076	-0,106	0,061
-713,962	283,712	-0,060	0,079
-712,948	40,810	-0,043	0,028
-711,933	164,581	-0,062	0,064
-710,918	-110,753	-0,122	0,018
-709,904	49,324	-0,087	0,060
-708,889	14,725	0,008	0,005
-707,875	-116,344	-0,254	-0,034
-706,860	177,310	0,081	-0,085
-705,845	-200,000	0,016	-0,099
-704,831	-200,000	0,014	-0,073
-703,816	-161,919	-0,095	-0,003
-702,802	52,724	0,027	-0,019
-701,787	17,013	-0,208	0,120
-700,772	183,702	-0,052	0,056
-699,758	-68,412	-0,068	-0,019
-698,743	50,545	-0,045	-0,031
-697,729	-200,000	-0,005	0,046
-696,714	738,979	-0,008	-0,016
-695,699	22,943	-0,070	0,042
-694,685	59,058	0,046	0,033
-693,670	312,937	-0,138	-0,189
-692,656	75,652	0,130	0,100
-691,641	-100,797	-0,074	0,013
-690,627	-200,000	0,002	-0,057
-689,612	-200,000	-0,023	-0,146
-688,597	-200,000	-0,001	-0,028
-687,583	-200,000	-0,014	-0,048
-686,568	-2,019	-0,033	0,017
-685,554	26,569	-0,044	-0,026
-684,539	108,785	0,098	-0,086
-683,524	253,542	0,077	0,096
-682,510	-132,191	-0,026	-0,002
-681,495	-200,000	0,012	-0,086
-680,481	64,207	-0,118	-0,087
-679,466	93,697	-0,026	0,022
-678,451	198,272	-0,089	-0,099
-677,437	161,830	0,019	0,019
-676,422	343,779	-0,014	-0,020
-675,408	800,000	0,036	-0,114
-674,393	508,029	0,038	-0,065
-673,378	119,591	0,030	0,027
-672,364	-200,000	-0,030	-0,121
-671,349	-3,701	-0,087	-0,044
-670,335	800,000	-0,033	0,106
-669,320	-131,732	-0,040	0,004
-668,305	5,502	0,091	0,049
-667,291	138,398	-0,061	0,058
-666,276	-200,000	-0,001	-0,002
-665,262	137,137	-0,090	-0,086
-664,247	800,000	-0,010	-0,032
-663,232	-13,063	0,064	0,030
-662,218	-200,000	-0,021	0,197
-661,203	43,258	0,105	0,069
-660,189	-33,534	0,061	0,024
-659,174	341,137	-0,063	-0,089
-658,159	-200,000	-0,012	-0,090
-657,145	-140,301	-0,173	0,013
-656,130	-20,198	0,098	-0,044
-655,116	650,731	0,044	-0,083
-654,101	62,172	0,077	0,056
-653,086	-81,594	0,116	-0,028
-652,072	105,443	-0,096	0,083
-651,057	1,002	-0,124	0,064
-650,043	800,000	-0,012	-0,029
-649,028	165,189	-0,019	-0,019
-648,014	360,335	0,058	-0,084
-646,999	-42,227	-0,065	0,024
-645,984	-200,000	0,005	0,057
-644,970	415,400	0,015	0,023
-643,955	-200,000	-0,040	-0,134
-642,941	361,356	-0,023	0,033
-641,926	565,504	0,042	-0,075
-640,911	92,356	-0,061	-0,050
-639,897	-200,000	-0,009	0,067
-638,882	-7,705	-0,057	0,028
-637,868	1,400	0,085	0,044
-636,853	-162,191	0,018	-0,001
-635,838	187,419	0,009	0,009
-634,824	262,442	-0,094	0,119
-633,809	140,017	0,105	0,101
-632,795	391,305	-0,050	0,075
-631,780	246,721	0,054	0,066
-630,765	-200,000	-0,044	-0,181
-629,751	551,245	0,050	-0,087
-628,736	-43,816	-0,084	-0,031
-627,722	-195,103	-0,050	0,000
-626,707	194,224	0,111	-0,122
-625,692	-110,195	0,147	0,022
-624,678	108,540	-0,098	0,085
-623,663	-200,000	-0,006	-0,041
-622,649	-46,837	-0,043	-0,015
-621,634	519,040	0,047	-0,080
-620,619	23,686	-0,067	-0,040
-619,605	46,371	-0,110	-0,074
-618,590	-200,000	0,005	0,017
-617,576	-167,622	0,120	-0,003
-616,561	82,765	0,030	-0,023
-615,546	-200,000	0,026	-0,175
-614,532	-200,000	-0,006	0,052
-613,517	50,385	-0,109	-0,074
-612,503	30,501	0,037	0,023
-611,488	-200,000	0,009	0,053
-610,474	-200,000	0,010	-0,056
-609,459	75,501	-0,062	-0,048
-608,444	219,293	-0,044	0,051
-607,430	800,000	0,027	0,069
-606,415	312,122	0,024	-0,033
-605,401	-18,832	-0,044	0,020
-604,386	2,427	0,094	0,049
-603,371	-16,289	-0,058	0,026
-602,357	93,697	-0,065	-0,054
-601,342	-88,318	-0,089	-0,019
-600,328	2,726	-0,104	-0,055
-599,313	97,264	-0,136	-0,113
-598,298	-200,000	-0,023	0,085
-597,284	72,367	0,061	-0,046
-596,269	-200,000	0,002	0,154
-595,255	-200,000	-0,026	-0,122
-594,240	-173,499	0,137	0,003
-593,225	-143,393	-0,127	-0,009
-592,211	-39,914	-0,098	-0,037
-591,196	-200,000	0,011	-0,065
-590,182	251,104	0,025	0,030
-589,167	-200,000	-0,010	0,151
-588,152	54,942	-0,117	-0,082
-587,138	800,000	-0,017	0,049
-586,123	245,170	-0,009	-0,011
-585,109	167,854	0,119	-0,123
-584,094	-139,148	-0,101	0,008
-583,079	-143,970	0,068	0,005
-582,065	109,043	-0,038	-0,033
-581,050	-200,000	0,007	0,081
-580,036	-118,416	0,138	0,018
-579,021	63,532	-0,075	-0,055
-578,006	-151,634	-0,084	-0,004
-576,992	-183,584	-0,218	-0,003
-575,977	800,000	-0,038	-0,116
-574,963	-61,210	0,209	0,064
-573,948	359,069	0,099	0,144
-572,934	800,000	0,025	-0,068
-571,919	40,904	0,081	0,053
-570,904	-7,425	0,023	0,011
-569,890	800,000	-0,029	-0,078
-568,875	32,929	-0,060	0,038
-567,861	-160,183	0,084	-0,003
-566,846	244,502	0,032	-0,039
-565,831	-200,000	0,010	0,051
-564,817	-200,000	0,005	-0,057
-563,802	76,004	-0,087	-0,067
-562,788	-200,000	0,036	-0,125
-561,773	-104,446	0,022	-0,004
-560,758	800,000	0,039	0,085
-559,744	5,983	-0,076	0,040
-558,729	-200,000	0,028	-0,091
-557,715	-124,053	-0,109	-0,012
-556,700	800,000	0,045	-0,096
-555,685	230,046	-0,058	-0,069
-554,671	-168,610	0,114	0,003
-553,656	167,376	0,022	-0,023
-552,642	669,872	0,060	0,112
-551,627	779,114	-0,109	0,217
-550,612	800,000	-0,012	-0,025
-549,598	-154,348	-0,050	0,002
-548,583	499,834	0,078	-0,130
-547,569	138,914	0,131	-0,124
-546,554	800,000	0,018	0,040
-545,539	74,863	0,120	0,091
-544,525	-200,000	-0,058	0,211
-543,510	19,674	-0,091	0,053
-542,496	-11,200	-0,022	0,011
-541,481	800,000	-0,116	-0,234
-540,466	-200,000	0,009	0,078
-539,452	-17,659	0,120	-0,054
-538,437	37,386	0,065	0,042
-537,423	541,375	-0,064	0,110
-536,408	-25,741	0,109	0,046
-535,393	32,584	-0,072	-0,045
-534,379	40,876	-0,108	0,070
-533,364	203,833	0,159	0,178
-532,350	290,551	0,013	0,017
-531,335	-200,000	0,014	-0,070
-530,321	-200,000	-0,003	-0,082
-529,306	-200,000	-0,015	0,090
-528,291	86,049	-0,046	-0,037
-527,277	145,848	-0,050	0,048
-526,262	-135,386	-0,040	-0,003
-525,248	-200,000	0,011	-0,047
-524,233	125,033	0,124	0,113
-523,218	180,462	0,025	0,026
-522,204	529,918	-0,031	-0,053
-521,189	-163,642	-0,109	-0,004
-520,175	445,459	0,069	-0,110
-519,160	37,790	0,066	-0,042
-518,145	-200,000	0,012	0,069
-517,131	-35,222	0,037	-0,015
-516,116	-200,000	-0,113	0,000
-515,102	720,148	0,067	0,130
-514,087	-94,650	0,021	-0,004
-513,072	-22,938	0,133	-0,058
-512,058	-200,000	-0,012	0,057
-511,043	-152,733	0,052	0,003
-510,029	73,768	0,088	0,067
-509,014	546,924	0,075	0,130
-507,999	188,587	-0,025	0,027
-506,985	645,593	-0,094	-0,174
-505,970	-61,732	-0,120	-0,036
-504,956	-12,884	0,073	0,034
-503,941	-200,000	-0,017	0,063
-502,926	-123,149	-0,030	-0,003
-501,912	800,000	0,033	0,105
-500,897	-200,000	-0,004	-0,054
-499,883	-200,000	-0,029	-0,128
-498,868	64,666	-0,194	-0,141
-497,853	102,351	0,065	0,055
-496,839	664,593	-0,057	0,108
-495,824	-200,000	0,011	0,049
-494,810	-200,000	0,021	0,172
-493,795	-104,448	0,077	-0,013
-492,781	-200,000	-0,015	0,132
-491,766	302,064	0,044	0,059
-490,751	15,184	-0,150	-0,085
-489,737	-200,000	-0,013	0,069
-488,722	800,000	-0,032	-0,079
-487,708	742,860	0,020	0,038
-486,693	-200,000	0,014	0,061
-485,678	-200,000	-0,011	-0,036
-484,664	800,000	-0,029	0,079
-483,649	268,216	-0,055	-0,070
-482,635	548,602	-0,044	-0,077
-481,620	-25,113	0,083	-0,035
-480,605	89,075	-0,019	-0,015
-479,591	-91,187	0,107	-0,022
-478,576	-31,406	0,150	-0,061
-477,562	129,614	-0,057	0,052
-476,547	-200,000	0,010	0,091
-475,532	682,821	-0,009	-0,016
-474,518	104,548	-0,060	-0,051
-473,503	-96,170	-0,099	0,019
-472,489	-200,000	0,011	0,153
-471,474	-128,978	-0,217	-0,022
-470,459	-25,534	-0,041	-0,017
-469,445	-35,945	-0,130	-0,050
-468,430	2,138	0,121	-0,063
-467,416	54,719	-0,063	0,044
-466,401	-200,000	0,004	0,014
-465,386	-200,000	0,008	-0,043
-464,372	-200,000	0,008	-0,122
-463,357	178,712	0,059	-0,062
-462,343	-200,000	-0,023	-0,123
-461,328	-68,498	0,144	-0,040
-460,313	-200,000	-0,023	-0,103
-459,299	118,182	0,061	0,054
-458,284	2,159	-0,040	0,021
-457,270	-94,444	0,086	0,017
-456,255	-200,000	0,010	-0,079
-455,241	50,237	-0,082	-0,056
-454,226	-120,627	-0,048	-0,006
-453,211	295,106	0,060	-0,080
-452,197	91,492	0,114	0,092
-451,182	-200,000	0,001	0,080
-450,168	-200,000	0,005	0,077
-449,153	17,077	-0,130	0,074
-448,138	-200,000	0,015	-0,228
-447,124	-200,000	0,004	-0,057
-446,109	45,427	-0,089	0,059
-445,095	800,000	-0,014	0,038
-444,080	-92,931	0,139	0,028
-443,065	-30,210	0,068	-0,028
-442,051	-143,792	0,122	-0,008
-441,036	122,479	0,005	0,004
-440,022	800,000	-0,017	0,051
-439,007	-200,000	-0,007	0,031
-437,992	201,417	0,044	0,049
-436,978	-120,183	-0,040	-0,005
-435,963	4,991	0,043	0,022
-434,949	-200,000	-0,012	0,127
-433,934	800,000	-0,011	-0,028
-432,919	374,601	-0,016	-0,024
-431,905	307,345	0,055	0,074
-430,890	-200,000	-0,011	-0,063
-429,876	-67,204	-0,060	0,017
-428,861	-9,552	-0,056	0,027
-427,846	-200,000	-0,005	0,064
-426,832	-120,087	-0,124	0,015
-425,817	-200,000	-0,009	-0,070
-424,803	150,138	-0,052	0,050
-423,788	218,938	0,117	0,135
-422,773	200,398	0,049	-0,054
-421,759	800,000	0,022	-0,047
-420,744	236,849	-0,108	0,129
-419,730	175,354	-0,033	-0,035
-418,715	-200,000	-0,031	-0,181
-417,701	14,907	0,168	-0,095
-416,686	-200,000	0,010	0,107
-415,671	4,899	0,137	0,072
-414,657	-174,552	-0,051	-0,001
-413,642	-67,578	0,097	0,027
-412,628	128,204	-0,077	-0,070
-411,613	657,247	-0,053	-0,098
-410,598	126,934	-0,080	0,073
-409,584	-84,485	0,064	0,014
-408,569	-123,704	0,124	-0,014
-407,555	642,079	-0,040	-0,073
-406,540	291,242	0,070	0,092
-405,525	-200,000	0,000	0,077
-404,511	-200,000	-0,013	-0,087
-403,496	15,787	0,027	-0,015
-402,482	597,663	-0,024	0,042
-401,467	198,486	-0,055	-0,060
-400,452	-52,654	0,070	-0,023
-399,438	-111,846	-0,088	-0,013
-398,423	-19,172	0,178	0,079
-397,409	82,827	0,081	-0,063
-396,394	59,794	-0,095	-0,068
-395,379	-52,570	0,030	-0,010
-394,365	-200,000	0,005	-0,113
-393,350	800,000	-0,013	0,034
-392,336	91,443	-0,135	-0,109
-391,321	-109,020	0,115	-0,017
-390,306	74,673	-0,021	-0,016
-389,292	388,232	0,059	-0,088
-388,277	800,000	0,049	-0,113
-387,263	319,767	-0,058	0,079
-386,248	800,000	-0,035	-0,106
-385,233	36,065	0,064	0,041
-384,219	800,000	-0,037	-0,090
-383,204	-131,018	-0,086	0,008
-382,190	-26,993	-0,133	-0,056
-381,175	181,977	0,090	-0,095
-380,160	437,816	0,067	0,106
-379,146	111,528	0,188	0,163
-378,131	-76,274	0,084	-0,021
-377,117	-200,000	-0,012	-0,089
-376,102	3,201	-0,068	-0,036
-375,088	198,066	-0,059	-0,065
-374,073	-123,842	-0,046	-0,005
-373,058	727,301	0,085	0,163
-372,044	386,239	-0,053	0,079
-371,029	-95,757	-0,091	0,017
-370,015	-200,000	-0,011	0,138
-369,000	-200,000	0,005	-0,130
-367,985	800,000	0,037	-0,102
-366,971	800,000	-0,029	0,079
-365,956	-10,903	-0,127	0,060
-364,942	-38,978	0,156	0,059
-363,927	425,315	-0,063	0,097
-362,912	-200,000	0,018	-0,156
-361,898	91,940	-0,070	-0,056
-360,883	-85,744	0,035	-0,008
-359,869	800,000	0,020	-0,044
-358,854	-185,959	-0,071	-0,001
-357,839	-200,000	0,037	0,222
-356,825	113,692	-0,006	-0,005
-355,810	-55,618	-0,018	0,006
-354,796	800,000	0,024	-0,065
-353,781	5,497	-0,151	-0,080
-352,766	-73,232	0,061	0,016
-351,752	242,392	-0,052	0,063
-350,737	-200,000	0,014	-0,120
-349,723	171,657	-0,028	0,029
-348,708	-108,610	0,054	-0,008
-347,693	599,780	0,009	-0,017
-346,679	31,391	-0,040	-0,025
-345,664	36,297	0,147	-0,093
-344,650	20,916	0,115	-0,067
-343,635	800,000	0,065	0,141
-342,620	-200,000	0,024	0,088
-341,606	800,000	-0,026	0,063
-340,591	-2,431	-0,140	0,070
-339,577	25,451	0,133	0,079
-338,562	-200,000	-0,010	-0,063
-337,548	800,000	0,021	-0,046
-336,533	328,505	-0,044	0,061
-335,518	714,468	0,010	0,019
-334,504	210,086	0,043	0,049
-333,489	800,000	-0,029	0,061
-332,475	422,269	0,031	-0,048
-331,460	-200,000	0,022	-0,102
-330,445	179,442	0,086	-0,091
-329,431	93,614	-0,142	0,116
-328,416	-200,000	-0,011	0,080
-327,402	-200,000	0,022	0,076
-326,387	-30,132	-0,075	0,030
-325,372	69,525	0,139	-0,102
-324,358	-200,000	-0,035	-0,260
-323,343	243,665	-0,051	-0,061
-322,329	-160,034	0,088	0,003
-321,314	800,000	0,065	0,154
-320,299	413,242	0,048	0,073
-319,285	-32,599	0,113	0,045
-318,270	74,909	0,043	0,032
-317,256	74,474	-0,075	-0,057
-316,241	-53,580	-0,086	-0,028
-315,226	800,000	-0,050	0,149
-314,212	78,223	-0,031	-0,024
-313,197	-200,000	-0,006	0,051
-312,183	-200,000	0,033	-0,106
-311,168	113,242	-0,127	-0,111
-310,153	124,051	0,047	-0,042
-309,139	800,000	-0,068	-0,170
-308,124	37,686	0,085	-0,054
-307,110	-112,151	0,085	-0,012
-306,095	-69,977	-0,026	0,007
-305,080	467,111	0,026	0,042
-304,066	-200,000	-0,017	0,095
-303,051	157,246	0,141	0,140
-302,037	196,518	-0,045	-0,049
-301,022	130,295	-0,069	0,064
-300,008	88,410	0,069	0,055
-298,993	142,843	-0,011	0,010
-297,978	-200,000	-0,013	0,125
-296,964	148,917	-0,091	0,088
-295,949	800,000	-0,028	-0,066
-294,935	472,916	0,080	-0,129
-293,920	223,346	-0,073	-0,084
-292,905	134,926	-0,065	0,061
-291,891	-200,000	0,015	0,049
-290,876	800,000	-0,043	0,089
-289,862	-136,518	0,064	-0,005
-288,847	800,000	0,029	-0,067
-287,832	-200,000	0,016	-0,193
-286,818	-200,000	0,009	-0,070
-285,803	192,790	0,021	0,023
-284,789	263,185	-0,072	0,090
-283,774	-200,000	0,020	0,071
-282,759	-16,533	-0,082	0,037
-281,745	290,990	-0,037	0,048
-280,730	-200,000	-0,023	0,102
-279,716	-38,977	-0,097	-0,036
-278,701	-114,705	-0,069	-0,009
-277,686	94,064	-0,067	0,054
-276,672	800,000	0,034	0,073
-275,657	-200,000	0,005	0,036
-274,643	800,000	0,016	-0,046
-273,628	145,741	0,049	-0,047
-272,613	-141,158	-0,101	-0,007
-271,599	716,301	0,021	0,040
-270,584	25,131	-0,056	-0,033
-269,570	595,663	-0,024	0,043
-268,555	400,357	0,079	0,118
-267,540	-200,000	-0,005	0,036
-266,526	-124,840	0,174	-0,019
-265,511	-150,786	-0,067	0,004
-264,497	9,852	0,088	-0,047
-263,482	-39,356	-0,078	0,029
-262,467	39,192	-0,101	-0,065
-261,453	-48,110	-0,074	-0,025
-260,438	-200,000	0,015	-0,121
-259,424	800,000	-0,024	-0,059
-258,409	-200,000	-0,011	-0,063
-257,395	232,537	0,066	0,078
-256,380	88,787	-0,029	0,023
-255,365	-200,000	-0,003	0,205
-254,351	386,341	0,016	-0,023
-253,336	-200,000	-0,007	0,087
-252,322	800,000	0,039	-0,101
-251,307	100,371	-0,109	-0,091
-250,292	19,926	0,125	-0,072
-249,278	-112,824	0,190	-0,027
-248,263	-102,150	0,064	-0,011
-247,249	104,926	0,029	0,024
-246,234	6,998	0,050	-0,027
-245,219	29,775	-0,099	0,060
-244,205	-35,177	-0,096	-0,037
-243,190	-200,000	-0,018	-0,150
-242,176	-121,537	0,010	-0,001
-241,161	-200,000	-0,056	0,194
-240,146	-42,158	0,158	-0,057
-239,132	794,993	-0,031	-0,062
-238,117	-82,834	-0,102	-0,023
-237,103	-65,170	0,139	-0,040
-236,088	800,000	-0,034	0,074
-235,073	-86,011	-0,155	0,034
-234,059	221,388	0,031	-0,035
-233,044	-200,000	-0,010	-0,030
-232,030	47,784	0,076	0,051
-231,015	-200,000	-0,069	0,000
-230,000	566,056	0,030	-0,052
-228,986	800,000	0,042	-0,124
-227,971	-200,000	0,008	0,059
-226,957	95,079	0,087	0,071
-225,942	-87,769	-0,104	-0,022
-224,927	-24,695	0,119	-0,051
-223,913	-200,000	0,011	-0,209
-222,898	83,449	0,030	0,023
-221,884	126,806	0,101	-0,091
-220,869	-200,000	0,004	0,083
-219,855	800,000	0,049	0,153
-218,840	41,240	-0,110	0,071
-217,825	139,123	0,033	0,031
-216,811	-64,249	-0,099	-0,029
-215,796	-29,204	-0,172	-0,070
-214,782	-118,732	-0,079	0,010
-213,767	-91,480	0,048	0,010
-212,752	-200,000	-0,005	0,027
-211,738	277,059	-0,085	0,108
-210,723	-200,000	-0,010	-0,041
-209,709	59,917	-0,033	0,024
-208,694	800,000	0,021	-0,064
-207,679	142,767	-0,072	-0,068
-206,665	-200,000	-0,006	-0,090
-205,650	800,000	0,060	0,163
-204,636	-200,000	-0,027	0,092
-203,621	26,433	0,073	0,043
-202,606	800,000	0,040	-0,110
-201,592	-200,000	-0,001	-0,035
-200,577	-200,000	-0,025	0,122
-199,563	800,000	0,034	-0,069
-198,548	10,145	0,072	-0,039
-197,533	11,162	0,028	-0,015
-196,519	-90,493	-0,172	-0,035
-195,504	-182,689	0,141	-0,002
-194,490	131,232	-0,093	-0,085
-193,475	12,493	-0,111	0,061
-192,460	-110,061	0,089	0,013
-191,446	800,000	0,037	0,117
-190,431	800,000	-0,056	0,151
-189,417	-192,371	0,059	-0,000
-188,402	464,155	-0,010	0,016
-187,387	-28,212	0,067	-0,027
-186,373	-64,270	0,103	0,030
-185,358	-200,000	-0,002	0,019
-184,344	589,461	-0,060	-0,105
-183,329	64,193	0,090	0,064
-182,315	-45,112	-0,049	0,017
-181,300	-200,000	-0,048	0,168
-180,285	193,955	0,036	-0,039
-179,271	-200,000	-0,017	-0,115
-178,256	-97,924	0,043	0,008
-177,242	-42,637	-0,030	-0,011
-176,227	-77,961	0,172	0,042
-175,212	10,444	0,044	0,024
-174,198	-200,000	0,009	0,094
-173,183	0,061	0,085	0,043
-172,169	800,000	-0,056	0,163
-171,154	-74,787	0,117	0,030
-170,139	241,060	0,066	0,079
-169,125	800,000	-0,063	0,127
-168,110	195,268	0,082	0,089
-167,096	800,000	-0,014	0,035
-166,081	-48,098	-0,057	0,020
-165,066	-200,000	-0,058	-0,201
-164,052	-200,000	-0,036	-0,125
-163,037	-200,000	0,003	0,104
-162,023	308,814	-0,032	-0,043
-161,008	800,000	-0,037	-0,106
-159,993	-2,565	-0,109	-0,054
-158,979	248,406	0,041	0,049
-157,964	13,880	-0,151	-0,084
-156,950	39,932	-0,232	-0,148
-155,935	-61,522	0,153	0,045
-154,920	-200,000	-0,015	-0,062
-153,906	85,458	0,040	-0,031
-152,891	-177,567	0,073	0,001
-151,877	254,108	-0,022	0,026
-150,862	305,624	0,087	-0,115
-149,847	335,758	0,057	0,079
-148,833	-200,000	-0,018	-0,113
-147,818	-83,344	0,185	0,042
-146,804	-129,188	0,111	-0,011
-145,789	192,293	-0,041	-0,044
-144,775	119,186	0,058	0,051
-143,760	-200,000	0,018	-0,088
-142,745	23,540	-0,039	0,023
-141,731	280,320	-0,043	-0,054
-140,716	-40,385	0,124	-0,046
-139,702	6,944	0,070	-0,037
-138,687	67,179	0,045	-0,033
-137,672	121,102	-0,115	-0,102
-136,658	-200,000	0,028	-0,224
-135,643	-200,000	0,008	-0,104
-134,629	-39,332	0,152	-0,056
-133,614	-120,671	0,086	0,010
-132,599	-200,000	0,015	0,084
-131,585	-200,000	0,036	0,144
-130,570	77,002	0,154	-0,116
-129,556	597,237	-0,062	-0,111
-128,541	800,000	-0,044	-0,116
-127,526	-200,000	0,017	0,114
-126,512	-57,115	-0,063	0,020
-125,497	-87,931	0,119	0,025
-124,483	-200,000	-0,035	0,110
-123,468	-200,000	0,044	0,206
-122,453	-94,852	-0,086	-0,016
-121,439	-200,000	-0,008	-0,064
-120,424	1,855	-0,032	0,016
-119,410	-200,000	0,017	-0,075
-118,395	800,000	0,046	0,097
