DTS Sentinel unit serial number:	SN410029Multiplexer serial number:	ORYXHardware model number:	OX2-SRSoftware version number:	ORYX F/W v4,00 Oryx Data Collector v3.7.2.0data status	okinstallation	BH3 CH2differential loss correction	single-endedforward channel	channel 2reverse channel	N/Adate	2023/12/05time	12:32:28forward acquisition time	300,00reverse acquisition time	0,00gamma	499,1914k internal	0,3196k external	0,3196temperature offset calibration	1,0000default loss term (dB/km)	0,3820temperature slope calibration	1,0000multiplexer offset coefficient	1,0000multiplexer slope coefficient	1,0000fibre end	0,00T internal ref (°C)	9,87T ext. ref 1 (°C)	-4,52T ext. ref 2 (°C)	-4,58length (m)	temperature (°C)	Stokes	anti-Stokes-744,400	453,835	0,023	0,037
-743,385	-48,579	-0,209	0,073
-742,371	163,219	0,088	-0,090
-741,356	-200,000	-0,027	0,180
-740,342	-3,740	0,071	-0,036
-739,327	136,518	-0,183	0,174
-738,312	-200,000	-0,003	-0,051
-737,298	45,368	-0,203	0,136
-736,283	522,363	-0,084	-0,145
-735,269	-150,941	-0,136	0,007
-734,254	236,202	-0,096	-0,116
-733,239	-143,359	-0,426	-0,029
-732,225	32,608	0,187	-0,118
-731,210	800,000	-0,023	0,063
-730,196	-200,000	-0,002	0,025
-729,181	-200,000	0,009	0,036
-728,167	-200,000	0,012	-0,099
-727,152	-101,261	-0,096	-0,017
-726,137	-200,000	-0,169	-0,000
-725,123	-200,000	-0,001	-0,069
-724,108	100,191	-0,071	0,060
-723,094	201,557	-0,120	-0,135
-722,079	238,620	0,075	-0,091
-721,064	-128,189	0,110	-0,011
-720,050	-106,691	-0,132	0,021
-719,035	140,278	0,124	-0,119
-718,021	108,242	-0,084	-0,073
-717,006	-200,000	0,019	-0,090
-715,991	199,275	-0,057	0,064
-714,977	52,550	-0,071	-0,049
-713,962	134,408	0,040	0,038
-712,948	-25,339	-0,059	0,025
-711,933	664,238	0,085	-0,160
-710,918	-34,026	-0,076	0,030
-709,904	113,653	-0,106	0,094
-708,889	269,562	-0,049	0,063
-707,875	-200,000	-0,013	-0,150
-706,860	126,021	-0,047	0,043
-705,845	28,976	-0,123	0,076
-704,831	-18,636	-0,118	0,053
-703,816	800,000	0,018	0,047
-702,802	150,025	-0,053	-0,052
-701,787	365,540	-0,080	-0,118
-700,772	-70,731	-0,080	-0,022
-699,758	-22,203	0,064	-0,028
-698,743	-200,000	0,007	0,124
-697,729	-200,000	-0,017	-0,096
-696,714	445,916	0,046	0,073
-695,699	-200,000	-0,020	-0,088
-694,685	329,919	0,046	0,064
-693,670	-1,983	0,049	-0,025
-692,656	-187,935	-0,083	0,001
-691,641	418,163	0,063	-0,098
-690,627	137,385	0,024	0,023
-689,612	-112,664	-0,131	0,019
-688,597	113,540	0,104	-0,092
-687,583	-36,822	0,035	0,014
-686,568	65,122	-0,121	-0,089
-685,554	-112,126	-0,045	0,007
-684,539	-123,966	-0,038	-0,004
-683,524	-110,437	0,154	-0,023
-682,510	-126,414	-0,152	0,016
-681,495	-109,570	0,044	0,007
-680,481	350,365	0,053	-0,076
-679,466	-91,491	-0,117	0,024
-678,451	800,000	0,044	-0,117
-677,437	-58,848	-0,077	0,024
-676,422	-200,000	0,007	0,173
-675,408	-200,000	0,007	0,042
-674,393	-74,255	-0,086	0,022
-673,378	-29,976	-0,120	0,049
-672,364	-31,354	0,062	-0,025
-671,349	157,075	-0,102	-0,102
-670,335	800,000	0,046	0,097
-669,320	-200,000	0,020	0,128
-668,305	-94,044	0,055	-0,011
-667,291	147,847	-0,070	0,069
-666,276	800,000	-0,024	-0,065
-665,262	517,692	-0,058	-0,098
-664,247	800,000	0,044	-0,093
-663,232	237,603	-0,075	0,091
-662,218	40,482	0,140	-0,091
-661,203	-200,000	-0,022	-0,123
-660,189	64,171	-0,047	-0,034
-659,174	-200,000	-0,019	-0,081
-658,159	434,438	-0,077	-0,122
-657,145	-200,000	-0,008	0,051
-656,130	-12,331	-0,040	-0,019
-655,116	36,357	-0,022	0,014
-654,101	-58,216	-0,070	-0,022
-653,086	-101,241	-0,142	-0,025
-652,072	385,830	-0,047	-0,071
-651,057	-200,000	-0,006	-0,180
-650,043	-200,000	0,028	0,127
-649,028	-200,000	0,008	0,116
-648,014	217,108	0,084	0,098
-646,999	142,193	0,103	0,099
-645,984	443,068	-0,016	0,026
-644,970	-200,000	0,041	0,189
-643,955	-44,047	-0,140	0,051
-642,941	578,909	-0,056	-0,099
-641,926	565,088	0,070	-0,123
-640,911	1,648	-0,012	0,006
-639,897	-139,192	0,082	-0,006
-638,882	-25,983	-0,046	-0,019
-637,868	724,401	-0,040	-0,078
-636,853	285,658	-0,071	0,093
-635,838	88,391	0,079	-0,064
-634,824	243,028	0,030	-0,037
-633,809	35,311	-0,069	0,044
-632,795	-200,000	0,005	0,157
-631,780	800,000	0,031	0,091
-630,765	-200,000	-0,031	0,127
-629,751	800,000	0,023	0,067
-628,736	147,480	-0,177	-0,173
-627,722	338,049	0,078	-0,110
-626,707	-200,000	-0,027	0,093
-625,692	-52,374	0,079	-0,026
-624,678	800,000	-0,042	-0,127
-623,663	-69,869	-0,195	0,053
-622,649	475,198	-0,068	-0,111
-621,634	-200,000	0,028	-0,142
-620,619	800,000	0,015	-0,038
-619,605	56,951	0,033	0,023
-618,590	-66,161	-0,075	-0,021
-617,576	101,992	-0,133	0,113
-616,561	-33,028	0,050	0,020
-615,546	738,747	-0,069	-0,136
-614,532	150,717	-0,076	-0,075
-613,517	24,758	0,044	-0,026
-612,503	-67,279	0,187	0,053
-611,488	101,147	-0,079	0,067
-610,474	-80,811	0,035	0,008
-609,459	401,053	-0,070	0,106
-608,444	6,984	-0,079	0,043
-607,430	-103,199	0,029	-0,005
-606,415	92,491	-0,126	-0,103
-605,401	673,651	0,119	0,224
-604,386	-164,498	-0,142	0,005
-603,371	93,713	0,143	-0,117
-602,357	800,000	0,031	0,064
-601,342	-20,079	-0,025	0,011
-600,328	48,292	0,048	0,033
-599,313	-200,000	0,021	0,072
-598,298	-200,000	0,025	-0,134
-597,284	-66,504	0,043	-0,012
-596,269	-200,000	0,000	0,012
-595,255	-100,509	-0,039	-0,007
-594,240	49,073	0,076	0,052
-593,225	-48,496	0,059	-0,021
-592,211	78,611	-0,074	-0,057
-591,196	-68,660	0,024	-0,007
-590,182	-200,000	-0,004	-0,016
-589,167	-143,376	0,060	0,004
-588,152	-165,760	-0,048	-0,001
-587,138	593,531	-0,024	0,043
-586,123	346,866	-0,077	-0,110
-585,109	800,000	-0,062	-0,128
-584,094	800,000	0,013	-0,034
-583,079	-117,346	0,112	0,015
-582,065	-46,520	-0,087	-0,031
-581,050	4,064	-0,031	0,016
-580,036	-200,000	0,008	-0,063
-579,021	-56,503	-0,145	-0,046
-578,006	287,642	-0,097	-0,127
-576,992	800,000	0,023	0,064
-575,977	800,000	0,082	0,205
-574,963	74,855	0,108	-0,082
-573,948	-200,000	-0,002	-0,020
-572,934	615,525	-0,028	-0,050
-571,919	-60,863	-0,125	0,038
-570,904	-200,000	-0,004	-0,104
-569,890	800,000	-0,048	0,110
-568,875	800,000	0,046	-0,099
-567,861	91,515	0,092	-0,074
-566,846	-141,638	0,053	0,004
-565,831	320,009	0,075	0,103
-564,817	800,000	0,024	0,051
-563,802	26,683	-0,093	-0,056
-562,788	775,184	-0,049	0,097
-561,773	-11,049	0,027	0,013
-560,758	-200,000	-0,013	0,045
-559,744	-200,000	-0,024	-0,103
-558,729	-44,210	0,106	-0,038
-557,715	-4,542	-0,092	-0,046
-556,700	-200,000	-0,002	-0,261
-555,685	800,000	0,034	0,072
-554,671	12,517	-0,041	-0,023
-553,656	-169,464	0,123	0,003
-552,642	393,226	0,038	0,057
-551,627	93,122	-0,099	0,081
-550,612	24,200	-0,095	-0,057
-549,598	124,667	0,055	0,050
-548,583	-73,750	-0,057	-0,015
-547,569	-200,000	0,001	-0,030
-546,554	4,271	-0,034	-0,018
-545,539	251,963	0,055	0,067
-544,525	-154,795	-0,055	0,003
-543,510	-64,383	-0,220	-0,064
-542,496	51,718	0,058	-0,040
-541,481	-104,262	0,102	0,017
-540,466	-89,977	0,097	-0,020
-539,452	800,000	0,021	-0,052
-538,437	552,859	-0,023	-0,041
-537,423	800,000	-0,050	0,106
-536,408	-36,871	0,062	-0,024
-535,393	-33,966	-0,019	-0,008
-534,379	78,101	0,094	0,073
-533,364	800,000	0,040	0,082
-532,350	187,361	0,080	0,086
-531,335	-200,000	0,019	-0,147
-530,321	-200,000	0,044	0,153
-529,306	349,065	-0,052	0,075
-528,291	159,576	-0,115	-0,116
-527,277	-200,000	0,031	-0,102
-526,262	-69,403	-0,216	-0,059
-525,248	44,075	0,126	-0,083
-524,233	528,489	-0,062	0,106
-523,218	-64,143	0,048	-0,014
-522,204	6,136	-0,102	0,055
-521,189	646,931	-0,051	0,094
-520,175	-94,087	0,061	0,012
-519,160	30,074	0,034	-0,021
-518,145	-200,000	0,003	0,049
-517,131	9,857	0,083	0,046
-516,116	-63,885	-0,160	0,047
-515,102	-97,185	0,046	-0,009
-514,087	-200,000	0,009	-0,037
-513,072	9,289	-0,117	0,064
-512,058	580,728	0,098	-0,173
-511,043	100,158	-0,005	-0,004
-510,029	-164,449	0,087	0,003
-509,014	268,635	-0,063	-0,080
-507,999	78,748	0,080	0,062
-506,985	-62,828	0,019	-0,006
-505,970	431,178	-0,025	0,039
-504,956	42,159	0,112	-0,073
-503,941	146,177	-0,084	-0,082
-502,926	63,161	0,146	0,106
-501,912	-100,680	-0,045	0,008
-500,897	476,839	-0,041	0,068
-499,883	800,000	0,029	-0,079
-498,868	-200,000	-0,013	-0,125
-497,853	800,000	0,016	0,038
-496,839	-41,527	-0,096	0,036
-495,824	359,898	0,024	0,035
-494,810	226,207	-0,042	0,049
-493,795	-200,000	-0,005	0,093
-492,781	180,744	-0,111	-0,117
-491,766	800,000	-0,035	-0,087
-490,751	524,377	-0,038	0,065
-489,737	-113,991	0,100	0,014
-488,722	101,181	0,036	-0,030
-487,708	-98,522	-0,067	0,012
-486,693	-112,235	0,061	0,009
-485,678	67,597	0,040	0,030
-484,664	-87,197	-0,056	-0,012
-483,649	401,543	0,046	-0,069
-482,635	-200,000	0,005	-0,130
-481,620	-177,934	0,025	-0,000
-480,605	800,000	0,017	-0,048
-479,591	326,284	0,031	0,043
-478,576	-200,000	-0,012	-0,086
-477,562	-73,363	-0,135	0,035
-476,547	197,086	-0,047	0,052
-475,532	40,699	-0,051	-0,033
-474,518	-141,752	0,127	-0,009
-473,503	503,620	-0,112	0,188
-472,489	55,601	-0,042	0,029
-471,474	-130,491	-0,100	0,010
-470,459	-200,000	0,028	-0,092
-469,445	-200,000	-0,004	0,137
-468,430	37,886	0,054	-0,035
-467,416	365,935	0,029	0,043
-466,401	-200,000	-0,007	0,031
-465,386	43,401	-0,018	-0,012
-464,372	-200,000	0,007	-0,086
-463,357	205,325	-0,017	-0,019
-462,343	-200,000	0,018	-0,114
-461,328	-200,000	-0,011	-0,059
-460,313	-200,000	-0,013	-0,045
-459,299	-40,381	0,066	0,024
-458,284	-138,888	0,078	-0,006
-457,270	55,933	0,040	0,028
-456,255	-167,550	-0,182	0,005
-455,241	66,668	0,063	-0,046
-454,226	-70,456	-0,119	-0,032
-453,211	-108,087	0,110	-0,017
-452,197	800,000	0,015	0,040
-451,182	48,603	-0,024	0,016
-450,168	-71,480	0,102	-0,027
-449,153	-200,000	0,009	-0,033
-448,138	-102,515	-0,145	-0,025
-447,124	343,136	-0,020	0,028
-446,109	403,266	0,080	-0,122
-445,095	800,000	0,019	0,038
-444,080	471,495	0,084	0,137
-443,065	800,000	0,064	0,157
-442,051	800,000	0,054	0,141
-441,036	369,822	-0,043	-0,062
-440,022	-98,129	-0,109	-0,020
-439,007	35,270	0,026	0,016
-437,992	-200,000	0,022	-0,075
-436,978	-9,144	0,138	0,066
-435,963	279,628	-0,070	-0,090
-434,949	-200,000	-0,011	0,093
-433,934	698,786	0,028	-0,053
-432,919	-200,000	-0,015	-0,091
-431,905	402,189	-0,020	0,030
-430,890	-200,000	-0,019	-0,079
-429,876	247,282	0,006	-0,007
-428,861	-200,000	-0,008	0,069
-427,846	-200,000	0,007	0,107
-426,832	343,167	0,069	-0,098
-425,817	-47,677	0,055	-0,019
-424,803	-48,799	0,101	-0,035
-423,788	-25,708	0,025	0,010
-422,773	584,682	-0,031	0,056
-421,759	-56,297	0,109	0,035
-420,744	59,492	0,053	-0,037
-419,730	-135,482	-0,130	0,011
-418,715	-108,032	-0,033	-0,005
-417,701	0,319	-0,121	-0,062
-416,686	-200,000	-0,029	-0,105
-415,671	463,783	0,070	-0,112
-414,657	-200,000	-0,000	0,012
-413,642	37,265	0,055	-0,035
-412,628	10,285	-0,064	-0,035
-411,613	-102,120	0,025	0,004
-410,598	69,253	-0,056	-0,041
-409,584	287,504	-0,015	0,020
-408,569	-109,249	0,092	0,014
-407,555	414,055	-0,075	0,116
-406,540	800,000	-0,019	0,055
-405,525	-157,045	-0,169	0,007
-404,511	-200,000	0,002	-0,033
-403,496	333,886	-0,104	-0,146
-402,482	-80,528	0,042	-0,010
-401,467	800,000	-0,026	0,067
-400,452	153,980	-0,056	0,055
-399,438	-32,263	0,067	-0,027
-398,423	800,000	0,039	-0,086
-397,409	460,589	0,019	0,030
-396,394	-200,000	-0,026	-0,144
-395,379	-42,321	0,019	-0,007
-394,365	-200,000	0,001	0,032
-393,350	101,690	0,082	-0,069
-392,336	556,130	0,023	0,041
-391,321	-2,295	-0,078	-0,039
-390,306	-167,146	-0,110	0,003
-389,292	-200,000	-0,018	-0,109
-388,277	119,795	-0,106	0,094
-387,263	-120,083	0,073	0,009
-386,248	18,593	0,066	-0,038
-385,233	534,381	-0,112	0,191
-384,219	-200,000	0,004	-0,035
-383,204	800,000	-0,045	-0,108
-382,190	-200,000	0,003	-0,031
-381,175	29,929	0,058	0,036
-380,160	-7,740	-0,047	-0,023
-379,146	141,387	-0,005	-0,004
-378,131	53,572	0,139	0,095
-377,117	-134,708	0,098	0,008
-376,102	800,000	-0,028	-0,074
-375,088	-50,133	0,106	-0,036
-374,073	81,805	0,075	-0,058
-373,058	56,785	0,043	0,030
-372,044	-200,000	0,007	-0,065
-371,029	473,553	-0,041	0,067
-370,015	-105,696	0,060	-0,010
-369,000	-167,215	0,044	-0,001
-367,985	-200,000	-0,011	-0,087
-366,971	198,455	-0,058	0,064
-365,956	60,522	0,045	0,032
-364,942	-200,000	0,018	0,065
-363,927	122,132	-0,016	-0,014
-362,912	-103,064	0,143	0,024
-361,898	110,249	0,050	-0,043
-360,883	-25,077	-0,091	0,039
-359,869	-199,572	-0,148	-0,001
-358,854	-200,000	-0,023	-0,146
-357,839	88,964	-0,066	0,053
-356,825	756,499	0,135	0,264
-355,810	245,201	0,028	0,034
-354,796	64,632	0,067	0,048
-353,781	36,782	-0,112	0,071
-352,766	259,632	0,053	-0,066
-351,752	37,115	0,051	0,032
-350,737	-116,256	-0,082	-0,011
-349,723	800,000	-0,013	0,032
-348,708	20,297	0,188	-0,109
-347,693	-166,150	-0,101	-0,003
-346,679	126,652	-0,093	0,085
-345,664	-51,963	-0,087	-0,029
-344,650	192,229	0,078	-0,084
-343,635	601,896	0,046	0,082
-342,620	-200,000	0,020	0,088
-341,606	-2,242	-0,093	-0,047
-340,591	-51,432	-0,015	0,005
-339,577	-109,876	0,074	0,011
-338,562	800,000	0,028	-0,089
-337,548	148,129	-0,125	0,121
-336,533	-32,020	0,189	0,076
-335,518	578,755	-0,033	-0,058
-334,504	99,578	0,117	0,097
-333,489	-54,642	-0,054	-0,017
-332,475	-200,000	-0,031	-0,124
-331,460	261,867	0,046	-0,058
-330,445	800,000	0,059	0,156
-329,431	145,962	0,031	-0,030
-328,416	800,000	-0,035	0,080
-327,402	800,000	0,069	0,203
-326,387	370,150	-0,068	0,099
-325,372	348,395	0,047	-0,066
-324,358	557,457	-0,039	-0,068
-323,343	106,593	-0,118	-0,100
-322,329	137,347	0,125	0,117
-321,314	66,519	0,069	0,050
-320,299	800,000	0,031	0,069
-319,285	-54,716	-0,070	-0,023
-318,270	531,124	0,026	-0,044
-317,256	202,821	0,022	-0,024
-316,241	57,463	-0,069	-0,048
-315,226	-125,928	0,092	0,010
-314,212	800,000	0,024	0,050
-313,197	585,345	-0,080	0,141
-312,183	77,795	0,089	0,068
-311,168	-147,156	-0,162	0,010
-310,153	-69,924	-0,039	0,011
-309,139	800,000	-0,015	-0,036
-308,124	-82,512	0,067	0,015
-307,110	800,000	-0,031	0,085
-306,095	106,499	-0,064	0,055
-305,080	12,218	0,091	0,050
-304,066	111,997	-0,102	0,088
-303,051	-200,000	0,011	-0,069
-302,037	-50,011	0,104	0,035
-301,022	284,685	0,020	-0,025
-300,008	-200,000	0,016	-0,091
-298,993	800,000	-0,058	0,170
-297,978	-120,040	0,074	0,009
-296,964	320,954	-0,086	-0,118
-295,949	-152,779	-0,148	-0,007
-294,935	429,080	0,070	-0,109
-293,920	204,279	0,038	0,042
-292,905	-200,000	0,012	0,041
-291,891	4,753	-0,039	-0,020
-290,876	800,000	-0,034	0,069
-289,862	537,740	-0,054	0,093
-288,847	133,055	0,054	0,050
-287,832	-67,577	0,073	-0,020
-286,818	-200,000	0,022	0,080
-285,803	732,242	0,029	0,055
-284,789	338,814	0,055	0,077
-283,774	120,612	0,006	0,005
-282,759	-200,000	-0,010	0,148
-281,745	-27,762	-0,185	-0,076
-280,730	161,991	-0,027	-0,027
-279,716	-87,278	0,144	0,031
-278,701	8,595	-0,108	0,058
-277,686	-121,446	-0,065	0,008
-276,672	-50,546	0,103	-0,035
-275,657	88,750	-0,117	0,093
-274,643	769,957	-0,079	-0,155
-273,628	162,315	-0,028	0,028
-272,613	800,000	-0,019	-0,047
-271,599	-171,015	0,084	0,002
-270,584	255,987	0,057	0,070
-269,570	602,707	0,022	-0,039
-268,555	-200,000	-0,024	-0,079
-267,540	52,552	-0,036	-0,025
-266,526	-200,000	0,020	-0,140
-265,511	-200,000	0,030	-0,096
-264,497	-31,457	0,192	0,077
-263,482	-28,840	0,108	-0,044
-262,467	800,000	-0,043	0,098
-261,453	800,000	-0,047	0,100
-260,438	14,932	0,088	-0,049
-259,424	-200,000	-0,020	-0,229
-258,409	114,682	-0,118	0,103
-257,395	118,144	0,141	0,124
-256,380	152,894	0,029	-0,028
-255,365	-200,000	-0,007	0,068
-254,351	-200,000	0,004	-0,020
-253,336	-200,000	-0,002	-0,110
-252,322	-142,582	-0,078	0,005
-251,307	716,984	-0,004	0,008
-250,292	-151,609	0,129	0,007
-249,278	234,175	0,086	0,102
-248,263	-78,090	0,046	-0,011
-247,249	-46,438	-0,095	-0,033
-246,234	537,991	-0,025	-0,043
-245,219	-46,624	0,065	-0,023
-244,205	-200,000	0,000	-0,018
-243,190	104,718	0,017	0,014
-242,176	-49,386	0,087	0,030
-241,161	-118,001	0,077	0,010
-240,146	-97,504	-0,154	0,028
-239,132	508,418	-0,031	0,051
-238,117	-84,817	-0,103	-0,023
-237,103	-200,000	-0,027	-0,099
-236,088	-138,098	0,101	-0,008
-235,073	-200,000	-0,003	0,082
-234,059	-200,000	0,001	0,100
-233,044	30,716	-0,011	0,006
-232,030	54,894	0,080	-0,055
-231,015	293,935	-0,058	-0,076
-230,000	92,183	-0,054	-0,043
-228,986	-22,551	-0,132	0,057
-227,971	-181,682	0,120	-0,002
-226,957	-200,000	-0,002	-0,075
-225,942	415,367	0,044	0,067
-224,927	800,000	0,009	-0,026
-223,913	402,579	-0,088	-0,133
-222,898	800,000	0,039	-0,098
-221,884	-200,000	-0,004	-0,070
-220,869	-70,698	0,131	0,035
-219,855	-11,143	0,083	0,039
-218,840	63,965	0,046	0,033
-217,825	339,301	0,006	0,008
-216,811	194,512	-0,014	-0,015
-215,796	-178,979	0,007	0,000
-214,782	-75,874	-0,135	-0,034
-213,767	-200,000	0,001	0,046
-212,752	626,035	0,033	0,059
-211,738	-200,000	0,040	0,183
-210,723	53,151	0,055	0,037
-209,709	49,878	-0,092	0,062
-208,694	800,000	0,048	-0,146
-207,679	139,947	-0,069	0,065
-206,665	-200,000	-0,010	0,058
-205,650	-96,478	0,019	0,003
-204,636	-200,000	0,023	0,093
-203,621	-114,613	0,074	0,010
-202,606	170,818	-0,075	0,076
-201,592	39,255	0,041	-0,026
-200,577	102,698	0,031	-0,026
-199,563	-44,032	-0,104	-0,037
-198,548	-106,375	0,058	0,009
-197,533	192,703	0,091	0,099
-196,519	-103,018	0,133	0,022
-195,504	-200,000	0,006	0,021
-194,490	372,570	-0,048	0,070
-193,475	551,005	-0,036	-0,061
-192,460	119,640	-0,101	-0,089
-191,446	339,655	0,069	-0,096
-190,431	-61,864	-0,065	0,019
-189,417	135,351	-0,027	0,025
-188,402	800,000	-0,028	-0,071
-187,387	-200,000	-0,001	-0,070
-186,373	-110,150	0,096	0,014
-185,358	73,195	0,057	0,042
-184,344	800,000	-0,025	-0,055
-183,329	267,776	-0,075	0,094
-182,315	288,912	0,003	0,004
-181,300	545,459	0,013	0,021
-180,285	-200,000	0,030	-0,203
-179,271	-40,614	-0,061	-0,023
-178,256	37,356	0,068	0,043
-177,242	-27,414	0,080	-0,033
-176,227	121,092	0,083	-0,074
-175,212	451,235	-0,040	-0,064
-174,198	-200,000	0,004	-0,049
-173,183	42,182	-0,099	0,064
-172,169	197,489	-0,029	-0,032
-171,154	-200,000	-0,019	0,070
-170,139	-200,000	-0,002	0,073
-169,125	-200,000	0,012	-0,223
-168,110	153,822	0,061	0,059
-167,096	800,000	-0,046	-0,120
-166,081	-200,000	-0,005	0,053
-165,066	416,533	-0,068	-0,104
-164,052	-200,000	0,019	-0,070
-163,037	-200,000	-0,005	-0,114
-162,023	207,919	-0,105	0,117
-161,008	-200,000	0,037	0,130
-159,993	260,390	0,062	0,077
-158,979	-100,856	-0,110	0,019
-157,964	320,572	-0,046	-0,062
-156,950	800,000	-0,022	-0,047
-155,935	451,818	-0,037	-0,059
-154,920	-11,648	0,073	-0,034
-153,906	-21,219	-0,205	-0,089
-152,891	87,929	0,090	-0,071
-151,877	-200,000	-0,023	0,084
-150,862	800,000	-0,015	-0,038
-149,847	-68,728	0,064	0,018
-148,833	234,719	-0,026	-0,030
-147,818	800,000	0,048	-0,144
-146,804	47,722	0,071	-0,047
-145,789	-200,000	-0,019	0,083
-144,775	-166,621	0,145	-0,004
-143,760	-200,000	-0,031	-0,129
-142,745	-9,196	-0,129	0,061
-141,731	-108,602	0,081	-0,012
-140,716	-200,000	-0,005	-0,047
-139,702	370,269	-0,045	0,065
-138,687	-99,370	0,122	0,022
-137,672	28,035	0,013	0,008
-136,658	114,384	-0,104	-0,090
-135,643	421,558	0,076	-0,116
-134,629	-16,700	0,146	0,066
-133,614	458,940	0,040	-0,064
-132,599	-83,567	-0,172	0,039
-131,585	-61,117	-0,139	-0,041
-130,570	9,783	0,095	-0,051
-129,556	-114,449	-0,157	-0,021
-128,541	536,564	0,031	-0,053
-127,526	800,000	0,088	-0,176
-126,512	-200,000	-0,023	0,103
-125,497	-55,885	0,121	-0,038
-124,483	-20,221	0,101	0,044
-123,468	-141,544	-0,179	0,013
-122,453	-170,366	-0,142	0,003
-121,439	38,227	-0,072	0,045
-120,424	175,446	-0,040	-0,041
-119,410	-200,000	0,021	0,131
-118,395	755,793	-0,040	0,078
