DTS Sentinel unit serial number:	SN410029Multiplexer serial number:	ORYXHardware model number:	OX2-SRSoftware version number:	ORYX F/W v4,00 Oryx Data Collector v3.7.2.0data status	okinstallation	BH3 CH2differential loss correction	single-endedforward channel	channel 2reverse channel	N/Adate	2023/12/05time	13:02:28forward acquisition time	300,00reverse acquisition time	0,00gamma	499,1914k internal	0,3195k external	0,3195temperature offset calibration	1,0000default loss term (dB/km)	0,3820temperature slope calibration	1,0000multiplexer offset coefficient	1,0000multiplexer slope coefficient	1,0000fibre end	0,00T internal ref (°C)	10,05T ext. ref 1 (°C)	-4,27T ext. ref 2 (°C)	-4,35length (m)	temperature (°C)	Stokes	anti-Stokes-744,400	-1,670	-0,107	-0,055
-743,385	660,202	-0,168	0,317
-742,371	-97,907	-0,075	0,014
-741,356	30,378	-0,218	0,136
-740,342	-168,426	0,035	0,001
-739,327	-118,561	-0,306	0,039
-738,312	-144,713	-0,031	0,002
-737,298	86,825	-0,166	0,134
-736,283	227,424	0,052	-0,062
-735,269	-79,726	-0,209	0,051
-734,254	-200,000	-0,004	-0,096
-733,239	222,676	-0,223	-0,262
-732,225	93,224	-0,048	-0,039
-731,210	93,717	0,141	0,117
-730,196	-200,000	0,006	-0,021
-729,181	616,753	-0,033	-0,060
-728,167	-44,125	-0,049	0,018
-727,152	654,256	-0,049	-0,092
-726,137	186,539	-0,143	-0,155
-725,123	448,198	-0,037	-0,060
-724,108	182,206	-0,111	-0,119
-723,094	-65,884	-0,147	-0,042
-722,079	558,939	-0,069	-0,122
-721,064	-164,616	0,066	-0,002
-720,050	-200,000	-0,021	-0,104
-719,035	159,481	-0,108	-0,110
-718,021	407,052	0,034	-0,052
-717,006	150,875	0,136	-0,135
-715,991	65,281	-0,121	-0,089
-714,977	121,036	0,039	-0,036
-713,962	-109,116	-0,176	-0,027
-712,948	800,000	0,019	0,046
-711,933	800,000	-0,033	-0,095
-710,918	-23,644	0,111	0,048
-709,904	122,733	-0,038	-0,034
-708,889	304,239	-0,125	-0,169
-707,875	-33,666	-0,137	-0,055
-706,860	-58,788	0,057	-0,018
-705,845	-200,000	0,010	0,073
-704,831	-200,000	-0,019	0,157
-703,816	-58,241	0,153	0,048
-702,802	11,953	-0,035	-0,020
-701,787	800,000	0,062	-0,127
-700,772	-200,000	-0,000	-0,043
-699,758	-28,456	-0,093	0,039
-698,743	-1,134	0,087	-0,045
-697,729	800,000	0,066	0,191
-696,714	41,070	-0,003	-0,002
-695,699	-66,441	-0,105	-0,030
-694,685	36,625	-0,102	-0,065
-693,670	520,554	-0,015	-0,025
-692,656	-200,000	-0,010	-0,101
-691,641	800,000	0,043	0,130
-690,627	-68,996	0,113	-0,031
-689,612	285,741	-0,036	0,047
-688,597	611,917	0,020	-0,037
-687,583	22,458	-0,081	0,048
-686,568	-119,796	-0,147	0,018
-685,554	-33,682	-0,091	0,036
-684,539	181,836	-0,025	-0,027
-683,524	-53,758	0,021	-0,007
-682,510	-41,951	0,015	-0,006
-681,495	62,350	-0,097	0,070
-680,481	112,697	0,047	-0,042
-679,466	800,000	-0,037	-0,116
-678,451	267,944	-0,065	-0,082
-677,437	-200,000	0,044	-0,200
-676,422	-200,000	0,001	0,033
-675,408	-200,000	-0,030	-0,132
-674,393	370,713	0,053	-0,078
-673,378	766,909	-0,050	0,100
-672,364	182,076	0,128	-0,137
-671,349	22,137	0,053	0,031
-670,335	55,824	-0,079	-0,056
-669,320	43,104	-0,024	0,016
-668,305	78,927	-0,045	0,035
-667,291	138,701	-0,053	-0,050
-666,276	-109,724	-0,134	-0,020
-665,262	408,046	0,023	0,036
-664,247	203,090	-0,007	-0,008
-663,232	68,140	-0,084	-0,062
-662,218	-124,567	0,061	-0,007
-661,203	-200,000	0,004	0,148
-660,189	-200,000	-0,024	0,158
-659,174	-81,267	-0,024	0,006
-658,159	-54,369	-0,071	0,023
-657,145	176,699	-0,102	-0,108
-656,130	-105,476	-0,062	0,010
-655,116	-200,000	-0,014	0,103
-654,101	-200,000	0,002	-0,058
-653,086	800,000	0,030	-0,071
-652,072	370,775	-0,065	-0,096
-651,057	0,547	0,040	-0,021
-650,043	-200,000	-0,007	-0,054
-649,028	102,473	-0,058	0,049
-648,014	21,848	-0,043	-0,025
-646,999	200,395	0,123	0,138
-645,984	-200,000	-0,001	-0,019
-644,970	329,843	0,041	-0,058
-643,955	-200,000	-0,001	-0,129
-642,941	800,000	-0,069	0,179
-641,926	-34,783	-0,076	0,030
-640,911	528,759	-0,050	0,087
-639,897	-200,000	-0,012	0,054
-638,882	789,782	-0,037	0,075
-637,868	-141,179	0,073	0,005
-636,853	-78,587	-0,122	0,030
-635,838	635,256	-0,072	-0,133
-634,824	800,000	0,048	-0,134
-633,809	78,157	0,056	-0,043
-632,795	800,000	-0,043	-0,097
-631,780	-52,229	-0,104	-0,035
-630,765	-200,000	-0,020	-0,099
-629,751	-200,000	-0,021	0,093
-628,736	800,000	-0,037	0,100
-627,722	99,189	-0,136	0,114
-626,707	629,209	0,119	-0,218
-625,692	-3,277	0,055	0,028
-624,678	-63,829	-0,048	-0,014
-623,663	-97,078	-0,159	-0,030
-622,649	248,113	-0,037	-0,046
-621,634	681,893	-0,015	-0,029
-620,619	96,708	0,058	-0,048
-619,605	-200,000	0,017	0,097
-618,590	-162,095	0,028	-0,001
-617,576	800,000	0,043	0,130
-616,561	-74,004	-0,094	-0,025
-615,546	473,776	0,085	-0,139
-614,532	203,472	-0,102	-0,114
-613,517	-129,340	-0,280	-0,028
-612,503	800,000	0,020	0,060
-611,488	181,898	0,141	-0,151
-610,474	800,000	-0,018	-0,056
-609,459	-200,000	-0,000	-0,065
-608,444	75,598	0,060	-0,046
-607,430	485,925	0,033	0,055
-606,415	800,000	0,030	-0,075
-605,401	-200,000	-0,013	0,107
-604,386	-200,000	0,029	0,096
-603,371	-2,614	0,036	0,018
-602,357	800,000	0,049	-0,110
-601,342	125,917	-0,137	-0,126
-600,328	288,291	-0,070	-0,092
-599,313	800,000	0,030	0,070
-598,298	465,138	0,058	-0,095
-597,284	-22,836	0,030	-0,013
-596,269	8,285	-0,099	0,054
-595,255	-200,000	0,019	0,144
-594,240	-200,000	-0,009	0,044
-593,225	176,334	-0,113	-0,119
-592,211	800,000	-0,029	-0,068
-591,196	39,536	0,037	-0,024
-590,182	-200,000	-0,015	0,089
-589,167	-68,163	0,024	-0,007
-588,152	204,787	-0,027	0,031
-587,138	-200,000	0,013	-0,042
-586,123	-119,738	0,046	-0,006
-585,109	-12,685	-0,090	-0,043
-584,094	-200,000	0,001	-0,106
-583,079	162,278	0,052	-0,052
-582,065	-41,061	0,083	0,031
-581,050	-200,000	0,012	-0,101
-580,036	-27,930	0,047	0,020
-579,021	386,954	-0,063	-0,094
-578,006	-158,003	-0,222	-0,009
-576,992	-200,000	0,003	-0,013
-575,977	679,098	0,113	0,214
-574,963	205,051	0,037	0,042
-573,948	80,026	-0,011	0,009
-572,934	-91,193	-0,124	-0,025
-571,919	-200,000	-0,005	-0,082
-570,904	-200,000	0,021	0,074
-569,890	-200,000	-0,016	-0,183
-568,875	151,818	0,012	-0,012
-567,861	261,992	0,016	0,021
-566,846	-98,412	0,120	0,022
-565,831	81,424	-0,097	0,076
-564,817	-200,000	-0,038	0,122
-563,802	306,398	-0,048	-0,064
-562,788	-115,408	-0,045	0,006
-561,773	-58,794	-0,147	0,046
-560,758	800,000	0,028	0,085
-559,744	108,781	-0,078	0,068
-558,729	613,134	0,030	-0,055
-557,715	-200,000	0,011	0,056
-556,700	-143,242	-0,042	-0,003
-555,685	325,410	-0,032	0,045
-554,671	204,579	0,110	-0,124
-553,656	-200,000	-0,000	0,046
-552,642	-123,937	-0,031	-0,004
-551,627	277,520	0,040	0,052
-550,612	113,961	-0,103	-0,091
-549,598	16,113	0,093	-0,053
-548,583	245,216	0,112	-0,136
-547,569	-200,000	-0,011	-0,078
-546,554	296,280	0,048	-0,063
-545,539	23,808	0,091	-0,054
-544,525	57,354	-0,047	0,033
-543,510	149,749	-0,045	-0,044
-542,496	338,595	-0,079	-0,112
-541,481	42,115	-0,138	-0,091
-540,466	-200,000	-0,013	-0,084
-539,452	271,073	-0,021	-0,027
-538,437	800,000	-0,010	0,030
-537,423	-119,348	-0,111	-0,014
-536,408	-76,469	0,119	0,030
-535,393	-102,566	-0,102	0,017
-534,379	-56,751	-0,072	-0,023
-533,364	-73,256	-0,094	0,025
-532,350	-7,255	-0,076	-0,037
-531,335	-67,647	0,047	-0,013
-530,321	415,053	-0,020	-0,031
-529,306	-116,065	-0,080	0,011
-528,291	-200,000	-0,019	0,109
-527,277	686,381	0,060	-0,114
-526,262	-123,958	0,138	0,015
-525,248	800,000	0,036	-0,080
-524,233	-109,382	0,152	0,023
-523,218	-76,022	0,172	-0,044
-522,204	22,923	-0,033	0,019
-521,189	509,697	-0,128	-0,215
-520,175	-200,000	-0,015	-0,066
-519,160	-155,455	0,095	-0,004
-518,145	32,535	0,084	0,052
-517,131	70,396	0,102	0,076
-516,116	291,848	0,049	0,065
-515,102	-135,279	-0,169	0,014
-514,087	-164,591	0,059	-0,002
-513,072	-103,951	-0,084	-0,014
-512,058	-21,593	-0,100	-0,044
-511,043	357,099	-0,010	0,015
-510,029	800,000	0,047	0,123
-509,014	-200,000	-0,013	0,072
-507,999	-51,861	-0,052	-0,017
-506,985	123,103	0,041	-0,037
-505,970	800,000	0,056	-0,162
-504,956	30,598	0,058	0,036
-503,941	-140,024	-0,135	-0,010
-502,926	321,045	-0,003	-0,003
-501,912	127,813	-0,063	-0,058
-500,897	-200,000	0,016	0,055
-499,883	-38,093	-0,083	0,032
-498,868	632,203	0,070	-0,128
-497,853	137,329	-0,163	-0,154
-496,839	-10,588	0,092	0,044
-495,824	-109,809	-0,032	0,005
-494,810	138,403	-0,076	-0,072
-493,795	-200,000	-0,004	0,095
-492,781	274,287	0,053	-0,068
-491,766	800,000	0,021	-0,047
-490,751	259,752	-0,041	0,051
-489,737	132,812	0,062	-0,058
-488,722	800,000	-0,008	0,024
-487,708	123,922	0,104	0,094
-486,693	71,230	0,057	0,042
-485,678	-200,000	-0,006	-0,031
-484,664	-88,144	-0,170	-0,037
-483,649	248,320	-0,040	0,049
-482,635	504,539	0,053	-0,089
-481,620	-200,000	0,018	0,061
-480,605	2,379	0,039	-0,021
-479,591	-32,063	0,043	-0,017
-478,576	6,136	-0,100	-0,053
-477,562	-70,963	-0,079	0,021
-476,547	-107,451	0,059	-0,009
-475,532	140,795	-0,074	-0,071
-474,518	119,437	0,081	-0,072
-473,503	183,333	-0,063	-0,067
-472,489	-106,180	0,051	0,008
-471,474	-200,000	0,012	0,082
-470,459	146,660	-0,099	-0,096
-469,445	-30,158	0,016	-0,007
-468,430	-200,000	-0,001	0,024
-467,416	800,000	-0,047	0,097
-466,401	91,996	0,112	0,091
-465,386	-98,301	-0,074	-0,014
-464,372	-151,426	-0,166	0,009
-463,357	-200,000	0,012	-0,154
-462,343	-156,668	-0,052	-0,002
-461,328	-200,000	-0,012	-0,039
-460,313	101,162	0,036	-0,030
-459,299	245,593	0,127	0,154
-458,284	-200,000	-0,009	0,078
-457,270	-200,000	-0,018	0,196
-456,255	-75,148	0,034	-0,009
-455,241	238,248	0,007	0,009
-454,226	800,000	-0,025	-0,058
-453,211	4,330	-0,014	0,007
-452,197	-125,132	-0,029	-0,003
-451,182	523,482	0,062	-0,105
-450,168	800,000	0,004	-0,010
-449,153	-200,000	0,008	-0,160
-448,138	23,259	0,070	-0,042
-447,124	-200,000	-0,000	0,026
-446,109	800,000	-0,008	-0,022
-445,095	-148,684	0,156	0,009
-444,080	-200,000	-0,007	0,136
-443,065	-200,000	-0,001	-0,031
-442,051	88,297	0,052	-0,041
-441,036	-170,667	-0,068	0,002
-440,022	62,714	-0,126	-0,091
-439,007	315,880	-0,057	-0,077
-437,992	-200,000	-0,006	0,023
-436,978	-26,648	0,093	0,039
-435,963	-85,353	0,123	0,027
-434,949	10,461	-0,064	-0,035
-433,934	-178,196	-0,077	0,001
-432,919	-13,813	-0,100	0,046
-431,905	16,926	0,044	-0,025
-430,890	127,968	0,150	-0,137
-429,876	102,729	0,112	-0,094
-428,861	7,196	0,102	-0,055
-427,846	-76,014	-0,159	0,040
-426,832	88,588	-0,052	-0,041
-425,817	37,000	-0,156	-0,099
-424,803	-56,900	-0,115	-0,036
-423,788	-200,000	-0,007	-0,144
-422,773	552,886	0,025	0,043
-421,759	-200,000	0,003	0,015
-420,744	183,447	0,068	-0,072
-419,730	345,239	0,061	-0,086
-418,715	3,473	-0,131	0,068
-417,701	97,881	0,015	-0,012
-416,686	-183,016	0,159	0,002
-415,671	-12,682	-0,089	-0,042
-414,657	112,481	0,135	0,118
-413,642	280,578	0,055	0,071
-412,628	26,324	-0,155	-0,093
-411,613	800,000	0,062	-0,128
-410,598	390,330	-0,015	0,023
-409,584	-67,991	0,147	0,041
-408,569	-29,071	0,125	0,051
-407,555	106,738	0,077	0,066
-406,540	-6,084	-0,022	0,011
-405,525	-56,386	-0,106	-0,033
-404,511	-64,409	-0,113	0,033
-403,496	646,072	-0,013	-0,024
-402,482	-8,881	0,074	0,035
-401,467	-200,000	0,038	0,164
-400,452	-2,890	-0,033	-0,017
-399,438	-200,000	0,022	0,169
-398,423	243,958	-0,088	-0,107
-397,409	-200,000	-0,002	-0,112
-396,394	-200,000	-0,003	-0,012
-395,379	-200,000	0,002	-0,066
-394,365	-119,075	0,114	-0,014
-393,350	-200,000	0,020	0,140
-392,336	-200,000	0,012	0,164
-391,321	-200,000	-0,039	0,125
-390,306	131,480	-0,046	0,043
-389,292	800,000	-0,060	0,155
-388,277	-200,000	-0,014	0,089
-387,263	800,000	0,025	-0,080
-386,248	-19,844	0,181	0,080
-385,233	274,122	-0,032	-0,041
-384,219	800,000	-0,049	-0,108
-383,204	525,365	-0,102	-0,174
-382,190	346,376	0,045	-0,064
-381,175	-10,829	-0,083	0,039
-380,160	318,306	-0,076	0,104
-379,146	52,323	0,085	0,058
-378,131	58,861	0,152	-0,108
-377,117	6,405	-0,048	0,026
-376,102	323,947	-0,047	0,064
-375,088	-130,772	-0,013	-0,001
-374,073	564,131	0,041	0,071
-373,058	800,000	-0,015	0,031
-372,044	800,000	-0,084	0,222
-371,029	230,233	0,046	0,054
-370,015	-61,411	-0,202	0,061
-369,000	-44,054	0,085	-0,030
-367,985	-200,000	0,014	-0,054
-366,971	-4,150	-0,073	-0,036
-365,956	107,815	0,090	0,077
-364,942	-16,777	0,043	-0,020
-363,927	-49,082	-0,014	0,005
-362,912	-200,000	0,002	-0,047
-361,898	-200,000	0,046	-0,183
-360,883	-16,607	0,043	0,020
-359,869	-70,589	-0,082	0,022
-358,854	-200,000	0,038	0,146
-357,839	800,000	0,008	0,024
-356,825	-200,000	0,040	0,218
-355,810	-63,340	-0,079	0,023
-354,796	-63,597	0,120	0,035
-353,781	-77,917	0,047	0,012
-352,766	264,216	0,049	0,061
-351,752	-58,674	-0,130	-0,040
-350,737	-90,414	-0,131	0,027
-349,723	95,732	0,165	0,135
-348,708	401,575	0,060	0,091
-347,693	-200,000	-0,002	-0,054
-346,679	-80,546	-0,143	0,034
-345,664	149,252	-0,082	0,079
-344,650	-175,823	0,064	-0,001
-343,635	785,488	0,040	0,079
-342,620	800,000	-0,009	-0,021
-341,606	56,784	0,056	-0,039
-340,591	-57,456	-0,012	-0,004
-339,577	700,967	0,065	0,122
-338,562	800,000	0,036	0,079
-337,548	800,000	-0,002	0,006
-336,533	800,000	0,012	-0,035
-335,518	-200,000	0,010	0,033
-334,504	-172,401	-0,149	0,003
-333,489	-200,000	-0,010	0,035
-332,475	-200,000	-0,041	-0,146
-331,460	54,891	0,102	0,070
-330,445	425,833	-0,080	0,124
-329,431	-71,152	0,122	-0,033
-328,416	-10,112	-0,025	0,012
-327,402	176,432	0,047	-0,049
-326,387	-11,777	-0,078	-0,036
-325,372	201,751	-0,055	0,061
-324,358	189,163	-0,113	0,122
-323,343	-149,422	0,155	-0,009
-322,329	-1,097	0,050	-0,025
-321,314	-200,000	0,031	0,116
-320,299	-21,649	0,018	-0,008
-319,285	-200,000	0,003	0,099
-318,270	349,545	0,005	0,008
-317,256	-137,687	-0,067	0,005
-316,241	-118,785	0,128	-0,016
-315,226	661,535	0,058	0,107
-314,212	263,749	0,061	0,077
-313,197	-28,050	0,098	0,041
-312,183	800,000	-0,029	0,067
-311,168	515,397	-0,032	0,055
-310,153	-90,696	0,049	0,010
-309,139	-69,099	0,075	0,021
-308,124	134,678	-0,117	-0,109
-307,110	-18,907	0,083	-0,037
-306,095	41,982	0,110	-0,071
-305,080	128,280	-0,042	0,039
-304,066	800,000	0,042	-0,090
-303,051	620,554	-0,051	0,092
-302,037	-200,000	0,004	-0,091
-301,022	-200,000	-0,022	0,083
-300,008	-200,000	0,041	0,138
-298,993	800,000	0,026	-0,081
-297,978	165,027	-0,087	0,088
-296,964	800,000	0,025	-0,065
-295,949	275,780	-0,058	-0,074
-294,935	467,232	-0,038	0,061
-293,920	-45,358	0,184	0,065
-292,905	-38,570	0,079	-0,030
-291,891	800,000	-0,045	0,139
-290,876	-200,000	-0,007	0,089
-289,862	-200,000	0,008	-0,070
-288,847	-42,479	-0,080	0,029
-287,832	-200,000	-0,008	-0,150
-286,818	252,816	0,050	-0,061
-285,803	-200,000	0,000	0,120
-284,789	-109,150	0,109	0,016
-283,774	800,000	-0,048	-0,109
-282,759	617,843	-0,019	-0,035
-281,745	-100,031	0,028	-0,005
-280,730	38,296	0,101	-0,064
-279,716	-200,000	0,006	-0,077
-278,701	-110,145	-0,140	-0,021
-277,686	247,795	-0,037	0,045
-276,672	-107,786	-0,038	-0,006
-275,657	-90,583	0,174	-0,036
-274,643	-200,000	0,029	-0,197
-273,628	800,000	0,028	-0,087
-272,613	800,000	0,072	-0,147
-271,599	229,226	-0,046	0,053
-270,584	-200,000	0,041	0,137
-269,570	800,000	0,071	0,199
-268,555	183,395	-0,034	0,036
-267,540	143,682	-0,021	-0,020
-266,526	-7,927	-0,054	0,026
-265,511	83,036	0,058	0,045
-264,497	-7,567	0,062	-0,030
-263,482	-183,369	0,105	0,001
-262,467	6,952	0,088	0,047
-261,453	800,000	-0,053	0,122
-260,438	700,205	-0,047	-0,090
-259,424	521,183	-0,084	-0,141
-258,409	172,782	-0,077	-0,079
-257,395	105,057	-0,026	-0,022
-256,380	-200,000	0,027	-0,118
-255,365	-200,000	-0,044	0,158
-254,351	-200,000	-0,013	-0,083
-253,336	57,907	0,059	-0,041
-252,322	-128,452	0,155	0,015
-251,307	-200,000	0,055	-0,203
-250,292	148,697	-0,092	0,088
-249,278	291,826	0,123	0,160
-248,263	-104,666	-0,176	0,029
-247,249	404,289	-0,068	0,102
-246,234	-200,000	-0,009	-0,078
-245,219	800,000	-0,042	-0,130
-244,205	11,722	-0,085	0,046
-243,190	30,224	0,018	0,011
-242,176	-83,372	0,091	0,021
-241,161	2,127	-0,061	0,031
-240,146	-200,000	-0,005	0,063
-239,132	-47,738	-0,088	0,030
-238,117	-5,172	-0,081	-0,040
-237,103	-62,429	0,082	-0,024
-236,088	719,435	-0,053	0,101
-235,073	256,692	0,024	-0,029
-234,059	-27,074	-0,024	-0,010
-233,044	-32,496	0,080	0,032
-232,030	-90,631	-0,112	0,023
-231,015	-111,798	0,047	0,007
-230,000	-200,000	0,027	-0,097
-228,986	-62,515	-0,063	0,019
-227,971	108,024	0,127	0,108
-226,957	-68,777	0,081	-0,022
-225,942	359,032	-0,024	-0,034
-224,927	113,925	-0,030	-0,026
-223,913	800,000	0,038	-0,098
-222,898	-200,000	0,005	-0,028
-221,884	-13,258	0,120	-0,055
-220,869	106,273	-0,022	0,019
-219,855	449,549	0,036	0,056
-218,840	159,351	0,048	0,047
-217,825	-200,000	-0,024	0,078
-216,811	-55,821	0,031	0,010
-215,796	-101,501	0,062	0,011
-214,782	149,000	0,011	-0,010
-213,767	515,481	0,049	0,082
-212,752	-200,000	-0,014	-0,100
-211,738	149,210	-0,085	0,082
-210,723	313,550	0,110	0,149
-209,709	-200,000	0,016	-0,112
-208,694	219,849	0,029	0,033
-207,679	259,213	-0,065	-0,080
-206,665	460,171	0,076	0,121
-205,650	701,537	-0,027	0,052
-204,636	-200,000	0,024	0,089
-203,621	-190,604	0,111	-0,001
-202,606	761,431	-0,056	0,108
-201,592	-105,483	-0,051	0,008
-200,577	31,518	0,183	-0,112
-199,563	800,000	0,060	0,119
-198,548	-200,000	-0,037	0,130
-197,533	800,000	-0,038	-0,110
-196,519	-200,000	0,023	0,170
-195,504	-128,903	-0,075	-0,007
-194,490	-159,357	-0,066	0,003
-193,475	119,100	-0,102	0,090
-192,460	14,027	-0,026	0,015
-191,446	209,002	0,085	-0,095
-190,431	800,000	0,036	-0,074
-189,417	81,351	-0,092	-0,071
-188,402	-77,967	-0,116	0,028
-187,387	455,554	0,067	-0,106
-186,373	339,912	0,054	-0,075
-185,358	265,330	-0,060	0,075
-184,344	31,426	0,129	0,079
-183,329	-200,000	-0,021	0,142
-182,315	676,476	-0,028	0,052
-181,300	-81,424	-0,064	0,015
-180,285	800,000	-0,052	-0,125
-179,271	238,960	-0,013	-0,015
-178,256	70,860	0,051	-0,038
-177,242	53,325	0,141	-0,096
-176,227	406,075	-0,084	0,126
-175,212	491,129	-0,062	0,101
-174,198	-120,334	0,019	0,002
-173,183	-170,412	0,046	0,001
-172,169	372,696	0,021	-0,030
-171,154	10,222	0,119	0,064
-170,139	-200,000	-0,012	-0,043
-169,125	-183,932	0,098	-0,001
-168,110	-200,000	-0,022	0,071
-167,096	7,345	-0,091	-0,048
-166,081	-84,793	-0,047	0,010
-165,066	676,884	0,049	-0,091
-164,052	-104,174	0,088	-0,014
-163,037	249,551	-0,026	0,032
-162,023	-176,192	0,218	0,004
-161,008	800,000	-0,027	-0,063
-159,993	-200,000	0,005	-0,016
-158,979	-31,136	-0,111	-0,044
-157,964	141,030	-0,069	-0,065
-156,950	-32,130	0,081	-0,032
-155,935	174,198	0,038	-0,039
-154,920	-200,000	0,020	-0,096
-153,906	800,000	-0,031	-0,080
-152,891	300,640	-0,111	0,146
-151,877	800,000	-0,024	-0,056
-150,862	-200,000	-0,004	-0,087
-149,847	-98,504	-0,103	-0,018
-148,833	-7,886	-0,025	-0,012
-147,818	-22,842	-0,018	-0,008
-146,804	800,000	0,044	-0,089
-145,789	4,913	0,068	-0,036
-144,775	-2,977	-0,178	-0,088
-143,760	-3,000	-0,141	0,070
-142,745	800,000	-0,012	0,030
-141,731	-127,800	0,083	-0,008
-140,716	109,507	-0,029	0,025
-139,702	-200,000	0,041	0,156
-138,687	-200,000	-0,011	-0,081
-137,672	640,646	-0,032	0,059
-136,658	800,000	-0,032	-0,065
-135,643	-110,651	-0,108	-0,016
-134,629	-172,252	-0,177	-0,004
-133,614	-110,746	0,126	-0,018
-132,599	-200,000	0,018	-0,081
-131,585	719,772	-0,074	0,141
-130,570	-200,000	-0,008	-0,094
-129,556	-88,629	-0,036	0,008
-128,541	501,078	-0,049	0,081
-127,526	-89,511	0,040	-0,008
-126,512	190,066	-0,062	0,066
-125,497	800,000	0,069	0,162
-124,483	162,252	-0,014	-0,014
-123,468	-200,000	-0,005	0,027
-122,453	-7,206	0,023	0,011
-121,439	4,655	0,092	0,048
-120,424	41,452	0,105	-0,068
