DTS Sentinel unit serial number:	SN410029Multiplexer serial number:	ORYXHardware model number:	OX2-SRSoftware version number:	ORYX F/W v4,00 Oryx Data Collector v3.7.2.0data status	okinstallation	BH3 CH2differential loss correction	single-endedforward channel	channel 2reverse channel	N/Adate	2023/12/05time	16:42:28forward acquisition time	300,00reverse acquisition time	0,00gamma	499,1914k internal	0,3192k external	0,3192temperature offset calibration	1,0000default loss term (dB/km)	0,3820temperature slope calibration	1,0000multiplexer offset coefficient	1,0000multiplexer slope coefficient	1,0000fibre end	0,00T internal ref (°C)	11,02T ext. ref 1 (°C)	-3,67T ext. ref 2 (°C)	-3,83length (m)	temperature (°C)	Stokes	anti-Stokes-744,400	-200,000	-0,064	-0,245
-743,385	11,697	-0,216	0,120
-742,371	-200,000	-0,016	-0,101
-741,356	40,603	-0,287	0,188
-740,342	459,920	-0,080	-0,130
-739,327	297,920	-0,158	0,212
-738,312	-200,000	-0,047	-0,263
-737,298	9,618	-0,257	0,142
-736,283	800,000	-0,019	-0,052
-735,269	-133,419	-0,169	0,015
-734,254	502,215	0,034	-0,057
-733,239	-136,653	-0,362	0,030
-732,225	241,384	-0,087	-0,106
-731,210	-14,709	0,038	0,018
-730,196	645,697	0,052	-0,097
-729,181	399,720	-0,096	-0,146
-728,167	45,879	-0,109	0,074
-727,152	-200,000	0,007	0,079
-726,137	800,000	-0,013	0,040
-725,123	-200,000	-0,034	-0,196
-724,108	-200,000	-0,005	-0,075
-723,094	-189,535	-0,115	0,001
-722,079	422,310	-0,019	0,030
-721,064	603,651	-0,083	-0,152
-720,050	-116,518	-0,157	-0,021
-719,035	-1,508	-0,052	0,026
-718,021	-92,016	-0,101	-0,021
-717,006	-91,050	0,017	0,003
-715,991	-200,000	-0,005	-0,069
-714,977	203,064	-0,056	-0,063
-713,962	-200,000	-0,001	-0,138
-712,948	733,582	0,034	-0,066
-711,933	-40,017	-0,082	-0,031
-710,918	-200,000	0,031	-0,107
-709,904	88,434	0,051	0,042
-708,889	172,663	-0,051	-0,053
-707,875	43,004	0,034	-0,023
-706,860	351,059	0,084	-0,122
-705,845	800,000	-0,019	0,048
-704,831	-200,000	0,042	0,157
-703,816	-200,000	0,058	0,263
-702,802	82,978	-0,073	0,058
-701,787	355,631	-0,092	-0,134
-700,772	800,000	-0,030	-0,089
-699,758	-200,000	-0,006	0,068
-698,743	506,345	-0,052	0,087
-697,729	-80,115	-0,092	0,022
-696,714	306,342	0,039	0,053
-695,699	14,615	-0,185	0,105
-694,685	-200,000	-0,039	-0,155
-693,670	-200,000	0,017	-0,141
-692,656	-200,000	0,008	-0,097
-691,641	-71,905	0,058	-0,016
-690,627	-97,040	0,121	-0,023
-689,612	12,541	-0,079	-0,044
-688,597	-63,792	-0,050	-0,015
-687,583	800,000	-0,038	0,104
-686,568	147,554	-0,077	-0,076
-685,554	286,104	-0,007	0,009
-684,539	116,976	-0,078	-0,070
-683,524	800,000	0,014	0,040
-682,510	224,634	-0,147	-0,173
-681,495	-29,208	-0,120	-0,050
-680,481	-200,000	-0,002	-0,130
-679,466	287,381	-0,076	-0,100
-678,451	87,697	-0,087	-0,070
-677,437	147,369	-0,059	0,058
-676,422	-63,886	0,017	-0,005
-675,408	-200,000	0,009	-0,198
-674,393	-61,338	-0,092	-0,028
-673,378	800,000	-0,030	-0,093
-672,364	-200,000	-0,044	-0,172
-671,349	289,624	-0,049	-0,065
-670,335	800,000	-0,097	0,199
-669,320	-200,000	-0,021	-0,068
-668,305	555,255	-0,013	0,022
-667,291	214,195	0,099	-0,114
-666,276	-39,096	-0,048	0,018
-665,262	-111,308	-0,028	0,004
-664,247	408,379	-0,087	-0,134
-663,232	137,092	0,068	0,065
-662,218	-125,439	0,070	0,008
-661,203	-44,310	0,062	0,022
-660,189	-137,413	-0,062	-0,005
-659,174	21,125	0,194	-0,114
-658,159	153,613	-0,169	-0,168
-657,145	344,093	0,035	-0,050
-656,130	33,292	-0,102	-0,064
-655,116	404,222	0,002	-0,003
-654,101	694,725	-0,048	-0,092
-653,086	649,348	-0,031	-0,058
-652,072	-72,508	-0,103	0,027
-651,057	671,415	-0,025	0,048
-650,043	38,835	-0,048	-0,031
-649,028	47,427	-0,031	-0,021
-648,014	66,433	0,129	0,095
-646,999	-84,565	0,026	-0,006
-645,984	47,406	-0,081	-0,055
-644,970	800,000	-0,018	0,057
-643,955	60,802	-0,081	-0,058
-642,941	-200,000	0,020	-0,066
-641,926	-200,000	-0,009	0,083
-640,911	-161,818	-0,028	0,001
-639,897	800,000	0,047	0,110
-638,882	31,740	0,121	0,075
-637,868	-37,759	-0,126	-0,049
-636,853	-200,000	0,013	-0,125
-635,838	265,339	0,037	-0,046
-634,824	19,829	0,199	-0,116
-633,809	278,910	-0,015	0,019
-632,795	-200,000	0,002	0,172
-631,780	130,740	0,023	0,021
-630,765	87,884	-0,017	0,014
-629,751	383,527	-0,068	-0,103
-628,736	169,362	-0,043	0,045
-627,722	-200,000	0,004	0,066
-626,707	96,198	0,086	-0,072
-625,692	225,968	-0,058	0,069
-624,678	-87,292	0,117	0,026
-623,663	180,777	-0,005	0,005
-622,649	-23,415	-0,089	0,039
-621,634	-94,140	-0,117	-0,023
-620,619	5,370	-0,076	-0,041
-619,605	19,108	-0,022	0,013
-618,590	-200,000	-0,016	-0,064
-617,576	-28,148	-0,021	0,009
-616,561	-200,000	-0,007	-0,136
-615,546	-200,000	0,006	-0,053
-614,532	-200,000	-0,007	-0,047
-613,517	-81,573	-0,070	-0,017
-612,503	-200,000	-0,011	-0,085
-611,488	59,281	-0,092	-0,066
-610,474	425,183	0,023	0,036
-609,459	-200,000	-0,018	0,071
-608,444	27,125	0,118	0,071
-607,430	-23,085	-0,064	-0,028
-606,415	-65,919	-0,146	-0,042
-605,401	90,087	0,075	-0,061
-604,386	177,185	0,077	0,082
-603,371	-43,135	0,046	0,017
-602,357	266,149	-0,063	0,080
-601,342	371,221	0,053	-0,078
-600,328	201,901	-0,081	-0,091
-599,313	-39,429	-0,046	0,017
-598,298	605,032	0,032	0,059
-597,284	109,367	0,021	0,018
-596,269	800,000	-0,004	0,012
-595,255	114,578	-0,096	-0,085
-594,240	-200,000	0,006	-0,088
-593,225	252,028	-0,019	0,023
-592,211	-42,161	-0,135	-0,050
-591,196	51,228	-0,104	-0,072
-590,182	102,597	0,031	0,027
-589,167	800,000	-0,034	-0,079
-588,152	-83,433	-0,142	-0,033
-587,138	649,818	-0,049	0,092
-586,123	157,009	-0,040	0,040
-585,109	-200,000	0,012	-0,078
-584,094	800,000	0,033	0,069
-583,079	145,358	0,023	0,023
-582,065	-12,785	0,109	0,051
-581,050	-117,366	0,080	0,010
-580,036	-200,000	-0,001	-0,145
-579,021	68,906	0,055	-0,041
-578,006	56,548	0,105	-0,074
-576,992	189,064	0,065	0,070
-575,977	507,063	-0,025	-0,041
-574,963	-200,000	-0,004	0,032
-573,948	317,253	-0,018	-0,025
-572,934	-20,026	0,105	-0,047
-571,919	578,043	-0,027	-0,049
-570,904	-138,422	-0,197	-0,015
-569,890	-200,000	-0,012	0,106
-568,875	-158,411	-0,172	0,007
-567,861	800,000	0,017	0,035
-566,846	48,461	-0,023	-0,016
-565,831	-200,000	0,006	-0,121
-564,817	800,000	-0,042	-0,126
-563,802	134,751	-0,072	-0,068
-562,788	800,000	0,073	-0,160
-561,773	-200,000	-0,013	0,126
-560,758	11,471	0,093	0,052
-559,744	683,586	-0,033	0,063
-558,729	800,000	0,108	-0,243
-557,715	-151,580	-0,055	-0,003
-556,700	208,065	-0,054	0,062
-555,685	-200,000	-0,017	0,078
-554,671	116,204	0,028	0,025
-553,656	-200,000	0,008	0,138
-552,642	69,655	-0,032	0,024
-551,627	10,586	0,127	0,070
-550,612	276,639	-0,027	0,035
-549,598	181,261	-0,090	-0,096
-548,583	-1,443	0,063	0,032
-547,569	43,002	-0,063	0,041
-546,554	800,000	-0,071	0,196
-545,539	33,778	-0,053	-0,034
-544,525	800,000	-0,050	0,127
-543,510	164,381	0,066	0,067
-542,496	-200,000	0,007	-0,119
-541,481	88,807	0,101	-0,081
-540,466	483,261	-0,107	-0,177
-539,452	134,097	0,127	-0,119
-538,437	59,279	-0,122	0,087
-537,423	-200,000	0,007	0,070
-536,408	800,000	-0,019	-0,045
-535,393	412,734	-0,092	0,142
-534,379	499,398	0,020	0,033
-533,364	-34,367	0,080	-0,031
-532,350	384,836	0,117	0,175
-531,335	-200,000	0,003	0,029
-530,321	-200,000	0,029	0,160
-529,306	434,514	-0,018	0,028
-528,291	-177,605	-0,083	-0,001
-527,277	284,941	-0,087	-0,114
-526,262	-200,000	-0,035	-0,120
-525,248	-21,478	-0,025	0,011
-524,233	-60,997	0,101	-0,031
-523,218	350,331	0,111	0,158
-522,204	43,605	0,141	-0,093
-521,189	157,004	-0,010	0,010
-520,175	-200,000	-0,008	-0,062
-519,160	-133,363	0,055	0,005
-518,145	85,111	0,046	0,037
-517,131	-200,000	-0,001	0,019
-516,116	112,425	0,134	0,117
-515,102	800,000	0,017	0,052
-514,087	-38,263	-0,139	-0,053
-513,072	389,166	0,069	-0,103
-512,058	107,609	-0,084	-0,072
-511,043	51,944	0,022	-0,015
-510,029	134,227	-0,051	-0,048
-509,014	3,701	0,157	0,083
-507,999	245,517	-0,045	0,055
-506,985	7,225	-0,046	-0,024
-505,970	202,794	-0,069	-0,077
-504,956	800,000	-0,036	-0,111
-503,941	50,520	0,103	-0,070
-502,926	-200,000	0,002	0,021
-501,912	112,019	0,069	-0,061
-500,897	-15,694	-0,100	-0,046
-499,883	-144,725	0,053	-0,003
-498,868	37,663	-0,149	0,096
-497,853	-200,000	-0,003	-0,062
-496,839	-64,599	0,027	0,008
-495,824	-180,803	0,187	0,003
-494,810	774,373	0,081	0,159
-493,795	237,526	-0,123	-0,148
-492,781	-200,000	0,009	0,056
-491,766	-85,225	-0,139	0,031
-490,751	-21,388	0,029	-0,013
-489,737	-54,242	0,033	0,011
-488,722	-64,384	0,037	0,011
-487,708	69,024	-0,058	0,043
-486,693	800,000	0,012	-0,033
-485,678	-40,270	-0,019	0,007
-484,664	-50,047	-0,055	-0,019
-483,649	-200,000	-0,017	-0,089
-482,635	800,000	-0,028	-0,059
-481,620	57,668	-0,105	0,074
-480,605	255,357	-0,009	-0,011
-479,591	-61,683	0,063	-0,019
-478,576	205,674	0,033	0,037
-477,562	-135,713	0,009	0,001
-476,547	-141,602	-0,170	-0,012
-475,532	250,453	-0,060	-0,074
-474,518	-52,979	0,083	0,027
-473,503	445,505	0,028	0,044
-472,489	800,000	0,070	0,166
-471,474	-200,000	-0,002	0,024
-470,459	504,809	-0,032	0,054
-469,445	800,000	-0,028	0,070
-468,430	486,398	-0,055	-0,092
-467,416	-200,000	0,002	0,091
-466,401	-200,000	-0,011	0,121
-465,386	-128,370	0,224	0,023
-464,372	419,369	-0,036	-0,056
-463,357	-4,388	-0,083	-0,041
-462,343	9,169	-0,092	-0,050
-461,328	209,420	0,145	-0,164
-460,313	-45,462	-0,108	-0,038
-459,299	69,687	0,047	-0,035
-458,284	255,777	-0,029	-0,035
-457,270	-4,868	-0,040	0,020
-456,255	-200,000	0,013	-0,160
-455,241	800,000	0,051	-0,104
-454,226	-100,031	0,025	-0,004
-453,211	-78,125	0,036	-0,009
-452,197	-39,061	0,045	-0,017
-451,182	111,359	0,026	-0,023
-450,168	800,000	0,034	0,097
-449,153	-147,023	0,096	-0,006
-448,138	-59,691	-0,096	0,030
-447,124	-39,991	-0,089	0,033
-446,109	224,953	0,067	-0,079
-445,095	-32,016	0,107	0,043
-444,080	-86,859	0,109	-0,024
-443,065	800,000	0,051	0,117
-442,051	-200,000	-0,023	0,074
-441,036	-200,000	0,030	-0,115
-440,022	-200,000	-0,072	-0,271
-439,007	-200,000	0,024	0,099
-437,992	800,000	-0,010	-0,028
-436,978	207,413	0,061	0,069
-435,963	138,394	-0,047	-0,045
-434,949	-18,149	0,133	-0,060
-433,934	800,000	0,038	-0,108
-432,919	59,850	-0,038	0,027
-431,905	-130,899	-0,081	-0,008
-430,890	71,888	0,079	0,059
-429,876	65,270	0,147	-0,107
-428,861	800,000	0,033	-0,075
-427,846	-200,000	-0,034	-0,232
-426,832	800,000	0,006	-0,014
-425,817	470,638	-0,027	-0,044
-424,803	15,739	-0,065	0,037
-423,788	-200,000	0,003	0,143
-422,773	800,000	-0,026	-0,076
-421,759	-200,000	0,006	-0,036
-420,744	-56,341	0,084	0,027
-419,730	-30,819	-0,022	-0,009
-418,715	800,000	-0,037	-0,097
-417,701	800,000	-0,076	-0,189
-416,686	-132,882	0,045	0,004
-415,671	-106,217	0,073	-0,012
-414,657	800,000	-0,013	0,026
-413,642	17,127	-0,077	-0,044
-412,628	800,000	0,025	0,055
-411,613	800,000	-0,034	0,079
-410,598	-142,539	0,114	-0,008
-409,584	-200,000	0,001	-0,010
-408,569	800,000	-0,050	0,109
-407,555	55,471	0,118	0,082
-406,540	800,000	0,030	0,067
-405,525	800,000	0,062	-0,141
-404,511	185,623	-0,125	-0,134
-403,496	20,466	-0,021	0,012
-402,482	-21,453	0,094	0,041
-401,467	464,459	0,065	0,105
-400,452	205,107	0,090	0,100
-399,438	4,875	0,025	-0,013
-398,423	-43,322	-0,156	-0,056
-397,409	292,605	-0,055	-0,072
-396,394	-9,284	-0,068	0,033
-395,379	800,000	-0,063	-0,127
-394,365	-21,013	-0,087	0,038
-393,350	461,824	0,056	-0,090
-392,336	53,716	-0,021	0,014
-391,321	362,874	-0,125	0,181
-390,306	800,000	-0,030	-0,091
-389,292	-38,839	-0,128	0,048
-388,277	800,000	-0,050	0,143
-387,263	-10,493	0,100	0,047
-386,248	141,234	-0,048	0,045
-385,233	-200,000	0,024	0,128
-384,219	24,005	-0,213	-0,126
-383,204	-54,003	-0,024	0,008
-382,190	800,000	-0,072	-0,172
-381,175	-116,694	0,099	-0,013
-380,160	185,588	0,103	-0,110
-379,146	241,437	-0,024	0,029
-378,131	800,000	0,021	-0,050
-377,117	134,495	0,040	-0,038
-376,102	-200,000	-0,004	-0,049
-375,088	-0,951	-0,071	0,036
-374,073	-200,000	0,000	-0,049
-373,058	-200,000	0,010	0,066
-372,044	-39,173	-0,052	-0,020
-371,029	-200,000	-0,005	0,102
-370,015	-71,024	-0,045	0,012
-369,000	800,000	-0,004	0,008
-367,985	90,438	0,027	-0,022
-366,971	-200,000	0,007	-0,074
-365,956	800,000	0,027	-0,079
-364,942	-200,000	-0,007	0,029
-363,927	-104,343	0,026	-0,004
-362,912	800,000	-0,017	0,050
-361,898	161,304	0,023	-0,023
-360,883	29,563	-0,050	0,031
-359,869	-67,738	-0,075	0,021
-358,854	-106,797	0,077	-0,012
-357,839	-40,384	0,112	0,041
-356,825	182,065	0,134	0,142
-355,810	-200,000	0,018	0,096
-354,796	-115,144	-0,056	0,007
-353,781	112,999	-0,127	0,111
-352,766	-200,000	0,048	-0,179
-351,752	-14,830	-0,048	0,022
-350,737	800,000	0,051	-0,126
-349,723	-91,022	-0,077	-0,016
-348,708	800,000	-0,033	-0,068
-347,693	800,000	0,008	-0,018
-346,679	800,000	-0,031	-0,089
-345,664	-4,651	-0,057	0,028
-344,650	245,655	-0,052	-0,063
-343,635	247,201	-0,015	0,018
-342,620	136,998	0,111	0,104
-341,606	20,602	-0,119	-0,069
-340,591	128,713	0,061	-0,056
-339,577	311,139	0,055	-0,074
-338,562	-200,000	0,013	-0,100
-337,548	165,022	0,016	-0,017
-336,533	-200,000	-0,002	0,039
-335,518	-57,753	0,121	0,038
-334,504	-48,341	-0,074	0,025
-333,489	101,599	-0,041	-0,034
-332,475	2,347	0,039	-0,020
-331,460	-200,000	-0,029	-0,239
-330,445	-81,448	-0,048	0,011
-329,431	53,759	-0,019	0,013
-328,416	-200,000	0,009	0,068
-327,402	47,157	0,061	0,041
-326,387	28,395	-0,076	-0,046
-325,372	-200,000	0,021	0,123
-324,358	62,089	-0,074	-0,053
-323,343	121,371	-0,148	-0,132
-322,329	-200,000	0,011	-0,201
-321,314	3,142	0,058	-0,030
-320,299	212,572	-0,024	-0,027
-319,285	-67,412	0,114	-0,032
-318,270	-200,000	0,007	0,114
-317,256	-200,000	-0,002	-0,029
-316,241	587,613	-0,061	-0,107
-315,226	215,490	-0,110	0,126
-314,212	-89,970	0,153	0,032
-313,197	-22,744	0,020	-0,009
-312,183	800,000	0,021	0,060
-311,168	-200,000	0,013	0,057
-310,153	800,000	0,061	-0,128
-309,139	-200,000	0,006	-0,064
-308,124	-62,882	-0,123	0,036
-307,110	-6,943	0,024	0,012
-306,095	704,791	0,007	0,014
-305,080	39,410	0,072	-0,046
-304,066	248,664	0,062	0,076
-303,051	-200,000	0,008	-0,178
-302,037	-200,000	0,003	0,093
-301,022	-200,000	0,028	-0,108
-300,008	390,946	0,071	0,107
-298,993	336,546	0,023	0,032
-297,978	-43,415	0,159	-0,057
-296,964	323,564	-0,007	0,010
-295,949	-200,000	0,033	-0,121
-294,935	-103,396	-0,094	-0,016
-293,920	214,969	-0,034	0,039
-292,905	-200,000	0,002	0,124
-291,891	-200,000	0,035	0,164
-290,876	-155,365	-0,085	0,004
-289,862	-200,000	0,003	0,022
-288,847	366,818	0,021	0,031
-287,832	-200,000	-0,020	0,127
-286,818	-200,000	0,008	-0,089
-285,803	62,193	0,116	0,083
-284,789	800,000	0,014	0,044
-283,774	-200,000	-0,003	-0,020
-282,759	496,230	0,002	-0,003
-281,745	-200,000	-0,014	0,124
-280,730	333,393	-0,017	0,023
-279,716	13,088	0,055	0,031
-278,701	-78,623	-0,034	0,008
-277,686	2,915	0,033	0,017
-276,672	92,406	0,125	0,101
-275,657	-200,000	0,009	-0,056
-274,643	-120,558	-0,011	0,001
-273,628	-97,933	-0,100	0,018
-272,613	218,183	0,011	-0,013
-271,599	456,548	0,047	0,075
-270,584	264,662	-0,033	-0,042
-269,570	5,583	0,080	-0,042
-268,555	800,000	-0,048	-0,097
-267,540	261,013	-0,033	-0,041
-266,526	800,000	0,101	-0,273
-265,511	684,738	0,026	-0,049
-264,497	-200,000	0,020	-0,068
-263,482	-200,000	-0,011	-0,087
-262,467	800,000	-0,016	-0,049
-261,453	-200,000	0,011	-0,049
-260,438	-79,351	-0,076	-0,018
-259,424	-200,000	0,008	-0,069
-258,409	32,028	-0,055	-0,034
-257,395	-9,784	0,071	-0,034
-256,380	-200,000	0,024	0,089
-255,365	-58,149	-0,175	0,054
-254,351	44,983	-0,023	0,015
-253,336	-5,663	0,028	0,014
-252,322	212,602	0,067	0,076
-251,307	-113,290	-0,070	-0,010
-250,292	-69,469	0,060	-0,016
-249,278	-200,000	-0,011	0,038
-248,263	596,877	-0,036	0,065
-247,249	38,636	0,033	0,021
-246,234	-36,867	-0,123	0,047
-245,219	661,105	0,029	-0,053
-244,205	47,433	0,071	-0,047
-243,190	-81,820	-0,115	-0,027
-242,176	-105,940	0,248	-0,040
-241,161	361,888	-0,035	0,051
-240,146	-200,000	-0,004	0,174
-239,132	-200,000	0,033	0,163
-238,117	-200,000	-0,005	-0,107
-237,103	94,252	0,022	0,018
-236,088	305,792	-0,105	0,140
-235,073	248,117	0,100	-0,121
-234,059	-200,000	0,022	0,095
-233,044	16,140	0,045	-0,025
-232,030	-87,026	0,089	0,019
-231,015	-200,000	-0,006	-0,079
-230,000	-19,639	0,079	-0,035
-228,986	526,675	0,055	0,094
-227,971	-80,663	0,039	-0,009
-226,957	-85,483	-0,066	0,015
-225,942	-200,000	0,008	0,060
-224,927	135,434	-0,123	0,115
-223,913	671,848	-0,031	-0,057
-222,898	-200,000	0,008	-0,155
-221,884	3,566	-0,046	-0,024
-220,869	-200,000	-0,008	-0,039
-219,855	127,324	0,066	-0,060
-218,840	169,486	-0,076	0,078
-217,825	-200,000	-0,010	-0,063
-216,811	-108,239	-0,032	-0,005
-215,796	-2,596	-0,083	-0,041
-214,782	10,325	-0,096	-0,052
-213,767	518,868	0,096	0,162
-212,752	459,158	-0,067	0,107
-211,738	-200,000	0,028	0,093
-210,723	-200,000	0,029	0,107
-209,709	-132,427	-0,023	-0,002
-208,694	-1,793	0,032	-0,016
-207,679	402,649	0,036	0,054
-206,665	-105,984	-0,086	0,014
-205,650	210,579	-0,072	0,081
-204,636	-133,753	-0,097	-0,008
-203,621	47,214	-0,050	-0,033
-202,606	35,966	-0,105	0,066
-201,592	-45,700	-0,072	-0,025
-200,577	-32,029	-0,071	-0,028
-199,563	-200,000	-0,001	0,082
-198,548	66,397	0,122	0,088
-197,533	54,811	0,083	0,057
-196,519	800,000	0,026	-0,074
-195,504	-29,328	0,043	0,018
-194,490	72,670	-0,049	-0,036
-193,475	26,602	0,130	-0,078
-192,460	68,409	0,055	-0,040
-191,446	5,428	0,192	0,101
-190,431	740,751	-0,045	-0,087
-189,417	8,431	0,152	0,082
-188,402	-200,000	-0,000	0,026
-187,387	800,000	-0,028	0,068
-186,373	-59,781	-0,101	-0,031
-185,358	470,656	-0,057	0,092
-184,344	-200,000	-0,012	0,198
-183,329	442,875	0,038	0,059
-182,315	-137,840	0,163	-0,013
-181,300	-200,000	0,002	-0,023
-180,285	-27,775	-0,162	-0,067
-179,271	279,001	0,012	0,016
-178,256	130,754	0,147	0,134
-177,242	456,396	-0,092	0,147
-176,227	114,403	-0,057	-0,049
-175,212	-200,000	0,003	0,096
-174,198	-70,384	-0,044	0,012
-173,183	-200,000	-0,002	0,079
-172,169	-73,763	0,067	-0,017
-171,154	311,043	0,028	0,037
-170,139	679,770	0,017	0,033
-169,125	86,533	-0,099	0,078
-168,110	-200,000	-0,022	-0,120
-167,096	76,681	-0,048	0,036
-166,081	89,358	0,048	0,038
-165,066	-200,000	0,035	-0,122
-164,052	-200,000	-0,005	0,050
-163,037	129,336	0,010	0,009
-162,023	-200,000	0,007	0,064
-161,008	-200,000	0,008	0,170
-159,993	-97,804	0,115	-0,021
-158,979	-113,922	0,040	-0,005
-157,964	-54,278	-0,127	0,041
-156,950	-67,014	-0,109	0,030
-155,935	-200,000	0,010	0,145
-154,920	114,340	0,086	0,075
-153,906	-70,690	0,092	0,025
-152,891	800,000	0,031	0,068
-151,877	-24,067	-0,042	0,018
-150,862	-13,914	-0,088	-0,040
-149,847	-173,054	-0,082	0,002
-148,833	-134,192	0,151	0,013
-147,818	800,000	0,047	-0,105
-146,804	335,313	-0,054	0,075
-145,789	-39,424	-0,114	-0,042
-144,775	160,148	0,023	0,023
-143,760	-200,000	-0,005	-0,077
-142,745	-200,000	0,002	-0,145
-141,731	-24,231	0,093	-0,039
-140,716	648,129	-0,076	0,139
-139,702	-41,504	0,024	-0,009
-138,687	731,871	-0,023	0,043
-137,672	300,203	0,070	0,092
-136,658	-67,748	-0,065	0,018
-135,643	566,356	0,043	-0,075
-134,629	304,204	-0,101	-0,133
-133,614	656,314	0,040	0,073
-132,599	-124,020	-0,063	-0,007
-131,585	29,260	0,142	0,086
-130,570	-200,000	-0,015	-0,211
-129,556	303,321	-0,111	-0,146
-128,541	447,508	0,052	0,082
-127,526	-200,000	0,000	-0,109
-126,512	76,352	-0,017	-0,013
-125,497	20,137	0,090	0,051
-124,483	17,848	0,102	0,058
-123,468	-153,384	-0,126	-0,006
-122,453	800,000	0,012	-0,027
-121,439	92,988	0,149	-0,120
-120,424	78,478	-0,055	0,042
-119,410	527,169	0,153	0,257
-118,395	-135,900	0,046	-0,004
