DTS Sentinel unit serial number:	SN410029Multiplexer serial number:	ORYXHardware model number:	OX2-SRSoftware version number:	ORYX F/W v4,00 Oryx Data Collector v3.7.2.0data status	okinstallation	BH3 CH2differential loss correction	single-endedforward channel	channel 2reverse channel	N/Adate	2023/12/05time	17:07:28forward acquisition time	300,00reverse acquisition time	0,00gamma	499,1914k internal	0,3193k external	0,3193temperature offset calibration	1,0000default loss term (dB/km)	0,3820temperature slope calibration	1,0000multiplexer offset coefficient	1,0000multiplexer slope coefficient	1,0000fibre end	0,00T internal ref (°C)	10,93T ext. ref 1 (°C)	-3,83T ext. ref 2 (°C)	-3,94length (m)	temperature (°C)	Stokes	anti-Stokes-744,400	-200,000	-0,015	-0,118
-743,385	-200,000	-0,036	0,152
-742,371	176,612	0,032	0,034
-741,356	53,466	-0,331	0,231
-740,342	157,173	0,084	-0,085
-739,327	-62,788	-0,207	0,062
-738,312	-110,413	-0,050	-0,007
-737,298	113,469	-0,174	0,154
-736,283	-200,000	0,007	-0,121
-735,269	688,281	-0,060	0,116
-734,254	-200,000	0,029	-0,101
-733,239	-188,668	-0,353	-0,003
-732,225	111,542	-0,046	-0,040
-731,210	-200,000	0,052	0,175
-730,196	-200,000	-0,019	-0,075
-729,181	60,331	-0,096	0,069
-728,167	-13,023	-0,072	0,034
-727,152	-59,416	-0,007	-0,002
-726,137	-84,865	-0,110	-0,025
-725,123	800,000	-0,030	0,074
-724,108	704,062	0,019	0,037
-723,094	320,269	-0,113	-0,157
-722,079	228,940	-0,075	-0,089
-721,064	-200,000	0,003	0,033
-720,050	-200,000	-0,007	-0,078
-719,035	-161,967	-0,064	-0,002
-718,021	660,631	0,089	-0,167
-717,006	-82,325	-0,048	0,011
-715,991	186,558	-0,077	0,083
-714,977	18,486	-0,050	0,029
-713,962	-65,333	0,119	-0,035
-712,948	58,953	-0,136	0,098
-711,933	-200,000	-0,023	0,080
-710,918	-200,000	0,016	-0,061
-709,904	-130,484	-0,118	0,011
-708,889	-74,073	0,058	0,015
-707,875	-158,158	-0,054	-0,002
-706,860	56,455	-0,045	-0,032
-705,845	-200,000	0,010	-0,084
-704,831	174,069	0,097	-0,102
-703,816	800,000	-0,042	0,105
-702,802	624,974	0,054	0,100
-701,787	8,698	-0,130	-0,071
-700,772	-200,000	-0,003	-0,020
-699,758	221,001	0,023	0,027
-698,743	-200,000	0,018	0,060
-697,729	63,868	0,054	-0,040
-696,714	-17,246	0,063	-0,029
-695,699	-200,000	-0,007	0,033
-694,685	177,449	-0,105	0,111
-693,670	409,164	-0,061	-0,095
-692,656	92,455	0,089	-0,073
-691,641	88,082	0,038	0,031
-690,627	-47,010	0,080	-0,028
-689,612	-21,772	-0,047	0,021
-688,597	800,000	-0,012	0,032
-687,583	-103,072	0,139	-0,024
-686,568	35,367	-0,105	0,067
-685,554	-138,300	-0,071	-0,006
-684,539	-53,016	0,085	0,028
-683,524	-200,000	0,036	0,196
-682,510	-200,000	-0,003	0,102
-681,495	-112,372	0,052	-0,007
-680,481	187,408	-0,067	0,073
-679,466	569,918	-0,037	-0,066
-678,451	-200,000	0,017	0,083
-677,437	-109,308	0,123	0,019
-676,422	-34,138	-0,114	0,045
-675,408	-200,000	0,006	0,029
-674,393	-200,000	0,006	0,162
-673,378	192,534	-0,077	0,085
-672,364	-144,954	-0,060	-0,004
-671,349	19,966	-0,053	0,031
-670,335	-89,912	-0,045	0,010
-669,320	11,476	0,038	0,021
-668,305	-130,163	0,027	0,003
-667,291	570,648	-0,039	-0,069
-666,276	-30,593	0,137	-0,056
-665,262	421,202	-0,064	-0,101
-664,247	-177,537	0,115	0,002
-663,232	472,108	0,039	-0,064
-662,218	305,421	-0,010	-0,013
-661,203	157,224	0,090	-0,091
-660,189	-200,000	-0,002	-0,043
-659,174	800,000	-0,014	0,031
-658,159	-200,000	-0,015	-0,062
-657,145	221,859	-0,046	0,054
-656,130	-91,299	0,108	-0,022
-655,116	800,000	0,087	0,240
-654,101	107,619	-0,060	0,052
-653,086	276,744	-0,059	0,076
-652,072	-49,658	-0,085	-0,029
-651,057	-40,718	-0,063	-0,023
-650,043	-76,942	-0,067	0,017
-649,028	-122,164	0,053	-0,006
-648,014	77,236	0,018	-0,014
-646,999	-121,431	0,064	0,008
-645,984	47,011	0,063	-0,042
-644,970	-200,000	0,000	0,108
-643,955	-173,705	0,023	0,000
-642,941	79,464	0,047	-0,036
-641,926	148,796	0,027	-0,027
-640,911	-166,946	-0,215	-0,006
-639,897	-56,565	-0,025	-0,008
-638,882	-138,132	-0,086	0,007
-637,868	-200,000	0,009	-0,074
-636,853	800,000	-0,012	-0,037
-635,838	-200,000	-0,008	-0,054
-634,824	20,691	-0,068	-0,040
-633,809	-200,000	-0,012	0,077
-632,795	-57,978	0,098	0,031
-631,780	279,030	0,057	-0,075
-630,765	-94,931	0,047	0,009
-629,751	-94,516	-0,031	0,006
-628,736	544,676	0,032	-0,056
-627,722	800,000	-0,018	-0,058
-626,707	104,729	-0,065	0,056
-625,692	70,349	0,030	-0,023
-624,678	-43,466	-0,090	-0,033
-623,663	430,127	-0,069	-0,109
-622,649	-7,749	0,060	0,029
-621,634	-200,000	0,005	-0,161
-620,619	225,164	0,090	-0,106
-619,605	-53,641	0,075	0,025
-618,590	-85,797	0,173	-0,039
-617,576	-200,000	-0,009	0,084
-616,561	-141,545	-0,178	-0,013
-615,546	361,125	-0,076	-0,111
-614,532	-90,677	-0,124	-0,026
-613,517	64,680	0,105	0,077
-612,503	-200,000	0,005	0,060
-611,488	-47,058	0,110	0,039
-610,474	-200,000	-0,018	-0,093
-609,459	133,911	-0,022	0,021
-608,444	140,951	0,044	0,043
-607,430	30,281	-0,085	-0,052
-606,415	451,685	0,066	-0,105
-605,401	-200,000	-0,008	-0,057
-604,386	-200,000	0,002	-0,045
-603,371	-200,000	-0,014	0,098
-602,357	800,000	0,049	0,125
-601,342	326,418	-0,011	0,015
-600,328	-200,000	0,001	0,039
-599,313	-200,000	-0,009	0,046
-598,298	507,742	-0,093	-0,158
-597,284	117,681	0,050	-0,044
-596,269	117,883	0,101	0,090
-595,255	25,428	-0,018	0,011
-594,240	283,798	-0,041	-0,054
-593,225	-39,561	-0,137	-0,052
-592,211	126,787	0,074	-0,068
-591,196	-200,000	0,017	-0,090
-590,182	142,838	0,074	0,071
-589,167	-200,000	-0,009	0,059
-588,152	-200,000	0,017	0,092
-587,138	48,532	-0,056	-0,038
-586,123	18,069	-0,115	-0,066
-585,109	800,000	-0,037	-0,079
-584,094	-200,000	-0,011	-0,045
-583,079	-149,399	0,077	0,004
-582,065	-100,688	-0,063	0,011
-581,050	800,000	0,037	0,086
-580,036	-64,089	-0,097	0,029
-579,021	72,524	-0,051	-0,039
-578,006	204,166	-0,064	-0,072
-576,992	-200,000	-0,001	0,005
-575,977	520,835	0,049	0,084
-574,963	-2,714	0,109	-0,055
-573,948	7,556	0,105	-0,057
-572,934	-156,166	-0,049	0,002
-571,919	800,000	0,017	0,051
-570,904	262,829	-0,027	-0,034
-569,890	76,417	0,176	-0,135
-568,875	-200,000	-0,005	-0,071
-567,861	26,718	0,092	0,056
-566,846	800,000	-0,000	-0,001
-565,831	-143,933	0,151	0,010
-564,817	-0,668	-0,127	0,065
-563,802	112,280	-0,050	0,043
-562,788	-52,100	0,071	-0,024
-561,773	19,827	-0,056	0,033
-560,758	-200,000	0,008	0,131
-559,744	17,207	-0,074	-0,042
-558,729	231,372	-0,019	-0,023
-557,715	-49,671	-0,165	-0,056
-556,700	137,853	0,064	0,061
-555,685	237,577	-0,127	-0,152
-554,671	127,950	0,076	0,070
-553,656	-37,922	0,141	0,054
-552,642	-122,169	0,102	0,012
-551,627	-105,566	-0,073	0,012
-550,612	230,580	0,054	0,064
-549,598	253,448	-0,020	0,025
-548,583	288,487	-0,037	-0,049
-547,569	-200,000	-0,014	-0,143
-546,554	-117,100	0,127	0,017
-545,539	456,137	0,067	0,108
-544,525	-200,000	-0,026	0,144
-543,510	-40,348	-0,021	0,008
-542,496	95,002	-0,121	-0,099
-541,481	247,054	-0,020	-0,024
-540,466	-120,842	-0,019	0,002
-539,452	705,496	-0,029	0,056
-538,437	-200,000	0,006	-0,048
-537,423	654,145	0,024	-0,045
-536,408	-137,528	0,077	-0,006
-535,393	800,000	-0,027	-0,070
-534,379	15,850	-0,087	-0,049
-533,364	800,000	0,013	0,027
-532,350	-4,105	-0,010	0,005
-531,335	-200,000	0,033	0,134
-530,321	-200,000	-0,005	0,079
-529,306	195,662	-0,077	-0,085
-528,291	800,000	-0,057	-0,175
-527,277	458,466	-0,082	-0,133
-526,262	99,655	-0,112	-0,094
-525,248	63,379	0,156	-0,113
-524,233	-189,584	-0,034	-0,000
-523,218	800,000	0,022	0,051
-522,204	-200,000	0,009	0,080
-521,189	-68,674	-0,107	-0,030
-520,175	-94,323	0,019	0,004
-519,160	340,460	0,046	0,066
-518,145	171,981	0,088	0,092
-517,131	418,986	0,040	0,061
-516,116	-200,000	-0,037	0,131
-515,102	-164,280	-0,083	-0,003
-514,087	800,000	0,099	-0,201
-513,072	236,665	0,030	-0,036
-512,058	0,415	0,082	0,042
-511,043	108,419	-0,107	0,092
-510,029	93,420	-0,051	0,042
-509,014	47,635	0,110	-0,074
-507,999	398,270	-0,035	0,053
-506,985	-9,607	0,105	-0,050
-505,970	235,966	-0,072	-0,086
-504,956	342,765	-0,051	0,072
-503,941	-200,000	0,009	-0,145
-502,926	112,387	0,121	-0,106
-501,912	-88,548	0,164	0,035
-500,897	-23,413	0,140	0,060
-499,883	800,000	0,030	-0,074
-498,868	597,990	0,026	-0,047
-497,853	-80,976	-0,103	0,025
-496,839	326,143	-0,082	0,114
-495,824	800,000	0,052	-0,108
-494,810	-68,395	0,105	0,029
-493,795	800,000	-0,078	0,194
-492,781	-104,611	0,124	-0,020
-491,766	800,000	-0,028	-0,083
-490,751	-200,000	-0,016	-0,054
-489,737	-135,064	0,027	0,002
-488,722	-58,790	0,086	0,027
-487,708	39,215	0,071	-0,046
-486,693	800,000	-0,041	0,104
-485,678	-77,054	-0,142	0,036
-484,664	380,146	-0,050	0,075
-483,649	31,647	0,061	0,038
-482,635	800,000	-0,044	0,102
-481,620	-200,000	0,007	0,066
-480,605	552,454	-0,042	0,073
-479,591	-169,170	0,052	-0,001
-478,576	800,000	-0,025	0,053
-477,562	-86,990	0,062	-0,013
-476,547	127,769	0,108	0,099
-475,532	13,847	0,042	-0,023
-474,518	27,273	-0,093	0,056
-473,503	-79,339	-0,010	-0,002
-472,489	800,000	0,024	-0,062
-471,474	-200,000	0,007	0,046
-470,459	302,987	-0,074	0,100
-469,445	-200,000	0,007	0,120
-468,430	8,135	-0,055	0,030
-467,416	800,000	0,036	0,101
-466,401	-200,000	0,010	0,157
-465,386	284,540	-0,039	0,051
-464,372	-8,570	-0,032	-0,016
-463,357	-1,411	-0,036	0,018
-462,343	-9,668	0,053	-0,026
-461,328	19,359	-0,009	-0,005
-460,313	-112,893	0,042	-0,006
-459,299	-200,000	0,019	0,084
-458,284	-200,000	-0,010	0,063
-457,270	-149,417	-0,076	-0,004
-456,255	-200,000	-0,007	-0,077
-455,241	800,000	-0,062	-0,172
-454,226	148,373	-0,080	-0,078
-453,211	-200,000	0,033	0,000
-452,197	383,349	0,065	0,096
-451,182	228,604	0,058	-0,069
-450,168	-115,932	0,082	0,011
-449,153	-35,104	-0,053	-0,021
-448,138	-200,000	-0,007	-0,091
-447,124	486,515	0,025	0,040
-446,109	800,000	-0,057	-0,144
-445,095	252,309	0,088	-0,108
-444,080	-109,193	0,074	0,011
-443,065	800,000	0,032	0,087
-442,051	760,969	-0,016	-0,032
-441,036	-172,904	0,061	0,001
-440,022	176,743	-0,125	-0,131
-439,007	-165,731	0,157	0,005
-437,992	142,624	-0,095	-0,091
-436,978	-200,000	-0,011	0,062
-435,963	-96,010	-0,042	-0,008
-434,949	-94,739	0,039	-0,008
-433,934	189,741	-0,092	-0,099
-432,919	800,000	-0,029	-0,078
-431,905	32,469	0,163	-0,101
-430,890	-200,000	0,005	0,125
-429,876	207,336	-0,069	-0,077
-428,861	-163,894	0,035	-0,001
-427,846	-124,259	-0,100	0,011
-426,832	-39,180	0,023	0,009
-425,817	118,226	-0,129	0,115
-424,803	258,919	-0,061	-0,076
-423,788	183,079	0,027	0,029
-422,773	-200,000	-0,013	-0,061
-421,759	213,052	-0,047	0,053
-420,744	-166,670	0,142	0,004
-419,730	-160,891	0,032	-0,001
-418,715	800,000	0,027	-0,054
-417,701	40,367	0,019	0,012
-416,686	800,000	0,057	0,130
-415,671	-200,000	0,010	0,105
-414,657	294,247	-0,036	0,048
-413,642	-200,000	0,004	-0,040
-412,628	-200,000	0,015	-0,102
-411,613	586,334	-0,064	-0,114
-410,598	302,388	-0,007	0,009
-409,584	417,825	0,081	0,125
-408,569	-200,000	0,007	0,059
-407,555	-46,129	0,095	0,033
-406,540	543,053	-0,042	-0,072
-405,525	-178,660	-0,241	0,004
-404,511	-95,288	-0,093	0,018
-403,496	630,384	0,022	-0,041
-402,482	-200,000	-0,008	-0,030
-401,467	148,830	-0,013	-0,013
-400,452	-200,000	-0,023	0,105
-399,438	-30,671	-0,077	-0,031
-398,423	-71,327	-0,093	-0,025
-397,409	-200,000	0,027	-0,204
-396,394	550,836	-0,037	0,064
-395,379	36,402	0,062	0,039
-394,365	460,514	0,038	-0,062
-393,350	-200,000	0,001	0,194
-392,336	577,307	0,103	-0,183
-391,321	150,188	-0,070	-0,069
-390,306	-152,964	-0,049	0,002
-389,292	-27,219	-0,053	0,022
-388,277	276,515	0,041	-0,053
-387,263	-13,508	-0,115	-0,054
-386,248	-200,000	0,002	0,022
-385,233	800,000	-0,030	0,062
-384,219	-140,460	-0,131	-0,010
-383,204	93,928	0,076	-0,062
-382,190	71,335	-0,057	-0,042
-381,175	-168,733	0,012	0,000
-380,160	308,391	0,052	0,070
-379,146	-200,000	0,028	0,179
-378,131	-71,518	-0,061	-0,016
-377,117	-166,338	-0,273	0,008
-376,102	-108,233	0,033	0,005
-375,088	800,000	-0,012	-0,030
-374,073	-126,023	0,108	-0,012
-373,058	44,856	0,071	0,047
-372,044	196,206	0,020	-0,022
-371,029	-157,208	-0,063	0,003
-370,015	-25,671	0,130	-0,055
-369,000	800,000	0,033	-0,097
-367,985	181,659	0,089	-0,095
-366,971	76,698	-0,042	-0,032
-365,956	-200,000	0,001	0,179
-364,942	-37,102	0,028	0,011
-363,927	-34,483	0,105	-0,041
-362,912	-36,968	0,078	0,030
-361,898	-126,425	-0,133	-0,014
-360,883	-200,000	-0,020	-0,082
-359,869	-200,000	0,020	0,069
-358,854	158,923	0,082	-0,082
-357,839	249,492	-0,147	-0,179
-356,825	800,000	0,038	-0,092
-355,810	-106,411	0,038	-0,006
-354,796	151,986	0,010	-0,010
-353,781	-200,000	-0,003	-0,093
-352,766	-200,000	-0,016	-0,146
-351,752	-200,000	0,137	-0,000
-350,737	-200,000	0,009	0,071
-349,723	800,000	0,045	0,116
-348,708	-200,000	-0,008	0,091
-347,693	2,775	-0,196	0,102
-346,679	-8,964	0,152	-0,073
-345,664	-93,888	-0,044	0,009
-344,650	-130,339	0,060	0,006
-343,635	-200,000	0,025	0,127
-342,620	184,176	0,065	0,069
-341,606	-200,000	0,019	0,077
-340,591	800,000	-0,061	-0,161
-339,577	800,000	-0,010	-0,021
-338,562	800,000	-0,030	-0,082
-337,548	800,000	-0,014	-0,045
-336,533	800,000	0,063	0,171
-335,518	-41,085	0,155	0,057
-334,504	-61,004	0,129	-0,039
-333,489	-165,276	-0,068	-0,002
-332,475	-200,000	0,012	-0,056
-331,460	-62,927	0,059	-0,017
-330,445	12,399	-0,112	-0,062
-329,431	40,934	-0,046	0,030
-328,416	-34,585	0,060	0,023
-327,402	800,000	0,020	0,058
-326,387	84,024	0,014	0,011
-325,372	-200,000	0,037	0,118
-324,358	-200,000	0,037	0,148
-323,343	-36,008	-0,044	0,017
-322,329	-200,000	0,011	0,112
-321,314	158,978	-0,069	0,069
-320,299	-200,000	0,009	0,137
-319,285	-94,339	-0,130	-0,025
-318,270	-28,670	0,085	-0,035
-317,256	-171,392	-0,044	0,001
-316,241	-25,591	0,142	-0,060
-315,226	260,962	-0,119	-0,148
-314,212	100,867	-0,108	-0,090
-313,197	181,379	0,016	0,017
-312,183	-46,519	-0,056	-0,020
-311,168	-200,000	0,016	-0,077
-310,153	443,051	0,050	-0,078
-309,139	-12,649	-0,090	-0,042
-308,124	-71,684	-0,064	0,017
-307,110	-200,000	0,033	0,144
-306,095	-200,000	0,046	0,146
-305,080	-163,191	-0,075	0,003
-304,066	-13,305	-0,080	0,037
-303,051	-93,744	-0,064	-0,012
-302,037	-96,415	0,067	-0,013
-301,022	-200,000	0,006	0,069
-300,008	-200,000	0,019	0,103
-298,993	5,500	-0,016	-0,008
-297,978	68,472	0,045	-0,033
-296,964	215,490	0,011	0,013
-295,949	800,000	-0,024	-0,072
-294,935	263,451	-0,100	-0,124
-293,920	700,767	-0,042	0,080
-292,905	585,939	-0,095	0,168
-291,891	-200,000	0,014	0,074
-290,876	459,130	0,015	-0,023
-289,862	-48,235	-0,106	-0,036
-288,847	-83,132	0,058	-0,013
-287,832	800,000	-0,038	0,104
-286,818	-71,311	-0,171	0,046
-285,803	35,259	0,136	0,086
-284,789	364,930	0,027	-0,039
-283,774	-69,308	-0,234	-0,064
-282,759	800,000	-0,011	-0,033
-281,745	53,455	-0,121	-0,083
-280,730	7,585	0,153	-0,082
-279,716	-200,000	0,007	0,038
-278,701	248,593	0,062	0,075
-277,686	-200,000	-0,000	0,221
-276,672	30,070	-0,028	0,017
-275,657	584,638	-0,034	0,060
-274,643	34,784	-0,085	-0,053
-273,628	-200,000	-0,022	-0,147
-272,613	-146,261	0,032	-0,002
-271,599	106,039	-0,060	0,050
-270,584	-37,951	0,139	0,053
-269,570	-200,000	0,003	-0,057
-268,555	-131,394	-0,043	-0,004
-267,540	-100,822	-0,100	0,017
-266,526	-200,000	0,023	-0,124
-265,511	-200,000	0,002	-0,030
-264,497	800,000	0,023	0,063
-263,482	82,863	0,085	0,066
-262,467	33,811	0,069	-0,043
-261,453	-120,331	0,079	0,010
-260,438	-30,757	-0,184	-0,074
-259,424	171,739	0,072	-0,074
-258,409	-200,000	-0,021	-0,173
-257,395	436,466	0,088	0,137
-256,380	461,432	0,049	0,078
-255,365	-200,000	-0,004	0,084
-254,351	-186,738	-0,050	-0,000
-253,336	-200,000	0,008	-0,090
-252,322	199,960	0,035	0,039
-251,307	337,599	-0,110	0,154
-250,292	-200,000	-0,003	-0,048
-249,278	-45,265	0,026	0,009
-248,263	-200,000	0,006	-0,037
-247,249	-200,000	0,017	-0,118
-246,234	-200,000	-0,001	0,047
-245,219	321,175	-0,058	0,079
-244,205	36,624	0,067	0,042
-243,190	42,619	0,072	-0,047
-242,176	-200,000	0,027	0,140
-241,161	150,518	0,038	-0,037
-240,146	43,572	-0,025	0,016
-239,132	146,166	-0,049	-0,047
-238,117	86,171	0,150	0,118
-237,103	800,000	-0,025	-0,062
-236,088	800,000	0,050	0,140
-235,073	-200,000	0,025	0,119
-234,059	34,138	0,157	-0,098
-233,044	-49,372	-0,062	0,021
-232,030	-169,022	-0,151	0,004
-231,015	18,793	-0,088	0,050
-230,000	-200,000	-0,011	-0,051
-228,986	-105,524	0,096	0,015
-227,971	394,950	-0,052	0,078
-226,957	-200,000	-0,017	0,054
-225,942	-200,000	-0,044	0,155
-224,927	227,018	0,057	-0,066
-223,913	99,719	-0,077	-0,064
-222,898	-200,000	0,020	-0,133
-221,884	273,384	0,038	0,048
-220,869	-139,099	-0,209	0,016
-219,855	519,787	0,062	0,105
-218,840	362,573	-0,040	0,057
-217,825	-66,052	0,019	-0,005
-216,811	580,055	0,038	0,066
-215,796	-113,568	-0,143	0,020
-214,782	-24,911	-0,114	0,048
-213,767	118,568	0,049	-0,043
-212,752	-200,000	0,010	0,034
-211,738	800,000	0,021	0,057
-210,723	446,312	-0,027	0,042
-209,709	-200,000	0,036	-0,136
-208,694	623,827	-0,043	0,077
-207,679	-200,000	0,016	0,076
-206,665	-113,348	0,149	-0,021
-205,650	-159,648	-0,035	0,001
-204,636	-200,000	-0,003	0,179
-203,621	157,954	-0,095	0,094
-202,606	-37,622	0,091	0,034
-201,592	253,818	-0,075	-0,092
-200,577	800,000	-0,027	-0,080
-199,563	-77,586	-0,166	-0,041
-198,548	-200,000	-0,024	-0,108
-197,533	194,262	0,030	0,033
-196,519	107,033	-0,026	-0,022
-195,504	51,122	-0,049	-0,033
-194,490	247,151	0,049	0,059
-193,475	108,846	-0,075	-0,064
-192,460	65,029	0,079	-0,057
-191,446	45,878	-0,072	-0,047
-190,431	-20,720	0,107	-0,047
-189,417	34,645	-0,069	0,043
-188,402	-53,733	0,045	-0,015
-187,387	487,075	-0,008	-0,013
-186,373	397,613	0,073	-0,110
-185,358	-133,528	-0,091	-0,008
-184,344	203,182	0,028	-0,031
-183,329	-176,207	0,127	-0,002
-182,315	508,474	-0,058	0,097
-181,300	-160,713	-0,100	0,004
-180,285	-51,157	0,062	0,021
-179,271	-144,201	-0,080	-0,005
-178,256	122,992	-0,126	-0,112
-177,242	-200,000	-0,019	-0,104
-176,227	-200,000	-0,030	0,138
-175,212	502,419	0,054	0,090
-174,198	-44,869	-0,050	0,018
-173,183	-200,000	0,005	-0,055
-172,169	-94,915	-0,073	-0,014
-171,154	139,298	0,013	-0,012
-170,139	-63,654	0,194	0,056
-169,125	-176,979	0,077	-0,001
-168,110	800,000	-0,044	-0,118
-167,096	-147,033	0,066	-0,004
-166,081	26,039	-0,043	-0,025
-165,066	-200,000	-0,005	-0,079
-164,052	-33,463	0,034	0,013
-163,037	26,394	0,096	-0,057
-162,023	619,534	0,113	-0,203
-161,008	-47,147	0,086	0,030
-159,993	296,397	0,057	0,075
-158,979	-158,996	-0,039	0,002
-157,964	-49,154	0,113	0,038
-156,950	478,332	-0,061	0,099
-155,935	-200,000	-0,025	-0,168
-154,920	-94,494	0,137	0,026
-153,906	128,068	0,026	-0,024
-152,891	56,342	0,095	0,065
-151,877	38,761	0,113	0,071
-150,862	636,543	-0,056	-0,101
-149,847	192,569	-0,102	0,110
-148,833	-79,301	-0,038	-0,009
-147,818	61,301	0,082	-0,058
-146,804	800,000	0,050	0,131
-145,789	-200,000	0,003	-0,020
-144,775	607,642	0,107	-0,191
-143,760	-200,000	0,006	-0,036
-142,745	9,010	0,007	0,004
-141,731	-26,007	-0,020	-0,009
-140,716	-200,000	-0,010	0,100
-139,702	369,283	0,030	0,044
-138,687	339,206	0,123	-0,171
-137,672	474,146	0,018	0,029
-136,658	-20,608	-0,046	-0,020
-135,643	168,319	-0,020	-0,020
-134,629	-200,000	-0,017	0,146
-133,614	800,000	0,039	0,090
-132,599	-75,040	0,143	0,036
-131,585	-59,760	0,097	-0,029
-130,570	-148,267	-0,091	-0,005
-129,556	207,372	0,006	-0,007
-128,541	70,779	-0,098	-0,072
-127,526	-200,000	0,005	0,041
-126,512	340,821	-0,015	-0,021
-125,497	-128,875	0,037	0,004
-124,483	48,454	0,181	0,121
-123,468	279,415	0,027	0,034
-122,453	30,964	0,073	0,044
-121,439	-200,000	-0,031	-0,137
-120,424	800,000	0,012	0,026
-119,410	-76,734	0,199	-0,049
