DTS Sentinel unit serial number:	SN410029Multiplexer serial number:	ORYXHardware model number:	OX2-SRSoftware version number:	ORYX F/W v4,00 Oryx Data Collector v3.7.2.0data status	okinstallation	BH3 CH2differential loss correction	single-endedforward channel	channel 2reverse channel	N/Adate	2023/12/05time	17:47:28forward acquisition time	300,00reverse acquisition time	0,00gamma	499,1914k internal	0,3193k external	0,3193temperature offset calibration	1,0000default loss term (dB/km)	0,3820temperature slope calibration	1,0000multiplexer offset coefficient	1,0000multiplexer slope coefficient	1,0000fibre end	0,00T internal ref (°C)	10,81T ext. ref 1 (°C)	-3,90T ext. ref 2 (°C)	-4,11length (m)	temperature (°C)	Stokes	anti-Stokes-744,400	683,531	0,110	-0,209
-743,385	194,402	-0,084	0,093
-742,371	-200,000	-0,006	-0,024
-741,356	118,005	-0,256	0,230
-740,342	-200,000	-0,000	-0,099
-739,327	-169,947	-0,050	-0,001
-738,312	-0,353	-0,190	-0,098
-737,298	68,603	-0,141	0,105
-736,283	-200,000	0,001	-0,152
-735,269	23,020	-0,191	0,114
-734,254	49,435	-0,090	-0,062
-733,239	-84,389	-0,490	-0,112
-732,225	89,195	0,087	0,071
-731,210	113,999	-0,057	0,050
-730,196	195,290	-0,029	0,032
-729,181	66,939	-0,100	0,074
-728,167	-150,133	0,087	-0,005
-727,152	-123,643	-0,121	-0,014
-726,137	-7,279	0,100	0,049
-725,123	-56,834	0,029	0,009
-724,108	35,027	-0,090	0,058
-723,094	-23,586	-0,146	-0,064
-722,079	-79,893	0,068	0,016
-721,064	-68,550	-0,122	-0,034
-720,050	800,000	-0,046	0,120
-719,035	12,248	-0,157	0,088
-718,021	-200,000	-0,086	-0,296
-717,006	367,586	-0,082	-0,121
-715,991	238,470	-0,084	-0,102
-714,977	-200,000	-0,011	-0,069
-713,962	1,502	0,066	0,035
-712,948	407,341	0,046	-0,070
-711,933	309,212	0,047	-0,064
-710,918	-200,000	0,011	-0,100
-709,904	-200,000	-0,060	-0,197
-708,889	800,000	-0,061	-0,171
-707,875	-200,000	0,012	-0,075
-706,860	259,397	0,043	-0,054
-705,845	-200,000	-0,028	0,116
-704,831	10,385	0,073	-0,040
-703,816	153,691	-0,065	0,064
-702,802	-60,885	0,100	0,030
-701,787	-107,665	-0,207	0,033
-700,772	-168,052	0,040	0,001
-699,758	-200,000	0,008	-0,169
-698,743	275,921	0,075	0,098
-697,729	-167,685	-0,027	0,001
-696,714	16,976	-0,065	-0,037
-695,699	61,896	0,061	0,044
-694,685	-102,262	-0,071	0,012
-693,670	-200,000	-0,011	0,067
-692,656	154,327	-0,130	0,129
-691,641	800,000	-0,066	-0,153
-690,627	167,683	-0,050	0,052
-689,612	-135,845	-0,013	-0,001
-688,597	-58,059	-0,043	0,014
-687,583	336,844	-0,055	-0,077
-686,568	-58,039	-0,067	0,021
-685,554	-86,857	-0,070	-0,015
-684,539	122,960	-0,019	0,017
-683,524	-59,618	0,016	0,005
-682,510	104,328	-0,078	-0,067
-681,495	115,186	0,076	-0,068
-680,481	800,000	-0,055	0,113
-679,466	-200,000	0,013	-0,126
-678,451	519,999	0,088	-0,151
-677,437	-200,000	-0,025	-0,095
-676,422	-159,083	-0,018	-0,001
-675,408	-139,909	0,086	0,006
-674,393	115,571	0,035	-0,031
-673,378	-200,000	-0,010	-0,243
-672,364	312,080	0,110	-0,150
-671,349	-200,000	0,008	0,063
-670,335	166,119	0,011	0,011
-669,320	135,958	0,037	-0,035
-668,305	-200,000	0,012	-0,187
-667,291	225,363	0,073	-0,086
-666,276	329,161	0,018	-0,026
-665,262	54,921	-0,216	-0,152
-664,247	185,104	0,086	-0,093
-663,232	-29,446	0,013	-0,005
-662,218	98,427	0,081	0,068
-661,203	71,733	0,025	-0,019
-660,189	99,782	-0,123	-0,104
-659,174	-200,000	-0,010	-0,063
-658,159	-85,035	-0,095	0,022
-657,145	800,000	0,055	-0,128
-656,130	-152,395	-0,154	0,008
-655,116	-13,837	-0,015	0,007
-654,101	-200,000	0,000	0,069
-653,086	28,920	0,015	0,009
-652,072	216,621	-0,116	-0,134
-651,057	240,459	0,059	0,072
-650,043	-39,958	0,019	0,007
-649,028	328,800	-0,054	0,076
-648,014	-200,000	-0,013	0,074
-646,999	-121,174	0,026	-0,003
-645,984	147,968	0,083	-0,082
-644,970	-200,000	-0,024	-0,113
-643,955	-133,547	-0,085	-0,008
-642,941	800,000	-0,037	-0,111
-641,926	-200,000	-0,005	0,072
-640,911	-200,000	0,009	0,094
-639,897	-29,993	-0,122	-0,050
-638,882	180,691	0,106	-0,113
-637,868	572,920	-0,050	-0,089
-636,853	214,004	-0,054	-0,062
-635,838	330,948	0,079	-0,111
-634,824	-90,449	0,037	-0,008
-633,809	160,679	0,053	0,054
-632,795	66,601	0,099	-0,073
-631,780	-42,887	-0,100	0,037
-630,765	-52,907	-0,238	0,079
-629,751	-116,044	0,182	0,024
-628,736	800,000	-0,022	-0,047
-627,722	-14,715	0,085	0,039
-626,707	535,156	0,054	-0,094
-625,692	325,065	-0,017	-0,023
-624,678	780,818	-0,031	0,063
-623,663	-200,000	-0,024	-0,185
-622,649	239,056	-0,082	-0,099
-621,634	800,000	0,052	-0,142
-620,619	-200,000	-0,038	0,148
-619,605	-200,000	0,005	-0,055
-618,590	378,146	0,044	0,066
-617,576	333,735	0,038	0,053
-616,561	-113,092	0,041	0,006
-615,546	-200,000	0,017	-0,063
-614,532	-152,052	-0,102	0,005
-613,517	285,661	-0,085	-0,112
-612,503	293,044	0,084	-0,112
-611,488	-200,000	-0,011	0,062
-610,474	800,000	0,027	-0,059
-609,459	601,417	0,044	0,079
-608,444	-200,000	0,005	0,081
-607,430	480,145	-0,056	-0,092
-606,415	614,175	-0,073	-0,134
-605,401	-105,413	-0,121	0,020
-604,386	160,786	0,009	-0,009
-603,371	-85,115	-0,040	-0,009
-602,357	86,222	-0,088	0,071
-601,342	405,068	0,047	0,071
-600,328	678,441	-0,014	0,026
-599,313	-200,000	-0,054	-0,200
-598,298	-31,578	0,063	0,026
-597,284	-61,176	0,038	0,012
-596,269	61,959	0,009	-0,007
-595,255	-38,040	-0,074	0,029
-594,240	434,487	0,041	0,064
-593,225	-17,942	-0,098	-0,044
-592,211	138,199	0,163	-0,155
-591,196	-200,000	-0,013	-0,046
-590,182	800,000	0,020	-0,056
-589,167	305,908	0,024	0,032
-588,152	51,336	0,110	0,076
-587,138	-41,688	-0,077	0,028
-586,123	350,450	-0,056	-0,081
-585,109	588,031	-0,021	0,038
-584,094	-103,133	-0,088	0,015
-583,079	-200,000	-0,013	-0,056
-582,065	800,000	0,068	0,158
-581,050	-200,000	0,014	0,107
-580,036	38,384	-0,086	-0,056
-579,021	-200,000	-0,014	-0,159
-578,006	-200,000	0,011	-0,171
-576,992	64,730	0,083	0,061
-575,977	333,707	-0,019	-0,026
-574,963	133,408	-0,070	0,065
-573,948	-200,000	-0,008	-0,030
-572,934	177,796	-0,076	-0,080
-571,919	-200,000	-0,012	-0,049
-570,904	800,000	-0,033	-0,090
-569,890	-79,459	-0,086	-0,021
-568,875	-15,229	-0,083	-0,038
-567,861	101,570	-0,053	-0,044
-566,846	-103,977	0,032	0,005
-565,831	9,260	-0,064	0,035
-564,817	800,000	0,029	0,068
-563,802	-200,000	0,018	-0,171
-562,788	-200,000	0,020	-0,065
-561,773	31,687	0,069	0,043
-560,758	651,908	-0,004	-0,007
-559,744	-75,554	0,027	0,007
-558,729	-200,000	-0,014	0,112
-557,715	-16,258	-0,025	-0,011
-556,700	-56,715	-0,051	-0,016
-555,685	67,976	-0,060	-0,044
-554,671	-200,000	-0,003	-0,009
-553,656	-88,427	0,081	0,017
-552,642	-25,582	-0,039	-0,016
-551,627	800,000	-0,025	0,068
-550,612	159,472	-0,055	-0,055
-549,598	-167,664	-0,119	-0,003
-548,583	329,792	-0,076	-0,106
-547,569	22,376	0,049	-0,029
-546,554	32,053	-0,073	0,045
-545,539	800,000	-0,016	0,050
-544,525	370,203	0,082	0,121
-543,510	-28,743	-0,062	0,026
-542,496	318,509	-0,057	-0,078
-541,481	180,600	-0,070	-0,074
-540,466	-109,112	0,102	0,015
-539,452	174,784	0,091	0,095
-538,437	63,919	0,081	-0,059
-537,423	321,569	-0,091	0,125
-536,408	-19,245	0,089	-0,040
-535,393	-200,000	-0,004	-0,072
-534,379	800,000	0,063	-0,159
-533,364	95,580	-0,098	0,081
-532,350	-200,000	-0,011	-0,121
-531,335	-37,874	-0,073	0,028
-530,321	-200,000	-0,001	-0,062
-529,306	34,834	0,133	0,084
-528,291	-65,766	0,075	0,022
-527,277	35,748	-0,079	-0,050
-526,262	800,000	-0,025	-0,060
-525,248	-54,799	0,049	-0,016
-524,233	-200,000	-0,021	0,129
-523,218	-200,000	-0,034	-0,117
-522,204	7,779	0,049	0,026
-521,189	-64,315	0,058	-0,017
-520,175	-40,184	-0,050	-0,019
-519,160	2,676	-0,094	0,049
-518,145	736,000	0,037	-0,072
-517,131	263,839	-0,076	-0,096
-516,116	187,129	-0,101	-0,109
-515,102	-200,000	0,013	0,063
-514,087	157,433	-0,040	0,040
-513,072	-82,291	-0,044	0,010
-512,058	-200,000	0,002	-0,096
-511,043	75,262	0,051	-0,039
-510,029	64,416	-0,039	0,028
-509,014	800,000	0,016	0,049
-507,999	534,113	-0,091	-0,157
-506,985	-23,798	-0,142	-0,061
-505,970	-126,315	0,038	-0,004
-504,956	-125,320	-0,080	0,009
-503,941	246,276	-0,045	0,055
-502,926	-200,000	-0,031	0,109
-501,912	-124,740	0,095	-0,010
-500,897	-127,205	0,132	-0,014
-499,883	22,615	0,007	0,004
-498,868	256,140	-0,118	-0,146
-497,853	-184,422	0,030	0,000
-496,839	630,898	0,053	-0,097
-495,824	21,193	-0,019	0,011
-494,810	-88,937	-0,020	-0,004
-493,795	-200,000	0,025	0,091
-492,781	-200,000	-0,026	-0,124
-491,766	-67,264	-0,083	-0,023
-490,751	-117,613	-0,027	0,003
-489,737	-200,000	-0,020	-0,101
-488,722	374,483	0,039	0,057
-487,708	800,000	-0,024	-0,051
-486,693	-116,364	0,065	-0,009
-485,678	-57,641	-0,046	0,014
-484,664	137,104	-0,066	0,062
-483,649	679,116	-0,059	0,111
-482,635	32,905	-0,066	0,041
-481,620	224,586	0,141	0,165
-480,605	500,172	0,043	0,073
-479,591	-86,190	-0,094	-0,021
-478,576	10,350	-0,072	0,040
-477,562	-72,319	0,052	0,014
-476,547	-200,000	0,033	-0,124
-475,532	-67,916	0,107	0,030
-474,518	722,385	0,062	-0,120
-473,503	652,508	-0,071	-0,132
-472,489	7,763	0,088	-0,047
-471,474	-54,360	-0,100	-0,033
-470,459	800,000	-0,033	0,083
-469,445	142,389	-0,067	-0,064
-468,430	-149,421	0,157	-0,009
-467,416	-200,000	0,005	0,053
-466,401	345,515	0,030	0,043
-465,386	-200,000	-0,041	0,194
-464,372	-200,000	-0,003	0,040
-463,357	-200,000	0,004	0,136
-462,343	131,336	-0,074	0,069
-461,328	-4,013	0,078	-0,039
-460,313	41,964	-0,072	0,047
-459,299	340,166	0,086	0,121
-458,284	660,930	0,089	0,166
-457,270	800,000	0,030	0,087
-456,255	800,000	0,055	-0,118
-455,241	-78,983	-0,074	0,018
-454,226	25,992	0,050	0,030
-453,211	-46,451	0,066	-0,023
-452,197	-61,540	0,069	0,021
-451,182	-84,878	0,104	-0,023
-450,168	2,541	0,038	0,020
-449,153	247,789	-0,069	0,084
-448,138	-69,431	-0,128	0,035
-447,124	786,699	0,062	-0,123
-446,109	-180,341	0,183	-0,003
-445,095	-99,920	0,102	0,018
-444,080	725,913	-0,050	0,097
-443,065	-200,000	-0,013	0,076
-442,051	248,685	0,036	-0,043
-441,036	311,039	0,032	0,043
-440,022	-117,050	-0,178	-0,023
-439,007	38,641	0,049	-0,031
-437,992	-200,000	-0,014	-0,047
-436,978	117,022	0,105	0,093
-435,963	-47,872	-0,074	0,026
-434,949	-200,000	-0,001	-0,164
-433,934	100,759	-0,048	-0,040
-432,919	-1,153	-0,099	-0,050
-431,905	183,022	0,095	-0,101
-430,890	800,000	-0,014	-0,031
-429,876	240,009	0,144	0,173
-428,861	99,844	-0,071	0,059
-427,846	389,319	0,043	-0,064
-426,832	407,842	0,088	-0,135
-425,817	45,808	0,046	0,030
-424,803	800,000	-0,029	0,088
-423,788	99,980	0,158	0,131
-422,773	76,411	0,034	0,026
-421,759	-200,000	0,010	0,077
-420,744	42,152	-0,008	-0,005
-419,730	-20,774	0,162	-0,071
-418,715	495,490	0,024	-0,040
-417,701	-79,443	-0,096	0,023
-416,686	785,110	-0,010	0,019
-415,671	-200,000	0,005	-0,030
-414,657	659,869	0,042	0,078
-413,642	685,140	0,022	0,041
-412,628	-200,000	0,003	-0,043
-411,613	185,486	-0,023	-0,024
-410,598	-81,931	0,133	-0,031
-409,584	-12,162	-0,107	0,050
-408,569	-200,000	-0,014	0,074
-407,555	800,000	0,020	-0,049
-406,540	479,493	0,098	0,160
-405,525	-200,000	0,007	0,068
-404,511	430,089	-0,028	-0,043
-403,496	-78,344	0,056	0,014
-402,482	-0,497	-0,080	0,041
-401,467	0,587	-0,038	0,019
-400,452	324,314	-0,060	0,083
-399,438	-200,000	-0,019	0,075
-398,423	20,357	0,033	-0,019
-397,409	211,977	0,047	-0,054
-396,394	800,000	-0,028	0,065
-395,379	-200,000	-0,026	0,143
-394,365	800,000	-0,009	-0,021
-393,350	773,863	-0,047	-0,092
-392,336	800,000	0,024	0,066
-391,321	-58,586	-0,040	0,012
-390,306	0,732	-0,106	-0,055
-389,292	800,000	0,013	-0,041
-388,277	333,604	-0,091	-0,126
-387,263	-200,000	-0,023	0,132
-386,248	-200,000	0,034	0,129
-385,233	-200,000	0,003	0,019
-384,219	-121,640	-0,021	-0,002
-383,204	800,000	-0,079	-0,202
-382,190	364,171	0,054	-0,078
-381,175	93,593	-0,015	0,012
-380,160	-200,000	0,004	-0,023
-379,146	164,465	-0,127	0,129
-378,131	800,000	-0,077	0,201
-377,117	280,101	-0,046	-0,059
-376,102	33,995	0,056	-0,035
-375,088	222,759	0,047	-0,054
-374,073	223,126	0,055	0,064
-373,058	-30,145	-0,055	-0,022
-372,044	-45,758	0,089	-0,032
-371,029	-29,683	0,036	0,015
-370,015	185,852	0,024	-0,026
-369,000	305,735	-0,042	-0,056
-367,985	-200,000	-0,032	-0,202
-366,971	623,692	-0,065	0,118
-365,956	396,089	0,062	-0,093
-364,942	153,179	0,078	-0,077
-363,927	-44,430	-0,094	-0,034
-362,912	6,650	-0,049	0,026
-361,898	427,683	-0,019	-0,030
-360,883	433,513	0,076	0,119
-359,869	169,919	0,030	-0,031
-358,854	-43,875	0,182	0,066
-357,839	775,061	0,022	0,043
-356,825	-200,000	-0,030	-0,137
-355,810	598,744	-0,026	-0,047
-354,796	800,000	-0,056	-0,139
-353,781	800,000	0,015	-0,039
-352,766	155,618	-0,096	0,095
-351,752	38,823	0,067	0,043
-350,737	327,854	-0,050	-0,069
-349,723	181,157	-0,090	-0,095
-348,708	-101,670	0,085	0,015
-347,693	-47,991	0,010	-0,003
-346,679	201,177	-0,069	0,076
-345,664	800,000	-0,033	0,068
-344,650	-16,230	0,088	-0,040
-343,635	-200,000	-0,003	0,045
-342,620	426,538	0,061	-0,094
-341,606	182,736	0,075	-0,079
-340,591	800,000	-0,060	0,139
-339,577	-97,463	-0,125	-0,023
-338,562	195,832	0,035	-0,038
-337,548	-48,636	-0,062	0,021
-336,533	200,429	-0,036	-0,040
-335,518	14,664	0,170	0,095
-334,504	213,858	0,030	0,034
-333,489	800,000	-0,054	-0,154
-332,475	559,535	-0,120	-0,209
-331,460	-110,878	-0,164	-0,024
-330,445	-136,429	0,114	0,009
-329,431	686,669	0,039	-0,074
-328,416	782,277	0,073	-0,144
-327,402	800,000	0,016	0,033
-326,387	-200,000	0,027	0,095
-325,372	273,850	0,074	0,094
-324,358	-200,000	0,011	-0,167
-323,343	-200,000	-0,007	0,078
-322,329	132,547	0,122	0,113
-321,314	-44,990	0,128	0,045
-320,299	-200,000	0,024	0,089
-319,285	-49,688	-0,022	-0,008
-318,270	210,386	-0,049	-0,055
-317,256	8,393	-0,167	-0,090
-316,241	800,000	0,031	0,090
-315,226	-200,000	0,026	0,106
-314,212	-200,000	0,078	0,000
-313,197	-62,605	-0,127	-0,038
-312,183	-74,667	-0,019	0,005
-311,168	-161,624	-0,105	0,004
-310,153	40,262	-0,086	0,056
-309,139	422,125	-0,015	-0,023
-308,124	231,677	-0,017	0,020
-307,110	152,122	-0,035	-0,035
-306,095	98,428	-0,107	0,088
-305,080	-200,000	0,001	-0,104
-304,066	10,600	0,027	-0,014
-303,051	121,159	-0,070	-0,063
-302,037	-200,000	-0,000	-0,140
-301,022	131,096	0,053	0,049
-300,008	113,891	0,116	0,101
-298,993	15,802	0,201	0,113
-297,978	-133,408	-0,014	-0,001
-296,964	-20,457	0,053	-0,023
-295,949	174,811	-0,085	0,088
-294,935	-156,647	-0,089	-0,004
-293,920	-92,835	-0,008	-0,002
-292,905	-200,000	0,002	-0,081
-291,891	85,293	0,040	-0,032
-290,876	-200,000	0,006	0,074
-289,862	89,185	0,068	0,054
-288,847	-25,262	-0,070	0,030
-287,832	-90,056	-0,152	0,031
-286,818	-200,000	-0,010	0,033
-285,803	375,554	0,032	-0,046
-284,789	205,506	-0,050	-0,056
-283,774	-71,948	0,064	0,017
-282,759	800,000	0,028	0,064
-281,745	60,249	-0,115	-0,082
-280,730	294,377	0,092	0,121
-279,716	146,913	-0,104	-0,100
-278,701	-200,000	0,013	0,082
-277,686	-200,000	-0,004	-0,054
-276,672	55,165	-0,022	0,015
-275,657	-159,684	-0,031	0,001
-274,643	-125,867	-0,033	0,003
-273,628	-128,968	0,062	0,006
-272,613	312,222	0,029	0,039
-271,599	197,259	-0,035	-0,039
-270,584	-200,000	0,003	0,034
-269,570	68,055	0,136	0,099
-268,555	72,761	-0,021	0,016
-267,540	223,922	-0,120	-0,139
-266,526	-47,948	-0,198	-0,068
-265,511	-83,438	-0,069	-0,016
-264,497	214,646	0,100	0,114
-263,482	-40,594	-0,041	-0,015
-262,467	417,157	0,052	0,080
-261,453	529,804	-0,036	0,062
-260,438	68,509	0,005	-0,004
-259,424	133,682	-0,008	-0,007
-258,409	266,076	-0,049	-0,062
-257,395	800,000	-0,061	0,127
-256,380	-11,973	0,159	0,074
-255,365	76,832	0,038	-0,029
-254,351	-200,000	0,031	0,169
-253,336	145,422	0,049	-0,047
-252,322	710,745	-0,029	-0,056
-251,307	-200,000	-0,026	-0,125
-250,292	57,815	0,150	-0,105
-249,278	274,449	0,053	-0,068
-248,263	-200,000	-0,014	0,069
-247,249	-200,000	-0,018	0,067
-246,234	152,069	-0,072	-0,071
-245,219	-3,325	-0,080	-0,040
-244,205	29,497	-0,112	-0,068
-243,190	-3,096	0,169	-0,084
-242,176	102,140	0,129	0,107
-241,161	-200,000	0,015	0,173
-240,146	223,128	-0,091	0,105
-239,132	-183,693	0,036	-0,000
-238,117	22,869	-0,216	-0,126
-237,103	-119,672	-0,045	-0,005
-236,088	-15,973	-0,075	-0,034
-235,073	-154,564	-0,171	0,008
-234,059	-28,863	0,127	0,052
-233,044	-200,000	0,024	-0,085
-232,030	-200,000	-0,016	0,094
-231,015	9,214	0,078	-0,042
-230,000	104,227	-0,066	-0,056
-228,986	124,106	-0,063	-0,056
-227,971	-200,000	-0,013	-0,135
-226,957	149,056	0,081	0,079
-225,942	-200,000	0,020	0,122
-224,927	47,233	0,035	0,023
-223,913	-48,575	-0,106	-0,036
-222,898	-139,832	-0,072	0,005
-221,884	47,023	-0,069	-0,046
-220,869	-200,000	0,010	0,098
-219,855	42,518	0,136	0,088
-218,840	-70,957	0,153	-0,041
-217,825	-171,503	0,092	-0,002
-216,811	-70,481	0,110	-0,030
-215,796	763,887	0,035	-0,068
-214,782	-200,000	-0,003	-0,016
-213,767	-200,000	-0,032	0,111
-212,752	-200,000	0,025	0,097
-211,738	108,325	0,060	-0,051
-210,723	63,842	-0,127	0,091
-209,709	599,953	-0,009	-0,017
-208,694	136,955	-0,098	-0,091
-207,679	-200,000	0,010	0,122
-206,665	104,785	-0,030	0,025
-205,650	41,742	0,067	0,043
-204,636	202,812	-0,036	0,040
-203,621	694,589	0,031	-0,058
-202,606	-40,825	-0,114	-0,042
-201,592	18,987	0,090	-0,051
-200,577	149,029	0,095	-0,092
-199,563	-0,681	-0,166	-0,084
-198,548	-47,802	0,132	-0,046
-197,533	-200,000	0,000	0,131
-196,519	451,883	0,050	-0,080
-195,504	-200,000	0,002	-0,058
-194,490	290,894	0,072	-0,093
-193,475	-67,834	0,079	-0,022
-192,460	19,033	0,080	0,046
-191,446	-80,965	0,135	-0,032
-190,431	517,174	0,090	0,150
-189,417	-200,000	0,024	0,097
-188,402	-74,865	-0,050	-0,013
-187,387	775,841	0,031	0,060
-186,373	168,233	0,047	0,048
-185,358	-129,081	-0,036	0,004
-184,344	442,081	0,043	-0,067
-183,329	-200,000	-0,030	0,125
-182,315	800,000	0,025	0,062
-181,300	-200,000	0,005	0,038
-180,285	-184,527	0,097	0,001
-179,271	800,000	-0,054	0,121
-178,256	-200,000	0,020	0,110
-177,242	-150,497	0,106	-0,006
-176,227	-25,857	0,102	-0,043
-175,212	-200,000	-0,001	-0,021
-174,198	247,319	0,097	0,117
-173,183	800,000	0,037	-0,097
-172,169	72,331	-0,081	0,060
-171,154	179,760	0,024	0,025
-170,139	286,941	-0,031	0,040
-169,125	289,101	-0,071	-0,092
-168,110	-200,000	0,042	0,208
-167,096	-40,575	0,096	0,035
-166,081	-200,000	-0,013	-0,057
-165,066	-83,816	0,074	0,017
-164,052	465,597	0,037	-0,059
-163,037	205,794	0,066	-0,073
-162,023	686,831	-0,011	-0,021
-161,008	-200,000	-0,001	0,126
-159,993	54,028	-0,180	0,123
-158,979	800,000	0,054	-0,113
-157,964	-85,548	-0,093	-0,020
-156,950	800,000	-0,059	-0,144
-155,935	166,103	0,058	0,059
-154,920	800,000	0,040	0,108
-153,906	-58,183	0,091	0,028
-152,891	-200,000	0,018	0,256
-151,877	-95,857	0,069	-0,013
-150,862	265,719	-0,111	-0,138
-149,847	-200,000	0,054	-0,179
-148,833	-99,284	0,193	-0,034
-147,818	-91,587	0,088	-0,018
-146,804	457,687	0,071	-0,114
-145,789	800,000	0,057	0,132
-144,775	49,889	0,074	-0,050
-143,760	85,677	-0,119	0,093
-142,745	800,000	0,099	-0,210
-141,731	-59,173	0,067	0,020
-140,716	426,979	0,031	0,048
-139,702	-137,922	0,142	-0,011
-138,687	630,785	-0,031	0,056
-137,672	800,000	0,036	0,090
-136,658	-200,000	0,001	0,054
-135,643	262,978	-0,021	0,026
-134,629	-200,000	0,018	-0,082
-133,614	210,588	0,038	-0,042
-132,599	-200,000	-0,022	-0,077
-131,585	33,086	0,011	-0,007
-130,570	83,905	-0,043	0,033
-129,556	-200,000	0,004	0,086
-128,541	203,416	0,014	0,015
-127,526	-49,532	0,165	0,056
-126,512	120,605	-0,018	-0,016
-125,497	583,008	-0,040	0,070
-124,483	-28,822	0,073	0,030
-123,468	97,776	-0,087	-0,071
-122,453	115,936	0,039	-0,034
-121,439	57,961	-0,074	-0,051
-120,424	408,380	-0,052	-0,079
-119,410	-68,447	0,161	0,044
-118,395	-110,281	-0,178	-0,026
