DTS Sentinel unit serial number:	SN410029Multiplexer serial number:	ORYXHardware model number:	OX2-SRSoftware version number:	ORYX F/W v4,00 Oryx Data Collector v3.7.2.0data status	okinstallation	BH3 CH2differential loss correction	single-endedforward channel	channel 2reverse channel	N/Adate	2023/12/06time	00:57:28forward acquisition time	300,00reverse acquisition time	0,00gamma	499,1914k internal	0,3196k external	0,3196temperature offset calibration	1,0000default loss term (dB/km)	0,3820temperature slope calibration	1,0000multiplexer offset coefficient	1,0000multiplexer slope coefficient	1,0000fibre end	0,00T internal ref (°C)	9,31T ext. ref 1 (°C)	-5,63T ext. ref 2 (°C)	-5,70length (m)	temperature (°C)	Stokes	anti-Stokes-744,400	-200,000	0,056	-0,217
-743,385	-129,466	-0,251	-0,025
-742,371	-27,367	0,074	0,031
-741,356	2,979	-0,213	0,112
-740,342	-200,000	-0,017	-0,073
-739,327	-3,893	-0,312	0,157
-738,312	660,537	0,055	-0,103
-737,298	-148,425	-0,241	-0,014
-736,283	27,545	-0,161	-0,098
-735,269	734,945	-0,083	0,162
-734,254	800,000	-0,041	-0,105
-733,239	-82,107	-0,441	-0,104
-732,225	-200,000	0,016	-0,065
-731,210	464,683	0,024	-0,039
-730,196	488,031	-0,056	-0,094
-729,181	8,382	-0,124	0,068
-728,167	613,736	0,002	-0,003
-727,152	800,000	0,013	0,035
-726,137	-83,702	-0,025	-0,006
-725,123	800,000	-0,051	-0,139
-724,108	-60,953	-0,068	0,021
-723,094	800,000	0,066	-0,191
-722,079	305,552	-0,097	-0,132
-721,064	37,312	0,107	-0,069
-720,050	-84,542	-0,085	-0,019
-719,035	203,812	-0,055	-0,062
-718,021	422,150	-0,033	0,052
-717,006	118,989	-0,055	-0,049
-715,991	-200,000	-0,024	-0,158
-714,977	134,708	-0,161	-0,152
-713,962	-200,000	-0,032	-0,119
-712,948	19,839	-0,054	0,032
-711,933	39,828	-0,053	-0,035
-710,918	-104,768	0,046	0,008
-709,904	64,536	-0,154	-0,113
-708,889	14,494	-0,157	-0,089
-707,875	-200,000	-0,019	-0,128
-706,860	34,599	0,114	-0,072
-705,845	-110,725	0,150	0,022
-704,831	-134,255	-0,153	-0,013
-703,816	-2,348	0,123	-0,062
-702,802	-3,871	-0,039	0,020
-701,787	6,012	-0,131	-0,070
-700,772	344,847	-0,092	-0,131
-699,758	-75,433	-0,070	0,018
-698,743	125,137	0,107	-0,098
-697,729	-200,000	-0,012	0,047
-696,714	271,040	-0,097	-0,124
-695,699	583,568	0,042	-0,076
-694,685	-86,610	-0,224	0,049
-693,670	201,299	-0,161	-0,180
-692,656	51,649	-0,062	-0,043
-691,641	599,646	0,025	-0,046
-690,627	580,969	0,061	0,109
-689,612	-200,000	-0,007	0,073
-688,597	52,775	-0,071	0,049
-687,583	-62,829	-0,069	-0,021
-686,568	150,993	-0,051	-0,050
-685,554	-111,785	-0,063	0,009
-684,539	-200,000	0,019	-0,080
-683,524	70,287	0,041	0,030
-682,510	786,852	0,027	-0,055
-681,495	295,044	0,018	0,024
-680,481	-85,697	-0,053	0,012
-679,466	-25,154	-0,007	0,003
-678,451	-200,000	-0,012	-0,106
-677,437	224,086	-0,022	-0,026
-676,422	800,000	0,043	0,104
-675,408	-56,223	-0,139	-0,045
-674,393	249,875	-0,045	0,055
-673,378	379,564	0,041	-0,061
-672,364	12,039	-0,107	-0,059
-671,349	91,661	-0,169	-0,138
-670,335	-89,601	0,178	0,038
-669,320	-131,683	-0,033	0,003
-668,305	-122,083	0,031	-0,004
-667,291	-41,147	0,070	-0,026
-666,276	-200,000	0,014	-0,051
-665,262	-200,000	-0,009	-0,041
-664,247	164,306	0,023	0,023
-663,232	695,677	-0,024	-0,045
-662,218	464,801	0,033	-0,053
-661,203	-95,233	-0,055	0,011
-660,189	-46,865	0,065	-0,023
-659,174	-103,354	-0,090	0,015
-658,159	288,894	0,045	-0,060
-657,145	191,226	0,119	-0,130
-656,130	-22,194	-0,067	0,030
-655,116	-5,976	-0,082	0,041
-654,101	643,390	-0,034	-0,063
-653,086	-200,000	-0,001	0,043
-652,072	14,676	-0,066	0,037
-651,057	-138,586	-0,102	-0,008
-650,043	-0,318	-0,152	0,078
-649,028	-101,315	0,144	-0,025
-648,014	-192,622	-0,051	0,000
-646,999	800,000	0,044	-0,098
-645,984	246,574	-0,090	-0,111
-644,970	-200,000	0,017	-0,068
-643,955	100,172	-0,098	-0,082
-642,941	58,575	0,168	-0,119
-641,926	52,760	0,104	-0,072
-640,911	-166,453	0,130	0,004
-639,897	-35,051	-0,148	0,058
-638,882	-28,786	-0,129	0,054
-637,868	172,796	-0,052	-0,054
-636,853	227,715	0,045	0,053
-635,838	167,249	-0,041	-0,043
-634,824	17,983	0,050	0,029
-633,809	134,112	-0,099	0,093
-632,795	800,000	0,003	-0,009
-631,780	366,190	-0,077	-0,113
-630,765	-34,322	-0,094	-0,037
-629,751	505,226	-0,055	-0,092
-628,736	500,130	0,021	0,035
-627,722	-33,324	-0,128	-0,051
-626,707	-38,298	0,077	-0,030
-625,692	765,872	0,060	0,118
-624,678	779,979	0,054	0,107
-623,663	471,603	0,051	0,083
-622,649	-19,212	0,038	0,017
-621,634	-28,007	0,131	-0,055
-620,619	12,463	0,035	0,019
-619,605	800,000	-0,039	-0,113
-618,590	238,616	0,038	0,046
-617,576	309,685	0,046	-0,062
-616,561	76,487	-0,069	0,053
-615,546	380,782	0,040	-0,060
-614,532	-104,449	-0,105	0,017
-613,517	406,110	0,061	-0,093
-612,503	346,581	0,085	-0,122
-611,488	800,000	-0,020	0,040
-610,474	78,297	-0,042	-0,032
-609,459	-126,971	-0,118	0,012
-608,444	-63,835	-0,076	0,023
-607,430	423,725	-0,062	-0,096
-606,415	16,007	0,051	0,029
-605,401	100,890	0,021	-0,018
-604,386	-90,788	0,049	0,010
-603,371	-109,103	-0,109	0,017
-602,357	-200,000	0,004	0,029
-601,342	-34,267	-0,078	-0,031
-600,328	199,175	0,157	-0,175
-599,313	-200,000	-0,017	-0,112
-598,298	800,000	-0,065	-0,176
-597,284	-163,727	0,152	-0,005
-596,269	651,819	0,053	0,099
-595,255	76,448	-0,025	-0,019
-594,240	-158,507	-0,072	-0,003
-593,225	-72,822	-0,134	-0,036
-592,211	-103,313	-0,152	0,026
-591,196	-200,000	0,012	-0,060
-590,182	136,904	-0,027	0,026
-589,167	-96,530	0,050	-0,009
-588,152	-200,000	0,017	0,084
-587,138	86,818	-0,118	-0,094
-586,123	800,000	-0,033	-0,078
-585,109	-155,067	0,067	-0,003
-584,094	-106,923	-0,141	-0,022
-583,079	-69,163	0,028	0,008
-582,065	-92,065	-0,039	0,008
-581,050	-17,166	0,150	0,068
-580,036	800,000	-0,004	-0,012
-579,021	-200,000	0,001	-0,026
-578,006	-180,651	0,077	-0,001
-576,992	31,258	0,028	0,017
-575,977	-22,149	-0,093	-0,041
-574,963	-45,054	0,180	0,065
-573,948	-200,000	-0,007	-0,053
-572,934	-200,000	-0,012	0,055
-571,919	432,003	-0,075	-0,119
-570,904	387,862	-0,077	-0,116
-569,890	-200,000	-0,004	0,133
-568,875	800,000	-0,019	0,051
-567,861	800,000	0,010	-0,025
-566,846	112,872	0,033	0,029
-565,831	-186,025	0,101	0,001
-564,817	84,772	-0,144	-0,114
-563,802	332,964	-0,009	-0,012
-562,788	454,586	0,017	0,027
-561,773	-200,000	0,030	-0,105
-560,758	-44,722	0,037	0,013
-559,744	623,811	-0,028	-0,052
-558,729	800,000	-0,029	-0,059
-557,715	-200,000	0,064	-0,211
-556,700	200,978	-0,092	-0,102
-555,685	248,679	-0,092	-0,113
-554,671	160,360	-0,035	0,036
-553,656	-200,000	-0,015	-0,074
-552,642	264,020	0,061	-0,077
-551,627	-200,000	-0,019	0,062
-550,612	-200,000	-0,020	0,076
-549,598	-114,485	-0,078	0,011
-548,583	135,227	-0,063	-0,059
-547,569	241,531	-0,048	0,058
-546,554	-114,690	0,170	0,023
-545,539	-70,905	0,093	0,025
-544,525	-149,565	0,135	0,008
-543,510	-44,465	-0,106	0,038
-542,496	-126,028	0,099	-0,011
-541,481	-63,351	0,165	-0,049
-540,466	-37,183	0,008	0,003
-539,452	629,080	0,031	-0,058
-538,437	131,065	0,105	0,097
-537,423	-23,765	-0,074	0,032
-536,408	-200,000	-0,023	0,130
-535,393	800,000	0,049	-0,111
-534,379	-96,736	0,136	-0,026
-533,364	-200,000	0,015	-0,066
-532,350	151,678	-0,093	0,092
-531,335	-65,688	-0,110	0,032
-530,321	-10,127	0,155	0,074
-529,306	488,659	-0,046	-0,076
-528,291	-200,000	0,006	-0,185
-527,277	160,956	-0,140	-0,142
-526,262	161,648	-0,028	0,029
-525,248	15,929	0,031	-0,018
-524,233	100,185	0,068	0,057
-523,218	-16,210	-0,066	0,030
-522,204	-4,260	-0,063	-0,031
-521,189	685,754	-0,021	-0,040
-520,175	31,780	-0,140	-0,087
-519,160	-200,000	0,027	0,114
-518,145	800,000	0,020	0,063
-517,131	800,000	0,012	-0,034
-516,116	-200,000	-0,029	0,117
-515,102	-200,000	-0,000	-0,123
-514,087	-200,000	0,003	0,038
-513,072	49,331	0,089	0,061
-512,058	-47,559	-0,121	-0,042
-511,043	15,994	-0,015	0,009
-510,029	800,000	0,067	-0,142
-509,014	-163,171	-0,128	-0,004
-507,999	-200,000	0,003	0,027
-506,985	331,321	-0,025	-0,035
-505,970	507,118	0,069	-0,115
-504,956	-55,752	-0,103	0,033
-503,941	49,850	0,008	-0,005
-502,926	-200,000	0,033	0,132
-501,912	-16,158	0,085	-0,039
-500,897	252,704	0,061	-0,075
-499,883	800,000	0,050	0,129
-498,868	238,595	0,019	0,023
-497,853	546,458	-0,030	-0,052
-496,839	-61,553	0,016	0,005
-495,824	-49,953	0,079	0,027
-494,810	800,000	0,020	0,046
-493,795	-200,000	-0,005	-0,059
-492,781	571,306	-0,021	0,036
-491,766	34,902	-0,098	-0,062
-490,751	-200,000	0,021	-0,122
-489,737	116,677	-0,082	-0,072
-488,722	-200,000	0,005	-0,041
-487,708	639,244	0,023	0,042
-486,693	243,051	-0,013	0,016
-485,678	308,237	-0,082	0,111
-484,664	193,830	0,062	0,067
-483,649	114,585	-0,097	-0,085
-482,635	71,388	-0,036	-0,027
-481,620	97,020	0,044	-0,036
-480,605	325,906	-0,034	0,047
-479,591	-42,752	0,019	-0,007
-478,576	-200,000	-0,023	-0,120
-477,562	800,000	-0,072	-0,171
-476,547	800,000	-0,076	-0,193
-475,532	165,960	-0,045	-0,046
-474,518	68,500	0,055	-0,041
-473,503	-58,520	-0,028	-0,009
-472,489	-12,549	0,097	0,045
-471,474	288,021	0,093	0,121
-470,459	-50,133	-0,098	-0,033
-469,445	125,646	0,088	0,080
-468,430	-104,368	-0,101	-0,017
-467,416	800,000	-0,025	0,072
-466,401	-115,516	-0,089	-0,012
-465,386	425,763	0,093	0,145
-464,372	7,462	-0,037	0,020
-463,357	800,000	-0,059	-0,144
-462,343	-75,572	-0,104	0,027
-461,328	47,420	0,037	-0,025
-460,313	800,000	-0,024	0,067
-459,299	-116,711	0,106	0,014
-458,284	-80,672	0,043	-0,010
-457,270	666,194	0,036	-0,067
-456,255	741,530	-0,017	-0,032
-455,241	-200,000	-0,010	-0,032
-454,226	398,967	0,048	-0,072
-453,211	-200,000	-0,032	-0,167
-452,197	16,745	-0,043	-0,024
-451,182	-49,277	0,182	-0,062
-450,168	-43,908	0,110	0,040
-449,153	800,000	0,025	0,062
-448,138	-63,292	0,128	0,038
-447,124	800,000	0,018	0,049
-446,109	11,037	0,087	-0,048
-445,095	204,445	-0,059	0,066
-444,080	53,491	0,148	0,102
-443,065	-200,000	0,011	-0,054
-442,051	800,000	0,023	-0,067
-441,036	800,000	-0,096	-0,192
-440,022	158,080	-0,057	0,057
-439,007	686,231	-0,045	-0,085
-437,992	800,000	-0,039	0,084
-436,978	95,476	0,114	-0,093
-435,963	-83,836	-0,106	-0,024
-434,949	-200,000	0,004	0,075
-433,934	429,314	0,021	0,032
-432,919	74,763	0,105	0,080
-431,905	-48,411	0,067	-0,023
-430,890	-200,000	-0,008	0,138
-429,876	716,481	-0,026	-0,050
-428,861	-120,491	-0,030	0,004
-427,846	-119,337	-0,037	0,005
-426,832	56,944	0,064	-0,045
-425,817	65,479	0,122	0,088
-424,803	111,379	-0,086	0,075
-423,788	-145,492	0,025	0,002
-422,773	-193,485	0,052	-0,000
-421,759	-200,000	-0,004	-0,150
-420,744	800,000	0,043	0,099
-419,730	-28,405	0,044	0,018
-418,715	-22,535	-0,076	-0,033
-417,701	800,000	0,011	0,027
-416,686	62,838	-0,047	0,034
-415,671	-186,263	0,067	-0,001
-414,657	-200,000	0,042	0,137
-413,642	48,404	0,019	0,013
-412,628	-142,662	-0,034	0,002
-411,613	132,124	-0,022	-0,021
-410,598	-200,000	0,010	-0,048
-409,584	-54,652	0,037	0,012
-408,569	-200,000	-0,008	0,066
-407,555	515,250	-0,009	-0,016
-406,540	-200,000	-0,000	0,060
-405,525	-200,000	-0,022	-0,099
-404,511	-102,947	-0,120	0,020
-403,496	157,294	-0,083	0,082
-402,482	5,190	0,106	0,056
-401,467	-7,693	-0,186	0,090
-400,452	-200,000	-0,002	0,112
-399,438	-200,000	0,010	0,204
-398,423	91,525	-0,046	0,037
-397,409	-200,000	0,023	-0,121
-396,394	16,534	-0,063	-0,035
-395,379	-33,169	0,039	0,015
-394,365	48,406	0,097	-0,065
-393,350	800,000	0,044	0,102
-392,336	-88,520	-0,065	0,014
-391,321	-138,702	-0,148	-0,011
-390,306	-120,794	-0,058	0,007
-389,292	75,565	0,024	0,018
-388,277	447,014	0,024	-0,038
-387,263	-137,988	0,245	-0,019
-386,248	-200,000	-0,018	0,083
-385,233	-200,000	-0,005	0,033
-384,219	-86,520	0,121	-0,027
-383,204	-102,460	-0,096	-0,016
-382,190	117,847	-0,096	0,085
-381,175	-37,367	-0,050	-0,019
-380,160	160,372	-0,080	-0,081
-379,146	430,323	0,045	0,070
-378,131	-200,000	0,013	-0,080
-377,117	-86,120	-0,110	-0,024
-376,102	149,083	-0,073	0,071
-375,088	-158,809	-0,064	0,003
-374,073	-200,000	-0,024	0,096
-373,058	-145,755	0,048	-0,003
-372,044	-26,653	0,058	-0,024
-371,029	72,173	0,101	-0,076
-370,015	-200,000	-0,004	0,060
-369,000	-200,000	0,000	-0,136
-367,985	800,000	-0,042	-0,122
-366,971	-32,278	-0,195	-0,078
-365,956	134,333	0,053	0,049
-364,942	107,701	0,165	0,141
-363,927	-200,000	0,022	0,081
-362,912	388,107	0,069	-0,102
-361,898	-200,000	-0,038	0,137
-360,883	213,711	-0,107	-0,122
-359,869	-63,238	0,029	-0,009
-358,854	-200,000	-0,028	0,098
-357,839	-2,358	0,106	-0,053
-356,825	36,606	-0,160	0,101
-355,810	28,572	0,055	0,033
-354,796	101,509	-0,119	0,100
-353,781	91,981	-0,043	0,035
-352,766	271,802	-0,050	0,063
-351,752	-200,000	-0,004	-0,091
-350,737	800,000	-0,039	-0,093
-349,723	-146,960	0,128	0,008
-348,708	4,448	0,088	-0,046
-347,693	557,571	-0,037	0,065
-346,679	-29,132	0,081	0,033
-345,664	800,000	-0,030	-0,077
-344,650	-189,958	-0,107	0,001
-343,635	-200,000	-0,011	-0,114
-342,620	76,571	0,092	-0,070
-341,606	-181,099	0,124	0,002
-340,591	41,973	-0,131	0,085
-339,577	418,901	0,014	-0,021
-338,562	-47,274	-0,139	0,048
-337,548	247,376	-0,079	0,095
-336,533	-61,283	0,124	0,037
-335,518	-200,000	-0,013	0,207
-334,504	800,000	0,050	0,122
-333,489	-200,000	0,020	0,081
-332,475	43,610	0,155	0,101
-331,460	-24,653	0,102	0,043
-330,445	-81,077	-0,021	0,005
-329,431	800,000	-0,021	0,045
-328,416	398,982	0,052	0,079
-327,402	21,452	0,146	0,085
-326,387	135,117	-0,071	0,066
-325,372	800,000	0,034	-0,072
-324,358	90,375	0,072	-0,058
-323,343	222,380	0,053	-0,062
-322,329	210,261	0,013	-0,015
-321,314	-200,000	0,002	-0,113
-320,299	-92,122	0,080	-0,016
-319,285	73,623	0,124	0,093
-318,270	-199,648	-0,069	-0,000
-317,256	-200,000	0,033	-0,118
-316,241	-200,000	-0,032	0,106
-315,226	-159,163	0,038	-0,002
-314,212	250,374	-0,020	0,024
-313,197	-62,188	-0,093	-0,028
-312,183	73,743	0,121	0,091
-311,168	-200,000	-0,013	-0,102
-310,153	-200,000	-0,024	-0,076
-309,139	-200,000	0,012	0,106
-308,124	-200,000	-0,004	-0,038
-307,110	-69,042	0,121	0,033
-306,095	-144,460	0,119	0,008
-305,080	134,126	-0,120	0,111
-304,066	-62,734	-0,041	0,012
-303,051	-200,000	0,005	0,035
-302,037	-46,313	0,044	0,016
-301,022	-42,493	-0,066	0,024
-300,008	-135,071	0,095	0,008
-298,993	423,958	-0,070	-0,108
-297,978	-200,000	-0,011	0,108
-296,964	800,000	-0,017	-0,042
-295,949	800,000	0,025	-0,071
-294,935	170,011	-0,022	-0,022
-293,920	-200,000	-0,011	-0,055
-292,905	672,031	0,066	0,124
-291,891	-109,657	-0,132	0,020
-290,876	-92,354	0,043	-0,009
-289,862	800,000	-0,012	0,036
-288,847	-62,033	0,096	-0,029
-287,832	800,000	-0,041	-0,105
-286,818	-200,000	-0,015	-0,117
-285,803	226,903	0,125	-0,145
-284,789	274,073	0,028	0,035
-283,774	113,509	0,088	-0,077
-282,759	495,778	0,048	0,079
-281,745	216,273	-0,042	-0,048
-280,730	489,610	-0,052	-0,086
-279,716	331,142	0,046	0,063
-278,701	-38,078	0,018	0,007
-277,686	-114,059	0,233	0,032
-276,672	71,927	-0,039	0,029
-275,657	-16,762	-0,106	-0,048
-274,643	800,000	-0,017	0,052
-273,628	800,000	0,013	0,030
-272,613	61,855	-0,078	-0,055
-271,599	-90,840	-0,078	0,016
-270,584	253,724	0,077	0,094
-269,570	-200,000	-0,032	0,139
-268,555	469,102	0,043	-0,069
-267,540	-200,000	-0,041	0,152
-266,526	-104,964	-0,023	-0,004
-265,511	404,270	0,033	0,050
-264,497	-76,652	0,062	0,015
-263,482	-44,265	-0,053	0,019
-262,467	800,000	0,024	0,059
-261,453	800,000	0,047	0,105
-260,438	800,000	-0,042	-0,109
-259,424	597,813	0,112	-0,200
-258,409	800,000	-0,017	-0,037
-257,395	-9,467	-0,046	-0,022
-256,380	-38,396	-0,013	-0,005
-255,365	800,000	0,052	0,124
-254,351	-168,805	-0,131	0,003
-253,336	-200,000	0,004	0,082
-252,322	22,042	-0,025	0,015
-251,307	800,000	0,043	0,121
-250,292	178,635	0,135	0,141
-249,278	-128,026	-0,039	-0,004
-248,263	-82,658	0,203	0,047
-247,249	76,161	-0,038	-0,029
-246,234	417,234	0,065	0,100
-245,219	138,738	-0,033	0,031
-244,205	3,319	-0,056	0,029
-243,190	237,065	-0,042	0,049
-242,176	-200,000	-0,002	0,063
-241,161	800,000	-0,011	0,028
-240,146	32,231	0,114	0,070
-239,132	296,718	0,026	-0,035
-238,117	-80,762	0,021	-0,005
-237,103	800,000	-0,025	-0,072
-236,088	-200,000	-0,001	0,058
-235,073	40,830	0,029	0,019
-234,059	7,662	0,123	0,066
-233,044	450,305	-0,077	-0,122
-232,030	12,030	-0,077	0,042
-231,015	-161,168	0,084	-0,003
-230,000	407,269	-0,028	0,043
-228,986	743,944	-0,018	-0,034
-227,971	274,304	0,028	0,036
-226,957	800,000	0,066	0,135
-225,942	800,000	0,018	-0,048
-224,927	-200,000	0,019	0,117
-223,913	-5,973	-0,061	-0,030
-222,898	512,007	0,045	-0,076
-221,884	-12,702	-0,045	-0,021
-220,869	-87,913	-0,042	0,009
-219,855	800,000	0,090	0,205
-218,840	304,956	0,088	0,117
-217,825	-48,781	-0,161	0,055
-216,811	-200,000	0,009	-0,047
-215,796	-128,315	-0,125	-0,013
-214,782	800,000	-0,079	-0,184
-213,767	-200,000	-0,006	-0,053
-212,752	-200,000	-0,010	0,037
-211,738	165,959	0,110	-0,112
-210,723	-200,000	0,009	0,125
-209,709	375,560	0,066	0,096
-208,694	138,179	-0,070	0,066
-207,679	-46,997	-0,102	0,035
-206,665	99,451	-0,131	0,108
-205,650	27,426	0,111	-0,066
-204,636	-28,923	-0,134	0,055
-203,621	-200,000	0,010	-0,049
-202,606	-65,683	-0,034	-0,010
-201,592	-150,415	-0,094	-0,005
-200,577	318,543	-0,008	0,011
-199,563	320,135	-0,053	-0,073
-198,548	150,412	-0,051	0,049
-197,533	155,340	-0,085	-0,083
-196,519	-200,000	-0,008	-0,120
-195,504	293,358	0,059	-0,076
-194,490	-200,000	-0,017	-0,054
-193,475	341,202	-0,051	0,071
-192,460	-191,957	0,100	-0,001
-191,446	-200,000	-0,001	-0,094
-190,431	800,000	0,031	-0,076
-189,417	-200,000	-0,002	0,061
-188,402	-81,287	-0,166	-0,039
-187,387	57,473	0,151	0,105
-186,373	-30,350	-0,095	0,038
-185,358	-118,097	-0,073	-0,009
-184,344	-100,687	0,111	-0,019
-183,329	10,771	-0,107	0,058
-182,315	499,441	-0,026	0,043
-181,300	483,174	-0,049	-0,080
-180,285	-128,376	0,112	0,011
-179,271	492,883	-0,109	-0,178
-178,256	-200,000	-0,009	-0,083
-177,242	49,701	-0,133	0,089
-176,227	-200,000	0,109	0,000
-175,212	-200,000	0,000	0,014
-174,198	379,653	0,040	-0,058
-173,183	-71,177	-0,082	0,022
-172,169	-97,374	0,054	0,010
-171,154	559,635	-0,057	0,099
-170,139	800,000	0,087	0,187
-169,125	11,831	0,067	0,036
-168,110	-200,000	0,000	-0,005
-167,096	-49,354	-0,154	-0,052
-166,081	-200,000	-0,010	-0,070
-165,066	-93,122	0,034	0,007
-164,052	-192,665	-0,089	-0,001
-163,037	-200,000	0,001	0,119
-162,023	-200,000	0,010	-0,087
-161,008	122,963	-0,093	0,083
-159,993	-200,000	0,008	0,252
-158,979	-34,902	-0,053	-0,021
-157,964	78,612	-0,105	-0,080
-156,950	-200,000	0,017	-0,144
-155,935	-96,358	0,080	-0,015
-154,920	-200,000	-0,001	-0,102
-153,906	547,538	0,062	0,106
-152,891	357,514	0,016	0,022
-151,877	-200,000	-0,011	0,044
-150,862	-34,565	-0,070	-0,027
-149,847	190,398	-0,045	0,048
-148,833	-142,466	-0,037	-0,003
-147,818	322,287	0,087	0,119
-146,804	-63,315	-0,096	0,028
-145,789	66,504	0,074	0,053
-144,775	56,733	0,086	0,060
-143,760	-29,410	0,055	0,022
-142,745	-137,121	0,135	-0,011
-141,731	-155,015	0,155	0,007
-140,716	14,227	0,074	-0,041
-139,702	317,010	0,047	-0,063
-138,687	-200,000	0,027	0,111
-137,672	-200,000	0,015	-0,060
-136,658	366,495	0,050	-0,072
-135,643	-200,000	-0,036	-0,194
-134,629	800,000	0,088	-0,230
-133,614	-200,000	0,026	0,158
-132,599	45,344	0,021	0,014
-131,585	-47,327	0,084	0,029
-130,570	125,439	-0,079	0,071
-129,556	-200,000	0,004	-0,062
-128,541	108,617	-0,173	-0,147
-127,526	-104,793	0,106	0,017
-126,512	-179,682	0,057	-0,001
-125,497	-90,002	-0,095	-0,020
-124,483	12,317	0,168	0,092
-123,468	-141,123	0,037	0,003
-122,453	542,765	-0,026	-0,044
-121,439	32,277	0,121	0,074
-120,424	171,775	-0,029	-0,029
-119,410	172,057	0,057	0,059
