DTS Sentinel unit serial number:	SN410029Multiplexer serial number:	ORYXHardware model number:	OX2-SRSoftware version number:	ORYX F/W v4,00 Oryx Data Collector v3.7.2.0data status	okinstallation	BH3 CH2differential loss correction	single-endedforward channel	channel 2reverse channel	N/Adate	2023/12/06time	07:57:28forward acquisition time	300,00reverse acquisition time	0,00gamma	499,1914k internal	0,3197k external	0,3197temperature offset calibration	1,0000default loss term (dB/km)	0,3820temperature slope calibration	1,0000multiplexer offset coefficient	1,0000multiplexer slope coefficient	1,0000fibre end	0,00T internal ref (°C)	8,78T ext. ref 1 (°C)	-5,87T ext. ref 2 (°C)	-5,99length (m)	temperature (°C)	Stokes	anti-Stokes-744,400	-200,000	0,002	-0,144
-743,385	-52,081	-0,185	0,062
-742,371	-200,000	0,012	0,039
-741,356	684,546	-0,109	0,208
-740,342	163,083	-0,067	-0,069
-739,327	166,522	-0,108	0,112
-738,312	-200,000	0,024	-0,094
-737,298	-88,460	-0,209	0,045
-736,283	-200,000	0,030	-0,109
-735,269	-20,847	-0,199	0,089
-734,254	-200,000	0,004	0,055
-733,239	-145,844	-0,384	-0,024
-732,225	312,917	0,038	0,052
-731,210	-93,331	0,140	0,028
-730,196	-200,000	-0,005	-0,069
-729,181	-200,000	-0,012	-0,129
-728,167	-50,094	-0,058	0,020
-727,152	-200,000	-0,008	0,040
-726,137	76,701	0,105	-0,081
-725,123	448,280	-0,045	-0,073
-724,108	90,098	0,112	-0,091
-723,094	-75,577	-0,084	0,022
-722,079	-200,000	0,000	0,000
-721,064	104,077	-0,052	0,044
-720,050	800,000	0,026	0,079
-719,035	-200,000	-0,035	0,132
-718,021	78,133	0,070	-0,054
-717,006	800,000	-0,028	0,077
-715,991	800,000	-0,063	-0,177
-714,977	132,216	-0,102	0,096
-713,962	-89,624	0,026	-0,005
-712,948	-41,940	0,151	-0,056
-711,933	138,560	-0,018	-0,017
-710,918	132,716	-0,005	-0,005
-709,904	-200,000	0,000	-0,127
-708,889	121,462	0,053	-0,048
-707,875	-91,522	-0,028	0,006
-706,860	800,000	-0,026	0,056
-705,845	-41,561	-0,063	0,023
-704,831	-200,000	-0,013	-0,103
-703,816	202,835	-0,110	-0,123
-702,802	323,868	-0,048	0,067
-701,787	-101,355	-0,080	0,014
-700,772	-69,361	-0,113	-0,031
-699,758	-99,310	-0,068	0,012
-698,743	359,103	-0,032	-0,047
-697,729	103,521	0,019	0,016
-696,714	112,990	-0,089	-0,078
-695,699	-127,552	-0,048	0,005
-694,685	174,660	-0,062	-0,065
-693,670	-200,000	-0,005	-0,074
-692,656	2,562	0,084	0,044
-691,641	216,623	-0,081	-0,094
-690,627	800,000	-0,033	0,098
-689,612	-119,110	-0,107	-0,013
-688,597	800,000	0,050	-0,102
-687,583	45,225	-0,091	0,061
-686,568	74,791	-0,069	-0,053
-685,554	800,000	0,069	-0,152
-684,539	27,642	-0,024	-0,014
-683,524	-65,770	-0,055	-0,016
-682,510	6,618	0,102	0,055
-681,495	8,642	0,045	0,025
-680,481	126,070	-0,151	-0,138
-679,466	800,000	-0,062	-0,147
-678,451	124,745	-0,048	-0,044
-677,437	-186,564	0,058	-0,001
-676,422	-200,000	0,014	0,086
-675,408	800,000	-0,028	0,072
-674,393	88,100	0,025	0,020
-673,378	-11,699	-0,136	0,064
-672,364	261,219	-0,065	0,082
-671,349	800,000	0,020	-0,040
-670,335	110,536	-0,058	0,051
-669,320	-200,000	0,031	0,131
-668,305	800,000	-0,065	0,135
-667,291	-27,773	-0,117	-0,049
-666,276	180,006	-0,096	0,102
-665,262	-80,147	0,108	-0,026
-664,247	-174,403	-0,120	0,002
-663,232	109,806	0,081	0,071
-662,218	-29,774	0,003	0,001
-661,203	-124,480	-0,101	-0,011
-660,189	74,007	-0,042	-0,032
-659,174	566,238	0,076	0,135
-658,159	-200,000	-0,010	0,039
-657,145	647,810	0,044	0,082
-656,130	800,000	-0,047	-0,113
-655,116	-200,000	-0,016	-0,053
-654,101	25,596	0,025	0,015
-653,086	-162,922	0,051	-0,002
-652,072	-200,000	-0,051	-0,202
-651,057	-200,000	-0,022	-0,127
-650,043	-200,000	0,012	0,048
-649,028	375,804	0,118	0,176
-648,014	126,098	0,067	0,061
-646,999	-107,730	0,079	-0,012
-645,984	329,378	-0,078	0,110
-644,970	596,866	0,054	-0,097
-643,955	800,000	0,021	-0,062
-642,941	63,952	-0,112	-0,081
-641,926	-59,888	-0,020	0,006
-640,911	32,529	0,160	0,100
-639,897	-30,648	-0,169	-0,069
-638,882	-200,000	0,020	-0,099
-637,868	-43,801	0,120	-0,044
-636,853	-86,408	-0,170	0,038
-635,838	89,395	0,038	0,031
-634,824	98,514	0,128	0,107
-633,809	243,957	-0,046	-0,057
-632,795	800,000	-0,041	0,110
-631,780	-200,000	-0,019	0,106
-630,765	-200,000	-0,097	0,000
-629,751	-129,064	0,062	0,006
-628,736	105,642	-0,128	-0,109
-627,722	781,426	0,088	0,176
-626,707	113,764	0,063	0,056
-625,692	-135,299	-0,125	0,011
-624,678	380,082	0,067	-0,099
-623,663	-4,538	-0,071	0,036
-622,649	467,320	-0,059	-0,097
-621,634	-85,829	0,025	0,005
-620,619	-39,030	0,091	-0,034
-619,605	800,000	0,040	-0,082
-618,590	371,381	-0,039	-0,058
-617,576	-32,052	-0,086	0,035
-616,561	-200,000	-0,007	0,078
-615,546	-125,518	-0,005	0,001
-614,532	42,562	0,039	-0,026
-613,517	-200,000	-0,035	-0,149
-612,503	-123,012	-0,051	-0,006
-611,488	-12,371	0,100	0,047
-610,474	-101,007	-0,177	0,031
-609,459	-54,589	-0,118	0,038
-608,444	-193,063	0,041	-0,000
-607,430	-200,000	0,010	-0,144
-606,415	371,819	-0,020	-0,030
-605,401	161,106	0,065	0,066
-604,386	-62,581	0,081	-0,024
-603,371	-200,000	0,004	-0,045
-602,357	228,812	-0,087	0,103
-601,342	207,316	0,138	-0,157
-600,328	-144,367	-0,141	-0,009
-599,313	341,289	0,059	-0,083
-598,298	278,505	-0,063	-0,081
-597,284	746,981	-0,073	0,142
-596,269	110,564	-0,068	0,059
-595,255	-200,000	0,012	-0,158
-594,240	800,000	0,051	-0,111
-593,225	58,795	-0,209	-0,148
-592,211	296,760	0,029	-0,038
-591,196	46,786	-0,110	0,074
-590,182	800,000	0,025	0,052
-589,167	41,295	0,101	0,066
-588,152	-200,000	0,015	0,080
-587,138	-146,240	-0,185	-0,012
-586,123	-200,000	-0,029	-0,118
-585,109	800,000	-0,036	-0,101
-584,094	-200,000	0,053	-0,204
-583,079	558,148	-0,033	-0,057
-582,065	-136,246	-0,052	-0,004
-581,050	-122,587	0,103	-0,012
-580,036	-200,000	0,006	-0,083
-579,021	-75,450	0,122	-0,031
-578,006	662,859	-0,061	-0,114
-576,992	217,308	0,072	0,083
-575,977	119,957	-0,014	0,012
-574,963	800,000	-0,007	-0,019
-573,948	338,089	0,029	-0,041
-572,934	-63,388	-0,125	-0,037
-571,919	800,000	0,045	-0,116
-570,904	-200,000	-0,009	-0,064
-569,890	36,549	-0,097	-0,061
-568,875	800,000	0,023	0,069
-567,861	-200,000	-0,029	0,155
-566,846	7,494	-0,030	0,016
-565,831	-54,287	0,031	-0,010
-564,817	181,489	-0,069	-0,073
-563,802	-200,000	-0,014	0,076
-562,788	-24,432	0,016	0,007
-561,773	-128,616	0,076	-0,008
-560,758	136,223	-0,075	-0,071
-559,744	800,000	-0,101	0,233
-558,729	32,973	-0,034	-0,021
-557,715	-200,000	-0,046	0,186
-556,700	800,000	-0,054	-0,127
-555,685	-103,250	-0,067	0,011
-554,671	36,306	-0,070	0,044
-553,656	-200,000	0,026	0,094
-552,642	221,246	-0,076	0,088
-551,627	751,652	0,041	0,080
-550,612	-200,000	0,009	-0,031
-549,598	800,000	-0,009	-0,026
-548,583	-163,277	-0,057	0,002
-547,569	145,096	0,121	-0,117
-546,554	-200,000	-0,007	0,053
-545,539	-64,981	-0,034	-0,010
-544,525	-36,216	-0,129	-0,050
-543,510	-10,516	0,115	-0,055
-542,496	-3,883	-0,074	-0,037
-541,481	-200,000	-0,001	0,092
-540,466	166,759	0,067	0,069
-539,452	-46,261	0,084	-0,030
-538,437	68,154	-0,103	0,076
-537,423	-200,000	-0,002	0,052
-536,408	800,000	-0,038	-0,099
-535,393	-91,166	0,138	-0,028
-534,379	169,180	0,045	-0,047
-533,364	-200,000	-0,024	0,185
-532,350	0,254	0,049	-0,025
-531,335	800,000	0,022	0,062
-530,321	-67,612	0,151	0,042
-529,306	275,237	-0,033	-0,042
-528,291	800,000	0,049	-0,133
-527,277	-200,000	-0,001	-0,038
-526,262	-104,037	-0,098	-0,016
-525,248	-200,000	-0,008	-0,053
-524,233	-200,000	0,008	0,088
-523,218	250,716	0,046	0,057
-522,204	277,147	0,039	0,050
-521,189	120,769	-0,094	-0,084
-520,175	-200,000	0,006	-0,024
-519,160	-10,315	-0,076	0,036
-518,145	-200,000	0,015	0,083
-517,131	249,220	-0,031	-0,038
-516,116	11,921	-0,073	0,040
-515,102	-129,483	0,200	0,020
-514,087	427,152	-0,063	-0,098
-513,072	205,696	0,041	-0,046
-512,058	164,615	0,004	0,005
-511,043	7,294	-0,072	0,039
-510,029	-195,824	0,060	0,000
-509,014	423,254	-0,041	0,063
-507,999	-97,590	0,042	0,008
-506,985	222,982	-0,069	-0,080
-505,970	800,000	0,047	-0,096
-504,956	-40,316	0,089	-0,033
-503,941	-101,354	0,027	-0,005
-502,926	-200,000	0,030	0,118
-501,912	700,493	0,016	-0,031
-500,897	-9,834	0,183	-0,088
-499,883	170,647	-0,022	0,022
-498,868	-65,601	0,021	-0,006
-497,853	80,775	-0,065	-0,050
-496,839	-200,000	0,023	-0,105
-495,824	183,567	0,040	0,042
-494,810	800,000	0,038	0,106
-493,795	-88,161	0,148	-0,032
-492,781	-200,000	-0,039	-0,125
-491,766	139,534	0,032	-0,030
-490,751	-200,000	-0,023	-0,201
-489,737	-200,000	0,013	0,061
-488,722	-56,761	0,090	-0,029
-487,708	-200,000	0,001	-0,024
-486,693	-84,994	0,086	-0,019
-485,678	-200,000	0,009	0,229
-484,664	800,000	-0,016	-0,038
-483,649	-200,000	-0,025	-0,102
-482,635	313,948	-0,050	0,068
-481,620	679,148	0,035	0,065
-480,605	-27,837	0,046	0,019
-479,591	133,675	0,096	-0,090
-478,576	-134,930	-0,052	-0,004
-477,562	-39,301	0,128	-0,048
-476,547	83,530	-0,056	0,044
-475,532	24,601	0,056	-0,033
-474,518	263,342	-0,139	0,174
-473,503	-24,939	-0,013	0,006
-472,489	-14,053	-0,170	0,079
-471,474	-200,000	0,007	0,026
-470,459	-200,000	-0,007	-0,069
-469,445	-200,000	0,014	-0,046
-468,430	-101,527	-0,065	-0,011
-467,416	-200,000	-0,028	0,139
-466,401	739,193	-0,047	-0,091
-465,386	-124,073	0,076	-0,008
-464,372	25,251	-0,141	0,084
-463,357	213,043	-0,072	-0,083
-462,343	-200,000	-0,009	0,065
-461,328	194,766	-0,045	-0,049
-460,313	519,887	0,019	-0,033
-459,299	597,435	-0,029	0,052
-458,284	477,569	-0,130	0,212
-457,270	162,899	-0,062	0,063
-456,255	-99,035	0,115	-0,021
-455,241	84,934	-0,106	0,083
-454,226	-1,164	0,097	0,049
-453,211	-200,000	-0,026	-0,095
-452,197	-49,372	0,002	0,001
-451,182	262,299	-0,068	-0,085
-450,168	469,211	0,039	0,063
-449,153	746,744	0,025	0,050
-448,138	247,717	-0,073	0,089
-447,124	31,107	0,066	0,041
-446,109	-200,000	-0,001	0,036
-445,095	420,790	0,022	-0,034
-444,080	543,347	0,035	0,060
-443,065	-200,000	-0,030	0,101
-442,051	48,401	0,049	0,033
-441,036	-16,909	-0,056	-0,025
-440,022	-37,530	-0,060	0,023
-439,007	-29,111	0,118	0,048
-437,992	800,000	0,017	0,039
-436,978	297,210	0,072	0,095
-435,963	-12,801	0,066	-0,031
-434,949	117,165	-0,092	-0,081
-433,934	-32,712	-0,071	0,028
-432,919	6,782	-0,139	-0,074
-431,905	129,803	0,062	-0,057
-430,890	-200,000	0,017	-0,071
-429,876	-133,533	0,112	0,010
-428,861	800,000	0,023	0,073
-427,846	-200,000	-0,024	-0,098
-426,832	-200,000	-0,034	-0,181
-425,817	276,299	0,026	-0,033
-424,803	-76,408	0,071	-0,018
-423,788	-200,000	0,000	0,072
-422,773	-199,693	0,145	0,001
-421,759	800,000	0,043	0,110
-420,744	-197,510	-0,055	-0,000
-419,730	-200,000	-0,008	-0,189
-418,715	-200,000	-0,006	-0,094
-417,701	141,046	-0,073	0,070
-416,686	-200,000	0,034	0,112
-415,671	141,745	-0,097	0,092
-414,657	-179,910	0,009	-0,000
-413,642	114,474	0,087	-0,076
-412,628	-96,251	0,054	0,010
-411,613	-200,000	-0,011	-0,112
-410,598	-136,287	0,065	0,005
-409,584	-200,000	0,011	-0,060
-408,569	-110,537	0,078	0,011
-407,555	191,838	-0,137	0,148
-406,540	13,238	0,039	-0,021
-405,525	131,777	0,133	-0,123
-404,511	331,258	-0,084	-0,117
-403,496	-90,024	0,066	-0,014
-402,482	43,687	0,057	-0,037
-401,467	-200,000	0,026	-0,106
-400,452	417,996	0,023	0,036
-399,438	0,317	0,058	0,030
-398,423	455,330	-0,082	-0,131
-397,409	57,596	-0,045	-0,031
-396,394	216,235	0,048	-0,055
-395,379	222,467	-0,082	-0,095
-394,365	-8,091	0,120	0,058
-393,350	431,508	0,072	-0,112
-392,336	38,102	0,107	0,068
-391,321	800,000	-0,075	-0,224
-390,306	-105,211	-0,235	0,038
-389,292	800,000	0,037	-0,082
-388,277	2,425	-0,150	-0,078
-387,263	800,000	0,048	0,136
-386,248	-126,444	0,172	0,018
-385,233	-153,848	0,010	0,000
-384,219	9,057	-0,143	0,077
-383,204	800,000	0,050	-0,127
-382,190	-200,000	-0,007	0,057
-381,175	800,000	-0,069	-0,144
-380,160	87,841	0,040	-0,032
-379,146	-200,000	-0,014	0,074
-378,131	-196,802	-0,042	0,000
-377,117	146,169	-0,087	-0,084
-376,102	379,666	-0,034	-0,050
-375,088	405,136	-0,030	0,045
-374,073	473,024	0,033	-0,053
-373,058	-74,686	-0,165	0,042
-372,044	561,428	0,031	0,054
-371,029	445,425	0,066	0,105
-370,015	154,177	0,086	-0,084
-369,000	179,682	-0,037	0,039
-367,985	295,731	0,049	0,064
-366,971	-97,887	0,162	-0,030
-365,956	-200,000	-0,013	-0,166
-364,942	-200,000	-0,006	0,163
-363,927	280,677	-0,070	-0,089
-362,912	-42,401	-0,102	-0,037
-361,898	107,877	0,074	0,063
-360,883	800,000	-0,040	-0,086
-359,869	3,104	0,026	-0,013
-358,854	800,000	-0,018	0,043
-357,839	800,000	-0,032	0,064
-356,825	30,269	-0,060	0,037
-355,810	363,780	-0,002	-0,002
-354,796	126,157	-0,092	-0,084
-353,781	-200,000	0,007	0,067
-352,766	-200,000	0,004	0,064
-351,752	-200,000	-0,011	0,097
-350,737	35,044	0,095	-0,059
-349,723	-74,169	0,082	0,021
-348,708	21,391	0,071	-0,042
-347,693	123,005	-0,030	0,027
-346,679	-200,000	-0,022	-0,158
-345,664	311,644	-0,017	-0,022
-344,650	201,037	0,031	-0,034
-343,635	-200,000	-0,064	0,235
-342,620	165,311	-0,085	0,087
-341,606	487,685	0,065	-0,107
-340,591	295,414	0,020	-0,026
-339,577	-100,883	-0,190	0,033
-338,562	-34,796	-0,139	-0,054
-337,548	160,079	0,077	0,077
-336,533	545,905	0,061	0,105
-335,518	22,355	0,084	-0,049
-334,504	377,234	0,044	0,064
-333,489	130,483	0,020	0,019
-332,475	96,338	0,118	0,096
-331,460	44,708	-0,062	-0,041
-330,445	550,343	-0,030	-0,052
-329,431	159,779	0,060	-0,060
-328,416	-67,233	0,064	0,018
-327,402	800,000	0,018	-0,047
-326,387	57,693	0,108	0,075
-325,372	24,717	-0,088	0,052
-324,358	147,435	0,034	-0,032
-323,343	330,292	-0,072	0,099
-322,329	-44,044	-0,059	0,021
-321,314	-165,989	0,184	-0,006
-320,299	-200,000	-0,022	0,071
-319,285	-21,082	0,072	0,031
-318,270	-141,082	-0,089	0,006
-317,256	-10,617	0,082	0,039
-316,241	281,353	-0,099	-0,127
-315,226	-11,809	-0,077	-0,036
-314,212	270,930	0,075	0,095
-313,197	103,160	0,088	0,074
-312,183	-65,819	-0,104	-0,030
-311,168	-67,793	0,061	-0,017
-310,153	-200,000	0,015	-0,116
-309,139	16,675	0,042	0,024
-308,124	25,880	0,041	0,024
-307,110	800,000	0,050	-0,101
-306,095	-24,909	0,094	0,040
-305,080	711,197	0,033	-0,063
-304,066	-200,000	0,010	0,069
-303,051	49,467	-0,189	-0,127
-302,037	68,746	-0,091	0,067
-301,022	495,801	0,025	0,040
-300,008	-36,857	0,113	0,043
-298,993	800,000	0,034	0,084
-297,978	24,022	0,060	0,035
-296,964	-62,878	-0,105	0,031
-295,949	29,278	-0,057	0,035
-294,935	189,898	0,046	-0,050
-293,920	-25,382	0,046	-0,019
-292,905	-99,608	-0,110	0,020
-291,891	-200,000	-0,003	0,207
-290,876	-200,000	0,006	0,155
-289,862	449,726	-0,058	-0,092
-288,847	20,149	-0,086	-0,050
-287,832	86,573	0,007	0,006
-286,818	-35,518	-0,108	-0,042
-285,803	59,413	0,045	-0,032
-284,789	47,896	-0,086	-0,057
-283,774	-162,170	-0,054	0,002
-282,759	306,592	-0,045	-0,060
-281,745	-48,432	0,117	0,040
-280,730	61,446	-0,069	-0,049
-279,716	81,675	-0,118	0,091
-278,701	-69,275	-0,063	0,017
-277,686	800,000	-0,043	0,113
-276,672	398,988	0,091	0,137
-275,657	1,665	0,047	-0,024
-274,643	-200,000	0,018	0,128
-273,628	636,195	0,007	0,013
-272,613	800,000	-0,051	0,116
-271,599	87,035	0,051	0,040
-270,584	-150,942	0,145	-0,008
-269,570	-162,164	-0,186	0,007
-268,555	209,958	-0,078	-0,088
-267,540	197,362	0,047	-0,051
-266,526	486,994	-0,038	-0,063
-265,511	185,908	0,151	-0,161
-264,497	479,850	-0,047	0,077
-263,482	782,230	-0,082	0,162
-262,467	800,000	0,063	0,128
-261,453	800,000	-0,052	-0,128
-260,438	-35,622	-0,115	-0,044
-259,424	-28,146	0,070	-0,029
-258,409	260,986	-0,068	0,084
-257,395	204,302	0,046	-0,051
-256,380	800,000	-0,035	0,095
-255,365	-200,000	0,004	0,166
-254,351	560,411	0,030	0,052
-253,336	-123,182	0,045	0,005
-252,322	51,415	-0,032	-0,022
-251,307	0,641	-0,140	-0,071
-250,292	90,261	0,084	0,067
-249,278	-200,000	-0,013	0,132
-248,263	356,672	0,048	0,068
-247,249	522,063	0,085	-0,143
-246,234	67,408	-0,115	-0,084
-245,219	148,516	0,048	0,047
-244,205	-162,256	0,109	-0,004
-243,190	112,646	-0,044	0,038
-242,176	-174,584	0,055	-0,001
-241,161	-200,000	0,029	0,150
-240,146	189,989	0,026	0,028
-239,132	800,000	0,085	-0,172
-238,117	166,442	-0,016	0,016
-237,103	185,739	0,026	-0,028
-236,088	-27,428	0,087	0,036
-235,073	338,761	-0,029	-0,041
-234,059	-200,000	0,003	0,054
-233,044	-200,000	0,009	-0,031
-232,030	5,484	0,108	-0,056
-231,015	-136,683	-0,095	-0,008
-230,000	-1,892	-0,085	-0,043
-228,986	-166,459	0,131	0,004
-227,971	800,000	0,026	-0,060
-226,957	-168,237	-0,138	0,004
-225,942	-200,000	-0,007	0,042
-224,927	97,453	-0,046	-0,038
-223,913	-200,000	-0,002	0,020
-222,898	-179,300	0,067	0,001
-221,884	-20,897	-0,017	-0,007
-220,869	-58,929	-0,027	0,008
-219,855	-29,285	0,096	0,039
-218,840	67,051	0,056	-0,040
-217,825	-63,639	0,146	-0,043
-216,811	315,258	-0,054	-0,072
-215,796	410,677	-0,084	-0,128
-214,782	-200,000	0,004	-0,107
-213,767	-117,144	0,115	-0,015
-212,752	-200,000	-0,011	-0,109
-211,738	-107,359	0,138	0,021
-210,723	800,000	-0,081	0,200
-209,709	22,336	-0,082	0,048
-208,694	13,179	0,032	0,018
-207,679	-200,000	0,015	0,101
-206,665	-200,000	-0,011	0,112
-205,650	800,000	0,068	0,158
-204,636	800,000	0,029	-0,068
-203,621	405,095	0,058	-0,087
-202,606	503,737	0,040	0,066
-201,592	300,699	-0,028	-0,037
-200,577	375,132	-0,031	-0,045
-199,563	-92,147	0,107	-0,021
-198,548	131,409	0,116	-0,106
-197,533	232,215	-0,118	-0,138
-196,519	284,563	-0,047	-0,061
-195,504	-67,734	-0,038	-0,010
-194,490	800,000	-0,065	-0,165
-193,475	425,960	0,031	-0,048
-192,460	-52,754	-0,063	-0,020
-191,446	800,000	0,047	-0,103
-190,431	-10,307	0,132	0,062
-189,417	-42,392	-0,084	0,031
-188,402	-72,223	-0,052	-0,014
-187,387	-121,940	-0,108	-0,013
-186,373	-66,436	-0,082	0,023
-185,358	800,000	0,022	0,054
-184,344	-47,838	0,154	-0,053
-183,329	800,000	-0,011	0,032
-182,315	46,604	-0,075	0,050
-181,300	-200,000	0,006	0,099
-180,285	31,594	-0,055	-0,034
-179,271	46,055	-0,084	0,055
-178,256	-86,026	-0,134	0,029
-177,242	-115,599	-0,074	-0,010
-176,227	474,866	0,049	0,079
-175,212	800,000	0,034	-0,081
-174,198	345,700	-0,069	0,096
-173,183	-77,441	0,126	0,031
-172,169	-37,668	-0,050	-0,019
-171,154	-176,140	0,137	-0,003
-170,139	-45,508	0,081	0,029
-169,125	-200,000	0,007	0,212
-168,110	800,000	0,031	-0,071
-167,096	350,696	-0,036	0,051
-166,081	-45,992	0,128	-0,045
-165,066	33,376	-0,202	-0,125
-164,052	130,839	-0,040	-0,037
-163,037	398,569	0,025	0,038
-162,023	115,343	-0,047	0,041
-161,008	800,000	0,032	-0,067
-159,993	-140,844	0,140	-0,010
-158,979	198,549	-0,003	0,004
-157,964	-200,000	0,010	0,135
-156,950	-145,521	0,095	-0,006
-155,935	426,509	0,027	0,041
-154,920	419,542	-0,066	0,101
-153,906	-53,143	0,086	-0,028
-152,891	75,174	0,058	-0,043
-151,877	193,921	-0,064	-0,069
-150,862	-200,000	-0,013	-0,068
-149,847	163,341	-0,076	-0,076
-148,833	-144,776	0,080	0,005
-147,818	129,262	-0,032	-0,029
-146,804	800,000	0,032	0,078
-145,789	761,050	0,047	-0,092
-144,775	96,678	0,131	-0,107
-143,760	-71,381	0,037	0,010
-142,745	63,536	-0,039	-0,028
-141,731	82,855	0,006	0,004
-140,716	37,179	0,067	-0,042
-139,702	-147,671	-0,065	0,004
-138,687	800,000	0,033	-0,093
-137,672	-200,000	-0,066	-0,213
-136,658	105,943	-0,057	-0,048
-135,643	50,186	-0,128	0,086
-134,629	-200,000	-0,017	-0,086
-133,614	106,042	0,047	0,039
-132,599	178,887	0,078	-0,081
-131,585	-200,000	-0,023	-0,079
-130,570	-200,000	-0,015	0,090
-129,556	-19,904	-0,079	0,034
-128,541	-77,683	-0,041	0,010
-127,526	309,953	0,077	0,103
-126,512	-158,702	0,078	0,003
-125,497	-35,510	0,036	0,014
-124,483	-200,000	0,050	0,173
-123,468	-200,000	0,025	-0,095
-122,453	289,305	-0,133	-0,171
-121,439	107,517	-0,110	0,093
-120,424	26,274	0,034	-0,020
-119,410	104,397	-0,085	0,071
-118,395	-119,541	0,078	-0,010
