DTS Sentinel unit serial number:	SN410029Multiplexer serial number:	ORYXHardware model number:	OX2-SRSoftware version number:	ORYX F/W v4,00 Oryx Data Collector v3.7.2.0data status	okinstallation	BH3 CH2differential loss correction	single-endedforward channel	channel 2reverse channel	N/Adate	2023/12/05time	15:22:28forward acquisition time	300,00reverse acquisition time	0,00gamma	499,1914k internal	0,3193k external	0,3193temperature offset calibration	1,0000default loss term (dB/km)	0,3820temperature slope calibration	1,0000multiplexer offset coefficient	1,0000multiplexer slope coefficient	1,0000fibre end	0,00T internal ref (°C)	11,06T ext. ref 1 (°C)	-3,26T ext. ref 2 (°C)	-3,37length (m)	temperature (°C)	Stokes	anti-Stokes-744,400	-113,828	0,006	0,001
-743,385	-24,793	-0,147	0,063
-742,371	-107,301	-0,122	-0,019
-741,356	800,000	-0,092	0,204
-740,342	-200,000	-0,025	-0,086
-739,327	-54,074	-0,245	0,081
-738,312	800,000	-0,041	-0,122
-737,298	-116,530	-0,256	-0,034
-736,283	441,128	0,037	-0,060
-735,269	260,122	-0,088	0,111
-734,254	800,000	0,018	-0,040
-733,239	-141,233	-0,159	0,012
-732,225	800,000	0,072	-0,189
-731,210	-200,000	0,021	0,148
-730,196	800,000	0,030	-0,081
-729,181	-104,881	-0,139	-0,023
-728,167	-107,076	0,073	-0,012
-727,152	-88,692	0,074	0,016
-726,137	-85,719	-0,101	0,023
-725,123	480,541	-0,050	-0,083
-724,108	110,680	-0,090	-0,079
-723,094	800,000	-0,058	-0,152
-722,079	372,339	0,001	-0,001
-721,064	-5,101	0,087	0,043
-720,050	122,634	0,027	0,025
-719,035	800,000	-0,014	0,033
-718,021	-200,000	-0,033	-0,128
-717,006	800,000	0,022	-0,064
-715,991	-117,560	-0,162	0,021
-714,977	-200,000	-0,004	-0,069
-713,962	-77,999	-0,036	-0,009
-712,948	-59,519	-0,051	0,016
-711,933	-81,372	-0,137	-0,033
-710,918	126,930	0,118	-0,109
-709,904	444,109	-0,104	-0,166
-708,889	-200,000	-0,041	-0,152
-707,875	141,239	0,055	-0,053
-706,860	232,344	-0,019	-0,022
-705,845	-99,514	-0,026	-0,005
-704,831	-200,000	0,011	0,150
-703,816	361,882	-0,053	0,077
-702,802	-1,981	-0,150	-0,077
-701,787	520,387	0,057	-0,098
-700,772	-200,000	0,005	-0,194
-699,758	289,229	0,036	-0,048
-698,743	597,484	-0,030	-0,055
-697,729	325,195	-0,028	0,039
-696,714	-75,967	-0,004	-0,001
-695,699	16,024	0,129	-0,074
-694,685	800,000	-0,041	-0,097
-693,670	800,000	0,074	-0,173
-692,656	-200,000	-0,008	0,039
-691,641	166,283	-0,063	0,065
-690,627	472,862	0,039	0,064
-689,612	69,047	-0,070	0,052
-688,597	-33,659	-0,141	-0,056
-687,583	103,108	-0,092	-0,078
-686,568	-116,492	-0,123	0,016
-685,554	-60,806	0,105	0,032
-684,539	-19,728	0,093	0,042
-683,524	540,398	0,032	0,056
-682,510	-200,000	0,020	0,154
-681,495	616,585	0,046	0,084
-680,481	356,172	0,004	-0,007
-679,466	-200,000	0,006	0,106
-678,451	-77,866	-0,047	0,012
-677,437	-10,863	0,090	0,043
-676,422	-84,530	0,193	0,044
-675,408	-21,761	-0,074	0,033
-674,393	800,000	-0,016	-0,047
-673,378	-200,000	-0,001	-0,030
-672,364	292,491	0,049	-0,065
-671,349	-200,000	0,029	0,100
-670,335	-200,000	0,020	-0,095
-669,320	-6,003	0,062	-0,031
-668,305	391,159	-0,058	-0,088
-667,291	-200,000	0,038	-0,179
-666,276	117,554	-0,146	-0,131
-665,262	66,749	-0,110	-0,081
-664,247	341,266	0,033	0,047
-663,232	-44,021	-0,108	-0,039
-662,218	63,237	-0,044	-0,032
-661,203	-67,338	0,034	-0,010
-660,189	59,543	-0,118	-0,084
-659,174	186,315	0,057	-0,062
-658,159	34,035	-0,084	-0,053
-657,145	333,388	-0,036	-0,050
-656,130	-200,000	0,008	0,100
-655,116	-200,000	0,026	0,097
-654,101	-116,900	0,100	-0,013
-653,086	800,000	-0,007	-0,019
-652,072	-200,000	0,009	-0,064
-651,057	603,723	-0,050	-0,091
-650,043	-55,580	-0,079	0,026
-649,028	-200,000	0,022	-0,129
-648,014	-200,000	-0,008	-0,105
-646,999	-200,000	0,020	0,111
-645,984	800,000	-0,052	0,126
-644,970	-101,909	-0,091	-0,016
-643,955	742,431	0,055	-0,109
-642,941	-200,000	-0,007	-0,076
-641,926	8,498	0,144	0,078
-640,911	219,919	0,069	0,080
-639,897	59,981	-0,129	-0,092
-638,882	-164,095	-0,019	0,001
-637,868	528,968	0,004	-0,007
-636,853	7,411	-0,056	-0,030
-635,838	52,173	-0,091	-0,063
-634,824	-200,000	0,025	-0,094
-633,809	800,000	-0,021	-0,050
-632,795	285,993	0,030	0,039
-631,780	235,589	-0,051	0,061
-630,765	136,390	0,060	-0,057
-629,751	800,000	-0,041	-0,090
-628,736	272,148	-0,047	-0,060
-627,722	-13,449	-0,115	-0,054
-626,707	-14,424	0,089	-0,042
-625,692	176,104	0,035	0,037
-624,678	-200,000	-0,002	-0,040
-623,663	-82,104	-0,092	0,022
-622,649	-60,157	-0,087	-0,027
-621,634	-200,000	0,003	0,059
-620,619	-132,544	-0,183	-0,017
-619,605	800,000	0,052	-0,132
-618,590	293,240	-0,045	-0,059
-617,576	-124,847	0,036	0,004
-616,561	-113,231	-0,057	-0,008
-615,546	195,091	-0,090	-0,100
-614,532	647,673	0,065	-0,121
-613,517	-61,887	0,094	-0,028
-612,503	-108,044	-0,022	-0,003
-611,488	-72,077	0,125	0,034
-610,474	-80,617	0,038	0,009
-609,459	-200,000	0,001	0,012
-608,444	2,815	-0,061	-0,032
-607,430	-200,000	-0,006	-0,128
-606,415	94,640	-0,020	-0,016
-605,401	-200,000	-0,006	0,041
-604,386	-200,000	0,028	-0,094
-603,371	-200,000	-0,004	0,114
-602,357	800,000	-0,050	0,112
-601,342	40,465	-0,024	-0,016
-600,328	187,579	-0,093	-0,100
-599,313	-38,909	0,072	0,027
-598,298	800,000	-0,035	-0,095
-597,284	-200,000	0,011	-0,046
-596,269	144,166	0,105	-0,101
-595,255	800,000	0,016	-0,044
-594,240	260,620	-0,087	0,110
-593,225	-200,000	-0,021	0,121
-592,211	-168,493	-0,135	0,004
-591,196	-60,336	0,152	-0,046
-590,182	107,183	0,090	0,077
-589,167	-200,000	-0,012	0,159
-588,152	-110,442	0,109	-0,016
-587,138	-200,000	-0,018	-0,064
-586,123	-98,582	-0,171	-0,031
-585,109	1,094	-0,165	-0,086
-584,094	43,669	-0,047	0,031
-583,079	-162,374	0,142	0,005
-582,065	459,657	-0,039	-0,064
-581,050	-9,346	0,066	0,032
-580,036	800,000	-0,048	0,139
-579,021	52,260	-0,161	0,111
-578,006	800,000	-0,007	-0,020
-576,992	29,659	-0,112	0,069
-575,977	-123,179	0,102	0,012
-574,963	-33,623	-0,051	-0,020
-573,948	646,378	0,100	0,185
-572,934	-200,000	-0,018	-0,094
-571,919	-117,048	-0,132	-0,017
-570,904	44,449	0,010	-0,007
-569,890	-200,000	0,013	-0,097
-568,875	326,510	-0,008	-0,012
-567,861	44,465	0,124	0,082
-566,846	13,204	0,073	0,041
-565,831	800,000	0,027	0,070
-564,817	83,305	-0,124	0,097
-563,802	492,559	0,094	-0,156
-562,788	800,000	0,002	-0,005
-561,773	118,819	-0,019	0,017
-560,758	-200,000	0,027	0,087
-559,744	348,276	0,050	0,071
-558,729	-22,730	0,029	-0,013
-557,715	-200,000	-0,002	0,038
-556,700	131,030	-0,093	-0,086
-555,685	555,043	-0,065	-0,114
-554,671	192,883	-0,025	-0,028
-553,656	-5,224	0,147	-0,073
-552,642	800,000	-0,049	-0,120
-551,627	-200,000	-0,001	-0,050
-550,612	-95,764	-0,086	-0,016
-549,598	-130,731	-0,080	-0,008
-548,583	-51,655	0,067	-0,022
-547,569	537,733	-0,029	-0,050
-546,554	9,055	-0,038	0,021
-545,539	-200,000	-0,010	0,034
-544,525	-24,637	0,089	-0,038
-543,510	68,610	-0,082	-0,060
-542,496	-200,000	-0,008	-0,027
-541,481	155,906	-0,070	-0,070
-540,466	-60,266	0,131	0,040
-539,452	-200,000	-0,018	0,064
-538,437	-52,548	0,044	0,015
-537,423	-200,000	-0,005	0,020
-536,408	800,000	-0,087	0,202
-535,393	-200,000	0,007	0,061
-534,379	53,660	-0,163	-0,113
-533,364	83,814	-0,067	0,053
-532,350	2,648	0,008	-0,004
-531,335	150,176	0,116	0,113
-530,321	800,000	-0,012	-0,030
-529,306	-200,000	0,020	-0,137
-528,291	576,153	-0,017	0,030
-527,277	800,000	0,053	-0,148
-526,262	129,948	-0,072	0,067
-525,248	-186,676	0,066	-0,001
-524,233	25,175	0,116	-0,069
-523,218	-200,000	0,034	0,149
-522,204	41,118	-0,044	0,029
-521,189	117,119	-0,070	-0,062
-520,175	708,668	-0,080	0,154
-519,160	800,000	-0,008	-0,024
-518,145	-200,000	-0,026	-0,106
-517,131	-200,000	0,009	0,055
-516,116	58,425	0,075	-0,053
-515,102	121,158	0,047	0,042
-514,087	-40,698	-0,103	-0,038
-513,072	-129,953	-0,212	0,021
-512,058	756,171	0,036	-0,070
-511,043	-89,143	-0,139	0,029
-510,029	249,674	0,081	-0,100
-509,014	345,485	0,038	0,055
-507,999	-91,025	-0,094	0,019
-506,985	-200,000	-0,054	-0,178
-505,970	-72,134	-0,095	-0,025
-504,956	180,406	0,070	-0,075
-503,941	304,858	0,041	-0,056
-502,926	-200,000	-0,039	-0,161
-501,912	-77,474	0,116	-0,029
-500,897	90,877	-0,045	-0,036
-499,883	800,000	-0,017	-0,040
-498,868	-53,071	-0,116	0,038
-497,853	800,000	0,036	-0,077
-496,839	-200,000	-0,013	0,052
-495,824	447,982	0,046	-0,074
-494,810	618,674	-0,093	0,170
-493,795	392,949	-0,080	0,121
-492,781	-42,433	0,116	-0,042
-491,766	-200,000	-0,003	0,050
-490,751	-170,238	-0,034	0,001
-489,737	-130,496	-0,070	-0,007
-488,722	743,991	0,026	0,051
-487,708	-169,656	0,099	-0,003
-486,693	800,000	0,060	0,135
-485,678	-200,000	0,005	0,124
-484,664	800,000	-0,058	0,178
-483,649	-200,000	-0,049	0,166
-482,635	31,196	-0,124	0,076
-481,620	29,296	-0,081	0,049
-480,605	45,849	0,104	0,069
-479,591	378,363	0,014	0,021
-478,576	-114,966	0,173	0,024
-477,562	-182,272	-0,070	0,001
-476,547	578,482	0,076	-0,135
-475,532	72,391	-0,019	0,014
-474,518	-159,245	0,030	-0,001
-473,503	800,000	0,024	0,051
-472,489	154,325	-0,113	0,112
-471,474	-69,578	0,173	-0,047
-470,459	-200,000	0,008	0,072
-469,445	7,377	-0,205	-0,110
-468,430	186,261	0,037	0,040
-467,416	-200,000	0,009	0,163
-466,401	-85,735	0,007	-0,002
-465,386	425,916	0,049	0,077
-464,372	-200,000	-0,018	0,129
-463,357	383,923	-0,010	-0,015
-462,343	102,866	0,032	0,027
-461,328	295,580	0,081	-0,108
-460,313	724,778	0,098	0,189
-459,299	-200,000	-0,013	0,101
-458,284	-200,000	0,022	-0,073
-457,270	179,475	-0,039	-0,041
-456,255	-9,534	-0,054	0,026
-455,241	455,364	0,022	-0,036
-454,226	800,000	-0,006	0,018
-453,211	-58,379	-0,064	-0,020
-452,197	-176,428	0,083	-0,002
-451,182	402,142	0,022	0,033
-450,168	-200,000	0,014	-0,126
-449,153	-200,000	-0,007	-0,131
-448,138	493,605	0,020	-0,033
-447,124	62,097	0,067	-0,048
-446,109	-68,820	-0,043	0,012
-445,095	179,577	-0,071	0,075
-444,080	-81,559	0,117	0,027
-443,065	-200,000	0,011	0,042
-442,051	-200,000	0,001	-0,057
-441,036	-200,000	-0,001	-0,050
-440,022	589,734	0,023	-0,042
-439,007	800,000	-0,013	-0,031
-437,992	150,166	0,091	-0,089
-436,978	-150,906	-0,023	-0,001
-435,963	-200,000	-0,016	0,077
-434,949	-200,000	0,012	0,112
-433,934	154,001	-0,032	-0,032
-432,919	-200,000	0,019	-0,220
-431,905	252,486	-0,029	-0,036
-430,890	212,182	0,138	0,157
-429,876	-31,032	-0,157	-0,064
-428,861	-200,000	0,019	-0,095
-427,846	32,944	-0,170	-0,106
-426,832	73,021	0,058	0,044
-425,817	-200,000	0,007	-0,160
-424,803	-57,232	0,132	0,042
-423,788	-200,000	-0,032	0,137
-422,773	117,316	0,057	0,050
-421,759	-111,496	0,120	-0,017
-420,744	719,029	0,051	-0,098
-419,730	714,394	0,037	0,070
-418,715	800,000	0,046	-0,092
-417,701	646,295	-0,009	0,016
-416,686	-200,000	0,010	-0,074
-415,671	41,096	-0,050	0,032
-414,657	-200,000	-0,013	0,053
-413,642	-17,169	0,032	0,015
-412,628	189,331	0,036	0,039
-411,613	-200,000	-0,003	-0,083
-410,598	800,000	0,034	-0,089
-409,584	-121,901	0,065	0,008
-408,569	160,774	0,055	-0,056
-407,555	14,102	0,164	0,091
-406,540	201,576	0,017	0,019
-405,525	-200,000	-0,007	-0,159
-404,511	-32,523	-0,111	-0,044
-403,496	800,000	-0,045	0,117
-402,482	800,000	0,041	0,107
-401,467	-45,986	0,060	0,021
-400,452	800,000	-0,060	0,134
-399,438	-200,000	0,023	0,112
-398,423	51,919	-0,067	0,046
-397,409	142,155	-0,030	0,029
-396,394	800,000	0,042	0,088
-395,379	126,401	0,057	-0,052
-394,365	216,976	-0,022	0,025
-393,350	-104,029	0,142	0,024
-392,336	67,248	-0,107	0,079
-391,321	-54,189	-0,014	-0,005
-390,306	-200,000	0,008	-0,074
-389,292	161,790	0,066	-0,067
-388,277	800,000	-0,013	-0,035
-387,263	162,074	0,048	-0,048
-386,248	339,512	0,014	0,020
-385,233	-74,266	0,045	0,012
-384,219	255,153	-0,067	0,082
-383,204	213,219	-0,050	0,057
-382,190	-16,305	0,075	-0,034
-381,175	-56,162	0,060	0,019
-380,160	326,703	0,040	0,055
-379,146	-63,815	0,052	0,015
-378,131	800,000	0,030	0,069
-377,117	487,170	0,078	0,129
-376,102	800,000	-0,044	0,088
-375,088	-44,544	0,180	0,064
-374,073	800,000	0,044	-0,116
-373,058	-200,000	-0,002	-0,129
-372,044	-68,742	0,046	0,013
-371,029	-22,859	-0,145	0,062
-370,015	617,226	0,052	0,094
-369,000	17,837	0,079	-0,045
-367,985	-200,000	0,048	0,163
-366,971	553,634	0,047	0,082
-365,956	-72,692	0,084	0,022
-364,942	178,669	0,150	0,158
-363,927	-13,676	-0,171	0,079
-362,912	-200,000	0,007	-0,040
-361,898	120,154	-0,085	-0,076
-360,883	-79,459	-0,084	-0,020
-359,869	800,000	-0,017	0,037
-358,854	171,616	0,036	-0,037
-357,839	133,819	0,076	-0,070
-356,825	115,039	0,082	0,072
-355,810	226,859	0,055	0,064
-354,796	800,000	-0,013	-0,036
-353,781	-200,000	0,021	0,097
-352,766	-133,088	-0,022	0,002
-351,752	261,913	0,107	0,133
-350,737	80,118	0,109	-0,084
-349,723	800,000	0,061	-0,123
-348,708	-200,000	0,026	-0,088
-347,693	-200,000	-0,020	-0,132
-346,679	132,153	-0,084	-0,078
-345,664	40,794	0,078	0,050
-344,650	133,485	-0,043	-0,040
-343,635	-200,000	0,006	0,148
-342,620	-94,719	0,037	0,007
-341,606	-111,895	-0,162	-0,023
-340,591	-200,000	-0,000	-0,004
-339,577	-200,000	0,003	-0,144
-338,562	-77,088	-0,054	-0,013
-337,548	319,855	-0,091	-0,125
-336,533	800,000	0,053	0,114
-335,518	800,000	0,071	0,200
-334,504	521,099	0,062	0,104
-333,489	551,656	0,080	-0,138
-332,475	-200,000	-0,026	-0,142
-331,460	800,000	-0,039	-0,086
-330,445	-200,000	0,002	-0,093
-329,431	409,596	0,068	-0,104
-328,416	-0,624	0,058	-0,029
-327,402	788,519	0,025	-0,049
-326,387	41,725	-0,124	0,080
-325,372	-122,437	-0,044	-0,005
-324,358	107,526	-0,100	-0,085
-323,343	-200,000	0,025	-0,133
-322,329	-6,921	-0,189	-0,092
-321,314	-104,361	0,086	-0,014
-320,299	-5,881	0,102	0,050
-319,285	96,666	-0,011	-0,009
-318,270	403,950	0,032	-0,049
-317,256	-200,000	-0,002	-0,136
-316,241	800,000	-0,062	-0,123
-315,226	91,872	0,060	0,048
-314,212	488,798	-0,033	0,055
-313,197	301,679	-0,012	-0,016
-312,183	-200,000	0,006	0,020
-311,168	-57,464	0,054	-0,017
-310,153	800,000	-0,025	-0,061
-309,139	-200,000	-0,028	-0,128
-308,124	-200,000	0,020	0,113
-307,110	32,823	-0,005	-0,003
-306,095	590,887	-0,046	0,081
-305,080	-200,000	0,012	0,146
-304,066	800,000	0,016	0,044
-303,051	800,000	-0,017	-0,043
-302,037	-102,350	-0,168	-0,029
-301,022	-64,301	0,093	0,027
-300,008	-200,000	-0,004	0,031
-298,993	-200,000	-0,001	0,100
-297,978	109,918	0,086	0,074
-296,964	-200,000	-0,007	0,047
-295,949	137,599	-0,053	-0,050
-294,935	-200,000	-0,002	-0,058
-293,920	-56,257	0,061	-0,019
-292,905	251,325	-0,017	-0,021
-291,891	167,695	0,154	0,157
-290,876	132,686	0,070	-0,065
-289,862	-13,799	-0,030	0,014
-288,847	602,956	-0,079	-0,142
-287,832	-200,000	0,000	-0,085
-286,818	519,682	-0,020	-0,034
-285,803	-100,708	0,055	0,010
-284,789	-93,062	0,109	0,022
-283,774	-35,519	-0,056	-0,021
-282,759	-200,000	-0,014	-0,104
-281,745	-7,063	0,046	-0,022
-280,730	37,392	-0,056	0,035
-279,716	-200,000	-0,066	0,000
-278,701	-200,000	-0,003	0,082
-277,686	-200,000	-0,021	-0,069
-276,672	-200,000	0,011	0,067
-275,657	356,641	-0,080	-0,114
-274,643	-16,619	0,085	-0,038
-273,628	180,886	-0,091	-0,096
-272,613	-144,888	0,078	-0,005
-271,599	137,598	0,047	0,044
-270,584	800,000	-0,033	0,070
-269,570	-200,000	0,014	0,059
-268,555	38,162	-0,036	-0,023
-267,540	16,347	-0,106	-0,060
-266,526	800,000	-0,025	0,059
-265,511	357,861	0,016	0,023
-264,497	417,452	0,095	-0,146
-263,482	-141,933	-0,100	0,007
-262,467	800,000	0,016	0,045
-261,453	106,998	0,036	0,030
-260,438	198,012	-0,139	0,152
-259,424	54,693	-0,061	0,042
-258,409	126,172	-0,026	0,023
-257,395	-200,000	0,026	0,125
-256,380	-74,988	0,138	0,035
-255,365	312,897	0,117	0,158
-254,351	362,471	-0,020	-0,028
-253,336	16,163	-0,104	0,059
-252,322	357,206	0,063	0,090
-251,307	-106,895	-0,090	-0,014
-250,292	302,924	0,049	-0,066
-249,278	800,000	-0,037	-0,110
-248,263	429,990	0,055	-0,085
-247,249	587,402	0,036	0,064
-246,234	800,000	0,002	-0,006
-245,219	-200,000	-0,008	-0,143
-244,205	269,814	0,050	0,063
-243,190	-200,000	0,025	-0,086
-242,176	-200,000	0,002	-0,030
-241,161	111,346	-0,035	-0,030
-240,146	-46,162	0,034	-0,012
-239,132	-200,000	0,025	0,107
-238,117	-41,692	-0,068	-0,025
-237,103	800,000	-0,097	-0,257
-236,088	-200,000	-0,018	-0,099
-235,073	-163,738	0,026	0,001
-234,059	-166,171	-0,035	-0,001
-233,044	11,215	0,071	-0,039
-232,030	141,981	-0,058	-0,055
-231,015	-34,948	-0,160	0,062
-230,000	800,000	0,042	-0,115
-228,986	-200,000	-0,004	-0,096
-227,971	-183,560	0,139	0,002
-226,957	158,218	0,072	0,071
-225,942	800,000	-0,057	0,123
-224,927	800,000	-0,024	0,076
-223,913	-200,000	-0,012	-0,142
-222,898	-200,000	0,000	-0,014
-221,884	-124,449	-0,044	-0,005
-220,869	8,920	0,136	0,073
-219,855	443,832	-0,030	-0,047
-218,840	550,366	0,064	-0,110
-217,825	-138,820	-0,013	0,001
-216,811	381,480	-0,091	0,134
-215,796	-124,338	-0,100	0,011
-214,782	-200,000	-0,032	-0,160
-213,767	-200,000	-0,005	0,053
-212,752	-18,528	-0,053	-0,024
-211,738	274,897	0,061	-0,078
-210,723	23,896	0,080	-0,047
-209,709	-200,000	-0,022	0,168
-208,694	-200,000	-0,060	-0,194
-207,679	-97,603	-0,100	-0,018
-206,665	-107,231	0,044	-0,007
-205,650	674,833	0,046	0,086
-204,636	-68,610	0,089	0,025
-203,621	-200,000	-0,013	-0,118
-202,606	-118,184	-0,191	0,024
-201,592	-39,790	-0,072	-0,027
-200,577	-200,000	-0,008	-0,108
-199,563	16,771	0,102	-0,057
-198,548	800,000	-0,042	0,108
-197,533	-200,000	-0,016	0,059
-196,519	590,974	-0,042	0,075
-195,504	800,000	-0,035	0,090
-194,490	9,407	0,022	-0,012
-193,475	800,000	-0,022	0,057
-192,460	800,000	0,042	-0,089
-191,446	85,130	-0,110	-0,086
-190,431	-102,239	0,081	-0,014
-189,417	28,547	0,115	-0,069
-188,402	-79,363	-0,101	0,024
-187,387	-143,209	0,057	0,004
-186,373	-35,105	0,133	0,052
-185,358	-96,164	-0,130	-0,024
-184,344	-31,548	-0,112	0,045
-183,329	-200,000	0,006	0,020
-182,315	320,480	0,177	0,241
-181,300	39,958	-0,122	0,078
-180,285	-158,512	-0,192	-0,008
-179,271	-50,779	0,131	-0,044
-178,256	-200,000	-0,022	0,165
-177,242	278,054	0,090	0,115
-176,227	10,012	0,091	0,049
-175,212	800,000	-0,064	0,130
-174,198	80,738	0,081	0,062
-173,183	288,768	-0,067	-0,087
-172,169	-200,000	0,024	0,101
-171,154	-113,948	-0,171	-0,023
-170,139	3,240	0,108	0,056
-169,125	-200,000	-0,044	0,201
-168,110	342,950	-0,034	0,048
-167,096	137,086	-0,081	0,075
-166,081	9,342	0,090	-0,048
-165,066	-66,656	0,076	-0,021
-164,052	-200,000	0,015	-0,139
-163,037	800,000	-0,027	0,077
-162,023	-42,047	0,073	0,027
-161,008	800,000	-0,055	0,126
-159,993	-101,652	0,035	-0,006
-158,979	734,712	0,055	-0,105
-157,964	-191,933	-0,095	0,001
-156,950	256,924	-0,134	-0,165
-155,935	344,262	-0,010	0,014
-154,920	334,527	0,037	0,051
-153,906	108,088	-0,058	-0,050
-152,891	83,422	0,136	0,106
-151,877	360,048	-0,046	0,066
-150,862	-56,669	-0,074	0,023
-149,847	-200,000	-0,004	0,074
-148,833	800,000	-0,027	0,056
-147,818	151,670	0,099	0,096
-146,804	-128,957	0,056	0,006
-145,789	106,851	-0,079	0,067
-144,775	-119,628	0,066	0,008
-143,760	-200,000	-0,004	-0,109
-142,745	301,963	-0,034	-0,045
-141,731	79,568	0,105	-0,080
-140,716	8,628	0,061	0,033
-139,702	800,000	-0,005	-0,012
-138,687	-36,385	-0,089	0,034
-137,672	800,000	0,025	-0,077
-136,658	126,759	0,090	-0,081
-135,643	-200,000	0,025	-0,081
-134,629	-97,163	0,102	0,019
-133,614	450,537	-0,055	-0,087
-132,599	-163,578	0,178	-0,006
-131,585	216,286	0,023	0,026
-130,570	74,161	-0,103	-0,077
-129,556	296,818	0,028	0,037
-128,541	124,262	0,054	0,048
-127,526	-200,000	-0,026	-0,119
-126,512	211,241	-0,098	-0,110
-125,497	-200,000	-0,010	0,113
-124,483	479,880	0,060	-0,097
-123,468	61,784	-0,072	0,051
-122,453	-85,404	-0,079	0,017
-121,439	760,281	0,061	-0,118
-120,424	800,000	-0,020	-0,045
