DTS Sentinel unit serial number:	SN410029Multiplexer serial number:	ORYXHardware model number:	OX2-SRSoftware version number:	ORYX F/W v4,00 Oryx Data Collector v3.7.2.0data status	okinstallation	BH3 CH2differential loss correction	single-endedforward channel	channel 2reverse channel	N/Adate	2023/12/06time	05:52:28forward acquisition time	300,00reverse acquisition time	0,00gamma	499,1914k internal	0,3197k external	0,3197temperature offset calibration	1,0000default loss term (dB/km)	0,3820temperature slope calibration	1,0000multiplexer offset coefficient	1,0000multiplexer slope coefficient	1,0000fibre end	0,00T internal ref (°C)	8,92T ext. ref 1 (°C)	-5,68T ext. ref 2 (°C)	-5,79length (m)	temperature (°C)	Stokes	anti-Stokes-744,400	-149,758	-0,130	0,007
-743,385	466,379	-0,056	0,091
-742,371	-200,000	-0,027	-0,097
-741,356	-31,116	-0,137	0,056
-740,342	-200,000	-0,014	-0,177
-739,327	-6,014	-0,205	0,102
-738,312	205,345	-0,045	-0,051
-737,298	-86,421	-0,272	-0,060
-736,283	8,891	0,036	-0,020
-735,269	-3,805	-0,164	0,083
-734,254	45,338	-0,108	-0,073
-733,239	-47,330	-0,334	-0,118
-732,225	-103,980	0,102	-0,017
-731,210	-94,502	0,122	-0,024
-730,196	-25,253	-0,079	0,034
-729,181	-71,645	-0,046	-0,012
-728,167	163,564	0,042	-0,043
-727,152	-200,000	0,035	0,171
-726,137	67,313	-0,019	0,014
-725,123	-186,014	0,028	0,000
-724,108	-200,000	-0,020	-0,113
-723,094	142,897	-0,053	-0,052
-722,079	5,206	0,015	0,008
-721,064	-73,504	-0,067	-0,018
-720,050	233,123	-0,068	0,081
-719,035	-0,744	0,095	0,049
-718,021	749,164	-0,027	-0,053
-717,006	800,000	-0,025	0,071
-715,991	-185,950	-0,147	-0,002
-714,977	-200,000	-0,007	0,036
-713,962	210,781	-0,055	0,063
-712,948	-67,389	-0,053	-0,015
-711,933	263,717	-0,021	0,027
-710,918	-200,000	0,014	0,052
-709,904	104,494	-0,139	-0,119
-708,889	-200,000	0,022	-0,087
-707,875	639,490	-0,011	0,020
-706,860	-143,888	0,044	-0,003
-705,845	-200,000	-0,010	0,039
-704,831	-130,326	0,210	-0,020
-703,816	259,528	-0,041	0,051
-702,802	-200,000	-0,003	-0,099
-701,787	80,483	0,052	-0,041
-700,772	287,475	-0,046	-0,060
-699,758	-200,000	-0,003	0,147
-698,743	144,975	-0,010	0,009
-697,729	800,000	-0,010	-0,024
-696,714	-200,000	-0,052	0,190
-695,699	-49,789	0,084	0,029
-694,685	-71,468	0,182	-0,049
-693,670	800,000	-0,023	-0,053
-692,656	800,000	0,085	-0,182
-691,641	-20,608	-0,058	0,026
-690,627	580,904	0,046	0,083
-689,612	111,094	-0,070	0,061
-688,597	165,061	0,038	-0,039
-687,583	800,000	-0,040	-0,104
-686,568	637,840	0,010	0,019
-685,554	-32,515	-0,093	-0,038
-684,539	-200,000	-0,010	0,043
-683,524	-200,000	0,008	0,129
-682,510	-200,000	0,020	0,063
-681,495	-86,834	0,113	0,025
-680,481	-200,000	0,008	0,070
-679,466	-200,000	-0,006	-0,020
-678,451	-200,000	0,016	-0,097
-677,437	-88,452	0,046	-0,010
-676,422	49,623	0,116	0,079
-675,408	-200,000	-0,017	-0,068
-674,393	-147,481	0,035	0,002
-673,378	800,000	-0,089	-0,207
-672,364	-200,000	-0,065	-0,236
-671,349	-122,487	0,077	0,009
-670,335	-92,228	-0,066	0,013
-669,320	-200,000	-0,040	-0,191
-668,305	-200,000	-0,027	0,185
-667,291	62,097	0,103	-0,074
-666,276	-200,000	-0,025	-0,155
-665,262	-79,538	-0,042	0,010
-664,247	387,437	-0,156	-0,235
-663,232	-200,000	-0,018	0,091
-662,218	-200,000	-0,017	-0,137
-661,203	-160,112	0,155	0,006
-660,189	-166,262	-0,035	0,001
-659,174	12,825	-0,224	0,125
-658,159	-144,190	-0,053	0,004
-657,145	-91,307	-0,064	-0,013
-656,130	-200,000	0,022	-0,084
-655,116	-136,027	-0,148	-0,012
-654,101	89,977	0,052	-0,042
-653,086	-46,761	-0,097	0,034
-652,072	126,809	0,154	-0,142
-651,057	-200,000	0,016	-0,054
-650,043	267,130	-0,023	-0,029
-649,028	-61,323	-0,130	0,040
-648,014	-28,445	0,091	0,038
-646,999	-95,560	0,033	-0,006
-645,984	368,811	-0,027	-0,039
-644,970	232,481	-0,075	-0,090
-643,955	216,632	-0,071	-0,082
-642,941	-24,443	-0,063	-0,027
-641,926	-200,000	-0,011	-0,042
-640,911	800,000	0,043	0,104
-639,897	54,923	-0,112	-0,078
-638,882	-14,902	0,028	-0,013
-637,868	-200,000	0,011	-0,086
-636,853	-200,000	0,020	-0,096
-635,838	-32,240	-0,150	-0,060
-634,824	800,000	0,028	0,058
-633,809	-200,000	0,009	0,041
-632,795	27,941	-0,058	0,035
-631,780	-200,000	0,001	0,120
-630,765	-71,369	-0,127	0,034
-629,751	16,371	-0,069	-0,039
-628,736	-57,834	-0,118	0,037
-627,722	800,000	-0,036	0,108
-626,707	240,521	0,041	0,050
-625,692	327,118	0,043	0,059
-624,678	-40,019	-0,045	-0,017
-623,663	505,675	-0,084	-0,142
-622,649	58,165	-0,041	0,029
-621,634	800,000	0,037	-0,102
-620,619	52,282	-0,083	-0,057
-619,605	-56,482	0,047	-0,015
-618,590	152,950	-0,058	0,058
-617,576	-80,266	0,110	-0,026
-616,561	-200,000	-0,028	0,126
-615,546	-200,000	0,019	0,080
-614,532	800,000	0,019	-0,040
-613,517	-27,950	0,062	-0,026
-612,503	-200,000	0,008	0,039
-611,488	800,000	-0,051	-0,162
-610,474	-200,000	0,057	0,222
-609,459	-200,000	-0,006	0,048
-608,444	108,140	-0,143	-0,124
-607,430	-24,342	0,135	-0,058
-606,415	551,251	-0,088	-0,153
-605,401	39,474	-0,061	0,040
-604,386	-106,283	0,066	0,011
-603,371	-121,960	-0,084	-0,010
-602,357	-200,000	-0,018	0,080
-601,342	13,963	0,028	-0,016
-600,328	-95,821	-0,058	0,011
-599,313	238,759	-0,061	-0,073
-598,298	51,769	-0,118	-0,081
-597,284	66,385	0,055	0,040
-596,269	-146,338	0,066	-0,004
-595,255	167,185	0,134	0,138
-594,240	-200,000	0,005	-0,036
-593,225	-200,000	-0,009	-0,086
-592,211	167,092	0,112	-0,115
-591,196	3,964	0,021	0,011
-590,182	-200,000	0,012	-0,053
-589,167	-200,000	0,002	0,044
-588,152	109,208	0,150	0,130
-587,138	328,630	0,042	-0,059
-586,123	-200,000	0,007	-0,121
-585,109	368,025	-0,090	-0,132
-584,094	37,055	0,062	-0,040
-583,079	-171,996	-0,041	0,001
-582,065	148,974	-0,031	-0,030
-581,050	-64,103	0,122	0,036
-580,036	540,577	0,052	-0,091
-579,021	800,000	-0,048	-0,114
-578,006	-200,000	-0,028	-0,206
-576,992	62,950	-0,082	-0,059
-575,977	800,000	0,035	-0,079
-574,963	-40,778	0,069	0,026
-573,948	113,004	-0,065	0,057
-572,934	-113,970	-0,164	-0,023
-571,919	-200,000	-0,020	-0,130
-570,904	-200,000	-0,031	-0,203
-569,890	150,900	-0,054	-0,053
-568,875	133,526	0,067	-0,062
-567,861	800,000	0,032	-0,074
-566,846	-46,465	0,083	0,029
-565,831	-200,000	-0,007	-0,132
-564,817	182,447	-0,069	-0,074
-563,802	800,000	-0,079	-0,171
-562,788	-121,154	-0,010	-0,001
-561,773	128,826	0,092	-0,085
-560,758	-127,174	-0,117	0,012
-559,744	39,076	0,061	0,039
-558,729	800,000	0,042	0,125
-557,715	800,000	0,017	0,039
-556,700	550,466	-0,046	-0,080
-555,685	66,556	-0,068	-0,050
-554,671	800,000	-0,018	-0,045
-553,656	-200,000	-0,018	0,144
-552,642	-3,516	0,031	0,016
-551,627	109,418	-0,093	-0,081
-550,612	-200,000	0,013	0,045
-549,598	311,584	-0,079	-0,107
-548,583	-160,191	0,092	0,004
-547,569	-59,698	-0,085	-0,026
-546,554	291,581	0,029	0,038
-545,539	84,740	-0,049	-0,038
-544,525	98,424	0,146	0,122
-543,510	800,000	-0,032	-0,098
-542,496	-20,258	-0,122	-0,054
-541,481	-200,000	0,021	-0,087
-540,466	263,279	-0,014	0,018
-539,452	224,282	0,055	0,064
-538,437	-142,312	0,156	0,011
-537,423	79,951	-0,109	-0,085
-536,408	-129,537	0,122	-0,012
-535,393	16,744	-0,116	0,066
-534,379	-6,629	-0,069	0,034
-533,364	609,752	-0,033	-0,061
-532,350	80,674	0,070	-0,055
-531,335	95,684	-0,078	0,064
-530,321	-118,482	0,084	0,011
-529,306	631,634	0,027	-0,049
-528,291	-200,000	-0,017	0,060
-527,277	2,899	0,028	0,015
-526,262	-105,517	0,084	0,014
-525,248	-71,835	0,062	-0,017
-524,233	800,000	0,024	-0,051
-523,218	5,657	0,124	0,066
-522,204	278,630	0,028	0,036
-521,189	-122,724	0,078	-0,009
-520,175	800,000	-0,041	-0,129
-519,160	-108,201	0,090	0,014
-518,145	78,782	-0,102	-0,079
-517,131	15,021	0,070	0,039
-516,116	108,890	-0,181	-0,156
-515,102	800,000	0,029	0,065
-514,087	-52,537	-0,175	-0,058
-513,072	100,971	-0,064	-0,053
-512,058	800,000	-0,021	-0,044
-511,043	800,000	0,005	-0,013
-510,029	-61,227	-0,044	0,013
-509,014	95,860	0,036	0,030
-507,999	-200,000	0,035	-0,118
-506,985	800,000	-0,026	-0,062
-505,970	505,545	0,045	0,075
-504,956	-200,000	0,018	-0,155
-503,941	354,760	0,064	0,092
-502,926	538,751	0,038	0,066
-501,912	-200,000	0,001	0,041
-500,897	133,858	-0,058	0,055
-499,883	665,147	0,062	-0,116
-498,868	717,109	-0,074	-0,142
-497,853	-102,996	-0,179	0,030
-496,839	25,780	-0,053	0,032
-495,824	-200,000	0,015	0,150
-494,810	800,000	0,032	0,101
-493,795	429,832	0,010	0,016
-492,781	-200,000	0,030	0,148
-491,766	-19,518	-0,152	-0,068
-490,751	-200,000	0,000	-0,010
-489,737	96,847	-0,138	-0,114
-488,722	99,954	0,079	0,066
-487,708	2,260	0,040	0,021
-486,693	-171,834	-0,076	-0,002
-485,678	-131,519	-0,095	-0,009
-484,664	244,768	-0,098	-0,119
-483,649	16,868	-0,088	0,050
-482,635	-164,009	-0,052	0,002
-481,620	-200,000	0,027	0,136
-480,605	-200,000	0,007	-0,072
-479,591	148,962	-0,008	-0,008
-478,576	-200,000	-0,009	-0,040
-477,562	-133,753	-0,090	0,008
-476,547	-72,101	-0,077	-0,021
-475,532	-200,000	0,024	-0,112
-474,518	800,000	0,020	-0,053
-473,503	-200,000	0,005	0,144
-472,489	33,985	0,028	-0,018
-471,474	-81,459	0,104	-0,025
-470,459	-163,887	-0,047	-0,002
-469,445	85,567	0,118	-0,093
-468,430	-200,000	0,016	0,051
-467,416	131,951	0,124	0,115
-466,401	83,632	0,047	0,037
-465,386	58,927	0,054	0,038
-464,372	-15,826	0,025	-0,012
-463,357	-161,619	0,093	-0,003
-462,343	-200,000	0,001	0,010
-461,328	-200,000	-0,003	-0,160
-460,313	-200,000	0,016	0,072
-459,299	155,803	0,126	0,125
-458,284	-200,000	0,012	-0,165
-457,270	-44,382	0,074	-0,026
-456,255	48,538	0,028	-0,019
-455,241	572,181	0,105	-0,184
-454,226	111,028	0,048	0,042
-453,211	411,508	-0,021	-0,032
-452,197	178,084	-0,070	0,074
-451,182	-25,796	0,110	-0,047
-450,168	189,833	-0,059	0,064
-449,153	768,252	0,044	0,086
-448,138	-91,513	-0,093	-0,019
-447,124	10,236	-0,020	0,011
-446,109	485,449	-0,021	0,035
-445,095	92,646	-0,089	0,072
-444,080	290,575	0,088	0,115
-443,065	339,591	-0,060	0,084
-442,051	-159,120	0,096	-0,004
-441,036	604,134	0,069	-0,124
-440,022	61,665	-0,009	0,007
-439,007	145,703	0,036	-0,034
-437,992	29,264	0,116	0,071
-436,978	45,188	0,116	0,077
-435,963	-200,000	0,062	0,213
-434,949	-163,267	-0,121	0,004
-433,934	258,035	0,088	0,109
-432,919	146,980	-0,020	-0,019
-431,905	-86,161	-0,023	0,005
-430,890	80,702	-0,044	0,034
-429,876	185,010	-0,037	0,040
-428,861	47,291	-0,081	0,054
-427,846	-200,000	0,029	-0,134
-426,832	-180,993	-0,075	0,001
-425,817	110,737	-0,022	0,019
-424,803	800,000	0,029	0,079
-423,788	-200,000	0,009	0,108
-422,773	379,620	0,047	0,069
-421,759	290,977	-0,093	0,122
-420,744	-38,284	-0,056	-0,021
-419,730	800,000	0,041	-0,094
-418,715	73,297	0,082	-0,062
-417,701	-121,672	-0,122	-0,014
-416,686	-200,000	0,006	0,066
-415,671	-200,000	-0,043	0,178
-414,657	-200,000	0,011	-0,051
-413,642	-200,000	0,021	-0,094
-412,628	800,000	-0,026	-0,057
-411,613	466,772	0,040	0,065
-410,598	-135,588	0,131	-0,011
-409,584	-200,000	0,005	-0,078
-408,569	-32,315	-0,099	-0,040
-407,555	84,659	0,167	0,131
-406,540	-102,028	-0,129	-0,022
-405,525	-56,878	-0,071	0,022
-404,511	744,228	-0,060	-0,117
-403,496	-63,702	-0,110	0,032
-402,482	35,021	-0,124	-0,078
-401,467	800,000	0,039	-0,114
-400,452	189,232	0,118	0,127
-399,438	-200,000	0,014	0,152
-398,423	74,166	-0,115	0,087
-397,409	17,597	-0,074	0,042
-396,394	-200,000	-0,014	-0,051
-395,379	-55,556	0,077	0,024
-394,365	0,921	-0,108	-0,055
-393,350	-200,000	0,000	-0,239
-392,336	-81,117	-0,014	0,003
-391,321	424,150	0,015	0,024
-390,306	800,000	0,026	0,071
-389,292	800,000	0,006	-0,016
-388,277	-63,335	0,149	-0,044
-387,263	-200,000	-0,017	-0,067
-386,248	800,000	0,042	0,103
-385,233	-72,901	0,172	0,045
-384,219	-78,462	0,159	-0,039
-383,204	-200,000	0,011	-0,101
-382,190	800,000	0,017	-0,041
-381,175	-200,000	0,002	0,011
-380,160	-200,000	0,014	0,062
-379,146	66,673	0,023	-0,016
-378,131	800,000	0,011	0,026
-377,117	800,000	0,016	0,043
-376,102	-153,995	-0,103	0,005
-375,088	179,013	-0,041	-0,043
-374,073	776,027	0,021	0,041
-373,058	-98,856	-0,043	0,008
-372,044	-28,437	0,132	-0,054
-371,029	581,893	0,074	0,130
-370,015	110,981	0,127	0,110
-369,000	-92,137	-0,223	-0,045
-367,985	577,961	-0,030	-0,053
-366,971	800,000	0,013	-0,036
-365,956	-200,000	0,007	0,065
-364,942	-200,000	0,008	0,061
-363,927	135,413	0,012	-0,011
-362,912	-147,702	-0,058	0,003
-361,898	182,824	0,089	-0,094
-360,883	410,065	-0,072	-0,109
-359,869	-165,351	0,066	0,002
-358,854	579,616	0,083	0,147
-357,839	754,151	0,071	0,138
-356,825	800,000	0,047	0,113
-355,810	-200,000	0,001	-0,081
-354,796	176,588	-0,075	0,079
-353,781	-200,000	0,003	-0,014
-352,766	-17,391	0,083	0,037
-351,752	800,000	0,051	-0,111
-350,737	713,415	0,036	-0,068
-349,723	87,351	-0,066	0,052
-348,708	17,793	0,125	0,071
-347,693	-200,000	-0,010	0,104
-346,679	30,877	-0,145	-0,089
-345,664	-200,000	-0,002	0,020
-344,650	245,338	-0,060	0,072
-343,635	16,468	0,017	-0,010
-342,620	68,399	0,216	0,159
-341,606	800,000	0,031	-0,066
-340,591	20,059	-0,151	0,087
-339,577	163,527	-0,049	-0,050
-338,562	477,052	-0,074	0,121
-337,548	-200,000	-0,007	0,042
-336,533	-200,000	-0,019	0,112
-335,518	188,021	-0,065	0,070
-334,504	-36,294	-0,064	-0,025
-333,489	-200,000	0,008	0,169
-332,475	210,059	-0,038	-0,042
-331,460	-200,000	0,011	-0,075
-330,445	-200,000	0,023	0,092
-329,431	535,298	0,078	-0,133
-328,416	274,261	-0,090	-0,115
-327,402	-29,580	-0,184	0,075
-326,387	546,919	0,037	-0,064
-325,372	800,000	0,033	0,070
-324,358	148,840	0,078	-0,076
-323,343	1,100	0,055	-0,028
-322,329	33,435	-0,044	-0,028
-321,314	-200,000	-0,015	0,138
-320,299	48,547	0,113	0,075
-319,285	-31,307	0,072	-0,029
-318,270	98,306	0,057	-0,047
-317,256	23,167	-0,051	0,030
-316,241	13,174	-0,155	0,086
-315,226	242,354	-0,024	0,029
-314,212	-59,423	-0,068	0,021
-313,197	270,247	-0,042	-0,053
-312,183	-73,948	-0,071	-0,018
-311,168	-98,276	0,019	0,004
-310,153	-86,261	-0,184	0,040
-309,139	-19,090	-0,093	-0,041
-308,124	-16,722	0,054	-0,025
-307,110	-76,377	0,049	0,012
-306,095	-38,389	0,076	-0,029
-305,080	800,000	-0,035	0,087
-304,066	-200,000	-0,006	-0,084
-303,051	-200,000	0,027	-0,189
-302,037	-105,095	0,041	0,007
-301,022	-39,293	0,087	0,032
-300,008	8,664	-0,094	0,050
-298,993	-200,000	0,016	0,085
-297,978	196,445	-0,064	-0,070
-296,964	-200,000	-0,019	0,074
-295,949	-4,468	-0,066	-0,032
-294,935	45,000	0,049	-0,032
-293,920	-18,365	0,050	-0,022
-292,905	37,255	-0,110	-0,070
-291,891	-200,000	-0,001	-0,131
-290,876	108,535	0,026	-0,022
-289,862	-200,000	-0,020	-0,118
-288,847	123,901	0,060	-0,054
-287,832	-200,000	0,013	-0,053
-286,818	-200,000	-0,001	-0,033
-285,803	-200,000	-0,024	-0,087
-284,789	262,163	-0,060	-0,075
-283,774	-11,852	0,107	0,050
-282,759	270,767	-0,058	0,073
-281,745	-200,000	0,035	-0,162
-280,730	38,885	-0,107	0,068
-279,716	-114,967	0,146	0,020
-278,701	800,000	0,052	0,115
-277,686	-115,936	0,062	-0,008
-276,672	-200,000	0,027	0,133
-275,657	-200,000	-0,006	0,049
-274,643	351,909	-0,075	-0,107
-273,628	195,484	-0,068	0,074
-272,613	-98,529	-0,126	-0,023
-271,599	800,000	0,029	0,064
-270,584	149,764	0,082	0,079
-269,570	-200,000	0,016	0,089
-268,555	231,629	-0,018	0,021
-267,540	800,000	0,028	0,086
-266,526	747,092	-0,046	-0,090
-265,511	253,723	0,022	-0,027
-264,497	91,165	-0,047	-0,038
-263,482	-200,000	-0,015	0,137
-262,467	43,475	0,063	0,041
-261,453	104,846	0,131	0,110
-260,438	-73,694	-0,134	-0,034
-259,424	-32,150	-0,116	-0,046
-258,409	-99,223	0,088	0,016
-257,395	-99,443	0,113	0,020
-256,380	-200,000	-0,011	0,099
-255,365	-58,690	0,116	0,036
-254,351	96,318	-0,062	-0,051
-253,336	-200,000	0,000	-0,046
-252,322	-200,000	-0,008	0,115
-251,307	-50,200	-0,090	0,030
-250,292	-200,000	0,003	-0,060
-249,278	-50,770	0,095	-0,032
-248,263	171,757	0,054	-0,055
-247,249	800,000	0,045	0,103
-246,234	206,138	0,064	0,071
-245,219	297,514	-0,055	-0,072
-244,205	-99,383	0,021	0,004
-243,190	-68,430	-0,016	0,004
-242,176	-88,514	0,103	0,022
-241,161	394,634	-0,086	0,129
-240,146	-18,227	0,087	-0,039
-239,132	-200,000	0,002	-0,142
-238,117	-80,341	-0,147	0,035
-237,103	800,000	-0,096	-0,218
-236,088	-166,233	-0,036	0,001
-235,073	-37,845	0,085	0,032
-234,059	715,697	0,081	0,154
-233,044	75,147	0,084	0,063
-232,030	-137,001	-0,130	-0,011
-231,015	800,000	-0,048	0,117
-230,000	27,372	0,131	0,078
-228,986	-200,000	-0,070	-0,239
-227,971	800,000	-0,047	0,132
-226,957	301,023	0,069	0,091
-225,942	-200,000	-0,017	-0,060
-224,927	-159,258	0,172	0,007
-223,913	419,529	0,018	0,028
-222,898	173,540	-0,034	0,035
-221,884	415,019	0,056	0,085
-220,869	-52,030	0,131	-0,043
-219,855	-75,283	0,062	-0,016
-218,840	-106,849	0,096	-0,015
-217,825	-200,000	0,004	0,080
-216,811	-200,000	-0,007	-0,146
-215,796	-161,791	-0,121	0,004
-214,782	-200,000	0,014	-0,072
-213,767	10,820	-0,087	-0,047
-212,752	-200,000	0,037	0,126
-211,738	-145,889	0,059	-0,004
-210,723	-8,135	-0,109	0,052
-209,709	-200,000	-0,021	0,109
-208,694	800,000	-0,021	-0,046
-207,679	412,411	-0,027	0,041
-206,665	-200,000	0,025	0,129
-205,650	-56,994	0,092	0,029
-204,636	800,000	0,048	0,102
-203,621	2,975	-0,147	-0,076
-202,606	-82,502	0,069	0,016
-201,592	-87,565	-0,065	-0,014
-200,577	-200,000	-0,023	-0,131
-199,563	327,486	0,108	-0,147
-198,548	800,000	-0,021	0,050
-197,533	-149,005	-0,045	-0,003
-196,519	82,026	0,113	0,087
-195,504	-200,000	0,000	-0,041
-194,490	-200,000	-0,050	-0,189
-193,475	-155,849	-0,072	0,003
-192,460	-188,817	0,162	0,001
-191,446	-30,009	0,017	0,007
-190,431	97,171	0,068	0,056
-189,417	-106,257	0,057	-0,009
-188,402	-200,000	-0,003	-0,073
-187,387	-106,739	-0,077	-0,012
-186,373	749,863	0,052	-0,101
-185,358	800,000	-0,033	-0,084
-184,344	1,348	0,071	0,036
-183,329	-5,479	0,061	0,030
-182,315	88,677	0,094	-0,074
-181,300	-128,980	-0,058	-0,006
-180,285	-200,000	0,011	-0,098
-179,271	115,836	-0,075	-0,065
-178,256	-200,000	0,001	0,018
-177,242	-7,489	0,102	-0,049
-176,227	57,608	-0,042	0,029
-175,212	-105,844	-0,066	0,011
-174,198	-85,371	-0,126	0,028
-173,183	800,000	-0,018	0,039
-172,169	-133,083	-0,024	0,002
-171,154	800,000	-0,035	0,108
-170,139	-200,000	-0,011	0,107
-169,125	-24,380	-0,059	-0,025
-168,110	-200,000	0,042	0,211
-167,096	800,000	-0,069	0,156
-166,081	-200,000	-0,003	-0,083
-165,066	109,221	0,048	-0,041
-164,052	48,250	0,096	0,064
-163,037	-104,823	0,055	0,009
-162,023	-45,755	-0,108	-0,038
-161,008	800,000	0,023	0,048
-159,993	-57,074	0,075	-0,023
-158,979	117,286	0,045	0,039
-157,964	399,005	-0,050	0,075
-156,950	-189,759	-0,127	-0,001
-155,935	545,583	-0,038	0,066
-154,920	8,350	0,190	0,101
-153,906	-89,960	0,039	-0,008
-152,891	-111,081	0,071	-0,010
-151,877	-200,000	-0,031	-0,116
-150,862	76,205	-0,108	-0,081
-149,847	122,038	-0,103	-0,092
-148,833	-97,771	-0,064	-0,012
-147,818	800,000	0,054	0,132
-146,804	800,000	0,016	0,042
-145,789	-8,431	-0,124	0,059
-144,775	126,135	0,037	0,033
-143,760	-77,118	-0,028	-0,007
-142,745	800,000	0,023	-0,060
-141,731	284,528	0,034	0,043
-140,716	27,563	-0,090	-0,054
-139,702	458,351	0,027	0,043
-138,687	-117,595	-0,066	-0,008
-137,672	80,417	0,018	-0,014
-136,658	-200,000	-0,003	-0,074
-135,643	-61,515	0,106	0,032
-134,629	25,636	0,014	-0,008
-133,614	25,447	-0,080	-0,047
-132,599	-110,662	-0,048	0,007
-131,585	800,000	-0,067	0,170
-130,570	53,545	-0,070	0,047
-129,556	-200,000	0,024	-0,113
-128,541	-200,000	0,017	0,077
-127,526	-82,205	0,056	-0,013
-126,512	189,834	-0,093	0,100
-125,497	-95,366	-0,093	0,018
-124,483	191,434	0,063	0,068
-123,468	-200,000	-0,013	-0,134
-122,453	-34,904	-0,160	-0,062
-121,439	34,795	-0,045	0,028
-120,424	264,518	0,014	-0,017
-119,410	-0,938	-0,045	0,022
-118,395	800,000	0,017	0,041
