DTS Sentinel unit serial number:	SN410029Multiplexer serial number:	ORYXHardware model number:	OX2-SRSoftware version number:	ORYX F/W v4,00 Oryx Data Collector v3.7.2.0data status	okinstallation	BH3 CH2differential loss correction	single-endedforward channel	channel 2reverse channel	N/Adate	2023/12/05time	22:52:28forward acquisition time	300,00reverse acquisition time	0,00gamma	499,1914k internal	0,3194k external	0,3194temperature offset calibration	1,0000default loss term (dB/km)	0,3820temperature slope calibration	1,0000multiplexer offset coefficient	1,0000multiplexer slope coefficient	1,0000fibre end	0,00T internal ref (°C)	9,81T ext. ref 1 (°C)	-5,32T ext. ref 2 (°C)	-5,40length (m)	temperature (°C)	Stokes	anti-Stokes-744,400	-95,206	-0,118	-0,023
-743,385	45,233	-0,016	-0,011
-742,371	399,673	0,024	-0,036
-741,356	-133,044	-0,241	0,022
-740,342	59,570	-0,106	-0,076
-739,327	99,168	-0,173	0,145
-738,312	-123,025	-0,089	0,010
-737,298	33,264	-0,204	0,128
-736,283	-200,000	-0,009	-0,134
-735,269	-24,721	-0,319	0,138
-734,254	-200,000	0,022	-0,104
-733,239	100,073	-0,292	-0,247
-732,225	54,916	0,112	0,079
-731,210	-200,000	0,027	0,242
-730,196	355,972	0,052	-0,076
-729,181	142,406	-0,057	-0,055
-728,167	10,788	-0,058	-0,032
-727,152	-200,000	-0,015	-0,070
-726,137	44,614	-0,098	0,066
-725,123	542,897	-0,018	-0,031
-724,108	-39,722	0,066	0,025
-723,094	569,180	-0,065	-0,115
-722,079	191,018	-0,054	-0,059
-721,064	199,931	0,041	-0,046
-720,050	-200,000	0,018	0,180
-719,035	99,175	0,029	-0,024
-718,021	93,921	-0,107	-0,088
-717,006	87,865	-0,071	0,058
-715,991	-23,278	-0,036	0,016
-714,977	-44,198	-0,054	-0,019
-713,962	-165,383	-0,110	-0,003
-712,948	356,477	0,060	-0,087
-711,933	135,181	0,097	0,092
-710,918	421,934	-0,063	-0,098
-709,904	66,516	-0,151	-0,112
-708,889	6,715	0,064	-0,035
-707,875	-200,000	-0,018	0,116
-706,860	-15,472	-0,130	-0,060
-705,845	41,795	0,049	0,033
-704,831	52,502	0,027	-0,019
-703,816	-106,969	-0,043	-0,007
-702,802	128,808	0,058	-0,054
-701,787	40,426	-0,109	-0,072
-700,772	-22,817	-0,047	-0,021
-699,758	-200,000	-0,032	-0,136
-698,743	124,599	0,056	0,051
-697,729	800,000	-0,034	-0,093
-696,714	36,227	-0,055	0,035
-695,699	-148,204	-0,058	-0,003
-694,685	-200,000	0,010	0,055
-693,670	-200,000	-0,006	0,101
-692,656	-200,000	0,000	-0,045
-691,641	110,574	-0,123	-0,107
-690,627	10,112	-0,077	0,042
-689,612	-56,544	-0,031	-0,010
-688,597	676,509	0,033	-0,063
-687,583	-9,886	0,101	-0,049
-686,568	363,774	-0,084	-0,122
-685,554	-200,000	-0,002	0,047
-684,539	468,657	0,052	0,085
-683,524	-73,440	0,056	0,015
-682,510	163,022	0,044	-0,045
-681,495	-200,000	-0,036	-0,125
-680,481	800,000	-0,019	0,040
-679,466	205,359	-0,018	0,020
-678,451	320,211	-0,060	-0,082
-677,437	-85,998	0,068	-0,015
-676,422	-200,000	-0,035	0,116
-675,408	343,274	-0,013	-0,019
-674,393	-18,323	-0,096	-0,044
-673,378	-200,000	0,031	-0,136
-672,364	800,000	0,054	-0,114
-671,349	-74,189	0,103	0,027
-670,335	-200,000	0,007	0,118
-669,320	-179,702	0,020	-0,000
-668,305	-114,578	-0,040	0,006
-667,291	232,529	-0,059	0,071
-666,276	166,059	-0,047	-0,048
-665,262	504,715	-0,054	-0,091
-664,247	-192,087	-0,121	0,001
-663,232	461,302	0,048	-0,078
-662,218	-64,300	-0,037	-0,011
-661,203	-200,000	0,014	-0,116
-660,189	-200,000	-0,010	0,073
-659,174	-200,000	0,016	0,106
-658,159	100,553	-0,182	-0,154
-657,145	-200,000	-0,026	-0,117
-656,130	311,442	0,028	0,039
-655,116	-170,434	0,113	-0,003
-654,101	-200,000	0,005	-0,027
-653,086	41,429	0,066	-0,044
-652,072	545,914	-0,043	0,075
-651,057	113,605	-0,122	0,108
-650,043	-200,000	0,016	-0,155
-649,028	-200,000	0,010	-0,075
-648,014	154,038	0,091	-0,091
-646,999	-200,000	0,042	0,166
-645,984	74,689	-0,032	-0,024
-644,970	226,368	-0,056	-0,067
-643,955	-83,628	-0,143	0,033
-642,941	-110,770	-0,066	-0,010
-641,926	-200,000	0,016	0,121
-640,911	-200,000	0,005	-0,215
-639,897	-200,000	-0,005	-0,079
-638,882	-70,605	0,093	-0,025
-637,868	429,820	-0,072	0,113
-636,853	-40,841	-0,049	0,018
-635,838	-15,845	-0,058	-0,027
-634,824	164,966	-0,060	-0,062
-633,809	800,000	-0,061	-0,127
-632,795	-163,358	0,156	0,005
-631,780	109,632	-0,123	-0,107
-630,765	-4,954	-0,017	0,008
-629,751	767,440	-0,061	0,121
-628,736	800,000	-0,043	-0,095
-627,722	-200,000	0,010	-0,075
-626,707	400,021	0,034	-0,051
-625,692	508,619	0,014	0,024
-624,678	-200,000	0,018	-0,150
-623,663	-148,544	0,106	-0,006
-622,649	800,000	-0,033	0,070
-621,634	-80,525	-0,040	-0,010
-620,619	-104,087	-0,171	0,029
-619,605	-97,938	0,079	0,015
-618,590	793,442	0,033	0,067
-617,576	-200,000	0,006	0,055
-616,561	-200,000	0,025	-0,140
-615,546	-22,666	-0,025	-0,011
-614,532	-193,119	-0,171	-0,001
-613,517	626,017	0,055	-0,101
-612,503	-38,465	0,084	0,032
-611,488	-8,139	-0,068	-0,033
-610,474	-159,776	-0,050	0,002
-609,459	-200,000	-0,005	-0,133
-608,444	111,564	-0,115	-0,101
-607,430	-200,000	-0,029	-0,183
-606,415	286,634	-0,101	-0,132
-605,401	436,363	0,025	0,040
-604,386	-153,092	0,088	-0,004
-603,371	105,254	0,010	0,009
-602,357	800,000	-0,028	-0,057
-601,342	206,014	-0,045	-0,051
-600,328	264,611	0,070	0,089
-599,313	800,000	0,030	-0,067
-598,298	158,264	0,070	0,070
-597,284	442,372	0,047	0,074
-596,269	68,341	0,013	-0,010
-595,255	5,037	-0,018	0,010
-594,240	712,900	0,017	0,033
-593,225	-44,967	-0,087	-0,031
-592,211	-25,048	0,019	0,008
-591,196	800,000	0,037	0,088
-590,182	-200,000	0,008	0,060
-589,167	4,629	-0,080	0,042
-588,152	-200,000	-0,017	-0,072
-587,138	597,005	-0,024	-0,044
-586,123	58,051	-0,041	-0,029
-585,109	-200,000	0,033	-0,221
-584,094	-200,000	-0,014	-0,073
-583,079	61,293	0,032	0,023
-582,065	448,524	-0,060	0,096
-581,050	243,315	0,087	0,106
-580,036	-4,363	0,065	0,033
-579,021	-160,097	0,040	-0,002
-578,006	800,000	-0,040	-0,112
-576,992	800,000	-0,060	-0,135
-575,977	122,018	0,083	-0,075
-574,963	-113,268	0,036	-0,005
-573,948	142,092	0,061	-0,059
-572,934	44,411	-0,111	-0,074
-571,919	-155,912	-0,019	-0,001
-570,904	-200,000	-0,014	-0,079
-569,890	-30,089	0,079	0,032
-568,875	-63,063	0,114	-0,034
-567,861	-16,165	-0,094	0,043
-566,846	-200,000	-0,009	0,090
-565,831	155,009	-0,124	0,123
-564,817	-117,428	-0,102	0,013
-563,802	-61,582	-0,177	-0,054
-562,788	93,382	-0,050	-0,041
-561,773	5,696	-0,046	0,025
-560,758	675,835	0,045	0,086
-559,744	-200,000	-0,023	0,116
-558,729	357,331	0,047	0,068
-557,715	110,662	0,056	-0,049
-556,700	664,115	-0,058	-0,109
-555,685	-12,031	-0,138	-0,065
-554,671	-61,732	0,101	-0,030
-553,656	112,807	0,092	-0,081
-552,642	602,686	0,063	0,114
-551,627	58,991	-0,038	0,027
-550,612	312,454	0,078	0,106
-549,598	-200,000	-0,012	-0,163
-548,583	-200,000	0,035	0,153
-547,569	800,000	0,047	0,111
-546,554	-48,695	0,047	-0,016
-545,539	233,743	0,135	-0,161
-544,525	-200,000	0,003	0,146
-543,510	800,000	0,041	-0,082
-542,496	35,695	-0,090	-0,057
-541,481	26,756	0,149	-0,090
-540,466	168,649	-0,078	-0,081
-539,452	634,792	0,073	0,135
-538,437	-42,280	0,090	-0,033
-537,423	509,253	-0,066	0,111
-536,408	482,898	-0,069	0,114
-535,393	216,710	-0,019	-0,021
-534,379	580,345	0,008	0,015
-533,364	-72,240	-0,052	-0,014
-532,350	-128,913	0,085	0,008
-531,335	211,776	-0,063	0,071
-530,321	-61,333	0,135	0,041
-529,306	-200,000	-0,002	0,021
-528,291	339,510	-0,089	-0,126
-527,277	-200,000	0,005	-0,048
-526,262	99,441	-0,089	0,075
-525,248	241,914	0,031	0,038
-524,233	722,043	-0,049	0,094
-523,218	155,780	-0,055	-0,055
-522,204	800,000	0,033	0,075
-521,189	260,421	-0,060	-0,075
-520,175	115,320	-0,063	-0,055
-519,160	-200,000	-0,024	-0,086
-518,145	71,861	0,071	-0,053
-517,131	144,472	0,118	0,114
-516,116	-200,000	-0,021	0,146
-515,102	-200,000	0,029	-0,159
-514,087	-53,869	-0,111	-0,036
-513,072	-120,685	-0,008	-0,001
-512,058	85,652	0,098	-0,078
-511,043	-103,780	0,192	-0,032
-510,029	-200,000	-0,009	0,064
-509,014	-200,000	-0,004	0,187
-507,999	-44,752	-0,088	0,031
-506,985	-1,215	-0,135	0,069
-505,970	-157,632	-0,152	0,006
-504,956	-200,000	-0,017	-0,158
-503,941	-19,342	0,115	0,051
-502,926	-200,000	0,008	0,086
-501,912	11,190	-0,047	0,026
-500,897	99,063	-0,032	0,027
-499,883	134,421	-0,111	-0,104
-498,868	-200,000	-0,003	-0,087
-497,853	37,081	-0,076	-0,048
-496,839	-149,818	-0,051	0,003
-495,824	800,000	-0,035	0,104
-494,810	-200,000	-0,007	0,136
-493,795	14,420	-0,157	-0,088
-492,781	-37,368	-0,049	-0,019
-491,766	60,525	-0,076	-0,054
-490,751	243,421	-0,015	0,019
-489,737	58,545	-0,093	-0,066
-488,722	31,855	-0,024	-0,015
-487,708	15,323	-0,092	0,052
-486,693	-88,286	0,030	-0,006
-485,678	-200,000	0,015	-0,127
-484,664	56,925	-0,118	0,083
-483,649	800,000	-0,060	0,180
-482,635	-200,000	0,001	-0,020
-481,620	118,739	0,062	0,055
-480,605	800,000	0,052	0,119
-479,591	142,719	0,044	0,042
-478,576	78,156	-0,082	0,063
-477,562	-108,017	0,121	0,019
-476,547	34,954	-0,054	-0,034
-475,532	-200,000	-0,014	-0,073
-474,518	-200,000	0,006	0,027
-473,503	-94,569	0,140	0,027
-472,489	135,446	0,084	0,079
-471,474	800,000	0,029	0,093
-470,459	31,580	0,063	0,039
-469,445	-34,737	-0,098	0,039
-468,430	-139,227	-0,072	-0,005
-467,416	-200,000	0,017	-0,099
-466,401	-200,000	0,034	0,231
-465,386	-130,660	0,068	-0,007
-464,372	116,032	0,093	-0,082
-463,357	-200,000	0,007	-0,073
-462,343	23,830	-0,196	-0,116
-461,328	800,000	-0,055	-0,135
-460,313	800,000	-0,037	0,102
-459,299	86,021	0,046	0,037
-458,284	-200,000	0,022	0,074
-457,270	-200,000	0,042	-0,139
-456,255	-200,000	-0,010	0,081
-455,241	191,594	-0,068	0,074
-454,226	367,886	-0,019	0,028
-453,211	108,241	0,064	-0,055
-452,197	800,000	-0,014	0,038
-451,182	77,537	0,108	0,083
-450,168	303,653	-0,023	-0,031
-449,153	737,069	-0,029	-0,056
-448,138	-200,000	-0,018	-0,112
-447,124	210,605	-0,108	-0,123
-446,109	-200,000	-0,013	0,210
-445,095	-26,622	0,074	0,031
-444,080	-200,000	-0,034	0,143
-443,065	-200,000	0,010	0,169
-442,051	800,000	-0,031	0,067
-441,036	-200,000	0,009	-0,114
-440,022	-89,592	-0,072	-0,015
-439,007	800,000	0,100	-0,245
-437,992	-91,076	0,036	0,007
-436,978	-73,231	0,152	-0,040
-435,963	800,000	0,030	0,075
-434,949	-25,039	0,038	-0,016
-433,934	-77,993	-0,032	0,008
-432,919	-200,000	0,006	0,095
-431,905	-4,999	-0,069	0,034
-430,890	327,823	-0,039	-0,053
-429,876	43,995	0,152	-0,100
-428,861	-200,000	0,023	0,153
-427,846	517,159	-0,022	0,037
-426,832	-48,155	0,071	0,025
-425,817	59,716	-0,109	-0,077
-424,803	-95,279	0,071	0,014
-423,788	29,243	-0,108	0,066
-422,773	-111,630	-0,057	-0,008
-421,759	115,307	0,167	0,147
-420,744	-200,000	-0,010	0,034
-419,730	-200,000	-0,051	-0,279
-418,715	93,366	-0,153	-0,125
-417,701	-200,000	-0,020	-0,140
-416,686	800,000	-0,053	-0,145
-415,671	66,993	0,058	0,043
-414,657	132,824	0,057	0,053
-413,642	-200,000	-0,031	0,124
-412,628	-33,930	0,081	-0,032
-411,613	-116,421	0,124	-0,016
-410,598	72,045	0,074	-0,055
-409,584	95,711	0,092	0,075
-408,569	-69,789	0,091	0,025
-407,555	-23,418	0,117	0,050
-406,540	288,430	-0,058	0,076
-405,525	-134,495	-0,153	-0,013
-404,511	-9,599	0,021	-0,010
-403,496	-200,000	0,022	0,081
-402,482	-200,000	-0,009	0,195
-401,467	460,079	0,023	0,037
-400,452	-200,000	0,004	0,020
-399,438	-50,422	0,106	-0,036
-398,423	-200,000	-0,017	-0,070
-397,409	221,555	-0,015	0,018
-396,394	355,918	0,035	-0,050
-395,379	-200,000	0,011	0,124
-394,365	-200,000	0,014	0,158
-393,350	86,934	0,131	0,104
-392,336	-200,000	0,027	0,154
-391,321	-73,465	-0,058	-0,015
-390,306	166,076	-0,039	-0,040
-389,292	49,192	-0,129	-0,087
-388,277	628,455	0,057	0,103
-387,263	-200,000	0,007	0,061
-386,248	230,858	0,074	0,087
-385,233	183,244	0,073	-0,078
-384,219	434,148	-0,096	-0,151
-383,204	800,000	0,022	-0,057
-382,190	-52,109	0,046	-0,015
-381,175	-62,943	0,122	-0,036
-380,160	-63,911	0,066	0,019
-379,146	35,217	0,008	-0,005
-378,131	253,642	0,059	-0,073
-377,117	-200,000	0,032	-0,106
-376,102	-148,456	-0,034	-0,002
-375,088	23,340	-0,057	0,033
-374,073	327,948	-0,031	0,043
-373,058	800,000	-0,019	-0,058
-372,044	-2,340	0,103	0,051
-371,029	466,740	-0,014	0,023
-370,015	145,797	0,009	-0,008
-369,000	-200,000	0,014	0,137
-367,985	-105,650	0,102	-0,016
-366,971	296,894	-0,031	0,041
-365,956	35,058	0,114	0,072
-364,942	317,584	-0,044	0,060
-363,927	-200,000	0,006	0,027
-362,912	-74,391	-0,118	0,030
-361,898	61,808	0,141	-0,101
-360,883	-80,907	-0,016	0,004
-359,869	-200,000	-0,005	-0,078
-358,854	-108,808	0,073	0,011
-357,839	-44,072	0,076	0,027
-356,825	254,495	0,086	0,106
-355,810	235,578	-0,054	-0,064
-354,796	-200,000	0,033	-0,136
-353,781	-200,000	0,016	-0,068
-352,766	-172,135	0,009	-0,000
-351,752	-25,733	0,026	0,011
-350,737	-20,646	0,125	0,055
-349,723	-29,674	-0,027	-0,011
-348,708	580,032	-0,018	0,031
-347,693	17,548	0,130	-0,074
-346,679	348,221	0,058	-0,083
-345,664	800,000	0,035	-0,079
-344,650	800,000	0,021	-0,053
-343,635	-73,009	0,094	0,024
-342,620	-112,592	0,113	0,016
-341,606	-200,000	0,001	-0,016
-340,591	79,368	-0,045	-0,035
-339,577	268,825	-0,141	-0,178
-338,562	-200,000	0,015	-0,073
-337,548	800,000	0,013	-0,035
-336,533	-130,729	-0,100	-0,009
-335,518	-14,951	0,084	0,039
-334,504	133,796	-0,024	-0,022
-333,489	800,000	0,037	0,077
-332,475	146,537	-0,104	0,100
-331,460	35,467	-0,062	0,039
-330,445	-200,000	0,006	-0,039
-329,431	387,950	-0,109	-0,162
-328,416	182,218	0,110	0,116
-327,402	800,000	0,020	0,062
-326,387	106,023	0,054	-0,046
-325,372	800,000	0,037	-0,112
-324,358	31,985	0,129	-0,080
-323,343	35,260	0,036	-0,023
-322,329	373,988	0,052	-0,076
-321,314	-55,444	-0,123	0,039
-320,299	51,356	-0,082	0,056
-319,285	531,694	-0,116	0,198
-318,270	-70,085	0,077	0,021
-317,256	-96,665	-0,089	0,017
-316,241	-53,384	0,034	-0,011
-315,226	56,186	0,056	0,039
-314,212	170,941	0,071	-0,073
-313,197	-200,000	-0,034	0,115
-312,183	-200,000	-0,002	0,022
-311,168	800,000	0,037	-0,077
-310,153	-99,202	-0,241	-0,043
-309,139	116,976	0,114	-0,101
-308,124	89,798	-0,085	0,068
-307,110	800,000	0,067	0,136
-306,095	800,000	0,026	-0,053
-305,080	-200,000	-0,014	0,092
-304,066	154,627	-0,042	-0,041
-303,051	-200,000	-0,028	-0,194
-302,037	572,934	0,057	0,100
-301,022	-200,000	-0,019	0,138
-300,008	-151,350	-0,082	0,004
-298,993	-155,426	0,119	-0,005
-297,978	-200,000	-0,014	-0,066
-296,964	195,807	0,037	0,041
-295,949	-200,000	-0,009	-0,033
-294,935	800,000	0,043	-0,087
-293,920	578,554	-0,020	0,034
-292,905	-200,000	0,012	0,145
-291,891	-46,020	-0,103	-0,036
-290,876	246,975	-0,027	0,032
-289,862	288,468	0,029	-0,038
-288,847	-200,000	-0,018	-0,119
-287,832	108,197	-0,037	0,031
-286,818	287,152	0,051	0,066
-285,803	-11,042	-0,022	-0,010
-284,789	246,669	0,026	0,031
-283,774	800,000	0,013	-0,041
-282,759	335,884	-0,041	-0,057
-281,745	800,000	0,021	-0,051
-280,730	41,033	-0,112	-0,072
-279,716	351,963	-0,073	0,103
-278,701	135,459	0,077	0,071
-277,686	-84,284	0,190	-0,043
-276,672	-200,000	-0,038	0,130
-275,657	66,440	-0,040	0,029
-274,643	175,825	-0,096	-0,099
-273,628	-151,801	-0,044	-0,002
-272,613	-76,498	-0,129	0,032
-271,599	-200,000	0,012	-0,063
-270,584	-200,000	0,004	0,058
-269,570	198,231	0,102	0,111
-268,555	-19,415	-0,147	0,065
-267,540	-57,435	0,040	-0,013
-266,526	800,000	-0,058	-0,141
-265,511	-200,000	0,003	-0,018
-264,497	587,484	-0,034	-0,061
-263,482	251,605	0,077	0,093
-262,467	-200,000	0,020	-0,100
-261,453	5,217	0,066	0,034
-260,438	461,868	0,020	0,032
-259,424	278,680	-0,086	-0,110
-258,409	362,613	0,041	-0,059
-257,395	-107,406	-0,164	0,025
-256,380	461,825	0,053	-0,085
-255,365	-171,587	-0,019	0,000
-254,351	153,996	0,079	0,077
-253,336	800,000	0,079	0,159
-252,322	-146,781	0,086	-0,005
-251,307	-38,101	-0,046	0,017
-250,292	97,497	0,077	0,063
-249,278	292,315	-0,025	-0,033
-248,263	-200,000	-0,005	0,020
-247,249	673,973	0,019	-0,036
-246,234	4,778	-0,147	0,077
-245,219	-200,000	0,004	0,023
-244,205	-17,642	0,025	-0,011
-243,190	-2,425	-0,040	0,020
-242,176	-200,000	-0,000	-0,110
-241,161	125,295	0,023	-0,021
-240,146	-40,111	-0,020	-0,007
-239,132	387,463	-0,094	-0,140
-238,117	-200,000	-0,009	-0,034
-237,103	-26,226	0,092	-0,039
-236,088	-200,000	0,013	-0,068
-235,073	70,636	0,101	0,075
-234,059	800,000	0,066	0,137
-233,044	450,630	0,028	-0,044
-232,030	-48,364	-0,093	0,032
-231,015	-200,000	0,004	-0,046
-230,000	272,918	-0,105	-0,133
-228,986	82,141	0,069	0,053
-227,971	-200,000	0,012	0,180
-226,957	345,290	0,063	-0,089
-225,942	-114,550	-0,133	-0,018
-224,927	376,853	-0,037	0,054
-223,913	10,094	0,108	-0,058
-222,898	800,000	-0,021	-0,060
-221,884	-200,000	0,002	0,016
-220,869	15,939	0,025	0,014
-219,855	154,039	0,053	0,051
-218,840	-200,000	0,010	0,093
-217,825	547,224	-0,050	0,086
-216,811	729,520	-0,047	-0,090
-215,796	117,378	-0,043	0,038
-214,782	800,000	0,017	-0,041
-213,767	21,706	0,053	0,031
-212,752	217,786	-0,072	0,082
-211,738	-137,167	-0,139	0,011
-210,723	130,746	-0,036	-0,033
-209,709	-134,318	-0,132	-0,011
-208,694	-132,145	-0,062	-0,006
-207,679	-177,955	-0,069	0,001
-206,665	-200,000	0,037	0,000
-205,650	-32,479	0,031	-0,012
-204,636	497,178	-0,046	0,076
-203,621	-2,581	-0,022	-0,011
-202,606	-200,000	0,030	-0,109
-201,592	519,454	0,041	-0,069
-200,577	800,000	0,012	-0,025
-199,563	-200,000	-0,006	0,048
-198,548	-20,659	0,162	0,071
-197,533	-200,000	-0,024	0,132
-196,519	-186,647	-0,056	0,001
-195,504	-118,693	0,073	0,009
-194,490	-200,000	0,007	-0,032
-193,475	-94,601	0,125	-0,024
-192,460	-200,000	-0,025	0,101
-191,446	-139,455	-0,058	-0,004
-190,431	-200,000	0,011	0,199
-189,417	-110,334	0,104	-0,015
-188,402	-37,947	0,070	-0,026
-187,387	-114,983	-0,064	0,009
-186,373	-144,318	-0,129	0,008
-185,358	-50,773	-0,083	-0,028
-184,344	-158,918	0,116	-0,005
-183,329	-186,568	0,114	-0,001
-182,315	424,503	0,062	-0,096
-181,300	-200,000	-0,001	-0,043
-180,285	-156,101	-0,181	0,008
-179,271	306,796	-0,056	0,074
-178,256	800,000	0,022	-0,051
-177,242	800,000	-0,018	-0,051
-176,227	427,257	0,037	0,057
-175,212	-25,981	0,146	-0,061
-174,198	273,313	-0,032	-0,041
-173,183	-200,000	-0,002	0,044
-172,169	800,000	-0,036	-0,090
-171,154	-105,839	0,131	-0,021
-170,139	750,958	0,026	-0,051
-169,125	-126,390	-0,110	-0,011
-168,110	-36,798	0,031	0,012
-167,096	-200,000	-0,016	0,083
-166,081	281,276	-0,088	-0,113
-165,066	800,000	0,017	-0,036
-164,052	265,370	0,045	-0,056
-163,037	203,621	-0,112	0,124
-162,023	-200,000	0,014	0,058
-161,008	-200,000	-0,021	0,113
-159,993	474,722	0,055	0,089
-158,979	-22,223	-0,075	-0,032
-157,964	800,000	0,022	-0,053
-156,950	162,514	-0,050	0,050
-155,935	-44,463	0,071	-0,025
-154,920	15,010	-0,026	0,014
-153,906	-23,853	0,063	-0,027
-152,891	2,403	0,058	0,030
-151,877	-200,000	-0,027	0,104
-150,862	-200,000	0,024	-0,080
-149,847	800,000	0,089	-0,183
-148,833	800,000	0,040	0,105
-147,818	-45,222	0,115	0,041
-146,804	683,309	-0,041	0,077
-145,789	-18,183	0,035	0,015
-144,775	67,900	-0,060	-0,044
-143,760	800,000	-0,078	0,210
-142,745	800,000	-0,039	-0,112
-141,731	-106,824	0,097	-0,015
-140,716	800,000	-0,011	0,029
-139,702	800,000	-0,031	0,088
-138,687	-200,000	0,004	0,053
-137,672	31,254	0,087	-0,053
-136,658	90,090	-0,117	-0,093
-135,643	-200,000	-0,032	-0,175
-134,629	-200,000	-0,054	0,179
-133,614	-64,005	0,114	-0,033
-132,599	-111,924	-0,086	0,012
-131,585	-200,000	0,032	0,123
-130,570	436,003	-0,094	-0,146
-129,556	-16,918	-0,058	-0,026
-128,541	-177,811	-0,101	0,002
-127,526	-40,404	-0,098	-0,036
-126,512	29,342	-0,203	0,122
-125,497	800,000	-0,041	-0,087
-124,483	800,000	0,073	0,156
-123,468	504,304	-0,075	-0,124
-122,453	-131,233	0,126	0,012
-121,439	109,501	0,114	-0,097
-120,424	-200,000	-0,001	-0,036
-119,410	57,213	0,110	0,077
