DTS Sentinel unit serial number:	SN410029Multiplexer serial number:	ORYXHardware model number:	OX2-SRSoftware version number:	ORYX F/W v4,00 Oryx Data Collector v3.7.2.0data status	okinstallation	BH3 CH2differential loss correction	single-endedforward channel	channel 2reverse channel	N/Adate	2023/12/05time	11:42:28forward acquisition time	300,00reverse acquisition time	0,00gamma	499,1914k internal	0,3195k external	0,3195temperature offset calibration	1,0000default loss term (dB/km)	0,3820temperature slope calibration	1,0000multiplexer offset coefficient	1,0000multiplexer slope coefficient	1,0000fibre end	0,00T internal ref (°C)	9,68T ext. ref 1 (°C)	-5,01T ext. ref 2 (°C)	-5,08length (m)	temperature (°C)	Stokes	anti-Stokes-744,400	217,504	-0,111	-0,129
-743,385	-18,996	-0,148	0,067
-742,371	276,007	-0,088	-0,114
-741,356	-200,000	0,021	0,133
-740,342	243,346	0,047	0,057
-739,327	177,697	-0,131	0,140
-738,312	-200,000	0,002	-0,175
-737,298	-10,977	-0,245	0,118
-736,283	800,000	0,042	-0,125
-735,269	-81,686	-0,283	0,067
-734,254	-200,000	0,003	-0,083
-733,239	-145,044	-0,401	-0,026
-732,225	-8,087	0,067	-0,033
-731,210	-34,974	0,092	0,037
-730,196	36,814	-0,064	0,041
-729,181	-16,513	-0,060	-0,028
-728,167	241,817	-0,042	-0,051
-727,152	-200,000	-0,040	-0,136
-726,137	1,341	-0,129	-0,067
-725,123	-82,892	-0,077	0,018
-724,108	451,833	0,058	-0,093
-723,094	20,212	-0,065	-0,038
-722,079	203,572	0,099	-0,111
-721,064	800,000	-0,036	-0,080
-720,050	64,341	0,098	-0,072
-719,035	19,935	0,033	0,020
-718,021	-200,000	-0,004	0,200
-717,006	-200,000	-0,033	-0,112
-715,991	22,712	-0,059	0,035
-714,977	-70,049	0,110	-0,030
-713,962	431,491	-0,037	-0,058
-712,948	307,770	-0,065	-0,088
-711,933	72,015	-0,044	0,034
-710,918	153,617	-0,063	0,062
-709,904	800,000	-0,046	-0,133
-708,889	800,000	0,038	-0,092
-707,875	800,000	-0,048	-0,150
-706,860	800,000	-0,011	-0,023
-705,845	-200,000	-0,007	-0,034
-704,831	-102,333	0,103	-0,018
-703,816	291,830	0,079	0,105
-702,802	800,000	-0,061	-0,136
-701,787	220,541	-0,030	-0,035
-700,772	-200,000	-0,002	0,031
-699,758	247,536	0,087	-0,108
-698,743	-200,000	0,031	0,130
-697,729	-200,000	-0,005	0,114
-696,714	-200,000	0,010	-0,154
-695,699	-200,000	0,008	-0,070
-694,685	-114,188	0,017	-0,002
-693,670	99,049	0,100	0,084
-692,656	-48,531	0,140	0,049
-691,641	229,732	0,128	0,152
-690,627	694,236	0,019	0,036
-689,612	800,000	0,020	-0,050
-688,597	96,510	0,025	-0,021
-687,583	-13,991	-0,031	-0,014
-686,568	-64,627	-0,054	0,016
-685,554	-200,000	-0,014	0,092
-684,539	346,614	0,053	0,076
-683,524	212,020	0,070	0,081
-682,510	-98,169	-0,072	0,013
-681,495	-200,000	0,008	0,040
-680,481	23,404	-0,144	-0,086
-679,466	-200,000	0,002	-0,179
-678,451	6,460	0,055	-0,030
-677,437	-94,616	0,079	-0,015
-676,422	800,000	-0,004	0,013
-675,408	-125,529	-0,176	-0,019
-674,393	-121,008	-0,019	0,002
-673,378	-200,000	0,003	0,046
-672,364	791,502	0,005	0,010
-671,349	44,379	-0,072	-0,048
-670,335	479,151	0,068	-0,113
-669,320	800,000	0,053	0,164
-668,305	-200,000	-0,003	-0,088
-667,291	368,829	-0,044	0,065
-666,276	-29,485	0,066	0,027
-665,262	-85,708	-0,229	0,051
-664,247	-13,250	0,095	-0,045
-663,232	-186,482	0,027	0,000
-662,218	474,050	-0,064	0,105
-661,203	800,000	0,045	0,106
-660,189	226,814	-0,124	0,146
-659,174	800,000	-0,056	0,168
-658,159	-164,386	0,104	0,003
-657,145	-200,000	0,044	-0,154
-656,130	489,702	-0,005	-0,008
-655,116	-200,000	0,002	0,057
-654,101	800,000	0,010	-0,021
-653,086	-200,000	0,014	0,113
-652,072	-143,623	-0,142	-0,010
-651,057	-200,000	0,013	-0,094
-650,043	-200,000	0,013	-0,093
-649,028	-169,467	-0,102	-0,003
-648,014	159,318	-0,068	-0,069
-646,999	-5,556	0,107	0,053
-645,984	33,402	-0,111	0,070
-644,970	68,989	0,009	-0,007
-643,955	-51,799	-0,199	-0,067
-642,941	482,627	-0,056	-0,093
-641,926	8,763	-0,081	-0,044
-640,911	800,000	0,019	0,046
-639,897	360,181	-0,073	0,107
-638,882	-52,808	-0,081	0,027
-637,868	81,432	0,054	-0,043
-636,853	-106,871	0,040	-0,006
-635,838	-200,000	0,009	-0,084
-634,824	-39,162	-0,092	-0,035
-633,809	468,833	0,086	0,141
-632,795	-23,788	0,105	-0,045
-631,780	30,522	-0,103	-0,064
-630,765	-103,622	-0,073	0,012
-629,751	-81,125	-0,049	-0,012
-628,736	98,926	-0,074	-0,062
-627,722	492,191	-0,018	0,031
-626,707	-6,555	-0,123	-0,060
-625,692	-92,052	-0,111	0,023
-624,678	-200,000	-0,003	0,098
-623,663	-149,011	0,044	-0,003
-622,649	243,540	0,027	0,033
-621,634	-200,000	-0,012	-0,137
-620,619	102,771	0,069	0,059
-619,605	-200,000	0,040	-0,170
-618,590	-80,936	-0,127	-0,030
-617,576	800,000	0,030	0,063
-616,561	226,711	-0,049	0,058
-615,546	28,331	-0,100	0,061
-614,532	766,021	0,035	-0,070
-613,517	-200,000	0,005	0,128
-612,503	-178,041	0,055	0,001
-611,488	-90,180	0,142	-0,030
-610,474	-200,000	-0,001	0,012
-609,459	463,670	0,023	-0,038
-608,444	-200,000	0,006	0,023
-607,430	-199,902	-0,076	0,000
-606,415	484,713	-0,053	-0,088
-605,401	-200,000	0,027	0,128
-604,386	-200,000	-0,014	-0,108
-603,371	-200,000	0,016	-0,060
-602,357	-61,977	0,149	-0,045
-601,342	448,182	0,029	0,047
-600,328	-200,000	-0,027	-0,125
-599,313	-69,363	-0,061	0,017
-598,298	324,963	0,068	0,094
-597,284	800,000	-0,013	0,038
-596,269	-11,287	0,025	0,012
-595,255	666,775	0,048	0,091
-594,240	-200,000	0,014	0,143
-593,225	433,621	-0,054	-0,085
-592,211	800,000	-0,037	-0,078
-591,196	800,000	-0,034	0,094
-590,182	-140,474	-0,094	-0,007
-589,167	63,276	0,089	-0,065
-588,152	-102,056	-0,086	-0,015
-587,138	258,310	0,027	-0,034
-586,123	-76,142	-0,165	-0,042
-585,109	530,378	0,047	0,081
-584,094	-200,000	-0,003	0,082
-583,079	610,280	-0,091	0,165
-582,065	-200,000	-0,069	0,229
-581,050	-139,507	0,066	-0,005
-580,036	-191,651	-0,100	-0,001
-579,021	-200,000	-0,000	-0,100
-578,006	-172,014	-0,059	0,001
-576,992	-200,000	-0,019	0,168
-575,977	-96,344	0,219	0,042
-574,963	800,000	-0,025	-0,057
-573,948	-200,000	-0,001	0,079
-572,934	800,000	-0,006	-0,012
-571,919	800,000	-0,021	0,064
-570,904	-151,499	-0,056	-0,003
-569,890	86,334	0,061	-0,049
-568,875	-99,840	-0,081	0,015
-567,861	-200,000	0,014	-0,081
-566,846	800,000	0,063	0,164
-565,831	-200,000	-0,023	0,137
-564,817	-53,798	-0,016	-0,005
-563,802	800,000	-0,038	-0,103
-562,788	800,000	-0,042	0,117
-561,773	217,810	-0,044	-0,051
-560,758	73,402	0,131	-0,099
-559,744	-144,461	0,189	0,012
-558,729	-53,055	-0,165	0,054
-557,715	-65,817	0,072	-0,021
-556,700	-200,000	0,028	-0,091
-555,685	-200,000	-0,004	-0,053
-554,671	-91,188	-0,155	0,032
-553,656	10,901	0,137	0,075
-552,642	-106,616	-0,124	0,020
-551,627	101,964	-0,093	-0,078
-550,612	150,292	-0,082	0,080
-549,598	-120,575	-0,082	0,010
-548,583	323,631	0,066	-0,091
-547,569	556,137	0,112	-0,196
-546,554	-124,826	0,159	-0,018
-545,539	91,663	0,061	-0,050
-544,525	-85,903	-0,033	0,007
-543,510	-200,000	0,015	0,048
-542,496	482,944	-0,079	0,131
-541,481	30,609	-0,097	0,060
-540,466	-166,370	-0,042	0,001
-539,452	-200,000	0,010	0,189
-538,437	-200,000	-0,052	0,220
-537,423	617,810	-0,086	0,157
-536,408	57,809	-0,088	-0,062
-535,393	-87,453	-0,125	-0,027
-534,379	-40,750	0,072	-0,027
-533,364	-200,000	-0,044	0,167
-532,350	-57,972	0,253	0,079
-531,335	175,440	0,076	0,079
-530,321	-200,000	-0,027	0,124
-529,306	800,000	-0,035	0,090
-528,291	355,321	0,074	-0,107
-527,277	-200,000	-0,002	-0,115
-526,262	199,031	-0,071	-0,079
-525,248	213,071	-0,085	0,097
-524,233	311,835	0,077	0,104
-523,218	434,152	0,069	0,109
-522,204	56,419	-0,027	0,019
-521,189	250,516	-0,084	-0,103
-520,175	-200,000	0,020	0,104
-519,160	-120,874	-0,131	0,016
-518,145	-200,000	-0,020	0,073
-517,131	340,840	0,059	0,083
-516,116	-66,857	0,146	-0,042
-515,102	-150,015	-0,091	-0,005
-514,087	202,896	-0,057	0,063
-513,072	32,249	0,029	-0,018
-512,058	800,000	0,019	-0,050
-511,043	800,000	0,025	-0,060
-510,029	95,262	0,186	0,153
-509,014	-47,915	0,107	-0,037
-507,999	800,000	-0,038	0,103
-506,985	-175,123	-0,080	-0,002
-505,970	800,000	-0,036	-0,081
-504,956	8,471	-0,131	-0,071
-503,941	-39,078	0,067	0,025
-502,926	800,000	-0,011	-0,031
-501,912	-33,264	-0,097	-0,038
-500,897	-200,000	0,006	0,020
-499,883	276,610	0,021	-0,027
-498,868	-8,350	-0,177	-0,086
-497,853	135,438	-0,084	-0,079
-496,839	26,022	0,030	0,018
-495,824	374,384	-0,037	0,054
-494,810	-191,878	0,213	-0,001
-493,795	-200,000	-0,031	0,122
-492,781	800,000	-0,035	-0,087
-491,766	-90,716	-0,090	-0,019
-490,751	781,935	-0,066	0,130
-489,737	-17,676	0,084	-0,038
-488,722	-89,054	-0,009	0,002
-487,708	800,000	0,029	-0,073
-486,693	-200,000	-0,016	0,103
-485,678	-200,000	-0,020	-0,125
-484,664	800,000	-0,044	0,091
-483,649	167,310	-0,088	-0,090
-482,635	37,911	0,099	-0,063
-481,620	-13,555	0,095	-0,044
-480,605	-51,160	0,053	0,018
-479,591	-73,597	0,069	-0,018
-478,576	763,637	0,048	-0,094
-477,562	-200,000	-0,008	-0,184
-476,547	55,807	0,043	-0,030
-475,532	43,256	-0,073	-0,048
-474,518	487,634	0,013	0,021
-473,503	47,112	-0,090	-0,061
-472,489	-14,590	0,164	0,076
-471,474	161,102	0,097	0,097
-470,459	-47,766	-0,038	0,013
-469,445	-187,762	0,042	-0,000
-468,430	100,905	-0,055	0,046
-467,416	-200,000	-0,042	0,154
-466,401	43,457	0,118	-0,078
-465,386	-200,000	-0,039	0,141
-464,372	-50,577	-0,130	0,044
-463,357	-121,483	0,071	-0,008
-462,343	-200,000	0,014	-0,124
-461,328	-112,232	-0,082	-0,012
-460,313	-95,333	0,076	0,015
-459,299	-153,789	0,041	0,002
-458,284	-200,000	-0,026	0,087
-457,270	186,789	0,111	0,119
-456,255	92,366	-0,119	-0,096
-455,241	-200,000	-0,054	-0,204
-454,226	337,498	-0,031	0,044
-453,211	-200,000	0,015	0,109
-452,197	-74,901	0,166	0,043
-451,182	-47,915	0,041	0,014
-450,168	-155,751	-0,039	-0,002
-449,153	209,551	0,113	-0,128
-448,138	217,315	-0,097	-0,112
-447,124	155,970	-0,023	-0,023
-446,109	54,477	-0,021	0,015
-445,095	-8,652	0,073	-0,035
-444,080	-30,990	-0,017	-0,007
-443,065	414,385	-0,084	0,129
-442,051	524,920	-0,043	-0,074
-441,036	-200,000	0,002	-0,069
-440,022	148,416	0,056	-0,054
-439,007	73,720	0,035	-0,027
-437,992	-10,107	0,015	-0,007
-436,978	-200,000	-0,007	0,029
-435,963	800,000	0,039	0,115
-434,949	-106,321	0,022	-0,004
-433,934	60,670	-0,039	0,028
-432,919	210,360	-0,028	-0,031
-431,905	-200,000	-0,023	-0,168
-430,890	-200,000	0,003	-0,119
-429,876	211,200	0,057	0,065
-428,861	37,762	0,052	0,033
-427,846	-200,000	0,004	-0,016
-426,832	110,318	-0,088	-0,076
-425,817	130,024	-0,105	0,097
-424,803	800,000	-0,077	0,223
-423,788	800,000	-0,042	0,127
-422,773	1,475	-0,062	-0,032
-421,759	-61,777	0,169	-0,051
-420,744	-200,000	0,015	-0,113
-419,730	800,000	0,044	-0,099
-418,715	800,000	-0,021	-0,053
-417,701	-200,000	-0,040	0,160
-416,686	-89,041	0,136	-0,029
-415,671	623,269	0,057	-0,104
-414,657	800,000	0,046	0,119
-413,642	-85,818	-0,056	0,012
-412,628	-8,494	-0,073	-0,035
-411,613	102,245	-0,056	-0,047
-410,598	-45,468	-0,131	-0,046
-409,584	207,743	0,075	-0,085
-408,569	-10,281	0,062	0,029
-407,555	24,713	-0,151	0,089
-406,540	164,920	0,064	0,065
-405,525	-200,000	-0,009	-0,060
-404,511	120,677	0,021	-0,019
-403,496	-51,162	-0,088	0,029
-402,482	800,000	0,072	0,187
-401,467	800,000	0,030	0,088
-400,452	800,000	0,051	0,116
-399,438	138,729	-0,068	-0,064
-398,423	85,330	-0,055	0,044
-397,409	18,779	0,038	0,022
-396,394	-30,664	-0,077	-0,031
-395,379	-145,827	-0,106	0,007
-394,365	-86,952	0,117	-0,025
-393,350	-117,811	0,075	-0,010
-392,336	362,334	0,083	0,120
-391,321	111,107	-0,044	0,038
-390,306	59,798	-0,146	0,104
-389,292	-24,085	-0,058	-0,025
-388,277	-163,299	-0,069	-0,002
-387,263	198,083	0,067	0,074
-386,248	-200,000	0,008	-0,042
-385,233	96,250	0,147	0,121
-384,219	-8,257	-0,172	-0,083
-383,204	-84,041	-0,082	-0,019
-382,190	119,576	-0,061	-0,054
-381,175	733,423	-0,065	0,126
-380,160	-200,000	-0,029	0,211
-379,146	-200,000	0,009	0,037
-378,131	215,519	-0,076	0,087
-377,117	-77,985	-0,065	0,016
-376,102	352,636	-0,050	-0,072
-375,088	199,161	-0,012	0,013
-374,073	800,000	0,067	-0,142
-373,058	328,546	0,092	0,127
-372,044	-30,762	-0,079	-0,032
-371,029	112,694	-0,080	0,070
-370,015	-57,226	0,137	-0,043
-369,000	-200,000	0,009	-0,042
-367,985	232,596	0,043	-0,050
-366,971	34,834	-0,089	-0,056
-365,956	771,971	-0,049	-0,096
-364,942	-175,154	0,053	-0,001
-363,927	244,632	0,050	0,060
-362,912	776,378	0,041	-0,082
-361,898	-131,618	-0,092	-0,009
-360,883	-200,000	0,003	-0,104
-359,869	331,836	-0,099	0,137
-358,854	800,000	0,028	0,064
-357,839	-200,000	0,017	0,083
-356,825	-45,180	0,133	-0,047
-355,810	88,364	0,036	0,029
-354,796	411,006	0,060	-0,091
-353,781	190,316	-0,086	-0,092
-352,766	-112,543	0,108	-0,015
-351,752	-142,493	-0,040	-0,003
-350,737	-21,229	0,024	0,011
-349,723	-122,047	0,064	0,007
-348,708	-128,509	0,085	-0,009
-347,693	772,270	-0,038	-0,074
-346,679	-200,000	-0,006	0,063
-345,664	800,000	0,050	-0,123
-344,650	-200,000	-0,001	-0,105
-343,635	112,616	0,105	-0,091
-342,620	-200,000	0,028	-0,090
-341,606	800,000	-0,016	0,033
-340,591	-200,000	0,002	-0,195
-339,577	800,000	0,082	-0,175
-338,562	-118,918	0,084	-0,010
-337,548	393,737	0,052	-0,077
-336,533	784,562	-0,053	0,105
-335,518	82,712	0,068	-0,053
-334,504	398,292	-0,017	-0,026
-333,489	261,129	-0,087	-0,108
-332,475	800,000	-0,056	0,136
-331,460	800,000	-0,045	-0,114
-330,445	292,161	0,047	-0,061
-329,431	-145,724	0,112	-0,007
-328,416	-38,288	0,078	-0,029
-327,402	-60,259	-0,015	0,005
-326,387	-200,000	0,031	0,117
-325,372	84,025	-0,060	0,047
-324,358	44,708	-0,014	-0,009
-323,343	-98,595	-0,104	-0,019
-322,329	-200,000	0,002	0,011
-321,314	563,897	0,016	-0,028
-320,299	-29,269	0,142	0,058
-319,285	67,219	-0,083	-0,061
-318,270	-200,000	0,009	0,052
-317,256	800,000	-0,008	0,024
-316,241	-200,000	-0,024	-0,078
-315,226	-200,000	0,016	0,102
-314,212	-200,000	-0,002	-0,062
-313,197	800,000	-0,017	0,041
-312,183	387,270	-0,034	-0,051
-311,168	-200,000	0,006	-0,067
-310,153	-200,000	0,006	-0,023
-309,139	84,987	-0,160	-0,125
-308,124	182,726	-0,095	-0,101
-307,110	428,072	-0,032	0,050
-306,095	800,000	0,038	-0,088
-305,080	27,201	0,051	0,031
-304,066	-200,000	-0,001	0,031
-303,051	-200,000	0,008	-0,105
-302,037	-10,216	0,099	-0,047
-301,022	627,497	0,023	0,042
-300,008	60,370	-0,096	0,068
-298,993	-200,000	-0,026	0,107
-297,978	510,098	0,036	-0,060
-296,964	552,680	0,017	0,030
-295,949	800,000	-0,053	-0,132
-294,935	457,272	-0,036	-0,057
-293,920	-29,227	-0,168	-0,068
-292,905	-118,577	0,186	-0,023
-291,891	57,637	0,063	0,044
-290,876	179,046	-0,053	-0,056
-289,862	91,458	-0,038	-0,031
-288,847	176,672	-0,048	0,050
-287,832	604,077	-0,005	0,009
-286,818	-200,000	-0,012	0,042
-285,803	66,860	0,069	0,050
-284,789	-200,000	0,009	-0,062
-283,774	152,822	0,051	0,050
-282,759	-200,000	-0,009	0,077
-281,745	-200,000	-0,018	0,234
-280,730	-200,000	-0,020	-0,099
-279,716	130,521	-0,061	-0,056
-278,701	-200,000	-0,011	-0,085
-277,686	-134,364	-0,193	0,017
-276,672	-46,515	0,060	0,021
-275,657	-41,808	-0,074	-0,027
-274,643	104,005	-0,083	0,070
-273,628	-200,000	-0,043	-0,148
-272,613	67,565	0,051	-0,037
-271,599	800,000	0,013	-0,042
-270,584	-200,000	-0,001	-0,042
-269,570	-114,349	0,111	-0,015
-268,555	-56,112	0,139	0,044
-267,540	800,000	-0,043	0,095
-266,526	-200,000	0,001	0,011
-265,511	-200,000	-0,005	0,109
-264,497	-200,000	0,017	-0,082
-263,482	356,316	0,005	0,007
-262,467	-200,000	-0,012	0,067
-261,453	-123,962	0,143	0,016
-260,438	-152,317	-0,139	0,007
-259,424	800,000	-0,024	-0,049
-258,409	-200,000	0,007	0,133
-257,395	-200,000	0,006	-0,104
-256,380	-200,000	-0,007	0,031
-255,365	-72,440	0,064	-0,017
-254,351	545,225	0,072	0,123
-253,336	-83,079	-0,090	0,021
-252,322	-200,000	0,006	-0,147
-251,307	295,047	0,084	-0,110
-250,292	800,000	-0,049	-0,114
-249,278	800,000	-0,021	0,063
-248,263	800,000	0,023	0,067
-247,249	1,379	0,038	-0,019
-246,234	108,822	0,106	0,091
-245,219	165,848	0,045	0,046
-244,205	-200,000	0,009	0,129
-243,190	-104,301	0,059	-0,010
-242,176	-200,000	-0,002	0,037
-241,161	386,699	-0,031	0,046
-240,146	-200,000	-0,013	-0,081
-239,132	85,297	0,018	-0,014
-238,117	-200,000	-0,029	-0,092
-237,103	-200,000	-0,005	-0,057
-236,088	-200,000	0,008	-0,054
-235,073	-200,000	-0,001	0,046
-234,059	102,187	0,116	0,096
-233,044	-60,171	-0,116	0,035
-232,030	67,472	0,086	-0,062
-231,015	800,000	-0,011	0,028
-230,000	-200,000	0,013	-0,082
-228,986	-200,000	-0,001	0,063
-227,971	-78,154	0,103	-0,025
-226,957	9,800	0,080	0,043
-225,942	-200,000	0,011	0,064
-224,927	91,333	0,117	0,094
-223,913	65,177	-0,095	-0,068
-222,898	-200,000	0,005	-0,309
-221,884	-200,000	0,026	-0,106
-220,869	-74,499	-0,038	0,010
-219,855	217,525	0,070	0,080
-218,840	800,000	-0,019	-0,054
-217,825	425,483	0,042	0,064
-216,811	-64,735	-0,136	-0,039
-215,796	-200,000	-0,046	-0,215
-214,782	-200,000	-0,036	-0,132
-213,767	522,467	-0,056	0,095
-212,752	800,000	0,052	0,127
-211,738	512,284	0,036	0,060
-210,723	152,228	-0,084	0,082
-209,709	-200,000	0,027	-0,127
-208,694	-200,000	-0,023	-0,124
-207,679	-147,902	0,115	0,007
-206,665	-3,632	-0,079	0,039
-205,650	-76,948	0,071	-0,017
-204,636	-153,569	0,086	-0,004
-203,621	129,893	0,068	0,062
-202,606	299,495	0,062	-0,082
-201,592	-85,763	-0,140	0,031
-200,577	62,902	-0,164	-0,117
-199,563	-200,000	0,009	0,157
-198,548	279,472	0,017	-0,021
-197,533	-183,263	0,208	-0,003
-196,519	-200,000	0,010	0,183
-195,504	-200,000	-0,010	-0,042
-194,490	800,000	-0,022	-0,060
-193,475	-200,000	-0,048	-0,173
-192,460	292,964	0,104	-0,135
-191,446	-200,000	0,048	0,157
-190,431	-95,938	0,143	-0,027
-189,417	-161,395	-0,043	0,002
-188,402	318,456	0,043	-0,058
-187,387	-200,000	0,009	-0,088
-186,373	-33,564	0,049	-0,019
-185,358	53,926	0,028	-0,019
-184,344	-200,000	-0,018	-0,103
-183,329	319,769	0,027	0,037
-182,315	-200,000	-0,001	0,212
-181,300	-5,566	0,042	-0,020
-180,285	-106,142	-0,047	-0,007
-179,271	-200,000	0,028	-0,189
-178,256	772,929	-0,017	0,033
-177,242	16,203	-0,039	-0,022
-176,227	800,000	0,075	0,219
-175,212	56,703	-0,057	0,040
-174,198	-25,934	0,112	-0,047
-173,183	-200,000	0,021	-0,102
-172,169	-200,000	-0,028	-0,113
-171,154	-200,000	0,031	0,100
-170,139	800,000	-0,006	-0,012
-169,125	800,000	-0,043	-0,093
-168,110	-200,000	-0,009	-0,069
-167,096	-200,000	-0,108	0,000
-166,081	-81,966	0,028	0,006
-165,066	8,824	-0,032	-0,017
-164,052	-200,000	-0,006	-0,086
-163,037	-155,464	0,090	-0,004
-162,023	789,965	0,037	0,073
-161,008	-151,948	0,047	0,002
-159,993	-200,000	0,000	0,025
-158,979	-166,550	0,065	0,002
-157,964	-32,869	0,047	0,019
-156,950	315,596	-0,013	-0,018
-155,935	58,346	0,057	0,040
-154,920	9,816	0,079	0,043
-153,906	50,050	0,132	0,089
-152,891	-116,947	0,082	-0,011
-151,877	110,309	0,044	-0,038
-150,862	157,198	-0,121	-0,119
-149,847	754,258	0,020	-0,040
-148,833	406,369	-0,045	-0,067
-147,818	-136,728	-0,039	-0,003
-146,804	800,000	0,033	-0,087
-145,789	-200,000	0,003	0,029
-144,775	777,260	-0,026	-0,052
-143,760	800,000	0,046	-0,103
-142,745	163,112	0,078	-0,078
-141,731	107,143	-0,100	0,085
-140,716	-200,000	0,021	-0,108
-139,702	270,605	0,097	0,122
-138,687	49,533	-0,075	0,050
-137,672	800,000	-0,029	-0,063
-136,658	-200,000	0,038	-0,167
-135,643	-119,824	0,109	0,013
-134,629	-200,000	-0,012	0,086
-133,614	554,680	0,120	0,206
-132,599	103,945	-0,054	-0,045
-131,585	-47,017	0,077	0,027
-130,570	398,351	-0,038	-0,057
-129,556	-108,269	0,060	0,009
-128,541	562,284	-0,025	0,043
-127,526	-200,000	0,003	0,016
-126,512	78,533	0,123	-0,093
-125,497	529,751	0,064	0,108
-124,483	-200,000	0,020	0,179
-123,468	-200,000	-0,001	0,143
-122,453	-151,246	0,040	0,002
-121,439	800,000	-0,031	-0,093
-120,424	-200,000	0,014	0,144
