DTS Sentinel unit serial number:	SN410029Multiplexer serial number:	ORYXHardware model number:	OX2-SRSoftware version number:	ORYX F/W v4,00 Oryx Data Collector v3.7.2.0data status	okinstallation	BH3 CH2differential loss correction	single-endedforward channel	channel 2reverse channel	N/Adate	2023/12/05time	23:17:28forward acquisition time	300,00reverse acquisition time	0,00gamma	499,1914k internal	0,3194k external	0,3194temperature offset calibration	1,0000default loss term (dB/km)	0,3820temperature slope calibration	1,0000multiplexer offset coefficient	1,0000multiplexer slope coefficient	1,0000fibre end	0,00T internal ref (°C)	9,65T ext. ref 1 (°C)	-5,45T ext. ref 2 (°C)	-5,54length (m)	temperature (°C)	Stokes	anti-Stokes-744,400	-50,823	-0,123	0,042
-743,385	-95,170	-0,177	-0,034
-742,371	621,450	0,010	-0,019
-741,356	195,988	-0,238	0,264
-740,342	-200,000	-0,026	0,088
-739,327	394,690	-0,190	0,290
-738,312	-200,000	0,017	-0,191
-737,298	-126,625	-0,235	0,025
-736,283	-200,000	-0,004	0,040
-735,269	-16,015	-0,233	0,108
-734,254	159,826	0,099	0,100
-733,239	-106,285	-0,381	0,062
-732,225	390,460	0,012	0,018
-731,210	800,000	0,034	0,103
-730,196	-102,673	-0,093	-0,016
-729,181	-168,360	-0,112	-0,003
-728,167	168,720	0,097	0,101
-727,152	-200,000	0,010	-0,050
-726,137	-100,667	-0,024	0,004
-725,123	155,756	-0,090	-0,091
-724,108	-109,475	-0,080	0,012
-723,094	248,847	-0,134	-0,166
-722,079	201,194	-0,047	-0,053
-721,064	347,148	-0,073	0,106
-720,050	18,250	-0,100	-0,058
-719,035	-65,238	0,060	0,018
-718,021	241,979	-0,016	-0,020
-717,006	800,000	-0,029	-0,060
-715,991	39,881	-0,093	-0,060
-714,977	-200,000	-0,015	0,110
-713,962	-102,719	-0,080	-0,014
-712,948	605,195	0,068	0,124
-711,933	-200,000	0,043	0,187
-710,918	-96,742	0,111	-0,021
-709,904	800,000	-0,063	-0,165
-708,889	410,557	-0,084	-0,129
-707,875	800,000	-0,037	0,075
-706,860	-127,329	-0,063	0,007
-705,845	-107,661	0,106	-0,017
-704,831	-200,000	-0,008	-0,114
-703,816	-200,000	-0,021	-0,104
-702,802	143,297	0,089	-0,086
-701,787	230,823	-0,057	-0,069
-700,772	-103,733	-0,109	-0,018
-699,758	18,438	-0,126	0,073
-698,743	-71,395	0,075	0,020
-697,729	-7,446	0,042	-0,021
-696,714	-60,428	0,083	0,026
-695,699	-200,000	-0,003	-0,042
-694,685	-200,000	0,012	-0,106
-693,670	-107,730	0,028	-0,004
-692,656	256,444	0,050	-0,062
-691,641	-157,739	0,067	0,003
-690,627	-88,275	0,083	0,018
-689,612	-200,000	-0,003	0,095
-688,597	-200,000	0,001	-0,102
-687,583	54,771	-0,036	0,026
-686,568	-17,781	-0,107	0,049
-685,554	751,407	-0,021	-0,041
-684,539	-101,783	0,031	-0,005
-683,524	293,332	-0,051	0,068
-682,510	-17,455	0,053	-0,024
-681,495	602,471	-0,031	-0,055
-680,481	729,786	0,026	0,050
-679,466	96,656	0,027	0,022
-678,451	-62,504	0,080	0,024
-677,437	-131,715	0,024	0,002
-676,422	154,483	-0,047	-0,047
-675,408	69,794	0,048	-0,036
-674,393	-92,370	-0,008	-0,002
-673,378	-104,292	-0,068	-0,011
-672,364	-121,167	-0,027	-0,003
-671,349	800,000	0,029	-0,077
-670,335	160,151	0,096	-0,097
-669,320	-54,201	-0,088	0,029
-668,305	109,748	-0,020	0,018
-667,291	299,745	0,051	0,069
-666,276	1,925	-0,060	0,032
-665,262	117,092	0,092	-0,082
-664,247	8,135	0,043	-0,023
-663,232	-200,000	0,003	0,157
-662,218	-120,109	0,080	0,010
-661,203	9,802	-0,083	0,046
-660,189	800,000	-0,065	-0,186
-659,174	35,279	0,048	-0,031
-658,159	-73,810	-0,070	0,018
-657,145	-200,000	0,037	-0,140
-656,130	-148,426	0,146	-0,009
-655,116	800,000	0,041	0,097
-654,101	586,800	0,065	0,117
-653,086	-200,000	0,044	-0,191
-652,072	18,126	0,019	-0,011
-651,057	800,000	-0,061	-0,155
-650,043	800,000	-0,060	-0,161
-649,028	643,382	0,019	0,035
-648,014	152,618	-0,092	0,092
-646,999	479,407	-0,054	0,089
-645,984	42,139	0,052	0,034
-644,970	800,000	0,029	-0,060
-643,955	153,363	-0,026	0,026
-642,941	-200,000	-0,037	-0,135
-641,926	14,926	0,131	0,074
-640,911	-104,368	0,089	-0,015
-639,897	-124,555	0,068	-0,008
-638,882	-93,421	0,056	-0,011
-637,868	800,000	-0,013	0,035
-636,853	-200,000	-0,002	-0,162
-635,838	-200,000	-0,005	-0,095
-634,824	260,483	-0,052	0,066
-633,809	219,682	0,129	0,150
-632,795	-200,000	-0,012	-0,055
-631,780	-66,323	0,102	-0,029
-630,765	-87,174	0,087	0,019
-629,751	-200,000	0,011	0,048
-628,736	382,424	-0,052	0,078
-627,722	-200,000	-0,011	0,059
-626,707	441,397	0,047	0,076
-625,692	-200,000	0,013	0,088
-624,678	214,265	-0,022	0,026
-623,663	-62,154	-0,053	0,016
-622,649	325,679	0,009	-0,012
-621,634	-99,032	-0,203	-0,037
-620,619	460,321	0,059	-0,096
-619,605	-15,941	0,080	0,037
-618,590	102,306	0,146	0,124
-617,576	35,431	0,023	0,015
-616,561	-57,512	-0,081	0,026
-615,546	800,000	0,032	-0,066
-614,532	-200,000	-0,111	0,000
-613,517	498,041	-0,037	-0,062
-612,503	341,617	-0,057	-0,082
-611,488	-81,750	0,075	-0,018
-610,474	235,281	0,079	0,095
-609,459	800,000	0,031	-0,087
-608,444	251,371	-0,032	-0,040
-607,430	-200,000	-0,005	-0,047
-606,415	-41,448	0,036	-0,013
-605,401	131,213	-0,050	-0,046
-604,386	-200,000	0,019	0,124
-603,371	28,424	-0,076	0,047
-602,357	53,944	-0,066	0,046
-601,342	-36,708	0,035	-0,013
-600,328	305,842	0,082	-0,111
-599,313	-122,172	0,104	-0,012
-598,298	222,583	0,020	0,023
-597,284	-200,000	0,017	0,107
-596,269	21,349	-0,063	-0,037
-595,255	800,000	0,042	0,095
-594,240	-42,065	0,042	-0,016
-593,225	-120,551	-0,148	0,018
-592,211	-200,000	0,053	-0,174
-591,196	-113,532	0,151	0,021
-590,182	-200,000	-0,013	0,134
-589,167	-200,000	-0,010	0,047
-588,152	24,922	-0,087	-0,052
-587,138	-62,408	-0,065	0,019
-586,123	54,461	-0,101	-0,070
-585,109	-200,000	0,012	-0,108
-584,094	-142,458	-0,059	0,004
-583,079	-200,000	0,004	0,073
-582,065	72,039	0,108	0,081
-581,050	800,000	0,068	0,148
-580,036	642,993	0,012	-0,022
-579,021	119,187	0,096	-0,086
-578,006	230,860	-0,103	0,122
-576,992	-91,155	0,122	-0,025
-575,977	7,347	-0,017	0,009
-574,963	-200,000	0,001	0,030
-573,948	-73,775	0,099	0,026
-572,934	24,546	0,065	-0,039
-571,919	-200,000	-0,018	0,107
-570,904	-57,428	0,039	-0,012
-569,890	-200,000	0,019	0,121
-568,875	-84,472	-0,025	0,006
-567,861	271,416	0,049	0,063
-566,846	29,672	0,210	0,129
-565,831	800,000	-0,032	0,071
-564,817	-126,030	-0,168	-0,018
-563,802	-51,042	-0,071	0,024
-562,788	-40,979	-0,024	0,009
-561,773	-71,247	0,088	0,024
-560,758	572,040	-0,036	0,064
-559,744	-178,215	0,135	-0,002
-558,729	231,621	-0,070	-0,083
-557,715	116,098	0,038	0,033
-556,700	326,911	-0,090	0,126
-555,685	174,708	-0,061	0,064
-554,671	-9,250	0,119	-0,057
-553,656	-200,000	-0,002	-0,137
-552,642	16,039	0,138	0,079
-551,627	-175,075	0,087	-0,002
-550,612	800,000	-0,054	-0,110
-549,598	434,339	-0,078	0,123
-548,583	-200,000	-0,013	-0,048
-547,569	-27,771	-0,186	-0,078
-546,554	-200,000	-0,004	-0,061
-545,539	-200,000	-0,010	0,067
-544,525	800,000	-0,017	0,036
-543,510	-200,000	0,009	-0,161
-542,496	800,000	0,080	-0,207
-541,481	64,862	-0,120	-0,087
-540,466	-24,544	-0,104	0,045
-539,452	-66,758	0,063	-0,018
-538,437	-200,000	-0,019	-0,112
-537,423	-200,000	0,000	0,035
-536,408	183,352	0,032	-0,034
-535,393	94,753	0,088	0,073
-534,379	18,472	-0,064	-0,037
-533,364	-68,621	-0,076	0,021
-532,350	96,118	0,062	0,051
-531,335	-200,000	0,002	-0,095
-530,321	-64,060	-0,091	-0,027
-529,306	441,336	-0,071	-0,112
-528,291	763,381	-0,021	-0,041
-527,277	800,000	0,028	-0,066
-526,262	151,280	0,058	0,057
-525,248	6,628	-0,044	0,024
-524,233	443,920	-0,037	0,059
-523,218	-29,454	-0,087	0,036
-522,204	-14,748	0,075	-0,034
-521,189	-200,000	-0,005	-0,129
-520,175	-49,786	-0,136	-0,046
-519,160	487,125	0,056	-0,092
-518,145	186,840	0,045	-0,049
-517,131	-200,000	0,019	-0,086
-516,116	292,777	-0,025	0,032
-515,102	-6,518	-0,112	0,055
-514,087	-200,000	-0,022	-0,130
-513,072	-197,874	-0,021	0,000
-512,058	529,509	-0,032	-0,055
-511,043	-18,618	0,065	-0,029
-510,029	80,268	-0,101	0,079
-509,014	467,559	0,018	0,030
-507,999	800,000	-0,036	-0,109
-506,985	-200,000	-0,073	-0,248
-505,970	254,416	0,071	-0,088
-504,956	800,000	0,032	-0,084
-503,941	-125,596	0,146	-0,016
-502,926	-2,177	0,078	0,039
-501,912	-116,410	0,103	0,014
-500,897	69,626	-0,057	-0,043
-499,883	600,895	-0,065	0,117
-498,868	-200,000	0,016	-0,082
-497,853	-45,857	0,077	-0,027
-496,839	745,802	-0,036	0,071
-495,824	-200,000	0,009	0,036
-494,810	16,791	0,154	0,088
-493,795	800,000	0,060	0,147
-492,781	578,890	-0,109	-0,194
-491,766	-200,000	-0,010	-0,115
-490,751	-200,000	0,046	-0,161
-489,737	-163,019	0,062	0,002
-488,722	-200,000	-0,023	0,074
-487,708	-10,188	0,111	0,053
-486,693	-36,632	-0,093	-0,036
-485,678	800,000	-0,037	0,109
-484,664	-200,000	0,020	0,065
-483,649	119,615	-0,055	-0,050
-482,635	-200,000	-0,011	-0,036
-481,620	196,765	-0,087	-0,096
-480,605	-200,000	0,034	0,150
-479,591	210,520	0,044	-0,050
-478,576	224,012	0,057	-0,066
-477,562	-200,000	0,010	-0,039
-476,547	75,442	-0,029	-0,022
-475,532	-143,997	-0,092	0,006
-474,518	-152,850	-0,007	0,000
-473,503	-200,000	0,004	0,099
-472,489	234,648	-0,041	-0,048
-471,474	-176,938	0,058	0,001
-470,459	-74,107	-0,051	0,013
-469,445	-76,666	-0,049	-0,012
-468,430	7,245	0,181	-0,097
-467,416	-113,110	0,134	0,019
-466,401	-24,745	-0,156	0,067
-465,386	381,551	-0,095	0,142
-464,372	-115,048	-0,085	-0,012
-463,357	173,791	-0,136	-0,142
-462,343	-179,427	-0,110	-0,002
-461,328	-8,203	-0,139	-0,067
-460,313	289,037	-0,062	0,081
-459,299	-3,758	0,107	-0,053
-458,284	486,250	0,043	0,071
-457,270	179,167	0,129	-0,137
-456,255	-200,000	-0,038	-0,154
-455,241	-173,410	-0,083	-0,002
-454,226	-132,249	0,080	-0,007
-453,211	-87,086	0,083	-0,018
-452,197	99,233	0,040	0,034
-451,182	-33,499	0,105	0,041
-450,168	548,780	-0,071	-0,122
-449,153	-200,000	0,001	-0,079
-448,138	50,058	-0,081	0,055
-447,124	-59,981	-0,041	0,012
-446,109	-72,642	-0,077	0,020
-445,095	-17,378	0,101	-0,046
-444,080	-200,000	-0,017	0,142
-443,065	800,000	-0,015	0,035
-442,051	-16,528	-0,119	-0,054
-441,036	-36,186	-0,095	-0,037
-440,022	30,831	0,028	-0,017
-439,007	142,106	0,055	0,052
-437,992	148,279	-0,084	-0,082
-436,978	-200,000	0,026	-0,087
-435,963	127,441	0,041	0,038
-434,949	-123,742	-0,031	-0,003
-433,934	5,367	0,074	-0,039
-432,919	5,895	0,038	0,020
-431,905	390,808	0,053	-0,079
-430,890	119,082	0,033	0,029
-429,876	-200,000	0,001	0,061
-428,861	-200,000	0,007	0,064
-427,846	800,000	-0,039	-0,105
-426,832	-177,776	-0,066	-0,001
-425,817	-168,420	0,037	0,001
-424,803	-143,226	-0,107	-0,007
-423,788	-200,000	-0,017	0,135
-422,773	243,909	0,104	0,125
-421,759	-200,000	-0,006	0,151
-420,744	129,951	0,058	-0,054
-419,730	249,333	-0,076	0,093
-418,715	194,221	-0,081	0,088
-417,701	-200,000	-0,027	-0,109
-416,686	-200,000	0,009	0,072
-415,671	624,385	0,069	0,126
-414,657	212,066	0,070	-0,080
-413,642	-10,654	-0,159	0,076
-412,628	91,457	0,005	-0,004
-411,613	-22,664	0,093	0,040
-410,598	308,149	-0,096	0,129
-409,584	-88,277	0,066	0,014
-408,569	-200,000	0,006	-0,107
-407,555	-111,903	0,081	0,012
-406,540	-119,194	0,085	-0,011
-405,525	14,220	-0,070	-0,039
-404,511	295,702	0,125	-0,165
-403,496	155,641	0,088	-0,087
-402,482	-200,000	-0,003	-0,068
-401,467	-98,307	0,025	-0,005
-400,452	170,845	0,046	0,048
-399,438	-22,945	0,016	0,007
-398,423	75,670	-0,127	-0,096
-397,409	569,919	-0,062	-0,108
-396,394	800,000	-0,055	-0,114
-395,379	239,733	-0,078	-0,093
-394,365	344,045	-0,034	0,047
-393,350	-200,000	-0,013	-0,090
-392,336	-200,000	-0,002	0,176
-391,321	94,550	0,092	-0,075
-390,306	755,313	-0,082	-0,160
-389,292	8,013	0,027	-0,014
-388,277	146,603	0,040	-0,039
-387,263	144,180	0,026	0,025
-386,248	281,145	0,099	0,128
-385,233	800,000	0,062	0,123
-384,219	-114,461	-0,112	0,015
-383,204	800,000	0,006	-0,014
-382,190	84,609	-0,100	-0,079
-381,175	-113,874	0,192	0,026
-380,160	326,823	0,107	0,148
-379,146	319,111	-0,020	-0,028
-378,131	256,091	0,021	-0,026
-377,117	800,000	0,036	0,098
-376,102	800,000	0,034	0,071
-375,088	158,849	-0,109	-0,109
-374,073	-200,000	-0,003	0,081
-373,058	-51,492	0,221	0,074
-372,044	20,772	0,028	0,016
-371,029	109,999	-0,072	0,062
-370,015	100,809	-0,052	-0,043
-369,000	-200,000	-0,015	-0,057
-367,985	-80,487	-0,082	0,020
-366,971	-200,000	0,004	-0,055
-365,956	131,773	-0,049	0,045
-364,942	-200,000	0,008	-0,029
-363,927	800,000	0,024	-0,056
-362,912	71,034	-0,065	-0,048
-361,898	-19,025	-0,117	0,052
-360,883	-105,380	-0,044	0,007
-359,869	105,615	-0,107	-0,091
-358,854	432,098	0,039	-0,061
-357,839	-86,876	-0,047	-0,010
-356,825	-200,000	-0,001	-0,004
-355,810	-169,817	0,010	-0,000
-354,796	476,160	-0,025	0,041
-353,781	-112,110	0,062	-0,009
-352,766	484,644	-0,043	-0,071
-351,752	476,296	-0,062	0,101
-350,737	-69,561	0,019	-0,005
-349,723	-17,400	0,154	0,069
-348,708	-200,000	0,005	0,127
-347,693	139,671	-0,180	-0,170
-346,679	-87,535	-0,088	-0,019
-345,664	800,000	0,021	0,052
-344,650	71,667	-0,034	0,026
-343,635	-20,659	0,080	-0,035
-342,620	-141,523	-0,116	-0,008
-341,606	275,159	0,036	0,046
-340,591	-189,564	0,082	0,001
-339,577	-200,000	-0,011	-0,108
-338,562	-200,000	-0,004	0,075
-337,548	800,000	-0,019	-0,048
-336,533	-1,653	-0,038	-0,019
-335,518	-200,000	0,025	0,084
-334,504	-78,643	-0,153	0,037
-333,489	341,813	0,030	-0,042
-332,475	171,409	-0,028	-0,029
-331,460	81,531	-0,106	0,082
-330,445	154,056	0,021	-0,021
-329,431	143,402	-0,035	0,033
-328,416	-1,822	0,118	0,060
-327,402	18,391	0,060	-0,034
-326,387	-78,018	-0,036	0,009
-325,372	-200,000	-0,013	-0,070
-324,358	-200,000	-0,000	0,007
-323,343	551,008	0,051	0,089
-322,329	34,368	0,083	-0,052
-321,314	389,185	0,042	0,062
-320,299	49,038	0,121	0,082
-319,285	-200,000	-0,029	0,143
-318,270	800,000	-0,018	-0,050
-317,256	541,820	0,087	-0,150
-316,241	-200,000	-0,001	-0,023
-315,226	89,283	0,028	0,022
-314,212	380,636	0,011	-0,016
-313,197	15,799	0,034	0,019
-312,183	-59,742	0,078	-0,024
-311,168	-200,000	-0,005	-0,189
-310,153	-200,000	-0,006	-0,079
-309,139	47,033	0,038	0,025
-308,124	60,764	-0,020	0,014
-307,110	-127,949	-0,132	-0,013
-306,095	33,631	0,067	0,042
-305,080	-76,254	-0,103	0,026
-304,066	-147,392	-0,029	-0,002
-303,051	2,500	-0,026	0,013
-302,037	536,305	-0,027	0,046
-301,022	800,000	-0,081	0,186
-300,008	467,293	0,042	0,068
-298,993	800,000	-0,063	0,132
-297,978	-77,240	-0,153	-0,038
-296,964	800,000	0,004	-0,009
-295,949	319,709	-0,060	-0,082
-294,935	196,603	-0,139	-0,152
-293,920	-164,662	0,088	-0,003
-292,905	-200,000	-0,038	0,188
-291,891	-116,634	0,073	0,010
-290,876	-169,741	0,092	0,002
-289,862	209,373	-0,062	-0,070
-288,847	-6,513	0,079	-0,038
-287,832	-68,301	-0,096	0,026
-286,818	280,760	-0,081	0,104
-285,803	45,797	0,045	0,030
-284,789	74,512	0,127	0,095
-283,774	-200,000	-0,007	0,092
-282,759	65,815	0,069	-0,050
-281,745	800,000	-0,017	-0,035
-280,730	-200,000	-0,029	-0,142
-279,716	187,717	0,067	0,072
-278,701	-106,300	0,044	-0,007
-277,686	-200,000	-0,008	0,044
-276,672	25,776	-0,195	-0,116
-275,657	-200,000	-0,015	-0,239
-274,643	-200,000	-0,138	0,000
-273,628	6,529	-0,144	-0,076
-272,613	-193,917	-0,104	0,001
-271,599	611,010	0,060	0,107
-270,584	459,936	0,139	0,223
-269,570	357,222	0,073	0,104
-268,555	-108,591	-0,052	0,008
-267,540	-54,347	-0,032	-0,010
-266,526	515,926	-0,067	-0,112
-265,511	308,873	-0,024	-0,033
-264,497	-180,970	-0,049	-0,001
-263,482	147,583	0,129	0,124
-262,467	800,000	0,015	0,042
-261,453	-200,000	-0,007	0,027
-260,438	57,687	-0,042	-0,030
-259,424	-200,000	0,016	-0,060
-258,409	68,938	0,066	-0,048
-257,395	68,223	0,140	-0,102
-256,380	650,675	-0,053	0,098
-255,365	800,000	-0,013	-0,035
-254,351	-200,000	0,005	-0,092
-253,336	796,581	-0,023	-0,045
-252,322	15,584	-0,090	-0,050
-251,307	516,855	0,015	-0,026
-250,292	-200,000	-0,005	0,153
-249,278	23,228	0,081	-0,047
-248,263	109,523	0,137	-0,118
-247,249	139,561	-0,064	0,061
-246,234	-200,000	-0,002	-0,033
-245,219	-165,097	-0,060	0,002
-244,205	-200,000	-0,011	-0,164
-243,190	-99,331	0,076	0,014
-242,176	714,931	-0,059	0,112
-241,161	-65,315	0,056	-0,016
-240,146	-123,858	-0,157	-0,018
-239,132	800,000	-0,003	-0,008
-238,117	-200,000	0,003	0,037
-237,103	178,971	-0,077	-0,081
-236,088	48,370	0,065	-0,043
-235,073	61,523	-0,057	-0,040
-234,059	-26,697	0,095	-0,039
-233,044	-148,593	-0,034	-0,002
-232,030	800,000	0,049	-0,113
-231,015	-135,463	-0,052	-0,004
-230,000	81,877	-0,063	-0,049
-228,986	236,904	0,100	-0,118
-227,971	-200,000	0,012	0,055
-226,957	-200,000	0,018	0,188
-225,942	295,165	-0,060	-0,078
-224,927	-149,554	-0,063	0,003
-223,913	800,000	0,042	-0,111
-222,898	800,000	-0,050	-0,109
-221,884	-200,000	-0,013	-0,099
-220,869	680,144	0,045	0,083
-219,855	-186,963	0,153	0,001
-218,840	111,260	-0,045	-0,039
-217,825	32,836	0,116	0,071
-216,811	73,175	-0,068	0,051
-215,796	-28,363	-0,164	0,067
-214,782	-200,000	0,001	0,064
-213,767	106,842	0,112	-0,095
-212,752	800,000	-0,015	-0,034
-211,738	714,365	0,029	-0,055
-210,723	285,801	0,054	0,070
-209,709	-118,342	-0,132	-0,017
-208,694	800,000	-0,022	0,067
-207,679	235,602	-0,046	-0,054
-206,665	384,421	0,048	0,071
-205,650	57,416	0,082	0,057
-204,636	312,867	0,062	0,084
-203,621	-200,000	-0,027	-0,131
-202,606	-126,605	0,084	0,009
-201,592	81,361	-0,078	-0,060
-200,577	-119,733	0,096	0,012
-199,563	-200,000	-0,007	0,031
-198,548	-200,000	-0,015	0,108
-197,533	800,000	0,041	0,099
-196,519	800,000	-0,040	0,112
-195,504	194,532	0,040	0,043
-194,490	10,412	-0,090	-0,049
-193,475	208,542	0,033	0,037
-192,460	499,357	0,033	-0,055
-191,446	465,163	0,047	0,076
-190,431	800,000	0,029	0,063
-189,417	241,527	-0,054	0,065
-188,402	156,200	0,082	0,080
-187,387	-200,000	-0,013	-0,065
-186,373	-120,116	-0,217	-0,026
-185,358	-93,500	0,191	0,037
-184,344	-102,777	0,138	-0,023
-183,329	800,000	-0,022	0,046
-182,315	-62,130	0,154	0,045
-181,300	-47,378	-0,024	0,008
-180,285	-115,343	-0,177	0,024
-179,271	-200,000	0,015	0,156
-178,256	550,655	0,080	-0,137
-177,242	-200,000	0,001	0,107
-176,227	118,426	0,088	0,077
-175,212	-118,148	-0,097	0,012
-174,198	-200,000	0,007	0,115
-173,183	-22,284	-0,169	-0,073
-172,169	-200,000	-0,032	-0,106
-171,154	800,000	-0,026	-0,071
-170,139	57,743	0,050	-0,035
-169,125	99,190	0,075	0,062
-168,110	-200,000	0,002	-0,074
-167,096	-200,000	-0,022	-0,108
-166,081	-33,064	0,068	0,027
-165,066	-54,659	0,129	-0,041
-164,052	77,644	-0,065	0,049
-163,037	-200,000	0,004	-0,061
-162,023	-200,000	-0,009	-0,093
-161,008	800,000	-0,039	0,081
-159,993	437,938	0,107	0,167
-158,979	800,000	-0,025	0,077
-157,964	-200,000	0,032	0,116
-156,950	161,533	0,019	0,019
-155,935	298,303	0,023	0,030
-154,920	-80,438	0,118	0,028
-153,906	85,289	-0,086	0,067
-152,891	-71,023	-0,172	0,046
-151,877	-63,966	0,094	-0,027
-150,862	-17,745	0,060	-0,027
-149,847	-169,845	-0,111	-0,003
-148,833	531,643	0,068	0,115
-147,818	-124,603	-0,064	0,007
-146,804	-94,540	0,099	0,019
-145,789	20,154	0,064	-0,037
-144,775	88,384	-0,059	-0,047
-143,760	612,572	-0,062	0,112
-142,745	-200,000	-0,035	-0,118
-141,731	800,000	-0,035	-0,092
-140,716	164,057	0,081	0,081
-139,702	336,824	0,090	0,125
-138,687	258,569	-0,102	0,126
-137,672	-200,000	-0,041	0,151
-136,658	-49,683	-0,113	-0,038
-135,643	-79,272	0,069	0,017
-134,629	-17,744	0,043	0,019
-133,614	800,000	0,057	0,150
-132,599	-135,448	0,019	-0,002
-131,585	513,195	-0,021	0,035
-130,570	-85,718	0,129	-0,028
-129,556	-46,225	-0,033	0,011
-128,541	-60,204	-0,074	0,022
-127,526	-176,175	0,046	-0,001
-126,512	-161,415	0,097	-0,003
-125,497	197,386	0,064	-0,070
-124,483	367,993	0,071	0,102
-123,468	307,940	0,014	0,019
-122,453	-29,542	-0,112	-0,045
-121,439	77,260	-0,074	0,056
-120,424	-200,000	0,016	0,099
-119,410	297,616	0,041	0,054
