DTS Sentinel unit serial number:	SN410029Multiplexer serial number:	ORYXHardware model number:	OX2-SRSoftware version number:	ORYX F/W v4,00 Oryx Data Collector v3.7.2.0data status	okinstallation	BH3 CH2differential loss correction	single-endedforward channel	channel 2reverse channel	N/Adate	2023/12/05time	17:12:28forward acquisition time	300,00reverse acquisition time	0,00gamma	499,1914k internal	0,3192k external	0,3192temperature offset calibration	1,0000default loss term (dB/km)	0,3820temperature slope calibration	1,0000multiplexer offset coefficient	1,0000multiplexer slope coefficient	1,0000fibre end	0,00T internal ref (°C)	10,91T ext. ref 1 (°C)	-3,83T ext. ref 2 (°C)	-3,96length (m)	temperature (°C)	Stokes	anti-Stokes-744,400	90,621	-0,169	-0,138
-743,385	113,695	-0,104	0,092
-742,371	120,977	-0,171	-0,155
-741,356	142,502	-0,144	0,140
-740,342	-63,198	-0,127	-0,038
-739,327	-51,029	-0,350	0,119
-738,312	116,869	-0,132	-0,118
-737,298	15,531	-0,171	0,098
-736,283	-200,000	-0,040	-0,224
-735,269	72,850	-0,210	0,160
-734,254	613,748	0,055	-0,101
-733,239	-82,091	-0,341	-0,081
-732,225	174,056	0,116	-0,122
-731,210	109,252	0,129	0,112
-730,196	505,257	-0,115	-0,195
-729,181	-200,000	-0,001	-0,048
-728,167	655,915	0,051	-0,095
-727,152	-200,000	0,025	-0,108
-726,137	217,013	-0,076	-0,088
-725,123	234,306	0,080	-0,096
-724,108	41,623	0,057	-0,038
-723,094	-36,544	0,014	-0,005
-722,079	464,874	0,062	-0,101
-721,064	-192,748	-0,080	-0,001
-720,050	-69,046	-0,137	0,038
-719,035	-110,567	0,009	-0,001
-718,021	133,782	-0,033	0,031
-717,006	148,733	-0,022	-0,022
-715,991	133,156	-0,086	-0,081
-714,977	-200,000	0,015	-0,201
-713,962	-98,351	-0,045	-0,008
-712,948	800,000	0,030	0,075
-711,933	372,071	-0,082	0,122
-710,918	800,000	-0,041	-0,095
-709,904	-5,939	-0,022	0,011
-708,889	800,000	-0,031	-0,100
-707,875	-115,704	-0,088	0,012
-706,860	-200,000	0,006	0,061
-705,845	228,108	0,062	0,073
-704,831	-200,000	-0,048	-0,173
-703,816	-200,000	-0,003	-0,058
-702,802	36,368	-0,146	0,094
-701,787	115,549	-0,054	-0,048
-700,772	800,000	0,042	0,134
-699,758	-200,000	0,002	-0,126
-698,743	-36,390	0,072	-0,028
-697,729	115,907	0,037	-0,033
-696,714	-39,116	-0,107	-0,041
-695,699	-72,217	-0,077	-0,021
-694,685	34,248	-0,107	0,068
-693,670	-6,946	0,071	-0,035
-692,656	18,273	-0,121	-0,070
-691,641	-76,147	-0,051	-0,013
-690,627	215,021	0,022	0,026
-689,612	-162,377	0,094	0,003
-688,597	437,073	0,021	-0,033
-687,583	458,910	-0,051	-0,082
-686,568	-200,000	0,043	-0,140
-685,554	-200,000	0,024	-0,172
-684,539	-7,613	0,015	0,007
-683,524	-200,000	0,002	0,055
-682,510	40,564	0,109	0,071
-681,495	-0,589	-0,118	-0,061
-680,481	19,948	-0,120	0,070
-679,466	616,809	-0,022	-0,041
-678,451	-200,000	-0,004	-0,053
-677,437	-18,063	-0,090	0,041
-676,422	146,387	0,047	0,046
-675,408	-200,000	0,004	0,134
-674,393	287,728	-0,062	-0,081
-673,378	566,552	-0,056	-0,099
-672,364	-88,575	0,133	-0,028
-671,349	800,000	0,045	0,103
-670,335	210,718	-0,037	-0,043
-669,320	297,648	0,053	-0,070
-668,305	-200,000	0,012	0,091
-667,291	-111,425	-0,055	-0,008
-666,276	300,656	-0,062	0,083
-665,262	-200,000	0,006	-0,076
-664,247	800,000	-0,035	-0,080
-663,232	-200,000	-0,020	-0,138
-662,218	195,666	-0,068	0,075
-661,203	-162,461	-0,056	-0,002
-660,189	614,213	0,039	-0,071
-659,174	800,000	-0,030	-0,071
-658,159	-200,000	-0,010	-0,132
-657,145	99,833	-0,071	-0,059
-656,130	-160,277	0,070	-0,003
-655,116	-200,000	-0,017	0,059
-654,101	158,773	0,097	0,098
-653,086	39,768	-0,120	-0,078
-652,072	59,038	-0,076	-0,054
-651,057	75,711	0,129	-0,099
-650,043	-41,313	-0,125	0,046
-649,028	-200,000	0,001	0,008
-648,014	44,920	-0,026	0,018
-646,999	-200,000	0,007	0,042
-645,984	-119,400	-0,140	0,018
-644,970	-91,684	0,045	-0,009
-643,955	800,000	0,081	-0,183
-642,941	302,129	0,119	-0,160
-641,926	800,000	-0,059	0,119
-640,911	-158,988	0,045	0,002
-639,897	-200,000	-0,014	0,070
-638,882	25,973	0,035	0,021
-637,868	605,957	0,014	-0,025
-636,853	-200,000	0,011	-0,164
-635,838	176,941	0,088	0,093
-634,824	-200,000	0,004	-0,027
-633,809	126,930	0,064	0,059
-632,795	-200,000	-0,006	0,133
-631,780	-200,000	0,018	-0,059
-630,765	657,465	0,050	0,093
-629,751	-134,011	-0,131	0,012
-628,736	-200,000	-0,035	-0,168
-627,722	307,336	0,056	0,076
-626,707	-108,746	0,091	-0,014
-625,692	-200,000	-0,042	0,148
-624,678	800,000	0,015	-0,038
-623,663	724,734	-0,093	-0,181
-622,649	106,701	0,071	-0,061
-621,634	228,761	-0,009	-0,011
-620,619	-59,040	0,047	0,015
-619,605	555,733	0,032	-0,057
-618,590	-75,917	0,054	-0,014
-617,576	394,803	0,074	0,113
-616,561	125,494	-0,064	0,059
-615,546	10,850	-0,093	-0,052
-614,532	670,749	0,025	-0,047
-613,517	-200,000	-0,019	-0,076
-612,503	363,544	-0,032	-0,046
-611,488	573,098	-0,019	-0,033
-610,474	128,582	0,038	-0,036
-609,459	-10,457	-0,088	0,042
-608,444	-79,459	-0,121	-0,029
-607,430	488,285	-0,090	-0,150
-606,415	42,255	0,072	-0,047
-605,401	800,000	-0,010	-0,027
-604,386	42,801	0,008	-0,005
-603,371	42,517	0,102	0,067
-602,357	211,063	-0,015	-0,017
-601,342	-200,000	-0,029	-0,107
-600,328	434,832	-0,035	-0,055
-599,313	-200,000	0,021	-0,310
-598,298	-58,841	-0,058	0,018
-597,284	651,341	0,074	-0,139
-596,269	-121,794	-0,070	-0,008
-595,255	104,090	-0,057	-0,049
-594,240	-200,000	0,008	0,038
-593,225	43,096	-0,097	0,064
-592,211	-74,027	0,138	-0,036
-591,196	5,435	0,143	0,076
-590,182	-200,000	0,001	0,081
-589,167	314,636	0,057	0,078
-588,152	-6,214	0,100	-0,049
-587,138	187,028	-0,048	0,052
-586,123	-91,456	0,027	0,006
-585,109	800,000	0,035	-0,081
-584,094	159,841	0,033	-0,033
-583,079	703,996	0,030	-0,058
-582,065	-76,569	-0,079	-0,020
-581,050	-200,000	0,010	0,048
-580,036	800,000	-0,024	-0,049
-579,021	-200,000	0,024	-0,133
-578,006	-200,000	-0,031	-0,200
-576,992	-17,854	-0,040	-0,018
-575,977	164,399	-0,058	0,059
-574,963	402,720	0,036	0,056
-573,948	800,000	-0,040	0,092
-572,934	-79,597	-0,075	-0,018
-571,919	-158,012	-0,051	0,002
-570,904	-200,000	-0,008	-0,085
-569,890	800,000	-0,036	-0,107
-568,875	-2,451	0,070	-0,035
-567,861	-68,900	-0,043	0,012
-566,846	249,582	0,043	0,052
-565,831	620,885	-0,040	-0,072
-564,817	170,800	0,076	0,079
-563,802	-200,000	0,015	-0,059
-562,788	-200,000	-0,012	-0,039
-561,773	28,425	-0,054	0,033
-560,758	157,140	-0,048	-0,048
-559,744	86,921	-0,068	0,055
-558,729	-200,000	0,028	0,102
-557,715	800,000	0,019	-0,049
-556,700	143,159	0,081	-0,078
-555,685	-200,000	-0,023	0,093
-554,671	800,000	0,014	0,033
-553,656	-200,000	-0,016	0,077
-552,642	-200,000	0,009	0,058
-551,627	-45,804	0,045	-0,016
-550,612	-104,527	-0,106	0,018
-549,598	-43,354	-0,153	-0,056
-548,583	253,311	0,097	-0,121
-547,569	-192,752	-0,096	0,001
-546,554	-200,000	0,010	0,036
-545,539	264,267	0,028	-0,035
-544,525	-95,973	0,124	-0,024
-543,510	108,335	-0,073	-0,063
-542,496	602,351	-0,048	-0,087
-541,481	-200,000	-0,027	-0,092
-540,466	264,086	0,061	-0,077
-539,452	-172,240	-0,116	-0,003
-538,437	403,937	0,062	0,094
-537,423	24,580	0,062	0,037
-536,408	593,474	-0,056	0,101
-535,393	-54,349	-0,136	-0,044
-534,379	473,385	0,012	-0,020
-533,364	-200,000	-0,012	-0,042
-532,350	-133,753	-0,083	0,007
-531,335	-200,000	-0,021	0,079
-530,321	7,949	0,154	0,083
-529,306	-200,000	0,006	0,047
-528,291	800,000	-0,058	0,141
-527,277	-200,000	0,017	0,071
-526,262	-12,602	-0,096	-0,045
-525,248	15,334	0,021	-0,012
-524,233	53,188	-0,085	-0,059
-523,218	-200,000	0,002	-0,039
-522,204	-85,317	-0,166	0,037
-521,189	631,780	0,068	-0,125
-520,175	-200,000	0,039	-0,134
-519,160	-92,370	0,055	0,011
-518,145	800,000	0,056	0,136
-517,131	-138,640	-0,139	0,011
-516,116	16,068	0,037	0,021
-515,102	181,037	-0,049	0,052
-514,087	110,000	0,025	-0,021
-513,072	-6,084	-0,168	-0,083
-512,058	-141,588	-0,052	-0,004
-511,043	56,731	-0,050	-0,035
-510,029	-200,000	0,004	0,158
-509,014	-95,043	0,105	-0,020
-507,999	570,731	0,040	-0,071
-506,985	354,263	0,027	-0,039
-505,970	-67,304	-0,058	-0,016
-504,956	800,000	-0,023	0,064
-503,941	-149,932	0,064	-0,004
-502,926	-64,855	-0,021	-0,006
-501,912	-200,000	0,024	0,081
-500,897	-8,459	0,049	0,024
-499,883	428,139	-0,035	-0,054
-498,868	126,797	-0,042	-0,038
-497,853	131,513	-0,062	-0,058
-496,839	438,590	-0,034	0,053
-495,824	-200,000	0,033	0,140
-494,810	587,551	0,043	0,076
-493,795	-200,000	-0,001	-0,100
-492,781	-68,655	0,063	0,018
-491,766	532,652	-0,100	-0,172
-490,751	161,227	-0,057	-0,058
-489,737	228,314	-0,095	-0,112
-488,722	114,310	-0,027	0,024
-487,708	190,555	0,060	0,065
-486,693	-40,510	0,084	-0,031
-485,678	92,592	-0,085	0,069
-484,664	27,389	-0,194	-0,117
-483,649	44,075	-0,037	0,025
-482,635	582,037	-0,030	-0,054
-481,620	329,453	0,039	-0,055
-480,605	-2,271	0,141	0,071
-479,591	800,000	0,064	0,139
-478,576	11,777	-0,027	-0,015
-477,562	-200,000	-0,030	0,114
-476,547	592,427	0,040	0,072
-475,532	-200,000	-0,116	0,000
-474,518	-125,843	0,056	0,006
-473,503	-200,000	0,007	0,136
-472,489	-200,000	0,020	0,099
-471,474	800,000	0,042	0,107
-470,459	-99,787	-0,131	0,024
-469,445	-200,000	0,015	-0,106
-468,430	-200,000	-0,011	0,049
-467,416	300,878	-0,130	-0,174
-466,401	-76,545	-0,043	-0,011
-465,386	610,076	0,059	-0,107
-464,372	-200,000	-0,037	-0,159
-463,357	-174,197	-0,069	0,001
-462,343	59,329	-0,118	-0,084
-461,328	-43,503	-0,089	-0,032
-460,313	800,000	0,046	-0,094
-459,299	-200,000	-0,020	-0,096
-458,284	125,527	0,050	0,045
-457,270	383,828	-0,017	0,025
-456,255	33,048	-0,127	-0,079
-455,241	45,672	0,092	-0,061
-454,226	79,956	-0,044	0,034
-453,211	-41,738	0,049	0,018
-452,197	-131,482	0,118	0,011
-451,182	-200,000	0,000	0,003
-450,168	-200,000	0,024	0,094
-449,153	-200,000	-0,043	-0,162
-448,138	-89,771	0,043	0,009
-447,124	-55,980	0,080	-0,026
-446,109	240,533	-0,058	0,070
-445,095	800,000	-0,009	0,024
-444,080	-200,000	-0,001	0,006
-443,065	-109,111	-0,084	0,013
-442,051	-51,800	0,115	0,038
-441,036	-16,038	0,065	-0,030
-440,022	800,000	-0,065	-0,143
-439,007	-82,915	0,198	0,046
-437,992	-45,108	-0,139	0,050
-436,978	87,874	0,054	0,043
-435,963	-45,570	0,158	0,056
-434,949	-200,000	0,006	0,044
-433,934	241,549	-0,066	-0,079
-432,919	-75,390	-0,063	-0,016
-431,905	206,666	-0,056	0,063
-430,890	-121,772	0,214	0,025
-429,876	721,834	-0,038	0,073
-428,861	143,967	-0,044	0,042
-427,846	64,275	-0,087	-0,063
-426,832	-200,000	0,065	0,000
-425,817	-168,368	-0,138	0,004
-424,803	-34,434	0,128	0,050
-423,788	-200,000	0,022	-0,100
-422,773	-120,150	0,081	0,010
-421,759	723,311	0,018	-0,034
-420,744	-200,000	0,015	0,069
-419,730	306,369	0,115	0,155
-418,715	-54,815	-0,149	0,048
-417,701	66,845	0,033	0,024
-416,686	66,434	0,092	-0,067
-415,671	-200,000	-0,011	0,163
-414,657	707,083	0,015	-0,028
-413,642	-200,000	-0,014	0,064
-412,628	-155,415	-0,163	0,007
-411,613	44,411	0,081	0,054
-410,598	466,717	0,008	-0,013
-409,584	-200,000	-0,007	-0,022
-408,569	37,259	0,070	-0,044
-407,555	-134,425	0,072	-0,006
-406,540	-99,834	0,051	0,009
-405,525	604,222	0,075	-0,135
-404,511	-200,000	-0,007	-0,088
-403,496	43,048	0,146	0,096
-402,482	126,481	0,089	-0,081
-401,467	633,426	-0,054	-0,098
-400,452	800,000	0,078	0,179
-399,438	125,943	-0,022	-0,020
-398,423	371,316	-0,021	-0,031
-397,409	800,000	0,069	-0,146
-396,394	-34,358	0,080	-0,032
-395,379	29,919	-0,138	-0,084
-394,365	800,000	0,054	0,128
-393,350	800,000	0,062	0,125
-392,336	-200,000	0,021	-0,113
-391,321	121,619	0,101	0,090
-390,306	-73,683	-0,036	-0,009
-389,292	340,312	-0,043	-0,060
-388,277	138,139	0,035	-0,033
-387,263	-29,572	0,154	0,063
-386,248	800,000	0,027	0,064
-385,233	-200,000	-0,032	0,122
-384,219	-200,000	0,008	0,134
-383,204	-143,489	-0,060	-0,004
-382,190	612,558	-0,054	-0,097
-381,175	510,559	-0,026	0,044
-380,160	-200,000	0,010	0,091
-379,146	-108,567	-0,052	-0,008
-378,131	121,142	0,026	0,023
-377,117	-71,933	0,088	-0,023
-376,102	285,113	-0,123	0,160
-375,088	67,449	0,062	-0,046
-374,073	198,573	-0,038	0,041
-373,058	31,263	0,084	0,052
-372,044	-200,000	0,026	0,142
-371,029	236,992	0,014	-0,016
-370,015	-94,038	-0,109	0,021
-369,000	800,000	-0,041	0,082
-367,985	-200,000	0,023	-0,117
-366,971	696,377	-0,101	-0,192
-365,956	10,993	0,066	-0,036
-364,942	-200,000	0,005	-0,073
-363,927	-200,000	-0,018	0,080
-362,912	779,357	-0,077	-0,152
-361,898	-200,000	0,008	-0,141
-360,883	135,343	0,064	-0,060
-359,869	800,000	-0,023	0,063
-358,854	119,477	0,087	0,078
-357,839	29,804	-0,060	0,037
-356,825	751,935	-0,074	0,144
-355,810	40,455	0,076	0,049
-354,796	800,000	-0,038	-0,111
-353,781	-71,798	0,219	-0,058
-352,766	-119,485	-0,130	0,016
-351,752	800,000	-0,036	0,075
-350,737	-200,000	0,004	0,140
-349,723	34,438	0,108	0,068
-348,708	-200,000	-0,004	0,019
-347,693	254,215	-0,050	-0,061
-346,679	75,888	-0,125	0,095
-345,664	-87,114	-0,111	-0,024
-344,650	-200,000	-0,013	-0,068
-343,635	-104,768	0,036	-0,006
-342,620	259,064	-0,018	0,023
-341,606	542,553	0,024	0,042
-340,591	91,587	-0,100	-0,081
-339,577	800,000	0,037	-0,093
-338,562	-27,907	0,093	0,039
-337,548	131,009	-0,028	0,026
-336,533	87,288	0,104	-0,082
-335,518	63,494	0,117	0,084
-334,504	-66,888	-0,076	-0,021
-333,489	-53,633	0,058	-0,019
-332,475	-200,000	-0,018	-0,101
-331,460	86,748	0,042	-0,033
-330,445	-64,680	0,055	0,016
-329,431	-27,715	0,119	0,049
-328,416	391,054	0,083	0,124
-327,402	41,911	-0,038	0,025
-326,387	-200,000	0,008	-0,072
-325,372	-200,000	-0,004	-0,066
-324,358	-92,209	-0,085	0,017
-323,343	341,798	0,054	0,075
-322,329	43,271	-0,027	0,018
-321,314	-134,266	0,142	0,012
-320,299	245,449	0,067	-0,081
-319,285	-147,536	-0,116	-0,007
-318,270	800,000	-0,042	-0,104
-317,256	-39,465	0,131	0,049
-316,241	-63,479	0,052	0,015
-315,226	630,513	-0,031	0,056
-314,212	-200,000	0,002	0,048
-313,197	-200,000	0,036	0,134
-312,183	122,936	-0,006	0,006
-311,168	-200,000	0,001	-0,055
-310,153	-91,861	-0,088	0,018
-309,139	67,298	-0,039	0,028
-308,124	-1,920	0,049	0,025
-307,110	-72,963	-0,085	-0,022
-306,095	-19,330	0,168	0,074
-305,080	60,734	-0,141	0,100
-304,066	-103,979	-0,071	0,012
-303,051	-65,638	-0,009	-0,003
-302,037	-92,974	-0,074	0,015
-301,022	-200,000	-0,031	0,116
-300,008	-200,000	0,010	-0,052
-298,993	-200,000	-0,015	0,068
-297,978	800,000	0,015	0,036
-296,964	-200,000	0,018	0,071
-295,949	37,655	0,087	-0,055
-294,935	420,116	-0,091	-0,139
-293,920	-164,864	0,169	-0,005
-292,905	-38,991	0,061	-0,023
-291,891	662,485	0,019	-0,036
-290,876	13,089	0,065	0,036
-289,862	-56,823	-0,094	0,030
-288,847	-200,000	-0,012	-0,066
-287,832	800,000	0,050	0,120
-286,818	-200,000	0,021	-0,194
-285,803	156,932	0,040	0,040
-284,789	-200,000	0,148	-0,000
-283,774	-99,682	-0,042	0,008
-282,759	156,834	0,060	-0,059
-281,745	-71,671	-0,100	-0,027
-280,730	-200,000	0,015	-0,130
-279,716	84,005	0,037	-0,029
-278,701	800,000	0,006	0,017
-277,686	198,068	-0,110	0,121
-276,672	-123,208	-0,089	0,010
-275,657	724,464	-0,040	0,077
-274,643	125,367	-0,113	-0,102
-273,628	218,836	-0,031	-0,035
-272,613	-200,000	-0,002	-0,095
-271,599	800,000	0,025	0,079
-270,584	75,891	0,071	0,054
-269,570	800,000	0,028	-0,080
-268,555	-117,240	-0,141	-0,018
-267,540	510,081	-0,048	-0,081
-266,526	-71,740	0,059	-0,016
-265,511	-120,545	0,067	-0,008
-264,497	-200,000	-0,027	0,098
-263,482	-120,544	0,060	0,007
-262,467	800,000	-0,057	0,121
-261,453	201,908	-0,011	0,012
-260,438	339,246	-0,080	-0,112
-259,424	14,169	-0,065	0,036
-258,409	-190,606	-0,070	-0,001
-257,395	46,947	0,147	0,098
-256,380	-83,004	-0,229	0,052
-255,365	-25,575	0,020	0,008
-254,351	355,204	-0,088	0,125
-253,336	418,913	0,061	0,093
-252,322	200,236	-0,038	0,042
-251,307	-200,000	-0,026	0,162
-250,292	-129,020	0,172	0,017
-249,278	-200,000	-0,005	-0,018
-248,263	-159,940	0,165	-0,006
-247,249	-200,000	-0,013	0,096
-246,234	-152,159	-0,081	0,004
-245,219	93,870	-0,086	-0,069
-244,205	-80,524	-0,109	-0,026
-243,190	647,716	0,016	0,030
-242,176	800,000	-0,030	-0,068
-241,161	-24,263	0,044	-0,018
-240,146	-200,000	0,003	-0,020
-239,132	-78,967	-0,084	-0,020
-238,117	800,000	-0,036	-0,073
-237,103	7,554	-0,082	-0,044
-236,088	129,732	0,038	0,034
-235,073	531,228	0,094	0,160
-234,059	-68,590	0,098	0,027
-233,044	92,997	0,020	0,016
-232,030	-200,000	-0,012	-0,122
-231,015	800,000	-0,074	-0,175
-230,000	-200,000	-0,001	-0,140
-228,986	221,611	-0,041	0,047
-227,971	348,693	0,028	0,040
-226,957	732,020	0,071	0,137
-225,942	-200,000	-0,005	0,089
-224,927	279,128	0,026	0,034
-223,913	-200,000	0,003	-0,079
-222,898	800,000	-0,029	-0,071
-221,884	-100,986	0,035	-0,006
-220,869	-200,000	-0,007	0,102
-219,855	-9,840	0,094	0,045
-218,840	800,000	0,033	-0,078
-217,825	800,000	-0,070	0,144
-216,811	-200,000	0,003	0,040
-215,796	96,634	-0,058	0,047
-214,782	-200,000	0,002	-0,056
-213,767	-200,000	-0,002	-0,038
-212,752	208,193	0,016	-0,018
-211,738	385,777	0,047	-0,069
-210,723	81,149	0,097	-0,075
-209,709	800,000	-0,012	0,038
-208,694	-200,000	0,007	-0,067
-207,679	14,563	-0,102	0,057
-206,665	-200,000	0,051	0,168
-205,650	-200,000	0,061	0,210
-204,636	424,296	0,085	0,131
-203,621	-91,123	-0,057	-0,012
-202,606	-200,000	0,022	-0,103
-201,592	-69,522	-0,122	-0,033
-200,577	117,149	0,015	0,013
-199,563	-200,000	-0,004	-0,026
-198,548	-107,715	0,092	0,014
-197,533	-200,000	-0,005	-0,080
-196,519	-200,000	-0,016	-0,081
-195,504	-200,000	-0,027	0,179
-194,490	-94,876	-0,062	0,012
-193,475	230,828	0,020	-0,024
-192,460	-89,406	-0,156	0,033
-191,446	-51,995	0,025	0,008
-190,431	-40,308	0,117	0,043
-189,417	800,000	-0,037	-0,096
-188,402	-200,000	0,030	0,140
-187,387	148,411	-0,027	-0,026
-186,373	-200,000	-0,026	-0,092
-185,358	19,679	0,150	-0,086
-184,344	-25,578	0,071	0,030
-183,329	-200,000	0,011	0,084
-182,315	91,097	-0,054	-0,043
-181,300	800,000	-0,046	-0,092
-180,285	-12,918	-0,054	-0,025
-179,271	-0,844	-0,116	-0,058
-178,256	8,345	0,124	0,066
-177,242	384,001	-0,045	-0,066
-176,227	261,924	-0,015	-0,018
-175,212	-200,000	-0,001	-0,039
-174,198	-0,641	-0,136	0,069
-173,183	-36,813	-0,128	0,049
-172,169	-58,132	-0,056	-0,017
-171,154	-158,292	-0,130	0,005
-170,139	-21,474	0,142	-0,061
-169,125	182,984	-0,083	0,087
-168,110	681,761	0,028	0,052
-167,096	-80,091	0,048	-0,011
-166,081	800,000	0,007	0,019
-165,066	800,000	0,035	-0,084
-164,052	800,000	0,012	0,031
-163,037	277,982	-0,010	0,013
-162,023	-200,000	0,031	0,146
-161,008	207,749	0,021	-0,024
-159,993	80,208	0,076	-0,058
-158,979	-130,514	0,033	0,003
-157,964	-4,704	0,080	-0,039
-156,950	56,800	-0,025	-0,018
-155,935	-100,150	0,045	-0,008
-154,920	266,168	0,086	0,107
-153,906	114,880	-0,014	0,012
-152,891	-31,431	0,003	-0,001
-151,877	654,101	-0,077	0,141
-150,862	-200,000	-0,030	0,156
-149,847	-200,000	0,026	0,097
-148,833	-84,778	0,035	-0,008
-147,818	112,441	0,078	0,067
-146,804	-160,183	0,059	-0,002
-145,789	122,158	-0,070	0,062
-144,775	683,746	0,072	-0,135
-143,760	-74,377	-0,077	0,020
-142,745	-12,341	0,086	-0,040
-141,731	566,516	0,060	0,104
-140,716	-44,082	0,139	0,049
-139,702	-142,274	-0,155	0,011
-138,687	-70,429	-0,041	-0,011
-137,672	-200,000	-0,007	0,078
-136,658	-110,867	-0,024	0,003
-135,643	357,139	-0,022	-0,031
-134,629	-10,052	-0,050	0,024
-133,614	96,894	0,153	0,125
-132,599	148,885	-0,061	0,059
-131,585	-200,000	-0,000	-0,096
-130,570	-12,919	-0,078	-0,036
-129,556	-99,200	-0,129	0,023
-128,541	590,502	0,017	-0,030
-127,526	184,717	-0,039	-0,041
-126,512	800,000	0,070	0,156
-125,497	800,000	-0,054	0,148
-124,483	124,800	-0,101	0,090
-123,468	-1,270	0,121	-0,061
-122,453	-25,730	0,006	0,002
-121,439	270,994	0,060	-0,075
-120,424	-200,000	0,001	-0,013
-119,410	-200,000	-0,012	-0,065
