DTS Sentinel unit serial number:	SN410029Multiplexer serial number:	ORYXHardware model number:	OX2-SRSoftware version number:	ORYX F/W v4,00 Oryx Data Collector v3.7.2.0data status	okinstallation	BH3 CH2differential loss correction	single-endedforward channel	channel 2reverse channel	N/Adate	2023/12/05time	14:17:28forward acquisition time	300,00reverse acquisition time	0,00gamma	499,1914k internal	0,3193k external	0,3193temperature offset calibration	1,0000default loss term (dB/km)	0,3820temperature slope calibration	1,0000multiplexer offset coefficient	1,0000multiplexer slope coefficient	1,0000fibre end	0,00T internal ref (°C)	10,81T ext. ref 1 (°C)	-3,18T ext. ref 2 (°C)	-3,36length (m)	temperature (°C)	Stokes	anti-Stokes-744,400	67,329	0,043	-0,032
-743,385	26,320	-0,215	0,131
-742,371	-200,000	0,005	-0,115
-741,356	680,338	-0,125	0,238
-740,342	-37,515	-0,148	-0,057
-739,327	171,483	-0,094	-0,098
-738,312	800,000	0,046	-0,133
-737,298	93,459	-0,221	0,182
-736,283	-200,000	0,001	-0,097
-735,269	68,697	-0,048	-0,036
-734,254	172,797	0,128	-0,134
-733,239	-127,563	-0,313	-0,033
-732,225	431,787	0,040	-0,064
-731,210	-200,000	0,010	0,179
-730,196	-200,000	-0,007	0,030
-729,181	-58,827	-0,114	-0,036
-728,167	-101,860	0,106	-0,018
-727,152	-103,721	0,072	-0,012
-726,137	800,000	0,041	-0,088
-725,123	346,626	-0,114	-0,163
-724,108	800,000	-0,144	-0,353
-723,094	-200,000	-0,010	-0,149
-722,079	201,715	0,020	-0,022
-721,064	96,168	0,058	0,048
-720,050	-39,853	-0,103	0,039
-719,035	204,436	-0,047	-0,053
-718,021	-90,367	-0,055	-0,012
-717,006	70,934	-0,130	-0,098
-715,991	-34,010	-0,110	0,044
-714,977	72,557	0,025	-0,019
-713,962	28,662	-0,048	0,030
-712,948	-192,669	-0,060	-0,000
-711,933	275,593	-0,044	-0,057
-710,918	-140,234	-0,083	-0,006
-709,904	-97,991	-0,078	-0,015
-708,889	46,024	-0,116	-0,078
-707,875	800,000	-0,022	0,057
-706,860	592,493	0,044	0,080
-705,845	-200,000	-0,021	0,131
-704,831	-200,000	0,003	-0,192
-703,816	800,000	0,037	-0,118
-702,802	-68,865	-0,170	0,047
-701,787	-174,426	-0,151	-0,003
-700,772	681,516	0,053	-0,100
-699,758	250,748	-0,043	0,053
-698,743	-200,000	-0,009	-0,030
-697,729	-200,000	0,008	0,040
-696,714	-200,000	-0,017	0,096
-695,699	-31,495	-0,074	0,030
-694,685	-137,950	-0,096	0,008
-693,670	291,374	-0,030	-0,039
-692,656	800,000	0,015	0,038
-691,641	713,448	0,041	-0,080
-690,627	800,000	0,045	0,092
-689,612	-200,000	-0,016	-0,107
-688,597	-114,713	-0,067	-0,009
-687,583	-200,000	-0,004	-0,035
-686,568	4,958	-0,107	-0,057
-685,554	-200,000	-0,020	-0,095
-684,539	-200,000	0,011	0,112
-683,524	-90,531	-0,106	0,022
-682,510	84,519	0,120	0,096
-681,495	-90,064	-0,057	0,012
-680,481	301,492	-0,094	-0,126
-679,466	552,501	0,052	-0,092
-678,451	61,763	0,033	0,024
-677,437	-200,000	-0,018	-0,118
-676,422	-33,212	-0,025	-0,010
-675,408	-200,000	-0,030	0,155
-674,393	800,000	-0,075	0,233
-673,378	800,000	-0,037	-0,080
-672,364	800,000	-0,011	-0,026
-671,349	-108,061	-0,043	-0,007
-670,335	-136,133	-0,026	0,002
-669,320	-200,000	-0,002	-0,021
-668,305	51,913	0,072	-0,050
-667,291	120,718	-0,030	-0,027
-666,276	171,494	0,058	0,061
-665,262	183,508	-0,084	-0,090
-664,247	-158,212	-0,164	0,007
-663,232	-162,518	-0,060	-0,002
-662,218	800,000	-0,074	0,231
-661,203	113,546	0,049	0,043
-660,189	-200,000	0,006	0,070
-659,174	-132,241	0,037	-0,003
-658,159	-9,449	-0,089	0,043
-657,145	-11,555	-0,075	0,036
-656,130	800,000	0,019	-0,046
-655,116	23,864	-0,055	0,033
-654,101	318,531	-0,037	-0,051
-653,086	-200,000	0,008	-0,115
-652,072	-200,000	0,007	0,051
-651,057	-200,000	-0,003	0,081
-650,043	100,288	0,110	-0,093
-649,028	-200,000	0,006	0,048
-648,014	103,745	-0,076	-0,064
-646,999	-200,000	-0,037	0,218
-645,984	-34,240	-0,055	-0,022
-644,970	-200,000	-0,003	-0,136
-643,955	-200,000	-0,003	-0,052
-642,941	84,244	-0,112	-0,089
-641,926	276,069	0,104	0,135
-640,911	-200,000	-0,031	-0,124
-639,897	682,239	-0,050	-0,095
-638,882	-105,289	0,044	0,007
-637,868	-200,000	-0,022	-0,074
-636,853	800,000	0,041	-0,109
-635,838	800,000	-0,058	-0,172
-634,824	-200,000	0,040	-0,137
-633,809	-200,000	-0,018	0,083
-632,795	-6,826	-0,084	-0,041
-631,780	-127,057	-0,181	-0,019
-630,765	-89,341	0,118	0,025
-629,751	800,000	0,017	-0,043
-628,736	332,919	-0,075	-0,106
-627,722	-166,143	-0,131	-0,004
-626,707	-200,000	0,006	0,046
-625,692	249,823	0,031	0,038
-624,678	448,916	-0,043	-0,069
-623,663	615,272	-0,066	-0,120
-622,649	53,559	0,041	0,028
-621,634	-200,000	0,013	0,075
-620,619	-15,320	0,065	-0,030
-619,605	-11,034	0,080	-0,038
-618,590	57,749	-0,005	0,004
-617,576	429,383	0,045	-0,071
-616,561	-15,846	-0,129	-0,059
-615,546	-200,000	-0,011	0,085
-614,532	204,013	-0,099	-0,111
-613,517	-169,240	-0,073	-0,002
-612,503	800,000	-0,063	-0,172
-611,488	-111,465	0,110	0,016
-610,474	14,974	0,079	0,045
-609,459	628,311	0,059	-0,109
-608,444	-200,000	0,017	-0,106
-607,430	-5,139	0,118	-0,059
-606,415	-69,715	-0,148	-0,041
-605,401	-57,316	0,047	-0,015
-604,386	-200,000	0,016	0,066
-603,371	387,639	0,059	0,088
-602,357	-12,299	-0,021	-0,010
-601,342	-78,969	-0,021	-0,005
-600,328	-200,000	0,028	-0,113
-599,313	448,804	-0,046	-0,074
-598,298	766,708	-0,043	0,085
-597,284	727,718	-0,053	0,103
-596,269	289,057	0,048	-0,064
-595,255	800,000	-0,023	0,051
-594,240	-137,823	0,120	-0,010
-593,225	800,000	0,009	-0,018
-592,211	800,000	-0,039	0,087
-591,196	-93,570	0,129	0,026
-590,182	-33,048	-0,028	-0,011
-589,167	-156,046	0,033	-0,001
-588,152	-200,000	0,017	-0,097
-587,138	-200,000	-0,007	0,062
-586,123	-200,000	-0,041	-0,150
-585,109	800,000	0,032	-0,095
-584,094	295,771	-0,050	0,066
-583,079	800,000	-0,035	0,112
-582,065	428,297	0,054	-0,084
-581,050	265,009	0,018	0,023
-580,036	30,204	0,067	-0,041
-579,021	21,172	0,015	-0,009
-578,006	331,592	-0,089	-0,124
-576,992	800,000	-0,058	-0,137
-575,977	57,870	0,082	0,058
-574,963	107,305	-0,076	0,066
-573,948	800,000	0,071	0,142
-572,934	-25,696	0,051	0,022
-571,919	-113,964	-0,086	0,012
-570,904	134,256	-0,045	0,042
-569,890	-116,423	0,158	-0,021
-568,875	800,000	0,032	-0,094
-567,861	207,906	0,066	0,075
-566,846	800,000	0,046	0,118
-565,831	800,000	0,025	0,076
-564,817	44,918	-0,092	-0,061
-563,802	-200,000	-0,016	-0,051
-562,788	-200,000	-0,006	0,057
-561,773	-12,201	0,148	0,070
-560,758	-200,000	0,023	0,164
-559,744	-200,000	-0,007	0,060
-558,729	-25,799	-0,121	-0,052
-557,715	256,111	-0,147	-0,183
-556,700	559,269	0,015	-0,026
-555,685	626,774	0,061	-0,112
-554,671	-95,677	0,068	0,013
-553,656	-200,000	0,011	0,092
-552,642	-68,845	-0,133	0,037
-551,627	-9,883	-0,075	0,036
-550,612	34,131	-0,136	-0,086
-549,598	-200,000	-0,008	-0,204
-548,583	329,658	0,035	-0,048
-547,569	-166,658	-0,083	-0,002
-546,554	800,000	-0,025	-0,065
-545,539	111,331	0,042	-0,036
-544,525	126,554	-0,092	0,084
-543,510	-105,206	0,079	-0,013
-542,496	762,937	0,038	0,074
-541,481	300,809	-0,055	-0,074
-540,466	-200,000	0,004	0,076
-539,452	509,251	0,088	0,149
-538,437	-200,000	-0,013	0,078
-537,423	-2,994	-0,055	-0,028
-536,408	-48,221	0,101	-0,035
-535,393	-130,624	-0,129	-0,012
-534,379	-158,654	0,112	0,005
-533,364	608,636	0,111	-0,202
-532,350	-200,000	0,006	0,019
-531,335	800,000	-0,011	0,024
-530,321	-60,130	-0,088	-0,027
-529,306	196,016	-0,126	-0,139
-528,291	160,840	-0,042	-0,043
-527,277	-140,439	0,170	-0,013
-526,262	-200,000	-0,013	-0,061
-525,248	277,992	0,072	-0,093
-524,233	158,798	0,065	0,065
-523,218	66,583	-0,020	0,015
-522,204	532,322	-0,064	-0,109
-521,189	-200,000	-0,001	0,076
-520,175	-111,891	0,032	0,005
-519,160	-200,000	-0,024	0,138
-518,145	336,128	0,089	-0,126
-517,131	58,463	0,121	-0,085
-516,116	57,767	-0,110	0,078
-515,102	-200,000	-0,012	0,098
-514,087	800,000	0,023	-0,056
-513,072	800,000	-0,042	-0,126
-512,058	485,211	0,051	0,084
-511,043	-200,000	0,006	0,055
-510,029	-119,434	-0,101	0,013
-509,014	155,403	0,050	-0,050
-507,999	78,786	-0,092	-0,071
-506,985	-146,573	-0,073	-0,004
-505,970	94,143	-0,108	0,089
-504,956	-48,561	0,113	-0,039
-503,941	-200,000	-0,014	-0,073
-502,926	54,508	-0,093	0,064
-501,912	252,037	0,121	0,149
-500,897	-17,103	0,049	-0,022
-499,883	800,000	-0,059	-0,135
-498,868	19,029	-0,084	0,049
-497,853	-200,000	-0,024	-0,104
-496,839	-50,259	0,140	-0,047
-495,824	800,000	-0,030	-0,083
-494,810	-110,704	0,114	-0,017
-493,795	550,629	-0,067	0,117
-492,781	366,721	0,038	0,055
-491,766	-68,112	-0,096	-0,027
-490,751	800,000	0,023	-0,051
-489,737	-117,981	0,067	0,009
-488,722	431,045	0,044	-0,068
-487,708	293,177	-0,068	-0,090
-486,693	384,814	-0,067	0,100
-485,678	-200,000	0,009	-0,088
-484,664	-200,000	-0,036	0,146
-483,649	-200,000	0,004	-0,049
-482,635	107,382	0,059	-0,051
-481,620	-200,000	-0,006	-0,051
-480,605	-141,688	0,156	0,011
-479,591	698,836	0,012	0,023
-478,576	-78,218	0,031	0,008
-477,562	-200,000	-0,031	-0,127
-476,547	48,815	-0,027	0,018
-475,532	217,163	-0,031	0,036
-474,518	-31,960	-0,054	-0,022
-473,503	157,347	-0,018	0,018
-472,489	800,000	0,012	0,032
-471,474	-37,434	0,031	0,012
-470,459	-47,343	-0,009	0,003
-469,445	-16,862	0,098	-0,044
-468,430	800,000	-0,031	-0,071
-467,416	44,829	0,106	-0,070
-466,401	459,822	0,020	-0,032
-465,386	-123,039	-0,103	-0,012
-464,372	57,360	-0,059	-0,042
-463,357	-51,676	-0,061	0,020
-462,343	84,513	-0,095	0,075
-461,328	227,304	0,059	-0,069
-460,313	-81,858	0,028	0,007
-459,299	136,704	0,145	0,136
-458,284	800,000	0,052	0,146
-457,270	800,000	-0,006	0,018
-456,255	-200,000	-0,012	-0,158
-455,241	-29,327	-0,056	-0,023
-454,226	800,000	-0,058	-0,134
-453,211	153,350	-0,044	0,044
-452,197	-200,000	0,021	-0,108
-451,182	-200,000	-0,004	0,040
-450,168	-59,235	0,058	-0,018
-449,153	271,728	0,086	0,109
-448,138	-135,178	-0,183	-0,016
-447,124	-200,000	-0,018	-0,109
-446,109	132,054	-0,060	0,055
-445,095	40,766	0,216	0,140
-444,080	129,623	0,140	-0,129
-443,065	5,373	0,054	-0,028
-442,051	-200,000	-0,034	0,112
-441,036	-48,168	0,059	0,020
-440,022	699,582	0,043	0,083
-439,007	386,226	0,078	0,117
-437,992	-45,049	-0,068	0,024
-436,978	603,101	0,037	0,067
-435,963	-24,087	-0,140	0,060
-434,949	800,000	0,028	0,067
-433,934	560,926	-0,064	-0,113
-432,919	185,949	-0,150	-0,161
-431,905	90,673	-0,068	-0,055
-430,890	-1,835	0,099	0,050
-429,876	71,365	0,066	-0,049
-428,861	-200,000	0,005	0,057
-427,846	-200,000	0,001	0,058
-426,832	-51,517	0,161	-0,054
-425,817	99,801	0,054	-0,045
-424,803	545,976	0,057	0,099
-423,788	800,000	0,066	0,154
-422,773	6,721	0,144	0,077
-421,759	800,000	-0,015	0,042
-420,744	693,010	0,020	-0,038
-419,730	-200,000	0,066	-0,210
-418,715	665,873	0,043	-0,080
-417,701	-146,802	-0,082	0,005
-416,686	48,457	0,153	0,103
-415,671	19,249	0,164	0,094
-414,657	95,156	0,086	-0,070
-413,642	-200,000	-0,009	0,043
-412,628	53,651	0,062	-0,043
-411,613	46,404	-0,007	0,004
-410,598	25,758	0,093	-0,056
-409,584	357,495	0,090	-0,130
-408,569	167,311	-0,056	0,057
-407,555	297,087	0,124	0,164
-406,540	106,801	0,106	-0,091
-405,525	652,940	-0,042	0,079
-404,511	81,304	-0,019	0,015
-403,496	679,967	-0,060	-0,112
-402,482	478,538	-0,028	-0,046
-401,467	800,000	-0,047	-0,114
-400,452	16,449	0,106	0,060
-399,438	-200,000	0,006	0,038
-398,423	78,775	0,056	0,043
-397,409	-200,000	-0,008	-0,171
-396,394	423,508	-0,099	-0,154
-395,379	-200,000	0,007	0,121
-394,365	-200,000	0,030	0,123
-393,350	-106,906	0,126	-0,020
-392,336	188,543	-0,146	0,157
-391,321	-200,000	-0,003	-0,018
-390,306	-62,867	-0,189	-0,056
-389,292	-136,493	0,134	0,011
-388,277	800,000	-0,036	-0,111
-387,263	-99,625	0,190	0,034
-386,248	-94,321	-0,059	-0,011
-385,233	-150,540	-0,039	-0,002
-384,219	48,564	0,079	-0,053
-383,204	419,077	-0,046	-0,072
-382,190	-46,610	0,056	-0,020
-381,175	800,000	-0,058	0,135
-380,160	-200,000	0,017	0,064
-379,146	24,686	-0,080	-0,047
-378,131	115,739	-0,139	0,122
-377,117	-200,000	0,025	0,207
-376,102	88,083	-0,093	-0,074
-375,088	800,000	-0,068	0,175
-374,073	90,686	-0,134	0,108
-373,058	-141,087	0,179	0,013
-372,044	-200,000	0,014	0,098
-371,029	-93,235	0,068	-0,013
-370,015	-43,790	-0,128	0,046
-369,000	-64,058	-0,109	0,032
-367,985	-21,981	-0,062	-0,027
-366,971	-85,012	0,077	0,017
-365,956	2,503	0,091	0,047
-364,942	-11,619	0,149	0,070
-363,927	-151,426	-0,069	0,004
-362,912	317,417	-0,064	0,087
-361,898	49,654	0,029	0,020
-360,883	-6,386	0,019	0,009
-359,869	-200,000	-0,001	0,049
-358,854	-123,283	-0,046	-0,005
-357,839	-166,233	-0,067	0,002
-356,825	191,605	0,091	0,099
-355,810	167,558	0,055	0,056
-354,796	-95,373	0,114	0,022
-353,781	-200,000	-0,011	0,071
-352,766	93,260	0,076	-0,062
-351,752	100,328	-0,102	0,085
-350,737	800,000	-0,084	0,190
-349,723	9,927	0,077	0,042
-348,708	35,159	-0,014	-0,009
-347,693	-15,495	-0,085	-0,039
-346,679	760,264	0,045	0,087
-345,664	-66,028	0,063	-0,018
-344,650	-155,120	0,097	0,004
-343,635	-1,722	-0,039	-0,020
-342,620	-20,455	0,087	0,038
-341,606	146,140	0,017	-0,017
-340,591	-200,000	0,006	0,089
-339,577	53,975	-0,120	-0,082
-338,562	800,000	0,024	-0,074
-337,548	275,824	-0,064	0,081
-336,533	-200,000	0,017	0,092
-335,518	10,250	0,071	0,039
-334,504	-122,104	-0,069	-0,008
-333,489	-200,000	-0,018	-0,121
-332,475	-110,111	-0,087	-0,013
-331,460	62,875	-0,121	-0,087
-330,445	800,000	-0,052	-0,131
-329,431	800,000	0,018	0,051
-328,416	800,000	0,032	0,092
-327,402	800,000	0,009	-0,022
-326,387	-34,336	-0,024	0,009
-325,372	-24,803	-0,149	-0,063
-324,358	-200,000	-0,001	0,015
-323,343	-200,000	0,006	0,052
-322,329	-120,867	-0,080	0,010
-321,314	19,727	0,065	-0,037
-320,299	-54,787	0,144	0,046
-319,285	-2,308	-0,094	0,047
-318,270	-200,000	-0,009	-0,050
-317,256	473,299	0,075	-0,122
-316,241	-200,000	0,005	-0,052
-315,226	800,000	-0,022	0,064
-314,212	800,000	-0,043	-0,127
-313,197	189,942	0,021	0,023
-312,183	-54,059	0,087	0,028
-311,168	-200,000	0,018	0,120
-310,153	150,311	-0,079	-0,077
-309,139	-59,105	-0,063	0,019
-308,124	800,000	0,020	-0,046
-307,110	-95,826	0,125	-0,024
-306,095	334,412	0,106	0,147
-305,080	-200,000	0,015	-0,089
-304,066	-12,420	-0,152	-0,071
-303,051	117,030	0,141	0,124
-302,037	-124,288	-0,172	0,019
-301,022	92,419	0,080	0,065
-300,008	-200,000	0,030	0,226
-298,993	800,000	0,071	0,176
-297,978	-200,000	0,035	0,175
-296,964	258,061	-0,074	-0,091
-295,949	-200,000	0,008	0,118
-294,935	-200,000	-0,029	0,097
-293,920	-90,257	0,117	0,024
-292,905	-6,382	0,009	-0,004
-291,891	-200,000	0,004	-0,035
-290,876	-200,000	-0,012	-0,110
-289,862	-146,781	0,081	-0,005
-288,847	199,259	0,092	-0,101
-287,832	3,457	-0,034	0,018
-286,818	-200,000	0,008	-0,069
-285,803	-200,000	-0,004	-0,101
-284,789	800,000	0,035	0,099
-283,774	-114,446	0,061	0,008
-282,759	-0,108	0,069	0,035
-281,745	-68,028	-0,148	-0,041
-280,730	171,493	-0,008	-0,008
-279,716	188,523	0,083	0,089
-278,701	121,916	0,047	0,042
-277,686	-68,523	0,057	0,016
-276,672	800,000	-0,043	0,126
-275,657	-157,484	-0,134	0,006
-274,643	-200,000	-0,039	-0,183
-273,628	800,000	0,012	-0,032
-272,613	234,368	0,047	-0,056
-271,599	430,109	-0,057	0,088
-270,584	800,000	-0,024	0,054
-269,570	-200,000	-0,046	0,209
-268,555	422,673	-0,009	0,014
-267,540	52,403	-0,071	0,048
-266,526	-200,000	-0,040	-0,139
-265,511	-41,592	-0,094	0,034
-264,497	-42,207	0,087	0,032
-263,482	265,454	-0,073	0,091
-262,467	789,951	-0,054	-0,107
-261,453	800,000	0,013	-0,030
-260,438	-200,000	-0,011	-0,041
-259,424	-200,000	-0,028	-0,189
-258,409	-66,893	-0,087	-0,024
-257,395	-120,851	-0,086	0,010
-256,380	-45,467	0,072	-0,025
-255,365	666,458	-0,032	0,060
-254,351	800,000	0,027	0,056
-253,336	-200,000	0,002	0,088
-252,322	104,931	-0,074	-0,063
-251,307	149,361	-0,050	-0,048
-250,292	-200,000	-0,016	0,087
-249,278	-37,211	-0,059	0,023
-248,263	-200,000	0,004	-0,169
-247,249	-56,357	-0,059	-0,019
-246,234	-170,689	0,064	0,002
-245,219	119,795	-0,070	-0,062
-244,205	-200,000	-0,070	-0,000
-243,190	53,562	0,042	0,029
-242,176	-200,000	-0,007	-0,042
-241,161	72,722	-0,062	-0,046
-240,146	-200,000	-0,040	0,144
-239,132	-200,000	-0,017	-0,063
-238,117	703,836	0,034	0,064
-237,103	-200,000	-0,013	-0,113
-236,088	-197,665	0,143	-0,001
-235,073	334,866	0,030	0,041
-234,059	113,714	0,099	-0,086
-233,044	-138,791	-0,127	0,010
-232,030	-73,997	-0,118	-0,030
-231,015	-200,000	-0,019	0,128
-230,000	47,135	0,092	-0,061
-228,986	198,916	-0,077	-0,085
-227,971	-200,000	-0,005	0,103
-226,957	-200,000	-0,020	0,069
-225,942	-116,818	0,150	-0,019
-224,927	209,268	0,084	-0,094
-223,913	-139,231	0,128	-0,010
-222,898	103,270	-0,131	-0,110
-221,884	-143,116	-0,102	0,007
-220,869	-142,917	-0,112	-0,008
-219,855	800,000	0,004	0,011
-218,840	-108,419	0,056	-0,009
-217,825	-167,183	-0,071	-0,002
-216,811	308,048	-0,096	-0,129
-215,796	-200,000	0,033	-0,201
-214,782	15,190	-0,026	0,014
-213,767	170,788	0,022	0,023
-212,752	-200,000	0,027	-0,201
-211,738	-105,214	0,018	0,003
-210,723	173,494	-0,051	-0,052
-209,709	800,000	0,019	0,059
-208,694	-200,000	0,019	0,067
-207,679	4,949	0,042	0,022
-206,665	-200,000	0,018	0,147
-205,650	-43,325	-0,062	-0,022
-204,636	337,621	0,045	0,063
-203,621	-135,184	-0,037	-0,003
-202,606	450,935	-0,082	0,130
-201,592	-78,338	-0,093	-0,023
-200,577	-55,440	-0,083	0,026
-199,563	800,000	0,041	0,089
-198,548	-37,338	0,147	0,056
-197,533	-19,531	0,088	-0,039
-196,519	59,544	0,031	0,022
-195,504	-48,146	-0,079	0,027
-194,490	59,663	0,039	-0,027
-193,475	-94,166	0,043	0,008
-192,460	-200,000	-0,014	0,056
-191,446	800,000	0,031	0,061
-190,431	-200,000	0,018	0,089
-189,417	-5,409	-0,020	-0,010
-188,402	-29,532	0,055	0,022
-187,387	275,840	-0,031	-0,040
-186,373	196,867	-0,027	-0,030
-185,358	324,888	0,046	0,064
-184,344	684,703	0,094	0,175
-183,329	12,494	-0,081	0,045
-182,315	653,239	-0,066	-0,121
-181,300	-200,000	0,010	-0,106
-180,285	56,937	-0,034	-0,024
-179,271	-60,181	-0,106	-0,032
-178,256	45,353	0,043	0,028
-177,242	246,982	0,016	-0,020
-176,227	581,012	0,054	-0,095
-175,212	150,911	-0,105	0,102
-174,198	-200,000	0,014	-0,052
-173,183	-34,823	0,099	0,038
-172,169	79,519	-0,083	0,064
-171,154	-18,506	0,054	0,024
-170,139	11,492	0,064	-0,035
-169,125	-200,000	0,014	-0,118
-168,110	-200,000	-0,024	0,103
-167,096	-138,824	-0,061	0,005
-166,081	301,174	-0,071	0,094
-165,066	241,606	-0,043	0,051
-164,052	-11,924	0,031	-0,014
-163,037	-200,000	0,008	-0,035
-162,023	-200,000	0,033	0,157
-161,008	199,451	-0,076	-0,083
-159,993	130,609	0,056	-0,051
-158,979	188,748	0,046	0,049
-157,964	216,133	0,032	-0,036
-156,950	-30,187	-0,033	0,013
-155,935	108,630	-0,096	-0,082
-154,920	-200,000	-0,038	0,125
-153,906	-26,441	-0,027	-0,011
-152,891	-5,848	0,047	-0,023
-151,877	-82,132	-0,091	0,021
-150,862	474,958	-0,109	-0,176
-149,847	-200,000	-0,000	0,070
-148,833	558,375	-0,071	0,122
-147,818	800,000	0,041	0,099
-146,804	34,291	-0,035	0,022
-145,789	50,438	-0,088	-0,059
-144,775	32,999	-0,151	-0,093
-143,760	-200,000	-0,036	-0,127
-142,745	-147,726	-0,075	-0,004
-141,731	-200,000	0,002	-0,063
-140,716	0,193	0,120	-0,061
-139,702	674,199	-0,052	0,097
-138,687	63,867	-0,085	-0,061
-137,672	800,000	-0,035	0,093
-136,658	23,097	0,056	-0,033
-135,643	-91,498	-0,052	-0,010
-134,629	34,257	-0,115	-0,071
-133,614	80,119	-0,124	0,095
-132,599	-85,930	0,058	-0,013
-131,585	354,272	-0,059	0,084
-130,570	-200,000	-0,001	0,064
-129,556	81,809	-0,069	-0,053
-128,541	111,102	-0,059	-0,050
-127,526	55,110	-0,086	-0,059
-126,512	-70,119	-0,024	-0,007
-125,497	472,823	-0,060	0,096
-124,483	-39,465	0,098	0,036
-123,468	-200,000	0,010	-0,033
-122,453	-200,000	-0,013	-0,075
-121,439	-159,531	0,035	-0,001
-120,424	-200,000	-0,012	0,042
