DTS Sentinel unit serial number:	SN410029Multiplexer serial number:	ORYXHardware model number:	OX2-SRSoftware version number:	ORYX F/W v4,00 Oryx Data Collector v3.7.2.0data status	okinstallation	BH3 CH2differential loss correction	single-endedforward channel	channel 2reverse channel	N/Adate	2023/12/06time	06:57:28forward acquisition time	300,00reverse acquisition time	0,00gamma	499,1914k internal	0,3197k external	0,3197temperature offset calibration	1,0000default loss term (dB/km)	0,3820temperature slope calibration	1,0000multiplexer offset coefficient	1,0000multiplexer slope coefficient	1,0000fibre end	0,00T internal ref (°C)	8,87T ext. ref 1 (°C)	-5,81T ext. ref 2 (°C)	-5,93length (m)	temperature (°C)	Stokes	anti-Stokes-744,400	-200,000	-0,016	-0,079
-743,385	-5,727	-0,343	0,170
-742,371	222,231	0,143	-0,168
-741,356	56,603	-0,182	0,129
-740,342	-156,679	-0,016	0,001
-739,327	-23,516	-0,169	0,074
-738,312	58,468	-0,021	-0,015
-737,298	-34,591	-0,250	-0,099
-736,283	800,000	-0,029	-0,069
-735,269	56,529	-0,148	0,105
-734,254	-13,723	-0,048	0,022
-733,239	-13,220	-0,338	-0,159
-732,225	-200,000	0,032	-0,206
-731,210	424,578	0,037	0,057
-730,196	143,123	-0,112	-0,108
-729,181	185,028	-0,083	-0,090
-728,167	-79,847	-0,066	0,016
-727,152	-200,000	0,009	0,069
-726,137	465,978	0,079	-0,129
-725,123	-75,570	0,068	0,017
-724,108	-83,273	0,087	-0,020
-723,094	-51,855	-0,098	-0,033
-722,079	-59,998	-0,111	-0,034
-721,064	-200,000	-0,010	0,048
-720,050	68,907	-0,067	-0,050
-719,035	-200,000	-0,020	-0,083
-718,021	627,624	0,036	-0,066
-717,006	22,817	-0,121	-0,072
-715,991	202,628	-0,109	-0,122
-714,977	25,502	0,058	-0,035
-713,962	-200,000	-0,017	-0,077
-712,948	800,000	0,043	-0,099
-711,933	320,497	0,063	-0,088
-710,918	800,000	-0,035	-0,085
-709,904	127,772	-0,042	-0,039
-708,889	-12,698	-0,111	-0,052
-707,875	800,000	-0,044	-0,091
-706,860	-200,000	0,063	-0,219
-705,845	697,408	-0,050	-0,097
-704,831	381,214	0,067	0,100
-703,816	800,000	0,045	0,135
-702,802	682,045	0,009	0,017
-701,787	800,000	-0,037	-0,075
-700,772	800,000	-0,013	-0,040
-699,758	122,509	0,060	-0,054
-698,743	8,245	0,218	0,119
-697,729	251,070	-0,016	-0,020
-696,714	-200,000	0,027	0,122
-695,699	142,811	-0,079	-0,076
-694,685	-200,000	0,018	-0,159
-693,670	-200,000	0,004	0,085
-692,656	759,079	-0,022	0,044
-691,641	16,935	0,152	0,087
-690,627	800,000	-0,016	0,050
-689,612	73,731	0,144	0,109
-688,597	6,348	0,051	0,027
-687,583	272,471	-0,012	0,015
-686,568	289,079	0,075	-0,099
-685,554	-200,000	-0,011	-0,052
-684,539	800,000	-0,016	-0,037
-683,524	-200,000	0,002	0,137
-682,510	-200,000	0,023	0,108
-681,495	193,298	-0,063	0,069
-680,481	-200,000	0,017	-0,064
-679,466	800,000	-0,035	-0,111
-678,451	-58,493	0,031	-0,010
-677,437	133,839	-0,063	-0,059
-676,422	218,334	-0,013	0,015
-675,408	-200,000	0,004	0,027
-674,393	-200,000	0,010	0,037
-673,378	-3,714	-0,054	0,027
-672,364	-149,452	-0,056	0,003
-671,349	-70,572	-0,073	-0,020
-670,335	-10,112	-0,077	-0,037
-669,320	-200,000	0,004	-0,021
-668,305	-200,000	0,047	0,160
-667,291	122,244	-0,033	-0,030
-666,276	800,000	-0,014	-0,040
-665,262	800,000	-0,068	-0,157
-664,247	-93,518	-0,053	-0,011
-663,232	800,000	-0,009	0,018
-662,218	218,760	-0,018	0,021
-661,203	187,986	-0,037	-0,040
-660,189	565,122	-0,071	0,125
-659,174	163,985	0,083	-0,085
-658,159	-200,000	-0,015	0,135
-657,145	-200,000	0,012	-0,104
-656,130	562,727	-0,034	0,059
-655,116	270,367	-0,091	-0,116
-654,101	230,942	0,033	0,040
-653,086	800,000	-0,037	-0,112
-652,072	-200,000	0,023	0,095
-651,057	21,700	0,067	-0,039
-650,043	235,869	-0,106	-0,128
-649,028	-97,573	0,045	0,008
-648,014	239,523	-0,078	0,094
-646,999	151,628	0,053	-0,052
-645,984	1,638	-0,050	0,026
-644,970	219,628	-0,043	-0,050
-643,955	-42,243	-0,162	0,060
-642,941	150,099	0,115	-0,113
-641,926	-114,507	-0,098	0,014
-640,911	-200,000	-0,002	-0,015
-639,897	-200,000	-0,004	0,014
-638,882	-200,000	0,006	-0,027
-637,868	-200,000	-0,021	-0,135
-636,853	0,180	-0,042	-0,022
-635,838	217,149	-0,085	-0,098
-634,824	-53,353	-0,028	-0,009
-633,809	-58,403	-0,071	-0,022
-632,795	-200,000	-0,030	0,114
-631,780	624,270	0,046	-0,084
-630,765	-113,774	-0,039	0,005
-629,751	-21,889	0,052	0,023
-628,736	97,761	-0,108	-0,090
-627,722	-200,000	0,013	0,067
-626,707	-200,000	0,004	-0,039
-625,692	224,948	-0,055	-0,064
-624,678	-200,000	0,000	0,013
-623,663	508,112	0,096	0,163
-622,649	163,379	-0,128	-0,131
-621,634	-200,000	-0,045	-0,161
-620,619	800,000	-0,029	-0,071
-619,605	33,103	-0,079	0,049
-618,590	800,000	0,050	0,114
-617,576	-200,000	0,003	-0,073
-616,561	-186,670	0,059	0,001
-615,546	-85,083	-0,066	-0,015
-614,532	-43,036	-0,049	0,018
-613,517	47,264	-0,063	0,042
-612,503	-200,000	-0,022	0,166
-611,488	22,889	0,037	0,022
-610,474	-90,598	0,099	0,021
-609,459	329,181	0,094	0,131
-608,444	-6,429	-0,063	0,031
-607,430	-200,000	0,010	0,091
-606,415	-32,753	-0,142	0,057
-605,401	33,061	-0,030	0,018
-604,386	-200,000	0,160	0,000
-603,371	149,814	0,048	-0,047
-602,357	-147,860	-0,008	-0,000
-601,342	141,025	-0,084	-0,080
-600,328	27,141	0,057	-0,035
-599,313	800,000	-0,022	-0,051
-598,298	141,154	0,063	-0,060
-597,284	238,252	0,072	0,087
-596,269	-200,000	-0,019	-0,083
-595,255	-156,855	0,034	-0,001
-594,240	38,153	-0,028	-0,018
-593,225	800,000	-0,090	-0,182
-592,211	-44,570	-0,133	0,048
-591,196	98,896	-0,015	0,012
-590,182	-102,823	0,059	-0,010
-589,167	-200,000	0,046	0,159
-588,152	-200,000	-0,007	0,089
-587,138	-33,917	-0,111	0,044
-586,123	-12,974	-0,049	-0,023
-585,109	-77,894	-0,157	0,039
-584,094	-44,586	0,097	-0,035
-583,079	6,034	0,097	0,052
-582,065	-200,000	0,002	0,119
-581,050	-65,806	0,088	0,025
-580,036	-81,701	-0,109	0,026
-579,021	118,862	-0,089	0,079
-578,006	-200,000	-0,013	0,146
-576,992	-200,000	0,001	-0,045
-575,977	47,438	0,032	-0,022
-574,963	-157,717	0,103	0,004
-573,948	225,732	0,071	0,083
-572,934	-200,000	-0,008	0,030
-571,919	348,610	-0,064	-0,092
-570,904	800,000	-0,041	-0,109
-569,890	-200,000	0,016	-0,154
-568,875	-200,000	0,005	-0,026
-567,861	91,390	0,046	-0,037
-566,846	149,476	0,005	-0,005
-565,831	65,241	0,067	0,049
-564,817	13,783	0,067	-0,037
-563,802	800,000	-0,008	0,025
-562,788	-200,000	-0,006	-0,110
-561,773	-16,032	-0,078	-0,036
-560,758	-200,000	-0,017	0,138
-559,744	111,687	0,039	0,034
-558,729	-200,000	-0,007	0,065
-557,715	62,603	-0,079	0,057
-556,700	2,014	-0,121	-0,063
-555,685	-200,000	0,016	-0,091
-554,671	168,893	-0,010	0,010
-553,656	-28,376	0,166	0,069
-552,642	146,112	-0,037	0,036
-551,627	-200,000	0,015	-0,069
-550,612	-200,000	-0,002	0,017
-549,598	52,817	-0,088	0,061
-548,583	800,000	0,020	0,041
-547,569	-91,528	0,127	0,026
-546,554	25,091	0,039	0,024
-545,539	-200,000	-0,003	-0,162
-544,525	800,000	-0,011	0,028
-543,510	22,243	-0,080	0,047
-542,496	309,567	-0,094	-0,128
-541,481	-70,587	0,079	0,022
-540,466	251,652	0,010	0,012
-539,452	488,992	-0,080	0,133
-538,437	-7,434	0,052	0,026
-537,423	800,000	-0,013	-0,039
-536,408	3,597	0,055	0,029
-535,393	-200,000	0,009	-0,236
-534,379	-200,000	0,009	-0,077
-533,364	140,055	-0,051	-0,049
-532,350	217,092	0,062	-0,071
-531,335	-200,000	-0,026	-0,200
-530,321	121,439	-0,050	-0,045
-529,306	800,000	0,017	-0,051
-528,291	-58,812	0,111	-0,034
-527,277	-200,000	-0,053	-0,178
-526,262	-20,808	-0,036	0,016
-525,248	-200,000	0,037	0,129
-524,233	97,572	0,102	0,085
-523,218	800,000	0,016	0,044
-522,204	160,391	-0,026	0,026
-521,189	-200,000	-0,010	-0,104
-520,175	800,000	0,066	-0,136
-519,160	800,000	-0,056	-0,127
-518,145	77,899	0,029	-0,022
-517,131	-200,000	-0,022	0,102
-516,116	59,131	0,019	-0,013
-515,102	98,562	0,054	0,045
-514,087	-18,686	-0,019	0,008
-513,072	142,577	0,030	-0,029
-512,058	77,029	-0,120	0,092
-511,043	-108,512	-0,172	0,026
-510,029	-153,592	0,056	0,003
-509,014	65,093	0,092	0,067
-507,999	49,153	-0,087	-0,059
-506,985	-200,000	-0,014	0,056
-505,970	-114,230	-0,075	0,010
-504,956	0,617	-0,095	-0,049
-503,941	41,000	0,100	0,065
-502,926	-200,000	-0,004	0,059
-501,912	-120,411	0,144	0,018
-500,897	212,824	-0,042	-0,048
-499,883	800,000	0,014	0,045
-498,868	58,487	-0,036	0,025
-497,853	-147,561	-0,123	0,007
-496,839	-21,768	-0,047	0,020
-495,824	3,367	0,039	-0,020
-494,810	-119,508	0,135	-0,017
-493,795	527,168	0,046	0,079
-492,781	-130,843	-0,073	-0,007
-491,766	124,955	-0,099	-0,090
-490,751	58,513	-0,072	-0,051
-489,737	-200,000	0,002	-0,012
-488,722	-90,362	0,120	0,025
-487,708	-179,992	-0,027	-0,000
-486,693	23,122	-0,065	-0,039
-485,678	-200,000	-0,011	0,160
-484,664	-200,000	-0,011	-0,046
-483,649	158,865	0,025	0,025
-482,635	800,000	0,027	0,064
-481,620	-166,176	0,185	0,006
-480,605	181,903	-0,030	0,032
-479,591	32,000	0,036	0,022
-478,576	-200,000	0,002	0,113
-477,562	-73,980	-0,050	0,013
-476,547	-200,000	-0,015	-0,057
-475,532	800,000	0,022	-0,044
-474,518	-200,000	-0,027	0,104
-473,503	800,000	0,050	-0,104
-472,489	-115,476	0,033	-0,004
-471,474	-110,589	-0,099	-0,015
-470,459	192,649	-0,025	-0,027
-469,445	688,596	-0,041	0,077
-468,430	18,952	0,018	0,010
-467,416	-22,223	0,118	-0,051
-466,401	118,847	0,011	0,010
-465,386	160,657	-0,067	0,067
-464,372	290,987	0,025	0,033
-463,357	49,764	-0,019	0,013
-462,343	53,000	-0,066	-0,046
-461,328	49,748	-0,003	-0,002
-460,313	84,987	0,068	0,053
-459,299	-200,000	0,009	-0,164
-458,284	247,231	0,026	0,032
-457,270	-200,000	0,003	0,030
-456,255	800,000	-0,029	0,071
-455,241	800,000	0,051	0,147
-454,226	729,682	-0,017	0,033
-453,211	-200,000	-0,036	-0,117
-452,197	800,000	-0,033	0,092
-451,182	-200,000	-0,007	-0,029
-450,168	88,242	0,044	-0,035
-449,153	105,913	-0,103	0,087
-448,138	96,242	0,087	-0,072
-447,124	-51,820	0,062	-0,021
-446,109	-41,379	-0,044	-0,016
-445,095	21,932	0,043	-0,025
-444,080	568,470	-0,074	0,130
-443,065	800,000	0,030	0,094
-442,051	30,921	0,024	0,015
-441,036	800,000	-0,037	-0,081
-440,022	-200,000	-0,009	0,035
-439,007	-57,334	-0,064	-0,020
-437,992	-200,000	-0,011	0,185
-436,978	87,251	0,026	0,020
-435,963	104,788	0,128	0,109
-434,949	-200,000	-0,001	0,069
-433,934	-200,000	0,007	0,096
-432,919	-138,495	0,079	0,006
-431,905	-63,966	0,152	0,045
-430,890	226,298	-0,047	0,054
-429,876	332,510	-0,065	0,090
-428,861	331,373	-0,035	-0,049
-427,846	81,967	0,104	-0,081
-426,832	195,375	0,018	0,019
-425,817	-50,125	-0,134	-0,045
-424,803	92,812	0,047	0,038
-423,788	-75,666	-0,097	0,025
-422,773	489,197	0,046	0,076
-421,759	-200,000	-0,002	-0,079
-420,744	-81,043	-0,135	-0,032
-419,730	88,855	-0,049	0,039
-418,715	78,796	0,045	-0,035
-417,701	89,970	-0,060	0,048
-416,686	134,955	-0,014	-0,013
-415,671	375,944	-0,025	0,037
-414,657	127,614	0,066	-0,060
-413,642	52,843	0,073	-0,050
-412,628	190,982	0,043	-0,047
-411,613	-32,796	0,113	-0,045
-410,598	-200,000	0,008	-0,055
-409,584	-117,227	0,119	-0,015
-408,569	-200,000	-0,008	0,025
-407,555	-135,659	0,121	0,010
-406,540	189,587	-0,031	0,034
-405,525	800,000	0,038	-0,115
-404,511	669,248	-0,074	0,138
-403,496	800,000	-0,048	-0,106
-402,482	-190,693	0,090	0,001
-401,467	184,743	-0,029	-0,030
-400,452	742,748	0,048	0,093
-399,438	-200,000	-0,017	0,144
-398,423	-9,583	-0,047	0,023
-397,409	367,374	-0,042	0,062
-396,394	315,874	0,072	-0,098
-395,379	675,326	-0,015	0,028
-394,365	-56,664	0,138	0,044
-393,350	57,760	-0,077	-0,054
-392,336	132,144	-0,068	0,063
-391,321	129,217	0,075	-0,069
-390,306	-63,251	-0,104	-0,031
-389,292	-200,000	0,031	-0,124
-388,277	281,482	-0,040	0,051
-387,263	614,537	-0,030	-0,054
-386,248	220,721	0,127	0,147
-385,233	-200,000	-0,011	0,164
-384,219	269,962	-0,083	-0,105
-383,204	-13,141	-0,064	-0,030
-382,190	124,803	-0,031	-0,028
-381,175	-5,174	0,060	-0,029
-380,160	-24,560	0,059	0,025
-379,146	-26,679	-0,097	-0,041
-378,131	-200,000	-0,029	0,112
-377,117	-24,060	0,064	-0,027
-376,102	183,382	-0,039	-0,042
-375,088	309,450	0,030	-0,040
-374,073	523,056	-0,080	0,135
-373,058	800,000	0,025	-0,054
-372,044	-200,000	0,018	0,144
-371,029	-140,697	0,113	0,008
-370,015	-17,315	-0,047	-0,021
-369,000	-2,306	0,106	-0,053
-367,985	-20,896	0,007	0,003
-366,971	186,210	-0,061	-0,065
-365,956	-200,000	0,043	0,184
-364,942	-200,000	-0,025	0,084
-363,927	105,936	-0,055	0,047
-362,912	800,000	0,052	0,151
-361,898	-125,890	0,074	-0,008
-360,883	-104,111	-0,148	-0,024
-359,869	294,349	-0,039	0,051
-358,854	39,388	-0,045	0,029
-357,839	-105,961	0,115	-0,018
-356,825	-175,169	-0,120	-0,002
-355,810	800,000	0,034	0,095
-354,796	-200,000	0,018	-0,059
-353,781	218,337	-0,087	-0,100
-352,766	-85,205	0,031	-0,007
-351,752	800,000	0,063	-0,158
-350,737	413,398	-0,070	-0,107
-349,723	367,438	0,066	0,097
-348,708	-4,867	0,092	-0,045
-347,693	-200,000	-0,011	0,039
-346,679	130,931	-0,124	0,114
-345,664	-8,696	0,102	-0,049
-344,650	140,910	0,115	-0,109
-343,635	-64,471	0,159	0,046
-342,620	-200,000	-0,008	-0,100
-341,606	-200,000	-0,007	-0,117
-340,591	66,816	0,049	0,036
-339,577	-11,831	-0,070	0,033
-338,562	-200,000	-0,007	-0,040
-337,548	17,007	-0,073	0,041
-336,533	153,963	0,068	0,067
-335,518	800,000	-0,055	0,130
-334,504	-200,000	0,007	0,089
-333,489	151,197	-0,060	-0,059
-332,475	-200,000	0,004	-0,079
-331,460	-43,891	0,111	0,040
-330,445	800,000	-0,074	-0,179
-329,431	-200,000	0,002	0,021
-328,416	42,402	0,079	-0,052
-327,402	-132,509	0,098	-0,009
-326,387	-3,988	0,034	0,017
-325,372	-144,959	0,062	0,004
-324,358	735,876	-0,054	0,104
-323,343	-150,342	0,076	0,004
-322,329	-86,296	-0,133	0,029
-321,314	510,413	-0,024	-0,040
-320,299	-143,166	0,084	-0,006
-319,285	-200,000	-0,003	0,049
-318,270	-200,000	-0,022	0,127
-317,256	-149,612	-0,051	0,003
-316,241	20,010	0,136	-0,078
-315,226	46,579	-0,083	-0,055
-314,212	116,973	0,143	0,126
-313,197	-200,000	0,026	0,198
-312,183	-29,993	0,113	0,046
-311,168	-200,000	-0,013	-0,131
-310,153	-131,495	0,019	-0,002
-309,139	21,509	-0,097	0,056
-308,124	-200,000	-0,006	0,129
-307,110	800,000	-0,006	0,019
-306,095	422,282	0,031	0,048
-305,080	-200,000	-0,019	0,081
-304,066	73,711	-0,036	-0,027
-303,051	-200,000	-0,023	-0,169
-302,037	-32,690	0,231	0,092
-301,022	42,803	-0,071	-0,046
-300,008	800,000	-0,016	0,036
-298,993	-200,000	0,008	-0,038
-297,978	43,491	-0,072	-0,047
-296,964	167,555	0,097	-0,099
-295,949	-94,825	-0,028	0,005
-294,935	49,034	0,008	-0,006
-293,920	515,850	-0,115	0,192
-292,905	665,398	0,042	-0,077
-291,891	800,000	0,027	0,071
-290,876	-200,000	0,007	-0,082
-289,862	18,062	-0,063	0,036
-288,847	580,174	0,069	-0,121
-287,832	-200,000	-0,005	0,015
-286,818	-34,221	0,077	0,030
-285,803	200,904	0,034	0,038
-284,789	800,000	0,061	0,129
-283,774	-18,096	0,074	0,033
-282,759	573,719	-0,040	-0,071
-281,745	-41,079	-0,123	0,045
-280,730	105,607	-0,085	-0,072
-279,716	-79,381	-0,038	-0,009
-278,701	-135,083	0,055	0,005
-277,686	-200,000	0,015	0,089
-276,672	275,126	-0,069	0,087
-275,657	800,000	0,022	-0,066
-274,643	-41,575	-0,113	0,041
-273,628	800,000	-0,054	-0,136
-272,613	-200,000	-0,010	0,080
-271,599	800,000	-0,022	0,045
-270,584	-48,614	-0,070	0,024
-269,570	800,000	-0,057	0,117
-268,555	-200,000	-0,018	0,093
-267,540	-200,000	-0,031	-0,129
-266,526	-200,000	-0,001	-0,013
-265,511	-13,290	-0,137	-0,063
-264,497	-151,327	0,153	0,008
-263,482	139,988	0,089	-0,084
-262,467	-200,000	-0,013	0,068
-261,453	63,439	-0,134	-0,096
-260,438	-27,414	0,031	-0,013
-259,424	800,000	-0,062	-0,140
-258,409	-109,687	-0,119	0,018
-257,395	-139,360	0,116	0,009
-256,380	800,000	-0,044	-0,111
-255,365	86,385	-0,015	0,012
-254,351	-7,370	0,121	-0,059
-253,336	135,267	-0,080	0,074
-252,322	136,190	0,036	-0,034
-251,307	-200,000	-0,018	-0,139
-250,292	258,045	0,021	0,026
-249,278	-78,499	0,104	0,025
-248,263	11,428	0,079	0,043
-247,249	654,891	-0,049	-0,090
-246,234	-1,162	-0,106	0,053
-245,219	610,310	0,015	-0,027
-244,205	178,001	-0,093	0,097
-243,190	-200,000	0,022	-0,076
-242,176	-200,000	-0,002	0,078
-241,161	-200,000	0,003	0,085
-240,146	-200,000	0,021	0,077
-239,132	-113,395	-0,097	0,013
-238,117	800,000	-0,037	-0,084
-237,103	-43,093	-0,081	0,029
-236,088	7,277	0,102	0,054
-235,073	409,462	0,054	0,082
-234,059	171,089	0,031	-0,032
-233,044	90,361	0,155	0,124
-232,030	-13,564	0,107	-0,049
-231,015	19,946	-0,099	0,057
-230,000	242,594	-0,036	-0,043
-228,986	-109,054	-0,149	-0,022
-227,971	-200,000	-0,021	-0,066
-226,957	143,703	-0,081	0,077
-225,942	800,000	0,035	-0,108
-224,927	-117,628	-0,089	0,011
-223,913	-200,000	-0,023	-0,150
-222,898	439,289	-0,090	-0,141
-221,884	275,642	-0,043	-0,055
-220,869	336,996	0,117	0,163
-219,855	-140,646	-0,195	-0,014
-218,840	132,509	0,048	0,044
-217,825	-74,891	-0,024	0,006
-216,811	542,012	-0,016	-0,028
-215,796	-23,855	-0,047	-0,020
-214,782	430,304	0,055	0,085
-213,767	292,431	0,058	0,076
-212,752	-200,000	-0,009	-0,045
-211,738	497,443	-0,027	-0,044
-210,723	12,145	-0,075	0,041
-209,709	-108,775	-0,025	-0,004
-208,694	13,715	-0,028	-0,015
-207,679	524,730	0,076	-0,128
-206,665	256,391	0,044	-0,054
-205,650	72,680	0,141	-0,105
-204,636	800,000	-0,032	-0,092
-203,621	-41,232	0,039	0,014
-202,606	456,755	-0,038	-0,061
-201,592	-200,000	0,015	-0,169
-200,577	278,740	0,074	-0,094
-199,563	19,531	0,079	-0,045
-198,548	-200,000	0,043	0,164
-197,533	532,278	-0,051	-0,086
-196,519	257,945	-0,075	-0,092
-195,504	-200,000	0,024	-0,124
-194,490	-125,021	0,098	-0,011
-193,475	-101,066	-0,107	-0,018
-192,460	-200,000	-0,022	0,082
-191,446	-60,977	0,102	-0,030
-190,431	-38,431	-0,023	0,008
-189,417	800,000	0,040	0,120
-188,402	-53,557	0,041	0,013
-187,387	-73,421	-0,153	0,039
-186,373	-200,000	-0,009	-0,102
-185,358	666,394	0,016	-0,030
-184,344	94,381	0,119	0,096
-183,329	-174,664	-0,072	0,001
-182,315	72,787	0,075	-0,056
-181,300	800,000	0,021	-0,060
-180,285	-200,000	0,025	-0,144
-179,271	108,214	-0,033	-0,028
-178,256	794,276	0,019	-0,038
-177,242	36,568	0,130	-0,082
-176,227	-200,000	0,000	-0,091
-175,212	584,549	0,051	-0,090
-174,198	800,000	-0,065	-0,146
-173,183	68,951	0,075	0,055
-172,169	331,105	0,044	-0,061
-171,154	748,249	0,048	-0,092
-170,139	-200,000	-0,018	-0,097
-169,125	225,059	0,045	-0,052
-168,110	-200,000	-0,016	0,080
-167,096	330,063	-0,124	0,171
-166,081	-26,153	0,055	0,023
-165,066	-200,000	-0,016	-0,067
-164,052	-100,778	-0,027	0,005
-163,037	-200,000	0,001	0,078
-162,023	-200,000	-0,022	0,147
-161,008	-3,172	0,114	0,056
-159,993	-200,000	0,013	0,113
-158,979	-47,657	-0,051	0,018
-157,964	-200,000	0,028	-0,187
-156,950	-200,000	-0,009	-0,132
-155,935	-79,525	0,177	0,042
-154,920	-12,770	-0,052	-0,024
-153,906	-200,000	-0,001	0,057
-152,891	399,103	-0,017	0,025
-151,877	-200,000	0,013	-0,132
-150,862	458,313	0,071	-0,112
-149,847	115,305	-0,052	0,045
-148,833	147,602	0,021	-0,020
-147,818	-200,000	0,008	0,155
-146,804	202,111	-0,064	-0,070
-145,789	401,366	0,023	-0,035
-144,775	-200,000	0,012	-0,110
-143,760	65,358	0,022	-0,016
-142,745	495,221	0,088	-0,144
-141,731	466,177	-0,066	0,106
-140,716	353,395	0,068	-0,096
-139,702	-106,504	0,092	0,015
-138,687	73,423	-0,037	-0,028
-137,672	800,000	0,018	0,041
-136,658	491,867	0,025	-0,041
-135,643	220,754	-0,115	-0,131
-134,629	197,872	0,086	-0,094
-133,614	-200,000	0,011	-0,146
-132,599	-49,471	0,148	0,050
-131,585	-69,392	0,087	0,024
-130,570	-200,000	0,012	-0,049
-129,556	-200,000	-0,018	0,112
-128,541	24,048	-0,134	0,078
-127,526	-86,904	0,073	0,016
-126,512	-200,000	-0,002	0,067
-125,497	339,061	0,026	-0,036
-124,483	-116,803	-0,177	0,023
-123,468	634,088	0,029	-0,052
-122,453	-200,000	-0,019	0,108
-121,439	-200,000	-0,002	-0,090
-120,424	-200,000	0,014	-0,129
-119,410	-200,000	0,039	0,144
