DTS Sentinel unit serial number:	SN410029Multiplexer serial number:	ORYXHardware model number:	OX2-SRSoftware version number:	ORYX F/W v4,00 Oryx Data Collector v3.7.2.0data status	okinstallation	BH3 CH2differential loss correction	single-endedforward channel	channel 2reverse channel	N/Adate	2023/12/05time	18:52:28forward acquisition time	300,00reverse acquisition time	0,00gamma	499,1914k internal	0,3193k external	0,3193temperature offset calibration	1,0000default loss term (dB/km)	0,3820temperature slope calibration	1,0000multiplexer offset coefficient	1,0000multiplexer slope coefficient	1,0000fibre end	0,00T internal ref (°C)	10,63T ext. ref 1 (°C)	-3,93T ext. ref 2 (°C)	-4,08length (m)	temperature (°C)	Stokes	anti-Stokes-744,400	-200,000	-0,027	-0,231
-743,385	294,415	-0,114	0,152
-742,371	612,716	-0,054	-0,098
-741,356	436,305	-0,098	0,157
-740,342	99,071	-0,128	-0,108
-739,327	-148,257	-0,260	0,015
-738,312	800,000	-0,053	-0,152
-737,298	-55,244	-0,412	0,134
-736,283	-184,393	-0,058	0,001
-735,269	51,402	-0,288	0,199
-734,254	-200,000	0,026	-0,120
-733,239	-147,855	-0,298	0,018
-732,225	800,000	0,014	-0,038
-731,210	-200,000	0,013	0,154
-730,196	-200,000	-0,044	0,143
-729,181	24,191	-0,106	-0,064
-728,167	41,013	-0,090	-0,059
-727,152	463,718	-0,033	-0,054
-726,137	309,534	-0,067	-0,091
-725,123	-91,822	-0,096	-0,020
-724,108	-113,312	-0,136	-0,019
-723,094	326,856	-0,096	-0,134
-722,079	-92,319	0,152	-0,031
-721,064	-200,000	0,014	-0,150
-720,050	-139,521	0,060	-0,005
-719,035	-142,636	0,045	-0,003
-718,021	150,205	-0,106	-0,105
-717,006	148,447	-0,040	0,039
-715,991	-67,419	-0,112	-0,032
-714,977	-200,000	-0,012	0,072
-713,962	54,979	0,040	0,028
-712,948	-200,000	0,020	-0,068
-711,933	139,966	0,097	-0,093
-710,918	-4,426	-0,151	-0,076
-709,904	-124,024	0,046	-0,005
-708,889	-200,000	-0,020	-0,072
-707,875	-9,492	0,007	0,003
-706,860	800,000	0,006	-0,015
-705,845	-200,000	-0,021	-0,131
-704,831	800,000	-0,066	0,138
-703,816	-200,000	-0,025	-0,167
-702,802	-81,577	0,032	0,008
-701,787	9,924	-0,185	0,102
-700,772	263,799	-0,084	-0,107
-699,758	-164,368	-0,151	-0,005
-698,743	-200,000	0,023	0,116
-697,729	723,072	0,025	-0,048
-696,714	-199,456	0,074	-0,000
-695,699	357,128	-0,064	-0,093
-694,685	80,799	-0,081	-0,064
-693,670	6,106	-0,113	0,061
-692,656	-45,625	-0,063	0,022
-691,641	15,884	0,118	-0,067
-690,627	-200,000	0,059	-0,192
-689,612	-200,000	0,007	-0,046
-688,597	-200,000	-0,019	0,209
-687,583	44,465	0,025	-0,016
-686,568	174,315	-0,103	-0,108
-685,554	-200,000	-0,015	-0,110
-684,539	54,967	0,013	0,009
-683,524	-48,999	0,088	-0,030
-682,510	679,055	0,038	0,073
-681,495	-200,000	0,047	0,213
-680,481	50,588	-0,051	-0,035
-679,466	-200,000	-0,002	-0,210
-678,451	-200,000	-0,024	-0,126
-677,437	67,762	0,034	-0,025
-676,422	-99,135	-0,033	0,006
-675,408	-200,000	-0,006	-0,028
-674,393	402,046	0,013	0,020
-673,378	-200,000	-0,061	-0,267
-672,364	713,671	-0,032	-0,062
-671,349	704,619	0,043	-0,083
-670,335	150,192	0,019	0,019
-669,320	96,998	0,082	0,069
-668,305	-200,000	0,005	0,078
-667,291	62,635	-0,011	0,008
-666,276	265,000	0,047	-0,059
-665,262	104,142	-0,061	-0,052
-664,247	-27,385	0,067	0,028
-663,232	-36,285	0,070	-0,027
-662,218	-200,000	-0,006	0,069
-661,203	-200,000	-0,018	-0,203
-660,189	-165,976	-0,048	-0,001
-659,174	-200,000	-0,046	0,187
-658,159	-200,000	-0,010	-0,096
-657,145	67,557	-0,051	0,038
-656,130	215,863	0,021	-0,025
-655,116	568,597	-0,030	-0,053
-654,101	133,994	-0,066	-0,062
-653,086	-58,166	0,025	-0,008
-652,072	89,129	-0,045	0,036
-651,057	-95,997	0,135	0,026
-650,043	800,000	-0,017	-0,042
-649,028	-80,391	0,022	0,005
-648,014	57,045	0,092	-0,065
-646,999	11,216	-0,081	-0,045
-645,984	-13,594	0,120	-0,056
-644,970	140,859	-0,053	0,050
-643,955	80,443	0,054	-0,042
-642,941	259,574	-0,058	-0,073
-641,926	800,000	-0,013	-0,039
-640,911	-35,321	-0,025	-0,010
-639,897	83,681	-0,061	0,048
-638,882	-200,000	-0,016	0,128
-637,868	-200,000	-0,025	-0,187
-636,853	168,825	-0,005	0,005
-635,838	282,643	-0,052	0,068
-634,824	301,030	0,033	0,045
-633,809	-164,175	0,169	-0,006
-632,795	5,711	0,066	0,035
-631,780	-11,525	-0,034	0,016
-630,765	-11,380	0,124	0,059
-629,751	800,000	-0,044	-0,094
-628,736	17,747	-0,099	-0,057
-627,722	93,702	-0,029	-0,024
-626,707	-0,070	-0,100	-0,052
-625,692	-200,000	-0,011	0,086
-624,678	63,646	0,113	-0,082
-623,663	42,543	-0,178	-0,117
-622,649	88,790	-0,081	0,065
-621,634	-200,000	0,005	0,035
-620,619	-200,000	0,010	-0,079
-619,605	68,777	0,077	-0,058
-618,590	-9,912	-0,059	-0,028
-617,576	131,871	-0,019	0,018
-616,561	-200,000	-0,009	-0,058
-615,546	-177,600	-0,097	0,002
-614,532	-200,000	0,002	0,067
-613,517	254,972	-0,059	0,073
-612,503	404,295	0,036	0,055
-611,488	-200,000	-0,035	-0,150
-610,474	493,812	0,075	-0,125
-609,459	-89,158	-0,038	0,008
-608,444	34,955	-0,050	-0,032
-607,430	800,000	-0,054	-0,112
-606,415	181,844	0,094	-0,101
-605,401	-123,208	-0,032	-0,004
-604,386	800,000	0,030	0,070
-603,371	40,731	0,095	-0,062
-602,357	262,913	-0,080	-0,101
-601,342	36,955	-0,045	0,029
-600,328	-131,243	-0,046	0,004
-599,313	247,246	0,086	0,106
-598,298	800,000	-0,049	-0,131
-597,284	461,458	0,022	0,036
-596,269	-17,781	0,104	0,047
-595,255	119,876	-0,129	0,116
-594,240	-72,725	-0,100	0,027
-593,225	-200,000	-0,036	0,125
-592,211	187,535	0,018	0,019
-591,196	-14,478	0,120	0,056
-590,182	-2,896	-0,046	0,023
-589,167	-200,000	-0,014	0,083
-588,152	564,367	0,055	0,096
-587,138	-200,000	0,002	0,028
-586,123	-173,295	-0,106	0,002
-585,109	-200,000	-0,010	0,079
-584,094	567,377	0,029	-0,051
-583,079	117,996	0,032	0,029
-582,065	342,798	0,047	0,066
-581,050	-200,000	0,004	0,091
-580,036	114,784	0,030	-0,027
-579,021	800,000	0,014	0,044
-578,006	198,001	0,044	0,049
-576,992	108,020	-0,111	0,096
-575,977	-79,190	0,134	-0,033
-574,963	281,806	0,039	-0,051
-573,948	-200,000	-0,003	0,071
-572,934	-101,149	0,203	-0,036
-571,919	519,138	0,055	-0,094
-570,904	800,000	-0,051	-0,129
-569,890	93,912	-0,020	-0,016
-568,875	-123,661	0,138	-0,016
-567,861	-200,000	-0,027	-0,125
-566,846	-150,620	0,200	0,011
-565,831	-200,000	0,056	-0,181
-564,817	75,583	-0,157	-0,120
-563,802	579,989	-0,090	0,160
-562,788	209,372	-0,031	-0,035
-561,773	481,750	-0,009	-0,015
-560,758	-102,168	0,084	0,015
-559,744	800,000	0,022	0,048
-558,729	-200,000	-0,003	0,122
-557,715	800,000	-0,042	0,108
-556,700	148,232	-0,013	-0,013
-555,685	-200,000	0,020	-0,071
-554,671	800,000	-0,041	-0,099
-553,656	-200,000	-0,027	0,101
-552,642	-200,000	-0,015	0,109
-551,627	-15,900	0,058	0,027
-550,612	506,768	-0,054	-0,091
-549,598	732,314	-0,088	-0,172
-548,583	-87,367	-0,047	0,010
-547,569	800,000	0,076	-0,158
-546,554	800,000	0,027	-0,073
-545,539	81,982	-0,053	-0,042
-544,525	68,706	-0,107	0,079
-543,510	-200,000	-0,036	0,122
-542,496	-200,000	0,002	-0,096
-541,481	-200,000	0,001	0,017
-540,466	-200,000	-0,011	0,043
-539,452	140,837	0,077	0,074
-538,437	-200,000	0,013	-0,049
-537,423	-200,000	0,007	0,119
-536,408	618,315	0,005	-0,009
-535,393	-27,192	0,012	-0,005
-534,379	800,000	-0,028	-0,064
-533,364	48,460	-0,197	-0,133
-532,350	-113,562	0,119	-0,017
-531,335	397,273	0,073	0,110
-530,321	-157,459	0,034	0,001
-529,306	-170,952	0,048	-0,001
-528,291	604,746	-0,044	-0,079
-527,277	-200,000	0,003	-0,111
-526,262	167,732	-0,031	-0,032
-525,248	-6,737	-0,104	0,051
-524,233	800,000	-0,054	0,161
-523,218	17,637	0,074	0,043
-522,204	-174,836	0,095	-0,002
-521,189	-152,061	0,119	0,006
-520,175	150,704	-0,187	-0,184
-519,160	-200,000	0,004	0,184
-518,145	261,559	-0,032	0,040
-517,131	305,119	-0,067	-0,090
-516,116	106,379	0,092	-0,079
-515,102	800,000	-0,059	0,134
-514,087	37,706	0,074	0,047
-513,072	135,239	0,025	-0,023
-512,058	-117,578	-0,129	0,017
-511,043	-200,000	0,006	-0,035
-510,029	699,214	0,056	-0,106
-509,014	165,197	-0,039	0,040
-507,999	117,720	0,049	-0,044
-506,985	-200,000	0,014	-0,170
-505,970	-200,000	0,004	-0,021
-504,956	800,000	-0,045	-0,127
-503,941	-75,917	-0,054	0,014
-502,926	800,000	-0,050	0,150
-501,912	168,379	0,065	-0,067
-500,897	82,205	-0,009	0,007
-499,883	652,069	0,026	0,048
-498,868	-51,868	-0,101	0,034
-497,853	288,912	0,039	0,051
-496,839	-200,000	-0,004	-0,061
-495,824	611,058	0,024	-0,044
-494,810	-200,000	0,006	0,049
-493,795	-200,000	-0,013	0,132
-492,781	-9,113	-0,035	0,017
-491,766	176,394	-0,065	0,068
-490,751	46,242	-0,130	-0,087
-489,737	-147,350	0,037	0,002
-488,722	40,467	-0,096	0,062
-487,708	584,609	0,034	0,061
-486,693	800,000	-0,034	0,083
-485,678	63,850	0,006	-0,005
-484,664	76,303	-0,085	-0,065
-483,649	-123,795	-0,196	-0,022
-482,635	-40,940	-0,048	-0,018
-481,620	-41,877	0,105	-0,038
-480,605	72,179	0,165	-0,124
-479,591	85,864	0,058	-0,046
-478,576	-122,163	-0,143	0,017
-477,562	628,193	-0,045	0,082
-476,547	499,044	0,013	-0,021
-475,532	-200,000	0,006	-0,045
-474,518	198,285	-0,012	-0,013
-473,503	148,199	0,030	-0,029
-472,489	28,561	0,119	0,073
-471,474	-200,000	-0,011	-0,128
-470,459	-165,854	-0,118	0,004
-469,445	-200,000	0,051	-0,216
-468,430	800,000	0,037	-0,080
-467,416	224,759	0,059	-0,069
-466,401	-200,000	-0,033	0,124
-465,386	-132,041	0,110	-0,010
-464,372	-81,689	-0,073	-0,017
-463,357	76,897	-0,042	-0,032
-462,343	-69,712	-0,099	-0,027
-461,328	75,541	-0,038	-0,029
-460,313	-200,000	-0,007	-0,039
-459,299	-200,000	0,030	-0,161
-458,284	564,788	0,095	0,167
-457,270	-200,000	0,024	0,099
-456,255	-200,000	0,024	-0,077
-455,241	104,052	-0,061	-0,051
-454,226	-124,712	0,103	-0,011
-453,211	196,938	-0,040	0,044
-452,197	-161,366	0,076	-0,003
-451,182	756,627	-0,016	-0,032
-450,168	34,391	-0,101	0,064
-449,153	134,457	-0,055	0,051
-448,138	-200,000	0,019	-0,136
-447,124	710,987	0,066	-0,126
-446,109	540,892	-0,013	-0,022
-445,095	267,088	0,049	-0,062
-444,080	800,000	0,039	0,099
-443,065	-200,000	0,015	0,121
-442,051	-139,536	-0,100	0,008
-441,036	348,743	0,072	0,103
-440,022	49,614	-0,097	-0,066
-439,007	800,000	0,021	-0,063
-437,992	-200,000	-0,014	0,094
-436,978	108,828	0,097	0,084
-435,963	457,370	-0,039	-0,062
-434,949	-87,632	-0,078	0,017
-433,934	51,822	-0,063	-0,043
-432,919	-15,140	0,033	-0,015
-431,905	-144,744	0,038	-0,002
-430,890	-107,024	0,120	-0,019
-429,876	-1,923	0,046	-0,023
-428,861	-56,724	-0,019	-0,006
-427,846	137,747	0,052	0,049
-426,832	360,334	0,074	0,107
-425,817	-64,541	-0,170	-0,049
-424,803	-200,000	0,017	0,085
-423,788	161,616	0,054	-0,055
-422,773	-20,438	-0,030	-0,013
-421,759	-200,000	-0,013	0,048
-420,744	800,000	0,021	-0,066
-419,730	203,654	0,031	-0,035
-418,715	83,129	-0,101	-0,079
-417,701	-101,993	0,065	-0,011
-416,686	-158,207	-0,025	0,001
-415,671	562,177	0,063	0,110
-414,657	-90,179	-0,012	-0,003
-413,642	800,000	-0,038	-0,101
-412,628	800,000	0,054	-0,133
-411,613	-200,000	-0,025	-0,081
-410,598	-200,000	0,008	-0,072
-409,584	800,000	-0,032	-0,101
-408,569	95,322	0,091	0,075
-407,555	586,856	-0,066	0,117
-406,540	58,864	-0,039	-0,027
-405,525	-18,015	0,068	0,030
-404,511	77,540	-0,048	0,037
-403,496	255,677	-0,063	0,078
-402,482	-200,000	-0,003	0,131
-401,467	-189,963	0,181	0,001
-400,452	-200,000	-0,005	0,081
-399,438	-200,000	-0,007	-0,026
-398,423	-64,173	-0,013	0,004
-397,409	-104,366	-0,105	-0,017
-396,394	267,896	-0,069	0,087
-395,379	-71,053	0,124	0,033
-394,365	-84,861	-0,139	0,031
-393,350	325,651	0,042	0,058
-392,336	-200,000	0,006	0,112
-391,321	-200,000	0,005	-0,109
-390,306	-83,045	-0,035	-0,008
-389,292	800,000	0,010	-0,027
-388,277	-200,000	0,045	-0,199
-387,263	-200,000	-0,019	-0,064
-386,248	-56,575	0,128	-0,041
-385,233	-142,423	-0,128	-0,009
-384,219	77,508	0,041	-0,031
-383,204	-86,723	-0,197	-0,043
-382,190	281,903	-0,063	-0,081
-381,175	307,954	0,129	0,174
-380,160	-174,069	-0,149	0,003
-379,146	263,522	-0,086	0,108
-378,131	156,011	0,055	0,055
-377,117	-150,567	-0,192	0,010
-376,102	-38,346	0,056	-0,021
-375,088	34,537	0,021	0,013
-374,073	-200,000	-0,000	0,002
-373,058	-200,000	-0,034	0,206
-372,044	-200,000	-0,009	-0,105
-371,029	-200,000	0,008	0,026
-370,015	-200,000	0,002	0,061
-369,000	-78,537	-0,119	-0,029
-367,985	-130,978	-0,128	0,012
-366,971	-182,870	0,139	0,002
-365,956	-200,000	0,008	0,026
-364,942	800,000	0,028	-0,070
-363,927	127,559	0,102	0,093
-362,912	-200,000	0,011	-0,060
-361,898	390,571	0,034	0,050
-360,883	607,344	0,035	-0,063
-359,869	-85,981	-0,051	0,011
-358,854	-200,000	0,050	-0,175
-357,839	800,000	-0,042	0,110
-356,825	800,000	0,034	0,089
-355,810	206,795	-0,043	0,048
-354,796	525,266	0,082	-0,140
-353,781	123,691	-0,075	-0,068
-352,766	70,784	-0,067	-0,050
-351,752	106,124	0,061	0,052
-350,737	-2,146	0,108	0,054
-349,723	251,240	-0,086	0,105
-348,708	-30,800	0,163	-0,066
-347,693	482,100	-0,043	0,071
-346,679	-200,000	0,022	-0,080
-345,664	-115,698	-0,020	-0,003
-344,650	-200,000	0,004	-0,048
-343,635	-200,000	-0,023	0,114
-342,620	46,444	0,078	0,052
-341,606	-99,991	0,180	0,032
-340,591	-200,000	0,018	-0,120
-339,577	-156,302	0,104	0,005
-338,562	-135,695	0,052	0,004
-337,548	-130,010	-0,042	-0,004
-336,533	-200,000	0,015	0,129
-335,518	-90,075	-0,048	-0,010
-334,504	12,047	0,059	0,032
-333,489	-200,000	0,002	-0,007
-332,475	-34,301	-0,048	-0,019
-331,460	219,326	-0,033	-0,038
-330,445	800,000	0,057	0,156
-329,431	8,499	0,067	0,036
-328,416	-200,000	0,015	0,101
-327,402	-112,361	-0,141	-0,020
-326,387	-118,679	0,119	-0,015
-325,372	128,425	-0,132	-0,121
-324,358	-69,654	0,102	-0,028
-323,343	310,997	0,079	0,106
-322,329	-200,000	0,003	0,031
-321,314	-200,000	0,025	-0,183
-320,299	225,138	-0,097	0,113
-319,285	-200,000	0,005	0,024
-318,270	653,672	0,073	-0,135
-317,256	-150,612	-0,063	0,003
-316,241	800,000	-0,043	0,090
-315,226	800,000	-0,050	0,110
-314,212	-200,000	0,011	0,051
-313,197	-200,000	-0,036	0,182
-312,183	800,000	0,030	0,078
-311,168	-200,000	-0,029	0,094
-310,153	-105,213	0,130	-0,021
-309,139	-200,000	0,008	0,129
-308,124	-200,000	-0,080	0,000
-307,110	-200,000	-0,006	0,028
-306,095	383,882	0,063	0,094
-305,080	-63,500	0,043	0,012
-304,066	-152,919	0,079	0,004
-303,051	411,334	-0,096	-0,146
-302,037	-200,000	0,004	0,015
-301,022	496,849	-0,012	0,020
-300,008	-200,000	-0,006	-0,033
-298,993	24,317	0,107	0,063
-297,978	-32,956	0,138	-0,055
-296,964	39,385	0,110	-0,070
-295,949	-21,110	-0,095	-0,042
-294,935	113,819	-0,058	0,051
-293,920	-115,141	0,040	0,005
-292,905	-61,010	0,124	-0,037
-291,891	-118,474	0,008	0,001
-290,876	-33,515	0,042	-0,016
-289,862	286,803	-0,064	-0,083
-288,847	58,746	-0,018	0,012
-287,832	42,337	-0,052	0,034
-286,818	311,596	0,053	0,072
-285,803	-200,000	-0,026	0,085
-284,789	80,500	0,176	0,136
-283,774	28,363	0,088	0,053
-282,759	535,243	-0,031	0,053
-281,745	-110,232	-0,016	0,002
-280,730	-200,000	-0,006	0,036
-279,716	362,205	0,095	0,137
-278,701	112,880	0,153	0,132
-277,686	-64,770	-0,030	0,009
-276,672	800,000	-0,063	-0,154
-275,657	-135,565	-0,174	0,015
-274,643	800,000	0,074	-0,193
-273,628	800,000	-0,100	-0,207
-272,613	66,243	-0,038	-0,028
-271,599	-11,834	0,145	0,068
-270,584	-200,000	0,001	0,032
-269,570	-2,187	-0,077	-0,039
-268,555	-186,091	0,047	0,000
-267,540	-104,453	-0,135	-0,022
-266,526	-200,000	0,013	-0,145
-265,511	-200,000	0,000	-0,018
-264,497	800,000	0,012	-0,035
-263,482	659,629	0,020	-0,036
-262,467	116,390	0,080	-0,070
-261,453	31,121	0,098	-0,060
-260,438	-65,951	-0,095	-0,027
-259,424	47,611	-0,123	0,082
-258,409	-200,000	-0,022	-0,095
-257,395	139,771	0,084	0,079
-256,380	-200,000	0,020	0,073
-255,365	247,846	-0,075	0,091
-254,351	-200,000	-0,011	0,043
-253,336	-200,000	0,037	-0,137
-252,322	-200,000	-0,010	0,109
-251,307	527,700	-0,062	-0,106
-250,292	-200,000	0,014	0,102
-249,278	-200,000	0,003	0,062
-248,263	117,666	0,041	0,036
-247,249	75,876	0,093	-0,070
-246,234	-200,000	-0,002	-0,074
-245,219	101,065	0,020	-0,016
-244,205	800,000	-0,014	-0,032
-243,190	-200,000	0,045	-0,146
-242,176	-200,000	-0,021	0,084
-241,161	89,357	-0,079	0,063
-240,146	800,000	0,020	0,046
-239,132	-47,417	-0,066	-0,023
-238,117	800,000	0,024	-0,059
-237,103	-200,000	-0,036	0,169
-236,088	800,000	0,024	-0,048
-235,073	-14,006	0,196	-0,090
-234,059	-127,631	-0,012	0,001
-233,044	292,031	0,062	0,081
-232,030	676,144	-0,052	-0,097
-231,015	24,390	-0,042	0,025
-230,000	-30,355	-0,110	-0,044
-228,986	-200,000	0,011	-0,091
-227,971	497,669	-0,073	-0,121
-226,957	285,620	0,065	-0,083
-225,942	508,078	0,025	0,042
-224,927	499,936	-0,107	0,177
-223,913	-200,000	0,085	0,000
-222,898	705,937	-0,005	-0,010
-221,884	-138,957	-0,060	-0,005
-220,869	322,284	0,075	0,102
-219,855	29,420	0,127	0,077
-218,840	-147,419	0,142	0,008
-217,825	21,017	-0,125	-0,072
-216,811	122,574	0,039	0,035
-215,796	-200,000	0,019	-0,065
-214,782	800,000	-0,021	-0,061
-213,767	-98,878	0,006	0,001
-212,752	800,000	0,022	0,055
-211,738	128,093	0,161	0,146
-210,723	-200,000	0,007	0,063
-209,709	574,032	0,046	-0,081
-208,694	549,254	0,030	-0,051
-207,679	56,417	-0,069	-0,048
-206,665	-200,000	0,013	0,102
-205,650	-98,603	-0,006	-0,001
-204,636	-200,000	0,007	0,109
-203,621	-200,000	0,020	-0,120
-202,606	800,000	0,054	-0,117
-201,592	498,324	0,102	-0,169
-200,577	-200,000	0,030	-0,197
-199,563	-182,570	0,029	0,000
-198,548	68,361	0,096	0,070
-197,533	167,262	0,051	0,051
-196,519	135,610	0,045	-0,042
-195,504	-200,000	0,003	0,031
-194,490	631,425	-0,037	0,066
-193,475	-57,579	-0,141	0,044
-192,460	-200,000	-0,011	-0,041
-191,446	800,000	0,026	0,069
-190,431	-200,000	-0,082	0,000
-189,417	800,000	-0,038	0,080
-188,402	-46,247	-0,140	0,049
-187,387	166,266	-0,059	-0,059
-186,373	31,357	-0,050	-0,031
-185,358	-11,240	-0,043	-0,020
-184,344	-200,000	0,003	0,067
-183,329	200,187	-0,042	0,047
-182,315	-88,302	0,136	0,029
-181,300	80,488	-0,078	0,060
-180,285	-200,000	0,007	-0,092
-179,271	-71,990	-0,144	-0,038
-178,256	152,325	-0,076	0,074
-177,242	800,000	-0,028	0,071
-176,227	-200,000	0,013	-0,044
-175,212	95,594	0,108	-0,088
-174,198	722,924	-0,028	-0,054
-173,183	191,883	0,074	-0,079
-172,169	-46,186	-0,177	0,062
-171,154	800,000	0,009	-0,027
-170,139	800,000	0,022	0,045
-169,125	52,405	-0,122	0,083
-168,110	-63,117	0,088	0,026
-167,096	77,268	-0,107	0,081
-166,081	-200,000	-0,006	-0,172
-165,066	475,632	0,047	0,077
-164,052	105,410	-0,101	0,085
-163,037	800,000	-0,027	0,070
-162,023	358,053	-0,033	0,048
-161,008	-71,299	0,038	-0,010
-159,993	-200,000	-0,006	0,020
-158,979	99,630	-0,097	0,080
-157,964	163,573	0,144	-0,144
-156,950	466,944	-0,039	0,062
-155,935	170,958	-0,045	-0,046
-154,920	800,000	-0,005	-0,014
-153,906	426,889	0,041	0,064
-152,891	-92,152	-0,029	-0,006
-151,877	-91,867	0,024	-0,005
-150,862	46,893	-0,111	-0,073
-149,847	-129,831	0,088	-0,009
-148,833	590,624	-0,033	0,058
-147,818	800,000	0,036	0,081
-146,804	-58,850	0,118	0,036
-145,789	586,782	-0,031	0,054
-144,775	273,502	-0,031	-0,039
-143,760	-200,000	0,030	0,105
-142,745	-56,419	0,128	-0,040
-141,731	164,052	-0,105	0,105
-140,716	-153,710	0,084	-0,004
-139,702	-200,000	-0,046	0,228
-138,687	-72,116	0,029	0,008
-137,672	76,249	0,021	-0,016
-136,658	-106,293	-0,141	-0,022
-135,643	42,610	0,073	0,048
-134,629	741,065	0,036	-0,068
-133,614	493,533	0,062	-0,101
-132,599	7,524	0,030	0,016
-131,585	134,574	0,041	-0,038
-130,570	13,729	0,083	0,046
-129,556	51,966	-0,089	-0,061
-128,541	0,004	0,024	-0,012
-127,526	6,222	-0,024	0,013
-126,512	158,324	0,047	-0,046
-125,497	-200,000	-0,035	0,179
-124,483	-72,288	-0,063	0,017
-123,468	45,589	0,071	-0,047
-122,453	427,720	-0,123	-0,190
-121,439	800,000	-0,022	-0,047
-120,424	800,000	-0,039	-0,097
-119,410	-119,997	0,122	-0,015
