DTS Sentinel unit serial number:	SN410029Multiplexer serial number:	ORYXHardware model number:	OX2-SRSoftware version number:	ORYX F/W v4,00 Oryx Data Collector v3.7.2.0data status	okinstallation	BH3 CH2differential loss correction	single-endedforward channel	channel 2reverse channel	N/Adate	2023/12/06time	05:32:29forward acquisition time	300,00reverse acquisition time	0,00gamma	499,1914k internal	0,3197k external	0,3197temperature offset calibration	1,0000default loss term (dB/km)	0,3820temperature slope calibration	1,0000multiplexer offset coefficient	1,0000multiplexer slope coefficient	1,0000fibre end	0,00T internal ref (°C)	8,92T ext. ref 1 (°C)	-5,69T ext. ref 2 (°C)	-5,80length (m)	temperature (°C)	Stokes	anti-Stokes-744,400	-147,077	-0,141	-0,009
-743,385	-150,071	-0,111	-0,006
-742,371	314,261	0,091	-0,126
-741,356	-91,897	-0,222	0,045
-740,342	-200,000	0,025	-0,092
-739,327	-78,561	-0,355	-0,088
-738,312	800,000	-0,081	-0,179
-737,298	-28,761	-0,212	-0,088
-736,283	38,227	-0,068	-0,044
-735,269	-26,225	-0,353	0,150
-734,254	-141,117	-0,212	0,016
-733,239	-157,020	-0,390	0,017
-732,225	-200,000	0,017	-0,231
-731,210	-85,711	0,078	0,017
-730,196	-200,000	-0,005	-0,119
-729,181	-120,355	-0,132	-0,016
-728,167	-10,659	0,090	0,043
-727,152	179,531	-0,020	0,021
-726,137	-200,000	-0,018	-0,109
-725,123	371,228	-0,046	0,069
-724,108	-147,568	-0,111	0,007
-723,094	-18,172	-0,118	-0,053
-722,079	-200,000	0,011	-0,050
-721,064	2,397	0,083	0,044
-720,050	143,065	-0,024	-0,023
-719,035	35,509	-0,138	0,088
-718,021	-200,000	-0,023	-0,084
-717,006	392,512	-0,090	-0,136
-715,991	800,000	0,026	-0,069
-714,977	268,633	-0,059	0,075
-713,962	121,919	0,040	0,036
-712,948	-127,900	-0,008	-0,001
-711,933	-200,000	-0,023	-0,117
-710,918	457,970	0,019	0,030
-709,904	775,540	-0,026	-0,052
-708,889	-19,373	0,095	0,043
-707,875	476,872	-0,037	-0,060
-706,860	354,603	-0,056	0,082
-705,845	-200,000	0,007	0,051
-704,831	800,000	0,030	0,069
-703,816	-158,709	0,119	0,005
-702,802	-22,146	-0,018	0,008
-701,787	-200,000	0,010	-0,095
-700,772	67,254	0,064	-0,047
-699,758	134,543	-0,113	0,106
-698,743	-200,000	-0,018	0,079
-697,729	34,914	0,010	-0,006
-696,714	180,458	-0,098	0,105
-695,699	685,575	0,017	0,033
-694,685	60,720	-0,080	0,057
-693,670	233,200	0,033	0,040
-692,656	158,435	0,018	-0,018
-691,641	-175,446	-0,100	0,002
-690,627	-113,786	0,033	0,005
-689,612	437,818	0,045	-0,072
-688,597	142,943	-0,092	0,089
-687,583	16,368	-0,131	-0,075
-686,568	38,560	-0,048	-0,031
-685,554	63,081	0,009	-0,007
-684,539	436,475	-0,047	-0,074
-683,524	326,415	0,018	0,025
-682,510	-89,001	-0,059	0,013
-681,495	-102,392	-0,121	-0,021
-680,481	-61,397	-0,095	-0,029
-679,466	-98,438	-0,063	0,012
-678,451	-200,000	0,003	-0,015
-677,437	-200,000	0,017	-0,113
-676,422	159,477	-0,117	0,118
-675,408	-80,736	-0,098	0,023
-674,393	-200,000	-0,024	0,122
-673,378	-87,672	-0,113	0,025
-672,364	800,000	0,003	-0,010
-671,349	-200,000	0,020	-0,115
-670,335	-65,757	-0,213	-0,061
-669,320	-52,332	-0,036	0,012
-668,305	6,476	-0,087	-0,047
-667,291	58,039	-0,098	-0,070
-666,276	66,648	0,130	0,096
-665,262	-63,539	-0,079	-0,023
-664,247	-23,785	0,099	-0,043
-663,232	351,957	-0,023	0,033
-662,218	278,930	0,067	0,087
-661,203	-200,000	-0,019	0,083
-660,189	608,153	-0,080	0,146
-659,174	195,635	-0,027	0,029
-658,159	800,000	-0,050	-0,134
-657,145	-200,000	-0,006	-0,171
-656,130	-59,246	0,090	0,028
-655,116	115,319	-0,066	0,058
-654,101	-100,515	-0,114	-0,020
-653,086	-84,931	0,110	0,025
-652,072	-200,000	-0,039	-0,198
-651,057	-41,808	-0,073	-0,027
-650,043	38,142	-0,094	0,061
-649,028	800,000	0,024	0,072
-648,014	-50,543	0,075	0,025
-646,999	109,152	-0,057	-0,050
-645,984	-49,713	0,198	0,068
-644,970	53,379	-0,075	-0,052
-643,955	-200,000	-0,004	-0,057
-642,941	54,286	-0,150	-0,105
-641,926	222,969	-0,071	-0,083
-640,911	-200,000	0,004	-0,081
-639,897	580,759	0,043	0,076
-638,882	-53,872	-0,077	0,025
-637,868	800,000	-0,034	-0,100
-636,853	191,324	0,067	0,074
-635,838	115,462	-0,077	0,069
-634,824	89,773	0,089	0,072
-633,809	800,000	-0,024	0,075
-632,795	-78,807	0,057	0,014
-631,780	-200,000	0,027	0,087
-630,765	-127,499	-0,085	0,009
-629,751	-176,444	-0,082	0,002
-628,736	-82,355	-0,076	-0,018
-627,722	-125,281	0,040	-0,004
-626,707	800,000	-0,038	0,098
-625,692	800,000	-0,050	0,103
-624,678	-200,000	-0,009	0,048
-623,663	1,170	-0,043	-0,022
-622,649	-4,080	-0,085	-0,042
-621,634	-54,500	-0,098	-0,032
-620,619	353,728	-0,050	-0,072
-619,605	-200,000	0,003	-0,069
-618,590	396,250	-0,129	0,197
-617,576	178,589	-0,030	0,032
-616,561	-200,000	-0,034	-0,151
-615,546	-200,000	-0,002	-0,042
-614,532	-100,836	-0,089	0,016
-613,517	-200,000	0,000	-0,080
-612,503	-27,192	-0,106	0,045
-611,488	86,915	-0,021	0,017
-610,474	800,000	-0,008	0,023
-609,459	800,000	0,010	0,031
-608,444	-200,000	0,014	0,065
-607,430	132,525	-0,157	-0,146
-606,415	105,743	-0,106	-0,091
-605,401	-200,000	0,001	-0,089
-604,386	241,556	-0,144	0,174
-603,371	800,000	0,069	0,141
-602,357	-200,000	-0,010	0,084
-601,342	-72,301	-0,107	-0,029
-600,328	190,416	-0,086	0,094
-599,313	196,027	-0,062	0,069
-598,298	-109,109	0,120	-0,018
-597,284	-200,000	0,001	0,061
-596,269	800,000	-0,051	-0,109
-595,255	39,764	0,137	0,089
-594,240	800,000	-0,011	0,024
-593,225	46,486	-0,088	-0,059
-592,211	250,859	-0,010	0,013
-591,196	93,851	0,070	0,057
-590,182	800,000	-0,025	0,068
-589,167	206,728	0,022	-0,025
-588,152	168,811	0,093	0,096
-587,138	-112,418	0,067	-0,010
-586,123	73,531	-0,123	-0,093
-585,109	172,968	0,023	0,024
-584,094	433,740	0,020	-0,031
-583,079	201,090	0,112	0,125
-582,065	-65,216	-0,051	0,015
-581,050	-2,580	-0,026	0,013
-580,036	137,841	0,023	0,021
-579,021	-184,172	-0,202	0,002
-578,006	-200,000	0,010	-0,062
-576,992	330,850	-0,105	-0,147
-575,977	-200,000	-0,022	0,146
-574,963	800,000	0,023	0,074
-573,948	-100,591	0,070	0,012
-572,934	-200,000	-0,003	0,129
-571,919	-200,000	-0,015	-0,108
-570,904	-95,860	-0,105	-0,020
-569,890	-200,000	-0,007	-0,022
-568,875	249,348	0,085	0,104
-567,861	800,000	-0,022	0,067
-566,846	-200,000	0,011	-0,072
-565,831	-200,000	0,040	-0,177
-564,817	-200,000	0,021	0,131
-563,802	129,213	0,036	-0,034
-562,788	-200,000	0,002	-0,113
-561,773	12,426	0,152	0,084
-560,758	-110,902	-0,070	0,010
-559,744	740,970	0,044	-0,086
-558,729	-64,702	-0,076	0,022
-557,715	-200,000	-0,011	-0,117
-556,700	-200,000	-0,036	-0,131
-555,685	-200,000	0,043	-0,178
-554,671	67,711	0,054	-0,040
-553,656	624,439	0,086	-0,157
-552,642	-200,000	0,019	0,073
-551,627	-91,915	0,139	-0,028
-550,612	-100,341	-0,137	0,024
-549,598	800,000	-0,023	-0,057
-548,583	-200,000	-0,005	0,053
-547,569	147,795	0,059	0,058
-546,554	87,355	0,090	-0,072
-545,539	69,175	-0,147	0,109
-544,525	245,028	-0,053	0,064
-543,510	727,914	0,013	0,026
-542,496	-73,575	-0,071	0,018
-541,481	-10,174	0,090	0,043
-540,466	-29,615	-0,033	-0,014
-539,452	204,988	0,033	-0,037
-538,437	415,507	0,080	0,123
-537,423	-106,212	-0,105	0,017
-536,408	-89,139	0,089	0,019
-535,393	-200,000	-0,002	-0,062
-534,379	247,346	-0,053	-0,065
-533,364	-200,000	0,011	0,118
-532,350	-200,000	0,029	-0,094
-531,335	-200,000	0,010	-0,064
-530,321	-200,000	-0,019	-0,093
-529,306	800,000	0,019	-0,060
-528,291	800,000	-0,038	0,122
-527,277	378,171	0,037	0,054
-526,262	413,097	0,004	-0,005
-525,248	-200,000	0,006	-0,096
-524,233	-81,367	0,062	-0,015
-523,218	-125,432	0,027	0,003
-522,204	251,328	0,062	0,077
-521,189	38,449	-0,019	0,012
-520,175	-30,469	-0,193	0,079
-519,160	-200,000	-0,009	-0,140
-518,145	253,795	0,061	0,075
-517,131	135,448	0,051	0,048
-516,116	93,783	0,076	0,062
-515,102	800,000	-0,046	0,102
-514,087	535,551	-0,089	-0,153
-513,072	800,000	-0,054	-0,128
-512,058	-200,000	0,040	-0,132
-511,043	-62,543	0,058	-0,017
-510,029	800,000	-0,016	0,036
-509,014	217,612	-0,048	0,055
-507,999	-38,243	0,072	-0,028
-506,985	800,000	0,031	-0,071
-505,970	109,897	-0,036	-0,031
-504,956	117,072	-0,103	-0,091
-503,941	-112,727	0,049	0,007
-502,926	-200,000	-0,013	0,043
-501,912	192,838	-0,029	-0,032
-500,897	-200,000	-0,011	0,108
-499,883	179,605	-0,093	0,098
-498,868	-67,240	0,162	0,046
-497,853	44,505	-0,025	-0,017
-496,839	-200,000	-0,001	-0,026
-495,824	800,000	0,031	0,072
-494,810	-9,806	0,054	0,026
-493,795	-107,251	-0,053	0,008
-492,781	346,449	-0,045	0,065
-491,766	-200,000	0,021	-0,109
-490,751	800,000	-0,012	-0,036
-489,737	158,325	0,061	-0,061
-488,722	356,264	-0,101	0,145
-487,708	-110,674	0,099	-0,015
-486,693	-101,798	0,021	0,004
-485,678	-113,903	0,052	-0,007
-484,664	-200,000	0,009	-0,123
-483,649	322,021	0,038	-0,052
-482,635	-176,529	0,095	0,002
-481,620	361,949	0,040	-0,059
-480,605	98,938	-0,018	0,015
-479,591	-135,348	0,100	-0,009
-478,576	800,000	0,008	-0,018
-477,562	-200,000	-0,028	-0,113
-476,547	800,000	0,047	-0,131
-475,532	-65,660	-0,067	0,019
-474,518	250,181	0,038	-0,047
-473,503	-42,457	0,100	0,036
-472,489	124,790	0,067	0,061
-471,474	14,417	-0,075	-0,042
-470,459	-89,538	-0,079	0,017
-469,445	-26,048	-0,083	0,035
-468,430	-200,000	0,026	-0,099
-467,416	69,481	0,093	-0,069
-466,401	162,529	0,078	0,079
-465,386	211,781	-0,019	0,022
-464,372	800,000	0,052	-0,113
-463,357	800,000	0,036	-0,078
-462,343	473,055	0,023	0,038
-461,328	-116,106	0,052	0,007
-460,313	-91,980	-0,185	-0,037
-459,299	26,868	0,173	0,104
-458,284	-200,000	-0,023	0,171
-457,270	800,000	0,071	0,144
-456,255	800,000	-0,028	-0,073
-455,241	-135,309	0,081	0,007
-454,226	-200,000	0,020	-0,073
-453,211	697,692	-0,072	-0,136
-452,197	-175,768	-0,063	-0,001
-451,182	800,000	0,035	-0,087
-450,168	-89,233	0,166	0,035
-449,153	-200,000	0,031	0,128
-448,138	410,988	-0,078	-0,120
-447,124	-200,000	-0,012	-0,089
-446,109	70,547	-0,100	-0,074
-445,095	800,000	0,058	0,132
-444,080	61,645	0,091	0,065
-443,065	800,000	-0,089	0,231
-442,051	-200,000	0,005	0,111
-441,036	-18,760	-0,128	0,057
-440,022	328,129	-0,058	-0,080
-439,007	516,342	0,088	-0,148
-437,992	-200,000	-0,003	-0,083
-436,978	-59,776	-0,008	-0,002
-435,963	347,701	0,075	0,106
-434,949	131,156	0,025	0,023
-433,934	-80,771	-0,223	0,053
-432,919	89,429	-0,086	-0,069
-431,905	-18,755	0,113	-0,050
-430,890	-46,650	0,082	0,029
-429,876	-200,000	0,014	0,124
-428,861	-133,503	-0,104	-0,009
-427,846	118,222	-0,076	-0,067
-426,832	-78,783	0,058	0,014
-425,817	79,644	-0,112	-0,086
-424,803	165,576	-0,100	0,102
-423,788	365,933	0,077	0,112
-422,773	-39,181	0,036	0,013
-421,759	-96,583	-0,056	-0,010
-420,744	231,331	0,076	0,090
-419,730	81,050	-0,093	-0,072
-418,715	-56,158	-0,047	0,015
-417,701	-200,000	-0,007	-0,036
-416,686	-200,000	-0,010	-0,124
-415,671	-80,603	0,123	0,029
-414,657	70,509	-0,065	0,048
-413,642	-49,535	0,092	0,031
-412,628	-155,172	0,115	-0,005
-411,613	196,472	-0,092	-0,101
-410,598	-200,000	-0,007	-0,177
-409,584	321,167	0,043	0,058
-408,569	-33,045	0,146	-0,058
-407,555	-200,000	0,033	0,155
-406,540	586,169	-0,049	0,087
-405,525	-200,000	-0,022	-0,093
-404,511	415,167	-0,018	0,028
-403,496	800,000	0,062	-0,172
-402,482	149,362	-0,066	-0,065
-401,467	-56,108	0,082	-0,026
-400,452	-30,357	0,045	0,018
-399,438	402,182	0,097	0,147
-398,423	-178,452	0,107	-0,002
-397,409	21,032	-0,033	0,019
-396,394	133,209	-0,126	-0,117
-395,379	-200,000	0,016	0,103
-394,365	96,031	0,123	0,101
-393,350	-200,000	-0,024	0,079
-392,336	-136,388	-0,110	-0,009
-391,321	-43,388	0,157	0,057
-390,306	-133,722	-0,051	-0,005
-389,292	428,659	-0,044	-0,069
-388,277	180,251	-0,078	0,082
-387,263	-76,274	0,120	0,030
-386,248	-72,797	0,119	-0,031
-385,233	-90,576	0,089	0,018
-384,219	-38,860	-0,114	0,043
-383,204	-58,740	-0,135	-0,042
-382,190	383,366	0,037	-0,055
-381,175	175,801	-0,066	0,068
-380,160	-90,374	0,156	-0,032
-379,146	102,167	0,101	0,085
-378,131	-110,604	0,048	0,007
-377,117	7,576	-0,091	-0,049
-376,102	-44,889	-0,181	-0,064
-375,088	152,356	0,049	-0,048
-374,073	-200,000	0,004	-0,040
-373,058	10,095	0,013	0,007
-372,044	3,988	0,020	-0,011
-371,029	-200,000	-0,032	-0,115
-370,015	800,000	-0,029	-0,064
-369,000	201,239	0,024	0,026
-367,985	171,224	-0,059	-0,061
-366,971	-100,365	-0,129	-0,023
-365,956	-30,543	0,066	0,027
-364,942	800,000	-0,025	-0,074
-363,927	-200,000	0,011	0,073
-362,912	-200,000	-0,014	-0,073
-361,898	-200,000	-0,004	-0,054
-360,883	-200,000	-0,005	0,019
-359,869	38,288	-0,146	-0,093
-358,854	-9,323	0,096	-0,046
-357,839	-13,269	0,082	0,038
-356,825	-108,186	0,148	-0,023
-355,810	800,000	0,033	-0,067
-354,796	-88,082	0,088	0,019
-353,781	251,567	0,034	-0,042
-352,766	-113,882	0,107	0,015
-351,752	-167,545	-0,127	0,004
-350,737	-200,000	0,057	0,244
-349,723	-200,000	0,014	0,086
-348,708	-65,071	0,149	-0,043
-347,693	430,593	-0,041	0,063
-346,679	-39,225	0,110	0,041
-345,664	800,000	-0,064	0,140
-344,650	498,902	-0,020	-0,033
-343,635	30,429	0,057	-0,035
-342,620	76,374	0,087	0,066
-341,606	800,000	-0,057	-0,138
-340,591	-200,000	0,043	-0,159
-339,577	328,621	0,050	-0,070
-338,562	6,399	-0,044	-0,023
-337,548	800,000	-0,042	-0,097
-336,533	277,593	-0,084	-0,108
-335,518	-200,000	0,129	-0,000
-334,504	54,339	0,081	0,056
-333,489	167,896	-0,035	-0,036
-332,475	800,000	-0,026	-0,066
-331,460	361,726	-0,078	-0,113
-330,445	-200,000	0,032	-0,112
-329,431	-200,000	-0,001	-0,022
-328,416	172,253	-0,010	-0,010
-327,402	-107,469	-0,101	0,016
-326,387	-131,628	0,187	-0,017
-325,372	800,000	-0,011	-0,030
-324,358	78,204	0,049	-0,037
-323,343	63,725	-0,039	0,028
-322,329	-53,344	-0,119	0,039
-321,314	-200,000	0,016	-0,074
-320,299	-74,980	0,144	-0,037
-319,285	97,766	-0,085	0,070
-318,270	37,453	-0,048	-0,030
-317,256	800,000	-0,059	-0,143
-316,241	-200,000	-0,005	0,018
-315,226	-76,315	0,073	-0,018
-314,212	800,000	0,017	-0,043
-313,197	467,040	0,017	0,027
-312,183	-61,585	-0,080	0,024
-311,168	-121,273	-0,088	-0,010
-310,153	304,788	-0,074	0,098
-309,139	-116,219	-0,037	-0,005
-308,124	-11,224	0,182	-0,085
-307,110	420,972	-0,033	0,051
-306,095	-200,000	-0,011	0,073
-305,080	614,589	0,033	0,059
-304,066	800,000	0,040	-0,084
-303,051	-31,238	-0,087	0,035
-302,037	82,818	-0,056	0,043
-301,022	-84,077	0,163	-0,037
-300,008	80,142	-0,071	-0,055
-298,993	-148,260	0,141	0,008
-297,978	-53,420	-0,063	-0,021
-296,964	-200,000	-0,017	-0,056
-295,949	-200,000	0,002	0,014
-294,935	-7,312	-0,126	-0,061
-293,920	90,834	0,004	-0,003
-292,905	83,402	-0,048	-0,037
-291,891	-200,000	-0,035	0,119
-290,876	-200,000	-0,011	-0,036
-289,862	262,607	-0,017	-0,021
-288,847	770,966	-0,056	-0,110
-287,832	260,804	-0,059	-0,073
-286,818	-115,163	0,097	0,013
-285,803	-52,272	0,188	0,062
-284,789	-113,766	-0,096	-0,013
-283,774	-17,176	0,099	-0,044
-282,759	-200,000	-0,001	0,034
-281,745	-107,885	0,081	0,012
-280,730	28,886	0,059	-0,036
-279,716	368,282	-0,085	0,124
-278,701	149,901	0,122	0,118
-277,686	800,000	-0,050	0,113
-276,672	-35,181	-0,056	0,022
-275,657	590,337	-0,087	-0,154
-274,643	12,587	-0,171	-0,094
-273,628	308,685	-0,108	-0,145
-272,613	376,851	0,085	0,124
-271,599	296,940	-0,081	0,106
-270,584	-200,000	-0,041	0,145
-269,570	-200,000	-0,004	-0,014
-268,555	-200,000	0,009	-0,074
-267,540	-200,000	0,000	-0,016
-266,526	669,279	0,031	-0,058
-265,511	-200,000	-0,008	0,061
-264,497	-16,256	0,158	0,072
-263,482	800,000	-0,057	0,167
-262,467	1,260	0,052	0,027
-261,453	-200,000	0,003	-0,015
-260,438	286,427	-0,069	0,089
-259,424	-67,771	-0,063	-0,018
-258,409	-9,206	-0,096	0,046
-257,395	-200,000	0,014	0,206
-256,380	-200,000	-0,016	0,056
-255,365	-79,020	0,090	0,022
-254,351	583,993	-0,073	-0,129
-253,336	-200,000	0,008	-0,030
-252,322	114,347	0,056	-0,049
-251,307	24,289	0,030	0,018
-250,292	-76,699	-0,103	0,026
-249,278	-73,721	-0,030	0,008
-248,263	-130,869	0,100	-0,009
-247,249	536,137	-0,030	-0,051
-246,234	168,783	0,060	-0,061
-245,219	-200,000	-0,016	-0,086
-244,205	-118,973	-0,115	-0,014
-243,190	-93,468	-0,160	0,031
-242,176	-76,716	0,064	0,016
-241,161	102,106	0,058	0,048
-240,146	-122,783	-0,044	-0,005
-239,132	616,358	-0,027	0,048
-238,117	-134,903	0,071	-0,006
-237,103	173,790	0,058	-0,060
-236,088	-200,000	-0,002	-0,150
-235,073	-15,414	0,061	0,028
-234,059	177,670	0,119	-0,124
-233,044	-36,808	-0,092	0,035
-232,030	-200,000	0,019	0,139
-231,015	800,000	0,063	-0,196
-230,000	7,057	-0,019	-0,010
-228,986	437,725	0,072	-0,112
-227,971	204,518	-0,094	0,105
-226,957	147,178	0,091	0,087
-225,942	-200,000	0,023	0,125
-224,927	82,623	0,018	0,014
-223,913	-142,760	-0,079	-0,005
-222,898	43,654	-0,032	-0,021
-221,884	800,000	0,050	-0,125
-220,869	69,140	-0,070	-0,051
-219,855	800,000	-0,055	0,139
-218,840	407,003	-0,102	0,155
-217,825	664,336	0,054	-0,099
-216,811	-136,034	0,084	0,007
-215,796	242,399	-0,044	-0,053
-214,782	800,000	-0,014	-0,042
-213,767	190,285	-0,075	0,081
-212,752	362,753	-0,042	0,060
-211,738	-62,045	0,092	0,027
-210,723	-200,000	0,014	0,104
-209,709	-96,442	0,090	-0,017
-208,694	-68,497	-0,211	-0,058
-207,679	-17,149	0,047	0,021
-206,665	-79,513	0,113	-0,027
-205,650	366,374	-0,017	0,025
-204,636	-200,000	-0,022	-0,089
-203,621	59,628	-0,086	-0,060
-202,606	123,226	-0,059	0,053
-201,592	-45,388	0,072	-0,025
-200,577	5,307	-0,038	-0,020
-199,563	58,727	0,172	0,120
-198,548	5,938	-0,072	0,038
-197,533	-79,157	0,022	-0,005
-196,519	250,034	0,111	0,134
-195,504	-141,656	0,171	0,012
-194,490	48,485	-0,042	0,028
-193,475	-79,928	-0,048	0,011
-192,460	48,773	0,159	0,106
-191,446	47,194	-0,038	-0,025
-190,431	-88,485	0,162	-0,034
-189,417	800,000	-0,031	0,079
-188,402	-35,587	-0,105	0,040
-187,387	108,370	0,094	-0,080
-186,373	800,000	0,010	-0,020
-185,358	178,275	0,078	-0,081
-184,344	-151,032	0,027	0,001
-183,329	-161,600	0,085	-0,003
-182,315	-88,279	-0,029	0,006
-181,300	680,135	0,053	0,099
-180,285	206,280	-0,035	-0,039
-179,271	800,000	-0,063	-0,142
-178,256	80,484	0,017	0,013
-177,242	340,703	-0,031	0,043
-176,227	266,087	0,065	-0,080
-175,212	543,565	0,085	0,145
-174,198	-200,000	0,010	0,049
-173,183	92,983	-0,028	0,023
-172,169	-78,976	-0,090	0,022
-171,154	304,771	0,038	0,051
-170,139	346,521	-0,059	-0,083
-169,125	-84,884	0,054	0,012
-168,110	236,750	-0,075	0,088
-167,096	83,081	0,036	-0,028
-166,081	-143,383	0,092	0,006
-165,066	-88,333	-0,035	-0,007
-164,052	553,129	0,029	0,049
-163,037	163,077	-0,055	0,055
-162,023	-129,363	-0,097	-0,009
-161,008	12,208	-0,071	-0,039
-159,993	-52,951	-0,150	0,049
-158,979	-104,294	-0,044	-0,007
-157,964	800,000	0,013	-0,037
-156,950	-21,761	0,056	-0,024
-155,935	800,000	-0,033	-0,074
-154,920	172,164	0,043	-0,044
-153,906	21,647	0,140	0,081
-152,891	398,243	-0,125	0,187
-151,877	-1,964	0,106	0,053
-150,862	-200,000	-0,024	0,081
-149,847	800,000	-0,097	-0,200
-148,833	237,225	0,048	0,057
-147,818	-200,000	0,015	-0,159
-146,804	1,899	0,048	0,025
-145,789	-100,939	0,139	0,024
-144,775	-124,169	-0,089	0,010
-143,760	-200,000	0,020	0,071
-142,745	800,000	0,046	-0,125
-141,731	-136,820	-0,125	0,010
-140,716	259,744	0,073	-0,090
-139,702	800,000	0,025	-0,055
-138,687	76,525	-0,060	0,045
-137,672	-69,269	-0,084	-0,023
-136,658	-121,632	0,046	0,005
-135,643	-100,697	0,057	0,010
-134,629	-28,936	-0,134	-0,054
-133,614	165,534	0,125	-0,126
-132,599	8,011	-0,053	0,028
-131,585	-38,372	0,046	-0,017
-130,570	800,000	-0,054	-0,131
-129,556	236,696	0,062	0,073
-128,541	415,205	0,048	-0,073
-127,526	-200,000	0,002	0,110
-126,512	-59,716	0,071	-0,021
-125,497	-3,883	0,076	0,037
-124,483	27,252	0,155	0,092
-123,468	800,000	0,022	0,049
-122,453	-128,151	-0,046	0,005
-121,439	-200,000	0,023	-0,107
-120,424	800,000	-0,035	-0,079
-119,410	-200,000	0,001	-0,033
