DTS Sentinel unit serial number:	SN410029Multiplexer serial number:	ORYXHardware model number:	OX2-SRSoftware version number:	ORYX F/W v4,00 Oryx Data Collector v3.7.2.0data status	okinstallation	BH3 CH2differential loss correction	single-endedforward channel	channel 2reverse channel	N/Adate	2023/12/05time	11:17:28forward acquisition time	300,00reverse acquisition time	0,00gamma	499,1914k internal	0,3195k external	0,3195temperature offset calibration	1,0000default loss term (dB/km)	0,3820temperature slope calibration	1,0000multiplexer offset coefficient	1,0000multiplexer slope coefficient	1,0000fibre end	0,00T internal ref (°C)	9,69T ext. ref 1 (°C)	-5,12T ext. ref 2 (°C)	-5,20length (m)	temperature (°C)	Stokes	anti-Stokes-744,400	-200,000	-0,023	-0,149
-743,385	23,615	-0,181	0,108
-742,371	-200,000	-0,017	-0,107
-741,356	20,194	-0,193	0,113
-740,342	-50,615	-0,126	-0,043
-739,327	-121,000	-0,339	0,041
-738,312	800,000	-0,072	-0,159
-737,298	-89,438	-0,250	0,053
-736,283	563,962	-0,058	-0,103
-735,269	-18,651	-0,275	0,125
-734,254	-200,000	0,019	-0,111
-733,239	-104,070	-0,397	-0,067
-732,225	155,501	-0,052	-0,052
-731,210	7,202	0,152	0,083
-730,196	-200,000	-0,018	0,179
-729,181	-52,927	-0,176	-0,059
-728,167	-24,059	0,059	-0,026
-727,152	-65,737	-0,171	-0,050
-726,137	-188,025	-0,046	0,000
-725,123	800,000	-0,021	-0,059
-724,108	800,000	-0,033	-0,071
-723,094	-37,666	-0,072	-0,028
-722,079	-79,055	-0,230	-0,056
-721,064	314,301	0,107	-0,148
-720,050	-200,000	-0,020	0,113
-719,035	-10,162	-0,045	-0,022
-718,021	198,083	-0,083	0,092
-717,006	214,262	-0,097	-0,111
-715,991	-200,000	-0,001	-0,091
-714,977	-134,056	-0,080	0,007
-713,962	80,648	0,094	-0,073
-712,948	-28,757	-0,129	0,054
-711,933	666,470	0,018	0,033
-710,918	294,932	-0,048	0,065
-709,904	-16,029	-0,181	0,083
-708,889	686,940	0,028	-0,054
-707,875	-77,111	-0,046	0,012
-706,860	-97,528	0,137	-0,026
-705,845	123,419	-0,080	0,073
-704,831	93,681	0,130	0,107
-703,816	6,932	0,058	0,031
-702,802	358,536	-0,041	-0,060
-701,787	800,000	-0,065	-0,155
-700,772	-200,000	0,017	0,080
-699,758	-200,000	0,054	-0,206
-698,743	79,851	-0,167	-0,130
-697,729	282,443	0,043	0,056
-696,714	197,546	-0,068	0,076
-695,699	-96,639	-0,180	-0,034
-694,685	-200,000	-0,008	-0,070
-693,670	800,000	0,038	0,089
-692,656	-200,000	-0,036	-0,000
-691,641	39,388	-0,120	-0,078
-690,627	16,920	-0,099	-0,057
-689,612	191,729	0,043	0,047
-688,597	-123,372	0,047	-0,005
-687,583	-200,000	0,034	-0,226
-686,568	-14,655	0,135	-0,063
-685,554	-5,442	0,016	0,008
-684,539	-80,243	-0,102	0,025
-683,524	-27,423	0,125	0,053
-682,510	117,860	-0,028	0,025
-681,495	-140,968	0,113	-0,008
-680,481	60,230	-0,108	-0,077
-679,466	-64,128	0,016	0,005
-678,451	44,855	-0,079	-0,053
-677,437	245,721	-0,019	-0,023
-676,422	151,137	-0,134	-0,133
-675,408	180,244	-0,073	0,078
-674,393	-200,000	0,035	0,125
-673,378	-75,471	-0,196	-0,050
-672,364	-100,176	-0,139	0,025
-671,349	-60,822	0,150	-0,046
-670,335	159,842	-0,041	0,042
-669,320	67,633	-0,021	-0,016
-668,305	83,803	0,090	0,071
-667,291	572,306	-0,026	-0,046
-666,276	1,706	-0,045	0,023
-665,262	-37,685	-0,161	-0,062
-664,247	37,369	-0,028	-0,018
-663,232	183,477	-0,070	0,075
-662,218	800,000	0,040	0,086
-661,203	-200,000	0,014	0,070
-660,189	-200,000	0,033	0,107
-659,174	-124,338	0,086	0,010
-658,159	-22,734	-0,071	-0,031
-657,145	86,535	-0,141	-0,113
-656,130	54,916	-0,152	-0,107
-655,116	-117,511	-0,068	-0,009
-654,101	-200,000	-0,006	0,159
-653,086	486,259	0,066	0,110
-652,072	-43,659	0,123	0,045
-651,057	800,000	0,023	-0,065
-650,043	-134,310	-0,064	-0,006
-649,028	-200,000	0,007	0,024
-648,014	596,335	0,006	0,010
-646,999	138,373	0,017	-0,016
-645,984	-200,000	0,014	0,052
-644,970	-59,658	-0,088	0,027
-643,955	-105,553	-0,062	-0,010
-642,941	29,197	0,070	-0,043
-641,926	800,000	-0,030	0,075
-640,911	-122,341	-0,055	-0,006
-639,897	800,000	-0,034	-0,096
-638,882	-107,928	-0,052	0,008
-637,868	-200,000	-0,031	-0,179
-636,853	-55,279	-0,186	-0,060
-635,838	1,995	-0,132	-0,069
-634,824	800,000	0,024	-0,068
-633,809	291,989	0,015	0,020
-632,795	97,118	-0,063	0,053
-631,780	86,506	0,097	0,078
-630,765	800,000	0,016	0,038
-629,751	-200,000	-0,010	0,050
-628,736	-79,203	-0,139	0,034
-627,722	-62,844	0,101	-0,030
-626,707	554,920	-0,035	-0,062
-625,692	800,000	-0,016	0,047
-624,678	-147,456	0,108	-0,006
-623,663	-200,000	0,008	-0,033
-622,649	94,731	0,045	0,037
-621,634	481,395	-0,028	-0,046
-620,619	-31,407	0,062	0,025
-619,605	-200,000	-0,014	-0,074
-618,590	705,210	-0,029	-0,055
-617,576	321,824	0,097	0,135
-616,561	93,919	-0,026	0,022
-615,546	-200,000	0,044	-0,151
-614,532	168,344	-0,064	-0,066
-613,517	-200,000	0,023	0,111
-612,503	800,000	0,035	0,112
-611,488	177,286	0,094	-0,099
-610,474	-115,775	0,044	-0,006
-609,459	589,623	0,082	0,146
-608,444	-72,360	-0,063	-0,017
-607,430	42,069	0,045	0,029
-606,415	-99,060	0,065	0,012
-605,401	800,000	0,012	-0,029
-604,386	424,487	-0,052	0,082
-603,371	57,138	0,081	0,057
-602,357	-127,733	0,136	-0,014
-601,342	89,575	-0,125	0,101
-600,328	-200,000	0,019	-0,095
-599,313	-200,000	-0,011	-0,143
-598,298	117,301	0,060	-0,053
-597,284	800,000	0,055	-0,118
-596,269	726,227	-0,024	0,046
-595,255	-79,116	-0,092	0,022
-594,240	266,454	0,099	-0,125
-593,225	800,000	-0,026	0,078
-592,211	705,085	-0,048	-0,093
-591,196	-56,549	0,094	-0,030
-590,182	521,431	0,015	0,026
-589,167	187,474	-0,071	-0,077
-588,152	767,126	0,052	0,103
-587,138	-142,810	-0,201	-0,014
-586,123	113,620	-0,185	-0,163
-585,109	-122,650	-0,114	-0,013
-584,094	-139,196	-0,153	0,012
-583,079	-200,000	0,009	0,063
-582,065	157,503	-0,060	-0,061
-581,050	-53,427	-0,126	0,041
-580,036	253,156	-0,031	0,039
-579,021	-200,000	0,011	0,159
-578,006	366,012	0,030	-0,044
-576,992	474,973	-0,085	0,139
-575,977	-48,327	-0,031	-0,011
-574,963	-200,000	0,009	-0,061
-573,948	800,000	0,023	0,050
-572,934	12,043	-0,073	-0,041
-571,919	-33,446	-0,127	0,051
-570,904	196,672	0,005	0,006
-569,890	79,869	-0,029	-0,023
-568,875	16,324	-0,003	0,002
-567,861	-39,468	-0,091	-0,034
-566,846	-28,394	0,032	-0,013
-565,831	-200,000	0,013	0,070
-564,817	-62,521	-0,050	-0,015
-563,802	-200,000	0,008	-0,030
-562,788	118,182	-0,086	-0,077
-561,773	367,015	0,026	0,038
-560,758	69,255	-0,024	-0,018
-559,744	34,970	0,057	0,036
-558,729	800,000	-0,047	0,142
-557,715	-29,700	0,145	0,059
-556,700	-113,896	-0,174	-0,024
-555,685	-24,700	0,027	-0,012
-554,671	-115,511	0,084	0,011
-553,656	-36,715	-0,047	-0,018
-552,642	71,567	0,025	-0,019
-551,627	-24,808	0,089	-0,038
-550,612	684,268	-0,018	0,034
-549,598	800,000	-0,050	0,120
-548,583	347,997	-0,075	-0,108
-547,569	74,276	0,034	-0,026
-546,554	800,000	0,034	0,070
-545,539	64,973	-0,032	-0,024
-544,525	104,040	-0,096	0,081
-543,510	800,000	-0,034	0,083
-542,496	-200,000	-0,009	-0,037
-541,481	12,304	0,020	-0,011
-540,466	-123,936	0,128	-0,014
-539,452	800,000	0,029	0,067
-538,437	52,340	-0,039	0,027
-537,423	377,524	-0,074	-0,110
-536,408	-16,047	0,127	-0,058
-535,393	800,000	-0,030	-0,069
-534,379	800,000	-0,084	-0,186
-533,364	-115,284	0,033	-0,004
-532,350	-62,629	0,090	0,027
-531,335	-200,000	0,014	-0,059
-530,321	-200,000	0,032	0,104
-529,306	-200,000	-0,021	0,074
-528,291	7,966	-0,119	-0,064
-527,277	188,055	-0,030	0,032
-526,262	-9,401	-0,031	0,015
-525,248	-36,168	0,030	0,012
-524,233	21,749	-0,024	0,014
-523,218	20,184	-0,103	0,060
-522,204	173,063	-0,053	-0,056
-521,189	396,842	-0,097	-0,147
-520,175	-82,438	-0,090	-0,021
-519,160	115,916	-0,103	-0,091
-518,145	-102,283	0,063	0,011
-517,131	50,626	0,010	0,007
-516,116	-62,906	0,117	-0,035
-515,102	-200,000	0,028	-0,216
-514,087	-138,817	-0,075	-0,006
-513,072	-200,000	0,005	-0,114
-512,058	800,000	-0,066	-0,180
-511,043	800,000	0,006	0,012
-510,029	61,320	-0,049	-0,035
-509,014	-200,000	0,025	0,157
-507,999	385,705	0,066	0,099
-506,985	-200,000	-0,007	0,072
-505,970	-59,584	0,059	0,018
-504,956	-200,000	-0,028	-0,115
-503,941	-123,379	-0,102	-0,012
-502,926	800,000	0,037	0,083
-501,912	199,811	-0,033	0,036
-500,897	800,000	-0,041	-0,111
-499,883	800,000	-0,026	0,072
-498,868	-123,065	-0,107	0,012
-497,853	-126,166	0,089	-0,009
-496,839	-36,477	-0,046	0,018
-495,824	-98,424	-0,064	-0,012
-494,810	-142,081	0,244	0,017
-493,795	448,694	0,031	-0,049
-492,781	-1,728	-0,092	-0,047
-491,766	-200,000	-0,012	0,048
-490,751	-108,130	-0,221	-0,034
-489,737	-200,000	-0,010	-0,112
-488,722	-75,763	0,054	-0,014
-487,708	458,372	0,038	0,062
-486,693	-185,913	-0,133	0,001
-485,678	-37,397	-0,127	-0,049
-484,664	-200,000	-0,011	-0,062
-483,649	154,577	-0,041	-0,040
-482,635	353,889	-0,046	-0,066
-481,620	800,000	-0,026	0,059
-480,605	507,186	-0,094	0,158
-479,591	-39,864	0,078	-0,029
-478,576	159,901	0,093	-0,094
-477,562	57,876	-0,080	-0,056
-476,547	546,444	0,054	-0,093
-475,532	-140,999	0,067	-0,005
-474,518	800,000	-0,052	0,107
-473,503	-200,000	0,019	0,100
-472,489	162,125	-0,036	-0,036
-471,474	-200,000	0,003	-0,064
-470,459	12,096	0,040	-0,022
-469,445	-200,000	0,040	-0,180
-468,430	293,651	-0,049	-0,065
-467,416	-148,008	0,057	-0,003
-466,401	800,000	-0,070	0,143
-465,386	-200,000	-0,014	0,144
-464,372	3,263	0,016	-0,008
-463,357	-200,000	0,009	0,040
-462,343	83,832	0,135	-0,106
-461,328	800,000	-0,049	0,127
-460,313	124,534	0,062	-0,056
-459,299	-200,000	-0,004	-0,032
-458,284	800,000	-0,015	-0,037
-457,270	-200,000	-0,017	-0,099
-456,255	-200,000	-0,027	0,098
-455,241	35,107	0,046	0,029
-454,226	-75,390	0,128	0,033
-453,211	-146,193	0,075	0,005
-452,197	-99,873	0,127	0,023
-451,182	165,650	-0,027	0,027
-450,168	214,569	0,036	-0,041
-449,153	32,847	-0,041	0,026
-448,138	-200,000	0,011	-0,045
-447,124	-200,000	-0,004	-0,031
-446,109	-87,527	0,056	0,012
-445,095	44,874	0,075	0,050
-444,080	-200,000	0,018	-0,083
-443,065	-200,000	0,040	0,147
-442,051	712,469	0,038	-0,074
-441,036	-75,658	0,028	-0,007
-440,022	-90,853	-0,184	0,038
-439,007	-200,000	0,009	0,033
-437,992	800,000	0,040	0,119
-436,978	-121,002	-0,058	0,007
-435,963	-114,869	0,077	-0,010
-434,949	-200,000	-0,004	-0,101
-433,934	800,000	-0,011	-0,027
-432,919	800,000	-0,060	-0,157
-431,905	385,314	0,031	-0,046
-430,890	397,888	0,024	-0,036
-429,876	-171,358	0,183	0,004
-428,861	-28,046	0,009	0,004
-427,846	-200,000	0,014	-0,079
-426,832	-200,000	-0,020	-0,095
-425,817	-122,592	0,024	-0,003
-424,803	0,335	0,114	0,058
-423,788	800,000	0,032	0,100
-422,773	-200,000	-0,003	0,021
-421,759	71,455	0,036	0,027
-420,744	-156,406	0,129	-0,006
-419,730	155,694	0,005	-0,005
-418,715	800,000	-0,023	0,048
-417,701	-13,527	0,109	0,051
-416,686	76,600	-0,136	-0,104
-415,671	-47,074	0,105	-0,037
-414,657	-200,000	0,013	0,123
-413,642	-200,000	-0,004	0,018
-412,628	492,141	0,071	-0,118
-411,613	-134,629	-0,154	-0,013
-410,598	30,199	-0,017	0,010
-409,584	-53,666	0,160	0,052
-408,569	58,920	0,148	0,105
-407,555	800,000	0,075	0,232
-406,540	-133,651	-0,062	0,006
-405,525	143,390	0,078	-0,074
-404,511	325,122	0,017	0,023
-403,496	-200,000	-0,019	-0,160
-402,482	-68,313	-0,053	-0,015
-401,467	-100,836	0,070	-0,012
-400,452	14,338	0,092	-0,052
-399,438	403,717	-0,056	-0,085
-398,423	148,764	0,084	0,082
-397,409	-200,000	-0,043	-0,164
-396,394	114,302	-0,129	-0,113
-395,379	-200,000	0,038	-0,132
-394,365	-87,426	0,202	0,044
-393,350	174,049	-0,081	0,084
-392,336	149,520	0,148	0,144
-391,321	-0,848	0,038	0,019
-390,306	-41,176	-0,115	-0,042
-389,292	-165,857	0,214	0,006
-388,277	800,000	0,044	-0,093
-387,263	-16,991	0,090	-0,041
-386,248	337,836	-0,034	-0,047
-385,233	74,836	-0,062	0,047
-384,219	-200,000	-0,003	-0,164
-383,204	382,490	-0,106	0,157
-382,190	14,727	0,028	-0,016
-381,175	-200,000	0,015	0,063
-380,160	-200,000	0,000	0,158
-379,146	800,000	-0,023	-0,060
-378,131	93,395	-0,051	0,042
-377,117	334,840	-0,097	-0,136
-376,102	-200,000	-0,019	0,140
-375,088	-64,710	-0,059	-0,017
-374,073	-158,162	0,047	0,002
-373,058	-155,439	-0,116	-0,005
-372,044	-200,000	0,013	0,061
-371,029	89,149	0,121	0,097
-370,015	249,457	-0,114	0,139
-369,000	-42,181	-0,024	0,009
-367,985	553,820	-0,096	-0,166
-366,971	800,000	0,064	-0,131
-365,956	800,000	0,051	-0,105
-364,942	-200,000	0,000	0,070
-363,927	349,369	0,046	0,066
-362,912	-200,000	-0,005	-0,032
-361,898	-92,171	-0,125	-0,025
-360,883	650,012	-0,019	-0,035
-359,869	673,501	-0,031	-0,058
-358,854	264,200	-0,088	0,110
-357,839	-56,680	0,041	-0,013
-356,825	800,000	0,007	0,015
-355,810	-162,144	0,046	-0,002
-354,796	800,000	-0,035	-0,080
-353,781	-154,598	0,211	-0,010
-352,766	-20,991	-0,054	0,024
-351,752	-200,000	0,010	-0,060
-350,737	-66,911	-0,011	-0,003
-349,723	296,950	0,055	0,073
-348,708	-97,602	0,165	0,030
-347,693	800,000	-0,061	-0,122
-346,679	800,000	0,028	0,058
-345,664	316,689	0,035	-0,048
-344,650	374,758	-0,065	-0,095
-343,635	800,000	-0,026	0,078
-342,620	14,199	0,036	-0,020
-341,606	-200,000	0,024	0,078
-340,591	-178,096	0,084	0,001
-339,577	-200,000	0,005	-0,018
-338,562	504,736	-0,026	-0,043
-337,548	75,119	0,083	0,063
-336,533	-200,000	-0,028	0,099
-335,518	259,822	0,079	0,098
-334,504	503,170	-0,057	0,095
-333,489	170,407	-0,078	-0,080
-332,475	800,000	-0,042	0,101
-331,460	-75,307	-0,084	0,021
-330,445	181,480	-0,049	0,052
-329,431	-43,466	-0,053	-0,019
-328,416	800,000	-0,034	0,074
-327,402	126,095	-0,019	-0,017
-326,387	800,000	0,005	0,012
-325,372	-41,536	-0,036	-0,013
-324,358	311,246	0,038	-0,051
-323,343	-200,000	-0,018	0,074
-322,329	-200,000	0,019	0,150
-321,314	-79,425	0,020	-0,005
-320,299	-32,457	0,137	0,055
-319,285	634,297	0,052	0,094
-318,270	-97,274	-0,134	-0,025
-317,256	372,504	-0,077	-0,113
-316,241	-69,637	0,040	-0,011
-315,226	11,713	-0,065	0,035
-314,212	22,019	0,115	0,067
-313,197	-200,000	0,013	0,072
-312,183	-25,655	0,151	0,064
-311,168	-200,000	-0,056	-0,202
-310,153	664,436	0,076	-0,140
-309,139	-147,870	-0,079	0,005
-308,124	-25,333	0,054	0,023
-307,110	-119,041	0,119	0,015
-306,095	-200,000	0,023	0,097
-305,080	-200,000	0,003	0,154
-304,066	218,118	-0,114	0,130
-303,051	131,926	0,076	-0,070
-302,037	118,135	0,032	-0,028
-301,022	800,000	0,024	0,049
-300,008	-200,000	-0,008	0,075
-298,993	470,892	0,054	-0,087
-297,978	83,681	-0,099	0,077
-296,964	-146,070	0,022	-0,001
-295,949	-200,000	-0,042	-0,154
-294,935	33,176	-0,066	0,041
-293,920	616,119	0,063	-0,114
-292,905	800,000	0,054	0,115
-291,891	-171,016	0,108	0,003
-290,876	40,305	0,050	0,032
-289,862	452,245	0,142	-0,226
-288,847	-83,479	-0,089	0,020
-287,832	185,888	0,040	0,043
-286,818	333,873	0,054	-0,075
-285,803	382,641	-0,058	0,085
-284,789	213,462	0,123	-0,139
-283,774	-200,000	0,032	0,190
-282,759	800,000	0,033	0,074
-281,745	460,034	0,042	-0,067
-280,730	-119,988	-0,032	0,004
-279,716	57,625	0,084	0,059
-278,701	216,702	0,050	-0,057
-277,686	6,765	0,102	0,054
-276,672	133,601	0,075	0,070
-275,657	-72,101	-0,061	-0,016
-274,643	251,143	0,061	0,075
-273,628	-45,756	-0,111	0,039
-272,613	132,956	-0,026	-0,024
-271,599	800,000	0,023	0,053
-270,584	-200,000	0,010	0,039
-269,570	-36,710	-0,181	0,069
-268,555	76,443	0,030	0,022
-267,540	47,865	0,083	-0,055
-266,526	6,217	-0,035	-0,018
-265,511	-27,130	0,078	-0,033
-264,497	20,196	-0,034	0,020
-263,482	-200,000	-0,029	0,109
-262,467	512,680	-0,004	-0,007
-261,453	-127,748	0,157	-0,016
-260,438	87,628	-0,105	0,083
-259,424	-20,630	-0,072	-0,032
-258,409	33,220	-0,080	-0,050
-257,395	-200,000	0,028	-0,091
-256,380	-200,000	-0,003	0,014
-255,365	-85,218	-0,052	-0,012
-254,351	-114,325	0,075	0,010
-253,336	57,510	-0,037	-0,026
-252,322	-200,000	0,003	0,023
-251,307	-200,000	-0,003	0,065
-250,292	34,166	0,043	0,027
-249,278	359,890	0,035	-0,051
-248,263	198,568	-0,046	-0,051
-247,249	95,289	0,091	-0,074
-246,234	316,089	-0,075	0,101
-245,219	-140,197	-0,113	-0,008
-244,205	-200,000	-0,010	-0,160
-243,190	507,804	0,074	0,123
-242,176	-200,000	-0,006	0,104
-241,161	258,842	0,072	0,089
-240,146	54,208	0,051	-0,035
-239,132	151,775	0,087	0,084
-238,117	-200,000	-0,024	0,167
-237,103	236,886	-0,072	-0,085
-236,088	-200,000	0,005	-0,060
-235,073	200,996	0,014	-0,015
-234,059	800,000	-0,033	0,102
-233,044	85,893	-0,028	0,022
-232,030	-69,021	0,046	-0,013
-231,015	47,683	-0,113	0,075
-230,000	-200,000	0,009	0,061
-228,986	-127,672	-0,054	-0,006
-227,971	166,390	0,165	0,167
-226,957	211,099	-0,034	-0,038
-225,942	740,977	-0,057	0,109
-224,927	-137,343	0,070	0,006
-223,913	552,209	0,057	-0,098
-222,898	45,848	-0,108	-0,071
-221,884	62,418	0,045	-0,032
-220,869	-200,000	0,014	-0,051
-219,855	-1,673	0,145	-0,073
-218,840	43,383	0,045	-0,029
-217,825	164,099	-0,067	0,067
-216,811	-54,274	-0,028	0,009
-215,796	-0,146	-0,164	0,083
-214,782	438,902	0,022	-0,034
-213,767	22,998	-0,048	0,028
-212,752	21,301	0,099	0,057
-211,738	-200,000	0,032	-0,190
-210,723	79,997	-0,139	0,107
-209,709	92,904	-0,087	0,070
-208,694	-200,000	-0,023	-0,139
-207,679	273,692	-0,052	-0,065
-206,665	90,055	0,052	-0,042
-205,650	336,691	0,070	-0,098
-204,636	800,000	0,007	0,019
-203,621	125,600	0,019	-0,017
-202,606	-200,000	-0,012	0,099
-201,592	218,510	-0,019	-0,022
-200,577	-200,000	-0,027	0,093
-199,563	-200,000	-0,008	-0,064
-198,548	800,000	-0,025	-0,058
-197,533	800,000	0,053	0,154
-196,519	250,195	0,072	-0,087
-195,504	194,403	0,092	-0,099
-194,490	50,677	0,051	-0,034
-193,475	8,683	0,197	-0,106
-192,460	39,672	-0,091	-0,058
-191,446	-200,000	-0,024	0,119
-190,431	800,000	0,030	0,090
-189,417	800,000	0,054	-0,122
-188,402	-51,577	-0,058	-0,019
-187,387	83,727	-0,036	0,028
-186,373	-200,000	0,001	0,073
-185,358	61,946	-0,123	-0,087
-184,344	242,835	0,077	0,092
-183,329	-200,000	-0,004	0,037
-182,315	98,406	-0,037	0,031
-181,300	423,750	-0,110	-0,169
-180,285	345,705	-0,067	-0,095
-179,271	134,739	-0,037	-0,034
-178,256	786,341	0,028	0,055
-177,242	-200,000	0,035	0,191
-176,227	800,000	-0,027	0,086
-175,212	800,000	-0,062	-0,162
-174,198	-200,000	-0,002	-0,067
-173,183	-200,000	0,007	-0,045
-172,169	-60,227	-0,085	0,026
-171,154	-49,841	-0,065	-0,022
-170,139	-130,550	0,120	-0,011
-169,125	-200,000	0,014	0,049
-168,110	-200,000	-0,006	0,100
-167,096	605,435	-0,044	0,078
-166,081	-187,839	-0,070	0,001
-165,066	37,972	-0,126	0,080
-164,052	284,155	0,016	0,020
-163,037	-143,954	0,160	-0,011
-162,023	-32,406	0,044	-0,017
-161,008	800,000	0,007	0,021
-159,993	-200,000	-0,003	-0,072
-158,979	-77,039	0,248	-0,061
-157,964	-66,625	-0,223	-0,063
-156,950	-200,000	0,005	-0,044
-155,935	-200,000	0,012	-0,038
-154,920	-77,357	-0,125	-0,031
-153,906	78,845	-0,087	0,066
-152,891	-200,000	0,005	0,040
-151,877	407,371	-0,013	0,020
-150,862	-2,213	0,078	-0,039
-149,847	-3,383	0,052	0,026
-148,833	-200,000	-0,012	-0,088
-147,818	-0,503	0,061	0,031
-146,804	401,938	-0,105	0,158
-145,789	93,862	-0,109	0,088
-144,775	800,000	-0,025	0,062
-143,760	-9,901	-0,082	0,039
-142,745	23,909	-0,136	-0,079
-141,731	-8,883	-0,055	-0,026
-140,716	-200,000	-0,004	0,042
-139,702	-67,027	0,203	0,057
-138,687	800,000	-0,031	-0,084
-137,672	436,879	0,027	0,041
-136,658	-200,000	-0,022	0,105
-135,643	-104,444	0,055	0,009
-134,629	800,000	-0,012	-0,027
-133,614	8,320	0,087	0,046
-132,599	-200,000	-0,020	0,245
-131,585	800,000	0,012	-0,027
-130,570	-148,930	-0,182	-0,010
-129,556	800,000	-0,008	0,018
-128,541	28,579	0,097	0,058
-127,526	800,000	-0,045	-0,126
-126,512	800,000	0,016	-0,036
-125,497	116,920	0,076	0,067
-124,483	800,000	-0,007	0,019
-123,468	-200,000	0,019	0,224
-122,453	-200,000	-0,017	-0,225
-121,439	235,589	-0,094	-0,111
-120,424	101,819	0,054	-0,045
-119,410	-72,397	-0,048	0,013
-118,395	149,263	-0,056	0,054
