DTS Sentinel unit serial number:	SN410029Multiplexer serial number:	ORYXHardware model number:	OX2-SRSoftware version number:	ORYX F/W v4,00 Oryx Data Collector v3.7.2.0data status	okinstallation	BH3 CH2differential loss correction	single-endedforward channel	channel 2reverse channel	N/Adate	2023/12/05time	13:12:28forward acquisition time	300,00reverse acquisition time	0,00gamma	499,1914k internal	0,3195k external	0,3195temperature offset calibration	1,0000default loss term (dB/km)	0,3820temperature slope calibration	1,0000multiplexer offset coefficient	1,0000multiplexer slope coefficient	1,0000fibre end	0,00T internal ref (°C)	10,16T ext. ref 1 (°C)	-3,98T ext. ref 2 (°C)	-4,03length (m)	temperature (°C)	Stokes	anti-Stokes-744,400	800,000	0,019	0,051
-743,385	-89,828	-0,149	0,032
-742,371	142,505	0,029	-0,028
-741,356	593,688	-0,111	0,201
-740,342	45,532	-0,099	-0,066
-739,327	-98,070	-0,309	0,057
-738,312	-200,000	0,032	-0,157
-737,298	-68,832	-0,238	0,067
-736,283	800,000	-0,069	-0,193
-735,269	286,441	-0,139	0,184
-734,254	-114,848	-0,067	-0,009
-733,239	-49,970	-0,360	-0,124
-732,225	-200,000	0,007	-0,139
-731,210	-60,191	0,084	0,026
-730,196	36,241	-0,067	-0,043
-729,181	800,000	-0,016	-0,046
-728,167	283,819	0,011	-0,014
-727,152	-25,670	-0,134	-0,057
-726,137	404,744	0,028	-0,043
-725,123	-60,662	-0,200	0,061
-724,108	261,409	-0,055	-0,069
-723,094	800,000	0,066	-0,158
-722,079	106,814	-0,103	-0,089
-721,064	-56,651	0,040	-0,013
-720,050	714,204	0,015	-0,028
-719,035	5,571	-0,084	0,045
-718,021	681,047	-0,035	-0,067
-717,006	82,492	-0,067	-0,053
-715,991	333,461	0,058	-0,081
-714,977	-81,641	-0,090	-0,021
-713,962	-200,000	-0,018	-0,071
-712,948	366,728	-0,030	0,045
-711,933	-46,571	0,097	0,035
-710,918	255,074	-0,020	0,025
-709,904	546,060	-0,078	-0,136
-708,889	137,848	0,057	-0,055
-707,875	-98,775	-0,071	-0,013
-706,860	800,000	0,048	-0,134
-705,845	800,000	-0,011	-0,029
-704,831	94,407	0,078	0,064
-703,816	771,105	-0,072	0,144
-702,802	184,591	0,048	-0,052
-701,787	124,726	-0,055	-0,050
-700,772	-22,842	-0,132	0,058
-699,758	577,016	-0,031	-0,056
-698,743	800,000	0,037	0,104
-697,729	121,205	-0,060	-0,055
-696,714	-98,944	-0,169	0,031
-695,699	-1,634	0,050	-0,025
-694,685	-200,000	-0,004	0,054
-693,670	-123,764	-0,178	0,020
-692,656	-87,179	0,078	0,017
-691,641	-7,504	-0,055	0,027
-690,627	49,539	0,022	-0,015
-689,612	52,876	-0,013	0,009
-688,597	-200,000	0,020	-0,096
-687,583	-200,000	0,028	-0,108
-686,568	137,229	-0,106	-0,101
-685,554	-110,356	-0,022	0,003
-684,539	-187,467	-0,133	-0,001
-683,524	670,207	-0,068	-0,129
-682,510	-74,815	0,061	-0,016
-681,495	245,482	-0,074	-0,091
-680,481	-160,498	-0,188	-0,007
-679,466	-80,057	-0,093	-0,022
-678,451	-200,000	-0,010	0,095
-677,437	800,000	0,051	0,119
-676,422	-109,070	0,038	0,006
-675,408	631,914	-0,060	-0,111
-674,393	-56,783	-0,053	-0,017
-673,378	800,000	-0,034	-0,100
-672,364	800,000	-0,017	0,042
-671,349	-200,000	0,003	0,009
-670,335	166,304	0,048	-0,049
-669,320	160,488	-0,026	0,026
-668,305	103,356	0,125	0,106
-667,291	112,510	0,066	0,058
-666,276	206,701	-0,021	0,024
-665,262	-21,183	-0,073	-0,032
-664,247	763,470	-0,052	0,103
-663,232	404,515	0,028	-0,043
-662,218	139,331	-0,109	0,104
-661,203	85,098	-0,093	0,074
-660,189	-200,000	0,007	-0,034
-659,174	72,893	-0,088	0,066
-658,159	-200,000	0,053	-0,176
-657,145	789,538	-0,007	0,014
-656,130	-44,326	0,031	0,011
-655,116	-114,552	-0,034	0,005
-654,101	103,417	-0,071	0,060
-653,086	-120,942	-0,086	-0,010
-652,072	104,343	-0,120	-0,103
-651,057	-138,085	-0,134	0,011
-650,043	-159,432	0,034	0,001
-649,028	573,352	-0,053	-0,095
-648,014	800,000	0,042	0,133
-646,999	-47,485	0,062	-0,022
-645,984	-200,000	-0,043	0,186
-644,970	81,018	-0,073	0,057
-643,955	103,592	-0,052	-0,045
-642,941	-200,000	0,015	-0,119
-641,926	-200,000	0,011	-0,096
-640,911	-44,168	-0,184	0,067
-639,897	-38,326	0,082	0,031
-638,882	313,174	-0,088	-0,120
-637,868	-200,000	-0,039	-0,127
-636,853	-123,250	0,024	-0,003
-635,838	800,000	0,045	-0,101
-634,824	89,310	-0,145	0,117
-633,809	-200,000	0,010	0,046
-632,795	-58,692	-0,110	0,034
-631,780	-14,910	0,019	-0,009
-630,765	-7,769	-0,063	0,031
-629,751	71,061	-0,084	0,063
-628,736	-33,123	-0,002	0,001
-627,722	-110,523	-0,120	0,018
-626,707	800,000	0,060	-0,179
-625,692	650,395	-0,054	-0,101
-624,678	-200,000	0,015	-0,153
-623,663	609,068	0,077	-0,139
-622,649	-200,000	-0,003	-0,076
-621,634	233,290	-0,120	-0,143
-620,619	24,622	0,071	-0,042
-619,605	156,163	0,041	-0,041
-618,590	-86,683	0,113	-0,025
-617,576	-114,207	-0,193	-0,027
-616,561	-5,803	0,043	-0,021
-615,546	159,463	-0,023	-0,023
-614,532	-200,000	0,014	-0,089
-613,517	-200,000	-0,007	-0,127
-612,503	-49,359	0,075	-0,026
-611,488	4,950	-0,044	0,024
-610,474	512,009	0,062	0,105
-609,459	-200,000	0,001	0,010
-608,444	349,347	-0,053	0,077
-607,430	-175,452	-0,127	-0,002
-606,415	-200,000	-0,003	0,115
-605,401	285,784	-0,042	0,056
-604,386	36,794	0,031	-0,020
-603,371	-138,885	0,141	0,011
-602,357	-114,016	-0,138	0,019
-601,342	-168,301	-0,066	-0,002
-600,328	47,685	0,028	0,019
-599,313	126,164	-0,073	0,067
-598,298	339,206	-0,024	-0,034
-597,284	131,134	0,015	-0,014
-596,269	391,245	0,032	-0,048
-595,255	177,521	0,069	-0,073
-594,240	63,119	-0,107	0,077
-593,225	-200,000	-0,043	-0,140
-592,211	-200,000	-0,013	-0,103
-591,196	-58,637	-0,086	-0,027
-590,182	156,180	0,046	0,046
-589,167	-200,000	-0,009	0,103
-588,152	-200,000	-0,004	0,098
-587,138	-67,735	0,156	-0,044
-586,123	-128,337	-0,100	0,010
-585,109	-200,000	0,023	-0,108
-584,094	800,000	-0,027	-0,061
-583,079	-130,058	0,086	-0,008
-582,065	25,885	0,130	-0,079
-581,050	519,799	0,009	-0,016
-580,036	-66,162	0,028	-0,008
-579,021	-81,692	-0,126	-0,030
-578,006	113,766	-0,049	-0,043
-576,992	21,813	-0,038	-0,023
-575,977	73,950	0,116	-0,088
-574,963	2,982	0,100	-0,053
-573,948	-200,000	0,005	0,032
-572,934	292,295	0,057	0,075
-571,919	-200,000	-0,004	0,037
-570,904	14,036	-0,173	0,097
-569,890	378,261	-0,025	-0,037
-568,875	800,000	-0,037	-0,076
-567,861	508,376	0,055	0,094
-566,846	262,560	0,022	0,027
-565,831	-56,110	0,035	-0,011
-564,817	156,650	-0,024	-0,024
-563,802	60,679	-0,035	-0,025
-562,788	-39,646	0,051	-0,019
-561,773	-4,417	-0,091	-0,045
-560,758	-12,874	0,052	0,024
-559,744	-109,187	-0,083	0,013
-558,729	-200,000	-0,021	-0,082
-557,715	-200,000	-0,013	0,156
-556,700	-200,000	0,006	-0,065
-555,685	-91,371	-0,080	-0,016
-554,671	-26,889	-0,104	0,044
-553,656	753,597	0,007	-0,013
-552,642	14,709	0,056	0,032
-551,627	183,551	0,138	-0,147
-550,612	136,996	-0,057	-0,054
-549,598	-7,367	0,074	0,036
-548,583	-4,061	-0,093	0,047
-547,569	-200,000	-0,084	0,000
-546,554	800,000	0,018	0,046
-545,539	-200,000	-0,012	0,226
-544,525	-200,000	0,015	0,095
-543,510	245,400	-0,060	-0,073
-542,496	-49,054	0,073	-0,025
-541,481	-200,000	0,006	-0,037
-540,466	800,000	0,029	-0,058
-539,452	-200,000	-0,027	0,103
-538,437	-200,000	-0,004	0,118
-537,423	-115,679	0,083	-0,011
-536,408	-109,199	-0,056	0,008
-535,393	23,265	-0,112	-0,066
-534,379	215,949	0,105	-0,121
-533,364	-200,000	-0,014	-0,066
-532,350	-200,000	0,014	0,219
-531,335	453,075	0,030	-0,048
-530,321	191,582	-0,071	0,077
-529,306	-200,000	0,013	0,110
-528,291	706,597	-0,097	-0,185
-527,277	-93,759	-0,120	-0,024
-526,262	431,133	0,053	0,083
-525,248	188,213	-0,043	-0,046
-524,233	-13,635	-0,037	-0,017
-523,218	227,314	-0,070	-0,082
-522,204	800,000	0,027	0,061
-521,189	660,623	-0,072	-0,135
-520,175	-75,254	-0,150	-0,038
-519,160	660,472	0,073	0,136
-518,145	211,722	0,123	-0,140
-517,131	-200,000	-0,012	0,048
-516,116	-103,046	0,152	0,026
-515,102	-200,000	-0,001	-0,068
-514,087	34,233	0,100	-0,063
-513,072	800,000	0,015	-0,044
-512,058	31,471	0,048	-0,029
-511,043	649,064	-0,038	-0,071
-510,029	223,796	0,107	-0,125
-509,014	588,781	0,037	0,067
-507,999	-200,000	-0,011	-0,059
-506,985	-200,000	-0,043	-0,140
-505,970	417,083	0,025	-0,038
-504,956	-200,000	-0,011	0,089
-503,941	800,000	0,099	-0,206
-502,926	-69,811	0,044	0,012
-501,912	-200,000	-0,007	0,118
-500,897	10,032	0,053	0,029
-499,883	-135,351	-0,233	-0,020
-498,868	527,850	-0,069	-0,117
-497,853	184,201	0,037	0,040
-496,839	-200,000	-0,039	-0,149
-495,824	-200,000	-0,011	-0,063
-494,810	-200,000	-0,006	0,046
-493,795	109,285	0,091	0,079
-492,781	-98,983	-0,077	-0,014
-491,766	129,986	-0,036	0,033
-490,751	239,826	0,051	-0,061
-489,737	74,201	-0,038	-0,029
-488,722	31,397	0,068	-0,042
-487,708	222,113	0,040	0,046
-486,693	-149,867	0,130	0,007
-485,678	235,139	-0,026	-0,031
-484,664	-200,000	0,001	-0,124
-483,649	161,245	-0,090	0,091
-482,635	-16,173	-0,080	-0,037
-481,620	43,279	0,108	-0,071
-480,605	241,447	0,117	-0,141
-479,591	206,719	-0,054	-0,060
-478,576	126,742	-0,058	0,053
-477,562	-200,000	-0,015	-0,072
-476,547	800,000	0,042	0,102
-475,532	304,406	-0,020	-0,026
-474,518	364,845	0,090	-0,131
-473,503	15,974	-0,096	-0,054
-472,489	-200,000	-0,061	0,257
-471,474	-142,417	0,099	0,007
-470,459	101,833	-0,026	-0,022
-469,445	431,516	-0,062	0,098
-468,430	800,000	-0,039	0,082
-467,416	-200,000	-0,019	0,143
-466,401	800,000	-0,046	0,123
-465,386	332,656	0,016	-0,023
-464,372	60,320	-0,087	-0,062
-463,357	-200,000	0,002	0,042
-462,343	-84,079	0,072	0,016
-461,328	800,000	-0,046	0,115
-460,313	800,000	-0,028	0,070
-459,299	-38,280	0,018	-0,007
-458,284	167,435	0,065	0,067
-457,270	232,716	0,074	0,087
-456,255	25,885	-0,057	-0,034
-455,241	102,138	-0,055	0,046
-454,226	172,963	-0,025	-0,026
-453,211	122,466	0,046	-0,042
-452,197	-200,000	-0,004	-0,052
-451,182	-200,000	0,005	-0,086
-450,168	-72,316	0,057	-0,015
-449,153	800,000	0,049	-0,100
-448,138	-83,716	0,122	-0,028
-447,124	800,000	0,027	0,060
-446,109	81,482	0,130	-0,101
-445,095	-2,742	0,093	0,047
-444,080	241,891	0,040	0,049
-443,065	800,000	0,022	0,047
-442,051	-53,914	-0,107	-0,035
-441,036	480,559	0,072	-0,118
-440,022	305,563	0,084	-0,113
-439,007	225,815	0,045	0,052
-437,992	0,195	0,090	-0,046
-436,978	-7,857	0,139	0,067
-435,963	668,970	0,069	0,128
-434,949	-200,000	-0,003	-0,034
-433,934	-200,000	-0,018	0,093
-432,919	724,231	-0,035	-0,067
-431,905	-103,232	-0,134	-0,022
-430,890	800,000	0,042	0,095
-429,876	132,572	0,077	0,072
-428,861	270,813	-0,084	0,107
-427,846	-10,419	-0,152	0,072
-426,832	-200,000	-0,025	0,198
-425,817	-200,000	0,010	-0,121
-424,803	-89,150	0,146	-0,031
-423,788	-52,393	0,077	0,025
-422,773	-200,000	0,039	0,170
-421,759	800,000	0,068	0,163
-420,744	-148,883	-0,148	0,008
-419,730	115,828	-0,111	-0,098
-418,715	485,152	0,027	0,045
-417,701	-200,000	0,001	0,027
-416,686	77,731	0,114	0,087
-415,671	-200,000	0,045	0,155
-414,657	169,443	-0,088	-0,091
-413,642	522,245	-0,017	-0,030
-412,628	268,757	0,026	0,033
-411,613	80,443	-0,101	-0,078
-410,598	93,663	0,042	-0,034
-409,584	224,610	-0,033	-0,039
-408,569	14,214	-0,085	0,048
-407,555	405,239	-0,043	0,065
-406,540	-200,000	0,040	0,160
-405,525	45,431	-0,090	0,060
-404,511	30,842	-0,178	-0,109
-403,496	374,494	0,022	-0,032
-402,482	-53,085	0,099	-0,033
-401,467	135,486	-0,076	0,071
-400,452	101,579	0,022	0,018
-399,438	375,634	-0,082	-0,121
-398,423	-200,000	-0,003	-0,023
-397,409	456,464	-0,054	-0,087
-396,394	-141,221	-0,059	-0,004
-395,379	-62,406	0,108	0,032
-394,365	67,657	0,147	0,108
-393,350	-162,704	0,110	-0,004
-392,336	800,000	-0,035	0,075
-391,321	140,382	-0,027	-0,026
-390,306	-200,000	0,035	-0,132
-389,292	800,000	-0,037	-0,095
-388,277	-2,512	-0,089	-0,045
-387,263	-11,854	0,074	0,035
-386,248	-200,000	0,010	0,104
-385,233	-142,605	-0,074	0,005
-384,219	-70,299	-0,046	0,013
-383,204	800,000	-0,071	-0,142
-382,190	-97,801	0,119	0,022
-381,175	29,651	-0,063	-0,038
-380,160	201,535	0,108	-0,120
-379,146	800,000	-0,049	0,151
-378,131	-79,598	-0,112	0,027
-377,117	-200,000	-0,015	0,059
-376,102	-15,387	-0,051	-0,023
-375,088	-200,000	-0,031	0,120
-374,073	-40,258	-0,081	0,030
-373,058	5,122	0,023	0,012
-372,044	-200,000	-0,006	-0,127
-371,029	282,666	0,043	-0,056
-370,015	31,661	0,063	0,039
-369,000	-200,000	-0,013	-0,192
-367,985	-134,413	0,158	0,014
-366,971	147,688	-0,050	-0,049
-365,956	-47,783	-0,123	-0,043
-364,942	-200,000	0,012	0,056
-363,927	-200,000	-0,061	0,240
-362,912	599,755	-0,013	0,023
-361,898	-54,447	0,081	0,026
-360,883	-200,000	-0,000	-0,097
-359,869	-161,167	-0,083	0,003
-358,854	57,338	0,097	-0,068
-357,839	800,000	0,039	0,088
-356,825	317,348	0,028	0,037
-355,810	152,249	-0,061	0,060
-354,796	800,000	0,065	-0,132
-353,781	-200,000	-0,016	-0,122
-352,766	269,340	0,093	0,118
-351,752	-200,000	0,003	-0,220
-350,737	-200,000	0,007	-0,034
-349,723	-200,000	0,002	0,175
-348,708	227,247	0,055	0,064
-347,693	213,808	-0,032	-0,037
-346,679	266,965	-0,121	-0,152
-345,664	800,000	-0,054	-0,117
-344,650	152,771	0,114	0,112
-343,635	-200,000	0,049	0,208
-342,620	-200,000	0,047	0,175
-341,606	-110,637	-0,082	0,012
-340,591	800,000	-0,044	0,136
-339,577	39,511	-0,172	0,110
-338,562	-200,000	0,004	-0,051
-337,548	255,139	0,053	-0,066
-336,533	-79,610	0,051	-0,012
-335,518	-56,851	0,063	-0,020
-334,504	-131,502	-0,123	0,012
-333,489	436,458	0,062	-0,097
-332,475	800,000	-0,017	-0,034
-331,460	-200,000	-0,005	-0,042
-330,445	45,112	-0,058	-0,038
-329,431	800,000	-0,034	-0,098
-328,416	-200,000	0,019	0,090
-327,402	355,441	-0,046	0,066
-326,387	-200,000	-0,010	0,050
-325,372	-200,000	-0,000	0,007
-324,358	374,346	0,077	-0,113
-323,343	202,300	-0,094	-0,105
-322,329	443,397	-0,053	-0,083
-321,314	356,238	0,042	-0,060
-320,299	471,645	-0,041	-0,067
-319,285	56,314	-0,056	-0,039
-318,270	800,000	0,047	0,131
-317,256	544,030	0,020	0,034
-316,241	800,000	-0,029	0,063
-315,226	-179,969	0,082	0,001
-314,212	-32,781	0,062	-0,024
-313,197	-200,000	-0,019	-0,098
-312,183	28,653	0,081	0,049
-311,168	-54,307	0,040	0,013
-310,153	-200,000	-0,049	-0,248
-309,139	-200,000	0,038	-0,133
-308,124	-176,484	0,091	-0,002
-307,110	764,667	-0,036	0,070
-306,095	-171,816	0,050	0,001
-305,080	-200,000	-0,021	0,089
-304,066	45,480	0,113	-0,074
-303,051	-200,000	-0,036	-0,191
-302,037	97,020	-0,093	-0,076
-301,022	707,673	0,048	0,092
-300,008	-70,834	0,160	-0,043
-298,993	53,967	0,084	0,058
-297,978	508,126	0,070	0,117
-296,964	-200,000	0,030	-0,124
-295,949	-200,000	0,005	0,035
-294,935	-47,457	-0,038	0,013
-293,920	159,618	0,061	-0,061
-292,905	34,371	0,124	0,077
-291,891	-200,000	-0,005	0,168
-290,876	159,059	-0,077	-0,076
-289,862	-67,443	-0,063	0,017
-288,847	-17,223	-0,069	-0,031
-287,832	-200,000	-0,004	0,058
-286,818	-200,000	0,021	-0,101
-285,803	-200,000	-0,007	0,049
-284,789	-200,000	0,044	0,156
-283,774	-157,126	0,024	-0,001
-282,759	9,717	-0,147	-0,080
-281,745	-200,000	-0,010	-0,124
-280,730	800,000	-0,026	-0,063
-279,716	-200,000	0,016	0,076
-278,701	-14,146	0,068	0,031
-277,686	-23,484	0,049	0,021
-276,672	-69,864	0,108	0,029
-275,657	800,000	0,003	0,008
-274,643	800,000	0,018	0,048
-273,628	-200,000	0,008	0,040
-272,613	800,000	0,040	-0,091
-271,599	-46,732	0,138	0,048
-270,584	64,245	0,031	-0,022
-269,570	18,749	0,234	0,134
-268,555	138,209	0,067	0,062
-267,540	353,989	-0,055	0,078
-266,526	142,568	-0,064	0,060
-265,511	328,349	0,097	-0,134
-264,497	126,987	0,067	0,061
-263,482	-200,000	0,014	0,102
-262,467	-200,000	0,035	0,139
-261,453	445,024	0,062	0,098
-260,438	-49,922	-0,183	0,062
-259,424	-82,955	0,130	0,030
-258,409	170,054	-0,023	-0,024
-257,395	29,951	0,035	-0,022
-256,380	-200,000	-0,004	-0,027
-255,365	-124,619	-0,163	-0,018
-254,351	224,472	0,067	-0,077
-253,336	-62,256	-0,112	-0,033
-252,322	800,000	-0,010	-0,025
-251,307	800,000	-0,013	0,040
-250,292	775,140	-0,040	-0,078
-249,278	-107,980	-0,019	0,003
-248,263	800,000	-0,044	0,101
-247,249	-200,000	0,028	0,162
-246,234	121,679	-0,037	-0,033
-245,219	210,922	-0,068	-0,077
-244,205	-11,385	0,120	-0,056
-243,190	51,154	0,069	0,047
-242,176	341,008	0,025	0,035
-241,161	-52,756	-0,063	0,021
-240,146	101,291	-0,065	0,054
-239,132	-122,524	-0,186	-0,021
-238,117	28,942	-0,098	-0,059
-237,103	355,720	-0,058	-0,083
-236,088	-200,000	0,001	-0,005
-235,073	-200,000	0,002	0,077
-234,059	800,000	-0,027	0,061
-233,044	285,149	0,036	-0,046
-232,030	148,574	-0,038	0,037
-231,015	-200,000	-0,006	-0,098
-230,000	199,975	-0,061	-0,067
-228,986	34,380	-0,042	0,026
-227,971	719,618	0,033	0,063
-226,957	-200,000	-0,004	0,029
-225,942	52,287	-0,105	0,071
-224,927	15,737	-0,121	-0,068
-223,913	-200,000	-0,014	-0,062
-222,898	12,945	-0,041	0,022
-221,884	-200,000	0,025	0,116
-220,869	800,000	0,037	0,092
-219,855	-164,233	0,072	0,002
-218,840	240,623	-0,032	-0,038
-217,825	800,000	0,012	-0,025
-216,811	-200,000	-0,020	-0,073
-215,796	106,843	-0,035	0,030
-214,782	41,142	0,115	0,074
-213,767	-200,000	0,000	0,092
-212,752	800,000	0,050	-0,111
-211,738	516,388	0,063	0,105
-210,723	238,797	-0,051	0,061
-209,709	2,715	-0,058	0,030
-208,694	-200,000	-0,004	-0,114
-207,679	103,527	-0,159	-0,133
-206,665	-200,000	0,011	-0,115
-205,650	123,778	0,056	-0,050
-204,636	371,150	0,100	0,145
-203,621	204,242	-0,087	-0,096
-202,606	224,022	-0,113	-0,130
-201,592	364,785	0,065	0,094
-200,577	788,206	0,067	0,131
-199,563	-180,610	-0,086	0,001
-198,548	85,986	0,083	0,065
-197,533	188,366	-0,054	-0,058
-196,519	800,000	0,033	0,083
-195,504	-200,000	0,001	-0,039
-194,490	364,397	0,081	-0,117
-193,475	7,152	0,108	-0,057
-192,460	86,056	-0,059	-0,046
-191,446	488,370	0,031	-0,051
-190,431	-200,000	0,010	0,227
-189,417	504,915	0,018	0,030
-188,402	68,436	-0,074	0,054
-187,387	35,478	-0,028	-0,018
-186,373	68,762	-0,023	-0,017
-185,358	338,208	0,026	0,036
-184,344	346,607	0,066	0,093
-183,329	-74,177	0,116	0,030
-182,315	-32,166	0,107	0,043
-181,300	-53,940	-0,050	0,016
-180,285	-122,840	-0,033	0,004
-179,271	-80,578	-0,079	0,019
-178,256	-130,058	-0,078	-0,007
-177,242	92,717	0,077	0,062
-176,227	298,019	0,064	0,084
-175,212	-76,093	0,105	-0,026
-174,198	214,772	0,039	-0,044
-173,183	-144,730	0,051	-0,003
-172,169	-200,000	0,037	-0,168
-171,154	-60,714	0,111	-0,033
-170,139	-84,453	-0,051	-0,011
-169,125	-29,603	0,111	0,045
-168,110	-200,000	-0,015	0,047
-167,096	-32,302	-0,190	0,075
-166,081	-54,244	-0,010	0,003
-165,066	-200,000	-0,002	-0,025
-164,052	576,413	0,036	-0,063
-163,037	232,708	0,063	0,074
-162,023	516,218	0,053	0,088
-161,008	15,828	0,116	0,065
-159,993	-200,000	-0,008	-0,062
-158,979	800,000	-0,036	-0,080
-157,964	286,843	-0,077	0,099
-156,950	478,844	0,016	-0,025
-155,935	193,080	-0,059	0,064
-154,920	69,320	0,133	0,098
-153,906	-200,000	-0,022	0,134
-152,891	458,089	-0,035	-0,056
-151,877	-200,000	0,032	0,120
-150,862	800,000	-0,059	-0,154
-149,847	-16,726	-0,132	0,059
-148,833	-19,717	-0,107	-0,047
-147,818	800,000	-0,049	-0,132
-146,804	800,000	-0,016	-0,032
-145,789	800,000	0,030	-0,072
-144,775	-62,177	0,025	0,007
-143,760	108,267	-0,141	-0,119
-142,745	-20,203	-0,043	0,019
-141,731	-122,020	-0,042	-0,005
-140,716	246,396	-0,108	-0,130
-139,702	800,000	0,036	0,090
-138,687	124,070	0,058	0,052
-137,672	-33,330	0,150	0,059
-136,658	-78,400	-0,106	-0,026
-135,643	-200,000	-0,026	-0,122
-134,629	-1,630	-0,050	-0,025
-133,614	-200,000	-0,005	0,076
-132,599	-200,000	-0,013	0,074
-131,585	303,639	-0,037	-0,049
-130,570	-50,437	0,043	0,015
-129,556	-147,404	-0,057	-0,003
-128,541	27,579	0,036	-0,022
-127,526	-200,000	0,007	-0,046
-126,512	157,052	0,086	-0,085
-125,497	-96,400	0,032	-0,006
-124,483	-156,272	0,055	0,002
-123,468	-86,593	0,094	0,020
-122,453	800,000	-0,078	-0,179
-121,439	302,154	0,066	-0,087
-120,424	-200,000	-0,002	-0,088
-119,410	-87,161	-0,072	0,016
