DTS Sentinel unit serial number:	SN410029Multiplexer serial number:	ORYXHardware model number:	OX2-SRSoftware version number:	ORYX F/W v4,00 Oryx Data Collector v3.7.2.0data status	okinstallation	BH3 CH2differential loss correction	single-endedforward channel	channel 2reverse channel	N/Adate	2023/12/05time	15:17:28forward acquisition time	300,00reverse acquisition time	0,00gamma	499,1914k internal	0,3193k external	0,3193temperature offset calibration	1,0000default loss term (dB/km)	0,3820temperature slope calibration	1,0000multiplexer offset coefficient	1,0000multiplexer slope coefficient	1,0000fibre end	0,00T internal ref (°C)	11,04T ext. ref 1 (°C)	-3,26T ext. ref 2 (°C)	-3,36length (m)	temperature (°C)	Stokes	anti-Stokes-744,400	800,000	-0,081	-0,167
-743,385	-136,644	-0,216	0,018
-742,371	-200,000	-0,012	-0,067
-741,356	-103,026	-0,138	-0,024
-740,342	36,682	-0,064	-0,041
-739,327	-28,306	-0,251	0,105
-738,312	102,984	0,059	-0,050
-737,298	-119,298	-0,228	0,029
-736,283	79,921	-0,084	0,065
-735,269	52,061	-0,243	0,168
-734,254	-200,000	0,015	-0,184
-733,239	-104,760	-0,205	-0,034
-732,225	117,883	-0,037	-0,033
-731,210	-177,863	0,045	0,001
-730,196	-20,400	0,043	-0,019
-729,181	112,097	0,076	0,067
-728,167	112,853	-0,062	-0,055
-727,152	-54,650	0,048	0,016
-726,137	-92,169	-0,134	0,027
-725,123	-101,114	-0,087	-0,015
-724,108	-200,000	0,053	-0,198
-723,094	-61,688	-0,120	-0,036
-722,079	800,000	-0,037	-0,088
-721,064	74,031	-0,115	0,088
-720,050	-200,000	0,039	0,207
-719,035	39,939	-0,138	0,090
-718,021	206,249	-0,024	-0,027
-717,006	226,332	0,085	-0,101
-715,991	-141,278	-0,214	0,016
-714,977	239,325	0,097	-0,118
-713,962	24,545	-0,097	0,058
-712,948	74,859	0,146	-0,112
-711,933	522,835	-0,074	-0,127
-710,918	-132,710	-0,029	0,003
-709,904	-132,619	-0,032	-0,003
-708,889	45,584	-0,089	-0,060
-707,875	217,576	0,023	0,026
-706,860	-200,000	-0,016	-0,057
-705,845	213,825	0,112	0,129
-704,831	-150,598	-0,063	-0,003
-703,816	-73,447	0,111	0,029
-702,802	461,692	-0,036	-0,059
-701,787	800,000	-0,085	-0,214
-700,772	-131,487	0,109	-0,010
-699,758	286,326	0,009	-0,011
-698,743	284,403	-0,048	0,064
-697,729	-160,591	0,082	-0,003
-696,714	800,000	0,029	-0,060
-695,699	-200,000	-0,028	0,108
-694,685	-200,000	-0,000	0,046
-693,670	800,000	0,042	-0,088
-692,656	648,101	-0,012	0,023
-691,641	-14,838	-0,065	0,030
-690,627	60,410	0,040	0,029
-689,612	179,031	0,047	0,050
-688,597	41,928	0,056	-0,037
-687,583	-200,000	-0,012	-0,083
-686,568	-200,000	-0,023	-0,170
-685,554	-16,009	-0,072	-0,033
-684,539	-10,462	0,040	0,019
-683,524	800,000	-0,055	-0,117
-682,510	470,478	0,022	0,036
-681,495	-200,000	0,003	-0,046
-680,481	176,504	-0,143	-0,151
-679,466	-142,600	-0,142	0,010
-678,451	255,029	0,054	-0,067
-677,437	529,004	0,035	-0,060
-676,422	-200,000	-0,006	0,072
-675,408	157,882	0,068	0,068
-674,393	17,157	-0,038	-0,022
-673,378	-81,606	-0,201	-0,048
-672,364	-42,667	-0,051	0,019
-671,349	-200,000	-0,030	-0,155
-670,335	-200,000	-0,050	-0,210
-669,320	800,000	0,025	0,056
-668,305	75,122	-0,044	-0,034
-667,291	105,938	-0,097	-0,084
-666,276	-200,000	-0,031	0,124
-665,262	-86,509	-0,117	0,026
-664,247	-200,000	0,005	-0,098
-663,232	-200,000	0,015	0,084
-662,218	800,000	0,008	-0,020
-661,203	203,864	-0,037	-0,042
-660,189	-200,000	-0,003	0,106
-659,174	-200,000	-0,032	-0,122
-658,159	232,719	0,104	-0,124
-657,145	587,961	-0,029	0,052
-656,130	-45,910	0,153	-0,054
-655,116	-200,000	-0,047	0,167
-654,101	-200,000	-0,033	-0,110
-653,086	-199,810	-0,061	-0,000
-652,072	-92,694	0,081	-0,016
-651,057	474,506	-0,047	-0,077
-650,043	43,560	-0,059	0,039
-649,028	248,511	0,041	-0,051
-648,014	-9,387	0,019	0,009
-646,999	98,760	-0,055	-0,046
-645,984	3,010	0,103	-0,054
-644,970	800,000	0,045	-0,117
-643,955	130,809	-0,105	-0,098
-642,941	226,618	-0,004	0,005
-641,926	66,226	0,047	-0,034
-640,911	800,000	-0,058	-0,145
-639,897	34,203	0,097	-0,062
-638,882	-200,000	-0,008	-0,034
-637,868	-5,806	-0,074	-0,037
-636,853	327,218	-0,049	-0,068
-635,838	-33,948	-0,176	-0,070
-634,824	471,916	0,006	-0,011
-633,809	-44,383	0,118	0,043
-632,795	698,460	-0,037	0,071
-631,780	190,296	0,039	0,043
-630,765	-39,370	-0,219	-0,083
-629,751	77,164	0,032	-0,025
-628,736	161,576	-0,097	-0,099
-627,722	-200,000	0,008	0,082
-626,707	318,040	0,038	0,052
-625,692	-85,492	0,102	0,023
-624,678	-200,000	0,015	0,151
-623,663	608,361	-0,041	-0,074
-622,649	-200,000	0,026	-0,104
-621,634	737,548	-0,048	-0,095
-620,619	90,537	0,045	-0,037
-619,605	48,664	0,065	0,044
-618,590	800,000	-0,046	0,100
-617,576	-109,692	0,161	-0,024
-616,561	437,486	0,026	-0,041
-615,546	17,586	-0,050	0,029
-614,532	-200,000	0,047	-0,228
-613,517	-200,000	0,007	-0,100
-612,503	0,976	-0,023	-0,012
-611,488	75,510	0,050	-0,038
-610,474	-98,058	-0,053	0,010
-609,459	251,085	-0,032	0,039
-608,444	-71,925	-0,131	-0,035
-607,430	-1,227	0,138	0,070
-606,415	-41,879	-0,036	0,013
-605,401	43,367	-0,111	-0,074
-604,386	613,481	0,056	-0,102
-603,371	-126,589	0,134	-0,014
-602,357	20,197	-0,091	0,053
-601,342	-88,149	0,155	0,033
-600,328	18,328	0,102	0,059
-599,313	-21,645	-0,152	0,067
-598,298	-200,000	-0,008	-0,080
-597,284	-9,061	0,137	-0,066
-596,269	118,073	-0,034	0,030
-595,255	77,615	-0,064	0,049
-594,240	43,608	-0,093	-0,062
-593,225	239,158	0,021	-0,026
-592,211	800,000	0,026	-0,075
-591,196	-158,576	-0,087	0,004
-590,182	800,000	-0,009	-0,022
-589,167	-200,000	-0,006	0,218
-588,152	66,869	-0,085	-0,062
-587,138	405,178	-0,041	0,063
-586,123	96,886	-0,121	-0,100
-585,109	158,463	-0,032	-0,032
-584,094	800,000	-0,037	0,111
-583,079	-200,000	-0,017	-0,174
-582,065	267,605	0,020	0,025
-581,050	-98,549	-0,158	-0,029
-580,036	371,603	0,035	0,051
-579,021	-200,000	0,005	0,103
-578,006	22,342	-0,022	-0,013
-576,992	53,527	0,054	-0,037
-575,977	-108,161	-0,118	0,018
-574,963	268,439	0,090	0,115
-573,948	29,619	0,127	0,078
-572,934	-50,546	-0,117	0,040
-571,919	238,956	-0,083	0,100
-570,904	-119,619	-0,115	0,014
-569,890	16,010	-0,054	-0,031
-568,875	135,995	0,054	0,051
-567,861	355,145	0,030	0,044
-566,846	-166,466	0,167	-0,005
-565,831	800,000	-0,017	0,040
-564,817	-9,426	0,014	0,007
-563,802	-25,564	-0,003	-0,001
-562,788	571,703	0,031	0,056
-561,773	276,498	-0,028	0,036
-560,758	68,130	-0,062	-0,046
-559,744	-200,000	-0,011	-0,038
-558,729	242,800	0,067	0,081
-557,715	86,761	-0,092	-0,074
-556,700	-28,969	-0,079	0,033
-555,685	513,059	0,051	-0,087
-554,671	517,076	0,024	-0,041
-553,656	-200,000	0,015	0,189
-552,642	-200,000	0,026	0,144
-551,627	-200,000	0,006	-0,068
-550,612	800,000	-0,017	-0,048
-549,598	-200,000	-0,014	-0,128
-548,583	-200,000	0,005	-0,077
-547,569	308,573	0,036	-0,049
-546,554	-200,000	-0,003	-0,082
-545,539	-84,037	0,044	0,010
-544,525	311,136	-0,065	-0,088
-543,510	800,000	0,016	-0,042
-542,496	-200,000	-0,011	0,049
-541,481	800,000	-0,019	-0,054
-540,466	138,589	-0,139	-0,132
-539,452	-102,432	0,078	0,013
-538,437	-176,229	0,116	-0,002
-537,423	-7,662	0,058	0,028
-536,408	-58,039	-0,172	-0,054
-535,393	-58,817	-0,087	-0,027
-534,379	-113,725	0,111	-0,015
-533,364	215,279	0,015	0,017
-532,350	-179,870	0,129	0,002
-531,335	117,379	-0,075	0,067
-530,321	420,919	0,040	0,063
-529,306	223,187	0,053	-0,062
-528,291	72,772	-0,085	-0,064
-527,277	-200,000	-0,017	-0,117
-526,262	-200,000	-0,026	-0,182
-525,248	800,000	-0,041	-0,085
-524,233	278,648	0,104	-0,135
-523,218	41,390	0,141	0,092
-522,204	-200,000	0,009	0,059
-521,189	-68,565	-0,035	-0,010
-520,175	-147,200	-0,092	-0,006
-519,160	-139,033	-0,050	0,004
-518,145	95,996	0,028	-0,023
-517,131	75,909	-0,080	0,061
-516,116	-200,000	-0,006	0,086
-515,102	-200,000	-0,000	0,036
-514,087	61,114	-0,122	-0,088
-513,072	-200,000	-0,030	-0,129
-512,058	-23,800	0,036	-0,016
-511,043	-59,962	0,021	0,007
-510,029	149,097	-0,093	0,091
-509,014	-200,000	0,003	0,072
-507,999	-81,886	0,163	0,038
-506,985	379,620	-0,017	0,025
-505,970	-91,286	-0,033	-0,007
-504,956	-186,270	-0,127	-0,001
-503,941	-64,921	0,137	0,040
-502,926	-21,727	0,035	-0,015
-501,912	546,782	-0,035	-0,060
-500,897	-40,301	-0,080	-0,030
-499,883	248,851	-0,036	0,044
-498,868	-200,000	-0,016	0,155
-497,853	0,039	0,092	-0,047
-496,839	800,000	0,041	0,099
-495,824	216,835	-0,056	0,064
-494,810	800,000	-0,045	0,120
-493,795	681,374	-0,022	0,042
-492,781	4,307	0,066	0,035
-491,766	223,829	-0,122	-0,143
-490,751	-200,000	-0,015	-0,152
-489,737	-4,134	0,058	0,029
-488,722	665,375	0,075	-0,140
-487,708	800,000	0,047	-0,122
-486,693	546,100	0,065	0,112
-485,678	213,281	-0,054	-0,062
-484,664	709,807	0,077	-0,147
-483,649	-129,697	-0,101	0,010
-482,635	-200,000	-0,018	0,107
-481,620	-159,584	-0,077	-0,003
-480,605	-200,000	-0,036	-0,146
-479,591	253,175	0,118	0,145
-478,576	-113,113	0,111	0,016
-477,562	-200,000	-0,015	-0,125
-476,547	800,000	-0,025	-0,060
-475,532	52,492	0,028	0,019
-474,518	-3,325	0,083	-0,042
-473,503	-56,114	-0,064	0,020
-472,489	-200,000	-0,059	0,195
-471,474	-200,000	-0,001	-0,023
-470,459	311,112	-0,035	-0,047
-469,445	-200,000	0,027	-0,095
-468,430	-152,130	-0,073	-0,004
-467,416	800,000	0,030	-0,065
-466,401	-38,237	0,133	0,051
-465,386	-126,311	-0,032	-0,003
-464,372	790,936	0,046	-0,092
-463,357	800,000	-0,027	-0,081
-462,343	-59,482	-0,137	-0,042
-461,328	28,336	-0,056	0,034
-460,313	101,836	0,083	-0,070
-459,299	80,728	-0,015	0,012
-458,284	-200,000	0,026	0,097
-457,270	-200,000	0,015	0,089
-456,255	800,000	-0,051	0,160
-455,241	-127,761	-0,099	-0,010
-454,226	800,000	-0,033	-0,067
-453,211	-200,000	0,003	0,039
-452,197	575,400	0,022	-0,038
-451,182	800,000	0,068	-0,137
-450,168	-200,000	0,025	-0,114
-449,153	64,898	-0,091	-0,066
-448,138	534,238	-0,076	-0,131
-447,124	-200,000	-0,071	-0,237
-446,109	-0,002	0,098	0,050
-445,095	363,784	0,069	0,100
-444,080	268,635	0,157	0,199
-443,065	-200,000	-0,029	0,115
-442,051	800,000	0,024	0,049
-441,036	-200,000	0,005	0,060
-440,022	800,000	0,053	-0,119
-439,007	-174,454	0,122	-0,002
-437,992	800,000	0,036	-0,081
-436,978	-200,000	-0,045	0,194
-435,963	271,586	-0,009	0,012
-434,949	31,774	0,077	-0,048
-433,934	-3,115	-0,128	-0,064
-432,919	-171,195	0,086	-0,002
-431,905	67,047	0,087	0,064
-430,890	-200,000	-0,023	0,094
-429,876	450,461	0,076	0,122
-428,861	-200,000	0,046	0,181
-427,846	-154,268	0,129	-0,006
-426,832	277,648	-0,027	-0,035
-425,817	-74,795	0,078	-0,020
-424,803	-39,686	0,035	-0,013
-423,788	800,000	-0,017	0,035
-422,773	-106,768	0,086	0,014
-421,759	225,096	-0,040	0,047
-420,744	550,622	0,033	0,057
-419,730	42,793	0,022	-0,015
-418,715	-200,000	-0,065	-0,000
-417,701	52,025	-0,075	-0,051
-416,686	-154,469	0,057	0,003
-415,671	-178,644	0,080	0,001
-414,657	-14,356	-0,039	0,018
-413,642	800,000	0,009	-0,020
-412,628	-154,220	-0,124	-0,006
-411,613	195,919	0,061	-0,067
-410,598	-200,000	0,013	0,079
-409,584	-38,532	0,022	0,008
-408,569	615,394	0,052	0,094
-407,555	-200,000	0,017	0,081
-406,540	88,879	-0,052	0,042
-405,525	175,070	-0,014	-0,015
-404,511	-4,988	-0,037	-0,018
-403,496	-54,532	-0,023	-0,008
-402,482	-200,000	0,006	-0,171
-401,467	-200,000	-0,028	0,139
-400,452	49,877	-0,117	-0,080
-399,438	-55,508	-0,043	0,014
-398,423	449,940	0,043	-0,069
-397,409	-73,477	-0,022	0,006
-396,394	27,918	-0,071	0,043
-395,379	-178,671	0,054	-0,001
-394,365	131,005	0,021	0,019
-393,350	57,839	0,114	-0,080
-392,336	-32,622	0,078	0,031
-391,321	119,536	0,051	-0,045
-390,306	181,280	0,009	0,010
-389,292	95,794	0,047	-0,039
-388,277	308,922	-0,049	0,066
-387,263	-200,000	0,006	-0,073
-386,248	475,984	-0,058	-0,094
-385,233	800,000	-0,036	-0,091
-384,219	320,772	-0,014	0,019
-383,204	30,340	-0,136	-0,084
-382,190	585,497	0,009	0,017
-381,175	-22,471	-0,033	0,014
-380,160	78,186	0,094	0,072
-379,146	800,000	0,018	-0,056
-378,131	-100,762	0,063	0,011
-377,117	451,414	0,033	0,052
-376,102	800,000	0,035	-0,071
-375,088	743,806	-0,021	-0,042
-374,073	-161,121	0,014	-0,001
-373,058	96,850	0,094	0,077
-372,044	7,298	-0,073	0,039
-371,029	-39,409	0,052	0,020
-370,015	226,575	-0,070	0,082
-369,000	10,875	-0,157	0,086
-367,985	178,089	0,081	-0,085
-366,971	800,000	0,023	-0,048
-365,956	64,128	0,089	-0,064
-364,942	800,000	0,003	-0,006
-363,927	-28,306	-0,093	0,038
-362,912	4,954	-0,102	0,054
-361,898	-11,303	-0,053	-0,025
-360,883	-78,661	-0,101	-0,025
-359,869	128,890	0,060	0,055
-358,854	-108,236	0,156	-0,024
-357,839	-26,034	0,060	0,025
-356,825	124,919	0,045	0,041
-355,810	-92,219	0,162	0,033
-354,796	87,856	-0,032	-0,026
-353,781	-200,000	0,002	0,082
-352,766	-200,000	-0,003	-0,016
-351,752	-200,000	-0,033	-0,124
-350,737	-32,974	-0,093	-0,037
-349,723	21,943	-0,014	0,008
-348,708	-77,501	0,063	-0,016
-347,693	131,481	-0,024	0,022
-346,679	254,487	-0,048	0,059
-345,664	-135,058	-0,051	0,004
-344,650	-200,000	-0,049	0,168
-343,635	52,548	0,081	-0,055
-342,620	-92,422	0,050	-0,010
-341,606	59,033	0,144	-0,101
-340,591	-55,535	-0,064	0,020
-339,577	162,650	0,029	0,030
-338,562	-105,520	-0,131	0,021
-337,548	202,305	0,024	-0,026
-336,533	82,259	0,117	0,091
-335,518	-200,000	0,000	0,015
-334,504	-200,000	0,001	0,079
-333,489	31,195	-0,049	0,030
-332,475	800,000	-0,030	-0,072
-331,460	-200,000	-0,002	-0,071
-330,445	447,397	0,036	-0,057
-329,431	155,810	0,009	0,009
-328,416	-200,000	0,003	0,097
-327,402	800,000	-0,010	0,029
-326,387	731,091	0,043	0,084
-325,372	-200,000	-0,023	-0,120
-324,358	50,578	0,048	0,032
-323,343	352,759	0,065	-0,092
-322,329	99,003	0,039	-0,033
-321,314	-200,000	-0,006	0,125
-320,299	-200,000	0,003	0,024
-319,285	442,617	-0,047	-0,074
-318,270	68,887	-0,075	0,055
-317,256	279,180	-0,081	-0,103
-316,241	-54,094	-0,096	0,031
-315,226	-200,000	0,029	0,132
-314,212	151,062	-0,050	0,049
-313,197	-23,336	-0,017	0,007
-312,183	-200,000	0,004	-0,062
-311,168	-86,387	0,062	0,014
-310,153	27,275	-0,138	0,083
-309,139	-110,571	-0,041	0,006
-308,124	93,423	-0,078	0,063
-307,110	48,873	-0,075	0,051
-306,095	-200,000	-0,001	-0,028
-305,080	674,524	-0,021	0,038
-304,066	800,000	0,046	0,101
-303,051	-26,118	-0,133	-0,056
-302,037	105,198	-0,064	-0,054
-301,022	800,000	-0,023	-0,056
-300,008	800,000	-0,053	-0,122
-298,993	122,309	0,098	0,088
-297,978	800,000	-0,038	0,077
-296,964	-200,000	0,009	-0,051
-295,949	-200,000	0,045	-0,186
-294,935	152,298	-0,096	-0,094
-293,920	-200,000	-0,038	-0,129
-292,905	800,000	-0,040	0,116
-291,891	800,000	-0,035	0,084
-290,876	800,000	-0,031	0,072
-289,862	457,310	-0,106	0,169
-288,847	-69,710	-0,068	0,019
-287,832	-159,908	0,070	-0,003
-286,818	379,809	-0,089	0,131
-285,803	-27,974	0,072	0,030
-284,789	-122,254	-0,081	0,009
-283,774	32,191	0,078	-0,048
-282,759	16,823	-0,069	0,039
-281,745	-43,894	-0,017	0,006
-280,730	-21,181	0,058	0,025
-279,716	94,013	0,018	0,015
-278,701	77,000	0,071	0,054
-277,686	-62,102	-0,059	0,017
-276,672	68,262	0,052	0,038
-275,657	800,000	-0,080	0,158
-274,643	15,571	0,194	0,109
-273,628	-108,602	-0,098	-0,015
-272,613	353,097	-0,037	0,053
-271,599	-200,000	-0,020	-0,095
-270,584	-51,064	0,025	0,008
-269,570	-19,057	0,120	-0,053
-268,555	800,000	0,031	0,066
-267,540	772,419	0,007	0,013
-266,526	-200,000	0,009	0,065
-265,511	-200,000	0,021	0,071
-264,497	202,204	0,071	0,078
-263,482	-200,000	0,028	0,092
-262,467	775,076	0,037	0,072
-261,453	54,509	0,097	-0,067
-260,438	-114,128	-0,120	-0,016
-259,424	-73,563	0,058	0,015
-258,409	662,703	0,056	0,104
-257,395	800,000	-0,033	0,079
-256,380	-64,661	0,132	0,038
-255,365	689,698	0,075	0,140
-254,351	148,904	0,010	-0,010
-253,336	-200,000	0,035	0,117
-252,322	105,673	-0,117	-0,099
-251,307	-28,157	0,035	-0,014
-250,292	-132,508	-0,202	-0,018
-249,278	372,903	0,072	0,106
-248,263	287,150	0,106	0,137
-247,249	74,329	-0,065	-0,049
-246,234	-28,531	0,035	-0,014
-245,219	-200,000	0,007	0,055
-244,205	12,294	-0,078	0,043
-243,190	496,013	-0,019	-0,032
-242,176	800,000	0,009	-0,017
-241,161	310,192	0,058	-0,078
-240,146	-165,332	0,112	-0,003
-239,132	800,000	0,027	0,054
-238,117	800,000	-0,025	-0,064
-237,103	130,323	-0,087	-0,080
-236,088	18,352	0,076	0,043
-235,073	177,573	0,069	0,072
-234,059	800,000	-0,033	-0,081
-233,044	-193,483	-0,108	-0,001
-232,030	800,000	-0,009	-0,021
-231,015	-200,000	-0,002	-0,094
-230,000	-200,000	0,000	-0,045
-228,986	-55,877	-0,105	-0,033
-227,971	189,296	0,030	0,032
-226,957	596,139	-0,089	-0,158
-225,942	-200,000	0,008	-0,028
-224,927	-200,000	0,008	-0,058
-223,913	-200,000	-0,045	-0,191
-222,898	800,000	-0,045	0,120
-221,884	363,388	-0,062	-0,089
-220,869	800,000	0,041	0,097
-219,855	-200,000	-0,026	0,144
-218,840	800,000	0,064	0,151
-217,825	245,473	0,067	0,081
-216,811	-95,581	-0,038	0,007
-215,796	516,801	0,037	-0,063
-214,782	4,440	-0,060	0,032
-213,767	-200,000	-0,003	0,117
-212,752	-105,054	0,039	-0,006
-211,738	37,217	0,055	-0,035
-210,723	-200,000	-0,012	0,038
-209,709	-200,000	-0,010	-0,063
-208,694	-87,869	0,096	-0,021
-207,679	25,164	0,051	-0,030
-206,665	-6,096	0,058	-0,028
-205,650	93,849	0,080	-0,064
-204,636	11,648	0,102	-0,056
-203,621	-93,949	-0,130	0,025
-202,606	-137,655	0,113	-0,009
-201,592	-27,922	-0,090	0,037
-200,577	83,987	0,093	0,073
-199,563	467,599	0,037	0,060
-198,548	-200,000	0,009	0,062
-197,533	321,313	0,035	-0,048
-196,519	-51,352	0,117	-0,039
-195,504	-43,992	-0,054	0,019
-194,490	-200,000	0,025	-0,118
-193,475	-200,000	0,012	-0,046
-192,460	160,910	-0,054	0,054
-191,446	57,750	-0,071	-0,049
-190,431	-200,000	0,024	0,128
-189,417	800,000	-0,021	-0,051
-188,402	263,346	-0,060	0,075
-187,387	-81,205	0,043	0,010
-186,373	10,535	0,098	0,053
-185,358	219,517	-0,068	0,078
-184,344	-136,397	0,033	-0,003
-183,329	149,608	0,013	-0,013
-182,315	741,186	-0,031	0,060
-181,300	-27,999	-0,129	0,053
-180,285	-200,000	-0,020	-0,121
-179,271	-200,000	-0,001	-0,124
-178,256	-21,051	-0,165	-0,072
-177,242	-200,000	-0,021	-0,080
-176,227	800,000	-0,019	-0,058
-175,212	800,000	0,032	0,077
-174,198	111,782	0,118	0,102
-173,183	193,758	-0,039	0,042
-172,169	800,000	0,018	-0,053
-171,154	5,608	-0,041	0,022
-170,139	-152,151	0,183	-0,009
-169,125	800,000	0,051	-0,120
-168,110	61,747	-0,018	0,013
-167,096	149,312	0,038	-0,036
-166,081	-152,694	0,130	-0,006
-165,066	40,716	-0,038	0,025
-164,052	132,122	-0,027	-0,025
-163,037	800,000	-0,017	0,047
-162,023	-200,000	0,006	0,065
-161,008	-11,631	-0,113	0,052
-159,993	-200,000	-0,106	0,000
-158,979	-200,000	-0,005	0,032
-157,964	133,301	0,020	0,019
-156,950	-200,000	0,017	-0,065
-155,935	676,797	0,049	-0,091
-154,920	-26,359	0,065	0,027
-153,906	-200,000	0,015	-0,079
-152,891	800,000	0,032	-0,086
-151,877	800,000	0,016	0,033
-150,862	800,000	-0,029	-0,071
-149,847	454,824	-0,044	-0,069
-148,833	12,104	-0,127	0,069
-147,818	-41,753	0,056	-0,020
-146,804	-200,000	-0,027	0,094
-145,789	-120,456	-0,091	0,011
-144,775	800,000	0,040	0,101
-143,760	-135,728	-0,270	-0,022
-142,745	-117,149	0,077	-0,010
-141,731	-200,000	0,024	-0,087
-140,716	115,040	0,109	-0,095
-139,702	102,491	0,095	0,079
-138,687	215,014	0,011	-0,012
-137,672	-200,000	-0,007	-0,038
-136,658	-135,659	-0,184	0,015
-135,643	-200,000	0,005	-0,017
-134,629	371,388	0,061	0,088
-133,614	-200,000	0,036	-0,202
-132,599	193,470	0,019	-0,021
-131,585	188,704	0,083	-0,089
-130,570	-200,000	0,011	0,089
-129,556	159,042	-0,035	-0,035
-128,541	252,935	0,064	-0,078
-127,526	168,527	0,038	0,038
-126,512	-200,000	0,001	0,100
-125,497	544,524	0,075	0,128
-124,483	373,502	-0,036	0,052
-123,468	800,000	-0,032	-0,064
-122,453	-158,132	0,066	-0,003
-121,439	110,970	0,073	0,062
-120,424	-200,000	-0,021	-0,110
-119,410	-200,000	0,037	-0,121
-118,395	691,980	-0,076	0,143
