DTS Sentinel unit serial number:	SN410029Multiplexer serial number:	ORYXHardware model number:	OX2-SRSoftware version number:	ORYX F/W v4,00 Oryx Data Collector v3.7.2.0data status	okinstallation	BH3 CH2differential loss correction	single-endedforward channel	channel 2reverse channel	N/Adate	2023/12/05time	16:47:29forward acquisition time	300,00reverse acquisition time	0,00gamma	499,1914k internal	0,3192k external	0,3192temperature offset calibration	1,0000default loss term (dB/km)	0,3820temperature slope calibration	1,0000multiplexer offset coefficient	1,0000multiplexer slope coefficient	1,0000fibre end	0,00T internal ref (°C)	11,01T ext. ref 1 (°C)	-3,72T ext. ref 2 (°C)	-3,88length (m)	temperature (°C)	Stokes	anti-Stokes-744,400	-200,000	0,009	-0,146
-743,385	-125,634	-0,100	0,011
-742,371	246,394	-0,091	-0,113
-741,356	30,577	-0,286	0,178
-740,342	-200,000	-0,002	-0,145
-739,327	-23,954	-0,146	0,063
-738,312	46,676	-0,112	-0,076
-737,298	140,115	-0,247	0,237
-736,283	800,000	-0,039	-0,114
-735,269	527,871	-0,175	0,302
-734,254	36,399	-0,135	0,087
-733,239	-66,087	-0,252	-0,073
-732,225	159,946	-0,033	-0,034
-731,210	474,452	0,076	0,125
-730,196	800,000	-0,021	-0,050
-729,181	88,193	-0,013	-0,011
-728,167	800,000	-0,020	-0,056
-727,152	-200,000	-0,009	-0,198
-726,137	362,126	-0,027	-0,039
-725,123	-56,698	-0,223	-0,072
-724,108	-48,027	-0,116	-0,040
-723,094	-75,628	-0,144	0,037
-722,079	-200,000	0,004	-0,114
-721,064	-13,769	0,093	0,044
-720,050	250,909	0,085	0,105
-719,035	405,404	-0,106	-0,163
-718,021	389,466	-0,054	-0,082
-717,006	800,000	0,034	-0,081
-715,991	226,671	-0,033	-0,040
-714,977	-32,617	0,031	0,013
-713,962	800,000	-0,085	-0,212
-712,948	800,000	0,043	-0,095
-711,933	-85,710	-0,087	0,019
-710,918	-200,000	0,014	-0,054
-709,904	-145,508	0,037	-0,002
-708,889	-96,508	-0,121	0,023
-707,875	-171,282	-0,103	-0,002
-706,860	167,965	0,037	0,038
-705,845	800,000	-0,033	0,082
-704,831	-200,000	-0,009	0,107
-703,816	0,125	0,038	-0,020
-702,802	98,521	0,041	-0,034
-701,787	-74,701	0,137	-0,036
-700,772	126,664	0,050	-0,046
-699,758	-107,303	-0,129	-0,020
-698,743	800,000	-0,046	-0,128
-697,729	-200,000	-0,011	-0,083
-696,714	72,009	0,049	0,037
-695,699	-113,354	0,008	-0,001
-694,685	-156,390	-0,042	-0,002
-693,670	-92,024	-0,064	0,013
-692,656	9,507	-0,091	0,050
-691,641	586,092	-0,040	-0,072
-690,627	-188,800	0,065	-0,001
-689,612	-72,883	0,129	-0,034
-688,597	-140,718	0,116	0,009
-687,583	126,526	0,026	0,024
-686,568	111,087	-0,092	0,080
-685,554	103,307	-0,098	-0,083
-684,539	-104,462	-0,074	-0,012
-683,524	800,000	0,046	-0,106
-682,510	28,276	0,086	0,052
-681,495	-200,000	-0,030	-0,160
-680,481	-200,000	-0,001	-0,134
-679,466	-100,102	-0,058	-0,010
-678,451	-144,679	-0,104	0,007
-677,437	-200,000	0,006	0,093
-676,422	-200,000	0,011	0,120
-675,408	800,000	0,031	-0,071
-674,393	-79,154	-0,106	0,026
-673,378	-114,773	-0,015	-0,002
-672,364	384,925	0,082	-0,123
-671,349	27,837	-0,141	-0,086
-670,335	800,000	-0,040	-0,106
-669,320	-200,000	0,010	0,086
-668,305	157,733	-0,034	-0,034
-667,291	98,222	0,101	0,084
-666,276	-200,000	0,013	-0,122
-665,262	800,000	0,029	-0,073
-664,247	475,730	-0,055	0,091
-663,232	-200,000	-0,027	-0,104
-662,218	34,329	0,081	-0,051
-661,203	113,226	-0,045	0,040
-660,189	-200,000	-0,004	0,071
-659,174	800,000	0,037	-0,078
-658,159	-49,055	0,040	0,014
-657,145	17,735	-0,129	-0,074
-656,130	-200,000	-0,001	-0,070
-655,116	96,710	0,038	-0,032
-654,101	692,367	-0,017	0,033
-653,086	-167,134	-0,193	-0,006
-652,072	-51,726	-0,092	0,031
-651,057	-25,756	-0,096	-0,041
-650,043	-200,000	0,015	-0,103
-649,028	58,752	0,042	0,030
-648,014	-200,000	-0,010	0,068
-646,999	83,722	-0,084	-0,066
-645,984	678,079	0,062	-0,117
-644,970	193,257	-0,115	-0,126
-643,955	102,226	-0,013	0,011
-642,941	-47,753	-0,098	0,034
-641,926	800,000	-0,076	0,184
-640,911	800,000	0,009	-0,024
-639,897	800,000	0,026	0,077
-638,882	159,833	0,022	-0,022
-637,868	-200,000	0,017	-0,057
-636,853	800,000	0,041	-0,131
-635,838	-120,130	0,131	-0,016
-634,824	40,469	-0,122	-0,079
-633,809	-200,000	0,035	-0,164
-632,795	-88,210	0,134	0,029
-631,780	526,727	-0,029	0,050
-630,765	785,918	0,033	-0,067
-629,751	800,000	0,048	-0,148
-628,736	-66,406	-0,087	-0,025
-627,722	187,726	-0,077	0,084
-626,707	23,134	0,038	0,022
-625,692	648,937	0,015	-0,027
-624,678	-200,000	-0,002	0,133
-623,663	-180,493	-0,101	0,001
-622,649	456,426	0,042	-0,069
-621,634	800,000	-0,032	-0,101
-620,619	-172,193	-0,077	0,002
-619,605	54,669	-0,057	-0,040
-618,590	70,769	0,006	0,005
-617,576	638,062	0,097	0,180
-616,561	-106,539	0,015	-0,002
-615,546	315,718	-0,035	-0,048
-614,532	-99,052	-0,060	0,011
-613,517	394,090	0,070	0,106
-612,503	-109,341	0,056	0,008
-611,488	70,837	-0,041	0,031
-610,474	-146,582	-0,019	-0,001
-609,459	-6,193	-0,131	0,064
-608,444	-46,248	0,029	-0,010
-607,430	342,630	-0,039	-0,055
-606,415	-114,607	0,048	-0,007
-605,401	76,164	-0,034	0,026
-604,386	-46,601	0,197	-0,070
-603,371	-200,000	-0,006	0,027
-602,357	800,000	0,036	0,108
-601,342	800,000	-0,028	-0,066
-600,328	445,391	0,054	0,086
-599,313	187,222	-0,100	-0,108
-598,298	-200,000	-0,017	-0,093
-597,284	223,625	-0,051	-0,059
-596,269	-105,227	0,200	0,033
-595,255	-200,000	-0,017	0,058
-594,240	-76,191	-0,134	0,034
-593,225	59,225	-0,112	-0,080
-592,211	-200,000	-0,027	-0,100
-591,196	305,709	-0,028	-0,037
-590,182	-2,063	-0,070	-0,036
-589,167	762,580	0,029	-0,057
-588,152	-83,995	-0,042	-0,010
-587,138	-200,000	-0,008	-0,071
-586,123	161,847	0,086	-0,087
-585,109	10,076	-0,112	-0,061
-584,094	-200,000	-0,022	-0,097
-583,079	-61,165	0,099	-0,030
-582,065	-72,186	0,078	0,021
-581,050	-200,000	-0,020	-0,091
-580,036	2,266	0,105	0,055
-579,021	800,000	-0,030	0,092
-578,006	323,012	-0,047	-0,065
-576,992	160,664	-0,044	0,045
-575,977	-41,841	-0,085	-0,031
-574,963	111,035	-0,047	0,041
-573,948	-154,169	0,121	-0,006
-572,934	-200,000	-0,008	-0,048
-571,919	-64,146	-0,154	-0,045
-570,904	800,000	-0,032	-0,079
-569,890	81,336	-0,016	-0,012
-568,875	204,088	-0,026	0,029
-567,861	800,000	0,025	-0,066
-566,846	291,281	-0,041	0,055
-565,831	-25,467	0,121	-0,052
-564,817	-200,000	0,005	0,168
-563,802	-43,438	-0,021	-0,008
-562,788	-132,647	-0,043	-0,004
-561,773	-15,299	-0,109	-0,050
-560,758	800,000	0,010	-0,021
-559,744	800,000	0,025	-0,055
-558,729	125,591	0,122	-0,111
-557,715	-74,265	-0,089	0,023
-556,700	222,080	-0,114	-0,133
-555,685	84,967	0,074	-0,059
-554,671	171,386	-0,016	0,017
-553,656	13,867	-0,050	0,028
-552,642	420,924	0,052	0,081
-551,627	-32,846	0,109	0,044
-550,612	800,000	0,070	-0,218
-549,598	132,773	-0,066	-0,061
-548,583	800,000	-0,031	-0,099
-547,569	-200,000	-0,008	0,029
-546,554	-91,424	0,082	0,017
-545,539	165,452	0,086	0,088
-544,525	-185,422	0,148	0,002
-543,510	83,600	-0,054	-0,043
-542,496	-9,859	-0,105	-0,050
-541,481	-35,479	0,098	0,038
-540,466	55,536	-0,153	0,107
-539,452	-200,000	0,029	0,163
-538,437	-200,000	-0,005	-0,048
-537,423	800,000	-0,013	0,028
-536,408	-28,334	-0,080	0,033
-535,393	144,815	0,050	0,048
-534,379	-200,000	-0,027	-0,095
-533,364	-182,221	0,056	-0,001
-532,350	800,000	0,033	0,101
-531,335	498,996	0,018	-0,030
-530,321	-200,000	-0,009	-0,075
-529,306	-50,468	-0,022	-0,007
-528,291	-200,000	0,029	-0,097
-527,277	-54,902	-0,096	-0,031
-526,262	15,867	0,170	-0,096
-525,248	-163,164	0,078	-0,003
-524,233	-71,366	0,105	-0,028
-523,218	65,250	0,082	0,060
-522,204	-102,374	0,120	-0,021
-521,189	41,987	-0,067	-0,044
-520,175	50,652	-0,034	0,024
-519,160	-88,152	-0,037	-0,008
-518,145	-107,229	0,193	-0,030
-517,131	54,424	0,144	0,100
-516,116	-200,000	0,012	-0,095
-515,102	-200,000	0,006	-0,045
-514,087	17,687	-0,042	-0,024
-513,072	-200,000	0,024	-0,151
-512,058	800,000	-0,071	-0,159
-511,043	-200,000	-0,005	-0,050
-510,029	-200,000	-0,031	0,155
-509,014	800,000	-0,025	0,078
-507,999	-200,000	-0,001	0,133
-506,985	-32,455	-0,126	0,050
-505,970	363,910	-0,035	0,051
-504,956	-130,337	-0,043	-0,004
-503,941	-200,000	0,005	0,066
-502,926	800,000	0,081	0,193
-501,912	-148,913	0,066	-0,004
-500,897	184,061	0,059	-0,063
-499,883	141,301	0,088	0,084
-498,868	-200,000	-0,004	-0,049
-497,853	-45,774	-0,082	0,029
-496,839	86,045	-0,082	-0,066
-495,824	409,135	0,069	-0,106
-494,810	50,962	0,062	0,043
-493,795	-73,955	-0,112	0,029
-492,781	-200,000	-0,005	0,056
-491,766	417,574	0,041	0,063
-490,751	800,000	0,034	0,085
-489,737	92,238	-0,129	0,105
-488,722	-29,750	-0,075	0,031
-487,708	-200,000	-0,004	-0,073
-486,693	800,000	0,044	0,123
-485,678	-99,277	-0,115	-0,021
-484,664	37,895	-0,040	-0,026
-483,649	-200,000	0,000	0,119
-482,635	800,000	-0,061	-0,171
-481,620	-200,000	0,004	-0,058
-480,605	-200,000	-0,004	-0,075
-479,591	800,000	0,067	0,148
-478,576	-200,000	0,014	-0,107
-477,562	-178,992	0,155	0,002
-476,547	-144,452	-0,193	-0,013
-475,532	24,392	0,063	0,037
-474,518	-200,000	0,006	0,046
-473,503	800,000	0,042	0,104
-472,489	-79,120	0,116	0,028
-471,474	-200,000	-0,014	-0,186
-470,459	58,061	-0,197	-0,139
-469,445	106,898	-0,071	-0,061
-468,430	-11,106	0,083	-0,039
-467,416	150,573	0,075	0,074
-466,401	-200,000	-0,011	0,038
-465,386	-10,099	0,174	0,083
-464,372	-121,825	-0,039	-0,005
-463,357	-42,029	-0,119	-0,044
-462,343	-200,000	-0,004	-0,032
-461,328	-94,784	0,089	-0,017
-460,313	200,147	0,110	-0,122
-459,299	-74,385	0,131	-0,034
-458,284	436,363	-0,054	0,085
-457,270	-70,817	0,037	-0,010
-456,255	30,409	-0,096	0,059
-455,241	800,000	-0,016	-0,048
-454,226	215,696	-0,099	-0,114
-453,211	800,000	-0,066	0,137
-452,197	492,698	-0,029	-0,049
-451,182	-5,081	0,075	0,037
-450,168	-200,000	0,008	-0,103
-449,153	800,000	-0,007	-0,021
-448,138	-79,647	-0,021	0,005
-447,124	154,812	0,075	-0,074
-446,109	118,022	0,123	-0,109
-445,095	-162,172	-0,072	0,003
-444,080	-133,588	-0,073	-0,006
-443,065	800,000	0,014	0,045
-442,051	179,158	-0,067	0,071
-441,036	800,000	-0,021	-0,051
-440,022	41,071	-0,100	-0,065
-439,007	99,338	0,039	-0,032
-437,992	-183,214	-0,033	-0,000
-436,978	184,610	0,091	-0,097
-435,963	71,935	0,065	0,049
-434,949	77,973	0,059	-0,045
-433,934	32,678	-0,086	0,053
-432,919	217,817	0,061	0,070
-431,905	23,225	0,088	0,052
-430,890	53,309	0,082	0,057
-429,876	-200,000	-0,065	-0,237
-428,861	-142,062	-0,130	-0,009
-427,846	70,414	-0,040	-0,029
-426,832	-146,501	-0,035	-0,002
-425,817	-200,000	-0,023	0,123
-424,803	800,000	0,035	0,078
-423,788	130,776	0,016	0,014
-422,773	800,000	0,088	0,198
-421,759	198,875	0,055	-0,061
-420,744	231,187	-0,033	0,039
-419,730	103,928	0,057	-0,048
-418,715	-104,794	-0,119	-0,020
-417,701	-43,164	0,051	-0,019
-416,686	236,206	-0,046	0,055
-415,671	-8,801	0,036	-0,017
-414,657	38,844	0,074	0,047
-413,642	800,000	-0,015	0,039
-412,628	553,342	0,085	0,148
-411,613	441,250	-0,076	-0,119
-410,598	800,000	0,025	-0,066
-409,584	-200,000	0,008	0,032
-408,569	-200,000	0,010	0,085
-407,555	-200,000	-0,019	0,083
-406,540	-168,534	-0,063	0,002
-405,525	195,683	0,030	-0,033
-404,511	-46,101	-0,058	-0,020
-403,496	800,000	0,045	0,124
-402,482	500,113	0,025	-0,042
-401,467	135,182	0,069	0,064
-400,452	800,000	0,028	0,078
-399,438	-200,000	0,005	0,055
-398,423	-161,236	0,021	-0,001
-397,409	-200,000	0,006	0,021
-396,394	57,263	-0,115	-0,081
-395,379	-200,000	0,001	0,115
-394,365	48,259	0,082	-0,055
-393,350	637,719	-0,088	0,162
-392,336	-79,904	0,129	0,031
-391,321	410,914	0,029	-0,045
-390,306	-200,000	-0,017	-0,106
-389,292	22,989	0,054	0,032
-388,277	80,101	0,034	0,026
-387,263	800,000	-0,002	0,007
-386,248	-9,495	0,150	-0,072
-385,233	9,410	0,128	0,070
-384,219	-200,000	-0,002	-0,064
-383,204	285,794	-0,054	0,070
-382,190	123,764	-0,032	0,029
-381,175	-27,397	0,098	-0,041
-380,160	800,000	0,024	0,060
-379,146	399,865	0,008	0,011
-378,131	-200,000	-0,028	-0,104
-377,117	800,000	-0,101	-0,240
-376,102	-155,798	0,096	-0,004
-375,088	83,453	0,041	-0,032
-374,073	-128,117	-0,054	0,005
-373,058	317,997	0,077	0,105
-372,044	-200,000	0,015	0,063
-371,029	367,475	-0,022	-0,031
-370,015	73,385	-0,033	0,025
-369,000	800,000	-0,025	0,068
-367,985	445,207	0,039	-0,062
-366,971	-138,751	0,018	-0,001
-365,956	-4,068	0,026	-0,013
-364,942	711,503	0,067	0,128
-363,927	-200,000	-0,001	0,076
-362,912	105,364	0,150	0,128
-361,898	732,866	-0,044	-0,086
-360,883	-200,000	0,040	-0,243
-359,869	-200,000	0,001	-0,110
-358,854	-200,000	-0,038	-0,137
-357,839	33,711	0,062	-0,039
-356,825	800,000	0,057	0,113
-355,810	12,673	-0,036	-0,020
-354,796	-200,000	-0,005	0,151
-353,781	-20,621	-0,106	-0,047
-352,766	515,427	-0,067	0,113
-351,752	119,780	-0,127	0,113
-350,737	663,654	-0,040	0,074
-349,723	133,995	-0,050	0,046
-348,708	-200,000	-0,007	-0,101
-347,693	-89,862	-0,032	0,007
-346,679	-162,766	-0,012	-0,000
-345,664	800,000	0,031	-0,066
-344,650	-200,000	0,005	-0,055
-343,635	5,855	-0,054	-0,029
-342,620	64,478	0,086	0,062
-341,606	-72,578	0,057	-0,015
-340,591	669,308	-0,017	-0,031
-339,577	-165,459	-0,075	-0,002
-338,562	42,966	-0,140	0,091
-337,548	-200,000	0,033	0,118
-336,533	3,016	0,134	-0,070
-335,518	37,463	-0,017	0,011
-334,504	89,859	-0,105	0,084
-333,489	800,000	0,035	0,090
-332,475	800,000	0,029	0,091
-331,460	-56,414	0,055	-0,017
-330,445	-200,000	-0,011	0,060
-329,431	-155,900	0,196	-0,009
-328,416	401,262	-0,069	-0,104
-327,402	82,232	0,026	-0,020
-326,387	39,876	-0,142	0,091
-325,372	542,663	-0,084	-0,145
-324,358	-23,608	-0,125	0,053
-323,343	-1,275	-0,073	0,037
-322,329	36,241	-0,118	-0,074
-321,314	-68,059	0,216	0,060
-320,299	155,272	-0,057	0,056
-319,285	-121,320	-0,050	-0,006
-318,270	577,846	-0,018	0,032
-317,256	-1,761	-0,012	-0,006
-316,241	201,401	-0,022	0,024
-315,226	308,708	0,011	-0,014
-314,212	432,934	0,011	0,017
-313,197	276,594	-0,041	0,053
-312,183	-55,975	0,141	0,045
-311,168	-69,245	-0,031	0,009
-310,153	-200,000	-0,013	-0,159
-309,139	800,000	0,050	-0,104
-308,124	800,000	0,015	0,036
-307,110	-102,566	-0,059	-0,010
-306,095	-14,285	0,119	0,055
-305,080	-44,798	0,120	0,043
-304,066	435,130	-0,069	0,108
-303,051	52,210	0,042	-0,029
-302,037	-173,018	-0,114	-0,002
-301,022	800,000	0,006	-0,016
-300,008	185,285	0,016	-0,017
-298,993	-200,000	0,003	0,143
-297,978	613,723	0,046	0,083
-296,964	264,151	0,070	0,087
-295,949	581,969	-0,051	-0,090
-294,935	136,556	-0,087	0,082
-293,920	364,770	0,087	0,126
-292,905	-69,685	0,093	0,025
-291,891	152,237	-0,075	-0,073
-290,876	392,996	0,036	-0,054
-289,862	-50,762	-0,090	-0,030
-288,847	-51,441	-0,114	0,038
-287,832	800,000	0,018	0,039
-286,818	-56,558	-0,146	-0,046
-285,803	4,225	0,027	-0,014
-284,789	-116,911	0,017	-0,002
-283,774	-200,000	-0,015	0,063
-282,759	-150,230	0,065	0,004
-281,745	-200,000	-0,013	0,071
-280,730	180,971	-0,049	0,051
-279,716	256,254	-0,044	0,054
-278,701	34,542	0,108	0,067
-277,686	263,723	-0,065	-0,082
-276,672	-200,000	0,017	-0,144
-275,657	344,588	-0,045	0,063
-274,643	-21,535	-0,215	-0,094
-273,628	-200,000	-0,023	-0,091
-272,613	-200,000	0,011	0,040
-271,599	-200,000	0,037	-0,149
-270,584	43,649	0,073	0,048
-269,570	-200,000	0,007	0,040
-268,555	800,000	-0,013	0,039
-267,540	800,000	-0,008	0,019
-266,526	412,366	0,041	-0,063
-265,511	50,791	-0,088	-0,060
-264,497	676,509	0,048	0,090
-263,482	-200,000	0,010	0,103
-262,467	-200,000	0,019	-0,085
-261,453	-200,000	0,008	-0,039
-260,438	58,808	-0,061	0,043
-259,424	77,018	0,041	-0,031
-258,409	-2,906	-0,038	-0,019
-257,395	-78,565	-0,067	-0,016
-256,380	800,000	0,038	0,098
-255,365	-200,000	0,014	-0,050
-254,351	-200,000	-0,003	-0,062
-253,336	185,737	0,060	0,064
-252,322	-200,000	-0,013	-0,097
-251,307	-138,602	-0,069	0,005
-250,292	-59,904	0,038	0,012
-249,278	800,000	0,042	0,086
-248,263	-200,000	-0,035	0,120
-247,249	800,000	-0,023	0,060
-246,234	-7,325	-0,083	0,040
-245,219	221,656	-0,014	-0,016
-244,205	164,868	-0,085	0,086
-243,190	31,818	0,018	0,011
-242,176	-200,000	-0,024	-0,111
-241,161	-81,999	0,051	-0,012
-240,146	-105,112	-0,091	-0,015
-239,132	99,986	-0,038	0,032
-238,117	150,529	-0,055	-0,054
-237,103	241,716	0,066	-0,079
-236,088	-67,042	-0,058	-0,016
-235,073	185,385	0,093	0,099
-234,059	-141,080	-0,069	-0,005
-233,044	-200,000	0,005	-0,054
-232,030	-90,200	-0,032	0,007
-231,015	460,780	-0,028	0,045
-230,000	-200,000	0,002	-0,179
-228,986	-21,069	-0,080	-0,035
-227,971	-61,125	0,122	-0,037
-226,957	232,894	0,061	0,071
-225,942	178,383	0,147	0,153
-224,927	-200,000	-0,005	-0,037
-223,913	81,421	-0,075	0,058
-222,898	308,588	-0,057	0,076
-221,884	-200,000	-0,001	0,058
-220,869	-101,574	-0,041	-0,007
-219,855	4,160	-0,022	0,012
-218,840	121,046	-0,062	-0,055
-217,825	87,218	-0,101	0,079
-216,811	800,000	0,032	-0,073
-215,796	309,524	-0,014	0,019
-214,782	231,574	-0,055	-0,064
-213,767	-82,976	-0,022	-0,005
-212,752	-53,209	0,095	0,031
-211,738	372,119	0,059	-0,086
-210,723	371,318	0,075	0,108
-209,709	353,887	-0,090	-0,127
-208,694	800,000	-0,044	-0,106
-207,679	4,084	-0,020	0,010
-206,665	-81,687	0,112	0,026
-205,650	519,976	-0,052	0,087
-204,636	-200,000	-0,003	0,017
-203,621	800,000	-0,020	-0,042
-202,606	-126,007	-0,112	-0,012
-201,592	-200,000	-0,020	0,129
-200,577	211,305	0,008	-0,009
-199,563	-79,897	-0,072	0,017
-198,548	800,000	-0,034	-0,094
-197,533	-200,000	0,033	0,140
-196,519	-115,075	0,097	0,013
-195,504	-141,607	-0,115	-0,008
-194,490	80,910	0,115	0,089
-193,475	113,915	0,064	-0,056
-192,460	292,390	0,033	0,043
-191,446	-80,022	-0,076	0,018
-190,431	74,177	0,109	-0,082
-189,417	800,000	0,049	0,124
-188,402	800,000	0,007	-0,015
-187,387	-200,000	-0,009	-0,030
-186,373	-200,000	0,033	-0,123
-185,358	-101,621	-0,021	0,004
-184,344	521,498	-0,046	0,077
-183,329	-69,899	0,202	-0,054
-182,315	-50,899	-0,105	0,035
-181,300	35,726	-0,039	-0,024
-180,285	26,379	0,165	0,098
-179,271	-200,000	0,013	-0,072
-178,256	93,211	0,011	0,009
-177,242	131,864	0,096	-0,088
-176,227	-62,079	0,081	-0,024
-175,212	-19,776	0,045	0,020
-174,198	-32,457	0,090	-0,036
-173,183	-200,000	0,015	-0,151
-172,169	139,919	-0,129	0,122
-171,154	-46,993	-0,077	-0,027
-170,139	-200,000	-0,006	-0,098
-169,125	30,587	0,029	-0,018
-168,110	-1,802	0,067	0,034
-167,096	800,000	0,020	0,055
-166,081	21,829	0,069	-0,040
-165,066	-37,020	-0,161	0,061
-164,052	-200,000	0,013	0,055
-163,037	-200,000	-0,030	0,137
-162,023	163,557	0,061	0,061
-161,008	-37,312	0,061	0,023
-159,993	-83,684	-0,137	0,031
-158,979	-200,000	-0,016	0,080
-157,964	137,777	-0,116	-0,108
-156,950	-200,000	0,011	-0,106
-155,935	-26,143	-0,049	0,020
-154,920	800,000	-0,013	0,027
-153,906	18,089	0,058	-0,033
-152,891	93,886	0,053	-0,043
-151,877	-84,418	-0,097	-0,022
-150,862	-200,000	-0,002	-0,055
-149,847	203,498	-0,136	-0,150
-148,833	-200,000	-0,001	0,074
-147,818	-200,000	-0,012	0,053
-146,804	120,750	0,111	0,098
-145,789	-74,898	0,042	0,011
-144,775	-69,305	0,059	-0,016
-143,760	-200,000	-0,010	0,085
-142,745	800,000	-0,022	-0,048
-141,731	211,132	-0,138	0,155
-140,716	-200,000	-0,007	0,061
-139,702	-200,000	0,022	0,099
-138,687	-200,000	0,000	-0,012
-137,672	178,926	0,043	0,045
-136,658	437,001	-0,039	0,061
-135,643	-200,000	0,013	-0,062
-134,629	-93,767	0,088	0,017
-133,614	800,000	-0,001	0,003
-132,599	800,000	0,020	0,053
-131,585	-200,000	0,027	0,154
-130,570	-200,000	0,013	0,176
-129,556	199,539	-0,083	0,090
-128,541	151,539	0,096	0,093
-127,526	-11,057	-0,110	-0,051
-126,512	169,811	0,097	0,099
-125,497	-200,000	0,010	-0,051
-124,483	-200,000	-0,003	0,018
-123,468	-159,913	-0,063	0,002
-122,453	64,875	0,089	-0,064
-121,439	-90,721	-0,115	0,023
-120,424	-178,337	0,148	-0,002
-119,410	-45,724	0,027	0,009
