DTS Sentinel unit serial number:	SN410029Multiplexer serial number:	ORYXHardware model number:	OX2-SRSoftware version number:	ORYX F/W v4,00 Oryx Data Collector v3.7.2.0data status	okinstallation	BH3 CH2differential loss correction	single-endedforward channel	channel 2reverse channel	N/Adate	2023/12/05time	20:42:28forward acquisition time	300,00reverse acquisition time	0,00gamma	499,1914k internal	0,3193k external	0,3193temperature offset calibration	1,0000default loss term (dB/km)	0,3820temperature slope calibration	1,0000multiplexer offset coefficient	1,0000multiplexer slope coefficient	1,0000fibre end	0,00T internal ref (°C)	10,44T ext. ref 1 (°C)	-4,35T ext. ref 2 (°C)	-4,45length (m)	temperature (°C)	Stokes	anti-Stokes-744,400	-200,000	-0,015	-0,130
-743,385	2,699	-0,215	0,113
-742,371	800,000	0,047	-0,133
-741,356	81,668	-0,169	0,133
-740,342	-200,000	0,011	-0,121
-739,327	-1,280	-0,380	0,195
-738,312	-200,000	-0,010	-0,121
-737,298	34,584	-0,115	0,073
-736,283	800,000	-0,061	-0,126
-735,269	800,000	-0,041	0,088
-734,254	591,900	-0,060	-0,108
-733,239	-130,082	-0,274	-0,027
-732,225	140,149	0,218	-0,209
-731,210	800,000	0,043	0,109
-730,196	-200,000	0,014	-0,063
-729,181	800,000	-0,041	-0,106
-728,167	55,191	-0,156	0,110
-727,152	-12,029	-0,091	0,043
-726,137	3,159	0,040	-0,021
-725,123	-200,000	0,018	-0,095
-724,108	-18,752	-0,132	-0,060
-723,094	-200,000	0,006	0,052
-722,079	227,569	-0,233	-0,276
-721,064	98,170	0,045	0,038
-720,050	5,384	-0,160	0,086
-719,035	-129,359	0,095	-0,009
-718,021	27,408	-0,077	-0,047
-717,006	152,330	-0,095	-0,094
-715,991	-200,000	0,046	-0,177
-714,977	24,455	-0,065	-0,039
-713,962	-200,000	-0,009	-0,042
-712,948	228,207	-0,062	-0,074
-711,933	-200,000	-0,023	0,087
-710,918	-81,701	-0,074	0,018
-709,904	549,893	0,026	-0,045
-708,889	-200,000	0,025	-0,108
-707,875	178,403	-0,060	0,063
-706,860	-200,000	-0,029	0,158
-705,845	127,335	0,050	0,047
-704,831	257,781	-0,050	0,063
-703,816	-43,249	0,079	-0,029
-702,802	186,179	-0,079	-0,086
-701,787	19,784	0,031	-0,018
-700,772	90,453	0,036	-0,029
-699,758	-182,160	0,045	0,001
-698,743	-200,000	0,006	-0,034
-697,729	-66,810	-0,084	-0,024
-696,714	-151,788	0,164	-0,009
-695,699	-97,619	-0,126	-0,023
-694,685	111,672	0,078	0,069
-693,670	133,228	-0,139	-0,131
-692,656	-138,894	0,017	0,001
-691,641	-56,298	0,156	0,050
-690,627	800,000	0,039	0,099
-689,612	800,000	0,047	0,129
-688,597	800,000	-0,029	0,091
-687,583	789,798	-0,055	-0,111
-686,568	45,749	-0,066	-0,044
-685,554	800,000	0,036	-0,099
-684,539	-200,000	-0,017	-0,133
-683,524	53,505	-0,025	0,018
-682,510	82,295	0,064	-0,051
-681,495	-118,291	0,024	0,003
-680,481	245,492	-0,082	-0,100
-679,466	800,000	-0,033	-0,069
-678,451	-6,089	-0,084	0,042
-677,437	-86,301	0,068	0,015
-676,422	212,711	-0,167	0,192
-675,408	-36,157	-0,011	-0,004
-674,393	475,923	0,045	-0,075
-673,378	691,305	-0,041	-0,078
-672,364	44,128	-0,050	-0,033
-671,349	-200,000	-0,032	-0,265
-670,335	108,503	0,071	-0,061
-669,320	-88,341	0,054	0,012
-668,305	-200,000	-0,002	-0,150
-667,291	742,524	0,027	-0,054
-666,276	-200,000	0,001	-0,112
-665,262	-122,605	-0,177	0,021
-664,247	307,007	-0,061	0,083
-663,232	-83,625	0,094	-0,022
-662,218	-200,000	-0,006	0,200
-661,203	-92,352	0,147	-0,030
-660,189	28,879	-0,132	0,081
-659,174	-72,611	-0,128	-0,034
-658,159	-80,871	-0,219	0,052
-657,145	800,000	-0,026	0,062
-656,130	741,041	-0,038	0,075
-655,116	21,596	0,002	0,001
-654,101	182,328	0,158	0,169
-653,086	24,752	-0,109	-0,065
-652,072	-200,000	-0,001	-0,046
-651,057	116,566	-0,037	0,033
-650,043	435,105	-0,061	-0,096
-649,028	-38,324	0,044	-0,017
-648,014	719,724	0,058	0,113
-646,999	13,669	-0,046	-0,026
-645,984	331,575	0,036	-0,051
-644,970	-200,000	-0,018	0,092
-643,955	-200,000	-0,014	-0,151
-642,941	64,585	-0,108	-0,079
-641,926	-77,991	-0,146	-0,036
-640,911	-18,483	0,101	-0,046
-639,897	-147,539	-0,051	0,003
-638,882	-200,000	-0,018	0,109
-637,868	-200,000	-0,029	0,095
-636,853	-75,964	-0,070	-0,018
-635,838	-91,488	-0,015	0,003
-634,824	-200,000	0,020	0,125
-633,809	-145,472	0,113	0,007
-632,795	221,841	0,063	0,074
-631,780	-200,000	0,016	-0,068
-630,765	96,473	0,015	-0,012
-629,751	108,936	-0,146	-0,127
-628,736	124,323	0,034	-0,031
-627,722	167,671	0,078	-0,081
-626,707	489,805	0,074	-0,123
-625,692	-200,000	-0,006	0,088
-624,678	-200,000	0,013	-0,064
-623,663	-101,669	-0,068	0,012
-622,649	-12,355	-0,132	-0,062
-621,634	290,673	-0,036	-0,048
-620,619	-200,000	0,013	-0,148
-619,605	-16,320	0,062	0,028
-618,590	-112,801	0,085	-0,012
-617,576	-137,879	-0,065	0,005
-616,561	64,996	-0,095	0,069
-615,546	-67,382	-0,057	0,016
-614,532	-45,538	-0,058	0,021
-613,517	721,219	-0,033	-0,064
-612,503	226,338	-0,084	-0,099
-611,488	459,705	-0,023	0,037
-610,474	147,210	-0,035	-0,034
-609,459	31,449	-0,111	0,069
-608,444	-104,297	-0,155	-0,026
-607,430	62,087	-0,185	-0,134
-606,415	31,706	-0,073	0,046
-605,401	-96,964	-0,069	-0,013
-604,386	-200,000	-0,010	0,077
-603,371	284,545	0,071	-0,093
-602,357	-88,601	0,025	-0,005
-601,342	86,023	0,048	0,038
-600,328	-50,385	-0,027	-0,009
-599,313	22,782	0,022	0,013
-598,298	-124,970	-0,088	-0,010
-597,284	-12,688	0,015	0,007
-596,269	800,000	0,015	0,044
-595,255	-200,000	-0,014	-0,066
-594,240	211,665	0,062	-0,071
-593,225	-26,347	-0,102	-0,043
-592,211	800,000	-0,014	0,037
-591,196	11,864	0,035	0,019
-590,182	800,000	-0,016	-0,048
-589,167	17,674	-0,105	0,060
-588,152	-200,000	0,134	-0,000
-587,138	-119,350	0,066	-0,008
-586,123	69,912	-0,011	0,008
-585,109	800,000	-0,082	-0,218
-584,094	800,000	-0,043	0,121
-583,079	-153,766	0,067	0,003
-582,065	612,793	0,092	-0,168
-581,050	154,357	0,143	0,142
-580,036	-200,000	0,002	0,041
-579,021	499,424	-0,020	-0,033
-578,006	-200,000	0,003	-0,059
-576,992	-40,994	0,036	-0,013
-575,977	637,264	0,024	0,045
-574,963	68,209	-0,083	0,061
-573,948	-200,000	-0,048	-0,172
-572,934	-4,012	0,045	-0,023
-571,919	-117,702	-0,045	0,006
-570,904	-27,183	-0,142	0,060
-569,890	87,305	0,186	-0,149
-568,875	-93,810	0,128	-0,025
-567,861	93,020	0,049	0,040
-566,846	319,745	0,090	0,124
-565,831	-22,959	-0,108	0,047
-564,817	308,888	-0,055	0,075
-563,802	0,055	-0,087	-0,045
-562,788	-200,000	0,021	0,141
-561,773	90,265	0,032	-0,026
-560,758	-148,503	0,182	0,011
-559,744	-146,305	0,106	0,007
-558,729	59,953	-0,077	0,055
-557,715	-200,000	-0,023	0,090
-556,700	586,456	-0,083	-0,148
-555,685	18,076	-0,037	0,021
-554,671	31,655	-0,139	0,086
-553,656	233,614	0,091	0,109
-552,642	-167,212	-0,047	-0,001
-551,627	-200,000	0,010	-0,128
-550,612	-200,000	-0,044	-0,196
-549,598	146,490	0,142	-0,138
-548,583	483,724	-0,035	0,058
-547,569	800,000	0,065	0,178
-546,554	-18,167	0,112	-0,051
-545,539	-200,000	0,028	0,165
-544,525	-74,903	0,121	-0,031
-543,510	-200,000	-0,052	0,173
-542,496	-128,038	-0,039	0,004
-541,481	762,608	0,017	0,033
-540,466	-93,794	-0,087	-0,017
-539,452	73,339	-0,025	-0,019
-538,437	33,118	0,051	0,032
-537,423	-65,195	0,079	0,023
-536,408	-36,900	-0,093	-0,036
-535,393	-102,252	-0,120	-0,021
-534,379	-125,023	-0,079	-0,009
-533,364	-200,000	-0,013	-0,176
-532,350	-200,000	-0,035	0,114
-531,335	-113,385	0,082	0,012
-530,321	49,071	0,063	-0,043
-529,306	-200,000	-0,018	0,110
-528,291	-45,500	-0,149	-0,053
-527,277	-22,397	0,041	-0,018
-526,262	45,338	-0,101	-0,067
-525,248	-63,408	0,095	-0,028
-524,233	62,035	0,058	-0,042
-523,218	251,152	-0,078	0,096
-522,204	-126,229	0,056	0,006
-521,189	-53,969	-0,057	-0,019
-520,175	-70,915	0,055	0,015
-519,160	-42,524	0,134	0,049
-518,145	-116,264	0,080	0,011
-517,131	-11,901	0,056	-0,026
-516,116	-200,000	-0,002	0,088
-515,102	-200,000	-0,005	0,194
-514,087	800,000	0,017	-0,040
-513,072	-200,000	-0,024	-0,096
-512,058	153,033	-0,017	0,017
-511,043	32,164	0,076	0,047
-510,029	800,000	-0,014	0,034
-509,014	-172,563	0,104	-0,002
-507,999	444,804	0,083	0,132
-506,985	800,000	-0,032	0,068
-505,970	383,166	0,043	-0,064
-504,956	536,422	-0,020	-0,034
-503,941	-200,000	-0,000	0,026
-502,926	800,000	-0,006	0,016
-501,912	-12,602	0,058	-0,027
-500,897	-97,704	0,232	0,043
-499,883	-200,000	0,004	0,041
-498,868	29,628	-0,224	-0,137
-497,853	800,000	0,042	0,121
-496,839	-91,680	0,098	-0,020
-495,824	-34,812	0,075	-0,029
-494,810	-200,000	0,022	0,192
-493,795	16,716	0,044	-0,025
-492,781	573,589	-0,031	-0,054
-491,766	192,242	-0,069	-0,075
-490,751	-55,392	-0,186	0,060
-489,737	-200,000	-0,023	-0,145
-488,722	-200,000	0,002	0,042
-487,708	528,120	-0,068	0,116
-486,693	642,195	0,002	0,003
-485,678	461,073	-0,009	-0,014
-484,664	365,403	-0,050	-0,072
-483,649	-51,567	0,090	-0,030
-482,635	-200,000	0,005	0,017
-481,620	80,539	0,200	0,155
-480,605	91,031	-0,081	0,066
-479,591	-119,569	0,069	0,009
-478,576	800,000	-0,052	0,121
-477,562	84,360	-0,110	-0,087
-476,547	91,334	-0,042	-0,034
-475,532	-200,000	-0,028	-0,100
-474,518	44,475	0,045	-0,030
-473,503	-200,000	0,029	-0,150
-472,489	-129,652	-0,118	0,012
-471,474	-69,078	0,104	0,029
-470,459	33,865	-0,064	0,040
-469,445	-95,727	-0,095	0,018
-468,430	134,030	0,057	-0,053
-467,416	25,262	0,074	-0,044
-466,401	-122,104	-0,122	-0,014
-465,386	513,860	-0,068	0,115
-464,372	117,281	0,134	0,119
-463,357	563,116	-0,044	-0,076
-462,343	-66,952	0,061	0,017
-461,328	398,064	-0,042	0,063
-460,313	15,984	-0,132	0,075
-459,299	-200,000	0,030	-0,112
-458,284	348,340	0,035	-0,050
-457,270	-55,782	0,029	0,009
-456,255	302,984	-0,044	-0,058
-455,241	800,000	0,024	-0,077
-454,226	461,493	-0,024	-0,038
-453,211	-10,239	0,093	0,044
-452,197	31,376	0,137	0,084
-451,182	219,661	0,109	-0,126
-450,168	-117,413	-0,046	0,006
-449,153	16,783	-0,100	0,057
-448,138	70,557	-0,073	-0,054
-447,124	68,400	-0,084	-0,062
-446,109	800,000	0,037	0,090
-445,095	-72,114	0,030	-0,008
-444,080	431,735	-0,067	0,104
-443,065	124,347	-0,128	-0,116
-442,051	-26,845	0,048	0,020
-441,036	-22,739	-0,024	0,010
-440,022	-93,653	0,041	0,008
-439,007	-200,000	-0,001	-0,096
-437,992	-200,000	0,013	0,044
-436,978	-139,601	-0,098	-0,007
-435,963	-157,452	0,037	0,002
-434,949	-34,317	-0,101	-0,040
-433,934	800,000	-0,029	0,066
-432,919	-149,544	-0,121	-0,007
-431,905	-200,000	-0,005	-0,069
-430,890	-200,000	-0,004	-0,064
-429,876	147,956	-0,029	-0,028
-428,861	-200,000	-0,013	0,094
-427,846	355,698	-0,047	-0,068
-426,832	-5,610	-0,088	-0,043
-425,817	-16,281	0,074	0,034
-424,803	37,059	-0,005	-0,003
-423,788	186,826	-0,065	0,070
-422,773	800,000	0,050	0,129
-421,759	-200,000	-0,034	0,123
-420,744	-200,000	-0,020	-0,085
-419,730	-107,993	0,139	0,021
-418,715	-200,000	-0,015	-0,117
-417,701	-200,000	-0,002	0,041
-416,686	-200,000	0,003	-0,036
-415,671	-200,000	-0,021	0,105
-414,657	-200,000	-0,020	0,144
-413,642	-200,000	-0,034	0,144
-412,628	-64,101	0,051	0,015
-411,613	21,644	0,042	0,024
-410,598	-93,055	-0,053	-0,011
-409,584	-200,000	-0,012	-0,046
-408,569	-35,632	0,076	0,030
-407,555	-177,953	-0,029	0,000
-406,540	785,729	0,034	0,067
-405,525	763,653	0,079	-0,156
-404,511	800,000	0,021	-0,048
-403,496	-158,104	-0,064	-0,003
-402,482	60,574	-0,105	-0,075
-401,467	-200,000	0,028	-0,097
-400,452	800,000	-0,008	-0,018
-399,438	75,609	0,043	0,032
-398,423	247,522	-0,085	0,104
-397,409	137,798	0,029	0,027
-396,394	1,334	-0,066	0,034
-395,379	800,000	0,010	0,024
-394,365	-23,439	-0,121	0,052
-393,350	-14,465	0,141	-0,065
-392,336	441,170	-0,053	-0,084
-391,321	-200,000	0,022	0,106
-390,306	493,695	-0,028	0,047
-389,292	225,677	-0,050	-0,058
-388,277	800,000	0,008	-0,024
-387,263	-120,005	0,065	-0,008
-386,248	-200,000	-0,011	-0,050
-385,233	262,269	0,025	0,031
-384,219	800,000	0,027	-0,073
-383,204	-75,120	-0,098	-0,025
-382,190	800,000	0,044	0,130
-381,175	-138,181	-0,182	0,014
-380,160	-45,724	0,083	0,029
-379,146	-200,000	0,040	0,159
-378,131	-153,228	-0,063	-0,003
-377,117	800,000	0,018	0,043
-376,102	259,909	-0,050	-0,062
-375,088	92,087	-0,155	-0,126
-374,073	-150,580	0,047	0,003
-373,058	800,000	-0,030	0,085
-372,044	-200,000	0,005	0,050
-371,029	-73,063	-0,041	0,011
-370,015	-200,000	-0,058	0,315
-369,000	800,000	-0,013	-0,026
-367,985	35,743	0,128	0,081
-366,971	-200,000	-0,002	-0,066
-365,956	-200,000	0,020	-0,067
-364,942	-78,596	0,091	0,022
-363,927	72,110	-0,091	0,068
-362,912	800,000	0,052	0,132
-361,898	49,027	-0,052	0,035
-360,883	-61,894	-0,084	0,025
-359,869	-200,000	-0,009	-0,068
-358,854	221,839	0,038	0,044
-357,839	-200,000	-0,003	0,066
-356,825	-86,088	0,038	0,008
-355,810	329,219	0,051	0,071
-354,796	-72,587	-0,055	0,015
-353,781	110,453	0,008	-0,007
-352,766	800,000	0,057	-0,126
-351,752	800,000	-0,024	-0,048
-350,737	800,000	0,097	0,228
-349,723	411,243	-0,056	0,085
-348,708	-69,860	-0,108	-0,029
-347,693	179,892	-0,023	-0,025
-346,679	-200,000	-0,011	-0,089
-345,664	-200,000	-0,023	-0,091
-344,650	78,935	0,052	0,040
-343,635	-156,873	-0,081	-0,004
-342,620	-200,000	0,003	0,056
-341,606	25,347	0,087	0,052
-340,591	-6,807	-0,060	-0,029
-339,577	70,922	-0,121	-0,090
-338,562	13,911	-0,041	-0,023
-337,548	92,457	0,023	-0,019
-336,533	-16,911	0,223	-0,101
-335,518	-200,000	-0,036	0,184
-334,504	123,116	0,094	-0,085
-333,489	-49,383	0,017	0,006
-332,475	800,000	-0,009	-0,021
-331,460	-200,000	-0,002	-0,026
-330,445	800,000	-0,031	0,084
-329,431	-200,000	-0,002	-0,070
-328,416	210,827	0,023	-0,026
-327,402	-139,709	0,061	-0,005
-326,387	800,000	0,032	-0,089
-325,372	-55,114	-0,124	0,040
-324,358	-200,000	0,011	-0,036
-323,343	800,000	0,029	-0,060
-322,329	327,755	0,052	-0,072
-321,314	-29,132	0,030	0,012
-320,299	386,164	-0,062	-0,093
-319,285	143,928	0,044	0,042
-318,270	300,839	-0,016	-0,022
-317,256	800,000	0,059	-0,126
-316,241	328,520	0,010	-0,014
-315,226	-144,580	0,092	-0,006
-314,212	-123,451	-0,154	0,017
-313,197	255,095	0,072	0,089
-312,183	29,850	-0,072	-0,044
-311,168	-200,000	0,003	0,042
-310,153	-168,558	-0,188	0,005
-309,139	-58,044	-0,028	-0,009
-308,124	379,820	0,093	0,137
-307,110	79,964	-0,010	-0,007
-306,095	-123,487	0,114	0,013
-305,080	-200,000	0,019	0,067
-304,066	-77,667	0,034	-0,008
-303,051	-200,000	0,007	0,119
-302,037	67,033	0,044	0,032
-301,022	10,054	0,071	-0,039
-300,008	-155,431	0,098	0,004
-298,993	-200,000	0,021	0,121
-297,978	23,649	-0,091	0,054
-296,964	-200,000	-0,019	0,069
-295,949	-200,000	-0,024	-0,256
-294,935	-200,000	0,010	-0,031
-293,920	-91,313	0,154	-0,031
-292,905	-68,697	0,046	0,013
-291,891	-52,798	-0,047	0,015
-290,876	75,776	0,050	-0,038
-289,862	-200,000	-0,018	-0,157
-288,847	20,550	-0,076	-0,044
-287,832	-119,001	-0,101	-0,012
-286,818	74,509	0,115	-0,087
-285,803	-63,660	0,096	-0,028
-284,789	-200,000	-0,005	0,119
-283,774	193,182	0,060	0,065
-282,759	-200,000	0,008	-0,041
-281,745	800,000	-0,020	-0,059
-280,730	151,160	0,031	-0,030
-279,716	-200,000	0,015	-0,064
-278,701	153,052	0,007	-0,007
-277,686	107,929	0,084	0,072
-276,672	352,799	0,049	0,069
-275,657	-79,700	0,091	0,022
-274,643	23,306	-0,046	0,027
-273,628	211,725	-0,108	0,122
-272,613	-200,000	0,011	-0,170
-271,599	15,974	0,022	0,012
-270,584	2,089	-0,126	0,065
-269,570	-94,182	-0,122	-0,024
-268,555	-103,146	0,087	-0,015
-267,540	-164,189	0,088	0,003
-266,526	596,657	0,055	-0,097
-265,511	-70,549	-0,068	0,018
-264,497	269,003	0,057	-0,071
-263,482	198,598	0,052	-0,057
-262,467	800,000	-0,006	0,017
-261,453	33,954	-0,239	-0,148
-260,438	-52,831	0,122	-0,040
-259,424	-200,000	-0,006	-0,046
-258,409	182,508	-0,049	-0,052
-257,395	181,799	-0,070	-0,074
-256,380	-200,000	-0,022	0,070
-255,365	800,000	0,016	-0,036
-254,351	-20,559	0,067	-0,029
-253,336	-200,000	0,021	0,134
-252,322	-187,731	0,123	0,001
-251,307	223,702	-0,013	-0,015
-250,292	66,889	-0,078	0,056
-249,278	375,340	0,074	0,108
-248,263	-200,000	0,006	0,114
-247,249	775,012	-0,013	-0,026
-246,234	800,000	0,072	-0,151
-245,219	-81,713	-0,074	0,017
-244,205	179,404	0,047	0,049
-243,190	-33,518	-0,081	0,032
-242,176	-200,000	-0,040	0,141
-241,161	-200,000	0,022	-0,100
-240,146	316,918	0,096	0,131
-239,132	-200,000	-0,011	-0,187
-238,117	800,000	-0,006	-0,013
-237,103	267,395	-0,020	-0,025
-236,088	-200,000	-0,004	-0,035
-235,073	-35,759	-0,169	-0,065
-234,059	20,402	0,074	-0,043
-233,044	767,178	0,024	-0,046
-232,030	-5,465	-0,084	0,041
-231,015	77,719	0,057	-0,043
-230,000	-15,874	-0,148	0,067
-228,986	-178,043	0,055	-0,001
-227,971	254,990	-0,019	-0,024
-226,957	-200,000	0,014	-0,077
-225,942	800,000	-0,009	-0,025
-224,927	72,729	-0,029	0,021
-223,913	230,921	0,116	-0,136
-222,898	-200,000	0,020	-0,141
-221,884	800,000	0,041	-0,109
-220,869	-200,000	-0,004	-0,046
-219,855	164,007	0,108	-0,109
-218,840	-200,000	0,007	0,155
-217,825	800,000	0,012	0,025
-216,811	-38,682	-0,083	-0,031
-215,796	540,576	0,078	0,134
-214,782	-200,000	-0,032	-0,112
-213,767	-200,000	0,033	0,112
-212,752	596,988	-0,032	0,056
-211,738	-200,000	-0,020	0,127
-210,723	-200,000	-0,006	0,195
-209,709	-71,712	-0,059	0,015
-208,694	-115,128	0,155	-0,021
-207,679	208,066	-0,080	-0,089
-206,665	800,000	0,042	-0,094
-205,650	800,000	0,046	-0,093
-204,636	726,493	0,028	-0,053
-203,621	220,512	0,065	0,075
-202,606	10,694	-0,110	-0,060
-201,592	513,281	0,143	-0,239
-200,577	-200,000	-0,026	0,131
-199,563	24,383	0,015	0,009
-198,548	800,000	0,032	-0,070
-197,533	660,134	0,114	0,211
-196,519	-120,931	-0,028	-0,003
-195,504	207,778	0,079	-0,088
-194,490	-87,251	-0,073	-0,016
-193,475	-200,000	-0,022	0,097
-192,460	-145,022	-0,119	0,008
-191,446	-41,314	0,047	-0,017
-190,431	286,286	0,020	0,026
-189,417	28,854	0,083	0,050
-188,402	-200,000	0,031	0,111
-187,387	315,029	-0,047	-0,064
-186,373	635,510	0,094	-0,170
-185,358	-8,028	-0,013	-0,006
-184,344	99,827	0,067	-0,056
-183,329	595,270	0,012	-0,022
-182,315	800,000	0,019	0,044
-181,300	-200,000	-0,004	0,064
-180,285	-200,000	0,018	-0,078
-179,271	-200,000	-0,002	-0,103
-178,256	-126,677	0,079	0,008
-177,242	-102,690	0,100	0,017
-176,227	360,389	0,064	0,092
-175,212	800,000	0,063	0,186
-174,198	800,000	0,007	0,019
-173,183	337,369	-0,080	0,111
-172,169	62,459	-0,088	-0,063
-171,154	62,732	-0,182	-0,129
-170,139	-78,213	0,070	-0,017
-169,125	-104,855	0,178	-0,029
-168,110	-121,996	0,104	0,012
-167,096	18,512	-0,112	-0,064
-166,081	-198,593	0,125	-0,000
-165,066	800,000	-0,043	-0,088
-164,052	-27,492	-0,061	0,025
-163,037	111,554	-0,146	0,126
-162,023	97,785	0,034	-0,028
-161,008	-200,000	0,002	0,069
-159,993	16,800	-0,138	0,078
-158,979	-200,000	-0,022	-0,072
-157,964	186,132	0,082	0,087
-156,950	-200,000	0,012	-0,091
-155,935	-200,000	-0,019	-0,129
-154,920	-100,586	-0,038	0,007
-153,906	313,772	-0,048	0,065
-152,891	99,060	0,120	0,099
-151,877	4,480	0,031	0,016
-150,862	-136,483	-0,263	0,021
-149,847	-104,041	-0,100	0,016
-148,833	10,924	0,104	-0,057
-147,818	-200,000	0,008	0,079
-146,804	-34,185	0,185	0,072
-145,789	65,581	-0,040	-0,029
-144,775	83,988	-0,070	-0,054
-143,760	-25,546	0,041	-0,017
-142,745	800,000	-0,042	0,133
-141,731	17,310	-0,083	0,047
-140,716	301,973	0,084	0,111
-139,702	645,894	-0,029	0,053
-138,687	108,031	0,086	0,073
-137,672	242,165	-0,045	-0,054
-136,658	36,653	-0,097	-0,061
-135,643	58,896	-0,065	-0,045
-134,629	-200,000	-0,003	0,029
-133,614	800,000	0,021	-0,061
-132,599	-182,556	0,150	-0,002
-131,585	-200,000	-0,002	0,114
-130,570	-200,000	0,014	-0,153
-129,556	-200,000	-0,004	-0,190
-128,541	454,089	0,033	-0,053
-127,526	-200,000	-0,036	0,191
-126,512	142,568	0,134	0,127
-125,497	800,000	0,025	0,057
-124,483	409,174	-0,061	0,093
-123,468	-21,524	0,047	0,020
-122,453	-31,187	0,130	0,052
-121,439	-143,676	0,097	0,006
-120,424	-34,889	-0,018	-0,007
-119,410	139,351	0,072	0,068
