DTS Sentinel unit serial number:	SN410029Multiplexer serial number:	ORYXHardware model number:	OX2-SRSoftware version number:	ORYX F/W v4,00 Oryx Data Collector v3.7.2.0data status	okinstallation	BH3 CH2differential loss correction	single-endedforward channel	channel 2reverse channel	N/Adate	2023/12/06time	06:12:28forward acquisition time	300,00reverse acquisition time	0,00gamma	499,1914k internal	0,3196k external	0,3196temperature offset calibration	1,0000default loss term (dB/km)	0,3820temperature slope calibration	1,0000multiplexer offset coefficient	1,0000multiplexer slope coefficient	1,0000fibre end	0,00T internal ref (°C)	8,90T ext. ref 1 (°C)	-5,72T ext. ref 2 (°C)	-5,83length (m)	temperature (°C)	Stokes	anti-Stokes-744,400	-140,487	-0,077	0,006
-743,385	178,551	-0,173	0,184
-742,371	-200,000	-0,002	-0,059
-741,356	193,072	-0,171	0,189
-740,342	59,952	-0,071	-0,051
-739,327	-125,008	-0,295	0,033
-738,312	800,000	0,020	-0,059
-737,298	-98,440	-0,309	0,057
-736,283	-122,821	0,067	0,008
-735,269	-76,754	-0,237	-0,060
-734,254	-200,000	-0,027	-0,191
-733,239	9,715	-0,347	-0,191
-732,225	312,133	0,128	-0,175
-731,210	269,914	-0,043	0,055
-730,196	-200,000	0,002	0,112
-729,181	-31,008	-0,107	0,044
-728,167	-200,000	-0,008	-0,063
-727,152	800,000	-0,043	-0,099
-726,137	-200,000	-0,019	-0,102
-725,123	-104,112	-0,075	-0,013
-724,108	-134,329	-0,013	0,001
-723,094	-14,903	0,088	-0,041
-722,079	-67,670	-0,130	-0,037
-721,064	-104,286	0,048	-0,008
-720,050	79,760	0,018	0,014
-719,035	-200,000	-0,021	0,076
-718,021	-67,850	0,025	0,007
-717,006	108,948	-0,097	-0,084
-715,991	19,472	-0,114	-0,067
-714,977	95,468	-0,013	-0,010
-713,962	732,772	-0,038	0,075
-712,948	51,501	-0,122	-0,084
-711,933	800,000	-0,084	-0,209
-710,918	5,959	0,066	0,035
-709,904	-200,000	0,010	-0,126
-708,889	-20,812	-0,122	-0,054
-707,875	-129,864	-0,154	0,015
-706,860	86,738	0,062	-0,050
-705,845	-200,000	0,003	0,135
-704,831	368,617	-0,033	-0,048
-703,816	85,063	-0,038	-0,030
-702,802	342,761	-0,071	0,101
-701,787	36,582	0,017	0,011
-700,772	-36,052	-0,086	-0,034
-699,758	800,000	0,030	-0,069
-698,743	385,348	0,051	0,077
-697,729	800,000	-0,037	0,091
-696,714	500,399	0,064	0,107
-695,699	117,810	-0,040	-0,035
-694,685	-59,108	0,137	-0,043
-693,670	61,841	-0,157	-0,114
-692,656	-85,734	0,152	0,034
-691,641	376,484	-0,116	-0,173
-690,627	-101,056	0,147	-0,026
-689,612	-53,308	-0,098	0,032
-688,597	593,931	0,026	-0,048
-687,583	-200,000	-0,002	0,133
-686,568	-200,000	-0,002	-0,076
-685,554	-200,000	0,000	0,090
-684,539	-200,000	0,009	0,037
-683,524	800,000	0,030	0,062
-682,510	546,003	0,022	-0,038
-681,495	428,432	-0,011	0,017
-680,481	365,985	0,059	-0,087
-679,466	-200,000	0,026	-0,157
-678,451	157,055	-0,063	-0,063
-677,437	-200,000	0,008	-0,048
-676,422	-82,994	-0,116	0,027
-675,408	64,749	0,067	-0,049
-674,393	-200,000	-0,012	-0,043
-673,378	222,370	-0,120	-0,140
-672,364	-200,000	0,040	-0,129
-671,349	-200,000	0,026	0,084
-670,335	49,565	-0,089	0,061
-669,320	203,013	-0,098	0,110
-668,305	-200,000	0,000	-0,088
-667,291	207,690	-0,074	-0,084
-666,276	-200,000	0,016	-0,097
-665,262	-200,000	-0,034	-0,112
-664,247	-13,066	0,073	-0,034
-663,232	-37,060	-0,019	-0,007
-662,218	-123,416	0,107	-0,012
-661,203	-183,753	-0,045	0,001
-660,189	-90,206	0,141	0,029
-659,174	134,808	-0,050	-0,047
-658,159	800,000	-0,019	-0,041
-657,145	-144,704	0,081	-0,005
-656,130	-129,915	0,022	-0,002
-655,116	-76,124	-0,090	0,023
-654,101	48,870	-0,065	-0,044
-653,086	-100,855	-0,046	-0,008
-652,072	-33,123	-0,090	0,036
-651,057	-200,000	0,008	-0,037
-650,043	83,083	-0,097	-0,076
-649,028	241,473	-0,017	-0,021
-648,014	60,634	-0,052	0,037
-646,999	-200,000	0,024	-0,114
-645,984	-200,000	0,014	-0,132
-644,970	-8,955	-0,052	-0,025
-643,955	-42,577	-0,093	0,034
-642,941	65,333	-0,179	-0,131
-641,926	-100,657	-0,116	0,021
-640,911	-200,000	0,005	0,102
-639,897	-200,000	0,025	0,000
-638,882	15,315	-0,053	-0,030
-637,868	-200,000	0,025	0,098
-636,853	-135,504	-0,044	0,004
-635,838	639,367	-0,075	-0,139
-634,824	-18,853	-0,104	-0,047
-633,809	-200,000	0,029	-0,148
-632,795	-200,000	-0,000	0,077
-631,780	23,444	-0,060	0,036
-630,765	710,660	0,020	0,038
-629,751	-136,640	-0,137	0,011
-628,736	-200,000	-0,036	-0,136
-627,722	-200,000	0,001	0,052
-626,707	-140,082	0,053	-0,004
-625,692	231,582	-0,033	0,039
-624,678	238,380	-0,051	-0,061
-623,663	30,170	0,037	0,023
-622,649	0,477	-0,128	-0,066
-621,634	70,419	0,070	-0,052
-620,619	-200,000	0,034	-0,124
-619,605	13,586	-0,013	-0,007
-618,590	646,309	0,027	0,050
-617,576	414,843	0,067	0,104
-616,561	506,859	0,019	-0,033
-615,546	220,976	0,019	-0,022
-614,532	-200,000	0,019	-0,064
-613,517	800,000	0,041	-0,093
-612,503	85,331	0,074	0,059
-611,488	800,000	0,039	-0,091
-610,474	800,000	-0,032	-0,081
-609,459	-32,240	0,009	-0,004
-608,444	-200,000	0,003	-0,071
-607,430	156,187	0,118	-0,118
-606,415	499,566	0,085	-0,142
-605,401	221,171	-0,086	0,100
-604,386	552,746	0,102	0,179
-603,371	-200,000	-0,001	0,005
-602,357	800,000	-0,050	-0,124
-601,342	-12,958	0,027	0,013
-600,328	49,582	-0,129	-0,088
-599,313	53,361	-0,141	-0,098
-598,298	800,000	0,058	-0,142
-597,284	208,258	-0,030	-0,034
-596,269	-200,000	0,025	0,116
-595,255	-29,355	0,027	0,011
-594,240	50,123	-0,162	-0,110
-593,225	-200,000	0,040	-0,178
-592,211	-200,000	0,011	-0,126
-591,196	-89,002	-0,081	-0,017
-590,182	-62,598	0,091	0,027
-589,167	677,389	0,050	0,095
-588,152	400,275	-0,032	0,049
-587,138	-129,118	-0,032	0,003
-586,123	-9,712	0,015	-0,007
-585,109	352,897	-0,041	-0,059
-584,094	-200,000	-0,017	-0,126
-583,079	0,722	0,076	-0,039
-582,065	-200,000	-0,005	0,131
-581,050	800,000	-0,039	0,090
-580,036	-122,407	-0,107	-0,012
-579,021	166,707	0,076	-0,078
-578,006	-200,000	-0,001	0,013
-576,992	426,949	0,033	-0,051
-575,977	-105,199	-0,076	-0,012
-574,963	-0,546	-0,077	0,039
-573,948	44,599	-0,154	-0,102
-572,934	800,000	0,024	-0,063
-571,919	78,031	-0,026	-0,020
-570,904	17,878	-0,084	0,048
-569,890	-200,000	-0,004	0,014
-568,875	-37,562	0,054	-0,021
-567,861	117,414	0,040	-0,035
-566,846	-119,181	0,119	-0,015
-565,831	117,185	-0,027	-0,024
-564,817	-130,566	-0,229	-0,022
-563,802	-200,000	0,008	-0,076
-562,788	800,000	0,051	-0,144
-561,773	-200,000	-0,009	-0,092
-560,758	-200,000	-0,012	-0,061
-559,744	252,478	0,044	0,054
-558,729	800,000	-0,021	-0,053
-557,715	-46,898	-0,088	0,031
-556,700	64,514	-0,051	-0,037
-555,685	-33,543	0,088	0,035
-554,671	-103,181	0,165	0,028
-553,656	409,174	0,023	0,035
-552,642	-200,000	-0,008	0,038
-551,627	800,000	0,014	0,031
-550,612	-7,824	-0,087	-0,042
-549,598	-200,000	0,002	-0,129
-548,583	800,000	0,048	-0,103
-547,569	54,892	0,056	-0,039
-546,554	33,966	0,012	0,008
-545,539	800,000	0,027	0,074
-544,525	493,830	-0,078	-0,130
-543,510	220,665	-0,065	0,075
-542,496	-142,993	0,117	0,008
-541,481	249,896	-0,080	-0,098
-540,466	-42,888	0,026	0,009
-539,452	-200,000	0,007	-0,124
-538,437	56,442	0,041	0,029
-537,423	-200,000	-0,003	-0,038
-536,408	-200,000	-0,012	-0,167
-535,393	71,973	-0,147	-0,110
-534,379	-113,621	-0,046	-0,006
-533,364	-200,000	0,007	0,023
-532,350	-48,948	0,107	-0,037
-531,335	-112,829	0,032	-0,005
-530,321	-82,886	0,129	0,030
-529,306	-200,000	0,015	0,080
-528,291	207,588	-0,055	-0,062
-527,277	108,333	-0,010	-0,008
-526,262	-200,000	-0,009	-0,109
-525,248	-200,000	0,011	-0,092
-524,233	-13,449	-0,077	0,036
-523,218	800,000	0,041	-0,120
-522,204	-51,576	-0,086	-0,029
-521,189	738,382	0,061	-0,118
-520,175	800,000	-0,047	-0,141
-519,160	-111,628	-0,086	-0,013
-518,145	206,061	0,061	0,069
-517,131	-158,409	-0,013	-0,001
-516,116	-126,584	-0,055	-0,006
-515,102	-200,000	-0,017	0,054
-514,087	244,815	0,053	-0,064
-513,072	800,000	-0,042	-0,116
-512,058	-85,074	0,063	-0,014
-511,043	582,810	0,019	0,033
-510,029	-87,219	0,148	0,032
-509,014	-12,506	-0,078	0,037
-507,999	-54,304	0,157	-0,051
-506,985	-73,883	-0,124	-0,032
-505,970	800,000	-0,016	-0,040
-504,956	-47,841	-0,060	-0,021
-503,941	800,000	-0,015	-0,031
-502,926	-19,653	0,066	-0,029
-501,912	67,546	0,073	0,054
-500,897	183,950	0,100	0,106
-499,883	-64,741	0,009	0,003
-498,868	-30,777	0,074	-0,030
-497,853	147,905	0,052	-0,051
-496,839	411,858	-0,053	-0,081
-495,824	41,046	0,121	0,078
-494,810	113,058	0,033	0,029
-493,795	598,320	-0,080	0,144
-492,781	-186,330	-0,054	-0,001
-491,766	375,805	-0,033	0,049
-490,751	-110,500	-0,112	-0,017
-489,737	-200,000	0,004	-0,048
-488,722	-200,000	0,017	0,057
-487,708	525,034	-0,048	0,081
-486,693	-75,814	0,040	-0,010
-485,678	119,492	0,048	0,043
-484,664	49,959	-0,085	-0,058
-483,649	-200,000	-0,001	-0,092
-482,635	75,985	0,091	-0,070
-481,620	-200,000	0,018	0,098
-480,605	64,590	0,054	0,039
-479,591	-3,299	-0,006	-0,003
-478,576	-106,852	-0,086	0,014
-477,562	800,000	-0,066	-0,135
-476,547	96,853	-0,005	0,004
-475,532	3,869	0,171	0,090
-474,518	800,000	-0,023	0,055
-473,503	47,119	-0,048	0,032
-472,489	-16,572	0,083	-0,038
-471,474	-200,000	-0,002	-0,018
-470,459	768,583	-0,061	-0,120
-469,445	76,017	-0,028	-0,021
-468,430	-9,969	-0,140	0,067
-467,416	-14,700	0,114	-0,052
-466,401	143,818	0,145	0,139
-465,386	-200,000	-0,002	-0,142
-464,372	-36,453	0,086	0,033
-463,357	526,733	-0,072	0,123
-462,343	-137,567	0,089	-0,007
-461,328	358,952	-0,111	0,160
-460,313	517,693	0,024	0,041
-459,299	800,000	0,015	0,033
-458,284	-72,894	0,015	0,004
-457,270	800,000	0,025	-0,055
-456,255	11,141	-0,038	-0,021
-455,241	284,845	0,050	0,066
-454,226	-103,583	-0,042	-0,007
-453,211	30,056	0,128	-0,079
-452,197	0,769	0,149	-0,077
-451,182	47,218	-0,135	0,090
-450,168	22,772	-0,017	-0,010
-449,153	313,125	-0,078	0,106
-448,138	800,000	0,077	-0,158
-447,124	-200,000	-0,002	-0,078
-446,109	118,941	0,112	0,100
-445,095	-6,409	0,075	0,037
-444,080	-78,246	0,145	0,036
-443,065	800,000	-0,035	0,106
-442,051	-4,553	0,066	-0,033
-441,036	145,877	-0,081	-0,079
-440,022	-186,058	-0,073	0,001
-439,007	584,211	0,037	0,067
-437,992	351,485	0,032	0,045
-436,978	-200,000	-0,017	0,117
-435,963	-39,445	0,120	0,045
-434,949	-151,008	0,101	-0,005
-433,934	-33,746	-0,055	0,022
-432,919	-110,276	-0,136	-0,020
-431,905	-76,190	0,074	0,019
-430,890	-200,000	0,032	-0,112
-429,876	-36,236	-0,053	0,021
-428,861	-200,000	0,018	0,070
-427,846	800,000	-0,025	-0,062
-426,832	-200,000	-0,000	0,006
-425,817	-37,360	-0,075	0,029
-424,803	419,495	0,065	-0,101
-423,788	-200,000	0,001	-0,059
-422,773	450,366	0,081	-0,130
-421,759	695,273	0,080	0,151
-420,744	-78,597	-0,042	0,010
-419,730	-60,797	-0,158	-0,048
-418,715	256,005	-0,091	-0,113
-417,701	-101,478	0,133	0,023
-416,686	29,376	0,091	0,055
-415,671	-26,479	0,076	0,032
-414,657	-29,424	-0,112	0,046
-413,642	-200,000	0,014	0,047
-412,628	80,648	-0,065	-0,050
-411,613	109,345	0,076	-0,066
-410,598	-58,798	0,025	0,008
-409,584	5,348	0,033	0,017
-408,569	70,391	0,052	0,039
-407,555	109,861	0,041	0,036
-406,540	-200,000	-0,021	-0,088
-405,525	502,066	-0,019	-0,032
-404,511	-38,483	0,084	0,032
-403,496	-200,000	0,012	0,138
-402,482	-118,346	-0,155	0,020
-401,467	250,107	0,107	0,131
-400,452	-181,593	-0,071	0,001
-399,438	355,412	-0,091	0,130
-398,423	44,566	0,082	-0,054
-397,409	-200,000	0,005	-0,136
-396,394	6,936	-0,070	0,037
-395,379	412,556	0,087	0,133
-394,365	208,004	0,030	0,033
-393,350	800,000	0,052	0,131
-392,336	45,573	0,051	0,034
-391,321	-148,237	-0,098	0,006
-390,306	800,000	-0,037	0,115
-389,292	350,907	-0,090	-0,129
-388,277	-200,000	-0,002	0,019
-387,263	46,035	-0,036	0,024
-386,248	-200,000	0,047	0,219
-385,233	-200,000	0,023	-0,075
-384,219	57,364	-0,055	-0,038
-383,204	-97,097	-0,205	-0,038
-382,190	148,925	-0,126	-0,122
-381,175	-102,005	-0,043	-0,007
-380,160	800,000	0,069	0,141
-379,146	800,000	-0,088	0,177
-378,131	-53,570	0,026	0,009
-377,117	-161,434	-0,119	-0,004
-376,102	800,000	-0,022	-0,067
-375,088	-200,000	-0,063	-0,210
-374,073	307,404	-0,123	0,165
-373,058	-200,000	0,003	0,043
-372,044	-200,000	-0,000	0,022
-371,029	215,126	-0,054	0,061
-370,015	-200,000	0,005	-0,138
-369,000	-200,000	-0,019	-0,145
-367,985	568,981	0,020	-0,035
-366,971	71,292	0,083	0,062
-365,956	30,667	0,039	-0,024
-364,942	11,116	0,060	0,033
-363,927	210,433	-0,012	-0,013
-362,912	-43,572	-0,139	-0,050
-361,898	75,242	-0,153	-0,116
-360,883	115,096	-0,113	-0,099
-359,869	-143,709	-0,153	-0,010
-358,854	241,683	0,109	-0,131
-357,839	132,825	-0,019	-0,018
-356,825	-34,757	0,230	0,090
-355,810	709,239	-0,069	0,131
-354,796	-200,000	0,041	-0,140
-353,781	-8,778	-0,123	-0,059
-352,766	-200,000	-0,007	0,068
-351,752	58,181	0,063	-0,044
-350,737	140,120	0,166	0,157
-349,723	800,000	-0,077	0,162
-348,708	-11,016	0,024	0,011
-347,693	-200,000	-0,011	0,039
-346,679	-200,000	0,024	0,079
-345,664	800,000	-0,012	-0,037
-344,650	-11,318	0,153	0,072
-343,635	-200,000	-0,001	0,039
-342,620	17,080	0,179	0,101
-341,606	-18,568	-0,025	-0,011
-340,591	800,000	-0,058	0,144
-339,577	800,000	-0,004	-0,012
-338,562	-197,602	-0,050	0,000
-337,548	-200,000	-0,015	0,063
-336,533	443,136	-0,070	0,111
-335,518	98,094	0,098	0,081
-334,504	-89,989	0,136	0,028
-333,489	-200,000	0,012	0,071
-332,475	-64,798	0,012	-0,004
-331,460	-200,000	-0,017	-0,133
-330,445	38,200	0,039	0,025
-329,431	800,000	0,066	-0,159
-328,416	-200,000	-0,014	0,169
-327,402	-45,932	0,041	0,014
-326,387	-200,000	0,003	0,017
-325,372	27,063	-0,179	0,107
-324,358	800,000	-0,024	0,055
-323,343	85,953	-0,089	-0,070
-322,329	10,152	-0,092	-0,050
-321,314	-119,825	0,091	-0,011
-320,299	159,083	-0,078	0,077
-319,285	62,779	-0,101	-0,073
-318,270	800,000	-0,048	-0,112
-317,256	-125,411	-0,099	0,011
-316,241	-122,361	-0,224	0,026
-315,226	-91,408	0,144	0,029
-314,212	-200,000	-0,007	0,030
-313,197	-49,990	0,115	0,039
-312,183	-105,068	-0,204	-0,033
-311,168	800,000	-0,022	-0,046
-310,153	91,022	-0,079	0,063
-309,139	127,842	-0,066	-0,060
-308,124	25,792	0,040	0,024
-307,110	104,716	0,014	0,012
-306,095	-24,606	0,199	0,084
-305,080	18,288	-0,179	0,102
-304,066	800,000	0,027	0,066
-303,051	510,807	-0,085	0,142
-302,037	-200,000	0,004	0,114
-301,022	-200,000	0,004	-0,049
-300,008	-102,320	0,175	0,030
-298,993	406,404	0,077	0,117
-297,978	415,342	0,006	0,009
-296,964	104,264	-0,180	-0,152
-295,949	-200,000	-0,018	-0,111
-294,935	-54,710	0,055	0,018
-293,920	87,714	-0,074	-0,059
-292,905	-53,874	0,039	-0,013
-291,891	-200,000	0,011	0,063
-290,876	-0,737	-0,087	0,044
-289,862	-76,018	0,063	-0,016
-288,847	-112,939	0,054	-0,008
-287,832	96,069	-0,098	0,080
-286,818	-117,149	0,121	0,016
-285,803	-129,152	0,187	0,018
-284,789	48,581	0,080	0,053
-283,774	305,227	-0,028	0,037
-282,759	800,000	-0,022	-0,062
-281,745	-14,704	-0,041	-0,019
-280,730	800,000	0,049	-0,147
-279,716	84,999	0,102	-0,080
-278,701	-151,211	0,066	0,003
-277,686	316,025	0,012	0,016
-276,672	800,000	0,035	-0,072
-275,657	800,000	-0,038	0,102
-274,643	329,506	-0,090	-0,124
-273,628	286,313	-0,052	-0,067
-272,613	-100,765	-0,086	-0,015
-271,599	-200,000	0,011	0,093
-270,584	503,127	0,019	-0,032
-269,570	64,613	0,087	0,063
-268,555	800,000	-0,006	-0,012
-267,540	-200,000	0,020	-0,087
-266,526	191,555	-0,072	-0,078
-265,511	334,511	-0,052	-0,072
-264,497	-75,973	0,169	-0,042
-263,482	800,000	0,027	-0,060
-262,467	84,920	0,051	-0,040
-261,453	14,846	-0,098	0,055
-260,438	-2,719	-0,089	-0,044
-259,424	725,901	-0,036	0,070
-258,409	-52,589	-0,036	0,012
-257,395	498,361	0,037	-0,061
-256,380	352,529	0,110	0,157
-255,365	434,645	0,076	0,118
-254,351	156,222	-0,048	0,048
-253,336	205,229	-0,097	-0,108
-252,322	553,341	0,079	-0,136
-251,307	-200,000	-0,019	-0,114
-250,292	245,617	0,107	0,129
-249,278	750,326	0,035	0,067
-248,263	800,000	0,094	0,211
-247,249	800,000	-0,021	0,046
-246,234	47,409	0,049	-0,032
-245,219	467,663	0,046	0,074
-244,205	104,982	-0,114	0,096
-243,190	-35,913	0,048	0,018
-242,176	-105,037	-0,131	-0,021
-241,161	397,251	-0,028	0,041
-240,146	80,280	0,067	-0,051
-239,132	-121,698	-0,066	-0,008
-238,117	348,174	0,019	-0,027
-237,103	-200,000	-0,008	-0,116
-236,088	38,350	0,036	-0,023
-235,073	144,520	-0,109	0,104
-234,059	99,219	-0,149	0,123
-233,044	8,590	0,250	0,134
-232,030	-175,235	0,011	0,000
-231,015	-155,955	0,138	-0,006
-230,000	19,355	0,022	0,013
-228,986	800,000	0,027	-0,082
-227,971	-200,000	0,021	0,076
-226,957	800,000	-0,024	0,065
-225,942	-200,000	-0,026	-0,082
-224,927	213,467	-0,121	0,137
-223,913	-62,056	0,143	-0,042
-222,898	184,505	0,117	-0,124
-221,884	-200,000	0,007	0,064
-220,869	-73,193	0,131	0,034
-219,855	221,210	-0,068	0,078
-218,840	800,000	0,038	0,081
-217,825	-200,000	0,025	0,083
-216,811	-200,000	-0,016	-0,090
-215,796	563,784	-0,022	0,038
-214,782	220,222	-0,046	-0,052
-213,767	-200,000	-0,005	0,126
-212,752	-65,154	0,030	-0,009
-211,738	445,217	0,050	0,079
-210,723	-200,000	-0,000	-0,032
-209,709	24,710	0,085	-0,050
-208,694	81,271	0,077	-0,060
-207,679	800,000	-0,032	-0,099
-206,665	-200,000	-0,022	0,083
-205,650	-129,353	0,188	-0,018
-204,636	680,594	0,042	0,078
-203,621	786,894	-0,026	0,051
-202,606	547,431	-0,013	-0,022
-201,592	-41,957	0,086	0,031
-200,577	-200,000	-0,016	0,075
-199,563	800,000	-0,039	0,109
-198,548	100,841	0,065	0,054
-197,533	-52,337	0,029	0,009
-196,519	-50,598	-0,167	0,056
-195,504	45,159	-0,003	-0,002
-194,490	-200,000	0,015	-0,190
-193,475	-1,371	-0,033	0,017
-192,460	800,000	0,024	0,069
-191,446	288,553	0,085	0,110
-190,431	-41,077	0,081	0,030
-189,417	-200,000	0,020	0,069
-188,402	-165,387	-0,137	0,004
-187,387	-47,540	-0,122	-0,042
-186,373	-200,000	0,011	0,040
-185,358	800,000	-0,024	0,055
-184,344	-200,000	-0,023	0,126
-183,329	-200,000	0,027	0,160
-182,315	-158,501	0,150	-0,006
-181,300	800,000	0,036	-0,101
-180,285	61,194	-0,046	0,032
-179,271	116,068	-0,053	0,047
-178,256	-47,227	-0,020	0,007
-177,242	-200,000	0,003	0,013
-176,227	-56,187	-0,048	0,015
-175,212	208,435	0,073	-0,081
-174,198	-200,000	-0,017	-0,067
-173,183	722,882	0,025	0,048
-172,169	780,361	-0,046	-0,089
-171,154	800,000	0,029	-0,060
-170,139	800,000	-0,055	0,119
-169,125	800,000	0,090	0,183
-168,110	408,505	0,057	-0,086
-167,096	-200,000	-0,009	-0,119
-166,081	158,908	0,083	-0,082
-165,066	-200,000	-0,007	0,035
-164,052	-81,619	-0,082	0,019
-163,037	-75,426	0,080	-0,020
-162,023	800,000	0,069	0,209
-161,008	-200,000	-0,038	0,122
-159,993	191,671	-0,014	0,015
-158,979	-200,000	-0,012	0,088
-157,964	-122,956	-0,125	-0,014
-156,950	-13,738	-0,050	0,023
-155,935	-200,000	0,043	-0,209
-154,920	-2,116	-0,058	-0,029
-153,906	495,958	0,002	0,003
-152,891	-19,123	0,096	-0,042
-151,877	625,849	-0,036	-0,064
-150,862	317,598	0,080	-0,108
-149,847	218,538	0,003	0,004
-148,833	-200,000	0,004	0,029
-147,818	-3,809	0,075	0,037
-146,804	-51,927	0,042	0,014
-145,789	-147,904	0,098	-0,006
-144,775	-200,000	0,004	-0,104
-143,760	18,592	-0,051	0,029
-142,745	-200,000	0,005	-0,097
-141,731	404,441	0,096	-0,145
-140,716	-200,000	0,011	-0,048
-139,702	28,153	0,167	0,100
-138,687	-100,297	-0,018	-0,003
-137,672	125,427	-0,108	-0,097
-136,658	259,808	-0,022	-0,028
-135,643	230,489	0,020	0,024
-134,629	800,000	0,011	0,030
-133,614	683,761	-0,043	-0,079
-132,599	800,000	-0,023	-0,053
-131,585	-200,000	0,022	0,093
-130,570	-2,240	-0,139	-0,069
-129,556	142,265	0,076	-0,072
-128,541	-200,000	-0,019	-0,132
-127,526	-83,083	-0,098	0,022
-126,512	68,221	-0,046	-0,034
-125,497	-82,051	0,061	-0,014
-124,483	32,820	-0,073	0,045
-123,468	-84,265	-0,116	0,026
-122,453	58,347	0,029	0,020
-121,439	-144,332	-0,018	0,001
-120,424	-200,000	-0,010	0,186
-119,410	-200,000	-0,001	-0,071
-118,395	-152,761	0,072	0,004
