DTS Sentinel unit serial number:	SN410029Multiplexer serial number:	ORYXHardware model number:	OX2-SRSoftware version number:	ORYX F/W v4,00 Oryx Data Collector v3.7.2.0data status	okinstallation	BH3 CH2differential loss correction	single-endedforward channel	channel 2reverse channel	N/Adate	2023/12/05time	17:02:28forward acquisition time	300,00reverse acquisition time	0,00gamma	499,1914k internal	0,3192k external	0,3192temperature offset calibration	1,0000default loss term (dB/km)	0,3820temperature slope calibration	1,0000multiplexer offset coefficient	1,0000multiplexer slope coefficient	1,0000fibre end	0,00T internal ref (°C)	10,94T ext. ref 1 (°C)	-3,83T ext. ref 2 (°C)	-3,95length (m)	temperature (°C)	Stokes	anti-Stokes-744,400	128,962	-0,149	-0,139
-743,385	95,484	-0,186	0,155
-742,371	183,655	0,053	0,057
-741,356	-29,273	-0,170	0,071
-740,342	162,600	-0,055	0,057
-739,327	64,204	-0,194	0,143
-738,312	106,064	-0,087	-0,075
-737,298	-68,572	-0,123	-0,034
-736,283	-200,000	-0,043	-0,139
-735,269	-186,903	-0,198	0,002
-734,254	256,548	-0,046	-0,058
-733,239	-143,263	-0,308	-0,021
-732,225	-200,000	-0,008	0,049
-731,210	-26,598	0,108	0,046
-730,196	-162,270	0,092	0,003
-729,181	125,796	-0,182	0,168
-728,167	131,977	-0,065	0,061
-727,152	-27,347	0,047	0,020
-726,137	403,958	-0,073	0,112
-725,123	-36,248	0,133	-0,052
-724,108	800,000	-0,009	-0,022
-723,094	70,585	-0,076	-0,058
-722,079	212,304	-0,094	-0,108
-721,064	-200,000	0,032	-0,110
-720,050	602,585	0,047	0,086
-719,035	-53,887	0,028	-0,009
-718,021	-163,375	-0,071	-0,002
-717,006	471,945	-0,040	-0,066
-715,991	-2,336	-0,104	-0,053
-714,977	-200,000	0,005	0,063
-713,962	-200,000	0,022	-0,107
-712,948	-44,442	-0,139	-0,050
-711,933	170,936	0,074	0,077
-710,918	-200,000	-0,008	0,048
-709,904	-39,651	0,008	-0,003
-708,889	-101,409	-0,130	-0,023
-707,875	-200,000	-0,008	-0,113
-706,860	226,065	-0,103	-0,122
-705,845	-61,993	0,037	0,011
-704,831	800,000	-0,084	0,181
-703,816	44,020	0,079	0,053
-702,802	115,555	-0,167	-0,148
-701,787	-142,963	-0,142	0,010
-700,772	-200,000	-0,004	-0,023
-699,758	282,380	0,088	0,116
-698,743	800,000	-0,048	-0,138
-697,729	767,035	-0,010	0,020
-696,714	-200,000	-0,020	0,077
-695,699	-200,000	-0,023	-0,088
-694,685	800,000	-0,036	-0,081
-693,670	-124,150	-0,048	0,005
-692,656	-200,000	0,018	-0,061
-691,641	99,437	0,075	0,063
-690,627	77,604	0,032	0,025
-689,612	-68,238	0,017	-0,005
-688,597	800,000	-0,045	-0,131
-687,583	168,570	-0,029	0,030
-686,568	-200,000	0,013	-0,046
-685,554	800,000	-0,022	-0,047
-684,539	-165,260	0,058	-0,002
-683,524	284,780	-0,035	-0,046
-682,510	-103,807	0,042	-0,007
-681,495	-200,000	0,016	0,103
-680,481	-40,925	-0,029	0,011
-679,466	-66,384	-0,082	0,023
-678,451	34,763	-0,014	0,009
-677,437	-200,000	0,045	0,147
-676,422	240,995	-0,041	0,050
-675,408	-104,175	-0,200	0,033
-674,393	457,874	-0,033	0,053
-673,378	-49,123	-0,135	-0,047
-672,364	94,251	-0,089	-0,073
-671,349	67,532	-0,158	-0,117
-670,335	98,659	-0,048	0,040
-669,320	800,000	-0,050	0,134
-668,305	150,868	-0,078	-0,077
-667,291	-48,221	0,073	-0,026
-666,276	40,885	-0,057	-0,037
-665,262	800,000	-0,081	-0,188
-664,247	800,000	-0,035	-0,101
-663,232	-200,000	-0,005	0,033
-662,218	800,000	0,057	0,123
-661,203	-200,000	-0,016	0,082
-660,189	-197,867	0,075	-0,000
-659,174	800,000	-0,057	-0,147
-658,159	-45,658	-0,104	0,037
-657,145	488,738	0,037	0,062
-656,130	800,000	-0,020	0,051
-655,116	-88,341	0,070	0,015
-654,101	95,546	-0,038	0,032
-653,086	214,267	-0,109	0,126
-652,072	-39,374	-0,046	0,017
-651,057	-200,000	-0,005	0,053
-650,043	-79,418	-0,086	0,021
-649,028	276,955	0,036	-0,046
-648,014	101,689	-0,022	0,019
-646,999	800,000	-0,068	-0,195
-645,984	-174,887	0,060	0,001
-644,970	-200,000	0,015	-0,069
-643,955	-200,000	0,023	-0,106
-642,941	36,562	-0,112	-0,072
-641,926	-80,481	-0,097	0,023
-640,911	145,959	0,043	0,042
-639,897	-200,000	-0,035	0,118
-638,882	-200,000	0,022	0,091
-637,868	800,000	-0,052	0,125
-636,853	800,000	-0,018	0,045
-635,838	-130,502	-0,081	-0,008
-634,824	25,720	-0,066	-0,040
-633,809	116,689	0,130	-0,116
-632,795	-67,283	0,102	-0,029
-631,780	205,550	-0,057	-0,064
-630,765	-200,000	0,005	-0,023
-629,751	-105,050	0,083	0,014
-628,736	-200,000	-0,027	-0,090
-627,722	-143,838	0,118	0,008
-626,707	236,042	-0,022	-0,027
-625,692	-109,228	-0,059	-0,009
-624,678	-97,756	-0,055	0,010
-623,663	800,000	-0,031	0,068
-622,649	-200,000	0,021	-0,248
-621,634	379,689	-0,068	-0,101
-620,619	800,000	0,050	-0,127
-619,605	207,650	-0,118	0,134
-618,590	-117,352	0,112	-0,015
-617,576	-50,062	-0,080	-0,027
-616,561	-200,000	0,005	0,067
-615,546	-52,571	0,066	0,022
-614,532	191,873	-0,118	-0,130
-613,517	-200,000	0,002	-0,250
-612,503	359,428	0,035	0,051
-611,488	-200,000	0,012	0,060
-610,474	-146,742	0,055	0,003
-609,459	792,610	-0,034	0,069
-608,444	-200,000	-0,003	-0,053
-607,430	249,613	-0,021	0,025
-606,415	-200,000	0,021	-0,116
-605,401	78,408	0,103	-0,079
-604,386	473,885	-0,059	0,096
-603,371	295,366	-0,068	0,090
-602,357	109,996	-0,033	0,029
-601,342	-200,000	-0,012	-0,054
-600,328	-7,936	-0,140	-0,068
-599,313	663,497	-0,045	-0,085
-598,298	-200,000	-0,026	0,109
-597,284	301,092	0,087	-0,117
-596,269	-200,000	-0,046	0,148
-595,255	675,953	-0,039	-0,075
-594,240	669,794	-0,054	-0,101
-593,225	99,309	-0,077	-0,065
-592,211	101,869	-0,084	-0,071
-591,196	-200,000	0,013	0,135
-590,182	517,154	0,051	0,087
-589,167	136,335	-0,085	0,080
-588,152	43,279	-0,024	0,016
-587,138	119,634	0,079	0,071
-586,123	195,543	0,068	-0,075
-585,109	-200,000	-0,055	-0,228
-584,094	-110,033	-0,161	0,024
-583,079	146,833	0,092	-0,089
-582,065	282,958	-0,118	0,154
-581,050	-48,383	-0,095	0,033
-580,036	-39,943	0,132	0,050
-579,021	-70,831	-0,051	0,014
-578,006	-32,137	-0,196	0,079
-576,992	-172,438	0,110	-0,002
-575,977	225,931	-0,023	-0,027
-574,963	281,240	0,049	0,063
-573,948	-74,581	-0,057	0,015
-572,934	75,628	0,044	0,033
-571,919	-16,612	0,064	-0,029
-570,904	459,942	-0,041	-0,067
-569,890	-200,000	0,011	-0,061
-568,875	-200,000	-0,005	0,139
-567,861	-200,000	-0,002	-0,044
-566,846	-200,000	-0,011	0,117
-565,831	-10,530	-0,003	-0,002
-564,817	-116,568	-0,047	0,006
-563,802	-200,000	-0,014	-0,140
-562,788	-200,000	0,026	-0,115
-561,773	-114,441	0,086	0,012
-560,758	-200,000	-0,016	-0,050
-559,744	276,587	-0,090	0,116
-558,729	320,933	-0,073	-0,101
-557,715	68,372	-0,027	0,020
-556,700	800,000	-0,044	-0,107
-555,685	104,774	-0,063	-0,054
-554,671	-130,350	-0,246	0,024
-553,656	314,548	0,101	0,139
-552,642	-21,606	0,087	0,038
-551,627	-159,112	-0,047	-0,002
-550,612	-145,485	0,110	0,007
-549,598	474,542	-0,082	-0,135
-548,583	-200,000	0,003	-0,044
-547,569	-200,000	-0,010	0,067
-546,554	-123,678	-0,126	-0,014
-545,539	-200,000	-0,004	0,027
-544,525	18,401	0,058	0,033
-543,510	-200,000	0,008	-0,081
-542,496	-30,607	-0,060	-0,025
-541,481	800,000	0,040	-0,103
-540,466	-200,000	-0,016	0,081
-539,452	-200,000	-0,002	0,105
-538,437	286,682	0,098	0,129
-537,423	-200,000	-0,020	0,097
-536,408	79,412	-0,120	-0,093
-535,393	47,620	-0,067	0,045
-534,379	191,611	-0,025	0,028
-533,364	18,084	0,127	0,073
-532,350	499,027	0,044	0,073
-531,335	800,000	-0,019	0,044
-530,321	122,598	0,071	-0,064
-529,306	253,078	-0,039	0,048
-528,291	-200,000	0,014	-0,046
-527,277	-46,795	-0,016	0,006
-526,262	-174,332	0,089	-0,002
-525,248	-200,000	-0,036	0,132
-524,233	253,713	-0,049	0,061
-523,218	-64,458	0,054	-0,016
-522,204	-200,000	-0,007	0,032
-521,189	-30,025	-0,026	-0,011
-520,175	7,005	-0,100	0,054
-519,160	-200,000	0,015	-0,124
-518,145	-200,000	-0,010	0,113
-517,131	-200,000	0,009	0,085
-516,116	225,736	0,058	-0,068
-515,102	-119,989	-0,104	-0,013
-514,087	-119,575	0,071	-0,009
-513,072	-200,000	0,029	-0,127
-512,058	479,496	0,009	-0,015
-511,043	-17,853	-0,170	0,077
-510,029	-77,895	0,054	0,013
-509,014	800,000	0,054	0,143
-507,999	142,786	-0,027	-0,026
-506,985	700,262	-0,070	-0,134
-505,970	-146,694	0,037	0,002
-504,956	800,000	0,069	-0,152
-503,941	-200,000	0,013	-0,064
-502,926	471,950	0,013	0,021
-501,912	604,611	0,055	0,099
-500,897	-25,089	-0,101	-0,043
-499,883	-37,286	-0,011	0,004
-498,868	5,110	-0,088	0,047
-497,853	-80,860	0,144	0,034
-496,839	-87,577	-0,157	-0,034
-495,824	419,368	0,037	0,058
-494,810	421,824	-0,069	0,107
-493,795	34,238	-0,129	-0,081
-492,781	41,451	-0,119	-0,077
-491,766	56,638	-0,138	0,097
-490,751	139,952	-0,074	0,071
-489,737	-26,422	-0,120	0,051
-488,722	653,426	0,062	0,116
-487,708	-200,000	-0,015	0,058
-486,693	89,766	0,065	0,052
-485,678	348,474	0,064	-0,091
-484,664	279,648	-0,019	-0,024
-483,649	-200,000	0,014	-0,077
-482,635	800,000	0,030	-0,061
-481,620	303,002	-0,039	0,053
-480,605	-4,603	0,029	-0,015
-479,591	81,577	-0,073	0,057
-478,576	341,141	0,065	-0,092
-477,562	553,196	-0,034	-0,059
-476,547	173,969	-0,028	0,029
-475,532	-159,478	-0,076	-0,003
-474,518	-125,857	0,075	-0,008
-473,503	-200,000	0,023	0,132
-472,489	-200,000	-0,010	0,138
-471,474	-13,234	0,092	-0,043
-470,459	800,000	-0,040	-0,106
-469,445	-144,972	-0,097	0,006
-468,430	401,757	0,044	-0,067
-467,416	38,452	-0,025	0,016
-466,401	67,060	0,119	0,088
-465,386	453,761	-0,036	0,057
-464,372	-20,779	0,046	-0,020
-463,357	-130,799	-0,128	0,012
-462,343	-44,539	0,087	-0,031
-461,328	41,607	0,070	0,046
-460,313	278,730	-0,018	-0,024
-459,299	-14,344	0,063	-0,029
-458,284	800,000	0,016	0,044
-457,270	537,622	0,052	0,089
-456,255	-42,288	-0,105	-0,038
-455,241	-200,000	-0,008	0,051
-454,226	-200,000	-0,012	-0,092
-453,211	208,405	-0,046	-0,052
-452,197	429,637	0,133	0,209
-451,182	243,903	0,042	0,050
-450,168	-200,000	0,009	-0,076
-449,153	800,000	-0,003	0,007
-448,138	618,795	-0,021	0,038
-447,124	800,000	0,021	-0,063
-446,109	362,526	-0,068	-0,098
-445,095	800,000	-0,008	-0,023
-444,080	800,000	-0,033	-0,092
-443,065	282,630	0,067	-0,087
-442,051	800,000	-0,051	-0,161
-441,036	-46,684	-0,146	-0,051
-440,022	156,329	-0,063	-0,063
-439,007	65,792	-0,091	0,066
-437,992	-200,000	0,007	-0,051
-436,978	104,956	0,165	0,140
-435,963	365,183	0,045	0,065
-434,949	-200,000	0,029	0,143
-433,934	-151,968	-0,095	-0,005
-432,919	406,977	0,028	-0,043
-431,905	32,600	0,081	0,050
-430,890	-46,046	0,064	-0,023
-429,876	-200,000	0,008	-0,085
-428,861	-84,931	-0,113	-0,025
-427,846	800,000	0,021	-0,053
-426,832	-170,466	0,022	0,001
-425,817	-72,181	0,218	-0,058
-424,803	800,000	-0,061	0,132
-423,788	-200,000	-0,013	-0,075
-422,773	707,247	-0,049	0,094
-421,759	800,000	-0,043	0,136
-420,744	407,772	-0,028	0,042
-419,730	253,859	-0,071	-0,088
-418,715	143,597	0,068	-0,065
-417,701	-15,480	0,087	-0,040
-416,686	-188,668	-0,024	-0,000
-415,671	122,405	-0,030	0,027
-414,657	266,053	-0,012	-0,015
-413,642	115,228	-0,124	-0,109
-412,628	56,961	0,129	0,090
-411,613	58,636	0,020	0,014
-410,598	-117,867	-0,064	-0,008
-409,584	240,804	-0,007	0,008
-408,569	-200,000	-0,056	-0,193
-407,555	800,000	0,030	-0,062
-406,540	-200,000	0,004	0,031
-405,525	35,067	-0,065	0,041
-404,511	800,000	0,020	0,061
-403,496	-17,691	0,027	0,012
-402,482	296,197	-0,031	0,041
-401,467	69,509	0,185	0,137
-400,452	-200,000	0,011	0,093
-399,438	152,504	-0,108	0,107
-398,423	-132,404	0,085	0,008
-397,409	230,887	-0,138	-0,163
-396,394	-200,000	0,004	0,022
-395,379	53,908	-0,062	0,043
-394,365	-46,323	0,133	0,047
-393,350	-200,000	0,025	0,089
-392,336	447,323	-0,062	-0,099
-391,321	73,699	0,059	-0,045
-390,306	-200,000	-0,027	-0,136
-389,292	-49,682	-0,212	0,072
-388,277	800,000	-0,023	0,050
-387,263	108,805	0,040	-0,034
-386,248	-1,179	-0,157	-0,079
-385,233	-200,000	-0,007	-0,066
-384,219	-147,600	-0,094	-0,006
-383,204	800,000	-0,108	-0,244
-382,190	457,157	-0,086	-0,138
-381,175	290,485	0,043	0,056
-380,160	-77,329	0,078	-0,019
-379,146	-200,000	-0,014	0,082
-378,131	18,651	0,083	-0,048
-377,117	22,615	0,124	0,073
-376,102	-46,695	-0,151	0,053
-375,088	-200,000	0,020	0,078
-374,073	64,333	-0,093	-0,067
-373,058	-200,000	0,001	0,005
-372,044	-83,000	0,123	0,028
-371,029	-22,209	0,077	0,033
-370,015	30,547	0,057	-0,035
-369,000	-33,399	-0,079	-0,031
-367,985	-200,000	0,037	-0,119
-366,971	259,686	-0,018	-0,023
-365,956	800,000	-0,127	0,266
-364,942	250,258	0,102	0,125
-363,927	592,798	0,038	0,067
-362,912	800,000	-0,063	0,132
-361,898	-200,000	-0,007	-0,056
-360,883	441,772	0,066	-0,105
-359,869	-200,000	-0,014	-0,146
-358,854	800,000	0,057	0,147
-357,839	14,880	0,132	-0,074
-356,825	407,207	0,040	0,061
-355,810	-62,689	-0,145	-0,043
-354,796	-200,000	-0,023	-0,161
-353,781	-66,639	0,026	0,007
-352,766	98,146	-0,004	-0,004
-351,752	800,000	0,033	-0,103
-350,737	800,000	0,079	0,219
-349,723	-200,000	0,011	-0,058
-348,708	2,777	0,118	0,061
-347,693	314,674	0,029	-0,040
-346,679	-200,000	-0,007	-0,154
-345,664	-200,000	-0,001	-0,015
-344,650	12,966	0,023	-0,013
-343,635	-83,680	0,124	-0,028
-342,620	9,551	0,040	-0,022
-341,606	-200,000	0,020	0,141
-340,591	10,362	-0,009	-0,005
-339,577	-142,541	-0,126	-0,009
-338,562	63,439	0,056	0,040
-337,548	-200,000	-0,006	0,052
-336,533	800,000	-0,013	-0,032
-335,518	-31,324	-0,059	0,024
-334,504	89,126	0,101	0,081
-333,489	183,602	0,138	-0,147
-332,475	-10,748	-0,080	0,038
-331,460	223,923	0,011	-0,012
-330,445	21,007	-0,149	-0,087
-329,431	800,000	0,057	0,143
-328,416	-99,392	-0,056	-0,010
-327,402	-200,000	-0,001	0,037
-326,387	-200,000	0,011	-0,042
-325,372	457,244	-0,009	0,015
-324,358	776,442	-0,062	0,123
-323,343	-21,058	-0,102	0,045
-322,329	800,000	0,054	0,150
-321,314	-200,000	-0,009	0,052
-320,299	52,526	0,149	0,102
-319,285	56,781	0,017	-0,012
-318,270	-200,000	0,005	-0,093
-317,256	-200,000	0,011	-0,081
-316,241	-200,000	0,026	0,110
-315,226	64,130	0,131	0,094
-314,212	325,864	0,066	0,091
-313,197	-200,000	0,035	0,119
-312,183	-84,971	0,137	-0,031
-311,168	-200,000	0,053	-0,238
-310,153	-174,700	-0,122	-0,002
-309,139	-43,681	0,005	-0,002
-308,124	-48,606	-0,131	-0,045
-307,110	137,329	0,053	-0,050
-306,095	656,050	0,071	-0,132
-305,080	159,841	-0,104	0,104
-304,066	-200,000	0,009	-0,041
-303,051	-108,740	0,131	-0,020
-302,037	-200,000	0,002	0,012
-301,022	-200,000	-0,018	-0,124
-300,008	16,205	-0,022	-0,012
-298,993	-200,000	0,023	0,145
-297,978	-200,000	-0,000	0,033
-296,964	800,000	-0,041	0,107
-295,949	800,000	0,014	-0,033
-294,935	-64,613	0,009	-0,003
-293,920	189,681	0,055	0,059
-292,905	-29,395	0,071	0,029
-291,891	-200,000	-0,015	-0,095
-290,876	-85,563	0,084	-0,018
-289,862	-96,654	-0,031	0,006
-288,847	-47,389	-0,042	0,015
-287,832	-200,000	-0,024	-0,139
-286,818	-70,038	0,208	-0,056
-285,803	3,976	-0,065	-0,034
-284,789	4,077	0,101	0,053
-283,774	-164,295	0,042	-0,001
-282,759	-200,000	-0,001	0,013
-281,745	-98,012	-0,068	0,012
-280,730	-200,000	0,028	-0,107
-279,716	43,044	-0,040	-0,026
-278,701	247,064	0,057	0,069
-277,686	-200,000	0,010	-0,063
-276,672	317,944	0,021	0,029
-275,657	161,801	0,058	0,058
-274,643	4,190	-0,049	0,025
-273,628	-200,000	-0,025	0,000
-272,613	63,566	0,057	0,041
-271,599	-140,084	-0,103	-0,008
-270,584	134,328	0,166	0,155
-269,570	47,828	-0,051	0,034
-268,555	-200,000	-0,013	0,109
-267,540	-200,000	-0,014	0,098
-266,526	-62,931	-0,159	-0,047
-265,511	196,299	0,033	0,036
-264,497	97,996	0,054	-0,044
-263,482	-97,569	0,121	-0,022
-262,467	93,651	0,070	-0,057
-261,453	-200,000	-0,020	-0,111
-260,438	-164,505	-0,088	0,003
-259,424	800,000	0,029	-0,063
-258,409	-200,000	0,002	-0,105
-257,395	274,119	0,035	0,044
-256,380	-71,450	-0,064	0,017
-255,365	-200,000	0,003	0,066
-254,351	-200,000	0,007	0,181
-253,336	800,000	-0,013	0,038
-252,322	-200,000	-0,036	-0,238
-251,307	-200,000	0,003	-0,012
-250,292	-58,493	0,049	-0,015
-249,278	-200,000	0,015	-0,076
-248,263	251,397	-0,036	-0,044
-247,249	800,000	-0,043	0,098
-246,234	154,729	0,080	-0,079
-245,219	-111,197	-0,135	-0,020
-244,205	393,582	-0,027	-0,041
-243,190	-152,236	0,073	-0,004
-242,176	-29,916	0,039	-0,016
-241,161	537,441	0,039	0,066
-240,146	-49,479	-0,065	-0,022
-239,132	-200,000	0,002	-0,035
-238,117	2,826	0,071	-0,036
-237,103	800,000	-0,044	-0,112
-236,088	-59,758	0,179	0,054
-235,073	-26,179	0,033	0,014
-234,059	800,000	0,041	0,084
-233,044	-40,872	0,068	-0,025
-232,030	190,685	0,089	-0,096
-231,015	-148,015	0,093	-0,005
-230,000	145,608	-0,110	-0,106
-228,986	-200,000	0,014	0,047
-227,971	4,798	0,190	-0,100
-226,957	130,136	0,008	-0,007
-225,942	-200,000	0,016	0,136
-224,927	61,547	0,075	-0,053
-223,913	-14,327	0,075	-0,034
-222,898	92,705	-0,033	0,027
-221,884	39,574	0,052	0,033
-220,869	319,193	0,067	0,092
-219,855	-100,138	-0,096	0,017
-218,840	511,532	0,046	0,077
-217,825	573,853	0,033	-0,058
-216,811	57,168	0,065	-0,045
-215,796	800,000	-0,014	0,039
-214,782	-200,000	-0,003	-0,038
-213,767	-102,836	0,026	-0,004
-212,752	-111,746	0,187	0,027
-211,738	19,067	-0,087	0,049
-210,723	21,046	-0,052	-0,030
-209,709	-200,000	0,006	-0,164
-208,694	127,796	-0,034	0,031
-207,679	414,860	0,061	-0,094
-206,665	800,000	-0,061	0,181
-205,650	800,000	0,022	0,048
-204,636	-200,000	-0,037	0,142
-203,621	233,064	-0,012	0,015
-202,606	48,883	-0,164	-0,110
-201,592	209,379	-0,072	0,081
-200,577	317,702	-0,045	-0,061
-199,563	114,196	-0,080	-0,069
-198,548	-170,372	0,117	0,003
-197,533	89,116	-0,038	0,030
-196,519	57,121	0,170	0,118
-195,504	39,812	-0,076	-0,049
-194,490	35,275	0,049	0,030
-193,475	-39,661	-0,058	-0,021
-192,460	338,841	0,063	-0,088
-191,446	108,663	-0,071	0,061
-190,431	415,266	0,060	0,092
-189,417	357,372	-0,057	0,081
-188,402	-25,268	0,055	0,023
-187,387	8,723	-0,064	-0,035
-186,373	273,454	0,079	-0,100
-185,358	-7,500	0,032	0,015
-184,344	38,246	0,139	0,088
-183,329	-200,000	0,009	0,086
-182,315	-200,000	0,022	-0,073
-181,300	-171,773	-0,085	-0,002
-180,285	-200,000	0,005	-0,148
-179,271	800,000	0,038	-0,093
-178,256	-200,000	-0,021	-0,068
-177,242	349,714	-0,058	0,083
-176,227	-200,000	0,018	0,098
-175,212	214,253	0,060	0,068
-174,198	-67,242	-0,111	0,031
-173,183	103,817	-0,075	-0,063
-172,169	-200,000	-0,060	-0,193
-171,154	-200,000	0,010	-0,173
-170,139	236,624	0,018	0,022
-169,125	-200,000	0,008	-0,081
-168,110	74,912	0,097	0,073
-167,096	251,951	-0,012	-0,015
-166,081	-200,000	0,007	-0,103
-165,066	-72,986	0,084	0,022
-164,052	-24,243	0,020	0,009
-163,037	192,087	0,019	0,021
-162,023	216,271	0,121	0,137
-161,008	323,398	0,044	-0,060
-159,993	800,000	0,084	0,220
-158,979	29,644	-0,121	-0,073
-157,964	-24,209	0,050	-0,021
-156,950	-75,855	0,101	-0,025
-155,935	-86,604	-0,130	0,028
-154,920	-200,000	-0,020	0,140
-153,906	800,000	-0,050	0,129
-152,891	-200,000	-0,023	0,164
-151,877	-200,000	0,003	0,124
-150,862	-28,238	-0,002	0,001
-149,847	-200,000	0,025	0,125
-148,833	-200,000	0,000	0,073
-147,818	53,762	0,131	0,089
-146,804	46,225	-0,041	-0,027
-145,789	-143,580	0,096	0,006
-144,775	800,000	0,022	-0,048
-143,760	-200,000	0,002	0,070
-142,745	-200,000	0,011	-0,058
-141,731	800,000	0,012	-0,026
-140,716	-102,514	0,090	0,015
-139,702	800,000	-0,018	0,038
-138,687	21,802	-0,124	0,072
-137,672	-200,000	-0,002	0,055
-136,658	148,407	0,078	-0,075
-135,643	-200,000	-0,002	-0,138
-134,629	-121,947	-0,099	-0,011
-133,614	470,464	-0,037	0,059
-132,599	800,000	0,019	0,051
-131,585	800,000	0,061	0,159
-130,570	-104,427	-0,093	0,015
-129,556	156,372	0,047	0,046
-128,541	162,018	-0,108	-0,107
-127,526	237,364	-0,045	0,053
-126,512	-170,013	0,134	-0,003
-125,497	188,928	0,029	-0,031
-124,483	-34,714	0,084	0,033
-123,468	-58,438	-0,047	-0,014
-122,453	-18,228	-0,142	-0,063
-121,439	29,236	-0,139	-0,084
-120,424	317,443	0,088	-0,119
-119,410	-47,543	-0,060	0,020
