DTS Sentinel unit serial number:	SN410029Multiplexer serial number:	ORYXHardware model number:	OX2-SRSoftware version number:	ORYX F/W v4,00 Oryx Data Collector v3.7.2.0data status	okinstallation	BH3 CH2differential loss correction	single-endedforward channel	channel 2reverse channel	N/Adate	2023/12/05time	12:57:28forward acquisition time	300,00reverse acquisition time	0,00gamma	499,1914k internal	0,3196k external	0,3196temperature offset calibration	1,0000default loss term (dB/km)	0,3820temperature slope calibration	1,0000multiplexer offset coefficient	1,0000multiplexer slope coefficient	1,0000fibre end	0,00T internal ref (°C)	10,01T ext. ref 1 (°C)	-4,39T ext. ref 2 (°C)	-4,49length (m)	temperature (°C)	Stokes	anti-Stokes-744,400	295,807	-0,060	-0,080
-743,385	54,607	-0,253	0,178
-742,371	287,270	-0,077	-0,101
-741,356	62,894	-0,159	0,116
-740,342	-200,000	0,001	-0,007
-739,327	-170,788	-0,230	0,006
-738,312	91,056	-0,118	-0,097
-737,298	-30,900	-0,101	0,041
-736,283	170,180	0,137	-0,142
-735,269	-36,436	-0,197	0,077
-734,254	33,718	0,032	-0,020
-733,239	-88,361	-0,351	-0,076
-732,225	-52,870	0,133	-0,044
-731,210	445,658	-0,040	0,065
-730,196	-28,966	0,126	-0,052
-729,181	-127,925	0,116	-0,012
-728,167	-200,000	-0,164	0,000
-727,152	-200,000	0,005	0,015
-726,137	-46,459	-0,102	0,036
-725,123	543,332	-0,047	0,081
-724,108	-200,000	-0,013	-0,131
-723,094	-200,000	0,001	-0,150
-722,079	42,330	-0,048	-0,032
-721,064	-69,243	0,020	0,005
-720,050	-7,473	-0,060	-0,029
-719,035	-161,651	-0,060	0,002
-718,021	181,229	-0,103	-0,110
-717,006	10,185	-0,059	-0,032
-715,991	-98,627	-0,093	-0,017
-714,977	-30,480	-0,050	0,020
-713,962	279,618	-0,042	-0,055
-712,948	170,210	-0,047	0,049
-711,933	201,443	0,097	0,108
-710,918	-126,310	-0,124	-0,013
-709,904	-10,190	-0,056	0,027
-708,889	-66,121	0,100	-0,029
-707,875	615,560	0,041	0,076
-706,860	-200,000	-0,026	0,130
-705,845	-200,000	-0,040	-0,176
-704,831	800,000	-0,004	0,009
-703,816	239,772	-0,093	0,113
-702,802	57,290	0,056	-0,040
-701,787	-15,517	-0,123	-0,057
-700,772	-200,000	-0,008	0,142
-699,758	-133,771	0,047	0,004
-698,743	121,969	0,135	0,123
-697,729	-200,000	-0,014	0,066
-696,714	-106,918	-0,138	0,022
-695,699	494,526	-0,047	0,079
-694,685	502,901	-0,009	-0,016
-693,670	-200,000	-0,010	-0,185
-692,656	-200,000	0,012	-0,086
-691,641	330,644	-0,067	0,094
-690,627	-88,446	-0,094	0,020
-689,612	-200,000	0,038	-0,190
-688,597	-101,147	-0,113	0,020
-687,583	-200,000	0,004	-0,037
-686,568	-53,514	-0,198	-0,066
-685,554	515,402	0,071	-0,120
-684,539	-76,820	-0,048	0,012
-683,524	-96,276	0,086	-0,016
-682,510	713,567	-0,070	-0,135
-681,495	181,532	0,036	-0,038
-680,481	-200,000	-0,020	-0,169
-679,466	-200,000	-0,007	-0,119
-678,451	800,000	0,028	-0,070
-677,437	800,000	0,025	0,062
-676,422	113,113	0,027	0,024
-675,408	126,085	-0,095	0,087
-674,393	-3,912	0,054	-0,027
-673,378	-200,000	0,021	0,090
-672,364	-65,283	0,061	0,018
-671,349	-151,992	-0,108	-0,006
-670,335	271,489	-0,057	-0,073
-669,320	-200,000	0,009	0,035
-668,305	800,000	0,018	0,042
-667,291	800,000	0,050	-0,134
-666,276	-112,598	0,153	-0,022
-665,262	-109,693	0,041	-0,006
-664,247	800,000	0,027	-0,065
-663,232	800,000	-0,032	0,098
-662,218	81,278	-0,064	0,050
-661,203	-80,897	0,072	-0,017
-660,189	800,000	-0,045	0,095
-659,174	56,392	0,105	-0,074
-658,159	-107,727	-0,087	-0,014
-657,145	127,382	-0,046	-0,042
-656,130	-179,739	-0,019	-0,000
-655,116	-66,921	0,095	-0,027
-654,101	-27,003	0,028	-0,012
-653,086	-200,000	-0,030	-0,111
-652,072	233,300	-0,100	0,119
-651,057	-132,994	-0,164	-0,015
-650,043	-73,433	-0,071	-0,019
-649,028	662,218	-0,038	-0,071
-648,014	69,621	0,105	0,079
-646,999	39,960	-0,043	-0,028
-645,984	531,988	0,087	0,151
-644,970	800,000	0,027	-0,056
-643,955	74,616	-0,122	-0,093
-642,941	111,717	-0,108	-0,094
-641,926	800,000	0,035	0,099
-640,911	359,424	0,028	0,041
-639,897	-200,000	-0,025	0,081
-638,882	-121,083	0,040	-0,005
-637,868	-105,012	0,019	0,003
-636,853	800,000	0,038	0,104
-635,838	-52,828	-0,108	0,036
-634,824	47,760	0,116	0,079
-633,809	-200,000	-0,003	-0,115
-632,795	61,832	0,073	0,053
-631,780	-200,000	0,005	-0,016
-630,765	-1,722	0,133	-0,068
-629,751	800,000	-0,047	-0,107
-628,736	31,064	-0,011	-0,007
-627,722	2,207	-0,078	-0,041
-626,707	800,000	0,051	-0,108
-625,692	-128,581	0,105	0,011
-624,678	192,666	0,060	-0,065
-623,663	-51,537	-0,146	-0,049
-622,649	-15,556	-0,057	-0,026
-621,634	-87,386	-0,159	0,035
-620,619	14,408	0,099	-0,056
-619,605	-200,000	-0,009	-0,036
-618,590	50,175	-0,031	0,021
-617,576	346,970	-0,047	-0,068
-616,561	785,890	-0,017	-0,035
-615,546	-43,008	-0,132	0,048
-614,532	800,000	0,035	-0,107
-613,517	206,474	-0,055	-0,062
-612,503	-200,000	0,045	-0,168
-611,488	800,000	-0,027	0,057
-610,474	186,432	0,037	0,040
-609,459	-200,000	-0,024	0,131
-608,444	583,455	-0,008	0,015
-607,430	60,850	-0,125	-0,090
-606,415	-200,000	-0,010	-0,110
-605,401	273,096	0,030	-0,039
-604,386	800,000	0,060	0,160
-603,371	-200,000	0,006	0,162
-602,357	-200,000	-0,013	-0,110
-601,342	-73,308	0,014	-0,004
-600,328	175,449	0,058	-0,060
-599,313	36,630	-0,047	0,030
-598,298	-200,000	-0,007	-0,025
-597,284	177,565	0,085	-0,090
-596,269	-123,869	0,059	0,007
-595,255	149,271	-0,060	0,059
-594,240	-200,000	0,021	0,101
-593,225	-1,057	0,074	0,038
-592,211	-63,362	-0,210	-0,062
-591,196	-31,062	0,121	0,049
-590,182	-111,270	0,068	-0,010
-589,167	118,535	-0,011	-0,010
-588,152	-100,637	0,031	0,006
-587,138	547,095	0,034	0,059
-586,123	-200,000	-0,017	-0,090
-585,109	195,136	-0,045	-0,049
-584,094	-76,670	0,048	-0,012
-583,079	800,000	0,058	0,157
-582,065	-200,000	-0,008	0,135
-581,050	-72,707	-0,037	0,010
-580,036	-200,000	-0,019	-0,063
-579,021	-53,930	0,124	-0,041
-578,006	23,164	-0,101	-0,060
-576,992	800,000	-0,026	-0,059
-575,977	223,969	0,032	0,038
-574,963	153,709	-0,009	0,009
-573,948	221,599	0,040	0,047
-572,934	-72,216	0,106	-0,028
-571,919	416,988	-0,159	-0,247
-570,904	-80,456	-0,096	-0,023
-569,890	-84,587	0,144	0,032
-568,875	36,790	0,023	-0,015
-567,861	-200,000	-0,007	0,058
-566,846	543,969	0,039	0,068
-565,831	-200,000	0,001	0,038
-564,817	800,000	0,041	-0,083
-563,802	-78,248	-0,111	-0,027
-562,788	-200,000	0,011	-0,080
-561,773	-200,000	0,007	0,044
-560,758	800,000	-0,029	0,068
-559,744	-200,000	-0,005	0,030
-558,729	-62,941	-0,100	-0,030
-557,715	4,834	-0,066	-0,035
-556,700	81,541	-0,074	-0,058
-555,685	285,916	0,059	0,077
-554,671	369,495	-0,159	0,233
-553,656	635,432	-0,065	0,120
-552,642	-200,000	-0,029	0,124
-551,627	61,146	0,128	0,092
-550,612	73,705	0,057	-0,043
-549,598	-154,520	-0,162	-0,008
-548,583	-200,000	-0,006	0,114
-547,569	800,000	-0,035	0,099
-546,554	-81,868	-0,019	0,004
-545,539	275,279	-0,041	0,052
-544,525	-200,000	0,023	-0,110
-543,510	149,861	-0,146	0,143
-542,496	-119,899	-0,128	0,016
-541,481	40,446	-0,088	0,057
-540,466	-20,113	0,196	-0,087
-539,452	800,000	0,020	0,046
-538,437	800,000	-0,036	0,096
-537,423	70,596	0,097	0,073
-536,408	-60,637	-0,029	0,009
-535,393	162,300	-0,045	0,045
-534,379	-96,049	0,064	0,012
-533,364	-110,075	-0,134	-0,020
-532,350	800,000	0,055	0,141
-531,335	-59,146	0,096	-0,030
-530,321	-33,116	-0,117	-0,047
-529,306	800,000	-0,033	-0,102
-528,291	763,005	0,081	-0,160
-527,277	800,000	-0,037	-0,087
-526,262	-140,239	0,163	0,012
-525,248	-200,000	-0,027	-0,109
-524,233	-68,153	0,102	-0,028
-523,218	305,391	-0,117	0,158
-522,204	-200,000	0,005	0,083
-521,189	-64,870	0,013	-0,004
-520,175	-145,067	0,061	-0,004
-519,160	800,000	-0,005	0,014
-518,145	-141,018	-0,054	0,004
-517,131	-67,411	0,054	0,015
-516,116	-46,152	-0,084	-0,030
-515,102	201,867	-0,005	-0,005
-514,087	-196,247	-0,051	0,000
-513,072	312,463	0,055	0,075
-512,058	-200,000	-0,030	-0,163
-511,043	244,163	0,035	-0,043
-510,029	521,953	-0,072	-0,123
-509,014	548,696	0,027	0,047
-507,999	110,300	0,117	0,102
-506,985	800,000	0,001	0,003
-505,970	-200,000	-0,006	-0,081
-504,956	151,434	-0,073	0,072
-503,941	87,942	0,191	0,153
-502,926	796,065	-0,065	-0,131
-501,912	-200,000	0,001	0,107
-500,897	35,331	0,127	-0,080
-499,883	173,489	0,063	-0,066
-498,868	173,262	-0,081	-0,084
-497,853	84,303	-0,069	-0,054
-496,839	495,647	-0,028	-0,046
-495,824	-33,953	0,106	0,042
-494,810	800,000	0,073	0,154
-493,795	-130,401	-0,074	-0,007
-492,781	281,807	0,011	-0,015
-491,766	-149,221	-0,034	-0,002
-490,751	53,593	-0,158	0,109
-489,737	-1,885	0,034	0,017
-488,722	-200,000	-0,002	0,116
-487,708	666,811	-0,044	0,083
-486,693	-200,000	0,021	0,101
-485,678	106,486	0,123	-0,105
-484,664	-200,000	-0,015	-0,153
-483,649	48,061	-0,080	-0,054
-482,635	-200,000	0,001	-0,063
-481,620	788,818	-0,037	0,075
-480,605	7,414	0,034	-0,018
-479,591	-200,000	-0,003	0,036
-478,576	155,087	-0,044	-0,044
-477,562	-200,000	0,008	0,030
-476,547	584,995	0,052	-0,092
-475,532	-73,636	-0,025	-0,006
-474,518	-71,343	0,050	0,013
-473,503	-200,000	0,014	0,097
-472,489	-107,717	-0,098	0,015
-471,474	-200,000	0,044	-0,226
-470,459	-26,240	0,043	-0,018
-469,445	19,649	-0,040	-0,023
-468,430	-200,000	0,011	-0,061
-467,416	-91,164	0,082	0,017
-466,401	-10,629	-0,199	0,094
-465,386	3,851	-0,021	0,011
-464,372	571,055	0,027	0,048
-463,357	273,925	-0,020	-0,025
-462,343	45,776	-0,079	0,052
-461,328	800,000	0,023	-0,072
-460,313	144,773	0,085	0,082
-459,299	27,620	0,019	0,011
-458,284	241,310	-0,058	0,070
-457,270	69,565	0,166	0,123
-456,255	439,171	-0,119	-0,188
-455,241	94,583	-0,069	-0,057
-454,226	227,950	0,037	-0,043
-453,211	122,047	-0,120	-0,108
-452,197	3,476	0,070	-0,037
-451,182	375,472	-0,045	-0,066
-450,168	51,258	0,112	0,076
-449,153	80,207	0,063	0,048
-448,138	444,666	0,037	0,058
-447,124	187,350	0,124	0,133
-446,109	102,121	-0,065	0,055
-445,095	-200,000	0,027	0,148
-444,080	-18,813	0,120	-0,054
-443,065	238,714	-0,055	0,065
-442,051	-200,000	0,016	0,055
-441,036	126,672	-0,166	0,152
-440,022	268,395	0,054	0,068
-439,007	-200,000	-0,005	-0,136
-437,992	180,807	0,039	0,041
-436,978	-200,000	-0,013	0,083
-435,963	800,000	0,015	0,040
-434,949	-31,040	0,078	0,031
-433,934	-81,638	0,047	0,011
-432,919	242,267	-0,077	-0,093
-431,905	107,749	-0,171	-0,146
-430,890	-200,000	-0,004	0,057
-429,876	-18,274	-0,015	0,007
-428,861	800,000	-0,058	0,141
-427,846	565,349	-0,035	0,062
-426,832	63,596	-0,091	-0,066
-425,817	398,990	0,030	0,046
-424,803	447,214	-0,032	0,051
-423,788	32,389	0,091	-0,056
-422,773	-200,000	-0,032	0,114
-421,759	36,794	0,128	0,082
-420,744	73,058	-0,024	-0,018
-419,730	800,000	-0,054	-0,113
-418,715	800,000	0,032	-0,093
-417,701	-200,000	-0,003	0,016
-416,686	800,000	0,015	0,041
-415,671	-65,031	0,051	0,015
-414,657	-200,000	-0,009	0,139
-413,642	-200,000	-0,006	0,039
-412,628	428,688	-0,024	-0,038
-411,613	800,000	0,060	0,138
-410,598	-75,370	0,175	-0,044
-409,584	-129,499	-0,055	-0,005
-408,569	26,443	0,109	0,066
-407,555	-18,590	0,092	-0,041
-406,540	35,213	0,094	-0,059
-405,525	-106,511	0,066	0,010
-404,511	-200,000	-0,028	-0,162
-403,496	155,056	-0,082	-0,081
-402,482	-10,102	0,104	-0,050
-401,467	64,406	0,138	0,100
-400,452	560,028	-0,073	0,127
-399,438	76,547	-0,132	-0,101
-398,423	151,066	0,012	-0,012
-397,409	193,478	0,044	0,048
-396,394	665,170	0,041	-0,076
-395,379	-120,452	-0,099	0,012
-394,365	-140,539	0,049	-0,004
-393,350	-200,000	-0,013	0,093
-392,336	23,469	0,020	-0,012
-391,321	40,618	-0,107	0,069
-390,306	800,000	0,055	-0,135
-389,292	2,282	-0,068	0,035
-388,277	241,631	0,047	0,057
-387,263	14,448	0,096	0,054
-386,248	-200,000	-0,019	0,070
-385,233	-200,000	-0,039	0,148
-384,219	800,000	-0,070	-0,144
-383,204	-200,000	-0,041	0,152
-382,190	46,377	-0,040	0,026
-381,175	-200,000	-0,127	-0,000
-380,160	4,708	0,030	0,016
-379,146	-192,133	0,146	-0,001
-378,131	216,861	0,034	-0,039
-377,117	27,200	-0,014	0,009
-376,102	-57,065	-0,019	0,006
-375,088	292,612	0,074	-0,097
-374,073	-56,456	0,037	-0,012
-373,058	482,821	-0,045	0,074
-372,044	-200,000	0,026	0,114
-371,029	-200,000	0,020	0,076
-370,015	106,262	0,111	-0,095
-369,000	63,036	-0,149	-0,107
-367,985	-54,683	-0,043	-0,014
-366,971	300,719	0,020	-0,027
-365,956	800,000	0,030	0,093
-364,942	57,585	-0,113	-0,079
-363,927	8,170	0,105	0,056
-362,912	22,734	0,038	-0,022
-361,898	12,978	0,053	0,029
-360,883	14,173	-0,141	-0,079
-359,869	800,000	-0,015	0,042
-358,854	341,537	0,062	-0,087
-357,839	-168,991	0,026	0,001
-356,825	71,414	-0,104	0,078
-355,810	264,330	-0,045	0,056
-354,796	535,880	-0,007	-0,012
-353,781	471,718	-0,091	0,147
-352,766	-200,000	0,015	0,119
-351,752	800,000	0,021	-0,060
-350,737	536,176	-0,067	-0,114
-349,723	-35,006	-0,104	0,041
-348,708	10,605	0,152	-0,083
-347,693	6,531	0,051	0,027
-346,679	93,304	0,115	0,093
-345,664	-200,000	-0,002	0,091
-344,650	800,000	-0,089	0,211
-343,635	-200,000	-0,015	0,090
-342,620	89,775	0,152	0,122
-341,606	671,779	0,021	-0,039
-340,591	800,000	0,030	0,060
-339,577	-200,000	-0,007	0,026
-338,562	800,000	-0,014	0,031
-337,548	-200,000	-0,021	0,126
-336,533	-60,183	-0,040	-0,012
-335,518	21,125	0,039	0,023
-334,504	-7,177	0,014	0,007
-333,489	484,004	0,032	-0,052
-332,475	-75,381	-0,094	0,024
-331,460	458,763	-0,099	-0,158
-330,445	-200,000	0,014	-0,148
-329,431	-200,000	-0,014	-0,083
-328,416	800,000	0,027	-0,082
-327,402	-200,000	-0,023	0,104
-326,387	692,866	-0,084	0,158
-325,372	235,124	0,078	-0,092
-324,358	800,000	0,075	-0,161
-323,343	516,420	0,041	0,068
-322,329	800,000	-0,023	0,056
-321,314	-200,000	-0,006	0,114
-320,299	-111,381	-0,167	0,024
-319,285	-163,312	0,174	0,006
-318,270	444,067	-0,118	-0,186
-317,256	800,000	-0,044	-0,126
-316,241	-200,000	0,009	-0,065
-315,226	-200,000	-0,000	-0,020
-314,212	800,000	0,049	0,138
-313,197	109,158	0,033	0,028
-312,183	-102,556	-0,104	0,018
-311,168	41,898	-0,075	0,049
-310,153	109,828	0,024	-0,020
-309,139	-19,741	0,012	0,005
-308,124	-24,080	0,025	-0,011
-307,110	-200,000	-0,016	-0,059
-306,095	611,744	0,029	-0,053
-305,080	-115,965	-0,041	-0,005
-304,066	800,000	-0,023	0,058
-303,051	-80,267	-0,092	-0,022
-302,037	207,290	-0,082	0,091
-301,022	24,929	0,097	0,058
-300,008	684,002	-0,038	-0,071
-298,993	-200,000	0,005	-0,024
-297,978	800,000	0,040	-0,082
-296,964	-100,333	-0,127	-0,022
-295,949	6,476	-0,077	-0,041
-294,935	240,129	0,056	-0,067
-293,920	-7,237	-0,090	0,043
-292,905	89,478	-0,099	0,079
-291,891	490,861	-0,048	0,080
-290,876	184,391	0,078	0,083
-289,862	-200,000	0,017	0,069
-288,847	353,845	-0,026	-0,036
-287,832	-200,000	-0,035	0,157
-286,818	8,750	-0,018	-0,010
-285,803	-18,655	0,088	0,039
-284,789	-200,000	0,040	0,149
-283,774	129,928	0,043	-0,040
-282,759	-27,714	-0,162	0,067
-281,745	334,833	0,029	0,040
-280,730	-11,081	0,068	0,032
-279,716	-88,606	0,097	-0,021
-278,701	-200,000	0,000	-0,048
-277,686	800,000	-0,023	-0,046
-276,672	-53,880	0,134	0,043
-275,657	-19,454	0,047	-0,021
-274,643	328,932	-0,017	0,023
-273,628	-38,326	0,052	-0,019
-272,613	-98,528	-0,163	-0,029
-271,599	44,869	-0,058	-0,038
-270,584	800,000	-0,021	-0,064
-269,570	-200,000	0,002	-0,132
-268,555	462,369	-0,054	0,086
-267,540	-200,000	0,022	0,074
-266,526	800,000	-0,067	-0,195
-265,511	-200,000	0,022	-0,138
-264,497	151,209	0,085	0,083
-263,482	-4,810	0,123	0,060
-262,467	-29,559	0,044	0,018
-261,453	16,779	-0,033	0,018
-260,438	272,547	-0,033	0,041
-259,424	-105,141	0,084	0,014
-258,409	-98,905	-0,018	0,003
-257,395	658,414	0,043	-0,079
-256,380	-24,917	-0,040	-0,017
-255,365	-133,476	0,107	0,009
-254,351	800,000	-0,023	0,057
-253,336	624,848	0,097	-0,176
-252,322	-200,000	0,003	-0,137
-251,307	-75,103	0,094	0,024
-250,292	-64,458	0,039	0,011
-249,278	-102,699	0,040	-0,007
-248,263	186,822	-0,088	-0,094
-247,249	336,193	-0,066	-0,092
-246,234	-200,000	0,012	-0,072
-245,219	51,018	-0,077	-0,052
-244,205	-200,000	-0,049	-0,197
-243,190	61,874	0,079	-0,056
-242,176	800,000	-0,046	0,093
-241,161	227,707	0,069	0,081
-240,146	-200,000	-0,037	0,123
-239,132	-102,891	0,063	0,011
-238,117	387,529	0,020	-0,029
-237,103	-200,000	0,034	-0,156
-236,088	27,810	0,021	0,012
-235,073	-200,000	-0,028	0,173
-234,059	-139,460	0,085	0,006
-233,044	78,845	0,011	0,008
-232,030	800,000	0,014	-0,038
-231,015	166,316	-0,155	-0,157
-230,000	-80,938	0,069	0,016
-228,986	-200,000	-0,008	0,113
-227,971	-14,717	-0,068	0,031
-226,957	254,842	0,044	-0,054
-225,942	-200,000	0,009	0,097
-224,927	-163,045	0,096	-0,003
-223,913	-200,000	0,036	-0,125
-222,898	49,434	-0,052	-0,035
-221,884	-139,671	0,073	-0,005
-220,869	-22,875	-0,062	0,026
-219,855	624,438	0,040	0,073
-218,840	140,370	0,176	0,166
-217,825	262,664	-0,033	-0,042
-216,811	-200,000	-0,018	-0,165
-215,796	199,689	0,011	-0,012
-214,782	-109,804	-0,063	-0,009
-213,767	800,000	0,057	-0,151
-212,752	155,584	0,116	0,114
-211,738	800,000	0,016	-0,038
-210,723	263,135	0,026	-0,032
-209,709	31,344	0,059	0,036
-208,694	-46,832	-0,159	0,055
-207,679	215,845	-0,007	-0,008
-206,665	-200,000	0,013	0,053
-205,650	800,000	0,012	-0,038
-204,636	-200,000	-0,014	0,143
-203,621	233,348	-0,012	-0,014
-202,606	-8,714	-0,182	-0,087
-201,592	-138,231	-0,027	-0,002
-200,577	-200,000	-0,021	-0,107
-199,563	489,896	0,066	-0,107
-198,548	72,511	0,135	0,100
-197,533	-200,000	-0,029	0,223
-196,519	69,385	-0,137	0,101
-195,504	-200,000	-0,007	0,043
-194,490	191,375	-0,057	-0,062
-193,475	-200,000	0,044	-0,224
-192,460	368,175	-0,075	-0,108
-191,446	133,286	-0,068	0,063
-190,431	-200,000	-0,003	0,015
-189,417	-200,000	-0,010	-0,054
-188,402	-126,010	0,066	-0,007
-187,387	800,000	-0,057	-0,164
-186,373	-36,012	-0,083	0,032
-185,358	-200,000	-0,014	0,082
-184,344	363,603	-0,012	-0,017
-183,329	56,229	0,029	-0,020
-182,315	-6,045	-0,071	-0,035
-181,300	654,261	0,044	-0,081
-180,285	466,016	0,119	-0,191
-179,271	-32,422	-0,050	0,020
-178,256	207,037	-0,099	-0,110
-177,242	198,148	-0,094	-0,102
-176,227	-28,246	0,084	-0,034
-175,212	800,000	-0,020	0,063
-174,198	-137,392	0,175	-0,014
-173,183	167,872	-0,044	-0,044
-172,169	-200,000	-0,013	0,065
-171,154	-200,000	0,013	-0,096
-170,139	800,000	0,018	0,048
-169,125	798,583	0,032	0,064
-168,110	351,384	-0,049	-0,069
-167,096	-200,000	-0,013	-0,069
-166,081	-200,000	-0,007	-0,059
-165,066	-200,000	0,018	-0,125
-164,052	8,172	-0,057	-0,030
-163,037	748,685	-0,049	-0,095
-162,023	30,340	0,225	0,136
-161,008	697,083	0,029	-0,055
-159,993	1,947	0,073	-0,037
-158,979	65,695	-0,038	-0,027
-157,964	-42,014	-0,044	0,016
-156,950	325,947	0,013	0,017
-155,935	-200,000	-0,024	-0,089
-154,920	-88,565	-0,043	-0,009
-153,906	63,157	0,062	-0,044
-152,891	335,333	0,116	-0,160
-151,877	-200,000	0,006	-0,100
-150,862	22,466	0,119	-0,069
-149,847	-47,126	-0,130	-0,045
-148,833	-200,000	-0,015	0,148
-147,818	1,787	0,100	0,051
-146,804	10,435	-0,106	-0,057
-145,789	800,000	0,007	0,014
-144,775	-4,750	0,128	-0,063
-143,760	-200,000	0,004	-0,046
-142,745	372,643	0,082	-0,119
-141,731	18,284	-0,129	-0,073
-140,716	-162,577	-0,086	0,003
-139,702	-200,000	-0,009	-0,077
-138,687	-0,438	0,038	0,019
-137,672	310,247	-0,006	-0,009
-136,658	-25,152	0,175	-0,074
-135,643	58,018	-0,110	-0,077
-134,629	268,497	0,079	0,099
-133,614	-18,758	0,104	0,046
-132,599	59,051	0,052	-0,037
-131,585	51,984	0,105	0,071
-130,570	90,963	-0,063	-0,051
-129,556	3,001	0,144	-0,074
-128,541	800,000	-0,027	0,055
-127,526	-53,595	-0,090	0,029
-126,512	-41,053	0,131	0,048
-125,497	-102,242	-0,131	0,022
-124,483	-166,624	0,102	0,003
-123,468	-200,000	-0,003	-0,018
-122,453	-122,316	-0,077	0,009
-121,439	89,915	-0,044	-0,035
-120,424	259,580	0,078	-0,096
-119,410	-59,718	-0,139	0,042
-118,395	297,220	-0,036	0,046
