DTS Sentinel unit serial number:	SN410029Multiplexer serial number:	ORYXHardware model number:	OX2-SRSoftware version number:	ORYX F/W v4,00 Oryx Data Collector v3.7.2.0data status	okinstallation	BH3 CH2differential loss correction	single-endedforward channel	channel 2reverse channel	N/Adate	2023/12/06time	00:52:28forward acquisition time	300,00reverse acquisition time	0,00gamma	499,1914k internal	0,3196k external	0,3196temperature offset calibration	1,0000default loss term (dB/km)	0,3820temperature slope calibration	1,0000multiplexer offset coefficient	1,0000multiplexer slope coefficient	1,0000fibre end	0,00T internal ref (°C)	9,32T ext. ref 1 (°C)	-5,59T ext. ref 2 (°C)	-5,66length (m)	temperature (°C)	Stokes	anti-Stokes-744,400	800,000	-0,057	-0,168
-743,385	-76,319	-0,195	0,050
-742,371	-38,543	-0,097	0,037
-741,356	108,161	-0,171	0,149
-740,342	654,501	-0,056	-0,106
-739,327	29,199	-0,200	0,123
-738,312	-200,000	-0,039	-0,146
-737,298	193,800	-0,152	0,168
-736,283	90,948	-0,132	-0,108
-735,269	78,495	-0,281	0,219
-734,254	-200,000	-0,000	-0,016
-733,239	-65,284	-0,400	-0,116
-732,225	-62,031	0,103	0,031
-731,210	-200,000	0,003	0,124
-730,196	517,904	0,013	0,022
-729,181	-129,169	-0,070	0,007
-728,167	-10,748	0,072	0,035
-727,152	-200,000	0,004	0,074
-726,137	-200,000	0,003	0,054
-725,123	265,818	0,038	0,048
-724,108	-7,502	0,090	0,044
-723,094	-72,739	-0,100	0,027
-722,079	-68,571	-0,116	-0,033
-721,064	-200,000	-0,011	0,042
-720,050	355,103	-0,039	-0,057
-719,035	52,856	-0,045	-0,031
-718,021	442,312	-0,092	-0,147
-717,006	-200,000	0,017	-0,119
-715,991	211,648	-0,075	-0,086
-714,977	791,064	-0,079	-0,159
-713,962	48,787	0,054	-0,037
-712,948	-200,000	0,007	-0,042
-711,933	-161,646	-0,102	-0,004
-710,918	44,659	0,013	-0,009
-709,904	-200,000	-0,028	-0,104
-708,889	12,397	-0,197	-0,110
-707,875	312,191	0,038	-0,053
-706,860	212,933	-0,126	-0,145
-705,845	-171,438	-0,112	-0,003
-704,831	27,365	0,058	0,035
-703,816	-160,215	0,091	0,004
-702,802	211,686	-0,013	0,015
-701,787	800,000	-0,057	-0,176
-700,772	84,064	0,044	-0,035
-699,758	800,000	0,011	-0,035
-698,743	800,000	0,051	-0,113
-697,729	7,146	0,083	0,045
-696,714	800,000	-0,052	0,147
-695,699	282,051	-0,037	0,049
-694,685	800,000	0,018	0,040
-693,670	528,770	-0,035	-0,060
-692,656	-36,733	0,117	-0,045
-691,641	120,867	0,056	0,051
-690,627	-69,018	-0,110	-0,031
-689,612	-42,824	-0,066	0,024
-688,597	800,000	0,009	-0,026
-687,583	-200,000	0,038	-0,217
-686,568	800,000	-0,014	0,027
-685,554	-79,948	-0,025	0,006
-684,539	-200,000	0,016	-0,156
-683,524	746,049	-0,048	-0,094
-682,510	800,000	-0,036	-0,086
-681,495	-200,000	0,020	-0,106
-680,481	-136,598	-0,161	-0,013
-679,466	135,651	-0,065	-0,061
-678,451	471,641	-0,039	-0,064
-677,437	-57,981	0,127	0,040
-676,422	-200,000	-0,007	0,023
-675,408	-80,438	0,025	-0,006
-674,393	-45,218	0,021	-0,008
-673,378	80,179	-0,057	-0,044
-672,364	391,670	-0,031	0,047
-671,349	162,588	-0,091	-0,093
-670,335	-50,600	0,041	0,014
-669,320	800,000	0,054	0,157
-668,305	405,803	-0,074	0,113
-667,291	-31,558	0,163	-0,066
-666,276	-10,720	0,077	0,037
-665,262	-108,675	-0,084	0,013
-664,247	34,729	-0,038	-0,024
-663,232	-45,300	-0,034	-0,012
-662,218	-200,000	-0,002	-0,081
-661,203	-69,553	-0,115	-0,032
-660,189	142,097	0,072	0,069
-659,174	-139,859	-0,116	-0,009
-658,159	65,270	-0,105	-0,077
-657,145	-200,000	-0,019	-0,093
-656,130	800,000	-0,075	0,157
-655,116	-40,827	0,048	0,018
-654,101	800,000	0,051	0,113
-653,086	-200,000	0,005	0,053
-652,072	131,769	-0,068	-0,064
-651,057	-133,897	-0,120	-0,011
-650,043	277,744	-0,077	-0,100
-649,028	39,767	-0,033	0,022
-648,014	-56,674	0,100	0,032
-646,999	32,903	0,112	0,070
-645,984	-200,000	0,013	0,050
-644,970	-63,652	0,137	-0,041
-643,955	-15,925	-0,106	-0,049
-642,941	-200,000	-0,006	-0,028
-641,926	-200,000	0,006	-0,077
-640,911	-200,000	0,016	-0,126
-639,897	9,911	0,075	-0,041
-638,882	-200,000	-0,015	0,194
-637,868	73,903	-0,102	-0,078
-636,853	800,000	0,023	-0,052
-635,838	-200,000	0,003	0,065
-634,824	-200,000	-0,036	0,128
-633,809	117,976	-0,054	-0,048
-632,795	800,000	-0,028	0,082
-631,780	440,592	0,051	-0,081
-630,765	-200,000	-0,036	-0,125
-629,751	800,000	-0,057	-0,174
-628,736	-91,595	0,166	-0,034
-627,722	518,449	0,021	-0,036
-626,707	800,000	-0,016	0,042
-625,692	-62,999	0,045	-0,013
-624,678	-97,285	0,029	0,005
-623,663	-130,265	0,134	0,013
-622,649	170,762	-0,111	-0,115
-621,634	-77,902	-0,134	0,033
-620,619	67,702	0,073	-0,054
-619,605	246,668	0,095	-0,117
-618,590	-107,732	0,040	-0,006
-617,576	41,395	0,086	0,056
-616,561	-4,154	-0,060	-0,030
-615,546	-200,000	-0,025	-0,094
-614,532	433,543	0,069	-0,110
-613,517	241,698	-0,077	-0,093
-612,503	-200,000	0,000	0,104
-611,488	1,725	0,104	0,054
-610,474	-6,162	0,072	-0,036
-609,459	55,234	-0,110	0,077
-608,444	-117,175	-0,171	-0,022
-607,430	-5,388	0,028	-0,014
-606,415	176,310	-0,127	-0,133
-605,401	-86,106	-0,101	0,022
-604,386	42,703	0,036	0,024
-603,371	143,850	0,074	0,072
-602,357	148,615	-0,059	-0,057
-601,342	97,920	-0,062	0,051
-600,328	215,423	-0,086	-0,098
-599,313	-45,173	-0,127	-0,045
-598,298	-200,000	-0,010	-0,063
-597,284	-60,850	0,155	0,047
-596,269	-200,000	-0,021	0,077
-595,255	-73,105	-0,044	0,012
-594,240	468,052	0,015	0,024
-593,225	-26,030	-0,145	-0,061
-592,211	38,993	0,106	0,069
-591,196	120,765	0,107	-0,096
-590,182	706,931	0,086	-0,165
-589,167	800,000	-0,032	-0,068
-588,152	-42,814	-0,147	0,054
-587,138	187,898	0,035	0,038
-586,123	800,000	0,027	-0,081
-585,109	-59,371	-0,012	-0,004
-584,094	-200,000	0,005	-0,088
-583,079	-45,236	-0,199	-0,071
-582,065	800,000	0,017	-0,042
-581,050	372,709	0,019	-0,029
-580,036	-60,769	-0,119	0,036
-579,021	580,419	-0,019	-0,034
-578,006	-60,773	-0,069	-0,021
-576,992	184,499	0,020	-0,021
-575,977	141,434	-0,144	0,138
-574,963	800,000	0,042	0,085
-573,948	20,364	-0,061	-0,036
-572,934	28,795	0,139	0,085
-571,919	-140,411	0,079	0,006
-570,904	401,589	-0,051	0,077
-569,890	108,021	-0,079	-0,068
-568,875	548,969	0,095	0,166
-567,861	-197,329	0,182	0,001
-566,846	-165,083	0,067	0,002
-565,831	-45,715	0,108	0,038
-564,817	32,670	-0,031	-0,019
-563,802	-108,515	-0,057	0,009
-562,788	-200,000	-0,027	-0,102
-561,773	168,702	0,038	0,039
-560,758	-72,710	0,117	0,031
-559,744	30,539	-0,025	-0,015
-558,729	-200,000	-0,005	0,075
-557,715	800,000	-0,065	-0,134
-556,700	223,107	-0,053	0,062
-555,685	-200,000	-0,002	-0,069
-554,671	-170,712	-0,134	-0,003
-553,656	-200,000	0,017	-0,099
-552,642	-52,060	0,072	0,024
-551,627	-96,648	-0,032	-0,006
-550,612	800,000	0,007	-0,022
-549,598	96,833	-0,119	-0,098
-548,583	-200,000	-0,023	-0,103
-547,569	800,000	0,041	0,087
-546,554	-45,257	0,060	-0,021
-545,539	800,000	0,023	0,070
-544,525	60,000	0,043	0,031
-543,510	-9,221	0,065	0,031
-542,496	-200,000	0,018	-0,119
-541,481	672,129	-0,073	-0,138
-540,466	-200,000	-0,011	0,102
-539,452	228,689	-0,026	0,030
-538,437	399,534	0,053	0,080
-537,423	800,000	-0,019	0,047
-536,408	119,305	0,054	-0,048
-535,393	-5,466	-0,046	0,023
-534,379	-39,604	0,047	-0,018
-533,364	-58,352	0,053	0,016
-532,350	-93,949	0,107	-0,021
-531,335	-200,000	-0,004	0,159
-530,321	493,280	0,077	-0,129
-529,306	800,000	-0,025	-0,060
-528,291	-10,494	-0,064	-0,030
-527,277	-200,000	0,022	-0,103
-526,262	245,291	-0,010	-0,012
-525,248	-200,000	-0,019	0,211
-524,233	30,091	-0,101	0,062
-523,218	542,060	0,092	0,159
-522,204	325,295	-0,040	0,056
-521,189	-21,568	-0,178	-0,078
-520,175	-200,000	0,020	-0,093
-519,160	-196,063	-0,035	-0,000
-518,145	315,115	0,035	-0,048
-517,131	402,436	0,048	0,074
-516,116	800,000	-0,035	0,100
-515,102	610,230	0,066	0,120
-514,087	66,433	-0,146	-0,107
-513,072	-200,000	-0,013	-0,088
-512,058	-200,000	-0,016	-0,081
-511,043	800,000	0,076	0,187
-510,029	-200,000	0,021	0,132
-509,014	176,157	0,119	0,125
-507,999	-89,041	0,015	0,003
-506,985	1,633	0,114	-0,059
-505,970	15,636	0,027	0,016
-504,956	800,000	-0,050	-0,107
-503,941	-64,440	0,221	-0,065
-502,926	23,241	-0,081	-0,048
-501,912	61,511	0,086	-0,062
-500,897	327,005	-0,084	0,116
-499,883	800,000	0,037	0,081
-498,868	-120,858	0,177	0,021
-497,853	-150,457	-0,034	-0,002
-496,839	179,174	-0,053	-0,056
-495,824	-84,552	0,125	-0,028
-494,810	-200,000	-0,011	0,047
-493,795	-200,000	-0,024	0,188
-492,781	30,568	0,047	0,029
-491,766	165,992	0,033	0,034
-490,751	-34,792	-0,121	-0,047
-489,737	-200,000	0,016	-0,062
-488,722	-200,000	0,019	-0,147
-487,708	-200,000	0,009	-0,050
-486,693	49,224	-0,098	0,066
-485,678	800,000	0,069	0,152
-484,664	242,147	-0,088	0,106
-483,649	-12,052	-0,067	-0,031
-482,635	239,989	0,106	-0,127
-481,620	44,216	-0,065	0,043
-480,605	524,354	0,045	-0,077
-479,591	-200,000	0,017	-0,061
-478,576	158,314	0,049	-0,049
-477,562	-200,000	-0,003	-0,017
-476,547	297,446	-0,087	-0,116
-475,532	-36,442	0,113	0,044
-474,518	-181,987	0,005	0,000
-473,503	-200,000	-0,002	0,028
-472,489	-29,094	-0,057	-0,023
-471,474	55,438	-0,096	-0,067
-470,459	-200,000	-0,027	0,089
-469,445	-1,719	0,041	0,021
-468,430	-200,000	-0,023	0,122
-467,416	772,325	-0,024	-0,048
-466,401	50,493	0,175	0,119
-465,386	33,338	-0,086	0,054
-464,372	-101,143	0,075	0,013
-463,357	-200,000	0,005	0,025
-462,343	-189,020	-0,108	0,001
-461,328	363,154	0,063	0,091
-460,313	800,000	-0,034	-0,079
-459,299	40,194	0,124	0,080
-458,284	-200,000	0,003	-0,023
-457,270	-200,000	0,004	-0,049
-456,255	364,367	0,050	-0,073
-455,241	28,716	-0,126	0,077
-454,226	-46,876	-0,218	-0,076
-453,211	-51,689	0,157	0,053
-452,197	158,015	-0,026	-0,026
-451,182	800,000	-0,019	0,058
-450,168	-17,978	0,159	0,071
-449,153	-113,805	-0,123	0,017
-448,138	428,124	-0,072	-0,113
-447,124	144,502	0,038	-0,037
-446,109	77,236	-0,084	-0,064
-445,095	190,905	0,100	0,108
-444,080	59,578	0,056	0,040
-443,065	-200,000	0,004	-0,098
-442,051	582,594	-0,037	-0,066
-441,036	-61,416	-0,073	-0,022
-440,022	800,000	0,023	-0,046
-439,007	456,728	-0,058	0,093
-437,992	-102,006	-0,067	-0,012
-436,978	800,000	0,010	-0,026
-435,963	75,545	0,079	0,060
-434,949	44,599	0,183	0,121
-433,934	162,488	-0,071	-0,072
-432,919	449,608	-0,047	-0,075
-431,905	800,000	-0,060	-0,172
-430,890	-144,358	0,142	0,009
-429,876	-22,082	0,085	-0,037
-428,861	800,000	0,044	0,115
-427,846	96,119	0,102	0,084
-426,832	-200,000	-0,048	-0,169
-425,817	313,239	-0,027	0,037
-424,803	420,831	-0,053	-0,082
-423,788	-200,000	-0,028	0,166
-422,773	160,863	0,094	0,094
-421,759	-200,000	-0,007	0,081
-420,744	49,727	-0,122	-0,082
-419,730	22,218	-0,060	0,035
-418,715	-73,679	-0,128	-0,033
-417,701	-99,423	-0,149	-0,027
-416,686	82,600	0,094	-0,073
-415,671	800,000	-0,023	0,058
-414,657	0,127	-0,111	-0,057
-413,642	-200,000	0,003	-0,013
-412,628	-200,000	0,019	0,078
-411,613	-200,000	0,008	0,082
-410,598	-157,643	-0,109	0,005
-409,584	-200,000	-0,005	0,116
-408,569	84,406	-0,019	0,015
-407,555	-11,252	-0,109	-0,051
-406,540	-133,338	0,007	0,001
-405,525	-155,756	-0,123	-0,006
-404,511	-200,000	-0,003	0,059
-403,496	-17,571	0,101	-0,045
-402,482	-33,619	-0,077	-0,030
-401,467	-79,092	-0,065	-0,016
-400,452	-200,000	0,015	0,088
-399,438	800,000	-0,023	0,063
-398,423	-118,047	-0,033	0,004
-397,409	68,900	0,042	0,031
-396,394	-135,485	-0,147	0,012
-395,379	119,876	-0,063	0,056
-394,365	-4,454	-0,063	0,031
-393,350	-200,000	-0,013	-0,044
-392,336	-200,000	0,012	0,181
-391,321	747,356	-0,092	-0,180
-390,306	-200,000	0,037	-0,151
-389,292	-200,000	0,008	-0,130
-388,277	485,017	-0,046	-0,075
-387,263	15,113	-0,014	0,008
-386,248	-72,566	0,081	-0,021
-385,233	-200,000	0,040	0,143
-384,219	151,569	-0,090	0,088
-383,204	-29,131	0,047	0,019
-382,190	171,258	-0,060	-0,061
-381,175	36,980	-0,074	-0,047
-380,160	-60,530	0,214	0,065
-379,146	800,000	-0,026	-0,069
-378,131	800,000	0,008	0,020
-377,117	537,230	-0,053	-0,090
-376,102	-81,208	0,091	0,021
-375,088	-153,723	0,150	-0,007
-374,073	-200,000	0,002	-0,048
-373,058	-91,094	0,195	-0,040
-372,044	71,021	0,084	0,063
-371,029	-163,775	0,099	0,003
-370,015	-200,000	0,003	0,153
-369,000	581,218	0,014	-0,025
-367,985	-30,297	-0,060	0,024
-366,971	-200,000	0,014	-0,053
-365,956	-200,000	-0,012	-0,052
-364,942	800,000	0,067	0,169
-363,927	-200,000	-0,004	0,182
-362,912	-200,000	-0,006	0,056
-361,898	-200,000	-0,004	-0,098
-360,883	-21,397	-0,106	-0,046
-359,869	779,814	-0,018	0,035
-358,854	694,512	0,054	-0,103
-357,839	-200,000	-0,011	-0,105
-356,825	-200,000	0,005	0,048
-355,810	-28,220	0,093	0,038
-354,796	-84,849	-0,130	-0,029
-353,781	-7,716	-0,020	-0,010
-352,766	-115,281	0,037	0,005
-351,752	-59,887	-0,102	0,031
-350,737	-32,613	0,126	-0,050
-349,723	-21,730	0,024	0,010
-348,708	351,674	-0,110	-0,156
-347,693	-200,000	-0,005	-0,059
-346,679	92,531	-0,032	-0,026
-345,664	69,755	-0,126	-0,093
-344,650	482,545	-0,050	0,081
-343,635	-200,000	-0,028	0,104
-342,620	-159,001	-0,012	0,000
-341,606	27,629	0,033	-0,020
-340,591	-200,000	0,006	-0,055
-339,577	594,918	-0,022	-0,039
-338,562	146,322	-0,065	-0,062
-337,548	800,000	0,010	0,022
-336,533	43,238	0,112	0,073
-335,518	-32,933	-0,171	0,068
-334,504	195,733	0,057	0,062
-333,489	-200,000	0,002	-0,077
-332,475	-103,478	0,022	0,004
-331,460	509,787	0,032	0,054
-330,445	-30,881	0,115	0,046
-329,431	-40,526	0,049	0,018
-328,416	-11,505	0,098	-0,046
-327,402	800,000	0,056	-0,133
-326,387	127,453	-0,063	-0,057
-325,372	43,235	-0,083	-0,054
-324,358	0,486	0,029	0,015
-323,343	563,787	-0,041	-0,071
-322,329	531,317	-0,052	0,088
-321,314	-200,000	0,003	0,038
-320,299	193,682	-0,086	0,094
-319,285	-20,400	-0,072	0,031
-318,270	-29,023	0,105	-0,043
-317,256	-21,326	-0,086	0,038
-316,241	246,588	0,041	-0,049
-315,226	694,652	0,078	-0,147
-314,212	-141,220	-0,117	-0,008
-313,197	-25,382	-0,087	-0,037
-312,183	-200,000	-0,027	-0,160
-311,168	244,494	-0,028	-0,034
-310,153	495,559	-0,033	0,055
-309,139	192,196	-0,126	-0,136
-308,124	300,975	0,095	-0,126
-307,110	-123,159	0,109	-0,012
-306,095	-101,716	0,128	-0,022
-305,080	800,000	0,033	-0,095
-304,066	-106,241	0,188	0,030
-303,051	46,150	-0,096	0,064
-302,037	394,882	0,094	0,141
-301,022	83,312	0,046	-0,036
-300,008	-21,326	0,242	-0,106
-298,993	-200,000	0,013	0,118
-297,978	-61,653	0,158	0,047
-296,964	800,000	0,021	-0,048
-295,949	65,601	-0,067	-0,048
-294,935	162,997	-0,005	-0,005
-293,920	-125,930	0,046	-0,005
-292,905	-200,000	0,001	0,084
-291,891	108,479	0,134	0,114
-290,876	490,145	-0,079	0,129
-289,862	-200,000	0,013	0,094
-288,847	-2,240	-0,133	0,067
-287,832	-61,995	0,066	-0,020
-286,818	-200,000	0,036	-0,113
-285,803	-200,000	-0,016	0,072
-284,789	50,825	-0,072	-0,049
-283,774	-200,000	-0,012	0,055
-282,759	-129,814	0,066	-0,006
-281,745	-71,303	-0,106	0,028
-280,730	-75,800	-0,069	-0,017
-279,716	16,774	-0,173	-0,097
-278,701	-93,783	0,055	0,011
-277,686	109,826	0,050	0,043
-276,672	800,000	0,026	0,059
-275,657	-163,187	-0,108	-0,004
-274,643	800,000	-0,023	0,051
-273,628	-200,000	-0,016	-0,080
-272,613	-22,896	0,048	-0,020
-271,599	83,032	0,103	-0,080
-270,584	66,639	-0,085	0,062
-269,570	-27,460	-0,075	-0,031
-268,555	378,635	0,041	0,060
-267,540	-98,556	-0,067	0,012
-266,526	800,000	0,045	-0,137
-265,511	14,565	-0,088	-0,049
-264,497	481,441	0,044	-0,072
-263,482	-200,000	-0,025	0,237
-262,467	498,777	0,027	-0,045
-261,453	-200,000	0,038	-0,136
-260,438	-200,000	-0,020	0,090
-259,424	-142,760	-0,035	0,002
-258,409	-200,000	-0,007	-0,131
-257,395	59,797	0,086	-0,060
-256,380	320,937	-0,040	0,054
-255,365	-200,000	0,009	0,059
-254,351	33,765	-0,087	0,054
-253,336	800,000	-0,016	-0,033
-252,322	-74,756	-0,058	0,015
-251,307	183,051	0,064	0,067
-250,292	-90,242	-0,018	-0,004
-249,278	-200,000	-0,009	-0,033
-248,263	61,648	0,113	0,081
-247,249	166,729	-0,082	0,083
-246,234	-115,801	-0,089	-0,012
-245,219	665,430	0,077	-0,143
-244,205	211,548	-0,099	-0,111
-243,190	-7,197	-0,053	0,026
-242,176	321,945	0,106	0,144
-241,161	-200,000	0,089	0,000
-240,146	-86,296	0,075	-0,016
-239,132	32,202	-0,079	-0,049
-238,117	800,000	0,073	-0,228
-237,103	-200,000	-0,048	-0,174
-236,088	62,085	0,044	-0,031
-235,073	-200,000	0,016	0,162
-234,059	222,691	0,099	-0,114
-233,044	11,881	0,196	0,107
-232,030	69,410	-0,093	-0,069
-231,015	-164,039	0,025	-0,001
-230,000	-36,663	-0,059	-0,022
-228,986	78,396	-0,051	0,038
-227,971	157,181	-0,032	0,031
-226,957	-119,811	0,042	0,005
-225,942	-127,733	0,048	-0,005
-224,927	257,118	-0,056	-0,069
-223,913	-102,880	-0,126	-0,021
-222,898	39,118	-0,124	-0,079
-221,884	-200,000	-0,013	-0,170
-220,869	800,000	-0,028	0,087
-219,855	-190,816	0,109	-0,001
-218,840	-200,000	0,023	-0,083
-217,825	-200,000	-0,012	-0,073
-216,811	-97,012	-0,090	-0,017
-215,796	-60,119	-0,130	0,039
-214,782	800,000	-0,034	0,074
-213,767	-63,842	0,093	0,027
-212,752	-101,725	0,107	-0,018
-211,738	-200,000	-0,001	0,275
-210,723	-139,249	-0,085	-0,006
-209,709	190,338	0,047	-0,050
-208,694	-29,519	-0,100	-0,041
-207,679	14,201	-0,040	0,022
-206,665	-42,007	0,064	0,023
-205,650	93,997	0,158	-0,127
-204,636	-83,530	0,070	0,016
-203,621	4,689	-0,119	0,062
-202,606	395,607	-0,054	-0,080
-201,592	2,405	0,046	0,024
-200,577	-200,000	0,017	0,084
-199,563	-6,681	0,086	-0,042
-198,548	-200,000	0,013	0,070
-197,533	-200,000	0,002	0,101
-196,519	613,536	0,050	0,090
-195,504	330,416	0,051	0,070
-194,490	267,977	-0,095	0,119
-193,475	629,251	-0,029	-0,052
-192,460	800,000	0,044	0,104
-191,446	800,000	-0,047	0,129
-190,431	154,200	-0,088	0,086
-189,417	160,582	0,036	-0,036
-188,402	-6,562	-0,076	-0,037
-187,387	193,550	0,076	-0,083
-186,373	-200,000	0,002	-0,159
-185,358	800,000	-0,056	-0,124
-184,344	465,127	0,032	-0,051
-183,329	774,075	0,035	0,069
-182,315	24,196	0,103	0,060
-181,300	-200,000	0,029	0,108
-180,285	42,798	-0,147	0,096
-179,271	800,000	-0,026	0,081
-178,256	461,934	0,064	0,103
-177,242	-200,000	0,009	0,047
-176,227	-200,000	0,000	0,076
-175,212	421,547	0,056	0,086
-174,198	-200,000	0,025	-0,100
-173,183	38,057	-0,112	-0,071
-172,169	-2,658	-0,127	-0,063
-171,154	800,000	0,025	-0,068
-170,139	-172,112	0,036	0,001
-169,125	-9,171	-0,026	-0,012
-168,110	28,494	0,058	0,035
-167,096	319,636	-0,082	0,111
-166,081	637,207	-0,035	-0,063
-165,066	426,832	0,102	-0,157
-164,052	251,906	0,008	-0,010
-163,037	92,212	-0,088	0,071
-162,023	105,757	0,084	-0,071
-161,008	-10,407	0,062	-0,029
-159,993	-200,000	-0,004	0,110
-158,979	-38,200	0,130	0,049
-157,964	-200,000	-0,017	0,150
-156,950	-99,954	-0,058	-0,010
-155,935	800,000	0,030	0,087
-154,920	238,622	-0,112	0,132
-153,906	-200,000	0,040	0,136
-152,891	68,915	0,061	0,044
-151,877	8,634	0,039	-0,021
-150,862	800,000	-0,035	-0,081
-149,847	-90,204	0,028	-0,006
-148,833	-20,556	0,031	0,013
-147,818	-200,000	-0,018	-0,104
-146,804	77,313	-0,067	-0,050
-145,789	138,438	0,032	-0,030
-144,775	-200,000	-0,033	-0,124
-143,760	228,895	-0,075	-0,087
-142,745	-200,000	-0,002	-0,167
-141,731	-5,103	0,169	-0,083
-140,716	42,393	-0,042	0,027
-139,702	75,600	0,088	0,066
-138,687	47,256	0,031	-0,021
-137,672	800,000	-0,027	-0,057
-136,658	102,174	-0,042	-0,035
-135,643	699,795	-0,017	-0,032
-134,629	800,000	-0,028	-0,067
-133,614	283,770	-0,062	-0,080
-132,599	-200,000	-0,022	0,145
-131,585	170,617	0,046	-0,047
-130,570	228,192	0,059	0,068
-129,556	-150,342	0,125	0,007
-128,541	800,000	-0,061	0,125
-127,526	411,640	0,008	0,013
-126,512	200,880	0,064	0,070
-125,497	678,211	0,049	0,092
-124,483	-200,000	-0,024	0,127
-123,468	80,147	-0,051	-0,039
-122,453	-52,330	-0,074	0,024
-121,439	-200,000	0,019	0,150
-120,424	131,176	0,099	0,090
-119,410	-170,220	-0,068	-0,002
-118,395	767,056	-0,039	-0,076
