DTS Sentinel unit serial number:	SN410029Multiplexer serial number:	ORYXHardware model number:	OX2-SRSoftware version number:	ORYX F/W v4,00 Oryx Data Collector v3.7.2.0data status	okinstallation	BH3 CH2differential loss correction	single-endedforward channel	channel 2reverse channel	N/Adate	2023/12/05time	19:52:28forward acquisition time	300,00reverse acquisition time	0,00gamma	499,1914k internal	0,3193k external	0,3193temperature offset calibration	1,0000default loss term (dB/km)	0,3820temperature slope calibration	1,0000multiplexer offset coefficient	1,0000multiplexer slope coefficient	1,0000fibre end	0,00T internal ref (°C)	10,61T ext. ref 1 (°C)	-4,01T ext. ref 2 (°C)	-4,12length (m)	temperature (°C)	Stokes	anti-Stokes-744,400	152,813	-0,064	-0,064
-743,385	-98,259	-0,242	0,045
-742,371	800,000	-0,023	-0,064
-741,356	540,482	-0,108	0,189
-740,342	-200,000	0,024	-0,106
-739,327	18,370	-0,234	0,136
-738,312	800,000	-0,076	-0,157
-737,298	99,846	-0,175	0,148
-736,283	66,138	-0,131	-0,097
-735,269	399,064	-0,082	0,125
-734,254	-200,000	-0,015	-0,076
-733,239	-155,950	-0,426	0,019
-732,225	-73,738	0,163	-0,043
-731,210	-113,015	0,117	-0,017
-730,196	-101,635	-0,132	0,023
-729,181	-200,000	0,006	-0,051
-728,167	-200,000	-0,004	-0,024
-727,152	-200,000	0,008	-0,035
-726,137	800,000	-0,050	-0,123
-725,123	684,911	-0,054	0,103
-724,108	-24,860	-0,050	-0,022
-723,094	248,687	-0,057	0,070
-722,079	86,725	0,053	-0,042
-721,064	-46,686	-0,032	-0,011
-720,050	-62,644	0,100	0,030
-719,035	-67,612	-0,105	-0,030
-718,021	-178,423	-0,100	-0,002
-717,006	177,004	-0,111	-0,118
-715,991	-42,536	-0,112	-0,041
-714,977	-55,329	-0,143	-0,047
-713,962	46,686	0,101	-0,068
-712,948	-53,567	-0,126	-0,042
-711,933	-200,000	0,007	-0,071
-710,918	-134,455	0,064	0,006
-709,904	-200,000	-0,008	0,028
-708,889	386,361	0,017	-0,026
-707,875	-43,458	0,050	-0,018
-706,860	441,951	-0,030	-0,048
-705,845	-54,462	-0,105	0,034
-704,831	294,340	-0,083	0,110
-703,816	671,544	0,031	-0,058
-702,802	158,044	-0,062	-0,063
-701,787	282,801	-0,083	-0,108
-700,772	230,130	-0,053	-0,063
-699,758	800,000	-0,057	0,157
-698,743	144,988	0,060	0,059
-697,729	133,843	0,071	-0,067
-696,714	-169,755	-0,045	-0,001
-695,699	132,008	0,118	-0,111
-694,685	70,365	-0,197	0,148
-693,670	353,520	-0,030	-0,043
-692,656	108,876	0,046	0,040
-691,641	-200,000	0,007	0,139
-690,627	-182,143	-0,103	-0,001
-689,612	800,000	0,032	0,093
-688,597	13,864	0,130	-0,073
-687,583	-200,000	0,013	-0,057
-686,568	-17,392	-0,056	0,026
-685,554	115,958	-0,087	0,077
-684,539	232,089	0,031	-0,037
-683,524	-14,200	0,077	0,036
-682,510	77,667	-0,055	0,043
-681,495	-106,979	-0,161	0,026
-680,481	111,519	0,026	-0,023
-679,466	-131,011	0,054	0,005
-678,451	-110,318	-0,090	0,014
-677,437	-143,300	-0,133	0,009
-676,422	-200,000	0,022	0,163
-675,408	800,000	-0,037	-0,115
-674,393	135,629	-0,110	-0,104
-673,378	-26,716	-0,090	-0,038
-672,364	316,894	0,061	-0,085
-671,349	-200,000	0,035	-0,183
-670,335	800,000	0,034	0,069
-669,320	114,861	-0,068	-0,061
-668,305	800,000	-0,054	0,125
-667,291	72,271	-0,055	-0,042
-666,276	800,000	-0,035	-0,076
-665,262	167,544	-0,177	-0,183
-664,247	-200,000	-0,038	-0,192
-663,232	-61,325	0,037	-0,011
-662,218	59,144	0,100	0,071
-661,203	-74,245	-0,170	-0,044
-660,189	-42,903	-0,185	0,068
-659,174	100,914	-0,031	0,026
-658,159	-83,287	-0,086	0,020
-657,145	800,000	0,027	-0,061
-656,130	-200,000	-0,001	-0,053
-655,116	135,726	0,089	0,084
-654,101	-200,000	0,030	0,155
-653,086	-77,128	-0,143	0,036
-652,072	195,489	-0,087	0,096
-651,057	-137,165	-0,088	-0,007
-650,043	800,000	-0,066	-0,197
-649,028	-33,699	-0,041	0,016
-648,014	152,340	-0,052	0,051
-646,999	-98,332	-0,137	-0,025
-645,984	-148,945	-0,086	-0,005
-644,970	-200,000	-0,026	-0,129
-643,955	271,060	0,097	-0,124
-642,941	-72,398	-0,044	-0,012
-641,926	-95,332	0,082	-0,016
-640,911	320,711	-0,038	0,052
-639,897	800,000	0,044	0,089
-638,882	-200,000	-0,003	-0,029
-637,868	-200,000	0,057	-0,193
-636,853	800,000	-0,032	-0,082
-635,838	151,417	-0,103	-0,102
-634,824	-79,176	-0,175	-0,043
-633,809	-135,453	0,137	-0,012
-632,795	800,000	0,025	0,078
-631,780	76,370	0,105	-0,080
-630,765	-11,737	-0,078	-0,037
-629,751	800,000	0,039	-0,082
-628,736	324,513	0,010	0,014
-627,722	-90,232	-0,057	0,012
-626,707	-200,000	-0,006	0,064
-625,692	-120,579	0,108	0,013
-624,678	422,572	0,061	0,095
-623,663	650,673	0,076	0,143
-622,649	581,226	-0,072	-0,129
-621,634	387,694	0,019	0,028
-620,619	-74,225	-0,116	0,030
-619,605	800,000	-0,013	-0,026
-618,590	729,917	0,023	0,045
-617,576	-119,973	-0,097	0,012
-616,561	229,005	0,092	-0,109
-615,546	-44,666	-0,172	0,062
-614,532	186,454	-0,031	-0,034
-613,517	800,000	-0,021	-0,068
-612,503	668,677	0,067	-0,127
-611,488	-200,000	0,004	0,026
-610,474	800,000	0,058	-0,119
-609,459	-11,448	0,075	0,036
-608,444	-200,000	-0,014	0,048
-607,430	800,000	0,033	0,066
-606,415	-200,000	-0,037	-0,133
-605,401	605,712	0,026	0,047
-604,386	43,847	0,028	0,019
-603,371	18,558	0,116	0,067
-602,357	-51,658	-0,114	-0,038
-601,342	59,631	-0,097	-0,069
-600,328	-200,000	-0,013	-0,041
-599,313	-130,428	-0,014	-0,001
-598,298	84,940	-0,106	0,084
-597,284	-63,904	0,126	0,037
-596,269	123,095	0,029	-0,026
-595,255	148,205	-0,095	0,093
-594,240	491,713	0,003	0,006
-593,225	57,500	-0,098	-0,069
-592,211	20,232	0,029	-0,017
-591,196	-200,000	-0,018	-0,063
-590,182	373,136	-0,097	0,143
-589,167	-20,490	0,097	-0,043
-588,152	740,091	0,068	0,133
-587,138	694,766	0,009	-0,016
-586,123	164,964	-0,088	-0,090
-585,109	63,795	-0,052	-0,038
-584,094	40,956	-0,078	0,051
-583,079	427,032	0,020	-0,032
-582,065	136,580	-0,026	0,025
-581,050	-200,000	-0,029	0,209
-580,036	-61,306	0,137	0,041
-579,021	-200,000	-0,004	-0,058
-578,006	-200,000	0,015	-0,121
-576,992	680,858	-0,045	-0,085
-575,977	-200,000	0,041	0,132
-574,963	-200,000	-0,067	-0,000
-573,948	-200,000	-0,016	0,084
-572,934	364,194	-0,070	0,102
-571,919	497,836	-0,048	-0,081
-570,904	351,406	-0,067	-0,096
-569,890	-166,631	0,082	-0,002
-568,875	103,575	0,130	0,110
-567,861	-200,000	-0,015	0,118
-566,846	800,000	-0,031	0,079
-565,831	46,609	0,118	0,079
-564,817	-31,056	-0,259	-0,105
-563,802	-136,208	0,091	-0,008
-562,788	167,242	-0,092	-0,095
-561,773	299,428	0,063	-0,085
-560,758	-39,587	0,235	0,088
-559,744	-47,370	-0,160	0,056
-558,729	505,407	0,075	0,126
-557,715	-94,229	-0,124	0,024
-556,700	-200,000	0,005	0,085
-555,685	232,191	-0,073	0,087
-554,671	95,910	0,053	0,043
-553,656	-136,382	-0,076	0,006
-552,642	800,000	0,050	0,103
-551,627	-98,930	-0,050	0,009
-550,612	267,929	-0,045	-0,058
-549,598	320,063	0,077	-0,106
-548,583	156,466	-0,076	-0,076
-547,569	71,853	-0,088	-0,066
-546,554	-167,358	0,029	-0,001
-545,539	-57,748	-0,157	-0,049
-544,525	517,470	0,008	-0,014
-543,510	-74,599	-0,077	-0,020
-542,496	147,566	0,076	0,074
-541,481	679,648	-0,057	-0,108
-540,466	127,065	0,049	-0,045
-539,452	800,000	0,046	0,111
-538,437	800,000	-0,020	-0,043
-537,423	-200,000	-0,049	0,170
-536,408	800,000	-0,027	0,057
-535,393	202,001	0,074	-0,083
-534,379	-200,000	0,011	-0,063
-533,364	-131,527	0,091	-0,009
-532,350	-114,916	0,027	0,004
-531,335	124,150	0,088	-0,080
-530,321	-200,000	-0,014	0,119
-529,306	-104,494	-0,025	0,004
-528,291	-63,796	-0,136	0,040
-527,277	800,000	-0,023	-0,068
-526,262	471,637	0,049	0,080
-525,248	74,033	0,021	-0,016
-524,233	-37,872	0,071	-0,027
-523,218	-150,438	0,160	0,009
-522,204	62,969	0,028	0,020
-521,189	-200,000	-0,006	-0,092
-520,175	-42,609	-0,103	-0,038
-519,160	234,427	-0,017	-0,021
-518,145	62,654	0,081	0,059
-517,131	345,560	0,070	0,100
-516,116	800,000	0,018	0,042
-515,102	15,822	0,060	-0,034
-514,087	-200,000	-0,012	-0,106
-513,072	-200,000	-0,017	-0,099
-512,058	476,152	-0,079	0,129
-511,043	228,417	0,065	-0,076
-510,029	0,442	0,106	-0,055
-509,014	-200,000	0,002	0,029
-507,999	-125,698	-0,140	0,015
-506,985	-53,972	0,052	-0,017
-505,970	-32,616	-0,105	-0,042
-504,956	-100,309	0,035	0,006
-503,941	161,331	-0,096	-0,097
-502,926	194,330	0,079	0,087
-501,912	614,820	-0,061	-0,110
-500,897	-110,478	0,037	-0,006
-499,883	5,242	0,128	-0,068
-498,868	226,920	-0,069	-0,081
-497,853	-108,297	0,038	-0,006
-496,839	800,000	-0,047	0,120
-495,824	178,331	-0,054	-0,057
-494,810	800,000	0,100	0,207
-493,795	800,000	-0,019	-0,050
-492,781	-68,962	0,101	0,028
-491,766	800,000	0,033	-0,076
-490,751	-200,000	0,034	-0,115
-489,737	-30,269	0,041	-0,017
-488,722	-96,332	0,106	0,020
-487,708	-131,468	0,074	0,007
-486,693	216,915	-0,095	-0,109
-485,678	149,912	-0,051	0,050
-484,664	800,000	-0,024	0,053
-483,649	-200,000	0,027	-0,192
-482,635	-26,486	-0,136	-0,057
-481,620	-68,862	0,182	-0,050
-480,605	316,531	-0,034	-0,046
-479,591	220,198	0,106	0,123
-478,576	51,254	0,053	0,036
-477,562	198,044	-0,091	-0,100
-476,547	233,840	0,071	0,084
-475,532	-98,756	-0,074	0,013
-474,518	20,066	0,065	0,038
-473,503	-133,802	-0,014	-0,001
-472,489	-95,900	0,063	0,012
-471,474	210,203	0,047	0,053
-470,459	-45,221	-0,079	-0,028
-469,445	307,132	0,042	-0,057
-468,430	-65,634	0,078	-0,022
-467,416	-200,000	-0,009	0,084
-466,401	-43,282	0,137	0,050
-465,386	281,949	0,118	0,153
-464,372	88,463	-0,123	0,098
-463,357	-14,092	0,139	-0,064
-462,343	-64,672	-0,105	-0,030
-461,328	277,343	-0,074	-0,095
-460,313	800,000	0,034	0,087
-459,299	-99,316	-0,081	-0,015
-458,284	-175,558	0,089	0,002
-457,270	-200,000	0,022	-0,111
-456,255	-22,336	-0,020	0,009
-455,241	136,360	0,115	-0,108
-454,226	622,261	-0,065	-0,118
-453,211	28,617	-0,066	-0,040
-452,197	-200,000	-0,034	0,113
-451,182	30,782	0,071	-0,043
-450,168	103,269	0,033	0,028
-449,153	31,411	-0,039	-0,024
-448,138	11,145	-0,121	-0,067
-447,124	-200,000	0,000	-0,082
-446,109	124,244	0,061	-0,055
-445,095	202,393	0,035	0,038
-444,080	800,000	0,027	0,061
-443,065	-200,000	0,018	0,074
-442,051	-200,000	-0,015	-0,060
-441,036	210,559	0,066	-0,075
-440,022	-200,000	-0,035	-0,169
-439,007	-44,127	-0,001	-0,001
-437,992	226,892	0,084	-0,099
-436,978	405,330	0,045	0,068
-435,963	196,411	-0,081	0,089
-434,949	172,821	-0,021	-0,022
-433,934	198,519	-0,064	0,071
-432,919	276,714	-0,062	-0,080
-431,905	73,874	0,058	0,044
-430,890	-18,908	-0,013	-0,006
-429,876	120,078	0,061	0,055
-428,861	476,681	0,035	0,057
-427,846	320,481	0,028	0,039
-426,832	-198,217	-0,141	0,001
-425,817	-111,556	-0,209	-0,030
-424,803	3,254	0,069	-0,036
-423,788	82,723	0,126	0,099
-422,773	251,690	-0,069	0,084
-421,759	-180,819	0,138	-0,002
-420,744	-104,750	0,055	0,009
-419,730	-147,682	-0,070	0,004
-418,715	800,000	0,046	-0,109
-417,701	-200,000	-0,028	-0,134
-416,686	289,740	-0,065	0,085
-415,671	-19,002	0,076	-0,034
-414,657	800,000	-0,044	0,127
-413,642	788,758	-0,040	0,079
-412,628	100,059	-0,038	0,031
-411,613	27,418	-0,127	-0,077
-410,598	-200,000	0,020	-0,112
-409,584	430,459	-0,028	-0,044
-408,569	800,000	0,039	0,093
-407,555	-200,000	-0,009	0,043
-406,540	144,813	-0,037	0,035
-405,525	30,987	-0,109	-0,067
-404,511	800,000	-0,023	0,053
-403,496	213,355	0,057	-0,065
-402,482	-8,062	0,136	0,066
-401,467	800,000	0,041	0,100
-400,452	77,175	-0,063	-0,048
-399,438	-200,000	0,002	-0,050
-398,423	-77,042	0,064	-0,016
-397,409	-118,512	0,035	-0,004
-396,394	-200,000	-0,059	-0,205
-395,379	57,957	-0,077	0,054
-394,365	313,304	-0,095	0,129
-393,350	-168,784	0,088	0,002
-392,336	351,636	-0,079	0,113
-391,321	695,876	-0,051	-0,096
-390,306	190,304	-0,140	-0,152
-389,292	223,050	-0,056	-0,065
-388,277	-111,435	-0,082	-0,012
-387,263	-90,069	-0,080	0,017
-386,248	-75,724	0,186	0,047
-385,233	-149,336	-0,041	-0,002
-384,219	432,788	-0,040	-0,063
-383,204	-149,578	-0,080	-0,004
-382,190	-200,000	-0,007	-0,037
-381,175	-120,308	0,158	-0,019
-380,160	392,098	-0,021	0,031
-379,146	-182,145	0,113	0,001
-378,131	-200,000	0,005	-0,031
-377,117	97,795	0,092	0,076
-376,102	-42,130	-0,086	-0,031
-375,088	-24,184	-0,172	0,073
-374,073	-111,404	0,090	-0,013
-373,058	-124,493	0,008	-0,001
-372,044	-200,000	-0,024	-0,118
-371,029	-39,655	0,047	0,018
-370,015	-200,000	-0,000	0,086
-369,000	-200,000	0,013	-0,061
-367,985	-63,112	-0,012	0,004
-366,971	-200,000	-0,015	-0,085
-365,956	-200,000	0,014	-0,082
-364,942	800,000	0,034	0,107
-363,927	210,089	0,063	0,071
-362,912	-200,000	0,033	0,137
-361,898	752,530	-0,058	-0,114
-360,883	-149,580	-0,119	-0,007
-359,869	-108,659	0,181	-0,028
-358,854	-200,000	-0,024	-0,099
-357,839	-85,350	0,146	0,033
-356,825	475,630	-0,075	-0,122
-355,810	-200,000	-0,015	0,061
-354,796	-200,000	0,059	0,000
-353,781	-200,000	0,004	-0,046
-352,766	-200,000	-0,011	-0,169
-351,752	67,907	0,009	0,007
-350,737	-200,000	-0,025	0,184
-349,723	775,762	-0,033	-0,066
-348,708	-200,000	0,186	-0,000
-347,693	-108,026	-0,023	-0,004
-346,679	311,602	-0,104	0,141
-345,664	-103,796	-0,131	-0,022
-344,650	84,604	0,085	0,067
-343,635	-200,000	0,008	0,030
-342,620	800,000	0,034	0,099
-341,606	-200,000	0,028	0,168
-340,591	-200,000	0,033	0,119
-339,577	130,552	-0,099	-0,091
-338,562	-200,000	0,003	0,013
-337,548	-200,000	-0,011	-0,039
-336,533	289,498	-0,029	-0,038
-335,518	-200,000	-0,002	0,036
-334,504	34,727	-0,084	-0,053
-333,489	-200,000	0,001	0,068
-332,475	-78,487	-0,109	0,027
-331,460	-136,023	-0,061	0,005
-330,445	68,080	0,068	-0,050
-329,431	79,354	0,065	0,050
-328,416	47,787	-0,061	0,041
-327,402	-58,045	0,043	-0,013
-326,387	396,598	0,025	0,037
-325,372	432,962	0,018	-0,028
-324,358	-127,236	-0,147	0,015
-323,343	245,162	-0,035	0,043
-322,329	87,276	0,031	0,024
-321,314	-200,000	-0,041	0,175
-320,299	171,947	0,133	0,137
-319,285	-200,000	0,025	0,089
-318,270	-200,000	0,036	-0,186
-317,256	23,948	-0,072	0,042
-316,241	-59,945	0,144	0,044
-315,226	-200,000	-0,005	-0,103
-314,212	-200,000	0,002	0,080
-313,197	-96,379	-0,058	0,011
-312,183	800,000	0,024	0,055
-311,168	-200,000	0,040	-0,228
-310,153	-58,574	-0,086	-0,027
-309,139	-30,385	-0,113	-0,046
-308,124	-200,000	0,003	0,122
-307,110	534,507	0,091	-0,155
-306,095	-82,066	0,053	-0,012
-305,080	183,354	-0,049	0,052
-304,066	-200,000	0,011	0,141
-303,051	-200,000	-0,007	0,050
-302,037	146,247	-0,038	0,036
-301,022	228,894	0,026	-0,031
-300,008	-137,624	-0,055	0,004
-298,993	-23,848	0,114	0,049
-297,978	315,684	0,122	-0,165
-296,964	-146,564	-0,169	-0,010
-295,949	-200,000	-0,005	-0,188
-294,935	-200,000	0,013	-0,165
-293,920	406,226	-0,117	-0,178
-292,905	535,245	0,068	0,115
-291,891	516,316	0,031	0,052
-290,876	287,158	-0,020	0,026
-289,862	568,800	-0,110	-0,191
-288,847	89,989	0,029	-0,023
-287,832	203,566	0,033	0,037
-286,818	800,000	0,057	0,164
-285,803	663,445	0,061	-0,113
-284,789	368,803	0,081	-0,117
-283,774	137,626	-0,079	0,074
-282,759	349,673	-0,081	0,115
-281,745	-200,000	-0,006	-0,078
-280,730	-156,748	-0,058	0,003
-279,716	306,814	-0,065	-0,087
-278,701	76,204	0,037	-0,028
-277,686	316,540	0,077	-0,104
-276,672	142,113	-0,023	0,022
-275,657	45,136	0,049	0,032
-274,643	238,087	-0,045	-0,053
-273,628	-200,000	0,001	0,011
-272,613	28,075	0,074	0,044
-271,599	-14,826	-0,114	0,052
-270,584	-11,785	0,179	0,084
-269,570	-49,056	-0,046	0,016
-268,555	-32,120	-0,070	0,028
-267,540	311,683	-0,059	-0,079
-266,526	205,336	-0,066	-0,073
-265,511	139,741	0,015	-0,014
-264,497	-200,000	0,054	-0,190
-263,482	591,215	-0,033	-0,059
-262,467	55,234	-0,097	0,067
-261,453	4,949	0,068	0,036
-260,438	110,101	0,075	0,065
-259,424	800,000	-0,029	-0,061
-258,409	-96,988	-0,061	0,011
-257,395	96,367	0,010	-0,008
-256,380	-200,000	-0,031	-0,100
-255,365	233,063	-0,033	0,038
-254,351	304,971	-0,051	0,068
-253,336	120,164	0,068	-0,060
-252,322	-142,425	-0,117	0,008
-251,307	105,038	0,043	-0,037
-250,292	133,775	-0,065	0,060
-249,278	62,291	0,057	-0,040
-248,263	-75,920	0,084	-0,021
-247,249	-61,536	0,008	-0,003
-246,234	-200,000	0,043	-0,221
-245,219	393,332	-0,033	0,049
-244,205	-1,167	-0,064	-0,032
-243,190	800,000	-0,036	-0,107
-242,176	-135,078	0,138	-0,012
-241,161	-16,633	-0,164	0,074
-240,146	-53,711	-0,025	0,008
-239,132	800,000	0,041	0,106
-238,117	-200,000	-0,015	0,049
-237,103	29,486	0,110	0,067
-236,088	-200,000	0,014	0,060
-235,073	754,268	0,037	0,073
-234,059	580,689	-0,091	0,160
-233,044	122,960	0,177	0,158
-232,030	-200,000	0,008	0,081
-231,015	-13,366	-0,129	0,060
-230,000	-200,000	0,019	-0,083
-228,986	800,000	-0,006	-0,011
-227,971	375,193	0,028	-0,041
-226,957	313,463	0,076	0,103
-225,942	-200,000	0,007	-0,056
-224,927	178,498	0,109	0,113
-223,913	-24,460	0,015	0,006
-222,898	-200,000	-0,005	0,100
-221,884	800,000	-0,027	-0,064
-220,869	-91,357	0,145	-0,029
-219,855	-200,000	-0,018	-0,070
-218,840	-133,686	0,110	-0,010
-217,825	265,941	-0,070	0,087
-216,811	-82,064	-0,081	0,019
-215,796	-117,864	0,045	0,006
-214,782	-151,498	0,087	0,005
-213,767	-200,000	0,000	0,139
-212,752	800,000	-0,030	0,072
-211,738	-120,459	0,155	-0,019
-210,723	-200,000	0,028	0,135
-209,709	-200,000	0,009	0,059
-208,694	-82,246	-0,102	-0,023
-207,679	540,360	-0,073	0,124
-206,665	4,294	0,102	0,053
-205,650	-200,000	-0,007	0,025
-204,636	800,000	0,030	-0,081
-203,621	-16,410	-0,158	0,071
-202,606	-200,000	0,023	0,105
-201,592	-144,239	-0,149	-0,010
-200,577	492,816	0,039	-0,064
-199,563	231,670	0,069	0,080
-198,548	-200,000	0,014	-0,096
-197,533	-200,000	0,003	0,012
-196,519	800,000	0,013	0,025
-195,504	-161,501	-0,091	0,003
-194,490	-82,431	0,173	0,040
-193,475	-200,000	-0,029	0,124
-192,460	549,958	-0,024	0,042
-191,446	329,953	0,048	-0,065
-190,431	41,572	0,110	0,071
-189,417	68,768	0,075	0,055
-188,402	-200,000	0,026	-0,135
-187,387	-62,746	-0,094	-0,028
-186,373	168,361	-0,054	-0,055
-185,358	-86,816	0,139	0,030
-184,344	-200,000	0,002	0,007
-183,329	-43,395	0,086	-0,031
-182,315	339,432	0,028	-0,039
-181,300	-200,000	-0,007	-0,066
-180,285	246,235	-0,064	0,078
-179,271	-101,708	0,063	0,011
-178,256	-200,000	-0,012	-0,040
-177,242	736,261	0,035	0,066
-176,227	-200,000	0,005	0,053
-175,212	-186,941	0,071	0,001
-174,198	139,995	-0,033	0,031
-173,183	211,202	-0,107	-0,120
-172,169	-76,292	-0,109	-0,027
-171,154	-11,233	-0,113	-0,053
-170,139	-200,000	-0,019	0,068
-169,125	-117,415	0,034	-0,004
-168,110	-41,571	-0,053	0,019
-167,096	800,000	0,053	0,118
-166,081	-22,450	-0,072	-0,031
-165,066	-200,000	-0,003	0,137
-164,052	-200,000	0,009	-0,084
-163,037	-98,387	0,087	0,016
-162,023	-75,008	0,098	-0,025
-161,008	215,230	-0,034	-0,039
-159,993	-31,154	-0,091	-0,036
-158,979	800,000	0,022	-0,046
-157,964	-200,000	-0,017	-0,072
-156,950	-200,000	0,014	-0,061
-155,935	800,000	-0,039	-0,116
-154,920	228,830	-0,112	0,130
-153,906	-149,452	0,112	0,006
-152,891	-102,942	0,041	0,007
-151,877	95,612	-0,052	-0,042
-150,862	-200,000	-0,012	-0,078
-149,847	250,348	-0,045	0,054
-148,833	800,000	0,033	0,075
-147,818	-111,604	0,135	0,019
-146,804	-13,807	0,066	0,030
-145,789	123,551	0,096	0,085
-144,775	-200,000	-0,018	-0,072
-143,760	-7,939	0,065	-0,031
-142,745	120,746	-0,020	0,017
-141,731	-42,477	0,153	0,055
-140,716	800,000	0,012	0,030
-139,702	622,950	0,047	0,085
-138,687	38,089	-0,131	0,083
-137,672	198,660	0,051	-0,056
-136,658	131,162	-0,130	0,119
-135,643	-61,555	-0,101	0,030
-134,629	23,774	0,108	0,063
-133,614	743,234	0,051	0,098
-132,599	402,930	-0,011	0,017
-131,585	-200,000	0,033	0,107
-130,570	-156,196	-0,166	-0,007
-129,556	-101,631	0,102	0,017
-128,541	800,000	0,031	0,065
-127,526	46,055	-0,069	-0,045
-126,512	11,945	-0,225	0,123
-125,497	-127,578	0,093	-0,009
-124,483	-85,567	0,129	0,028
-123,468	-127,011	-0,078	0,008
-122,453	-16,882	-0,156	-0,070
-121,439	-200,000	-0,000	-0,129
-120,424	-14,062	0,063	0,029
