DTS Sentinel unit serial number:	SN410029Multiplexer serial number:	ORYXHardware model number:	OX2-SRSoftware version number:	ORYX F/W v4,00 Oryx Data Collector v3.7.2.0data status	okinstallation	BH3 CH2differential loss correction	single-endedforward channel	channel 2reverse channel	N/Adate	2023/12/05time	15:27:28forward acquisition time	300,00reverse acquisition time	0,00gamma	499,1914k internal	0,3193k external	0,3193temperature offset calibration	1,0000default loss term (dB/km)	0,3820temperature slope calibration	1,0000multiplexer offset coefficient	1,0000multiplexer slope coefficient	1,0000fibre end	0,00T internal ref (°C)	11,06T ext. ref 1 (°C)	-3,27T ext. ref 2 (°C)	-3,40length (m)	temperature (°C)	Stokes	anti-Stokes-744,400	-200,000	-0,019	-0,153
-743,385	61,516	-0,155	0,112
-742,371	800,000	-0,036	-0,080
-741,356	320,242	-0,119	0,166
-740,342	46,119	-0,160	-0,108
-739,327	158,604	-0,198	0,201
-738,312	-200,000	-0,044	-0,175
-737,298	-87,028	-0,344	0,076
-736,283	800,000	-0,075	-0,176
-735,269	800,000	-0,091	0,213
-734,254	18,197	-0,198	-0,115
-733,239	-92,332	-0,357	-0,073
-732,225	21,240	0,154	-0,091
-731,210	77,624	0,044	0,034
-730,196	178,798	-0,101	-0,108
-729,181	63,834	-0,075	0,055
-728,167	-39,922	-0,121	0,046
-727,152	168,362	0,038	-0,039
-726,137	-91,769	-0,104	-0,021
-725,123	-200,000	-0,010	-0,141
-724,108	158,983	-0,024	0,025
-723,094	24,878	-0,020	-0,012
-722,079	-49,832	-0,168	0,058
-721,064	-69,022	-0,118	-0,033
-720,050	-49,916	0,073	-0,025
-719,035	1,185	-0,048	0,025
-718,021	6,189	-0,172	-0,092
-717,006	-200,000	0,005	-0,057
-715,991	90,539	-0,055	-0,045
-714,977	-61,805	-0,108	-0,033
-713,962	-200,000	-0,019	-0,085
-712,948	-200,000	-0,019	-0,090
-711,933	126,791	-0,094	0,087
-710,918	52,895	-0,121	-0,084
-709,904	800,000	-0,043	0,115
-708,889	800,000	-0,051	0,130
-707,875	43,912	-0,063	-0,042
-706,860	155,531	-0,052	0,052
-705,845	-200,000	0,017	0,097
-704,831	-200,000	-0,009	0,041
-703,816	0,851	-0,124	-0,065
-702,802	-151,728	-0,020	-0,001
-701,787	137,156	-0,106	-0,101
-700,772	27,419	0,040	0,025
-699,758	-200,000	-0,032	-0,208
-698,743	-118,278	0,051	0,007
-697,729	800,000	0,043	0,112
-696,714	-200,000	-0,030	0,105
-695,699	-200,000	0,042	-0,154
-694,685	-200,000	0,012	-0,090
-693,670	-200,000	-0,001	-0,100
-692,656	-200,000	0,007	-0,071
-691,641	254,054	-0,048	0,060
-690,627	-50,278	0,091	0,031
-689,612	147,689	-0,074	-0,072
-688,597	800,000	-0,007	0,014
-687,583	-8,402	-0,152	-0,074
-686,568	79,525	-0,105	0,082
-685,554	-100,748	-0,120	0,021
-684,539	-200,000	0,006	0,034
-683,524	800,000	0,023	-0,064
-682,510	-200,000	0,002	0,055
-681,495	-97,472	-0,111	0,021
-680,481	-200,000	-0,019	0,151
-679,466	-200,000	-0,017	-0,111
-678,451	-102,331	-0,143	0,025
-677,437	-200,000	0,040	0,149
-676,422	11,763	-0,073	0,041
-675,408	800,000	-0,056	0,149
-674,393	30,709	-0,013	-0,008
-673,378	451,066	-0,092	-0,149
-672,364	-43,057	-0,076	-0,028
-671,349	800,000	-0,036	-0,101
-670,335	-88,067	0,058	0,013
-669,320	-44,729	0,080	-0,029
-668,305	619,082	-0,015	-0,028
-667,291	-200,000	-0,011	0,057
-666,276	464,436	0,051	-0,082
-665,262	-97,946	-0,155	-0,029
-664,247	-4,655	-0,054	0,027
-663,232	-108,365	0,062	-0,010
-662,218	45,284	0,087	0,058
-661,203	-200,000	-0,025	0,148
-660,189	-108,068	-0,085	0,013
-659,174	800,000	-0,020	-0,053
-658,159	-86,069	-0,016	-0,004
-657,145	800,000	-0,038	-0,096
-656,130	351,867	0,055	0,079
-655,116	-200,000	0,006	-0,104
-654,101	128,036	-0,033	-0,031
-653,086	-125,925	-0,106	0,011
-652,072	551,797	-0,043	-0,075
-651,057	12,282	-0,119	-0,066
-650,043	-200,000	-0,032	-0,219
-649,028	3,914	-0,043	0,023
-648,014	-144,814	0,110	-0,007
-646,999	-68,385	-0,065	0,018
-645,984	-200,000	-0,009	-0,098
-644,970	527,705	0,073	-0,125
-643,955	118,573	-0,073	-0,066
-642,941	-200,000	0,019	-0,212
-641,926	-122,587	0,069	0,008
-640,911	-36,388	0,127	0,049
-639,897	-90,612	-0,091	-0,019
-638,882	-83,951	0,213	-0,049
-637,868	800,000	0,005	0,012
-636,853	221,375	0,028	0,033
-635,838	800,000	-0,057	-0,136
-634,824	583,229	-0,047	0,085
-633,809	-63,421	0,083	0,025
-632,795	-26,272	0,072	-0,031
-631,780	76,961	-0,082	0,063
-630,765	-119,322	-0,064	0,008
-629,751	-200,000	0,021	-0,132
-628,736	-200,000	-0,021	-0,118
-627,722	800,000	0,011	0,026
-626,707	556,950	0,067	0,118
-625,692	-200,000	-0,001	0,066
-624,678	-77,035	0,050	0,012
-623,663	-200,000	-0,031	-0,148
-622,649	429,711	0,027	0,043
-621,634	-140,213	0,083	-0,006
-620,619	24,893	-0,007	-0,004
-619,605	-200,000	0,006	-0,137
-618,590	299,324	-0,115	0,155
-617,576	-28,163	0,014	-0,006
-616,561	-181,609	0,020	0,000
-615,546	12,936	-0,107	-0,060
-614,532	-11,247	-0,121	-0,058
-613,517	-200,000	0,001	-0,013
-612,503	71,253	0,040	0,030
-611,488	345,940	-0,027	-0,038
-610,474	-23,361	0,090	0,039
-609,459	-200,000	0,018	0,091
-608,444	-48,740	-0,064	0,022
-607,430	70,536	-0,083	-0,062
-606,415	136,892	0,151	-0,143
-605,401	-95,079	-0,137	0,027
-604,386	82,281	0,047	-0,037
-603,371	-12,354	0,066	0,031
-602,357	-74,482	-0,081	-0,021
-601,342	-200,000	-0,025	-0,081
-600,328	42,197	0,049	0,032
-599,313	99,911	0,056	-0,047
-598,298	30,384	-0,061	-0,038
-597,284	-41,053	-0,051	0,019
-596,269	-122,242	0,080	0,009
-595,255	-59,119	-0,061	0,019
-594,240	-200,000	0,020	0,084
-593,225	44,839	-0,116	0,078
-592,211	-200,000	-0,005	0,060
-591,196	22,848	-0,057	0,034
-590,182	325,115	0,052	0,072
-589,167	225,603	0,101	0,118
-588,152	689,008	-0,030	0,057
-587,138	585,196	0,063	-0,112
-586,123	18,041	-0,116	-0,067
-585,109	-200,000	-0,029	-0,102
-584,094	-42,725	-0,118	0,043
-583,079	-153,314	0,118	0,006
-582,065	57,083	0,054	-0,038
-581,050	135,766	0,085	-0,081
-580,036	511,954	-0,041	-0,070
-579,021	239,000	-0,054	0,065
-578,006	29,120	0,063	0,039
-576,992	107,067	0,090	0,078
-575,977	-200,000	0,003	0,049
-574,963	68,495	0,091	0,068
-573,948	-73,491	-0,049	0,013
-572,934	52,690	0,081	0,056
-571,919	131,512	-0,168	-0,157
-570,904	686,544	0,042	-0,080
-569,890	96,124	-0,104	-0,086
-568,875	800,000	0,028	0,072
-567,861	800,000	0,004	0,013
-566,846	94,176	-0,021	0,017
-565,831	122,990	0,019	0,017
-564,817	-200,000	0,021	-0,081
-563,802	-15,931	-0,018	-0,008
-562,788	88,522	0,029	-0,024
-561,773	584,203	-0,022	-0,040
-560,758	-200,000	0,003	-0,076
-559,744	800,000	-0,060	0,188
-558,729	-200,000	-0,010	-0,120
-557,715	-200,000	-0,027	-0,102
-556,700	-200,000	-0,003	-0,095
-555,685	-42,985	-0,039	-0,014
-554,671	0,510	0,073	-0,038
-553,656	130,187	-0,012	0,011
-552,642	-56,049	-0,145	0,047
-551,627	800,000	0,017	-0,041
-550,612	166,844	-0,077	0,079
-549,598	-134,936	0,084	-0,007
-548,583	27,053	-0,097	0,058
-547,569	-83,396	-0,132	-0,030
-546,554	-121,932	0,101	-0,012
-545,539	132,401	-0,061	-0,057
-544,525	-90,867	0,052	-0,011
-543,510	-200,000	0,019	0,115
-542,496	-139,938	-0,074	-0,006
-541,481	-200,000	-0,040	-0,144
-540,466	-200,000	0,014	-0,072
-539,452	-200,000	0,002	-0,026
-538,437	299,640	0,090	-0,120
-537,423	60,496	0,015	0,011
-536,408	-70,183	0,090	-0,024
-535,393	-106,967	0,133	0,021
-534,379	-143,682	-0,063	-0,004
-533,364	800,000	0,020	-0,042
-532,350	-90,195	0,056	0,012
-531,335	-14,795	0,164	0,076
-530,321	15,107	-0,092	-0,052
-529,306	242,479	0,088	0,107
-528,291	-57,706	-0,050	-0,016
-527,277	-200,000	-0,013	-0,065
-526,262	-12,629	0,099	0,046
-525,248	-10,810	0,071	-0,034
-524,233	-62,359	0,093	-0,028
-523,218	-200,000	-0,025	-0,083
-522,204	-89,891	-0,113	0,024
-521,189	-200,000	-0,001	-0,111
-520,175	329,310	-0,040	-0,056
-519,160	170,020	-0,069	0,071
-518,145	800,000	-0,029	0,077
-517,131	-109,017	0,137	0,021
-516,116	-200,000	0,029	-0,098
-515,102	-152,987	-0,223	0,011
-514,087	-13,381	0,075	-0,035
-513,072	99,412	-0,055	0,046
-512,058	-200,000	-0,005	-0,046
-511,043	800,000	0,047	0,120
-510,029	-171,137	0,057	-0,001
-509,014	348,115	0,017	-0,024
-507,999	800,000	0,046	-0,103
-506,985	-200,000	-0,004	-0,091
-505,970	-200,000	-0,010	-0,075
-504,956	-80,570	-0,133	0,032
-503,941	-104,363	0,119	-0,020
-502,926	-69,313	0,011	-0,003
-501,912	1,371	0,005	0,003
-500,897	-200,000	0,006	-0,083
-499,883	-200,000	-0,017	0,062
-498,868	164,568	-0,107	-0,109
-497,853	800,000	-0,054	-0,152
-496,839	22,237	-0,028	0,016
-495,824	108,342	0,051	-0,044
-494,810	-200,000	0,001	-0,009
-493,795	-154,185	0,093	0,004
-492,781	307,829	-0,073	0,098
-491,766	-59,419	-0,093	0,029
-490,751	281,741	-0,049	-0,064
-489,737	-200,000	0,004	-0,027
-488,722	103,390	0,025	-0,021
-487,708	204,197	-0,082	0,092
-486,693	-200,000	0,004	0,052
-485,678	28,975	-0,064	0,039
-484,664	-200,000	-0,010	-0,032
-483,649	764,149	-0,120	-0,237
-482,635	-141,166	-0,106	-0,008
-481,620	216,286	0,052	0,060
-480,605	-13,912	0,125	-0,058
-479,591	421,379	-0,134	0,209
-478,576	-92,581	-0,061	-0,012
-477,562	-123,002	-0,054	0,006
-476,547	-200,000	0,029	-0,136
-475,532	328,298	-0,022	0,030
-474,518	112,346	0,069	0,060
-473,503	-200,000	-0,016	-0,054
-472,489	-78,184	0,129	0,032
-471,474	-200,000	-0,016	-0,144
-470,459	492,307	-0,057	-0,094
-469,445	7,612	-0,070	-0,038
-468,430	45,766	0,163	-0,109
-467,416	396,552	-0,070	-0,106
-466,401	-200,000	0,014	0,053
-465,386	363,782	-0,104	0,151
-464,372	-200,000	-0,023	0,120
-463,357	313,677	-0,090	0,123
-462,343	86,271	-0,123	0,097
-461,328	442,083	-0,023	0,037
-460,313	-73,404	-0,074	-0,019
-459,299	-200,000	0,005	-0,041
-458,284	-172,352	-0,022	-0,000
-457,270	-200,000	0,003	0,075
-456,255	101,637	-0,087	0,073
-455,241	-182,431	0,055	-0,001
-454,226	114,859	-0,070	-0,061
-453,211	1,407	0,071	0,036
-452,197	-200,000	0,004	0,034
-451,182	800,000	0,091	0,181
-450,168	-149,536	0,030	-0,002
-449,153	130,195	-0,079	0,073
-448,138	-150,511	-0,108	-0,006
-447,124	800,000	-0,042	0,090
-446,109	-200,000	0,001	0,055
-445,095	256,403	-0,075	-0,093
-444,080	800,000	0,041	-0,102
-443,065	-195,549	0,051	0,000
-442,051	7,517	0,028	0,015
-441,036	18,525	0,072	-0,042
-440,022	-200,000	-0,009	-0,072
-439,007	287,167	-0,059	0,077
-437,992	9,226	0,042	0,023
-436,978	-200,000	0,022	0,176
-435,963	100,981	0,070	-0,058
-434,949	800,000	-0,040	-0,099
-433,934	800,000	0,078	-0,170
-432,919	1,634	-0,044	0,023
-431,905	29,736	-0,080	0,049
-430,890	-62,709	-0,075	0,022
-429,876	94,824	0,132	0,108
-428,861	306,861	-0,068	-0,091
-427,846	-200,000	-0,004	-0,045
-426,832	-34,072	-0,141	-0,056
-425,817	258,052	-0,071	-0,089
-424,803	-200,000	-0,025	-0,080
-423,788	800,000	-0,035	-0,079
-422,773	37,423	0,087	0,055
-421,759	-200,000	-0,041	0,157
-420,744	-116,010	-0,075	0,010
-419,730	-16,642	-0,109	0,049
-418,715	108,447	-0,036	-0,031
-417,701	104,869	-0,066	-0,056
-416,686	3,577	-0,049	0,025
-415,671	-82,350	0,136	0,032
-414,657	603,235	0,083	0,149
-413,642	347,980	0,048	-0,068
-412,628	124,520	-0,079	0,072
-411,613	-200,000	-0,039	-0,128
-410,598	309,773	-0,052	-0,070
-409,584	-134,726	0,084	-0,007
-408,569	198,398	0,128	0,141
-407,555	253,767	0,025	0,030
-406,540	580,371	0,081	-0,144
-405,525	-180,188	0,062	-0,001
-404,511	-15,834	-0,085	-0,039
-403,496	-14,622	0,060	-0,027
-402,482	719,958	0,014	0,026
-401,467	800,000	-0,041	0,120
-400,452	800,000	-0,020	0,045
-399,438	-200,000	-0,014	0,082
-398,423	695,493	0,043	0,081
-397,409	200,650	0,055	-0,061
-396,394	66,634	-0,076	-0,056
-395,379	258,432	0,021	0,026
-394,365	-60,362	0,053	0,016
-393,350	-200,000	-0,008	0,077
-392,336	9,470	0,106	0,057
-391,321	24,887	-0,058	0,034
-390,306	2,559	0,067	-0,035
-389,292	512,583	-0,118	-0,199
-388,277	331,450	-0,007	0,009
-387,263	579,221	0,041	0,073
-386,248	21,654	0,192	0,112
-385,233	95,696	0,096	0,079
-384,219	53,305	0,071	0,049
-383,204	-200,000	-0,032	0,121
-382,190	121,297	-0,041	0,036
-381,175	70,987	0,111	0,083
-380,160	231,402	0,039	-0,046
-379,146	28,832	0,116	0,071
-378,131	-79,082	0,178	0,043
-377,117	800,000	-0,070	-0,171
-376,102	-105,107	0,175	-0,028
-375,088	-200,000	-0,190	-0,000
-374,073	797,560	0,053	-0,106
-373,058	443,241	0,057	0,091
-372,044	-200,000	0,003	0,076
-371,029	-50,582	0,105	-0,035
-370,015	424,192	0,079	0,123
-369,000	-200,000	0,003	0,022
-367,985	800,000	-0,043	-0,092
-366,971	800,000	-0,027	-0,056
-365,956	800,000	-0,012	-0,028
-364,942	-86,069	0,107	0,023
-363,927	81,517	-0,027	0,021
-362,912	-200,000	-0,006	0,030
-361,898	800,000	-0,036	0,093
-360,883	800,000	0,049	-0,119
-359,869	47,985	-0,127	-0,085
-358,854	-200,000	0,000	0,003
-357,839	194,407	-0,026	0,028
-356,825	-200,000	-0,023	0,087
-355,810	-59,142	0,105	0,032
-354,796	-194,345	-0,029	-0,000
-353,781	-38,280	-0,155	-0,058
-352,766	-200,000	0,009	-0,056
-351,752	184,347	0,059	0,063
-350,737	736,553	-0,004	-0,008
-349,723	149,179	0,092	0,089
-348,708	156,821	-0,059	0,059
-347,693	-79,102	-0,155	0,038
-346,679	111,938	-0,041	0,036
-345,664	-200,000	0,006	0,155
-344,650	-50,853	-0,100	-0,034
-343,635	-109,585	-0,085	0,013
-342,620	-200,000	-0,018	0,087
-341,606	25,727	-0,034	-0,020
-340,591	-148,306	-0,029	0,002
-339,577	5,954	0,045	-0,024
-338,562	-84,565	-0,033	0,008
-337,548	33,878	0,040	-0,025
-336,533	54,281	-0,058	-0,040
-335,518	21,728	0,079	0,046
-334,504	-41,933	0,130	-0,048
-333,489	31,864	0,163	-0,101
-332,475	800,000	-0,047	-0,112
-331,460	120,854	-0,124	0,110
-330,445	420,316	0,011	-0,017
-329,431	-200,000	0,018	0,135
-328,416	-143,051	0,129	0,009
-327,402	-98,682	0,157	0,028
-326,387	350,640	-0,056	0,080
-325,372	-200,000	0,000	-0,114
-324,358	-200,000	-0,010	-0,062
-323,343	193,091	0,066	0,072
-322,329	95,548	0,165	-0,135
-321,314	364,535	0,050	0,072
-320,299	154,821	0,055	0,054
-319,285	93,010	0,053	-0,043
-318,270	375,055	0,020	0,029
-317,256	-95,881	-0,135	0,026
-316,241	800,000	0,027	-0,073
-315,226	-53,806	-0,086	0,028
-314,212	-200,000	0,002	-0,039
-313,197	140,905	0,032	-0,031
-312,183	-42,522	-0,025	0,009
-311,168	-200,000	0,017	-0,076
-310,153	631,316	0,074	-0,135
-309,139	122,390	-0,110	-0,099
-308,124	-200,000	0,012	-0,129
-307,110	-6,169	0,018	-0,009
-306,095	-200,000	0,002	0,069
-305,080	800,000	0,044	0,117
-304,066	126,298	-0,059	0,054
-303,051	-200,000	-0,007	0,022
-302,037	800,000	-0,016	-0,048
-301,022	-200,000	0,002	0,039
-300,008	270,142	0,036	0,046
-298,993	494,922	-0,051	0,084
-297,978	603,848	0,050	0,089
-296,964	-200,000	-0,005	-0,051
-295,949	724,753	-0,053	-0,102
-294,935	87,316	-0,042	-0,033
-293,920	396,558	-0,028	-0,043
-292,905	-200,000	-0,035	0,195
-291,891	-81,183	0,179	0,042
-290,876	-22,467	-0,211	0,091
-289,862	137,537	-0,082	0,077
-288,847	-78,863	-0,137	-0,033
-287,832	-200,000	0,015	-0,053
-286,818	-98,528	-0,062	0,011
-285,803	-65,637	0,052	0,015
-284,789	133,841	-0,021	-0,020
-283,774	-200,000	-0,016	-0,090
-282,759	-101,824	0,056	0,010
-281,745	800,000	-0,041	-0,121
-280,730	800,000	0,009	-0,018
-279,716	432,991	0,030	0,046
-278,701	-163,306	0,147	-0,005
-277,686	-129,042	-0,099	0,010
-276,672	63,793	0,013	-0,009
-275,657	-62,054	-0,129	0,038
-274,643	344,223	-0,013	0,019
-273,628	154,289	-0,006	0,006
-272,613	191,834	-0,080	0,087
-271,599	-200,000	0,019	0,066
-270,584	240,472	0,102	0,122
-269,570	155,254	0,037	0,037
-268,555	-138,894	-0,092	-0,007
-267,540	263,426	-0,069	0,086
-266,526	-69,276	0,038	0,010
-265,511	756,553	-0,033	-0,064
-264,497	100,441	0,123	0,102
-263,482	-5,288	-0,019	-0,009
-262,467	800,000	0,018	-0,052
-261,453	-200,000	-0,001	0,046
-260,438	-18,251	-0,046	-0,021
-259,424	-89,341	0,038	0,008
-258,409	-200,000	0,002	-0,122
-257,395	-64,620	-0,170	0,049
-256,380	-183,422	-0,039	0,000
-255,365	247,623	-0,027	-0,032
-254,351	397,740	0,069	-0,103
-253,336	97,567	0,057	-0,047
-252,322	-144,884	-0,131	0,008
-251,307	-200,000	0,037	0,143
-250,292	-200,000	0,010	0,127
-249,278	-185,030	0,153	-0,002
-248,263	-143,633	0,036	0,002
-247,249	-19,150	-0,130	0,057
-246,234	450,547	-0,058	-0,091
-245,219	327,040	-0,078	0,107
-244,205	11,071	-0,134	-0,073
-243,190	47,535	0,148	0,098
-242,176	486,021	-0,035	0,057
-241,161	-200,000	0,010	-0,053
-240,146	-160,210	-0,078	0,003
-239,132	-200,000	-0,015	0,052
-238,117	-34,509	0,021	0,008
-237,103	-200,000	0,006	0,023
-236,088	-66,987	-0,078	0,022
-235,073	136,720	0,078	-0,073
-234,059	-62,106	0,024	0,007
-233,044	499,043	0,072	0,119
-232,030	73,226	0,038	0,029
-231,015	74,460	-0,139	-0,105
-230,000	-200,000	0,056	-0,202
-228,986	96,933	-0,029	0,024
-227,971	-87,183	0,067	0,015
-226,957	55,777	0,106	0,073
-225,942	-110,897	0,106	-0,015
-224,927	-200,000	0,004	0,095
-223,913	132,167	-0,029	0,027
-222,898	-120,440	-0,082	-0,010
-221,884	8,239	-0,051	0,027
-220,869	131,850	-0,046	0,042
-219,855	-130,391	-0,107	-0,010
-218,840	800,000	0,041	0,119
-217,825	-96,732	0,100	0,019
-216,811	-49,075	-0,116	-0,040
-215,796	78,696	-0,041	0,031
-214,782	145,929	0,111	0,106
-213,767	-78,369	-0,099	-0,024
-212,752	25,679	0,064	0,038
-211,738	209,889	0,163	0,182
-210,723	-200,000	0,002	0,091
-209,709	6,486	-0,051	-0,027
-208,694	25,086	0,088	-0,052
-207,679	-104,440	0,061	-0,010
-206,665	-200,000	0,007	-0,098
-205,650	118,220	0,075	0,066
-204,636	262,234	0,111	0,138
-203,621	-149,801	0,046	-0,003
-202,606	75,192	-0,077	0,058
-201,592	-134,788	0,030	0,003
-200,577	-200,000	-0,016	-0,097
-199,563	171,313	0,132	-0,135
-198,548	564,759	0,042	-0,072
-197,533	-95,678	0,108	-0,020
-196,519	-200,000	-0,015	0,100
-195,504	28,689	-0,058	0,035
-194,490	-200,000	0,005	-0,101
-193,475	-35,207	0,163	-0,063
-192,460	158,348	-0,035	-0,034
-191,446	145,576	-0,036	0,034
-190,431	286,444	0,088	0,114
-189,417	800,000	-0,081	0,194
-188,402	448,274	-0,040	0,063
-187,387	-93,360	0,073	-0,014
-186,373	159,264	-0,046	0,045
-185,358	413,260	0,022	-0,033
-184,344	-200,000	-0,009	0,083
-183,329	703,249	0,026	0,049
-182,315	18,283	-0,139	-0,079
-181,300	-141,753	0,111	0,008
-180,285	800,000	0,046	-0,126
-179,271	137,726	-0,047	-0,043
-178,256	381,927	0,082	-0,121
-177,242	-200,000	-0,024	-0,113
-176,227	-37,939	-0,057	-0,021
-175,212	56,409	-0,119	0,082
-174,198	800,000	0,015	-0,033
-173,183	-83,851	-0,043	0,010
-172,169	-49,713	-0,163	-0,055
-171,154	-200,000	0,011	-0,058
-170,139	-200,000	0,023	-0,093
-169,125	77,921	-0,094	-0,072
-168,110	734,939	0,137	0,262
-167,096	252,737	-0,073	0,088
-166,081	-128,819	-0,131	0,013
-165,066	-200,000	-0,005	-0,210
-164,052	-70,863	0,083	0,022
-163,037	-104,285	0,028	-0,005
-162,023	336,024	0,055	0,076
-161,008	-37,528	0,039	-0,015
-159,993	78,914	-0,061	-0,047
-158,979	255,070	0,095	-0,116
-157,964	-200,000	0,022	-0,134
-156,950	800,000	-0,012	-0,024
-155,935	-200,000	0,004	-0,032
-154,920	-200,000	0,014	-0,108
-153,906	189,211	-0,068	0,072
-152,891	-200,000	0,003	0,128
-151,877	224,138	-0,118	0,136
-150,862	-200,000	-0,013	-0,060
-149,847	-200,000	-0,036	-0,126
-148,833	-179,009	-0,114	-0,002
-147,818	364,612	-0,070	0,100
-146,804	-200,000	-0,003	0,026
-145,789	-200,000	-0,025	-0,088
-144,775	-200,000	-0,005	0,028
-143,760	-40,253	-0,016	0,006
-142,745	385,506	-0,030	0,045
-141,731	648,270	0,057	0,103
-140,716	-200,000	-0,000	0,084
-139,702	-200,000	0,004	0,176
-138,687	354,449	-0,078	0,111
-137,672	294,194	-0,044	-0,057
-136,658	-134,887	-0,092	-0,008
-135,643	800,000	0,081	-0,249
-134,629	-200,000	0,004	0,087
-133,614	174,483	-0,067	0,069
-132,599	800,000	-0,016	0,039
-131,585	800,000	-0,019	0,046
-130,570	-200,000	-0,001	0,052
-129,556	800,000	0,014	0,034
-128,541	-32,637	0,081	0,032
-127,526	213,965	0,023	-0,026
-126,512	286,579	0,039	0,050
-125,497	800,000	0,067	0,144
-124,483	69,700	-0,084	0,061
-123,468	800,000	-0,022	-0,059
-122,453	-141,131	-0,173	-0,012
-121,439	800,000	-0,012	-0,025
-120,424	515,195	-0,092	0,154
-119,410	-200,000	-0,004	-0,028
