DTS Sentinel unit serial number:	SN410029Multiplexer serial number:	ORYXHardware model number:	OX2-SRSoftware version number:	ORYX F/W v4,00 Oryx Data Collector v3.7.2.0data status	okinstallation	BH3 CH2differential loss correction	single-endedforward channel	channel 2reverse channel	N/Adate	2023/12/06time	04:12:28forward acquisition time	300,00reverse acquisition time	0,00gamma	499,1914k internal	0,3197k external	0,3197temperature offset calibration	1,0000default loss term (dB/km)	0,3820temperature slope calibration	1,0000multiplexer offset coefficient	1,0000multiplexer slope coefficient	1,0000fibre end	0,00T internal ref (°C)	8,93T ext. ref 1 (°C)	-5,70T ext. ref 2 (°C)	-5,79length (m)	temperature (°C)	Stokes	anti-Stokes-744,400	-200,000	0,007	-0,180
-743,385	-104,643	-0,419	0,070
-742,371	97,525	0,112	-0,094
-741,356	247,580	-0,183	0,226
-740,342	-116,696	0,086	0,011
-739,327	347,796	-0,118	0,170
-738,312	112,232	-0,137	-0,121
-737,298	25,143	-0,225	0,135
-736,283	404,895	0,097	-0,149
-735,269	83,546	-0,191	0,151
-734,254	106,136	0,057	-0,050
-733,239	27,288	-0,346	-0,211
-732,225	-200,000	0,047	-0,219
-731,210	110,963	0,113	0,099
-730,196	800,000	0,031	-0,082
-729,181	-119,137	-0,075	0,009
-728,167	-103,378	-0,075	-0,013
-727,152	800,000	0,031	0,070
-726,137	-15,703	-0,096	0,044
-725,123	-200,000	-0,004	0,068
-724,108	223,253	0,128	-0,151
-723,094	66,669	-0,126	-0,094
-722,079	490,816	-0,035	-0,059
-721,064	-69,440	0,095	-0,026
-720,050	-92,461	-0,083	0,017
-719,035	-41,184	-0,110	0,041
-718,021	244,692	-0,043	0,053
-717,006	73,225	-0,098	-0,074
-715,991	-200,000	-0,022	-0,220
-714,977	-39,083	-0,019	-0,007
-713,962	678,682	-0,052	0,098
-712,948	-200,000	-0,013	0,061
-711,933	-200,000	-0,001	-0,142
-710,918	218,603	-0,080	0,093
-709,904	53,208	-0,048	-0,033
-708,889	-200,000	-0,004	0,093
-707,875	-200,000	0,011	-0,067
-706,860	-102,306	-0,084	-0,015
-705,845	112,723	-0,028	0,024
-704,831	124,215	0,026	0,024
-703,816	-200,000	-0,006	0,070
-702,802	-200,000	-0,003	0,046
-701,787	-200,000	0,003	-0,041
-700,772	-200,000	-0,022	-0,087
-699,758	-147,646	-0,111	-0,007
-698,743	165,330	-0,071	0,073
-697,729	-105,654	0,088	-0,014
-696,714	208,729	-0,073	0,084
-695,699	800,000	-0,005	-0,011
-694,685	357,072	-0,125	-0,182
-693,670	-12,685	0,106	-0,050
-692,656	174,172	-0,022	0,023
-691,641	726,916	-0,065	0,127
-690,627	800,000	-0,040	-0,082
-689,612	-36,105	0,027	0,011
-688,597	43,800	-0,077	-0,051
-687,583	-200,000	-0,004	-0,100
-686,568	-200,000	-0,039	-0,135
-685,554	-200,000	-0,011	-0,273
-684,539	224,845	0,026	-0,031
-683,524	557,148	0,064	-0,112
-682,510	-77,307	-0,049	-0,012
-681,495	-200,000	-0,015	-0,191
-680,481	8,320	-0,137	-0,075
-679,466	-200,000	-0,012	-0,100
-678,451	459,460	-0,027	0,044
-677,437	-50,532	0,084	-0,028
-676,422	-99,288	-0,061	0,011
-675,408	-106,119	-0,129	0,021
-674,393	328,970	-0,045	-0,063
-673,378	-82,792	-0,088	0,020
-672,364	-112,088	-0,024	-0,004
-671,349	800,000	-0,036	-0,078
-670,335	-72,220	-0,033	0,009
-669,320	800,000	-0,008	0,018
-668,305	216,493	0,110	0,127
-667,291	160,994	0,046	-0,047
-666,276	350,646	-0,122	-0,176
-665,262	351,442	-0,051	0,073
-664,247	360,959	0,047	-0,069
-663,232	-200,000	0,016	0,127
-662,218	247,458	0,084	0,103
-661,203	85,171	0,098	0,078
-660,189	-86,388	-0,115	0,025
-659,174	-85,594	0,029	-0,007
-658,159	-87,979	-0,177	-0,038
-657,145	-82,217	-0,053	-0,012
-656,130	422,696	0,058	-0,091
-655,116	800,000	0,051	-0,143
-654,101	201,873	0,060	0,067
-653,086	249,252	0,093	-0,114
-652,072	800,000	0,010	0,029
-651,057	-200,000	-0,023	-0,182
-650,043	63,191	-0,039	0,029
-649,028	-24,602	0,215	0,093
-648,014	330,387	-0,053	-0,074
-646,999	281,146	-0,086	0,112
-645,984	240,888	0,092	0,111
-644,970	-15,479	-0,125	0,058
-643,955	495,272	-0,061	-0,103
-642,941	0,248	0,059	-0,030
-641,926	124,251	-0,079	0,072
-640,911	130,734	0,039	0,036
-639,897	-1,049	-0,103	0,053
-638,882	394,009	0,053	-0,080
-637,868	-56,960	-0,098	-0,031
-636,853	-200,000	0,002	-0,036
-635,838	-22,191	-0,104	0,046
-634,824	-200,000	-0,023	-0,097
-633,809	427,586	-0,035	0,054
-632,795	232,694	0,053	-0,064
-631,780	-200,000	-0,024	0,107
-630,765	299,571	0,009	0,012
-629,751	-154,092	-0,181	0,009
-628,736	233,611	-0,059	-0,071
-627,722	-132,804	0,029	0,003
-626,707	800,000	-0,068	0,151
-625,692	-93,444	-0,084	-0,017
-624,678	-42,265	0,127	-0,047
-623,663	290,060	0,036	-0,048
-622,649	-132,026	-0,061	-0,006
-621,634	316,995	-0,067	-0,091
-620,619	44,460	0,023	0,015
-619,605	-119,314	0,041	-0,005
-618,590	-200,000	-0,008	0,066
-617,576	-44,534	-0,042	0,015
-616,561	89,914	-0,113	0,091
-615,546	-200,000	-0,006	-0,110
-614,532	219,968	0,091	-0,105
-613,517	-200,000	-0,021	-0,171
-612,503	-16,253	-0,064	0,029
-611,488	-12,265	0,044	0,021
-610,474	138,737	0,040	0,038
-609,459	-200,000	-0,020	-0,086
-608,444	440,694	-0,085	-0,135
-607,430	-200,000	-0,055	-0,197
-606,415	176,610	-0,121	-0,128
-605,401	46,488	-0,117	-0,079
-604,386	800,000	0,036	0,091
-603,371	-77,969	-0,181	-0,045
-602,357	340,071	-0,069	0,097
-601,342	157,876	-0,050	-0,050
-600,328	800,000	-0,048	-0,111
-599,313	-200,000	0,005	-0,202
-598,298	-89,633	0,045	-0,010
-597,284	404,888	0,038	-0,058
-596,269	75,060	0,068	0,052
-595,255	-200,000	-0,018	-0,061
-594,240	67,691	-0,179	-0,132
-593,225	49,036	-0,044	0,030
-592,211	-200,000	-0,021	-0,133
-591,196	37,226	0,085	0,054
-590,182	20,560	0,100	0,059
-589,167	13,930	0,055	0,031
-588,152	0,672	0,075	0,039
-587,138	800,000	0,028	-0,063
-586,123	-200,000	0,004	-0,133
-585,109	-57,542	-0,039	0,012
-584,094	94,299	0,041	-0,034
-583,079	193,844	0,088	0,096
-582,065	180,042	-0,078	-0,083
-581,050	-60,312	0,073	0,022
-580,036	-141,193	0,057	-0,004
-579,021	-13,020	-0,099	-0,047
-578,006	405,437	-0,084	0,128
-576,992	427,865	0,021	0,033
-575,977	-200,000	-0,030	0,160
-574,963	489,961	-0,063	0,104
-573,948	-140,648	0,076	-0,006
-572,934	240,186	-0,108	0,130
-571,919	-200,000	-0,006	0,081
-570,904	388,145	-0,087	-0,131
-569,890	-117,419	0,113	0,015
-568,875	-200,000	-0,000	0,096
-567,861	-138,347	-0,042	-0,003
-566,846	800,000	-0,035	0,094
-565,831	652,136	0,037	-0,069
-564,817	-200,000	0,012	0,043
-563,802	275,495	-0,051	-0,066
-562,788	67,451	-0,065	-0,048
-561,773	295,796	-0,054	-0,072
-560,758	166,106	0,066	0,067
-559,744	10,382	-0,095	0,052
-558,729	-200,000	0,014	0,081
-557,715	-188,483	-0,033	-0,000
-556,700	95,174	-0,017	-0,014
-555,685	-26,269	-0,071	0,030
-554,671	-200,000	-0,036	-0,117
-553,656	20,360	0,140	0,082
-552,642	144,486	0,055	-0,053
-551,627	142,166	0,042	0,040
-550,612	-154,856	-0,067	0,003
-549,598	204,843	-0,071	-0,080
-548,583	446,894	0,020	0,032
-547,569	-137,530	-0,084	0,007
-546,554	226,622	0,052	-0,061
-545,539	-163,190	0,002	0,000
-544,525	-200,000	0,011	0,106
-543,510	800,000	0,015	0,039
-542,496	800,000	-0,022	-0,044
-541,481	-104,411	-0,112	-0,019
-540,466	-45,463	0,076	0,027
-539,452	-54,762	0,049	0,016
-538,437	-171,577	0,239	-0,006
-537,423	-88,651	-0,090	0,019
-536,408	-200,000	-0,003	0,048
-535,393	743,155	-0,047	-0,092
-534,379	-66,551	0,057	0,016
-533,364	-154,618	-0,140	0,007
-532,350	-200,000	0,020	-0,074
-531,335	-200,000	-0,006	0,019
-530,321	-151,219	-0,054	-0,003
-529,306	-7,402	0,057	0,028
-528,291	282,351	-0,021	-0,028
-527,277	-200,000	0,010	-0,164
-526,262	800,000	0,041	0,115
-525,248	-200,000	-0,045	0,150
-524,233	108,123	0,153	-0,132
-523,218	189,335	0,127	0,138
-522,204	-200,000	-0,018	0,084
-521,189	202,640	-0,074	-0,083
-520,175	-88,599	-0,072	-0,015
-519,160	800,000	0,033	0,080
-518,145	-183,599	-0,064	0,001
-517,131	-200,000	-0,029	0,113
-516,116	-19,249	-0,025	0,011
-515,102	-5,448	0,145	-0,072
-514,087	-200,000	-0,038	-0,140
-513,072	-43,398	0,012	-0,004
-512,058	-46,983	-0,056	0,020
-511,043	-127,431	-0,044	-0,005
-510,029	800,000	0,040	0,084
-509,014	82,673	-0,034	0,026
-507,999	-200,000	0,007	0,038
-506,985	-65,295	0,096	-0,028
-505,970	22,616	-0,130	-0,077
-504,956	-176,154	-0,016	-0,000
-503,941	-131,414	-0,064	-0,006
-502,926	-21,334	0,140	-0,061
-501,912	-151,481	-0,108	-0,006
-500,897	-26,990	0,113	-0,047
-499,883	746,536	0,035	-0,069
-498,868	178,261	0,079	-0,083
-497,853	26,890	-0,102	-0,062
-496,839	-200,000	-0,009	-0,071
-495,824	-200,000	-0,015	-0,050
-494,810	417,057	0,034	0,052
-493,795	9,021	-0,005	-0,003
-492,781	-160,572	0,099	-0,004
-491,766	76,624	-0,086	-0,065
-490,751	344,557	0,056	0,080
-489,737	185,864	0,048	-0,052
-488,722	611,450	0,061	-0,111
-487,708	-59,869	-0,056	-0,017
-486,693	-139,738	-0,028	0,002
-485,678	-200,000	-0,025	0,119
-484,664	-99,026	-0,040	-0,007
-483,649	-119,801	0,126	-0,016
-482,635	-200,000	-0,005	0,047
-481,620	-110,074	0,088	0,013
-480,605	-200,000	-0,001	0,067
-479,591	152,533	-0,033	0,033
-478,576	-23,965	0,153	0,066
-477,562	-82,281	-0,100	-0,023
-476,547	32,055	-0,061	-0,038
-475,532	800,000	-0,047	0,101
-474,518	481,344	-0,041	-0,067
-473,503	-200,000	0,008	0,091
-472,489	71,753	0,026	-0,019
-471,474	-26,890	0,036	-0,015
-470,459	-87,060	-0,038	-0,008
-469,445	-59,220	-0,203	0,063
-468,430	221,753	0,033	0,038
-467,416	-167,806	0,141	0,004
-466,401	-104,009	0,089	-0,015
-465,386	-200,000	0,004	0,015
-464,372	-161,200	0,064	-0,002
-463,357	336,067	0,063	-0,088
-462,343	800,000	-0,073	-0,185
-461,328	-124,027	-0,118	-0,013
-460,313	-109,156	0,069	-0,010
-459,299	-134,071	0,177	-0,016
-458,284	359,196	-0,027	-0,039
-457,270	64,359	-0,230	0,167
-456,255	332,541	-0,030	0,041
-455,241	-19,874	0,031	0,014
-454,226	-200,000	0,022	-0,071
-453,211	-110,522	0,069	-0,010
-452,197	-96,702	-0,034	-0,006
-451,182	-63,478	0,137	0,040
-450,168	-16,866	-0,105	-0,047
-449,153	-92,631	-0,050	0,010
-448,138	800,000	-0,039	0,102
-447,124	-165,806	-0,058	0,002
-446,109	-200,000	0,049	0,197
-445,095	800,000	-0,034	0,090
-444,080	282,041	-0,052	-0,067
-443,065	769,787	0,070	0,139
-442,051	485,879	0,042	0,069
-441,036	-61,754	-0,035	0,011
-440,022	30,867	0,145	-0,089
-439,007	-200,000	-0,007	0,143
-437,992	-38,556	0,061	0,023
-436,978	-200,000	0,025	0,094
-435,963	-123,417	-0,044	0,005
-434,949	800,000	-0,046	0,110
-433,934	-50,451	-0,118	-0,040
-432,919	-200,000	0,003	0,063
-431,905	-76,083	-0,166	-0,042
-430,890	173,176	-0,023	-0,024
-429,876	-95,476	0,024	-0,005
-428,861	-200,000	0,037	0,119
-427,846	109,340	-0,068	-0,058
-426,832	-200,000	0,029	-0,137
-425,817	-200,000	-0,001	-0,074
-424,803	800,000	-0,033	0,071
-423,788	-200,000	0,028	-0,115
-422,773	268,432	0,037	0,046
-421,759	-9,218	0,084	0,040
-420,744	800,000	-0,023	-0,048
-419,730	20,722	-0,075	0,044
-418,715	-18,316	0,031	-0,014
-417,701	-137,671	0,134	-0,011
-416,686	800,000	0,050	0,140
-415,671	800,000	0,044	-0,109
-414,657	-200,000	0,002	0,045
-413,642	90,285	0,156	0,126
-412,628	800,000	0,028	0,066
-411,613	-20,250	0,008	-0,004
-410,598	-46,233	0,013	0,004
-409,584	800,000	-0,065	0,158
-408,569	800,000	-0,034	0,069
-407,555	113,050	0,027	-0,024
-406,540	-200,000	0,002	0,084
-405,525	-200,000	-0,000	0,028
-404,511	-200,000	-0,011	-0,040
-403,496	50,134	-0,091	-0,062
-402,482	-200,000	-0,013	-0,125
-401,467	800,000	0,076	-0,176
-400,452	2,693	0,095	0,050
-399,438	-115,118	0,041	-0,005
-398,423	592,537	-0,044	-0,078
-397,409	-27,808	-0,141	-0,058
-396,394	-65,438	0,044	0,013
-395,379	54,876	-0,049	-0,034
-394,365	-100,765	-0,100	-0,018
-393,350	8,075	0,113	0,061
-392,336	-31,559	-0,067	-0,027
-391,321	-200,000	0,006	0,031
-390,306	-200,000	-0,012	-0,127
-389,292	412,117	-0,098	-0,151
-388,277	-118,210	0,084	-0,011
-387,263	-200,000	0,003	-0,013
-386,248	-200,000	0,003	0,179
-385,233	61,024	0,022	0,016
-384,219	-194,106	-0,098	0,001
-383,204	-134,168	-0,158	-0,014
-382,190	109,381	-0,087	0,075
-381,175	369,435	-0,113	-0,165
-380,160	216,157	0,010	0,011
-379,146	-72,557	-0,099	0,026
-378,131	-36,361	-0,024	-0,009
-377,117	800,000	0,033	-0,085
-376,102	-85,398	0,209	-0,046
-375,088	-57,906	-0,055	0,017
-374,073	-38,086	0,011	0,004
-373,058	428,318	-0,044	-0,068
-372,044	800,000	0,038	0,096
-371,029	-84,025	0,076	0,017
-370,015	-200,000	-0,005	0,032
-369,000	-178,748	0,097	0,002
-367,985	-104,396	-0,117	-0,019
-366,971	245,961	0,051	-0,062
-365,956	-171,435	-0,024	0,001
-364,942	-30,757	0,092	-0,037
-363,927	329,990	0,069	0,096
-362,912	-200,000	-0,013	-0,057
-361,898	-200,000	0,011	0,060
-360,883	-200,000	-0,001	-0,041
-359,869	-200,000	-0,001	-0,046
-358,854	-30,993	0,078	0,032
-357,839	-28,349	0,061	-0,025
-356,825	351,256	-0,064	0,091
-355,810	711,750	0,010	-0,019
-354,796	-71,501	-0,161	-0,043
-353,781	166,482	0,044	0,044
-352,766	-200,000	0,008	-0,039
-351,752	800,000	0,030	-0,066
-350,737	-97,393	0,107	0,020
-349,723	800,000	-0,053	0,110
-348,708	-200,000	-0,003	0,134
-347,693	-121,777	0,111	0,013
-346,679	135,216	0,080	0,074
-345,664	800,000	-0,013	0,040
-344,650	-164,031	0,121	-0,004
-343,635	490,472	0,056	0,092
-342,620	273,988	0,083	0,105
-341,606	-129,975	-0,100	-0,010
-340,591	-4,466	0,050	-0,025
-339,577	65,004	-0,051	0,037
-338,562	496,451	-0,051	0,085
-337,548	-100,989	0,050	0,009
-336,533	-72,805	-0,100	0,026
-335,518	-200,000	0,010	0,074
-334,504	800,000	-0,029	0,069
-333,489	209,277	0,097	0,109
-332,475	8,675	-0,094	-0,051
-331,460	257,544	0,031	-0,038
-330,445	2,212	0,051	0,026
-329,431	628,729	0,046	0,084
-328,416	-41,240	-0,055	-0,020
-327,402	94,988	0,047	0,039
-326,387	-200,000	-0,026	0,093
-325,372	-134,507	0,217	0,019
-324,358	154,149	-0,027	-0,027
-323,343	-200,000	-0,027	-0,113
-322,329	141,485	0,036	0,034
-321,314	1,220	-0,032	0,017
-320,299	-200,000	-0,022	0,096
-319,285	609,106	0,036	0,064
-318,270	33,231	-0,133	0,082
-317,256	-39,544	-0,152	-0,057
-316,241	800,000	0,062	-0,140
-315,226	-98,333	0,148	-0,027
-314,212	129,520	-0,054	-0,049
-313,197	-30,956	-0,030	0,012
-312,183	-108,449	0,055	0,008
-311,168	-200,000	0,014	-0,184
-310,153	800,000	-0,030	0,063
-309,139	85,244	-0,067	-0,053
-308,124	241,925	-0,118	0,142
-307,110	-107,022	0,175	0,027
-306,095	276,192	-0,065	0,083
-305,080	450,479	0,098	-0,156
-304,066	-200,000	0,007	-0,055
-303,051	800,000	-0,021	-0,052
-302,037	112,494	-0,065	-0,056
-301,022	78,874	0,148	0,113
-300,008	270,231	-0,056	0,071
-298,993	323,715	0,061	0,084
-297,978	256,173	-0,031	0,038
-296,964	562,945	-0,074	-0,129
-295,949	800,000	0,071	-0,161
-294,935	-200,000	-0,020	-0,197
-293,920	200,703	0,035	0,039
-292,905	670,038	0,061	0,114
-291,891	-200,000	0,017	0,093
-290,876	-200,000	-0,007	-0,035
-289,862	-61,588	-0,104	0,031
-288,847	124,678	-0,089	-0,080
-287,832	-200,000	-0,030	-0,118
-286,818	-200,000	0,000	-0,013
-285,803	42,164	0,066	0,043
-284,789	-192,875	0,116	-0,001
-283,774	-118,789	-0,104	0,013
-282,759	-77,208	-0,152	0,037
-281,745	-82,412	-0,020	0,005
-280,730	800,000	-0,024	0,073
-279,716	-200,000	0,002	0,007
-278,701	-200,000	0,005	-0,050
-277,686	800,000	-0,009	0,018
-276,672	-86,657	0,132	-0,029
-275,657	-79,986	-0,096	-0,023
-274,643	619,295	-0,109	-0,197
-273,628	800,000	-0,041	-0,102
-272,613	182,651	-0,092	0,097
-271,599	6,587	0,006	-0,003
-270,584	-200,000	0,012	-0,074
-269,570	-65,017	0,085	0,024
-268,555	528,832	0,045	0,076
-267,540	800,000	-0,023	-0,066
-266,526	-200,000	0,031	-0,152
-265,511	2,292	0,068	-0,035
-264,497	-119,897	0,094	0,011
-263,482	-19,609	0,097	-0,043
-262,467	-200,000	-0,003	0,066
-261,453	371,611	0,017	-0,024
-260,438	800,000	-0,021	0,050
-259,424	-200,000	-0,001	0,053
-258,409	574,280	-0,023	-0,040
-257,395	-200,000	-0,091	0,000
-256,380	-45,583	0,069	0,024
-255,365	-200,000	0,027	0,112
-254,351	424,488	0,121	0,187
-253,336	512,956	0,039	0,065
-252,322	-200,000	0,038	-0,166
-251,307	597,253	0,035	-0,063
-250,292	-154,316	-0,032	0,002
-249,278	255,292	-0,017	-0,020
-248,263	405,024	-0,047	-0,070
-247,249	-17,855	0,100	0,045
-246,234	800,000	0,015	-0,032
-245,219	-200,000	-0,015	-0,056
-244,205	185,479	0,106	-0,112
-243,190	69,423	-0,030	0,022
-242,176	800,000	-0,034	-0,082
-241,161	-63,449	0,162	-0,047
-240,146	-200,000	-0,036	-0,155
-239,132	21,462	0,042	-0,025
-238,117	-105,103	-0,061	-0,010
-237,103	192,457	-0,024	0,026
-236,088	-30,477	-0,106	0,043
-235,073	-1,454	0,117	-0,059
-234,059	800,000	-0,034	0,081
-233,044	241,507	0,056	-0,067
-232,030	-200,000	-0,011	0,137
-231,015	-200,000	-0,018	0,134
-230,000	-20,720	-0,166	0,072
-228,986	135,968	-0,062	-0,058
-227,971	-200,000	0,041	-0,143
-226,957	148,177	0,031	-0,030
-225,942	-155,771	0,143	0,006
-224,927	800,000	0,043	0,105
-223,913	-200,000	-0,019	0,107
-222,898	-200,000	0,012	0,090
-221,884	99,481	-0,041	-0,034
-220,869	96,898	0,084	-0,068
-219,855	392,003	-0,043	0,063
-218,840	-154,232	0,088	-0,004
-217,825	79,094	0,039	-0,030
-216,811	-80,418	-0,025	0,006
-215,796	12,483	-0,067	-0,037
-214,782	-200,000	0,024	0,152
-213,767	-58,752	0,121	0,037
-212,752	209,187	0,095	-0,106
-211,738	-200,000	0,024	-0,113
-210,723	-83,493	-0,208	-0,047
-209,709	92,068	-0,085	-0,068
-208,694	800,000	-0,020	0,039
-207,679	-73,131	-0,105	0,027
-206,665	120,493	0,055	-0,049
-205,650	654,826	0,070	0,128
-204,636	-200,000	0,029	-0,105
-203,621	24,199	0,090	0,053
-202,606	-200,000	0,024	0,102
-201,592	263,405	-0,061	-0,075
-200,577	-200,000	-0,018	0,228
-199,563	437,076	0,028	0,044
-198,548	-167,604	0,036	0,001
-197,533	129,683	0,170	-0,155
-196,519	794,062	-0,032	0,063
-195,504	800,000	-0,013	-0,037
-194,490	657,777	-0,039	-0,073
-193,475	-16,372	-0,072	-0,032
-192,460	66,813	0,033	-0,024
-191,446	-116,382	0,091	0,012
-190,431	800,000	-0,101	0,204
-189,417	256,173	0,042	-0,052
-188,402	-200,000	0,001	-0,009
-187,387	124,463	-0,053	0,047
-186,373	-200,000	-0,017	-0,058
-185,358	-78,677	-0,089	0,022
-184,344	-200,000	0,016	0,096
-183,329	172,218	0,110	0,113
-182,315	-74,880	-0,124	-0,032
-181,300	800,000	0,017	-0,043
-180,285	-23,610	0,173	-0,074
-179,271	-44,795	-0,066	0,023
-178,256	800,000	-0,031	0,067
-177,242	-74,317	0,094	-0,024
-176,227	800,000	-0,024	-0,063
-175,212	-47,684	0,166	-0,057
-174,198	1,765	-0,045	0,023
-173,183	22,039	-0,017	-0,010
-172,169	-200,000	-0,013	-0,122
-171,154	-141,851	-0,030	-0,002
-170,139	-200,000	-0,009	0,111
-169,125	-200,000	0,016	0,090
-168,110	-200,000	-0,001	0,090
-167,096	-200,000	-0,008	0,121
-166,081	-121,430	-0,069	-0,008
-165,066	-200,000	0,002	-0,107
-164,052	-200,000	-0,008	-0,060
-163,037	-41,274	0,093	-0,034
-162,023	12,820	0,068	-0,037
-161,008	259,682	-0,042	-0,052
-159,993	353,140	-0,027	0,038
-158,979	166,110	-0,024	-0,025
-157,964	-200,000	0,018	-0,103
-156,950	9,016	0,077	0,041
-155,935	800,000	0,020	0,049
-154,920	800,000	0,084	-0,169
-153,906	800,000	-0,048	0,124
-152,891	-200,000	0,014	-0,058
-151,877	-200,000	-0,008	-0,151
-150,862	562,394	-0,095	-0,165
-149,847	143,185	-0,074	-0,070
-148,833	800,000	0,038	-0,079
-147,818	-17,974	0,108	0,048
-146,804	-200,000	0,021	0,065
-145,789	-4,491	0,094	0,046
-144,775	-84,368	-0,092	-0,021
-143,760	213,310	-0,037	-0,041
-142,745	-35,319	-0,044	-0,017
-141,731	127,129	0,053	-0,047
-140,716	64,776	0,116	0,083
-139,702	367,663	0,087	0,125
-138,687	-73,993	0,047	0,012
-137,672	-76,229	-0,162	0,040
-136,658	-200,000	0,025	-0,167
-135,643	192,694	0,081	-0,087
-134,629	-41,772	0,130	0,047
-133,614	30,596	-0,081	-0,049
-132,599	-53,120	0,086	0,028
-131,585	459,361	0,041	-0,065
-130,570	274,295	0,053	-0,067
-129,556	-200,000	-0,007	0,052
-128,541	-200,000	-0,027	-0,101
-127,526	800,000	0,054	-0,140
-126,512	444,460	-0,069	-0,107
-125,497	146,461	-0,046	-0,044
-124,483	508,412	0,038	0,064
-123,468	555,392	0,011	0,018
-122,453	183,187	-0,050	0,052
-121,439	283,622	0,018	-0,023
-120,424	426,702	0,044	0,068
