DTS Sentinel unit serial number:	SN410029Multiplexer serial number:	ORYXHardware model number:	OX2-SRSoftware version number:	ORYX F/W v4,00 Oryx Data Collector v3.7.2.0data status	okinstallation	BH3 CH2differential loss correction	single-endedforward channel	channel 2reverse channel	N/Adate	2023/12/05time	22:37:28forward acquisition time	300,00reverse acquisition time	0,00gamma	499,1914k internal	0,3194k external	0,3194temperature offset calibration	1,0000default loss term (dB/km)	0,3820temperature slope calibration	1,0000multiplexer offset coefficient	1,0000multiplexer slope coefficient	1,0000fibre end	0,00T internal ref (°C)	9,89T ext. ref 1 (°C)	-5,18T ext. ref 2 (°C)	-5,26length (m)	temperature (°C)	Stokes	anti-Stokes-744,400	-200,000	-0,012	-0,216
-743,385	-100,813	-0,290	0,052
-742,371	800,000	0,029	-0,061
-741,356	51,414	-0,159	0,110
-740,342	-200,000	-0,008	-0,077
-739,327	48,560	-0,141	0,096
-738,312	800,000	-0,042	-0,130
-737,298	3,421	-0,169	0,090
-736,283	-200,000	0,004	-0,085
-735,269	-36,647	-0,187	0,073
-734,254	-200,000	0,031	-0,145
-733,239	12,657	-0,368	-0,207
-732,225	800,000	0,054	-0,118
-731,210	-200,000	0,009	0,029
-730,196	127,346	-0,046	0,043
-729,181	-200,000	0,010	-0,078
-728,167	800,000	-0,065	-0,187
-727,152	364,476	0,126	-0,185
-726,137	447,693	-0,074	-0,118
-725,123	-65,675	-0,174	0,050
-724,108	-35,867	-0,116	-0,045
-723,094	-200,000	-0,004	-0,056
-722,079	-200,000	0,036	-0,161
-721,064	253,020	-0,098	-0,122
-720,050	121,623	-0,032	-0,029
-719,035	-136,640	-0,094	-0,008
-718,021	-187,766	-0,062	-0,001
-717,006	205,013	-0,101	-0,114
-715,991	-200,000	-0,031	-0,117
-714,977	307,578	-0,096	-0,131
-713,962	-33,592	-0,097	0,039
-712,948	-200,000	-0,022	0,092
-711,933	-200,000	0,002	0,021
-710,918	-21,577	-0,057	-0,025
-709,904	274,441	0,054	-0,069
-708,889	-200,000	-0,002	0,051
-707,875	-200,000	0,036	-0,146
-706,860	768,258	-0,046	0,092
-705,845	800,000	0,050	-0,103
-704,831	-52,054	-0,066	-0,022
-703,816	-69,131	-0,060	0,017
-702,802	-19,721	-0,082	-0,037
-701,787	800,000	-0,070	-0,213
-700,772	-200,000	0,020	-0,088
-699,758	-74,367	-0,087	0,023
-698,743	-200,000	0,002	-0,009
-697,729	-25,814	-0,077	0,033
-696,714	155,163	-0,063	-0,064
-695,699	-148,936	-0,057	0,003
-694,685	-24,865	-0,039	-0,017
-693,670	299,877	0,019	-0,026
-692,656	-200,000	0,043	0,147
-691,641	-200,000	-0,001	0,035
-690,627	382,073	-0,036	0,054
-689,612	-59,212	-0,077	0,024
-688,597	-79,849	-0,048	-0,012
-687,583	164,423	-0,084	-0,086
-686,568	-200,000	0,023	-0,107
-685,554	-148,723	0,101	-0,006
-684,539	-30,419	-0,086	0,035
-683,524	-133,938	-0,070	0,006
-682,510	-200,000	0,011	0,098
-681,495	444,256	-0,059	0,094
-680,481	38,961	-0,199	-0,129
-679,466	182,962	0,122	-0,131
-678,451	71,250	-0,066	0,050
-677,437	184,212	-0,055	-0,059
-676,422	218,071	-0,039	0,045
-675,408	-200,000	-0,016	0,128
-674,393	41,857	0,032	-0,021
-673,378	88,471	-0,094	-0,076
-672,364	-200,000	-0,076	-0,297
-671,349	19,115	0,134	0,078
-670,335	254,604	-0,018	-0,022
-669,320	-200,000	0,001	0,029
-668,305	217,271	0,080	0,093
-667,291	43,957	0,079	0,053
-666,276	248,415	-0,028	-0,034
-665,262	800,000	0,012	0,032
-664,247	-22,915	0,058	-0,025
-663,232	800,000	-0,045	-0,099
-662,218	634,513	-0,033	-0,062
-661,203	-26,891	-0,068	-0,029
-660,189	-200,000	-0,009	0,052
-659,174	-200,000	0,008	-0,162
-658,159	-200,000	0,000	-0,072
-657,145	349,649	-0,047	-0,068
-656,130	264,008	-0,039	-0,049
-655,116	77,084	0,017	-0,013
-654,101	318,233	-0,035	0,048
-653,086	-116,488	0,081	0,011
-652,072	800,000	-0,035	-0,073
-651,057	-200,000	0,007	-0,062
-650,043	41,493	-0,114	-0,075
-649,028	305,454	-0,033	-0,045
-648,014	-200,000	-0,001	0,128
-646,999	-13,614	-0,026	-0,012
-645,984	90,081	0,059	-0,048
-644,970	-200,000	0,015	0,090
-643,955	800,000	-0,005	0,013
-642,941	428,656	0,057	-0,090
-641,926	322,830	0,068	0,095
-640,911	270,589	0,024	0,030
-639,897	-200,000	0,005	0,077
-638,882	-200,000	-0,045	-0,158
-637,868	-173,904	0,077	0,002
-636,853	-84,338	0,098	0,022
-635,838	299,188	-0,127	-0,170
-634,824	800,000	0,056	-0,133
-633,809	68,990	-0,089	0,066
-632,795	138,383	-0,046	0,044
-631,780	533,924	-0,012	0,020
-630,765	-69,998	-0,170	-0,047
-629,751	800,000	-0,045	-0,139
-628,736	-200,000	-0,009	-0,069
-627,722	-24,727	-0,084	0,036
-626,707	-7,801	-0,098	-0,048
-625,692	124,754	0,081	-0,074
-624,678	169,838	-0,036	0,037
-623,663	-25,838	-0,097	0,041
-622,649	80,837	-0,033	-0,026
-621,634	106,196	-0,135	-0,116
-620,619	800,000	-0,023	-0,056
-619,605	-108,544	0,076	0,012
-618,590	430,336	0,036	-0,056
-617,576	-200,000	-0,015	-0,081
-616,561	-42,786	0,041	0,015
-615,546	-200,000	-0,022	-0,078
-614,532	-200,000	0,007	0,093
-613,517	64,324	-0,157	-0,114
-612,503	-47,754	0,071	0,025
-611,488	-200,000	-0,019	0,087
-610,474	-27,999	-0,061	0,025
-609,459	17,817	0,106	0,061
-608,444	-107,750	-0,135	0,021
-607,430	4,092	0,070	-0,037
-606,415	193,363	-0,091	-0,100
-605,401	88,437	0,168	-0,135
-604,386	-200,000	0,004	-0,101
-603,371	77,959	-0,036	-0,028
-602,357	800,000	-0,059	-0,123
-601,342	-200,000	0,006	-0,038
-600,328	-52,961	-0,185	-0,061
-599,313	390,344	-0,018	-0,027
-598,298	-200,000	0,025	-0,119
-597,284	509,402	0,053	0,089
-596,269	-200,000	-0,002	0,050
-595,255	-121,405	0,092	-0,011
-594,240	569,689	0,025	0,044
-593,225	82,174	0,128	0,100
-592,211	723,243	-0,050	-0,097
-591,196	-83,724	-0,019	0,004
-590,182	-64,876	-0,138	0,040
-589,167	-41,483	-0,058	0,022
-588,152	-90,970	0,034	0,007
-587,138	-200,000	-0,011	-0,051
-586,123	800,000	-0,017	0,038
-585,109	-61,687	-0,108	0,032
-584,094	116,800	0,075	-0,066
-583,079	138,453	0,130	0,124
-582,065	-200,000	-0,025	0,111
-581,050	-98,113	0,086	0,016
-580,036	-143,397	-0,143	-0,010
-579,021	-100,947	0,073	-0,013
-578,006	-104,074	-0,071	-0,012
-576,992	-29,651	-0,034	0,014
-575,977	594,034	0,020	-0,035
-574,963	337,979	-0,006	0,009
-573,948	-200,000	0,013	0,120
-572,934	-15,613	0,092	0,042
-571,919	800,000	-0,069	0,148
-570,904	-200,000	-0,002	-0,060
-569,890	-61,092	-0,070	-0,021
-568,875	-200,000	-0,015	-0,090
-567,861	39,560	-0,097	0,063
-566,846	-200,000	-0,020	0,146
-565,831	-109,172	0,014	-0,002
-564,817	-200,000	0,013	-0,103
-563,802	-17,635	-0,122	-0,055
-562,788	-200,000	-0,010	-0,130
-561,773	744,941	0,077	-0,152
-560,758	-7,446	0,104	-0,051
-559,744	800,000	0,035	0,076
-558,729	-200,000	0,003	-0,059
-557,715	48,070	-0,165	-0,112
-556,700	218,937	0,063	-0,074
-555,685	75,205	0,069	0,053
-554,671	-20,610	-0,108	-0,048
-553,656	251,983	0,035	0,043
-552,642	70,363	0,083	-0,062
-551,627	351,866	0,041	-0,059
-550,612	353,482	-0,078	0,112
-549,598	-24,478	-0,055	0,023
-548,583	-200,000	0,006	-0,124
-547,569	247,706	-0,016	0,020
-546,554	-200,000	0,016	-0,060
-545,539	184,683	0,097	0,104
-544,525	229,891	-0,023	0,027
-543,510	59,712	0,057	0,041
-542,496	800,000	-0,027	0,075
-541,481	-168,197	-0,058	0,002
-540,466	172,722	0,023	0,024
-539,452	-200,000	-0,018	0,108
-538,437	-200,000	-0,016	0,064
-537,423	-98,014	-0,080	-0,015
-536,408	-13,271	-0,067	-0,031
-535,393	-88,653	0,027	-0,006
-534,379	800,000	0,025	0,063
-533,364	-35,027	0,059	0,023
-532,350	-200,000	0,001	0,087
-531,335	800,000	-0,026	-0,074
-530,321	36,604	-0,088	0,056
-529,306	8,102	-0,046	-0,025
-528,291	120,225	-0,105	0,094
-527,277	77,379	-0,041	-0,031
-526,262	137,255	-0,020	-0,019
-525,248	-51,620	0,056	0,019
-524,233	560,734	0,013	0,022
-523,218	-35,888	-0,045	0,018
-522,204	478,527	0,042	0,069
-521,189	-200,000	-0,016	-0,132
-520,175	121,080	-0,125	-0,112
-519,160	81,888	-0,107	-0,084
-518,145	-192,660	0,135	-0,001
-517,131	-97,719	0,106	0,020
-516,116	-200,000	0,005	-0,031
-515,102	17,843	0,095	0,054
-514,087	1,023	-0,058	0,030
-513,072	-200,000	-0,018	-0,095
-512,058	-200,000	0,009	-0,096
-511,043	-141,990	0,150	0,011
-510,029	300,932	-0,057	0,076
-509,014	-200,000	-0,004	0,093
-507,999	-200,000	-0,014	0,226
-506,985	-0,341	0,087	-0,044
-505,970	-96,324	-0,203	-0,038
-504,956	-129,233	-0,090	0,009
-503,941	-200,000	0,004	-0,024
-502,926	-78,943	0,068	0,017
-501,912	-144,000	-0,236	0,016
-500,897	64,272	-0,045	0,033
-499,883	341,816	-0,042	-0,059
-498,868	-200,000	0,009	-0,034
-497,853	394,743	0,036	-0,055
-496,839	-106,082	-0,116	0,019
-495,824	-98,040	0,084	0,015
-494,810	68,757	0,081	0,060
-493,795	-200,000	0,104	0,000
-492,781	178,779	-0,109	-0,115
-491,766	-200,000	-0,034	0,114
-490,751	125,568	0,085	-0,077
-489,737	-30,872	0,031	-0,013
-488,722	187,474	0,047	-0,051
-487,708	-45,820	0,165	0,058
-486,693	-163,863	0,011	-0,000
-485,678	347,114	0,046	-0,065
-484,664	87,878	-0,070	-0,056
-483,649	-200,000	-0,014	-0,091
-482,635	-52,648	-0,098	0,032
-481,620	-103,269	0,067	-0,011
-480,605	-200,000	0,029	0,170
-479,591	-117,259	0,091	0,012
-478,576	-200,000	-0,023	0,102
-477,562	334,437	-0,089	-0,124
-476,547	-136,421	-0,111	-0,009
-475,532	-59,439	-0,016	0,005
-474,518	-200,000	-0,008	-0,169
-473,503	-20,399	-0,127	0,056
-472,489	-109,532	0,054	-0,008
-471,474	-200,000	-0,009	0,045
-470,459	-200,000	-0,009	-0,048
-469,445	800,000	0,031	0,094
-468,430	-200,000	0,022	0,149
-467,416	70,899	0,090	0,067
-466,401	496,061	0,103	0,171
-465,386	-90,813	0,107	0,022
-464,372	42,497	0,052	0,034
-463,357	-200,000	-0,018	-0,108
-462,343	-4,522	-0,218	0,108
-461,328	-84,013	-0,095	-0,022
-460,313	800,000	0,020	-0,046
-459,299	-200,000	-0,004	-0,018
-458,284	-175,660	0,144	-0,003
-457,270	-105,087	-0,128	0,021
-456,255	-38,699	0,095	-0,036
-455,241	-85,793	-0,016	0,003
-454,226	-120,605	-0,024	0,003
-453,211	51,266	-0,042	-0,028
-452,197	67,113	0,177	0,130
-451,182	-200,000	-0,008	0,148
-450,168	156,092	0,066	0,066
-449,153	126,475	-0,035	-0,032
-448,138	-130,707	-0,063	0,006
-447,124	140,951	0,052	-0,050
-446,109	30,362	-0,111	-0,068
-445,095	159,379	0,041	-0,042
-444,080	97,032	0,061	0,050
-443,065	-140,364	0,095	-0,007
-442,051	-17,513	-0,182	0,082
-441,036	242,493	0,034	0,041
-440,022	-34,188	0,079	0,031
-439,007	334,550	-0,036	0,050
-437,992	-200,000	0,051	0,000
-436,978	-200,000	0,071	0,273
-435,963	-167,490	-0,194	0,005
-434,949	800,000	0,021	0,053
-433,934	26,865	0,054	-0,032
-432,919	-200,000	0,011	-0,103
-431,905	98,550	-0,108	0,089
-430,890	168,730	0,087	0,090
-429,876	-200,000	0,008	0,097
-428,861	-40,268	0,019	-0,007
-427,846	126,625	-0,052	-0,048
-426,832	53,835	0,057	0,040
-425,817	-176,690	0,076	0,001
-424,803	89,003	0,052	0,042
-423,788	-18,803	-0,094	-0,042
-422,773	615,263	0,030	0,055
-421,759	-200,000	-0,004	0,033
-420,744	-200,000	0,028	0,091
-419,730	-200,000	-0,016	0,085
-418,715	7,094	0,103	-0,055
-417,701	181,094	0,029	0,030
-416,686	192,879	-0,040	0,044
-415,671	-200,000	0,005	0,028
-414,657	40,849	-0,111	0,072
-413,642	-200,000	-0,009	-0,081
-412,628	190,071	0,036	-0,039
-411,613	85,464	0,142	-0,112
-410,598	235,938	-0,068	-0,081
-409,584	54,500	0,101	-0,070
-408,569	221,961	-0,047	0,055
-407,555	-135,348	0,213	-0,018
-406,540	-126,482	0,018	0,002
-405,525	274,629	-0,028	-0,036
-404,511	48,976	-0,108	-0,073
-403,496	173,241	-0,086	-0,090
-402,482	-5,061	0,098	0,048
-401,467	800,000	0,054	0,133
-400,452	-172,276	-0,019	-0,000
-399,438	202,171	-0,036	0,040
-398,423	-200,000	0,018	0,060
-397,409	-200,000	-0,006	-0,138
-396,394	256,328	0,042	0,052
-395,379	-200,000	0,003	-0,142
-394,365	-15,797	0,050	-0,023
-393,350	-67,774	0,131	0,037
-392,336	366,157	-0,044	-0,064
-391,321	372,696	0,033	0,048
-390,306	299,843	-0,059	-0,079
-389,292	6,673	-0,102	-0,054
-388,277	-200,000	-0,014	0,131
-387,263	-30,299	0,053	-0,022
-386,248	-200,000	-0,002	-0,083
-385,233	216,218	0,023	0,026
-384,219	-26,529	-0,157	-0,066
-383,204	27,339	-0,136	0,082
-382,190	-184,119	0,111	0,001
-381,175	-39,113	0,071	0,027
-380,160	13,346	0,072	-0,040
-379,146	55,508	0,076	-0,053
-378,131	173,972	0,031	0,032
-377,117	-200,000	0,020	-0,066
-376,102	-145,565	-0,088	0,006
-375,088	-154,686	0,072	-0,003
-374,073	800,000	-0,043	-0,100
-373,058	196,764	-0,116	-0,127
-372,044	440,615	0,059	-0,092
-371,029	-39,172	0,024	0,009
-370,015	341,471	0,021	0,029
-369,000	-80,494	-0,115	-0,027
-367,985	-117,015	-0,158	0,021
-366,971	64,615	0,037	-0,027
-365,956	-200,000	-0,004	-0,058
-364,942	-170,602	0,052	0,001
-363,927	-76,015	0,078	0,020
-362,912	-50,082	-0,029	0,010
-361,898	361,174	-0,058	-0,084
-360,883	800,000	-0,065	-0,162
-359,869	-200,000	0,036	0,115
-358,854	708,427	-0,033	0,062
-357,839	-177,950	-0,129	0,002
-356,825	800,000	0,048	0,099
-355,810	-200,000	-0,002	-0,039
-354,796	-200,000	0,016	0,058
-353,781	52,524	-0,085	-0,058
-352,766	-94,764	0,104	-0,020
-351,752	487,644	0,038	-0,062
-350,737	-87,625	0,073	-0,016
-349,723	-68,785	0,085	-0,023
-348,708	670,092	-0,053	-0,099
-347,693	-200,000	0,004	0,111
-346,679	-93,425	-0,064	0,013
-345,664	-61,190	0,132	-0,040
-344,650	671,400	0,020	0,037
-343,635	324,108	0,020	-0,028
-342,620	145,388	0,113	0,108
-341,606	-135,635	0,159	-0,013
-340,591	-17,521	0,076	0,034
-339,577	99,264	-0,126	-0,105
-338,562	218,357	0,042	0,048
-337,548	123,315	-0,026	-0,023
-336,533	-200,000	0,000	-0,007
-335,518	-69,441	0,016	0,004
-334,504	-195,308	-0,076	0,000
-333,489	32,147	0,028	-0,017
-332,475	800,000	-0,059	-0,158
-331,460	17,921	0,165	-0,094
-330,445	-113,711	-0,147	0,020
-329,431	97,972	-0,058	0,048
-328,416	134,407	0,084	0,078
-327,402	-200,000	-0,005	0,056
-326,387	-150,936	0,099	0,005
-325,372	-71,547	-0,064	0,017
-324,358	330,119	-0,036	-0,050
-323,343	-65,976	0,230	-0,065
-322,329	16,949	-0,022	0,013
-321,314	-200,000	-0,012	-0,048
-320,299	-104,846	0,080	-0,013
-319,285	-200,000	-0,001	0,034
-318,270	-88,352	-0,076	-0,016
-317,256	-200,000	-0,013	-0,081
-316,241	84,041	-0,095	-0,074
-315,226	-12,787	0,056	0,026
-314,212	61,822	0,124	0,088
-313,197	165,884	-0,070	0,071
-312,183	-200,000	0,000	0,016
-311,168	132,931	0,014	-0,013
-310,153	-17,199	-0,176	-0,079
-309,139	-200,000	-0,043	-0,152
-308,124	-60,660	0,051	-0,015
-307,110	-76,635	0,107	0,027
-306,095	-42,843	0,137	0,050
-305,080	423,341	0,105	-0,162
-304,066	-200,000	0,002	0,080
-303,051	200,595	-0,030	-0,033
-302,037	-200,000	0,020	-0,074
-301,022	455,950	0,049	0,078
-300,008	-200,000	-0,002	0,162
-298,993	-200,000	0,001	0,057
-297,978	-28,657	-0,082	-0,034
-296,964	-200,000	-0,015	-0,089
-295,949	422,738	-0,102	0,158
-294,935	239,660	0,043	0,051
-293,920	-127,729	0,057	-0,006
-292,905	30,398	-0,056	0,034
-291,891	-200,000	0,011	-0,062
-290,876	-200,000	-0,016	0,142
-289,862	774,225	-0,069	-0,135
-288,847	800,000	0,036	0,075
-287,832	454,335	0,041	-0,066
-286,818	165,170	-0,104	0,106
-285,803	-200,000	0,056	0,230
-284,789	323,719	0,104	0,143
-283,774	-200,000	-0,007	0,027
-282,759	800,000	-0,068	0,156
-281,745	-200,000	-0,004	0,072
-280,730	384,492	0,007	-0,010
-279,716	-200,000	0,001	-0,064
-278,701	-200,000	0,016	0,092
-277,686	800,000	0,028	0,057
-276,672	665,847	-0,058	-0,107
-275,657	-80,445	0,106	0,025
-274,643	-31,682	0,114	0,045
-273,628	-14,636	-0,131	0,060
-272,613	-200,000	0,041	-0,156
-271,599	211,026	-0,139	0,156
-270,584	192,915	0,022	0,024
-269,570	-113,922	0,067	0,009
-268,555	-20,648	0,064	0,028
-267,540	-90,174	-0,005	0,001
-266,526	265,513	0,026	0,032
-265,511	264,749	-0,045	0,056
-264,497	26,623	-0,077	-0,046
-263,482	-200,000	0,028	0,134
-262,467	109,114	-0,067	0,057
-261,453	-32,174	0,139	-0,055
-260,438	-78,643	-0,109	-0,026
-259,424	-200,000	-0,030	-0,159
-258,409	-168,762	-0,021	-0,001
-257,395	800,000	0,046	0,134
-256,380	-76,615	-0,151	0,038
-255,365	-57,715	0,231	-0,072
-254,351	-200,000	-0,014	0,056
-253,336	11,034	-0,241	-0,131
-252,322	-200,000	-0,011	-0,136
-251,307	-71,780	-0,178	0,047
-250,292	120,758	0,081	0,072
-249,278	77,062	0,119	-0,090
-248,263	-200,000	0,008	0,074
-247,249	76,251	-0,118	0,089
-246,234	-11,380	-0,050	-0,024
-245,219	307,347	-0,080	-0,107
-244,205	223,431	-0,086	-0,099
-243,190	-200,000	-0,001	0,024
-242,176	196,578	0,054	-0,059
-241,161	-200,000	0,035	0,113
-240,146	-200,000	0,028	-0,109
-239,132	303,442	-0,030	0,040
-238,117	800,000	-0,038	-0,076
-237,103	-122,089	-0,101	0,012
-236,088	-127,523	0,097	0,010
-235,073	-74,633	0,110	-0,028
-234,059	800,000	0,039	0,078
-233,044	-3,269	0,124	0,062
-232,030	6,146	0,058	0,030
-231,015	-200,000	-0,019	-0,117
-230,000	60,737	-0,073	-0,052
-228,986	-200,000	-0,023	-0,093
-227,971	62,135	0,029	-0,021
-226,957	401,772	0,072	0,108
-225,942	168,990	0,033	0,034
-224,927	0,570	-0,103	0,053
-223,913	198,481	-0,081	-0,089
-222,898	800,000	0,091	-0,203
-221,884	-44,204	0,033	-0,012
-220,869	4,435	0,150	0,078
-219,855	-200,000	-0,044	0,140
-218,840	21,143	0,103	-0,060
-217,825	800,000	-0,058	-0,136
-216,811	800,000	-0,029	-0,077
-215,796	205,108	-0,058	-0,064
-214,782	112,488	0,107	-0,092
-213,767	-200,000	0,018	-0,190
-212,752	180,258	0,044	0,046
-211,738	800,000	-0,010	-0,022
-210,723	312,240	0,049	0,065
-209,709	-2,538	0,030	0,015
-208,694	91,871	-0,068	-0,055
-207,679	-145,142	-0,112	-0,007
-206,665	-200,000	-0,017	0,182
-205,650	224,924	0,050	0,057
-204,636	-200,000	0,004	0,048
-203,621	-24,880	0,131	-0,055
-202,606	800,000	0,017	0,042
-201,592	-200,000	-0,013	-0,067
-200,577	-28,661	0,074	-0,030
-199,563	-33,327	-0,099	-0,039
-198,548	-200,000	0,019	-0,077
-197,533	-100,623	-0,165	0,029
-196,519	-200,000	0,022	-0,080
-195,504	800,000	0,052	-0,119
-194,490	-200,000	-0,024	-0,113
-193,475	178,357	-0,094	-0,098
-192,460	-54,881	-0,045	-0,015
-191,446	800,000	0,062	0,131
-190,431	-181,244	0,175	-0,002
-189,417	-200,000	0,015	-0,050
-188,402	-200,000	0,001	0,077
-187,387	-58,702	-0,084	0,026
-186,373	212,386	-0,069	0,078
-185,358	-200,000	-0,020	0,081
-184,344	800,000	0,065	0,183
-183,329	-47,571	0,124	0,043
-182,315	-200,000	-0,038	0,123
-181,300	-62,602	-0,140	0,041
-180,285	121,109	-0,057	-0,051
-179,271	224,007	-0,097	-0,112
-178,256	-101,431	-0,061	-0,011
-177,242	-200,000	0,006	0,079
-176,227	-62,687	0,084	-0,025
-175,212	-200,000	0,007	0,055
-174,198	62,456	0,093	0,066
-173,183	129,865	-0,104	-0,095
-172,169	85,579	-0,121	-0,095
-171,154	-77,450	-0,123	0,030
-170,139	99,617	0,021	-0,018
-169,125	62,312	0,033	-0,024
-168,110	-155,830	0,146	-0,007
-167,096	6,811	0,108	0,057
-166,081	-3,332	-0,078	0,038
-165,066	-200,000	0,018	0,128
-164,052	800,000	-0,006	-0,016
-163,037	800,000	0,022	0,065
-162,023	-90,746	0,098	0,020
-161,008	800,000	0,070	0,193
-159,993	157,672	0,083	-0,082
-158,979	-34,045	0,113	-0,044
-157,964	538,521	-0,030	0,051
-156,950	-140,083	-0,054	0,004
-155,935	800,000	0,062	-0,143
-154,920	-200,000	-0,003	-0,015
-153,906	-21,924	0,020	0,009
-152,891	246,260	0,004	0,005
-151,877	258,818	-0,013	0,015
-150,862	285,742	-0,044	0,057
-149,847	-36,262	0,077	-0,030
-148,833	-174,027	-0,053	-0,001
-147,818	117,908	0,065	0,057
-146,804	298,463	-0,038	-0,049
-145,789	225,652	0,007	-0,008
-144,775	-200,000	0,002	0,068
-143,760	247,981	-0,035	-0,042
-142,745	-200,000	-0,008	0,029
-141,731	-57,097	0,040	0,013
-140,716	63,383	0,041	-0,029
-139,702	-104,714	0,082	-0,013
-138,687	19,531	0,140	0,080
-137,672	65,239	0,058	0,042
-136,658	-200,000	0,041	-0,169
-135,643	104,359	-0,052	-0,044
-134,629	800,000	-0,051	-0,116
-133,614	-115,322	0,041	0,005
-132,599	-98,502	0,129	0,023
-131,585	90,977	0,028	0,022
-130,570	442,922	0,024	-0,037
-129,556	298,575	-0,032	0,042
-128,541	-29,879	-0,109	0,044
-127,526	-200,000	0,007	-0,023
-126,512	338,114	-0,065	0,090
-125,497	224,851	0,076	-0,088
-124,483	-25,055	0,072	0,030
-123,468	-113,612	-0,118	0,016
-122,453	98,842	-0,077	0,063
-121,439	-17,403	0,156	0,070
-120,424	-19,828	0,077	0,034
-119,410	-200,000	0,028	0,158
