DTS Sentinel unit serial number:	SN410029Multiplexer serial number:	ORYXHardware model number:	OX2-SRSoftware version number:	ORYX F/W v4,00 Oryx Data Collector v3.7.2.0data status	okinstallation	BH3 CH2differential loss correction	single-endedforward channel	channel 2reverse channel	N/Adate	2023/12/05time	20:47:28forward acquisition time	300,00reverse acquisition time	0,00gamma	499,1914k internal	0,3193k external	0,3193temperature offset calibration	1,0000default loss term (dB/km)	0,3820temperature slope calibration	1,0000multiplexer offset coefficient	1,0000multiplexer slope coefficient	1,0000fibre end	0,00T internal ref (°C)	10,42T ext. ref 1 (°C)	-4,39T ext. ref 2 (°C)	-4,48length (m)	temperature (°C)	Stokes	anti-Stokes-744,400	800,000	0,095	-0,215
-743,385	-29,781	-0,223	0,092
-742,371	800,000	-0,056	-0,114
-741,356	-200,000	-0,034	0,110
-740,342	-200,000	0,012	-0,112
-739,327	142,115	-0,166	0,160
-738,312	-200,000	-0,029	-0,125
-737,298	-103,174	-0,350	0,060
-736,283	-150,095	-0,076	-0,004
-735,269	-48,634	-0,274	0,095
-734,254	227,853	0,041	-0,049
-733,239	-102,648	-0,361	-0,062
-732,225	-132,529	0,118	0,011
-731,210	800,000	-0,020	0,052
-730,196	321,118	0,046	-0,064
-729,181	800,000	0,010	0,030
-728,167	734,902	0,058	0,114
-727,152	-61,642	-0,181	-0,055
-726,137	-200,000	0,009	0,100
-725,123	-200,000	0,027	0,136
-724,108	-200,000	0,016	-0,098
-723,094	-101,558	-0,188	-0,033
-722,079	569,748	-0,085	-0,151
-721,064	106,260	-0,046	-0,039
-720,050	15,830	-0,086	0,049
-719,035	-103,538	-0,153	0,026
-718,021	-200,000	-0,024	-0,125
-717,006	800,000	0,034	-0,104
-715,991	-83,319	-0,085	-0,020
-714,977	59,219	-0,092	0,066
-713,962	254,841	-0,005	-0,006
-712,948	-12,603	0,144	0,068
-711,933	800,000	-0,071	0,161
-710,918	-42,369	0,035	-0,013
-709,904	-141,775	-0,060	0,004
-708,889	278,539	-0,061	-0,079
-707,875	85,499	0,025	0,020
-706,860	-51,647	0,060	0,020
-705,845	143,245	-0,025	0,024
-704,831	42,585	-0,007	0,005
-703,816	-200,000	-0,020	-0,069
-702,802	800,000	-0,060	0,137
-701,787	575,188	-0,052	-0,093
-700,772	-8,001	0,029	-0,014
-699,758	231,549	0,027	0,032
-698,743	-47,198	0,059	-0,021
-697,729	-82,725	-0,053	-0,012
-696,714	464,414	-0,043	0,070
-695,699	800,000	0,030	0,065
-694,685	5,800	0,031	-0,017
-693,670	-200,000	-0,046	-0,210
-692,656	-88,083	-0,115	0,025
-691,641	9,606	-0,095	-0,052
-690,627	758,184	0,032	0,063
-689,612	-200,000	0,014	0,064
-688,597	81,018	-0,058	-0,045
-687,583	-200,000	-0,016	-0,081
-686,568	-80,122	-0,127	0,031
-685,554	113,097	0,019	-0,017
-684,539	225,760	-0,034	0,040
-683,524	800,000	-0,020	-0,056
-682,510	-159,471	0,005	0,000
-681,495	-157,668	-0,066	-0,003
-680,481	-90,685	-0,176	-0,037
-679,466	0,337	0,062	-0,032
-678,451	-200,000	0,003	-0,040
-677,437	-200,000	0,002	-0,176
-676,422	-200,000	0,001	-0,062
-675,408	69,557	0,082	0,062
-674,393	-0,507	-0,156	-0,080
-673,378	-40,736	-0,055	0,021
-672,364	-125,493	0,094	-0,010
-671,349	369,170	-0,123	-0,182
-670,335	195,643	0,065	0,072
-669,320	-25,452	0,099	-0,042
-668,305	389,716	-0,118	0,178
-667,291	800,000	0,024	-0,069
-666,276	-200,000	0,009	-0,052
-665,262	-200,000	0,005	-0,060
-664,247	468,102	-0,069	-0,113
-663,232	258,111	-0,115	-0,144
-662,218	-73,664	-0,028	-0,007
-661,203	-200,000	0,010	-0,048
-660,189	109,746	-0,065	0,056
-659,174	-200,000	0,006	0,028
-658,159	800,000	0,019	0,040
-657,145	7,567	-0,129	-0,070
-656,130	294,476	0,053	-0,071
-655,116	104,066	0,082	0,070
-654,101	800,000	0,027	0,056
-653,086	-131,461	-0,128	-0,012
-652,072	62,319	0,062	-0,045
-651,057	800,000	-0,032	0,101
-650,043	-200,000	0,009	-0,086
-649,028	106,735	-0,040	-0,035
-648,014	-86,898	0,207	0,045
-646,999	-200,000	-0,005	-0,050
-645,984	800,000	-0,074	-0,194
-644,970	-200,000	0,018	-0,082
-643,955	-81,825	-0,070	0,016
-642,941	-200,000	-0,007	-0,095
-641,926	800,000	-0,043	-0,087
-640,911	800,000	0,057	0,159
-639,897	269,188	-0,102	0,131
-638,882	48,163	0,068	0,046
-637,868	-200,000	-0,012	0,209
-636,853	-200,000	-0,017	0,062
-635,838	-200,000	-0,003	-0,080
-634,824	620,621	-0,026	-0,047
-633,809	-94,621	-0,035	0,007
-632,795	-200,000	0,008	-0,040
-631,780	25,446	0,087	0,052
-630,765	-200,000	-0,003	0,107
-629,751	-200,000	-0,036	-0,219
-628,736	-139,365	-0,056	0,004
-627,722	-200,000	0,014	-0,071
-626,707	444,892	-0,045	0,072
-625,692	800,000	0,039	0,112
-624,678	-105,856	0,147	-0,024
-623,663	-200,000	-0,011	0,053
-622,649	-200,000	-0,007	-0,156
-621,634	196,353	-0,081	-0,090
-620,619	800,000	-0,025	0,063
-619,605	104,103	-0,037	-0,032
-618,590	251,280	-0,089	0,110
-617,576	800,000	-0,062	0,159
-616,561	-37,709	-0,098	-0,038
-615,546	-105,656	0,191	-0,031
-614,532	-30,466	0,093	-0,038
-613,517	800,000	0,056	0,122
-612,503	-200,000	-0,002	0,020
-611,488	-96,766	0,043	-0,008
-610,474	800,000	0,040	0,117
-609,459	800,000	0,057	0,118
-608,444	-113,953	-0,046	-0,006
-607,430	800,000	0,069	-0,167
-606,415	341,146	-0,011	-0,015
-605,401	11,649	0,078	-0,043
-604,386	29,969	0,139	0,086
-603,371	-14,666	0,023	0,010
-602,357	30,193	-0,127	-0,078
-601,342	676,296	0,038	-0,072
-600,328	800,000	-0,035	-0,104
-599,313	-200,000	0,013	-0,049
-598,298	150,137	-0,012	-0,012
-597,284	255,751	0,077	0,096
-596,269	179,378	0,019	0,020
-595,255	-63,274	0,064	-0,019
-594,240	-200,000	-0,018	-0,217
-593,225	-8,717	-0,122	-0,059
-592,211	54,848	-0,067	-0,047
-591,196	-131,275	0,023	-0,002
-590,182	31,775	0,051	0,032
-589,167	0,786	-0,025	-0,013
-588,152	-200,000	0,043	0,142
-587,138	-75,431	0,056	0,014
-586,123	-200,000	0,012	-0,189
-585,109	286,283	0,024	-0,031
-584,094	386,325	0,047	0,070
-583,079	-200,000	0,031	0,123
-582,065	-200,000	0,032	0,110
-581,050	26,893	0,044	0,027
-580,036	-200,000	-0,015	0,092
-579,021	-46,808	-0,104	-0,037
-578,006	-200,000	-0,006	-0,135
-576,992	800,000	0,031	-0,095
-575,977	40,256	-0,043	-0,028
-574,963	42,892	0,080	0,053
-573,948	-131,262	-0,247	0,023
-572,934	369,313	0,054	-0,080
-571,919	-73,032	-0,098	-0,026
-570,904	-7,535	-0,110	0,054
-569,890	800,000	-0,031	-0,075
-568,875	161,902	-0,087	-0,088
-567,861	195,013	-0,032	0,035
-566,846	729,148	-0,010	-0,018
-565,831	558,880	0,067	0,117
-564,817	30,795	-0,053	0,033
-563,802	800,000	-0,071	0,157
-562,788	407,332	-0,059	0,090
-561,773	728,284	0,030	0,058
-560,758	-9,650	-0,134	0,065
-559,744	-69,215	0,076	-0,021
-558,729	239,361	-0,032	0,038
-557,715	-53,218	0,158	-0,052
-556,700	-200,000	0,007	-0,136
-555,685	800,000	-0,035	-0,071
-554,671	-200,000	0,011	0,114
-553,656	-33,889	0,079	-0,031
-552,642	-170,709	-0,119	0,003
-551,627	-39,520	0,138	-0,052
-550,612	-200,000	-0,042	-0,160
-549,598	284,611	-0,113	-0,147
-548,583	-200,000	-0,022	-0,149
-547,569	320,126	-0,021	0,029
-546,554	-10,695	-0,037	0,018
-545,539	-72,529	0,063	-0,017
-544,525	-121,168	0,176	-0,021
-543,510	582,658	-0,076	-0,135
-542,496	24,572	-0,094	0,056
-541,481	800,000	-0,086	-0,185
-540,466	21,560	-0,120	-0,070
-539,452	800,000	-0,025	0,051
-538,437	404,089	-0,044	0,067
-537,423	800,000	0,014	-0,030
-536,408	-59,100	-0,054	-0,017
-535,393	-42,939	-0,045	-0,016
-534,379	293,146	-0,036	-0,048
-533,364	483,219	-0,020	0,033
-532,350	-10,200	0,010	0,005
-531,335	-200,000	0,023	0,104
-530,321	-125,418	0,037	0,004
-529,306	-5,129	-0,083	-0,041
-528,291	-200,000	0,006	-0,052
-527,277	-200,000	-0,020	-0,097
-526,262	-69,060	0,057	-0,016
-525,248	-200,000	-0,013	0,114
-524,233	-200,000	0,004	-0,061
-523,218	-116,137	0,107	-0,014
-522,204	-36,751	-0,074	0,029
-521,189	172,180	-0,060	-0,062
-520,175	-200,000	0,006	-0,026
-519,160	207,557	-0,079	-0,089
-518,145	800,000	0,058	0,140
-517,131	136,210	0,119	0,112
-516,116	510,503	0,030	0,050
-515,102	-200,000	-0,032	-0,108
-514,087	451,288	0,082	-0,132
-513,072	-175,488	-0,113	-0,002
-512,058	104,120	-0,042	-0,036
-511,043	528,532	0,088	-0,150
-510,029	715,599	-0,006	-0,011
-509,014	800,000	0,024	-0,062
-507,999	-52,134	-0,045	0,015
-506,985	332,134	-0,106	0,148
-505,970	-24,485	0,166	-0,071
-504,956	-9,918	-0,103	-0,049
-503,941	-200,000	-0,016	0,178
-502,926	-148,738	0,103	-0,006
-501,912	235,168	-0,062	0,074
-500,897	306,069	-0,084	-0,114
-499,883	73,872	-0,082	0,062
-498,868	-181,482	-0,127	-0,002
-497,853	-200,000	-0,029	-0,095
-496,839	107,713	0,079	0,068
-495,824	-200,000	-0,004	0,136
-494,810	-101,628	0,026	-0,004
-493,795	117,402	-0,054	0,048
-492,781	255,983	-0,046	0,057
-491,766	202,532	0,027	0,030
-490,751	85,314	-0,093	-0,073
-489,737	18,058	0,084	-0,048
-488,722	-79,018	0,044	-0,011
-487,708	-160,941	-0,046	0,002
-486,693	74,881	0,044	0,033
-485,678	-200,000	-0,012	-0,043
-484,664	-121,541	-0,081	-0,010
-483,649	-200,000	-0,011	0,162
-482,635	-200,000	0,010	0,069
-481,620	800,000	-0,028	0,070
-480,605	200,300	0,102	0,113
-479,591	58,750	-0,109	0,077
-478,576	59,272	-0,052	-0,037
-477,562	800,000	-0,023	0,048
-476,547	-154,456	-0,091	0,004
-475,532	-167,657	-0,027	0,001
-474,518	-200,000	-0,026	0,186
-473,503	374,839	0,025	0,037
-472,489	-200,000	0,022	0,082
-471,474	358,587	-0,073	0,106
-470,459	238,273	0,080	0,096
-469,445	-8,161	0,122	0,059
-468,430	-200,000	-0,003	-0,036
-467,416	-17,568	0,110	-0,050
-466,401	-0,917	-0,099	-0,050
-465,386	449,315	0,068	0,108
-464,372	800,000	0,023	-0,048
-463,357	668,181	-0,021	-0,038
-462,343	-128,876	-0,096	-0,010
-461,328	50,000	-0,034	0,023
-460,313	800,000	-0,016	-0,042
-459,299	714,739	-0,067	0,128
-458,284	800,000	0,073	0,189
-457,270	14,049	0,034	0,019
-456,255	-31,442	0,052	-0,021
-455,241	-176,445	-0,183	0,003
-454,226	-82,510	-0,071	-0,017
-453,211	800,000	0,026	-0,058
-452,197	-38,337	-0,075	-0,028
-451,182	800,000	0,029	0,059
-450,168	-146,662	-0,063	-0,004
-449,153	100,315	0,027	0,023
-448,138	711,267	0,027	0,053
-447,124	-200,000	-0,043	-0,142
-446,109	-89,274	0,069	0,015
-445,095	-39,105	-0,128	-0,048
-444,080	95,890	-0,045	-0,037
-443,065	6,871	-0,042	-0,022
-442,051	-172,514	0,083	-0,002
-441,036	147,511	-0,086	0,083
-440,022	-200,000	0,010	-0,099
-439,007	-64,639	-0,068	-0,020
-437,992	-60,313	0,037	-0,011
-436,978	42,964	0,102	0,067
-435,963	800,000	0,032	-0,083
-434,949	535,465	0,016	0,028
-433,934	101,327	-0,032	0,027
-432,919	-59,477	-0,160	-0,049
-431,905	622,815	-0,053	-0,097
-430,890	-20,530	0,088	0,039
-429,876	69,741	0,060	0,044
-428,861	357,473	0,025	0,037
-427,846	-34,759	0,122	0,048
-426,832	-28,075	-0,087	-0,036
-425,817	2,183	-0,036	-0,018
-424,803	-200,000	-0,016	-0,157
-423,788	117,658	-0,095	0,084
-422,773	75,952	0,103	-0,078
-421,759	800,000	0,017	0,040
-420,744	332,203	0,069	0,097
-419,730	-200,000	0,005	-0,029
-418,715	595,561	-0,044	-0,079
-417,701	-159,035	-0,119	-0,005
-416,686	-90,631	-0,056	-0,011
-415,671	-24,927	0,097	0,041
-414,657	-200,000	-0,003	0,039
-413,642	-200,000	0,009	-0,044
-412,628	139,347	-0,072	0,068
-411,613	-1,289	-0,135	-0,068
-410,598	-200,000	0,007	-0,126
-409,584	13,568	0,009	-0,005
-408,569	377,622	0,107	0,158
-407,555	18,541	0,037	0,021
-406,540	800,000	-0,023	0,061
-405,525	680,725	0,030	-0,057
-404,511	73,236	-0,137	-0,103
-403,496	396,262	0,043	0,065
-402,482	89,914	-0,150	-0,121
-401,467	172,762	0,108	0,112
-400,452	-71,470	-0,069	0,018
-399,438	-112,410	0,056	0,008
-398,423	-31,198	0,099	0,040
-397,409	-40,168	-0,050	-0,019
-396,394	-200,000	-0,010	-0,107
-395,379	232,926	0,062	-0,074
-394,365	-70,773	-0,040	0,011
-393,350	-114,142	0,130	0,018
-392,336	-19,478	-0,088	0,039
-391,321	319,198	-0,105	0,143
-390,306	-55,668	-0,125	-0,040
-389,292	21,350	0,102	-0,060
-388,277	800,000	-0,078	-0,178
-387,263	219,844	0,063	0,073
-386,248	800,000	0,056	0,168
-385,233	-200,000	0,002	0,011
-384,219	800,000	-0,024	-0,074
-383,204	143,782	0,063	0,060
-382,190	-200,000	0,010	-0,036
-381,175	-176,731	-0,091	-0,002
-380,160	-126,108	0,087	-0,009
-379,146	-105,361	0,061	0,010
-378,131	800,000	0,091	0,215
-377,117	800,000	0,035	0,096
-376,102	-200,000	0,009	-0,030
-375,088	-200,000	0,023	-0,176
-374,073	800,000	0,014	0,041
-373,058	188,207	0,018	0,020
-372,044	-5,281	0,027	0,013
-371,029	-90,309	-0,010	0,002
-370,015	800,000	0,010	-0,029
-369,000	-200,000	0,002	0,050
-367,985	-135,191	-0,088	-0,007
-366,971	-200,000	-0,010	-0,051
-365,956	-150,770	-0,058	0,003
-364,942	39,028	0,083	0,053
-363,927	637,447	0,069	0,127
-362,912	59,706	0,123	0,087
-361,898	-100,547	0,061	-0,011
-360,883	-200,000	0,038	0,163
-359,869	-90,011	0,036	0,008
-358,854	-39,362	0,090	-0,034
-357,839	-200,000	0,005	0,061
-356,825	-200,000	-0,033	0,123
-355,810	12,086	0,113	0,063
-354,796	37,243	-0,073	0,046
-353,781	-200,000	0,038	0,127
-352,766	-40,959	0,153	0,056
-351,752	-69,192	-0,077	0,021
-350,737	237,582	-0,013	0,016
-349,723	-200,000	0,021	0,092
-348,708	306,298	0,063	0,084
-347,693	-121,072	0,081	0,010
-346,679	-200,000	-0,001	-0,100
-345,664	-144,893	-0,062	0,004
-344,650	-84,457	-0,048	0,011
-343,635	548,910	0,026	0,046
-342,620	129,719	0,117	0,108
-341,606	-200,000	-0,035	0,119
-340,591	174,217	0,048	0,049
-339,577	248,362	-0,069	-0,084
-338,562	800,000	0,029	-0,066
-337,548	136,604	-0,082	-0,077
-336,533	299,935	0,100	0,133
-335,518	800,000	0,047	0,133
-334,504	-61,794	0,065	-0,019
-333,489	-190,492	0,114	0,001
-332,475	800,000	-0,028	0,058
-331,460	62,821	-0,029	0,021
-330,445	73,077	-0,097	-0,072
-329,431	-200,000	0,002	-0,060
-328,416	86,185	0,063	-0,049
-327,402	-166,985	-0,060	-0,002
-326,387	177,453	0,075	0,078
-325,372	39,537	0,092	-0,059
-324,358	800,000	0,054	-0,161
-323,343	-200,000	-0,000	0,059
-322,329	79,869	-0,018	0,014
-321,314	-61,386	0,095	0,029
-320,299	-82,946	0,065	-0,015
-319,285	94,434	0,130	-0,106
-318,270	-156,547	-0,151	-0,007
-317,256	800,000	0,009	-0,027
-316,241	578,469	0,028	0,050
-315,226	77,448	0,042	-0,032
-314,212	47,494	0,081	-0,054
-313,197	27,219	0,036	-0,022
-312,183	166,959	0,072	-0,073
-311,168	362,971	0,048	0,070
-310,153	-200,000	-0,021	-0,090
-309,139	266,833	0,063	-0,080
-308,124	-31,924	0,094	0,038
-307,110	493,550	-0,035	-0,058
-306,095	589,913	-0,036	0,064
-305,080	-61,865	0,080	0,024
-304,066	800,000	0,015	0,031
-303,051	376,517	0,018	-0,026
-302,037	155,082	-0,006	-0,006
-301,022	-200,000	0,016	-0,066
-300,008	-121,480	0,164	-0,019
-298,993	-200,000	0,000	0,021
-297,978	-104,566	-0,092	0,015
-296,964	-200,000	-0,003	-0,068
-295,949	-51,117	-0,085	-0,028
-294,935	-43,890	0,180	-0,065
-293,920	67,435	-0,022	-0,016
-292,905	132,555	-0,084	-0,078
-291,891	41,199	-0,053	0,035
-290,876	-125,871	-0,060	0,006
-289,862	449,592	-0,037	0,058
-288,847	152,458	0,172	-0,168
-287,832	12,503	-0,029	-0,016
-286,818	212,497	-0,030	0,033
-285,803	87,480	0,096	0,076
-284,789	-200,000	-0,003	0,065
-283,774	800,000	0,030	-0,072
-282,759	-90,045	-0,124	-0,026
-281,745	-200,000	-0,035	0,126
-280,730	-90,772	0,055	0,011
-279,716	-27,296	0,115	-0,048
-278,701	-68,264	0,120	-0,033
-277,686	-200,000	0,006	0,030
-276,672	-200,000	0,004	0,019
-275,657	-11,436	-0,071	-0,033
-274,643	-200,000	-0,010	0,086
-273,628	-156,289	-0,049	0,002
-272,613	-134,978	-0,070	0,006
-271,599	577,346	0,069	0,121
-270,584	292,744	0,081	0,106
-269,570	131,001	-0,085	0,078
-268,555	91,399	0,069	0,056
-267,540	38,590	-0,137	-0,087
-266,526	-200,000	0,005	-0,098
-265,511	559,177	0,058	-0,101
-264,497	800,000	-0,023	-0,059
-263,482	654,790	-0,010	0,019
-262,467	628,296	0,035	0,063
-261,453	-7,524	0,067	-0,032
-260,438	-150,650	-0,080	0,004
-259,424	297,849	-0,075	-0,098
-258,409	286,373	0,040	-0,052
-257,395	-200,000	-0,020	-0,082
-256,380	-175,802	0,052	0,001
-255,365	-45,211	-0,037	-0,013
-254,351	-167,952	0,031	0,001
-253,336	214,727	0,080	-0,091
-252,322	-166,788	-0,149	0,004
-251,307	163,855	0,087	-0,088
-250,292	224,899	-0,065	-0,076
-249,278	-170,335	-0,092	0,002
-248,263	160,088	-0,129	0,129
-247,249	200,307	0,066	0,072
-246,234	-200,000	0,001	-0,134
-245,219	-95,740	0,005	-0,001
-244,205	23,774	-0,042	-0,025
-243,190	-200,000	-0,012	0,050
-242,176	-200,000	-0,005	0,141
-241,161	-200,000	-0,019	0,191
-240,146	-200,000	0,020	-0,064
-239,132	571,976	0,045	-0,078
-238,117	85,935	-0,054	0,042
-237,103	89,555	0,024	-0,019
-236,088	611,651	-0,027	0,049
-235,073	-74,634	0,023	-0,006
-234,059	508,978	0,028	0,046
-233,044	-58,189	-0,040	-0,012
-232,030	800,000	-0,045	-0,099
-231,015	671,026	0,022	-0,041
-230,000	-200,000	-0,015	-0,156
-228,986	115,011	-0,086	0,075
-227,971	-64,452	0,077	0,022
-226,957	-144,396	-0,044	0,003
-225,942	228,733	0,042	0,049
-224,927	207,548	0,095	-0,107
-223,913	45,554	0,053	-0,035
-222,898	74,361	-0,181	0,136
-221,884	4,415	-0,085	0,044
-220,869	661,217	0,032	0,058
-219,855	561,239	-0,009	-0,015
-218,840	-200,000	-0,012	0,063
-217,825	800,000	0,031	-0,091
-216,811	800,000	-0,018	0,047
-215,796	-200,000	0,006	-0,071
-214,782	800,000	0,051	-0,119
-213,767	-22,896	0,086	-0,037
-212,752	-200,000	-0,014	0,148
-211,738	28,863	0,110	0,066
-210,723	64,471	-0,092	0,066
-209,709	213,976	-0,085	-0,096
-208,694	-115,188	-0,196	-0,026
-207,679	54,044	-0,067	0,046
-206,665	-160,446	0,028	0,001
-205,650	13,037	0,040	-0,022
-204,636	-127,145	0,167	-0,017
-203,621	-192,321	0,049	0,000
-202,606	-112,205	-0,068	-0,010
-201,592	55,214	-0,019	0,013
-200,577	-200,000	0,011	-0,127
-199,563	800,000	0,062	0,154
-198,548	189,768	0,039	0,042
-197,533	-200,000	-0,004	-0,065
-196,519	-192,266	0,085	-0,001
-195,504	587,698	-0,045	0,079
-194,490	334,626	-0,042	-0,059
-193,475	800,000	-0,021	0,050
-192,460	-187,680	0,037	-0,000
-191,446	-14,491	0,086	0,039
-190,431	-200,000	0,012	-0,060
-189,417	-14,721	0,082	0,037
-188,402	34,747	-0,113	-0,070
-187,387	-88,275	0,070	0,015
-186,373	-38,301	-0,062	-0,023
-185,358	-126,832	0,139	-0,014
-184,344	363,571	0,040	0,058
-183,329	456,932	0,074	0,117
-182,315	161,939	-0,051	0,051
-181,300	19,437	-0,144	-0,082
-180,285	-200,000	0,033	-0,150
-179,271	586,005	0,054	-0,095
-178,256	156,387	0,021	-0,020
-177,242	101,105	-0,039	0,032
-176,227	-82,675	-0,095	0,022
-175,212	12,435	0,112	-0,061
-174,198	-27,396	-0,130	-0,054
-173,183	-24,938	-0,068	-0,029
-172,169	-200,000	-0,010	-0,038
-171,154	-54,153	-0,039	-0,012
-170,139	-86,805	0,073	0,016
-169,125	34,249	0,139	-0,086
-168,110	259,453	-0,052	-0,064
-167,096	800,000	-0,045	0,110
-166,081	54,750	-0,089	-0,061
-165,066	-25,081	-0,186	-0,078
-164,052	800,000	-0,033	-0,103
-163,037	45,075	0,145	-0,095
-162,023	338,056	0,052	0,072
-161,008	-200,000	0,007	-0,047
-159,993	57,232	0,042	0,029
-158,979	193,772	-0,175	-0,189
-157,964	31,491	0,096	-0,059
-156,950	-107,770	-0,021	0,003
-155,935	444,500	-0,043	0,067
-154,920	603,248	0,053	-0,094
-153,906	-140,384	-0,081	-0,006
-152,891	280,058	-0,049	0,062
-151,877	460,636	-0,040	-0,063
-150,862	-200,000	0,011	0,087
-149,847	68,721	-0,069	-0,050
-148,833	-200,000	0,031	-0,125
-147,818	-15,617	0,102	-0,046
-146,804	-200,000	-0,024	0,115
-145,789	168,169	0,087	0,088
-144,775	556,648	-0,031	0,054
-143,760	123,074	-0,023	0,021
-142,745	413,839	0,008	0,012
-141,731	408,329	-0,071	0,107
-140,716	157,868	0,094	0,093
-139,702	-38,459	0,164	0,061
-138,687	-9,784	-0,068	-0,032
-137,672	167,957	0,092	0,094
-136,658	-200,000	0,042	-0,139
-135,643	251,959	0,030	-0,036
-134,629	-15,352	-0,075	0,034
-133,614	-3,996	0,045	-0,022
-132,599	-67,429	-0,044	-0,012
-131,585	195,301	-0,034	0,037
-130,570	800,000	0,080	-0,160
-129,556	180,063	-0,102	-0,107
-128,541	-12,266	-0,083	-0,039
-127,526	12,995	-0,122	0,067
-126,512	-200,000	0,042	0,192
-125,497	793,661	-0,030	0,060
-124,483	-200,000	-0,008	-0,043
-123,468	774,973	0,004	-0,008
-122,453	48,857	-0,055	-0,037
-121,439	-24,423	-0,165	0,070
-120,424	-147,653	0,140	-0,008
-119,410	38,188	0,051	0,032
