DTS Sentinel unit serial number:	SN410029Multiplexer serial number:	ORYXHardware model number:	OX2-SRSoftware version number:	ORYX F/W v4,00 Oryx Data Collector v3.7.2.0data status	okinstallation	BH3 CH2differential loss correction	single-endedforward channel	channel 2reverse channel	N/Adate	2023/12/05time	15:32:28forward acquisition time	300,00reverse acquisition time	0,00gamma	499,1914k internal	0,3193k external	0,3193temperature offset calibration	1,0000default loss term (dB/km)	0,3820temperature slope calibration	1,0000multiplexer offset coefficient	1,0000multiplexer slope coefficient	1,0000fibre end	0,00T internal ref (°C)	11,06T ext. ref 1 (°C)	-3,27T ext. ref 2 (°C)	-3,40length (m)	temperature (°C)	Stokes	anti-Stokes-744,400	-116,162	-0,092	-0,012
-743,385	-2,123	-0,208	0,106
-742,371	-200,000	-0,005	-0,173
-741,356	155,632	-0,128	0,129
-740,342	-200,000	0,059	-0,253
-739,327	-72,980	-0,315	0,084
-738,312	307,902	-0,088	-0,120
-737,298	50,909	-0,182	0,126
-736,283	800,000	-0,020	0,045
-735,269	102,354	-0,187	0,159
-734,254	256,925	-0,029	-0,036
-733,239	-80,284	-0,362	-0,088
-732,225	-13,907	0,123	-0,058
-731,210	800,000	-0,032	0,069
-730,196	-123,625	0,124	-0,014
-729,181	-96,930	-0,093	0,018
-728,167	-200,000	-0,009	-0,055
-727,152	43,125	0,039	0,026
-726,137	37,831	-0,036	0,023
-725,123	-200,000	0,001	-0,113
-724,108	-80,340	-0,044	0,011
-723,094	93,381	0,006	0,005
-722,079	-47,907	-0,078	0,027
-721,064	-200,000	0,005	0,132
-720,050	800,000	0,020	0,043
-719,035	800,000	-0,028	-0,081
-718,021	-50,516	-0,097	-0,033
-717,006	-200,000	0,015	-0,138
-715,991	684,355	-0,071	-0,135
-714,977	800,000	-0,021	-0,060
-713,962	3,115	-0,178	-0,094
-712,948	800,000	-0,026	0,079
-711,933	-64,468	-0,031	0,009
-710,918	12,935	-0,036	-0,020
-709,904	-170,054	-0,044	0,001
-708,889	314,092	-0,094	-0,130
-707,875	40,968	-0,041	-0,027
-706,860	-72,343	0,113	-0,030
-705,845	800,000	0,046	-0,101
-704,831	800,000	0,030	0,076
-703,816	164,092	-0,127	0,131
-702,802	30,032	-0,046	-0,029
-701,787	226,382	0,083	-0,098
-700,772	783,313	-0,040	-0,079
-699,758	-200,000	-0,016	-0,216
-698,743	53,607	-0,038	-0,026
-697,729	70,706	-0,088	-0,067
-696,714	-104,610	-0,069	-0,012
-695,699	82,724	0,100	-0,079
-694,685	-200,000	-0,020	-0,076
-693,670	-200,000	0,006	-0,076
-692,656	-200,000	0,004	0,014
-691,641	800,000	0,012	0,031
-690,627	-55,904	0,039	0,013
-689,612	-73,258	-0,066	-0,017
-688,597	-36,235	-0,172	-0,067
-687,583	800,000	-0,019	-0,050
-686,568	275,725	0,064	-0,083
-685,554	-43,209	-0,096	-0,035
-684,539	83,429	-0,127	-0,101
-683,524	73,790	0,006	-0,005
-682,510	800,000	0,047	-0,119
-681,495	118,441	-0,050	0,045
-680,481	-149,995	-0,238	0,013
-679,466	27,207	-0,140	-0,085
-678,451	-116,727	-0,191	0,025
-677,437	90,500	0,064	-0,052
-676,422	-200,000	-0,001	0,046
-675,408	40,527	0,082	-0,054
-674,393	-200,000	-0,003	0,054
-673,378	-163,531	-0,101	-0,003
-672,364	262,152	-0,073	-0,092
-671,349	-80,504	0,040	-0,010
-670,335	-117,713	-0,202	-0,026
-669,320	-8,776	0,136	0,066
-668,305	-63,267	0,074	-0,022
-667,291	122,852	0,103	0,094
-666,276	-200,000	-0,025	-0,090
-665,262	-110,429	-0,040	-0,006
-664,247	61,235	-0,074	0,053
-663,232	800,000	0,048	-0,103
-662,218	-200,000	0,037	0,123
-661,203	800,000	0,015	-0,044
-660,189	156,988	-0,093	-0,093
-659,174	47,966	-0,112	-0,076
-658,159	-71,363	0,141	-0,038
-657,145	601,477	-0,035	-0,063
-656,130	596,792	-0,026	0,046
-655,116	300,790	0,051	-0,068
-654,101	43,860	-0,111	0,074
-653,086	-200,000	0,026	0,126
-652,072	482,609	-0,093	-0,154
-651,057	95,646	0,038	-0,032
-650,043	133,623	0,075	0,071
-649,028	-200,000	-0,004	-0,135
-648,014	149,007	-0,052	0,052
-646,999	-200,000	-0,006	-0,061
-645,984	-200,000	-0,004	-0,088
-644,970	613,350	-0,068	-0,124
-643,955	147,399	-0,072	-0,071
-642,941	-200,000	0,013	-0,065
-641,926	-200,000	0,041	-0,157
-640,911	757,078	0,064	0,126
-639,897	205,499	-0,046	0,052
-638,882	12,350	-0,071	-0,039
-637,868	-146,176	0,105	-0,007
-636,853	134,080	-0,046	0,043
-635,838	800,000	-0,072	0,167
-634,824	-139,338	-0,062	0,005
-633,809	-11,511	0,099	0,047
-632,795	-200,000	0,029	-0,137
-631,780	-102,571	-0,086	0,015
-630,765	214,240	-0,049	-0,057
-629,751	-139,794	-0,082	-0,006
-628,736	410,093	0,114	-0,175
-627,722	5,500	0,062	-0,033
-626,707	-123,668	0,134	-0,015
-625,692	176,867	0,014	0,015
-624,678	800,000	-0,037	0,100
-623,663	-154,769	0,028	0,001
-622,649	-61,702	-0,121	0,037
-621,634	79,285	0,037	-0,029
-620,619	231,330	0,116	-0,139
-619,605	-149,019	-0,132	0,008
-618,590	98,799	0,057	-0,048
-617,576	438,054	-0,033	0,053
-616,561	141,844	0,082	-0,079
-615,546	-200,000	-0,022	-0,088
-614,532	-200,000	-0,023	-0,156
-613,517	-200,000	-0,048	-0,227
-612,503	-200,000	-0,041	-0,163
-611,488	-200,000	-0,007	0,051
-610,474	800,000	0,055	0,117
-609,459	-37,460	0,067	-0,026
-608,444	381,812	0,071	-0,107
-607,430	800,000	0,012	-0,029
-606,415	119,479	0,069	-0,062
-605,401	-200,000	-0,015	0,054
-604,386	-200,000	0,019	0,065
-603,371	-2,832	-0,059	-0,030
-602,357	-143,811	-0,148	-0,010
-601,342	-30,659	-0,095	-0,039
-600,328	46,949	-0,019	0,012
-599,313	88,622	-0,077	-0,062
-598,298	-29,495	-0,148	-0,061
-597,284	183,099	-0,040	0,043
-596,269	-138,072	0,082	-0,007
-595,255	90,767	0,018	-0,014
-594,240	-200,000	0,012	0,044
-593,225	-200,000	-0,034	-0,121
-592,211	773,625	0,022	0,043
-591,196	103,550	-0,028	-0,024
-590,182	227,189	0,039	-0,046
-589,167	81,403	0,063	0,050
-588,152	-62,027	-0,091	0,027
-587,138	-200,000	-0,011	0,056
-586,123	93,406	-0,169	-0,139
-585,109	800,000	0,032	-0,071
-584,094	7,021	0,079	0,042
-583,079	65,642	-0,010	-0,007
-582,065	509,360	0,034	0,058
-581,050	-124,346	0,061	0,007
-580,036	-200,000	0,081	-0,000
-579,021	-99,216	-0,223	-0,040
-578,006	-32,411	-0,092	-0,037
-576,992	-81,514	-0,049	-0,012
-575,977	800,000	-0,066	0,143
-574,963	72,999	0,076	0,057
-573,948	-55,138	0,047	0,015
-572,934	146,024	-0,105	0,102
-571,919	749,209	0,050	-0,099
-570,904	-200,000	-0,031	-0,133
-569,890	-200,000	0,001	-0,055
-568,875	-164,273	0,083	0,003
-567,861	-150,069	0,088	0,005
-566,846	-200,000	0,000	-0,091
-565,831	800,000	0,041	-0,108
-564,817	53,583	0,096	-0,067
-563,802	35,908	-0,089	-0,057
-562,788	561,513	-0,013	-0,022
-561,773	-132,329	0,051	-0,005
-560,758	62,509	0,154	0,111
-559,744	800,000	-0,014	0,037
-558,729	198,879	0,059	0,066
-557,715	-45,631	-0,141	-0,050
-556,700	-200,000	-0,019	-0,074
-555,685	98,797	-0,048	-0,040
-554,671	47,241	0,058	0,039
-553,656	800,000	-0,045	-0,117
-552,642	-139,682	-0,027	-0,002
-551,627	-200,000	-0,002	0,182
-550,612	-85,778	-0,113	0,025
-549,598	700,540	-0,022	-0,041
-548,583	30,126	0,096	0,059
-547,569	-57,440	-0,030	-0,009
-546,554	175,469	0,092	0,096
-545,539	-200,000	-0,025	0,091
-544,525	800,000	-0,015	0,038
-543,510	438,351	0,051	-0,080
-542,496	-200,000	0,030	-0,141
-541,481	-200,000	-0,008	-0,039
-540,466	18,187	-0,107	-0,061
-539,452	227,557	0,050	0,058
-538,437	19,145	0,141	0,081
-537,423	93,441	0,055	0,045
-536,408	19,368	-0,031	0,018
-535,393	276,997	0,100	-0,128
-534,379	-200,000	0,007	-0,113
-533,364	800,000	0,043	0,105
-532,350	-65,757	-0,072	0,021
-531,335	624,276	0,140	0,256
-530,321	258,292	0,055	0,069
-529,306	-16,825	0,086	-0,039
-528,291	-200,000	-0,010	0,052
-527,277	77,961	-0,038	-0,029
-526,262	-92,986	0,049	0,010
-525,248	-118,144	0,056	-0,007
-524,233	125,497	0,131	0,120
-523,218	-200,000	-0,001	-0,036
-522,204	167,519	-0,083	-0,086
-521,189	-200,000	-0,024	-0,161
-520,175	-200,000	0,005	-0,071
-519,160	-8,308	-0,027	0,013
-518,145	-13,609	-0,101	0,047
-517,131	-200,000	0,009	-0,102
-516,116	48,976	0,065	-0,044
-515,102	-200,000	-0,024	0,088
-514,087	137,134	-0,066	-0,062
-513,072	-200,000	0,030	0,222
-512,058	-200,000	0,009	-0,062
-511,043	-90,236	0,124	0,026
-510,029	588,122	-0,047	-0,085
-509,014	-20,527	0,183	-0,081
-507,999	110,360	0,065	0,056
-506,985	-154,727	0,137	-0,006
-505,970	-138,064	-0,114	-0,009
-504,956	87,604	0,075	-0,060
-503,941	13,570	0,037	0,021
-502,926	-174,159	0,128	0,003
-501,912	-27,316	0,106	-0,044
-500,897	-37,916	-0,085	0,032
-499,883	-200,000	-0,024	-0,110
-498,868	-51,702	0,098	0,033
-497,853	-89,506	0,066	-0,014
-496,839	354,580	0,084	0,121
-495,824	24,544	0,030	-0,018
-494,810	34,440	0,110	0,069
-493,795	17,108	-0,024	-0,014
-492,781	800,000	0,050	-0,123
-491,766	80,987	-0,064	-0,050
-490,751	219,499	-0,096	-0,111
-489,737	39,257	0,062	-0,040
-488,722	39,178	-0,069	-0,044
-487,708	-200,000	0,028	-0,097
-486,693	115,234	-0,021	0,019
-485,678	-200,000	-0,025	-0,113
-484,664	168,770	-0,066	-0,068
-483,649	41,029	0,088	0,057
-482,635	-98,812	0,098	-0,018
-481,620	106,244	-0,075	-0,064
-480,605	-200,000	0,006	-0,059
-479,591	211,530	0,018	-0,021
-478,576	-139,077	-0,120	-0,009
-477,562	-153,057	0,065	-0,003
-476,547	-89,970	-0,080	0,017
-475,532	-200,000	-0,010	-0,078
-474,518	116,494	0,126	0,111
-473,503	172,715	0,131	0,137
-472,489	438,374	-0,076	-0,119
-471,474	148,178	-0,064	-0,062
-470,459	800,000	0,029	-0,064
-469,445	-78,781	-0,063	-0,015
-468,430	-173,446	-0,140	-0,003
-467,416	120,108	0,043	-0,038
-466,401	-200,000	0,032	0,165
-465,386	-99,686	0,031	0,006
-464,372	27,875	0,154	-0,094
-463,357	800,000	-0,020	-0,056
-462,343	800,000	-0,025	-0,066
-461,328	-75,099	-0,156	0,040
-460,313	-40,999	0,072	0,027
-459,299	-200,000	0,016	-0,124
-458,284	68,974	-0,078	0,057
-457,270	386,934	-0,016	0,024
-456,255	158,087	0,017	-0,017
-455,241	800,000	0,051	-0,147
-454,226	-60,602	-0,143	-0,043
-453,211	800,000	0,025	0,060
-452,197	-200,000	-0,011	0,078
-451,182	-200,000	0,019	-0,090
-450,168	257,360	-0,076	0,095
-449,153	141,682	-0,056	0,054
-448,138	-153,600	-0,155	0,008
-447,124	-200,000	-0,001	-0,047
-446,109	-117,509	0,080	-0,010
-445,095	170,825	-0,092	0,095
-444,080	-200,000	0,035	0,136
-443,065	5,589	0,101	0,054
-442,051	800,000	0,028	0,078
-441,036	202,645	-0,057	0,064
-440,022	82,243	0,068	0,053
-439,007	124,053	0,090	-0,081
-437,992	452,857	-0,020	0,033
-436,978	-100,951	-0,194	0,034
-435,963	-21,833	0,140	0,061
-434,949	218,679	-0,039	-0,045
-433,934	357,569	0,065	-0,093
-432,919	800,000	0,016	-0,048
-431,905	-99,667	-0,066	-0,012
-430,890	-58,601	0,082	0,026
-429,876	728,836	-0,033	0,063
-428,861	-200,000	-0,027	0,195
-427,846	-118,083	0,041	0,005
-426,832	87,706	-0,029	0,023
-425,817	-145,839	-0,135	-0,008
-424,803	-0,616	0,097	0,049
-423,788	-173,546	-0,080	-0,002
-422,773	-165,144	-0,080	0,002
-421,759	800,000	-0,020	-0,060
-420,744	-200,000	0,018	-0,129
-419,730	-84,421	-0,071	-0,016
-418,715	800,000	0,038	-0,077
-417,701	-200,000	-0,001	0,030
-416,686	-200,000	0,007	-0,111
-415,671	-74,761	-0,085	-0,022
-414,657	-200,000	0,002	-0,095
-413,642	-200,000	0,009	0,069
-412,628	107,787	-0,041	0,035
-411,613	222,795	0,096	-0,112
-410,598	765,819	-0,042	0,083
-409,584	800,000	-0,019	0,053
-408,569	-122,325	0,192	0,022
-407,555	382,113	-0,117	0,174
-406,540	-9,424	-0,063	0,030
-405,525	-67,423	-0,080	0,023
-404,511	65,937	0,108	-0,079
-403,496	-200,000	0,013	-0,046
-402,482	333,562	0,047	0,066
-401,467	142,433	-0,085	-0,081
-400,452	130,526	0,037	0,034
-399,438	687,537	-0,077	0,146
-398,423	-74,947	-0,061	-0,016
-397,409	-200,000	-0,016	0,081
-396,394	-181,733	-0,145	0,002
-395,379	-47,493	0,079	-0,027
-394,365	800,000	-0,074	0,150
-393,350	248,449	0,112	0,136
-392,336	800,000	-0,018	-0,037
-391,321	311,365	0,021	0,029
-390,306	-200,000	0,005	0,051
-389,292	243,435	-0,020	0,024
-388,277	279,275	0,087	0,111
-387,263	-129,676	0,150	0,015
-386,248	-200,000	-0,009	0,150
-385,233	337,031	0,056	0,078
-384,219	-200,000	-0,005	0,073
-383,204	29,066	-0,090	0,055
-382,190	-163,173	-0,089	-0,003
-381,175	-200,000	-0,014	0,094
-380,160	-200,000	0,002	-0,037
-379,146	-58,628	-0,013	-0,004
-378,131	-200,000	0,002	0,019
-377,117	436,979	-0,043	-0,068
-376,102	-106,255	-0,096	0,015
-375,088	-108,564	0,077	-0,012
-374,073	-163,918	-0,121	-0,004
-373,058	-91,915	0,072	-0,015
-372,044	-200,000	0,045	0,143
-371,029	-80,621	0,032	0,008
-370,015	222,191	-0,033	-0,038
-369,000	196,141	0,018	0,020
-367,985	176,035	-0,041	-0,043
-366,971	-200,000	0,007	-0,111
-365,956	244,686	-0,064	0,077
-364,942	-200,000	-0,021	0,080
-363,927	90,578	0,058	-0,046
-362,912	-38,905	0,093	0,035
-361,898	-200,000	-0,009	-0,035
-360,883	-100,134	-0,102	-0,018
-359,869	-25,476	0,066	-0,028
-358,854	-117,634	-0,133	-0,017
-357,839	-39,577	0,059	-0,022
-356,825	-69,728	0,077	0,021
-355,810	702,911	0,085	0,161
-354,796	225,860	-0,047	0,055
-353,781	-200,000	0,004	-0,163
-352,766	207,141	-0,114	-0,128
-351,752	44,504	0,030	-0,020
-350,737	-200,000	0,005	0,099
-349,723	216,617	0,082	0,094
-348,708	-200,000	-0,027	0,238
-347,693	21,125	-0,034	-0,020
-346,679	-123,956	-0,177	-0,020
-345,664	376,592	-0,124	-0,183
-344,650	258,501	-0,027	0,034
-343,635	370,705	0,059	-0,086
-342,620	-200,000	-0,022	0,124
-341,606	-200,000	-0,020	0,091
-340,591	-179,756	0,053	0,001
-339,577	143,552	-0,077	0,074
-338,562	-139,849	-0,080	0,006
-337,548	-112,869	-0,084	-0,012
-336,533	572,513	0,040	0,070
-335,518	800,000	-0,042	0,131
-334,504	-71,914	0,085	-0,023
-333,489	10,570	-0,072	0,040
-332,475	253,742	0,139	-0,170
-331,460	-116,221	-0,053	-0,007
-330,445	800,000	0,021	-0,065
-329,431	98,820	-0,064	0,053
-328,416	33,685	0,090	0,056
-327,402	50,136	-0,042	-0,028
-326,387	207,438	0,039	0,044
-325,372	98,054	-0,076	0,063
-324,358	-1,409	0,008	-0,004
-323,343	573,302	-0,049	-0,086
-322,329	566,021	0,055	-0,096
-321,314	291,692	-0,087	0,113
-320,299	329,131	0,083	0,115
-319,285	752,912	0,071	0,139
-318,270	268,644	-0,095	-0,119
-317,256	93,293	0,068	-0,055
-316,241	224,516	0,057	0,066
-315,226	-97,492	-0,061	-0,011
-314,212	-200,000	-0,027	0,108
-313,197	144,283	-0,046	0,044
-312,183	109,752	-0,093	0,080
-311,168	-155,075	0,079	-0,004
-310,153	53,837	-0,038	-0,026
-309,139	368,683	0,011	0,015
-308,124	-200,000	0,008	-0,124
-307,110	-37,124	0,122	-0,047
-306,095	-149,683	-0,065	-0,004
-305,080	72,103	-0,077	-0,057
-304,066	-33,055	0,041	0,016
-303,051	-200,000	0,002	-0,126
-302,037	-200,000	0,000	-0,079
-301,022	-125,978	-0,090	-0,010
-300,008	44,769	0,098	-0,064
-298,993	137,168	0,056	0,053
-297,978	800,000	-0,041	0,094
-296,964	386,823	0,014	0,021
-295,949	-200,000	0,001	-0,014
-294,935	800,000	-0,034	-0,088
-293,920	-200,000	0,004	0,014
-292,905	800,000	0,049	-0,146
-291,891	107,176	0,107	-0,091
-290,876	-200,000	-0,007	0,052
-289,862	-53,667	0,029	0,009
-288,847	-200,000	0,000	-0,085
-287,832	189,450	0,065	-0,070
-286,818	-161,157	0,073	-0,003
-285,803	-158,613	0,116	-0,005
-284,789	239,282	-0,022	0,026
-283,774	208,874	-0,043	-0,049
-282,759	466,683	0,056	0,091
-281,745	-200,000	0,019	0,082
-280,730	-135,177	-0,034	-0,003
-279,716	-200,000	-0,003	0,067
-278,701	-112,453	0,174	-0,025
-277,686	716,395	-0,030	0,058
-276,672	-200,000	0,024	0,170
-275,657	36,990	-0,124	0,078
-274,643	52,333	0,110	-0,075
-273,628	411,675	-0,059	-0,089
-272,613	79,964	-0,090	-0,069
-271,599	-87,106	0,090	-0,019
-270,584	-173,458	0,158	-0,003
-269,570	-75,387	0,008	-0,002
-268,555	138,222	0,180	0,169
-267,540	-200,000	-0,015	-0,180
-266,526	-95,591	-0,094	0,018
-265,511	171,875	0,082	-0,084
-264,497	800,000	-0,026	-0,075
-263,482	-200,000	0,007	0,052
-262,467	800,000	0,020	0,054
-261,453	-23,197	-0,032	0,014
-260,438	68,024	0,071	-0,052
-259,424	82,836	-0,134	-0,104
-258,409	683,961	0,005	0,010
-257,395	72,024	0,070	-0,052
-256,380	-200,000	0,015	0,087
-255,365	-67,015	-0,076	0,021
-254,351	-138,125	0,104	0,008
-253,336	409,557	0,019	0,029
-252,322	47,601	0,010	0,007
-251,307	306,095	0,061	0,081
-250,292	-200,000	0,018	0,116
-249,278	-200,000	-0,003	0,193
-248,263	69,987	0,182	0,134
-247,249	-69,131	0,139	0,038
-246,234	94,562	-0,111	-0,090
-245,219	-32,840	-0,033	-0,013
-244,205	800,000	0,020	0,049
-243,190	800,000	-0,052	-0,135
-242,176	-106,379	-0,044	-0,007
-241,161	-50,822	0,061	0,021
-240,146	395,046	0,050	-0,075
-239,132	-43,352	-0,113	-0,041
-238,117	-79,371	-0,053	-0,013
-237,103	40,670	0,115	-0,074
-236,088	57,985	0,121	0,085
-235,073	138,150	-0,083	-0,078
-234,059	396,985	0,071	-0,107
-233,044	-26,883	0,176	-0,073
-232,030	-200,000	-0,051	-0,224
-231,015	187,468	0,024	0,025
-230,000	-117,998	-0,117	-0,015
-228,986	-141,222	-0,076	0,005
-227,971	88,321	0,084	0,066
-226,957	87,551	-0,098	0,077
-225,942	-20,978	0,216	0,094
-224,927	800,000	0,037	0,085
-223,913	747,764	-0,039	-0,075
-222,898	183,148	-0,069	-0,073
-221,884	99,428	-0,062	-0,051
-220,869	800,000	-0,030	0,075
-219,855	156,342	0,070	-0,069
-218,840	-62,519	-0,109	-0,032
-217,825	-200,000	-0,025	0,116
-216,811	22,110	0,057	-0,033
-215,796	-32,070	-0,065	-0,026
-214,782	-48,561	-0,133	-0,045
-213,767	180,478	0,027	0,029
-212,752	373,285	-0,019	0,028
-211,738	121,724	0,104	0,093
-210,723	610,543	-0,061	0,108
-209,709	-56,427	-0,091	-0,029
-208,694	460,736	-0,010	-0,016
-207,679	-200,000	-0,015	-0,053
-206,665	-29,591	0,140	0,057
-205,650	800,000	-0,047	0,122
-204,636	252,370	0,046	0,056
-203,621	422,252	0,091	0,139
-202,606	155,483	-0,033	0,033
-201,592	8,436	0,104	-0,056
-200,577	-110,829	-0,034	-0,005
-199,563	-120,507	0,052	-0,006
-198,548	46,851	0,048	0,032
-197,533	272,856	-0,020	0,026
-196,519	191,661	0,042	0,045
-195,504	106,371	-0,039	-0,033
-194,490	-200,000	-0,024	-0,111
-193,475	-200,000	0,001	-0,076
-192,460	33,881	-0,047	0,029
-191,446	45,248	-0,062	-0,041
-190,431	275,233	-0,072	0,091
-189,417	800,000	0,025	0,056
-188,402	-200,000	-0,015	0,059
-187,387	-57,653	-0,165	0,051
-186,373	-54,399	-0,217	0,070
-185,358	118,454	0,077	0,068
-184,344	-200,000	0,027	0,107
-183,329	718,385	-0,060	0,114
-182,315	-200,000	0,016	0,215
-181,300	11,821	0,111	0,061
-180,285	653,868	0,034	-0,062
-179,271	-98,465	-0,106	-0,019
-178,256	184,700	-0,093	-0,098
-177,242	-94,666	-0,065	-0,012
-176,227	61,280	-0,181	-0,128
-175,212	650,644	0,041	0,074
-174,198	-33,702	-0,124	0,048
-173,183	800,000	0,044	0,089
-172,169	242,329	-0,085	-0,102
-171,154	51,850	-0,156	-0,105
-170,139	-200,000	0,001	0,049
-169,125	66,732	0,116	0,084
-168,110	-113,953	0,072	-0,010
-167,096	-74,245	-0,065	0,017
-166,081	-200,000	0,005	-0,017
-165,066	166,866	-0,068	-0,069
-164,052	-200,000	0,024	0,089
-163,037	302,227	0,066	0,088
-162,023	-200,000	0,005	-0,100
-161,008	-200,000	0,034	0,108
-159,993	-200,000	0,024	0,132
-158,979	216,344	-0,092	-0,104
-157,964	-200,000	0,005	-0,115
-156,950	-113,410	-0,052	0,007
-155,935	800,000	-0,053	-0,111
-154,920	-79,652	-0,013	-0,003
-153,906	-24,731	0,050	0,021
-152,891	-108,963	0,032	0,005
-151,877	800,000	-0,057	-0,119
-150,862	147,056	-0,011	0,011
-149,847	-200,000	0,006	-0,031
-148,833	-200,000	0,012	-0,052
-147,818	-69,670	0,117	0,032
-146,804	209,815	-0,052	0,058
-145,789	-75,784	0,151	-0,038
-144,775	-41,267	-0,164	0,060
-143,760	-31,260	-0,092	0,037
-142,745	281,499	-0,017	-0,022
-141,731	158,141	0,047	0,047
-140,716	405,906	-0,024	0,036
-139,702	-72,221	0,113	0,030
-138,687	-30,883	-0,120	0,048
-137,672	-200,000	-0,002	-0,009
-136,658	-63,774	0,100	0,029
-135,643	800,000	0,006	-0,017
-134,629	53,427	0,073	-0,050
-133,614	-21,581	-0,084	0,036
-132,599	66,208	-0,032	-0,023
-131,585	196,535	0,065	0,071
-130,570	216,471	0,066	-0,074
-129,556	-105,257	-0,121	0,019
-128,541	-200,000	-0,013	-0,108
-127,526	61,117	0,070	-0,050
-126,512	-200,000	-0,019	0,090
-125,497	-200,000	0,008	0,059
-124,483	800,000	0,087	0,192
-123,468	4,309	-0,059	-0,031
-122,453	35,840	-0,095	-0,059
-121,439	78,339	0,070	0,053
-120,424	-200,000	-0,003	-0,016
-119,410	-37,414	0,128	0,048
