DTS Sentinel unit serial number:	SN410029Multiplexer serial number:	ORYXHardware model number:	OX2-SRSoftware version number:	ORYX F/W v4,00 Oryx Data Collector v3.7.2.0data status	okinstallation	BH3 CH2differential loss correction	single-endedforward channel	channel 2reverse channel	N/Adate	2023/12/05time	15:52:28forward acquisition time	300,00reverse acquisition time	0,00gamma	499,1914k internal	0,3192k external	0,3192temperature offset calibration	1,0000default loss term (dB/km)	0,3820temperature slope calibration	1,0000multiplexer offset coefficient	1,0000multiplexer slope coefficient	1,0000fibre end	0,00T internal ref (°C)	11,07T ext. ref 1 (°C)	-3,28T ext. ref 2 (°C)	-3,45length (m)	temperature (°C)	Stokes	anti-Stokes-744,400	11,392	-0,117	-0,065
-743,385	15,130	-0,130	0,074
-742,371	-96,503	-0,022	0,004
-741,356	-1,199	-0,106	0,055
-740,342	800,000	-0,058	-0,117
-739,327	43,571	-0,120	0,080
-738,312	243,738	-0,106	-0,130
-737,298	-85,653	-0,132	0,030
-736,283	-200,000	-0,054	-0,319
-735,269	-114,380	-0,103	0,014
-734,254	800,000	-0,014	-0,033
-733,239	-105,328	-0,390	-0,064
-732,225	522,782	0,084	-0,144
-731,210	-200,000	0,020	0,205
-730,196	128,404	0,049	0,045
-729,181	-67,278	-0,051	-0,015
-728,167	382,998	-0,085	-0,128
-727,152	-200,000	-0,029	0,123
-726,137	-36,145	-0,121	0,047
-725,123	-115,560	-0,088	0,012
-724,108	-200,000	0,003	-0,061
-723,094	-0,348	-0,063	0,032
-722,079	800,000	-0,021	-0,053
-721,064	-200,000	-0,013	0,063
-720,050	-20,042	0,038	-0,017
-719,035	-200,000	0,002	-0,058
-718,021	-157,461	-0,146	-0,006
-717,006	13,959	-0,120	-0,068
-715,991	182,753	-0,081	-0,088
-714,977	800,000	0,029	0,061
-713,962	379,397	-0,073	0,109
-712,948	-103,733	-0,024	0,004
-711,933	800,000	0,049	0,103
-710,918	800,000	-0,035	-0,097
-709,904	157,630	-0,071	0,072
-708,889	800,000	0,008	0,018
-707,875	-22,334	-0,079	0,035
-706,860	-162,739	-0,019	-0,001
-705,845	40,560	0,013	-0,008
-704,831	-31,389	-0,018	0,007
-703,816	-198,577	-0,078	0,000
-702,802	-44,864	-0,155	-0,056
-701,787	800,000	0,032	-0,074
-700,772	800,000	-0,059	-0,172
-699,758	161,626	0,010	-0,010
-698,743	796,031	0,083	-0,167
-697,729	560,885	0,035	-0,062
-696,714	-122,833	0,052	-0,006
-695,699	37,934	0,024	-0,016
-694,685	-91,027	-0,089	0,018
-693,670	-200,000	0,030	-0,167
-692,656	-20,660	-0,108	0,048
-691,641	-7,954	0,147	0,072
-690,627	-2,835	0,080	0,041
-689,612	206,604	0,050	-0,057
-688,597	72,223	-0,044	0,034
-687,583	-72,772	-0,013	-0,003
-686,568	323,890	-0,086	-0,120
-685,554	71,257	-0,095	-0,072
-684,539	56,148	0,054	-0,038
-683,524	66,629	0,068	-0,051
-682,510	165,892	0,064	-0,066
-681,495	-200,000	0,011	-0,039
-680,481	697,001	-0,055	0,106
-679,466	-57,469	-0,053	-0,017
-678,451	-24,799	0,103	-0,044
-677,437	66,721	-0,063	-0,046
-676,422	400,173	-0,041	-0,063
-675,408	-50,947	0,086	-0,029
-674,393	204,776	-0,047	0,054
-673,378	-174,754	-0,092	-0,002
-672,364	-200,000	0,019	-0,108
-671,349	-91,640	-0,140	-0,029
-670,335	-200,000	-0,027	0,137
-669,320	-200,000	-0,015	0,139
-668,305	-65,492	0,067	0,019
-667,291	63,644	-0,078	-0,057
-666,276	-200,000	0,030	-0,115
-665,262	256,845	-0,079	-0,099
-664,247	-200,000	-0,001	-0,155
-663,232	-200,000	-0,005	-0,066
-662,218	248,141	0,056	-0,069
-661,203	87,830	0,052	0,042
-660,189	-200,000	-0,006	-0,151
-659,174	-200,000	-0,005	-0,118
-658,159	54,011	-0,041	-0,028
-657,145	-200,000	-0,025	-0,082
-656,130	-7,311	-0,065	0,032
-655,116	800,000	-0,042	-0,108
-654,101	800,000	0,011	-0,030
-653,086	74,291	-0,077	-0,059
-652,072	800,000	0,016	-0,047
-651,057	136,821	-0,219	-0,208
-650,043	-200,000	0,007	0,035
-649,028	-28,555	0,179	0,075
-648,014	-123,366	-0,103	-0,012
-646,999	100,721	-0,136	0,114
-645,984	-200,000	-0,008	0,041
-644,970	56,172	-0,037	0,026
-643,955	-200,000	-0,023	-0,207
-642,941	326,164	0,107	0,149
-641,926	-79,067	-0,073	0,018
-640,911	421,628	0,071	0,110
-639,897	-200,000	-0,016	-0,061
-638,882	-92,997	0,060	0,012
-637,868	-127,952	-0,098	-0,010
-636,853	-72,996	-0,096	-0,026
-635,838	800,000	-0,018	0,041
-634,824	-200,000	-0,010	0,111
-633,809	109,293	0,037	-0,032
-632,795	-78,413	0,088	0,022
-631,780	-48,678	0,077	0,027
-630,765	-10,305	-0,106	-0,051
-629,751	772,229	-0,050	-0,100
-628,736	48,458	-0,073	-0,050
-627,722	-200,000	-0,017	-0,191
-626,707	-37,128	-0,104	0,040
-625,692	400,213	0,091	-0,139
-624,678	58,861	0,029	0,021
-623,663	117,897	0,073	0,065
-622,649	-200,000	0,018	-0,063
-621,634	800,000	-0,018	0,043
-620,619	205,762	0,029	-0,033
-619,605	-121,202	0,085	0,010
-618,590	355,008	0,067	-0,097
-617,576	429,595	0,022	0,035
-616,561	-200,000	0,002	-0,058
-615,546	189,180	0,139	-0,152
-614,532	123,611	-0,086	-0,079
-613,517	-200,000	-0,030	0,134
-612,503	72,340	-0,082	0,062
-611,488	279,431	-0,055	0,071
-610,474	800,000	-0,069	-0,142
-609,459	-200,000	0,012	-0,097
-608,444	612,683	0,033	0,060
-607,430	63,798	0,019	-0,014
-606,415	728,621	0,011	-0,021
-605,401	23,273	0,109	0,065
-604,386	145,704	0,017	0,017
-603,371	-142,944	0,203	-0,014
-602,357	477,470	-0,027	0,045
-601,342	-124,118	0,128	-0,014
-600,328	-200,000	-0,030	-0,132
-599,313	-200,000	0,012	-0,049
-598,298	-102,216	-0,029	0,005
-597,284	14,095	-0,109	-0,061
-596,269	800,000	-0,013	-0,034
-595,255	-100,774	-0,097	0,017
-594,240	-69,197	0,084	-0,023
-593,225	-200,000	-0,004	-0,120
-592,211	479,208	0,027	0,045
-591,196	686,590	0,064	0,122
-590,182	-200,000	0,008	-0,127
-589,167	-200,000	0,025	0,082
-588,152	-126,271	0,088	0,009
-587,138	-200,000	-0,035	-0,119
-586,123	93,146	-0,062	-0,051
-585,109	150,492	-0,148	-0,145
-584,094	-14,690	-0,094	0,044
-583,079	-72,280	0,068	-0,018
-582,065	152,633	-0,057	0,056
-581,050	-20,093	0,043	0,019
-580,036	103,249	0,007	0,006
-579,021	-200,000	0,011	-0,099
-578,006	-140,137	-0,127	-0,010
-576,992	329,310	-0,058	-0,081
-575,977	-200,000	-0,014	-0,082
-574,963	35,051	0,120	-0,076
-573,948	200,713	-0,092	-0,103
-572,934	-143,553	0,043	0,003
-571,919	-159,913	-0,069	0,003
-570,904	77,512	-0,092	-0,071
-569,890	-200,000	-0,006	-0,097
-568,875	-13,231	0,056	0,026
-567,861	203,831	-0,031	-0,035
-566,846	420,206	0,053	0,083
-565,831	-200,000	0,004	0,034
-564,817	-28,397	-0,028	-0,012
-563,802	-112,492	0,063	-0,009
-562,788	793,260	0,037	-0,075
-561,773	307,137	0,047	-0,064
-560,758	800,000	-0,026	0,069
-559,744	-200,000	0,069	0,243
-558,729	62,255	0,036	-0,026
-557,715	-200,000	-0,012	0,082
-556,700	-200,000	-0,001	0,013
-555,685	103,269	-0,152	-0,129
-554,671	123,251	0,096	0,087
-553,656	-200,000	0,003	0,098
-552,642	-4,693	-0,106	-0,053
-551,627	-200,000	-0,009	0,035
-550,612	-7,968	-0,065	-0,032
-549,598	800,000	0,034	-0,074
-548,583	-200,000	-0,002	0,011
-547,569	-130,193	-0,179	0,017
-546,554	-200,000	-0,004	-0,075
-545,539	-200,000	-0,018	0,102
-544,525	520,344	0,030	0,051
-543,510	652,110	0,022	0,040
-542,496	187,810	0,071	-0,077
-541,481	44,470	0,056	0,037
-540,466	351,110	0,059	-0,085
-539,452	-92,557	0,050	0,010
-538,437	-61,108	0,065	0,020
-537,423	331,259	-0,009	-0,013
-536,408	-106,173	0,072	-0,012
-535,393	-173,824	-0,135	-0,003
-534,379	761,143	0,018	0,035
-533,364	-200,000	0,001	0,087
-532,350	-45,816	0,022	-0,008
-531,335	779,108	-0,012	-0,023
-530,321	-200,000	-0,016	0,077
-529,306	-114,864	0,184	0,025
-528,291	-0,921	-0,099	0,050
-527,277	6,787	-0,145	-0,078
-526,262	-65,957	0,161	0,046
-525,248	-59,330	0,074	0,023
-524,233	40,295	-0,070	-0,046
-523,218	167,091	-0,061	-0,063
-522,204	-200,000	0,007	-0,064
-521,189	101,813	-0,113	0,095
-520,175	-15,408	0,032	0,015
-519,160	800,000	-0,021	0,067
-518,145	-200,000	-0,017	-0,122
-517,131	-47,054	0,042	0,015
-516,116	253,245	0,067	0,083
-515,102	537,252	-0,041	-0,070
-514,087	800,000	-0,015	0,034
-513,072	800,000	0,057	-0,149
-512,058	-200,000	-0,013	-0,122
-511,043	257,207	0,083	-0,104
-510,029	-200,000	0,015	0,081
-509,014	800,000	0,035	-0,082
-507,999	-200,000	-0,028	0,090
-506,985	183,239	0,041	-0,044
-505,970	511,357	-0,083	-0,139
-504,956	-45,781	-0,026	-0,009
-503,941	164,729	0,107	-0,109
-502,926	-100,388	-0,161	-0,029
-501,912	169,664	-0,021	-0,022
-500,897	-117,656	-0,137	-0,018
-499,883	242,272	-0,027	-0,033
-498,868	-200,000	0,009	-0,115
-497,853	150,392	0,029	-0,029
-496,839	-200,000	0,043	0,180
-495,824	449,525	0,036	-0,058
-494,810	63,669	0,046	0,033
-493,795	603,953	-0,005	0,009
-492,781	138,003	-0,049	0,046
-491,766	518,610	-0,015	-0,026
-490,751	190,057	-0,060	0,065
-489,737	-83,098	0,024	0,005
-488,722	357,915	0,045	0,066
-487,708	-15,777	0,149	-0,068
-486,693	-124,453	0,078	0,009
-485,678	-60,455	0,133	-0,040
-484,664	58,803	-0,112	0,079
-483,649	516,302	0,036	0,061
-482,635	360,428	-0,057	-0,082
-481,620	-26,993	-0,015	0,006
-480,605	317,727	-0,026	-0,036
-479,591	800,000	-0,009	0,020
-478,576	800,000	0,015	0,046
-477,562	-70,686	-0,077	0,021
-476,547	69,560	-0,061	0,045
-475,532	-200,000	-0,000	0,110
-474,518	104,009	0,090	0,076
-473,503	-45,242	0,106	0,038
-472,489	-128,719	0,064	-0,006
-471,474	-50,028	0,018	-0,006
-470,459	146,239	0,109	0,106
-469,445	-200,000	-0,008	-0,080
-468,430	205,427	-0,052	-0,059
-467,416	62,734	0,061	-0,044
-466,401	-40,636	-0,073	-0,027
-465,386	-194,331	0,004	0,000
-464,372	118,134	0,169	0,150
-463,357	142,101	0,058	-0,056
-462,343	800,000	-0,014	-0,029
-461,328	-165,800	0,060	0,002
-460,313	-106,243	0,082	-0,013
-459,299	191,797	-0,014	-0,015
-458,284	-54,778	0,040	0,013
-457,270	-9,477	0,055	-0,026
-456,255	-31,681	-0,061	-0,025
-455,241	420,004	-0,031	0,048
-454,226	-200,000	-0,010	-0,107
-453,211	-200,000	-0,022	0,089
-452,197	36,924	-0,087	0,055
-451,182	800,000	-0,009	-0,023
-450,168	-200,000	0,040	-0,135
-449,153	-200,000	0,028	0,099
-448,138	-200,000	0,029	-0,109
-447,124	-200,000	0,020	-0,123
-446,109	-111,604	0,133	0,019
-445,095	345,449	0,058	0,083
-444,080	-15,796	0,156	0,071
-443,065	-5,795	-0,122	-0,060
-442,051	-200,000	-0,001	-0,201
-441,036	49,395	-0,049	-0,033
-440,022	-200,000	0,004	-0,031
-439,007	800,000	0,034	-0,087
-437,992	800,000	0,020	0,052
-436,978	-200,000	-0,008	0,054
-435,963	800,000	0,044	0,093
-434,949	638,112	-0,087	-0,160
-433,934	106,356	0,012	-0,010
-432,919	-51,766	-0,099	-0,033
-431,905	-190,528	0,088	-0,001
-430,890	271,127	0,044	0,056
-429,876	-145,549	0,163	-0,010
-428,861	49,230	0,118	0,079
-427,846	26,927	0,063	0,038
-426,832	-37,448	-0,056	-0,022
-425,817	-200,000	0,005	-0,117
-424,803	251,555	0,111	0,137
-423,788	-21,607	0,027	-0,012
-422,773	-200,000	0,028	0,157
-421,759	384,149	-0,051	0,076
-420,744	-200,000	0,001	-0,037
-419,730	182,434	-0,038	-0,041
-418,715	800,000	-0,028	0,071
-417,701	-200,000	0,007	-0,043
-416,686	800,000	-0,028	-0,070
-415,671	155,833	0,063	-0,062
-414,657	95,307	0,022	0,018
-413,642	800,000	0,028	0,068
-412,628	-52,344	-0,211	-0,070
-411,613	747,336	-0,022	-0,043
-410,598	-200,000	-0,035	-0,127
-409,584	237,114	-0,038	0,046
-408,569	-132,359	0,052	-0,005
-407,555	25,423	0,033	0,019
-406,540	311,235	0,066	0,090
-405,525	-200,000	-0,011	0,038
-404,511	-153,323	0,105	0,005
-403,496	-200,000	0,000	-0,067
-402,482	-200,000	-0,000	0,048
-401,467	-14,654	-0,075	0,035
-400,452	-59,156	0,084	-0,026
-399,438	-78,620	0,095	-0,023
-398,423	-66,992	0,060	0,017
-397,409	31,306	-0,052	-0,032
-396,394	-200,000	0,008	0,107
-395,379	133,461	-0,085	0,079
-394,365	121,642	0,061	-0,055
-393,350	-101,344	-0,117	0,020
-392,336	208,488	-0,067	-0,075
-391,321	727,218	-0,045	0,086
-390,306	341,114	-0,057	-0,080
-389,292	-200,000	-0,002	0,010
-388,277	-133,918	0,075	-0,007
-387,263	21,227	0,050	0,029
-386,248	-200,000	-0,015	-0,069
-385,233	344,930	-0,122	0,172
-384,219	-200,000	0,009	0,120
-383,204	331,066	0,032	0,045
-382,190	-45,047	-0,186	0,066
-381,175	289,719	-0,051	0,067
-380,160	-200,000	0,005	0,100
-379,146	98,159	0,072	0,059
-378,131	352,227	-0,053	-0,076
-377,117	-200,000	-0,006	0,049
-376,102	48,314	-0,133	0,090
-375,088	-200,000	-0,006	-0,064
-374,073	-70,532	-0,136	0,037
-373,058	260,028	0,076	-0,094
-372,044	800,000	-0,052	0,119
-371,029	-28,403	0,027	-0,011
-370,015	-200,000	-0,011	-0,119
-369,000	800,000	0,035	-0,101
-367,985	-200,000	0,020	-0,122
-366,971	310,143	-0,037	-0,050
-365,956	-73,379	0,095	-0,025
-364,942	-200,000	0,001	-0,009
-363,927	-61,759	0,108	0,032
-362,912	92,129	0,092	-0,074
-361,898	-200,000	-0,027	0,121
-360,883	-47,373	-0,080	-0,028
-359,869	-200,000	0,008	0,042
-358,854	453,962	0,065	0,104
-357,839	94,677	-0,056	0,046
-356,825	-200,000	-0,026	0,097
-355,810	4,804	0,044	0,023
-354,796	-200,000	0,008	0,113
-353,781	-151,670	0,197	0,010
-352,766	39,707	0,035	0,022
-351,752	-143,204	0,023	0,002
-350,737	-49,875	-0,144	-0,049
-349,723	-200,000	0,011	0,145
-348,708	342,179	0,012	-0,017
-347,693	-15,733	-0,033	0,015
-346,679	155,224	0,058	-0,057
-345,664	-200,000	0,003	-0,012
-344,650	-157,971	-0,182	-0,008
-343,635	-0,482	-0,058	-0,029
-342,620	465,328	0,030	0,049
-341,606	-43,175	0,134	-0,048
-340,591	-200,000	0,018	-0,063
-339,577	30,535	-0,050	-0,030
-338,562	179,986	-0,066	-0,069
-337,548	800,000	0,003	0,009
-336,533	-200,000	0,005	0,069
-335,518	-83,266	0,090	-0,021
-334,504	-35,731	0,080	-0,031
-333,489	-193,292	0,110	-0,001
-332,475	419,874	-0,075	-0,115
-331,460	-121,586	0,031	0,004
-330,445	-62,516	-0,183	0,054
-329,431	122,310	0,081	0,073
-328,416	344,839	-0,074	0,105
-327,402	-64,479	0,063	-0,018
-326,387	800,000	0,022	-0,043
-325,372	-149,794	-0,092	-0,005
-324,358	77,947	0,121	-0,092
-323,343	-200,000	0,014	0,117
-322,329	-200,000	-0,012	0,080
-321,314	33,285	-0,060	-0,037
-320,299	570,520	0,069	-0,120
-319,285	800,000	0,016	-0,049
-318,270	164,268	-0,078	-0,079
-317,256	322,795	-0,031	-0,042
-316,241	-159,972	0,057	-0,002
-315,226	571,735	0,051	-0,089
-314,212	68,239	0,085	0,062
-313,197	57,740	0,056	0,040
-312,183	29,537	0,103	0,063
-311,168	177,361	-0,136	0,142
-310,153	-84,021	-0,124	-0,028
-309,139	-200,000	-0,024	-0,192
-308,124	800,000	0,038	0,082
-307,110	-22,463	-0,053	-0,023
-306,095	98,162	0,077	0,064
-305,080	-31,029	0,060	-0,024
-304,066	800,000	0,021	-0,048
-303,051	-200,000	-0,004	-0,097
-302,037	112,728	0,085	0,073
-301,022	318,905	0,118	-0,161
-300,008	-69,228	-0,044	-0,012
-298,993	27,109	0,046	-0,028
-297,978	-109,113	-0,123	-0,019
-296,964	-133,532	0,183	-0,016
-295,949	43,563	-0,038	-0,025
-294,935	-200,000	0,008	-0,070
-293,920	-76,007	0,059	-0,015
-292,905	-35,829	0,068	0,026
-291,891	-192,533	-0,102	-0,001
-290,876	-61,485	-0,097	0,029
-289,862	-17,063	-0,097	-0,044
-288,847	284,736	-0,091	-0,118
-287,832	312,056	0,031	0,042
-286,818	71,020	-0,081	0,060
-285,803	-91,484	0,126	-0,026
-284,789	-1,100	-0,052	-0,026
-283,774	-37,713	-0,158	-0,060
-282,759	-120,698	0,133	-0,016
-281,745	652,212	-0,020	0,038
-280,730	800,000	-0,019	0,053
-279,716	-120,482	-0,033	0,004
-278,701	-200,000	-0,022	0,097
-277,686	120,571	0,104	-0,093
-276,672	46,879	-0,081	-0,054
-275,657	-200,000	-0,009	-0,032
-274,643	681,551	0,038	0,070
-273,628	-131,908	-0,072	0,007
-272,613	63,343	-0,086	-0,062
-271,599	-176,007	0,053	-0,001
-270,584	-77,429	0,117	-0,029
-269,570	511,486	0,115	0,193
-268,555	800,000	-0,040	0,087
-267,540	79,818	-0,030	0,023
-266,526	316,886	-0,052	0,071
-265,511	-91,966	-0,100	0,020
-264,497	-53,601	-0,131	0,043
-263,482	12,266	0,040	0,022
-262,467	-200,000	-0,015	0,070
-261,453	-116,567	0,037	0,005
-260,438	-83,337	-0,010	-0,002
-259,424	167,006	-0,068	-0,069
-258,409	87,981	-0,009	-0,007
-257,395	592,649	-0,060	-0,106
-256,380	800,000	0,049	-0,115
-255,365	-200,000	-0,002	0,057
-254,351	0,220	-0,129	0,065
-253,336	800,000	0,021	-0,053
-252,322	800,000	-0,028	0,081
-251,307	-200,000	0,016	-0,053
-250,292	800,000	-0,013	-0,027
-249,278	-56,899	0,102	-0,032
-248,263	-200,000	-0,006	0,091
-247,249	6,436	0,096	-0,051
-246,234	800,000	-0,031	0,064
-245,219	88,662	0,026	-0,021
-244,205	-117,451	0,118	-0,015
-243,190	298,815	0,017	-0,022
-242,176	-71,669	-0,079	-0,021
-241,161	266,108	0,055	-0,069
-240,146	-124,655	0,113	-0,012
-239,132	-200,000	0,024	0,082
-238,117	105,162	-0,090	0,076
-237,103	-200,000	-0,021	-0,101
-236,088	-200,000	0,013	0,098
-235,073	-200,000	-0,011	-0,052
-234,059	268,070	-0,051	0,064
-233,044	83,747	0,072	-0,056
-232,030	172,606	-0,123	0,126
-231,015	-60,629	-0,041	-0,012
-230,000	181,789	-0,029	-0,031
-228,986	800,000	0,011	0,028
-227,971	-112,940	0,014	0,002
-226,957	-200,000	0,030	0,126
-225,942	103,218	-0,032	-0,026
-224,927	122,437	-0,081	0,072
-223,913	-72,243	-0,167	0,044
-222,898	-68,808	-0,074	-0,020
-221,884	-200,000	-0,040	-0,156
-220,869	241,598	-0,029	0,035
-219,855	-200,000	0,015	0,149
-218,840	-176,289	0,030	-0,001
-217,825	125,262	-0,138	0,124
-216,811	230,522	0,050	0,059
-215,796	148,527	-0,071	-0,068
-214,782	-55,686	-0,028	0,009
-213,767	150,380	-0,017	-0,016
-212,752	-74,839	0,177	0,045
-211,738	800,000	-0,036	0,086
-210,723	-200,000	0,037	0,144
-209,709	273,768	-0,087	0,111
-208,694	-42,299	0,018	-0,007
-207,679	253,780	-0,043	0,053
-206,665	-17,255	-0,078	0,035
-205,650	157,685	0,026	0,026
-204,636	128,970	-0,093	0,085
-203,621	-142,558	-0,118	-0,008
-202,606	-200,000	-0,003	-0,066
-201,592	82,772	-0,078	-0,061
-200,577	211,732	-0,103	-0,116
-199,563	-200,000	-0,010	0,066
-198,548	-47,674	0,121	0,042
-197,533	800,000	-0,046	0,109
-196,519	232,879	-0,038	0,044
-195,504	233,377	-0,047	0,055
-194,490	93,508	0,038	-0,031
-193,475	800,000	-0,025	-0,053
-192,460	800,000	0,017	-0,047
-191,446	-12,302	0,069	0,032
-190,431	755,470	0,051	0,099
-189,417	36,922	0,064	0,040
-188,402	79,236	-0,109	0,083
-187,387	-200,000	-0,026	-0,155
-186,373	800,000	-0,027	-0,072
-185,358	-200,000	0,022	-0,102
-184,344	800,000	0,011	0,025
-183,329	800,000	0,020	0,047
-182,315	800,000	-0,016	-0,048
-181,300	84,111	-0,051	0,040
-180,285	747,830	-0,031	-0,059
-179,271	-200,000	-0,023	-0,121
-178,256	536,299	0,045	0,076
-177,242	800,000	-0,045	0,108
-176,227	-200,000	0,022	-0,072
-175,212	-91,281	-0,112	-0,023
-174,198	-3,091	0,079	-0,039
-173,183	617,257	-0,033	-0,060
-172,169	248,609	-0,048	-0,058
-171,154	72,223	0,032	0,024
-170,139	13,674	0,031	-0,017
-169,125	277,602	-0,048	0,062
-168,110	-170,886	0,037	-0,001
-167,096	492,097	-0,047	0,078
-166,081	178,770	0,085	-0,089
-165,066	-116,304	-0,141	-0,018
-164,052	-130,128	0,082	0,008
-163,037	-67,760	0,069	0,019
-162,023	153,509	0,034	0,034
-161,008	800,000	-0,020	0,045
-159,993	588,008	-0,022	0,038
-158,979	-200,000	-0,020	0,098
-157,964	-200,000	-0,019	-0,162
-156,950	800,000	0,027	0,056
-155,935	-46,237	-0,070	0,024
-154,920	14,450	0,084	0,047
-153,906	82,000	0,080	0,061
-152,891	-200,000	0,012	0,101
-151,877	-37,767	0,133	-0,050
-150,862	155,047	-0,033	0,033
-149,847	56,196	0,037	-0,025
-148,833	-101,918	0,087	0,015
-147,818	511,612	0,072	-0,120
-146,804	-200,000	0,043	-0,232
-145,789	-200,000	0,005	0,041
-144,775	611,906	-0,029	0,051
-143,760	800,000	-0,041	0,107
-142,745	-60,428	-0,040	0,012
-141,731	-26,059	0,193	0,081
-140,716	-13,857	0,068	0,031
-139,702	800,000	-0,015	0,033
-138,687	664,963	0,041	0,075
-137,672	188,370	-0,082	0,087
-136,658	-200,000	-0,008	0,060
-135,643	-55,087	0,132	-0,042
-134,629	-200,000	-0,009	0,057
-133,614	-200,000	0,006	0,058
-132,599	-97,504	0,058	-0,011
-131,585	-114,006	0,047	0,006
-130,570	283,610	0,041	-0,053
-129,556	406,145	0,075	-0,113
-128,541	-73,376	-0,107	-0,028
-127,526	-200,000	-0,015	-0,095
-126,512	-200,000	-0,016	0,084
-125,497	-200,000	0,038	0,138
-124,483	-23,097	-0,118	-0,051
-123,468	-200,000	-0,015	-0,137
-122,453	-100,939	-0,061	0,011
-121,439	-1,648	0,123	0,061
-120,424	-83,888	-0,081	-0,018
