DTS Sentinel unit serial number:	SN410029Multiplexer serial number:	ORYXHardware model number:	OX2-SRSoftware version number:	ORYX F/W v4,00 Oryx Data Collector v3.7.2.0data status	okinstallation	BH3 CH2differential loss correction	single-endedforward channel	channel 2reverse channel	N/Adate	2023/12/06time	00:12:28forward acquisition time	300,00reverse acquisition time	0,00gamma	499,1914k internal	0,3196k external	0,3196temperature offset calibration	1,0000default loss term (dB/km)	0,3820temperature slope calibration	1,0000multiplexer offset coefficient	1,0000multiplexer slope coefficient	1,0000fibre end	0,00T internal ref (°C)	9,44T ext. ref 1 (°C)	-5,35T ext. ref 2 (°C)	-5,43length (m)	temperature (°C)	Stokes	anti-Stokes-744,400	-200,000	-0,023	0,094
-743,385	-150,508	-0,198	0,011
-742,371	129,784	-0,043	0,040
-741,356	150,886	-0,166	0,164
-740,342	58,410	0,182	-0,130
-739,327	52,128	-0,212	0,147
-738,312	-102,757	0,095	-0,016
-737,298	-6,510	-0,299	0,148
-736,283	800,000	0,053	-0,160
-735,269	-23,115	-0,283	0,123
-734,254	-200,000	0,006	-0,127
-733,239	29,467	-0,385	-0,238
-732,225	207,529	0,143	-0,163
-731,210	236,356	0,123	0,149
-730,196	268,073	0,030	-0,038
-729,181	-158,320	-0,113	-0,005
-728,167	-143,427	-0,144	-0,010
-727,152	227,425	-0,056	-0,066
-726,137	-119,589	-0,108	-0,013
-725,123	290,982	-0,033	-0,043
-724,108	265,394	-0,065	-0,083
-723,094	-6,829	-0,145	-0,071
-722,079	394,585	0,046	-0,071
-721,064	241,609	0,103	-0,125
-720,050	232,015	-0,017	-0,020
-719,035	800,000	-0,047	0,124
-718,021	-133,773	0,007	0,001
-717,006	759,742	0,028	-0,055
-715,991	800,000	-0,021	0,045
-714,977	-200,000	-0,032	-0,111
-713,962	107,808	-0,063	-0,055
-712,948	800,000	-0,052	0,123
-711,933	609,784	0,094	-0,172
-710,918	-89,775	-0,130	-0,027
-709,904	491,402	-0,006	0,010
-708,889	-200,000	-0,011	-0,129
-707,875	97,078	0,024	-0,020
-706,860	-200,000	-0,009	-0,103
-705,845	800,000	0,042	0,109
-704,831	-27,043	-0,050	0,021
-703,816	-28,747	0,166	0,069
-702,802	-200,000	0,000	0,027
-701,787	212,816	-0,127	-0,146
-700,772	-200,000	-0,004	0,075
-699,758	-26,403	-0,032	-0,014
-698,743	800,000	-0,031	0,076
-697,729	-165,181	-0,053	-0,002
-696,714	-64,345	0,139	0,041
-695,699	3,687	-0,032	0,017
-694,685	230,273	0,007	0,009
-693,670	-200,000	-0,022	-0,072
-692,656	-137,534	-0,105	-0,008
-691,641	209,896	0,091	-0,103
-690,627	747,076	-0,061	0,120
-689,612	-200,000	0,025	0,101
-688,597	800,000	0,033	0,084
-687,583	135,101	-0,047	0,045
-686,568	-200,000	0,018	0,074
-685,554	-200,000	-0,013	-0,042
-684,539	-37,088	0,135	-0,052
-683,524	-200,000	-0,010	0,044
-682,510	-134,985	-0,058	0,005
-681,495	800,000	-0,040	0,116
-680,481	-58,732	-0,134	-0,042
-679,466	221,434	0,094	0,110
-678,451	191,553	-0,096	-0,105
-677,437	66,432	0,141	0,104
-676,422	-200,000	0,025	0,090
-675,408	-200,000	-0,011	-0,199
-674,393	385,706	-0,027	-0,040
-673,378	-105,622	-0,223	-0,036
-672,364	-189,537	0,046	-0,000
-671,349	41,618	-0,098	-0,065
-670,335	-7,242	0,108	-0,053
-669,320	800,000	-0,064	-0,138
-668,305	325,516	0,024	0,033
-667,291	-14,199	0,036	-0,017
-666,276	-16,345	-0,128	0,059
-665,262	-132,775	-0,063	0,006
-664,247	800,000	-0,021	0,050
-663,232	22,331	-0,154	-0,091
-662,218	74,188	-0,025	0,019
-661,203	800,000	-0,029	-0,078
-660,189	-10,857	-0,092	0,044
-659,174	-4,381	-0,100	-0,050
-658,159	190,897	-0,082	-0,090
-657,145	-200,000	-0,009	-0,057
-656,130	365,566	0,026	0,038
-655,116	-106,112	-0,048	-0,008
-654,101	-110,802	0,086	0,013
-653,086	800,000	-0,011	0,022
-652,072	146,840	0,087	0,085
-651,057	390,121	-0,030	0,045
-650,043	-200,000	0,011	-0,080
-649,028	-99,854	0,128	0,023
-648,014	8,640	0,083	0,045
-646,999	-119,176	-0,189	-0,024
-645,984	-23,855	-0,059	-0,025
-644,970	135,622	0,070	-0,066
-643,955	15,881	0,068	-0,039
-642,941	800,000	-0,075	-0,184
-641,926	250,282	-0,007	-0,009
-640,911	93,645	0,094	-0,077
-639,897	800,000	0,016	0,046
-638,882	426,512	0,027	-0,042
-637,868	-169,084	-0,031	-0,001
-636,853	-13,650	-0,076	-0,036
-635,838	800,000	-0,058	-0,158
-634,824	290,604	0,038	0,050
-633,809	170,767	-0,067	0,070
-632,795	423,472	-0,024	0,037
-631,780	37,774	0,035	-0,022
-630,765	71,379	-0,054	-0,041
-629,751	800,000	0,056	-0,133
-628,736	125,496	-0,123	0,112
-627,722	-47,196	-0,083	-0,029
-626,707	-32,858	0,193	0,078
-625,692	-72,085	-0,049	-0,013
-624,678	800,000	0,040	-0,115
-623,663	12,239	0,165	0,092
-622,649	800,000	-0,064	-0,153
-621,634	177,941	0,026	-0,027
-620,619	800,000	0,050	-0,126
-619,605	-184,164	-0,069	0,001
-618,590	20,283	0,074	-0,043
-617,576	800,000	-0,009	-0,025
-616,561	270,753	0,074	0,094
-615,546	635,166	0,025	-0,047
-614,532	-200,000	-0,001	-0,062
-613,517	277,686	0,056	0,072
-612,503	-87,813	0,112	-0,024
-611,488	42,341	0,011	-0,007
-610,474	-200,000	0,002	0,058
-609,459	35,524	0,012	-0,008
-608,444	380,750	0,059	0,088
-607,430	-200,000	-0,014	-0,196
-606,415	480,602	-0,035	-0,058
-605,401	-200,000	-0,012	-0,151
-604,386	-71,013	0,025	-0,007
-603,371	-200,000	-0,006	0,178
-602,357	-166,490	0,188	-0,006
-601,342	-200,000	0,002	-0,021
-600,328	-98,857	-0,041	-0,008
-599,313	-200,000	0,000	-0,173
-598,298	35,513	0,051	0,033
-597,284	295,608	0,094	-0,125
-596,269	-162,088	0,132	-0,005
-595,255	402,927	-0,046	-0,070
-594,240	-200,000	0,022	-0,111
-593,225	-200,000	-0,002	0,062
-592,211	-200,000	-0,010	-0,049
-591,196	772,556	0,064	-0,127
-590,182	800,000	0,024	-0,057
-589,167	-200,000	0,054	0,182
-588,152	-73,603	-0,112	-0,029
-587,138	-124,301	-0,153	-0,017
-586,123	800,000	-0,025	0,061
-585,109	-10,606	-0,051	-0,024
-584,094	347,487	-0,012	0,017
-583,079	800,000	-0,063	-0,129
-582,065	-200,000	-0,015	0,061
-581,050	800,000	0,035	-0,099
-580,036	800,000	-0,020	-0,056
-579,021	3,900	-0,051	0,027
-578,006	-200,000	0,028	-0,125
-576,992	-200,000	-0,040	-0,134
-575,977	800,000	0,042	-0,094
-574,963	-200,000	0,020	0,235
-573,948	-200,000	-0,007	0,044
-572,934	-52,700	0,054	-0,018
-571,919	-48,541	-0,116	-0,040
-570,904	-95,720	-0,103	0,020
-569,890	-109,906	-0,078	-0,012
-568,875	-8,970	0,046	0,022
-567,861	-71,859	0,154	0,041
-566,846	797,767	-0,018	-0,037
-565,831	-22,697	0,066	0,029
-564,817	-200,000	0,014	0,129
-563,802	-70,125	-0,085	-0,023
-562,788	381,183	0,054	0,081
-561,773	800,000	0,077	0,156
-560,758	405,016	0,072	-0,109
-559,744	-200,000	0,010	0,059
-558,729	285,087	0,049	0,065
-557,715	800,000	-0,035	0,090
-556,700	131,475	0,052	0,049
-555,685	726,064	0,027	-0,052
-554,671	99,898	0,065	0,054
-553,656	-200,000	0,016	-0,114
-552,642	79,919	-0,037	0,028
-551,627	-200,000	0,007	-0,137
-550,612	404,414	0,045	-0,068
-549,598	157,000	-0,089	-0,089
-548,583	-57,260	0,048	-0,015
-547,569	43,957	-0,134	-0,089
-546,554	-112,641	0,094	-0,013
-545,539	28,836	0,024	-0,015
-544,525	-200,000	0,017	0,105
-543,510	-54,144	-0,130	0,042
-542,496	-200,000	0,016	-0,092
-541,481	-63,754	-0,092	-0,027
-540,466	-113,000	-0,119	0,017
-539,452	-195,429	0,134	0,001
-538,437	-92,358	0,175	-0,035
-537,423	35,636	0,090	-0,057
-536,408	83,580	0,098	-0,077
-535,393	226,394	-0,086	-0,101
-534,379	-99,246	0,044	0,008
-533,364	-200,000	-0,019	-0,071
-532,350	-50,235	0,178	0,060
-531,335	-200,000	0,003	0,149
-530,321	400,180	-0,008	0,012
-529,306	405,467	-0,048	0,074
-528,291	61,348	-0,074	-0,053
-527,277	-56,565	-0,137	-0,044
-526,262	-200,000	-0,009	-0,033
-525,248	-200,000	-0,005	-0,079
-524,233	-56,303	0,116	-0,037
-523,218	-137,865	0,009	0,001
-522,204	800,000	0,001	-0,004
-521,189	-200,000	0,016	-0,069
-520,175	331,851	0,057	-0,080
-519,160	618,488	-0,061	-0,112
-518,145	-44,423	0,128	-0,046
-517,131	-200,000	0,003	0,030
-516,116	-42,320	0,055	-0,020
-515,102	-22,686	-0,041	0,018
-514,087	42,337	-0,230	-0,151
-513,072	-200,000	0,003	-0,060
-512,058	-200,000	-0,006	-0,113
-511,043	199,579	0,047	0,052
-510,029	800,000	0,036	0,113
-509,014	74,048	-0,057	0,043
-507,999	-200,000	0,001	0,048
-506,985	800,000	0,041	-0,085
-505,970	309,213	-0,078	-0,105
-504,956	28,592	0,073	0,045
-503,941	162,667	-0,041	0,041
-502,926	18,960	-0,059	0,034
-501,912	800,000	-0,040	0,099
-500,897	800,000	0,099	-0,266
-499,883	-117,821	-0,187	0,024
-498,868	-11,947	-0,033	0,016
-497,853	30,398	-0,060	-0,037
-496,839	-200,000	-0,004	-0,078
-495,824	93,666	-0,073	-0,060
-494,810	-64,064	-0,072	-0,021
-493,795	87,762	0,033	0,026
-492,781	284,790	0,074	-0,097
-491,766	-200,000	0,008	0,062
-490,751	-200,000	0,007	0,075
-489,737	-200,000	-0,003	0,105
-488,722	-200,000	-0,003	0,094
-487,708	-200,000	-0,004	-0,044
-486,693	800,000	-0,028	-0,089
-485,678	370,738	-0,045	0,067
-484,664	-124,265	-0,187	0,021
-483,649	259,933	0,057	0,071
-482,635	800,000	-0,075	0,189
-481,620	-193,422	0,116	0,001
-480,605	264,752	-0,064	-0,080
-479,591	734,411	-0,015	-0,029
-478,576	800,000	-0,050	-0,124
-477,562	-200,000	-0,020	-0,133
-476,547	-200,000	0,006	-0,125
-475,532	-70,387	0,038	0,010
-474,518	-200,000	0,007	-0,090
-473,503	-88,879	0,039	-0,008
-472,489	-91,741	0,136	-0,028
-471,474	-200,000	-0,023	0,099
-470,459	2,050	-0,047	0,024
-469,445	800,000	-0,041	-0,105
-468,430	-89,508	-0,038	-0,008
-467,416	-98,235	0,061	0,011
-466,401	-53,748	0,092	0,030
-465,386	99,159	-0,058	-0,048
-464,372	800,000	-0,089	-0,184
-463,357	705,133	-0,071	-0,136
-462,343	800,000	0,035	0,082
-461,328	-19,950	-0,127	0,056
-460,313	94,196	0,014	-0,011
-459,299	92,574	0,030	0,024
-458,284	-200,000	-0,013	-0,045
-457,270	64,425	0,158	0,114
-456,255	-33,369	-0,132	0,052
-455,241	131,992	0,028	0,026
-454,226	204,359	-0,061	-0,068
-453,211	6,872	-0,099	0,053
-452,197	66,622	0,100	0,073
-451,182	-19,626	0,102	0,045
-450,168	592,046	-0,018	0,033
-449,153	419,896	0,007	-0,011
-448,138	-123,041	-0,068	0,008
-447,124	-111,989	-0,086	-0,012
-446,109	-14,411	-0,111	-0,051
-445,095	93,627	0,139	-0,113
-444,080	800,000	-0,069	0,173
-443,065	-200,000	-0,007	-0,060
-442,051	-200,000	0,046	-0,174
-441,036	-107,430	-0,089	-0,014
-440,022	-62,673	-0,040	-0,012
-439,007	47,274	-0,065	-0,044
-437,992	-200,000	0,016	0,088
-436,978	27,270	-0,081	-0,049
-435,963	-200,000	-0,002	-0,105
-434,949	-200,000	0,010	0,051
-433,934	192,259	0,103	-0,112
-432,919	-200,000	-0,022	0,073
-431,905	48,299	-0,055	-0,037
-430,890	-188,019	0,078	-0,001
-429,876	-156,686	-0,083	0,004
-428,861	177,814	0,015	0,016
-427,846	-3,921	0,092	-0,046
-426,832	-10,153	-0,082	0,039
-425,817	-13,782	0,064	-0,030
-424,803	-200,000	0,002	0,046
-423,788	14,042	0,041	0,023
-422,773	800,000	-0,026	0,075
-421,759	248,682	-0,015	0,019
-420,744	210,773	-0,047	0,053
-419,730	64,064	-0,031	-0,022
-418,715	-122,901	-0,039	0,004
-417,701	41,707	0,066	0,043
-416,686	-200,000	0,002	0,040
-415,671	-200,000	-0,008	0,026
-414,657	80,908	0,079	0,061
-413,642	-200,000	-0,003	-0,062
-412,628	-7,203	0,025	0,012
-411,613	424,186	-0,074	-0,115
-410,598	327,037	-0,015	-0,020
-409,584	-200,000	0,024	0,163
-408,569	-37,633	-0,045	-0,017
-407,555	800,000	0,038	0,086
-406,540	800,000	0,016	-0,046
-405,525	-76,779	-0,155	-0,039
-404,511	800,000	-0,033	-0,080
-403,496	652,920	0,023	-0,042
-402,482	125,240	-0,082	0,074
-401,467	563,017	0,052	0,091
-400,452	-200,000	-0,060	0,229
-399,438	443,644	-0,110	0,174
-398,423	-200,000	-0,008	0,073
-397,409	800,000	0,075	-0,163
-396,394	-143,288	-0,047	0,003
-395,379	31,291	0,081	-0,050
-394,365	-101,188	0,103	0,018
-393,350	8,451	0,141	-0,076
-392,336	8,092	-0,058	-0,031
-391,321	13,482	-0,062	-0,035
-390,306	800,000	-0,037	0,099
-389,292	206,207	-0,064	-0,072
-388,277	-200,000	-0,036	0,149
-387,263	653,295	0,063	0,116
-386,248	-200,000	0,005	-0,061
-385,233	84,404	-0,084	0,066
-384,219	-110,639	0,094	0,014
-383,204	-87,415	-0,139	-0,030
-382,190	49,059	0,054	0,036
-381,175	800,000	0,030	0,062
-380,160	65,234	0,099	0,072
-379,146	-200,000	0,025	0,109
-378,131	183,118	0,075	0,080
-377,117	-115,631	0,043	-0,006
-376,102	800,000	-0,057	-0,142
-375,088	402,916	0,066	0,099
-374,073	-54,981	0,154	-0,050
-373,058	689,446	0,012	-0,023
-372,044	90,803	0,026	-0,021
-371,029	402,377	-0,084	-0,128
-370,015	-45,688	0,040	0,014
-369,000	-93,670	-0,074	0,015
-367,985	-128,159	-0,038	0,004
-366,971	-180,117	-0,142	0,002
-365,956	127,328	-0,040	-0,036
-364,942	162,363	0,058	0,059
-363,927	343,199	0,051	0,072
-362,912	-32,071	0,051	0,021
-361,898	-200,000	-0,001	-0,062
-360,883	588,534	-0,030	-0,053
-359,869	-73,730	-0,098	-0,025
-358,854	-200,000	0,003	0,103
-357,839	220,249	0,107	0,124
-356,825	-200,000	0,000	0,291
-355,810	-200,000	0,039	0,168
-354,796	800,000	0,023	0,058
-353,781	43,539	0,039	-0,025
-352,766	-200,000	-0,004	-0,093
-351,752	58,152	0,103	0,073
-350,737	620,279	0,048	0,087
-349,723	-57,846	0,102	-0,032
-348,708	359,990	0,054	0,078
-347,693	-200,000	0,008	-0,082
-346,679	767,170	-0,017	-0,034
-345,664	434,680	0,020	0,031
-344,650	-149,074	-0,060	-0,003
-343,635	-200,000	-0,002	0,030
-342,620	782,106	0,050	0,099
-341,606	-200,000	-0,030	0,102
-340,591	71,269	-0,051	-0,038
-339,577	19,682	-0,062	-0,036
-338,562	148,606	0,017	-0,017
-337,548	-200,000	-0,025	-0,086
-336,533	-9,209	0,114	-0,054
-335,518	-200,000	-0,014	0,074
-334,504	74,056	0,080	-0,060
-333,489	159,623	-0,075	0,075
-332,475	-200,000	-0,020	-0,084
-331,460	-200,000	-0,015	-0,183
-330,445	45,103	0,053	0,035
-329,431	-200,000	0,012	0,188
-328,416	-184,694	0,033	0,000
-327,402	-124,899	0,073	0,008
-326,387	-200,000	-0,016	0,068
-325,372	-200,000	-0,007	-0,122
-324,358	11,301	-0,105	0,057
-323,343	-120,206	0,187	-0,023
-322,329	-200,000	0,041	-0,149
-321,314	46,546	-0,117	0,078
-320,299	501,580	0,070	0,117
-319,285	-93,642	-0,148	0,029
-318,270	121,816	0,006	0,006
-317,256	-166,168	-0,013	-0,000
-316,241	-34,686	-0,083	0,032
-315,226	800,000	0,015	-0,043
-314,212	253,900	0,087	0,106
-313,197	-200,000	0,004	0,067
-312,183	540,957	0,045	-0,078
-311,168	60,652	-0,066	-0,047
-310,153	-7,680	-0,023	0,011
-309,139	800,000	-0,035	-0,080
-308,124	-20,278	-0,090	-0,039
-307,110	86,602	-0,045	0,036
-306,095	-200,000	-0,007	0,034
-305,080	-167,483	0,079	0,002
-304,066	-55,671	-0,109	0,035
-303,051	-200,000	-0,003	0,037
-302,037	172,325	-0,021	0,021
-301,022	800,000	-0,019	-0,049
-300,008	794,889	0,077	0,152
-298,993	-200,000	-0,020	-0,064
-297,978	484,778	-0,022	-0,036
-296,964	47,516	-0,033	-0,022
-295,949	119,939	-0,176	-0,156
-294,935	502,311	0,064	-0,106
-293,920	658,134	-0,048	0,088
-292,905	-63,854	-0,070	0,020
-291,891	115,995	0,060	-0,053
-290,876	345,571	-0,036	0,050
-289,862	424,972	-0,080	-0,124
-288,847	64,346	-0,067	-0,049
-287,832	4,834	0,028	-0,015
-286,818	800,000	0,020	-0,062
-285,803	96,149	0,069	-0,056
-284,789	-200,000	-0,017	-0,159
-283,774	202,902	-0,030	-0,034
-282,759	-200,000	-0,015	0,066
-281,745	-81,856	-0,139	0,032
-280,730	191,723	0,057	0,062
-279,716	-80,417	-0,132	-0,031
-278,701	48,613	0,083	-0,056
-277,686	-200,000	0,018	0,159
-276,672	35,525	-0,031	-0,019
-275,657	194,726	0,082	-0,090
-274,643	-134,759	0,113	-0,010
-273,628	-200,000	-0,001	-0,080
-272,613	-27,143	0,039	-0,016
-271,599	-70,315	-0,069	-0,019
-270,584	-79,564	0,069	0,016
-269,570	800,000	-0,061	0,141
-268,555	652,788	0,037	-0,067
-267,540	-77,037	0,013	-0,003
-266,526	-200,000	0,015	-0,155
-265,511	17,966	0,054	0,031
-264,497	-152,553	0,083	0,004
-263,482	-40,220	0,190	0,070
-262,467	800,000	0,038	0,085
-261,453	800,000	-0,053	0,137
-260,438	121,980	0,074	-0,066
-259,424	227,622	-0,080	0,093
-258,409	-50,073	-0,118	-0,040
-257,395	211,679	-0,049	-0,056
-256,380	800,000	0,060	-0,167
-255,365	-13,840	-0,060	-0,028
-254,351	373,854	0,052	0,076
-253,336	129,908	-0,077	-0,070
-252,322	175,377	-0,139	0,144
-251,307	-10,617	0,029	0,014
-250,292	-200,000	0,011	0,092
-249,278	-75,781	0,111	0,028
-248,263	80,917	0,175	0,135
-247,249	-200,000	0,064	0,214
-246,234	585,644	0,025	0,044
-245,219	800,000	-0,021	0,064
-244,205	-35,944	0,034	0,013
-243,190	-200,000	0,010	-0,042
-242,176	-23,549	0,065	0,028
-241,161	800,000	0,031	-0,095
-240,146	44,744	-0,111	0,073
-239,132	-121,351	-0,046	-0,005
-238,117	100,722	-0,059	-0,049
-237,103	800,000	-0,056	-0,168
-236,088	-117,716	0,089	0,011
-235,073	-200,000	-0,012	0,137
-234,059	55,153	-0,038	-0,026
-233,044	-200,000	0,024	-0,077
-232,030	-145,747	-0,146	-0,009
-231,015	-7,504	0,054	0,026
-230,000	75,716	0,038	0,029
-228,986	147,917	-0,035	-0,034
-227,971	800,000	0,050	0,119
-226,957	-133,399	0,071	0,006
-225,942	-200,000	0,016	0,082
-224,927	800,000	-0,015	-0,038
-223,913	-200,000	-0,010	0,132
-222,898	93,535	0,108	-0,088
-221,884	4,243	0,073	0,038
-220,869	-200,000	-0,012	0,043
-219,855	517,127	0,064	0,107
-218,840	383,025	0,078	0,115
-217,825	65,587	-0,141	-0,102
-216,811	-200,000	-0,006	0,023
-215,796	92,828	-0,015	-0,012
-214,782	-60,931	0,070	0,021
-213,767	19,000	-0,157	-0,090
-212,752	165,908	0,142	0,144
-211,738	-200,000	0,024	-0,076
-210,723	800,000	0,055	0,155
-209,709	-24,361	-0,063	0,027
-208,694	271,893	-0,092	0,115
-207,679	17,406	-0,127	-0,072
-206,665	-200,000	0,019	0,092
-205,650	-200,000	0,021	0,068
-204,636	800,000	-0,053	-0,164
-203,621	5,542	-0,066	-0,035
-202,606	141,762	-0,049	-0,047
-201,592	800,000	-0,038	0,080
-200,577	33,543	-0,027	0,016
-199,563	-200,000	-0,014	-0,126
-198,548	335,461	-0,051	0,071
-197,533	255,425	-0,100	0,123
-196,519	360,962	0,062	0,088
-195,504	-200,000	-0,009	-0,094
-194,490	-73,611	0,091	-0,023
-193,475	-131,315	-0,047	-0,004
-192,460	-5,994	0,064	0,031
-191,446	-123,462	0,131	0,015
-190,431	-130,452	0,132	-0,013
-189,417	-200,000	0,054	-0,248
-188,402	-97,829	-0,049	0,009
-187,387	431,381	-0,067	-0,104
-186,373	-10,665	0,019	-0,009
-185,358	159,654	0,079	0,078
-184,344	-200,000	0,001	0,061
-183,329	103,196	0,049	0,041
-182,315	106,439	-0,094	0,079
-181,300	84,482	-0,051	-0,040
-180,285	13,506	0,079	-0,044
-179,271	-200,000	-0,015	-0,133
-178,256	-40,194	0,019	0,007
-177,242	-113,205	-0,192	0,027
-176,227	-53,757	0,173	0,056
-175,212	54,911	-0,074	0,051
-174,198	800,000	0,056	0,138
-173,183	3,155	-0,035	0,018
-172,169	156,265	-0,066	0,065
-171,154	-200,000	-0,019	0,171
-170,139	-200,000	-0,002	0,050
-169,125	610,196	0,022	0,039
-168,110	-200,000	0,001	0,040
-167,096	800,000	0,035	0,093
-166,081	-21,142	-0,067	0,029
-165,066	474,711	0,011	-0,018
-164,052	-93,748	0,110	-0,021
-163,037	800,000	-0,068	-0,141
-162,023	135,268	0,045	-0,042
-161,008	800,000	-0,027	0,069
-159,993	-200,000	-0,037	0,252
-158,979	-35,837	-0,118	0,045
-157,964	-83,388	-0,014	0,003
-156,950	-200,000	-0,024	-0,124
-155,935	144,784	-0,056	-0,053
-154,920	800,000	0,027	0,076
-153,906	211,566	0,031	0,035
-152,891	119,248	-0,055	0,049
-151,877	196,748	-0,083	-0,090
-150,862	307,176	0,066	-0,088
-149,847	-200,000	0,002	0,082
-148,833	306,865	0,087	-0,116
-147,818	-200,000	-0,033	-0,237
-146,804	61,060	0,089	0,063
-145,789	96,480	-0,019	0,015
-144,775	-30,297	0,071	0,029
-143,760	14,457	0,037	-0,020
-142,745	-94,657	-0,059	-0,011
-141,731	19,849	0,049	-0,028
-140,716	-47,581	-0,046	-0,016
-139,702	32,367	-0,044	0,027
-138,687	-200,000	0,015	0,061
-137,672	-200,000	-0,001	-0,057
-136,658	629,126	-0,094	-0,169
-135,643	-39,944	-0,029	0,011
-134,629	-31,359	-0,018	0,007
-133,614	318,289	0,092	0,124
-132,599	-148,270	-0,076	0,004
-131,585	730,254	-0,051	0,097
-130,570	36,224	-0,095	0,060
-129,556	8,374	0,050	-0,027
-128,541	-200,000	-0,046	0,163
-127,526	293,700	-0,126	0,164
-126,512	800,000	0,092	0,185
-125,497	-155,656	0,100	0,004
-124,483	800,000	0,043	0,090
-123,468	800,000	-0,051	-0,109
-122,453	68,513	0,058	-0,042
-121,439	189,508	-0,057	-0,060
-120,424	-92,940	-0,175	-0,034
-119,410	800,000	-0,064	0,142
-118,395	-166,163	0,133	-0,004
