DTS Sentinel unit serial number:	SN410029Multiplexer serial number:	ORYXHardware model number:	OX2-SRSoftware version number:	ORYX F/W v4,00 Oryx Data Collector v3.7.2.0data status	okinstallation	BH3 CH2differential loss correction	single-endedforward channel	channel 2reverse channel	N/Adate	2023/12/06time	06:22:28forward acquisition time	300,00reverse acquisition time	0,00gamma	499,1914k internal	0,3197k external	0,3197temperature offset calibration	1,0000default loss term (dB/km)	0,3820temperature slope calibration	1,0000multiplexer offset coefficient	1,0000multiplexer slope coefficient	1,0000fibre end	0,00T internal ref (°C)	8,90T ext. ref 1 (°C)	-5,72T ext. ref 2 (°C)	-5,84length (m)	temperature (°C)	Stokes	anti-Stokes-744,400	-200,000	-0,001	0,101
-743,385	-26,790	-0,188	0,080
-742,371	800,000	-0,044	-0,093
-741,356	130,416	-0,082	0,077
-740,342	170,951	-0,053	-0,055
-739,327	-163,023	-0,251	0,009
-738,312	-200,000	-0,013	-0,081
-737,298	-200,000	-0,266	0,000
-736,283	95,867	0,103	-0,085
-735,269	-93,558	-0,225	0,045
-734,254	4,574	-0,067	-0,036
-733,239	-54,910	-0,447	-0,146
-732,225	774,732	-0,056	-0,112
-731,210	800,000	-0,044	0,113
-730,196	-125,869	-0,110	0,012
-729,181	590,116	-0,032	0,057
-728,167	249,991	0,066	0,082
-727,152	88,240	-0,113	-0,091
-726,137	-118,599	-0,136	-0,017
-725,123	33,331	-0,177	-0,112
-724,108	797,951	-0,067	-0,134
-723,094	25,100	-0,084	-0,050
-722,079	-68,623	-0,037	-0,010
-721,064	-200,000	0,016	-0,131
-720,050	104,571	-0,143	0,122
-719,035	-31,653	0,068	0,028
-718,021	304,458	-0,037	-0,050
-717,006	800,000	-0,065	-0,140
-715,991	413,948	0,062	-0,096
-714,977	-200,000	-0,044	-0,171
-713,962	800,000	-0,032	0,070
-712,948	-200,000	-0,005	0,089
-711,933	-200,000	0,002	0,108
-710,918	-200,000	-0,003	0,060
-709,904	-48,538	-0,139	0,048
-708,889	800,000	-0,033	-0,075
-707,875	-98,197	-0,083	0,015
-706,860	-102,187	0,099	0,017
-705,845	7,686	0,098	0,053
-704,831	514,425	0,023	-0,038
-703,816	15,308	-0,133	0,076
-702,802	-200,000	-0,016	0,090
-701,787	-28,174	-0,056	-0,023
-700,772	286,024	0,084	0,111
-699,758	-200,000	-0,005	0,110
-698,743	-36,365	-0,110	0,043
-697,729	-176,622	0,164	-0,003
-696,714	-112,966	-0,133	0,019
-695,699	800,000	-0,046	-0,125
-694,685	-20,806	0,069	0,031
-693,670	59,354	-0,043	-0,030
-692,656	-200,000	0,012	0,062
-691,641	800,000	-0,029	0,067
-690,627	108,336	0,099	0,085
-689,612	800,000	0,034	-0,076
-688,597	618,368	0,079	-0,146
-687,583	219,093	-0,050	0,058
-686,568	-200,000	0,009	-0,148
-685,554	129,661	-0,061	-0,057
-684,539	555,301	-0,023	-0,041
-683,524	-9,031	0,037	0,018
-682,510	504,391	-0,072	0,122
-681,495	-93,227	0,103	0,021
-680,481	-200,000	-0,026	-0,098
-679,466	53,173	0,073	-0,050
-678,451	264,638	-0,109	-0,139
-677,437	422,606	0,079	0,124
-676,422	800,000	0,041	0,084
-675,408	800,000	-0,041	0,087
-674,393	800,000	0,029	-0,082
-673,378	-189,261	0,060	-0,001
-672,364	-187,801	-0,192	0,002
-671,349	-200,000	-0,007	-0,141
-670,335	58,330	-0,022	0,015
-669,320	39,932	0,035	-0,023
-668,305	171,090	0,055	0,058
-667,291	-161,779	-0,055	0,002
-666,276	285,683	-0,110	-0,144
-665,262	244,430	-0,068	-0,083
-664,247	-118,935	-0,062	-0,008
-663,232	231,058	0,136	-0,163
-662,218	-14,425	0,048	-0,022
-661,203	-200,000	-0,000	-0,009
-660,189	-200,000	-0,014	0,127
-659,174	-200,000	-0,014	-0,089
-658,159	-49,882	0,074	-0,025
-657,145	-200,000	-0,024	-0,086
-656,130	339,217	-0,116	-0,165
-655,116	-58,160	0,048	-0,015
-654,101	84,491	-0,030	0,024
-653,086	-66,993	-0,056	0,016
-652,072	-200,000	0,023	-0,091
-651,057	-200,000	-0,005	-0,035
-650,043	192,322	-0,088	-0,096
-649,028	185,350	0,080	0,086
-648,014	220,531	0,070	-0,082
-646,999	-60,601	0,062	-0,019
-645,984	17,258	-0,082	-0,047
-644,970	63,839	-0,121	-0,088
-643,955	-187,060	-0,094	0,001
-642,941	240,037	-0,114	-0,138
-641,926	12,208	-0,050	-0,028
-640,911	-96,332	-0,092	0,017
-639,897	-200,000	0,012	0,049
-638,882	505,002	0,086	0,144
-637,868	-122,376	-0,182	0,021
-636,853	800,000	0,028	-0,078
-635,838	651,228	0,060	0,113
-634,824	195,467	-0,096	-0,106
-633,809	-200,000	-0,031	-0,132
-632,795	800,000	-0,015	-0,041
-631,780	800,000	0,020	-0,061
-630,765	193,377	0,042	0,046
-629,751	413,907	-0,067	-0,103
-628,736	-62,366	-0,184	-0,055
-627,722	-200,000	-0,001	-0,096
-626,707	-102,152	-0,107	-0,018
-625,692	-144,939	0,130	0,008
-624,678	263,496	-0,067	0,084
-623,663	-200,000	0,032	-0,129
-622,649	451,688	-0,029	0,047
-621,634	265,906	0,096	-0,121
-620,619	-126,465	0,119	-0,013
-619,605	-200,000	-0,030	0,101
-618,590	-200,000	0,021	0,168
-617,576	800,000	0,022	0,069
-616,561	-200,000	0,014	0,131
-615,546	108,789	-0,010	0,008
-614,532	-23,255	-0,108	-0,047
-613,517	-200,000	-0,045	-0,160
-612,503	-17,832	-0,121	0,055
-611,488	-200,000	0,007	0,048
-610,474	-200,000	0,013	-0,067
-609,459	188,029	-0,118	-0,128
-608,444	472,139	-0,067	-0,110
-607,430	-200,000	-0,024	-0,106
-606,415	-28,199	0,030	0,013
-605,401	244,585	0,026	-0,032
-604,386	528,081	-0,038	0,065
-603,371	183,957	-0,098	0,105
-602,357	-165,292	-0,043	0,001
-601,342	457,593	-0,047	-0,076
-600,328	-160,753	-0,051	-0,002
-599,313	-200,000	-0,000	-0,109
-598,298	-200,000	-0,014	-0,056
-597,284	-133,131	0,086	0,008
-596,269	-200,000	-0,019	-0,097
-595,255	-200,000	0,001	0,058
-594,240	-169,260	-0,077	-0,002
-593,225	800,000	-0,020	-0,054
-592,211	-139,591	0,090	0,007
-591,196	146,282	0,040	-0,038
-590,182	130,160	-0,053	0,049
-589,167	800,000	0,015	0,038
-588,152	-169,524	-0,090	-0,002
-587,138	-74,942	-0,070	0,018
-586,123	634,128	0,075	-0,138
-585,109	120,705	-0,048	0,043
-584,094	-200,000	0,013	-0,087
-583,079	800,000	-0,042	-0,090
-582,065	-200,000	-0,006	0,032
-581,050	706,535	-0,030	-0,057
-580,036	500,540	0,024	0,040
-579,021	486,344	-0,037	0,061
-578,006	183,320	0,056	-0,060
-576,992	16,892	0,096	-0,055
-575,977	640,642	0,029	0,055
-574,963	-200,000	-0,003	0,113
-573,948	50,502	0,076	0,052
-572,934	86,004	-0,030	0,023
-571,919	99,535	-0,128	-0,107
-570,904	-200,000	0,022	0,078
-569,890	566,462	0,032	-0,056
-568,875	128,325	-0,016	-0,015
-567,861	284,525	-0,070	-0,091
-566,846	87,689	-0,057	-0,046
-565,831	-54,484	-0,065	-0,021
-564,817	-55,576	0,033	0,011
-563,802	-163,391	-0,114	-0,004
-562,788	595,004	0,029	0,052
-561,773	800,000	0,007	-0,017
-560,758	-15,944	0,077	-0,035
-559,744	37,727	-0,040	-0,026
-558,729	-200,000	0,006	-0,092
-557,715	800,000	-0,049	0,101
-556,700	-149,050	-0,179	-0,010
-555,685	538,396	-0,050	-0,086
-554,671	614,809	-0,021	0,038
-553,656	252,563	0,105	0,129
-552,642	791,690	0,040	0,080
-551,627	-200,000	-0,034	0,123
-550,612	-111,340	-0,094	-0,014
-549,598	590,396	0,089	-0,159
-548,583	332,037	0,016	0,022
-547,569	-77,949	0,066	-0,016
-546,554	194,725	0,049	0,054
-545,539	62,853	-0,103	0,075
-544,525	-23,631	-0,063	0,027
-543,510	-200,000	0,026	-0,099
-542,496	15,572	-0,103	0,058
-541,481	241,375	-0,065	0,079
-540,466	-35,435	0,160	0,063
-539,452	-200,000	-0,008	-0,032
-538,437	-200,000	-0,020	0,096
-537,423	-200,000	0,034	-0,144
-536,408	-48,278	-0,011	0,004
-535,393	279,167	-0,078	-0,101
-534,379	175,522	0,026	-0,028
-533,364	-83,907	-0,117	-0,027
-532,350	-126,260	-0,147	0,016
-531,335	-45,616	0,040	-0,014
-530,321	-200,000	-0,008	0,070
-529,306	429,625	-0,029	0,045
-528,291	800,000	-0,037	0,105
-527,277	-20,230	-0,036	0,016
-526,262	-200,000	-0,010	0,039
-525,248	800,000	0,047	0,135
-524,233	800,000	0,043	0,136
-523,218	-200,000	0,007	0,108
-522,204	577,658	-0,050	-0,088
-521,189	412,292	-0,139	0,214
-520,175	366,887	-0,064	-0,093
-519,160	-21,457	-0,094	-0,041
-518,145	-157,971	0,055	0,002
-517,131	800,000	0,065	-0,136
-516,116	-200,000	0,011	0,159
-515,102	800,000	0,036	0,106
-514,087	800,000	0,091	-0,188
-513,072	-200,000	-0,005	0,041
-512,058	589,232	-0,018	-0,032
-511,043	-200,000	0,000	0,100
-510,029	188,309	0,029	0,032
-509,014	253,291	0,102	-0,127
-507,999	82,482	-0,053	-0,042
-506,985	-44,586	-0,040	-0,014
-505,970	-149,235	-0,155	-0,009
-504,956	23,097	0,075	-0,044
-503,941	354,859	0,034	-0,050
-502,926	106,333	0,111	0,095
-501,912	21,058	0,020	0,012
-500,897	-9,460	0,079	-0,038
-499,883	-11,306	-0,051	0,024
-498,868	-116,048	-0,153	-0,020
-497,853	-200,000	0,032	-0,109
-496,839	-200,000	-0,007	-0,043
-495,824	-200,000	-0,014	-0,058
-494,810	85,050	-0,033	0,026
-493,795	-124,328	0,106	0,012
-492,781	207,123	-0,102	-0,115
-491,766	-200,000	0,008	0,038
-490,751	192,646	-0,036	0,040
-489,737	-143,894	0,099	0,007
-488,722	-200,000	-0,012	-0,044
-487,708	-200,000	0,017	0,071
-486,693	-25,264	-0,107	0,045
-485,678	-200,000	0,022	0,126
-484,664	-200,000	-0,009	0,046
-483,649	103,752	-0,098	-0,083
-482,635	800,000	-0,027	-0,065
-481,620	-200,000	-0,006	-0,074
-480,605	-107,134	-0,098	0,015
-479,591	-61,385	0,045	-0,014
-478,576	60,694	0,064	0,045
-477,562	-38,891	-0,104	-0,039
-476,547	399,063	0,057	0,087
-475,532	800,000	0,071	-0,156
-474,518	-116,358	0,082	0,011
-473,503	-200,000	0,011	0,207
-472,489	-60,266	0,108	0,033
-471,474	73,909	-0,045	-0,034
-470,459	572,378	-0,031	-0,055
-469,445	129,206	-0,075	-0,069
-468,430	-112,972	-0,181	-0,026
-467,416	-200,000	0,032	0,000
-466,401	204,571	0,126	-0,141
-465,386	-73,954	0,078	-0,020
-464,372	45,287	0,035	0,023
-463,357	-200,000	-0,007	0,119
-462,343	800,000	-0,022	-0,057
-461,328	105,101	-0,058	-0,049
-460,313	-35,700	0,038	-0,015
-459,299	-104,736	0,052	-0,008
-458,284	-114,300	-0,026	0,004
-457,270	-45,444	0,055	-0,019
-456,255	-26,718	0,086	0,036
-455,241	391,220	0,019	-0,029
-454,226	-200,000	0,017	-0,084
-453,211	190,221	-0,152	-0,165
-452,197	-200,000	0,059	0,000
-451,182	108,432	-0,024	0,021
-450,168	5,246	0,087	-0,046
-449,153	800,000	-0,056	-0,140
-448,138	286,333	-0,039	-0,051
-447,124	-116,302	0,144	0,019
-446,109	-200,000	0,002	-0,016
-445,095	-200,000	-0,017	-0,151
-444,080	-189,844	0,050	-0,000
-443,065	259,571	0,082	0,102
-442,051	181,126	-0,067	-0,071
-441,036	800,000	-0,029	0,073
-440,022	-200,000	-0,005	-0,054
-439,007	-200,000	0,016	-0,063
-437,992	673,883	-0,045	0,084
-436,978	-82,503	0,177	0,041
-435,963	415,550	-0,085	-0,132
-434,949	-70,282	0,056	0,015
-433,934	28,212	-0,048	-0,029
-432,919	249,879	-0,040	-0,049
-431,905	63,029	-0,038	0,028
-430,890	74,443	0,074	-0,056
-429,876	560,340	-0,042	0,073
-428,861	800,000	-0,044	0,091
-427,846	-26,826	-0,140	-0,059
-426,832	59,356	0,044	-0,031
-425,817	-141,513	0,070	0,005
-424,803	800,000	-0,055	0,143
-423,788	-200,000	0,022	0,172
-422,773	-14,671	-0,145	0,067
-421,759	50,996	0,058	0,040
-420,744	461,461	0,074	0,120
-419,730	100,235	-0,052	-0,043
-418,715	800,000	0,041	-0,102
-417,701	-63,809	0,137	0,040
-416,686	203,090	-0,067	-0,075
-415,671	-34,082	0,136	0,054
-414,657	-200,000	-0,008	0,108
-413,642	496,231	0,032	0,054
-412,628	75,293	0,103	-0,078
-411,613	170,789	-0,041	-0,042
-410,598	-97,888	0,102	-0,019
-409,584	-146,835	-0,077	-0,005
-408,569	-58,050	0,150	-0,047
-407,555	-149,777	0,029	-0,002
-406,540	-200,000	-0,012	0,056
-405,525	-200,000	-0,019	-0,086
-404,511	266,735	0,036	-0,045
-403,496	800,000	0,020	-0,046
-402,482	-117,874	0,077	-0,010
-401,467	800,000	0,033	0,100
-400,452	490,860	-0,036	0,060
-399,438	85,340	0,009	0,007
-398,423	-6,864	-0,075	0,036
-397,409	-133,385	-0,054	-0,005
-396,394	-78,522	-0,068	-0,017
-395,379	609,315	-0,048	-0,087
-394,365	171,630	0,089	0,092
-393,350	-21,301	0,035	-0,015
-392,336	58,430	-0,083	0,058
-391,321	407,731	-0,069	0,105
-390,306	-65,478	-0,074	-0,021
-389,292	-200,000	-0,059	0,193
-388,277	-200,000	0,002	0,115
-387,263	-200,000	-0,008	0,083
-386,248	-72,019	0,055	-0,015
-385,233	-15,240	-0,031	-0,014
-384,219	-80,199	0,060	-0,014
-383,204	-200,000	0,009	-0,222
-382,190	800,000	-0,018	-0,051
-381,175	155,320	-0,082	0,081
-380,160	800,000	0,058	0,129
-379,146	-200,000	-0,013	-0,064
-378,131	15,569	0,064	-0,036
-377,117	33,927	0,179	0,112
-376,102	155,182	-0,053	-0,052
-375,088	-44,318	-0,081	0,029
-374,073	-113,814	0,094	0,013
-373,058	751,439	0,024	0,048
-372,044	-200,000	-0,042	0,191
-371,029	170,670	0,030	0,031
-370,015	800,000	0,071	0,174
-369,000	-89,722	-0,152	-0,032
-367,985	290,671	-0,059	0,077
-366,971	7,810	-0,030	0,016
-365,956	-85,767	0,165	-0,036
-364,942	415,236	0,043	0,066
-363,927	-64,620	-0,033	-0,010
-362,912	-27,611	0,267	-0,111
-361,898	17,966	-0,120	-0,068
-360,883	263,138	0,120	-0,149
-359,869	301,156	-0,096	0,127
-358,854	-200,000	-0,006	-0,130
-357,839	0,392	0,053	-0,027
-356,825	83,479	0,076	0,059
-355,810	-153,989	-0,127	-0,006
-354,796	-109,808	0,182	-0,027
-353,781	-76,045	-0,083	-0,021
-352,766	800,000	0,069	-0,165
-351,752	-200,000	-0,009	0,204
-350,737	-87,191	0,082	-0,018
-349,723	563,947	0,027	-0,047
-348,708	-27,768	-0,114	0,047
-347,693	-200,000	-0,012	0,101
-346,679	359,504	-0,009	0,014
-345,664	-200,000	-0,012	-0,184
-344,650	306,822	0,016	-0,021
-343,635	800,000	0,024	0,066
-342,620	800,000	0,064	0,164
-341,606	448,870	-0,042	0,066
-340,591	53,572	-0,051	0,035
-339,577	242,996	0,143	0,172
-338,562	10,905	-0,033	0,018
-337,548	800,000	-0,019	0,043
-336,533	51,614	-0,137	-0,093
-335,518	38,106	0,141	-0,089
-334,504	-79,073	0,058	0,014
-333,489	149,602	-0,045	0,044
-332,475	-65,689	-0,119	0,034
-331,460	800,000	-0,027	-0,063
-330,445	-123,527	0,091	-0,010
-329,431	394,121	-0,034	-0,051
-328,416	-200,000	-0,030	0,153
-327,402	1,588	0,051	-0,026
-326,387	304,275	0,035	-0,047
-325,372	32,644	-0,064	0,040
-324,358	-64,804	-0,056	0,016
-323,343	798,713	-0,052	-0,103
-322,329	679,545	-0,040	0,075
-321,314	-126,608	0,069	-0,007
-320,299	172,064	-0,040	0,042
-319,285	575,479	0,020	0,035
-318,270	-200,000	-0,016	-0,116
-317,256	89,266	-0,036	0,029
-316,241	-200,000	0,022	-0,092
-315,226	-10,348	0,114	-0,054
-314,212	170,455	0,095	0,098
-313,197	-200,000	-0,007	0,050
-312,183	106,851	-0,068	-0,058
-311,168	-25,721	-0,099	-0,041
-310,153	-200,000	0,006	0,027
-309,139	800,000	0,029	-0,072
-308,124	-23,993	-0,104	0,044
-307,110	-151,801	0,122	0,006
-306,095	224,094	0,117	0,135
-305,080	-60,793	0,106	0,032
-304,066	800,000	0,052	-0,125
-303,051	800,000	-0,039	-0,122
-302,037	-200,000	0,023	0,097
-301,022	-200,000	0,008	0,092
-300,008	155,978	0,059	0,058
-298,993	262,742	0,096	0,119
-297,978	-53,228	-0,115	0,038
-296,964	-141,692	-0,047	-0,003
-295,949	524,550	-0,007	0,013
-294,935	-109,534	-0,037	-0,005
-293,920	800,000	-0,033	-0,082
-292,905	81,125	0,150	0,116
-291,891	683,301	0,102	0,191
-290,876	346,877	-0,037	0,053
-289,862	800,000	0,029	0,073
-288,847	-200,000	0,022	0,132
-287,832	-200,000	-0,024	-0,112
-286,818	-135,644	0,070	-0,006
-285,803	536,140	0,064	0,109
-284,789	-200,000	-0,028	0,142
-283,774	-91,001	0,035	-0,007
-282,759	309,488	-0,101	-0,135
-281,745	-118,907	0,121	-0,015
-280,730	-178,137	-0,115	-0,002
-279,716	83,753	-0,037	-0,029
-278,701	96,102	0,114	-0,093
-277,686	-121,076	-0,093	-0,011
-276,672	-200,000	-0,140	0,000
-275,657	562,604	0,021	0,036
-274,643	483,948	0,071	0,115
-273,628	-200,000	-0,010	0,115
-272,613	253,763	-0,038	0,047
-271,599	80,615	-0,104	0,080
-270,584	-1,036	-0,074	0,037
-269,570	-17,960	0,181	0,081
-268,555	56,062	-0,100	-0,070
-267,540	-137,134	-0,052	-0,004
-266,526	328,808	-0,070	0,096
-265,511	43,878	0,108	0,071
-264,497	122,892	0,056	-0,050
-263,482	-200,000	0,017	0,167
-262,467	71,531	-0,053	-0,039
-261,453	800,000	0,016	-0,035
-260,438	-146,024	-0,133	-0,008
-259,424	-31,081	0,102	-0,041
-258,409	-200,000	-0,028	-0,141
-257,395	-200,000	0,014	-0,120
-256,380	-200,000	-0,010	-0,034
-255,365	-200,000	0,026	0,172
-254,351	800,000	0,049	0,099
-253,336	530,130	-0,027	-0,046
-252,322	198,404	-0,078	0,085
-251,307	800,000	-0,006	0,016
-250,292	800,000	0,006	0,012
-249,278	-10,147	0,139	0,066
-248,263	-120,976	0,189	-0,022
-247,249	800,000	0,034	0,078
-246,234	800,000	0,027	-0,071
-245,219	627,237	0,050	0,090
-244,205	95,384	0,092	-0,075
-243,190	-68,436	0,081	-0,022
-242,176	-95,904	0,130	0,025
-241,161	-34,652	0,125	0,048
-240,146	-71,711	0,059	-0,016
-239,132	253,071	0,084	-0,102
-238,117	-128,174	-0,063	-0,006
-237,103	-39,896	-0,022	0,008
-236,088	-200,000	0,009	-0,066
-235,073	-6,763	0,130	-0,063
-234,059	800,000	0,017	0,039
-233,044	28,067	-0,040	-0,024
-232,030	171,429	-0,078	-0,080
-231,015	-200,000	0,021	-0,069
-230,000	-41,443	-0,099	0,036
-228,986	800,000	-0,028	-0,077
-227,971	242,413	0,063	-0,075
-226,957	-200,000	0,006	-0,036
-225,942	-50,226	0,115	0,039
-224,927	-200,000	-0,011	0,151
-223,913	42,116	0,083	-0,054
-222,898	-200,000	-0,020	-0,195
-221,884	-140,726	-0,105	-0,008
-220,869	704,200	-0,036	-0,069
-219,855	800,000	0,040	-0,112
-218,840	-172,951	-0,063	-0,001
-217,825	-200,000	-0,009	-0,031
-216,811	121,525	0,065	0,058
-215,796	-157,866	-0,113	0,005
-214,782	-200,000	0,044	0,155
-213,767	-200,000	-0,009	0,101
-212,752	68,080	0,012	0,009
-211,738	207,534	0,070	-0,078
-210,723	-200,000	-0,011	-0,041
-209,709	-131,764	-0,052	-0,005
-208,694	-63,176	-0,061	0,018
-207,679	-200,000	0,003	-0,040
-206,665	-34,229	0,146	0,057
-205,650	800,000	-0,035	-0,088
-204,636	-200,000	0,022	0,085
-203,621	17,959	-0,033	0,019
-202,606	800,000	0,031	0,072
-201,592	604,898	0,026	0,046
-200,577	-200,000	-0,065	-0,216
-199,563	36,324	0,227	-0,142
-198,548	358,484	0,034	-0,048
-197,533	288,651	0,080	0,104
-196,519	-200,000	0,015	-0,108
-195,504	-200,000	0,015	-0,174
-194,490	-118,943	0,086	-0,011
-193,475	66,892	-0,045	0,033
-192,460	-46,851	-0,106	-0,037
-191,446	-200,000	0,015	-0,068
-190,431	487,067	-0,027	0,044
-189,417	800,000	-0,016	0,033
-188,402	800,000	0,032	-0,089
-187,387	-108,077	0,019	-0,003
-186,373	-200,000	0,009	0,045
-185,358	-200,000	0,005	0,068
-184,344	436,418	0,017	-0,026
-183,329	-200,000	-0,039	0,173
-182,315	800,000	0,040	0,089
-181,300	-145,529	0,140	0,009
-180,285	77,557	-0,056	-0,043
-179,271	800,000	0,005	0,014
-178,256	249,353	-0,084	-0,101
-177,242	-200,000	-0,022	-0,089
-176,227	312,209	0,052	0,070
-175,212	-200,000	0,051	0,178
-174,198	-200,000	-0,005	-0,135
-173,183	19,310	-0,071	-0,041
-172,169	135,802	-0,108	-0,100
-171,154	-25,810	-0,125	-0,052
-170,139	-200,000	0,005	0,068
-169,125	-68,941	0,124	-0,034
-168,110	-200,000	-0,009	-0,079
-167,096	24,998	-0,048	-0,028
-166,081	484,197	0,060	0,098
-165,066	537,735	-0,058	-0,099
-164,052	-129,933	0,052	0,005
-163,037	-90,194	0,033	-0,007
-162,023	-28,429	-0,096	0,039
-161,008	800,000	-0,045	0,090
-159,993	796,689	0,032	-0,064
-158,979	-127,509	-0,186	0,019
-157,964	570,289	-0,027	-0,047
-156,950	464,609	0,034	-0,055
-155,935	-200,000	-0,003	-0,051
-154,920	800,000	-0,048	0,120
-153,906	233,812	0,005	-0,005
-152,891	176,085	0,078	-0,081
-151,877	-130,632	-0,133	-0,013
-150,862	800,000	0,036	-0,078
-149,847	-200,000	-0,002	-0,141
-148,833	33,560	0,073	-0,045
-147,818	-200,000	0,025	0,091
-146,804	800,000	-0,057	0,149
-145,789	107,062	0,034	0,029
-144,775	306,146	-0,047	-0,062
-143,760	-200,000	-0,002	0,028
-142,745	283,438	-0,027	0,035
-141,731	-200,000	-0,003	-0,032
-140,716	-145,851	0,143	0,009
-139,702	483,246	0,060	-0,097
-138,687	800,000	-0,025	0,060
-137,672	-200,000	-0,009	0,048
-136,658	86,141	-0,079	0,062
-135,643	-81,372	-0,070	0,016
-134,629	-140,758	0,146	-0,011
-133,614	-13,420	0,013	-0,006
-132,599	8,143	0,136	-0,072
-131,585	37,134	0,047	-0,030
-130,570	233,703	-0,101	0,118
-129,556	406,292	-0,111	-0,167
-128,541	27,952	0,189	-0,113
-127,526	-200,000	-0,002	0,011
-126,512	-200,000	-0,005	0,194
-125,497	502,156	-0,068	0,113
-124,483	-200,000	0,005	0,050
-123,468	-200,000	0,006	0,078
-122,453	385,800	-0,026	-0,038
-121,439	800,000	-0,039	0,091
