DTS Sentinel unit serial number:	SN410029Multiplexer serial number:	ORYXHardware model number:	OX2-SRSoftware version number:	ORYX F/W v4,00 Oryx Data Collector v3.7.2.0data status	okinstallation	BH3 CH2differential loss correction	single-endedforward channel	channel 2reverse channel	N/Adate	2023/12/05time	19:27:28forward acquisition time	300,00reverse acquisition time	0,00gamma	499,1914k internal	0,3194k external	0,3194temperature offset calibration	1,0000default loss term (dB/km)	0,3820temperature slope calibration	1,0000multiplexer offset coefficient	1,0000multiplexer slope coefficient	1,0000fibre end	0,00T internal ref (°C)	10,62T ext. ref 1 (°C)	-3,81T ext. ref 2 (°C)	-3,98length (m)	temperature (°C)	Stokes	anti-Stokes-744,400	-200,000	0,001	-0,069
-743,385	206,951	-0,150	0,171
-742,371	-118,642	0,129	0,016
-741,356	209,549	-0,227	0,260
-740,342	-103,176	-0,014	-0,002
-739,327	86,050	-0,272	0,218
-738,312	-200,000	-0,017	-0,061
-737,298	-91,097	-0,158	0,033
-736,283	67,034	-0,085	-0,063
-735,269	103,713	-0,288	0,247
-734,254	519,963	-0,048	-0,083
-733,239	-200,000	-0,347	0,001
-732,225	-18,922	0,040	-0,018
-731,210	-200,000	0,040	0,238
-730,196	-13,408	-0,059	0,028
-729,181	-166,943	0,024	-0,001
-728,167	623,063	-0,032	-0,058
-727,152	158,577	0,068	0,069
-726,137	-123,266	-0,086	-0,010
-725,123	54,838	-0,128	-0,090
-724,108	-200,000	-0,008	-0,093
-723,094	424,023	-0,049	-0,078
-722,079	11,838	0,071	0,040
-721,064	176,550	-0,039	0,041
-720,050	-200,000	0,005	-0,101
-719,035	-200,000	-0,000	-0,072
-718,021	223,191	-0,136	-0,160
-717,006	-72,084	-0,143	0,038
-715,991	142,733	0,048	0,047
-714,977	-156,591	-0,186	0,008
-713,962	-52,079	-0,103	-0,035
-712,948	-200,000	-0,009	-0,160
-711,933	11,095	0,127	-0,071
-710,918	15,435	0,050	0,029
-709,904	-200,000	-0,004	-0,054
-708,889	800,000	0,017	-0,050
-707,875	800,000	0,010	-0,022
-706,860	-64,639	0,116	0,034
-705,845	45,260	0,108	-0,072
-704,831	193,995	-0,048	0,053
-703,816	-195,803	0,136	-0,001
-702,802	207,350	-0,085	-0,097
-701,787	76,204	-0,155	-0,119
-700,772	88,600	-0,158	-0,127
-699,758	-24,529	0,105	0,045
-698,743	-35,304	-0,050	-0,020
-697,729	-98,403	-0,115	-0,021
-696,714	268,560	0,043	0,054
-695,699	-200,000	0,009	0,130
-694,685	-200,000	-0,026	0,092
-693,670	32,492	-0,065	-0,041
-692,656	-61,124	0,139	-0,042
-691,641	-200,000	-0,006	0,066
-690,627	240,911	-0,114	0,139
-689,612	-200,000	-0,005	-0,079
-688,597	-154,614	0,044	0,002
-687,583	-200,000	0,016	-0,150
-686,568	-117,473	-0,151	-0,020
-685,554	39,052	0,085	-0,055
-684,539	-133,139	0,087	0,008
-683,524	-200,000	-0,010	0,059
-682,510	-200,000	-0,006	0,024
-681,495	800,000	0,050	-0,154
-680,481	800,000	-0,044	0,112
-679,466	-144,345	-0,189	0,013
-678,451	228,910	-0,117	0,139
-677,437	-200,000	0,009	0,098
-676,422	473,708	-0,054	0,088
-675,408	55,098	-0,072	0,050
-674,393	405,539	-0,079	-0,122
-673,378	245,605	-0,057	-0,070
-672,364	800,000	0,048	-0,119
-671,349	637,150	-0,111	-0,207
-670,335	42,337	0,084	-0,055
-669,320	499,691	0,066	0,110
-668,305	800,000	-0,044	0,093
-667,291	-125,674	-0,063	0,007
-666,276	159,146	-0,032	-0,032
-665,262	47,108	-0,029	-0,020
-664,247	800,000	-0,059	-0,122
-663,232	-57,073	0,113	-0,036
-662,218	325,217	-0,030	-0,042
-661,203	312,324	-0,064	-0,087
-660,189	-200,000	-0,020	-0,106
-659,174	680,211	0,016	0,031
-658,159	-200,000	0,035	-0,153
-657,145	414,866	-0,058	-0,090
-656,130	-69,674	0,056	-0,015
-655,116	-138,783	-0,041	-0,003
-654,101	800,000	0,021	0,059
-653,086	300,033	0,006	-0,009
-652,072	800,000	0,031	0,062
-651,057	-8,897	-0,080	-0,039
-650,043	-200,000	-0,043	-0,146
-649,028	800,000	-0,036	-0,093
-648,014	-172,412	0,017	0,000
-646,999	-200,000	0,003	-0,030
-645,984	189,207	-0,015	-0,016
-644,970	-200,000	0,006	0,067
-643,955	561,529	-0,066	-0,117
-642,941	-96,703	0,150	-0,028
-641,926	-28,918	-0,159	-0,066
-640,911	546,341	-0,010	-0,017
-639,897	97,311	0,078	-0,065
-638,882	-85,556	0,121	0,027
-637,868	-18,440	-0,118	-0,053
-636,853	-200,000	0,006	0,115
-635,838	-200,000	0,014	0,076
-634,824	-125,160	0,092	-0,010
-633,809	-200,000	-0,001	0,085
-632,795	-28,783	0,169	0,070
-631,780	-178,896	-0,118	0,002
-630,765	-200,000	0,035	0,165
-629,751	240,329	-0,119	-0,144
-628,736	-200,000	0,029	-0,119
-627,722	188,519	-0,116	-0,126
-626,707	169,991	-0,098	-0,102
-625,692	4,808	-0,066	-0,035
-624,678	103,907	-0,126	-0,108
-623,663	-200,000	-0,003	-0,013
-622,649	158,560	0,115	-0,116
-621,634	-67,902	-0,087	0,024
-620,619	157,352	-0,029	-0,029
-619,605	-39,230	-0,112	0,042
-618,590	50,170	0,070	-0,048
-617,576	800,000	-0,014	-0,034
-616,561	39,089	0,084	0,054
-615,546	-200,000	0,007	0,090
-614,532	349,554	-0,066	-0,095
-613,517	-200,000	0,034	-0,116
-612,503	106,831	0,068	0,058
-611,488	303,894	0,033	-0,045
-610,474	-200,000	-0,012	-0,154
-609,459	197,971	0,025	0,028
-608,444	-42,236	-0,087	-0,032
-607,430	-17,169	-0,111	-0,050
-606,415	-27,814	-0,138	0,058
-605,401	473,176	0,042	-0,069
-604,386	-120,828	0,070	-0,008
-603,371	-86,778	-0,055	0,012
-602,357	-47,599	-0,120	0,042
-601,342	73,385	-0,034	0,026
-600,328	-49,988	-0,131	0,045
-599,313	195,858	0,119	-0,131
-598,298	128,135	0,049	-0,046
-597,284	-168,633	0,102	0,003
-596,269	-173,255	-0,157	-0,003
-595,255	156,214	-0,065	-0,065
-594,240	-145,062	-0,052	-0,003
-593,225	-181,242	-0,065	-0,001
-592,211	300,565	-0,054	-0,073
-591,196	102,720	0,083	-0,071
-590,182	-143,420	0,119	-0,008
-589,167	-200,000	0,022	-0,080
-588,152	-107,188	-0,101	0,016
-587,138	268,238	-0,037	-0,047
-586,123	-102,267	-0,061	-0,011
-585,109	327,383	-0,028	0,039
-584,094	251,388	-0,043	0,054
-583,079	96,383	-0,100	0,083
-582,065	800,000	0,039	0,095
-581,050	-200,000	-0,060	0,194
-580,036	-200,000	-0,004	0,188
-579,021	347,482	-0,077	0,110
-578,006	54,122	-0,051	-0,035
-576,992	800,000	0,020	-0,064
-575,977	-124,089	0,125	-0,014
-574,963	41,303	-0,029	0,019
-573,948	-27,794	0,074	0,031
-572,934	-39,675	0,056	0,021
-571,919	-200,000	-0,003	-0,060
-570,904	109,257	0,016	-0,014
-569,890	-76,855	-0,127	-0,032
-568,875	126,396	0,162	0,148
-567,861	39,006	-0,056	-0,036
-566,846	800,000	-0,029	-0,058
-565,831	-97,412	-0,026	-0,005
-564,817	323,450	-0,019	0,027
-563,802	94,371	-0,175	0,144
-562,788	68,974	-0,209	0,156
-561,773	63,859	0,070	-0,051
-560,758	800,000	0,043	0,108
-559,744	158,966	0,025	-0,025
-558,729	716,125	0,075	0,145
-557,715	24,686	0,099	-0,059
-556,700	27,386	-0,068	-0,041
-555,685	-200,000	0,002	-0,053
-554,671	-90,572	-0,077	0,016
-553,656	-200,000	-0,014	0,091
-552,642	800,000	-0,050	0,103
-551,627	40,217	-0,191	-0,124
-550,612	-81,417	-0,124	-0,029
-549,598	163,644	-0,111	-0,113
-548,583	686,978	-0,049	-0,093
-547,569	-200,000	0,029	0,142
-546,554	-200,000	0,008	0,057
-545,539	-200,000	0,015	0,070
-544,525	-200,000	0,015	-0,115
-543,510	-200,000	-0,033	0,000
-542,496	156,343	-0,050	0,050
-541,481	800,000	0,012	-0,035
-540,466	227,092	-0,037	-0,044
-539,452	389,539	0,042	0,063
-538,437	159,090	0,101	0,101
-537,423	-31,637	0,044	0,018
-536,408	-57,168	0,093	-0,030
-535,393	13,548	-0,048	-0,027
-534,379	-200,000	-0,027	-0,186
-533,364	-65,873	0,030	-0,009
-532,350	722,917	-0,066	0,128
-531,335	-200,000	-0,011	-0,039
-530,321	-200,000	-0,019	0,133
-529,306	14,064	0,063	0,035
-528,291	800,000	-0,050	-0,111
-527,277	-200,000	0,012	-0,040
-526,262	32,752	-0,140	0,087
-525,248	-200,000	0,005	-0,091
-524,233	800,000	0,018	0,054
-523,218	-25,368	-0,067	0,029
-522,204	800,000	0,047	0,100
-521,189	73,053	-0,101	0,077
-520,175	-73,387	-0,190	-0,050
-519,160	800,000	-0,015	0,047
-518,145	-22,441	0,167	0,073
-517,131	321,734	-0,049	-0,068
-516,116	-200,000	-0,019	0,088
-515,102	109,587	0,071	-0,062
-514,087	88,444	-0,059	-0,048
-513,072	-33,658	0,026	-0,010
-512,058	182,248	-0,019	0,020
-511,043	-136,554	0,082	-0,007
-510,029	-200,000	-0,001	-0,008
-509,014	160,114	0,053	0,053
-507,999	352,557	0,033	-0,047
-506,985	-142,374	-0,076	-0,005
-505,970	8,442	-0,051	0,027
-504,956	-124,648	0,077	0,008
-503,941	109,113	0,063	-0,054
-502,926	800,000	0,026	-0,073
-501,912	36,867	0,119	0,076
-500,897	-200,000	-0,008	0,123
-499,883	-103,406	0,078	0,013
-498,868	137,306	0,040	0,037
-497,853	-102,754	0,033	-0,006
-496,839	800,000	-0,014	0,045
-495,824	800,000	0,011	-0,028
-494,810	81,261	0,086	0,067
-493,795	-32,348	-0,109	-0,044
-492,781	107,069	0,093	0,079
-491,766	93,887	-0,124	0,102
-490,751	111,562	0,075	0,066
-489,737	-85,368	0,058	-0,013
-488,722	350,025	0,064	0,091
-487,708	35,579	0,080	0,051
-486,693	-200,000	0,017	0,091
-485,678	-36,782	0,025	0,010
-484,664	800,000	0,037	-0,114
-483,649	800,000	-0,068	-0,162
-482,635	-48,015	0,067	-0,023
-481,620	-200,000	0,015	0,096
-480,605	-200,000	0,002	-0,043
-479,591	-137,131	-0,063	0,005
-478,576	-168,721	-0,083	0,002
-477,562	208,150	0,011	-0,013
-476,547	54,569	-0,110	-0,076
-475,532	120,003	0,067	-0,060
-474,518	-200,000	-0,014	0,047
-473,503	-39,870	-0,044	0,016
-472,489	-200,000	0,023	0,091
-471,474	194,145	0,066	0,072
-470,459	654,512	-0,037	-0,068
-469,445	-22,255	-0,042	-0,018
-468,430	17,721	0,064	0,036
-467,416	336,905	-0,095	0,133
-466,401	-111,079	-0,041	0,006
-465,386	-87,512	0,183	-0,040
-464,372	-193,645	-0,102	0,001
-463,357	267,827	0,063	-0,079
-462,343	509,374	0,034	-0,058
-461,328	-200,000	-0,001	-0,048
-460,313	800,000	-0,055	-0,163
-459,299	-34,850	0,100	0,039
-458,284	225,582	0,026	0,030
-457,270	570,116	0,083	-0,147
-456,255	455,976	0,035	-0,055
-455,241	-100,954	-0,236	0,041
-454,226	-61,178	0,128	0,039
-453,211	-147,286	-0,105	-0,006
-452,197	96,600	0,025	0,020
-451,182	470,194	-0,020	0,033
-450,168	-117,238	-0,096	-0,012
-449,153	-200,000	0,008	-0,094
-448,138	161,115	-0,034	0,034
-447,124	144,928	0,103	-0,100
-446,109	86,513	-0,016	0,013
-445,095	-3,115	0,073	0,037
-444,080	114,764	0,113	0,099
-443,065	800,000	-0,009	-0,021
-442,051	350,687	0,068	-0,097
-441,036	363,173	-0,015	0,021
-440,022	184,690	0,116	-0,125
-439,007	97,742	-0,130	0,107
-437,992	595,559	-0,045	0,080
-436,978	-200,000	0,014	0,172
-435,963	800,000	-0,070	0,145
-434,949	800,000	-0,010	0,025
-433,934	704,345	0,047	-0,091
-432,919	-200,000	0,008	0,033
-431,905	-45,554	-0,014	-0,005
-430,890	2,441	0,067	0,035
-429,876	-200,000	0,026	-0,127
-428,861	-200,000	0,000	-0,013
-427,846	800,000	-0,036	0,100
-426,832	255,689	-0,044	0,054
-425,817	-200,000	0,011	-0,185
-424,803	-78,969	-0,086	0,021
-423,788	187,687	-0,050	0,054
-422,773	800,000	0,005	-0,011
-421,759	121,022	0,072	-0,065
-420,744	65,566	-0,078	-0,057
-419,730	800,000	-0,064	-0,145
-418,715	-200,000	0,007	0,060
-417,701	37,902	-0,114	0,073
-416,686	-80,164	0,086	0,021
-415,671	245,013	-0,031	-0,038
-414,657	82,325	0,018	-0,014
-413,642	390,358	0,111	0,166
-412,628	177,991	0,042	-0,044
-411,613	-83,916	0,120	-0,027
-410,598	-29,525	-0,057	0,023
-409,584	-200,000	-0,005	0,023
-408,569	-12,233	0,059	0,027
-407,555	96,992	-0,131	-0,108
-406,540	-48,525	0,109	0,037
-405,525	800,000	-0,066	-0,139
-404,511	800,000	0,089	-0,188
-403,496	-200,000	-0,003	-0,014
-402,482	-37,579	0,032	-0,012
-401,467	-2,974	-0,163	-0,081
-400,452	-14,367	-0,018	0,008
-399,438	-59,908	-0,054	0,016
-398,423	335,761	0,027	0,038
-397,409	196,980	-0,050	-0,055
-396,394	9,663	0,051	0,028
-395,379	-17,339	-0,110	-0,049
-394,365	800,000	0,021	-0,043
-393,350	6,286	0,108	-0,057
-392,336	102,504	-0,089	-0,075
-391,321	-200,000	-0,017	-0,109
-390,306	23,977	-0,057	-0,034
-389,292	-200,000	0,002	0,061
-388,277	126,789	0,106	-0,097
-387,263	800,000	-0,054	0,136
-386,248	418,488	0,027	0,042
-385,233	-62,034	0,044	-0,013
-384,219	800,000	-0,039	-0,093
-383,204	800,000	-0,028	0,060
-382,190	-43,015	-0,208	-0,075
-381,175	-200,000	-0,006	-0,061
-380,160	-200,000	-0,029	0,197
-379,146	137,986	0,061	-0,057
-378,131	800,000	-0,053	-0,136
-377,117	171,628	-0,053	-0,055
-376,102	800,000	-0,022	0,069
-375,088	-57,924	0,133	-0,041
-374,073	-200,000	-0,002	0,082
-373,058	800,000	0,056	0,116
-372,044	-200,000	0,013	0,093
-371,029	-200,000	0,030	0,206
-370,015	-200,000	-0,001	0,104
-369,000	-61,866	-0,137	-0,041
-367,985	510,706	-0,068	-0,113
-366,971	620,898	-0,057	0,104
-365,956	-200,000	0,051	-0,187
-364,942	800,000	-0,050	0,113
-363,927	800,000	-0,025	0,064
-362,912	450,694	-0,044	-0,070
-361,898	800,000	-0,049	-0,105
-360,883	-150,118	0,173	0,009
-359,869	98,416	0,096	-0,079
-358,854	-41,111	0,078	0,029
-357,839	-200,000	-0,018	-0,172
-356,825	77,624	0,040	-0,031
-355,810	174,252	0,002	-0,002
-354,796	378,184	-0,049	-0,073
-353,781	236,053	-0,052	-0,061
-352,766	-182,613	-0,090	0,001
-351,752	185,677	0,144	-0,154
-350,737	168,209	0,083	-0,085
-349,723	-38,536	0,079	-0,030
-348,708	22,556	0,106	0,062
-347,693	52,421	-0,004	-0,003
-346,679	-200,000	-0,010	-0,047
-345,664	119,985	-0,115	-0,102
-344,650	279,311	0,051	0,066
-343,635	216,951	-0,088	0,101
-342,620	-200,000	-0,005	0,115
-341,606	5,653	0,100	0,053
-340,591	-178,899	-0,059	0,001
-339,577	-200,000	0,007	-0,041
-338,562	-8,041	-0,124	-0,060
-337,548	-114,472	-0,068	-0,009
-336,533	-117,236	0,077	-0,010
-335,518	144,925	-0,064	-0,061
-334,504	82,560	0,039	-0,030
-333,489	-45,547	0,080	-0,028
-332,475	57,642	-0,061	-0,043
-331,460	36,916	0,017	-0,011
-330,445	-200,000	0,001	0,008
-329,431	-40,764	0,125	-0,046
-328,416	-2,803	0,020	-0,010
-327,402	-200,000	-0,010	0,097
-326,387	-200,000	-0,011	0,116
-325,372	-200,000	-0,008	-0,094
-324,358	800,000	0,042	-0,129
-323,343	800,000	0,036	-0,078
-322,329	800,000	-0,013	0,032
-321,314	31,741	-0,075	-0,046
-320,299	-50,344	-0,119	0,040
-319,285	200,844	0,074	-0,082
-318,270	-200,000	-0,003	-0,137
-317,256	188,074	0,063	-0,068
-316,241	131,607	0,049	-0,045
-315,226	106,952	0,076	0,065
-314,212	800,000	-0,076	0,176
-313,197	-200,000	0,006	0,039
-312,183	800,000	-0,046	0,097
-311,168	-13,079	0,032	-0,015
-310,153	164,824	-0,072	-0,073
-309,139	70,966	0,056	-0,041
-308,124	5,175	-0,089	-0,047
-307,110	231,765	0,142	0,168
-306,095	800,000	-0,017	-0,038
-305,080	-200,000	-0,038	-0,136
-304,066	-200,000	0,007	-0,075
-303,051	-200,000	-0,021	0,106
-302,037	-200,000	-0,001	0,117
-301,022	-73,718	-0,084	-0,022
-300,008	351,998	-0,036	0,051
-298,993	-54,699	-0,018	-0,006
-297,978	191,895	-0,070	0,075
-296,964	800,000	-0,030	-0,089
-295,949	-54,772	-0,169	-0,054
-294,935	364,175	0,024	-0,035
-293,920	356,412	0,112	0,161
-292,905	-49,384	0,103	-0,035
-291,891	193,564	0,100	0,108
-290,876	308,048	0,076	0,101
-289,862	-8,221	0,086	-0,041
-288,847	800,000	-0,037	-0,096
-287,832	-200,000	0,017	-0,094
-286,818	-79,203	0,031	-0,007
-285,803	-200,000	0,017	-0,088
-284,789	289,939	0,074	0,096
-283,774	39,301	-0,163	-0,104
-282,759	800,000	-0,010	0,023
-281,745	343,761	-0,062	-0,087
-280,730	-200,000	-0,006	0,082
-279,716	-11,062	-0,086	0,040
-278,701	-200,000	0,018	0,157
-277,686	800,000	0,079	0,160
-276,672	-53,313	0,189	0,062
-275,657	481,207	0,038	-0,062
-274,643	-51,258	0,044	0,015
-273,628	-53,075	-0,126	-0,041
-272,613	202,540	-0,100	0,111
-271,599	-200,000	-0,012	0,071
-270,584	-83,461	0,100	-0,023
-269,570	12,187	-0,048	0,027
-268,555	-200,000	0,009	0,148
-267,540	85,698	0,097	0,076
-266,526	-200,000	-0,007	0,051
-265,511	775,781	0,012	0,023
-264,497	-105,687	0,103	-0,016
-263,482	4,994	0,072	0,038
-262,467	228,986	-0,022	0,026
-261,453	98,763	0,077	0,063
-260,438	-200,000	0,023	-0,137
-259,424	-200,000	-0,002	-0,025
-258,409	800,000	0,055	-0,112
-257,395	728,709	0,019	-0,037
-256,380	684,161	0,042	0,078
-255,365	-66,685	0,047	-0,013
-254,351	-200,000	0,012	-0,087
-253,336	710,393	-0,012	0,022
-252,322	586,214	-0,059	0,104
-251,307	800,000	0,014	-0,041
-250,292	105,892	0,094	0,080
-249,278	25,944	0,087	0,052
-248,263	-85,071	-0,123	0,027
-247,249	55,140	0,076	0,052
-246,234	-200,000	-0,002	0,065
-245,219	198,299	-0,081	-0,089
-244,205	185,594	-0,130	-0,139
-243,190	-15,620	-0,033	0,015
-242,176	69,939	0,112	0,083
-241,161	-74,870	0,045	0,012
-240,146	-30,187	0,039	0,016
-239,132	-89,185	0,047	0,010
-238,117	-200,000	0,027	-0,088
-237,103	-161,888	0,072	0,003
-236,088	800,000	0,070	0,147
-235,073	-200,000	-0,002	0,023
-234,059	-91,843	0,006	-0,001
-233,044	-200,000	-0,013	0,111
-232,030	-139,590	-0,044	-0,003
-231,015	-154,242	0,042	0,002
-230,000	800,000	-0,034	-0,103
-228,986	41,361	-0,039	-0,025
-227,971	169,393	-0,084	-0,086
-226,957	56,093	0,047	0,033
-225,942	800,000	-0,076	-0,159
-224,927	-144,401	0,120	0,008
-223,913	160,653	0,075	-0,075
-222,898	-200,000	-0,010	-0,085
-221,884	100,178	0,048	-0,040
-220,869	-125,318	0,033	-0,004
-219,855	15,999	0,154	0,086
-218,840	-156,167	-0,065	0,003
-217,825	167,952	-0,034	-0,035
-216,811	-200,000	0,034	-0,185
-215,796	800,000	0,028	-0,078
-214,782	-6,173	-0,144	-0,070
-213,767	242,630	0,127	0,152
-212,752	800,000	-0,032	0,083
-211,738	-200,000	0,009	0,045
-210,723	288,790	-0,060	0,077
-209,709	429,236	-0,018	-0,028
-208,694	800,000	-0,014	-0,029
-207,679	624,484	-0,024	-0,043
-206,665	800,000	0,049	0,134
-205,650	28,204	0,066	0,040
-204,636	304,366	-0,041	-0,055
-203,621	76,257	-0,125	0,095
-202,606	-83,030	0,140	0,032
-201,592	-142,752	-0,110	0,008
-200,577	-69,895	0,031	0,008
-199,563	-200,000	-0,006	-0,040
-198,548	-139,429	0,138	-0,010
-197,533	-200,000	0,040	0,150
-196,519	-48,459	-0,131	-0,045
-195,504	-110,239	0,102	-0,015
-194,490	35,768	-0,088	0,055
-193,475	-200,000	-0,007	-0,037
-192,460	-123,490	0,055	0,006
-191,446	-190,859	0,125	-0,001
-190,431	-153,177	0,248	0,012
-189,417	800,000	0,040	0,095
-188,402	-159,406	-0,172	-0,007
-187,387	33,599	-0,047	-0,029
-186,373	800,000	-0,040	0,108
-185,358	-95,572	0,101	-0,019
-184,344	-200,000	-0,022	0,139
-183,329	-61,410	0,083	0,025
-182,315	-149,334	-0,090	-0,005
-181,300	-17,021	0,095	0,043
-180,285	800,000	0,032	-0,088
-179,271	-21,477	0,038	0,016
-178,256	-200,000	0,006	-0,069
-177,242	20,269	0,081	0,046
-176,227	800,000	0,028	-0,065
-175,212	217,099	-0,078	0,088
-174,198	-26,482	0,080	-0,033
-173,183	800,000	-0,013	-0,034
-172,169	-200,000	-0,002	-0,052
-171,154	191,538	-0,091	0,098
-170,139	151,531	0,088	0,086
-169,125	-121,697	-0,066	0,008
-168,110	800,000	0,018	-0,055
-167,096	800,000	0,028	-0,072
-166,081	-200,000	0,000	-0,026
-165,066	-200,000	0,022	-0,099
-164,052	28,989	0,025	0,015
-163,037	-200,000	-0,025	-0,096
-162,023	640,086	0,016	0,030
-161,008	-200,000	0,016	0,069
-159,993	5,343	0,115	-0,060
-158,979	-79,641	0,079	0,019
-157,964	-200,000	0,002	-0,038
-156,950	-41,511	-0,029	0,011
-155,935	-104,344	-0,120	0,020
-154,920	-120,697	-0,033	-0,004
-153,906	-200,000	-0,000	0,143
-152,891	143,195	-0,114	0,108
-151,877	-200,000	0,002	0,138
-150,862	-34,662	-0,085	-0,033
-149,847	-199,649	0,103	-0,000
-148,833	-23,864	0,136	-0,058
-147,818	14,624	0,120	0,067
-146,804	74,764	0,094	-0,071
-145,789	800,000	0,017	0,040
-144,775	118,959	0,026	0,023
-143,760	-200,000	-0,015	0,104
-142,745	-1,327	-0,052	0,026
-141,731	-114,686	0,206	-0,028
-140,716	800,000	0,063	-0,134
-139,702	-200,000	0,007	-0,038
-138,687	380,223	0,084	0,123
-137,672	695,389	0,063	0,118
-136,658	236,782	-0,093	-0,110
-135,643	79,723	-0,063	0,048
-134,629	-55,784	-0,149	-0,047
-133,614	173,426	0,068	-0,070
-132,599	360,485	0,039	0,055
-131,585	-83,752	0,047	0,011
-130,570	-97,622	0,074	-0,014
-129,556	-31,116	-0,136	0,054
-128,541	-200,000	0,033	0,105
-127,526	-59,623	0,008	0,003
-126,512	-200,000	-0,023	0,086
-125,497	-24,315	0,065	0,028
-124,483	262,677	-0,081	0,100
-123,468	-164,157	0,172	-0,006
-122,453	-200,000	0,008	-0,083
-121,439	148,190	-0,029	-0,028
-120,424	371,076	-0,094	-0,136
-119,410	-147,748	0,124	-0,007
