DTS Sentinel unit serial number:	SN410029Multiplexer serial number:	ORYXHardware model number:	OX2-SRSoftware version number:	ORYX F/W v4,00 Oryx Data Collector v3.7.2.0data status	okinstallation	BH3 CH2differential loss correction	single-endedforward channel	channel 2reverse channel	N/Adate	2023/12/06time	07:17:28forward acquisition time	300,00reverse acquisition time	0,00gamma	499,1914k internal	0,3197k external	0,3197temperature offset calibration	1,0000default loss term (dB/km)	0,3820temperature slope calibration	1,0000multiplexer offset coefficient	1,0000multiplexer slope coefficient	1,0000fibre end	0,00T internal ref (°C)	8,82T ext. ref 1 (°C)	-5,86T ext. ref 2 (°C)	-5,96length (m)	temperature (°C)	Stokes	anti-Stokes-744,400	-200,000	-0,010	-0,186
-743,385	11,195	-0,239	0,133
-742,371	-189,559	-0,090	-0,001
-741,356	6,744	-0,220	0,119
-740,342	49,654	0,100	-0,069
-739,327	22,825	-0,192	0,114
-738,312	360,973	-0,085	-0,125
-737,298	-134,582	-0,317	0,028
-736,283	100,921	-0,048	0,041
-735,269	53,735	-0,243	0,170
-734,254	-200,000	0,025	-0,099
-733,239	-28,338	-0,351	-0,147
-732,225	35,484	0,142	-0,091
-731,210	-200,000	-0,021	0,076
-730,196	187,645	0,037	-0,040
-729,181	344,546	-0,013	0,019
-728,167	-200,000	-0,013	-0,163
-727,152	603,238	-0,055	-0,099
-726,137	800,000	0,065	-0,157
-725,123	-192,787	-0,034	0,000
-724,108	-44,209	-0,048	-0,017
-723,094	800,000	-0,038	0,109
-722,079	-200,000	-0,009	0,050
-721,064	458,404	-0,128	0,207
-720,050	-200,000	-0,000	-0,066
-719,035	13,728	-0,111	-0,063
-718,021	-200,000	-0,001	-0,068
-717,006	-200,000	0,025	-0,102
-715,991	-39,406	0,168	-0,064
-714,977	551,841	-0,039	-0,068
-713,962	694,068	-0,040	-0,078
-712,948	241,633	0,052	0,064
-711,933	800,000	-0,073	-0,216
-710,918	-200,000	-0,039	0,139
-709,904	-92,229	-0,159	-0,032
-708,889	138,164	-0,048	-0,046
-707,875	245,205	-0,139	-0,170
-706,860	-200,000	-0,023	-0,080
-705,845	-200,000	-0,004	0,054
-704,831	703,840	0,115	0,222
-703,816	123,604	-0,070	0,064
-702,802	-156,416	-0,092	-0,004
-701,787	-200,000	-0,020	-0,176
-700,772	62,731	-0,166	-0,121
-699,758	35,046	0,071	-0,045
-698,743	1,755	-0,123	-0,064
-697,729	-200,000	-0,027	-0,091
-696,714	-175,081	-0,049	0,001
-695,699	-200,000	0,015	-0,125
-694,685	57,284	0,001	0,001
-693,670	302,684	0,041	-0,055
-692,656	155,384	0,052	0,052
-691,641	513,521	0,098	-0,167
-690,627	-200,000	-0,027	-0,127
-689,612	-200,000	-0,002	-0,078
-688,597	71,435	-0,115	-0,087
-687,583	-200,000	-0,012	0,051
-686,568	175,068	0,074	-0,078
-685,554	-200,000	0,002	-0,032
-684,539	646,961	0,073	0,135
-683,524	452,868	0,044	-0,071
-682,510	-200,000	-0,010	0,137
-681,495	-112,535	-0,132	0,019
-680,481	-200,000	-0,007	-0,025
-679,466	-128,275	-0,094	0,010
-678,451	632,965	-0,043	0,079
-677,437	-75,116	0,044	0,011
-676,422	737,298	-0,035	0,068
-675,408	800,000	0,027	0,069
-674,393	-200,000	-0,007	0,095
-673,378	-35,557	0,089	-0,035
-672,364	-200,000	-0,042	-0,168
-671,349	396,165	-0,063	0,096
-670,335	151,953	-0,124	-0,123
-669,320	-200,000	0,037	-0,146
-668,305	-200,000	-0,005	-0,078
-667,291	225,596	0,059	0,069
-666,276	-76,086	-0,109	-0,028
-665,262	-200,000	-0,004	-0,054
-664,247	-200,000	-0,001	-0,063
-663,232	-86,367	-0,036	0,008
-662,218	116,081	0,056	0,050
-661,203	-87,895	-0,056	-0,012
-660,189	800,000	0,014	-0,031
-659,174	619,950	-0,117	-0,214
-658,159	-200,000	-0,018	-0,079
-657,145	-47,527	-0,101	0,035
-656,130	800,000	0,045	-0,142
-655,116	800,000	0,036	0,083
-654,101	591,164	0,046	0,082
-653,086	571,735	0,051	-0,090
-652,072	-200,000	0,007	0,045
-651,057	-69,360	-0,087	-0,024
-650,043	210,004	-0,010	0,012
-649,028	800,000	-0,006	0,013
-648,014	143,837	0,062	0,060
-646,999	405,405	0,052	0,079
-645,984	78,386	0,079	0,061
-644,970	56,566	-0,029	0,020
-643,955	58,536	0,113	0,080
-642,941	-141,540	0,036	0,003
-641,926	-15,027	-0,065	-0,030
-640,911	-200,000	0,010	0,040
-639,897	246,390	-0,046	-0,057
-638,882	8,896	-0,159	0,087
-637,868	-200,000	0,037	-0,132
-636,853	65,976	-0,088	-0,065
-635,838	800,000	0,023	0,054
-634,824	-200,000	-0,040	-0,154
-633,809	-45,251	0,099	-0,036
-632,795	202,098	-0,078	0,088
-631,780	61,759	-0,017	0,012
-630,765	-18,268	-0,056	-0,025
-629,751	800,000	-0,025	-0,058
-628,736	78,337	-0,073	-0,056
-627,722	24,237	0,078	0,047
-626,707	60,923	0,136	0,097
-625,692	212,135	0,045	-0,052
-624,678	100,161	0,015	0,013
-623,663	-200,000	-0,005	-0,126
-622,649	88,261	0,079	-0,064
-621,634	-111,558	-0,073	0,011
-620,619	-7,733	0,003	0,001
-619,605	366,625	0,041	-0,060
-618,590	22,380	-0,083	-0,049
-617,576	149,801	-0,079	0,078
-616,561	-145,079	0,092	0,006
-615,546	105,992	-0,033	-0,028
-614,532	346,168	-0,042	-0,060
-613,517	329,907	0,083	0,116
-612,503	-138,543	0,121	-0,009
-611,488	313,508	-0,053	0,072
-610,474	-121,764	-0,039	0,005
-609,459	229,442	0,106	0,125
-608,444	-101,757	-0,154	-0,027
-607,430	170,124	-0,051	0,053
-606,415	-200,000	0,001	-0,149
-605,401	800,000	0,015	-0,035
-604,386	-20,986	0,072	0,032
-603,371	402,873	-0,112	0,172
-602,357	-200,000	0,001	0,086
-601,342	117,323	-0,094	0,084
-600,328	-66,753	-0,121	0,034
-599,313	473,281	0,038	-0,063
-598,298	-200,000	-0,016	-0,072
-597,284	334,667	0,136	-0,191
-596,269	-92,418	-0,058	-0,012
-595,255	117,822	0,065	0,058
-594,240	800,000	-0,012	0,034
-593,225	271,110	-0,113	-0,145
-592,211	-189,589	-0,042	0,000
-591,196	-11,118	-0,043	0,021
-590,182	82,921	-0,047	-0,037
-589,167	-102,998	0,057	0,010
-588,152	-200,000	0,002	-0,011
-587,138	52,430	-0,012	-0,009
-586,123	-200,000	-0,036	-0,120
-585,109	800,000	0,028	-0,087
-584,094	-48,925	-0,080	0,027
-583,079	-200,000	0,023	0,081
-582,065	237,557	-0,018	0,021
-581,050	673,892	0,107	0,202
-580,036	800,000	-0,009	-0,020
-579,021	-200,000	-0,020	-0,151
-578,006	87,703	-0,110	-0,088
-576,992	-200,000	0,016	-0,096
-575,977	763,438	-0,033	-0,066
-574,963	-121,219	0,233	-0,028
-573,948	-200,000	-0,037	-0,140
-572,934	-66,181	0,182	0,052
-571,919	152,190	-0,080	-0,079
-570,904	-1,244	0,090	-0,046
-569,890	77,270	0,039	0,030
-568,875	242,608	0,061	-0,073
-567,861	800,000	-0,022	-0,046
-566,846	-131,612	-0,062	0,006
-565,831	344,583	-0,051	0,073
-564,817	4,799	0,077	-0,041
-563,802	800,000	0,041	-0,122
-562,788	-200,000	-0,017	0,103
-561,773	-200,000	0,022	0,199
-560,758	242,534	0,084	0,102
-559,744	-11,927	-0,129	-0,061
-558,729	667,946	0,042	0,078
-557,715	187,923	-0,131	0,141
-556,700	310,809	-0,024	0,032
-555,685	-200,000	-0,001	-0,121
-554,671	-25,229	0,092	0,039
-553,656	422,757	-0,059	0,092
-552,642	-124,141	-0,131	-0,015
-551,627	-90,335	0,087	-0,018
-550,612	-30,009	-0,201	0,082
-549,598	180,222	0,037	-0,039
-548,583	-200,000	-0,011	-0,075
-547,569	800,000	0,041	0,103
-546,554	-90,883	0,050	0,010
-545,539	-49,875	-0,044	0,015
-544,525	-200,000	-0,002	-0,069
-543,510	-200,000	-0,007	0,093
-542,496	-123,049	0,041	-0,005
-541,481	-200,000	0,003	-0,148
-540,466	-200,000	0,001	0,142
-539,452	-200,000	-0,031	-0,147
-538,437	56,420	0,099	-0,069
-537,423	-200,000	-0,001	-0,016
-536,408	-66,170	-0,056	-0,016
-535,393	-95,823	0,015	0,003
-534,379	62,970	0,043	-0,031
-533,364	-51,906	-0,078	-0,026
-532,350	-14,371	0,127	0,059
-531,335	-27,937	-0,071	-0,030
-530,321	203,780	0,053	0,059
-529,306	-67,944	-0,046	-0,013
-528,291	541,025	-0,071	-0,123
-527,277	194,338	-0,002	-0,002
-526,262	-49,033	-0,022	-0,008
-525,248	-200,000	0,010	0,073
-524,233	257,545	0,046	0,057
-523,218	-121,081	0,032	0,004
-522,204	8,355	-0,129	-0,070
-521,189	635,764	0,096	-0,176
-520,175	800,000	-0,039	-0,112
-519,160	62,374	0,010	-0,008
-518,145	-200,000	0,016	0,116
-517,131	-200,000	0,022	-0,085
-516,116	-176,757	0,012	0,000
-515,102	302,082	-0,080	-0,107
-514,087	-31,319	-0,078	0,032
-513,072	166,008	0,092	0,094
-512,058	588,555	-0,061	0,109
-511,043	-200,000	-0,002	0,156
-510,029	215,107	0,018	-0,021
-509,014	-200,000	-0,040	0,145
-507,999	-133,839	0,155	-0,014
-506,985	365,940	-0,051	0,074
-505,970	-76,532	-0,043	-0,011
-504,956	-54,752	0,137	-0,044
-503,941	17,833	-0,120	-0,069
-502,926	68,957	-0,015	0,011
-501,912	-200,000	-0,011	-0,123
-500,897	-159,139	0,068	0,003
-499,883	461,934	0,045	0,072
-498,868	-200,000	-0,003	-0,179
-497,853	-200,000	-0,032	-0,106
-496,839	48,231	0,044	0,029
-495,824	-67,673	0,069	-0,019
-494,810	-200,000	0,040	0,152
-493,795	158,180	0,067	0,067
-492,781	86,452	-0,058	-0,046
-491,766	-200,000	0,003	-0,069
-490,751	215,164	0,107	-0,122
-489,737	800,000	0,044	-0,105
-488,722	-65,678	-0,025	0,007
-487,708	331,904	0,045	0,063
-486,693	-200,000	0,007	0,107
-485,678	-200,000	-0,009	-0,134
-484,664	800,000	0,094	-0,214
-483,649	-72,944	-0,067	-0,018
-482,635	36,653	-0,030	0,019
-481,620	-49,861	0,148	0,050
-480,605	15,339	0,085	0,048
-479,591	-32,438	-0,052	0,021
-478,576	-200,000	-0,002	-0,029
-477,562	135,403	0,027	0,025
-476,547	37,777	-0,011	0,007
-475,532	-76,647	-0,082	0,021
-474,518	215,400	0,046	0,053
-473,503	363,174	-0,078	0,113
-472,489	734,839	0,039	0,075
-471,474	138,093	-0,085	-0,081
-470,459	55,147	-0,107	-0,074
-469,445	160,509	-0,061	-0,062
-468,430	-49,292	-0,039	-0,013
-467,416	-200,000	-0,027	0,138
-466,401	436,445	0,062	0,097
-465,386	193,430	-0,011	0,012
-464,372	-55,678	0,134	0,043
-463,357	-200,000	0,005	0,081
-462,343	1,171	-0,057	0,029
-461,328	-104,858	-0,066	-0,011
-460,313	75,278	0,162	0,123
-459,299	800,000	0,055	-0,116
-458,284	-57,413	0,029	-0,009
-457,270	737,115	0,005	0,010
-456,255	-200,000	-0,038	-0,144
-455,241	-200,000	0,003	-0,092
-454,226	307,448	-0,057	-0,077
-453,211	312,234	-0,040	-0,054
-452,197	242,552	0,043	0,052
-451,182	-27,369	0,144	-0,060
-450,168	-33,412	0,136	-0,054
-449,153	-137,178	0,032	-0,003
-448,138	-200,000	0,006	-0,043
-447,124	10,292	-0,058	0,032
-446,109	96,431	0,029	-0,024
-445,095	206,172	0,066	0,074
-444,080	-30,247	0,141	0,057
-443,065	-200,000	0,032	0,113
-442,051	-74,017	-0,029	0,007
-441,036	602,054	-0,015	-0,028
-440,022	800,000	0,020	0,044
-439,007	-200,000	-0,005	-0,021
-437,992	78,315	0,137	0,105
-436,978	-193,548	-0,072	0,000
-435,963	-71,696	0,054	-0,014
-434,949	-200,000	-0,016	0,160
-433,934	264,862	-0,021	0,026
-432,919	-200,000	0,013	-0,064
-431,905	-164,077	-0,060	0,002
-430,890	258,327	0,021	0,026
-429,876	-23,238	-0,057	-0,025
-428,861	422,903	0,050	0,077
-427,846	-95,407	0,069	0,013
-426,832	-137,394	0,071	-0,006
-425,817	-79,629	-0,053	0,013
-424,803	-66,475	-0,159	0,045
-423,788	-200,000	0,048	0,176
-422,773	-200,000	0,039	-0,134
-421,759	9,359	-0,040	0,022
-420,744	95,652	-0,041	-0,033
-419,730	9,466	-0,088	-0,048
-418,715	800,000	-0,036	0,099
-417,701	-56,252	-0,082	0,026
-416,686	-6,030	0,099	-0,048
-415,671	-177,402	0,107	0,002
-414,657	-129,847	0,052	0,005
-413,642	-53,184	-0,100	0,033
-412,628	76,904	-0,012	-0,009
-411,613	-200,000	0,009	0,056
-410,598	314,927	0,068	-0,093
-409,584	452,044	0,028	0,044
-408,569	-30,516	-0,071	0,029
-407,555	-33,643	0,119	-0,047
-406,540	52,028	-0,096	0,065
-405,525	-47,201	-0,064	0,022
-404,511	78,652	-0,036	-0,027
-403,496	-73,965	-0,083	-0,022
-402,482	-77,882	-0,060	-0,015
-401,467	391,957	0,066	0,099
-400,452	-51,184	0,063	-0,021
-399,438	-17,568	-0,108	-0,049
-398,423	-200,000	0,013	-0,080
-397,409	416,834	-0,065	-0,100
-396,394	-42,073	-0,117	-0,043
-395,379	-131,443	0,159	-0,015
-394,365	494,702	-0,021	0,035
-393,350	-118,243	0,148	0,019
-392,336	364,468	0,029	0,043
-391,321	-49,333	0,074	-0,025
-390,306	-161,817	-0,039	-0,001
-389,292	-84,002	-0,136	-0,031
-388,277	357,682	-0,023	-0,033
-387,263	8,136	0,045	0,024
-386,248	-200,000	0,034	0,121
-385,233	-200,000	-0,007	-0,033
-384,219	-97,105	-0,023	-0,004
-383,204	-200,000	0,037	0,160
-382,190	259,961	-0,105	-0,130
-381,175	-124,771	-0,209	-0,023
-380,160	-97,130	0,078	-0,014
-379,146	96,125	0,103	0,085
-378,131	-58,541	0,113	0,035
-377,117	-200,000	0,002	-0,043
-376,102	-6,746	-0,131	0,064
-375,088	-77,508	-0,108	-0,027
-374,073	800,000	0,059	-0,163
-373,058	800,000	0,049	0,103
-372,044	400,514	0,075	0,114
-371,029	-27,642	-0,102	0,042
-370,015	-99,866	0,116	-0,021
-369,000	-200,000	-0,033	0,146
-367,985	251,895	-0,066	-0,081
-366,971	800,000	-0,039	-0,085
-365,956	129,459	0,110	-0,101
-364,942	-143,519	0,130	-0,009
-363,927	-20,284	0,166	0,073
-362,912	-200,000	-0,013	0,130
-361,898	2,081	-0,064	0,033
-360,883	-183,508	-0,061	-0,001
-359,869	175,476	-0,130	-0,136
-358,854	-200,000	-0,052	0,186
-357,839	-66,849	0,101	-0,028
-356,825	170,810	0,064	0,066
-355,810	800,000	-0,019	0,037
-354,796	-156,326	-0,078	-0,003
-353,781	127,716	0,035	-0,032
-352,766	-44,579	0,081	-0,029
-351,752	-200,000	0,003	-0,121
-350,737	15,779	-0,069	-0,039
-349,723	43,285	-0,053	-0,035
-348,708	-134,394	-0,018	-0,002
-347,693	19,979	-0,047	-0,027
-346,679	242,639	-0,014	0,017
-345,664	6,832	0,016	-0,008
-344,650	-200,000	-0,017	-0,103
-343,635	-200,000	0,013	0,237
-342,620	-54,486	0,149	0,048
-341,606	-128,163	0,006	0,001
-340,591	-200,000	0,020	-0,075
-339,577	-200,000	-0,023	-0,145
-338,562	2,706	-0,132	0,068
-337,548	-200,000	0,001	-0,037
-336,533	800,000	0,098	0,216
-335,518	32,164	-0,075	-0,046
-334,504	-61,503	0,004	0,001
-333,489	-83,478	0,104	0,024
-332,475	800,000	-0,081	-0,160
-331,460	272,673	-0,125	-0,159
-330,445	-140,756	0,077	-0,006
-329,431	-99,487	-0,063	0,011
-328,416	-200,000	-0,009	0,084
-327,402	25,337	-0,090	-0,053
-326,387	-55,181	0,021	0,007
-325,372	15,776	-0,073	-0,041
-324,358	-136,047	-0,049	-0,004
-323,343	-70,074	0,053	-0,014
-322,329	156,628	0,085	0,084
-321,314	-200,000	-0,007	-0,055
-320,299	-119,626	-0,109	0,013
-319,285	123,740	-0,152	0,137
-318,270	-76,573	-0,078	0,020
-317,256	61,535	-0,061	-0,043
-316,241	-158,616	-0,034	-0,001
-315,226	-200,000	0,034	-0,216
-314,212	-200,000	0,014	0,130
-313,197	146,575	0,065	-0,062
-312,183	66,548	-0,118	-0,086
-311,168	511,593	0,023	-0,039
-310,153	334,183	0,127	-0,176
-309,139	350,278	-0,049	0,069
-308,124	800,000	-0,052	-0,110
-307,110	800,000	0,046	0,117
-306,095	-200,000	0,015	0,111
-305,080	-10,281	-0,061	0,029
-304,066	-27,993	-0,009	-0,004
-303,051	-200,000	0,003	-0,081
-302,037	74,447	0,043	0,033
-301,022	191,321	0,029	-0,032
-300,008	230,235	0,132	0,155
-298,993	-200,000	0,026	0,091
-297,978	-17,538	0,125	0,056
-296,964	28,651	0,117	0,071
-295,949	56,880	-0,113	-0,078
-294,935	800,000	-0,036	0,081
-293,920	-4,689	0,155	0,076
-292,905	137,493	-0,073	-0,068
-291,891	-200,000	0,001	0,044
-290,876	-41,636	-0,118	-0,043
-289,862	-92,146	-0,177	0,036
-288,847	617,087	0,062	-0,112
-287,832	-200,000	-0,023	-0,123
-286,818	255,231	-0,053	-0,065
-285,803	21,263	-0,126	0,073
-284,789	800,000	-0,062	0,139
-283,774	800,000	0,016	0,035
-282,759	104,587	-0,103	-0,087
-281,745	121,429	-0,109	0,097
-280,730	282,532	-0,022	-0,028
-279,716	398,408	-0,059	-0,089
-278,701	113,697	0,033	0,029
-277,686	-200,000	0,027	0,104
-276,672	143,826	0,048	0,045
-275,657	-56,676	0,118	-0,037
-274,643	-62,700	-0,093	0,027
-273,628	-200,000	-0,014	-0,064
-272,613	-24,121	-0,053	0,023
-271,599	73,739	-0,071	-0,053
-270,584	-58,833	0,089	0,027
-269,570	97,391	-0,062	0,051
-268,555	800,000	-0,048	-0,107
-267,540	800,000	-0,062	-0,138
-266,526	84,206	-0,028	0,022
-265,511	-200,000	-0,001	-0,249
-264,497	800,000	0,026	0,075
-263,482	800,000	0,040	0,098
-262,467	800,000	0,055	0,125
-261,453	247,681	-0,054	0,065
-260,438	211,682	-0,107	0,120
-259,424	-200,000	0,008	-0,054
-258,409	-200,000	0,040	-0,142
-257,395	77,293	0,089	-0,068
-256,380	-200,000	0,030	0,098
-255,365	-200,000	-0,059	0,249
-254,351	800,000	0,008	0,022
-253,336	-14,539	-0,086	0,040
-252,322	-200,000	0,009	0,090
-251,307	-200,000	0,021	-0,078
-250,292	140,195	0,061	0,058
-249,278	27,263	0,098	0,059
-248,263	-200,000	0,017	0,065
-247,249	-200,000	0,038	0,144
-246,234	92,353	-0,042	0,034
-245,219	339,125	0,083	-0,115
-244,205	-164,782	-0,086	0,003
-243,190	249,227	-0,079	-0,096
-242,176	-95,322	0,154	-0,029
-241,161	723,042	0,045	0,087
-240,146	-200,000	-0,014	-0,072
-239,132	-64,944	-0,092	-0,026
-238,117	77,279	0,083	-0,063
-237,103	-200,000	0,003	0,019
-236,088	27,078	-0,091	-0,055
-235,073	37,012	0,112	-0,070
-234,059	248,670	0,058	0,070
-233,044	-90,484	-0,014	-0,003
-232,030	315,965	0,112	-0,152
-231,015	458,816	0,072	-0,115
-230,000	211,772	-0,161	0,181
-228,986	344,380	-0,166	-0,234
-227,971	-27,146	0,079	-0,033
-226,957	-35,424	-0,075	-0,029
-225,942	-51,380	0,106	-0,035
-224,927	800,000	-0,051	-0,103
-223,913	-147,978	-0,092	0,005
-222,898	11,525	0,129	-0,070
-221,884	-45,162	-0,021	0,008
-220,869	-52,093	0,094	-0,031
-219,855	212,051	0,053	0,059
-218,840	7,601	0,090	-0,048
-217,825	156,760	0,067	-0,066
-216,811	800,000	0,077	-0,174
-215,796	800,000	-0,029	-0,062
-214,782	65,079	0,116	0,083
-213,767	5,596	0,069	-0,036
-212,752	-200,000	0,022	0,151
-211,738	-141,319	-0,059	0,004
-210,723	65,188	-0,074	0,054
-209,709	1,389	-0,036	-0,019
-208,694	710,387	-0,074	-0,139
-207,679	-38,107	-0,132	0,050
-206,665	-85,943	0,163	0,036
-205,650	-200,000	-0,019	0,079
-204,636	800,000	-0,075	0,150
-203,621	-77,925	-0,011	0,003
-202,606	39,111	-0,101	0,064
-201,592	108,284	0,011	0,010
-200,577	-200,000	-0,039	0,127
-199,563	-200,000	-0,012	0,049
-198,548	183,118	0,070	0,074
-197,533	-118,993	0,074	0,009
-196,519	-200,000	0,010	-0,058
-195,504	-200,000	0,004	0,090
-194,490	55,636	-0,084	0,058
-193,475	-121,687	-0,021	0,002
-192,460	800,000	-0,035	0,092
-191,446	310,171	-0,027	-0,037
-190,431	764,044	0,019	0,037
-189,417	800,000	-0,037	0,097
-188,402	-200,000	-0,023	-0,080
-187,387	286,660	-0,100	-0,129
-186,373	152,257	0,085	-0,083
-185,358	38,156	0,075	0,047
-184,344	-20,403	0,058	-0,025
-183,329	-31,503	0,030	0,012
-182,315	54,699	0,021	0,015
-181,300	261,609	-0,084	0,104
-180,285	800,000	0,073	-0,185
-179,271	800,000	-0,040	-0,091
-178,256	800,000	-0,110	-0,221
-177,242	86,166	0,054	-0,042
-176,227	168,070	0,098	0,100
-175,212	-200,000	0,012	0,049
-174,198	800,000	-0,038	-0,097
-173,183	27,787	-0,099	0,059
-172,169	800,000	0,017	-0,042
-171,154	162,908	-0,073	0,073
-170,139	443,142	0,032	-0,051
-169,125	110,432	0,009	0,007
-168,110	-200,000	0,027	-0,087
-167,096	800,000	-0,025	-0,061
-166,081	-200,000	-0,024	-0,080
-165,066	31,523	-0,102	-0,062
-164,052	-172,983	0,091	0,002
-163,037	284,111	0,066	0,085
-162,023	-200,000	-0,002	0,083
-161,008	332,215	0,027	0,037
-159,993	-200,000	-0,008	0,050
-158,979	-124,398	-0,086	-0,009
-157,964	-54,893	0,133	0,042
-156,950	-200,000	0,019	-0,134
-155,935	62,446	0,157	0,111
-154,920	-200,000	-0,019	0,097
-153,906	99,483	-0,040	0,033
-152,891	-200,000	-0,004	0,140
-151,877	89,000	0,064	-0,051
-150,862	-200,000	-0,007	0,022
-149,847	-200,000	-0,050	-0,174
-148,833	800,000	0,045	-0,108
-147,818	800,000	0,022	-0,047
-146,804	25,718	0,079	0,047
-145,789	-200,000	0,007	0,083
-144,775	-43,918	0,117	0,042
-143,760	-200,000	0,031	-0,109
-142,745	163,937	0,070	0,070
-141,731	-71,513	0,127	-0,033
-140,716	105,702	0,116	0,097
-139,702	-44,406	0,120	-0,043
-138,687	114,308	-0,077	0,067
-137,672	-200,000	0,025	0,140
-136,658	-200,000	-0,012	-0,112
-135,643	303,238	0,106	-0,140
-134,629	-111,570	-0,116	0,017
-133,614	-198,903	0,138	-0,001
-132,599	-118,524	0,030	0,004
-131,585	197,342	0,079	0,086
-130,570	281,237	0,058	-0,074
-129,556	800,000	-0,043	-0,085
-128,541	-200,000	0,027	-0,194
-127,526	-200,000	0,013	-0,090
-126,512	-154,135	-0,073	0,003
-125,497	-24,155	0,085	-0,036
-124,483	-160,644	0,041	-0,002
-123,468	222,421	-0,060	-0,069
-122,453	52,190	-0,025	-0,017
-121,439	11,513	-0,038	0,021
-120,424	800,000	-0,020	0,060
-119,410	31,474	0,025	-0,016
