DTS Sentinel unit serial number:	SN410029Multiplexer serial number:	ORYXHardware model number:	OX2-SRSoftware version number:	ORYX F/W v4,00 Oryx Data Collector v3.7.2.0data status	okinstallation	BH3 CH2differential loss correction	single-endedforward channel	channel 2reverse channel	N/Adate	2023/12/05time	17:27:28forward acquisition time	300,00reverse acquisition time	0,00gamma	499,1914k internal	0,3193k external	0,3193temperature offset calibration	1,0000default loss term (dB/km)	0,3820temperature slope calibration	1,0000multiplexer offset coefficient	1,0000multiplexer slope coefficient	1,0000fibre end	0,00T internal ref (°C)	10,87T ext. ref 1 (°C)	-3,85T ext. ref 2 (°C)	-4,02length (m)	temperature (°C)	Stokes	anti-Stokes-744,400	237,965	-0,041	-0,050
-743,385	22,558	-0,238	0,142
-742,371	-131,499	0,053	-0,005
-741,356	-59,676	-0,196	0,061
-740,342	-200,000	0,009	-0,222
-739,327	38,556	-0,270	0,176
-738,312	800,000	-0,082	-0,264
-737,298	102,845	-0,141	0,120
-736,283	800,000	0,072	-0,183
-735,269	83,209	-0,191	0,152
-734,254	-163,605	-0,104	0,004
-733,239	-100,997	-0,485	-0,086
-732,225	222,868	0,158	-0,186
-731,210	800,000	-0,029	0,076
-730,196	595,323	-0,088	-0,160
-729,181	-200,000	-0,023	-0,086
-728,167	28,846	0,052	-0,032
-727,152	137,202	-0,032	-0,031
-726,137	43,705	-0,123	0,082
-725,123	589,025	-0,023	-0,042
-724,108	84,018	-0,110	-0,088
-723,094	246,129	-0,040	-0,050
-722,079	50,053	-0,101	-0,069
-721,064	-76,149	0,109	-0,028
-720,050	-200,000	0,002	-0,066
-719,035	298,175	0,041	-0,055
-718,021	-71,508	-0,167	0,045
-717,006	-200,000	0,030	-0,114
-715,991	152,696	-0,132	-0,132
-714,977	-149,482	0,100	0,006
-713,962	-142,297	0,043	-0,003
-712,948	78,427	0,092	-0,072
-711,933	-179,491	-0,142	-0,002
-710,918	286,791	0,066	0,087
-709,904	800,000	-0,042	-0,121
-708,889	486,835	-0,069	-0,114
-707,875	-24,314	-0,085	0,037
-706,860	481,765	-0,037	-0,061
-705,845	130,014	0,108	-0,101
-704,831	-200,000	-0,002	0,045
-703,816	269,333	-0,045	0,057
-702,802	800,000	-0,015	0,031
-701,787	468,430	-0,075	0,123
-700,772	-200,000	0,008	0,072
-699,758	1,006	-0,116	0,060
-698,743	800,000	0,027	-0,063
-697,729	-200,000	-0,015	-0,065
-696,714	-95,076	0,019	0,004
-695,699	800,000	0,030	0,094
-694,685	402,294	-0,010	-0,015
-693,670	800,000	0,026	-0,073
-692,656	258,110	0,042	0,053
-691,641	-200,000	0,007	0,027
-690,627	800,000	-0,020	0,048
-689,612	-50,590	-0,024	0,008
-688,597	-200,000	0,010	0,134
-687,583	88,054	-0,097	-0,078
-686,568	19,276	0,075	-0,044
-685,554	693,962	-0,007	0,013
-684,539	285,973	0,069	0,091
-683,524	-200,000	-0,016	0,119
-682,510	800,000	0,043	-0,105
-681,495	-200,000	0,017	0,060
-680,481	-160,441	-0,117	-0,004
-679,466	-200,000	-0,027	-0,176
-678,451	-200,000	0,007	-0,118
-677,437	-174,030	0,106	-0,002
-676,422	-135,751	-0,185	-0,016
-675,408	-111,876	-0,015	0,002
-674,393	-86,006	0,163	0,036
-673,378	-200,000	0,001	-0,021
-672,364	77,333	-0,083	-0,064
-671,349	-200,000	0,017	-0,088
-670,335	215,885	0,024	0,028
-669,320	-20,006	0,066	-0,029
-668,305	-96,863	-0,055	0,010
-667,291	102,860	0,039	0,033
-666,276	493,156	0,022	-0,037
-665,262	-200,000	-0,007	0,096
-664,247	-50,754	-0,114	0,039
-663,232	79,800	-0,060	-0,047
-662,218	-200,000	-0,041	0,188
-661,203	323,285	-0,082	0,114
-660,189	-200,000	-0,004	-0,084
-659,174	-94,814	-0,065	-0,013
-658,159	800,000	0,022	0,057
-657,145	-200,000	0,009	-0,083
-656,130	-87,189	0,016	-0,003
-655,116	201,363	-0,019	-0,021
-654,101	391,591	0,068	0,103
-653,086	-107,109	0,039	0,006
-652,072	-200,000	-0,002	0,048
-651,057	197,083	-0,076	-0,084
-650,043	-9,094	-0,067	-0,032
-649,028	198,549	0,064	0,071
-648,014	119,530	-0,047	-0,043
-646,999	-72,505	0,006	0,002
-645,984	418,285	0,049	-0,077
-644,970	-133,692	-0,164	-0,015
-643,955	44,525	0,082	-0,054
-642,941	582,411	-0,048	-0,086
-641,926	-200,000	-0,017	0,066
-640,911	218,483	0,076	-0,088
-639,897	157,633	-0,029	0,030
-638,882	359,318	-0,057	-0,083
-637,868	352,965	-0,030	-0,043
-636,853	-114,821	-0,128	0,018
-635,838	9,523	-0,059	-0,032
-634,824	800,000	0,035	-0,075
-633,809	-102,250	0,118	0,020
-632,795	-29,292	-0,087	0,036
-631,780	624,648	0,042	-0,078
-630,765	163,545	-0,113	-0,116
-629,751	76,023	-0,066	-0,051
-628,736	-200,000	-0,002	-0,014
-627,722	190,727	-0,076	-0,083
-626,707	218,619	0,075	-0,087
-625,692	-200,000	-0,005	-0,056
-624,678	448,627	0,049	-0,079
-623,663	-132,747	0,114	-0,010
-622,649	252,214	-0,117	-0,144
-621,634	126,011	-0,116	-0,107
-620,619	-43,451	-0,021	0,008
-619,605	-4,242	0,128	0,064
-618,590	-200,000	0,021	0,145
-617,576	-123,841	0,084	-0,009
-616,561	-200,000	0,001	0,013
-615,546	-41,622	0,092	-0,034
-614,532	432,528	-0,125	-0,197
-613,517	87,914	0,048	0,038
-612,503	415,181	0,008	0,012
-611,488	-19,187	0,135	-0,060
-610,474	-200,000	0,021	0,086
-609,459	800,000	0,031	-0,075
-608,444	-9,387	-0,072	0,035
-607,430	57,057	-0,074	0,052
-606,415	-200,000	-0,009	0,049
-605,401	310,285	0,102	0,139
-604,386	-200,000	0,015	0,149
-603,371	-200,000	0,026	0,118
-602,357	-25,705	0,073	0,031
-601,342	409,828	-0,115	-0,177
-600,328	-142,418	-0,048	-0,003
-599,313	42,534	0,062	-0,041
-598,298	800,000	-0,021	-0,049
-597,284	-200,000	0,034	0,117
-596,269	281,709	0,006	0,008
-595,255	-120,869	0,073	0,009
-594,240	-94,147	0,118	-0,023
-593,225	-200,000	0,000	-0,095
-592,211	-35,924	-0,016	0,006
-591,196	44,080	-0,116	-0,077
-590,182	369,171	-0,040	-0,059
-589,167	-200,000	-0,013	-0,061
-588,152	-56,517	0,102	-0,032
-587,138	-99,205	-0,095	-0,017
-586,123	-45,842	-0,030	-0,011
-585,109	42,218	-0,077	-0,051
-584,094	108,057	0,082	-0,071
-583,079	800,000	0,046	-0,140
-582,065	125,566	-0,092	0,085
-581,050	-200,000	0,002	0,105
-580,036	596,335	0,008	0,015
-579,021	-200,000	-0,026	-0,112
-578,006	-152,565	0,133	0,007
-576,992	-135,089	-0,143	-0,012
-575,977	-200,000	0,031	-0,131
-574,963	800,000	0,011	-0,031
-573,948	237,943	-0,035	0,043
-572,934	309,572	-0,057	0,077
-571,919	19,163	0,056	-0,032
-570,904	301,796	-0,092	-0,123
-569,890	-46,654	0,052	0,018
-568,875	314,039	0,011	-0,015
-567,861	-200,000	0,047	0,167
-566,846	336,962	0,047	0,066
-565,831	0,634	0,094	-0,048
-564,817	45,331	0,073	0,049
-563,802	-58,316	-0,052	-0,016
-562,788	800,000	-0,040	0,111
-561,773	-200,000	0,011	-0,053
-560,758	47,366	0,082	0,055
-559,744	315,049	0,084	-0,115
-558,729	-63,832	0,037	0,011
-557,715	-200,000	0,013	-0,160
-556,700	800,000	-0,046	-0,131
-555,685	-200,000	-0,022	-0,104
-554,671	418,602	-0,063	-0,099
-553,656	-103,244	-0,081	0,014
-552,642	38,867	0,016	0,010
-551,627	-200,000	-0,014	-0,111
-550,612	-84,781	-0,165	-0,037
-549,598	361,580	-0,068	-0,099
-548,583	-55,314	-0,072	0,023
-547,569	-200,000	0,005	-0,020
-546,554	74,807	0,057	0,044
-545,539	-148,568	0,101	0,006
-544,525	-42,027	-0,043	-0,016
-543,510	620,153	0,073	-0,134
-542,496	-200,000	0,008	0,059
-541,481	-9,247	0,016	0,008
-540,466	153,115	-0,022	-0,022
-539,452	-200,000	-0,008	0,038
-538,437	271,846	0,058	-0,074
-537,423	97,949	-0,168	0,139
-536,408	-200,000	0,015	0,047
-535,393	519,620	-0,057	-0,097
-534,379	560,471	-0,059	0,104
-533,364	97,684	0,047	-0,039
-532,350	656,317	-0,068	-0,128
-531,335	-178,410	0,062	-0,001
-530,321	72,919	-0,062	-0,047
-529,306	-108,169	0,038	-0,006
-528,291	642,283	-0,046	0,085
-527,277	5,698	0,127	-0,068
-526,262	-200,000	-0,005	0,093
-525,248	-200,000	-0,004	0,073
-524,233	102,141	0,089	0,075
-523,218	-88,792	0,066	0,014
-522,204	800,000	0,034	-0,073
-521,189	297,023	0,047	0,063
-520,175	-200,000	-0,004	-0,061
-519,160	206,945	-0,026	0,030
-518,145	17,331	0,109	0,062
-517,131	1,076	0,056	0,029
-516,116	-200,000	-0,005	0,096
-515,102	-200,000	0,042	-0,188
-514,087	673,014	0,042	-0,078
-513,072	800,000	-0,071	-0,147
-512,058	-200,000	-0,020	-0,145
-511,043	45,097	0,064	0,043
-510,029	110,276	0,123	0,106
-509,014	-200,000	0,003	0,058
-507,999	132,829	0,165	0,154
-506,985	97,685	-0,051	0,042
-505,970	487,384	-0,037	-0,061
-504,956	-27,521	-0,023	-0,010
-503,941	-91,386	-0,067	-0,014
-502,926	51,180	0,123	-0,084
-501,912	151,652	0,078	0,077
-500,897	-200,000	0,003	-0,155
-499,883	263,202	-0,057	0,071
-498,868	537,664	-0,151	-0,259
-497,853	-60,906	-0,096	-0,029
-496,839	-135,800	0,117	-0,010
-495,824	-34,161	0,024	-0,009
-494,810	-200,000	-0,051	0,172
-493,795	-200,000	0,002	0,111
-492,781	258,700	-0,031	-0,039
-491,766	-200,000	0,001	-0,076
-490,751	87,656	-0,053	0,043
-489,737	215,399	-0,072	-0,082
-488,722	-13,721	-0,040	-0,019
-487,708	203,071	0,038	0,042
-486,693	-200,000	0,024	0,137
-485,678	-98,498	-0,176	-0,032
-484,664	-200,000	-0,001	-0,177
-483,649	-200,000	0,030	-0,105
-482,635	-200,000	-0,015	0,071
-481,620	192,426	0,050	0,055
-480,605	195,465	-0,052	0,057
-479,591	132,498	0,051	-0,048
-478,576	234,992	-0,037	0,044
-477,562	-63,190	-0,130	-0,038
-476,547	800,000	-0,019	-0,061
-475,532	-81,422	0,079	0,019
-474,518	-200,000	0,006	-0,073
-473,503	-200,000	0,036	0,124
-472,489	155,594	0,058	0,057
-471,474	250,720	0,059	0,073
-470,459	800,000	-0,030	-0,060
-469,445	601,702	-0,038	-0,069
-468,430	-0,492	0,070	0,035
-467,416	-200,000	0,034	-0,164
-466,401	-81,029	0,068	-0,016
-465,386	-119,378	0,055	0,007
-464,372	102,279	-0,023	-0,019
-463,357	-38,823	-0,078	0,030
-462,343	-61,025	-0,098	-0,030
-461,328	-54,207	0,082	-0,027
-460,313	-31,429	0,032	0,013
-459,299	55,667	0,110	0,077
-458,284	174,672	-0,049	0,051
-457,270	800,000	0,021	0,055
-456,255	15,729	-0,111	-0,063
-455,241	-175,740	-0,133	0,003
-454,226	99,693	0,047	-0,039
-453,211	-51,285	0,074	-0,025
-452,197	800,000	0,055	0,117
-451,182	331,432	0,066	0,092
-450,168	51,486	-0,055	-0,038
-449,153	-200,000	0,011	0,124
-448,138	62,311	0,050	0,036
-447,124	368,118	0,076	-0,111
-446,109	-33,618	-0,030	-0,012
-445,095	309,905	-0,070	0,094
-444,080	-43,782	0,083	0,030
-443,065	296,160	0,051	0,068
-442,051	-51,064	-0,038	-0,013
-441,036	-107,864	-0,087	0,014
-440,022	-23,231	-0,059	-0,025
-439,007	157,907	-0,037	0,037
-437,992	-200,000	0,018	0,068
-436,978	89,615	-0,090	0,072
-435,963	299,347	0,074	0,098
-434,949	149,978	-0,097	-0,095
-433,934	116,273	-0,044	0,039
-432,919	26,644	-0,041	-0,025
-431,905	800,000	-0,040	0,119
-430,890	165,216	0,094	0,096
-429,876	800,000	-0,055	0,145
-428,861	800,000	-0,059	0,187
-427,846	800,000	0,028	0,072
-426,832	66,982	-0,133	-0,097
-425,817	-200,000	0,013	-0,104
-424,803	-50,768	0,066	-0,022
-423,788	-60,050	-0,014	-0,004
-422,773	800,000	0,043	0,104
-421,759	-200,000	-0,001	-0,030
-420,744	260,960	0,025	-0,032
-419,730	-164,719	-0,100	-0,003
-418,715	800,000	0,037	-0,088
-417,701	-133,565	-0,132	-0,012
-416,686	800,000	-0,013	-0,036
-415,671	285,022	-0,032	-0,042
-414,657	-48,099	-0,079	0,027
-413,642	-200,000	0,009	0,031
-412,628	800,000	-0,028	-0,070
-411,613	176,214	0,084	-0,087
-410,598	181,567	0,038	0,040
-409,584	-200,000	0,035	0,149
-408,569	404,325	0,061	0,093
-407,555	628,515	0,053	0,097
-406,540	-200,000	-0,006	0,023
-405,525	-161,034	-0,159	0,006
-404,511	315,779	-0,062	-0,085
-403,496	44,333	-0,057	-0,038
-402,482	-200,000	-0,013	0,049
-401,467	152,173	0,073	0,072
-400,452	146,012	0,050	0,048
-399,438	-200,000	-0,019	0,071
-398,423	378,941	0,050	-0,073
-397,409	142,893	-0,062	0,060
-396,394	38,185	-0,115	0,073
-395,379	143,966	0,040	0,039
-394,365	4,977	0,139	0,073
-393,350	68,794	0,069	0,051
-392,336	-200,000	0,046	0,150
-391,321	267,250	0,068	-0,086
-390,306	149,936	-0,050	0,049
-389,292	-94,126	0,166	0,032
-388,277	143,564	-0,078	0,075
-387,263	-69,546	-0,085	0,023
-386,248	44,165	-0,037	-0,024
-385,233	715,349	-0,085	0,163
-384,219	130,211	-0,071	0,066
-383,204	800,000	0,037	0,075
-382,190	49,379	-0,136	-0,092
-381,175	563,642	0,038	0,067
-380,160	538,504	-0,016	-0,027
-379,146	800,000	0,023	-0,049
-378,131	122,004	-0,056	0,050
-377,117	174,065	0,085	0,088
-376,102	-200,000	-0,012	0,142
-375,088	154,268	0,100	-0,099
-374,073	93,861	-0,112	-0,091
-373,058	39,119	0,062	0,040
-372,044	222,526	0,038	-0,043
-371,029	-200,000	0,008	-0,121
-370,015	249,987	-0,055	0,068
-369,000	371,104	0,052	-0,076
-367,985	-200,000	-0,039	-0,159
-366,971	54,698	0,060	0,042
-365,956	-69,546	0,129	0,035
-364,942	-200,000	0,019	0,142
-363,927	800,000	-0,024	0,064
-362,912	-200,000	-0,015	-0,112
-361,898	198,259	-0,039	-0,043
-360,883	79,624	0,091	-0,070
-359,869	228,581	-0,035	0,042
-358,854	-24,720	0,107	-0,046
-357,839	-135,381	0,159	0,013
-356,825	-13,077	-0,074	-0,034
-355,810	-200,000	0,010	-0,120
-354,796	275,789	-0,074	0,095
-353,781	176,083	0,050	-0,052
-352,766	-84,866	-0,018	-0,004
-351,752	-200,000	0,011	-0,118
-350,737	176,432	-0,032	0,033
-349,723	99,617	0,037	-0,031
-348,708	60,585	-0,023	-0,017
-347,693	96,876	0,031	0,026
-346,679	-200,000	-0,016	0,063
-345,664	-37,216	-0,174	-0,066
-344,650	-1,821	-0,054	-0,027
-343,635	99,285	0,069	-0,057
-342,620	62,312	-0,050	0,036
-341,606	-94,855	-0,118	-0,023
-340,591	145,617	0,020	-0,019
-339,577	53,900	-0,067	0,046
-338,562	-200,000	-0,024	-0,195
-337,548	-153,944	-0,109	-0,005
-336,533	250,291	0,060	0,073
-335,518	-200,000	0,027	0,141
-334,504	466,585	-0,019	-0,030
-333,489	-200,000	0,008	0,079
-332,475	-66,375	0,071	-0,020
-331,460	38,794	-0,036	-0,023
-330,445	-188,880	0,071	0,001
-329,431	-68,728	0,087	0,024
-328,416	-127,582	-0,089	0,009
-327,402	800,000	-0,022	0,056
-326,387	-126,910	0,043	-0,004
-325,372	-200,000	-0,013	-0,060
-324,358	800,000	0,054	-0,116
-323,343	597,431	0,056	-0,101
-322,329	-200,000	-0,023	0,074
-321,314	9,728	0,068	0,037
-320,299	21,466	-0,089	-0,052
-319,285	68,499	-0,051	0,038
-318,270	759,529	0,047	-0,092
-317,256	-200,000	0,005	0,024
-316,241	789,758	0,051	0,100
-315,226	44,388	-0,109	-0,072
-314,212	-110,341	0,077	0,011
-313,197	-22,657	-0,077	0,033
-312,183	-200,000	-0,002	0,028
-311,168	-200,000	-0,005	0,087
-310,153	160,245	-0,023	0,023
-309,139	-200,000	0,008	-0,103
-308,124	-200,000	0,008	0,054
-307,110	147,595	0,051	0,050
-306,095	-200,000	0,013	0,077
-305,080	60,113	-0,065	-0,046
-304,066	8,190	-0,029	0,016
-303,051	-91,964	-0,128	-0,026
-302,037	601,625	0,053	-0,096
-301,022	-164,902	0,173	0,005
-300,008	-200,000	-0,046	0,195
-298,993	-200,000	0,016	0,051
-297,978	109,540	0,076	0,065
-296,964	2,252	-0,025	-0,013
-295,949	-62,803	0,075	-0,022
-294,935	-41,110	0,095	-0,035
-293,920	-87,758	-0,052	0,011
-292,905	-68,294	0,061	0,017
-291,891	567,274	-0,030	0,052
-290,876	80,847	0,044	-0,034
-289,862	64,627	-0,095	0,069
-288,847	-200,000	-0,016	-0,097
-287,832	86,979	-0,134	0,106
-286,818	800,000	0,012	-0,025
-285,803	660,908	0,035	-0,065
-284,789	-12,711	0,076	-0,035
-283,774	-85,766	0,100	-0,022
-282,759	-38,034	-0,061	0,023
-281,745	800,000	-0,073	0,153
-280,730	381,483	-0,026	0,038
-279,716	12,406	0,033	0,018
-278,701	404,715	0,014	0,022
-277,686	210,498	0,051	-0,058
-276,672	-200,000	0,003	0,033
-275,657	800,000	0,032	-0,065
-274,643	75,656	-0,037	0,028
-273,628	-200,000	0,013	0,100
-272,613	41,108	0,036	-0,023
-271,599	26,972	0,029	-0,017
-270,584	-38,169	-0,055	-0,021
-269,570	-200,000	0,017	0,183
-268,555	580,531	0,039	0,069
-267,540	81,446	-0,099	0,076
-266,526	74,565	-0,077	-0,058
-265,511	89,078	0,183	-0,145
-264,497	-116,018	-0,042	-0,006
-263,482	216,171	0,086	0,098
-262,467	-144,499	0,061	-0,004
-261,453	-41,674	0,068	0,025
-260,438	304,241	0,093	-0,124
-259,424	-146,813	0,070	-0,004
-258,409	-88,833	-0,097	-0,020
-257,395	-9,219	-0,068	0,032
-256,380	-77,569	0,081	-0,020
-255,365	22,299	0,045	-0,026
-254,351	57,713	-0,129	0,090
-253,336	109,342	-0,089	-0,076
-252,322	-200,000	-0,025	0,081
-251,307	322,462	-0,056	0,077
-250,292	211,270	0,063	0,071
-249,278	-150,026	0,048	-0,003
-248,263	734,152	0,057	0,110
-247,249	-200,000	0,063	0,201
-246,234	800,000	0,037	-0,079
-245,219	-187,430	-0,121	-0,001
-244,205	-200,000	0,004	-0,128
-243,190	-45,781	-0,088	0,031
-242,176	42,359	0,048	0,031
-241,161	427,926	-0,058	0,090
-240,146	-93,740	-0,101	0,020
-239,132	129,579	-0,093	0,085
-238,117	438,865	-0,040	-0,062
-237,103	13,001	0,024	0,013
-236,088	124,210	0,051	0,046
-235,073	-200,000	0,002	0,030
-234,059	-200,000	-0,013	0,097
-233,044	-41,694	0,064	-0,023
-232,030	800,000	-0,070	0,178
-231,015	-200,000	-0,015	0,118
-230,000	66,265	-0,051	0,037
-228,986	532,320	0,006	0,009
-227,971	-200,000	0,000	-0,007
-226,957	-179,955	0,178	0,003
-225,942	-68,800	0,099	0,027
-224,927	64,584	-0,023	-0,017
-223,913	252,315	0,053	-0,064
-222,898	364,512	-0,052	-0,074
-221,884	46,114	0,097	0,064
-220,869	-83,587	0,077	-0,017
-219,855	800,000	0,057	-0,113
-218,840	26,043	0,065	0,039
-217,825	80,989	0,047	0,036
-216,811	350,942	-0,141	-0,200
-215,796	800,000	-0,007	-0,021
-214,782	277,820	-0,096	-0,122
-213,767	125,621	-0,100	0,091
-212,752	77,087	0,034	-0,025
-211,738	-200,000	-0,048	0,163
-210,723	233,020	-0,063	-0,074
-209,709	-200,000	0,004	0,034
-208,694	119,989	-0,060	-0,054
-207,679	800,000	-0,020	-0,045
-206,665	59,714	-0,087	-0,061
-205,650	-36,602	0,101	-0,039
-204,636	-200,000	-0,030	0,232
-203,621	-200,000	-0,008	0,124
-202,606	-121,780	-0,150	0,017
-201,592	639,275	-0,021	-0,039
-200,577	495,400	-0,070	-0,115
-199,563	-200,000	0,036	-0,119
-198,548	-200,000	-0,011	0,064
-197,533	60,676	0,089	0,063
-196,519	-200,000	-0,010	0,103
-195,504	800,000	-0,033	-0,099
-194,490	-200,000	0,003	-0,110
-193,475	53,679	-0,095	0,065
-192,460	800,000	0,027	-0,075
-191,446	-81,388	0,129	0,030
-190,431	-200,000	0,011	0,048
-189,417	286,426	0,026	-0,034
-188,402	-23,950	0,034	0,015
-187,387	179,598	-0,118	-0,123
-186,373	-94,225	-0,087	-0,017
-185,358	192,923	-0,049	0,053
-184,344	-6,529	0,164	-0,080
-183,329	-78,298	0,057	0,014
-182,315	800,000	-0,012	0,031
-181,300	-129,270	-0,032	0,003
-180,285	81,644	-0,082	-0,063
-179,271	-116,904	0,096	-0,012
-178,256	800,000	-0,023	-0,049
-177,242	-60,626	0,018	-0,005
-176,227	487,515	-0,050	0,081
-175,212	-200,000	0,026	0,089
-174,198	-96,023	-0,180	0,034
-173,183	82,802	0,030	0,023
-172,169	-200,000	0,024	0,151
-171,154	800,000	-0,031	-0,081
-170,139	-152,558	0,115	0,006
-169,125	698,095	0,059	0,112
-168,110	150,460	0,031	-0,031
-167,096	-200,000	-0,033	-0,146
-166,081	174,647	0,107	0,110
-165,066	-200,000	0,063	-0,211
-164,052	750,913	-0,073	-0,142
-163,037	450,369	0,074	0,117
-162,023	800,000	-0,036	-0,096
-161,008	-200,000	0,002	-0,013
-159,993	148,315	0,075	0,073
-158,979	141,779	0,013	-0,012
-157,964	-200,000	-0,029	-0,134
-156,950	800,000	-0,049	-0,151
-155,935	-66,032	0,016	0,005
-154,920	-200,000	-0,003	0,084
-153,906	800,000	0,007	0,021
-152,891	800,000	0,032	-0,088
-151,877	800,000	-0,041	0,092
-150,862	194,411	-0,104	0,113
-149,847	800,000	0,012	-0,035
-148,833	201,963	-0,069	0,076
-147,818	168,327	0,113	0,114
-146,804	-200,000	0,025	0,105
-145,789	800,000	-0,037	0,077
-144,775	-75,634	-0,133	0,034
-143,760	800,000	0,011	0,026
-142,745	800,000	-0,012	0,030
-141,731	612,129	-0,049	0,087
-140,716	244,489	-0,016	0,019
-139,702	-200,000	0,021	0,092
-138,687	-46,839	0,082	0,028
-137,672	-200,000	-0,009	0,132
-136,658	324,221	0,062	-0,084
-135,643	-200,000	0,009	0,069
-134,629	-200,000	-0,007	0,215
-133,614	60,895	0,126	-0,089
-132,599	54,452	-0,100	-0,068
-131,585	276,278	-0,046	0,058
-130,570	-200,000	0,001	0,099
-129,556	-137,780	0,097	0,008
-128,541	800,000	-0,048	-0,105
-127,526	110,515	0,085	0,072
-126,512	-10,432	0,147	0,069
-125,497	800,000	0,016	0,035
-124,483	115,507	-0,088	0,077
-123,468	321,960	-0,001	0,002
-122,453	-34,694	0,028	-0,011
-121,439	82,476	-0,081	-0,062
-120,424	-73,538	0,088	0,023
-119,410	-177,335	0,123	0,002
-118,395	-200,000	0,004	0,155
-117,380	78,036	0,050	0,038
