DTS Sentinel unit serial number:	SN410029Multiplexer serial number:	ORYXHardware model number:	OX2-SRSoftware version number:	ORYX F/W v4,00 Oryx Data Collector v3.7.2.0data status	okinstallation	BH3 CH2differential loss correction	single-endedforward channel	channel 2reverse channel	N/Adate	2023/12/05time	16:22:28forward acquisition time	300,00reverse acquisition time	0,00gamma	499,1914k internal	0,3192k external	0,3192temperature offset calibration	1,0000default loss term (dB/km)	0,3820temperature slope calibration	1,0000multiplexer offset coefficient	1,0000multiplexer slope coefficient	1,0000fibre end	0,00T internal ref (°C)	11,06T ext. ref 1 (°C)	-3,40T ext. ref 2 (°C)	-3,59length (m)	temperature (°C)	Stokes	anti-Stokes-744,400	800,000	0,051	-0,121
-743,385	6,447	-0,208	0,112
-742,371	447,242	0,054	0,087
-741,356	9,486	-0,165	0,091
-740,342	465,356	-0,018	0,029
-739,327	261,214	-0,090	0,114
-738,312	-150,799	-0,137	-0,007
-737,298	13,289	-0,273	0,154
-736,283	-200,000	0,003	0,022
-735,269	-200,000	-0,033	0,117
-734,254	127,146	-0,069	-0,064
-733,239	-83,805	-0,356	-0,082
-732,225	800,000	0,042	-0,109
-731,210	54,108	-0,015	-0,011
-730,196	322,737	0,042	0,058
-729,181	-115,682	-0,122	0,017
-728,167	402,956	0,058	0,089
-727,152	334,837	0,038	0,053
-726,137	9,942	-0,114	-0,063
-725,123	-200,000	-0,022	-0,085
-724,108	102,917	-0,044	-0,038
-723,094	800,000	-0,082	-0,171
-722,079	62,685	-0,048	-0,035
-721,064	321,149	-0,018	0,026
-720,050	-200,000	-0,005	-0,071
-719,035	-42,998	-0,110	-0,040
-718,021	-200,000	-0,003	0,016
-717,006	32,970	-0,045	-0,028
-715,991	-200,000	0,003	-0,021
-714,977	-200,000	0,049	-0,186
-713,962	-200,000	-0,021	0,081
-712,948	-48,432	0,033	0,011
-711,933	-200,000	0,004	0,095
-710,918	800,000	0,044	0,094
-709,904	457,667	0,074	-0,120
-708,889	-8,244	0,120	-0,058
-707,875	12,964	-0,022	-0,013
-706,860	-200,000	0,004	-0,014
-705,845	-103,315	0,035	0,006
-704,831	93,741	0,075	0,062
-703,816	-68,748	-0,065	-0,018
-702,802	44,661	0,046	-0,031
-701,787	800,000	-0,005	0,010
-700,772	-21,875	-0,260	0,115
-699,758	17,095	0,070	0,040
-698,743	-88,302	0,143	-0,031
-697,729	-25,383	-0,072	0,031
-696,714	-200,000	-0,008	0,104
-695,699	15,806	0,114	-0,065
-694,685	65,472	-0,031	-0,023
-693,670	-200,000	-0,022	-0,112
-692,656	-200,000	-0,004	-0,056
-691,641	-24,019	0,131	-0,057
-690,627	800,000	0,048	-0,124
-689,612	12,964	-0,050	0,028
-688,597	800,000	-0,077	-0,176
-687,583	22,176	-0,179	-0,106
-686,568	-200,000	-0,036	-0,123
-685,554	212,460	-0,114	-0,131
-684,539	-200,000	-0,016	0,215
-683,524	81,517	0,110	-0,086
-682,510	167,132	-0,085	0,087
-681,495	-53,405	-0,236	-0,078
-680,481	426,486	0,052	0,082
-679,466	10,359	-0,010	0,006
-678,451	-24,328	-0,115	-0,050
-677,437	-109,933	0,071	-0,011
-676,422	-9,460	-0,061	0,030
-675,408	180,497	-0,143	0,153
-674,393	800,000	-0,043	0,113
-673,378	488,066	0,053	0,089
-672,364	-55,673	-0,160	-0,052
-671,349	44,887	-0,056	-0,037
-670,335	-200,000	-0,024	-0,101
-669,320	-84,788	-0,130	0,029
-668,305	-86,149	0,065	0,014
-667,291	-46,013	-0,067	0,024
-666,276	-200,000	0,007	0,080
-665,262	-77,255	-0,013	-0,003
-664,247	-121,114	-0,191	-0,023
-663,232	736,806	0,074	-0,145
-662,218	-200,000	-0,025	0,161
-661,203	83,906	0,068	0,054
-660,189	8,984	0,045	-0,025
-659,174	-200,000	-0,012	-0,124
-658,159	-91,365	-0,119	-0,024
-657,145	709,046	0,003	-0,005
-656,130	-101,674	0,107	-0,019
-655,116	-22,265	-0,094	0,041
-654,101	-49,244	-0,065	0,023
-653,086	83,403	-0,123	0,097
-652,072	-200,000	-0,022	0,074
-651,057	-1,523	-0,091	0,047
-650,043	32,391	0,123	-0,077
-649,028	-27,560	-0,046	-0,019
-648,014	-0,094	-0,105	-0,054
-646,999	-200,000	0,002	0,142
-645,984	-200,000	-0,004	0,087
-644,970	52,156	0,151	0,104
-643,955	800,000	-0,035	0,087
-642,941	700,249	0,043	-0,083
-641,926	-88,169	-0,140	0,030
-640,911	-41,820	0,035	-0,013
-639,897	213,053	-0,055	-0,064
-638,882	35,871	-0,025	0,016
-637,868	69,089	-0,131	0,098
-636,853	-200,000	0,019	-0,099
-635,838	61,892	-0,114	0,083
-634,824	-6,976	0,032	-0,016
-633,809	-200,000	0,001	0,007
-632,795	59,113	0,115	-0,082
-631,780	132,857	-0,115	0,108
-630,765	-170,995	-0,129	-0,003
-629,751	125,209	-0,128	-0,117
-628,736	-200,000	0,012	-0,095
-627,722	-82,348	-0,038	-0,009
-626,707	-131,750	0,086	-0,008
-625,692	-200,000	0,014	0,086
-624,678	800,000	-0,020	-0,054
-623,663	-152,754	-0,087	-0,004
-622,649	-0,936	-0,112	0,057
-621,634	271,317	-0,026	0,033
-620,619	12,460	-0,074	-0,041
-619,605	60,441	0,133	0,096
-618,590	-130,176	-0,098	-0,010
-617,576	-64,661	0,109	-0,032
-616,561	800,000	-0,029	-0,081
-615,546	800,000	-0,031	0,065
-614,532	800,000	0,024	0,063
-613,517	-108,992	0,053	-0,008
-612,503	-54,854	0,069	-0,022
-611,488	-200,000	0,000	0,057
-610,474	-42,558	-0,097	-0,036
-609,459	-85,638	0,137	0,031
-608,444	-200,000	-0,024	-0,109
-607,430	-10,997	-0,098	0,047
-606,415	732,785	-0,035	-0,069
-605,401	800,000	-0,028	-0,060
-604,386	-76,439	0,067	-0,017
-603,371	146,064	-0,145	0,141
-602,357	595,623	0,089	0,161
-601,342	-135,311	-0,068	0,006
-600,328	-63,659	-0,120	-0,036
-599,313	800,000	0,027	0,062
-598,298	-22,862	-0,070	0,030
-597,284	-45,668	0,159	-0,057
-596,269	-200,000	-0,020	0,079
-595,255	-106,904	-0,101	0,016
-594,240	-200,000	-0,000	-0,109
-593,225	-200,000	-0,000	-0,020
-592,211	172,424	0,081	-0,085
-591,196	-35,836	-0,087	-0,034
-590,182	529,062	-0,051	-0,087
-589,167	-55,606	0,089	-0,029
-588,152	286,570	0,023	-0,030
-587,138	15,576	0,035	-0,020
-586,123	-200,000	-0,027	-0,121
-585,109	-91,652	-0,057	0,012
-584,094	100,061	0,042	0,035
-583,079	99,723	-0,033	0,027
-582,065	-19,685	0,056	0,025
-581,050	-200,000	-0,001	-0,035
-580,036	-110,743	-0,050	0,007
-579,021	-23,567	0,066	-0,028
-578,006	-11,271	0,119	-0,057
-576,992	-200,000	-0,023	-0,168
-575,977	43,724	0,057	0,038
-574,963	800,000	-0,027	0,055
-573,948	800,000	-0,039	0,113
-572,934	-200,000	0,004	0,033
-571,919	800,000	-0,022	0,048
-570,904	800,000	0,043	-0,130
-569,890	79,726	-0,095	-0,074
-568,875	72,595	-0,120	0,090
-567,861	61,467	0,086	0,062
-566,846	167,062	-0,016	-0,016
-565,831	403,147	0,052	-0,079
-564,817	-86,509	-0,103	0,023
-563,802	800,000	-0,050	-0,142
-562,788	22,242	-0,107	0,063
-561,773	-200,000	0,009	0,037
-560,758	-128,130	0,075	-0,008
-559,744	137,296	0,096	-0,091
-558,729	325,787	0,039	0,054
-557,715	800,000	-0,037	-0,074
-556,700	131,316	-0,105	-0,098
-555,685	0,548	-0,146	0,075
-554,671	-131,532	-0,198	-0,019
-553,656	-200,000	0,034	-0,172
-552,642	-106,724	0,045	-0,007
-551,627	-200,000	0,044	0,192
-550,612	800,000	-0,008	0,024
-549,598	-29,397	-0,202	-0,083
-548,583	-106,125	0,015	0,002
-547,569	59,207	0,095	-0,068
-546,554	299,069	0,061	-0,082
-545,539	-200,000	0,017	0,123
-544,525	205,845	0,060	0,068
-543,510	-80,492	0,096	0,023
-542,496	-200,000	0,021	-0,083
-541,481	-110,589	0,039	-0,006
-540,466	-19,501	0,111	0,049
-539,452	-200,000	0,021	-0,138
-538,437	-28,766	0,086	0,036
-537,423	157,438	0,059	-0,059
-536,408	800,000	-0,057	-0,162
-535,393	-140,009	0,116	0,009
-534,379	-56,522	-0,121	-0,039
-533,364	-187,324	-0,012	0,000
-532,350	2,434	0,086	0,045
-531,335	800,000	-0,056	0,130
-530,321	-8,155	-0,087	0,042
-529,306	43,539	-0,190	-0,125
-528,291	-95,247	-0,198	-0,038
-527,277	338,903	0,123	0,174
-526,262	-107,886	-0,123	0,019
-525,248	-200,000	-0,004	0,032
-524,233	122,129	0,113	-0,102
-523,218	20,146	-0,041	-0,024
-522,204	-200,000	-0,022	0,085
-521,189	-200,000	-0,035	0,157
-520,175	-200,000	0,013	-0,096
-519,160	800,000	0,017	-0,043
-518,145	139,720	0,023	0,022
-517,131	800,000	0,036	0,088
-516,116	-95,679	-0,019	0,004
-515,102	800,000	-0,029	0,090
-514,087	800,000	-0,041	-0,094
-513,072	-116,078	0,102	0,014
-512,058	164,162	-0,036	0,037
-511,043	439,289	-0,061	0,096
-510,029	92,755	-0,047	-0,039
-509,014	-200,000	-0,004	-0,074
-507,999	-200,000	-0,009	-0,055
-506,985	173,684	0,044	-0,046
-505,970	-200,000	0,005	-0,131
-504,956	-84,678	0,047	-0,011
-503,941	-156,087	0,084	0,004
-502,926	-98,902	0,210	-0,038
-501,912	-200,000	-0,025	0,119
-500,897	800,000	0,028	0,066
-499,883	-163,136	-0,035	-0,001
-498,868	615,246	-0,018	0,033
-497,853	600,580	0,038	-0,068
-496,839	-101,446	-0,041	-0,007
-495,824	-27,618	0,124	0,052
-494,810	492,814	0,033	-0,056
-493,795	-200,000	0,018	-0,082
-492,781	194,043	-0,038	0,042
-491,766	115,151	-0,047	0,041
-490,751	-105,946	-0,184	0,030
-489,737	-200,000	-0,024	0,080
-488,722	800,000	-0,037	-0,103
-487,708	-200,000	0,023	0,095
-486,693	800,000	0,032	-0,075
-485,678	22,502	0,034	0,020
-484,664	-85,218	-0,129	-0,029
-483,649	128,561	0,125	-0,115
-482,635	434,865	-0,052	0,082
-481,620	-34,392	0,110	-0,043
-480,605	-200,000	-0,014	-0,059
-479,591	-200,000	0,001	0,008
-478,576	-21,672	-0,065	-0,029
-477,562	574,419	-0,057	0,101
-476,547	-27,380	0,058	0,024
-475,532	-22,286	-0,115	-0,050
-474,518	-200,000	0,010	-0,136
-473,503	-145,690	0,189	-0,012
-472,489	263,100	-0,035	0,044
-471,474	71,656	-0,073	0,054
-470,459	-40,296	-0,043	-0,016
-469,445	-200,000	-0,017	0,058
-468,430	-200,000	-0,029	0,100
-467,416	198,518	0,134	0,148
-466,401	118,843	0,134	0,119
-465,386	-62,459	-0,075	0,022
-464,372	-200,000	0,003	0,079
-463,357	234,516	-0,039	-0,047
-462,343	745,397	0,013	-0,025
-461,328	115,956	0,015	0,013
-460,313	-200,000	0,007	0,067
-459,299	-200,000	-0,033	0,155
-458,284	800,000	-0,018	0,055
-457,270	-53,281	-0,048	-0,016
-456,255	549,945	-0,152	0,264
-455,241	-131,131	-0,042	-0,004
-454,226	-16,076	-0,066	-0,030
-453,211	393,819	0,088	-0,132
-452,197	-200,000	-0,006	0,029
-451,182	-30,613	0,127	-0,052
-450,168	-122,754	-0,043	0,005
-449,153	471,191	0,042	-0,069
-448,138	-36,515	-0,099	-0,038
-447,124	-47,608	0,020	0,007
-446,109	147,624	0,038	-0,037
-445,095	33,939	0,121	-0,076
-444,080	-166,164	0,184	0,006
-443,065	-200,000	0,005	-0,044
-442,051	27,027	-0,087	0,052
-441,036	800,000	-0,038	-0,097
-440,022	-159,060	-0,119	0,005
-439,007	-200,000	-0,009	-0,152
-437,992	-44,904	0,025	0,009
-436,978	-103,689	0,102	-0,017
-435,963	-200,000	-0,012	0,062
-434,949	62,653	-0,147	0,106
-433,934	-133,947	-0,142	-0,013
-432,919	-200,000	0,026	-0,119
-431,905	800,000	0,029	-0,074
-430,890	193,961	-0,054	0,059
-429,876	-154,004	0,063	0,003
-428,861	515,281	-0,035	-0,059
-427,846	-137,973	-0,091	0,007
-426,832	-27,628	0,044	-0,018
-425,817	-115,525	-0,100	0,013
-424,803	396,782	0,057	-0,086
-423,788	-97,567	0,134	0,025
-422,773	235,162	-0,040	-0,047
-421,759	-123,413	0,137	0,016
-420,744	216,635	-0,050	-0,057
-419,730	800,000	0,044	-0,094
-418,715	-200,000	-0,004	-0,095
-417,701	-200,000	0,004	0,123
-416,686	-61,378	0,079	-0,024
-415,671	42,145	0,001	0,001
-414,657	-200,000	-0,035	0,155
-413,642	340,227	0,026	0,037
-412,628	-200,000	0,020	-0,170
-411,613	487,752	-0,058	-0,095
-410,598	-71,686	0,131	0,035
-409,584	-141,313	0,065	0,005
-408,569	-200,000	0,018	0,065
-407,555	-96,847	-0,030	0,006
-406,540	267,437	-0,074	-0,094
-405,525	-200,000	-0,001	-0,064
-404,511	661,159	-0,091	-0,170
-403,496	48,484	0,165	-0,111
-402,482	-121,106	-0,100	-0,012
-401,467	-200,000	-0,001	-0,083
-400,452	-200,000	0,023	-0,107
-399,438	53,816	0,041	-0,029
-398,423	800,000	-0,035	0,105
-397,409	-84,015	-0,176	0,040
-396,394	581,980	0,039	-0,069
-395,379	40,002	-0,055	0,036
-394,365	321,565	0,095	-0,131
-393,350	-188,027	-0,049	0,000
-392,336	190,404	0,049	0,052
-391,321	635,047	-0,045	0,082
-390,306	-200,000	-0,050	-0,163
-389,292	221,969	-0,080	0,092
-388,277	101,740	0,101	0,085
-387,263	-200,000	-0,017	0,096
-386,248	271,346	-0,044	0,056
-385,233	-200,000	-0,012	-0,098
-384,219	800,000	0,036	0,082
-383,204	-119,891	0,071	-0,009
-382,190	-119,841	-0,081	0,010
-381,175	-80,113	-0,076	0,018
-380,160	-200,000	0,011	-0,196
-379,146	410,438	0,060	0,092
-378,131	343,559	0,033	0,046
-377,117	69,575	0,097	0,072
-376,102	-85,895	0,070	0,015
-375,088	-200,000	-0,023	-0,166
-374,073	-200,000	0,012	-0,043
-373,058	-70,187	-0,070	0,019
-372,044	-200,000	0,010	0,044
-371,029	-200,000	-0,008	0,063
-370,015	800,000	-0,034	0,086
-369,000	107,052	-0,181	-0,154
-367,985	-124,106	0,105	0,012
-366,971	69,164	-0,106	-0,078
-365,956	413,296	0,055	-0,085
-364,942	-186,848	-0,043	-0,000
-363,927	604,953	0,035	0,063
-362,912	800,000	0,056	0,147
-361,898	207,183	-0,039	0,044
-360,883	-200,000	-0,018	0,139
-359,869	279,661	-0,053	-0,068
-358,854	800,000	-0,064	0,161
-357,839	-78,838	0,004	0,001
-356,825	-119,187	0,115	0,014
-355,810	-46,109	0,125	-0,044
-354,796	-200,000	0,014	0,054
-353,781	800,000	-0,017	0,044
-352,766	654,116	0,032	-0,059
-351,752	800,000	-0,018	-0,050
-350,737	-200,000	-0,002	0,088
-349,723	-200,000	0,042	0,156
-348,708	418,932	-0,057	0,088
-347,693	-200,000	0,006	-0,022
-346,679	59,208	-0,051	-0,036
-345,664	521,339	0,048	0,081
-344,650	-200,000	-0,005	-0,046
-343,635	170,925	0,057	0,059
-342,620	-200,000	-0,012	0,083
-341,606	-93,898	0,104	0,020
-340,591	-200,000	-0,001	0,009
-339,577	-188,414	-0,147	-0,001
-338,562	-200,000	0,063	0,000
-337,548	-138,882	-0,097	0,007
-336,533	-28,924	0,244	-0,100
-335,518	135,575	0,122	0,114
-334,504	538,946	-0,078	0,133
-333,489	-95,391	-0,068	-0,013
-332,475	-59,692	-0,047	-0,014
-331,460	-56,495	-0,154	0,049
-330,445	-200,000	-0,032	-0,135
-329,431	800,000	0,028	0,074
-328,416	464,319	0,058	0,093
-327,402	96,320	0,075	-0,061
-326,387	-68,937	-0,021	-0,006
-325,372	800,000	-0,048	-0,100
-324,358	-24,457	0,113	0,048
-323,343	-93,479	0,053	0,010
-322,329	-200,000	-0,002	-0,065
-321,314	-200,000	-0,005	0,148
-320,299	15,542	0,096	-0,054
-319,285	-140,886	0,070	-0,005
-318,270	800,000	0,020	0,041
-317,256	-40,257	-0,111	0,041
-316,241	80,868	-0,094	0,072
-315,226	101,968	0,062	-0,052
-314,212	34,825	0,105	-0,065
-313,197	201,981	0,065	0,072
-312,183	-200,000	-0,013	0,076
-311,168	78,964	-0,090	-0,069
-310,153	-159,998	-0,082	0,003
-309,139	162,547	-0,101	-0,102
-308,124	800,000	-0,013	0,028
-307,110	225,757	-0,047	-0,055
-306,095	65,327	-0,072	0,052
-305,080	-200,000	0,012	0,048
-304,066	-21,987	-0,120	-0,052
-303,051	-200,000	-0,050	0,217
-302,037	-70,887	-0,068	0,018
-301,022	100,799	0,075	-0,063
-300,008	-102,872	0,112	0,019
-298,993	105,869	-0,112	-0,095
-297,978	-162,652	-0,094	0,003
-296,964	-200,000	-0,015	-0,051
-295,949	-200,000	-0,006	0,070
-294,935	221,266	0,024	0,028
-293,920	91,543	0,080	-0,065
-292,905	18,857	-0,042	0,024
-291,891	28,055	0,083	-0,050
-290,876	-200,000	0,022	0,109
-289,862	554,067	0,032	-0,055
-288,847	76,231	0,074	0,056
-287,832	21,979	-0,149	-0,087
-286,818	302,619	0,021	-0,027
-285,803	-26,807	0,033	0,014
-284,789	-140,781	0,108	-0,008
-283,774	-200,000	-0,037	0,000
-282,759	438,975	-0,036	0,057
-281,745	-200,000	0,023	-0,154
-280,730	552,621	0,049	-0,084
-279,716	677,693	-0,062	-0,116
-278,701	-200,000	-0,034	0,118
-277,686	106,382	0,115	0,097
-276,672	-133,476	0,076	0,007
-275,657	66,408	0,122	-0,089
-274,643	-67,240	0,034	0,010
-273,628	-31,481	0,028	-0,011
-272,613	493,825	0,070	-0,115
-271,599	277,695	0,031	0,039
-270,584	-28,951	-0,045	-0,018
-269,570	67,439	0,054	-0,039
-268,555	-99,543	-0,023	0,004
-267,540	7,100	-0,020	0,011
-266,526	533,849	-0,052	-0,089
-265,511	-100,617	-0,031	-0,005
-264,497	16,171	0,041	-0,023
-263,482	439,473	0,036	-0,056
-262,467	800,000	0,017	0,042
-261,453	800,000	0,032	-0,065
-260,438	-200,000	-0,021	0,108
-259,424	-200,000	-0,021	-0,117
-258,409	356,145	0,043	0,062
-257,395	-52,004	-0,089	0,029
-256,380	125,614	0,074	-0,067
-255,365	-62,770	-0,087	-0,025
-254,351	-200,000	0,005	0,026
-253,336	327,509	0,108	-0,148
-252,322	341,620	0,070	-0,098
-251,307	-195,757	0,045	0,000
-250,292	110,769	0,045	0,039
-249,278	133,949	-0,036	-0,033
-248,263	-28,927	-0,070	-0,029
-247,249	580,499	0,041	-0,072
-246,234	328,908	-0,008	0,012
-245,219	-8,816	-0,155	0,074
-244,205	800,000	-0,014	-0,033
-243,190	-72,084	-0,190	0,050
-242,176	-148,495	0,100	0,006
-241,161	800,000	0,025	0,056
-240,146	57,733	-0,073	0,051
-239,132	-4,134	-0,017	0,008
-238,117	102,068	0,058	-0,049
-237,103	532,683	-0,101	-0,172
-236,088	2,095	-0,090	0,046
-235,073	173,533	0,054	0,056
-234,059	564,376	-0,029	0,050
-233,044	-8,757	-0,023	-0,011
-232,030	-110,240	0,059	0,009
-231,015	274,799	0,077	-0,098
-230,000	800,000	-0,018	-0,044
-228,986	-141,460	0,074	0,005
-227,971	431,563	0,089	-0,138
-226,957	145,041	0,118	0,113
-225,942	500,376	0,086	0,143
-224,927	-32,988	-0,045	0,018
-223,913	-100,207	-0,147	0,026
-222,898	-93,200	-0,067	0,013
-221,884	575,986	-0,005	0,008
-220,869	125,560	0,044	0,040
-219,855	-200,000	-0,026	0,098
-218,840	10,572	0,097	0,053
-217,825	762,491	-0,028	0,054
-216,811	-95,116	0,131	-0,025
-215,796	-200,000	-0,019	-0,114
-214,782	254,027	0,087	0,106
-213,767	-200,000	0,024	0,088
-212,752	280,706	0,045	-0,058
-211,738	250,376	0,062	0,075
-210,723	667,533	0,038	0,070
-209,709	-105,544	0,071	0,011
-208,694	705,415	-0,074	-0,140
-207,679	225,541	-0,031	-0,036
-206,665	27,629	-0,060	-0,036
-205,650	-29,461	0,056	0,023
-204,636	-122,583	0,079	-0,009
-203,621	60,127	-0,096	0,067
-202,606	39,273	-0,059	-0,038
-201,592	-74,992	0,029	0,007
-200,577	543,152	-0,048	0,083
-199,563	-56,340	0,137	0,043
-198,548	-200,000	0,030	0,170
-197,533	252,454	0,038	0,046
-196,519	240,142	-0,030	0,036
-195,504	800,000	-0,036	-0,105
-194,490	-6,135	0,088	-0,043
-193,475	-10,957	-0,088	-0,041
-192,460	36,544	0,029	-0,018
-191,446	-105,399	0,057	-0,009
-190,431	183,277	0,068	-0,072
-189,417	-200,000	-0,002	0,028
-188,402	754,198	0,012	-0,023
-187,387	-200,000	0,012	-0,056
-186,373	41,205	0,065	0,042
-185,358	-70,892	0,058	-0,015
-184,344	199,021	0,142	-0,155
-183,329	-200,000	-0,019	0,060
-182,315	-200,000	0,021	0,092
-181,300	-200,000	0,008	0,044
-180,285	131,207	-0,113	-0,103
-179,271	-200,000	-0,033	-0,115
-178,256	-200,000	-0,002	-0,100
-177,242	800,000	0,038	-0,115
-176,227	258,712	0,076	0,094
-175,212	-98,943	0,114	0,020
-174,198	-200,000	-0,002	-0,041
-173,183	136,048	-0,112	0,104
-172,169	800,000	0,032	-0,067
-171,154	-57,097	0,047	-0,015
-170,139	445,415	-0,039	-0,062
-169,125	-25,519	0,118	-0,050
-168,110	772,759	-0,021	0,042
-167,096	105,357	0,075	-0,063
-166,081	337,539	-0,053	0,074
-165,066	-120,768	-0,104	0,012
-164,052	-200,000	0,024	-0,113
-163,037	148,510	0,083	0,080
-162,023	800,000	0,028	0,063
-161,008	-19,096	-0,077	0,034
-159,993	800,000	-0,037	0,093
-158,979	-50,194	-0,106	-0,036
-157,964	-38,325	-0,106	0,040
-156,950	132,885	0,049	0,045
-155,935	701,283	0,049	0,092
-154,920	38,801	0,144	0,092
-153,906	-200,000	0,040	0,186
-152,891	-36,303	-0,105	-0,040
-151,877	-11,261	-0,107	0,050
-150,862	657,812	0,032	-0,058
-149,847	-136,482	0,146	0,012
-148,833	90,399	-0,100	0,079
-147,818	0,535	0,105	-0,054
-146,804	294,439	0,042	0,055
-145,789	611,719	0,067	0,120
-144,775	-19,551	-0,035	0,015
-143,760	31,899	0,067	-0,041
-142,745	-24,485	-0,077	0,033
-141,731	-50,722	-0,105	0,035
-140,716	-200,000	0,026	0,153
-139,702	199,708	0,044	0,048
-138,687	-82,559	0,025	-0,006
-137,672	-102,318	-0,003	0,000
-136,658	363,267	-0,096	0,138
-135,643	-4,953	-0,084	-0,041
-134,629	-200,000	0,012	0,105
-133,614	-32,149	0,087	0,034
-132,599	-200,000	-0,002	-0,048
-131,585	-200,000	-0,002	-0,049
-130,570	-12,048	-0,094	0,044
-129,556	-200,000	0,007	-0,082
-128,541	800,000	0,029	0,080
-127,526	1,807	0,126	-0,064
-126,512	156,335	-0,061	0,060
-125,497	67,887	-0,019	0,014
-124,483	53,970	-0,050	0,034
-123,468	-200,000	0,005	0,029
-122,453	105,567	-0,060	-0,051
-121,439	800,000	0,037	0,075
-120,424	199,246	0,041	-0,044
-119,410	-200,000	0,036	0,217
-118,395	491,119	-0,045	0,073
