DTS Sentinel unit serial number:	SN410029Multiplexer serial number:	ORYXHardware model number:	OX2-SRSoftware version number:	ORYX F/W v4,00 Oryx Data Collector v3.7.2.0data status	okinstallation	BH3 CH2differential loss correction	single-endedforward channel	channel 2reverse channel	N/Adate	2023/12/05time	18:27:28forward acquisition time	300,00reverse acquisition time	0,00gamma	499,1914k internal	0,3193k external	0,3193temperature offset calibration	1,0000default loss term (dB/km)	0,3820temperature slope calibration	1,0000multiplexer offset coefficient	1,0000multiplexer slope coefficient	1,0000fibre end	0,00T internal ref (°C)	10,68T ext. ref 1 (°C)	-4,00T ext. ref 2 (°C)	-4,16length (m)	temperature (°C)	Stokes	anti-Stokes-744,400	-200,000	-0,010	-0,312
-743,385	255,864	-0,107	0,134
-742,371	5,374	-0,122	0,065
-741,356	800,000	-0,073	0,229
-740,342	147,626	0,010	-0,010
-739,327	60,439	-0,245	0,177
-738,312	592,192	-0,074	-0,134
-737,298	367,137	-0,146	0,216
-736,283	-200,000	-0,034	-0,165
-735,269	-27,798	-0,284	0,119
-734,254	539,140	0,032	0,055
-733,239	-94,287	-0,259	-0,051
-732,225	151,866	0,066	-0,066
-731,210	800,000	-0,089	0,189
-730,196	-89,754	0,189	0,040
-729,181	-95,188	-0,106	0,021
-728,167	-60,716	0,129	0,040
-727,152	800,000	0,043	-0,137
-726,137	267,844	-0,158	-0,203
-725,123	76,537	0,043	0,034
-724,108	99,133	-0,094	-0,079
-723,094	800,000	-0,029	0,078
-722,079	134,241	-0,032	-0,030
-721,064	361,166	0,059	-0,086
-720,050	408,553	-0,035	0,054
-719,035	-72,774	0,164	-0,044
-718,021	-113,500	-0,092	0,013
-717,006	721,045	-0,047	-0,092
-715,991	622,376	0,037	-0,069
-714,977	-69,100	-0,060	-0,017
-713,962	-68,663	0,060	-0,017
-712,948	-170,602	0,065	0,002
-711,933	650,813	-0,061	-0,114
-710,918	153,863	-0,044	0,044
-709,904	-5,012	0,033	0,016
-708,889	800,000	0,059	-0,122
-707,875	257,161	-0,109	-0,137
-706,860	-42,247	-0,134	-0,049
-705,845	-120,512	0,120	0,015
-704,831	114,674	-0,093	0,083
-703,816	-51,301	0,028	0,010
-702,802	-100,747	-0,083	-0,015
-701,787	-200,000	-0,002	-0,106
-700,772	-160,120	-0,066	0,003
-699,758	-105,544	0,156	0,026
-698,743	-200,000	-0,003	-0,041
-697,729	-200,000	0,024	0,126
-696,714	185,036	0,116	0,126
-695,699	59,444	-0,118	0,084
-694,685	-200,000	-0,013	0,165
-693,670	-200,000	0,028	-0,094
-692,656	-200,000	0,002	-0,115
-691,641	-12,486	-0,058	-0,028
-690,627	-44,214	0,102	-0,037
-689,612	26,498	0,094	-0,057
-688,597	-116,557	-0,050	0,007
-687,583	-200,000	0,001	0,116
-686,568	-40,734	-0,135	-0,051
-685,554	154,969	-0,080	-0,080
-684,539	-200,000	0,000	0,043
-683,524	-32,483	-0,054	-0,022
-682,510	702,526	-0,077	-0,149
-681,495	194,161	-0,060	-0,066
-680,481	458,177	0,041	-0,067
-679,466	-200,000	-0,001	-0,052
-678,451	-25,572	-0,048	0,021
-677,437	698,891	-0,032	0,062
-676,422	-137,816	-0,037	0,003
-675,408	-139,738	-0,092	-0,007
-674,393	104,497	-0,077	-0,066
-673,378	-200,000	-0,023	-0,128
-672,364	-124,796	-0,088	0,010
-671,349	-200,000	-0,027	-0,120
-670,335	-200,000	-0,003	0,028
-669,320	38,649	0,074	-0,048
-668,305	180,050	0,015	0,016
-667,291	-43,893	0,054	-0,020
-666,276	-200,000	-0,016	0,075
-665,262	256,718	0,094	-0,118
-664,247	270,515	0,046	-0,059
-663,232	-200,000	-0,012	-0,046
-662,218	169,320	0,107	0,111
-661,203	800,000	-0,065	0,152
-660,189	-14,162	-0,138	0,065
-659,174	183,342	-0,116	0,125
-658,159	-45,173	0,075	-0,027
-657,145	-200,000	0,003	0,038
-656,130	-200,000	0,009	0,082
-655,116	286,612	0,083	0,109
-654,101	-200,000	0,011	-0,098
-653,086	-54,129	0,035	0,011
-652,072	314,157	0,026	0,036
-651,057	-124,523	0,050	-0,006
-650,043	19,884	0,130	-0,076
-649,028	800,000	0,004	0,011
-648,014	-88,168	0,064	0,014
-646,999	579,379	0,037	-0,065
-645,984	-84,432	-0,060	-0,014
-644,970	800,000	-0,103	-0,226
-643,955	-77,811	-0,041	-0,010
-642,941	31,795	-0,048	0,030
-641,926	111,245	0,070	0,061
-640,911	117,468	-0,091	-0,082
-639,897	3,115	0,004	0,002
-638,882	800,000	-0,031	-0,097
-637,868	-109,378	0,188	0,029
-636,853	157,986	-0,040	-0,040
-635,838	54,015	-0,066	-0,046
-634,824	-46,786	-0,147	-0,052
-633,809	-37,200	0,109	0,042
-632,795	-156,011	-0,147	-0,007
-631,780	310,073	-0,033	-0,045
-630,765	-200,000	0,048	-0,233
-629,751	189,250	-0,092	-0,100
-628,736	8,793	-0,034	0,019
-627,722	-54,382	-0,104	-0,034
-626,707	-86,485	-0,134	-0,030
-625,692	-200,000	0,021	-0,094
-624,678	-200,000	0,002	0,020
-623,663	9,234	-0,105	-0,057
-622,649	-78,994	-0,014	-0,004
-621,634	-87,244	-0,123	-0,027
-620,619	-134,209	0,168	-0,015
-619,605	16,636	-0,088	-0,051
-618,590	-55,698	-0,078	-0,025
-617,576	800,000	-0,018	0,041
-616,561	-200,000	0,002	-0,029
-615,546	383,290	-0,086	0,129
-614,532	-200,000	-0,002	-0,138
-613,517	32,550	-0,137	-0,086
-612,503	-200,000	0,050	0,216
-611,488	212,303	0,123	0,141
-610,474	-200,000	0,004	0,020
-609,459	-200,000	0,011	0,084
-608,444	-200,000	0,008	-0,091
-607,430	-26,910	0,055	0,023
-606,415	-200,000	0,015	-0,069
-605,401	191,792	0,057	-0,062
-604,386	-94,685	0,141	0,027
-603,371	5,248	-0,038	-0,020
-602,357	115,464	0,056	-0,049
-601,342	-65,461	-0,017	0,005
-600,328	80,365	0,035	0,027
-599,313	61,999	0,096	0,069
-598,298	800,000	0,036	0,101
-597,284	15,892	-0,037	0,021
-596,269	-200,000	0,038	0,189
-595,255	344,573	-0,084	0,120
-594,240	-1,128	-0,080	0,041
-593,225	-200,000	-0,003	-0,095
-592,211	800,000	0,019	-0,044
-591,196	-24,141	0,121	0,052
-590,182	302,222	0,071	0,096
-589,167	600,833	-0,042	-0,075
-588,152	-50,694	0,050	0,017
-587,138	800,000	0,050	-0,110
-586,123	-28,144	-0,018	0,008
-585,109	-105,102	-0,065	0,011
-584,094	608,186	0,106	-0,193
-583,079	431,964	0,052	0,082
-582,065	800,000	0,047	0,096
-581,050	-113,230	-0,025	-0,003
-580,036	-200,000	0,019	-0,095
-579,021	-74,507	0,060	0,016
-578,006	-101,613	-0,040	0,007
-576,992	418,340	-0,022	-0,034
-575,977	-62,841	0,055	-0,016
-574,963	-200,000	0,013	0,052
-573,948	800,000	-0,045	0,113
-572,934	347,726	-0,028	-0,040
-571,919	206,784	-0,046	0,052
-570,904	-200,000	0,039	0,165
-569,890	76,792	-0,032	0,024
-568,875	111,843	-0,047	-0,041
-567,861	390,842	0,047	0,071
-566,846	277,682	-0,044	0,057
-565,831	462,291	0,035	0,057
-564,817	-200,000	0,001	-0,158
-563,802	54,888	-0,067	0,047
-562,788	388,305	0,101	0,151
-561,773	-106,008	-0,162	-0,026
-560,758	331,098	-0,049	0,068
-559,744	701,087	0,033	0,062
-558,729	-85,205	-0,031	0,007
-557,715	178,283	-0,095	-0,100
-556,700	228,993	0,082	-0,098
-555,685	-200,000	0,025	-0,145
-554,671	283,417	-0,012	0,015
-553,656	229,586	-0,078	0,092
-552,642	-111,786	0,081	-0,012
-551,627	-200,000	0,001	-0,146
-550,612	43,014	-0,005	0,003
-549,598	-5,038	-0,091	0,045
-548,583	306,233	-0,111	-0,149
-547,569	76,529	0,088	0,068
-546,554	-200,000	0,024	0,075
-545,539	-200,000	-0,032	0,126
-544,525	-129,272	0,071	0,007
-543,510	301,948	-0,043	-0,058
-542,496	-81,596	-0,190	0,045
-541,481	800,000	-0,039	0,095
-540,466	-72,399	0,147	0,039
-539,452	63,350	0,063	0,046
-538,437	800,000	-0,052	0,118
-537,423	-200,000	-0,015	0,071
-536,408	169,052	-0,112	-0,116
-535,393	-200,000	0,006	-0,225
-534,379	-200,000	-0,001	-0,024
-533,364	10,474	-0,177	0,097
-532,350	-200,000	0,014	0,053
-531,335	800,000	0,013	-0,039
-530,321	-111,266	-0,066	0,010
-529,306	800,000	-0,013	0,040
-528,291	-200,000	0,020	-0,117
-527,277	103,034	-0,081	-0,069
-526,262	507,689	-0,029	0,048
-525,248	265,177	0,091	0,115
-524,233	-107,217	0,162	0,026
-523,218	-200,000	-0,005	-0,110
-522,204	800,000	0,008	0,017
-521,189	-200,000	-0,016	-0,095
-520,175	-67,073	0,040	0,011
-519,160	-11,436	0,095	-0,045
-518,145	205,369	0,037	-0,041
-517,131	167,296	0,029	-0,030
-516,116	22,928	0,102	0,061
-515,102	-200,000	0,001	0,061
-514,087	-134,143	-0,047	-0,004
-513,072	-156,445	-0,055	0,002
-512,058	-132,527	-0,166	0,015
-511,043	-200,000	0,003	-0,023
-510,029	20,480	-0,092	0,054
-509,014	800,000	-0,043	0,103
-507,999	82,576	-0,033	-0,026
-506,985	-7,292	-0,018	0,009
-505,970	-200,000	0,007	-0,126
-504,956	-110,756	-0,074	0,011
-503,941	-71,722	-0,081	-0,022
-502,926	800,000	-0,040	0,087
-501,912	-200,000	-0,007	0,036
-500,897	-200,000	0,016	-0,057
-499,883	-75,958	-0,044	0,011
-498,868	344,946	0,055	-0,079
-497,853	373,697	-0,079	-0,117
-496,839	-174,717	0,100	0,002
-495,824	-200,000	-0,002	0,053
-494,810	103,734	-0,120	0,101
-493,795	800,000	0,034	0,099
-492,781	-96,198	-0,127	0,024
-491,766	176,100	-0,030	-0,032
-490,751	800,000	-0,049	0,141
-489,737	373,070	-0,051	0,075
-488,722	303,222	0,084	0,113
-487,708	106,670	0,068	0,059
-486,693	-57,088	-0,079	0,025
-485,678	-200,000	-0,001	0,033
-484,664	329,537	0,030	-0,041
-483,649	19,529	-0,050	-0,029
-482,635	540,249	-0,026	-0,045
-481,620	-40,378	0,216	0,080
-480,605	-55,503	-0,017	0,005
-479,591	61,274	0,025	0,018
-478,576	800,000	0,042	-0,092
-477,562	-200,000	-0,012	-0,105
-476,547	109,104	0,097	0,084
-475,532	-200,000	-0,010	-0,096
-474,518	-107,579	0,151	0,024
-473,503	418,759	0,020	-0,032
-472,489	-200,000	0,014	0,084
-471,474	-55,014	-0,083	-0,027
-470,459	-200,000	0,024	-0,148
-469,445	-24,213	-0,126	-0,054
-468,430	-50,467	-0,054	-0,018
-467,416	-200,000	-0,001	0,032
-466,401	387,689	0,045	-0,068
-465,386	800,000	0,034	-0,088
-464,372	-200,000	-0,013	0,045
-463,357	-200,000	0,018	-0,153
-462,343	451,508	-0,084	-0,134
-461,328	-26,485	-0,206	0,087
-460,313	-12,553	0,026	0,012
-459,299	-200,000	-0,006	-0,036
-458,284	658,190	0,035	-0,065
-457,270	-145,180	-0,039	-0,003
-456,255	403,651	-0,036	0,056
-455,241	154,589	0,077	-0,077
-454,226	-5,978	-0,063	0,031
-453,211	800,000	0,025	0,075
-452,197	-30,824	0,160	0,065
-451,182	-169,121	0,141	-0,004
-450,168	-104,442	-0,064	-0,011
-449,153	-47,212	0,087	0,030
-448,138	59,034	-0,173	0,123
-447,124	-200,000	0,006	-0,092
-446,109	-200,000	-0,014	-0,147
-445,095	305,325	0,088	0,119
-444,080	800,000	0,028	0,088
-443,065	329,644	0,069	0,096
-442,051	800,000	0,026	0,080
-441,036	76,878	0,031	-0,024
-440,022	484,617	-0,079	-0,130
-439,007	800,000	0,025	-0,051
-437,992	-14,995	0,150	-0,069
-436,978	761,836	-0,074	0,145
-435,963	-19,727	-0,056	0,025
-434,949	-200,000	-0,001	0,067
-433,934	713,886	0,035	-0,067
-432,919	-75,310	-0,042	0,011
-431,905	-200,000	-0,028	0,113
-430,890	725,137	0,066	0,128
-429,876	-200,000	0,046	0,158
-428,861	800,000	0,004	-0,012
-427,846	-200,000	-0,005	-0,050
-426,832	-61,567	-0,080	-0,024
-425,817	-128,391	0,182	-0,018
-424,803	-68,029	-0,120	-0,033
-423,788	413,640	-0,012	0,018
-422,773	800,000	-0,012	-0,033
-421,759	-126,463	-0,031	-0,003
-420,744	-200,000	-0,036	0,124
-419,730	759,852	0,043	-0,084
-418,715	426,590	0,045	0,069
-417,701	-200,000	-0,016	0,052
-416,686	55,597	-0,051	-0,036
-415,671	-200,000	-0,013	0,074
-414,657	43,633	-0,012	0,008
-413,642	-131,557	0,051	0,005
-412,628	204,692	-0,021	-0,023
-411,613	143,072	-0,126	-0,121
-410,598	-200,000	-0,002	-0,112
-409,584	358,451	-0,007	-0,010
-408,569	-49,333	-0,005	0,002
-407,555	153,916	-0,071	0,070
-406,540	81,080	0,055	0,042
-405,525	-200,000	0,016	0,123
-404,511	70,676	-0,100	-0,075
-403,496	-50,223	-0,074	0,025
-402,482	-10,387	0,087	0,042
-401,467	14,259	-0,021	0,012
-400,452	-140,216	0,147	-0,011
-399,438	174,036	-0,104	-0,108
-398,423	-200,000	0,003	-0,041
-397,409	147,063	0,056	-0,054
-396,394	648,391	-0,063	-0,117
-395,379	177,400	0,056	0,059
-394,365	-150,919	0,105	0,006
-393,350	-97,916	0,065	-0,012
-392,336	306,679	0,030	0,040
-391,321	-200,000	0,031	-0,103
-390,306	77,932	-0,071	-0,054
-389,292	371,503	0,060	-0,087
-388,277	-144,080	-0,008	-0,001
-387,263	-200,000	0,026	-0,147
-386,248	-33,341	0,152	-0,060
-385,233	800,000	-0,033	0,082
-384,219	-200,000	0,022	-0,133
-383,204	-200,000	0,032	-0,126
-382,190	800,000	0,013	0,035
-381,175	318,259	0,053	-0,073
-380,160	287,744	-0,027	0,036
-379,146	94,146	0,130	0,106
-378,131	341,888	-0,087	-0,122
-377,117	231,461	0,047	0,055
-376,102	317,876	-0,043	-0,059
-375,088	-99,934	0,049	0,009
-374,073	151,518	-0,023	0,023
-373,058	-35,451	-0,100	-0,039
-372,044	-131,204	-0,079	0,007
-371,029	272,511	0,034	-0,044
-370,015	89,263	-0,091	0,072
-369,000	591,985	-0,059	-0,105
-367,985	-200,000	0,005	-0,067
-366,971	-71,115	-0,106	0,028
-365,956	231,846	-0,074	-0,087
-364,942	-38,435	0,104	0,039
-363,927	-55,944	0,098	0,031
-362,912	-66,480	0,033	0,009
-361,898	35,492	-0,089	-0,056
-360,883	-200,000	-0,020	-0,119
-359,869	25,699	-0,052	0,031
-358,854	-200,000	0,000	-0,025
-357,839	747,285	0,028	0,055
-356,825	38,772	0,058	0,037
-355,810	-33,556	0,113	-0,045
-354,796	-200,000	0,002	-0,033
-353,781	-73,683	0,079	-0,021
-352,766	-73,356	-0,139	0,036
-351,752	9,484	-0,066	0,036
-350,737	0,316	0,044	0,022
-349,723	-159,538	0,056	-0,002
-348,708	-200,000	0,043	0,173
-347,693	800,000	-0,018	0,042
-346,679	-200,000	0,004	-0,059
-345,664	157,820	0,081	-0,081
-344,650	284,301	0,110	-0,142
-343,635	-200,000	-0,039	0,128
-342,620	187,119	0,110	0,117
-341,606	22,043	-0,065	0,038
-340,591	800,000	0,039	-0,122
-339,577	-87,120	-0,113	-0,025
-338,562	-200,000	0,004	-0,097
-337,548	-200,000	0,003	0,041
-336,533	186,100	0,157	0,167
-335,518	106,927	0,101	0,086
-334,504	250,511	0,113	0,138
-333,489	253,122	-0,048	0,059
-332,475	-91,363	-0,015	0,003
-331,460	22,339	-0,085	0,050
-330,445	679,893	-0,072	-0,135
-329,431	300,559	0,025	0,033
-328,416	-200,000	-0,038	0,131
-327,402	800,000	-0,039	0,081
-326,387	275,717	0,059	-0,075
-325,372	800,000	0,036	-0,079
-324,358	-200,000	-0,006	0,081
-323,343	37,598	0,035	-0,022
-322,329	-200,000	-0,004	-0,054
-321,314	151,880	-0,067	0,066
-320,299	-59,660	0,057	0,017
-319,285	-160,388	-0,115	-0,004
-318,270	-46,444	0,053	-0,018
-317,256	6,706	0,055	-0,029
-316,241	-102,111	-0,127	-0,022
-315,226	-37,392	0,044	-0,017
-314,212	-200,000	0,008	0,080
-313,197	7,696	0,047	-0,025
-312,183	-200,000	-0,002	0,065
-311,168	276,613	-0,046	-0,059
-310,153	-200,000	0,045	-0,171
-309,139	-200,000	-0,027	0,140
-308,124	-200,000	-0,013	0,044
-307,110	165,477	0,062	0,063
-306,095	115,144	0,084	0,074
-305,080	53,275	-0,045	-0,031
-304,066	800,000	0,041	-0,101
-303,051	-200,000	-0,015	0,078
-302,037	467,160	-0,022	-0,036
-301,022	-73,859	0,089	-0,023
-300,008	800,000	-0,061	0,131
-298,993	305,250	0,118	0,158
-297,978	-200,000	-0,029	-0,123
-296,964	800,000	0,013	0,036
-295,949	-200,000	-0,029	0,111
-294,935	-106,715	0,104	-0,016
-293,920	-105,657	0,032	-0,005
-292,905	125,510	0,108	-0,097
-291,891	-90,836	0,050	-0,010
-290,876	-50,091	-0,091	-0,031
-289,862	250,729	-0,050	-0,061
-288,847	-200,000	-0,015	0,087
-287,832	-200,000	-0,004	0,068
-286,818	-51,422	-0,063	0,021
-285,803	-43,607	0,052	0,019
-284,789	117,327	0,062	-0,055
-283,774	333,115	-0,116	0,161
-282,759	-61,787	-0,069	0,021
-281,745	-33,609	-0,079	-0,031
-280,730	-200,000	0,004	-0,099
-279,716	-22,034	-0,131	-0,057
-278,701	800,000	0,019	0,052
-277,686	800,000	-0,042	0,127
-276,672	184,688	-0,057	-0,060
-275,657	-85,727	0,135	0,030
-274,643	-200,000	-0,000	-0,071
-273,628	800,000	0,042	0,130
-272,613	53,488	0,097	0,067
-271,599	-200,000	0,050	0,173
-270,584	33,242	0,126	-0,078
-269,570	667,676	0,074	0,138
-268,555	617,513	-0,075	0,136
-267,540	340,020	-0,142	-0,199
-266,526	-200,000	0,003	-0,107
-265,511	-200,000	-0,006	-0,033
-264,497	-200,000	-0,039	-0,130
-263,482	182,317	-0,036	0,038
-262,467	-200,000	-0,005	-0,172
-261,453	800,000	-0,033	0,067
-260,438	800,000	0,036	-0,099
-259,424	-200,000	-0,008	-0,052
-258,409	38,504	-0,047	-0,030
-257,395	-28,872	0,181	-0,074
-256,380	381,110	0,015	-0,023
-255,365	800,000	0,033	0,074
-254,351	349,704	0,008	0,011
-253,336	40,600	0,068	0,044
-252,322	61,707	-0,035	-0,025
-251,307	-200,000	-0,008	0,048
-250,292	210,442	0,007	0,008
-249,278	-115,868	0,134	0,018
-248,263	421,837	-0,060	0,092
-247,249	-1,526	0,085	-0,043
-246,234	59,154	-0,096	-0,068
-245,219	-83,441	-0,067	-0,015
-244,205	-141,716	-0,093	0,007
-243,190	54,148	0,086	0,059
-242,176	508,003	0,068	-0,114
-241,161	183,014	-0,036	-0,038
-240,146	-111,615	0,099	-0,014
-239,132	281,869	0,037	-0,048
-238,117	-39,852	0,052	-0,019
-237,103	-200,000	-0,001	0,019
-236,088	-200,000	-0,001	0,122
-235,073	165,856	-0,111	0,112
-234,059	-200,000	-0,005	0,081
-233,044	-200,000	0,015	-0,086
-232,030	3,486	0,050	-0,026
-231,015	93,504	-0,089	0,072
-230,000	-200,000	-0,027	-0,085
-228,986	277,890	-0,105	-0,133
-227,971	800,000	-0,018	-0,041
-226,957	-7,430	0,150	-0,073
-225,942	-180,895	0,032	-0,000
-224,927	436,971	0,083	0,129
-223,913	800,000	-0,007	-0,017
-222,898	-149,394	-0,080	-0,004
-221,884	-200,000	0,024	-0,075
-220,869	-200,000	0,028	-0,212
-219,855	434,175	-0,042	-0,065
-218,840	244,376	0,033	-0,039
-217,825	77,324	0,090	0,068
-216,811	99,001	-0,069	-0,057
-215,796	-200,000	-0,013	-0,077
-214,782	-200,000	0,011	-0,127
-213,767	-200,000	-0,031	0,155
-212,752	-77,024	-0,094	0,023
-211,738	242,502	0,082	0,098
-210,723	-200,000	0,025	-0,149
-209,709	-200,000	-0,017	-0,121
-208,694	-33,866	-0,066	-0,026
-207,679	660,556	-0,040	-0,073
-206,665	294,003	-0,023	-0,031
-205,650	312,850	0,096	-0,129
-204,636	-200,000	-0,004	0,134
-203,621	-92,640	-0,058	-0,012
-202,606	57,335	-0,071	-0,050
-201,592	800,000	0,030	-0,077
-200,577	-126,274	-0,074	0,008
-199,563	-63,752	-0,129	0,037
-198,548	282,633	0,100	0,128
-197,533	-200,000	0,008	0,092
-196,519	-200,000	0,019	0,077
-195,504	-200,000	0,007	0,128
-194,490	-200,000	-0,010	0,106
-193,475	226,454	-0,017	0,019
-192,460	104,511	-0,077	0,065
-191,446	-200,000	-0,017	0,113
-190,431	-6,009	0,106	0,052
-189,417	79,060	-0,063	0,048
-188,402	800,000	0,047	0,113
-187,387	-68,279	-0,029	0,008
-186,373	-200,000	-0,003	-0,045
-185,358	314,576	0,020	0,026
-184,344	96,307	0,041	0,034
-183,329	-164,649	0,088	0,003
-182,315	194,815	0,020	0,021
-181,300	57,782	-0,084	-0,058
-180,285	-151,047	-0,183	0,010
-179,271	800,000	0,080	0,166
-178,256	-102,627	0,162	-0,027
-177,242	-17,088	-0,067	0,030
-176,227	185,986	-0,022	0,023
-175,212	-87,394	0,136	0,029
-174,198	-200,000	-0,003	-0,028
-173,183	-200,000	0,024	-0,194
-172,169	800,000	-0,082	-0,162
-171,154	-200,000	-0,015	0,064
-170,139	-200,000	0,004	0,040
-169,125	-176,132	0,093	0,002
-168,110	-49,549	0,010	0,004
-167,096	514,520	-0,086	0,144
-166,081	230,559	0,055	0,065
-165,066	800,000	-0,040	-0,097
-164,052	144,506	-0,180	-0,172
-163,037	800,000	0,048	0,114
-162,023	800,000	-0,053	0,122
-161,008	800,000	0,094	0,207
-159,993	12,708	0,051	-0,028
-158,979	-200,000	0,027	-0,190
-157,964	-126,648	-0,101	0,011
-156,950	74,535	0,104	-0,078
-155,935	-200,000	-0,007	-0,156
-154,920	-43,165	0,102	0,037
-153,906	34,002	0,154	0,096
-152,891	652,241	-0,024	-0,045
-151,877	759,939	-0,075	-0,145
-150,862	178,708	-0,054	-0,056
-149,847	-200,000	0,013	0,115
-148,833	-64,898	0,107	0,031
-147,818	274,130	0,045	0,057
-146,804	164,357	0,091	0,092
-145,789	-200,000	0,007	0,056
-144,775	-200,000	-0,012	-0,120
-143,760	335,783	-0,087	-0,121
-142,745	243,089	-0,097	0,116
-141,731	118,944	-0,100	-0,088
-140,716	503,967	-0,028	0,047
-139,702	554,833	0,029	-0,050
-138,687	239,006	0,054	0,064
-137,672	103,938	0,082	0,069
-136,658	-104,218	-0,141	-0,023
-135,643	22,754	-0,103	-0,060
-134,629	-200,000	-0,034	-0,202
-133,614	-62,146	0,118	-0,035
-132,599	27,345	0,064	-0,038
-131,585	186,967	-0,154	0,163
-130,570	-118,003	0,056	0,007
-129,556	184,523	-0,212	-0,224
-128,541	727,342	0,044	-0,084
-127,526	-141,547	-0,037	-0,003
-126,512	-200,000	-0,001	-0,095
-125,497	197,647	-0,111	0,120
-124,483	30,512	0,048	0,029
-123,468	-74,408	-0,010	0,003
-122,453	305,368	0,064	0,085
-121,439	269,609	0,052	-0,066
-120,424	-18,464	0,161	0,071
-119,410	527,881	0,070	0,118
