DTS Sentinel unit serial number:	SN410029Multiplexer serial number:	ORYXHardware model number:	OX2-SRSoftware version number:	ORYX F/W v4,00 Oryx Data Collector v3.7.2.0data status	okinstallation	BH3 CH2differential loss correction	single-endedforward channel	channel 2reverse channel	N/Adate	2023/12/05time	23:57:28forward acquisition time	300,00reverse acquisition time	0,00gamma	499,1914k internal	0,3196k external	0,3196temperature offset calibration	1,0000default loss term (dB/km)	0,3820temperature slope calibration	1,0000multiplexer offset coefficient	1,0000multiplexer slope coefficient	1,0000fibre end	0,00T internal ref (°C)	9,47T ext. ref 1 (°C)	-5,32T ext. ref 2 (°C)	-5,41length (m)	temperature (°C)	Stokes	anti-Stokes-744,400	-200,000	-0,011	-0,113
-743,385	-128,634	-0,292	0,030
-742,371	800,000	-0,004	-0,013
-741,356	66,675	-0,121	0,090
-740,342	-121,709	-0,074	0,009
-739,327	-166,812	-0,157	-0,005
-738,312	800,000	-0,056	-0,162
-737,298	-168,441	-0,230	0,006
-736,283	-200,000	-0,042	-0,178
-735,269	-93,989	-0,248	0,049
-734,254	-99,573	0,081	-0,015
-733,239	-57,902	-0,333	-0,105
-732,225	-3,808	0,075	-0,038
-731,210	-25,508	0,173	0,074
-730,196	257,522	0,039	-0,049
-729,181	229,314	-0,139	-0,165
-728,167	-200,000	-0,001	-0,213
-727,152	-200,000	-0,022	-0,086
-726,137	-200,000	-0,011	-0,123
-725,123	-200,000	0,005	-0,045
-724,108	800,000	-0,057	-0,155
-723,094	532,284	-0,068	-0,117
-722,079	-200,000	-0,022	-0,107
-721,064	800,000	0,025	0,075
-720,050	356,678	0,087	-0,126
-719,035	-75,171	-0,084	-0,022
-718,021	27,931	-0,077	0,047
-717,006	646,125	-0,073	0,136
-715,991	-200,000	0,053	-0,197
-714,977	429,636	-0,080	-0,126
-713,962	-200,000	-0,018	-0,106
-712,948	800,000	-0,076	-0,164
-711,933	163,315	0,110	-0,113
-710,918	-55,420	0,064	-0,021
-709,904	74,856	-0,031	-0,023
-708,889	-200,000	0,011	-0,083
-707,875	-200,000	-0,040	-0,167
-706,860	733,248	0,022	-0,044
-705,845	-193,895	0,132	-0,001
-704,831	800,000	0,066	0,163
-703,816	-79,883	0,111	-0,027
-702,802	-58,887	-0,054	-0,017
-701,787	800,000	-0,078	-0,216
-700,772	-200,000	0,021	-0,096
-699,758	-77,373	-0,108	-0,027
-698,743	278,285	-0,004	0,006
-697,729	-200,000	0,018	0,130
-696,714	800,000	-0,020	-0,043
-695,699	522,993	-0,081	-0,139
-694,685	545,885	0,033	-0,057
-693,670	134,833	-0,172	-0,162
-692,656	573,987	0,034	-0,060
-691,641	-200,000	-0,005	-0,018
-690,627	-200,000	-0,026	0,109
-689,612	-102,437	-0,109	0,019
-688,597	-100,729	-0,090	-0,016
-687,583	-200,000	0,007	-0,092
-686,568	800,000	-0,058	0,124
-685,554	-150,621	-0,061	0,003
-684,539	78,250	0,044	0,034
-683,524	660,101	-0,036	-0,068
-682,510	585,528	0,018	-0,033
-681,495	54,018	-0,031	-0,022
-680,481	-97,924	-0,111	-0,021
-679,466	121,191	-0,090	0,081
-678,451	572,466	0,045	-0,080
-677,437	59,394	0,077	0,055
-676,422	110,166	-0,034	0,029
-675,408	-82,589	0,103	-0,024
-674,393	360,698	-0,073	-0,107
-673,378	178,086	-0,138	0,146
-672,364	792,209	-0,050	-0,100
-671,349	-56,879	0,102	0,033
-670,335	543,351	0,060	-0,105
-669,320	-200,000	0,002	0,120
-668,305	800,000	0,034	-0,090
-667,291	226,650	0,008	0,010
-666,276	93,113	-0,118	-0,097
-665,262	58,406	-0,059	-0,042
-664,247	-59,951	-0,137	-0,042
-663,232	800,000	-0,046	0,096
-662,218	-139,593	0,133	0,010
-661,203	800,000	0,040	0,110
-660,189	-200,000	0,008	0,089
-659,174	800,000	-0,032	-0,078
-658,159	800,000	-0,052	-0,136
-657,145	-200,000	-0,017	-0,097
-656,130	9,262	-0,110	-0,060
-655,116	-79,517	0,176	-0,043
-654,101	-171,184	0,042	0,001
-653,086	800,000	-0,043	-0,092
-652,072	499,102	-0,085	-0,143
-651,057	-57,482	-0,105	0,033
-650,043	-200,000	0,003	0,111
-649,028	110,386	0,019	-0,017
-648,014	89,945	-0,077	-0,062
-646,999	-45,611	0,095	0,034
-645,984	-200,000	0,002	-0,055
-644,970	-20,809	0,071	-0,031
-643,955	70,210	-0,033	-0,025
-642,941	-200,000	-0,008	-0,216
-641,926	522,743	-0,021	-0,035
-640,911	154,610	-0,064	-0,064
-639,897	-70,425	-0,031	-0,008
-638,882	82,066	0,062	0,048
-637,868	113,083	-0,080	0,071
-636,853	9,484	-0,087	-0,048
-635,838	-104,020	-0,151	0,025
-634,824	98,364	-0,050	-0,041
-633,809	-34,122	0,047	0,019
-632,795	30,086	-0,105	-0,065
-631,780	319,159	-0,136	0,188
-630,765	-46,448	0,096	-0,034
-629,751	-71,143	-0,059	-0,016
-628,736	207,717	0,046	-0,052
-627,722	-200,000	-0,006	-0,031
-626,707	800,000	0,024	0,051
-625,692	-200,000	-0,010	-0,040
-624,678	42,054	-0,024	0,016
-623,663	-93,823	0,047	-0,009
-622,649	496,720	-0,052	-0,088
-621,634	370,983	-0,038	0,055
-620,619	-200,000	0,048	-0,164
-619,605	800,000	0,042	0,085
-618,590	-180,032	0,102	-0,002
-617,576	250,759	-0,122	0,151
-616,561	205,115	0,111	-0,126
-615,546	-69,256	0,018	0,005
-614,532	-200,000	0,031	-0,129
-613,517	-200,000	0,014	-0,196
-612,503	577,253	-0,093	-0,165
-611,488	800,000	0,005	0,012
-610,474	-200,000	0,027	-0,097
-609,459	-124,093	-0,010	0,001
-608,444	260,234	-0,097	-0,121
-607,430	-200,000	0,031	-0,215
-606,415	21,671	-0,079	-0,047
-605,401	647,661	0,037	-0,069
-604,386	-200,000	0,008	0,106
-603,371	279,166	-0,082	0,107
-602,357	-23,899	0,065	-0,028
-601,342	512,486	-0,051	-0,087
-600,328	148,161	-0,097	-0,094
-599,313	-158,541	0,096	-0,004
-598,298	102,229	-0,067	-0,057
-597,284	800,000	0,035	-0,080
-596,269	-135,238	0,119	0,010
-595,255	-76,155	-0,120	-0,031
-594,240	-200,000	-0,002	-0,090
-593,225	-200,000	-0,021	0,072
-592,211	-200,000	0,006	-0,032
-591,196	133,974	-0,064	-0,060
-590,182	317,783	-0,005	-0,007
-589,167	299,904	0,041	-0,055
-588,152	794,326	-0,042	0,084
-587,138	153,310	0,081	-0,080
-586,123	-152,634	-0,059	0,003
-585,109	489,874	0,055	-0,092
-584,094	-89,287	-0,120	-0,025
-583,079	-200,000	0,009	-0,030
-582,065	78,172	0,112	0,086
-581,050	-200,000	0,019	0,095
-580,036	-11,983	-0,022	-0,011
-579,021	107,758	0,092	-0,080
-578,006	515,872	-0,032	0,054
-576,992	-200,000	-0,010	-0,053
-575,977	61,571	0,085	-0,061
-574,963	692,927	-0,037	0,070
-573,948	-82,444	0,064	0,015
-572,934	48,051	0,100	-0,068
-571,919	-200,000	0,004	-0,130
-570,904	24,123	0,063	0,038
-569,890	27,909	0,039	-0,024
-568,875	485,322	0,079	-0,131
-567,861	-200,000	0,005	-0,031
-566,846	-128,665	-0,161	-0,016
-565,831	371,393	0,019	0,028
-564,817	-115,451	-0,154	-0,021
-563,802	174,328	-0,033	-0,035
-562,788	172,213	-0,038	-0,040
-561,773	800,000	-0,031	0,073
-560,758	800,000	-0,045	0,091
-559,744	263,028	-0,059	0,074
-558,729	44,614	-0,087	0,057
-557,715	139,467	-0,089	0,084
-556,700	63,166	0,067	-0,048
-555,685	-200,000	0,010	-0,033
-554,671	800,000	0,022	-0,046
-553,656	-116,257	-0,066	-0,009
-552,642	97,075	0,098	-0,081
-551,627	507,657	-0,047	0,079
-550,612	30,582	-0,029	-0,018
-549,598	190,343	0,066	-0,071
-548,583	-10,794	0,103	-0,049
-547,569	57,761	0,031	0,022
-546,554	-5,508	0,078	0,039
-545,539	-21,231	-0,114	-0,050
-544,525	448,266	0,024	0,038
-543,510	800,000	0,038	-0,088
-542,496	800,000	0,064	-0,136
-541,481	151,574	-0,139	0,136
-540,466	-36,572	0,149	-0,058
-539,452	-200,000	-0,009	0,103
-538,437	800,000	0,004	-0,011
-537,423	-200,000	0,039	-0,139
-536,408	106,447	0,071	-0,061
-535,393	526,163	-0,039	0,066
-534,379	-117,812	-0,070	-0,009
-533,364	-40,546	0,122	-0,045
-532,350	-171,297	-0,111	0,003
-531,335	431,799	-0,055	0,086
-530,321	20,812	0,035	0,020
-529,306	81,926	0,049	0,038
-528,291	577,539	-0,071	-0,126
-527,277	800,000	0,042	-0,110
-526,262	-200,000	-0,022	-0,094
-525,248	-200,000	-0,010	-0,143
-524,233	-20,012	0,068	0,030
-523,218	-200,000	-0,028	-0,114
-522,204	-128,884	0,143	-0,014
-521,189	800,000	-0,040	-0,091
-520,175	-44,304	-0,078	0,028
-519,160	-200,000	0,003	-0,065
-518,145	80,992	0,009	0,007
-517,131	-85,377	-0,046	0,010
-516,116	-200,000	0,010	0,111
-515,102	-200,000	0,020	0,085
-514,087	-200,000	-0,038	-0,138
-513,072	235,438	-0,117	-0,140
-512,058	-200,000	-0,009	-0,134
-511,043	-200,000	-0,009	0,069
-510,029	-72,543	-0,214	-0,057
-509,014	216,824	0,044	0,051
-507,999	57,262	0,063	0,044
-506,985	-73,160	-0,088	0,023
-505,970	-200,000	-0,001	-0,091
-504,956	-56,669	0,150	-0,048
-503,941	-8,978	-0,102	-0,049
-502,926	800,000	0,032	0,066
-501,912	-200,000	0,029	0,152
-500,897	-1,347	-0,158	-0,080
-499,883	800,000	0,034	-0,093
-498,868	221,032	-0,084	0,097
-497,853	-200,000	0,018	-0,191
-496,839	800,000	-0,037	0,079
-495,824	-56,836	0,066	-0,021
-494,810	253,379	0,063	-0,078
-493,795	73,034	-0,147	0,111
-492,781	31,941	-0,070	0,043
-491,766	-126,628	-0,044	-0,005
-490,751	215,143	-0,037	-0,042
-489,737	86,428	0,048	0,038
-488,722	-148,042	0,078	0,005
-487,708	800,000	0,021	-0,055
-486,693	518,963	-0,032	-0,054
-485,678	-200,000	0,043	0,148
-484,664	-166,215	-0,084	-0,003
-483,649	436,686	-0,098	0,154
-482,635	465,311	-0,085	-0,138
-481,620	800,000	0,041	0,129
-480,605	17,340	0,133	0,076
-479,591	-200,000	0,004	-0,015
-478,576	-200,000	0,005	-0,038
-477,562	67,177	-0,051	0,038
-476,547	224,931	-0,091	-0,106
-475,532	144,506	-0,007	-0,007
-474,518	800,000	-0,058	0,117
-473,503	165,897	0,064	0,065
-472,489	582,391	-0,025	0,045
-471,474	-45,988	-0,039	0,014
-470,459	-200,000	0,000	-0,002
-469,445	-200,000	0,001	-0,093
-468,430	104,507	-0,063	-0,054
-467,416	-200,000	-0,018	0,121
-466,401	29,816	0,112	0,068
-465,386	-200,000	0,020	-0,074
-464,372	800,000	-0,010	0,020
-463,357	332,948	0,106	-0,148
-462,343	800,000	-0,061	-0,128
-461,328	-68,403	0,053	-0,015
-460,313	73,426	0,053	0,040
-459,299	141,224	-0,051	0,048
-458,284	-191,000	0,136	-0,001
-457,270	-200,000	0,002	0,061
-456,255	-200,000	0,009	-0,072
-455,241	342,788	-0,048	-0,068
-454,226	-200,000	-0,011	-0,195
-453,211	40,662	0,125	-0,081
-452,197	-148,651	0,056	0,003
-451,182	544,020	0,025	0,043
-450,168	192,635	-0,030	0,033
-449,153	63,474	-0,052	0,038
-448,138	-200,000	-0,003	-0,157
-447,124	-200,000	-0,024	-0,091
-446,109	106,590	-0,083	-0,071
-445,095	-200,000	-0,012	0,059
-444,080	209,117	0,149	0,169
-443,065	-135,825	-0,018	0,002
-442,051	800,000	-0,028	0,072
-441,036	11,143	-0,066	0,036
-440,022	34,854	0,087	-0,055
-439,007	800,000	0,053	0,115
-437,992	-76,038	0,051	-0,013
-436,978	-30,512	-0,027	0,011
-435,963	-200,000	0,050	0,199
-434,949	88,051	0,049	0,039
-433,934	-200,000	0,006	-0,099
-432,919	69,948	-0,123	0,091
-431,905	-200,000	-0,015	0,051
-430,890	-151,603	-0,078	-0,004
-429,876	368,586	-0,012	0,017
-428,861	-200,000	0,005	-0,025
-427,846	-200,000	-0,007	0,123
-426,832	800,000	-0,053	0,116
-425,817	-200,000	0,022	-0,086
-424,803	-171,741	0,036	-0,001
-423,788	-51,025	-0,023	0,008
-422,773	800,000	0,026	0,057
-421,759	-200,000	0,037	0,122
-420,744	-200,000	-0,031	0,137
-419,730	800,000	-0,087	-0,183
-418,715	179,422	-0,065	0,068
-417,701	800,000	0,036	-0,114
-416,686	-121,642	0,080	0,009
-415,671	800,000	-0,010	0,020
-414,657	57,185	0,086	0,060
-413,642	-112,850	-0,045	-0,006
-412,628	-25,666	0,071	-0,030
-411,613	44,403	-0,053	-0,035
-410,598	49,536	0,063	-0,043
-409,584	66,759	0,094	0,069
-408,569	51,045	-0,051	0,035
-407,555	-121,333	0,110	-0,013
-406,540	-92,225	-0,033	0,007
-405,525	-43,315	-0,086	0,031
-404,511	-104,138	-0,130	-0,021
-403,496	-200,000	-0,011	-0,041
-402,482	164,316	0,050	0,051
-401,467	800,000	0,033	-0,066
-400,452	-200,000	0,011	0,104
-399,438	-200,000	-0,014	0,106
-398,423	-200,000	0,019	-0,180
-397,409	12,978	-0,042	-0,023
-396,394	37,463	0,146	-0,093
-395,379	-71,133	0,185	-0,049
-394,365	-102,422	0,124	0,021
-393,350	-145,125	-0,068	-0,004
-392,336	228,431	-0,133	0,156
-391,321	7,543	0,168	-0,090
-390,306	-200,000	-0,003	0,033
-389,292	800,000	0,003	0,007
-388,277	-92,553	0,062	0,012
-387,263	631,562	0,069	0,126
-386,248	-200,000	-0,001	0,156
-385,233	-200,000	0,026	0,087
-384,219	142,127	-0,047	-0,045
-383,204	353,387	-0,017	-0,024
-382,190	49,467	-0,061	0,041
-381,175	-200,000	0,001	-0,024
-380,160	-141,649	-0,178	-0,013
-379,146	-6,556	0,068	-0,033
-378,131	800,000	0,046	0,135
-377,117	-4,811	-0,060	0,030
-376,102	-200,000	-0,008	0,120
-375,088	652,576	-0,053	-0,098
-374,073	400,551	-0,034	-0,052
-373,058	-200,000	-0,028	0,135
-372,044	-16,516	0,035	0,016
-371,029	151,785	-0,088	0,087
-370,015	-200,000	0,005	-0,084
-369,000	800,000	0,050	-0,105
-367,985	93,432	0,116	-0,094
-366,971	800,000	0,012	-0,036
-365,956	-200,000	-0,022	0,092
-364,942	38,233	0,049	-0,032
-363,927	-117,396	0,110	0,014
-362,912	43,770	-0,101	0,067
-361,898	-137,844	-0,141	-0,011
-360,883	-200,000	0,033	0,151
-359,869	-47,726	0,009	0,003
-358,854	800,000	0,018	0,046
-357,839	210,866	0,031	0,035
-356,825	-124,656	-0,075	-0,008
-355,810	-200,000	0,007	-0,071
-354,796	-91,685	-0,012	-0,002
-353,781	715,558	0,002	0,003
-352,766	800,000	0,012	-0,033
-351,752	-149,954	0,120	0,007
-350,737	667,676	0,029	0,054
-349,723	-200,000	0,018	0,147
-348,708	188,747	-0,052	0,056
-347,693	-200,000	0,005	-0,034
-346,679	307,045	-0,146	-0,196
-345,664	40,081	-0,130	0,084
-344,650	2,956	0,062	-0,032
-343,635	230,287	0,086	0,101
-342,620	-40,248	0,137	-0,051
-341,606	6,442	-0,039	0,021
-340,591	-35,890	0,044	0,017
-339,577	-101,746	-0,140	0,024
-338,562	-200,000	-0,012	-0,074
-337,548	-200,000	-0,003	0,129
-336,533	130,427	0,103	0,095
-335,518	-147,799	0,034	0,002
-334,504	628,019	0,014	-0,026
-333,489	-200,000	-0,006	0,034
-332,475	-44,716	-0,025	-0,009
-331,460	-200,000	-0,009	-0,129
-330,445	-200,000	-0,015	-0,135
-329,431	800,000	-0,028	0,057
-328,416	10,560	0,033	-0,018
-327,402	159,427	0,084	0,084
-326,387	-32,602	-0,115	0,046
-325,372	-80,642	-0,195	0,046
-324,358	-171,098	0,140	0,003
-323,343	-90,930	0,110	-0,022
-322,329	259,942	-0,087	-0,108
-321,314	-44,367	0,092	-0,033
-320,299	-200,000	-0,006	0,053
-319,285	-17,129	-0,073	0,033
-318,270	-7,759	0,145	-0,070
-317,256	-200,000	0,036	-0,232
-316,241	-200,000	-0,017	-0,131
-315,226	-128,960	0,101	-0,010
-314,212	-200,000	0,041	0,162
-313,197	-82,609	0,021	0,005
-312,183	-16,979	-0,058	0,026
-311,168	800,000	-0,080	-0,184
-310,153	204,958	-0,126	-0,141
-309,139	237,768	-0,024	0,029
-308,124	-65,533	-0,168	0,048
-307,110	223,948	-0,064	0,074
-306,095	-200,000	0,017	0,099
-305,080	96,687	0,069	0,056
-304,066	419,326	0,011	-0,018
-303,051	-200,000	-0,024	-0,141
-302,037	-67,723	-0,111	0,031
-301,022	-200,000	-0,015	0,090
-300,008	-200,000	0,018	0,091
-298,993	70,041	-0,047	-0,035
-297,978	-86,910	-0,081	-0,018
-296,964	512,461	0,097	0,162
-295,949	-160,255	-0,056	0,002
-294,935	800,000	-0,034	-0,096
-293,920	52,165	0,160	0,109
-292,905	55,530	0,050	0,035
-291,891	-79,766	0,107	0,026
-290,876	16,024	0,058	0,033
-289,862	509,408	0,018	0,031
-288,847	-8,943	0,038	-0,018
-287,832	-200,000	0,003	-0,133
-286,818	164,037	0,085	-0,085
-285,803	800,000	0,014	-0,032
-284,789	800,000	0,025	0,055
-283,774	-200,000	0,028	0,095
-282,759	-200,000	0,002	0,026
-281,745	-200,000	0,010	0,033
-280,730	39,317	-0,154	-0,098
-279,716	146,716	-0,077	0,074
-278,701	752,698	0,071	0,138
-277,686	-200,000	0,034	0,191
-276,672	426,890	0,097	0,150
-275,657	-200,000	0,033	0,206
-274,643	800,000	-0,040	-0,124
-273,628	104,919	-0,084	-0,071
-272,613	28,356	0,018	-0,011
-271,599	800,000	0,020	-0,047
-270,584	-200,000	0,026	0,087
-269,570	46,596	-0,063	-0,042
-268,555	-102,918	0,073	0,012
-267,540	800,000	0,015	0,047
-266,526	-151,707	-0,024	-0,001
-265,511	-73,522	0,084	-0,022
-264,497	-20,821	0,086	-0,038
-263,482	-40,274	0,208	0,077
-262,467	-18,012	0,030	-0,013
-261,453	-33,382	-0,085	-0,034
-260,438	371,516	-0,052	0,076
-259,424	77,634	-0,012	0,009
-258,409	-57,741	-0,052	0,016
-257,395	-86,343	-0,103	0,022
-256,380	85,831	0,102	0,080
-255,365	-200,000	0,012	0,106
-254,351	128,043	-0,024	-0,022
-253,336	-38,809	-0,093	-0,035
-252,322	-48,439	0,082	-0,028
-251,307	-200,000	0,006	-0,097
-250,292	-200,000	0,011	0,138
-249,278	800,000	0,016	-0,039
-248,263	51,593	0,029	0,019
-247,249	268,502	0,023	0,028
-246,234	800,000	-0,039	-0,090
-245,219	182,008	0,097	-0,102
-244,205	-46,299	-0,122	0,042
-243,190	-200,000	0,002	0,032
-242,176	800,000	0,023	0,047
-241,161	547,519	-0,097	0,166
-240,146	-44,577	0,119	0,042
-239,132	221,491	-0,041	0,047
-238,117	-124,627	0,050	-0,005
-237,103	-200,000	-0,018	0,058
-236,088	-200,000	0,029	-0,134
-235,073	-200,000	0,015	0,049
-234,059	120,062	0,093	-0,082
-233,044	269,295	0,015	0,018
-232,030	-200,000	-0,006	0,046
-231,015	201,705	-0,110	0,121
-230,000	136,072	0,048	0,044
-228,986	280,899	-0,078	0,100
-227,971	-200,000	0,011	0,115
-226,957	-200,000	0,010	0,113
-225,942	407,447	-0,022	0,033
-224,927	-64,350	-0,031	0,009
-223,913	-48,330	0,066	0,023
-222,898	-200,000	0,008	0,068
-221,884	-28,243	-0,155	-0,064
-220,869	22,833	0,196	0,114
-219,855	470,153	-0,038	-0,062
-218,840	-200,000	-0,003	0,165
-217,825	-200,000	-0,006	-0,090
-216,811	800,000	-0,037	-0,102
-215,796	-200,000	0,013	-0,132
-214,782	-200,000	0,027	-0,088
-213,767	-8,147	0,034	0,016
-212,752	-88,924	0,013	0,003
-211,738	-200,000	0,014	-0,084
-210,723	-200,000	0,034	0,109
-209,709	800,000	-0,014	-0,031
-208,694	-39,793	0,088	-0,033
-207,679	-167,349	-0,174	0,005
-206,665	-200,000	0,015	0,071
-205,650	-200,000	0,006	0,042
-204,636	800,000	-0,015	0,033
-203,621	-200,000	-0,027	-0,090
-202,606	-200,000	0,016	0,101
-201,592	460,506	-0,034	-0,054
-200,577	-200,000	-0,011	0,036
-199,563	800,000	-0,041	-0,085
-198,548	174,531	0,025	0,026
-197,533	800,000	0,035	0,069
-196,519	-37,368	-0,094	0,036
-195,504	-200,000	-0,004	-0,177
-194,490	-200,000	0,027	-0,114
-193,475	800,000	-0,024	-0,062
-192,460	800,000	-0,026	0,071
-191,446	-3,413	-0,074	0,037
-190,431	-200,000	0,013	0,055
-189,417	-84,281	0,043	-0,010
-188,402	-200,000	0,006	-0,115
-187,387	-53,316	0,076	0,025
-186,373	254,088	0,065	-0,079
-185,358	800,000	0,051	0,120
-184,344	-182,560	-0,078	-0,001
-183,329	110,236	0,116	0,099
-182,315	1,909	-0,012	0,006
-181,300	17,245	0,037	-0,021
-180,285	509,468	-0,052	0,086
-179,271	800,000	0,028	-0,075
-178,256	-109,135	0,116	-0,017
-177,242	173,355	-0,126	0,130
-176,227	3,420	0,215	0,111
-175,212	-95,620	-0,080	-0,015
-174,198	-200,000	0,012	0,096
-173,183	-66,529	0,001	0,000
-172,169	-28,032	-0,036	0,015
-171,154	115,387	-0,061	-0,053
-170,139	176,587	0,034	0,036
-169,125	-112,955	0,145	-0,020
-168,110	-43,906	-0,079	-0,028
-167,096	183,946	0,077	0,082
-166,081	-29,555	0,080	-0,032
-165,066	198,882	-0,136	-0,148
-164,052	-67,237	-0,163	-0,045
-163,037	-13,378	0,080	0,037
-162,023	-200,000	0,049	0,190
-161,008	516,805	-0,029	0,048
-159,993	154,429	0,046	0,045
-158,979	68,077	-0,037	-0,027
-157,964	66,867	-0,048	-0,034
-156,950	-123,879	-0,143	-0,016
-155,935	335,565	-0,054	0,074
-154,920	-24,784	0,095	0,040
-153,906	-200,000	0,027	0,090
-152,891	674,558	0,018	-0,034
-151,877	-200,000	0,020	0,070
-150,862	-200,000	0,005	-0,030
-149,847	1,796	0,129	-0,066
-148,833	142,157	-0,091	-0,085
-147,818	41,565	0,048	0,031
-146,804	-200,000	0,027	0,117
-145,789	-200,000	-0,001	0,021
-144,775	123,626	0,035	-0,031
-143,760	-51,790	-0,163	0,054
-142,745	-135,754	0,144	0,012
-141,731	33,358	0,014	-0,009
-140,716	95,794	0,132	0,107
-139,702	-24,750	-0,064	0,027
-138,687	10,009	0,135	0,073
-137,672	48,903	-0,048	-0,032
-136,658	-7,639	0,098	-0,047
-135,643	328,893	0,066	-0,090
-134,629	-146,618	-0,068	0,004
-133,614	-58,855	-0,082	0,025
-132,599	800,000	0,038	0,079
-131,585	363,645	0,043	-0,062
-130,570	800,000	-0,028	-0,059
-129,556	-200,000	0,000	-0,018
-128,541	187,085	-0,029	0,030
-127,526	165,423	-0,035	0,035
-126,512	-200,000	-0,021	-0,080
-125,497	59,484	0,076	-0,053
-124,483	285,005	0,072	0,093
-123,468	110,064	0,054	-0,046
-122,453	-70,039	0,062	0,017
-121,439	-83,513	0,091	-0,021
-120,424	696,962	-0,083	-0,155
-119,410	-200,000	-0,008	-0,031
