DTS Sentinel unit serial number:	SN410029Multiplexer serial number:	ORYXHardware model number:	OX2-SRSoftware version number:	ORYX F/W v4,00 Oryx Data Collector v3.7.2.0data status	okinstallation	BH3 CH2differential loss correction	single-endedforward channel	channel 2reverse channel	N/Adate	2023/12/06time	01:52:28forward acquisition time	300,00reverse acquisition time	0,00gamma	499,1914k internal	0,3196k external	0,3196temperature offset calibration	1,0000default loss term (dB/km)	0,3820temperature slope calibration	1,0000multiplexer offset coefficient	1,0000multiplexer slope coefficient	1,0000fibre end	0,00T internal ref (°C)	9,12T ext. ref 1 (°C)	-5,78T ext. ref 2 (°C)	-5,85length (m)	temperature (°C)	Stokes	anti-Stokes-744,400	-200,000	-0,003	-0,163
-743,385	50,554	-0,201	0,138
-742,371	-54,710	0,100	-0,033
-741,356	-36,837	-0,189	0,074
-740,342	146,593	0,017	0,017
-739,327	44,174	-0,148	0,099
-738,312	125,245	0,048	0,044
-737,298	-89,859	-0,200	0,042
-736,283	316,469	0,041	0,057
-735,269	800,000	-0,090	0,237
-734,254	-200,000	0,018	-0,124
-733,239	-68,618	-0,332	-0,093
-732,225	200,610	0,167	-0,187
-731,210	-127,479	0,122	0,013
-730,196	173,373	-0,094	-0,099
-729,181	-89,307	-0,237	-0,050
-728,167	-34,806	0,079	-0,031
-727,152	-200,000	0,037	-0,142
-726,137	800,000	-0,030	-0,097
-725,123	-7,413	-0,093	-0,046
-724,108	591,734	-0,069	-0,124
-723,094	-64,103	-0,126	-0,037
-722,079	-46,875	-0,056	0,020
-721,064	-49,552	-0,054	0,019
-720,050	205,013	-0,092	-0,104
-719,035	250,037	-0,040	-0,049
-718,021	-6,473	-0,052	0,026
-717,006	800,000	-0,036	0,080
-715,991	-200,000	-0,012	-0,215
-714,977	-200,000	0,035	-0,114
-713,962	105,979	-0,082	-0,071
-712,948	243,246	-0,078	-0,095
-711,933	213,301	-0,070	0,080
-710,918	-130,515	-0,088	0,009
-709,904	-169,664	-0,123	-0,003
-708,889	-79,526	0,074	-0,018
-707,875	-10,347	-0,121	0,058
-706,860	577,148	-0,048	-0,086
-705,845	202,712	-0,077	0,086
-704,831	304,461	-0,039	0,052
-703,816	259,359	0,064	0,081
-702,802	-137,398	-0,124	0,010
-701,787	125,903	-0,096	-0,088
-700,772	363,539	-0,024	-0,035
-699,758	-200,000	-0,003	-0,061
-698,743	100,940	-0,094	0,079
-697,729	-200,000	-0,020	-0,064
-696,714	800,000	-0,028	-0,067
-695,699	-101,497	-0,049	0,009
-694,685	-48,192	-0,021	0,007
-693,670	691,210	0,038	-0,073
-692,656	800,000	-0,059	-0,131
-691,641	-21,977	-0,053	0,024
-690,627	756,336	-0,025	0,048
-689,612	-81,439	0,071	0,017
-688,597	-200,000	0,012	0,063
-687,583	306,592	0,098	-0,133
-686,568	101,367	-0,021	-0,018
-685,554	-61,197	-0,101	0,031
-684,539	-200,000	0,028	0,120
-683,524	800,000	0,031	0,084
-682,510	-83,678	-0,162	0,037
-681,495	-200,000	0,008	0,081
-680,481	-13,463	-0,167	0,078
-679,466	-200,000	-0,013	-0,106
-678,451	-53,247	0,092	-0,030
-677,437	-200,000	0,014	-0,046
-676,422	-97,479	-0,118	-0,022
-675,408	17,153	0,029	-0,017
-674,393	-15,806	-0,051	0,024
-673,378	800,000	-0,067	-0,142
-672,364	-200,000	-0,010	-0,054
-671,349	185,695	0,073	-0,079
-670,335	91,735	-0,073	-0,060
-669,320	6,353	0,107	-0,058
-668,305	768,832	-0,019	0,037
-667,291	-200,000	0,040	0,153
-666,276	162,570	-0,092	-0,094
-665,262	-200,000	0,007	-0,098
-664,247	-200,000	0,004	0,050
-663,232	548,569	-0,029	0,051
-662,218	800,000	0,057	0,160
-661,203	-74,646	-0,078	0,020
-660,189	-200,000	-0,011	-0,072
-659,174	74,367	0,072	-0,055
-658,159	199,282	0,054	-0,060
-657,145	800,000	0,027	-0,061
-656,130	706,298	0,057	-0,110
-655,116	-49,321	0,081	0,028
-654,101	-128,691	0,057	0,006
-653,086	-112,790	-0,171	-0,024
-652,072	246,397	-0,076	-0,093
-651,057	751,667	-0,106	-0,208
-650,043	274,382	-0,062	0,080
-649,028	-200,000	-0,056	0,000
-648,014	-200,000	-0,028	0,128
-646,999	406,467	-0,080	0,122
-645,984	121,979	-0,073	0,067
-644,970	-153,705	-0,129	0,006
-643,955	64,575	-0,118	-0,086
-642,941	-77,125	-0,144	-0,036
-641,926	-200,000	-0,114	0,000
-640,911	800,000	-0,044	0,104
-639,897	66,734	-0,033	0,024
-638,882	-49,400	-0,081	0,028
-637,868	36,484	-0,067	-0,043
-636,853	187,380	-0,030	-0,033
-635,838	-200,000	-0,035	-0,120
-634,824	800,000	0,018	-0,046
-633,809	-137,279	0,068	0,006
-632,795	-35,204	0,163	0,064
-631,780	-173,089	0,099	0,002
-630,765	627,037	-0,070	0,128
-629,751	609,768	-0,049	0,089
-628,736	166,001	-0,112	-0,115
-627,722	595,686	0,058	-0,104
-626,707	38,185	-0,110	0,071
-625,692	800,000	-0,010	-0,022
-624,678	-56,808	-0,048	0,015
-623,663	800,000	0,024	0,062
-622,649	-81,694	-0,056	-0,013
-621,634	525,356	-0,029	-0,050
-620,619	-200,000	-0,002	-0,257
-619,605	236,344	-0,095	-0,114
-618,590	800,000	-0,009	0,027
-617,576	414,316	-0,084	0,129
-616,561	800,000	-0,033	0,070
-615,546	800,000	0,041	0,129
-614,532	502,621	0,059	-0,098
-613,517	-200,000	0,005	0,080
-612,503	147,880	0,042	-0,041
-611,488	79,170	-0,171	0,132
-610,474	-17,279	0,038	0,017
-609,459	69,177	-0,127	-0,095
-608,444	-200,000	0,005	-0,100
-607,430	-12,605	0,105	-0,050
-606,415	-200,000	-0,017	-0,060
-605,401	-152,427	0,080	-0,004
-604,386	74,842	0,112	0,085
-603,371	-200,000	-0,009	0,105
-602,357	-95,074	-0,072	-0,014
-601,342	420,418	0,104	-0,162
-600,328	165,310	-0,030	0,031
-599,313	343,927	-0,045	-0,064
-598,298	-200,000	-0,060	-0,193
-597,284	-63,386	0,138	-0,041
-596,269	463,042	0,037	0,060
-595,255	-200,000	0,026	0,093
-594,240	-22,467	-0,079	-0,034
-593,225	-113,416	-0,178	-0,025
-592,211	244,324	-0,025	-0,031
-591,196	800,000	0,012	-0,028
-590,182	-1,365	0,021	-0,011
-589,167	-200,000	-0,031	0,107
-588,152	-167,573	-0,003	0,000
-587,138	-110,909	-0,196	0,029
-586,123	800,000	-0,027	-0,056
-585,109	-200,000	-0,027	-0,152
-584,094	-200,000	-0,016	-0,135
-583,079	-41,726	-0,051	0,019
-582,065	-39,539	0,072	0,027
-581,050	-62,548	-0,148	0,044
-580,036	378,974	0,029	-0,043
-579,021	800,000	-0,023	0,068
-578,006	-25,386	-0,154	0,066
-576,992	800,000	-0,060	-0,141
-575,977	800,000	-0,055	-0,119
-574,963	115,085	-0,047	-0,042
-573,948	-20,756	0,092	-0,041
-572,934	281,088	0,116	0,151
-571,919	211,818	-0,045	0,051
-570,904	34,674	-0,039	0,024
-569,890	109,534	0,106	0,091
-568,875	183,248	-0,106	-0,114
-567,861	451,831	-0,033	-0,054
-566,846	-200,000	-0,001	0,079
-565,831	-200,000	0,000	0,028
-564,817	-97,808	0,038	-0,007
-563,802	468,605	0,007	-0,011
-562,788	520,152	-0,077	-0,131
-561,773	800,000	-0,026	-0,065
-560,758	120,900	0,158	0,142
-559,744	-26,789	-0,054	0,023
-558,729	463,383	-0,031	-0,051
-557,715	-143,341	0,090	0,006
-556,700	61,522	-0,149	-0,107
-555,685	24,453	-0,015	-0,009
-554,671	-200,000	-0,011	0,049
-553,656	225,598	0,040	-0,047
-552,642	-102,928	0,107	0,018
-551,627	-200,000	0,021	0,071
-550,612	-58,519	0,044	0,014
-549,598	25,371	0,024	-0,014
-548,583	188,465	-0,054	0,058
-547,569	-83,331	0,092	0,021
-546,554	800,000	0,051	0,105
-545,539	486,288	-0,056	-0,092
-544,525	800,000	0,022	0,060
-543,510	-200,000	0,016	0,092
-542,496	-58,121	-0,084	-0,026
-541,481	-16,458	0,075	0,034
-540,466	800,000	0,051	0,133
-539,452	-200,000	0,008	-0,068
-538,437	37,943	0,028	0,018
-537,423	210,224	0,081	0,092
-536,408	119,713	0,045	0,040
-535,393	-200,000	-0,043	0,149
-534,379	333,737	-0,031	-0,043
-533,364	4,697	-0,044	-0,023
-532,350	-200,000	-0,002	-0,114
-531,335	529,285	0,036	-0,061
-530,321	-52,544	0,170	-0,056
-529,306	-200,000	-0,010	-0,032
-528,291	355,522	-0,030	0,043
-527,277	-200,000	0,006	-0,132
-526,262	-96,493	-0,035	0,007
-525,248	52,322	-0,068	0,047
-524,233	-0,129	0,094	0,048
-523,218	-200,000	0,021	-0,150
-522,204	800,000	-0,061	-0,172
-521,189	-200,000	0,013	-0,131
-520,175	800,000	-0,057	-0,139
-519,160	-200,000	-0,007	-0,104
-518,145	-95,009	-0,104	-0,020
-517,131	148,889	-0,152	-0,148
-516,116	490,111	-0,027	0,045
-515,102	-63,086	0,036	-0,011
-514,087	6,502	-0,119	-0,064
-513,072	642,213	-0,019	0,034
-512,058	67,211	-0,011	-0,008
-511,043	134,321	0,067	-0,063
-510,029	-135,913	-0,046	0,004
-509,014	262,792	-0,059	0,074
-507,999	31,002	0,138	-0,085
-506,985	-100,568	-0,191	-0,034
-505,970	-140,205	0,104	0,008
-504,956	-200,000	-0,002	-0,039
-503,941	-68,751	0,027	0,007
-502,926	800,000	-0,008	-0,016
-501,912	356,283	0,034	0,049
-500,897	-14,691	0,034	-0,016
-499,883	90,260	-0,025	0,020
-498,868	346,005	-0,041	-0,059
-497,853	-200,000	0,008	-0,055
-496,839	71,299	0,195	-0,145
-495,824	280,626	-0,023	-0,030
-494,810	127,940	0,079	0,072
-493,795	-86,581	-0,147	0,032
-492,781	344,505	-0,082	-0,116
-491,766	-199,446	-0,121	0,000
-490,751	115,692	-0,063	0,056
-489,737	-200,000	-0,002	-0,066
-488,722	800,000	0,019	-0,057
-487,708	-200,000	0,003	0,013
-486,693	124,942	-0,055	0,050
-485,678	53,236	0,167	0,115
-484,664	-41,901	-0,136	-0,050
-483,649	467,064	-0,106	-0,171
-482,635	133,948	-0,033	0,031
-481,620	-11,080	0,092	0,044
-480,605	364,370	0,038	0,055
-479,591	-200,000	0,009	0,048
-478,576	-200,000	-0,003	0,094
-477,562	143,596	-0,031	-0,030
-476,547	-200,000	-0,011	-0,096
-475,532	450,545	0,022	0,035
-474,518	-37,074	0,108	-0,041
-473,503	800,000	-0,039	-0,109
-472,489	48,406	0,086	-0,058
-471,474	51,585	0,116	0,079
-470,459	800,000	-0,052	-0,114
-469,445	-200,000	-0,036	-0,182
-468,430	-144,620	0,097	0,006
-467,416	-13,140	-0,116	0,054
-466,401	171,870	0,116	0,120
-465,386	271,066	-0,036	0,045
-464,372	800,000	-0,021	-0,044
-463,357	181,342	0,059	0,063
-462,343	800,000	0,015	-0,044
-461,328	-132,388	-0,098	-0,009
-460,313	-51,317	0,159	-0,053
-459,299	-200,000	0,010	-0,094
-458,284	-101,723	0,057	-0,010
-457,270	800,000	0,031	-0,080
-456,255	800,000	0,019	-0,048
-455,241	294,718	-0,066	-0,088
-454,226	200,236	0,086	-0,095
-453,211	12,805	-0,111	-0,061
-452,197	7,682	0,122	-0,065
-451,182	22,224	0,098	-0,057
-450,168	-200,000	0,019	0,090
-449,153	-200,000	0,013	0,123
-448,138	800,000	-0,047	0,123
-447,124	654,791	0,034	0,063
-446,109	800,000	0,046	0,104
-445,095	-200,000	0,022	-0,152
-444,080	-152,542	0,056	-0,003
-443,065	-200,000	-0,018	0,143
-442,051	242,049	0,023	-0,027
-441,036	-200,000	0,029	0,144
-440,022	-43,052	-0,035	0,013
-439,007	-11,818	-0,089	-0,042
-437,992	-22,826	0,108	-0,047
-436,978	126,340	0,162	0,147
-435,963	-51,355	-0,024	-0,008
-434,949	45,499	-0,098	0,065
-433,934	-59,648	-0,091	0,028
-432,919	-90,376	0,136	-0,028
-431,905	-44,174	0,059	0,021
-430,890	318,701	0,069	0,095
-429,876	-200,000	0,007	0,053
-428,861	-89,788	-0,063	-0,013
-427,846	-200,000	-0,021	-0,097
-426,832	517,941	-0,012	0,021
-425,817	-109,731	-0,135	-0,020
-424,803	161,945	-0,112	-0,113
-423,788	-76,274	-0,089	-0,022
-422,773	800,000	-0,051	0,124
-421,759	371,428	-0,051	-0,075
-420,744	-200,000	0,000	0,027
-419,730	-4,468	-0,086	-0,042
-418,715	-200,000	0,001	-0,088
-417,701	-200,000	-0,027	-0,097
-416,686	-200,000	0,025	0,161
-415,671	253,552	0,050	0,062
-414,657	-98,879	-0,079	0,014
-413,642	199,459	-0,109	0,120
-412,628	800,000	-0,013	-0,034
-411,613	-25,268	-0,164	-0,070
-410,598	41,829	-0,024	-0,016
-409,584	-24,914	0,122	0,052
-408,569	800,000	-0,050	0,105
-407,555	27,891	0,092	-0,056
-406,540	21,180	0,082	-0,048
-405,525	496,938	0,063	-0,105
-404,511	-200,000	0,004	-0,019
-403,496	95,180	0,113	0,092
-402,482	190,632	0,059	0,064
-401,467	-158,252	0,028	0,001
-400,452	522,443	0,029	0,050
-399,438	-2,141	0,048	-0,024
-398,423	-75,093	-0,074	0,019
-397,409	-10,031	-0,099	-0,047
-396,394	-200,000	0,021	-0,085
-395,379	-124,522	-0,021	-0,002
-394,365	644,778	0,014	0,026
-393,350	101,134	0,102	0,085
-392,336	-200,000	-0,002	0,011
-391,321	13,420	-0,065	0,036
-390,306	418,844	0,054	-0,083
-389,292	-33,622	0,026	-0,010
-388,277	286,999	0,045	-0,058
-387,263	-52,059	0,045	-0,015
-386,248	-122,165	-0,036	0,004
-385,233	52,996	0,059	0,040
-384,219	-128,906	0,128	0,013
-383,204	-38,211	0,033	-0,013
-382,190	740,935	0,031	-0,059
-381,175	173,520	0,050	-0,052
-380,160	257,319	0,020	0,024
-379,146	192,401	-0,047	-0,051
-378,131	-175,276	0,040	0,001
-377,117	700,533	0,016	0,031
-376,102	73,543	-0,201	0,151
-375,088	559,942	0,076	0,132
-374,073	-6,299	0,132	-0,065
-373,058	-147,714	-0,091	0,005
-372,044	-74,562	0,265	-0,068
-371,029	-90,132	0,052	0,011
-370,015	-200,000	0,008	0,073
-369,000	208,674	-0,098	0,110
-367,985	-97,041	-0,096	-0,018
-366,971	-79,445	0,024	0,006
-365,956	131,593	-0,051	0,047
-364,942	-200,000	-0,000	0,150
-363,927	-7,678	0,050	0,024
-362,912	-15,350	0,043	0,020
-361,898	800,000	-0,020	-0,042
-360,883	800,000	-0,052	-0,164
-359,869	395,905	0,062	-0,094
-358,854	-162,852	0,108	-0,004
-357,839	115,403	-0,042	0,037
-356,825	-86,452	0,054	0,012
-355,810	76,599	0,058	-0,044
-354,796	90,224	0,029	-0,023
-353,781	800,000	-0,055	-0,135
-352,766	-165,806	0,133	-0,004
-351,752	-41,146	-0,061	-0,023
-350,737	-200,000	-0,018	0,065
-349,723	-68,750	0,131	0,036
-348,708	-200,000	0,005	0,030
-347,693	2,730	0,082	-0,043
-346,679	221,331	0,047	-0,054
-345,664	-72,454	0,161	-0,042
-344,650	-131,406	0,060	-0,006
-343,635	374,091	0,044	0,064
-342,620	-121,425	0,090	0,011
-341,606	-97,343	0,099	-0,018
-340,591	390,414	0,037	0,056
-339,577	-200,000	-0,001	0,071
-338,562	-200,000	-0,025	-0,083
-337,548	-200,000	0,023	-0,120
-336,533	-168,660	-0,120	0,003
-335,518	-200,000	0,003	-0,047
-334,504	-82,309	0,109	0,025
-333,489	661,930	-0,068	-0,127
-332,475	21,331	-0,054	0,031
-331,460	131,795	0,047	0,043
-330,445	107,438	-0,172	-0,146
-329,431	-49,759	0,158	0,054
-328,416	-200,000	-0,029	0,115
-327,402	-200,000	-0,053	0,197
-326,387	424,248	0,029	-0,044
-325,372	242,871	-0,080	-0,097
-324,358	-200,000	0,008	-0,147
-323,343	43,064	-0,099	0,065
-322,329	-40,024	-0,034	0,013
-321,314	-24,816	0,083	-0,035
-320,299	-200,000	-0,006	-0,062
-319,285	108,726	0,159	0,136
-318,270	-200,000	0,040	0,137
-317,256	-56,744	0,123	-0,039
-316,241	-1,526	-0,087	0,044
-315,226	205,848	0,046	0,052
-314,212	-53,202	0,254	0,083
-313,197	396,683	-0,071	-0,106
-312,183	25,868	0,086	0,051
-311,168	11,015	-0,041	0,022
-310,153	-61,638	-0,107	0,032
-309,139	-200,000	0,029	-0,093
-308,124	367,285	0,046	-0,067
-307,110	317,642	0,043	0,058
-306,095	324,864	0,042	0,058
-305,080	174,317	0,076	-0,078
-304,066	149,526	-0,052	0,050
-303,051	270,117	-0,051	0,065
-302,037	6,406	-0,137	0,073
-301,022	800,000	0,068	-0,170
-300,008	23,099	0,051	-0,030
-298,993	800,000	-0,033	0,102
-297,978	800,000	-0,027	0,072
-296,964	-58,147	0,143	-0,044
-295,949	-200,000	-0,010	-0,095
-294,935	11,983	-0,080	0,044
-293,920	-51,678	-0,108	0,036
-292,905	120,838	-0,057	-0,051
-291,891	-200,000	-0,001	-0,020
-290,876	630,307	0,080	0,146
-289,862	87,155	-0,055	0,044
-288,847	-21,732	-0,073	0,032
-287,832	-165,023	-0,058	0,002
-286,818	-200,000	0,011	0,059
-285,803	569,815	0,031	0,055
-284,789	628,538	-0,000	-0,001
-283,774	196,840	0,090	0,098
-282,759	-9,155	0,028	-0,013
-281,745	-200,000	0,045	-0,145
-280,730	708,451	0,030	0,058
-279,716	577,100	-0,033	0,058
-278,701	-200,000	-0,003	-0,038
-277,686	800,000	0,048	-0,095
-276,672	-200,000	-0,015	0,061
-275,657	800,000	0,009	0,025
-274,643	800,000	-0,041	-0,118
-273,628	800,000	0,014	-0,041
-272,613	59,810	0,038	0,027
-271,599	-108,606	0,136	0,021
-270,584	800,000	-0,058	-0,129
-269,570	-163,918	0,078	0,003
-268,555	-40,285	-0,045	-0,017
-267,540	-200,000	-0,014	0,069
-266,526	309,409	0,082	-0,110
-265,511	-200,000	-0,006	-0,138
-264,497	-117,763	-0,133	-0,017
-263,482	173,912	0,066	-0,068
-262,467	-108,778	0,122	-0,018
-261,453	417,735	0,036	0,055
-260,438	-103,515	0,016	-0,003
-259,424	61,317	-0,069	0,049
-258,409	584,989	0,017	-0,029
-257,395	-200,000	-0,016	0,062
-256,380	-200,000	0,011	0,113
-255,365	775,560	0,050	0,097
-254,351	800,000	-0,024	-0,050
-253,336	800,000	-0,029	0,082
-252,322	-112,234	-0,039	0,006
-251,307	276,435	-0,121	0,153
-250,292	-200,000	0,024	-0,129
-249,278	-116,713	0,163	-0,021
-248,263	-200,000	0,002	-0,018
-247,249	144,308	-0,027	-0,026
-246,234	18,524	-0,106	-0,060
-245,219	-30,994	-0,087	0,035
-244,205	171,692	-0,015	0,016
-243,190	246,411	-0,009	0,011
-242,176	24,670	-0,065	0,039
-241,161	221,980	0,058	0,067
-240,146	790,309	0,032	0,064
-239,132	233,123	-0,050	-0,059
-238,117	-200,000	0,026	-0,088
-237,103	-24,942	-0,037	-0,016
-236,088	-53,453	0,110	0,036
-235,073	-200,000	0,020	0,158
-234,059	-200,000	0,002	0,026
-233,044	-127,971	0,078	-0,008
-232,030	477,735	-0,030	-0,048
-231,015	-200,000	-0,013	0,096
-230,000	372,405	0,044	-0,065
-228,986	-136,704	-0,019	-0,002
-227,971	-200,000	-0,004	0,083
-226,957	-181,194	0,138	0,002
-225,942	-152,770	0,082	-0,004
-224,927	-71,442	-0,075	-0,020
-223,913	-200,000	0,001	-0,018
-222,898	-51,852	-0,139	-0,046
-221,884	800,000	-0,054	0,166
-220,869	-200,000	0,018	0,131
-219,855	-36,790	0,097	0,037
-218,840	-200,000	0,002	0,108
-217,825	406,514	0,036	-0,054
-216,811	-190,535	-0,097	0,001
-215,796	-157,921	-0,068	0,003
-214,782	9,086	0,006	0,003
-213,767	-200,000	0,044	0,163
-212,752	64,025	-0,034	-0,024
-211,738	326,438	-0,096	-0,132
-210,723	73,973	0,128	0,096
-209,709	-92,718	-0,041	0,008
-208,694	-88,496	-0,121	-0,026
-207,679	53,887	-0,052	0,036
-206,665	800,000	0,084	0,173
-205,650	-68,441	0,087	-0,024
-204,636	-100,066	-0,158	0,028
-203,621	-110,506	0,076	0,011
-202,606	60,752	0,124	0,087
-201,592	800,000	0,046	-0,115
-200,577	146,800	-0,115	-0,110
-199,563	-134,757	-0,120	0,010
-198,548	265,075	0,035	0,044
-197,533	397,048	0,071	0,106
-196,519	387,805	-0,027	0,040
-195,504	-200,000	0,028	0,148
-194,490	33,627	-0,190	-0,117
-193,475	-61,088	-0,041	0,012
-192,460	400,094	-0,047	0,071
-191,446	-200,000	0,001	0,071
-190,431	569,472	0,045	0,078
-189,417	-139,335	0,186	0,014
-188,402	800,000	-0,019	0,047
-187,387	-52,431	-0,026	0,009
-186,373	338,261	-0,026	0,037
-185,358	-200,000	0,044	0,000
-184,344	282,026	0,020	0,026
-183,329	787,620	0,051	0,100
-182,315	-46,060	0,097	-0,034
-181,300	-113,407	-0,145	0,020
-180,285	-22,728	0,073	0,031
-179,271	104,200	0,055	-0,046
-178,256	-125,236	-0,102	-0,011
-177,242	-200,000	-0,005	0,124
-176,227	64,096	0,078	0,056
-175,212	-200,000	-0,015	0,129
-174,198	37,787	0,056	-0,036
-173,183	-123,672	-0,110	0,012
-172,169	800,000	-0,019	0,058
-171,154	-50,571	0,070	-0,023
-170,139	-200,000	0,005	0,104
-169,125	132,718	-0,055	-0,051
-168,110	-60,259	-0,053	-0,016
-167,096	-62,213	0,084	0,025
-166,081	800,000	-0,049	-0,151
-165,066	-126,326	-0,032	0,003
-164,052	-200,000	-0,005	0,142
-163,037	-0,826	0,088	0,044
-162,023	800,000	0,065	-0,169
-161,008	-93,366	0,046	-0,009
-159,993	-200,000	0,047	-0,176
-158,979	302,058	-0,095	-0,126
-157,964	131,888	-0,086	0,078
-156,950	-46,368	-0,093	-0,032
-155,935	132,444	0,024	0,022
-154,920	307,437	-0,037	-0,049
-153,906	-200,000	0,005	-0,030
-152,891	800,000	-0,079	-0,183
-151,877	180,369	-0,025	-0,026
-150,862	528,187	-0,032	-0,054
-149,847	480,814	-0,047	-0,076
-148,833	800,000	-0,029	-0,075
-147,818	243,649	-0,018	-0,021
-146,804	-200,000	0,004	0,042
-145,789	476,797	0,066	-0,106
-144,775	2,908	0,047	-0,024
-143,760	7,627	-0,054	-0,028
-142,745	-200,000	-0,004	-0,133
-141,731	800,000	0,031	-0,079
-140,716	800,000	-0,014	0,040
-139,702	-33,764	0,079	0,031
-138,687	532,914	0,011	0,019
-137,672	-200,000	-0,021	-0,084
-136,658	700,167	0,071	-0,133
-135,643	43,076	0,027	-0,017
-134,629	96,015	-0,025	0,021
-133,614	-200,000	-0,006	0,032
-132,599	-136,983	0,106	0,009
-131,585	203,115	0,097	0,107
-130,570	-116,010	-0,179	0,023
-129,556	14,550	-0,143	0,079
-128,541	-200,000	0,009	0,046
-127,526	-200,000	0,000	-0,116
-126,512	53,593	-0,034	0,023
-125,497	-200,000	0,000	0,021
-124,483	-200,000	-0,036	0,189
-123,468	-80,115	-0,046	0,011
-122,453	-200,000	0,022	-0,086
-121,439	-200,000	0,031	-0,136
-120,424	800,000	-0,024	0,056
-119,410	19,621	0,108	0,062
