DTS Sentinel unit serial number:	SN410029Multiplexer serial number:	ORYXHardware model number:	OX2-SRSoftware version number:	ORYX F/W v4,00 Oryx Data Collector v3.7.2.0data status	okinstallation	BH3 CH2differential loss correction	single-endedforward channel	channel 2reverse channel	N/Adate	2023/12/05time	21:32:28forward acquisition time	300,00reverse acquisition time	0,00gamma	499,1914k internal	0,3193k external	0,3193temperature offset calibration	1,0000default loss term (dB/km)	0,3820temperature slope calibration	1,0000multiplexer offset coefficient	1,0000multiplexer slope coefficient	1,0000fibre end	0,00T internal ref (°C)	10,28T ext. ref 1 (°C)	-4,63T ext. ref 2 (°C)	-4,71length (m)	temperature (°C)	Stokes	anti-Stokes-744,400	574,068	-0,046	-0,082
-743,385	-106,105	-0,254	0,041
-742,371	800,000	-0,096	-0,213
-741,356	4,286	-0,163	0,087
-740,342	-129,171	-0,083	-0,008
-739,327	-92,715	-0,216	0,044
-738,312	-200,000	0,002	-0,035
-737,298	-119,684	-0,201	-0,025
-736,283	-7,399	0,024	0,012
-735,269	-144,087	-0,272	0,018
-734,254	-200,000	0,021	-0,101
-733,239	-173,557	-0,386	0,008
-732,225	-200,000	0,006	-0,104
-731,210	30,698	0,051	0,032
-730,196	375,615	-0,043	0,064
-729,181	64,981	-0,069	0,051
-728,167	122,834	-0,084	0,076
-727,152	688,989	-0,074	0,142
-726,137	-200,000	0,037	0,137
-725,123	541,712	0,085	-0,148
-724,108	14,501	-0,080	-0,045
-723,094	0,559	-0,173	-0,090
-722,079	-43,244	-0,154	-0,056
-721,064	420,907	-0,041	0,064
-720,050	-37,729	0,106	-0,041
-719,035	-156,891	-0,149	0,007
-718,021	-8,906	0,191	-0,093
-717,006	72,334	-0,030	-0,022
-715,991	-74,279	-0,018	-0,005
-714,977	298,362	0,008	0,011
-713,962	-200,000	0,010	-0,110
-712,948	-145,820	0,018	0,001
-711,933	47,689	-0,042	0,029
-710,918	-177,340	0,090	0,002
-709,904	337,509	-0,129	-0,183
-708,889	-200,000	-0,024	-0,099
-707,875	-200,000	0,009	-0,161
-706,860	-77,382	-0,163	-0,041
-705,845	-13,801	-0,075	0,035
-704,831	315,352	0,061	0,085
-703,816	-200,000	-0,000	0,083
-702,802	-181,219	0,135	0,002
-701,787	495,110	0,045	-0,075
-700,772	-78,030	0,045	0,011
-699,758	800,000	0,017	0,053
-698,743	215,973	0,194	0,224
-697,729	712,050	0,048	-0,093
-696,714	270,767	0,077	-0,099
-695,699	-51,276	-0,146	-0,049
-694,685	-120,355	-0,109	-0,013
-693,670	26,943	0,095	-0,058
-692,656	800,000	0,020	0,054
-691,641	-200,000	-0,015	0,133
-690,627	233,236	0,132	0,159
-689,612	415,231	0,093	0,145
-688,597	309,713	0,031	0,042
-687,583	67,868	-0,085	-0,063
-686,568	-200,000	0,009	-0,093
-685,554	-60,133	0,048	0,015
-684,539	-130,714	0,088	0,008
-683,524	-168,780	-0,117	0,003
-682,510	316,355	-0,041	0,056
-681,495	-200,000	0,029	-0,098
-680,481	-144,345	-0,157	0,010
-679,466	-83,054	0,059	0,014
-678,451	-200,000	-0,028	0,095
-677,437	-0,306	0,118	0,061
-676,422	-200,000	-0,022	0,194
-675,408	-62,107	0,053	-0,016
-674,393	28,033	0,023	0,014
-673,378	-200,000	0,003	-0,044
-672,364	800,000	0,009	-0,021
-671,349	-200,000	-0,008	-0,059
-670,335	-35,384	0,169	0,066
-669,320	117,278	-0,118	-0,106
-668,305	-62,113	0,068	0,021
-667,291	161,015	0,094	0,096
-666,276	374,797	-0,080	-0,119
-665,262	-200,000	-0,009	0,093
-664,247	124,588	-0,027	0,024
-663,232	41,927	-0,078	-0,051
-662,218	-60,517	-0,036	-0,011
-661,203	-4,952	0,085	-0,042
-660,189	63,976	-0,158	-0,115
-659,174	-41,859	0,070	-0,026
-658,159	-97,346	-0,108	-0,020
-657,145	800,000	0,022	-0,046
-656,130	-72,876	-0,032	0,008
-655,116	449,270	0,026	-0,042
-654,101	-200,000	0,032	0,175
-653,086	141,719	-0,044	0,043
-652,072	-32,276	-0,132	-0,053
-651,057	303,694	0,004	-0,006
-650,043	146,854	-0,066	0,064
-649,028	-6,323	0,085	0,042
-648,014	38,267	-0,036	0,023
-646,999	-52,441	-0,084	-0,028
-645,984	640,610	0,058	-0,107
-644,970	-69,910	-0,159	-0,044
-643,955	119,164	-0,049	0,044
-642,941	59,684	0,069	0,049
-641,926	800,000	0,018	-0,037
-640,911	-137,974	-0,038	-0,003
-639,897	308,539	0,058	0,078
-638,882	239,721	-0,022	-0,026
-637,868	-132,506	-0,181	-0,017
-636,853	-200,000	-0,048	-0,000
-635,838	211,830	0,070	-0,080
-634,824	-133,766	0,117	-0,010
-633,809	-6,122	-0,111	-0,055
-632,795	800,000	0,032	-0,073
-631,780	8,437	-0,168	0,091
-630,765	-200,000	0,005	0,029
-629,751	800,000	0,039	-0,111
-628,736	-64,659	-0,093	-0,027
-627,722	800,000	0,035	0,081
-626,707	-53,609	0,009	-0,003
-625,692	-153,503	0,051	-0,003
-624,678	51,763	-0,139	0,096
-623,663	-105,518	0,164	0,027
-622,649	-35,021	-0,207	-0,081
-621,634	247,216	-0,012	-0,015
-620,619	-200,000	-0,021	-0,203
-619,605	117,554	0,028	-0,025
-618,590	-200,000	0,012	0,092
-617,576	-200,000	-0,003	-0,048
-616,561	54,880	0,111	-0,078
-615,546	-24,473	-0,134	0,058
-614,532	-200,000	0,011	-0,046
-613,517	-200,000	0,014	-0,049
-612,503	-200,000	0,010	-0,071
-611,488	-8,415	0,037	-0,018
-610,474	800,000	-0,013	-0,040
-609,459	-200,000	0,017	-0,090
-608,444	-200,000	0,017	-0,074
-607,430	375,936	0,020	0,030
-606,415	-200,000	0,014	-0,141
-605,401	-102,233	0,055	-0,009
-604,386	22,961	0,089	0,053
-603,371	-89,191	0,079	-0,017
-602,357	52,814	-0,094	0,065
-601,342	-94,395	0,047	-0,009
-600,328	-200,000	0,000	-0,041
-599,313	143,155	0,064	0,062
-598,298	355,060	-0,029	-0,042
-597,284	-200,000	-0,002	-0,019
-596,269	-200,000	-0,004	-0,035
-595,255	-200,000	0,009	-0,088
-594,240	105,756	-0,028	0,024
-593,225	-200,000	-0,017	-0,127
-592,211	60,005	-0,081	-0,058
-591,196	149,609	0,085	0,083
-590,182	800,000	-0,062	0,178
-589,167	163,368	0,067	0,068
-588,152	-94,640	-0,100	0,020
-587,138	130,533	-0,064	-0,060
-586,123	94,465	-0,154	-0,127
-585,109	127,373	0,014	-0,012
-584,094	22,448	0,094	-0,056
-583,079	800,000	-0,026	0,078
-582,065	-40,216	-0,122	0,046
-581,050	-97,583	-0,097	0,018
-580,036	-200,000	-0,003	-0,063
-579,021	600,866	-0,020	0,036
-578,006	800,000	-0,047	0,106
-576,992	-25,027	0,088	0,037
-575,977	48,018	-0,049	-0,033
-574,963	-22,984	-0,047	0,020
-573,948	682,953	-0,030	0,057
-572,934	-15,407	0,023	-0,011
-571,919	208,410	-0,017	0,019
-570,904	-44,504	-0,121	-0,044
-569,890	163,720	-0,042	-0,043
-568,875	-37,169	-0,133	0,051
-567,861	573,751	0,042	-0,074
-566,846	-200,000	-0,024	-0,078
-565,831	-119,130	-0,020	0,002
-564,817	88,407	-0,100	-0,081
-563,802	-37,733	-0,034	0,013
-562,788	-21,377	-0,096	0,042
-561,773	173,470	0,094	-0,098
-560,758	584,831	0,011	0,019
-559,744	432,657	-0,015	-0,024
-558,729	77,782	-0,073	0,057
-557,715	115,802	0,009	0,008
-556,700	-52,367	0,095	0,032
-555,685	-131,741	0,212	0,020
-554,671	54,555	0,121	0,084
-553,656	-46,666	0,055	-0,019
-552,642	-200,000	0,015	-0,052
-551,627	-200,000	0,008	-0,077
-550,612	40,370	-0,136	-0,088
-549,598	326,995	0,045	0,063
-548,583	800,000	-0,017	-0,043
-547,569	-200,000	0,002	-0,018
-546,554	404,281	-0,053	-0,081
-545,539	203,453	-0,064	0,072
-544,525	86,714	0,114	-0,091
-543,510	-118,836	-0,114	0,014
-542,496	800,000	-0,043	-0,092
-541,481	40,594	-0,133	-0,087
-540,466	-183,327	0,056	-0,001
-539,452	-27,408	0,070	-0,029
-538,437	80,648	-0,041	0,032
-537,423	97,198	-0,096	-0,079
-536,408	-194,646	0,071	0,000
-535,393	-105,006	0,101	-0,017
-534,379	34,079	-0,098	-0,061
-533,364	145,257	-0,041	0,040
-532,350	-200,000	-0,031	0,169
-531,335	800,000	0,029	0,059
-530,321	235,508	0,033	0,040
-529,306	-200,000	-0,025	0,175
-528,291	-101,735	-0,058	0,010
-527,277	184,067	-0,097	-0,104
-526,262	-60,142	0,023	-0,007
-525,248	-105,975	-0,084	0,014
-524,233	-200,000	0,009	0,070
-523,218	-200,000	0,026	0,150
-522,204	-200,000	-0,022	0,082
-521,189	-200,000	0,008	-0,134
-520,175	-162,561	0,058	0,002
-519,160	-200,000	-0,003	-0,035
-518,145	4,371	0,073	0,038
-517,131	-59,226	-0,074	0,023
-516,116	-39,334	-0,104	0,039
-515,102	-200,000	0,027	0,198
-514,087	-131,313	-0,087	-0,008
-513,072	800,000	-0,031	-0,087
-512,058	118,247	-0,122	0,108
-511,043	-115,101	0,013	-0,002
-510,029	-87,932	0,106	0,023
-509,014	177,762	0,096	-0,101
-507,999	-10,669	-0,056	-0,027
-506,985	-200,000	-0,005	-0,143
-505,970	-200,000	0,039	-0,163
-504,956	233,246	0,044	-0,053
-503,941	800,000	-0,060	0,139
-502,926	62,359	0,037	-0,026
-501,912	-200,000	-0,002	0,069
-500,897	158,291	-0,078	0,078
-499,883	-200,000	-0,015	-0,099
-498,868	-117,612	-0,085	-0,011
-497,853	238,407	0,092	0,111
-496,839	36,661	-0,192	-0,122
-495,824	800,000	0,029	0,066
-494,810	-200,000	-0,018	0,159
-493,795	800,000	-0,038	0,084
-492,781	205,612	-0,057	0,064
-491,766	264,375	-0,102	-0,128
-490,751	800,000	0,019	0,046
-489,737	-150,242	-0,032	-0,002
-488,722	-138,002	0,101	-0,008
-487,708	155,530	0,036	0,036
-486,693	79,790	0,032	-0,025
-485,678	-200,000	-0,001	-0,029
-484,664	341,004	0,097	0,138
-483,649	2,137	-0,023	-0,012
-482,635	-200,000	0,009	-0,155
-481,620	220,761	0,080	0,093
-480,605	-200,000	0,024	-0,134
-479,591	196,782	0,053	-0,059
-478,576	800,000	-0,035	-0,087
-477,562	-166,170	0,071	0,002
-476,547	239,706	-0,089	-0,107
-475,532	-18,556	0,095	-0,042
-474,518	-200,000	-0,005	-0,060
-473,503	800,000	-0,021	-0,057
-472,489	181,511	0,124	0,131
-471,474	-200,000	-0,033	0,109
-470,459	74,984	-0,053	-0,041
-469,445	679,885	0,013	-0,024
-468,430	-140,716	0,113	-0,008
-467,416	-60,266	0,154	0,047
-466,401	67,324	0,079	0,058
-465,386	71,234	-0,030	-0,023
-464,372	680,711	-0,085	-0,161
-463,357	-69,985	-0,008	0,002
-462,343	192,348	-0,094	-0,102
-461,328	-200,000	-0,004	-0,074
-460,313	800,000	0,016	0,048
-459,299	661,471	-0,066	0,124
-458,284	-200,000	-0,022	0,179
-457,270	-200,000	0,013	0,050
-456,255	-118,523	-0,066	-0,008
-455,241	265,428	-0,136	-0,171
-454,226	-127,774	-0,129	0,013
-453,211	-200,000	-0,021	-0,086
-452,197	34,532	-0,047	-0,030
-451,182	-37,796	0,096	-0,037
-450,168	41,449	-0,064	-0,041
-449,153	-200,000	-0,007	0,121
-448,138	31,377	-0,034	-0,021
-447,124	149,698	-0,089	0,087
-446,109	235,806	-0,027	-0,033
-445,095	-200,000	0,008	0,067
-444,080	-200,000	-0,002	0,029
-443,065	-200,000	-0,031	-0,104
-442,051	15,979	0,150	0,085
-441,036	418,084	0,025	-0,038
-440,022	-5,176	0,007	-0,004
-439,007	113,431	-0,046	0,041
-437,992	13,599	0,036	0,020
-436,978	800,000	0,071	0,187
-435,963	207,537	-0,059	-0,066
-434,949	-200,000	-0,014	-0,076
-433,934	109,896	-0,043	0,037
-432,919	-200,000	-0,011	0,043
-431,905	-200,000	0,013	-0,083
-430,890	800,000	0,029	0,060
-429,876	789,942	-0,022	0,044
-428,861	283,895	0,053	0,069
-427,846	-200,000	-0,021	-0,079
-426,832	112,165	0,072	0,063
-425,817	-167,472	-0,054	0,002
-424,803	138,000	-0,066	-0,062
-423,788	800,000	0,025	-0,053
-422,773	-43,067	0,140	0,051
-421,759	-121,401	-0,064	0,008
-420,744	86,005	0,060	-0,047
-419,730	173,376	0,139	0,144
-418,715	-137,692	0,037	-0,003
-417,701	-200,000	-0,034	-0,205
-416,686	-74,920	0,075	-0,019
-415,671	-169,258	0,187	0,005
-414,657	241,969	-0,090	0,108
-413,642	181,702	0,042	0,044
-412,628	386,737	0,028	-0,042
-411,613	-191,737	0,031	-0,000
-410,598	53,748	0,115	-0,079
-409,584	-32,588	-0,107	-0,043
-408,569	-155,069	-0,022	-0,001
-407,555	75,234	0,067	0,051
-406,540	-12,075	0,098	-0,046
-405,525	-200,000	-0,023	-0,076
-404,511	10,421	-0,059	-0,032
-403,496	321,001	-0,030	-0,042
-402,482	-200,000	-0,004	0,066
-401,467	800,000	0,036	-0,075
-400,452	78,699	0,085	-0,065
-399,438	-200,000	0,030	0,139
-398,423	49,905	-0,057	0,039
-397,409	-51,615	-0,090	-0,030
-396,394	-200,000	0,011	0,047
-395,379	-200,000	0,015	0,081
-394,365	-105,751	0,053	0,008
-393,350	32,345	-0,019	-0,012
-392,336	800,000	0,091	0,185
-391,321	192,117	-0,078	-0,084
-390,306	800,000	-0,014	-0,037
-389,292	347,139	0,045	0,064
-388,277	-200,000	0,009	0,029
-387,263	-2,385	-0,086	-0,043
-386,248	-17,529	0,075	0,034
-385,233	30,741	0,041	-0,025
-384,219	800,000	0,029	0,059
-383,204	-59,650	0,062	-0,019
-382,190	129,587	-0,076	-0,070
-381,175	-46,201	-0,056	-0,020
-380,160	800,000	0,037	0,116
-379,146	-200,000	-0,001	0,025
-378,131	563,940	0,082	0,144
-377,117	340,345	0,099	0,139
-376,102	43,969	-0,117	0,077
-375,088	143,000	0,044	-0,042
-374,073	-84,950	-0,134	-0,030
-373,058	-20,498	0,040	-0,018
-372,044	236,292	0,050	0,060
-371,029	100,870	0,046	0,039
-370,015	-63,442	-0,100	0,029
-369,000	-200,000	-0,000	-0,068
-367,985	-7,421	0,057	0,028
-366,971	-200,000	-0,004	-0,065
-365,956	800,000	-0,040	-0,080
-364,942	510,263	0,042	-0,071
-363,927	-76,104	0,046	0,012
-362,912	634,814	0,043	0,080
-361,898	271,575	0,011	-0,014
-360,883	-200,000	0,006	-0,079
-359,869	800,000	-0,041	-0,097
-358,854	800,000	0,046	-0,103
-357,839	198,536	0,109	0,120
-356,825	212,988	0,037	0,042
-355,810	-9,676	-0,102	-0,048
-354,796	800,000	-0,017	0,049
-353,781	800,000	-0,064	-0,152
-352,766	-76,705	-0,137	-0,034
-351,752	-200,000	-0,030	-0,141
-350,737	-43,350	0,252	-0,091
-349,723	-52,785	0,119	-0,039
-348,708	479,477	0,044	0,072
-347,693	213,415	-0,040	-0,046
-346,679	456,146	-0,043	-0,069
-345,664	-200,000	-0,044	-0,178
-344,650	-200,000	-0,002	0,029
-343,635	-49,471	0,102	0,035
-342,620	-200,000	-0,000	0,110
-341,606	-200,000	-0,001	0,039
-340,591	374,616	-0,052	-0,077
-339,577	-16,099	-0,069	0,031
-338,562	-8,452	-0,065	-0,031
-337,548	-200,000	-0,006	-0,081
-336,533	515,216	0,029	0,049
-335,518	47,035	0,100	0,067
-334,504	477,780	0,108	0,176
-333,489	-200,000	0,006	-0,050
-332,475	-14,622	-0,042	-0,019
-331,460	800,000	-0,058	-0,125
-330,445	21,901	-0,087	-0,051
-329,431	800,000	0,030	0,083
-328,416	800,000	-0,010	0,024
-327,402	-127,632	-0,066	-0,007
-326,387	-200,000	-0,004	-0,081
-325,372	-200,000	0,016	-0,107
-324,358	-200,000	-0,043	-0,148
-323,343	-24,433	0,070	0,030
-322,329	-200,000	-0,010	0,045
-321,314	-19,404	0,107	0,047
-320,299	800,000	0,017	0,055
-319,285	-17,745	-0,116	0,052
-318,270	20,561	0,158	-0,091
-317,256	13,610	-0,072	0,040
-316,241	-48,632	0,047	-0,016
-315,226	-144,477	0,111	-0,007
-314,212	-34,208	-0,043	0,017
-313,197	27,698	-0,023	0,014
-312,183	129,984	0,048	-0,044
-311,168	114,545	-0,101	-0,088
-310,153	-0,564	0,033	0,017
-309,139	-90,795	0,065	-0,013
-308,124	12,031	-0,077	0,042
-307,110	800,000	0,033	-0,093
-306,095	70,140	0,204	0,151
-305,080	-200,000	0,004	-0,059
-304,066	689,789	0,020	-0,038
-303,051	-200,000	-0,006	-0,093
-302,037	135,775	-0,060	-0,056
-301,022	-200,000	0,003	0,071
-300,008	373,717	-0,097	0,141
-298,993	-74,604	0,050	0,013
-297,978	98,083	0,090	0,074
-296,964	10,156	-0,011	0,006
-295,949	92,569	0,008	-0,006
-294,935	-106,123	-0,104	0,017
-293,920	118,568	-0,023	0,020
-292,905	800,000	-0,028	-0,089
-291,891	-200,000	-0,026	0,174
-290,876	44,948	0,057	0,037
-289,862	-200,000	0,007	-0,046
-288,847	226,722	-0,055	-0,064
-287,832	507,612	-0,036	-0,060
-286,818	-200,000	0,008	-0,119
-285,803	-200,000	0,001	0,070
-284,789	-200,000	0,008	-0,036
-283,774	182,158	0,070	-0,074
-282,759	-31,306	-0,048	-0,019
-281,745	-23,904	0,150	0,064
-280,730	20,707	0,024	0,014
-279,716	-200,000	0,008	0,034
-278,701	82,049	0,179	0,139
-277,686	800,000	0,049	0,107
-276,672	-107,613	-0,108	-0,017
-275,657	-200,000	0,033	0,130
-274,643	-120,392	-0,101	0,012
-273,628	-200,000	0,012	-0,140
-272,613	-200,000	-0,015	0,047
-271,599	800,000	0,041	-0,093
-270,584	170,062	-0,141	0,145
-269,570	-115,264	0,165	0,022
-268,555	145,992	-0,074	-0,071
-267,540	180,561	0,076	0,080
-266,526	61,957	-0,103	0,074
-265,511	41,871	-0,085	-0,055
-264,497	800,000	0,040	-0,091
-263,482	507,861	0,033	0,055
-262,467	-200,000	-0,035	0,178
-261,453	545,653	-0,041	-0,070
-260,438	-134,865	-0,013	-0,001
-259,424	85,320	0,108	0,085
-258,409	-200,000	0,003	0,061
-257,395	595,780	0,031	-0,056
-256,380	-200,000	0,019	0,103
-255,365	-33,900	0,100	0,039
-254,351	-57,243	0,036	0,011
-253,336	-67,325	-0,121	0,034
-252,322	364,733	-0,078	-0,112
-251,307	27,443	0,015	0,009
-250,292	-132,285	0,107	-0,010
-249,278	-200,000	-0,011	0,034
-248,263	83,595	0,032	-0,025
-247,249	-129,185	0,115	-0,011
-246,234	538,861	-0,117	0,199
-245,219	-200,000	0,014	0,076
-244,205	58,888	0,089	-0,063
-243,190	-108,451	-0,039	0,006
-242,176	-200,000	-0,004	0,024
-241,161	71,378	0,070	0,052
-240,146	-200,000	-0,001	0,029
-239,132	-140,128	-0,102	0,008
-238,117	-29,416	-0,049	0,020
-237,103	-1,695	0,069	-0,035
-236,088	-200,000	-0,001	-0,075
-235,073	-58,567	0,085	0,026
-234,059	56,464	0,108	0,075
-233,044	173,727	0,057	-0,059
-232,030	-200,000	0,011	-0,049
-231,015	800,000	0,053	-0,147
-230,000	738,032	-0,020	0,038
-228,986	800,000	-0,051	0,105
-227,971	-159,161	-0,105	0,004
-226,957	-144,357	0,185	-0,012
-225,942	800,000	-0,023	0,073
-224,927	-200,000	-0,018	0,109
-223,913	42,949	0,036	-0,024
-222,898	-200,000	-0,004	-0,194
-221,884	-200,000	-0,002	-0,159
-220,869	-27,171	0,122	-0,050
-219,855	800,000	0,063	-0,134
-218,840	-118,948	0,156	0,019
-217,825	216,494	0,100	-0,113
-216,811	33,776	-0,127	0,079
-215,796	220,216	-0,017	0,020
-214,782	-89,453	-0,170	-0,035
-213,767	-42,855	0,126	0,046
-212,752	-200,000	0,009	-0,041
-211,738	-89,166	0,151	-0,032
-210,723	754,799	0,074	0,144
-209,709	-25,934	-0,152	0,064
-208,694	-200,000	-0,015	0,051
-207,679	-13,815	-0,125	-0,057
-206,665	-52,256	-0,067	0,022
-205,650	-36,400	0,082	-0,031
-204,636	-200,000	-0,046	0,241
-203,621	552,769	0,017	-0,029
-202,606	77,352	0,054	0,041
-201,592	236,577	-0,018	-0,021
-200,577	381,459	-0,005	0,007
-199,563	-200,000	-0,022	-0,094
-198,548	97,694	0,083	0,068
-197,533	475,780	-0,051	-0,083
-196,519	-1,096	-0,034	0,017
-195,504	-200,000	0,006	-0,054
-194,490	800,000	-0,037	-0,110
-193,475	800,000	-0,029	-0,070
-192,460	-108,008	0,031	-0,005
-191,446	800,000	0,045	0,093
-190,431	800,000	0,054	0,117
-189,417	-70,258	0,038	0,010
-188,402	-12,852	-0,047	0,022
-187,387	699,800	-0,056	0,106
-186,373	330,214	-0,053	0,073
-185,358	800,000	0,050	-0,130
-184,344	-31,662	-0,141	-0,056
-183,329	800,000	0,059	0,165
-182,315	52,548	0,058	0,040
-181,300	46,255	-0,120	-0,079
-180,285	-200,000	-0,027	0,104
-179,271	-200,000	0,011	-0,147
-178,256	800,000	-0,038	0,106
-177,242	-71,937	-0,088	0,023
-176,227	800,000	0,027	0,076
-175,212	-200,000	-0,020	0,081
-174,198	-9,858	-0,143	-0,068
-173,183	800,000	0,012	0,032
-172,169	-80,021	-0,044	-0,010
-171,154	-48,219	0,063	0,022
-170,139	-200,000	-0,026	0,152
-169,125	195,196	0,048	0,052
-168,110	-200,000	0,028	0,172
-167,096	15,348	0,056	-0,031
-166,081	-200,000	-0,034	-0,170
-165,066	527,290	0,067	-0,112
-164,052	362,296	-0,040	-0,058
-163,037	800,000	0,019	0,039
-162,023	34,578	0,026	-0,016
-161,008	-7,044	0,026	-0,013
-159,993	-56,974	0,098	-0,031
-158,979	243,676	0,031	0,037
-157,964	82,218	-0,035	0,027
-156,950	-94,282	-0,129	-0,025
-155,935	800,000	-0,006	-0,016
-154,920	123,668	-0,007	0,006
-153,906	-200,000	0,009	0,096
-152,891	800,000	-0,033	0,071
-151,877	120,784	-0,109	0,096
-150,862	19,887	-0,161	-0,092
-149,847	41,694	-0,110	-0,071
-148,833	-117,535	0,016	-0,002
-147,818	-18,009	0,100	0,044
-146,804	257,183	0,081	0,099
-145,789	724,989	0,047	0,090
-144,775	-137,787	-0,077	-0,006
-143,760	-36,181	-0,074	-0,028
-142,745	-200,000	0,009	-0,129
-141,731	784,014	0,015	-0,030
-140,716	102,287	0,052	0,043
-139,702	800,000	0,028	0,087
-138,687	-184,579	-0,158	-0,002
-137,672	57,837	-0,035	-0,025
-136,658	-88,140	-0,111	0,023
-135,643	12,735	-0,024	-0,013
-134,629	-104,178	0,068	0,011
-133,614	-200,000	0,006	0,116
-132,599	125,127	0,078	0,070
-131,585	-110,435	0,086	0,013
-130,570	-160,039	-0,112	-0,004
-129,556	800,000	-0,014	0,032
-128,541	-122,795	0,015	0,002
-127,526	149,261	-0,064	-0,061
-126,512	-179,202	-0,031	-0,000
-125,497	-58,447	0,217	0,067
-124,483	-200,000	0,028	0,103
-123,468	19,491	0,069	0,039
-122,453	118,045	-0,044	-0,039
-121,439	-200,000	0,006	0,053
-120,424	-200,000	0,051	-0,205
-119,410	800,000	-0,005	-0,010
