DTS Sentinel unit serial number:	SN410029Multiplexer serial number:	ORYXHardware model number:	OX2-SRSoftware version number:	ORYX F/W v4,00 Oryx Data Collector v3.7.2.0data status	okinstallation	BH3 CH2differential loss correction	single-endedforward channel	channel 2reverse channel	N/Adate	2023/12/05time	19:02:28forward acquisition time	300,00reverse acquisition time	0,00gamma	499,1914k internal	0,3193k external	0,3193temperature offset calibration	1,0000default loss term (dB/km)	0,3820temperature slope calibration	1,0000multiplexer offset coefficient	1,0000multiplexer slope coefficient	1,0000fibre end	0,00T internal ref (°C)	10,62T ext. ref 1 (°C)	-3,89T ext. ref 2 (°C)	-4,05length (m)	temperature (°C)	Stokes	anti-Stokes-744,400	5,546	-0,095	-0,051
-743,385	23,684	-0,333	0,199
-742,371	-200,000	-0,011	0,071
-741,356	302,914	-0,077	0,104
-740,342	246,513	-0,145	-0,178
-739,327	113,273	-0,038	-0,033
-738,312	645,150	-0,036	-0,067
-737,298	25,727	-0,221	0,134
-736,283	-7,731	-0,087	-0,043
-735,269	32,716	-0,323	0,203
-734,254	-51,875	-0,094	0,032
-733,239	-113,401	-0,231	-0,033
-732,225	-81,239	0,126	-0,030
-731,210	-105,978	0,081	0,013
-730,196	-56,105	-0,076	-0,024
-729,181	-20,307	0,049	-0,022
-728,167	150,677	-0,063	-0,063
-727,152	798,584	0,012	0,023
-726,137	8,641	-0,073	-0,040
-725,123	-50,854	-0,107	-0,036
-724,108	-94,767	-0,063	-0,012
-723,094	800,000	-0,017	-0,040
-722,079	800,000	-0,060	-0,189
-721,064	800,000	0,009	0,025
-720,050	734,851	-0,046	0,090
-719,035	22,010	-0,094	0,056
-718,021	246,216	-0,017	0,021
-717,006	-200,000	-0,029	0,137
-715,991	218,490	-0,056	-0,065
-714,977	464,003	0,030	0,049
-713,962	800,000	0,045	0,141
-712,948	-200,000	0,007	0,104
-711,933	-60,564	-0,041	0,013
-710,918	62,054	-0,012	-0,008
-709,904	-24,876	-0,063	0,027
-708,889	71,491	-0,095	-0,071
-707,875	-0,536	0,042	-0,022
-706,860	23,205	0,068	0,040
-705,845	17,908	-0,110	0,064
-704,831	268,677	-0,030	0,039
-703,816	-153,857	0,021	0,001
-702,802	800,000	-0,016	0,049
-701,787	22,306	-0,123	-0,073
-700,772	-82,317	0,107	-0,025
-699,758	176,924	-0,042	-0,045
-698,743	-117,796	-0,095	0,012
-697,729	118,561	-0,093	0,083
-696,714	-200,000	-0,040	-0,131
-695,699	455,133	-0,086	-0,139
-694,685	184,228	0,046	0,050
-693,670	-200,000	-0,002	0,068
-692,656	-200,000	0,002	0,080
-691,641	800,000	0,022	-0,052
-690,627	313,154	0,035	0,047
-689,612	800,000	-0,091	0,210
-688,597	-200,000	0,001	-0,088
-687,583	-200,000	-0,011	-0,148
-686,568	800,000	0,041	-0,120
-685,554	-1,465	0,107	-0,055
-684,539	-65,207	0,134	0,039
-683,524	800,000	0,024	-0,060
-682,510	18,682	-0,059	0,034
-681,495	190,690	-0,093	-0,102
-680,481	-200,000	0,009	0,075
-679,466	58,516	-0,042	0,030
-678,451	55,593	0,030	0,021
-677,437	794,994	-0,015	-0,031
-676,422	-171,020	0,044	-0,001
-675,408	181,511	-0,058	0,062
-674,393	800,000	-0,040	-0,096
-673,378	-200,000	-0,016	-0,151
-672,364	410,237	0,033	-0,051
-671,349	800,000	-0,017	0,048
-670,335	-119,453	0,049	-0,006
-669,320	-200,000	0,001	0,022
-668,305	-200,000	0,003	-0,017
-667,291	800,000	-0,046	-0,104
-666,276	282,922	0,045	-0,059
-665,262	-74,134	0,025	0,006
-664,247	233,755	-0,081	-0,097
-663,232	177,445	-0,032	0,034
-662,218	-200,000	-0,037	0,193
-661,203	230,092	0,045	0,053
-660,189	283,787	-0,077	0,101
-659,174	484,123	-0,005	-0,009
-658,159	-131,299	-0,061	-0,006
-657,145	292,407	0,068	0,090
-656,130	-113,899	0,029	0,004
-655,116	563,863	-0,034	0,061
-654,101	-92,430	-0,058	0,012
-653,086	48,013	-0,116	0,079
-652,072	20,586	0,074	0,044
-651,057	10,262	-0,039	-0,022
-650,043	-200,000	-0,001	0,018
-649,028	800,000	-0,016	-0,036
-648,014	-200,000	-0,000	-0,047
-646,999	57,142	0,051	0,036
-645,984	800,000	-0,072	0,217
-644,970	254,230	0,074	0,092
-643,955	800,000	0,013	-0,027
-642,941	-200,000	-0,067	-0,226
-641,926	-3,116	-0,049	-0,025
-640,911	-138,064	0,109	0,009
-639,897	-200,000	0,004	0,016
-638,882	-44,726	0,046	0,017
-637,868	240,957	-0,035	0,042
-636,853	800,000	0,030	-0,065
-635,838	-24,503	-0,064	0,028
-634,824	-133,545	0,021	0,002
-633,809	720,627	0,020	-0,038
-632,795	126,668	0,158	-0,145
-631,780	395,644	0,032	0,049
-630,765	250,599	-0,078	0,097
-629,751	-35,934	-0,094	-0,037
-628,736	-48,031	-0,040	-0,014
-627,722	85,059	-0,038	-0,030
-626,707	111,529	0,183	0,160
-625,692	-200,000	0,012	0,044
-624,678	-200,000	-0,019	-0,067
-623,663	-200,000	0,009	-0,042
-622,649	46,229	-0,195	-0,131
-621,634	800,000	-0,031	-0,074
-620,619	193,405	-0,157	0,173
-619,605	102,835	0,075	0,064
-618,590	-17,727	0,028	-0,013
-617,576	-93,585	0,065	-0,013
-616,561	800,000	-0,071	0,151
-615,546	278,416	-0,039	-0,051
-614,532	-200,000	0,000	-0,000
-613,517	-102,801	0,009	-0,002
-612,503	377,789	-0,106	-0,158
-611,488	-168,016	0,024	0,001
-610,474	-200,000	-0,029	0,156
-609,459	71,989	0,050	-0,038
-608,444	220,218	0,096	-0,111
-607,430	462,018	-0,049	0,079
-606,415	60,056	-0,053	0,038
-605,401	-8,047	-0,061	-0,030
-604,386	-200,000	0,005	0,151
-603,371	800,000	0,011	0,036
-602,357	-200,000	-0,032	0,187
-601,342	-55,024	0,032	-0,010
-600,328	-24,240	-0,166	-0,072
-599,313	-200,000	-0,026	-0,112
-598,298	-200,000	0,005	-0,020
-597,284	800,000	0,024	-0,073
-596,269	2,104	0,032	0,017
-595,255	-200,000	0,003	-0,046
-594,240	657,869	-0,012	-0,023
-593,225	-92,559	-0,131	-0,026
-592,211	13,164	0,040	-0,023
-591,196	347,870	0,085	-0,122
-590,182	628,822	-0,034	-0,062
-589,167	-200,000	-0,004	0,022
-588,152	285,825	-0,024	0,031
-587,138	218,058	-0,012	-0,014
-586,123	130,641	0,134	-0,124
-585,109	-41,975	0,005	0,002
-584,094	-57,209	0,132	-0,042
-583,079	-200,000	0,002	-0,124
-582,065	-200,000	0,115	-0,000
-581,050	323,873	-0,059	0,082
-580,036	-55,947	0,120	0,039
-579,021	-171,096	-0,058	-0,001
-578,006	-200,000	0,028	-0,194
-576,992	467,429	-0,012	0,019
-575,977	282,703	-0,084	0,110
-574,963	800,000	-0,008	-0,021
-573,948	800,000	-0,033	-0,071
-572,934	63,409	-0,029	0,021
-571,919	-69,752	-0,108	0,030
-570,904	-200,000	0,023	-0,106
-569,890	88,270	-0,074	0,060
-568,875	317,530	0,059	-0,082
-567,861	-200,000	-0,002	-0,094
-566,846	-200,000	-0,008	0,071
-565,831	472,989	-0,031	-0,050
-564,817	364,349	-0,073	0,107
-563,802	800,000	0,087	-0,214
-562,788	-200,000	-0,002	-0,014
-561,773	619,555	0,017	0,032
-560,758	693,652	0,044	0,084
-559,744	133,759	-0,167	0,157
-558,729	-200,000	0,007	0,116
-557,715	-200,000	0,002	0,177
-556,700	-133,826	-0,032	0,003
-555,685	-51,809	0,044	-0,015
-554,671	112,552	0,047	0,041
-553,656	-4,100	0,059	-0,030
-552,642	-200,000	0,018	0,069
-551,627	-72,027	-0,161	0,043
-550,612	-200,000	0,004	0,021
-549,598	134,327	0,043	0,040
-548,583	-200,000	0,003	-0,177
-547,569	-26,558	-0,106	-0,045
-546,554	800,000	-0,033	-0,100
-545,539	-200,000	0,016	-0,052
-544,525	162,870	-0,095	0,097
-543,510	111,065	0,054	-0,047
-542,496	-200,000	0,013	-0,162
-541,481	-200,000	-0,022	-0,072
-540,466	-200,000	-0,013	-0,059
-539,452	532,773	0,083	0,142
-538,437	56,930	0,097	-0,068
-537,423	800,000	-0,027	-0,067
-536,408	86,421	0,144	-0,114
-535,393	0,085	-0,090	-0,046
-534,379	415,914	-0,070	-0,109
-533,364	36,004	-0,021	-0,013
-532,350	-200,000	0,048	0,171
-531,335	424,778	0,032	0,051
-530,321	2,017	0,050	0,026
-529,306	12,464	-0,075	-0,042
-528,291	-69,004	-0,056	-0,015
-527,277	-200,000	0,020	-0,100
-526,262	-26,590	0,061	0,026
-525,248	74,151	0,106	0,080
-524,233	26,489	-0,067	0,040
-523,218	-200,000	0,012	0,045
-522,204	-200,000	0,016	-0,096
-521,189	200,605	0,068	-0,076
-520,175	800,000	-0,014	-0,039
-519,160	-121,495	0,024	0,003
-518,145	-168,067	0,051	0,001
-517,131	-200,000	-0,007	0,148
-516,116	341,411	-0,035	0,049
-515,102	800,000	0,023	0,048
-514,087	-17,776	0,053	-0,024
-513,072	65,906	-0,169	-0,124
-512,058	86,257	0,030	-0,024
-511,043	301,959	-0,030	-0,040
-510,029	228,970	-0,073	0,086
-509,014	-62,428	0,109	0,032
-507,999	-200,000	0,008	0,237
-506,985	-73,044	-0,044	-0,012
-505,970	-66,199	0,070	-0,020
-504,956	110,041	-0,083	-0,072
-503,941	72,756	0,083	0,062
-502,926	-200,000	-0,002	0,046
-501,912	14,866	0,147	0,083
-500,897	177,958	-0,033	0,035
-499,883	83,764	-0,086	-0,067
-498,868	-200,000	-0,012	-0,168
-497,853	800,000	-0,017	-0,042
-496,839	276,655	0,047	-0,061
-495,824	256,672	-0,066	0,082
-494,810	-17,515	0,080	-0,036
-493,795	-78,710	0,074	-0,018
-492,781	419,821	0,043	0,067
-491,766	379,603	-0,091	-0,134
-490,751	-57,803	-0,109	0,034
-489,737	212,333	0,065	0,074
-488,722	-200,000	-0,012	-0,070
-487,708	-42,841	0,108	0,040
-486,693	-200,000	-0,005	0,051
-485,678	-200,000	0,009	0,100
-484,664	800,000	0,029	-0,087
-483,649	-74,463	-0,142	0,037
-482,635	-95,220	0,074	-0,014
-481,620	-200,000	-0,004	0,075
-480,605	-185,398	-0,054	-0,001
-479,591	82,683	-0,037	-0,029
-478,576	-91,751	-0,179	0,036
-477,562	-200,000	-0,008	-0,105
-476,547	-200,000	0,006	0,066
-475,532	-200,000	0,023	-0,074
-474,518	2,212	-0,023	0,012
-473,503	235,029	0,016	-0,019
-472,489	-200,000	-0,022	0,111
-471,474	800,000	-0,042	0,093
-470,459	130,848	-0,031	0,029
-469,445	595,676	0,075	-0,134
-468,430	141,152	-0,113	-0,107
-467,416	-90,036	0,143	-0,030
-466,401	800,000	0,026	0,082
-465,386	228,524	0,060	-0,071
-464,372	800,000	0,041	0,102
-463,357	108,423	-0,111	-0,096
-462,343	-200,000	-0,040	0,164
-461,328	71,609	-0,059	-0,044
-460,313	-95,753	0,147	0,028
-459,299	-30,630	0,079	0,032
-458,284	254,417	0,090	0,111
-457,270	-76,989	-0,035	0,009
-456,255	13,895	0,043	-0,024
-455,241	-194,864	-0,098	-0,001
-454,226	-200,000	-0,001	-0,008
-453,211	-90,453	0,057	0,012
-452,197	486,644	-0,052	0,086
-451,182	642,614	0,041	0,076
-450,168	800,000	-0,038	0,077
-449,153	-197,958	-0,024	-0,000
-448,138	29,425	-0,051	-0,031
-447,124	51,647	-0,093	0,064
-446,109	800,000	-0,019	-0,053
-445,095	800,000	0,012	0,037
-444,080	39,477	0,111	0,071
-443,065	-72,691	-0,014	-0,004
-442,051	-200,000	-0,013	0,047
-441,036	17,003	0,071	-0,040
-440,022	165,307	-0,089	-0,091
-439,007	233,032	-0,057	0,067
-437,992	-102,579	0,113	0,019
-436,978	-200,000	0,014	0,173
-435,963	800,000	-0,038	-0,084
-434,949	-34,817	0,130	0,051
-433,934	-200,000	-0,003	0,053
-432,919	157,503	-0,068	0,068
-431,905	-56,390	-0,091	0,029
-430,890	-9,491	0,098	0,047
-429,876	104,258	0,080	0,067
-428,861	800,000	-0,015	0,037
-427,846	-200,000	-0,017	-0,219
-426,832	-65,765	-0,060	-0,017
-425,817	484,964	-0,046	-0,076
-424,803	636,073	-0,022	0,040
-423,788	-158,528	0,078	0,003
-422,773	-114,842	-0,024	-0,003
-421,759	-200,000	0,012	-0,042
-420,744	-200,000	-0,006	0,060
-419,730	-60,200	-0,076	0,023
-418,715	-200,000	0,002	-0,101
-417,701	-200,000	-0,002	0,027
-416,686	-200,000	0,005	-0,044
-415,671	-200,000	0,000	0,104
-414,657	212,062	-0,023	-0,026
-413,642	-26,882	-0,111	-0,046
-412,628	800,000	-0,048	-0,137
-411,613	656,308	-0,044	-0,082
-410,598	800,000	-0,065	-0,186
-409,584	800,000	0,044	0,136
-408,569	21,587	0,057	-0,033
-407,555	-194,684	-0,091	0,000
-406,540	-80,492	-0,122	-0,029
-405,525	7,926	0,078	-0,042
-404,511	-143,716	-0,038	-0,003
-403,496	-96,139	-0,127	0,024
-402,482	-200,000	-0,011	-0,112
-401,467	800,000	-0,054	0,160
-400,452	-10,200	0,170	0,081
-399,438	126,967	-0,052	-0,048
-398,423	-200,000	-0,004	-0,083
-397,409	721,145	0,101	-0,194
-396,394	-200,000	-0,011	-0,086
-395,379	24,768	0,079	0,047
-394,365	-63,025	-0,104	0,031
-393,350	712,131	0,031	-0,059
-392,336	20,257	0,175	0,101
-391,321	800,000	0,046	-0,112
-390,306	800,000	-0,019	-0,055
-389,292	259,857	-0,028	0,035
-388,277	113,906	0,121	-0,105
-387,263	114,982	0,063	-0,055
-386,248	-197,628	-0,049	-0,000
-385,233	-1,336	0,120	0,061
-384,219	-141,368	-0,046	-0,003
-383,204	-200,000	-0,016	0,085
-382,190	149,765	0,071	0,069
-381,175	-200,000	-0,038	0,137
-380,160	-200,000	-0,006	0,175
-379,146	800,000	-0,034	0,072
-378,131	-112,863	0,080	0,011
-377,117	24,047	0,032	0,019
-376,102	-141,317	-0,159	-0,011
-375,088	254,957	-0,031	0,039
-374,073	-200,000	0,014	-0,135
-373,058	23,656	0,034	-0,020
-372,044	-85,269	0,112	-0,025
-371,029	-143,953	0,097	0,006
-370,015	-94,227	-0,062	-0,012
-369,000	88,329	0,060	-0,047
-367,985	-200,000	0,032	-0,146
-366,971	-41,978	-0,129	0,047
-365,956	-106,928	0,045	-0,007
-364,942	-29,805	-0,054	-0,022
-363,927	-121,479	0,056	0,007
-362,912	674,347	0,038	-0,071
-361,898	159,829	0,050	0,050
-360,883	800,000	-0,071	0,148
-359,869	-184,311	0,019	0,000
-358,854	90,027	0,035	-0,028
-357,839	344,620	0,071	0,101
-356,825	-200,000	0,043	-0,150
-355,810	408,030	0,056	-0,085
-354,796	307,397	-0,092	0,123
-353,781	774,253	-0,044	-0,087
-352,766	800,000	-0,025	-0,053
-351,752	-118,750	0,010	0,001
-350,737	67,346	-0,041	-0,030
-349,723	-200,000	0,023	0,113
-348,708	-178,059	0,009	-0,000
-347,693	376,014	0,036	-0,053
-346,679	-200,000	-0,007	-0,027
-345,664	-36,281	-0,134	0,052
-344,650	800,000	-0,016	-0,032
-343,635	-46,277	0,054	-0,019
-342,620	-2,259	-0,056	-0,028
-341,606	-140,828	0,142	0,010
-340,591	800,000	-0,018	0,051
-339,577	-105,185	-0,069	0,011
-338,562	82,037	0,040	-0,031
-337,548	-50,406	0,097	0,033
-336,533	800,000	0,023	0,051
-335,518	47,724	0,053	-0,035
-334,504	112,231	-0,039	0,034
-333,489	-200,000	-0,020	-0,092
-332,475	-51,175	-0,014	-0,005
-331,460	74,775	-0,104	0,078
-330,445	-20,480	0,133	0,058
-329,431	372,904	-0,074	0,108
-328,416	242,808	0,025	-0,030
-327,402	-137,346	-0,014	0,001
-326,387	137,306	-0,031	-0,029
-325,372	189,436	-0,063	-0,068
-324,358	-200,000	0,014	0,045
-323,343	-90,474	-0,152	0,031
-322,329	240,199	0,073	0,087
-321,314	0,064	0,014	-0,007
-320,299	406,364	0,008	0,012
-319,285	469,298	-0,038	0,061
-318,270	-55,677	-0,060	0,019
-317,256	101,117	0,121	-0,101
-316,241	328,968	0,049	0,068
-315,226	256,245	-0,073	-0,091
-314,212	89,494	-0,034	-0,027
-313,197	800,000	0,040	0,112
-312,183	-200,000	-0,028	-0,147
-311,168	-200,000	0,001	0,091
-310,153	-200,000	0,012	-0,076
-309,139	-200,000	-0,014	-0,140
-308,124	800,000	-0,013	-0,030
-307,110	162,495	-0,010	0,010
-306,095	-46,678	0,075	-0,026
-305,080	-200,000	0,021	0,069
-304,066	-200,000	-0,002	0,018
-303,051	-200,000	0,011	-0,097
-302,037	-71,026	0,103	0,027
-301,022	-37,620	-0,063	-0,024
-300,008	106,674	0,040	0,034
-298,993	-63,514	0,054	0,016
-297,978	800,000	-0,025	-0,053
-296,964	-200,000	0,000	0,168
-295,949	-117,113	0,026	0,003
-294,935	-23,632	-0,018	-0,008
-293,920	-200,000	0,008	-0,040
-292,905	800,000	-0,034	0,083
-291,891	-200,000	0,042	0,160
-290,876	200,188	0,056	0,062
-289,862	60,119	-0,114	0,081
-288,847	-121,954	-0,090	-0,010
-287,832	144,259	0,054	-0,051
-286,818	172,446	-0,005	0,006
-285,803	394,971	0,030	0,044
-284,789	635,811	-0,007	0,012
-283,774	271,124	-0,048	0,061
-282,759	-200,000	-0,009	-0,074
-281,745	-139,613	0,114	0,009
-280,730	-200,000	-0,006	-0,042
-279,716	-200,000	0,029	-0,094
-278,701	230,873	-0,064	-0,075
-277,686	-53,468	0,052	-0,017
-276,672	277,123	0,036	0,046
-275,657	-97,300	-0,261	-0,048
-274,643	259,066	-0,049	-0,061
-273,628	-113,775	-0,093	-0,013
-272,613	-97,307	0,080	0,015
-271,599	183,645	0,046	0,049
-270,584	197,601	0,085	0,093
-269,570	254,580	-0,070	0,086
-268,555	-200,000	-0,034	0,126
-267,540	294,524	0,037	0,049
-266,526	800,000	-0,036	-0,075
-265,511	-47,809	0,133	-0,046
-264,497	371,148	0,020	0,029
-263,482	48,230	-0,055	-0,037
-262,467	-200,000	0,040	0,164
-261,453	165,963	0,092	0,093
-260,438	26,492	0,028	-0,017
-259,424	198,570	-0,072	-0,079
-258,409	-44,154	0,060	0,021
-257,395	408,355	-0,030	-0,046
-256,380	776,690	-0,017	0,034
-255,365	179,628	0,072	-0,075
-254,351	76,324	0,040	-0,030
-253,336	134,939	-0,155	-0,144
-252,322	800,000	-0,052	-0,122
-251,307	-32,327	0,130	-0,052
-250,292	-200,000	0,001	-0,014
-249,278	-200,000	0,010	0,079
-248,263	464,945	-0,042	0,068
-247,249	-200,000	-0,004	0,026
-246,234	-127,981	-0,015	-0,002
-245,219	-200,000	0,004	-0,087
-244,205	199,056	0,091	-0,100
-243,190	-114,966	0,061	0,008
-242,176	423,612	0,063	0,097
-241,161	800,000	0,029	0,079
-240,146	-54,680	-0,062	-0,020
-239,132	112,073	-0,056	-0,048
-238,117	-131,728	0,044	0,004
-237,103	-200,000	0,047	-0,153
-236,088	117,659	-0,046	0,041
-235,073	232,664	0,089	0,104
-234,059	800,000	0,046	0,108
-233,044	51,366	0,170	0,115
-232,030	1,623	0,057	0,029
-231,015	131,957	-0,051	-0,047
-230,000	81,598	-0,091	0,071
-228,986	384,999	-0,036	-0,053
-227,971	-200,000	0,017	-0,163
-226,957	-72,602	-0,150	0,039
-225,942	800,000	0,057	0,113
-224,927	126,848	-0,171	0,155
-223,913	395,322	-0,013	0,020
-222,898	19,571	-0,114	-0,065
-221,884	-164,110	0,107	0,003
-220,869	163,899	0,075	0,075
-219,855	-106,147	0,118	-0,019
-218,840	49,670	0,124	0,083
-217,825	199,331	-0,032	-0,035
-216,811	114,305	-0,026	-0,023
-215,796	30,060	-0,122	0,074
-214,782	52,580	0,063	-0,043
-213,767	-36,998	0,044	-0,017
-212,752	286,420	-0,030	-0,038
-211,738	800,000	-0,041	0,109
-210,723	283,921	0,023	-0,030
-209,709	218,074	-0,019	-0,022
-208,694	135,143	-0,035	0,032
-207,679	81,315	-0,052	-0,040
-206,665	-200,000	-0,027	-0,095
-205,650	800,000	-0,028	-0,065
-204,636	-110,832	0,299	-0,044
-203,621	-87,875	-0,171	-0,036
-202,606	604,519	-0,095	-0,170
-201,592	518,052	-0,047	-0,080
-200,577	-24,299	0,127	0,054
-199,563	351,913	-0,067	0,094
-198,548	-124,758	0,096	0,010
-197,533	-77,203	0,050	0,012
-196,519	-200,000	-0,041	0,158
-195,504	-117,746	-0,058	-0,007
-194,490	27,577	-0,128	-0,077
-193,475	4,538	0,174	0,091
-192,460	-200,000	0,033	-0,181
-191,446	800,000	-0,009	0,026
-190,431	218,476	-0,024	0,027
-189,417	132,064	0,077	0,070
-188,402	-69,524	0,030	-0,008
-187,387	800,000	-0,034	-0,085
-186,373	-200,000	-0,021	-0,068
-185,358	24,602	0,065	-0,038
-184,344	-2,804	-0,054	-0,027
-183,329	-42,730	-0,072	-0,026
-182,315	-200,000	-0,026	0,084
-181,300	43,970	-0,048	-0,032
-180,285	-11,378	-0,028	-0,013
-179,271	-200,000	-0,007	-0,158
-178,256	-151,443	-0,026	0,001
-177,242	798,658	-0,040	0,079
-176,227	60,460	0,118	0,083
-175,212	292,704	0,092	0,120
-174,198	179,550	-0,083	-0,087
-173,183	-39,221	-0,112	0,042
-172,169	-159,641	0,038	0,001
-171,154	-200,000	0,005	0,029
-170,139	-170,032	-0,036	-0,001
-169,125	75,343	0,103	-0,077
-168,110	-200,000	-0,004	0,043
-167,096	-200,000	0,012	0,046
-166,081	774,532	0,045	-0,087
-165,066	-200,000	-0,027	-0,144
-164,052	-108,588	-0,059	-0,009
-163,037	-200,000	-0,011	0,067
-162,023	800,000	-0,035	0,088
-161,008	142,245	-0,057	0,054
-159,993	-123,812	0,037	0,004
-158,979	-99,872	-0,110	0,019
-157,964	-11,605	-0,085	0,040
-156,950	-200,000	0,014	-0,068
-155,935	-11,370	0,170	0,079
-154,920	-0,104	-0,075	0,038
-153,906	800,000	0,047	-0,107
-152,891	87,548	0,070	-0,055
-151,877	-200,000	0,017	0,059
-150,862	479,203	-0,065	-0,105
-149,847	-143,336	-0,181	-0,012
-148,833	64,998	0,133	0,095
-147,818	800,000	0,020	0,062
-146,804	3,612	-0,044	0,023
-145,789	-86,533	-0,074	-0,016
-144,775	172,003	-0,024	-0,025
-143,760	-104,255	-0,073	0,012
-142,745	800,000	0,055	-0,110
-141,731	151,289	0,064	-0,062
-140,716	361,094	0,021	0,030
-139,702	-200,000	-0,009	0,031
-138,687	-66,676	-0,121	-0,034
-137,672	-134,979	0,062	0,005
-136,658	800,000	-0,047	-0,104
-135,643	-200,000	-0,019	0,093
-134,629	-25,804	-0,055	0,023
-133,614	265,098	0,060	-0,075
-132,599	-161,778	0,082	0,003
-131,585	-200,000	0,037	0,182
-130,570	-200,000	0,020	0,102
-129,556	331,661	0,063	-0,087
-128,541	253,632	0,018	0,022
-127,526	-29,897	0,117	-0,047
-126,512	-200,000	-0,007	0,023
-125,497	-167,324	0,098	-0,003
-124,483	40,071	0,071	0,045
-123,468	-200,000	-0,009	-0,050
-122,453	-136,649	-0,079	0,006
-121,439	-33,755	0,016	-0,006
-120,424	-74,299	-0,053	-0,014
-119,410	133,647	0,047	0,043
