DTS Sentinel unit serial number:	SN410029Multiplexer serial number:	ORYXHardware model number:	OX2-SRSoftware version number:	ORYX F/W v4,00 Oryx Data Collector v3.7.2.0data status	okinstallation	BH3 CH2differential loss correction	single-endedforward channel	channel 2reverse channel	N/Adate	2023/12/06time	06:37:28forward acquisition time	300,00reverse acquisition time	0,00gamma	499,1914k internal	0,3197k external	0,3197temperature offset calibration	1,0000default loss term (dB/km)	0,3820temperature slope calibration	1,0000multiplexer offset coefficient	1,0000multiplexer slope coefficient	1,0000fibre end	0,00T internal ref (°C)	8,89T ext. ref 1 (°C)	-5,77T ext. ref 2 (°C)	-5,89length (m)	temperature (°C)	Stokes	anti-Stokes-744,400	-200,000	-0,014	-0,051
-743,385	-143,777	-0,199	0,014
-742,371	35,361	-0,043	-0,028
-741,356	177,095	-0,198	0,210
-740,342	99,685	-0,094	-0,079
-739,327	221,475	-0,119	0,139
-738,312	-200,000	-0,003	-0,076
-737,298	50,092	-0,273	0,188
-736,283	-200,000	-0,016	-0,133
-735,269	-89,252	-0,216	0,046
-734,254	-200,000	-0,012	-0,149
-733,239	-101,713	-0,353	-0,062
-732,225	-200,000	-0,002	-0,085
-731,210	-200,000	-0,021	0,145
-730,196	-60,515	-0,066	0,020
-729,181	-98,240	-0,090	-0,017
-728,167	-16,419	0,057	0,026
-727,152	20,211	-0,203	0,119
-726,137	-37,501	-0,099	-0,038
-725,123	-200,000	0,009	0,064
-724,108	524,212	-0,030	0,052
-723,094	62,093	-0,176	-0,127
-722,079	-7,474	-0,033	-0,016
-721,064	367,525	0,003	-0,004
-720,050	-42,062	-0,099	0,037
-719,035	410,232	-0,028	0,043
-718,021	-72,067	-0,131	0,035
-717,006	-200,000	0,042	-0,168
-715,991	314,768	-0,080	-0,111
-714,977	133,333	-0,126	0,118
-713,962	469,369	-0,021	0,034
-712,948	-200,000	0,018	0,083
-711,933	-108,603	0,090	-0,014
-710,918	-115,461	-0,206	0,028
-709,904	521,453	-0,091	-0,156
-708,889	-200,000	0,029	-0,120
-707,875	-200,000	-0,003	-0,029
-706,860	-200,000	0,007	0,095
-705,845	800,000	-0,034	-0,075
-704,831	199,806	0,064	0,072
-703,816	114,466	-0,125	-0,111
-702,802	-92,768	0,066	-0,013
-701,787	-200,000	-0,020	-0,167
-700,772	-200,000	-0,008	-0,187
-699,758	-200,000	0,011	-0,076
-698,743	332,952	0,042	-0,059
-697,729	-200,000	0,000	-0,005
-696,714	-102,773	-0,027	0,005
-695,699	-99,592	-0,017	0,003
-694,685	-76,449	0,062	0,016
-693,670	477,341	0,022	0,036
-692,656	434,029	-0,061	-0,096
-691,641	-200,000	-0,018	-0,099
-690,627	-200,000	0,046	0,172
-689,612	800,000	0,019	0,046
-688,597	-81,816	-0,079	0,019
-687,583	-200,000	-0,033	-0,155
-686,568	145,212	0,011	-0,011
-685,554	-200,000	-0,015	-0,064
-684,539	-7,954	0,070	0,034
-683,524	-93,952	-0,029	-0,006
-682,510	-35,551	-0,036	0,014
-681,495	-30,506	-0,035	-0,014
-680,481	-200,000	0,032	-0,170
-679,466	135,667	-0,033	-0,031
-678,451	-200,000	0,007	-0,042
-677,437	800,000	-0,031	-0,087
-676,422	557,169	-0,066	0,116
-675,408	800,000	-0,019	-0,054
-674,393	685,730	-0,078	0,149
-673,378	-16,077	-0,051	-0,023
-672,364	107,700	0,166	-0,144
-671,349	140,778	0,029	0,028
-670,335	42,577	-0,098	0,065
-669,320	215,876	-0,067	-0,078
-668,305	-200,000	-0,013	-0,045
-667,291	241,555	-0,016	-0,019
-666,276	75,750	-0,054	-0,041
-665,262	-136,621	0,044	-0,004
-664,247	249,202	-0,033	-0,040
-663,232	-200,000	-0,005	-0,057
-662,218	-68,863	0,065	-0,018
-661,203	36,013	0,105	0,067
-660,189	-54,668	0,098	-0,032
-659,174	137,841	-0,151	-0,144
-658,159	-33,450	0,126	0,050
-657,145	623,682	0,051	-0,093
-656,130	800,000	-0,028	-0,074
-655,116	800,000	0,035	-0,101
-654,101	-200,000	-0,005	0,046
-653,086	294,995	0,056	0,075
-652,072	-200,000	-0,007	0,033
-651,057	800,000	-0,044	-0,117
-650,043	-200,000	-0,050	-0,210
-649,028	411,999	-0,107	-0,166
-648,014	234,979	0,045	0,054
-646,999	-200,000	-0,012	0,154
-645,984	-30,153	-0,050	0,021
-644,970	96,745	0,031	-0,026
-643,955	728,845	0,065	-0,127
-642,941	-51,307	0,079	0,027
-641,926	-83,224	0,028	0,007
-640,911	-73,157	-0,147	0,039
-639,897	-98,987	-0,031	-0,006
-638,882	-124,707	-0,091	0,010
-637,868	-63,423	-0,104	-0,031
-636,853	369,550	-0,033	-0,048
-635,838	-172,677	-0,229	0,005
-634,824	-143,012	-0,198	0,014
-633,809	-200,000	0,006	0,048
-632,795	-129,017	-0,047	-0,005
-631,780	-45,187	0,074	0,026
-630,765	800,000	0,012	0,026
-629,751	109,202	-0,131	0,114
-628,736	0,225	-0,076	0,039
-627,722	194,094	0,072	0,079
-626,707	-14,888	-0,085	-0,039
-625,692	87,520	0,055	0,044
-624,678	615,949	0,021	0,038
-623,663	-121,392	0,039	0,005
-622,649	800,000	-0,018	-0,057
-621,634	-185,856	-0,146	0,002
-620,619	295,755	-0,080	-0,106
-619,605	277,040	0,079	0,102
-618,590	25,662	0,075	0,045
-617,576	-27,827	-0,096	0,040
-616,561	107,752	-0,131	0,113
-615,546	53,031	-0,146	0,101
-614,532	195,121	0,022	0,024
-613,517	117,939	-0,053	-0,047
-612,503	385,929	-0,054	0,081
-611,488	-132,004	0,046	0,004
-610,474	-169,825	0,108	-0,003
-609,459	25,266	-0,108	0,065
-608,444	800,000	-0,012	-0,027
-607,430	-200,000	-0,023	-0,193
-606,415	-116,433	-0,018	-0,002
-605,401	534,812	0,045	0,078
-604,386	-72,614	0,091	-0,024
-603,371	-50,102	0,191	0,065
-602,357	800,000	-0,038	0,106
-601,342	-98,932	0,049	0,009
-600,328	169,743	0,082	0,085
-599,313	-200,000	-0,004	-0,097
-598,298	-200,000	-0,017	-0,129
-597,284	-64,888	0,098	-0,028
-596,269	47,645	0,153	-0,103
-595,255	-200,000	-0,020	-0,113
-594,240	21,365	0,081	0,048
-593,225	282,009	0,026	-0,033
-592,211	-200,000	-0,008	-0,071
-591,196	800,000	-0,004	-0,012
-590,182	267,373	0,065	0,083
-589,167	-200,000	-0,004	0,065
-588,152	-200,000	-0,030	-0,176
-587,138	71,273	0,040	-0,030
-586,123	665,287	0,050	0,094
-585,109	800,000	0,029	-0,084
-584,094	-117,028	-0,010	-0,001
-583,079	-39,758	-0,027	-0,010
-582,065	-128,444	0,028	0,003
-581,050	332,371	-0,066	-0,092
-580,036	-155,584	0,025	-0,001
-579,021	-93,504	-0,023	-0,005
-578,006	800,000	-0,036	-0,101
-576,992	-200,000	-0,006	0,042
-575,977	423,458	0,068	0,106
-574,963	800,000	0,029	0,085
-573,948	758,908	0,026	-0,051
-572,934	201,603	0,062	-0,070
-571,919	-35,430	-0,105	0,041
-570,904	-200,000	0,005	-0,035
-569,890	751,785	-0,007	-0,013
-568,875	-20,485	-0,039	0,017
-567,861	-200,000	0,014	0,154
-566,846	-186,869	0,052	-0,001
-565,831	20,929	0,070	0,041
-564,817	170,319	0,011	0,011
-563,802	-25,158	-0,177	0,075
-562,788	800,000	-0,023	0,073
-561,773	-200,000	0,007	0,037
-560,758	94,178	-0,094	0,077
-559,744	751,106	-0,035	0,068
-558,729	159,421	-0,078	0,079
-557,715	-59,630	0,075	-0,023
-556,700	-200,000	-0,015	-0,072
-555,685	35,262	0,028	0,018
-554,671	93,860	-0,095	0,078
-553,656	-122,976	0,169	0,019
-552,642	-200,000	-0,026	0,112
-551,627	-200,000	0,032	-0,112
-550,612	-200,000	0,000	-0,046
-549,598	149,583	0,046	0,045
-548,583	-175,963	-0,056	-0,001
-547,569	-31,852	0,054	0,022
-546,554	155,802	0,041	0,041
-545,539	800,000	0,066	0,143
-544,525	-6,317	0,069	-0,034
-543,510	-200,000	0,001	0,008
-542,496	675,822	-0,011	0,020
-541,481	-172,911	-0,071	0,002
-540,466	-200,000	-0,022	-0,134
-539,452	800,000	-0,031	0,082
-538,437	-200,000	-0,005	0,077
-537,423	4,760	-0,066	0,035
-536,408	84,204	-0,080	-0,063
-535,393	387,535	-0,047	-0,071
-534,379	48,139	0,089	-0,060
-533,364	800,000	0,047	-0,130
-532,350	-28,500	-0,066	-0,027
-531,335	113,202	0,066	-0,058
-530,321	-200,000	-0,006	0,143
-529,306	95,047	0,023	-0,019
-528,291	599,387	0,083	-0,150
-527,277	-55,736	-0,131	-0,042
-526,262	38,241	0,149	0,096
-525,248	-34,425	0,054	0,021
-524,233	99,363	0,007	0,006
-523,218	372,794	-0,044	0,065
-522,204	800,000	-0,031	-0,063
-521,189	800,000	-0,050	-0,113
-520,175	725,649	-0,020	-0,038
-519,160	-16,223	-0,064	-0,029
-518,145	139,982	-0,032	0,030
-517,131	-66,999	-0,110	-0,031
-516,116	800,000	0,038	0,111
-515,102	-96,466	0,071	0,013
-514,087	-200,000	0,009	-0,040
-513,072	-200,000	-0,015	-0,086
-512,058	226,918	0,081	-0,095
-511,043	142,344	-0,024	-0,023
-510,029	117,695	-0,123	0,109
-509,014	370,129	0,013	-0,019
-507,999	6,508	0,023	0,012
-506,985	-200,000	-0,007	-0,078
-505,970	-200,000	-0,040	-0,159
-504,956	-200,000	-0,005	-0,097
-503,941	800,000	0,037	-0,083
-502,926	-200,000	0,009	0,150
-501,912	205,875	-0,055	0,062
-500,897	-200,000	0,012	-0,086
-499,883	-66,997	0,111	-0,031
-498,868	396,826	-0,112	-0,169
-497,853	208,421	-0,114	-0,128
-496,839	-140,036	0,171	-0,013
-495,824	800,000	0,032	0,065
-494,810	251,947	0,039	-0,048
-493,795	800,000	0,027	0,069
-492,781	-34,618	0,062	-0,024
-491,766	294,975	-0,031	-0,040
-490,751	347,694	0,037	-0,052
-489,737	63,450	-0,094	-0,068
-488,722	-25,914	0,089	-0,037
-487,708	800,000	-0,043	0,122
-486,693	-200,000	-0,003	0,131
-485,678	-200,000	-0,007	0,106
-484,664	225,441	0,104	-0,121
-483,649	800,000	-0,110	-0,228
-482,635	-149,049	0,096	-0,005
-481,620	-139,085	-0,090	-0,007
-480,605	-114,586	0,066	-0,009
-479,591	44,836	0,135	-0,090
-478,576	-200,000	-0,014	-0,079
-477,562	-67,963	-0,060	0,017
-476,547	54,240	-0,173	-0,120
-475,532	800,000	0,056	-0,115
-474,518	773,953	-0,037	0,073
-473,503	60,949	-0,053	-0,038
-472,489	225,819	-0,049	0,057
-471,474	5,791	0,088	0,047
-470,459	-43,196	-0,123	-0,045
-469,445	-47,173	-0,143	0,050
-468,430	800,000	0,051	-0,128
-467,416	-60,158	0,106	0,032
-466,401	-200,000	-0,003	-0,025
-465,386	115,963	-0,107	-0,094
-464,372	-123,800	-0,132	0,015
-463,357	595,706	0,052	0,093
-462,343	61,427	-0,070	-0,050
-461,328	-71,924	-0,035	0,009
-460,313	23,699	0,146	0,086
-459,299	137,895	0,128	0,121
-458,284	724,681	-0,103	0,198
-457,270	-68,836	-0,107	-0,029
-456,255	577,971	-0,077	0,136
-455,241	8,552	-0,127	-0,069
-454,226	-200,000	-0,010	-0,136
-453,211	-16,379	-0,029	-0,013
-452,197	800,000	-0,014	0,039
-451,182	-109,617	0,035	-0,005
-450,168	-136,674	-0,104	-0,008
-449,153	800,000	0,032	0,102
-448,138	788,133	0,043	0,086
-447,124	82,673	-0,081	-0,064
-446,109	-101,876	0,066	-0,011
-445,095	800,000	0,053	0,117
-444,080	167,159	0,025	0,026
-443,065	-47,427	0,059	0,021
-442,051	-200,000	-0,021	-0,132
-441,036	-200,000	-0,013	-0,052
-440,022	18,905	-0,136	-0,078
-439,007	176,440	-0,047	-0,049
-437,992	-154,761	0,082	-0,004
-436,978	368,520	-0,057	0,083
-435,963	606,548	-0,061	0,110
-434,949	68,429	-0,104	0,076
-433,934	800,000	0,009	0,027
-432,919	618,892	0,062	0,113
-431,905	-51,572	-0,066	-0,022
-430,890	215,681	0,047	-0,053
-429,876	-200,000	-0,009	0,107
-428,861	-114,570	-0,104	0,014
-427,846	-45,894	-0,031	-0,011
-426,832	-200,000	-0,001	-0,069
-425,817	-200,000	-0,003	-0,062
-424,803	279,655	-0,114	-0,147
-423,788	469,821	0,031	0,051
-422,773	192,822	0,060	0,065
-421,759	800,000	-0,055	-0,160
-420,744	800,000	-0,055	0,126
-419,730	-109,190	-0,068	0,010
-418,715	800,000	0,026	-0,055
-417,701	-1,251	-0,184	-0,093
-416,686	-1,269	0,105	0,053
-415,671	-102,864	-0,054	-0,009
-414,657	68,964	0,079	0,058
-413,642	59,125	-0,101	-0,071
-412,628	65,420	-0,068	-0,050
-411,613	104,197	-0,071	0,060
-410,598	-198,789	-0,063	0,000
-409,584	-63,733	-0,057	-0,017
-408,569	-145,944	0,079	-0,005
-407,555	323,829	-0,029	-0,040
-406,540	-194,906	0,045	0,000
-405,525	800,000	0,024	-0,064
-404,511	-151,172	0,122	-0,006
-403,496	-20,880	-0,077	0,034
-402,482	-200,000	-0,015	0,075
-401,467	334,440	0,054	0,076
-400,452	-200,000	-0,009	-0,157
-399,438	72,706	0,018	0,013
-398,423	-200,000	0,016	0,095
-397,409	532,069	-0,060	-0,102
-396,394	-11,909	-0,121	-0,057
-395,379	71,729	-0,029	0,021
-394,365	-1,102	0,051	0,026
-393,350	305,373	-0,068	0,092
-392,336	61,919	0,030	-0,021
-391,321	4,268	-0,075	-0,040
-390,306	415,523	-0,071	-0,109
-389,292	-200,000	-0,018	-0,133
-388,277	800,000	0,050	0,113
-387,263	66,514	0,053	0,039
-386,248	-200,000	-0,014	0,072
-385,233	-146,971	0,081	0,005
-384,219	210,369	-0,080	-0,090
-383,204	-95,733	0,088	-0,017
-382,190	210,624	-0,085	-0,096
-381,175	435,181	-0,108	0,170
-380,160	-63,660	0,102	-0,030
-379,146	800,000	-0,032	0,085
-378,131	393,030	-0,052	-0,078
-377,117	-30,158	-0,132	-0,054
-376,102	18,069	0,045	0,026
-375,088	437,310	-0,099	-0,156
-374,073	-74,402	0,066	-0,017
-373,058	794,316	-0,070	0,139
-372,044	799,615	-0,032	-0,064
-371,029	800,000	0,050	0,145
-370,015	201,820	0,042	0,046
-369,000	-200,000	0,006	0,068
-367,985	800,000	-0,055	-0,134
-366,971	182,996	-0,037	-0,039
-365,956	-200,000	0,008	-0,044
-364,942	153,130	0,028	0,028
-363,927	-28,005	0,072	0,030
-362,912	89,453	0,057	-0,045
-361,898	-45,669	-0,041	0,014
-360,883	800,000	-0,036	0,077
-359,869	305,419	0,070	0,094
-358,854	317,244	0,065	0,089
-357,839	800,000	-0,085	0,258
-356,825	-100,650	0,171	0,030
-355,810	800,000	0,041	-0,125
-354,796	-73,440	-0,069	0,018
-353,781	206,054	-0,082	-0,092
-352,766	-6,801	-0,024	0,012
-351,752	-200,000	-0,025	0,140
-350,737	-124,624	0,112	0,012
-349,723	-175,444	0,126	0,002
-348,708	-200,000	0,023	0,152
-347,693	800,000	-0,049	0,136
-346,679	800,000	0,024	-0,060
-345,664	800,000	0,024	-0,063
-344,650	-200,000	-0,030	0,141
-343,635	-200,000	0,014	0,080
-342,620	62,753	0,068	-0,048
-341,606	-200,000	-0,006	0,095
-340,591	-200,000	-0,010	0,091
-339,577	322,411	0,062	0,085
-338,562	157,741	0,058	-0,057
-337,548	198,734	0,018	0,020
-336,533	800,000	-0,048	0,121
-335,518	-200,000	-0,005	0,099
-334,504	-104,875	0,164	-0,027
-333,489	42,025	-0,183	-0,119
-332,475	800,000	0,018	-0,037
-331,460	-200,000	0,002	0,025
-330,445	446,524	0,054	-0,085
-329,431	288,280	0,065	0,084
-328,416	-56,645	0,136	0,043
-327,402	73,513	-0,062	0,046
-326,387	-140,247	-0,047	0,003
-325,372	800,000	-0,021	-0,063
-324,358	-13,625	-0,062	-0,029
-323,343	-80,672	0,089	-0,021
-322,329	74,746	0,020	-0,015
-321,314	3,083	0,085	0,044
-320,299	185,394	0,126	0,134
-319,285	-200,000	-0,001	-0,035
-318,270	111,200	0,033	-0,028
-317,256	-200,000	-0,003	-0,053
-316,241	-53,407	-0,104	0,034
-315,226	533,696	0,049	0,084
-314,212	284,680	0,045	0,057
-313,197	-200,000	0,006	0,060
-312,183	-149,574	0,061	-0,003
-311,168	-36,241	0,174	0,067
-310,153	112,283	0,025	-0,022
-309,139	800,000	0,059	0,168
-308,124	118,964	0,012	0,011
-307,110	-132,637	0,105	0,010
-306,095	242,457	0,093	0,112
-305,080	32,214	0,048	0,030
-304,066	263,858	-0,036	-0,045
-303,051	55,509	-0,082	0,057
-302,037	-139,322	-0,015	0,001
-301,022	-109,725	0,046	0,007
-300,008	357,692	0,035	0,050
-298,993	-150,299	0,113	-0,006
-297,978	-200,000	0,025	0,094
-296,964	-200,000	-0,012	-0,065
-295,949	-129,091	0,097	-0,010
-294,935	-8,894	0,051	-0,024
-293,920	596,623	0,064	0,114
-292,905	614,183	0,031	0,056
-291,891	800,000	0,005	0,012
-290,876	599,762	0,040	0,071
-289,862	-77,086	0,119	0,029
-288,847	-200,000	0,021	-0,070
-287,832	-200,000	-0,006	0,117
-286,818	351,875	0,059	-0,084
-285,803	44,877	0,035	-0,023
-284,789	-200,000	0,008	-0,101
-283,774	800,000	-0,011	-0,024
-282,759	800,000	0,030	-0,074
-281,745	-200,000	-0,002	-0,038
-280,730	-200,000	0,014	0,054
-279,716	-121,264	-0,027	0,003
-278,701	-107,969	-0,012	-0,002
-277,686	180,629	0,098	0,103
-276,672	104,894	-0,081	0,068
-275,657	800,000	-0,039	-0,108
-274,643	763,101	0,023	-0,044
-273,628	800,000	-0,052	-0,123
-272,613	129,480	0,059	-0,054
-271,599	-200,000	-0,018	0,077
-270,584	-143,100	0,054	-0,004
-269,570	-43,043	-0,102	0,037
-268,555	468,157	0,031	-0,051
-267,540	74,487	-0,091	-0,068
-266,526	532,085	-0,030	-0,052
-265,511	-145,947	-0,046	-0,003
-264,497	800,000	-0,053	0,166
-263,482	-11,453	0,129	0,060
-262,467	800,000	0,017	0,054
-261,453	595,681	0,056	-0,099
-260,438	-44,724	-0,092	-0,033
-259,424	-200,000	0,016	0,085
-258,409	-139,121	-0,130	-0,010
-257,395	800,000	0,016	-0,031
-256,380	800,000	0,048	0,146
-255,365	26,242	-0,051	0,031
-254,351	-67,075	0,119	0,033
-253,336	85,595	-0,044	0,035
-252,322	457,699	-0,067	-0,107
-251,307	405,411	-0,087	-0,132
-250,292	642,998	-0,057	-0,104
-249,278	-200,000	0,002	-0,044
-248,263	-78,163	0,154	0,038
-247,249	-200,000	-0,008	-0,093
-246,234	-9,005	0,087	-0,042
-245,219	43,434	0,103	-0,067
-244,205	291,419	-0,007	0,009
-243,190	-200,000	-0,001	-0,059
-242,176	-200,000	0,004	-0,047
-241,161	-200,000	-0,013	-0,074
-240,146	17,069	0,026	0,015
-239,132	-200,000	0,031	0,169
-238,117	349,286	-0,094	-0,132
-237,103	218,136	0,032	0,037
-236,088	-200,000	-0,052	-0,175
-235,073	218,705	0,084	0,096
-234,059	51,594	0,063	-0,042
-233,044	-128,485	0,160	0,016
-232,030	-88,772	-0,106	-0,022
-231,015	-172,880	-0,072	0,002
-230,000	272,647	-0,094	-0,119
-228,986	-114,405	-0,093	-0,013
-227,971	-200,000	-0,004	0,032
-226,957	800,000	0,023	-0,060
-225,942	39,441	0,113	-0,072
-224,927	-200,000	-0,006	-0,093
-223,913	75,090	-0,036	-0,027
-222,898	36,692	0,097	0,061
-221,884	326,297	-0,049	-0,067
-220,869	20,897	0,080	-0,046
-219,855	-200,000	-0,049	0,162
-218,840	-200,000	0,012	0,042
-217,825	-200,000	0,007	-0,060
-216,811	-98,059	0,037	-0,007
-215,796	-200,000	-0,017	-0,059
-214,782	717,251	-0,019	0,037
-213,767	-98,958	-0,030	-0,005
-212,752	772,952	0,004	0,008
-211,738	800,000	-0,037	0,111
-210,723	-200,000	-0,027	0,099
-209,709	49,537	-0,078	0,052
-208,694	-200,000	-0,001	-0,038
-207,679	95,714	0,026	-0,021
-206,665	-176,961	-0,071	-0,001
-205,650	298,699	-0,085	0,111
-204,636	-122,935	0,058	0,007
-203,621	-200,000	0,005	0,098
-202,606	-71,162	-0,057	0,015
-201,592	-119,240	0,048	0,006
-200,577	-125,474	-0,086	0,009
-199,563	-34,486	0,087	-0,034
-198,548	521,774	0,047	0,079
-197,533	447,088	-0,032	-0,051
-196,519	41,875	0,042	-0,027
-195,504	-200,000	-0,009	-0,048
-194,490	800,000	-0,057	-0,159
-193,475	126,507	0,142	0,128
-192,460	800,000	0,070	-0,176
-191,446	122,884	0,070	-0,062
-190,431	-200,000	-0,024	0,112
-189,417	-15,986	0,137	-0,062
-188,402	-46,269	0,106	-0,037
-187,387	65,069	-0,073	0,053
-186,373	543,598	-0,074	-0,126
-185,358	-2,837	0,103	-0,051
-184,344	-11,748	0,011	-0,005
-183,329	612,429	0,028	-0,050
-182,315	112,253	0,064	0,055
-181,300	-200,000	0,008	-0,051
-180,285	53,460	0,030	-0,020
-179,271	-200,000	-0,017	-0,096
-178,256	-200,000	-0,039	-0,168
-177,242	93,674	-0,037	-0,030
-176,227	-84,821	0,170	0,038
-175,212	81,616	0,083	0,064
-174,198	565,120	-0,013	-0,023
-173,183	-200,000	-0,025	0,089
-172,169	-200,000	-0,038	0,121
-171,154	-72,482	-0,197	-0,052
-170,139	-200,000	-0,002	-0,027
-169,125	-80,390	-0,079	0,019
-168,110	5,035	0,066	0,035
-167,096	22,790	0,096	0,056
-166,081	269,979	0,051	-0,064
-165,066	15,124	-0,087	-0,049
-164,052	-200,000	-0,024	-0,077
-163,037	-200,000	0,031	-0,100
-162,023	114,311	0,066	0,057
-161,008	-133,653	0,058	0,005
-159,993	-200,000	0,022	-0,088
-158,979	-55,336	0,043	0,014
-157,964	-111,770	-0,059	0,008
-156,950	-200,000	0,011	0,057
-155,935	-200,000	-0,011	-0,097
-154,920	712,097	0,069	-0,131
-153,906	-55,367	-0,052	0,016
-152,891	187,723	-0,038	-0,040
-151,877	41,202	-0,077	-0,050
-150,862	-200,000	0,033	-0,179
-149,847	-200,000	0,029	0,128
-148,833	261,407	0,115	-0,142
-147,818	-45,113	-0,037	0,013
-146,804	-200,000	-0,010	0,059
-145,789	-122,840	0,219	0,025
-144,775	252,335	0,035	-0,043
-143,760	-200,000	0,029	-0,116
-142,745	-132,256	-0,231	0,021
-141,731	-43,900	0,153	0,055
-140,716	800,000	0,022	-0,055
-139,702	614,266	0,065	0,116
-138,687	-105,324	0,138	-0,022
-137,672	-200,000	-0,005	-0,195
-136,658	229,062	-0,064	-0,074
-135,643	-172,493	0,061	0,001
-134,629	6,258	-0,050	0,026
-133,614	800,000	-0,053	0,143
-132,599	87,640	0,086	-0,067
-131,585	-52,498	0,067	-0,022
-130,570	86,359	0,057	0,045
-129,556	-200,000	-0,006	0,081
-128,541	-42,229	-0,105	-0,038
-127,526	-66,764	-0,137	-0,038
-126,512	-91,196	0,074	0,015
-125,497	-104,212	0,038	0,006
-124,483	-81,213	-0,051	0,012
-123,468	-99,897	-0,111	0,020
-122,453	-50,694	-0,132	-0,044
-121,439	317,986	0,072	-0,097
-120,424	-57,431	-0,079	0,024
