DTS Sentinel unit serial number:	SN410029Multiplexer serial number:	ORYXHardware model number:	OX2-SRSoftware version number:	ORYX F/W v4,00 Oryx Data Collector v3.7.2.0data status	okinstallation	BH3 CH2differential loss correction	single-endedforward channel	channel 2reverse channel	N/Adate	2023/12/06time	03:02:28forward acquisition time	300,00reverse acquisition time	0,00gamma	499,1914k internal	0,3197k external	0,3197temperature offset calibration	1,0000default loss term (dB/km)	0,3820temperature slope calibration	1,0000multiplexer offset coefficient	1,0000multiplexer slope coefficient	1,0000fibre end	0,00T internal ref (°C)	8,96T ext. ref 1 (°C)	-5,85T ext. ref 2 (°C)	-5,95length (m)	temperature (°C)	Stokes	anti-Stokes-744,400	-200,000	-0,022	-0,091
-743,385	-120,215	-0,232	0,029
-742,371	-2,890	-0,222	-0,112
-741,356	-6,708	-0,198	0,098
-740,342	-200,000	-0,020	0,098
-739,327	-33,477	-0,164	0,066
-738,312	-52,899	-0,103	-0,034
-737,298	29,465	-0,167	0,103
-736,283	-200,000	0,011	-0,066
-735,269	39,444	-0,197	0,129
-734,254	423,743	-0,110	-0,173
-733,239	-70,068	-0,465	-0,128
-732,225	-108,360	0,074	-0,012
-731,210	28,072	0,138	0,084
-730,196	67,643	-0,059	0,044
-729,181	-200,000	-0,016	0,066
-728,167	-12,534	-0,170	0,081
-727,152	-200,000	0,006	-0,103
-726,137	-47,522	-0,043	0,015
-725,123	336,302	-0,079	-0,111
-724,108	-16,034	-0,140	-0,065
-723,094	83,415	-0,039	0,031
-722,079	94,857	0,082	-0,068
-721,064	-137,561	0,109	-0,009
-720,050	-9,450	-0,111	-0,054
-719,035	225,050	-0,093	0,110
-718,021	-45,023	-0,138	0,050
-717,006	800,000	-0,095	-0,200
-715,991	-200,000	0,012	-0,114
-714,977	45,892	-0,081	-0,055
-713,962	717,145	-0,031	-0,061
-712,948	-132,786	0,063	0,006
-711,933	72,429	0,056	0,043
-710,918	-200,000	0,005	-0,054
-709,904	800,000	-0,015	-0,038
-708,889	-200,000	-0,007	-0,026
-707,875	106,761	-0,085	-0,074
-706,860	800,000	-0,049	0,117
-705,845	-200,000	0,020	0,198
-704,831	215,680	0,044	-0,051
-703,816	14,678	-0,078	0,044
-702,802	-119,963	-0,077	-0,010
-701,787	169,188	-0,019	0,020
-700,772	-105,985	0,071	-0,011
-699,758	800,000	-0,029	0,061
-698,743	14,266	0,117	0,066
-697,729	-2,982	-0,146	0,074
-696,714	296,825	0,066	0,088
-695,699	-52,359	-0,112	-0,037
-694,685	-49,722	-0,156	0,054
-693,670	800,000	-0,119	-0,248
-692,656	26,742	0,106	-0,064
-691,641	-15,740	0,007	0,003
-690,627	-200,000	-0,016	-0,069
-689,612	-151,491	0,055	0,003
-688,597	558,655	-0,019	-0,033
-687,583	800,000	-0,021	-0,054
-686,568	-200,000	0,005	-0,039
-685,554	85,834	-0,108	0,086
-684,539	-200,000	-0,032	0,190
-683,524	800,000	0,020	-0,051
-682,510	-143,339	-0,198	0,014
-681,495	241,966	-0,058	-0,071
-680,481	-11,979	-0,098	0,047
-679,466	800,000	-0,059	-0,141
-678,451	-38,693	-0,054	-0,021
-677,437	-200,000	0,010	-0,101
-676,422	-200,000	0,001	0,090
-675,408	-200,000	0,040	0,144
-674,393	800,000	-0,049	-0,117
-673,378	-31,169	-0,022	-0,009
-672,364	-200,000	-0,013	0,078
-671,349	112,016	0,061	0,054
-670,335	800,000	0,026	-0,084
-669,320	800,000	-0,034	0,085
-668,305	800,000	0,034	0,077
-667,291	454,798	-0,084	-0,136
-666,276	800,000	0,045	-0,124
-665,262	-71,557	-0,139	-0,037
-664,247	-87,829	-0,073	0,016
-663,232	211,477	-0,050	-0,057
-662,218	-200,000	0,018	-0,060
-661,203	-39,745	0,074	-0,028
-660,189	148,879	-0,056	0,055
-659,174	497,673	0,011	-0,019
-658,159	68,135	-0,059	-0,044
-657,145	-79,346	-0,076	0,019
-656,130	168,335	-0,018	0,018
-655,116	154,318	-0,073	0,073
-654,101	27,744	0,060	0,037
-653,086	-138,449	-0,111	0,009
-652,072	47,406	-0,072	0,048
-651,057	-56,687	-0,192	-0,061
-650,043	-200,000	-0,010	-0,082
-649,028	16,381	0,080	-0,046
-648,014	114,554	0,065	0,057
-646,999	-54,303	-0,068	0,022
-645,984	-200,000	-0,005	0,048
-644,970	399,194	0,048	0,073
-643,955	800,000	0,050	-0,101
-642,941	-200,000	0,013	-0,050
-641,926	417,774	-0,058	-0,090
-640,911	130,271	-0,102	0,095
-639,897	81,748	-0,056	0,044
-638,882	51,798	0,030	-0,021
-637,868	-37,026	-0,179	0,069
-636,853	-199,566	0,120	-0,000
-635,838	59,100	-0,184	-0,131
-634,824	-200,000	-0,075	-0,307
-633,809	800,000	0,037	-0,090
-632,795	529,468	-0,036	-0,062
-631,780	-88,221	-0,044	-0,010
-630,765	467,863	-0,051	0,084
-629,751	-200,000	-0,003	-0,086
-628,736	-200,000	0,021	-0,171
-627,722	-38,707	0,047	-0,018
-626,707	-144,858	0,096	-0,006
-625,692	15,302	-0,090	-0,051
-624,678	429,386	0,057	0,090
-623,663	-28,079	-0,155	0,065
-622,649	-20,712	-0,106	0,047
-621,634	-200,000	0,010	-0,039
-620,619	114,333	0,035	-0,031
-619,605	143,085	-0,023	-0,022
-618,590	-200,000	-0,002	-0,082
-617,576	96,268	0,109	0,090
-616,561	-200,000	-0,003	-0,095
-615,546	-82,991	-0,088	0,020
-614,532	-111,419	-0,171	0,025
-613,517	800,000	0,004	0,010
-612,503	99,659	0,134	0,112
-611,488	-200,000	-0,019	0,087
-610,474	97,463	-0,113	-0,094
-609,459	261,436	0,137	-0,172
-608,444	-97,352	0,034	-0,006
-607,430	-136,094	-0,030	0,003
-606,415	-87,239	0,036	-0,008
-605,401	800,000	-0,012	0,025
-604,386	-200,000	0,037	0,120
-603,371	24,687	0,050	-0,030
-602,357	-68,952	0,120	-0,033
-601,342	-185,013	-0,054	0,001
-600,328	-63,123	-0,052	0,015
-599,313	151,444	0,037	0,036
-598,298	327,981	-0,091	-0,127
-597,284	30,183	0,110	0,068
-596,269	-80,337	-0,030	-0,007
-595,255	-45,657	0,032	0,012
-594,240	-77,856	0,079	-0,020
-593,225	186,991	-0,158	-0,171
-592,211	334,266	0,070	-0,098
-591,196	-200,000	0,006	-0,080
-590,182	240,722	0,093	-0,113
-589,167	-200,000	-0,023	0,126
-588,152	-137,959	0,092	0,007
-587,138	79,517	-0,090	0,070
-586,123	69,572	0,087	-0,065
-585,109	48,409	0,088	-0,060
-584,094	800,000	0,051	0,110
-583,079	-200,000	0,008	-0,090
-582,065	-19,103	-0,090	-0,040
-581,050	-117,920	0,234	0,030
-580,036	84,109	-0,060	-0,047
-579,021	-103,011	-0,113	0,019
-578,006	-83,976	-0,109	-0,025
-576,992	-200,000	0,009	0,036
-575,977	-200,000	-0,031	0,122
-574,963	800,000	0,071	0,151
-573,948	-38,268	0,026	0,010
-572,934	-200,000	-0,020	0,122
-571,919	351,807	-0,068	0,098
-570,904	-200,000	-0,056	0,000
-569,890	-37,187	-0,145	-0,056
-568,875	128,782	-0,077	0,071
-567,861	511,102	-0,029	0,050
-566,846	74,000	-0,021	0,016
-565,831	748,608	0,017	-0,034
-564,817	110,561	0,073	-0,064
-563,802	51,979	-0,137	-0,094
-562,788	800,000	0,036	-0,075
-561,773	776,143	0,030	-0,060
-560,758	800,000	0,019	0,054
-559,744	-30,698	0,054	0,022
-558,729	-37,355	-0,094	0,036
-557,715	194,664	-0,041	-0,044
-556,700	-200,000	-0,008	0,032
-555,685	-133,045	0,051	0,005
-554,671	97,493	-0,073	0,061
-553,656	-152,567	-0,053	0,003
-552,642	-200,000	0,005	0,072
-551,627	158,564	-0,046	0,046
-550,612	-200,000	0,021	0,078
-549,598	-200,000	0,047	-0,168
-548,583	-155,027	-0,073	-0,003
-547,569	800,000	0,029	0,062
-546,554	608,306	0,084	-0,152
-545,539	73,351	0,048	0,036
-544,525	592,811	0,014	0,026
-543,510	800,000	-0,015	0,044
-542,496	78,641	0,039	-0,030
-541,481	800,000	0,035	0,080
-540,466	800,000	-0,014	0,035
-539,452	642,530	-0,019	-0,035
-538,437	-200,000	-0,045	0,182
-537,423	325,062	-0,071	0,098
-536,408	800,000	-0,037	-0,089
-535,393	-185,466	-0,040	0,000
-534,379	800,000	0,029	0,058
-533,364	-200,000	-0,015	0,131
-532,350	415,475	-0,011	0,017
-531,335	-91,958	0,085	0,017
-530,321	-129,996	0,152	0,015
-529,306	-117,744	-0,125	0,016
-528,291	-200,000	0,012	-0,118
-527,277	-46,631	-0,088	0,031
-526,262	-200,000	0,021	-0,090
-525,248	-200,000	0,006	-0,040
-524,233	-50,598	0,031	-0,011
-523,218	800,000	-0,030	0,085
-522,204	800,000	0,053	-0,150
-521,189	579,873	-0,052	-0,092
-520,175	13,386	0,119	0,066
-519,160	800,000	0,022	-0,054
-518,145	-2,458	-0,068	0,034
-517,131	800,000	-0,037	0,079
-516,116	-200,000	-0,060	0,209
-515,102	601,345	0,039	-0,071
-514,087	80,016	-0,064	-0,050
-513,072	-153,523	-0,160	0,008
-512,058	45,133	-0,044	0,029
-511,043	-200,000	0,008	0,079
-510,029	-110,514	0,047	0,007
-509,014	800,000	0,067	0,165
-507,999	-200,000	0,012	0,060
-506,985	-62,563	-0,135	-0,040
-505,970	-131,385	0,117	-0,011
-504,956	265,002	-0,010	0,013
-503,941	800,000	0,089	0,184
-502,926	23,934	0,054	0,032
-501,912	800,000	0,053	0,132
-500,897	103,016	0,132	-0,112
-499,883	56,914	-0,146	-0,102
-498,868	-62,330	-0,065	0,019
-497,853	82,796	0,064	-0,050
-496,839	-200,000	0,042	-0,167
-495,824	800,000	0,111	0,263
-494,810	762,320	0,021	-0,041
-493,795	-171,324	-0,057	0,001
-492,781	397,801	-0,101	-0,153
-491,766	-200,000	-0,003	-0,187
-490,751	-200,000	-0,015	-0,067
-489,737	0,988	0,081	-0,042
-488,722	-1,093	-0,077	0,039
-487,708	100,317	0,081	-0,068
-486,693	-40,377	-0,160	0,060
-485,678	-200,000	-0,010	0,038
-484,664	-200,000	-0,008	0,040
-483,649	-83,129	-0,144	-0,033
-482,635	800,000	-0,052	-0,124
-481,620	800,000	-0,045	-0,112
-480,605	368,055	0,032	0,047
-479,591	-13,160	0,121	0,056
-478,576	800,000	-0,050	-0,131
-477,562	-6,588	-0,050	-0,024
-476,547	717,110	-0,056	-0,108
-475,532	-51,785	0,059	0,020
-474,518	800,000	-0,040	0,084
-473,503	-200,000	0,005	-0,089
-472,489	-200,000	-0,008	0,159
-471,474	25,336	0,066	-0,039
-470,459	225,897	-0,048	-0,056
-469,445	-200,000	-0,055	-0,194
-468,430	-200,000	-0,024	-0,105
-467,416	800,000	-0,029	0,082
-466,401	100,428	0,132	-0,110
-465,386	22,263	-0,047	0,027
-464,372	800,000	0,035	-0,075
-463,357	-200,000	0,019	-0,069
-462,343	-16,839	0,051	0,023
-461,328	28,532	-0,136	-0,083
-460,313	626,340	-0,043	0,078
-459,299	0,077	-0,043	0,022
-458,284	-107,839	0,084	-0,013
-457,270	-200,000	0,004	0,063
-456,255	2,920	-0,091	0,047
-455,241	800,000	0,044	0,088
-454,226	-44,075	0,173	-0,062
-453,211	-200,000	0,011	0,060
-452,197	-200,000	0,017	0,071
-451,182	68,711	-0,099	0,073
-450,168	518,887	0,088	0,149
-449,153	-104,947	-0,037	0,006
-448,138	-200,000	-0,043	-0,155
-447,124	800,000	-0,018	0,038
-446,109	-200,000	-0,008	-0,091
-445,095	-77,378	0,029	0,007
-444,080	13,553	0,158	0,088
-443,065	37,220	-0,029	-0,018
-442,051	474,934	0,055	-0,090
-441,036	418,474	0,032	-0,049
-440,022	-200,000	-0,022	0,113
-439,007	-71,600	0,075	0,020
-437,992	-138,600	0,167	0,013
-436,978	800,000	0,033	0,070
-435,963	604,860	-0,023	-0,041
-434,949	171,230	-0,097	-0,100
-433,934	433,134	-0,016	0,024
-432,919	-22,164	-0,158	-0,069
-431,905	-116,485	-0,121	-0,016
-430,890	8,269	0,062	-0,034
-429,876	-61,415	0,097	0,029
-428,861	359,202	0,027	0,039
-427,846	-200,000	0,005	0,021
-426,832	-200,000	-0,012	-0,047
-425,817	-200,000	0,024	-0,128
-424,803	375,824	-0,013	0,019
-423,788	800,000	-0,016	0,044
-422,773	-27,984	0,126	0,052
-421,759	618,720	-0,053	0,096
-420,744	545,285	-0,023	0,040
-419,730	800,000	0,014	-0,034
-418,715	28,006	-0,163	-0,099
-417,701	-200,000	-0,044	-0,161
-416,686	-200,000	0,006	-0,027
-415,671	-119,867	0,133	0,016
-414,657	33,174	0,031	-0,019
-413,642	-200,000	-0,006	-0,049
-412,628	-200,000	0,020	0,072
-411,613	-200,000	0,008	-0,107
-410,598	475,723	-0,033	0,054
-409,584	-88,432	0,085	0,018
-408,569	-200,000	0,001	-0,079
-407,555	134,529	0,037	0,034
-406,540	-102,294	0,081	-0,014
-405,525	-163,824	-0,056	-0,002
-404,511	117,295	0,051	0,045
-403,496	171,995	0,135	-0,140
-402,482	338,428	-0,092	0,129
-401,467	-200,000	-0,006	0,023
-400,452	195,387	0,075	0,082
-399,438	104,108	-0,035	-0,029
-398,423	149,913	0,015	0,015
-397,409	800,000	0,048	0,118
-396,394	135,478	-0,054	-0,050
-395,379	-160,568	0,069	0,003
-394,365	-200,000	-0,010	-0,084
-393,350	800,000	-0,034	-0,093
-392,336	363,775	0,038	-0,055
-391,321	-96,067	-0,144	-0,027
-390,306	-200,000	0,006	-0,031
-389,292	331,435	-0,072	-0,099
-388,277	-200,000	0,014	0,115
-387,263	-77,539	0,052	-0,013
-386,248	-200,000	-0,004	-0,046
-385,233	-40,539	-0,115	0,043
-384,219	-83,221	0,104	0,024
-383,204	268,771	-0,065	-0,083
-382,190	284,614	-0,048	0,063
-381,175	-200,000	-0,020	0,131
-380,160	-91,615	0,147	-0,030
-379,146	-51,420	0,132	0,044
-378,131	226,051	0,050	-0,059
-377,117	33,347	0,106	0,066
-376,102	609,672	0,029	-0,052
-375,088	-74,852	0,067	0,017
-374,073	601,029	-0,015	0,027
-373,058	-200,000	0,010	-0,040
-372,044	800,000	0,050	-0,113
-371,029	76,621	0,020	-0,015
-370,015	27,229	-0,136	-0,082
-369,000	55,098	0,090	0,062
-367,985	502,387	-0,073	-0,121
-366,971	419,436	-0,073	0,112
-365,956	224,422	-0,032	-0,037
-364,942	800,000	0,040	0,124
-363,927	84,371	-0,144	0,113
-362,912	448,767	-0,091	0,145
-361,898	127,815	-0,093	0,084
-360,883	101,738	0,058	0,048
-359,869	-88,694	-0,023	-0,005
-358,854	138,920	-0,052	0,049
-357,839	-27,080	-0,065	-0,027
-356,825	-12,386	-0,157	0,073
-355,810	241,232	0,027	-0,033
-354,796	210,769	0,045	0,051
-353,781	-105,750	-0,072	0,012
-352,766	-34,433	-0,013	-0,005
-351,752	-200,000	-0,023	0,119
-350,737	310,974	-0,037	0,049
-349,723	307,797	0,055	0,074
-348,708	-28,935	0,072	0,029
-347,693	150,144	-0,103	0,101
-346,679	671,098	-0,043	-0,080
-345,664	-200,000	0,007	0,064
-344,650	28,894	0,064	0,039
-343,635	735,995	-0,055	0,105
-342,620	-135,359	0,163	0,014
-341,606	-200,000	-0,042	-0,193
-340,591	12,537	-0,093	-0,051
-339,577	189,536	0,094	0,102
-338,562	617,544	0,050	0,090
-337,548	800,000	-0,012	0,026
-336,533	43,638	0,047	0,030
-335,518	148,194	0,085	0,083
-334,504	-26,861	-0,061	0,025
-333,489	-200,000	-0,021	0,073
-332,475	126,982	0,061	-0,056
-331,460	-26,961	-0,057	-0,024
-330,445	800,000	0,039	-0,103
-329,431	32,749	0,009	0,005
-328,416	96,516	0,065	0,053
-327,402	-12,204	0,071	-0,033
-326,387	191,157	-0,047	0,051
-325,372	-58,483	-0,069	-0,021
-324,358	-200,000	0,005	-0,139
-323,343	68,657	-0,031	-0,023
-322,329	14,545	-0,103	0,058
-321,314	-69,371	0,139	-0,038
-320,299	-196,236	0,044	0,000
-319,285	197,686	-0,088	-0,096
-318,270	800,000	-0,079	-0,180
-317,256	526,611	-0,038	-0,064
-316,241	-142,500	0,112	-0,008
-315,226	128,217	-0,109	-0,100
-314,212	-31,358	0,194	0,078
-313,197	800,000	0,032	0,079
-312,183	138,496	-0,008	0,007
-311,168	259,976	-0,056	-0,069
-310,153	282,912	-0,070	-0,090
-309,139	55,131	0,119	0,082
-308,124	60,549	0,089	0,063
-307,110	-127,972	-0,127	-0,013
-306,095	41,983	0,038	-0,025
-305,080	136,560	0,080	-0,075
-304,066	-69,850	0,073	-0,020
-303,051	86,875	-0,098	0,078
-302,037	-200,000	-0,004	-0,037
-301,022	800,000	0,030	-0,061
-300,008	90,963	0,136	0,109
-298,993	447,253	0,034	-0,054
-297,978	86,792	-0,019	0,015
-296,964	-200,000	-0,067	0,000
-295,949	-82,115	0,091	0,021
-294,935	800,000	-0,036	-0,084
-293,920	-101,702	-0,051	0,009
-292,905	212,192	0,049	-0,055
-291,891	800,000	-0,004	0,012
-290,876	-178,638	0,151	-0,002
-289,862	603,334	-0,010	-0,018
-288,847	-13,882	-0,075	0,035
-287,832	-200,000	0,012	-0,039
-286,818	280,890	0,081	-0,104
-285,803	-200,000	0,010	-0,078
-284,789	-89,536	0,087	0,018
-283,774	800,000	-0,018	0,050
-282,759	-200,000	0,005	0,023
-281,745	-149,958	-0,079	-0,004
-280,730	-147,815	0,016	0,001
-279,716	195,398	0,043	0,047
-278,701	-200,000	0,007	0,090
-277,686	-200,000	0,027	0,089
-276,672	414,846	0,065	0,099
-275,657	-35,374	-0,107	-0,041
-274,643	-200,000	0,027	-0,167
-273,628	239,579	-0,074	-0,088
-272,613	800,000	0,060	-0,162
-271,599	-200,000	0,048	0,197
-270,584	-138,688	-0,124	-0,010
-269,570	213,993	-0,101	0,114
-268,555	208,356	-0,084	0,094
-267,540	52,785	0,091	-0,062
-266,526	-200,000	-0,015	-0,116
-265,511	177,447	-0,025	-0,026
-264,497	800,000	-0,036	-0,109
-263,482	21,168	-0,020	-0,011
-262,467	-200,000	-0,016	0,094
-261,453	283,749	-0,068	0,088
-260,438	-14,616	0,038	-0,018
-259,424	-181,458	-0,126	0,002
-258,409	-200,000	0,014	-0,125
-257,395	171,357	0,067	0,068
-256,380	82,437	-0,053	0,041
-255,365	-200,000	0,003	-0,022
-254,351	800,000	-0,046	0,128
-253,336	-171,090	-0,059	0,001
-252,322	347,279	-0,034	-0,048
-251,307	464,669	-0,072	0,115
-250,292	-200,000	-0,025	-0,146
-249,278	-200,000	0,013	-0,194
-248,263	-67,551	0,074	-0,020
-247,249	92,020	0,045	0,036
-246,234	-200,000	-0,042	0,159
-245,219	-67,777	-0,125	-0,035
-244,205	171,391	-0,082	-0,084
-243,190	62,168	0,145	0,103
-242,176	-200,000	-0,006	0,184
-241,161	-200,000	-0,010	0,052
-240,146	489,097	0,033	0,054
-239,132	6,760	-0,132	0,070
-238,117	800,000	-0,050	0,132
-237,103	-86,189	0,106	0,023
-236,088	-38,567	0,061	-0,023
-235,073	289,253	0,050	-0,065
-234,059	594,055	0,118	-0,210
-233,044	-172,037	-0,062	-0,001
-232,030	79,773	-0,081	-0,062
-231,015	-200,000	0,013	-0,100
-230,000	-200,000	-0,004	-0,059
-228,986	184,360	-0,070	0,074
-227,971	-200,000	-0,006	-0,066
-226,957	-200,000	0,013	-0,053
-225,942	-200,000	0,006	0,151
-224,927	-200,000	0,006	0,141
-223,913	800,000	-0,035	-0,085
-222,898	593,772	0,082	-0,145
-221,884	41,710	-0,080	-0,052
-220,869	33,109	0,042	0,026
-219,855	800,000	0,038	-0,091
-218,840	-200,000	-0,010	-0,119
-217,825	420,060	-0,054	0,083
-216,811	-113,728	-0,174	-0,024
-215,796	-24,678	0,060	-0,025
-214,782	85,893	0,075	0,059
-213,767	-200,000	0,029	0,176
-212,752	-200,000	0,004	0,223
-211,738	800,000	-0,032	0,092
-210,723	-131,019	-0,167	0,016
-209,709	800,000	0,048	0,110
-208,694	-200,000	0,003	0,125
-207,679	800,000	0,042	-0,112
-206,665	-141,419	0,130	0,009
-205,650	20,989	0,063	-0,036
-204,636	-141,430	-0,132	-0,009
-203,621	-51,797	0,016	0,005
-202,606	687,099	-0,038	-0,072
-201,592	-98,566	0,050	0,009
-200,577	-166,277	-0,084	0,002
-199,563	-200,000	-0,007	-0,037
-198,548	59,901	-0,076	-0,053
-197,533	136,817	0,169	0,158
-196,519	117,317	-0,060	0,052
-195,504	180,935	0,030	0,032
-194,490	-200,000	0,024	0,079
-193,475	-200,000	0,022	-0,112
-192,460	-59,005	-0,171	0,052
-191,446	122,190	0,089	0,079
-190,431	-20,929	0,082	-0,036
-189,417	-35,970	-0,041	-0,016
-188,402	800,000	-0,029	-0,070
-187,387	440,880	0,046	0,071
-186,373	393,949	-0,026	-0,039
-185,358	-65,558	0,082	-0,023
-184,344	-88,278	0,124	0,026
-183,329	619,993	0,033	0,058
-182,315	-126,316	0,152	-0,016
-181,300	214,100	-0,047	-0,053
-180,285	127,769	-0,068	0,061
-179,271	-200,000	0,019	0,149
-178,256	-132,894	0,036	0,003
-177,242	221,667	0,033	0,038
-176,227	800,000	0,024	0,059
-175,212	-158,547	0,127	0,005
-174,198	195,615	0,043	0,046
-173,183	91,338	0,030	-0,024
-172,169	250,984	-0,053	-0,064
-171,154	-2,754	-0,143	0,071
-170,139	-64,108	0,161	-0,046
-169,125	360,767	0,047	-0,067
-168,110	123,131	0,033	0,029
-167,096	200,515	-0,107	-0,117
-166,081	800,000	-0,045	-0,129
-165,066	-200,000	-0,012	-0,115
-164,052	-200,000	0,037	-0,143
-163,037	-59,650	0,040	-0,012
-162,023	-200,000	0,006	0,171
-161,008	394,665	0,033	0,049
-159,993	189,026	-0,029	0,030
-158,979	351,740	0,071	-0,100
-157,964	-19,981	-0,016	0,007
-156,950	28,112	-0,004	0,002
-155,935	-200,000	-0,003	0,016
-154,920	92,575	-0,104	0,084
-153,906	-179,393	0,078	-0,001
-152,891	-114,613	0,146	0,020
-151,877	-153,188	-0,167	0,008
-150,862	-168,169	-0,054	-0,001
-149,847	-65,806	0,045	-0,013
-148,833	-200,000	0,008	0,029
-147,818	-200,000	0,010	0,035
-146,804	-16,884	-0,086	0,038
-145,789	-200,000	-0,000	-0,025
-144,775	135,653	0,061	0,056
-143,760	-107,170	-0,179	-0,028
-142,745	22,468	-0,091	-0,053
-141,731	-200,000	-0,003	-0,030
-140,716	-200,000	-0,003	-0,032
-139,702	23,945	0,096	-0,056
-138,687	-36,752	-0,094	0,036
-137,672	-76,744	0,084	-0,021
-136,658	-200,000	-0,025	-0,082
-135,643	648,849	-0,062	0,113
-134,629	218,804	0,066	-0,075
-133,614	-200,000	-0,010	-0,086
-132,599	330,279	-0,044	-0,060
-131,585	-200,000	0,015	0,061
-130,570	-48,090	-0,016	0,005
-129,556	306,776	-0,111	-0,147
-128,541	-200,000	-0,016	-0,121
-127,526	543,986	0,102	0,173
-126,512	-200,000	0,024	-0,078
-125,497	241,946	-0,046	0,054
-124,483	-187,956	0,042	-0,000
-123,468	176,493	-0,006	0,006
-122,453	-200,000	0,005	-0,052
-121,439	-111,247	-0,156	-0,022
-120,424	-176,449	0,111	0,002
-119,410	329,944	0,098	0,135
