DTS Sentinel unit serial number:	SN410029Multiplexer serial number:	ORYXHardware model number:	OX2-SRSoftware version number:	ORYX F/W v4,00 Oryx Data Collector v3.7.2.0data status	okinstallation	BH3 CH2differential loss correction	single-endedforward channel	channel 2reverse channel	N/Adate	2023/12/06time	02:42:28forward acquisition time	300,00reverse acquisition time	0,00gamma	499,1914k internal	0,3197k external	0,3197temperature offset calibration	1,0000default loss term (dB/km)	0,3820temperature slope calibration	1,0000multiplexer offset coefficient	1,0000multiplexer slope coefficient	1,0000fibre end	0,00T internal ref (°C)	9,00T ext. ref 1 (°C)	-5,89T ext. ref 2 (°C)	-5,97length (m)	temperature (°C)	Stokes	anti-Stokes-744,400	800,000	0,045	-0,107
-743,385	-116,442	-0,336	-0,045
-742,371	800,000	-0,025	0,073
-741,356	235,142	-0,213	0,257
-740,342	-200,000	0,003	-0,054
-739,327	30,086	-0,208	0,129
-738,312	-200,000	0,006	-0,210
-737,298	-121,970	-0,250	-0,030
-736,283	-200,000	0,031	-0,129
-735,269	30,904	-0,247	0,154
-734,254	-6,006	0,085	-0,042
-733,239	35,080	-0,386	-0,246
-732,225	579,498	0,023	-0,041
-731,210	432,397	-0,095	0,150
-730,196	800,000	-0,017	0,042
-729,181	74,415	-0,031	-0,024
-728,167	-200,000	-0,001	-0,030
-727,152	33,006	-0,029	-0,018
-726,137	-94,744	-0,055	-0,011
-725,123	26,623	-0,194	-0,118
-724,108	-200,000	-0,006	-0,143
-723,094	800,000	0,068	-0,154
-722,079	726,624	-0,031	-0,061
-721,064	505,352	0,041	-0,070
-720,050	-200,000	-0,036	0,150
-719,035	-200,000	0,030	-0,120
-718,021	-141,268	-0,097	0,007
-717,006	319,031	-0,021	-0,030
-715,991	-35,534	-0,221	-0,087
-714,977	322,413	-0,057	-0,079
-713,962	-200,000	-0,025	0,097
-712,948	-116,953	-0,202	-0,026
-711,933	800,000	0,044	-0,105
-710,918	-48,133	-0,064	0,022
-709,904	41,176	-0,050	0,033
-708,889	800,000	-0,045	-0,097
-707,875	-90,159	-0,226	0,047
-706,860	351,493	-0,039	0,057
-705,845	800,000	0,035	0,098
-704,831	13,048	0,023	-0,013
-703,816	800,000	-0,014	-0,040
-702,802	59,981	0,043	0,031
-701,787	31,572	-0,016	-0,010
-700,772	-200,000	-0,041	-0,137
-699,758	-103,357	-0,112	-0,019
-698,743	-200,000	-0,012	0,117
-697,729	-57,058	-0,150	-0,048
-696,714	98,861	-0,055	0,046
-695,699	35,719	-0,055	-0,035
-694,685	-77,415	-0,055	0,014
-693,670	-200,000	-0,016	-0,142
-692,656	249,805	-0,048	-0,059
-691,641	7,914	-0,118	0,064
-690,627	-200,000	0,043	0,162
-689,612	180,369	-0,059	0,063
-688,597	-25,629	0,042	-0,018
-687,583	319,181	-0,128	-0,177
-686,568	176,582	-0,060	0,064
-685,554	374,151	-0,029	0,042
-684,539	17,092	0,043	-0,025
-683,524	-200,000	-0,005	-0,105
-682,510	-200,000	-0,022	0,087
-681,495	492,151	0,050	0,083
-680,481	-133,442	-0,070	0,006
-679,466	176,274	-0,113	0,120
-678,451	800,000	-0,057	-0,125
-677,437	-17,150	0,198	0,090
-676,422	-97,347	0,115	0,022
-675,408	56,228	0,063	-0,044
-674,393	-200,000	-0,013	-0,170
-673,378	36,109	-0,092	-0,058
-672,364	-170,973	0,086	-0,002
-671,349	-84,874	-0,076	0,017
-670,335	800,000	-0,029	-0,059
-669,320	-126,559	0,047	-0,005
-668,305	-141,843	-0,178	0,013
-667,291	713,388	0,039	0,075
-666,276	99,853	0,043	-0,036
-665,262	-152,634	-0,190	0,010
-664,247	-155,981	0,037	0,002
-663,232	-175,080	-0,091	-0,002
-662,218	-156,598	0,172	-0,008
-661,203	-114,836	0,064	-0,009
-660,189	218,718	0,034	0,039
-659,174	800,000	0,047	-0,108
-658,159	800,000	-0,043	-0,095
-657,145	-74,287	-0,127	-0,033
-656,130	-23,122	0,015	-0,007
-655,116	800,000	-0,046	-0,095
-654,101	-200,000	0,021	-0,103
-653,086	241,822	-0,041	0,050
-652,072	213,020	-0,051	0,059
-651,057	767,257	-0,053	-0,105
-650,043	93,134	-0,087	-0,071
-649,028	-5,600	0,080	-0,040
-648,014	800,000	0,047	0,129
-646,999	-76,274	0,148	0,038
-645,984	-162,623	0,138	0,005
-644,970	-98,369	0,056	0,010
-643,955	315,895	-0,152	-0,208
-642,941	800,000	-0,033	-0,082
-641,926	33,629	0,070	-0,044
-640,911	-53,513	0,185	-0,061
-639,897	75,212	0,100	-0,076
-638,882	59,142	-0,048	0,034
-637,868	-131,633	0,038	0,004
-636,853	244,021	-0,048	0,058
-635,838	-200,000	-0,011	0,039
-634,824	70,432	0,010	0,008
-633,809	146,680	-0,100	-0,098
-632,795	9,747	-0,031	-0,017
-631,780	-200,000	-0,003	-0,087
-630,765	-200,000	-0,010	0,079
-629,751	800,000	-0,025	-0,054
-628,736	199,910	-0,033	-0,037
-627,722	26,978	-0,088	-0,053
-626,707	-200,000	-0,004	0,058
-625,692	800,000	0,033	-0,099
-624,678	453,692	-0,027	0,044
-623,663	-97,641	0,163	-0,030
-622,649	-200,000	-0,022	-0,113
-621,634	-153,151	0,050	-0,003
-620,619	-7,385	-0,052	0,026
-619,605	-25,742	-0,085	0,036
-618,590	25,331	-0,100	0,060
-617,576	85,588	0,072	0,057
-616,561	122,768	-0,074	0,067
-615,546	-200,000	-0,007	0,055
-614,532	-75,492	-0,162	-0,041
-613,517	12,088	0,093	-0,052
-612,503	800,000	0,045	0,094
-611,488	-200,000	-0,043	0,172
-610,474	-129,936	-0,181	0,018
-609,459	154,780	0,043	0,043
-608,444	182,761	-0,066	0,071
-607,430	-200,000	-0,002	-0,021
-606,415	398,887	0,009	0,014
-605,401	293,710	0,009	0,012
-604,386	210,364	-0,072	0,082
-603,371	-144,489	0,082	-0,005
-602,357	94,377	0,159	-0,131
-601,342	528,833	0,072	-0,123
-600,328	-18,882	-0,094	-0,042
-599,313	108,670	0,044	-0,038
-598,298	-200,000	-0,003	-0,142
-597,284	-72,200	-0,073	-0,019
-596,269	-25,537	-0,005	-0,002
-595,255	-200,000	-0,027	0,102
-594,240	102,429	-0,083	-0,070
-593,225	117,553	-0,088	-0,079
-592,211	260,525	-0,032	0,040
-591,196	342,116	0,042	-0,060
-590,182	100,327	-0,067	-0,057
-589,167	-105,067	0,075	-0,012
-588,152	-72,643	-0,094	0,025
-587,138	-148,118	0,093	0,005
-586,123	-4,951	0,022	-0,011
-585,109	800,000	0,059	0,160
-584,094	-131,075	-0,137	-0,013
-583,079	203,550	-0,070	0,079
-582,065	-200,000	0,005	-0,052
-581,050	-200,000	0,006	0,163
-580,036	-200,000	-0,004	0,079
-579,021	527,989	-0,053	-0,091
-578,006	800,000	0,021	-0,058
-576,992	800,000	0,011	-0,035
-575,977	-174,075	-0,112	-0,002
-574,963	-200,000	0,045	0,151
-573,948	-76,334	0,181	-0,046
-572,934	-200,000	-0,000	-0,139
-571,919	53,366	-0,048	0,033
-570,904	-2,115	-0,078	-0,039
-569,890	81,819	-0,051	-0,040
-568,875	-200,000	0,014	0,083
-567,861	186,465	0,054	0,058
-566,846	249,051	-0,016	-0,020
-565,831	186,209	0,107	-0,115
-564,817	-101,370	0,058	-0,010
-563,802	-5,652	0,040	0,020
-562,788	-0,041	-0,084	0,043
-561,773	-71,343	-0,044	0,012
-560,758	800,000	0,008	0,017
-559,744	796,651	0,039	0,078
-558,729	800,000	-0,056	0,119
-557,715	-200,000	-0,012	-0,050
-556,700	800,000	0,108	-0,229
-555,685	-9,052	-0,046	-0,022
-554,671	-200,000	0,023	-0,085
-553,656	263,659	0,079	0,099
-552,642	-200,000	-0,012	0,184
-551,627	50,603	0,176	0,120
-550,612	-86,560	0,062	-0,014
-549,598	482,142	-0,034	-0,056
-548,583	-200,000	-0,016	-0,107
-547,569	403,806	-0,026	-0,039
-546,554	14,685	0,094	-0,053
-545,539	81,226	0,075	0,058
-544,525	430,048	0,059	0,092
-543,510	800,000	0,046	0,098
-542,496	-134,209	-0,102	0,009
-541,481	-145,033	-0,111	0,007
-540,466	-200,000	0,007	0,059
-539,452	-190,323	0,133	0,001
-538,437	-125,950	0,152	0,016
-537,423	425,867	0,061	-0,096
-536,408	-99,717	-0,082	-0,015
-535,393	-26,788	-0,160	-0,067
-534,379	-200,000	-0,013	-0,120
-533,364	-5,773	-0,110	-0,054
-532,350	-200,000	0,041	-0,132
-531,335	405,707	-0,050	0,077
-530,321	-67,008	0,065	-0,018
-529,306	75,640	0,147	0,112
-528,291	-139,979	-0,109	0,008
-527,277	-72,623	-0,161	0,043
-526,262	-32,493	-0,078	0,031
-525,248	-137,861	-0,109	0,009
-524,233	-200,000	-0,016	0,062
-523,218	-200,000	0,018	0,097
-522,204	800,000	0,066	0,142
-521,189	-200,000	-0,011	0,052
-520,175	-125,857	-0,086	0,009
-519,160	246,481	-0,035	-0,043
-518,145	800,000	0,041	-0,123
-517,131	179,620	-0,074	0,079
-516,116	-10,616	0,028	-0,013
-515,102	175,954	-0,093	0,098
-514,087	-79,318	0,107	0,026
-513,072	-200,000	0,034	-0,173
-512,058	-155,136	0,153	0,007
-511,043	-185,856	-0,118	0,001
-510,029	-200,000	0,004	0,030
-509,014	290,023	0,022	0,029
-507,999	399,800	-0,057	0,087
-506,985	-200,000	-0,017	-0,059
-505,970	800,000	0,023	0,067
-504,956	427,155	-0,045	0,070
-503,941	-85,716	0,102	0,023
-502,926	-110,807	0,072	0,011
-501,912	800,000	0,019	0,041
-500,897	-101,993	-0,035	0,006
-499,883	-143,352	-0,138	0,009
-498,868	-200,000	0,008	-0,048
-497,853	481,587	-0,021	0,035
-496,839	-200,000	-0,012	-0,066
-495,824	164,852	0,088	-0,089
-494,810	62,039	0,106	-0,076
-493,795	69,803	0,082	-0,061
-492,781	-200,000	0,003	0,019
-491,766	-200,000	0,017	0,069
-490,751	800,000	-0,056	-0,116
-489,737	-44,797	0,051	-0,018
-488,722	-124,404	0,039	0,004
-487,708	58,473	0,013	0,009
-486,693	33,595	-0,033	-0,021
-485,678	192,391	-0,090	-0,098
-484,664	800,000	0,035	-0,078
-483,649	36,347	0,058	0,037
-482,635	-165,586	0,086	-0,003
-481,620	168,617	0,044	0,045
-480,605	-88,900	0,063	0,013
-479,591	-200,000	-0,015	0,106
-478,576	444,789	0,023	0,036
-477,562	335,629	-0,071	0,100
-476,547	-16,239	0,062	0,028
-475,532	770,016	0,007	0,014
-474,518	800,000	0,026	0,058
-473,503	-56,313	0,041	-0,013
-472,489	150,523	-0,094	0,092
-471,474	-200,000	0,011	0,089
-470,459	2,014	-0,057	-0,030
-469,445	800,000	-0,030	0,094
-468,430	-129,935	-0,055	0,005
-467,416	-97,200	0,061	-0,011
-466,401	-126,694	0,103	-0,011
-465,386	-200,000	0,052	0,178
-464,372	-72,304	-0,073	0,019
-463,357	-75,869	-0,056	-0,014
-462,343	-14,197	-0,100	0,046
-461,328	33,641	-0,073	0,045
-460,313	-200,000	-0,005	-0,019
-459,299	800,000	-0,014	-0,036
-458,284	-127,480	0,010	-0,001
-457,270	-200,000	-0,004	-0,019
-456,255	192,545	0,023	0,025
-455,241	-200,000	-0,015	-0,099
-454,226	800,000	-0,012	-0,027
-453,211	800,000	-0,006	-0,014
-452,197	465,294	-0,039	0,062
-451,182	-200,000	0,020	0,093
-450,168	-76,641	-0,076	-0,019
-449,153	63,383	0,057	-0,041
-448,138	520,246	-0,071	-0,120
-447,124	-143,113	-0,056	-0,004
-446,109	32,026	0,024	0,015
-445,095	-160,473	0,132	-0,005
-444,080	-151,907	0,085	-0,004
-443,065	-200,000	0,000	0,084
-442,051	800,000	-0,056	0,128
-441,036	595,033	-0,034	0,061
-440,022	800,000	-0,044	-0,100
-439,007	128,550	-0,052	-0,048
-437,992	-200,000	0,000	0,018
-436,978	-200,000	-0,028	0,115
-435,963	-77,990	0,050	-0,012
-434,949	-200,000	-0,007	-0,027
-433,934	157,581	-0,103	0,102
-432,919	99,721	0,035	0,029
-431,905	-200,000	-0,031	-0,116
-430,890	-121,823	-0,020	0,002
-429,876	369,558	0,094	0,137
-428,861	-200,000	0,018	-0,138
-427,846	603,436	0,093	-0,166
-426,832	759,324	-0,041	0,079
-425,817	87,318	0,057	0,046
-424,803	-200,000	0,010	-0,051
-423,788	33,836	-0,064	-0,040
-422,773	-119,212	0,026	0,003
-421,759	-200,000	-0,012	0,119
-420,744	144,856	-0,119	0,114
-419,730	-67,943	0,013	0,004
-418,715	-200,000	0,000	-0,034
-417,701	49,012	-0,051	-0,035
-416,686	-200,000	0,002	-0,107
-415,671	-72,727	0,022	-0,006
-414,657	11,697	0,054	0,030
-413,642	-118,256	-0,019	0,002
-412,628	-200,000	0,022	-0,139
-411,613	-200,000	0,018	-0,146
-410,598	72,456	-0,138	0,104
-409,584	-200,000	0,049	-0,173
-408,569	155,934	0,095	0,094
-407,555	800,000	-0,051	0,108
-406,540	391,964	0,037	0,056
-405,525	204,487	0,021	0,023
-404,511	219,507	-0,052	0,060
-403,496	-83,671	0,069	-0,016
-402,482	-119,892	-0,199	0,024
-401,467	-2,560	-0,093	0,047
-400,452	800,000	0,018	-0,036
-399,438	-137,746	0,168	0,013
-398,423	-171,176	-0,058	0,001
-397,409	14,021	-0,175	-0,097
-396,394	114,350	0,065	-0,057
-395,379	-200,000	-0,001	-0,123
-394,365	-200,000	0,000	0,039
-393,350	8,152	0,075	0,040
-392,336	476,845	0,036	0,059
-391,321	800,000	-0,013	-0,027
-390,306	435,744	-0,068	0,107
-389,292	800,000	-0,043	-0,087
-388,277	-117,616	-0,107	-0,014
-387,263	708,076	0,034	0,065
-386,248	-32,273	0,161	-0,064
-385,233	-51,926	0,028	0,009
-384,219	-200,000	-0,032	-0,130
-383,204	-200,000	-0,001	-0,176
-382,190	19,739	0,059	0,034
-381,175	800,000	-0,021	0,058
-380,160	-200,000	0,028	0,127
-379,146	-92,509	0,153	-0,031
-378,131	-61,623	-0,114	-0,034
-377,117	404,886	0,032	0,049
-376,102	383,324	-0,062	-0,093
-375,088	-143,148	-0,102	-0,007
-374,073	-113,173	-0,062	0,009
-373,058	98,968	0,064	0,053
-372,044	46,353	-0,022	0,014
-371,029	106,580	-0,070	0,060
-370,015	800,000	-0,030	-0,082
-369,000	-200,000	-0,004	-0,105
-367,985	20,173	0,038	-0,022
-366,971	-200,000	-0,022	-0,107
-365,956	-200,000	-0,010	-0,070
-364,942	-200,000	-0,021	-0,075
-363,927	-119,782	-0,085	0,010
-362,912	722,414	0,056	0,108
-361,898	-165,006	-0,106	0,003
-360,883	800,000	0,015	0,044
-359,869	349,445	0,092	-0,130
-358,854	800,000	0,064	-0,174
-357,839	639,358	0,095	0,175
-356,825	-200,000	-0,003	0,013
-355,810	800,000	-0,053	0,157
-354,796	87,092	-0,077	-0,061
-353,781	-19,242	-0,062	0,028
-352,766	-200,000	0,008	-0,031
-351,752	429,626	0,060	-0,093
-350,737	153,722	-0,077	-0,076
-349,723	90,757	0,081	0,065
-348,708	800,000	0,040	-0,102
-347,693	800,000	0,015	-0,037
-346,679	-200,000	-0,019	-0,070
-345,664	-13,078	-0,025	0,012
-344,650	159,182	-0,092	0,092
-343,635	738,005	-0,076	0,146
-342,620	223,402	-0,027	-0,031
-341,606	800,000	0,021	-0,061
-340,591	134,644	-0,037	0,035
-339,577	-200,000	-0,011	-0,144
-338,562	-200,000	-0,000	0,016
-337,548	-39,211	0,099	-0,037
-336,533	87,542	0,110	0,087
-335,518	281,949	-0,017	-0,022
-334,504	-200,000	0,011	-0,071
-333,489	800,000	0,023	0,047
-332,475	-99,537	0,112	0,020
-331,460	63,323	0,087	0,063
-330,445	-200,000	0,009	0,040
-329,431	139,760	0,013	-0,013
-328,416	278,938	0,076	-0,097
-327,402	204,960	-0,035	0,039
-326,387	-200,000	-0,022	0,074
-325,372	-200,000	-0,019	-0,156
-324,358	526,733	0,129	-0,219
-323,343	-123,042	-0,201	-0,023
-322,329	95,906	0,072	0,059
-321,314	315,027	0,058	0,078
-320,299	39,096	-0,041	-0,026
-319,285	50,288	-0,148	-0,100
-318,270	74,961	-0,075	0,057
-317,256	3,128	-0,073	0,038
-316,241	58,642	0,060	0,042
-315,226	-200,000	-0,001	0,037
-314,212	-200,000	-0,014	0,091
-313,197	-200,000	-0,002	-0,068
-312,183	293,141	0,027	-0,035
-311,168	-200,000	0,020	-0,191
-310,153	-200,000	-0,032	-0,142
-309,139	800,000	-0,071	-0,162
-308,124	90,194	-0,062	0,049
-307,110	215,059	-0,097	0,110
-306,095	48,166	0,038	-0,025
-305,080	58,536	0,091	-0,064
-304,066	81,831	-0,024	0,019
-303,051	-162,207	-0,093	-0,003
-302,037	77,167	0,134	0,102
-301,022	-131,654	-0,150	0,014
-300,008	800,000	0,050	0,117
-298,993	53,754	0,202	0,139
-297,978	684,771	0,061	0,114
-296,964	190,551	0,097	-0,105
-295,949	478,351	-0,089	0,144
-294,935	24,537	0,054	0,032
-293,920	165,113	0,048	0,049
-292,905	550,645	0,023	0,040
-291,891	-40,975	0,026	0,010
-290,876	48,432	-0,076	-0,051
-289,862	-200,000	0,005	-0,057
-288,847	-200,000	-0,047	-0,164
-287,832	-200,000	0,018	-0,164
-286,818	-115,538	-0,077	-0,010
-285,803	-200,000	-0,002	0,056
-284,789	-200,000	-0,016	0,053
-283,774	717,332	-0,043	0,082
-282,759	-200,000	-0,026	-0,142
-281,745	-47,141	0,064	0,022
-280,730	263,088	-0,061	-0,076
-279,716	66,396	0,074	0,054
-278,701	800,000	-0,051	0,115
-277,686	18,782	0,121	0,069
-276,672	128,359	0,019	0,017
-275,657	101,879	-0,074	-0,062
-274,643	800,000	0,029	-0,067
-273,628	265,244	-0,038	-0,047
-272,613	-132,790	0,077	-0,007
-271,599	-93,293	0,115	-0,023
-270,584	-165,649	0,134	0,004
-269,570	-83,013	-0,108	-0,025
-268,555	677,912	-0,061	-0,114
-267,540	800,000	-0,035	0,086
-266,526	-76,280	-0,182	-0,045
-265,511	91,115	0,083	0,066
-264,497	-11,533	-0,014	0,007
-263,482	800,000	0,022	0,057
-262,467	-121,940	0,098	0,011
-261,453	242,052	0,099	-0,119
-260,438	66,390	-0,133	-0,096
-259,424	-6,726	-0,029	-0,014
-258,409	523,869	0,040	-0,067
-257,395	261,051	-0,033	-0,041
-256,380	-19,387	-0,021	0,009
-255,365	781,324	0,041	0,080
-254,351	-126,928	0,101	0,010
-253,336	-200,000	-0,006	-0,116
-252,322	46,066	0,130	0,086
-251,307	165,621	-0,039	0,039
-250,292	-168,028	-0,057	-0,002
-249,278	-47,872	0,199	-0,068
-248,263	280,626	0,005	0,006
-247,249	-171,978	-0,045	0,001
-246,234	-78,757	0,043	-0,010
-245,219	80,138	-0,196	-0,150
-244,205	-76,620	-0,028	-0,007
-243,190	800,000	-0,026	-0,082
-242,176	102,113	-0,031	-0,026
-241,161	-200,000	0,001	0,021
-240,146	-30,174	-0,086	0,035
-239,132	-200,000	-0,031	-0,110
-238,117	-18,138	0,057	-0,025
-237,103	8,795	0,119	0,064
-236,088	194,023	-0,082	-0,089
-235,073	239,898	0,160	-0,191
-234,059	562,628	-0,024	-0,041
-233,044	-200,000	-0,018	0,069
-232,030	-200,000	-0,020	0,150
-231,015	696,363	0,027	-0,051
-230,000	800,000	-0,013	0,034
-228,986	-25,487	0,041	-0,017
-227,971	96,459	0,061	-0,049
-226,957	800,000	0,039	0,078
-225,942	40,056	-0,106	0,068
-224,927	109,812	-0,034	-0,029
-223,913	742,976	0,036	-0,069
-222,898	18,634	-0,029	0,017
-221,884	-25,882	-0,034	0,014
-220,869	-67,708	0,163	0,045
-219,855	-200,000	0,026	0,085
-218,840	800,000	0,090	0,232
-217,825	6,788	-0,119	0,063
-216,811	-200,000	-0,006	0,034
-215,796	-154,819	-0,096	-0,004
-214,782	800,000	-0,028	-0,071
-213,767	-20,553	-0,042	-0,018
-212,752	93,421	-0,064	0,052
-211,738	252,664	0,061	0,074
-210,723	-62,074	0,095	-0,028
-209,709	-200,000	-0,003	-0,015
-208,694	670,494	-0,059	-0,110
-207,679	402,622	-0,088	-0,132
-206,665	-88,524	0,046	0,010
-205,650	385,790	0,026	0,038
-204,636	197,879	-0,064	0,070
-203,621	-97,632	0,146	0,027
-202,606	16,677	-0,084	0,047
-201,592	800,000	0,026	-0,068
-200,577	-130,397	0,034	0,003
-199,563	22,451	0,056	0,033
-198,548	-200,000	-0,033	0,106
-197,533	800,000	0,037	0,084
-196,519	226,409	0,068	-0,078
-195,504	-200,000	-0,009	-0,040
-194,490	463,184	-0,051	0,082
-193,475	298,821	0,037	0,048
-192,460	-127,239	0,043	-0,004
-191,446	-18,412	0,054	0,024
-190,431	800,000	-0,057	0,113
-189,417	-98,462	-0,070	-0,013
-188,402	-200,000	0,005	0,093
-187,387	-200,000	-0,000	-0,033
-186,373	800,000	0,031	-0,065
-185,358	800,000	0,007	-0,020
-184,344	244,154	0,055	0,066
-183,329	261,613	-0,087	0,107
-182,315	-200,000	-0,008	0,088
-181,300	-50,482	0,203	0,068
-180,285	-200,000	0,013	-0,075
-179,271	770,201	0,079	-0,153
-178,256	-70,249	-0,169	-0,046
-177,242	-200,000	0,018	0,104
-176,227	800,000	0,008	0,019
-175,212	-68,939	-0,053	-0,014
-174,198	-116,636	0,045	0,006
-173,183	213,867	-0,090	-0,101
-172,169	239,234	-0,050	-0,059
-171,154	-200,000	0,000	0,042
-170,139	-200,000	0,000	0,068
-169,125	81,153	0,093	0,071
-168,110	-22,521	0,069	-0,029
-167,096	160,506	-0,093	0,092
-166,081	530,609	0,021	0,036
-165,066	372,449	-0,100	-0,145
-164,052	48,023	0,066	0,044
-163,037	-82,974	-0,094	-0,021
-162,023	399,245	-0,061	0,091
-161,008	-37,935	0,070	-0,026
-159,993	565,899	0,033	0,056
-158,979	34,592	-0,103	0,064
-157,964	13,001	-0,143	-0,078
-156,950	664,260	0,022	-0,041
-155,935	167,666	0,044	-0,045
-154,920	-34,769	0,019	0,007
-153,906	487,090	-0,033	0,054
-152,891	67,177	0,087	0,063
-151,877	-7,514	-0,063	0,030
-150,862	354,294	-0,126	0,179
-149,847	-63,971	0,094	-0,027
-148,833	146,025	0,071	-0,068
-147,818	-8,626	0,057	-0,027
-146,804	-200,000	0,010	0,117
-145,789	343,748	-0,044	0,062
-144,775	-152,437	0,047	0,002
-143,760	-200,000	-0,014	0,159
-142,745	449,337	-0,024	-0,038
-141,731	-200,000	0,014	0,055
-140,716	135,011	0,061	-0,057
-139,702	-200,000	0,013	0,073
-138,687	30,060	-0,076	0,046
-137,672	800,000	0,051	0,140
-136,658	-122,605	0,075	0,008
-135,643	385,041	-0,116	-0,171
-134,629	800,000	0,046	-0,143
-133,614	196,907	-0,058	-0,063
-132,599	-51,832	0,094	0,031
-131,585	-35,158	0,174	0,067
-130,570	-74,694	-0,063	-0,016
-129,556	-200,000	-0,023	0,110
-128,541	-156,125	0,067	-0,003
-127,526	-200,000	-0,047	0,169
-126,512	-200,000	0,017	0,097
-125,497	39,302	0,089	-0,057
-124,483	800,000	0,020	-0,059
-123,468	225,770	-0,138	0,159
-122,453	145,183	0,028	0,027
-121,439	-200,000	-0,032	-0,172
-120,424	-116,256	-0,013	-0,002
-119,410	800,000	-0,016	0,044
