DTS Sentinel unit serial number:	SN410029Multiplexer serial number:	ORYXHardware model number:	OX2-SRSoftware version number:	ORYX F/W v4,00 Oryx Data Collector v3.7.2.0data status	okinstallation	BH3 CH2differential loss correction	single-endedforward channel	channel 2reverse channel	N/Adate	2023/12/06time	02:02:28forward acquisition time	300,00reverse acquisition time	0,00gamma	499,1914k internal	0,3196k external	0,3196temperature offset calibration	1,0000default loss term (dB/km)	0,3820temperature slope calibration	1,0000multiplexer offset coefficient	1,0000multiplexer slope coefficient	1,0000fibre end	0,00T internal ref (°C)	9,10T ext. ref 1 (°C)	-5,79T ext. ref 2 (°C)	-5,87length (m)	temperature (°C)	Stokes	anti-Stokes-744,400	-44,821	-0,173	-0,062
-743,385	-46,872	-0,347	0,123
-742,371	800,000	0,058	-0,146
-741,356	4,245	-0,158	0,084
-740,342	41,013	-0,157	-0,103
-739,327	-135,929	-0,267	-0,023
-738,312	296,658	-0,034	-0,045
-737,298	-112,606	-0,242	-0,035
-736,283	146,466	-0,074	0,072
-735,269	-200,000	-0,245	-0,001
-734,254	-200,000	-0,020	-0,090
-733,239	-53,615	-0,392	-0,130
-732,225	-26,766	0,129	-0,055
-731,210	360,254	0,095	0,139
-730,196	-55,864	-0,085	0,027
-729,181	-6,413	-0,079	0,039
-728,167	-200,000	0,002	0,095
-727,152	-149,840	0,053	-0,003
-726,137	-200,000	-0,010	0,147
-725,123	-200,000	0,010	-0,083
-724,108	-200,000	0,000	-0,104
-723,094	-87,297	-0,139	0,030
-722,079	46,194	-0,083	0,056
-721,064	-200,000	-0,035	-0,146
-720,050	-75,416	-0,022	0,006
-719,035	-110,817	-0,066	0,010
-718,021	-60,071	-0,059	0,018
-717,006	-200,000	0,003	-0,226
-715,991	105,409	-0,080	-0,069
-714,977	11,768	-0,130	-0,072
-713,962	-38,949	0,191	-0,073
-712,948	-84,108	-0,107	-0,025
-711,933	-200,000	0,004	-0,029
-710,918	800,000	0,023	-0,061
-709,904	-132,239	0,097	0,009
-708,889	21,576	-0,144	-0,085
-707,875	-17,595	-0,109	-0,050
-706,860	354,214	0,074	-0,107
-705,845	-77,519	-0,188	0,047
-704,831	291,663	0,049	-0,065
-703,816	82,595	0,043	-0,034
-702,802	-200,000	0,003	-0,076
-701,787	-200,000	-0,007	-0,060
-700,772	-200,000	-0,021	-0,107
-699,758	8,163	0,106	-0,058
-698,743	-21,846	-0,047	0,021
-697,729	-200,000	0,027	0,155
-696,714	113,873	-0,053	-0,047
-695,699	-62,548	-0,194	-0,058
-694,685	-200,000	-0,023	-0,116
-693,670	800,000	-0,104	-0,212
-692,656	551,856	0,025	-0,044
-691,641	-148,470	0,178	0,010
-690,627	-185,370	-0,013	-0,000
-689,612	-200,000	-0,010	0,049
-688,597	89,786	0,066	0,054
-687,583	761,144	0,029	-0,057
-686,568	-60,511	0,147	-0,045
-685,554	38,364	0,054	-0,035
-684,539	-5,325	0,050	0,025
-683,524	800,000	-0,038	-0,088
-682,510	-200,000	0,008	-0,215
-681,495	-200,000	-0,012	-0,144
-680,481	-96,285	0,038	0,007
-679,466	115,656	-0,132	-0,117
-678,451	-44,482	0,076	-0,027
-677,437	-150,418	-0,124	0,007
-676,422	39,035	0,030	-0,020
-675,408	92,099	0,053	-0,044
-674,393	220,655	0,044	-0,052
-673,378	81,775	-0,067	-0,053
-672,364	349,129	-0,010	0,014
-671,349	-200,000	0,020	0,080
-670,335	-13,324	-0,026	0,012
-669,320	-200,000	0,037	0,147
-668,305	-3,235	0,130	0,066
-667,291	800,000	0,030	0,089
-666,276	286,865	-0,122	0,161
-665,262	-14,524	-0,164	0,076
-664,247	-200,000	-0,001	-0,124
-663,232	313,412	-0,048	-0,066
-662,218	800,000	-0,018	0,052
-661,203	-49,768	-0,066	0,023
-660,189	-200,000	0,008	-0,036
-659,174	-90,004	0,018	0,004
-658,159	82,498	-0,084	0,066
-657,145	7,839	0,085	-0,046
-656,130	403,387	0,076	0,116
-655,116	-75,691	0,084	-0,021
-654,101	-84,061	0,104	-0,024
-653,086	456,583	0,004	0,007
-652,072	-79,175	0,099	-0,024
-651,057	-31,326	-0,148	-0,060
-650,043	-200,000	0,006	-0,100
-649,028	-150,492	-0,030	0,002
-648,014	234,258	0,017	-0,021
-646,999	60,375	-0,043	-0,031
-645,984	645,373	0,028	0,051
-644,970	-200,000	-0,006	0,040
-643,955	-124,598	-0,149	-0,017
-642,941	800,000	0,028	-0,061
-641,926	-26,903	0,057	-0,024
-640,911	-200,000	-0,002	0,039
-639,897	114,848	0,085	-0,075
-638,882	699,575	-0,036	-0,068
-637,868	39,060	-0,077	-0,050
-636,853	-6,067	0,050	-0,025
-635,838	-95,935	-0,083	-0,016
-634,824	39,394	0,059	0,038
-633,809	-200,000	-0,034	0,136
-632,795	-200,000	-0,007	-0,045
-631,780	423,089	-0,013	-0,021
-630,765	800,000	-0,064	-0,183
-629,751	-200,000	-0,039	-0,127
-628,736	-96,710	-0,024	-0,005
-627,722	-105,498	-0,130	-0,021
-626,707	49,899	0,146	0,100
-625,692	447,348	-0,091	0,146
-624,678	400,908	-0,054	0,083
-623,663	800,000	0,115	0,230
-622,649	-200,000	-0,015	0,101
-621,634	217,795	-0,090	-0,104
-620,619	-46,938	0,084	-0,030
-619,605	-196,272	-0,096	-0,000
-618,590	-23,949	0,093	0,040
-617,576	800,000	0,029	0,085
-616,561	-88,715	0,068	-0,014
-615,546	-12,231	0,031	-0,015
-614,532	-98,541	-0,012	-0,002
-613,517	245,291	-0,063	-0,077
-612,503	-127,752	0,126	-0,013
-611,488	42,723	0,083	0,055
-610,474	-150,735	-0,018	0,001
-609,459	-75,095	-0,070	-0,018
-608,444	211,586	-0,100	0,114
-607,430	-200,000	0,000	-0,075
-606,415	35,655	0,167	-0,106
-605,401	-24,428	-0,061	0,026
-604,386	800,000	0,025	0,076
-603,371	329,094	0,052	0,073
-602,357	-25,233	-0,089	0,038
-601,342	63,855	-0,119	0,086
-600,328	-200,000	-0,059	-0,193
-599,313	-200,000	-0,012	-0,175
-598,298	800,000	-0,011	-0,031
-597,284	3,641	0,066	0,035
-596,269	-200,000	-0,013	-0,095
-595,255	-200,000	-0,129	-0,000
-594,240	162,396	0,062	0,063
-593,225	-115,355	0,080	0,011
-592,211	-11,703	0,134	0,064
-591,196	-109,567	-0,095	-0,014
-590,182	225,117	0,014	0,017
-589,167	800,000	0,055	0,171
-588,152	-200,000	-0,014	0,076
-587,138	-99,416	-0,040	0,007
-586,123	128,607	-0,105	-0,097
-585,109	-200,000	-0,011	0,052
-584,094	800,000	-0,031	0,065
-583,079	50,426	-0,140	0,096
-582,065	364,408	0,050	0,073
-581,050	207,146	0,037	0,042
-580,036	-200,000	-0,008	-0,075
-579,021	-200,000	-0,016	-0,132
-578,006	31,470	-0,055	-0,034
-576,992	-200,000	0,012	0,056
-575,977	63,474	0,073	0,053
-574,963	192,389	-0,050	0,055
-573,948	-200,000	0,035	-0,136
-572,934	322,986	-0,039	0,054
-571,919	800,000	0,032	-0,079
-570,904	-200,000	-0,015	-0,155
-569,890	-140,055	-0,069	0,005
-568,875	81,969	0,133	0,104
-567,861	-134,937	-0,124	0,011
-566,846	107,197	0,093	0,080
-565,831	53,475	-0,033	0,023
-564,817	356,529	0,075	0,108
-563,802	800,000	-0,024	-0,068
-562,788	-200,000	0,002	-0,131
-561,773	-200,000	-0,002	-0,147
-560,758	349,116	-0,033	-0,047
-559,744	536,072	-0,041	0,070
-558,729	-67,954	0,024	0,007
-557,715	591,943	0,045	-0,081
-556,700	153,661	-0,086	-0,085
-555,685	286,146	-0,054	-0,071
-554,671	563,460	-0,018	-0,032
-553,656	223,650	0,034	0,040
-552,642	596,443	0,018	-0,032
-551,627	-200,000	0,014	-0,126
-550,612	-138,912	-0,061	0,005
-549,598	-200,000	-0,003	-0,013
-548,583	-112,409	0,053	-0,008
-547,569	-98,744	0,093	0,017
-546,554	-87,605	0,013	0,003
-545,539	-200,000	-0,009	0,058
-544,525	148,174	-0,154	0,150
-543,510	-174,619	-0,101	-0,002
-542,496	-200,000	0,018	0,089
-541,481	154,098	0,089	0,088
-540,466	134,473	-0,118	-0,110
-539,452	-200,000	0,018	-0,073
-538,437	-96,433	0,135	-0,026
-537,423	-200,000	-0,005	-0,127
-536,408	-200,000	-0,063	-0,201
-535,393	20,817	0,094	-0,055
-534,379	800,000	0,029	-0,086
-533,364	14,657	-0,074	-0,042
-532,350	-95,154	0,072	-0,014
-531,335	800,000	0,038	-0,120
-530,321	-107,626	0,114	-0,018
-529,306	800,000	0,020	0,059
-528,291	559,532	-0,079	0,139
-527,277	143,314	0,054	-0,052
-526,262	232,018	-0,049	-0,058
-525,248	-9,334	-0,091	-0,044
-524,233	-200,000	-0,028	0,102
-523,218	-200,000	0,001	0,027
-522,204	82,514	0,081	-0,063
-521,189	-200,000	-0,033	0,106
-520,175	247,682	-0,115	-0,141
-519,160	800,000	-0,029	-0,091
-518,145	-107,969	0,076	0,012
-517,131	-126,870	0,100	0,011
-516,116	-78,296	-0,023	0,006
-515,102	516,494	-0,064	-0,108
-514,087	800,000	0,077	0,163
-513,072	-11,633	-0,126	0,060
-512,058	480,874	0,015	0,024
-511,043	284,281	0,019	-0,025
-510,029	800,000	0,067	0,158
-509,014	-96,956	0,073	0,014
-507,999	132,646	0,018	-0,017
-506,985	-200,000	-0,029	-0,094
-505,970	189,861	-0,095	-0,103
-504,956	800,000	-0,073	-0,159
-503,941	800,000	-0,028	-0,061
-502,926	-200,000	-0,010	0,036
-501,912	-200,000	0,020	0,091
-500,897	800,000	-0,032	-0,071
-499,883	-122,544	0,121	-0,014
-498,868	-7,689	-0,135	-0,066
-497,853	-200,000	0,009	-0,137
-496,839	298,378	-0,019	-0,025
-495,824	-136,568	0,029	-0,002
-494,810	289,669	-0,084	0,110
-493,795	274,681	0,109	0,140
-492,781	800,000	-0,015	-0,037
-491,766	-62,443	-0,119	0,035
-490,751	252,271	0,055	0,067
-489,737	277,149	0,087	-0,112
-488,722	128,860	-0,134	0,123
-487,708	-97,736	0,072	-0,013
-486,693	-85,030	0,054	-0,012
-485,678	25,007	-0,022	0,013
-484,664	-76,560	-0,236	-0,059
-483,649	-200,000	-0,028	-0,123
-482,635	130,495	-0,048	0,044
-481,620	-200,000	-0,009	-0,130
-480,605	-172,102	0,110	0,003
-479,591	800,000	0,019	0,058
-478,576	-200,000	0,000	-0,017
-477,562	-200,000	0,017	-0,087
-476,547	800,000	-0,013	-0,027
-475,532	611,483	-0,076	-0,137
-474,518	-200,000	-0,025	-0,094
-473,503	-71,447	0,072	-0,019
-472,489	128,984	0,055	0,050
-471,474	-200,000	0,014	0,079
-470,459	-200,000	-0,008	-0,127
-469,445	28,600	-0,175	-0,106
-468,430	702,020	0,082	-0,157
-467,416	626,427	0,052	-0,094
-466,401	0,600	0,074	0,038
-465,386	800,000	0,034	-0,101
-464,372	800,000	0,020	-0,059
-463,357	200,584	-0,018	-0,020
-462,343	51,485	-0,146	-0,100
-461,328	134,056	-0,148	-0,138
-460,313	230,095	-0,116	0,137
-459,299	284,325	0,058	0,076
-458,284	-200,000	0,012	0,114
-457,270	106,129	-0,073	-0,062
-456,255	117,764	0,020	0,018
-455,241	322,492	0,072	0,099
-454,226	211,493	0,050	0,057
-453,211	-121,893	0,115	0,013
-452,197	183,073	-0,063	-0,067
-451,182	-200,000	-0,020	-0,068
-450,168	169,755	-0,113	0,116
-449,153	122,399	-0,072	-0,065
-448,138	719,841	-0,058	-0,111
-447,124	83,947	-0,141	-0,111
-446,109	93,515	0,033	0,027
-445,095	-200,000	0,015	0,184
-444,080	286,415	0,070	0,091
-443,065	38,113	-0,048	-0,031
-442,051	157,432	-0,061	0,061
-441,036	-14,713	-0,081	0,037
-440,022	-48,538	-0,210	0,072
-439,007	137,548	-0,063	0,059
-437,992	-200,000	-0,013	0,054
-436,978	174,757	0,031	0,032
-435,963	55,671	-0,058	0,041
-434,949	-200,000	-0,011	-0,043
-433,934	658,750	-0,053	-0,099
-432,919	-99,721	-0,059	-0,011
-431,905	-200,000	0,015	-0,109
-430,890	44,721	0,049	0,033
-429,876	-200,000	0,003	0,061
-428,861	800,000	0,007	0,018
-427,846	-200,000	-0,016	0,066
-426,832	171,590	-0,083	-0,086
-425,817	-153,882	0,046	-0,002
-424,803	-200,000	-0,022	0,078
-423,788	83,543	0,145	0,114
-422,773	299,324	-0,059	0,078
-421,759	252,292	0,071	-0,088
-420,744	434,654	-0,078	0,122
-419,730	242,044	-0,072	-0,087
-418,715	39,402	-0,042	0,027
-417,701	-59,610	-0,062	0,019
-416,686	73,116	0,002	-0,002
-415,671	-200,000	0,015	0,136
-414,657	69,818	0,106	-0,078
-413,642	-200,000	0,022	-0,074
-412,628	174,907	0,066	-0,069
-411,613	800,000	-0,041	-0,123
-410,598	146,230	-0,042	0,041
-409,584	596,542	-0,078	0,139
-408,569	-200,000	0,023	0,112
-407,555	99,765	0,193	0,160
-406,540	24,273	-0,047	0,028
-405,525	-200,000	-0,002	0,015
-404,511	356,512	-0,024	0,035
-403,496	184,937	-0,012	0,012
-402,482	-200,000	0,013	0,091
-401,467	-106,494	-0,014	0,002
-400,452	243,785	0,128	0,154
-399,438	319,189	-0,033	-0,045
-398,423	-14,082	0,136	-0,063
-397,409	-82,768	-0,137	0,032
-396,394	-200,000	0,010	-0,139
-395,379	-127,587	0,168	0,017
-394,365	-140,903	0,094	-0,007
-393,350	150,772	0,091	-0,089
-392,336	-200,000	0,023	0,162
-391,321	608,969	-0,031	-0,056
-390,306	45,438	-0,064	0,042
-389,292	24,818	-0,036	-0,022
-388,277	471,607	-0,078	0,127
-387,263	68,733	0,158	0,117
-386,248	-143,851	0,064	0,004
-385,233	339,624	-0,049	0,068
-384,219	101,536	-0,052	0,043
-383,204	-90,108	0,054	0,011
-382,190	129,536	0,097	0,089
-381,175	-200,000	-0,000	0,005
-380,160	149,379	0,052	0,050
-379,146	388,425	0,072	0,108
-378,131	606,393	0,037	0,066
-377,117	96,584	-0,067	0,055
-376,102	700,560	-0,039	-0,073
-375,088	800,000	0,036	-0,073
-374,073	-200,000	0,014	0,084
-373,058	197,683	0,092	-0,101
-372,044	168,795	0,093	0,096
-371,029	800,000	0,020	0,041
-370,015	-200,000	-0,027	0,090
-369,000	-200,000	0,015	-0,075
-367,985	345,369	-0,068	-0,096
-366,971	-22,123	0,145	0,063
-365,956	149,858	0,034	-0,033
-364,942	415,112	-0,070	-0,108
-363,927	-82,485	0,123	-0,029
-362,912	476,846	0,073	0,120
-361,898	800,000	-0,060	-0,140
-360,883	3,375	-0,112	-0,058
-359,869	-23,130	-0,079	-0,034
-358,854	-200,000	-0,013	0,085
-357,839	-200,000	-0,002	0,038
-356,825	-200,000	0,021	0,068
-355,810	800,000	0,017	-0,049
-354,796	90,357	-0,045	-0,036
-353,781	53,543	0,038	-0,026
-352,766	-200,000	-0,007	0,030
-351,752	-88,303	0,080	0,017
-350,737	-200,000	0,003	0,022
-349,723	43,843	0,087	-0,057
-348,708	450,110	0,060	0,095
-347,693	134,236	0,025	-0,023
-346,679	-158,594	0,103	-0,004
-345,664	-200,000	0,007	-0,082
-344,650	29,198	-0,084	-0,051
-343,635	49,988	0,113	-0,076
-342,620	608,625	0,012	0,022
-341,606	92,976	-0,052	0,042
-340,591	-200,000	0,009	-0,083
-339,577	-200,000	-0,017	0,081
-338,562	-51,826	-0,075	0,025
-337,548	800,000	0,054	-0,155
-336,533	-200,000	0,022	0,081
-335,518	-119,204	0,089	0,011
-334,504	-151,484	0,152	-0,008
-333,489	-12,482	0,111	0,052
-332,475	41,855	-0,092	-0,060
-331,460	-65,569	0,170	-0,049
-330,445	108,562	0,092	-0,079
-329,431	80,237	-0,067	0,052
-328,416	-200,000	-0,000	0,145
-327,402	-55,342	0,063	-0,020
-326,387	800,000	-0,032	-0,081
-325,372	569,132	-0,034	0,059
-324,358	288,535	0,022	-0,028
-323,343	457,928	-0,089	-0,142
-322,329	148,950	-0,041	0,040
-321,314	354,618	0,066	-0,094
-320,299	800,000	0,053	0,121
-319,285	385,606	-0,051	0,075
-318,270	-115,462	-0,080	-0,011
-317,256	-200,000	-0,005	-0,022
-316,241	547,175	0,019	-0,033
-315,226	-194,449	0,130	0,001
-314,212	512,831	-0,019	0,032
-313,197	72,797	-0,054	0,040
-312,183	-124,363	-0,075	0,008
-311,168	800,000	0,021	-0,051
-310,153	404,068	0,048	-0,073
-309,139	-200,000	-0,017	-0,101
-308,124	447,018	-0,051	0,081
-307,110	800,000	0,052	0,114
-306,095	-117,251	-0,102	0,013
-305,080	-27,241	-0,018	0,008
-304,066	340,817	0,020	-0,028
-303,051	-200,000	-0,008	-0,060
-302,037	-87,550	0,107	0,023
-301,022	274,642	-0,077	-0,098
-300,008	-118,150	0,133	-0,017
-298,993	407,672	-0,020	-0,030
-297,978	84,269	0,103	0,081
-296,964	143,989	0,022	0,021
-295,949	358,454	-0,018	-0,026
-294,935	800,000	0,031	0,097
-293,920	800,000	0,042	-0,106
-292,905	-171,463	0,063	0,001
-291,891	366,388	0,030	-0,044
-290,876	-123,835	-0,034	-0,004
-289,862	-139,615	0,036	-0,003
-288,847	24,153	0,106	-0,063
-287,832	-70,827	-0,219	0,059
-286,818	102,643	-0,090	-0,075
-285,803	-121,267	0,037	-0,004
-284,789	91,418	0,113	-0,091
-283,774	-50,542	0,125	-0,042
-282,759	-2,274	-0,107	-0,053
-281,745	298,239	-0,028	-0,037
-280,730	800,000	-0,091	-0,193
-279,716	-25,840	-0,110	0,046
-278,701	743,558	0,040	-0,078
-277,686	-112,689	0,021	-0,003
-276,672	-115,329	0,099	-0,013
-275,657	46,107	-0,182	0,121
-274,643	194,784	-0,114	0,124
-273,628	-115,032	-0,194	-0,026
-272,613	800,000	-0,047	-0,101
-271,599	-21,118	-0,094	0,041
-270,584	16,878	0,038	0,022
-269,570	-125,738	-0,138	0,015
-268,555	-10,272	-0,146	0,069
-267,540	-200,000	0,002	-0,264
-266,526	-200,000	0,059	-0,246
-265,511	29,187	0,042	-0,026
-264,497	-200,000	0,002	-0,025
-263,482	-60,004	0,082	0,025
-262,467	-129,260	0,079	-0,008
-261,453	800,000	0,033	0,103
-260,438	-200,000	-0,035	-0,117
-259,424	-200,000	-0,016	-0,073
-258,409	-200,000	0,050	-0,215
-257,395	15,260	-0,091	0,051
-256,380	800,000	-0,017	-0,043
-255,365	-97,058	0,074	-0,014
-254,351	26,897	-0,058	-0,035
-253,336	-113,309	-0,094	0,013
-252,322	800,000	0,008	0,018
-251,307	-200,000	0,015	0,095
-250,292	436,079	0,064	0,100
-249,278	-200,000	-0,009	-0,070
-248,263	108,503	0,075	0,064
-247,249	85,659	0,096	0,075
-246,234	59,727	-0,111	0,078
-245,219	-200,000	0,010	-0,059
-244,205	-200,000	-0,016	0,090
-243,190	-18,870	-0,068	-0,030
-242,176	-200,000	0,009	0,168
-241,161	-72,444	0,171	0,045
-240,146	-200,000	-0,022	0,180
-239,132	800,000	-0,019	0,054
-238,117	84,456	-0,099	-0,077
-237,103	-24,709	-0,198	0,084
-236,088	57,268	0,034	-0,024
-235,073	800,000	-0,048	0,122
-234,059	131,640	0,060	0,055
-233,044	163,727	-0,025	0,025
-232,030	-200,000	0,001	0,046
-231,015	-200,000	0,005	-0,028
-230,000	105,206	-0,089	-0,075
-228,986	-200,000	-0,034	0,164
-227,971	-142,922	0,112	0,008
-226,957	-200,000	0,013	0,138
-225,942	99,537	0,101	0,083
-224,927	-200,000	-0,018	-0,100
-223,913	133,382	-0,026	0,024
-222,898	800,000	0,016	-0,035
-221,884	-200,000	-0,021	0,078
-220,869	193,679	0,079	0,085
-219,855	-143,915	0,110	0,007
-218,840	563,619	0,052	0,090
-217,825	-200,000	0,018	0,081
-216,811	-200,000	-0,010	0,061
-215,796	-200,000	0,007	0,146
-214,782	78,905	0,067	-0,051
-213,767	-200,000	-0,021	-0,085
-212,752	-158,765	0,121	-0,005
-211,738	273,559	0,061	0,077
-210,723	352,523	0,033	0,046
-209,709	409,599	-0,046	-0,070
-208,694	-157,800	-0,068	0,003
-207,679	-200,000	-0,001	-0,121
-206,665	190,024	0,047	0,050
-205,650	-200,000	0,003	-0,029
-204,636	-116,941	0,089	-0,012
-203,621	-200,000	-0,038	0,138
-202,606	-17,867	-0,074	-0,033
-201,592	-200,000	0,004	-0,042
-200,577	-129,730	-0,215	0,021
-199,563	800,000	0,044	-0,108
-198,548	27,727	0,037	0,022
-197,533	46,738	0,114	-0,075
-196,519	800,000	0,054	0,113
-195,504	800,000	0,063	-0,163
-194,490	800,000	0,053	-0,108
-193,475	12,412	-0,151	-0,083
-192,460	0,174	0,133	-0,067
-191,446	-200,000	-0,052	0,190
-190,431	643,608	0,040	0,073
-189,417	-94,261	0,118	0,023
-188,402	-3,669	-0,105	0,052
-187,387	-67,601	-0,083	-0,023
-186,373	800,000	0,047	0,104
-185,358	800,000	0,059	0,126
-184,344	800,000	0,049	0,098
-183,329	358,990	-0,052	0,075
-182,315	-200,000	0,002	0,022
-181,300	227,523	-0,006	0,007
-180,285	280,639	0,079	-0,100
-179,271	106,415	0,161	-0,136
-178,256	-200,000	-0,012	-0,105
-177,242	-200,000	0,015	0,075
-176,227	-200,000	0,018	-0,152
-175,212	-200,000	0,033	0,103
-174,198	-200,000	-0,003	-0,058
-173,183	-84,486	-0,084	-0,019
-172,169	129,813	0,137	0,125
-171,154	-200,000	0,011	0,111
-170,139	-51,768	-0,073	0,024
-169,125	-200,000	0,006	-0,052
-168,110	56,105	0,115	0,080
-167,096	8,013	-0,210	0,112
-166,081	-68,651	0,019	0,005
-165,066	50,792	0,046	-0,031
-164,052	541,710	-0,068	-0,116
-163,037	800,000	-0,009	-0,026
-162,023	-35,590	-0,066	0,025
-161,008	-200,000	-0,016	0,101
-159,993	-106,247	0,038	0,006
-158,979	-73,392	-0,196	-0,051
-157,964	736,870	-0,066	-0,126
-156,950	-200,000	0,009	-0,069
-155,935	-141,312	0,131	-0,009
-154,920	-200,000	-0,032	0,144
-153,906	119,055	0,067	-0,059
-152,891	-5,347	0,128	0,062
-151,877	19,467	-0,169	-0,096
-150,862	126,555	0,114	-0,103
-149,847	6,686	0,147	0,077
-148,833	359,495	0,034	-0,048
-147,818	-200,000	0,002	0,025
-146,804	-200,000	0,036	0,159
-145,789	215,741	0,052	0,059
-144,775	-93,092	-0,064	0,013
-143,760	345,083	-0,105	-0,147
-142,745	-200,000	-0,004	-0,049
-141,731	-74,162	-0,115	-0,029
-140,716	800,000	0,010	-0,020
-139,702	-200,000	0,009	0,046
-138,687	121,222	-0,068	0,060
-137,672	-200,000	0,028	0,164
-136,658	-49,068	0,093	-0,031
-135,643	-200,000	-0,024	-0,085
-134,629	198,921	-0,051	-0,056
-133,614	-46,372	-0,081	0,028
-132,599	100,910	0,114	0,094
-131,585	130,336	0,098	-0,089
-130,570	134,987	0,074	-0,069
-129,556	-56,687	-0,046	0,014
-128,541	193,030	0,075	-0,080
-127,526	-136,071	0,066	0,005
-126,512	800,000	0,026	0,051
-125,497	-200,000	0,026	0,104
-124,483	-200,000	0,011	0,191
-123,468	-200,000	0,032	0,137
-122,453	351,512	-0,042	-0,060
-121,439	-200,000	-0,016	-0,101
-120,424	-4,727	-0,104	0,051
-119,410	-4,014	-0,100	0,049
