DTS Sentinel unit serial number:	SN410029Multiplexer serial number:	ORYXHardware model number:	OX2-SRSoftware version number:	ORYX F/W v4,00 Oryx Data Collector v3.7.2.0data status	okinstallation	BH3 CH2differential loss correction	single-endedforward channel	channel 2reverse channel	N/Adate	2023/12/06time	03:42:28forward acquisition time	300,00reverse acquisition time	0,00gamma	499,1914k internal	0,3197k external	0,3197temperature offset calibration	1,0000default loss term (dB/km)	0,3820temperature slope calibration	1,0000multiplexer offset coefficient	1,0000multiplexer slope coefficient	1,0000fibre end	0,00T internal ref (°C)	8,94T ext. ref 1 (°C)	-5,71T ext. ref 2 (°C)	-5,79length (m)	temperature (°C)	Stokes	anti-Stokes-744,400	800,000	0,035	-0,084
-743,385	-83,399	-0,141	-0,033
-742,371	-200,000	-0,006	-0,157
-741,356	-64,589	-0,291	0,086
-740,342	-200,000	0,015	0,057
-739,327	-115,627	-0,215	0,029
-738,312	-200,000	-0,018	-0,164
-737,298	-59,776	-0,346	-0,107
-736,283	304,418	-0,063	-0,085
-735,269	52,640	-0,160	0,111
-734,254	-200,000	-0,014	-0,084
-733,239	-75,612	-0,428	-0,110
-732,225	-200,000	0,045	-0,165
-731,210	-49,865	0,121	0,041
-730,196	152,455	-0,082	0,081
-729,181	-160,824	-0,089	0,003
-728,167	-198,583	0,127	0,001
-727,152	186,011	-0,074	0,080
-726,137	63,814	-0,044	0,032
-725,123	800,000	0,035	-0,071
-724,108	624,719	-0,042	-0,078
-723,094	86,854	-0,189	-0,152
-722,079	15,912	-0,134	-0,076
-721,064	301,853	0,016	-0,022
-720,050	-61,544	0,125	-0,038
-719,035	800,000	-0,008	-0,024
-718,021	-67,561	-0,044	0,013
-717,006	-200,000	0,037	-0,148
-715,991	165,399	-0,037	0,038
-714,977	-200,000	0,017	-0,170
-713,962	-200,000	-0,077	0,000
-712,948	132,103	0,071	-0,066
-711,933	-87,468	0,044	0,010
-710,918	79,302	-0,055	-0,043
-709,904	-0,758	-0,053	0,027
-708,889	-118,589	-0,052	0,007
-707,875	-200,000	0,009	-0,058
-706,860	96,170	-0,069	-0,057
-705,845	800,000	0,015	-0,035
-704,831	-68,991	-0,054	0,015
-703,816	-200,000	-0,008	0,137
-702,802	122,626	0,099	-0,090
-701,787	77,636	-0,142	-0,110
-700,772	-200,000	-0,020	0,160
-699,758	-101,050	-0,015	0,003
-698,743	114,564	0,096	0,085
-697,729	-40,828	-0,126	0,047
-696,714	35,771	0,128	0,082
-695,699	75,262	-0,084	0,064
-694,685	-200,000	0,007	-0,036
-693,670	800,000	-0,049	-0,142
-692,656	36,643	0,103	0,066
-691,641	336,429	-0,059	-0,084
-690,627	-102,822	0,152	0,026
-689,612	800,000	0,021	0,059
-688,597	800,000	-0,029	0,075
-687,583	634,234	-0,081	-0,150
-686,568	108,696	-0,068	-0,059
-685,554	-136,821	-0,085	0,007
-684,539	262,460	0,026	-0,033
-683,524	301,656	-0,101	-0,136
-682,510	-158,912	-0,181	-0,007
-681,495	489,754	-0,049	-0,082
-680,481	140,851	0,055	-0,053
-679,466	-200,000	0,004	-0,139
-678,451	-3,928	-0,080	0,040
-677,437	-106,992	0,138	0,022
-676,422	-149,901	-0,106	-0,006
-675,408	800,000	0,034	-0,102
-674,393	-23,845	0,163	-0,071
-673,378	139,914	-0,067	0,064
-672,364	359,464	0,036	-0,052
-671,349	290,695	-0,066	-0,088
-670,335	-28,934	-0,135	0,056
-669,320	-200,000	0,044	0,251
-668,305	-200,000	-0,030	-0,097
-667,291	757,776	-0,010	-0,020
-666,276	-53,916	-0,069	-0,023
-665,262	-200,000	0,041	-0,156
-664,247	-95,052	-0,120	-0,023
-663,232	-200,000	0,010	0,062
-662,218	-200,000	-0,008	-0,154
-661,203	800,000	-0,030	0,071
-660,189	-47,187	-0,160	0,056
-659,174	-50,406	-0,054	0,018
-658,159	-30,236	-0,043	-0,018
-657,145	-200,000	0,017	0,061
-656,130	-60,760	0,074	-0,023
-655,116	-147,878	-0,122	-0,007
-654,101	35,686	0,071	-0,045
-653,086	282,796	-0,151	0,197
-652,072	229,348	-0,017	-0,020
-651,057	66,262	-0,070	-0,052
-650,043	104,346	0,070	0,060
-649,028	96,522	-0,070	-0,058
-648,014	-200,000	0,012	0,115
-646,999	-200,000	0,013	0,128
-645,984	-200,000	0,014	0,179
-644,970	-27,336	-0,118	0,049
-643,955	-24,346	-0,162	-0,070
-642,941	45,059	-0,023	-0,015
-641,926	169,081	0,038	0,039
-640,911	-200,000	0,037	-0,122
-639,897	-200,000	-0,007	-0,091
-638,882	413,012	0,016	-0,025
-637,868	37,590	-0,041	0,026
-636,853	-200,000	-0,032	-0,109
-635,838	167,281	0,143	-0,147
-634,824	529,725	0,028	-0,048
-633,809	193,517	0,038	0,042
-632,795	262,511	0,075	0,095
-631,780	-117,839	0,189	0,024
-630,765	-10,542	-0,098	-0,047
-629,751	-71,916	0,040	0,011
-628,736	800,000	0,036	0,088
-627,722	426,977	0,081	0,128
-626,707	-102,864	0,076	0,013
-625,692	800,000	-0,036	0,083
-624,678	278,197	0,073	0,095
-623,663	21,442	-0,061	0,036
-622,649	251,209	-0,098	-0,121
-621,634	48,191	0,036	0,024
-620,619	-2,219	-0,045	-0,023
-619,605	325,000	-0,056	0,078
-618,590	-83,014	0,121	0,028
-617,576	33,618	-0,128	0,081
-616,561	517,709	-0,015	0,026
-615,546	92,207	-0,051	0,042
-614,532	800,000	-0,047	-0,113
-613,517	111,033	-0,078	0,068
-612,503	-37,062	0,039	0,015
-611,488	19,428	0,035	0,020
-610,474	652,154	0,041	0,076
-609,459	208,672	0,075	0,085
-608,444	119,596	0,049	-0,044
-607,430	-177,219	-0,110	0,002
-606,415	339,817	-0,014	-0,020
-605,401	344,015	0,058	-0,082
-604,386	-13,278	0,116	0,054
-603,371	800,000	-0,017	0,045
-602,357	103,537	-0,055	0,047
-601,342	800,000	-0,063	0,143
-600,328	800,000	0,036	-0,114
-599,313	570,565	-0,075	-0,132
-598,298	148,577	0,127	-0,124
-597,284	504,412	0,058	-0,098
-596,269	800,000	-0,007	-0,017
-595,255	93,854	0,138	0,114
-594,240	98,735	-0,173	-0,145
-593,225	700,605	-0,010	-0,020
-592,211	800,000	-0,016	0,045
-591,196	222,322	-0,033	-0,039
-590,182	307,881	0,052	0,070
-589,167	-200,000	-0,009	0,036
-588,152	-67,533	-0,105	-0,030
-587,138	-200,000	0,031	-0,102
-586,123	-64,260	-0,128	-0,038
-585,109	-200,000	0,038	-0,142
-584,094	-62,794	0,065	-0,019
-583,079	-33,954	-0,022	0,009
-582,065	-135,815	0,083	0,007
-581,050	38,445	-0,108	0,069
-580,036	-200,000	0,017	-0,074
-579,021	-57,617	-0,115	0,036
-578,006	800,000	0,041	-0,097
-576,992	800,000	0,032	-0,096
-575,977	-200,000	0,003	0,070
-574,963	-200,000	-0,024	0,105
-573,948	474,052	0,068	0,111
-572,934	800,000	-0,029	-0,064
-571,919	-42,978	-0,108	-0,039
-570,904	-35,100	-0,175	0,069
-569,890	-83,367	0,059	0,014
-568,875	-200,000	0,004	-0,068
-567,861	-200,000	-0,015	0,167
-566,846	475,025	0,069	0,113
-565,831	-167,836	-0,160	-0,004
-564,817	-98,149	-0,163	0,030
-563,802	717,919	0,035	-0,068
-562,788	-3,813	-0,080	-0,040
-561,773	800,000	-0,051	-0,114
-560,758	184,234	0,070	-0,075
-559,744	800,000	-0,004	0,011
-558,729	-200,000	0,008	-0,089
-557,715	-18,537	-0,041	0,018
-556,700	440,149	0,029	-0,045
-555,685	-200,000	-0,006	0,100
-554,671	-134,265	-0,012	-0,001
-553,656	-113,004	0,116	0,016
-552,642	40,457	0,130	-0,085
-551,627	-200,000	0,030	0,123
-550,612	-200,000	0,000	0,136
-549,598	-200,000	-0,009	-0,085
-548,583	-70,539	0,066	0,018
-547,569	-60,648	-0,094	-0,029
-546,554	-56,620	0,026	-0,008
-545,539	-200,000	0,036	-0,124
-544,525	74,759	0,087	0,066
-543,510	800,000	0,039	0,082
-542,496	164,912	-0,091	-0,092
-541,481	160,875	-0,042	0,042
-540,466	800,000	0,071	-0,192
-539,452	-200,000	0,002	-0,104
-538,437	800,000	-0,085	0,183
-537,423	800,000	0,019	-0,057
-536,408	42,201	-0,026	0,017
-535,393	-63,107	-0,097	-0,029
-534,379	-49,033	0,095	-0,033
-533,364	-200,000	-0,000	-0,074
-532,350	800,000	0,017	-0,036
-531,335	-34,453	-0,086	0,034
-530,321	-20,979	0,077	0,034
-529,306	235,018	-0,093	-0,111
-528,291	79,275	-0,053	0,041
-527,277	13,989	0,064	0,036
-526,262	382,077	0,077	-0,115
-525,248	-28,727	0,205	0,085
-524,233	209,507	-0,045	-0,051
-523,218	292,893	0,042	-0,055
-522,204	38,051	-0,031	0,020
-521,189	201,770	-0,072	-0,081
-520,175	381,621	0,079	-0,117
-519,160	138,053	-0,079	0,075
-518,145	-37,393	-0,067	-0,026
-517,131	-83,889	-0,013	-0,003
-516,116	63,528	-0,067	0,049
-515,102	-142,547	0,012	0,001
-514,087	-42,143	-0,047	-0,017
-513,072	-136,008	0,129	-0,011
-512,058	-63,606	-0,036	-0,011
-511,043	54,550	-0,075	0,052
-510,029	308,502	0,027	-0,036
-509,014	225,205	0,104	-0,121
-507,999	107,889	-0,100	0,086
-506,985	-124,023	-0,064	-0,007
-505,970	800,000	-0,027	-0,068
-504,956	800,000	0,054	-0,136
-503,941	-25,635	-0,021	0,009
-502,926	-54,294	-0,059	-0,019
-501,912	800,000	-0,070	0,169
-500,897	280,938	-0,105	0,135
-499,883	-200,000	0,002	0,074
-498,868	-12,022	-0,082	-0,038
-497,853	-34,511	0,082	0,032
-496,839	-200,000	0,013	0,053
-495,824	29,157	0,065	-0,040
-494,810	-56,727	0,116	-0,037
-493,795	460,191	-0,019	0,030
-492,781	-20,608	-0,112	-0,049
-491,766	266,072	0,021	0,027
-490,751	472,813	-0,039	0,063
-489,737	-13,762	0,122	-0,057
-488,722	68,462	0,096	-0,071
-487,708	800,000	-0,027	0,073
-486,693	-200,000	0,004	0,059
-485,678	-200,000	0,011	-0,088
-484,664	-200,000	-0,001	-0,090
-483,649	800,000	-0,021	0,046
-482,635	800,000	0,021	-0,054
-481,620	-200,000	-0,006	0,079
-480,605	-200,000	-0,006	0,150
-479,591	-200,000	0,039	0,178
-478,576	-64,982	-0,184	0,053
-477,562	87,755	-0,032	0,025
-476,547	165,721	-0,093	-0,095
-475,532	800,000	0,028	-0,080
-474,518	678,912	-0,011	-0,022
-473,503	800,000	0,012	0,032
-472,489	66,658	0,108	-0,079
-471,474	800,000	0,031	-0,070
-470,459	-200,000	-0,037	-0,121
-469,445	66,495	-0,105	-0,077
-468,430	800,000	0,061	-0,146
-467,416	174,040	0,048	0,050
-466,401	-200,000	0,008	0,115
-465,386	800,000	0,053	-0,111
-464,372	173,130	-0,019	0,020
-463,357	-200,000	0,026	0,106
-462,343	-110,821	0,066	-0,010
-461,328	52,619	-0,042	0,029
-460,313	251,057	0,048	-0,058
-459,299	-2,621	-0,096	0,048
-458,284	515,088	-0,063	0,106
-457,270	-8,565	-0,160	-0,077
-456,255	140,839	-0,054	0,052
-455,241	-200,000	-0,043	-0,222
-454,226	784,438	0,055	0,109
-453,211	77,524	0,073	0,056
-452,197	397,132	-0,073	0,110
-451,182	70,139	0,028	-0,021
-450,168	160,716	0,064	0,065
-449,153	74,456	-0,055	-0,041
-448,138	-45,433	-0,024	-0,008
-447,124	147,144	0,071	-0,069
-446,109	12,999	-0,100	0,056
-445,095	695,379	-0,051	-0,097
-444,080	-32,152	-0,043	-0,017
-443,065	587,050	0,070	0,125
-442,051	21,034	0,039	-0,023
-441,036	-145,855	-0,051	0,003
-440,022	-200,000	0,007	0,050
-439,007	63,597	0,108	0,078
-437,992	450,960	0,063	0,101
-436,978	765,504	-0,050	-0,098
-435,963	-200,000	0,014	-0,097
-434,949	53,451	-0,035	-0,024
-433,934	-200,000	-0,031	-0,111
-432,919	-200,000	-0,021	0,116
-431,905	-2,239	-0,130	0,065
-430,890	2,423	0,067	-0,035
-429,876	-200,000	-0,016	0,084
-428,861	103,340	-0,018	0,016
-427,846	2,287	0,021	0,011
-426,832	-200,000	0,014	-0,131
-425,817	-200,000	-0,003	-0,110
-424,803	-192,086	-0,065	-0,000
-423,788	-148,958	-0,101	-0,006
-422,773	-32,683	-0,008	0,003
-421,759	187,647	-0,062	0,067
-420,744	-118,710	-0,125	0,016
-419,730	107,550	-0,116	-0,099
-418,715	-200,000	0,004	0,017
-417,701	398,025	-0,053	0,081
-416,686	-200,000	-0,008	0,046
-415,671	-115,599	0,030	0,004
-414,657	-140,194	0,115	0,009
-413,642	-107,960	-0,101	0,016
-412,628	-36,553	-0,068	0,026
-411,613	800,000	0,047	-0,136
-410,598	-200,000	0,002	-0,058
-409,584	-200,000	0,010	0,122
-408,569	-103,735	0,042	-0,007
-407,555	-200,000	-0,006	-0,031
-406,540	76,218	-0,080	-0,060
-405,525	520,140	0,090	0,152
-404,511	-95,419	0,106	0,020
-403,496	-6,463	0,013	0,006
-402,482	-200,000	0,031	0,120
-401,467	-65,479	0,059	-0,017
-400,452	-200,000	0,008	0,059
-399,438	8,758	0,099	0,053
-398,423	-30,765	-0,196	-0,079
-397,409	-15,500	-0,106	-0,048
-396,394	35,230	0,068	-0,043
-395,379	-200,000	0,028	0,107
-394,365	-200,000	-0,015	0,062
-393,350	74,520	0,042	0,032
-392,336	344,572	0,018	0,026
-391,321	70,865	-0,134	-0,099
-390,306	-143,875	0,081	-0,005
-389,292	-200,000	-0,018	-0,203
-388,277	800,000	0,031	-0,092
-387,263	800,000	-0,066	0,137
-386,248	-20,519	0,125	0,055
-385,233	175,440	-0,117	-0,122
-384,219	800,000	0,035	0,074
-383,204	44,798	-0,135	-0,089
-382,190	528,595	-0,086	-0,146
-381,175	101,606	0,091	-0,076
-380,160	447,601	0,093	0,147
-379,146	61,394	0,033	0,024
-378,131	793,058	0,005	0,010
-377,117	800,000	0,023	0,058
-376,102	297,951	-0,035	-0,046
-375,088	800,000	-0,050	-0,139
-374,073	-200,000	0,010	-0,034
-373,058	-122,326	0,157	-0,018
-372,044	800,000	-0,027	0,080
-371,029	124,386	-0,149	0,134
-370,015	-69,973	-0,095	-0,026
-369,000	452,647	0,023	-0,037
-367,985	26,993	-0,134	-0,080
-366,971	444,595	0,037	0,059
-365,956	-200,000	-0,001	0,084
-364,942	-118,734	-0,152	-0,019
-363,927	23,958	0,072	0,043
-362,912	-56,532	-0,132	-0,042
-361,898	362,619	-0,073	-0,105
-360,883	209,340	-0,106	0,120
-359,869	-153,230	-0,167	-0,008
-358,854	-200,000	0,031	-0,194
-357,839	-19,728	0,170	-0,075
-356,825	-84,277	-0,122	0,027
-355,810	205,931	0,030	0,034
-354,796	-125,892	-0,036	-0,004
-353,781	9,569	-0,056	-0,030
-352,766	347,746	0,034	-0,049
-351,752	-32,020	0,121	0,048
-350,737	-200,000	0,012	0,071
-349,723	12,269	0,058	0,032
-348,708	-200,000	0,039	0,205
-347,693	-200,000	-0,024	-0,124
-346,679	-200,000	-0,002	-0,097
-345,664	-200,000	0,008	-0,038
-344,650	689,643	-0,013	-0,024
-343,635	319,652	0,059	0,080
-342,620	773,703	0,077	-0,151
-341,606	272,075	0,064	0,081
-340,591	-53,702	-0,068	-0,022
-339,577	-48,912	0,108	-0,037
-338,562	800,000	0,033	-0,090
-337,548	492,665	-0,096	-0,159
-336,533	141,100	0,029	-0,027
-335,518	-200,000	0,010	0,045
-334,504	-200,000	0,019	0,070
-333,489	800,000	-0,038	-0,077
-332,475	-200,000	-0,012	-0,231
-331,460	23,050	0,118	0,069
-330,445	62,270	0,131	0,094
-329,431	-16,836	0,100	-0,045
-328,416	550,972	0,037	0,064
-327,402	-89,106	0,089	0,019
-326,387	119,262	0,072	-0,064
-325,372	-200,000	0,007	-0,036
-324,358	93,322	0,109	-0,088
-323,343	-87,935	-0,119	0,025
-322,329	-86,782	0,088	0,019
-321,314	282,581	0,089	0,114
-320,299	-3,690	0,078	0,039
-319,285	-89,462	-0,123	0,026
-318,270	176,859	0,031	-0,032
-317,256	573,986	-0,046	0,081
-316,241	118,710	0,067	0,059
-315,226	-76,059	0,090	-0,023
-314,212	90,982	-0,129	0,103
-313,197	-200,000	-0,026	0,120
-312,183	79,034	-0,103	-0,079
-311,168	108,191	0,119	-0,102
-310,153	800,000	-0,088	-0,193
-309,139	-200,000	0,011	0,092
-308,124	-200,000	-0,008	-0,070
-307,110	-118,786	0,055	0,007
-306,095	-200,000	-0,008	0,068
-305,080	-200,000	0,004	-0,062
-304,066	-1,474	0,104	0,052
-303,051	800,000	0,094	-0,241
-302,037	436,063	0,007	-0,011
-301,022	-100,592	0,043	-0,007
-300,008	800,000	0,034	0,081
-298,993	-90,389	-0,107	-0,022
-297,978	-176,441	-0,064	0,001
-296,964	135,305	-0,093	-0,087
-295,949	-200,000	0,027	-0,095
-294,935	303,343	-0,055	-0,073
-293,920	-134,416	0,079	-0,007
-292,905	-145,983	0,184	-0,011
-291,891	-145,471	0,121	0,008
-290,876	24,314	0,111	0,065
-289,862	800,000	-0,037	0,096
-288,847	417,454	-0,075	0,115
-287,832	143,010	-0,059	-0,057
-286,818	-104,781	-0,123	0,020
-285,803	800,000	0,039	0,087
-284,789	-82,518	0,075	0,017
-283,774	603,672	0,039	0,070
-282,759	-7,178	0,108	-0,052
-281,745	40,679	0,068	-0,043
-280,730	800,000	-0,093	-0,225
-279,716	6,155	-0,088	0,046
-278,701	-97,422	0,148	-0,027
-277,686	57,022	0,155	0,108
-276,672	-97,980	-0,073	-0,013
-275,657	-120,347	0,173	-0,021
-274,643	-200,000	-0,046	-0,177
-273,628	-13,238	0,016	0,007
-272,613	602,198	-0,094	-0,168
-271,599	44,290	0,075	-0,049
-270,584	39,688	0,059	0,038
-269,570	-69,146	-0,021	-0,006
-268,555	119,822	0,056	-0,050
-267,540	416,167	-0,052	0,080
-266,526	43,460	-0,068	-0,044
-265,511	-200,000	-0,006	-0,049
-264,497	800,000	-0,026	0,081
-263,482	-200,000	0,003	0,062
-262,467	96,012	0,100	-0,082
-261,453	-58,927	-0,155	0,048
-260,438	-2,991	-0,093	0,046
-259,424	-131,109	0,057	-0,005
-258,409	-200,000	-0,011	0,043
-257,395	-70,124	0,082	0,022
-256,380	800,000	0,019	0,047
-255,365	-200,000	0,008	0,064
-254,351	327,481	0,065	0,090
-253,336	204,451	0,015	0,017
-252,322	267,400	-0,030	-0,038
-251,307	269,818	0,056	0,070
-250,292	-83,616	-0,113	0,026
-249,278	137,027	0,092	0,086
-248,263	408,761	0,103	0,157
-247,249	-33,540	-0,168	0,066
-246,234	48,817	0,110	0,074
-245,219	130,355	-0,066	-0,060
-244,205	321,176	0,036	-0,049
-243,190	355,321	-0,025	-0,036
-242,176	-19,445	-0,065	0,029
-241,161	-90,332	0,060	0,012
-240,146	-200,000	0,010	0,103
-239,132	-200,000	0,003	-0,039
-238,117	800,000	-0,040	-0,084
-237,103	230,333	0,066	-0,078
-236,088	154,674	0,078	0,076
-235,073	-55,673	0,050	-0,016
-234,059	52,779	0,110	0,075
-233,044	-6,715	0,056	-0,027
-232,030	-107,683	-0,017	0,003
-231,015	-40,853	-0,041	-0,015
-230,000	-200,000	0,001	-0,039
-228,986	-98,611	0,035	-0,006
-227,971	-200,000	-0,022	0,140
-226,957	-200,000	0,006	-0,053
-225,942	214,831	0,035	0,040
-224,927	800,000	-0,026	0,081
-223,913	800,000	0,003	0,007
-222,898	-200,000	-0,008	-0,028
-221,884	-200,000	-0,016	-0,054
-220,869	-143,002	-0,093	0,006
-219,855	13,401	-0,088	-0,049
-218,840	-10,340	0,094	-0,044
-217,825	-109,423	-0,104	-0,016
-216,811	191,075	-0,148	-0,159
-215,796	-95,264	-0,143	0,027
-214,782	800,000	0,041	-0,106
-213,767	-72,765	-0,105	0,027
-212,752	-47,557	0,093	0,032
-211,738	492,215	0,090	0,148
-210,723	225,213	-0,039	0,045
-209,709	800,000	-0,027	-0,061
-208,694	-200,000	-0,002	-0,006
-207,679	-121,643	0,088	0,010
-206,665	-200,000	-0,034	0,123
-205,650	800,000	0,049	0,141
-204,636	-200,000	0,008	0,101
-203,621	-200,000	-0,002	0,035
-202,606	-200,000	-0,013	0,054
-201,592	20,226	-0,101	0,058
-200,577	800,000	0,079	0,169
-199,563	252,449	-0,101	-0,123
-198,548	-200,000	-0,011	0,087
-197,533	800,000	0,059	0,175
-196,519	123,066	0,127	0,114
-195,504	800,000	-0,029	0,071
-194,490	-93,491	0,051	-0,010
-193,475	-23,147	-0,055	-0,023
-192,460	492,580	-0,053	0,087
-191,446	222,486	0,035	-0,040
-190,431	86,177	0,068	0,053
-189,417	-200,000	-0,012	0,063
-188,402	590,461	0,041	-0,073
-187,387	297,823	-0,100	0,131
-186,373	56,429	0,114	-0,079
-185,358	131,948	-0,087	-0,080
-184,344	98,837	-0,053	0,043
-183,329	17,761	0,047	0,026
-182,315	37,739	0,053	0,034
-181,300	-200,000	-0,019	-0,213
-180,285	696,086	0,045	-0,084
-179,271	-200,000	0,003	-0,062
-178,256	800,000	0,018	0,039
-177,242	43,049	0,047	-0,030
-176,227	359,192	-0,044	0,062
-175,212	-64,555	0,060	0,017
-174,198	800,000	-0,033	-0,083
-173,183	-200,000	-0,003	-0,052
-172,169	-119,738	0,041	0,005
-171,154	18,289	-0,128	-0,072
-170,139	-200,000	-0,006	0,049
-169,125	-135,080	0,082	-0,007
-168,110	-48,492	-0,117	0,040
-167,096	-93,885	0,050	0,010
-166,081	800,000	-0,028	0,078
-165,066	-200,000	0,030	-0,106
-164,052	-47,320	-0,032	0,011
-163,037	468,567	-0,043	-0,069
-162,023	176,814	0,093	0,097
-161,008	156,415	0,041	0,040
-159,993	800,000	-0,019	0,050
-158,979	458,090	0,019	-0,029
-157,964	133,911	-0,027	-0,025
-156,950	340,539	0,050	-0,070
-155,935	430,103	0,103	0,159
-154,920	190,454	-0,023	0,025
-153,906	-200,000	-0,035	-0,148
-152,891	-200,000	-0,008	-0,099
-151,877	109,044	-0,082	-0,070
-150,862	-83,939	0,157	-0,035
-149,847	180,614	-0,067	-0,071
-148,833	800,000	-0,026	0,075
-147,818	66,013	-0,084	-0,060
-146,804	-87,653	0,096	-0,021
-145,789	-200,000	-0,005	-0,036
-144,775	20,987	-0,015	0,009
-143,760	-54,989	-0,024	0,008
-142,745	271,708	0,064	0,080
-141,731	800,000	0,016	-0,047
-140,716	800,000	-0,011	0,033
-139,702	87,599	-0,147	0,115
-138,687	-13,630	0,151	0,069
-137,672	86,301	0,129	0,101
-136,658	-61,179	-0,056	0,017
-135,643	379,864	-0,030	0,044
-134,629	-25,634	0,130	0,054
-133,614	-80,961	0,081	0,019
-132,599	-200,000	0,015	-0,112
-131,585	800,000	-0,058	-0,132
-130,570	138,538	0,043	-0,040
-129,556	-200,000	0,012	0,074
-128,541	-200,000	0,001	-0,121
-127,526	149,367	-0,089	-0,086
-126,512	-200,000	0,006	-0,088
-125,497	8,736	0,054	0,029
-124,483	-200,000	0,017	-0,054
-123,468	-200,000	0,017	0,057
-122,453	46,993	-0,102	-0,067
-121,439	-200,000	0,012	-0,116
-120,424	-99,387	-0,209	0,037
-119,410	-200,000	-0,007	0,048
-118,395	16,768	-0,092	0,051
