DTS Sentinel unit serial number:	SN410029Multiplexer serial number:	ORYXHardware model number:	OX2-SRSoftware version number:	ORYX F/W v4,00 Oryx Data Collector v3.7.2.0data status	okinstallation	BH3 CH2differential loss correction	single-endedforward channel	channel 2reverse channel	N/Adate	2023/12/05time	20:17:28forward acquisition time	300,00reverse acquisition time	0,00gamma	499,1914k internal	0,3193k external	0,3193temperature offset calibration	1,0000default loss term (dB/km)	0,3820temperature slope calibration	1,0000multiplexer offset coefficient	1,0000multiplexer slope coefficient	1,0000fibre end	0,00T internal ref (°C)	10,52T ext. ref 1 (°C)	-4,29T ext. ref 2 (°C)	-4,37length (m)	temperature (°C)	Stokes	anti-Stokes-744,400	800,000	-0,040	-0,128
-743,385	-4,396	-0,250	0,126
-742,371	800,000	-0,015	0,046
-741,356	800,000	-0,090	0,196
-740,342	-200,000	-0,030	-0,097
-739,327	-62,551	-0,344	0,104
-738,312	800,000	0,055	-0,120
-737,298	162,547	-0,178	0,183
-736,283	-18,046	-0,021	-0,009
-735,269	18,801	-0,238	0,139
-734,254	-200,000	-0,021	0,123
-733,239	-128,862	-0,359	-0,036
-732,225	-59,775	-0,105	0,033
-731,210	179,121	0,107	0,114
-730,196	-52,254	-0,145	-0,049
-729,181	279,281	0,027	-0,036
-728,167	286,586	-0,082	-0,108
-727,152	147,295	0,103	0,101
-726,137	-30,290	-0,193	-0,080
-725,123	2,746	0,054	0,029
-724,108	800,000	-0,053	-0,141
-723,094	189,403	-0,099	-0,108
-722,079	-73,002	-0,091	-0,024
-721,064	-200,000	-0,015	-0,106
-720,050	800,000	-0,036	-0,084
-719,035	450,356	-0,060	-0,096
-718,021	-18,869	-0,068	-0,031
-717,006	175,508	0,152	-0,160
-715,991	157,536	0,139	-0,140
-714,977	207,658	0,037	-0,043
-713,962	-200,000	0,000	0,065
-712,948	-130,758	-0,237	0,023
-711,933	55,099	-0,093	0,065
-710,918	-12,635	0,043	-0,020
-709,904	103,231	-0,122	-0,104
-708,889	72,182	-0,087	-0,066
-707,875	129,515	-0,051	-0,048
-706,860	0,866	0,039	-0,020
-705,845	135,559	-0,091	-0,086
-704,831	187,791	0,099	0,108
-703,816	-200,000	-0,022	0,114
-702,802	800,000	0,018	-0,039
-701,787	456,226	-0,090	-0,145
-700,772	-127,189	0,136	0,014
-699,758	-27,633	-0,036	0,015
-698,743	73,592	-0,021	-0,016
-697,729	531,102	0,013	0,023
-696,714	196,198	0,054	-0,060
-695,699	-200,000	0,013	0,085
-694,685	753,363	0,027	-0,054
-693,670	-200,000	-0,010	0,065
-692,656	-60,659	0,073	0,023
-691,641	-200,000	0,003	-0,063
-690,627	-9,907	-0,134	-0,065
-689,612	-100,883	0,087	-0,015
-688,597	581,549	-0,060	-0,108
-687,583	-200,000	-0,012	-0,125
-686,568	-200,000	-0,007	0,031
-685,554	-37,054	-0,052	-0,020
-684,539	-93,111	0,023	0,005
-683,524	-51,275	0,025	-0,008
-682,510	-129,662	0,071	-0,007
-681,495	-200,000	0,015	0,152
-680,481	24,314	0,046	-0,028
-679,466	275,441	-0,021	-0,027
-678,451	553,201	-0,048	-0,084
-677,437	474,327	0,054	0,089
-676,422	374,478	0,069	0,103
-675,408	676,633	0,033	0,062
-674,393	-200,000	-0,007	-0,111
-673,378	800,000	-0,039	-0,084
-672,364	193,076	-0,108	-0,119
-671,349	-48,293	-0,113	-0,039
-670,335	784,209	-0,053	0,107
-669,320	-87,315	-0,116	0,025
-668,305	-200,000	0,002	0,034
-667,291	225,762	0,014	0,016
-666,276	111,837	0,117	-0,103
-665,262	60,744	0,053	-0,038
-664,247	207,028	0,027	-0,031
-663,232	207,225	0,079	-0,089
-662,218	49,201	0,110	0,075
-661,203	-53,496	0,082	0,027
-660,189	272,494	-0,057	-0,073
-659,174	800,000	0,045	-0,117
-658,159	120,333	-0,149	-0,134
-657,145	-65,468	-0,099	-0,029
-656,130	-15,793	0,093	0,043
-655,116	800,000	0,018	0,045
-654,101	-174,686	0,148	0,003
-653,086	9,961	-0,101	-0,055
-652,072	800,000	0,073	-0,204
-651,057	800,000	-0,042	-0,125
-650,043	67,585	-0,131	0,097
-649,028	-128,914	0,041	0,004
-648,014	-28,748	0,076	-0,032
-646,999	453,426	-0,052	0,084
-645,984	275,734	0,043	-0,056
-644,970	-62,388	0,058	0,017
-643,955	155,004	-0,066	-0,066
-642,941	-5,919	-0,059	0,029
-641,926	-200,000	0,019	0,173
-640,911	-200,000	0,057	0,192
-639,897	209,716	0,066	0,076
-638,882	47,714	-0,087	0,059
-637,868	800,000	0,025	-0,064
-636,853	25,778	-0,111	-0,067
-635,838	112,975	-0,062	-0,054
-634,824	800,000	-0,027	-0,071
-633,809	-81,108	0,176	-0,042
-632,795	-7,794	0,125	0,061
-631,780	-39,879	-0,098	0,037
-630,765	-86,347	-0,169	0,038
-629,751	-200,000	0,008	-0,064
-628,736	283,822	0,086	-0,112
-627,722	304,130	-0,070	-0,095
-626,707	-121,244	0,136	-0,016
-625,692	72,591	0,046	-0,035
-624,678	465,396	-0,010	0,016
-623,663	-200,000	-0,009	-0,115
-622,649	800,000	-0,014	-0,041
-621,634	343,018	0,048	-0,069
-620,619	800,000	0,043	-0,110
-619,605	-200,000	-0,007	-0,115
-618,590	-66,927	0,055	0,016
-617,576	-90,728	0,150	0,031
-616,561	88,572	-0,026	-0,021
-615,546	-120,076	-0,141	-0,017
-614,532	176,482	-0,028	0,029
-613,517	226,869	-0,115	-0,135
-612,503	-65,411	-0,117	0,034
-611,488	800,000	0,038	-0,100
-610,474	-37,575	-0,020	-0,008
-609,459	61,344	-0,086	0,062
-608,444	28,616	-0,063	-0,039
-607,430	-200,000	0,000	-0,063
-606,415	800,000	-0,020	-0,054
-605,401	-71,802	0,086	0,023
-604,386	-127,677	-0,150	0,016
-603,371	-7,867	0,071	0,034
-602,357	212,726	-0,063	-0,072
-601,342	800,000	-0,038	-0,083
-600,328	45,886	-0,181	-0,121
-599,313	800,000	0,034	-0,084
-598,298	252,181	-0,043	-0,053
-597,284	-51,648	-0,171	-0,057
-596,269	-13,012	0,055	-0,026
-595,255	-4,776	0,032	0,016
-594,240	81,966	-0,104	0,082
-593,225	-200,000	0,026	-0,142
-592,211	451,756	-0,089	-0,144
-591,196	-200,000	-0,010	0,038
-590,182	-150,524	0,123	-0,007
-589,167	7,770	-0,028	0,015
-588,152	-200,000	0,038	0,127
-587,138	-26,377	0,048	0,020
-586,123	156,526	0,063	-0,063
-585,109	800,000	-0,026	0,054
-584,094	800,000	-0,033	0,105
-583,079	-200,000	-0,015	0,127
-582,065	-44,255	-0,056	0,020
-581,050	-69,455	-0,153	-0,042
-580,036	-200,000	-0,009	-0,117
-579,021	134,757	-0,114	-0,107
-578,006	700,391	-0,032	-0,061
-576,992	-200,000	-0,001	0,007
-575,977	74,028	-0,058	0,044
-574,963	-200,000	-0,061	0,207
-573,948	-128,222	0,086	0,009
-572,934	-200,000	0,026	-0,131
-571,919	15,407	-0,115	0,065
-570,904	-200,000	0,011	0,069
-569,890	34,445	-0,058	0,037
-568,875	-200,000	-0,022	0,090
-567,861	37,264	-0,164	-0,105
-566,846	-11,240	0,136	0,065
-565,831	-103,928	-0,090	-0,015
-564,817	800,000	-0,020	-0,062
-563,802	236,608	-0,078	-0,093
-562,788	43,384	-0,039	0,025
-561,773	-137,616	0,095	0,008
-560,758	-46,554	0,149	-0,053
-559,744	-90,842	-0,076	-0,016
-558,729	800,000	-0,087	0,177
-557,715	270,298	-0,021	0,027
-556,700	800,000	-0,054	-0,164
-555,685	-144,367	0,077	0,005
-554,671	43,478	0,124	-0,082
-553,656	800,000	0,044	0,105
-552,642	151,297	0,065	0,065
-551,627	-200,000	-0,025	0,122
-550,612	-16,668	-0,127	-0,058
-549,598	65,245	-0,090	0,066
-548,583	800,000	-0,022	0,050
-547,569	800,000	0,035	0,078
-546,554	800,000	0,043	0,124
-545,539	247,385	0,023	-0,028
-544,525	800,000	0,035	0,090
-543,510	-200,000	-0,010	-0,141
-542,496	-164,687	0,015	-0,000
-541,481	-64,408	-0,067	-0,020
-540,466	800,000	0,056	-0,139
-539,452	53,663	0,075	-0,052
-538,437	300,152	-0,040	-0,054
-537,423	-124,359	0,165	0,018
-536,408	-28,287	0,234	-0,097
-535,393	356,298	-0,035	0,051
-534,379	181,180	-0,097	-0,103
-533,364	74,850	0,075	-0,057
-532,350	40,979	0,025	-0,016
-531,335	-200,000	0,019	-0,126
-530,321	618,741	-0,041	0,075
-529,306	-200,000	-0,007	-0,038
-528,291	40,985	0,147	-0,095
-527,277	-200,000	0,008	-0,037
-526,262	-120,970	-0,195	0,023
-525,248	9,146	0,063	-0,034
-524,233	800,000	0,035	0,104
-523,218	-6,333	0,050	-0,024
-522,204	287,179	0,076	0,099
-521,189	100,346	-0,076	-0,064
-520,175	60,129	-0,064	0,046
-519,160	-160,467	-0,146	-0,006
-518,145	424,041	0,069	0,108
-517,131	-71,399	0,166	0,045
-516,116	546,255	0,070	0,121
-515,102	599,170	0,016	0,028
-514,087	129,792	0,025	0,023
-513,072	-43,145	-0,127	-0,046
-512,058	312,073	-0,067	0,091
-511,043	-21,704	0,130	0,057
-510,029	294,584	-0,044	0,059
-509,014	238,208	-0,054	-0,065
-507,999	800,000	0,022	0,052
-506,985	-200,000	0,009	-0,140
-505,970	12,286	-0,171	-0,095
-504,956	124,496	-0,175	0,159
-503,941	-32,905	0,046	0,018
-502,926	800,000	0,011	0,034
-501,912	-200,000	-0,014	-0,055
-500,897	-161,922	0,137	-0,005
-499,883	-200,000	-0,027	-0,119
-498,868	-133,938	-0,063	0,006
-497,853	214,462	0,080	-0,092
-496,839	138,384	-0,012	0,011
-495,824	-200,000	-0,007	-0,036
-494,810	-25,268	0,032	0,014
-493,795	-200,000	-0,032	0,171
-492,781	452,349	0,051	0,081
-491,766	-110,219	-0,051	-0,008
-490,751	-81,966	0,046	-0,011
-489,737	-96,267	0,048	0,009
-488,722	-174,185	-0,076	-0,002
-487,708	46,917	-0,025	0,016
-486,693	-1,243	-0,162	0,082
-485,678	301,286	0,032	0,042
-484,664	-4,245	-0,140	-0,070
-483,649	-14,168	0,048	-0,022
-482,635	184,347	-0,051	-0,055
-481,620	149,931	0,067	-0,066
-480,605	16,847	0,074	-0,042
-479,591	-200,000	-0,024	0,084
-478,576	266,253	-0,026	-0,033
-477,562	114,297	-0,066	-0,058
-476,547	800,000	0,019	0,047
-475,532	-126,055	-0,010	0,001
-474,518	-81,417	-0,015	0,004
-473,503	-200,000	-0,004	-0,168
-472,489	109,272	0,072	-0,062
-471,474	-200,000	-0,012	0,100
-470,459	26,078	0,020	0,012
-469,445	-200,000	-0,019	-0,082
-468,430	-100,271	-0,109	-0,019
-467,416	-200,000	0,002	-0,042
-466,401	800,000	0,043	0,092
-465,386	36,353	0,116	-0,074
-464,372	413,136	-0,049	-0,075
-463,357	800,000	-0,033	-0,075
-462,343	-177,288	-0,114	-0,002
-461,328	-92,138	-0,058	0,012
-460,313	-200,000	-0,021	0,123
-459,299	84,234	-0,096	-0,076
-458,284	259,334	0,074	-0,092
-457,270	800,000	0,046	0,108
-456,255	-200,000	-0,021	0,083
-455,241	54,212	-0,094	0,065
-454,226	-200,000	0,017	-0,060
-453,211	93,346	-0,181	0,147
-452,197	661,448	0,065	0,121
-451,182	747,948	-0,032	-0,062
-450,168	341,218	-0,066	0,094
-449,153	699,337	-0,033	0,062
-448,138	-133,865	-0,043	0,004
-447,124	-200,000	0,009	0,197
-446,109	-59,422	0,102	0,031
-445,095	156,593	0,044	0,043
-444,080	-200,000	-0,011	0,109
-443,065	36,312	0,027	-0,017
-442,051	-47,954	0,161	-0,056
-441,036	-82,895	-0,055	-0,013
-440,022	-200,000	-0,009	-0,077
-439,007	-200,000	0,032	-0,131
-437,992	140,981	0,051	-0,049
-436,978	244,957	0,024	0,030
-435,963	448,304	-0,036	0,057
-434,949	68,307	0,055	-0,041
-433,934	-23,117	-0,059	0,025
-432,919	800,000	0,105	-0,237
-431,905	-47,418	-0,050	-0,018
-430,890	800,000	-0,021	0,047
-429,876	523,118	-0,015	0,025
-428,861	-112,693	-0,033	0,005
-427,846	-200,000	0,015	-0,074
-426,832	413,731	-0,038	-0,059
-425,817	238,155	0,049	-0,059
-424,803	84,229	-0,055	0,043
-423,788	-200,000	-0,015	-0,079
-422,773	-200,000	-0,006	-0,045
-421,759	39,114	0,081	-0,052
-420,744	-52,232	-0,087	-0,029
-419,730	-152,035	0,154	-0,008
-418,715	-121,540	-0,051	0,006
-417,701	800,000	0,055	-0,144
-416,686	-88,945	0,050	-0,011
-415,671	281,249	-0,127	0,164
-414,657	23,320	-0,081	-0,048
-413,642	117,609	-0,145	0,128
-412,628	-77,306	0,181	-0,045
-411,613	-200,000	-0,009	-0,125
-410,598	26,644	0,062	0,038
-409,584	54,000	-0,039	0,027
-408,569	-80,629	0,074	-0,018
-407,555	285,323	0,046	0,060
-406,540	-145,844	0,117	-0,007
-405,525	21,050	-0,082	-0,048
-404,511	800,000	-0,029	-0,057
-403,496	-200,000	-0,006	0,050
-402,482	-200,000	-0,004	-0,149
-401,467	800,000	0,017	0,040
-400,452	25,322	-0,076	-0,045
-399,438	-115,440	-0,106	0,014
-398,423	146,393	-0,126	0,122
-397,409	69,993	-0,146	-0,108
-396,394	183,083	0,099	-0,105
-395,379	-15,224	0,036	0,016
-394,365	-173,660	0,137	0,003
-393,350	-67,581	0,153	-0,043
-392,336	800,000	0,018	-0,041
-391,321	160,164	-0,103	0,104
-390,306	201,941	0,060	-0,066
-389,292	-66,687	-0,103	-0,029
-388,277	-128,258	0,083	-0,008
-387,263	-17,736	0,082	0,037
-386,248	-200,000	0,018	0,090
-385,233	-122,900	0,044	-0,005
-384,219	149,510	0,066	0,064
-383,204	351,377	0,012	-0,017
-382,190	-200,000	-0,008	-0,100
-381,175	-200,000	0,008	0,085
-380,160	-185,311	0,084	-0,001
-379,146	92,913	0,143	0,116
-378,131	800,000	0,024	0,074
-377,117	15,397	-0,064	0,036
-376,102	800,000	0,052	-0,148
-375,088	-200,000	-0,008	-0,129
-374,073	-170,879	-0,141	-0,003
-373,058	-200,000	-0,023	-0,187
-372,044	800,000	0,030	0,064
-371,029	142,029	0,086	0,082
-370,015	27,694	-0,051	0,031
-369,000	-200,000	-0,011	0,054
-367,985	59,835	0,041	-0,029
-366,971	-99,726	0,106	-0,019
-365,956	603,367	0,064	-0,114
-364,942	179,013	0,089	0,094
-363,927	-200,000	-0,027	0,120
-362,912	527,050	-0,018	0,030
-361,898	-200,000	0,009	0,070
-360,883	-19,256	-0,085	-0,038
-359,869	800,000	0,063	0,134
-358,854	21,587	0,104	-0,061
-357,839	156,324	0,051	-0,050
-356,825	183,619	0,034	-0,036
-355,810	800,000	0,027	-0,072
-354,796	286,987	-0,071	-0,093
-353,781	37,315	-0,053	0,034
-352,766	-200,000	-0,004	-0,099
-351,752	-20,348	0,062	0,027
-350,737	252,156	0,082	0,100
-349,723	336,948	0,047	0,065
-348,708	-64,401	-0,068	0,020
-347,693	-200,000	-0,034	0,134
-346,679	187,229	-0,044	0,047
-345,664	-200,000	-0,001	0,053
-344,650	47,565	0,046	0,031
-343,635	156,276	-0,041	-0,041
-342,620	-200,000	-0,032	0,123
-341,606	-134,195	-0,118	0,010
-340,591	92,290	0,044	-0,036
-339,577	14,051	-0,047	0,026
-338,562	104,431	0,135	0,114
-337,548	-200,000	-0,013	0,068
-336,533	-200,000	-0,001	0,104
-335,518	196,707	0,056	0,061
-334,504	192,641	-0,107	0,116
-333,489	-200,000	-0,028	-0,123
-332,475	48,058	-0,093	-0,063
-331,460	-200,000	0,006	-0,048
-330,445	800,000	0,037	0,096
-329,431	-82,315	0,086	-0,020
-328,416	4,673	0,030	-0,016
-327,402	800,000	0,044	0,088
-326,387	313,082	0,062	0,084
-325,372	-98,216	0,070	0,013
-324,358	-71,357	-0,126	-0,034
-323,343	28,281	-0,080	-0,048
-322,329	-200,000	-0,010	0,068
-321,314	37,708	0,136	-0,086
-320,299	604,407	0,061	-0,109
-319,285	-200,000	-0,002	0,111
-318,270	-130,454	-0,199	0,019
-317,256	122,785	-0,074	0,066
-316,241	304,675	-0,037	-0,049
-315,226	-157,408	0,044	-0,002
-314,212	73,283	0,041	0,030
-313,197	437,487	-0,027	-0,042
-312,183	-200,000	0,015	0,116
-311,168	538,486	0,042	-0,072
-310,153	61,344	-0,085	-0,060
-309,139	800,000	-0,041	-0,085
-308,124	-200,000	0,007	-0,145
-307,110	-105,591	0,068	-0,011
-306,095	55,384	0,086	0,060
-305,080	-108,672	-0,110	0,017
-304,066	-200,000	-0,010	-0,060
-303,051	429,040	-0,041	-0,064
-302,037	800,000	0,044	-0,119
-301,022	-65,087	-0,022	-0,006
-300,008	-200,000	-0,013	0,077
-298,993	176,120	0,128	0,134
-297,978	110,045	0,009	0,007
-296,964	800,000	0,032	-0,071
-295,949	333,725	-0,054	-0,076
-294,935	90,294	-0,061	-0,049
-293,920	13,159	0,129	0,071
-292,905	49,387	-0,096	-0,065
-291,891	-105,828	0,132	-0,021
-290,876	-200,000	0,025	0,098
-289,862	12,768	-0,043	-0,024
-288,847	-39,219	-0,053	0,020
-287,832	249,402	0,071	0,086
-286,818	-72,755	0,086	0,023
-285,803	-200,000	-0,009	-0,144
-284,789	-37,614	0,121	0,046
-283,774	539,947	0,035	0,061
-282,759	-142,265	-0,047	-0,003
-281,745	89,502	0,038	0,030
-280,730	-200,000	0,024	-0,099
-279,716	719,924	-0,017	-0,033
-278,701	-77,223	-0,022	-0,006
-277,686	-32,850	0,108	-0,043
-276,672	-200,000	-0,010	-0,084
-275,657	182,751	-0,002	-0,002
-274,643	191,958	0,086	-0,093
-273,628	63,387	0,025	-0,018
-272,613	740,657	-0,040	-0,077
-271,599	128,887	-0,047	0,043
-270,584	-200,000	0,038	0,138
-269,570	775,338	0,055	0,109
-268,555	30,563	0,071	0,043
-267,540	195,441	0,024	-0,026
-266,526	-132,646	0,113	0,010
-265,511	800,000	0,045	-0,110
-264,497	-200,000	0,033	0,190
-263,482	-200,000	0,006	0,043
-262,467	-200,000	-0,009	0,142
-261,453	165,294	0,062	0,063
-260,438	739,447	-0,058	-0,113
-259,424	-55,597	-0,130	-0,042
-258,409	131,177	0,124	-0,114
-257,395	-200,000	-0,001	0,013
-256,380	500,552	-0,077	0,128
-255,365	310,702	-0,042	0,056
-254,351	-9,184	0,076	0,036
-253,336	800,000	0,022	-0,054
-252,322	491,876	-0,032	-0,053
-251,307	-113,207	-0,067	0,009
-250,292	481,705	0,055	0,090
-249,278	-200,000	-0,008	0,030
-248,263	800,000	-0,062	0,159
-247,249	-76,608	0,072	0,018
-246,234	42,795	0,043	-0,028
-245,219	800,000	0,028	-0,076
-244,205	579,946	-0,057	0,100
-243,190	800,000	-0,007	-0,022
-242,176	-38,968	0,046	-0,017
-241,161	-6,369	0,133	0,065
-240,146	-21,282	0,063	-0,027
-239,132	800,000	0,053	0,126
-238,117	-86,073	-0,110	-0,024
-237,103	-200,000	0,008	-0,072
-236,088	76,310	0,137	-0,104
-235,073	800,000	0,019	0,053
-234,059	-200,000	0,020	0,077
-233,044	30,489	-0,124	0,076
-232,030	-79,492	0,072	-0,017
-231,015	-116,656	-0,203	-0,026
-230,000	13,753	-0,073	-0,041
-228,986	-200,000	-0,022	-0,099
-227,971	-200,000	0,019	0,151
-226,957	-200,000	-0,013	0,072
-225,942	53,194	-0,051	-0,035
-224,927	800,000	0,033	0,072
-223,913	-93,756	-0,174	0,034
-222,898	-200,000	0,035	-0,122
-221,884	-54,578	-0,092	-0,030
-220,869	450,697	0,070	0,111
-219,855	289,698	-0,058	0,076
-218,840	-107,136	0,101	-0,016
-217,825	-127,640	0,123	-0,013
-216,811	15,111	0,104	-0,058
-215,796	-200,000	0,008	0,134
-214,782	-200,000	0,001	0,017
-213,767	10,816	-0,065	0,035
-212,752	304,501	0,041	0,055
-211,738	-47,629	0,053	0,018
-210,723	-200,000	0,024	-0,156
-209,709	303,681	-0,084	-0,112
-208,694	255,441	-0,048	-0,059
-207,679	-173,188	-0,038	0,001
-206,665	-200,000	0,013	0,045
-205,650	-200,000	0,007	0,046
-204,636	-200,000	0,001	-0,033
-203,621	800,000	0,046	-0,113
-202,606	-105,788	0,094	0,015
-201,592	132,794	-0,094	0,086
-200,577	-135,851	-0,068	-0,006
-199,563	-43,183	0,086	0,031
-198,548	-99,690	0,051	-0,009
-197,533	-200,000	-0,026	0,113
-196,519	58,804	0,078	0,055
-195,504	389,624	-0,040	0,060
-194,490	-38,792	-0,079	-0,030
-193,475	-200,000	-0,037	-0,168
-192,460	-200,000	-0,025	0,093
-191,446	345,205	0,065	0,092
-190,431	-143,452	0,056	0,004
-189,417	-200,000	0,000	0,026
-188,402	-29,114	-0,067	-0,027
-187,387	79,226	-0,109	-0,083
-186,373	-200,000	0,005	-0,065
-185,358	-24,946	-0,075	0,031
-184,344	434,687	0,027	0,042
-183,329	800,000	-0,027	0,069
-182,315	-200,000	-0,019	-0,090
-181,300	61,985	-0,047	0,033
-180,285	180,245	0,086	0,091
-179,271	-37,948	-0,109	-0,041
-178,256	559,338	-0,060	0,103
-177,242	-125,743	0,122	0,013
-176,227	-111,462	0,125	-0,018
-175,212	169,128	0,090	0,092
-174,198	-29,424	0,127	-0,052
-173,183	157,950	-0,112	-0,110
-172,169	-41,422	0,052	-0,019
-171,154	10,418	-0,216	-0,117
-170,139	181,196	0,043	0,046
-169,125	4,662	0,059	0,031
-168,110	13,131	0,098	-0,054
-167,096	210,684	-0,201	0,226
-166,081	-111,281	-0,136	-0,020
-165,066	800,000	-0,043	-0,100
-164,052	800,000	-0,065	-0,142
-163,037	-200,000	0,014	0,111
-162,023	800,000	0,017	-0,048
-161,008	-200,000	-0,012	-0,041
-159,993	-23,554	0,070	0,030
-158,979	63,977	-0,025	0,018
-157,964	-200,000	-0,011	-0,161
-156,950	800,000	0,030	-0,062
-155,935	531,346	0,086	0,146
-154,920	-137,629	0,115	-0,009
-153,906	344,317	0,035	0,049
-152,891	8,540	-0,094	0,050
-151,877	-135,596	0,104	0,009
-150,862	-112,613	-0,056	-0,008
-149,847	152,654	0,047	-0,046
-148,833	800,000	-0,027	0,074
-147,818	108,195	0,075	0,064
-146,804	-57,827	0,008	0,003
-145,789	163,670	0,030	0,030
-144,775	-41,172	0,066	-0,024
-143,760	800,000	-0,013	-0,038
-142,745	800,000	-0,035	-0,106
-141,731	-200,000	-0,015	-0,106
-140,716	45,274	-0,088	0,057
-139,702	29,677	-0,101	-0,061
-138,687	-200,000	0,009	0,094
-137,672	-200,000	0,042	-0,139
-136,658	-50,493	0,049	-0,016
-135,643	109,329	-0,096	-0,082
-134,629	177,428	0,029	0,030
-133,614	-181,529	-0,028	-0,000
-132,599	122,589	0,069	0,061
-131,585	-25,436	0,078	0,033
-130,570	800,000	-0,070	-0,177
-129,556	800,000	-0,054	-0,130
-128,541	101,138	-0,028	0,023
-127,526	-200,000	0,025	-0,125
-126,512	-6,533	0,032	0,016
-125,497	-4,594	-0,075	0,037
-124,483	-49,342	0,119	0,040
-123,468	70,216	-0,077	0,056
-122,453	-200,000	0,013	0,055
-121,439	-151,859	-0,136	-0,007
-120,424	200,483	0,055	-0,060
-119,410	-37,963	0,026	0,010
-118,395	259,872	-0,101	0,125
