DTS Sentinel unit serial number:	SN410029Multiplexer serial number:	ORYXHardware model number:	OX2-SRSoftware version number:	ORYX F/W v4,00 Oryx Data Collector v3.7.2.0data status	okinstallation	BH3 CH2differential loss correction	single-endedforward channel	channel 2reverse channel	N/Adate	2023/12/05time	20:22:28forward acquisition time	300,00reverse acquisition time	0,00gamma	499,1914k internal	0,3193k external	0,3193temperature offset calibration	1,0000default loss term (dB/km)	0,3820temperature slope calibration	1,0000multiplexer offset coefficient	1,0000multiplexer slope coefficient	1,0000fibre end	0,00T internal ref (°C)	10,50T ext. ref 1 (°C)	-4,34T ext. ref 2 (°C)	-4,42length (m)	temperature (°C)	Stokes	anti-Stokes-744,400	-111,058	-0,167	0,025
-743,385	-55,422	-0,177	0,058
-742,371	515,929	0,053	-0,091
-741,356	180,611	-0,102	0,109
-740,342	-200,000	-0,046	-0,156
-739,327	111,292	-0,228	0,200
-738,312	-200,000	-0,004	-0,205
-737,298	-183,394	-0,267	0,003
-736,283	800,000	-0,092	-0,230
-735,269	-200,000	-0,047	0,171
-734,254	145,707	-0,145	-0,141
-733,239	-44,041	-0,315	-0,115
-732,225	-200,000	-0,026	-0,102
-731,210	800,000	-0,007	-0,017
-730,196	-23,191	-0,085	-0,037
-729,181	-40,110	-0,104	0,039
-728,167	-62,220	-0,030	0,009
-727,152	494,295	0,035	-0,059
-726,137	-157,571	-0,100	0,004
-725,123	595,178	0,046	0,084
-724,108	56,776	-0,017	-0,012
-723,094	800,000	-0,117	-0,238
-722,079	-200,000	0,026	-0,150
-721,064	46,771	-0,034	0,023
-720,050	-61,496	-0,092	-0,028
-719,035	-77,130	-0,140	0,035
-718,021	204,111	0,061	-0,069
-717,006	-21,302	-0,056	-0,025
-715,991	-200,000	0,026	-0,133
-714,977	-144,337	-0,027	0,002
-713,962	-116,994	-0,105	0,014
-712,948	21,188	0,037	0,022
-711,933	-69,093	0,058	-0,016
-710,918	-200,000	-0,007	-0,083
-709,904	-92,172	-0,099	-0,020
-708,889	800,000	-0,040	-0,120
-707,875	-28,228	-0,144	0,060
-706,860	-138,673	-0,123	-0,010
-705,845	45,172	0,073	-0,049
-704,831	-200,000	-0,058	0,209
-703,816	248,924	0,053	-0,065
-702,802	800,000	0,035	0,091
-701,787	-78,448	-0,159	-0,039
-700,772	644,025	0,027	-0,050
-699,758	800,000	-0,025	0,066
-698,743	-200,000	0,003	0,012
-697,729	80,316	-0,040	-0,032
-696,714	292,679	0,048	0,064
-695,699	70,079	-0,077	0,057
-694,685	121,801	0,044	-0,040
-693,670	-200,000	0,000	-0,091
-692,656	-200,000	-0,018	-0,070
-691,641	54,637	-0,059	0,042
-690,627	-200,000	-0,000	-0,047
-689,612	319,617	-0,019	-0,026
-688,597	-200,000	-0,007	-0,084
-687,583	-20,971	-0,127	-0,056
-686,568	-77,861	-0,137	-0,034
-685,554	800,000	0,050	-0,101
-684,539	182,215	-0,025	-0,027
-683,524	800,000	0,012	-0,024
-682,510	88,868	-0,039	-0,032
-681,495	31,220	-0,110	0,069
-680,481	800,000	-0,034	-0,086
-679,466	131,582	-0,064	-0,060
-678,451	-200,000	0,037	-0,137
-677,437	-97,450	0,061	0,011
-676,422	-175,953	-0,101	0,002
-675,408	-200,000	0,011	0,051
-674,393	117,041	-0,101	-0,090
-673,378	1,857	-0,040	-0,021
-672,364	83,780	-0,096	-0,076
-671,349	800,000	-0,026	-0,065
-670,335	217,986	-0,092	-0,106
-669,320	-18,751	0,086	0,039
-668,305	38,041	-0,070	0,045
-667,291	-84,074	-0,118	0,027
-666,276	-35,204	-0,136	-0,053
-665,262	-102,400	-0,163	-0,028
-664,247	-200,000	0,013	-0,084
-663,232	153,588	0,064	-0,064
-662,218	174,705	0,043	0,045
-661,203	0,508	0,097	0,050
-660,189	-47,091	-0,249	0,088
-659,174	-200,000	0,015	-0,055
-658,159	520,659	0,039	-0,067
-657,145	-129,418	-0,100	-0,010
-656,130	-112,032	-0,052	-0,007
-655,116	115,997	-0,043	-0,039
-654,101	81,824	0,104	0,081
-653,086	184,335	-0,074	0,080
-652,072	-177,581	0,054	0,001
-651,057	-46,827	-0,006	-0,002
-650,043	-75,667	-0,028	0,007
-649,028	-64,105	-0,100	0,030
-648,014	-200,000	0,006	0,072
-646,999	551,634	-0,054	0,094
-645,984	56,573	-0,114	0,080
-644,970	53,102	0,184	0,127
-643,955	-14,039	-0,060	-0,028
-642,941	-14,571	-0,098	-0,046
-641,926	-200,000	-0,004	-0,067
-640,911	45,678	-0,125	-0,084
-639,897	800,000	0,047	0,123
-638,882	-200,000	0,005	-0,033
-637,868	215,751	0,026	0,030
-636,853	800,000	0,038	-0,082
-635,838	800,000	0,010	-0,033
-634,824	800,000	0,023	-0,068
-633,809	56,000	0,066	0,046
-632,795	800,000	-0,039	-0,084
-631,780	97,147	-0,048	0,040
-630,765	772,383	0,015	-0,030
-629,751	-68,622	-0,155	-0,043
-628,736	397,856	-0,037	-0,056
-627,722	66,593	0,024	-0,017
-626,707	308,259	0,081	0,110
-625,692	-64,767	0,078	0,023
-624,678	-200,000	-0,017	-0,099
-623,663	-200,000	0,009	-0,032
-622,649	-200,000	-0,002	-0,075
-621,634	800,000	-0,045	-0,135
-620,619	12,207	0,144	-0,080
-619,605	194,338	0,023	0,026
-618,590	-38,538	-0,085	0,032
-617,576	299,968	-0,049	0,066
-616,561	800,000	0,051	0,145
-615,546	148,200	0,093	-0,091
-614,532	-164,343	0,089	0,003
-613,517	688,902	0,052	0,099
-612,503	-200,000	0,001	-0,011
-611,488	-45,441	0,098	0,035
-610,474	-200,000	0,016	0,091
-609,459	-103,414	-0,099	0,017
-608,444	117,245	0,073	0,065
-607,430	-135,817	-0,141	0,012
-606,415	318,927	0,091	-0,125
-605,401	800,000	0,038	-0,114
-604,386	52,018	-0,004	-0,003
-603,371	57,624	0,114	0,080
-602,357	293,510	0,019	0,025
-601,342	-107,617	-0,021	0,003
-600,328	-200,000	-0,001	-0,102
-599,313	-11,796	-0,023	0,011
-598,298	547,384	-0,035	-0,061
-597,284	-99,511	-0,050	-0,009
-596,269	130,272	-0,062	0,057
-595,255	117,088	0,098	-0,088
-594,240	479,325	-0,022	-0,037
-593,225	-18,878	-0,087	-0,039
-592,211	52,608	-0,186	-0,129
-591,196	-200,000	0,005	-0,054
-590,182	-103,562	0,152	0,026
-589,167	76,606	0,054	-0,042
-588,152	-200,000	-0,134	0,000
-587,138	0,537	-0,096	0,049
-586,123	154,681	0,122	-0,121
-585,109	800,000	-0,018	-0,052
-584,094	800,000	-0,049	0,131
-583,079	800,000	-0,071	-0,170
-582,065	255,547	0,073	0,091
-581,050	43,103	0,074	0,049
-580,036	447,157	-0,031	-0,049
-579,021	800,000	-0,019	-0,054
-578,006	12,612	-0,119	-0,066
-576,992	-52,377	0,140	-0,047
-575,977	93,064	0,142	0,117
-574,963	29,436	-0,060	0,037
-573,948	-71,214	-0,090	0,024
-572,934	800,000	-0,051	-0,116
-571,919	15,483	0,030	-0,017
-570,904	-27,253	-0,021	-0,009
-569,890	-200,000	0,025	-0,192
-568,875	-140,094	0,058	-0,004
-567,861	68,886	0,158	0,117
-566,846	800,000	0,014	-0,036
-565,831	781,110	0,063	0,125
-564,817	-200,000	0,009	0,141
-563,802	27,315	0,024	-0,015
-562,788	96,390	-0,141	-0,117
-561,773	800,000	-0,005	-0,009
-560,758	-113,262	-0,027	-0,004
-559,744	-5,200	0,109	0,054
-558,729	-86,684	-0,098	-0,022
-557,715	12,923	0,063	-0,035
-556,700	-200,000	0,003	0,070
-555,685	176,479	0,075	-0,079
-554,671	-73,046	-0,132	-0,035
-553,656	-57,534	0,124	0,039
-552,642	-31,381	0,155	0,063
-551,627	-73,932	-0,041	0,011
-550,612	217,342	0,038	0,044
-549,598	-200,000	-0,001	0,037
-548,583	-64,119	-0,129	-0,038
-547,569	16,490	-0,031	-0,018
-546,554	86,431	0,100	0,079
-545,539	18,923	0,044	0,026
-544,525	800,000	-0,020	-0,062
-543,510	-100,750	-0,031	0,005
-542,496	-60,748	-0,113	0,034
-541,481	-56,220	-0,029	-0,009
-540,466	-6,862	-0,107	0,053
-539,452	11,207	0,090	-0,050
-538,437	-200,000	-0,003	0,015
-537,423	-116,191	0,141	0,019
-536,408	723,228	-0,056	-0,109
-535,393	800,000	-0,046	-0,127
-534,379	-200,000	-0,008	-0,145
-533,364	800,000	0,015	0,039
-532,350	800,000	-0,017	0,043
-531,335	125,998	0,049	0,044
-530,321	4,662	0,054	0,029
-529,306	121,718	-0,025	-0,022
-528,291	10,480	0,113	0,062
-527,277	143,312	-0,079	-0,076
-526,262	53,465	0,048	-0,033
-525,248	-200,000	-0,011	0,074
-524,233	-100,668	0,062	-0,011
-523,218	91,936	-0,129	-0,105
-522,204	800,000	0,011	-0,025
-521,189	800,000	-0,016	0,047
-520,175	800,000	0,053	0,127
-519,160	-137,158	-0,139	0,011
-518,145	-200,000	0,001	0,041
-517,131	800,000	-0,035	0,103
-516,116	353,726	0,032	0,046
-515,102	413,724	0,017	0,026
-514,087	-200,000	-0,008	-0,174
-513,072	234,943	0,057	-0,068
-512,058	-200,000	-0,008	-0,041
-511,043	262,838	-0,050	0,063
-510,029	716,264	-0,054	0,103
-509,014	188,027	-0,035	0,038
-507,999	-200,000	0,027	0,111
-506,985	-4,332	-0,087	-0,043
-505,970	-13,317	0,132	0,062
-504,956	100,779	0,063	-0,053
-503,941	-200,000	0,043	-0,219
-502,926	-115,024	-0,067	0,009
-501,912	46,006	0,104	0,069
-500,897	208,589	-0,054	0,062
-499,883	77,053	-0,034	-0,026
-498,868	-52,207	0,072	-0,024
-497,853	777,353	-0,105	-0,209
-496,839	-200,000	-0,005	-0,051
-495,824	-106,572	-0,107	-0,017
-494,810	800,000	0,071	0,147
-493,795	24,914	0,083	0,050
-492,781	168,374	-0,139	-0,143
-491,766	11,458	0,091	0,050
-490,751	-95,442	-0,098	0,019
-489,737	-200,000	-0,028	-0,206
-488,722	88,086	0,063	0,051
-487,708	-200,000	-0,006	0,136
-486,693	-119,184	0,067	0,008
-485,678	182,844	-0,091	-0,097
-484,664	-200,000	-0,010	-0,044
-483,649	-84,605	-0,056	0,013
-482,635	800,000	-0,061	0,164
-481,620	-200,000	-0,019	0,078
-480,605	577,068	0,079	0,141
-479,591	44,143	0,108	0,072
-478,576	-159,243	-0,112	-0,004
-477,562	426,305	0,053	-0,082
-476,547	35,103	-0,158	-0,100
-475,532	696,662	0,092	-0,174
-474,518	461,377	-0,128	0,206
-473,503	-200,000	0,004	0,134
-472,489	-200,000	0,005	-0,048
-471,474	442,862	-0,047	0,075
-470,459	800,000	-0,089	-0,189
-469,445	800,000	0,053	-0,145
-468,430	-200,000	0,011	0,039
-467,416	-200,000	-0,002	0,059
-466,401	362,949	-0,023	0,034
-465,386	-94,480	-0,026	-0,005
-464,372	-200,000	-0,008	-0,033
-463,357	800,000	-0,029	-0,079
-462,343	662,761	-0,074	-0,139
-461,328	-200,000	-0,002	0,038
-460,313	800,000	-0,040	0,110
-459,299	662,053	-0,070	0,130
-458,284	-200,000	0,009	0,135
-457,270	203,329	-0,043	-0,048
-456,255	-53,276	-0,065	0,021
-455,241	-200,000	0,010	-0,081
-454,226	164,507	-0,134	-0,136
-453,211	115,078	0,047	-0,042
-452,197	-142,741	0,248	-0,017
-451,182	65,323	-0,153	-0,111
-450,168	721,363	0,038	-0,073
-449,153	-200,000	0,003	-0,085
-448,138	-101,395	-0,058	-0,010
-447,124	380,851	-0,048	-0,071
-446,109	-53,349	-0,075	0,025
-445,095	112,750	0,018	0,016
-444,080	663,690	-0,026	0,049
-443,065	800,000	-0,030	0,093
-442,051	-200,000	-0,019	-0,110
-441,036	-200,000	0,004	-0,030
-440,022	800,000	-0,080	-0,201
-439,007	173,089	0,062	-0,064
-437,992	-113,264	0,098	0,014
-436,978	-4,160	0,052	0,026
-435,963	-200,000	-0,047	0,196
-434,949	-200,000	0,001	0,065
-433,934	242,339	0,034	0,042
-432,919	-200,000	0,023	0,130
-431,905	248,243	0,062	0,076
-430,890	181,787	-0,025	0,027
-429,876	399,193	-0,051	0,077
-428,861	800,000	0,035	0,105
-427,846	626,021	-0,035	0,064
-426,832	-7,566	-0,146	-0,071
-425,817	-200,000	-0,026	-0,088
-424,803	-200,000	-0,001	-0,038
-423,788	370,732	0,009	0,013
-422,773	413,857	0,050	0,077
-421,759	448,025	-0,067	-0,106
-420,744	800,000	-0,037	0,080
-419,730	217,378	0,013	0,014
-418,715	137,803	-0,045	0,042
-417,701	58,220	-0,065	-0,046
-416,686	12,612	-0,050	0,028
-415,671	-200,000	0,000	-0,094
-414,657	800,000	-0,043	0,128
-413,642	-150,844	0,127	-0,007
-412,628	-3,964	-0,052	-0,026
-411,613	445,322	0,021	0,034
-410,598	327,592	0,067	0,093
-409,584	-50,153	-0,126	-0,043
-408,569	218,170	-0,041	0,047
-407,555	-200,000	-0,011	0,197
-406,540	242,188	-0,083	0,100
-405,525	800,000	-0,043	-0,091
-404,511	422,878	-0,040	-0,061
-403,496	-18,482	-0,027	0,012
-402,482	-200,000	0,004	-0,038
-401,467	42,980	-0,020	-0,013
-400,452	87,668	-0,033	0,026
-399,438	-124,658	-0,118	-0,013
-398,423	-200,000	-0,002	-0,105
-397,409	-200,000	-0,011	-0,106
-396,394	82,429	-0,028	0,022
-395,379	-200,000	0,009	-0,060
-394,365	468,935	0,047	0,077
-393,350	181,975	0,071	-0,075
-392,336	-200,000	-0,004	-0,041
-391,321	556,881	0,031	-0,053
-390,306	-200,000	-0,028	-0,135
-389,292	800,000	-0,101	-0,221
-388,277	32,891	0,068	-0,042
-387,263	82,719	-0,056	0,043
-386,248	-36,702	0,111	-0,043
-385,233	22,802	-0,044	0,026
-384,219	104,592	-0,058	-0,049
-383,204	93,588	-0,037	-0,030
-382,190	162,664	0,062	-0,062
-381,175	800,000	-0,010	0,027
-380,160	-81,343	-0,136	-0,032
-379,146	2,146	0,125	0,065
-378,131	41,726	0,131	0,085
-377,117	800,000	0,069	-0,146
-376,102	-119,619	-0,014	0,002
-375,088	-200,000	0,010	-0,185
-374,073	61,753	-0,051	0,036
-373,058	-200,000	-0,003	0,065
-372,044	-84,984	0,025	-0,006
-371,029	394,132	-0,060	0,091
-370,015	-115,471	-0,134	0,018
-369,000	-56,301	-0,192	-0,061
-367,985	125,318	0,049	-0,044
-366,971	-200,000	-0,012	-0,116
-365,956	800,000	-0,004	-0,010
-364,942	-200,000	0,017	0,083
-363,927	169,146	-0,088	-0,090
-362,912	-17,927	0,044	-0,020
-361,898	-38,205	-0,122	-0,046
-360,883	-200,000	-0,044	-0,143
-359,869	800,000	0,012	0,036
-358,854	622,245	0,004	-0,008
-357,839	800,000	-0,028	0,074
-356,825	235,250	0,085	0,101
-355,810	295,989	-0,047	-0,062
-354,796	800,000	-0,028	-0,085
-353,781	800,000	0,014	0,031
-352,766	410,693	-0,031	0,047
-351,752	800,000	0,023	0,057
-350,737	20,727	-0,069	0,040
-349,723	-138,127	0,149	0,012
-348,708	-107,003	0,043	-0,007
-347,693	171,942	0,074	-0,077
-346,679	-200,000	-0,016	-0,053
-345,664	800,000	-0,050	0,121
-344,650	41,047	0,081	-0,053
-343,635	52,026	0,116	0,080
-342,620	-146,398	0,143	0,009
-341,606	44,697	-0,049	0,032
-340,591	-200,000	-0,011	0,195
-339,577	-200,000	0,014	-0,093
-338,562	35,729	0,047	-0,029
-337,548	800,000	-0,014	-0,045
-336,533	209,383	-0,024	0,027
-335,518	-58,707	0,063	-0,019
-334,504	-200,000	-0,003	0,101
-333,489	800,000	0,024	-0,074
-332,475	800,000	0,012	-0,025
-331,460	800,000	-0,046	-0,095
-330,445	237,609	-0,110	-0,131
-329,431	-200,000	-0,007	0,025
-328,416	-200,000	-0,029	0,117
-327,402	644,786	-0,028	-0,052
-326,387	-98,633	0,085	0,015
-325,372	800,000	-0,021	-0,055
-324,358	0,844	-0,093	-0,047
-323,343	-152,053	0,112	-0,006
-322,329	-103,292	0,080	0,013
-321,314	-52,422	0,135	-0,044
-320,299	-200,000	0,001	0,119
-319,285	615,188	-0,094	0,170
-318,270	528,192	-0,052	0,088
-317,256	97,426	0,004	0,004
-316,241	589,291	0,027	-0,048
-315,226	800,000	0,051	0,135
-314,212	219,485	0,024	0,028
-313,197	40,677	0,063	-0,041
-312,183	-200,000	-0,002	-0,069
-311,168	572,609	-0,097	-0,170
-310,153	-132,531	0,049	-0,004
-309,139	-104,917	0,078	-0,013
-308,124	182,908	-0,034	-0,036
-307,110	-98,899	0,081	0,015
-306,095	-200,000	-0,005	0,062
-305,080	78,210	0,088	0,067
-304,066	161,041	-0,077	-0,077
-303,051	100,836	0,021	0,018
-302,037	-37,330	-0,041	0,016
-301,022	-200,000	0,010	-0,043
-300,008	-90,657	0,109	0,022
-298,993	-129,800	-0,110	0,011
-297,978	-49,817	-0,071	-0,024
-296,964	-192,912	0,079	0,000
-295,949	-96,530	0,102	0,019
-294,935	-5,458	-0,141	0,069
-293,920	2,477	-0,060	-0,031
-292,905	79,910	-0,069	-0,053
-291,891	115,685	0,088	0,077
-290,876	-68,663	0,066	-0,018
-289,862	800,000	-0,016	0,044
-288,847	59,629	0,047	-0,034
-287,832	800,000	0,035	-0,096
-286,818	-96,451	0,074	-0,014
-285,803	-167,367	0,188	-0,005
-284,789	123,342	-0,126	0,113
-283,774	-200,000	0,001	0,108
-282,759	-200,000	0,026	-0,141
-281,745	800,000	-0,061	-0,180
-280,730	204,186	-0,051	-0,056
-279,716	-200,000	0,001	0,013
-278,701	358,618	0,087	0,125
-277,686	-191,332	-0,058	0,000
-276,672	284,501	0,074	0,096
-275,657	-62,352	-0,144	-0,043
-274,643	800,000	-0,052	-0,146
-273,628	-17,103	0,056	-0,025
-272,613	117,711	-0,144	-0,126
-271,599	-2,973	0,083	0,041
-270,584	800,000	-0,067	0,153
-269,570	87,957	-0,008	0,006
-268,555	369,560	0,113	0,164
-267,540	30,921	-0,091	-0,056
-266,526	-200,000	-0,003	-0,046
-265,511	-200,000	-0,048	-0,164
-264,497	-138,331	-0,101	0,008
-263,482	-31,761	0,085	0,034
-262,467	251,777	0,094	-0,114
-261,453	-63,436	-0,111	0,032
-260,438	-200,000	-0,022	0,096
-259,424	-200,000	-0,008	-0,066
-258,409	123,204	-0,027	-0,024
-257,395	-200,000	0,000	0,086
-256,380	800,000	0,064	0,138
-255,365	800,000	0,066	0,177
-254,351	135,350	0,091	0,084
-253,336	-132,527	-0,060	-0,005
-252,322	-100,650	-0,035	-0,006
-251,307	-200,000	0,009	-0,122
-250,292	-106,297	0,015	-0,002
-249,278	800,000	0,054	0,169
-248,263	642,298	0,047	0,085
-247,249	-200,000	0,004	0,071
-246,234	-180,467	0,048	-0,001
-245,219	-3,427	0,027	-0,013
-244,205	-29,937	-0,066	-0,027
-243,190	-200,000	-0,005	0,021
-242,176	115,894	0,158	-0,139
-241,161	324,933	-0,059	0,080
-240,146	-200,000	0,025	0,112
-239,132	153,662	0,123	0,120
-238,117	800,000	-0,039	0,115
-237,103	800,000	0,022	0,057
-236,088	322,721	0,057	-0,077
-235,073	234,651	0,054	0,064
-234,059	-200,000	0,000	0,002
-233,044	-107,665	0,025	-0,004
-232,030	-200,000	-0,023	0,083
-231,015	374,421	-0,038	-0,055
-230,000	-200,000	-0,014	-0,076
-228,986	292,643	0,057	-0,075
-227,971	-200,000	0,005	0,040
-226,957	181,353	-0,061	0,064
-225,942	107,159	0,102	0,087
-224,927	800,000	-0,021	0,048
-223,913	186,251	-0,059	-0,063
-222,898	800,000	0,030	-0,064
-221,884	-161,596	0,029	0,001
-220,869	800,000	0,035	0,089
-219,855	-200,000	-0,011	-0,059
-218,840	800,000	0,029	-0,059
-217,825	-17,435	-0,094	0,042
-216,811	-4,398	0,069	-0,034
-215,796	-143,437	0,076	-0,005
-214,782	72,012	-0,114	0,085
-213,767	-35,440	0,070	0,027
-212,752	-200,000	-0,012	-0,107
-211,738	33,830	0,113	0,070
-210,723	800,000	0,078	0,161
-209,709	-200,000	-0,016	-0,107
-208,694	-59,273	-0,059	0,018
-207,679	-200,000	-0,007	0,064
-206,665	-78,081	0,104	0,025
-205,650	34,734	0,083	-0,052
-204,636	97,342	0,073	0,060
-203,621	229,669	-0,016	-0,018
-202,606	44,611	-0,056	0,036
-201,592	-80,663	-0,065	-0,015
-200,577	-200,000	-0,011	-0,036
-199,563	-105,922	0,105	0,017
-198,548	-130,406	-0,041	-0,004
-197,533	-125,136	-0,110	0,012
-196,519	800,000	0,023	-0,048
-195,504	-200,000	0,035	0,143
-194,490	61,308	0,048	-0,034
-193,475	-49,172	-0,078	0,026
-192,460	-74,552	0,045	-0,011
-191,446	-28,278	-0,130	-0,053
-190,431	-200,000	0,012	-0,071
-189,417	-79,885	0,093	-0,022
-188,402	800,000	0,033	-0,098
-187,387	284,100	-0,081	-0,104
-186,373	-181,479	-0,113	-0,002
-185,358	800,000	0,028	-0,064
-184,344	-200,000	-0,001	0,105
-183,329	800,000	0,048	0,094
-182,315	761,372	-0,025	-0,048
-181,300	800,000	-0,038	0,079
-180,285	19,704	-0,123	0,070
-179,271	163,020	0,022	-0,022
-178,256	-39,435	0,070	-0,026
-177,242	291,051	0,076	0,099
-176,227	-17,713	0,104	0,046
-175,212	800,000	0,031	0,067
-174,198	442,224	-0,014	0,021
-173,183	-200,000	-0,025	-0,166
-172,169	-41,575	0,084	0,031
-171,154	-26,461	-0,039	0,016
-170,139	123,071	0,094	0,084
-169,125	210,274	-0,083	0,094
-168,110	32,874	0,076	0,047
-167,096	-200,000	-0,015	-0,092
-166,081	314,141	0,059	0,079
-165,066	251,919	-0,076	-0,093
-164,052	-160,830	-0,077	-0,003
-163,037	-53,276	0,103	-0,033
-162,023	17,891	0,131	-0,074
-161,008	18,812	-0,103	0,059
-159,993	-52,422	0,060	0,020
-158,979	32,567	0,025	-0,016
-157,964	65,117	-0,069	-0,050
-156,950	19,574	0,147	0,084
-155,935	-101,472	0,064	0,011
-154,920	-34,124	-0,085	0,033
-153,906	-200,000	0,001	0,082
-152,891	239,958	0,062	0,073
-151,877	-27,999	0,070	-0,029
-150,862	13,247	-0,043	-0,024
-149,847	-200,000	-0,002	0,014
-148,833	439,731	-0,029	0,045
-147,818	236,940	0,074	0,088
-146,804	-200,000	-0,042	0,144
-145,789	-200,000	-0,018	0,095
-144,775	310,582	0,062	-0,083
-143,760	-200,000	0,015	-0,154
-142,745	800,000	0,044	-0,131
-141,731	133,151	0,065	-0,060
-140,716	291,805	0,094	0,123
-139,702	-164,898	0,156	-0,005
-138,687	114,037	-0,072	-0,062
-137,672	800,000	0,029	0,075
-136,658	-86,215	0,027	-0,006
-135,643	409,634	0,038	0,057
-134,629	17,212	-0,113	-0,064
-133,614	-184,362	0,183	-0,002
-132,599	-200,000	-0,007	-0,058
-131,585	800,000	0,055	-0,121
-130,570	-200,000	0,031	-0,124
-129,556	-200,000	0,009	-0,036
-128,541	-134,626	-0,211	-0,018
-127,526	-200,000	-0,003	-0,046
-126,512	169,455	-0,051	-0,052
-125,497	-200,000	0,017	0,143
-124,483	-5,388	-0,069	-0,033
-123,468	-200,000	0,013	-0,074
-122,453	57,573	-0,176	0,122
-121,439	-200,000	0,011	-0,141
-120,424	-200,000	-0,005	-0,096
-119,410	111,349	0,056	-0,048
