DTS Sentinel unit serial number:	SN410029Multiplexer serial number:	ORYXHardware model number:	OX2-SRSoftware version number:	ORYX F/W v4,00 Oryx Data Collector v3.7.2.0data status	okinstallation	BH3 CH2differential loss correction	single-endedforward channel	channel 2reverse channel	N/Adate	2023/12/06time	01:17:28forward acquisition time	300,00reverse acquisition time	0,00gamma	499,1914k internal	0,3196k external	0,3196temperature offset calibration	1,0000default loss term (dB/km)	0,3820temperature slope calibration	1,0000multiplexer offset coefficient	1,0000multiplexer slope coefficient	1,0000fibre end	0,00T internal ref (°C)	9,25T ext. ref 1 (°C)	-5,71T ext. ref 2 (°C)	-5,79length (m)	temperature (°C)	Stokes	anti-Stokes-744,400	800,000	-0,098	-0,214
-743,385	-200,000	-0,019	0,098
-742,371	-200,000	-0,035	-0,223
-741,356	195,807	-0,184	0,204
-740,342	-200,000	0,015	-0,112
-739,327	-94,670	-0,244	-0,048
-738,312	-63,624	-0,064	-0,019
-737,298	-71,480	-0,204	0,055
-736,283	-91,926	-0,054	0,011
-735,269	-38,041	-0,132	0,051
-734,254	82,247	-0,066	-0,052
-733,239	-174,188	-0,382	-0,008
-732,225	549,754	0,018	-0,031
-731,210	612,539	-0,049	0,090
-730,196	-69,330	0,119	0,033
-729,181	-153,838	-0,134	0,007
-728,167	780,295	-0,021	0,041
-727,152	-18,978	0,067	0,030
-726,137	-11,589	-0,056	0,026
-725,123	-200,000	-0,022	-0,088
-724,108	78,982	-0,049	-0,038
-723,094	151,400	-0,091	-0,090
-722,079	-91,286	-0,068	-0,014
-721,064	76,580	0,083	0,064
-720,050	-42,252	-0,118	-0,044
-719,035	94,686	0,038	-0,032
-718,021	531,560	-0,018	-0,030
-717,006	800,000	0,045	-0,130
-715,991	36,635	-0,219	-0,140
-714,977	-200,000	0,015	-0,089
-713,962	-200,000	0,033	-0,126
-712,948	-42,490	0,046	0,017
-711,933	-200,000	0,018	0,060
-710,918	56,509	-0,088	0,062
-709,904	-13,722	0,033	-0,015
-708,889	244,845	-0,099	-0,121
-707,875	17,761	0,110	-0,063
-706,860	-200,000	0,014	0,104
-705,845	-200,000	0,001	0,067
-704,831	53,812	0,107	-0,075
-703,816	-73,070	0,108	-0,029
-702,802	314,118	-0,107	-0,147
-701,787	-200,000	0,032	-0,210
-700,772	-200,000	-0,023	-0,086
-699,758	-200,000	0,020	-0,069
-698,743	68,538	-0,073	0,054
-697,729	453,158	0,083	0,135
-696,714	800,000	-0,049	0,115
-695,699	149,362	0,081	0,079
-694,685	535,807	-0,041	0,071
-693,670	800,000	-0,033	-0,083
-692,656	31,159	0,065	0,041
-691,641	142,236	0,044	0,042
-690,627	-34,327	0,070	-0,028
-689,612	-200,000	0,009	0,054
-688,597	53,602	-0,090	-0,062
-687,583	-16,986	-0,068	-0,031
-686,568	800,000	-0,037	-0,088
-685,554	-200,000	-0,035	-0,120
-684,539	800,000	0,014	0,032
-683,524	-50,359	0,076	-0,026
-682,510	-103,576	-0,069	-0,012
-681,495	800,000	0,036	-0,084
-680,481	-117,329	-0,050	-0,007
-679,466	800,000	-0,021	-0,054
-678,451	-83,135	0,115	-0,027
-677,437	-200,000	0,008	-0,051
-676,422	238,044	0,061	0,074
-675,408	800,000	0,037	-0,082
-674,393	800,000	0,026	-0,067
-673,378	102,036	0,034	-0,029
-672,364	-200,000	-0,011	-0,144
-671,349	63,165	-0,120	0,087
-670,335	163,128	0,030	-0,030
-669,320	-29,160	-0,082	0,034
-668,305	800,000	0,029	0,064
-667,291	-96,461	-0,077	0,015
-666,276	56,268	-0,018	-0,013
-665,262	136,409	0,078	-0,074
-664,247	-96,367	0,114	-0,022
-663,232	-200,000	0,049	-0,172
-662,218	-200,000	0,016	-0,179
-661,203	70,546	0,083	0,062
-660,189	10,667	-0,080	-0,044
-659,174	195,356	0,014	0,016
-658,159	800,000	0,029	-0,065
-657,145	95,373	-0,173	-0,143
-656,130	-200,000	0,020	-0,076
-655,116	-125,644	-0,081	0,009
-654,101	276,215	0,046	-0,059
-653,086	-200,000	-0,017	-0,162
-652,072	-200,000	0,000	-0,126
-651,057	-89,891	-0,121	0,026
-650,043	800,000	-0,029	-0,059
-649,028	101,679	0,046	-0,039
-648,014	797,274	-0,040	0,081
-646,999	-200,000	-0,025	0,118
-645,984	-200,000	-0,018	0,081
-644,970	413,583	-0,073	-0,113
-643,955	-19,416	-0,199	-0,089
-642,941	43,291	-0,074	-0,049
-641,926	-133,116	0,050	-0,005
-640,911	-200,000	0,004	-0,064
-639,897	-200,000	0,024	0,115
-638,882	181,782	-0,032	-0,034
-637,868	257,717	0,034	-0,043
-636,853	-107,452	-0,041	0,007
-635,838	52,385	-0,155	-0,107
-634,824	-200,000	-0,001	0,079
-633,809	-200,000	-0,021	-0,109
-632,795	-192,396	0,118	0,001
-631,780	-1,622	0,071	-0,036
-630,765	-107,773	-0,088	-0,014
-629,751	-122,881	-0,166	0,019
-628,736	6,154	0,039	0,021
-627,722	800,000	0,030	-0,094
-626,707	75,422	0,081	0,062
-625,692	-52,048	0,186	-0,062
-624,678	-70,357	-0,209	0,057
-623,663	352,413	-0,046	0,066
-622,649	438,572	-0,058	-0,092
-621,634	-200,000	-0,001	0,009
-620,619	-130,610	-0,122	0,012
-619,605	800,000	-0,052	-0,116
-618,590	-193,865	-0,087	-0,001
-617,576	-200,000	-0,012	0,062
-616,561	-200,000	-0,022	-0,126
-615,546	-89,298	-0,069	-0,015
-614,532	130,140	0,045	0,042
-613,517	-133,196	-0,096	-0,009
-612,503	-200,000	0,003	-0,023
-611,488	-125,177	0,098	0,011
-610,474	527,777	0,021	-0,035
-609,459	19,480	0,097	-0,057
-608,444	-160,717	0,065	-0,002
-607,430	70,300	-0,097	0,072
-606,415	21,559	0,042	-0,025
-605,401	-95,436	0,100	-0,019
-604,386	-95,971	0,137	0,026
-603,371	-200,000	0,021	0,072
-602,357	263,084	0,052	-0,065
-601,342	-129,742	0,072	0,007
-600,328	87,039	0,099	0,079
-599,313	165,932	-0,051	0,052
-598,298	800,000	0,004	-0,009
-597,284	-200,000	-0,001	0,097
-596,269	-124,626	0,036	0,004
-595,255	-157,453	-0,067	0,003
-594,240	-200,000	0,016	-0,097
-593,225	-200,000	-0,005	0,030
-592,211	-40,900	0,050	0,018
-591,196	800,000	0,035	-0,090
-590,182	-200,000	-0,005	0,016
-589,167	-73,752	0,129	0,034
-588,152	-200,000	-0,045	0,162
-587,138	-200,000	0,026	0,096
-586,123	-200,000	0,000	-0,101
-585,109	-133,539	-0,222	-0,020
-584,094	254,475	-0,049	-0,060
-583,079	152,225	0,111	0,110
-582,065	212,170	0,016	0,019
-581,050	-200,000	0,030	0,166
-580,036	60,144	-0,132	-0,095
-579,021	-88,161	0,018	-0,004
-578,006	109,316	-0,045	0,039
-576,992	800,000	-0,023	-0,047
-575,977	-200,000	-0,030	0,097
-574,963	-36,959	0,105	0,040
-573,948	800,000	0,040	0,113
-572,934	80,059	-0,051	0,040
-571,919	-158,634	-0,110	-0,005
-570,904	-200,000	-0,003	-0,171
-569,890	-200,000	-0,014	-0,094
-568,875	3,943	-0,064	-0,034
-567,861	204,629	0,056	-0,063
-566,846	-95,638	-0,052	0,010
-565,831	-106,697	-0,075	0,012
-564,817	800,000	-0,053	0,130
-563,802	-200,000	-0,018	-0,074
-562,788	202,032	-0,035	-0,039
-561,773	162,106	0,055	-0,056
-560,758	-60,030	0,175	-0,054
-559,744	100,012	-0,043	-0,036
-558,729	-93,486	-0,047	-0,009
-557,715	705,001	-0,038	-0,073
-556,700	-107,521	-0,115	-0,018
-555,685	800,000	-0,040	0,085
-554,671	-114,140	-0,107	-0,015
-553,656	-74,548	0,109	0,028
-552,642	-59,780	0,131	-0,040
-551,627	-51,540	-0,019	0,006
-550,612	800,000	0,098	-0,228
-549,598	-200,000	-0,000	-0,075
-548,583	157,342	0,008	0,008
-547,569	-200,000	0,021	0,079
-546,554	-200,000	-0,016	0,068
-545,539	-134,451	0,086	-0,008
-544,525	-129,080	0,091	-0,009
-543,510	256,893	-0,091	-0,113
-542,496	575,112	0,040	-0,071
-541,481	-83,983	0,055	0,012
-540,466	233,323	-0,070	-0,083
-539,452	-131,034	-0,016	0,002
-538,437	-51,837	0,010	0,003
-537,423	-13,958	0,162	0,075
-536,408	596,794	-0,048	-0,086
-535,393	800,000	0,015	-0,045
-534,379	800,000	-0,044	-0,123
-533,364	606,603	0,035	0,063
-532,350	-92,545	0,049	-0,010
-531,335	79,008	0,067	0,052
-530,321	-200,000	0,034	-0,177
-529,306	-68,672	-0,054	0,015
-528,291	303,352	0,096	-0,129
-527,277	410,913	-0,039	-0,060
-526,262	-200,000	0,025	0,087
-525,248	33,886	0,050	-0,031
-524,233	-200,000	0,031	0,165
-523,218	126,648	0,086	-0,078
-522,204	-200,000	0,013	-0,125
-521,189	-108,901	-0,082	0,013
-520,175	156,632	0,111	-0,111
-519,160	694,250	-0,066	0,126
-518,145	86,234	0,112	0,089
-517,131	610,078	0,029	-0,053
-516,116	97,934	-0,081	0,067
-515,102	139,166	-0,034	-0,032
-514,087	-15,391	-0,133	-0,061
-513,072	-104,399	-0,087	-0,014
-512,058	-200,000	0,030	-0,106
-511,043	53,869	0,028	-0,020
-510,029	-5,791	0,097	0,048
-509,014	141,633	0,038	0,036
-507,999	-25,338	0,041	0,018
-506,985	246,754	-0,049	-0,059
-505,970	800,000	0,066	-0,176
-504,956	134,858	-0,109	0,102
-503,941	103,673	-0,054	-0,045
-502,926	-71,568	0,063	-0,017
-501,912	44,287	-0,024	-0,016
-500,897	272,619	-0,036	0,046
-499,883	-85,908	0,107	-0,024
-498,868	-147,074	-0,073	0,004
-497,853	-140,087	-0,064	-0,005
-496,839	103,509	0,029	-0,025
-495,824	800,000	0,027	0,085
-494,810	800,000	-0,036	0,106
-493,795	-144,472	-0,095	0,006
-492,781	73,394	-0,198	-0,150
-491,766	-200,000	0,008	-0,034
-490,751	800,000	-0,067	-0,142
-489,737	217,991	0,062	-0,072
-488,722	800,000	0,028	0,080
-487,708	-128,588	0,118	-0,012
-486,693	-158,848	0,088	-0,004
-485,678	-200,000	0,029	0,169
-484,664	-200,000	0,006	-0,133
-483,649	-85,827	-0,162	0,036
-482,635	800,000	0,038	0,095
-481,620	-6,385	0,047	-0,023
-480,605	75,858	0,130	0,099
-479,591	466,047	0,017	0,027
-478,576	-73,077	0,083	-0,022
-477,562	326,885	0,020	0,028
-476,547	-98,306	-0,033	-0,006
-475,532	-137,676	-0,102	0,008
-474,518	267,454	-0,055	-0,070
-473,503	-199,428	-0,041	-0,000
-472,489	-121,072	-0,084	0,010
-471,474	800,000	0,030	0,070
-470,459	-200,000	-0,005	-0,086
-469,445	-156,707	-0,211	0,009
-468,430	246,727	-0,024	0,029
-467,416	14,319	0,132	-0,074
-466,401	16,775	0,024	0,014
-465,386	-145,106	0,011	0,001
-464,372	-60,608	0,112	-0,034
-463,357	110,411	-0,043	-0,038
-462,343	-12,026	-0,118	-0,055
-461,328	-94,650	-0,133	0,026
-460,313	-31,855	-0,022	-0,009
-459,299	198,391	0,093	0,103
-458,284	800,000	-0,025	-0,065
-457,270	540,827	0,018	-0,031
-456,255	139,271	-0,057	-0,055
-455,241	-42,599	-0,128	-0,047
-454,226	141,645	-0,070	-0,067
-453,211	-77,231	0,091	0,023
-452,197	-29,514	0,084	0,035
-451,182	-200,000	0,015	-0,134
-450,168	-200,000	0,026	-0,124
-449,153	344,861	-0,107	-0,152
-448,138	193,928	-0,058	0,064
-447,124	800,000	0,012	0,036
-446,109	65,483	-0,024	-0,017
-445,095	-200,000	0,057	0,196
-444,080	59,831	0,052	-0,037
-443,065	-200,000	-0,004	-0,040
-442,051	213,532	0,030	-0,035
-441,036	611,178	-0,026	-0,047
-440,022	321,339	0,043	-0,059
-439,007	800,000	-0,038	0,097
-437,992	-109,816	-0,074	0,011
-436,978	-94,213	0,093	-0,018
-435,963	-200,000	-0,032	0,171
-434,949	800,000	0,015	-0,039
-433,934	-199,033	-0,194	-0,001
-432,919	239,965	-0,115	-0,139
-431,905	-87,061	0,092	0,020
-430,890	-200,000	0,003	0,060
-429,876	800,000	0,036	-0,078
-428,861	800,000	0,048	0,112
-427,846	238,163	0,128	-0,153
-426,832	-50,605	-0,070	0,024
-425,817	800,000	-0,038	-0,089
-424,803	-200,000	-0,016	0,097
-423,788	-200,000	-0,028	-0,135
-422,773	415,085	0,051	0,078
-421,759	195,523	0,049	0,053
-420,744	-56,078	0,135	0,043
-419,730	286,292	0,055	-0,072
-418,715	-200,000	-0,004	-0,063
-417,701	-46,871	-0,090	-0,031
-416,686	800,000	0,029	-0,062
-415,671	239,747	0,130	-0,157
-414,657	27,213	-0,093	0,056
-413,642	-64,994	0,036	0,010
-412,628	-200,000	-0,004	-0,075
-411,613	-120,628	-0,055	-0,007
-410,598	72,978	-0,072	-0,054
-409,584	-63,287	0,147	0,043
-408,569	498,371	-0,004	0,006
-407,555	85,559	-0,157	0,124
-406,540	36,114	-0,095	-0,060
-405,525	-200,000	0,004	-0,162
-404,511	-200,000	0,013	-0,179
-403,496	800,000	0,041	0,088
-402,482	-200,000	0,013	-0,059
-401,467	263,750	0,029	0,036
-400,452	46,840	0,028	-0,019
-399,438	-15,333	-0,050	-0,023
-398,423	-118,941	-0,056	0,007
-397,409	-27,481	0,115	-0,048
-396,394	-25,268	-0,147	-0,062
-395,379	282,157	0,037	0,048
-394,365	239,328	-0,044	0,053
-393,350	-65,907	0,050	0,014
-392,336	-200,000	0,023	-0,125
-391,321	800,000	-0,077	0,166
-390,306	800,000	0,017	-0,050
-389,292	-135,083	-0,130	-0,011
-388,277	-4,502	0,199	-0,099
-387,263	-158,409	0,094	-0,004
-386,248	800,000	0,047	-0,103
-385,233	-144,743	0,044	0,003
-384,219	800,000	0,065	-0,139
-383,204	75,612	-0,157	-0,119
-382,190	55,279	-0,119	-0,083
-381,175	-200,000	-0,000	-0,039
-380,160	-68,421	0,124	-0,034
-379,146	71,743	0,064	-0,048
-378,131	240,626	0,060	-0,072
-377,117	800,000	-0,119	-0,239
-376,102	-142,139	0,093	0,007
-375,088	-77,070	0,119	-0,029
-374,073	-86,381	-0,070	0,015
-373,058	66,576	0,077	0,056
-372,044	647,621	0,088	0,162
-371,029	-200,000	-0,008	-0,038
-370,015	-140,197	-0,053	-0,004
-369,000	-200,000	0,015	0,083
-367,985	-183,283	0,065	-0,001
-366,971	-101,531	0,094	-0,016
-365,956	-200,000	-0,002	-0,094
-364,942	-200,000	0,007	0,041
-363,927	196,544	0,051	-0,056
-362,912	-200,000	0,028	-0,141
-361,898	176,375	-0,028	0,029
-360,883	563,621	0,059	0,103
-359,869	-179,091	0,059	0,001
-358,854	-23,304	0,077	0,033
-357,839	392,026	0,023	-0,034
-356,825	-107,071	0,093	-0,015
-355,810	86,736	0,052	0,041
-354,796	800,000	0,007	0,021
-353,781	-200,000	-0,021	-0,093
-352,766	-200,000	0,011	-0,111
-351,752	-62,304	-0,048	0,014
-350,737	-73,817	0,072	-0,019
-349,723	33,694	-0,075	-0,046
-348,708	-200,000	0,001	-0,048
-347,693	65,679	-0,043	0,031
-346,679	734,990	0,035	0,068
-345,664	106,962	-0,054	0,046
-344,650	6,587	-0,063	0,034
-343,635	-12,305	0,094	0,044
-342,620	33,591	0,054	-0,033
-341,606	800,000	-0,037	-0,075
-340,591	91,814	0,076	-0,061
-339,577	148,503	0,052	0,050
-338,562	69,713	0,044	-0,032
-337,548	-200,000	-0,018	0,106
-336,533	-200,000	0,004	0,055
-335,518	-200,000	-0,036	0,257
-334,504	123,901	0,088	0,079
-333,489	13,722	-0,074	0,041
-332,475	36,799	-0,093	-0,059
-331,460	-60,952	0,067	0,020
-330,445	319,478	-0,044	-0,060
-329,431	101,739	0,128	0,107
-328,416	800,000	0,039	0,118
-327,402	589,452	-0,046	0,081
-326,387	-200,000	-0,017	0,148
-325,372	-200,000	-0,007	0,047
-324,358	69,953	0,066	-0,049
-323,343	800,000	0,032	-0,077
-322,329	-200,000	-0,009	0,039
-321,314	800,000	0,057	0,168
-320,299	-200,000	0,000	0,130
-319,285	-200,000	-0,019	0,075
-318,270	800,000	0,039	0,103
-317,256	29,974	-0,133	0,081
-316,241	800,000	0,020	-0,062
-315,226	800,000	0,026	-0,057
-314,212	77,792	-0,076	0,058
-313,197	-200,000	-0,003	0,048
-312,183	-55,928	-0,069	-0,022
-311,168	-200,000	0,020	-0,073
-310,153	800,000	-0,009	0,029
-309,139	-49,790	-0,154	0,052
-308,124	0,294	0,063	-0,032
-307,110	-107,548	0,126	0,020
-306,095	-149,144	0,030	-0,002
-305,080	800,000	0,027	-0,054
-304,066	-139,011	-0,109	0,008
-303,051	-108,815	0,033	0,005
-302,037	800,000	0,029	-0,090
-301,022	-200,000	0,010	0,056
-300,008	-1,982	0,105	0,053
-298,993	-47,130	-0,087	0,030
-297,978	800,000	0,039	0,083
-296,964	-32,007	-0,086	-0,034
-295,949	376,260	0,076	-0,111
-294,935	-200,000	0,007	-0,175
-293,920	-200,000	0,008	0,045
-292,905	-0,874	0,070	0,035
-291,891	519,184	0,045	0,076
-290,876	-88,108	-0,105	-0,022
-289,862	31,534	-0,137	0,084
-288,847	236,979	0,043	0,051
-287,832	800,000	0,042	0,100
-286,818	355,948	0,038	-0,054
-285,803	240,298	0,016	0,019
-284,789	70,090	-0,088	-0,065
-283,774	-29,446	0,128	0,052
-282,759	23,337	-0,055	-0,032
-281,745	54,695	-0,138	-0,095
-280,730	-200,000	-0,017	-0,088
-279,716	342,009	-0,050	0,069
-278,701	164,906	-0,092	-0,093
-277,686	65,751	0,051	-0,037
-276,672	800,000	-0,014	0,033
-275,657	-80,783	-0,033	-0,008
-274,643	-79,227	-0,026	-0,006
-273,628	-145,285	-0,198	-0,013
-272,613	-200,000	0,001	0,087
-271,599	25,773	-0,082	0,049
-270,584	-113,135	0,092	0,013
-269,570	-200,000	0,040	0,168
-268,555	428,727	0,002	-0,004
-267,540	800,000	0,037	-0,083
-266,526	212,908	0,085	0,096
-265,511	185,255	0,029	0,031
-264,497	396,710	0,039	0,058
-263,482	-200,000	-0,011	-0,082
-262,467	77,070	-0,120	-0,091
-261,453	38,744	-0,039	0,025
-260,438	112,913	-0,094	0,082
-259,424	17,913	-0,054	0,031
-258,409	6,865	-0,081	-0,043
-257,395	800,000	-0,031	-0,095
-256,380	800,000	-0,025	0,069
-255,365	482,355	0,073	0,118
-254,351	-28,298	-0,048	-0,020
-253,336	-200,000	0,002	0,088
-252,322	-200,000	0,009	0,051
-251,307	-38,263	0,086	-0,032
-250,292	-105,640	0,142	0,023
-249,278	524,755	0,045	-0,076
-248,263	800,000	-0,050	0,106
-247,249	-200,000	-0,005	0,162
-246,234	449,819	-0,108	-0,171
-245,219	800,000	-0,027	-0,076
-244,205	-200,000	0,041	-0,137
-243,190	-200,000	-0,009	-0,075
-242,176	468,951	0,054	-0,088
-241,161	-108,021	0,057	-0,009
-240,146	107,261	-0,060	-0,051
-239,132	109,823	-0,072	-0,062
-238,117	588,613	0,043	-0,077
-237,103	-200,000	0,007	0,071
-236,088	-103,383	-0,036	-0,006
-235,073	323,564	-0,065	0,089
-234,059	-200,000	-0,037	0,148
-233,044	8,176	-0,020	-0,011
-232,030	171,576	-0,138	0,141
-231,015	-200,000	-0,004	0,030
-230,000	366,535	-0,090	-0,130
-228,986	-69,345	-0,141	0,038
-227,971	-60,992	0,128	0,038
-226,957	93,547	0,100	0,080
-225,942	800,000	-0,036	-0,077
-224,927	-136,590	-0,078	-0,006
-223,913	148,018	-0,021	-0,020
-222,898	-91,182	0,105	0,021
-221,884	467,527	0,035	0,056
-220,869	-200,000	0,033	-0,140
-219,855	18,176	0,051	0,029
-218,840	-17,289	0,147	0,066
-217,825	-200,000	0,022	-0,119
-216,811	-34,157	0,163	-0,063
-215,796	235,438	0,067	-0,079
-214,782	183,069	-0,076	-0,080
-213,767	462,718	0,032	0,050
-212,752	59,982	-0,027	0,019
-211,738	84,098	0,055	0,043
-210,723	-86,249	-0,145	0,032
-209,709	-123,143	-0,129	0,015
-208,694	581,048	-0,070	-0,123
-207,679	-200,000	-0,007	0,030
-206,665	-164,218	0,185	0,006
-205,650	-105,496	-0,068	0,011
-204,636	436,190	-0,041	0,064
-203,621	480,244	0,085	0,138
-202,606	40,759	0,055	-0,035
-201,592	338,449	0,061	0,085
-200,577	6,788	-0,100	0,053
-199,563	-14,401	0,073	-0,033
-198,548	-200,000	0,007	0,131
-197,533	-200,000	-0,001	0,124
-196,519	107,271	0,084	0,071
-195,504	-91,913	0,032	0,006
-194,490	26,042	-0,117	0,069
-193,475	16,089	0,058	-0,032
-192,460	-200,000	-0,001	0,113
-191,446	-200,000	0,022	0,099
-190,431	800,000	-0,067	0,141
-189,417	645,113	0,060	0,110
-188,402	-200,000	0,016	0,057
-187,387	-200,000	0,010	0,055
-186,373	-200,000	0,017	-0,083
-185,358	800,000	0,030	0,077
-184,344	139,851	0,055	-0,051
-183,329	-87,474	0,102	-0,022
-182,315	177,230	-0,066	0,069
-181,300	95,188	-0,052	0,042
-180,285	286,344	-0,009	0,012
-179,271	192,609	-0,070	-0,075
-178,256	-9,920	0,033	-0,016
-177,242	428,030	-0,046	0,071
-176,227	800,000	0,032	0,066
-175,212	-72,625	0,071	0,019
-174,198	-75,333	-0,042	0,011
-173,183	-110,679	-0,066	0,010
-172,169	-32,641	-0,093	-0,037
-171,154	573,963	0,075	0,131
-170,139	-200,000	0,010	0,099
-169,125	-10,260	0,170	-0,080
-168,110	-200,000	-0,031	0,099
-167,096	-200,000	-0,003	-0,021
-166,081	15,577	-0,071	-0,039
-165,066	322,829	-0,065	0,088
-164,052	-200,000	0,004	0,016
-163,037	158,618	0,022	-0,022
-162,023	-82,408	-0,044	0,010
-161,008	-200,000	-0,023	0,215
-159,993	774,971	-0,038	0,074
-158,979	-33,890	-0,105	0,041
-157,964	-200,000	-0,001	0,020
-156,950	287,144	-0,035	-0,045
-155,935	101,235	0,047	-0,039
-154,920	-200,000	-0,000	0,120
-153,906	164,224	0,021	0,021
-152,891	201,757	0,047	0,052
-151,877	-200,000	-0,014	-0,116
-150,862	144,799	0,092	0,087
-149,847	-200,000	-0,003	-0,067
-148,833	800,000	-0,013	-0,034
-147,818	385,697	0,022	0,032
-146,804	-200,000	0,006	0,106
-145,789	800,000	-0,054	0,127
-144,775	800,000	0,021	0,064
-143,760	114,149	-0,046	0,040
-142,745	273,598	-0,049	-0,062
-141,731	100,808	0,014	0,011
-140,716	-139,219	0,047	0,004
-139,702	622,647	0,074	0,133
-138,687	3,701	0,096	-0,050
-137,672	-60,346	-0,058	-0,017
-136,658	-200,000	0,017	-0,210
-135,643	-200,000	-0,048	-0,193
-134,629	800,000	0,037	0,115
-133,614	-105,151	-0,047	0,008
-132,599	-200,000	0,023	-0,078
-131,585	-200,000	0,028	-0,109
-130,570	-83,283	-0,024	-0,005
-129,556	800,000	0,031	-0,090
-128,541	-200,000	0,022	-0,117
-127,526	-125,361	0,071	0,008
-126,512	800,000	0,058	0,160
-125,497	-151,385	0,056	-0,003
-124,483	-46,952	-0,133	-0,046
-123,468	-200,000	-0,001	0,097
-122,453	-108,557	-0,148	-0,022
-121,439	800,000	0,036	-0,112
-120,424	800,000	-0,028	0,077
-119,410	-75,521	0,147	-0,037
