DTS Sentinel unit serial number:	SN410029Multiplexer serial number:	ORYXHardware model number:	OX2-SRSoftware version number:	ORYX F/W v4,00 Oryx Data Collector v3.7.2.0data status	okinstallation	BH3 CH2differential loss correction	single-endedforward channel	channel 2reverse channel	N/Adate	2023/12/06time	04:07:28forward acquisition time	300,00reverse acquisition time	0,00gamma	499,1914k internal	0,3197k external	0,3197temperature offset calibration	1,0000default loss term (dB/km)	0,3820temperature slope calibration	1,0000multiplexer offset coefficient	1,0000multiplexer slope coefficient	1,0000fibre end	0,00T internal ref (°C)	8,94T ext. ref 1 (°C)	-5,71T ext. ref 2 (°C)	-5,81length (m)	temperature (°C)	Stokes	anti-Stokes-744,400	78,347	-0,047	-0,036
-743,385	-74,602	-0,217	0,056
-742,371	800,000	0,013	-0,036
-741,356	93,259	-0,195	0,160
-740,342	-200,000	-0,024	-0,128
-739,327	-122,382	-0,142	-0,017
-738,312	-106,429	-0,024	0,004
-737,298	-24,680	-0,253	0,109
-736,283	-200,000	0,045	-0,180
-735,269	2,808	-0,180	0,095
-734,254	67,224	0,103	-0,076
-733,239	-64,601	-0,410	-0,120
-732,225	800,000	-0,014	-0,046
-731,210	-200,000	-0,010	0,183
-730,196	-105,211	-0,036	0,006
-729,181	156,911	-0,030	-0,030
-728,167	48,921	-0,135	-0,092
-727,152	-77,363	0,033	0,008
-726,137	-89,609	-0,073	0,015
-725,123	800,000	-0,081	0,181
-724,108	132,081	-0,048	-0,045
-723,094	-200,000	-0,024	-0,111
-722,079	586,195	-0,034	0,061
-721,064	-11,080	-0,107	-0,051
-720,050	57,153	-0,090	-0,063
-719,035	66,204	-0,190	0,140
-718,021	14,586	-0,048	-0,027
-717,006	800,000	0,018	-0,040
-715,991	800,000	-0,053	-0,130
-714,977	-200,000	0,003	0,132
-713,962	-70,043	0,084	0,023
-712,948	89,827	-0,030	0,024
-711,933	-200,000	-0,000	0,012
-710,918	-200,000	0,031	0,109
-709,904	-2,770	-0,155	0,078
-708,889	471,712	0,057	0,094
-707,875	-200,000	-0,031	-0,150
-706,860	574,001	-0,004	-0,007
-705,845	-200,000	0,031	0,159
-704,831	-200,000	0,004	-0,053
-703,816	282,869	0,055	-0,072
-702,802	-64,080	0,026	0,008
-701,787	-42,255	-0,050	0,019
-700,772	800,000	0,018	-0,039
-699,758	-200,000	-0,015	-0,151
-698,743	221,584	0,048	-0,056
-697,729	44,077	0,149	0,099
-696,714	220,607	-0,030	0,034
-695,699	66,413	-0,121	0,090
-694,685	187,872	-0,128	-0,139
-693,670	273,980	0,072	-0,093
-692,656	599,662	0,024	0,044
-691,641	-200,000	0,007	0,028
-690,627	249,702	0,051	-0,063
-689,612	-103,034	0,032	0,005
-688,597	-200,000	0,000	-0,029
-687,583	91,527	-0,113	-0,092
-686,568	112,074	0,038	-0,033
-685,554	-200,000	0,001	0,004
-684,539	225,328	0,048	0,056
-683,524	377,270	0,044	0,065
-682,510	-200,000	0,023	0,084
-681,495	-200,000	-0,012	0,080
-680,481	-64,635	-0,121	0,035
-679,466	90,280	-0,095	-0,077
-678,451	-97,060	-0,100	0,019
-677,437	274,539	0,024	0,031
-676,422	800,000	-0,017	0,042
-675,408	86,902	0,033	-0,027
-674,393	64,060	-0,092	0,067
-673,378	204,382	0,021	-0,024
-672,364	-97,854	-0,023	0,004
-671,349	146,277	-0,055	0,054
-670,335	-109,595	0,105	-0,016
-669,320	-200,000	-0,010	0,097
-668,305	-93,930	-0,051	0,010
-667,291	-136,382	-0,106	-0,009
-666,276	-122,713	-0,209	0,024
-665,262	-180,063	-0,108	-0,002
-664,247	253,509	-0,056	0,069
-663,232	168,445	-0,023	0,024
-662,218	-17,233	-0,034	-0,016
-661,203	41,307	0,118	0,077
-660,189	800,000	-0,028	-0,067
-659,174	-200,000	0,023	-0,082
-658,159	-109,779	-0,120	-0,018
-657,145	-200,000	-0,016	-0,171
-656,130	55,483	-0,119	-0,084
-655,116	61,444	-0,044	-0,032
-654,101	800,000	-0,058	-0,157
-653,086	800,000	0,008	0,021
-652,072	166,345	-0,145	0,149
-651,057	-118,198	-0,140	-0,018
-650,043	313,588	0,067	0,092
-649,028	-200,000	-0,039	-0,146
-648,014	97,596	-0,068	0,056
-646,999	-88,232	0,131	-0,028
-645,984	-90,374	-0,030	-0,006
-644,970	-200,000	-0,022	-0,074
-643,955	432,718	-0,051	-0,080
-642,941	12,986	0,143	0,080
-641,926	800,000	-0,013	0,036
-640,911	-109,569	0,158	-0,024
-639,897	-200,000	0,020	0,113
-638,882	679,664	0,035	-0,067
-637,868	-200,000	-0,001	-0,026
-636,853	49,201	-0,088	0,060
-635,838	396,301	0,013	-0,020
-634,824	-200,000	-0,005	-0,054
-633,809	-200,000	0,147	-0,000
-632,795	-200,000	0,050	0,200
-631,780	-200,000	-0,005	0,056
-630,765	-200,000	-0,019	0,078
-629,751	-200,000	-0,011	-0,041
-628,736	-200,000	-0,012	-0,199
-627,722	112,985	0,050	0,044
-626,707	-81,658	-0,127	0,030
-625,692	-153,300	-0,074	0,004
-624,678	-100,110	0,059	0,011
-623,663	209,490	0,034	-0,039
-622,649	607,130	-0,094	-0,170
-621,634	-46,198	0,121	-0,043
-620,619	-25,275	-0,188	-0,080
-619,605	-50,304	0,149	0,051
-618,590	-200,000	0,003	0,047
-617,576	800,000	-0,005	0,013
-616,561	-36,108	0,075	0,029
-615,546	17,951	-0,075	0,043
-614,532	29,181	0,002	0,001
-613,517	-200,000	-0,030	-0,135
-612,503	800,000	-0,042	0,104
-611,488	-200,000	-0,019	0,111
-610,474	-200,000	0,012	0,084
-609,459	-50,697	-0,005	-0,002
-608,444	-200,000	-0,008	-0,125
-607,430	-115,433	-0,059	0,008
-606,415	-200,000	0,001	-0,069
-605,401	6,277	0,030	0,016
-604,386	73,700	-0,030	0,023
-603,371	-200,000	0,027	0,128
-602,357	-200,000	-0,024	0,100
-601,342	-200,000	0,014	-0,059
-600,328	-167,073	-0,138	-0,004
-599,313	103,383	0,039	0,033
-598,298	5,791	-0,037	0,020
-597,284	-25,249	0,090	-0,038
-596,269	-200,000	-0,001	-0,038
-595,255	-73,860	-0,145	-0,038
-594,240	-200,000	0,008	0,103
-593,225	-200,000	-0,010	-0,069
-592,211	308,816	0,035	0,048
-591,196	800,000	0,040	0,123
-590,182	191,728	-0,106	0,116
-589,167	800,000	0,028	-0,059
-588,152	153,713	0,062	-0,062
-587,138	-175,057	-0,159	-0,003
-586,123	-43,258	0,059	-0,021
-585,109	-200,000	-0,003	-0,011
-584,094	-177,727	-0,126	-0,002
-583,079	-200,000	-0,004	-0,023
-582,065	-91,586	0,108	0,022
-581,050	800,000	-0,033	0,106
-580,036	-6,043	-0,074	-0,037
-579,021	-65,078	-0,208	-0,060
-578,006	-84,704	0,133	-0,030
-576,992	-34,626	0,103	-0,040
-575,977	-122,025	-0,059	-0,007
-574,963	-124,307	0,141	-0,016
-573,948	511,925	0,024	0,041
-572,934	-92,994	-0,085	0,017
-571,919	-52,038	-0,212	-0,071
-570,904	-200,000	-0,032	-0,137
-569,890	106,796	0,123	-0,106
-568,875	456,929	0,021	0,034
-567,861	146,471	-0,064	-0,062
-566,846	255,137	-0,082	0,102
-565,831	96,948	-0,051	0,042
-564,817	58,061	0,067	0,047
-563,802	224,479	-0,036	-0,042
-562,788	340,365	0,028	-0,039
-561,773	800,000	0,054	-0,153
-560,758	-28,111	-0,042	0,017
-559,744	-200,000	0,028	0,108
-558,729	22,965	0,072	-0,043
-557,715	163,660	-0,116	-0,118
-556,700	204,532	-0,047	-0,052
-555,685	800,000	-0,035	-0,091
-554,671	270,000	-0,041	0,052
-553,656	-23,392	-0,072	0,031
-552,642	317,009	-0,038	-0,052
-551,627	190,150	0,066	0,071
-550,612	-12,710	-0,111	-0,052
-549,598	-200,000	-0,001	-0,078
-548,583	20,112	-0,028	-0,016
-547,569	97,848	0,051	-0,042
-546,554	29,396	0,113	-0,069
-545,539	800,000	-0,023	0,070
-544,525	152,429	0,058	-0,057
-543,510	800,000	-0,042	0,117
-542,496	-200,000	-0,068	-0,224
-541,481	-76,246	0,073	-0,018
-540,466	-200,000	0,023	-0,145
-539,452	135,082	-0,035	0,033
-538,437	-200,000	0,017	0,109
-537,423	-19,798	0,080	-0,036
-536,408	84,170	-0,048	0,038
-535,393	-69,697	-0,136	-0,037
-534,379	-200,000	-0,013	-0,081
-533,364	-200,000	0,005	0,096
-532,350	40,499	-0,075	0,049
-531,335	61,915	0,078	0,056
-530,321	147,362	0,031	0,030
-529,306	225,512	-0,067	0,078
-528,291	-200,000	-0,020	0,112
-527,277	338,242	-0,084	-0,118
-526,262	437,404	-0,022	-0,035
-525,248	-200,000	0,026	-0,114
-524,233	25,805	-0,047	0,028
-523,218	58,942	-0,048	-0,034
-522,204	273,866	0,022	-0,028
-521,189	239,109	-0,052	-0,063
-520,175	-27,965	-0,046	0,019
-519,160	124,537	0,069	0,062
-518,145	-126,166	0,096	-0,010
-517,131	-200,000	0,006	-0,046
-516,116	800,000	-0,028	0,059
-515,102	22,746	-0,086	0,051
-514,087	122,400	0,062	-0,056
-513,072	-200,000	-0,055	-0,195
-512,058	5,047	0,097	-0,051
-511,043	-200,000	0,003	-0,023
-510,029	82,198	0,097	0,076
-509,014	-57,072	-0,074	0,024
-507,999	-48,239	0,149	0,052
-506,985	215,258	0,040	-0,045
-505,970	328,975	0,006	0,009
-504,956	-57,801	-0,114	0,036
-503,941	-36,576	0,032	0,012
-502,926	800,000	-0,005	-0,012
-501,912	267,182	0,071	0,090
-500,897	294,411	-0,041	0,055
-499,883	-200,000	0,003	0,012
-498,868	800,000	-0,041	-0,096
-497,853	800,000	-0,037	-0,107
-496,839	-11,672	-0,086	0,041
-495,824	-137,277	0,099	-0,008
-494,810	147,575	0,032	-0,032
-493,795	193,753	-0,054	0,059
-492,781	800,000	-0,013	0,037
-491,766	-78,449	-0,124	0,030
-490,751	800,000	0,039	-0,090
-489,737	800,000	0,084	-0,224
-488,722	-200,000	0,023	0,088
-487,708	21,180	-0,068	0,039
-486,693	577,396	0,040	-0,070
-485,678	-162,803	-0,069	0,002
-484,664	-148,422	-0,080	-0,005
-483,649	-62,292	0,047	0,014
-482,635	-16,588	-0,113	-0,051
-481,620	-82,267	0,206	0,048
-480,605	-77,660	-0,110	-0,027
-479,591	800,000	0,048	0,120
-478,576	-117,343	-0,073	0,009
-477,562	186,526	0,067	0,072
-476,547	-200,000	-0,016	0,074
-475,532	235,264	-0,078	-0,092
-474,518	115,544	0,011	0,010
-473,503	112,550	0,090	-0,079
-472,489	-200,000	-0,003	0,149
-471,474	-200,000	-0,020	0,075
-470,459	-200,000	0,001	0,119
-469,445	-200,000	0,012	-0,038
-468,430	17,324	-0,103	-0,059
-467,416	-26,738	0,153	-0,064
-466,401	-61,285	-0,087	-0,026
-465,386	-84,962	0,047	0,010
-464,372	436,129	-0,071	-0,112
-463,357	-200,000	-0,023	-0,118
-462,343	-200,000	-0,001	-0,067
-461,328	-200,000	0,003	-0,059
-460,313	-200,000	0,012	0,112
-459,299	800,000	-0,020	0,043
-458,284	50,844	0,053	0,036
-457,270	319,710	-0,050	0,068
-456,255	-91,724	0,092	-0,019
-455,241	-36,091	-0,139	-0,054
-454,226	190,931	-0,076	0,083
-453,211	798,721	-0,008	-0,017
-452,197	-86,048	-0,128	-0,028
-451,182	-200,000	0,018	-0,079
-450,168	800,000	-0,029	0,077
-449,153	-200,000	-0,006	-0,123
-448,138	444,218	-0,055	0,088
-447,124	31,712	0,057	-0,035
-446,109	-95,888	0,069	-0,013
-445,095	357,273	-0,063	-0,091
-444,080	139,697	-0,077	0,073
-443,065	31,394	-0,078	0,048
-442,051	221,141	0,107	0,124
-441,036	-200,000	-0,015	-0,077
-440,022	34,488	0,051	-0,032
-439,007	2,772	-0,087	0,045
-437,992	-132,592	0,149	-0,014
-436,978	48,929	0,105	0,071
-435,963	800,000	0,028	0,089
-434,949	36,194	-0,037	-0,024
-433,934	252,700	-0,086	0,106
-432,919	-200,000	0,014	0,052
-431,905	721,342	-0,014	-0,028
-430,890	169,602	0,080	0,082
-429,876	19,922	-0,050	-0,029
-428,861	-92,896	-0,054	0,011
-427,846	-79,016	0,087	-0,021
-426,832	-89,453	-0,026	-0,006
-425,817	321,160	-0,035	-0,048
-424,803	224,895	0,041	0,048
-423,788	-109,413	-0,022	-0,003
-422,773	-96,089	0,048	-0,009
-421,759	-200,000	0,054	0,198
-420,744	577,102	-0,034	0,060
-419,730	270,750	0,042	-0,053
-418,715	191,173	-0,112	-0,122
-417,701	-113,338	-0,162	0,023
-416,686	-92,487	0,013	-0,003
-415,671	196,157	0,074	0,081
-414,657	800,000	-0,025	0,074
-413,642	-64,698	-0,064	-0,018
-412,628	800,000	0,042	0,112
-411,613	143,841	-0,070	0,067
-410,598	-16,791	-0,116	0,052
-409,584	222,539	0,042	0,048
-408,569	38,563	0,093	0,060
-407,555	-110,462	0,075	0,011
-406,540	4,542	-0,098	-0,052
-405,525	85,555	-0,134	0,106
-404,511	285,811	-0,055	-0,072
-403,496	-200,000	0,012	0,089
-402,482	27,468	-0,056	0,033
-401,467	35,131	0,113	0,071
-400,452	405,092	-0,010	-0,014
-399,438	800,000	0,057	-0,144
-398,423	-200,000	0,004	0,085
-397,409	-100,861	-0,191	-0,033
-396,394	2,312	-0,081	-0,042
-395,379	-74,233	0,149	-0,038
-394,365	-200,000	-0,009	-0,055
-393,350	-52,865	0,076	0,025
-392,336	36,300	-0,031	-0,020
-391,321	604,040	-0,022	-0,039
-390,306	-22,512	-0,039	0,017
-389,292	84,323	-0,052	-0,041
-388,277	179,272	0,084	0,088
-387,263	-200,000	0,001	0,022
-386,248	202,563	-0,024	0,027
-385,233	-78,665	-0,069	-0,017
-384,219	87,660	0,043	0,034
-383,204	800,000	0,028	-0,083
-382,190	800,000	-0,103	-0,246
-381,175	-85,505	0,030	0,007
-380,160	-21,067	0,046	0,020
-379,146	800,000	-0,049	-0,113
-378,131	153,910	0,155	0,153
-377,117	-200,000	0,009	-0,124
-376,102	-100,903	-0,107	0,019
-375,088	-200,000	-0,025	-0,080
-374,073	759,978	0,044	-0,087
-373,058	-200,000	0,019	0,081
-372,044	46,073	0,084	0,056
-371,029	114,753	0,065	0,057
-370,015	-141,645	0,024	0,002
-369,000	212,918	-0,103	-0,117
-367,985	800,000	-0,006	-0,016
-366,971	-13,061	0,093	-0,043
-365,956	80,646	-0,058	-0,044
-364,942	-13,019	0,102	0,047
-363,927	-160,951	-0,070	0,003
-362,912	800,000	-0,015	-0,032
-361,898	58,335	-0,107	0,075
-360,883	38,008	-0,079	-0,050
-359,869	43,690	0,148	-0,097
-358,854	-200,000	0,022	0,085
-357,839	-200,000	0,011	0,116
-356,825	463,982	-0,044	0,070
-355,810	-132,409	0,149	-0,014
-354,796	75,194	-0,034	-0,026
-353,781	-126,527	-0,114	-0,012
-352,766	96,672	-0,026	0,022
-351,752	-184,088	0,176	0,002
-350,737	800,000	0,055	0,156
-349,723	665,402	0,023	0,043
-348,708	800,000	0,073	-0,150
-347,693	-70,044	-0,045	-0,012
-346,679	150,939	0,059	-0,058
-345,664	-1,334	-0,142	-0,071
-344,650	100,494	-0,007	-0,006
-343,635	34,833	0,167	-0,104
-342,620	-13,146	0,116	-0,054
-341,606	-135,113	0,104	0,009
-340,591	568,602	-0,049	-0,085
-339,577	543,719	-0,067	-0,115
-338,562	800,000	-0,074	-0,162
-337,548	800,000	0,030	-0,067
-336,533	800,000	0,015	0,045
-335,518	800,000	0,031	0,091
-334,504	800,000	0,034	-0,087
-333,489	-200,000	0,002	-0,113
-332,475	411,723	-0,031	-0,047
-331,460	-64,204	0,008	-0,002
-330,445	-106,789	0,144	0,023
-329,431	-200,000	0,012	-0,113
-328,416	386,806	0,078	0,116
-327,402	62,298	0,044	0,032
-326,387	133,830	0,029	0,027
-325,372	-99,329	-0,116	-0,021
-324,358	180,450	-0,063	-0,066
-323,343	191,703	0,063	0,068
-322,329	179,344	-0,016	0,017
-321,314	800,000	-0,040	0,099
-320,299	-200,000	0,001	0,052
-319,285	648,769	-0,029	0,054
-318,270	206,776	0,106	0,119
-317,256	-68,883	0,073	-0,020
-316,241	800,000	0,035	-0,074
-315,226	-200,000	-0,015	0,078
-314,212	-39,568	0,176	-0,066
-313,197	513,472	-0,050	-0,084
-312,183	-18,086	0,083	0,037
-311,168	800,000	-0,045	-0,113
-310,153	367,863	0,108	-0,157
-309,139	158,136	-0,069	-0,069
-308,124	768,250	-0,064	-0,125
-307,110	252,335	-0,055	0,067
-306,095	220,066	-0,041	-0,047
-305,080	-200,000	-0,007	-0,073
-304,066	153,567	-0,055	-0,054
-303,051	-122,685	0,089	0,010
-302,037	334,149	0,026	0,037
-301,022	-200,000	-0,004	0,194
-300,008	800,000	-0,026	-0,061
-298,993	-200,000	-0,025	0,138
-297,978	30,134	0,105	0,064
-296,964	-200,000	0,010	0,066
-295,949	253,466	0,041	0,050
-294,935	-129,282	-0,163	-0,016
-293,920	-200,000	0,020	-0,095
-292,905	194,303	0,040	0,044
-291,891	585,792	-0,014	-0,024
-290,876	18,387	-0,052	0,029
-289,862	773,966	-0,026	-0,051
-288,847	-200,000	0,005	-0,096
-287,832	-175,559	-0,091	-0,002
-286,818	152,318	0,060	-0,059
-285,803	218,996	0,044	-0,050
-284,789	149,230	0,075	0,073
-283,774	-200,000	-0,025	0,191
-282,759	-18,802	-0,055	-0,024
-281,745	34,256	-0,195	-0,121
-280,730	626,131	-0,035	-0,064
-279,716	-14,680	-0,132	0,060
-278,701	-200,000	-0,012	0,130
-277,686	800,000	-0,021	-0,058
-276,672	146,994	0,077	-0,074
-275,657	225,644	-0,054	-0,063
-274,643	187,516	-0,084	-0,089
-273,628	-200,000	0,030	-0,212
-272,613	83,428	0,060	-0,047
-271,599	584,938	0,083	0,147
-270,584	-29,226	-0,024	0,010
-269,570	173,523	-0,035	-0,036
-268,555	47,131	-0,090	0,060
-267,540	291,793	-0,038	0,049
-266,526	800,000	-0,057	-0,156
-265,511	211,808	0,044	-0,049
-264,497	-50,784	0,007	-0,002
-263,482	800,000	0,040	0,111
-262,467	-200,000	-0,026	-0,115
-261,453	365,289	-0,057	0,083
-260,438	800,000	0,024	-0,066
-259,424	-200,000	0,011	-0,075
-258,409	202,275	0,054	0,060
-257,395	-200,000	0,018	0,068
-256,380	-92,753	0,071	-0,014
-255,365	-39,848	0,057	0,021
-254,351	-200,000	0,018	0,130
-253,336	170,509	0,034	-0,035
-252,322	214,568	-0,025	-0,028
-251,307	-200,000	0,027	0,172
-250,292	550,211	0,047	-0,080
-249,278	-154,088	0,118	0,006
-248,263	800,000	-0,034	0,083
-247,249	-44,035	0,165	0,059
-246,234	800,000	-0,053	0,115
-245,219	-61,281	-0,108	-0,032
-244,205	220,074	-0,018	-0,020
-243,190	438,592	0,089	0,140
-242,176	-17,862	-0,023	-0,010
-241,161	-9,000	0,049	-0,023
-240,146	64,650	-0,119	0,086
-239,132	-65,355	-0,117	0,033
-238,117	800,000	0,091	-0,184
-237,103	-17,932	0,096	0,043
-236,088	440,204	-0,084	-0,132
-235,073	-200,000	0,005	0,073
-234,059	483,381	0,042	0,069
-233,044	59,053	-0,065	-0,046
-232,030	106,247	-0,036	-0,030
-231,015	-2,405	0,017	-0,008
-230,000	-104,030	-0,064	-0,011
-228,986	16,972	0,102	-0,057
-227,971	-185,132	-0,119	0,001
-226,957	800,000	-0,020	0,047
-225,942	102,617	0,042	0,035
-224,927	-200,000	-0,018	-0,111
-223,913	-200,000	0,001	-0,008
-222,898	546,460	-0,075	0,129
-221,884	-86,882	0,074	-0,016
-220,869	27,004	0,046	-0,028
-219,855	-30,545	0,190	0,076
-218,840	53,171	0,066	0,045
-217,825	800,000	0,079	0,167
-216,811	800,000	-0,016	-0,047
-215,796	-200,000	-0,009	-0,038
-214,782	-200,000	-0,008	-0,089
-213,767	800,000	-0,028	0,070
-212,752	-108,261	0,103	0,016
-211,738	800,000	-0,019	0,054
-210,723	800,000	-0,013	0,030
-209,709	707,809	-0,027	-0,050
-208,694	-200,000	0,007	0,032
-207,679	528,678	0,043	-0,072
-206,665	7,529	0,051	0,027
-205,650	-63,038	0,162	-0,048
-204,636	200,417	0,089	0,097
-203,621	800,000	0,055	0,142
-202,606	59,883	-0,037	0,026
-201,592	44,733	0,095	-0,062
-200,577	182,052	0,067	-0,070
-199,563	667,120	0,054	-0,100
-198,548	-163,917	0,076	-0,002
-197,533	-155,038	-0,066	0,003
-196,519	297,618	0,109	0,143
-195,504	800,000	-0,030	-0,087
-194,490	497,566	-0,051	-0,084
-193,475	38,912	0,009	-0,006
-192,460	141,169	0,041	-0,038
-191,446	-72,665	0,013	-0,003
-190,431	-145,782	-0,055	-0,003
-189,417	448,050	-0,043	0,068
-188,402	74,780	0,049	-0,037
-187,387	46,052	0,118	0,078
-186,373	-200,000	-0,028	-0,114
-185,358	-200,000	0,000	-0,036
-184,344	97,599	0,060	0,049
-183,329	599,705	0,079	0,140
-182,315	-200,000	0,022	0,142
-181,300	316,361	-0,059	0,080
-180,285	359,871	-0,051	0,073
-179,271	41,882	-0,060	-0,039
-178,256	-12,977	0,089	0,041
-177,242	800,000	-0,079	0,186
-176,227	-200,000	-0,031	0,117
-175,212	62,410	0,071	0,051
-174,198	-20,216	0,225	-0,098
-173,183	198,865	0,038	0,041
-172,169	146,946	-0,120	-0,115
-171,154	-200,000	0,012	-0,075
-170,139	284,404	0,060	0,077
-169,125	-200,000	-0,027	0,111
-168,110	208,970	0,042	-0,047
-167,096	-200,000	-0,001	0,026
-166,081	41,525	-0,138	0,089
-165,066	-200,000	0,016	-0,090
-164,052	800,000	-0,078	0,185
-163,037	-200,000	-0,011	-0,046
-162,023	-69,696	0,018	0,005
-161,008	-166,862	-0,162	-0,005
-159,993	800,000	-0,024	0,072
-158,979	11,703	-0,057	0,031
-157,964	37,942	0,066	-0,042
-156,950	-132,098	-0,052	-0,005
-155,935	80,494	0,045	-0,035
-154,920	346,574	-0,063	0,088
-153,906	69,417	0,042	-0,030
-152,891	-48,286	-0,063	0,021
-151,877	-90,064	-0,066	-0,014
-150,862	-33,297	0,066	-0,026
-149,847	-90,005	-0,105	-0,022
-148,833	137,794	0,044	-0,041
-147,818	-200,000	0,073	0,240
-146,804	800,000	-0,021	0,043
-145,789	-200,000	0,008	-0,071
-144,775	-65,022	-0,059	-0,017
-143,760	382,030	0,024	-0,035
-142,745	-62,883	-0,036	0,011
-141,731	82,464	0,025	0,019
-140,716	9,348	-0,063	0,034
-139,702	-200,000	-0,013	0,177
-138,687	-70,579	-0,004	0,001
-137,672	800,000	-0,011	0,029
-136,658	74,309	-0,123	-0,092
-135,643	534,878	0,038	-0,063
-134,629	800,000	-0,045	-0,101
-133,614	-200,000	-0,043	0,156
-132,599	-200,000	0,021	0,141
-131,585	-200,000	0,019	0,118
-130,570	-81,262	0,215	0,050
-129,556	800,000	0,008	-0,024
-128,541	-200,000	-0,007	-0,067
-127,526	140,325	0,022	-0,020
-126,512	343,863	0,024	-0,033
-125,497	800,000	-0,014	-0,034
-124,483	-108,280	0,131	-0,020
-123,468	-200,000	-0,001	0,121
-122,453	184,516	-0,091	0,096
-121,439	36,728	-0,004	-0,002
-120,424	-91,646	-0,074	0,015
-119,410	-200,000	-0,000	-0,032
