DTS Sentinel unit serial number:	SN410029Multiplexer serial number:	ORYXHardware model number:	OX2-SRSoftware version number:	ORYX F/W v4,00 Oryx Data Collector v3.7.2.0data status	okinstallation	BH3 CH2differential loss correction	single-endedforward channel	channel 2reverse channel	N/Adate	2023/12/05time	14:22:28forward acquisition time	300,00reverse acquisition time	0,00gamma	499,1914k internal	0,3193k external	0,3193temperature offset calibration	1,0000default loss term (dB/km)	0,3820temperature slope calibration	1,0000multiplexer offset coefficient	1,0000multiplexer slope coefficient	1,0000fibre end	0,00T internal ref (°C)	10,82T ext. ref 1 (°C)	-3,22T ext. ref 2 (°C)	-3,38length (m)	temperature (°C)	Stokes	anti-Stokes-744,400	287,121	-0,080	-0,106
-743,385	208,722	-0,148	0,169
-742,371	348,620	-0,014	0,020
-741,356	800,000	-0,080	0,191
-740,342	800,000	0,063	-0,159
-739,327	15,747	-0,194	0,111
-738,312	-200,000	-0,018	-0,106
-737,298	-133,783	-0,200	-0,018
-736,283	-200,000	0,014	-0,191
-735,269	569,074	-0,116	0,207
-734,254	114,043	-0,058	-0,051
-733,239	-98,570	-0,433	-0,080
-732,225	800,000	0,051	-0,128
-731,210	-30,178	0,063	0,026
-730,196	-200,000	0,006	0,059
-729,181	-130,278	-0,093	0,009
-728,167	-200,000	-0,028	0,112
-727,152	-65,415	-0,138	0,040
-726,137	159,291	-0,080	-0,081
-725,123	-152,943	-0,042	0,002
-724,108	-20,512	-0,181	-0,081
-723,094	800,000	0,057	-0,148
-722,079	-200,000	-0,035	-0,188
-721,064	-20,397	0,156	-0,070
-720,050	-47,696	-0,172	0,060
-719,035	-6,570	-0,150	0,074
-718,021	-7,002	-0,083	0,041
-717,006	794,007	-0,082	-0,166
-715,991	-7,796	-0,097	-0,047
-714,977	213,960	-0,075	0,087
-713,962	104,973	-0,033	-0,029
-712,948	-200,000	0,015	-0,069
-711,933	-200,000	-0,019	-0,068
-710,918	800,000	0,013	0,032
-709,904	-200,000	-0,010	-0,132
-708,889	109,994	-0,110	-0,096
-707,875	-200,000	-0,001	-0,114
-706,860	417,426	0,055	0,085
-705,845	27,145	0,022	0,013
-704,831	136,736	-0,067	0,064
-703,816	416,849	0,126	-0,196
-702,802	-200,000	-0,004	0,023
-701,787	362,881	-0,065	-0,095
-700,772	-72,586	0,063	-0,017
-699,758	-200,000	0,038	0,166
-698,743	-100,943	-0,077	0,014
-697,729	-200,000	-0,004	-0,032
-696,714	800,000	-0,046	-0,100
-695,699	-65,724	-0,048	-0,014
-694,685	12,526	-0,117	-0,065
-693,670	-200,000	-0,019	-0,126
-692,656	-200,000	0,010	-0,092
-691,641	702,830	-0,023	-0,045
-690,627	35,940	0,130	-0,083
-689,612	-108,117	-0,168	0,026
-688,597	-200,000	0,008	-0,040
-687,583	-149,946	-0,159	0,009
-686,568	-200,000	-0,015	-0,057
-685,554	-41,057	0,182	-0,068
-684,539	-200,000	-0,016	0,147
-683,524	-78,943	0,075	0,018
-682,510	174,085	-0,133	-0,140
-681,495	-9,012	-0,065	0,032
-680,481	-200,000	-0,014	-0,113
-679,466	-107,884	-0,071	-0,011
-678,451	800,000	0,038	0,102
-677,437	-57,187	0,053	-0,017
-676,422	319,507	0,062	-0,086
-675,408	800,000	0,038	-0,117
-674,393	-134,071	-0,081	0,007
-673,378	800,000	0,045	-0,115
-672,364	-200,000	0,033	-0,181
-671,349	200,591	-0,153	-0,171
-670,335	99,000	0,074	-0,062
-669,320	-7,824	-0,138	0,068
-668,305	146,516	0,090	0,088
-667,291	-44,232	0,093	-0,034
-666,276	245,477	-0,019	0,024
-665,262	800,000	0,039	-0,088
-664,247	314,998	0,108	0,149
-663,232	800,000	0,005	0,012
-662,218	-133,877	0,185	-0,016
-661,203	560,352	-0,069	0,122
-660,189	-200,000	0,005	0,029
-659,174	-114,786	-0,209	-0,029
-658,159	335,034	-0,028	-0,039
-657,145	-200,000	0,015	-0,160
-656,130	173,383	0,087	-0,091
-655,116	321,157	-0,065	-0,091
-654,101	-38,904	0,078	0,030
-653,086	651,696	-0,011	0,021
-652,072	800,000	-0,080	-0,177
-651,057	800,000	-0,045	0,123
-650,043	-200,000	0,011	0,066
-649,028	-200,000	-0,046	0,000
-648,014	182,494	0,063	0,067
-646,999	15,608	0,110	0,063
-645,984	262,099	-0,069	0,087
-644,970	-40,148	0,110	-0,041
-643,955	618,302	0,013	0,025
-642,941	299,383	-0,086	-0,116
-641,926	-157,652	-0,082	-0,003
-640,911	561,367	0,059	-0,105
-639,897	696,635	0,041	-0,078
-638,882	-23,207	-0,048	0,021
-637,868	-200,000	0,018	-0,074
-636,853	306,506	-0,047	-0,063
-635,838	-41,234	-0,035	-0,013
-634,824	-200,000	0,033	-0,215
-633,809	-200,000	0,017	-0,072
-632,795	-200,000	0,006	-0,042
-631,780	-45,597	-0,082	-0,029
-630,765	-105,803	-0,125	0,020
-629,751	67,251	-0,026	0,019
-628,736	-200,000	-0,018	-0,099
-627,722	-54,502	-0,173	-0,057
-626,707	602,151	0,016	-0,030
-625,692	655,645	0,039	0,073
-624,678	42,606	-0,139	0,092
-623,663	-108,769	0,067	0,010
-622,649	242,057	-0,031	-0,038
-621,634	77,275	-0,033	-0,025
-620,619	-60,989	0,083	-0,025
-619,605	-82,755	0,047	0,011
-618,590	-200,000	0,005	0,031
-617,576	14,194	-0,038	0,022
-616,561	-200,000	-0,012	0,111
-615,546	257,887	-0,052	-0,065
-614,532	9,619	-0,030	0,017
-613,517	6,665	-0,011	0,006
-612,503	-89,601	-0,048	0,010
-611,488	6,697	-0,079	-0,042
-610,474	-94,447	0,129	0,025
-609,459	-200,000	-0,021	0,102
-608,444	108,503	-0,128	-0,110
-607,430	48,251	-0,141	-0,095
-606,415	58,929	0,057	-0,041
-605,401	657,759	0,110	-0,206
-604,386	519,408	0,040	0,068
-603,371	102,813	0,084	0,071
-602,357	-93,849	-0,082	0,016
-601,342	-109,522	-0,058	-0,009
-600,328	242,224	-0,076	-0,093
-599,313	-134,204	-0,146	-0,013
-598,298	-128,244	-0,074	0,008
-597,284	-200,000	0,012	0,049
-596,269	-200,000	-0,001	0,028
-595,255	-92,023	-0,075	0,015
-594,240	-22,017	-0,024	-0,011
-593,225	-200,000	-0,022	-0,109
-592,211	75,515	-0,140	-0,107
-591,196	22,530	0,127	0,075
-590,182	-168,842	0,112	-0,003
-589,167	-46,054	0,122	0,043
-588,152	106,550	0,032	-0,028
-587,138	-124,885	0,129	-0,014
-586,123	81,802	-0,060	-0,047
-585,109	800,000	0,016	0,047
-584,094	-200,000	0,020	-0,170
-583,079	-200,000	0,012	0,060
-582,065	-200,000	0,012	-0,073
-581,050	-200,000	0,005	0,116
-580,036	-200,000	-0,016	0,124
-579,021	255,752	0,027	0,034
-578,006	800,000	0,044	0,091
-576,992	-200,000	0,021	-0,171
-575,977	-3,678	0,096	-0,048
-574,963	800,000	0,016	0,033
-573,948	800,000	-0,041	0,118
-572,934	0,519	0,117	0,060
-571,919	-53,281	-0,034	-0,011
-570,904	37,561	-0,051	0,033
-569,890	113,755	-0,041	-0,036
-568,875	-99,085	0,086	0,016
-567,861	-200,000	0,013	0,070
-566,846	25,941	-0,129	0,078
-565,831	-200,000	-0,020	0,067
-564,817	232,860	-0,080	-0,095
-563,802	-29,114	0,150	0,062
-562,788	-140,972	-0,065	-0,005
-561,773	119,790	-0,116	-0,104
-560,758	240,318	0,018	0,022
-559,744	-48,075	0,119	0,041
-558,729	225,723	-0,068	-0,080
-557,715	-98,667	0,061	-0,011
-556,700	14,025	-0,061	-0,034
-555,685	485,181	0,033	-0,054
-554,671	800,000	-0,015	0,035
-553,656	800,000	0,014	-0,041
-552,642	483,873	-0,028	0,047
-551,627	-120,832	-0,109	-0,013
-550,612	-200,000	-0,031	-0,105
-549,598	-200,000	-0,018	-0,072
-548,583	800,000	-0,020	-0,049
-547,569	277,693	-0,035	-0,046
-546,554	12,526	0,135	-0,075
-545,539	467,716	0,038	0,063
-544,525	-98,835	0,040	0,007
-543,510	-200,000	-0,001	-0,008
-542,496	279,036	-0,075	-0,098
-541,481	-200,000	0,004	-0,024
-540,466	157,690	0,037	0,037
-539,452	301,612	0,070	0,093
-538,437	1,263	0,023	-0,012
-537,423	-130,546	-0,046	-0,004
-536,408	-200,000	0,007	0,046
-535,393	686,179	0,019	-0,035
-534,379	-159,384	0,114	0,005
-533,364	30,898	-0,034	-0,021
-532,350	58,667	-0,105	0,074
-531,335	-200,000	0,124	-0,000
-530,321	-200,000	0,009	0,141
-529,306	31,474	-0,033	-0,021
-528,291	-200,000	-0,008	0,059
-527,277	800,000	-0,029	-0,064
-526,262	30,775	-0,069	-0,043
-525,248	-139,559	0,098	0,007
-524,233	-200,000	0,001	0,191
-523,218	-164,949	0,143	-0,005
-522,204	287,199	-0,069	-0,091
-521,189	42,391	-0,081	0,053
-520,175	52,055	-0,120	-0,082
-519,160	-78,609	0,076	-0,019
-518,145	-195,746	0,048	-0,000
-517,131	591,408	0,057	0,102
-516,116	190,628	0,029	0,032
-515,102	-114,493	-0,032	-0,004
-514,087	-200,000	-0,029	0,105
-513,072	800,000	-0,037	-0,097
-512,058	8,941	0,112	-0,061
-511,043	238,573	-0,041	-0,049
-510,029	570,504	-0,011	0,020
-509,014	-111,300	-0,099	0,014
-507,999	800,000	0,037	0,095
-506,985	263,250	-0,050	0,063
-505,970	-44,565	0,070	0,025
-504,956	41,713	-0,095	-0,062
-503,941	1,177	-0,154	-0,080
-502,926	509,548	0,041	0,069
-501,912	147,978	-0,057	0,055
-500,897	-200,000	-0,001	-0,062
-499,883	307,199	0,062	-0,083
-498,868	-200,000	-0,015	0,193
-497,853	-200,000	-0,006	-0,154
-496,839	-200,000	-0,005	0,053
-495,824	54,330	0,083	-0,058
-494,810	-15,087	-0,034	0,016
-493,795	32,432	0,097	-0,060
-492,781	-200,000	-0,006	0,073
-491,766	219,201	-0,100	-0,116
-490,751	-200,000	-0,017	0,130
-489,737	-160,392	-0,159	-0,006
-488,722	-125,738	0,097	-0,010
-487,708	709,092	-0,066	0,126
-486,693	392,626	0,106	0,159
-485,678	-95,955	0,180	0,034
-484,664	-28,864	-0,131	-0,054
-483,649	800,000	-0,053	-0,119
-482,635	-200,000	0,009	-0,108
-481,620	-19,879	-0,057	0,025
-480,605	-200,000	0,008	-0,058
-479,591	-3,030	-0,118	-0,059
-478,576	86,962	0,055	-0,044
-477,562	-200,000	-0,001	-0,028
-476,547	259,055	-0,058	-0,072
-475,532	131,765	-0,088	0,082
-474,518	-181,001	0,082	-0,001
-473,503	-43,182	0,108	0,039
-472,489	123,916	0,019	-0,018
-471,474	64,627	-0,036	-0,026
-470,459	-95,483	-0,125	-0,024
-469,445	-22,615	-0,084	-0,037
-468,430	468,182	-0,045	0,073
-467,416	90,827	0,156	0,126
-466,401	69,297	0,090	0,067
-465,386	163,909	-0,038	0,038
-464,372	430,844	-0,021	-0,032
-463,357	800,000	-0,038	-0,116
-462,343	800,000	-0,048	-0,148
-461,328	-200,000	-0,012	-0,056
-460,313	-200,000	-0,009	-0,050
-459,299	-200,000	-0,001	-0,109
-458,284	-53,747	-0,175	-0,057
-457,270	800,000	-0,051	0,111
-456,255	800,000	0,007	0,016
-455,241	29,511	-0,095	0,058
-454,226	-33,167	-0,051	0,020
-453,211	-200,000	-0,012	-0,099
-452,197	444,049	0,058	0,092
-451,182	58,980	0,101	-0,071
-450,168	-200,000	0,003	0,042
-449,153	295,664	0,007	-0,009
-448,138	800,000	0,029	0,085
-447,124	91,602	0,052	-0,042
-446,109	800,000	-0,024	0,054
-445,095	-200,000	0,034	0,173
-444,080	8,666	-0,042	-0,023
-443,065	554,669	0,092	0,160
-442,051	272,322	0,042	0,053
-441,036	800,000	-0,014	0,036
-440,022	532,066	0,091	0,156
-439,007	-200,000	0,002	0,032
-437,992	-200,000	0,020	0,140
-436,978	104,792	0,139	0,118
-435,963	782,167	-0,021	0,041
-434,949	-152,502	-0,053	0,003
-433,934	-200,000	-0,013	-0,141
-432,919	-75,905	-0,086	0,022
-431,905	-71,531	0,041	-0,011
-430,890	-200,000	-0,003	-0,170
-429,876	-200,000	-0,038	0,151
-428,861	-102,770	0,062	0,010
-427,846	206,683	-0,039	0,044
-426,832	186,940	0,069	-0,074
-425,817	79,874	0,023	0,018
-424,803	111,764	0,049	0,042
-423,788	108,800	-0,049	0,042
-422,773	-19,449	0,165	0,074
-421,759	86,524	-0,037	-0,030
-420,744	-200,000	0,034	-0,150
-419,730	29,941	0,060	-0,036
-418,715	-24,796	0,036	0,015
-417,701	-31,616	-0,057	0,023
-416,686	-173,889	-0,037	-0,001
-415,671	52,776	0,122	0,084
-414,657	-126,988	0,088	-0,009
-413,642	52,492	0,124	0,085
-412,628	51,916	-0,088	0,060
-411,613	-200,000	0,009	-0,045
-410,598	-52,447	0,070	0,023
-409,584	-115,310	0,030	0,004
-408,569	-200,000	-0,042	0,201
-407,555	-17,093	-0,051	-0,023
-406,540	-200,000	0,031	0,128
-405,525	-47,004	-0,040	-0,014
-404,511	124,842	-0,059	-0,053
-403,496	10,247	-0,076	0,041
-402,482	-24,496	0,107	0,046
-401,467	-89,529	0,055	-0,012
-400,452	-196,973	0,186	0,001
-399,438	614,779	-0,030	-0,053
-398,423	723,788	-0,002	0,004
-397,409	305,002	0,035	0,047
-396,394	800,000	-0,040	-0,096
-395,379	448,131	0,026	-0,041
-394,365	-200,000	0,001	0,036
-393,350	-113,285	0,072	-0,010
-392,336	-18,942	-0,057	0,025
-391,321	-113,963	0,058	0,008
-390,306	-76,042	-0,021	-0,005
-389,292	-94,337	-0,164	0,032
-388,277	31,181	0,084	0,052
-387,263	-183,923	0,044	-0,001
-386,248	349,833	0,052	0,075
-385,233	99,662	0,088	0,073
-384,219	-200,000	-0,002	-0,014
-383,204	-82,408	-0,104	-0,024
-382,190	-77,894	-0,092	0,023
-381,175	49,531	-0,096	0,065
-380,160	-200,000	-0,004	0,036
-379,146	408,278	-0,058	-0,089
-378,131	207,501	0,075	-0,084
-377,117	-56,172	0,052	0,016
-376,102	-200,000	0,034	-0,218
-375,088	385,318	-0,079	-0,118
-374,073	301,388	0,121	0,162
-373,058	-84,687	0,074	-0,017
-372,044	-51,857	-0,061	-0,020
-371,029	-172,450	0,062	-0,001
-370,015	71,018	0,121	0,090
-369,000	-7,313	0,008	0,004
-367,985	134,453	0,080	0,074
-366,971	42,040	0,082	-0,054
-365,956	-95,399	0,107	0,020
-364,942	-16,951	-0,109	0,049
-363,927	-200,000	0,027	-0,107
-362,912	137,271	-0,018	0,017
-361,898	-200,000	0,017	-0,058
-360,883	329,043	-0,076	-0,106
-359,869	-8,933	-0,080	-0,039
-358,854	317,561	-0,071	-0,097
-357,839	-34,421	0,174	0,068
-356,825	687,976	0,025	-0,048
-355,810	-87,349	0,080	0,017
-354,796	-200,000	0,016	-0,115
-353,781	-200,000	-0,011	0,038
-352,766	800,000	-0,035	-0,089
-351,752	-108,517	-0,036	-0,006
-350,737	-200,000	-0,024	0,107
-349,723	-200,000	0,012	0,081
-348,708	-116,779	-0,073	-0,009
-347,693	-200,000	-0,010	-0,141
-346,679	87,469	0,079	-0,062
-345,664	-182,400	-0,135	-0,002
-344,650	-200,000	-0,025	-0,111
-343,635	-40,689	0,033	-0,012
-342,620	-31,881	0,047	-0,019
-341,606	528,560	0,043	-0,073
-340,591	800,000	-0,044	-0,106
-339,577	800,000	0,022	-0,046
-338,562	44,571	0,074	0,048
-337,548	800,000	0,035	0,079
-336,533	50,559	0,065	-0,044
-335,518	-200,000	-0,010	-0,060
-334,504	800,000	-0,036	0,077
-333,489	22,692	-0,097	-0,057
-332,475	147,870	-0,064	0,062
-331,460	98,682	-0,093	0,077
-330,445	-200,000	0,012	0,098
-329,431	467,628	0,028	0,045
-328,416	-200,000	0,007	0,047
-327,402	84,830	-0,098	0,077
-326,387	166,677	0,063	0,064
-325,372	89,318	-0,114	-0,091
-324,358	800,000	-0,022	-0,044
-323,343	-200,000	0,013	-0,044
-322,329	240,314	-0,117	-0,140
-321,314	-200,000	0,008	-0,052
-320,299	217,085	-0,031	0,035
-319,285	-42,092	-0,096	0,035
-318,270	-200,000	0,040	-0,142
-317,256	-200,000	-0,031	-0,105
-316,241	152,041	-0,061	0,060
-315,226	-200,000	-0,048	-0,175
-314,212	800,000	0,033	-0,069
-313,197	-200,000	-0,007	-0,025
-312,183	800,000	0,012	0,036
-311,168	15,812	-0,092	-0,052
-310,153	137,601	-0,116	-0,109
-309,139	-200,000	-0,013	0,047
-308,124	726,211	0,051	0,097
-307,110	295,781	-0,117	0,154
-306,095	740,074	0,041	0,079
-305,080	536,776	-0,043	0,073
-304,066	-73,694	-0,121	0,031
-303,051	-200,000	0,023	0,118
-302,037	68,519	0,064	-0,047
-301,022	800,000	0,028	0,069
-300,008	743,803	0,051	0,099
-298,993	-200,000	0,038	0,129
-297,978	56,375	0,066	-0,046
-296,964	-132,554	0,054	-0,005
-295,949	226,228	-0,066	0,076
-294,935	-71,046	-0,074	0,020
-293,920	28,757	0,136	-0,082
-292,905	1,456	-0,137	0,070
-291,891	-200,000	0,014	-0,049
-290,876	142,357	-0,041	0,039
-289,862	-129,072	0,078	0,008
-288,847	233,998	-0,077	-0,091
-287,832	-200,000	-0,009	-0,036
-286,818	728,720	0,088	0,169
-285,803	-200,000	0,001	0,079
-284,789	-200,000	0,006	-0,044
-283,774	-24,743	0,064	0,027
-282,759	-20,536	-0,115	0,050
-281,745	67,173	-0,050	-0,037
-280,730	-105,134	-0,092	-0,015
-279,716	266,689	0,040	-0,050
-278,701	178,522	0,106	0,111
-277,686	63,093	-0,083	0,060
-276,672	217,687	0,131	0,150
-275,657	-200,000	-0,041	0,134
-274,643	116,612	-0,032	0,028
-273,628	115,826	-0,099	-0,086
-272,613	127,127	0,096	-0,087
-271,599	-200,000	0,019	0,079
-270,584	305,103	0,082	-0,109
-269,570	800,000	0,035	0,092
-268,555	384,689	0,035	0,051
-267,540	-200,000	0,012	-0,044
-266,526	-200,000	0,038	-0,182
-265,511	-15,648	-0,039	0,018
-264,497	-148,584	0,051	-0,003
-263,482	-200,000	-0,014	-0,044
-262,467	618,610	0,043	0,077
-261,453	-156,058	-0,034	0,002
-260,438	-200,000	0,032	-0,120
-259,424	107,563	-0,035	-0,030
-258,409	65,267	-0,009	-0,007
-257,395	-200,000	-0,013	0,052
-256,380	-200,000	0,017	-0,087
-255,365	-98,980	0,049	0,009
-254,351	609,516	0,083	-0,149
-253,336	124,604	-0,080	-0,072
-252,322	-154,501	-0,072	-0,003
-251,307	-18,025	0,081	-0,036
-250,292	48,194	0,082	-0,055
-249,278	800,000	0,041	-0,097
-248,263	485,016	0,014	-0,023
-247,249	114,316	0,010	0,008
-246,234	-1,344	0,063	0,032
-245,219	-81,664	-0,025	-0,006
-244,205	48,248	0,053	-0,036
-243,190	800,000	-0,011	-0,028
-242,176	57,014	0,078	-0,055
-241,161	800,000	-0,023	-0,045
-240,146	-200,000	-0,016	-0,074
-239,132	48,920	-0,021	0,014
-238,117	161,208	-0,101	-0,101
-237,103	124,146	-0,047	0,042
-236,088	-200,000	-0,007	0,027
-235,073	4,161	0,095	-0,049
-234,059	-27,752	0,050	-0,021
-233,044	351,949	0,093	0,133
-232,030	-147,577	0,082	0,005
-231,015	800,000	-0,012	0,029
-230,000	-99,611	-0,103	-0,018
-228,986	90,690	-0,118	-0,094
-227,971	-42,560	0,114	0,041
-226,957	216,263	0,074	0,084
-225,942	779,395	-0,016	0,031
-224,927	-61,434	0,145	0,043
-223,913	-200,000	-0,024	-0,094
-222,898	58,678	0,032	-0,022
-221,884	22,052	-0,063	0,037
-220,869	800,000	0,038	0,082
-219,855	800,000	0,035	-0,097
-218,840	-200,000	-0,003	-0,069
-217,825	-111,863	0,085	0,012
-216,811	-95,665	0,014	-0,003
-215,796	-168,951	0,053	0,001
-214,782	765,316	-0,027	0,052
-213,767	-200,000	0,000	-0,092
-212,752	-200,000	0,026	-0,166
-211,738	-89,566	0,091	-0,019
-210,723	12,673	0,122	0,067
-209,709	-200,000	-0,002	0,028
-208,694	-200,000	0,029	0,109
-207,679	153,532	-0,042	0,041
-206,665	196,034	0,083	0,090
-205,650	282,129	0,068	-0,088
-204,636	-200,000	0,004	0,071
-203,621	-200,000	-0,058	0,185
-202,606	-8,219	0,159	0,076
-201,592	-170,790	-0,093	0,002
-200,577	158,800	-0,016	0,016
-199,563	800,000	0,038	-0,083
-198,548	42,891	0,073	0,047
-197,533	-200,000	0,042	0,148
-196,519	150,412	-0,086	0,083
-195,504	38,891	-0,044	0,028
-194,490	-24,277	0,112	0,048
-193,475	-24,786	0,104	-0,044
-192,460	-200,000	-0,012	-0,097
-191,446	39,250	0,041	0,026
-190,431	333,647	-0,118	0,163
-189,417	-200,000	-0,012	0,096
-188,402	120,215	-0,076	-0,067
-187,387	39,373	-0,064	-0,041
-186,373	-200,000	-0,037	0,141
-185,358	-134,978	-0,079	0,007
-184,344	-200,000	0,033	-0,141
-183,329	22,620	0,140	0,082
-182,315	-200,000	-0,008	0,091
-181,300	6,250	-0,138	-0,073
-180,285	-188,273	-0,138	0,001
-179,271	4,473	-0,071	0,037
-178,256	800,000	-0,032	-0,073
-177,242	-102,309	-0,067	0,011
-176,227	552,997	0,056	0,097
-175,212	-200,000	0,019	-0,070
-174,198	-200,000	0,008	-0,081
-173,183	621,414	-0,083	-0,150
-172,169	631,466	-0,062	-0,112
-171,154	800,000	0,036	-0,082
-170,139	-53,231	0,099	-0,032
-169,125	570,415	0,106	0,184
-168,110	62,296	-0,091	-0,064
-167,096	-86,879	-0,073	0,016
-166,081	-200,000	0,016	0,059
-165,066	-101,413	-0,194	0,033
-164,052	-112,695	0,065	-0,009
-163,037	800,000	0,033	0,070
-162,023	-184,721	0,031	0,000
-161,008	363,334	-0,039	-0,056
-159,993	71,344	0,027	0,020
-158,979	127,596	-0,076	-0,069
-157,964	800,000	-0,023	-0,065
-156,950	474,545	0,005	-0,007
-155,935	-107,054	0,065	0,010
-154,920	800,000	-0,040	0,087
-153,906	-90,432	-0,058	0,012
-152,891	46,050	-0,073	-0,048
-151,877	-20,908	-0,087	-0,038
-150,862	800,000	0,084	-0,250
-149,847	-200,000	0,034	-0,132
-148,833	155,692	0,040	-0,039
-147,818	-200,000	0,003	0,069
-146,804	800,000	-0,015	0,035
-145,789	800,000	0,040	-0,111
-144,775	-20,737	0,046	-0,020
-143,760	24,923	0,026	-0,015
-142,745	-200,000	0,018	-0,062
-141,731	800,000	0,019	-0,055
-140,716	324,733	0,074	-0,102
-139,702	-9,168	-0,050	-0,024
-138,687	-200,000	0,010	0,042
-137,672	204,292	-0,099	-0,110
-136,658	800,000	0,032	-0,094
-135,643	69,930	0,050	0,037
-134,629	-54,266	0,112	-0,036
-133,614	-200,000	0,022	0,144
-132,599	-157,102	0,046	-0,002
-131,585	800,000	-0,082	0,175
-130,570	-142,589	0,081	0,006
-129,556	800,000	-0,034	-0,071
-128,541	-200,000	-0,013	-0,091
-127,526	-28,907	0,069	-0,028
-126,512	-125,031	0,035	0,004
-125,497	89,542	0,062	-0,049
-124,483	607,881	0,033	0,059
-123,468	229,706	0,031	-0,036
-122,453	-200,000	-0,030	-0,105
-121,439	-51,502	0,103	-0,034
-120,424	16,002	-0,085	-0,048
-119,410	-92,934	0,032	-0,006
