DTS Sentinel unit serial number:	SN410029Multiplexer serial number:	ORYXHardware model number:	OX2-SRSoftware version number:	ORYX F/W v4,00 Oryx Data Collector v3.7.2.0data status	okinstallation	BH3 CH2differential loss correction	single-endedforward channel	channel 2reverse channel	N/Adate	2023/12/05time	21:02:28forward acquisition time	300,00reverse acquisition time	0,00gamma	499,1914k internal	0,3193k external	0,3193temperature offset calibration	1,0000default loss term (dB/km)	0,3820temperature slope calibration	1,0000multiplexer offset coefficient	1,0000multiplexer slope coefficient	1,0000fibre end	0,00T internal ref (°C)	10,37T ext. ref 1 (°C)	-4,42T ext. ref 2 (°C)	-4,51length (m)	temperature (°C)	Stokes	anti-Stokes-744,400	-200,000	0,016	-0,056
-743,385	-137,173	-0,186	-0,015
-742,371	800,000	0,067	-0,138
-741,356	25,453	-0,244	0,147
-740,342	444,369	-0,050	0,080
-739,327	147,267	-0,206	0,202
-738,312	24,657	-0,057	0,034
-737,298	-53,694	-0,217	0,072
-736,283	208,813	0,035	0,040
-735,269	332,336	-0,114	0,161
-734,254	-200,000	0,032	-0,145
-733,239	-103,015	-0,388	-0,066
-732,225	800,000	-0,047	-0,130
-731,210	-62,923	0,077	-0,023
-730,196	195,044	0,007	-0,008
-729,181	-112,493	-0,068	-0,010
-728,167	-11,827	-0,076	-0,036
-727,152	-200,000	-0,016	-0,065
-726,137	291,405	0,047	0,062
-725,123	36,327	-0,067	-0,043
-724,108	800,000	-0,052	-0,140
-723,094	-29,126	-0,088	-0,037
-722,079	-200,000	-0,028	-0,148
-721,064	67,269	-0,110	-0,082
-720,050	-137,710	-0,092	0,007
-719,035	49,312	0,020	-0,014
-718,021	-75,857	-0,082	-0,021
-717,006	24,143	-0,068	0,041
-715,991	-168,982	-0,045	-0,001
-714,977	-120,766	-0,075	-0,009
-713,962	-123,878	-0,075	0,009
-712,948	-200,000	-0,022	-0,072
-711,933	800,000	-0,039	0,082
-710,918	-109,017	0,089	-0,014
-709,904	-200,000	-0,007	0,039
-708,889	193,546	-0,123	-0,136
-707,875	342,405	-0,073	-0,105
-706,860	-200,000	0,024	0,089
-705,845	411,269	-0,049	-0,075
-704,831	342,950	0,018	0,026
-703,816	-3,905	-0,039	-0,020
-702,802	217,477	-0,093	0,108
-701,787	-200,000	-0,009	0,119
-700,772	-200,000	-0,023	-0,101
-699,758	210,250	-0,056	0,064
-698,743	800,000	-0,021	0,060
-697,729	-200,000	-0,006	0,028
-696,714	-200,000	-0,020	0,070
-695,699	392,219	0,116	0,176
-694,685	800,000	-0,043	-0,106
-693,670	71,208	-0,063	-0,048
-692,656	800,000	0,043	0,100
-691,641	800,000	0,051	0,104
-690,627	-200,000	-0,004	-0,026
-689,612	78,548	-0,038	0,029
-688,597	24,800	0,104	-0,063
-687,583	-85,664	-0,148	-0,033
-686,568	413,052	0,032	-0,049
-685,554	-200,000	-0,007	-0,060
-684,539	-200,000	-0,009	0,169
-683,524	32,098	-0,078	0,049
-682,510	473,226	0,043	0,070
-681,495	49,325	-0,138	0,094
-680,481	800,000	0,011	0,031
-679,466	-70,775	-0,106	-0,029
-678,451	-156,094	0,089	0,004
-677,437	-33,218	-0,054	0,022
-676,422	462,707	0,039	-0,063
-675,408	-117,224	0,058	0,008
-674,393	691,918	-0,105	-0,200
-673,378	42,056	0,074	-0,049
-672,364	542,072	-0,100	-0,174
-671,349	-139,532	0,055	-0,004
-670,335	107,018	0,049	-0,042
-669,320	-200,000	-0,003	-0,031
-668,305	-70,396	-0,103	0,028
-667,291	354,170	0,076	-0,110
-666,276	800,000	0,042	-0,119
-665,262	800,000	-0,052	-0,154
-664,247	-200,000	0,008	0,041
-663,232	-158,445	0,104	0,004
-662,218	-200,000	0,002	-0,086
-661,203	179,418	-0,080	0,086
-660,189	369,942	0,091	-0,134
-659,174	-151,117	-0,062	-0,003
-658,159	800,000	-0,013	-0,040
-657,145	120,043	-0,202	-0,182
-656,130	192,359	-0,075	-0,082
-655,116	208,040	0,029	-0,033
-654,101	76,300	-0,106	-0,082
-653,086	800,000	0,029	-0,070
-652,072	361,315	-0,046	0,068
-651,057	178,178	-0,114	-0,121
-650,043	800,000	-0,076	-0,174
-649,028	800,000	0,021	-0,051
-648,014	-114,283	0,165	0,023
-646,999	77,535	0,014	-0,011
-645,984	6,318	-0,155	0,083
-644,970	-140,410	-0,074	0,006
-643,955	148,476	-0,121	0,119
-642,941	751,951	0,006	0,011
-641,926	75,315	-0,053	0,041
-640,911	800,000	0,005	-0,013
-639,897	-108,837	-0,031	-0,005
-638,882	51,833	0,072	-0,050
-637,868	375,667	0,029	0,044
-636,853	800,000	0,017	0,047
-635,838	-200,000	0,000	0,017
-634,824	800,000	0,013	-0,041
-633,809	362,401	0,036	0,053
-632,795	-200,000	-0,008	0,086
-631,780	-98,926	0,134	-0,024
-630,765	243,050	0,038	-0,047
-629,751	151,967	-0,049	-0,048
-628,736	-78,949	-0,114	-0,028
-627,722	91,258	0,093	-0,076
-626,707	-46,285	0,151	0,054
-625,692	-70,877	-0,141	-0,038
-624,678	63,073	-0,053	-0,038
-623,663	91,360	0,165	0,134
-622,649	-98,053	-0,092	-0,017
-621,634	98,050	-0,064	0,053
-620,619	-29,074	0,064	-0,027
-619,605	-200,000	-0,041	0,137
-618,590	109,058	0,078	0,067
-617,576	43,496	0,094	0,063
-616,561	-91,876	-0,139	-0,028
-615,546	31,114	-0,119	-0,074
-614,532	800,000	-0,024	-0,068
-613,517	-200,000	-0,010	0,042
-612,503	-45,689	0,138	0,049
-611,488	800,000	-0,040	0,113
-610,474	800,000	0,014	-0,041
-609,459	159,105	0,060	-0,061
-608,444	270,790	-0,069	-0,088
-607,430	800,000	-0,075	-0,187
-606,415	-45,300	0,062	0,022
-605,401	789,165	0,051	0,102
-604,386	-200,000	-0,038	0,174
-603,371	800,000	-0,072	0,149
-602,357	-32,349	0,113	0,046
-601,342	84,899	-0,152	0,121
-600,328	-200,000	-0,010	0,114
-599,313	-85,152	-0,172	-0,039
-598,298	-31,274	0,052	0,021
-597,284	-72,821	-0,119	0,032
-596,269	800,000	0,023	0,052
-595,255	-156,462	0,059	0,003
-594,240	198,874	0,127	-0,141
-593,225	800,000	0,013	-0,032
-592,211	-65,397	0,148	-0,043
-591,196	20,300	-0,141	-0,082
-590,182	800,000	-0,053	-0,164
-589,167	-171,268	-0,013	-0,000
-588,152	-100,961	0,135	0,024
-587,138	-200,000	0,008	-0,059
-586,123	-200,000	-0,014	-0,057
-585,109	270,381	0,060	-0,077
-584,094	800,000	0,007	-0,016
-583,079	-95,488	-0,106	0,020
-582,065	-143,663	-0,037	0,002
-581,050	89,009	0,100	0,081
-580,036	406,935	0,045	-0,069
-579,021	-200,000	0,016	-0,095
-578,006	-200,000	0,009	-0,080
-576,992	-104,190	-0,127	-0,021
-575,977	236,174	0,108	0,129
-574,963	800,000	0,028	0,070
-573,948	171,385	0,080	0,083
-572,934	-119,500	-0,118	0,015
-571,919	72,841	-0,057	0,043
-570,904	-88,484	-0,078	-0,017
-569,890	-200,000	0,021	-0,150
-568,875	-114,282	-0,071	0,010
-567,861	-63,563	-0,022	-0,007
-566,846	-45,852	-0,176	0,062
-565,831	71,633	0,038	0,029
-564,817	-200,000	0,010	-0,041
-563,802	800,000	0,018	0,047
-562,788	227,490	-0,046	0,054
-561,773	12,986	-0,172	0,096
-560,758	1,483	0,019	-0,010
-559,744	-200,000	0,027	0,154
-558,729	-148,619	-0,122	-0,007
-557,715	31,690	-0,117	0,072
-556,700	-200,000	-0,005	0,026
-555,685	-200,000	0,008	-0,054
-554,671	77,176	-0,093	-0,071
-553,656	73,824	0,081	0,062
-552,642	46,141	0,104	0,070
-551,627	446,908	0,041	0,065
-550,612	-47,028	0,138	0,048
-549,598	-200,000	-0,017	0,112
-548,583	-200,000	0,003	0,065
-547,569	-22,424	0,030	0,013
-546,554	-200,000	0,007	-0,069
-545,539	-20,003	-0,047	0,021
-544,525	800,000	0,011	0,032
-543,510	51,634	0,016	-0,011
-542,496	-51,489	0,080	0,027
-541,481	-200,000	0,025	0,162
-540,466	-184,290	0,095	0,001
-539,452	-200,000	-0,019	-0,114
-538,437	-200,000	-0,003	0,063
-537,423	-200,000	0,013	-0,055
-536,408	64,964	-0,103	-0,075
-535,393	-200,000	-0,003	-0,083
-534,379	-200,000	-0,050	-0,176
-533,364	35,130	0,068	0,043
-532,350	-200,000	0,019	-0,069
-531,335	154,907	0,043	-0,043
-530,321	45,964	-0,062	-0,041
-529,306	-200,000	0,015	-0,187
-528,291	526,993	-0,023	0,039
-527,277	107,795	0,021	0,018
-526,262	-0,762	0,060	-0,031
-525,248	159,167	0,087	0,088
-524,233	-200,000	-0,003	0,088
-523,218	-200,000	0,002	-0,072
-522,204	684,291	0,010	0,018
-521,189	137,175	0,056	-0,053
-520,175	-56,616	0,067	-0,021
-519,160	102,589	-0,042	-0,036
-518,145	-200,000	0,020	-0,067
-517,131	106,921	-0,042	0,036
-516,116	509,303	0,044	-0,075
-515,102	-6,911	0,036	-0,017
-514,087	204,417	0,028	-0,031
-513,072	-35,031	-0,215	-0,084
-512,058	497,701	0,047	0,079
-511,043	35,491	-0,035	-0,022
-510,029	77,938	0,163	0,126
-509,014	-11,462	-0,112	0,053
-507,999	-200,000	-0,014	0,065
-506,985	-177,455	0,093	0,002
-505,970	-200,000	0,017	-0,091
-504,956	-23,426	-0,100	0,043
-503,941	-26,468	0,197	-0,083
-502,926	800,000	0,037	0,106
-501,912	-200,000	-0,019	0,090
-500,897	76,279	0,126	0,097
-499,883	-35,106	-0,081	0,032
-498,868	64,194	-0,067	-0,049
-497,853	92,483	-0,112	-0,091
-496,839	-200,000	0,011	-0,098
-495,824	48,094	0,059	0,040
-494,810	800,000	-0,038	0,099
-493,795	-200,000	-0,022	-0,118
-492,781	180,900	-0,051	-0,055
-491,766	369,993	-0,029	0,043
-490,751	609,473	-0,057	-0,104
-489,737	-200,000	0,026	-0,136
-488,722	-121,243	0,101	0,012
-487,708	800,000	-0,025	-0,049
-486,693	237,854	-0,061	0,073
-485,678	94,183	-0,084	-0,068
-484,664	107,939	0,097	-0,084
-483,649	-200,000	-0,016	-0,066
-482,635	800,000	-0,017	-0,049
-481,620	25,214	0,068	0,040
-480,605	-119,769	-0,075	0,009
-479,591	-16,930	0,116	0,052
-478,576	310,727	-0,146	-0,198
-477,562	535,883	-0,054	-0,093
-476,547	800,000	-0,019	-0,054
-475,532	-200,000	-0,027	0,141
-474,518	800,000	-0,041	0,086
-473,503	-39,787	-0,004	-0,001
-472,489	-28,745	0,087	-0,036
-471,474	-200,000	-0,008	0,032
-470,459	-182,383	0,091	0,001
-469,445	320,237	-0,058	-0,079
-468,430	219,378	-0,062	0,071
-467,416	800,000	-0,065	0,132
-466,401	-150,406	0,150	0,008
-465,386	-133,047	0,060	-0,005
-464,372	-119,619	-0,033	0,004
-463,357	400,328	0,050	0,076
-462,343	34,851	0,092	-0,058
-461,328	212,768	-0,102	-0,116
-460,313	-43,186	-0,060	0,022
-459,299	19,206	-0,127	0,074
-458,284	-193,461	0,037	-0,000
-457,270	221,334	-0,017	-0,019
-456,255	-33,713	-0,074	0,029
-455,241	473,967	-0,023	-0,038
-454,226	24,301	-0,073	0,043
-453,211	-38,011	-0,074	-0,028
-452,197	-200,000	0,000	-0,133
-451,182	-0,882	0,047	0,024
-450,168	49,775	-0,010	0,007
-449,153	702,000	-0,082	-0,156
-448,138	-64,572	-0,028	-0,008
-447,124	-85,652	-0,061	-0,013
-446,109	160,089	0,077	0,078
-445,095	-107,252	0,117	-0,018
-444,080	-200,000	0,017	-0,115
-443,065	19,282	0,075	-0,043
-442,051	-136,140	-0,039	0,003
-441,036	-16,756	-0,079	-0,036
-440,022	-200,000	-0,006	0,025
-439,007	132,015	0,042	-0,039
-437,992	-34,389	0,048	-0,019
-436,978	740,837	0,032	0,062
-435,963	45,628	0,072	0,048
-434,949	111,722	0,112	-0,097
-433,934	-82,911	0,135	-0,031
-432,919	-99,848	-0,145	0,026
-431,905	23,260	-0,070	0,041
-430,890	124,098	-0,037	0,034
-429,876	117,274	0,172	0,152
-428,861	-139,695	0,060	0,005
-427,846	-134,719	-0,130	0,011
-426,832	-200,000	0,008	-0,116
-425,817	800,000	0,021	-0,055
-424,803	-200,000	0,009	-0,069
-423,788	-115,543	0,098	-0,013
-422,773	315,257	0,102	0,139
-421,759	599,983	0,045	0,081
-420,744	800,000	0,039	-0,087
-419,730	-122,589	-0,041	-0,005
-418,715	76,197	0,043	0,033
-417,701	40,065	0,008	0,005
-416,686	800,000	-0,049	0,130
-415,671	-200,000	0,028	-0,167
-414,657	-76,396	-0,072	0,018
-413,642	261,683	0,054	-0,068
-412,628	136,931	-0,132	-0,124
-411,613	-200,000	0,002	-0,008
-410,598	747,162	0,056	-0,108
-409,584	-22,427	0,181	0,078
-408,569	-200,000	-0,000	-0,013
-407,555	-111,300	-0,036	0,005
-406,540	278,329	0,013	-0,017
-405,525	-148,755	0,028	-0,002
-404,511	334,180	-0,048	0,067
-403,496	-49,054	-0,081	-0,028
-402,482	800,000	-0,043	-0,092
-401,467	-1,123	0,075	0,038
-400,452	-200,000	-0,028	-0,103
-399,438	89,802	0,087	0,070
-398,423	-65,114	-0,027	-0,008
-397,409	140,786	-0,056	-0,054
-396,394	800,000	0,043	-0,116
-395,379	-147,606	0,076	-0,005
-394,365	187,181	0,078	0,084
-393,350	-200,000	-0,004	-0,056
-392,336	-156,507	-0,093	-0,004
-391,321	-112,238	0,066	0,009
-390,306	63,360	-0,099	-0,071
-389,292	-200,000	0,036	-0,130
-388,277	14,967	-0,020	0,011
-387,263	73,045	0,088	0,066
-386,248	-4,321	-0,147	0,073
-385,233	800,000	0,047	0,125
-384,219	105,087	-0,043	-0,036
-383,204	518,569	0,043	-0,072
-382,190	243,252	-0,027	0,033
-381,175	-89,160	-0,029	0,006
-380,160	-22,444	0,022	0,010
-379,146	-144,766	0,078	0,005
-378,131	371,919	0,078	-0,115
-377,117	-22,274	0,044	0,019
-376,102	329,496	0,073	-0,101
-375,088	187,064	0,043	0,046
-374,073	68,566	-0,059	-0,043
-373,058	800,000	-0,021	0,063
-372,044	74,952	-0,021	-0,016
-371,029	-200,000	-0,008	0,076
-370,015	691,385	0,041	0,077
-369,000	360,123	-0,078	0,112
-367,985	60,881	0,026	-0,019
-366,971	121,316	-0,023	0,021
-365,956	-91,369	-0,060	-0,012
-364,942	188,991	0,028	0,030
-363,927	188,911	0,081	0,087
-362,912	56,606	0,058	0,040
-361,898	-200,000	0,011	-0,041
-360,883	-85,825	0,048	-0,011
-359,869	-96,781	-0,054	0,010
-358,854	800,000	0,043	0,128
-357,839	-6,811	-0,052	0,025
-356,825	56,138	0,012	-0,008
-355,810	257,784	-0,030	0,037
-354,796	677,174	0,019	-0,036
-353,781	-200,000	0,020	-0,114
-352,766	-200,000	0,008	0,074
-351,752	-152,488	0,083	-0,004
-350,737	363,321	-0,055	0,080
-349,723	194,885	0,028	0,030
-348,708	-200,000	0,001	0,195
-347,693	281,242	-0,059	0,076
-346,679	54,243	-0,013	-0,009
-345,664	-200,000	0,031	-0,123
-344,650	-13,065	-0,062	-0,029
-343,635	-147,976	0,133	0,008
-342,620	378,509	-0,051	0,075
-341,606	704,712	-0,040	0,076
-340,591	-200,000	0,001	0,043
-339,577	-85,223	0,038	-0,008
-338,562	264,632	0,085	-0,106
-337,548	766,256	0,032	-0,062
-336,533	112,997	0,033	0,029
-335,518	-128,250	0,081	0,008
-334,504	-133,298	-0,050	0,004
-333,489	-111,575	0,109	0,016
-332,475	-8,423	-0,033	0,016
-331,460	333,187	0,051	-0,071
-330,445	-28,722	0,085	-0,035
-329,431	23,365	0,048	-0,028
-328,416	-36,930	-0,072	0,028
-327,402	535,603	-0,050	-0,085
-326,387	-200,000	0,002	0,103
-325,372	670,382	0,078	0,145
-324,358	-155,520	-0,112	0,005
-323,343	306,216	0,027	0,036
-322,329	-41,203	0,118	-0,044
-321,314	-200,000	0,005	0,152
-320,299	20,407	-0,033	-0,019
-319,285	181,936	-0,036	0,038
-318,270	396,686	0,024	0,037
-317,256	148,079	-0,050	0,049
-316,241	220,179	0,061	-0,071
-315,226	-200,000	-0,043	0,235
-314,212	-200,000	0,013	0,066
-313,197	-200,000	-0,036	0,189
-312,183	-200,000	-0,004	-0,022
-311,168	28,080	-0,085	-0,051
-310,153	-200,000	-0,002	0,107
-309,139	40,101	0,050	0,032
-308,124	-82,047	0,049	0,011
-307,110	-200,000	-0,015	0,051
-306,095	-37,740	-0,150	0,057
-305,080	166,532	0,139	0,141
-304,066	103,299	-0,119	0,100
-303,051	-41,588	0,052	0,019
-302,037	168,917	0,028	-0,028
-301,022	800,000	0,046	-0,111
-300,008	268,719	0,064	0,080
-298,993	-62,611	0,097	-0,029
-297,978	-52,690	-0,127	-0,042
-296,964	265,320	-0,143	0,179
-295,949	-24,568	-0,111	-0,047
-294,935	800,000	-0,074	-0,167
-293,920	161,892	-0,059	0,060
-292,905	-200,000	-0,010	0,113
-291,891	-200,000	-0,022	0,101
-290,876	-200,000	0,005	0,121
-289,862	-19,940	-0,066	-0,029
-288,847	-44,919	0,019	-0,007
-287,832	-58,521	-0,100	-0,031
-286,818	-30,940	-0,065	-0,026
-285,803	-14,316	0,085	0,039
-284,789	-98,939	0,049	0,009
-283,774	2,303	0,085	0,044
-282,759	167,563	0,053	-0,054
-281,745	-200,000	-0,043	-0,190
-280,730	514,535	-0,077	-0,129
-279,716	79,614	0,080	-0,061
-278,701	800,000	-0,016	0,048
-277,686	520,170	-0,066	0,112
-276,672	277,520	0,051	0,065
-275,657	506,607	-0,040	-0,067
-274,643	514,162	-0,121	0,204
-273,628	-65,921	-0,168	-0,048
-272,613	198,212	0,042	-0,046
-271,599	524,358	0,068	-0,116
-270,584	22,239	0,160	0,093
-269,570	-105,777	-0,123	0,020
-268,555	134,964	-0,044	-0,041
-267,540	49,667	0,021	-0,014
-266,526	-45,943	0,082	-0,029
-265,511	-200,000	-0,024	-0,148
-264,497	-125,188	-0,062	-0,007
-263,482	-103,112	0,059	0,010
-262,467	-200,000	0,007	0,151
-261,453	71,049	0,078	0,058
-260,438	800,000	0,013	-0,036
-259,424	-200,000	-0,039	0,197
-258,409	-200,000	0,056	0,214
-257,395	-200,000	0,008	0,073
-256,380	-154,948	0,037	-0,002
-255,365	139,908	-0,074	0,069
-254,351	39,333	0,110	-0,070
-253,336	339,503	0,047	-0,066
-252,322	800,000	0,016	-0,049
-251,307	-84,590	-0,218	-0,049
-250,292	233,469	0,024	-0,028
-249,278	44,944	0,049	0,032
-248,263	-55,855	0,023	-0,007
-247,249	-41,436	0,054	-0,020
-246,234	-67,369	-0,064	-0,018
-245,219	-65,778	0,054	0,015
-244,205	168,965	0,070	0,072
-243,190	-8,628	0,103	0,049
-242,176	-83,274	0,175	0,040
-241,161	489,585	-0,083	-0,136
-240,146	376,569	-0,058	-0,085
-239,132	-125,180	-0,066	0,007
-238,117	593,627	0,020	-0,035
-237,103	480,182	0,058	-0,094
-236,088	-200,000	0,010	-0,115
-235,073	97,160	0,069	0,057
-234,059	-85,709	0,070	0,015
-233,044	326,188	0,048	0,065
-232,030	-200,000	0,016	-0,069
-231,015	-200,000	-0,016	0,113
-230,000	43,556	0,103	-0,067
-228,986	142,632	-0,091	-0,087
-227,971	-200,000	0,000	-0,063
-226,957	-62,688	0,025	-0,007
-225,942	-30,678	0,055	-0,022
-224,927	-13,553	-0,075	0,034
-223,913	-200,000	-0,002	0,013
-222,898	89,334	-0,175	-0,140
-221,884	-200,000	0,010	-0,070
-220,869	-200,000	0,022	-0,217
-219,855	206,332	-0,066	-0,074
-218,840	-200,000	-0,033	0,119
-217,825	30,601	0,064	-0,039
-216,811	119,341	-0,037	-0,033
-215,796	-200,000	-0,034	-0,125
-214,782	-200,000	-0,012	0,067
-213,767	39,185	0,124	0,079
-212,752	800,000	-0,006	-0,014
-211,738	53,595	0,031	0,021
-210,723	-200,000	-0,032	-0,134
-209,709	1,109	0,090	-0,046
-208,694	103,800	-0,087	-0,073
-207,679	800,000	0,014	0,043
-206,665	-200,000	0,011	0,035
-205,650	-200,000	-0,003	-0,032
-204,636	-200,000	0,007	0,135
-203,621	0,708	-0,079	-0,040
-202,606	-200,000	-0,015	-0,107
-201,592	-5,220	-0,043	0,021
-200,577	-200,000	0,018	-0,187
-199,563	-28,473	0,086	0,035
-198,548	46,588	-0,183	-0,121
-197,533	96,276	-0,068	-0,055
-196,519	-86,509	0,088	-0,019
-195,504	-200,000	0,009	-0,098
-194,490	89,358	-0,071	-0,056
-193,475	619,101	-0,028	-0,051
-192,460	351,037	-0,074	-0,105
-191,446	-109,330	0,051	0,008
-190,431	632,397	0,060	-0,110
-189,417	800,000	0,027	0,070
-188,402	697,133	-0,023	0,043
-187,387	314,096	0,096	-0,130
-186,373	-73,369	0,053	0,014
-185,358	-71,200	-0,106	-0,028
-184,344	-200,000	-0,052	0,000
-183,329	-200,000	-0,006	0,142
-182,315	800,000	0,024	0,056
-181,300	78,172	0,040	0,030
-180,285	56,810	-0,053	-0,037
-179,271	800,000	-0,065	-0,135
-178,256	-159,265	-0,033	0,001
-177,242	-188,380	0,109	-0,001
-176,227	-200,000	0,030	-0,182
-175,212	-200,000	0,007	-0,205
-174,198	600,373	0,036	0,064
-173,183	284,040	-0,019	-0,024
-172,169	-200,000	-0,004	-0,054
-171,154	800,000	0,039	0,092
-170,139	170,949	0,055	0,057
-169,125	8,301	0,189	0,101
-168,110	800,000	0,028	-0,066
-167,096	-130,797	-0,197	-0,019
-166,081	9,853	-0,065	-0,035
-165,066	28,167	-0,112	-0,067
-164,052	245,968	-0,061	0,074
-163,037	-200,000	0,010	0,087
-162,023	-149,219	-0,054	-0,003
-161,008	-200,000	-0,010	0,163
-159,993	10,389	-0,053	0,029
-158,979	32,582	0,036	-0,022
-157,964	-38,950	-0,149	-0,056
-156,950	89,190	-0,038	0,030
-155,935	153,527	-0,090	0,088
-154,920	-89,335	0,049	-0,010
-153,906	800,000	0,009	0,026
-152,891	-39,297	-0,087	-0,032
-151,877	-97,980	0,138	-0,025
-150,862	417,708	0,099	-0,151
-149,847	17,326	-0,020	0,011
-148,833	356,268	-0,041	0,059
-147,818	-107,325	0,065	0,010
-146,804	176,929	0,105	0,109
-145,789	-200,000	0,031	0,136
-144,775	-200,000	0,015	0,140
-143,760	-200,000	-0,004	0,035
-142,745	199,910	0,061	0,067
-141,731	-7,382	0,028	-0,014
-140,716	224,045	-0,031	0,035
-139,702	800,000	0,051	0,141
-138,687	800,000	0,036	0,106
-137,672	800,000	-0,037	-0,108
-136,658	-200,000	-0,009	-0,125
-135,643	420,802	0,077	-0,119
-134,629	441,734	0,038	-0,059
-133,614	727,189	0,081	0,154
-132,599	-90,560	0,239	0,049
-131,585	647,350	-0,040	0,073
-130,570	415,604	-0,029	-0,045
-129,556	-104,305	-0,078	0,013
-128,541	94,223	-0,050	0,040
-127,526	272,181	0,029	0,036
-126,512	9,665	0,147	-0,079
-125,497	-200,000	0,000	0,174
-124,483	-12,764	0,093	0,043
-123,468	-37,958	0,171	-0,064
-122,453	37,711	-0,060	0,038
-121,439	-94,959	0,125	0,024
-120,424	223,776	0,080	-0,093
-119,410	-123,886	-0,094	-0,010
-118,395	800,000	0,029	-0,087
