DTS Sentinel unit serial number:	SN410029Multiplexer serial number:	ORYXHardware model number:	OX2-SRSoftware version number:	ORYX F/W v4,00 Oryx Data Collector v3.7.2.0data status	okinstallation	BH3 CH2differential loss correction	single-endedforward channel	channel 2reverse channel	N/Adate	2023/12/06time	06:47:28forward acquisition time	300,00reverse acquisition time	0,00gamma	499,1914k internal	0,3197k external	0,3197temperature offset calibration	1,0000default loss term (dB/km)	0,3820temperature slope calibration	1,0000multiplexer offset coefficient	1,0000multiplexer slope coefficient	1,0000fibre end	0,00T internal ref (°C)	8,88T ext. ref 1 (°C)	-5,79T ext. ref 2 (°C)	-5,90length (m)	temperature (°C)	Stokes	anti-Stokes-744,400	140,817	-0,094	-0,091
-743,385	-56,459	-0,248	0,080
-742,371	-100,218	0,136	-0,024
-741,356	-74,700	-0,255	0,066
-740,342	58,829	-0,151	-0,108
-739,327	89,763	-0,170	0,138
-738,312	-200,000	-0,016	-0,117
-737,298	-28,326	-0,207	0,087
-736,283	100,378	-0,046	-0,039
-735,269	-117,289	-0,207	-0,027
-734,254	-200,000	-0,013	-0,091
-733,239	26,933	-0,343	-0,209
-732,225	800,000	0,042	-0,122
-731,210	800,000	0,036	0,072
-730,196	-46,751	-0,049	0,017
-729,181	-73,895	-0,023	0,006
-728,167	57,986	-0,139	-0,099
-727,152	7,752	0,052	0,028
-726,137	11,883	-0,044	0,024
-725,123	241,919	-0,107	-0,130
-724,108	243,334	-0,111	-0,135
-723,094	-200,000	-0,014	-0,057
-722,079	12,175	-0,057	-0,032
-721,064	113,506	-0,091	-0,081
-720,050	135,823	0,142	-0,135
-719,035	-138,599	0,064	0,005
-718,021	431,908	-0,070	-0,111
-717,006	-109,123	-0,092	-0,014
-715,991	-57,315	-0,106	0,034
-714,977	-57,456	0,113	-0,036
-713,962	-36,458	-0,113	0,044
-712,948	-12,024	0,139	-0,066
-711,933	702,814	0,021	0,040
-710,918	351,378	-0,030	0,043
-709,904	34,423	-0,103	0,065
-708,889	800,000	-0,073	-0,172
-707,875	28,194	-0,099	-0,061
-706,860	-104,821	-0,076	-0,013
-705,845	-200,000	-0,003	0,057
-704,831	-200,000	0,002	-0,016
-703,816	800,000	-0,019	0,041
-702,802	-81,338	-0,052	0,012
-701,787	-200,000	0,004	-0,173
-700,772	-69,277	0,046	0,013
-699,758	800,000	-0,050	0,109
-698,743	176,585	0,065	0,069
-697,729	-156,429	0,158	-0,007
-696,714	-112,529	0,079	0,011
-695,699	183,544	0,037	-0,040
-694,685	800,000	0,007	0,020
-693,670	-200,000	0,009	0,033
-692,656	316,915	-0,026	0,036
-691,641	64,153	0,055	0,040
-690,627	800,000	0,022	-0,063
-689,612	-200,000	-0,017	0,121
-688,597	133,602	-0,051	0,048
-687,583	20,340	0,031	0,018
-686,568	-64,767	-0,100	0,029
-685,554	-200,000	0,049	-0,164
-684,539	-42,814	0,155	0,057
-683,524	800,000	0,029	-0,060
-682,510	-68,111	-0,116	-0,033
-681,495	800,000	0,026	0,073
-680,481	385,561	-0,042	-0,063
-679,466	-37,392	-0,042	-0,016
-678,451	800,000	-0,040	-0,092
-677,437	800,000	0,040	-0,095
-676,422	-60,597	-0,207	-0,064
-675,408	-200,000	-0,025	0,102
-674,393	-200,000	0,005	-0,083
-673,378	184,519	-0,074	0,080
-672,364	253,142	-0,066	-0,082
-671,349	124,828	-0,067	0,061
-670,335	110,763	-0,043	-0,038
-669,320	-200,000	-0,017	0,120
-668,305	-6,820	-0,031	0,015
-667,291	-200,000	0,004	0,047
-666,276	274,721	0,166	-0,214
-665,262	-47,863	-0,153	-0,053
-664,247	-113,145	0,067	-0,010
-663,232	800,000	0,011	-0,030
-662,218	-136,834	0,141	-0,012
-661,203	310,497	0,074	0,101
-660,189	-91,982	-0,106	0,022
-659,174	-111,766	-0,092	-0,013
-658,159	-200,000	-0,021	-0,070
-657,145	-19,132	-0,197	-0,089
-656,130	800,000	0,055	-0,120
-655,116	158,464	-0,012	0,012
-654,101	131,062	-0,040	0,037
-653,086	-200,000	0,021	-0,079
-652,072	-200,000	0,041	-0,161
-651,057	93,690	-0,052	-0,043
-650,043	-200,000	-0,010	-0,213
-649,028	64,062	-0,098	0,071
-648,014	174,430	-0,052	-0,055
-646,999	-67,498	-0,090	0,025
-645,984	-12,584	-0,080	-0,038
-644,970	351,000	0,068	0,098
-643,955	82,448	-0,092	0,073
-642,941	252,215	-0,065	-0,081
-641,926	-200,000	0,016	-0,100
-640,911	-88,571	0,103	-0,022
-639,897	800,000	0,007	-0,018
-638,882	653,401	0,056	-0,104
-637,868	-73,423	-0,106	-0,028
-636,853	249,006	0,031	-0,039
-635,838	800,000	-0,024	-0,057
-634,824	-200,000	-0,005	-0,060
-633,809	125,375	-0,083	0,076
-632,795	-200,000	-0,016	0,151
-631,780	418,388	0,047	0,073
-630,765	2,316	0,053	-0,028
-629,751	800,000	-0,032	-0,081
-628,736	69,476	-0,113	-0,084
-627,722	-90,993	-0,137	-0,028
-626,707	351,134	0,047	0,068
-625,692	48,289	-0,061	-0,041
-624,678	-33,314	0,039	0,016
-623,663	281,684	-0,041	-0,053
-622,649	48,565	0,135	-0,092
-621,634	-121,892	-0,030	0,004
-620,619	-35,520	0,121	0,047
-619,605	-119,788	-0,057	0,007
-618,590	800,000	-0,040	0,106
-617,576	-1,062	-0,087	0,044
-616,561	212,715	0,098	0,112
-615,546	-200,000	-0,005	-0,043
-614,532	-13,098	-0,029	0,013
-613,517	-200,000	0,012	-0,060
-612,503	800,000	-0,006	-0,014
-611,488	20,248	-0,011	-0,007
-610,474	800,000	0,047	-0,137
-609,459	-37,959	-0,070	0,027
-608,444	163,264	-0,054	-0,055
-607,430	-34,805	-0,061	-0,024
-606,415	-77,396	-0,072	-0,018
-605,401	-200,000	0,037	0,126
-604,386	-80,781	-0,055	0,013
-603,371	800,000	0,032	0,076
-602,357	-24,436	0,102	0,044
-601,342	-200,000	-0,005	-0,100
-600,328	311,467	-0,124	-0,169
-599,313	-200,000	0,006	-0,020
-598,298	-68,686	0,069	-0,019
-597,284	166,641	-0,080	-0,082
-596,269	598,683	-0,044	-0,079
-595,255	-200,000	-0,017	-0,093
-594,240	-83,164	0,163	0,038
-593,225	301,863	0,059	-0,079
-592,211	-200,000	0,004	-0,075
-591,196	361,052	-0,107	0,155
-590,182	-119,095	0,113	0,014
-589,167	-200,000	-0,033	0,121
-588,152	725,218	0,094	-0,182
-587,138	-102,406	0,135	-0,023
-586,123	800,000	0,089	-0,246
-585,109	800,000	-0,045	0,096
-584,094	-100,076	-0,170	-0,030
-583,079	-18,176	0,108	-0,049
-582,065	800,000	-0,010	0,031
-581,050	800,000	0,008	0,017
-580,036	-200,000	-0,007	-0,151
-579,021	-4,867	-0,113	-0,056
-578,006	770,463	0,042	-0,084
-576,992	-46,849	-0,033	0,012
-575,977	-40,979	0,055	0,020
-574,963	104,648	-0,059	0,051
-573,948	-142,734	0,146	0,010
-572,934	307,122	-0,071	-0,095
-571,919	69,925	0,025	-0,018
-570,904	-73,496	-0,058	0,015
-569,890	281,368	0,050	-0,065
-568,875	282,515	-0,002	-0,002
-567,861	-200,000	-0,002	-0,006
-566,846	56,047	0,089	-0,062
-565,831	800,000	0,025	0,064
-564,817	71,694	-0,121	-0,091
-563,802	284,085	-0,012	-0,015
-562,788	38,944	-0,073	-0,047
-561,773	800,000	-0,036	-0,078
-560,758	252,555	0,099	0,122
-559,744	196,793	-0,079	-0,087
-558,729	328,954	0,034	0,047
-557,715	56,269	-0,162	0,113
-556,700	-102,633	-0,091	0,016
-555,685	-200,000	0,009	0,087
-554,671	-47,955	-0,080	-0,028
-553,656	202,796	0,040	0,045
-552,642	162,791	0,034	0,034
-551,627	800,000	0,018	-0,053
-550,612	-200,000	0,004	-0,025
-549,598	48,466	0,078	-0,052
-548,583	-180,734	-0,040	-0,001
-547,569	7,574	-0,040	0,021
-546,554	577,856	-0,026	0,045
-545,539	37,595	0,104	0,066
-544,525	146,046	0,036	0,035
-543,510	26,294	-0,130	-0,078
-542,496	27,124	-0,118	-0,071
-541,481	-200,000	-0,021	-0,104
-540,466	58,120	-0,132	-0,093
-539,452	195,376	0,036	0,039
-538,437	800,000	0,036	0,104
-537,423	626,826	0,041	0,074
-536,408	-55,396	0,093	0,030
-535,393	-200,000	0,004	-0,045
-534,379	800,000	0,019	-0,057
-533,364	122,491	0,033	0,029
-532,350	-29,894	-0,093	0,038
-531,335	-112,751	0,021	-0,003
-530,321	-61,892	0,180	-0,054
-529,306	-115,401	-0,095	0,013
-528,291	45,097	-0,090	-0,060
-527,277	800,000	-0,041	-0,108
-526,262	290,786	0,051	-0,068
-525,248	172,468	0,075	0,078
-524,233	-32,676	-0,105	0,042
-523,218	-90,842	0,149	0,031
-522,204	6,925	0,053	-0,029
-521,189	-103,463	-0,103	0,017
-520,175	-200,000	0,002	-0,047
-519,160	14,857	-0,052	-0,029
-518,145	-113,740	0,087	0,012
-517,131	800,000	0,022	0,054
-516,116	-97,798	0,046	-0,009
-515,102	266,996	-0,055	-0,069
-514,087	263,990	0,053	-0,067
-513,072	-200,000	0,020	-0,068
-512,058	-58,518	-0,041	-0,013
-511,043	55,169	0,046	0,032
-510,029	459,098	-0,060	0,096
-509,014	42,784	-0,096	-0,063
-507,999	-200,000	-0,018	0,094
-506,985	190,138	0,065	-0,071
-505,970	263,035	-0,108	-0,136
-504,956	712,596	-0,036	-0,068
-503,941	-200,000	0,016	-0,079
-502,926	167,288	0,097	0,099
-501,912	508,384	0,040	0,068
-500,897	117,290	-0,061	-0,054
-499,883	-200,000	-0,011	-0,248
-498,868	234,774	-0,041	0,049
-497,853	-200,000	-0,020	-0,066
-496,839	-200,000	0,010	-0,051
-495,824	800,000	0,068	0,150
-494,810	504,119	-0,020	0,034
-493,795	800,000	-0,019	-0,051
-492,781	75,500	-0,122	0,093
-491,766	800,000	0,058	-0,125
-490,751	-200,000	0,004	-0,014
-489,737	-70,137	-0,094	0,026
-488,722	-131,433	0,198	0,019
-487,708	-200,000	0,000	0,081
-486,693	607,138	0,031	-0,056
-485,678	107,273	-0,085	0,073
-484,664	140,342	-0,110	0,104
-483,649	-200,000	-0,001	-0,049
-482,635	-75,425	0,072	0,018
-481,620	800,000	-0,032	0,079
-480,605	800,000	0,070	0,154
-479,591	-145,021	0,066	-0,004
-478,576	379,314	0,049	-0,073
-477,562	174,473	-0,068	-0,071
-476,547	172,616	-0,145	-0,151
-475,532	502,048	0,088	-0,148
-474,518	-20,670	-0,137	-0,060
-473,503	-200,000	-0,013	0,047
-472,489	800,000	0,047	-0,111
-471,474	-86,507	-0,016	0,004
-470,459	-200,000	0,009	0,135
-469,445	52,562	0,024	0,016
-468,430	-200,000	-0,010	-0,049
-467,416	800,000	0,011	-0,031
-466,401	-98,656	0,094	-0,017
-465,386	-200,000	0,024	-0,155
-464,372	543,593	0,006	-0,011
-463,357	440,068	-0,034	-0,054
-462,343	-200,000	-0,002	-0,035
-461,328	-200,000	-0,002	-0,094
-460,313	79,058	0,082	-0,063
-459,299	-79,452	-0,007	0,002
-458,284	-129,905	-0,040	-0,004
-457,270	-200,000	0,003	0,011
-456,255	170,863	-0,059	0,061
-455,241	-116,772	0,156	0,020
-454,226	-200,000	0,006	-0,091
-453,211	-137,541	0,048	-0,004
-452,197	27,302	0,078	0,047
-451,182	115,498	0,048	-0,042
-450,168	154,985	-0,041	-0,041
-449,153	-200,000	0,009	0,226
-448,138	72,600	-0,082	-0,061
-447,124	800,000	0,034	-0,072
-446,109	-200,000	-0,005	-0,025
-445,095	-166,064	0,213	-0,006
-444,080	800,000	-0,053	0,153
-443,065	800,000	0,015	0,046
-442,051	72,729	-0,109	-0,082
-441,036	-47,961	-0,045	0,016
-440,022	-200,000	0,005	-0,019
-439,007	161,813	0,018	-0,018
-437,992	-60,681	0,150	0,045
-436,978	64,806	0,076	-0,055
-435,963	232,520	-0,063	0,074
-434,949	-200,000	0,016	-0,053
-433,934	371,315	-0,032	-0,046
-432,919	120,559	0,094	-0,084
-431,905	-200,000	0,002	0,031
-430,890	244,731	-0,098	0,119
-429,876	-128,127	0,164	-0,017
-428,861	-200,000	0,017	-0,099
-427,846	800,000	0,030	-0,090
-426,832	239,449	0,069	-0,083
-425,817	23,502	-0,040	-0,024
-424,803	-91,349	-0,048	-0,010
-423,788	-200,000	-0,002	0,089
-422,773	188,738	0,023	0,025
-421,759	-200,000	-0,010	-0,101
-420,744	159,418	-0,058	0,058
-419,730	-134,469	-0,131	-0,011
-418,715	-37,961	0,079	-0,030
-417,701	-160,450	0,051	0,002
-416,686	-200,000	0,018	0,101
-415,671	265,708	-0,061	0,077
-414,657	-62,638	-0,077	0,023
-413,642	-200,000	-0,037	0,135
-412,628	800,000	-0,038	0,098
-411,613	448,072	-0,027	0,043
-410,598	-200,000	-0,015	0,125
-409,584	-200,000	0,047	0,225
-408,569	-153,501	0,116	0,006
-407,555	-48,197	0,078	0,027
-406,540	-200,000	-0,018	0,144
-405,525	-159,018	0,091	0,004
-404,511	-134,946	-0,102	0,009
-403,496	-155,055	-0,079	0,004
-402,482	-111,673	0,035	0,005
-401,467	-200,000	0,018	0,061
-400,452	-3,651	-0,129	0,064
-399,438	-200,000	-0,005	-0,069
-398,423	-63,811	0,034	-0,010
-397,409	-200,000	-0,010	0,078
-396,394	-200,000	0,015	0,055
-395,379	800,000	-0,029	-0,069
-394,365	800,000	-0,016	0,033
-393,350	-200,000	-0,011	0,118
-392,336	-200,000	-0,026	0,091
-391,321	-200,000	0,023	0,129
-390,306	800,000	0,049	-0,143
-389,292	-200,000	-0,007	0,060
-388,277	-58,640	-0,113	-0,035
-387,263	-108,912	0,092	0,014
-386,248	215,187	0,100	0,115
-385,233	90,361	-0,097	0,077
-384,219	348,100	0,016	0,022
-383,204	75,706	-0,080	0,061
-382,190	-200,000	-0,008	-0,055
-381,175	-64,747	0,046	-0,013
-380,160	-55,886	0,049	-0,015
-379,146	-200,000	0,014	0,147
-378,131	151,279	0,083	0,081
-377,117	22,933	-0,132	0,078
-376,102	-200,000	0,002	-0,039
-375,088	-161,437	-0,063	-0,002
-374,073	-200,000	0,002	-0,020
-373,058	-140,808	0,034	0,002
-372,044	-20,070	0,081	-0,036
-371,029	-200,000	0,010	0,105
-370,015	-200,000	-0,013	-0,069
-369,000	-77,526	-0,140	0,035
-367,985	162,980	-0,071	0,072
-366,971	-83,710	0,096	0,022
-365,956	-60,332	-0,053	-0,016
-364,942	-200,000	-0,016	0,112
-363,927	-14,489	-0,036	0,016
-362,912	533,992	-0,042	-0,071
-361,898	427,650	-0,029	0,046
-360,883	-73,910	-0,032	-0,008
-359,869	800,000	-0,019	-0,058
-358,854	-200,000	-0,006	0,061
-357,839	20,052	0,083	0,048
-356,825	-200,000	-0,007	0,044
-355,810	-7,835	0,105	-0,051
-354,796	150,506	0,065	0,064
-353,781	-51,617	-0,050	0,016
-352,766	-200,000	-0,005	0,080
-351,752	306,035	0,058	-0,078
-350,737	-103,897	-0,071	-0,012
-349,723	-86,918	-0,079	0,017
-348,708	800,000	0,033	0,083
-347,693	585,663	0,055	0,098
-346,679	800,000	-0,076	-0,182
-345,664	-58,461	0,030	-0,009
-344,650	-200,000	0,012	0,059
-343,635	-86,863	0,097	0,021
-342,620	-63,074	-0,105	0,031
-341,606	-193,749	0,097	-0,001
-340,591	389,083	0,024	0,035
-339,577	-59,388	-0,160	0,049
-338,562	432,182	0,081	-0,127
-337,548	-11,585	-0,031	-0,014
-336,533	-200,000	0,017	0,083
-335,518	-47,549	0,082	-0,028
-334,504	-3,640	0,083	0,041
-333,489	73,043	-0,064	0,048
-332,475	-163,300	-0,083	0,003
-331,460	18,644	-0,150	-0,086
-330,445	-10,620	0,034	0,016
-329,431	214,686	-0,075	0,085
-328,416	48,893	0,132	0,089
-327,402	115,986	0,091	-0,080
-326,387	-44,614	-0,034	0,012
-325,372	800,000	-0,049	-0,144
-324,358	166,480	-0,016	-0,016
-323,343	-43,500	0,101	0,036
-322,329	-200,000	-0,004	0,026
-321,314	38,735	0,051	-0,033
-320,299	-121,689	-0,108	0,013
-319,285	-118,175	0,108	0,014
-318,270	256,676	-0,032	0,039
-317,256	-200,000	0,003	0,102
-316,241	-28,007	-0,150	-0,062
-315,226	-72,920	-0,111	0,029
-314,212	40,619	0,024	0,015
-313,197	-158,058	0,058	-0,002
-312,183	124,565	0,040	0,036
-311,168	-178,053	0,035	-0,001
-310,153	-200,000	0,005	-0,089
-309,139	-45,014	0,082	-0,029
-308,124	800,000	0,049	0,133
-307,110	17,451	-0,070	-0,039
-306,095	-47,125	0,051	-0,018
-305,080	197,848	0,061	-0,066
-304,066	-151,236	0,049	0,003
-303,051	-55,885	-0,110	-0,035
-302,037	-200,000	0,050	-0,159
-301,022	-200,000	-0,013	-0,061
-300,008	269,174	0,055	0,070
-298,993	42,689	0,024	0,016
-297,978	-200,000	0,006	0,158
-296,964	-200,000	0,014	0,075
-295,949	-200,000	0,001	-0,052
-294,935	81,728	0,061	0,047
-293,920	109,685	0,009	-0,008
-292,905	-200,000	-0,003	0,025
-291,891	35,841	-0,068	0,043
-290,876	800,000	0,073	0,186
-289,862	800,000	-0,063	0,149
-288,847	-139,300	-0,180	-0,014
-287,832	59,681	0,045	-0,032
-286,818	800,000	-0,039	-0,124
-285,803	172,914	0,087	-0,090
-284,789	-99,666	0,116	-0,021
-283,774	-26,049	-0,074	-0,031
-282,759	-200,000	0,016	0,058
-281,745	8,172	0,078	0,042
-280,730	-95,818	0,043	0,008
-279,716	-7,401	-0,069	0,033
-278,701	800,000	-0,004	0,010
-277,686	609,974	-0,050	0,089
-276,672	-65,006	0,054	0,016
-275,657	-14,754	-0,118	-0,054
-274,643	-200,000	0,014	0,077
-273,628	-99,397	-0,093	-0,017
-272,613	-200,000	0,033	-0,104
-271,599	115,699	0,078	-0,068
-270,584	133,386	0,127	0,118
-269,570	100,796	0,025	-0,021
-268,555	-200,000	-0,001	0,026
-267,540	-3,128	0,010	0,005
-266,526	-102,479	0,120	-0,020
-265,511	471,528	0,029	-0,046
-264,497	86,349	0,082	0,064
-263,482	220,243	-0,120	0,137
-262,467	259,333	0,102	0,126
-261,453	-200,000	-0,015	0,080
-260,438	-200,000	0,027	0,089
-259,424	478,875	-0,123	-0,200
-258,409	589,421	0,051	-0,090
-257,395	-15,262	-0,052	0,024
-256,380	-200,000	-0,008	0,094
-255,365	487,134	0,069	0,113
-254,351	143,326	0,055	-0,052
-253,336	75,014	-0,061	-0,046
-252,322	-179,625	0,090	0,001
-251,307	800,000	-0,023	-0,047
-250,292	-200,000	-0,006	0,073
-249,278	241,839	-0,043	0,052
-248,263	-4,488	0,116	0,057
-247,249	-78,806	-0,145	-0,035
-246,234	43,149	-0,092	0,060
-245,219	390,963	0,056	0,084
-244,205	-9,146	-0,087	0,041
-243,190	-200,000	0,017	0,064
-242,176	147,023	0,064	0,062
-241,161	171,460	0,041	0,042
-240,146	120,015	-0,103	-0,091
-239,132	800,000	-0,019	0,041
-238,117	-61,687	-0,043	0,013
-237,103	-200,000	-0,008	0,030
-236,088	-200,000	0,025	-0,115
-235,073	800,000	-0,028	-0,058
-234,059	292,467	-0,014	0,018
-233,044	335,675	0,082	-0,114
-232,030	183,705	-0,142	0,150
-231,015	800,000	-0,052	-0,122
-230,000	80,237	0,077	-0,059
-228,986	800,000	-0,039	0,097
-227,971	-17,275	0,051	0,023
-226,957	-83,738	0,058	0,013
-225,942	773,084	-0,090	0,176
-224,927	56,200	-0,062	0,043
-223,913	800,000	0,059	0,123
-222,898	-200,000	0,015	0,055
-221,884	105,262	-0,085	-0,071
-220,869	657,133	-0,071	-0,131
-219,855	-200,000	0,012	-0,039
-218,840	11,471	-0,044	0,024
-217,825	-8,858	0,069	-0,033
-216,811	-200,000	-0,010	0,076
-215,796	800,000	0,054	-0,125
-214,782	-200,000	0,045	-0,141
-213,767	-200,000	-0,006	0,051
-212,752	86,886	-0,038	0,030
-211,738	-200,000	-0,001	0,096
-210,723	-200,000	0,014	-0,117
-209,709	380,235	0,073	-0,107
-208,694	800,000	-0,073	-0,148
-207,679	-106,059	-0,083	0,013
-206,665	-21,741	0,103	-0,045
-205,650	-141,732	0,122	0,009
-204,636	333,715	0,036	0,050
-203,621	-136,199	0,102	0,008
-202,606	526,123	-0,042	-0,072
-201,592	-98,064	-0,065	-0,012
-200,577	800,000	0,006	0,013
-199,563	-200,000	0,004	-0,071
-198,548	242,285	0,053	0,063
-197,533	-200,000	-0,037	-0,121
-196,519	-39,323	0,110	0,041
-195,504	-163,654	-0,137	0,005
-194,490	62,584	-0,094	-0,067
-193,475	-55,004	-0,063	0,020
-192,460	61,784	-0,103	-0,073
-191,446	13,215	0,037	-0,020
-190,431	-121,967	0,109	0,013
-189,417	-144,824	0,126	-0,008
-188,402	-40,289	-0,043	-0,016
-187,387	-156,040	-0,197	0,009
-186,373	52,662	0,093	-0,063
-185,358	12,729	0,100	0,055
-184,344	-200,000	-0,011	0,119
-183,329	275,847	0,114	0,144
-182,315	52,865	0,027	0,018
-181,300	-200,000	-0,036	0,146
-180,285	-24,176	-0,015	-0,006
-179,271	-200,000	-0,021	-0,138
-178,256	-200,000	-0,050	-0,158
-177,242	192,270	0,050	-0,054
-176,227	800,000	-0,032	0,074
-175,212	800,000	0,042	-0,130
-174,198	433,499	-0,074	-0,116
-173,183	-200,000	0,008	-0,066
-172,169	35,144	-0,089	-0,056
-171,154	800,000	-0,036	0,101
-170,139	-131,963	0,095	-0,009
-169,125	211,755	0,073	0,082
-168,110	46,853	0,105	0,070
-167,096	800,000	-0,039	-0,110
-166,081	-137,445	-0,043	0,003
-165,066	800,000	-0,034	-0,081
-164,052	-25,667	0,052	-0,022
-163,037	800,000	0,041	0,084
-162,023	5,195	0,187	-0,098
-161,008	214,319	0,099	-0,112
-159,993	59,638	0,086	0,060
-158,979	-107,494	-0,079	0,012
-157,964	103,490	-0,035	-0,029
-156,950	-68,397	-0,055	0,015
-155,935	-200,000	0,001	0,051
-154,920	42,367	0,068	0,044
-153,906	510,916	0,052	-0,087
-152,891	-128,296	-0,179	0,018
-151,877	-59,747	0,069	0,021
-150,862	-189,864	-0,120	0,001
-149,847	800,000	-0,030	-0,063
-148,833	355,931	-0,040	0,057
-147,818	-200,000	0,019	0,137
-146,804	622,057	-0,039	-0,070
-145,789	279,490	0,076	-0,096
-144,775	-142,935	-0,127	0,009
-143,760	-148,375	-0,046	-0,003
-142,745	85,610	-0,030	-0,024
-141,731	-200,000	-0,029	0,133
-140,716	800,000	0,036	-0,097
-139,702	-64,824	-0,070	-0,020
-138,687	228,236	-0,045	0,052
-137,672	-13,727	0,050	-0,023
-136,658	40,212	0,124	0,079
-135,643	-21,976	-0,033	0,014
-134,629	293,586	0,055	-0,072
-133,614	-14,736	0,200	0,091
-132,599	-80,582	0,090	0,021
-131,585	19,723	-0,064	0,036
-130,570	-200,000	0,007	-0,034
-129,556	-194,737	-0,045	-0,000
-128,541	368,331	-0,047	-0,067
-127,526	-200,000	-0,001	0,097
-126,512	186,776	0,099	0,104
-125,497	16,606	0,050	-0,028
-124,483	-200,000	-0,005	0,059
-123,468	9,609	0,118	0,063
-122,453	247,450	0,048	-0,057
-121,439	-200,000	-0,004	-0,090
-120,424	-110,730	-0,079	0,012
-119,410	81,343	-0,008	-0,006
