DTS Sentinel unit serial number:	SN410029Multiplexer serial number:	ORYXHardware model number:	OX2-SRSoftware version number:	ORYX F/W v4,00 Oryx Data Collector v3.7.2.0data status	okinstallation	BH3 CH2differential loss correction	single-endedforward channel	channel 2reverse channel	N/Adate	2023/12/05time	16:27:28forward acquisition time	300,00reverse acquisition time	0,00gamma	499,1914k internal	0,3192k external	0,3192temperature offset calibration	1,0000default loss term (dB/km)	0,3820temperature slope calibration	1,0000multiplexer offset coefficient	1,0000multiplexer slope coefficient	1,0000fibre end	0,00T internal ref (°C)	11,06T ext. ref 1 (°C)	-3,43T ext. ref 2 (°C)	-3,63length (m)	temperature (°C)	Stokes	anti-Stokes-744,400	210,768	0,031	-0,035
-743,385	35,052	-0,263	0,168
-742,371	284,712	0,041	-0,055
-741,356	-200,000	-0,032	0,197
-740,342	114,871	-0,025	0,022
-739,327	-142,568	-0,237	0,017
-738,312	-200,000	-0,062	-0,323
-737,298	156,216	-0,106	0,106
-736,283	207,638	0,044	0,050
-735,269	196,416	-0,173	0,193
-734,254	-200,000	-0,036	-0,186
-733,239	-29,624	-0,234	-0,097
-732,225	-200,000	-0,011	-0,039
-731,210	580,642	0,043	0,077
-730,196	233,262	-0,015	0,019
-729,181	237,642	-0,035	-0,042
-728,167	322,188	-0,073	-0,101
-727,152	79,454	-0,045	-0,035
-726,137	299,633	-0,056	-0,076
-725,123	56,271	-0,116	-0,082
-724,108	-150,605	-0,148	-0,008
-723,094	-131,707	-0,122	-0,012
-722,079	-123,862	-0,117	-0,013
-721,064	155,088	0,141	-0,141
-720,050	-119,869	0,121	-0,015
-719,035	37,967	-0,095	0,061
-718,021	-200,000	-0,004	-0,156
-717,006	-200,000	0,033	-0,129
-715,991	-75,916	-0,178	-0,046
-714,977	-200,000	0,053	-0,183
-713,962	-200,000	0,053	-0,200
-712,948	200,814	0,041	0,046
-711,933	308,632	-0,034	-0,047
-710,918	-200,000	-0,001	-0,056
-709,904	55,789	-0,132	-0,093
-708,889	-51,058	-0,090	-0,030
-707,875	800,000	0,006	0,014
-706,860	800,000	0,006	-0,015
-705,845	-27,367	0,068	-0,029
-704,831	48,622	0,095	0,065
-703,816	-42,459	0,116	-0,043
-702,802	0,867	0,029	0,015
-701,787	-14,638	-0,023	0,011
-700,772	-200,000	0,037	-0,166
-699,758	-6,423	0,097	-0,048
-698,743	12,581	0,172	0,096
-697,729	0,422	-0,065	-0,034
-696,714	125,406	0,144	0,132
-695,699	309,037	0,037	0,051
-694,685	-200,000	-0,033	-0,118
-693,670	-200,000	-0,009	-0,050
-692,656	-200,000	0,008	0,082
-691,641	197,521	0,050	-0,056
-690,627	800,000	0,047	0,113
-689,612	-101,994	-0,104	-0,018
-688,597	-33,813	-0,144	-0,057
-687,583	-200,000	0,008	-0,055
-686,568	-200,000	-0,008	0,061
-685,554	85,190	-0,113	-0,090
-684,539	54,456	0,024	0,017
-683,524	-200,000	0,001	0,022
-682,510	-10,080	0,087	-0,042
-681,495	53,690	-0,125	0,087
-680,481	221,645	0,051	-0,060
-679,466	-200,000	-0,031	-0,178
-678,451	-200,000	0,009	0,163
-677,437	-200,000	-0,008	-0,055
-676,422	386,865	0,042	0,064
-675,408	-120,400	0,029	-0,004
-674,393	77,110	-0,096	0,074
-673,378	-92,085	-0,080	0,016
-672,364	-200,000	-0,009	-0,068
-671,349	139,439	-0,102	-0,097
-670,335	-97,285	-0,073	0,014
-669,320	-200,000	-0,003	-0,215
-668,305	168,785	0,079	0,082
-667,291	-200,000	0,003	-0,056
-666,276	33,305	0,023	-0,015
-665,262	430,772	0,038	-0,061
-664,247	-200,000	-0,027	-0,094
-663,232	140,600	-0,123	-0,118
-662,218	-70,177	0,035	-0,010
-661,203	109,614	0,090	0,078
-660,189	800,000	0,037	-0,108
-659,174	800,000	-0,047	-0,099
-658,159	-145,301	-0,075	-0,005
-657,145	8,062	0,035	-0,019
-656,130	-181,315	-0,136	-0,002
-655,116	138,076	-0,016	-0,015
-654,101	-113,041	0,101	-0,014
-653,086	800,000	0,031	-0,082
-652,072	91,177	-0,023	0,018
-651,057	-74,017	0,100	-0,026
-650,043	-128,922	0,124	-0,012
-649,028	-73,649	0,111	-0,029
-648,014	40,777	-0,177	0,116
-646,999	-11,506	-0,069	-0,033
-645,984	-123,656	0,056	0,006
-644,970	154,868	0,103	-0,102
-643,955	-200,000	0,023	-0,111
-642,941	289,718	0,018	-0,024
-641,926	234,516	-0,072	-0,086
-640,911	-5,714	0,109	0,054
-639,897	216,350	0,046	0,053
-638,882	-200,000	-0,009	-0,141
-637,868	74,868	-0,080	-0,061
-636,853	281,740	-0,158	-0,206
-635,838	43,611	-0,083	-0,055
-634,824	-200,000	-0,020	-0,074
-633,809	725,269	-0,014	-0,028
-632,795	-200,000	-0,007	0,070
-631,780	386,525	0,030	-0,045
-630,765	-17,248	-0,095	-0,043
-629,751	-200,000	-0,008	-0,074
-628,736	209,177	-0,037	-0,043
-627,722	-200,000	0,033	0,127
-626,707	133,745	-0,041	-0,039
-625,692	-126,173	-0,043	-0,005
-624,678	-18,942	-0,062	0,028
-623,663	30,437	0,078	0,049
-622,649	-200,000	-0,004	0,130
-621,634	178,247	-0,047	0,050
-620,619	-200,000	0,005	-0,118
-619,605	-200,000	0,028	0,107
-618,590	678,374	0,011	0,021
-617,576	-200,000	0,008	0,046
-616,561	436,777	0,073	-0,116
-615,546	223,129	-0,031	-0,036
-614,532	5,068	-0,071	-0,038
-613,517	-23,768	0,064	0,028
-612,503	272,097	-0,019	-0,025
-611,488	125,640	-0,013	-0,012
-610,474	-200,000	-0,000	-0,040
-609,459	54,215	-0,080	0,056
-608,444	-75,027	-0,178	-0,046
-607,430	-200,000	0,026	-0,162
-606,415	-57,359	-0,198	0,063
-605,401	-171,647	0,086	-0,002
-604,386	59,264	0,057	-0,041
-603,371	89,217	-0,054	0,043
-602,357	66,843	-0,151	0,112
-601,342	800,000	-0,004	0,010
-600,328	500,506	0,017	-0,028
-599,313	-6,987	0,060	0,029
-598,298	-200,000	-0,002	0,031
-597,284	75,868	0,014	-0,011
-596,269	-200,000	-0,008	0,120
-595,255	-200,000	-0,016	0,096
-594,240	221,988	-0,111	0,130
-593,225	-200,000	0,004	-0,090
-592,211	-200,000	0,008	-0,108
-591,196	800,000	0,084	-0,206
-590,182	-53,865	0,019	-0,006
-589,167	247,886	0,072	0,089
-588,152	-200,000	0,022	0,092
-587,138	-200,000	0,021	-0,084
-586,123	35,953	0,032	0,021
-585,109	162,674	-0,075	0,076
-584,094	800,000	0,047	-0,115
-583,079	-200,000	0,012	-0,072
-582,065	1,190	0,042	-0,022
-581,050	104,821	0,038	-0,032
-580,036	-200,000	-0,028	0,135
-579,021	1,763	-0,132	-0,069
-578,006	483,760	0,073	-0,120
-576,992	-80,060	-0,075	-0,018
-575,977	-137,927	-0,042	0,003
-574,963	516,442	0,060	0,102
-573,948	54,656	0,060	0,042
-572,934	-148,708	-0,150	-0,009
-571,919	-200,000	0,031	0,124
-570,904	800,000	-0,044	0,088
-569,890	-71,237	-0,117	-0,032
-568,875	800,000	0,044	-0,125
-567,861	-200,000	0,034	0,181
-566,846	-200,000	-0,006	0,057
-565,831	98,722	-0,024	0,020
-564,817	180,405	0,094	0,100
-563,802	-200,000	-0,056	-0,247
-562,788	-200,000	0,009	-0,101
-561,773	-200,000	0,018	0,103
-560,758	-33,955	0,089	-0,035
-559,744	15,618	-0,080	0,045
-558,729	-5,997	0,051	0,025
-557,715	144,963	-0,062	-0,060
-556,700	-114,169	-0,208	-0,029
-555,685	-57,638	0,121	-0,038
-554,671	575,726	-0,054	-0,096
-553,656	-72,458	0,158	0,042
-552,642	257,113	-0,078	0,097
-551,627	800,000	0,019	-0,043
-550,612	28,088	-0,094	0,057
-549,598	-200,000	0,029	0,108
-548,583	-200,000	0,004	-0,151
-547,569	-200,000	-0,009	-0,086
-546,554	800,000	0,044	0,100
-545,539	-200,000	-0,003	0,042
-544,525	104,503	-0,017	-0,015
-543,510	143,971	-0,072	-0,069
-542,496	800,000	-0,047	-0,127
-541,481	116,602	0,128	-0,114
-540,466	620,249	-0,030	-0,054
-539,452	-155,883	0,040	0,002
-538,437	-111,200	-0,106	0,015
-537,423	67,479	-0,019	0,014
-536,408	200,877	-0,024	0,027
-535,393	95,399	0,051	-0,042
-534,379	84,408	-0,057	-0,045
-533,364	22,414	0,070	-0,042
-532,350	800,000	-0,043	0,112
-531,335	-200,000	-0,018	0,113
-530,321	60,241	0,101	0,072
-529,306	-47,104	-0,075	-0,026
-528,291	135,948	0,076	-0,071
-527,277	-56,223	-0,017	0,005
-526,262	176,874	0,022	-0,023
-525,248	-200,000	-0,035	0,117
-524,233	-200,000	-0,023	-0,081
-523,218	-122,365	-0,068	0,008
-522,204	800,000	0,007	-0,014
-521,189	19,345	-0,170	-0,099
-520,175	-58,499	-0,108	-0,034
-519,160	-200,000	0,042	-0,171
-518,145	-200,000	0,016	-0,148
-517,131	19,606	0,212	0,123
-516,116	662,375	0,023	0,043
-515,102	800,000	-0,014	0,033
-514,087	-200,000	-0,002	0,124
-513,072	800,000	0,007	-0,021
-512,058	-200,000	-0,035	0,114
-511,043	7,393	-0,033	-0,018
-510,029	134,007	0,054	0,050
-509,014	69,362	0,068	0,051
-507,999	800,000	-0,050	0,111
-506,985	23,320	-0,096	0,057
-505,970	190,863	0,074	-0,081
-504,956	800,000	-0,041	0,099
-503,941	211,106	0,094	-0,107
-502,926	800,000	0,033	0,070
-501,912	-200,000	0,012	0,118
-500,897	-149,580	0,066	-0,004
-499,883	332,974	-0,067	-0,094
-498,868	193,212	-0,133	-0,145
-497,853	-200,000	0,021	-0,104
-496,839	800,000	0,034	-0,071
-495,824	115,646	0,105	0,093
-494,810	800,000	-0,039	0,104
-493,795	240,696	0,054	-0,065
-492,781	-105,179	-0,134	-0,022
-491,766	-200,000	0,002	-0,082
-490,751	-200,000	0,006	-0,078
-489,737	-200,000	-0,030	-0,180
-488,722	-200,000	-0,021	-0,071
-487,708	800,000	0,040	-0,120
-486,693	-26,984	0,081	0,034
-485,678	19,835	-0,052	-0,030
-484,664	800,000	0,051	-0,130
-483,649	91,919	-0,048	-0,039
-482,635	214,544	0,054	0,061
-481,620	-200,000	0,005	0,065
-480,605	-200,000	0,004	-0,098
-479,591	800,000	-0,044	0,114
-478,576	-10,350	-0,024	0,012
-477,562	800,000	0,086	-0,209
-476,547	92,680	-0,064	-0,052
-475,532	-68,026	-0,014	-0,004
-474,518	-79,907	0,079	-0,019
-473,503	-37,493	0,211	0,081
-472,489	-200,000	0,000	0,077
-471,474	-200,000	-0,009	0,048
-470,459	-120,690	-0,037	-0,004
-469,445	54,703	-0,054	0,037
-468,430	-200,000	-0,012	-0,049
-467,416	800,000	-0,030	-0,068
-466,401	800,000	-0,017	0,035
-465,386	-70,658	-0,096	0,026
-464,372	5,775	0,067	-0,035
-463,357	800,000	0,017	0,036
-462,343	-200,000	0,018	-0,153
-461,328	465,620	-0,081	-0,131
-460,313	800,000	0,037	0,086
-459,299	58,631	0,132	0,094
-458,284	800,000	-0,034	-0,087
-457,270	800,000	0,003	-0,008
-456,255	-180,910	0,062	-0,001
-455,241	338,196	0,025	0,034
-454,226	375,612	-0,044	0,065
-453,211	-36,969	-0,035	0,014
-452,197	236,366	0,022	0,026
-451,182	-1,985	0,040	0,020
-450,168	-200,000	-0,012	0,074
-449,153	-200,000	-0,029	-0,123
-448,138	48,952	-0,092	-0,062
-447,124	800,000	-0,062	-0,138
-446,109	439,450	0,025	-0,039
-445,095	800,000	-0,028	0,068
-444,080	617,871	-0,033	0,059
-443,065	299,770	0,111	0,148
-442,051	800,000	0,058	0,177
-441,036	597,539	-0,044	0,079
-440,022	800,000	0,034	-0,093
-439,007	109,878	0,083	-0,072
-437,992	-39,010	0,153	-0,058
-436,978	121,611	-0,020	-0,018
-435,963	41,816	-0,042	-0,027
-434,949	-200,000	-0,041	0,147
-433,934	-96,227	0,046	0,009
-432,919	-200,000	-0,029	-0,117
-431,905	215,287	-0,109	-0,125
-430,890	-95,622	0,056	-0,011
-429,876	800,000	0,049	0,101
-428,861	-19,688	0,097	0,043
-427,846	367,527	-0,085	0,124
-426,832	-200,000	0,029	0,092
-425,817	-200,000	0,004	-0,120
-424,803	-88,220	0,164	-0,035
-423,788	553,551	-0,062	-0,107
-422,773	-81,777	0,122	0,029
-421,759	111,641	-0,030	-0,026
-420,744	-28,898	-0,076	0,031
-419,730	800,000	0,031	0,080
-418,715	-117,066	-0,087	0,011
-417,701	-51,139	-0,024	0,008
-416,686	524,394	0,055	0,094
-415,671	192,352	0,073	-0,079
-414,657	-77,546	-0,134	0,033
-413,642	211,172	-0,077	-0,087
-412,628	-11,518	-0,058	0,027
-411,613	-98,349	-0,072	-0,013
-410,598	-180,896	0,094	0,001
-409,584	800,000	0,038	-0,091
-408,569	-60,185	0,101	0,031
-407,555	241,439	-0,017	0,021
-406,540	187,446	-0,130	0,140
-405,525	-134,617	0,075	-0,006
-404,511	-45,192	-0,103	0,037
-403,496	410,257	0,077	-0,118
-402,482	-83,993	-0,042	0,009
-401,467	-16,025	0,166	-0,076
-400,452	-162,603	0,057	0,002
-399,438	-111,044	0,068	0,010
-398,423	-24,234	-0,027	-0,011
-397,409	547,882	0,031	0,054
-396,394	-168,188	-0,089	-0,002
-395,379	-200,000	0,010	-0,070
-394,365	114,701	0,080	0,070
-393,350	340,328	0,063	0,088
-392,336	767,644	-0,024	0,048
-391,321	429,290	-0,069	-0,107
-390,306	481,509	0,039	-0,064
-389,292	-85,793	0,097	-0,021
-388,277	-200,000	0,009	-0,051
-387,263	108,146	-0,071	0,061
-386,248	174,729	0,066	0,069
-385,233	800,000	-0,059	0,164
-384,219	-200,000	0,012	0,039
-383,204	636,421	-0,066	0,121
-382,190	206,011	0,109	-0,123
-381,175	-200,000	0,001	-0,012
-380,160	800,000	0,030	0,062
-379,146	29,839	0,052	0,032
-378,131	162,225	0,069	0,069
-377,117	479,448	-0,067	0,110
-376,102	-148,825	-0,156	-0,009
-375,088	800,000	0,026	0,058
-374,073	-60,077	0,078	-0,024
-373,058	-50,481	0,192	0,065
-372,044	24,121	0,139	0,082
-371,029	-200,000	-0,024	0,099
-370,015	133,091	-0,013	0,012
-369,000	-85,369	-0,121	-0,027
-367,985	27,618	-0,038	-0,023
-366,971	30,289	-0,020	-0,012
-365,956	-200,000	-0,005	-0,092
-364,942	142,682	0,120	0,115
-363,927	-200,000	-0,014	0,097
-362,912	54,811	-0,051	0,035
-361,898	-200,000	-0,036	-0,152
-360,883	7,351	-0,170	0,091
-359,869	-200,000	-0,005	-0,071
-358,854	49,938	0,050	-0,034
-357,839	-200,000	-0,011	0,037
-356,825	-52,516	0,070	0,023
-355,810	-200,000	-0,009	-0,051
-354,796	-33,896	-0,070	-0,028
-353,781	-200,000	0,006	0,072
-352,766	-57,324	-0,123	-0,039
-351,752	-200,000	-0,023	0,087
-350,737	-200,000	0,016	0,096
-349,723	-200,000	-0,004	0,108
-348,708	-200,000	-0,014	0,104
-347,693	-200,000	-0,007	-0,115
-346,679	-121,589	-0,153	0,018
-345,664	-200,000	0,024	-0,101
-344,650	156,015	0,046	0,046
-343,635	-100,989	-0,220	-0,038
-342,620	53,976	0,051	0,035
-341,606	-200,000	-0,005	0,073
-340,591	36,841	-0,056	0,035
-339,577	800,000	-0,041	-0,099
-338,562	66,596	0,083	-0,061
-337,548	306,378	-0,048	-0,064
-336,533	-200,000	-0,002	-0,061
-335,518	-3,814	0,169	-0,084
-334,504	-188,745	0,112	0,001
-333,489	209,221	0,078	0,088
-332,475	233,503	-0,025	-0,030
-331,460	61,558	-0,143	0,102
-330,445	280,733	-0,075	-0,097
-329,431	-200,000	0,037	0,181
-328,416	-200,000	-0,001	-0,100
-327,402	-200,000	0,002	-0,042
-326,387	616,075	-0,030	-0,054
-325,372	212,119	-0,080	-0,091
-324,358	-200,000	0,001	-0,039
-323,343	-51,957	0,038	0,012
-322,329	-200,000	0,008	-0,031
-321,314	-200,000	0,013	0,118
-320,299	142,669	0,074	0,071
-319,285	800,000	-0,019	0,044
-318,270	-200,000	-0,000	-0,074
-317,256	-9,754	0,068	0,032
-316,241	193,931	-0,106	0,115
-315,226	302,229	0,068	0,091
-314,212	-128,765	0,078	-0,008
-313,197	-200,000	0,020	-0,099
-312,183	41,007	0,023	0,015
-311,168	-200,000	-0,021	-0,112
-310,153	481,145	0,061	0,100
-309,139	800,000	0,024	-0,067
-308,124	800,000	-0,036	-0,079
-307,110	800,000	0,051	-0,103
-306,095	-43,720	0,087	-0,031
-305,080	-140,607	0,020	-0,001
-304,066	215,789	0,064	-0,073
-303,051	117,596	0,086	-0,075
-302,037	-200,000	0,010	0,070
-301,022	119,269	0,056	0,050
-300,008	-49,942	-0,131	-0,044
-298,993	-186,012	0,143	-0,001
-297,978	800,000	-0,057	0,134
-296,964	14,557	0,069	-0,039
-295,949	-200,000	0,013	0,066
-294,935	146,533	0,040	0,038
-293,920	-16,782	0,099	0,045
-292,905	-200,000	-0,052	0,275
-291,891	650,217	-0,032	0,059
-290,876	155,891	-0,031	-0,031
-289,862	-23,974	-0,042	0,018
-288,847	56,926	-0,022	-0,016
-287,832	598,885	-0,062	0,110
-286,818	-20,776	-0,072	-0,032
-285,803	800,000	-0,043	0,094
-284,789	800,000	-0,051	0,154
-283,774	-77,239	0,171	0,042
-282,759	-65,037	-0,105	0,030
-281,745	-151,702	-0,056	0,003
-280,730	-180,423	-0,101	-0,001
-279,716	-108,853	-0,101	-0,015
-278,701	800,000	0,040	-0,113
-277,686	-200,000	-0,007	0,099
-276,672	-91,466	-0,107	0,022
-275,657	-200,000	-0,056	-0,000
-274,643	152,390	0,106	-0,103
-273,628	-54,111	-0,118	-0,038
-272,613	185,454	0,048	0,051
-271,599	-31,956	0,111	-0,044
-270,584	-200,000	0,006	0,046
-269,570	429,363	-0,056	0,088
-268,555	26,508	-0,060	0,036
-267,540	434,140	0,042	-0,065
-266,526	-194,463	-0,109	-0,001
-265,511	-79,927	0,067	0,016
-264,497	218,446	0,065	0,075
-263,482	323,403	0,102	0,140
-262,467	611,383	-0,024	0,044
-261,453	-103,113	0,115	-0,019
-260,438	-42,713	-0,038	0,014
-259,424	-151,879	0,038	-0,002
-258,409	139,580	0,035	0,033
-257,395	-97,094	-0,066	0,012
-256,380	800,000	0,017	-0,046
-255,365	-76,108	0,125	0,031
-254,351	181,319	-0,052	0,054
-253,336	51,579	-0,103	0,070
-252,322	-119,509	-0,073	0,009
-251,307	-200,000	-0,020	0,079
-250,292	213,269	0,140	-0,158
-249,278	-6,482	0,052	-0,025
-248,263	231,445	0,088	0,104
-247,249	-200,000	-0,002	0,034
-246,234	-200,000	-0,023	-0,118
-245,219	-200,000	-0,007	-0,057
-244,205	-24,514	-0,128	-0,054
-243,190	-200,000	-0,009	0,098
-242,176	-200,000	0,009	0,067
-241,161	-200,000	0,003	0,053
-240,146	406,037	0,069	0,105
-239,132	12,707	-0,062	-0,034
-238,117	-123,512	-0,115	-0,013
-237,103	-4,973	0,158	0,077
-236,088	-156,210	-0,130	0,006
-235,073	-200,000	-0,031	-0,104
-234,059	800,000	0,040	0,113
-233,044	173,556	0,023	0,024
-232,030	484,485	-0,055	-0,090
-231,015	5,047	-0,109	0,057
-230,000	800,000	-0,026	-0,079
-228,986	800,000	-0,054	-0,155
-227,971	34,436	-0,035	-0,022
-226,957	314,877	-0,011	0,015
-225,942	-200,000	0,022	0,092
-224,927	202,760	-0,099	-0,110
-223,913	-164,546	-0,018	0,001
-222,898	-200,000	-0,012	-0,056
-221,884	101,369	0,042	-0,035
-220,869	-29,188	0,011	-0,004
-219,855	-138,863	0,063	0,005
-218,840	-24,999	0,097	0,041
-217,825	561,863	0,045	-0,079
-216,811	-136,732	-0,101	0,008
-215,796	373,800	-0,053	0,077
-214,782	-200,000	-0,013	-0,049
-213,767	-116,408	-0,034	0,004
-212,752	-200,000	0,039	0,153
-211,738	-1,560	-0,022	0,011
-210,723	-81,040	-0,068	0,016
-209,709	6,364	-0,046	-0,024
-208,694	332,033	0,110	-0,152
-207,679	800,000	0,033	-0,080
-206,665	-73,183	-0,112	0,029
-205,650	43,602	0,186	0,122
-204,636	800,000	0,062	0,178
-203,621	800,000	0,044	-0,108
-202,606	-147,424	0,049	0,003
-201,592	800,000	-0,060	-0,146
-200,577	13,673	-0,155	-0,086
-199,563	353,501	0,024	-0,034
-198,548	800,000	0,046	0,131
-197,533	-60,360	0,178	0,054
-196,519	89,343	0,031	-0,025
-195,504	-158,938	-0,069	0,003
-194,490	-48,048	-0,027	-0,009
-193,475	-122,848	-0,151	-0,017
-192,460	-63,434	0,122	-0,036
-191,446	-31,981	-0,066	0,026
-190,431	800,000	0,017	0,045
-189,417	-200,000	-0,041	0,165
-188,402	800,000	0,034	-0,079
-187,387	-99,062	0,108	-0,019
-186,373	-96,273	0,079	-0,015
-185,358	200,176	-0,096	-0,105
-184,344	275,205	-0,067	-0,085
-183,329	146,753	0,123	-0,118
-182,315	-55,613	-0,081	0,026
-181,300	800,000	-0,033	-0,077
-180,285	198,448	0,044	-0,049
-179,271	220,209	-0,058	-0,066
-178,256	-71,221	0,073	0,019
-177,242	-200,000	-0,041	0,196
-176,227	493,128	0,026	0,042
-175,212	800,000	0,025	0,059
-174,198	-72,333	-0,076	-0,020
-173,183	-16,340	0,081	-0,036
-172,169	800,000	0,049	-0,113
-171,154	155,053	-0,050	0,049
-170,139	800,000	0,057	-0,117
-169,125	800,000	0,033	0,068
-168,110	-94,716	0,062	-0,012
-167,096	-19,767	0,009	-0,004
-166,081	-66,986	-0,016	-0,004
-165,066	290,647	0,066	-0,086
-164,052	83,168	0,052	-0,040
-163,037	111,618	0,034	-0,029
-162,023	-60,639	0,048	0,015
-161,008	377,917	0,040	0,059
-159,993	-20,304	-0,039	-0,017
-158,979	172,144	0,049	-0,050
-157,964	-200,000	0,007	-0,028
-156,950	720,501	-0,014	0,027
-155,935	-30,653	0,077	-0,031
-154,920	800,000	0,033	0,068
-153,906	669,325	-0,039	0,072
-152,891	-200,000	0,009	-0,037
-151,877	-68,885	-0,094	0,026
-150,862	-200,000	0,008	-0,047
-149,847	604,096	0,040	-0,071
-148,833	-200,000	-0,020	0,136
-147,818	-194,351	0,036	0,000
-146,804	183,574	0,090	0,095
-145,789	-200,000	0,004	-0,036
-144,775	-200,000	-0,013	-0,058
-143,760	-200,000	0,018	-0,155
-142,745	-122,730	-0,085	0,010
-141,731	46,030	-0,106	-0,070
-140,716	216,838	-0,061	0,069
-139,702	-5,745	0,161	0,078
-138,687	15,218	-0,013	-0,008
-137,672	121,633	-0,062	-0,055
-136,658	784,960	0,052	-0,101
-135,643	267,538	-0,105	0,131
-134,629	-132,295	0,028	-0,003
-133,614	107,323	0,032	0,027
-132,599	158,315	0,032	-0,031
-131,585	87,526	-0,144	0,113
-130,570	50,974	0,147	0,099
-129,556	-200,000	-0,002	0,058
-128,541	47,117	-0,042	-0,028
-127,526	800,000	0,024	-0,065
-126,512	-200,000	-0,020	0,104
-125,497	-200,000	-0,019	0,096
-124,483	203,315	0,107	0,118
-123,468	-200,000	0,000	-0,073
-122,453	38,286	-0,137	0,087
-121,439	-200,000	-0,019	-0,060
-120,424	27,430	0,115	-0,069
