DTS Sentinel unit serial number:	SN410029Multiplexer serial number:	ORYXHardware model number:	OX2-SRSoftware version number:	ORYX F/W v4,00 Oryx Data Collector v3.7.2.0data status	okinstallation	BH3 CH2differential loss correction	single-endedforward channel	channel 2reverse channel	N/Adate	2023/12/05time	18:42:28forward acquisition time	300,00reverse acquisition time	0,00gamma	499,1914k internal	0,3193k external	0,3193temperature offset calibration	1,0000default loss term (dB/km)	0,3820temperature slope calibration	1,0000multiplexer offset coefficient	1,0000multiplexer slope coefficient	1,0000fibre end	0,00T internal ref (°C)	10,62T ext. ref 1 (°C)	-3,97T ext. ref 2 (°C)	-4,11length (m)	temperature (°C)	Stokes	anti-Stokes-744,400	6,461	-0,040	-0,022
-743,385	391,268	-0,100	0,151
-742,371	-200,000	-0,005	0,053
-741,356	219,637	-0,144	0,169
-740,342	800,000	-0,121	-0,250
-739,327	295,340	-0,143	0,191
-738,312	502,887	-0,116	-0,196
-737,298	-65,154	-0,258	0,075
-736,283	-200,000	0,010	-0,105
-735,269	90,464	-0,156	0,127
-734,254	-200,000	0,028	-0,093
-733,239	-136,993	-0,477	0,039
-732,225	-200,000	0,045	-0,315
-731,210	54,079	0,093	0,065
-730,196	307,095	0,079	0,108
-729,181	266,275	0,080	-0,102
-728,167	5,465	0,097	-0,052
-727,152	-147,035	-0,051	0,003
-726,137	-36,925	-0,128	0,050
-725,123	-200,000	-0,031	0,143
-724,108	-56,159	-0,122	0,039
-723,094	-147,550	-0,095	-0,006
-722,079	-200,000	-0,002	-0,101
-721,064	203,384	-0,050	0,057
-720,050	243,537	-0,046	0,056
-719,035	800,000	-0,061	-0,127
-718,021	35,751	0,077	-0,049
-717,006	-200,000	0,032	-0,104
-715,991	235,399	-0,088	-0,106
-714,977	800,000	0,055	-0,120
-713,962	800,000	-0,028	-0,074
-712,948	422,160	-0,054	-0,085
-711,933	234,791	-0,043	0,052
-710,918	42,704	-0,063	-0,041
-709,904	67,681	-0,050	-0,037
-708,889	-200,000	0,021	-0,098
-707,875	82,849	-0,048	0,038
-706,860	-53,258	-0,107	0,035
-705,845	-94,863	-0,078	0,015
-704,831	133,368	0,097	0,091
-703,816	-200,000	0,021	0,097
-702,802	58,977	-0,146	0,104
-701,787	-200,000	0,005	0,033
-700,772	-200,000	0,007	0,051
-699,758	301,284	0,039	0,052
-698,743	-103,423	0,038	-0,006
-697,729	-200,000	0,097	-0,000
-696,714	-51,925	-0,189	-0,064
-695,699	800,000	-0,021	0,055
-694,685	-119,679	-0,072	0,009
-693,670	71,926	-0,049	-0,037
-692,656	-34,177	0,045	0,018
-691,641	-142,917	-0,029	0,002
-690,627	343,633	0,056	0,081
-689,612	337,877	-0,068	0,096
-688,597	47,788	-0,034	-0,023
-687,583	-200,000	0,016	-0,191
-686,568	-41,562	-0,193	-0,072
-685,554	-72,899	-0,064	-0,017
-684,539	7,271	0,037	0,020
-683,524	800,000	-0,015	-0,037
-682,510	800,000	-0,057	-0,141
-681,495	-57,935	-0,068	-0,021
-680,481	280,295	-0,026	-0,034
-679,466	-90,651	-0,082	-0,017
-678,451	-200,000	-0,009	-0,031
-677,437	800,000	0,012	-0,027
-676,422	101,872	0,141	0,120
-675,408	-200,000	-0,063	0,245
-674,393	44,615	0,051	0,034
-673,378	37,411	-0,067	0,043
-672,364	308,809	-0,104	-0,142
-671,349	-200,000	0,025	-0,219
-670,335	278,781	-0,047	-0,061
-669,320	-200,000	0,007	0,050
-668,305	800,000	0,094	0,229
-667,291	71,166	-0,159	0,120
-666,276	263,853	-0,053	-0,067
-665,262	630,801	0,040	-0,073
-664,247	91,084	0,027	-0,022
-663,232	-55,068	0,071	-0,023
-662,218	800,000	0,030	0,070
-661,203	-200,000	0,005	0,063
-660,189	95,129	-0,094	-0,078
-659,174	391,582	-0,081	-0,122
-658,159	-200,000	-0,025	-0,168
-657,145	45,410	-0,083	-0,056
-656,130	157,457	0,092	0,093
-655,116	-200,000	-0,002	0,131
-654,101	341,133	-0,030	0,042
-653,086	-84,734	0,077	0,017
-652,072	481,699	-0,033	-0,054
-651,057	-27,105	0,083	0,035
-650,043	582,020	-0,029	0,052
-649,028	278,025	-0,037	-0,048
-648,014	-35,485	0,257	0,101
-646,999	-200,000	0,005	0,027
-645,984	800,000	0,025	0,072
-644,970	397,383	-0,038	-0,058
-643,955	-75,409	-0,118	-0,030
-642,941	403,707	0,068	-0,104
-641,926	-200,000	-0,011	-0,155
-640,911	-129,064	0,169	-0,017
-639,897	25,028	0,055	-0,033
-638,882	140,485	-0,101	-0,097
-637,868	26,204	-0,032	-0,019
-636,853	-200,000	-0,003	-0,067
-635,838	-200,000	0,006	-0,044
-634,824	330,258	0,050	-0,070
-633,809	352,965	0,041	-0,059
-632,795	-51,587	-0,029	-0,010
-631,780	800,000	0,024	-0,068
-630,765	800,000	-0,032	-0,069
-629,751	121,480	0,022	0,020
-628,736	-200,000	0,019	-0,175
-627,722	800,000	0,079	-0,170
-626,707	403,333	0,046	-0,070
-625,692	447,528	-0,091	0,147
-624,678	-96,663	-0,157	0,030
-623,663	-60,870	-0,079	-0,024
-622,649	800,000	0,012	0,028
-621,634	-200,000	0,004	-0,069
-620,619	161,768	-0,134	0,136
-619,605	185,276	0,059	-0,064
-618,590	-181,178	-0,084	0,001
-617,576	-165,409	0,039	-0,001
-616,561	800,000	-0,025	-0,062
-615,546	182,794	-0,051	0,055
-614,532	-200,000	0,025	-0,098
-613,517	-58,475	-0,102	-0,032
-612,503	-200,000	0,004	-0,081
-611,488	-54,045	0,062	0,020
-610,474	-59,067	0,058	-0,018
-609,459	-4,755	-0,095	-0,047
-608,444	516,365	-0,048	0,082
-607,430	563,265	0,088	-0,156
-606,415	-200,000	0,033	-0,115
-605,401	207,670	0,050	-0,057
-604,386	-200,000	-0,009	0,065
-603,371	35,768	0,046	0,029
-602,357	-21,465	-0,142	-0,063
-601,342	133,645	-0,042	-0,039
-600,328	636,749	-0,061	-0,112
-599,313	59,195	-0,076	-0,054
-598,298	75,832	-0,006	-0,005
-597,284	645,726	0,075	-0,140
-596,269	307,507	-0,044	0,059
-595,255	-200,000	-0,051	0,206
-594,240	800,000	0,032	0,093
-593,225	-200,000	0,000	0,077
-592,211	-138,859	-0,115	-0,009
-591,196	479,361	0,093	-0,154
-590,182	-9,167	0,060	0,029
-589,167	-128,012	0,022	0,002
-588,152	791,130	0,069	0,139
-587,138	62,001	-0,098	-0,070
-586,123	-200,000	-0,002	-0,169
-585,109	404,138	0,052	-0,080
-584,094	-166,051	-0,021	0,001
-583,079	-122,468	0,083	-0,010
-582,065	-200,000	0,009	0,148
-581,050	800,000	0,039	0,111
-580,036	322,694	-0,108	0,149
-579,021	777,424	0,039	-0,078
-578,006	313,191	-0,094	-0,128
-576,992	531,662	-0,070	0,121
-575,977	-134,062	-0,116	-0,010
-574,963	193,758	0,065	0,071
-573,948	-24,773	-0,154	-0,066
-572,934	-166,498	-0,046	0,001
-571,919	-116,320	-0,012	-0,002
-570,904	-200,000	-0,010	-0,084
-569,890	-18,243	-0,034	-0,016
-568,875	-8,499	-0,019	0,009
-567,861	89,463	0,068	0,055
-566,846	-43,694	-0,074	0,027
-565,831	676,944	0,045	0,085
-564,817	133,420	0,041	-0,038
-563,802	113,267	0,016	0,014
-562,788	-4,456	0,026	-0,013
-561,773	-18,904	0,029	0,013
-560,758	-200,000	0,005	0,115
-559,744	-169,326	0,099	-0,003
-558,729	96,727	-0,070	0,058
-557,715	-200,000	-0,019	0,138
-556,700	23,929	-0,110	0,066
-555,685	655,449	-0,051	-0,096
-554,671	-200,000	0,015	0,095
-553,656	-8,211	0,108	-0,053
-552,642	-200,000	-0,030	0,115
-551,627	-200,000	-0,021	-0,102
-550,612	800,000	0,014	0,028
-549,598	174,063	-0,081	-0,085
-548,583	137,760	-0,096	0,091
-547,569	-200,000	-0,001	0,203
-546,554	-55,881	0,188	0,060
-545,539	-87,868	-0,179	-0,039
-544,525	800,000	0,046	0,100
-543,510	133,246	0,051	0,048
-542,496	199,856	-0,066	-0,073
-541,481	-200,000	0,023	-0,076
-540,466	15,970	0,027	-0,015
-539,452	800,000	0,037	-0,091
-538,437	-200,000	0,005	0,070
-537,423	99,522	0,042	-0,035
-536,408	180,305	-0,006	-0,006
-535,393	83,300	-0,087	-0,068
-534,379	-53,191	0,087	0,029
-533,364	800,000	0,014	-0,039
-532,350	-169,491	-0,022	-0,001
-531,335	800,000	-0,037	-0,113
-530,321	313,631	-0,035	-0,047
-529,306	357,202	-0,020	0,028
-528,291	158,325	-0,106	0,106
-527,277	-200,000	-0,015	0,079
-526,262	-200,000	0,109	0,000
-525,248	800,000	-0,023	0,066
-524,233	-200,000	-0,009	-0,068
-523,218	590,631	0,047	0,084
-522,204	18,983	-0,050	-0,029
-521,189	800,000	-0,022	-0,063
-520,175	622,692	0,044	-0,080
-519,160	278,382	0,060	-0,077
-518,145	-21,629	0,109	-0,048
-517,131	174,136	-0,042	0,044
-516,116	722,201	-0,075	0,146
-515,102	800,000	-0,043	0,091
-514,087	-200,000	0,001	0,199
-513,072	23,166	0,049	-0,029
-512,058	-145,256	0,064	-0,004
-511,043	-77,432	-0,137	0,034
-510,029	-61,308	-0,083	0,025
-509,014	55,391	-0,071	-0,049
-507,999	-200,000	-0,040	-0,165
-506,985	219,581	-0,024	0,028
-505,970	78,104	0,025	0,019
-504,956	-145,380	-0,125	-0,008
-503,941	-200,000	-0,019	-0,095
-502,926	-200,000	0,001	0,053
-501,912	800,000	0,035	0,073
-500,897	413,406	0,037	-0,057
-499,883	-163,465	-0,094	-0,003
-498,868	-200,000	0,023	-0,170
-497,853	72,643	-0,051	-0,038
-496,839	-200,000	0,049	0,171
-495,824	453,010	0,009	-0,014
-494,810	800,000	0,046	-0,099
-493,795	47,135	0,131	-0,088
-492,781	528,192	-0,036	-0,061
-491,766	8,710	0,144	-0,078
-490,751	800,000	0,028	-0,090
-489,737	118,261	-0,130	-0,116
-488,722	112,755	0,085	0,074
-487,708	-156,370	-0,047	-0,002
-486,693	-200,000	-0,022	0,083
-485,678	438,635	0,017	0,027
-484,664	421,753	0,043	0,068
-483,649	184,549	-0,040	-0,043
-482,635	57,946	0,031	-0,022
-481,620	363,152	0,052	0,075
-480,605	-200,000	-0,016	-0,166
-479,591	-184,591	0,040	-0,000
-478,576	161,946	0,066	0,067
-477,562	-16,800	-0,207	-0,094
-476,547	205,247	-0,086	-0,097
-475,532	-116,592	-0,013	0,002
-474,518	121,861	0,043	0,039
-473,503	424,192	-0,046	0,072
-472,489	-48,237	-0,103	0,036
-471,474	128,105	0,118	0,108
-470,459	-200,000	-0,011	0,103
-469,445	-200,000	-0,008	0,110
-468,430	-104,301	0,067	-0,011
-467,416	800,000	-0,027	0,075
-466,401	57,425	0,101	0,071
-465,386	800,000	0,055	0,165
-464,372	-52,872	-0,096	-0,032
-463,357	800,000	0,009	0,027
-462,343	-200,000	-0,004	-0,220
-461,328	800,000	-0,052	-0,148
-460,313	-130,084	0,011	0,001
-459,299	-200,000	0,014	0,062
-458,284	-200,000	-0,003	0,010
-457,270	-38,497	0,055	0,021
-456,255	-200,000	-0,005	-0,026
-455,241	93,544	-0,022	0,018
-454,226	-200,000	0,004	-0,118
-453,211	400,295	0,074	0,112
-452,197	86,871	0,012	-0,009
-451,182	127,552	0,054	-0,049
-450,168	-200,000	0,006	0,111
-449,153	800,000	0,049	0,107
-448,138	119,923	-0,097	-0,086
-447,124	274,634	-0,007	0,009
-446,109	-87,137	-0,051	0,011
-445,095	800,000	0,031	-0,067
-444,080	800,000	-0,022	0,053
-443,065	-55,052	0,033	0,011
-442,051	538,473	0,018	-0,031
-441,036	800,000	0,037	-0,082
-440,022	54,352	-0,063	-0,043
-439,007	-200,000	0,013	0,083
-437,992	800,000	0,079	0,209
-436,978	-65,670	0,034	-0,010
-435,963	-63,316	0,060	0,018
-434,949	800,000	-0,046	-0,105
-433,934	395,834	-0,029	0,044
-432,919	800,000	-0,024	-0,062
-431,905	225,862	0,048	-0,057
-430,890	800,000	0,021	0,051
-429,876	-56,229	0,140	0,045
-428,861	350,954	-0,080	0,115
-427,846	688,262	-0,012	0,023
-426,832	741,298	-0,035	0,068
-425,817	-6,124	0,111	-0,055
-424,803	-200,000	0,011	-0,099
-423,788	-200,000	-0,016	0,104
-422,773	38,032	0,087	0,055
-421,759	-200,000	0,038	0,158
-420,744	715,016	-0,065	0,124
-419,730	-3,967	-0,073	0,036
-418,715	135,547	-0,127	-0,119
-417,701	781,211	0,025	-0,050
-416,686	451,028	0,062	0,099
-415,671	194,646	0,061	-0,067
-414,657	-200,000	-0,035	-0,149
-413,642	-86,127	0,129	-0,028
-412,628	-47,945	-0,129	-0,045
-411,613	-200,000	-0,044	-0,142
-410,598	-8,451	-0,113	-0,054
-409,584	-39,535	-0,088	-0,033
-408,569	16,725	-0,010	0,006
-407,555	79,998	-0,129	-0,100
-406,540	-200,000	-0,000	0,022
-405,525	217,874	0,046	-0,053
-404,511	232,663	-0,004	-0,005
-403,496	-20,759	-0,106	-0,046
-402,482	800,000	-0,075	0,157
-401,467	70,285	0,020	-0,015
-400,452	-2,857	0,120	0,060
-399,438	-200,000	-0,028	0,098
-398,423	800,000	0,047	-0,140
-397,409	-48,441	-0,087	-0,030
-396,394	800,000	-0,055	-0,117
-395,379	800,000	0,023	-0,064
-394,365	77,408	0,083	-0,063
-393,350	407,245	0,044	-0,068
-392,336	800,000	0,005	0,012
-391,321	800,000	0,037	-0,075
-390,306	-200,000	0,034	-0,120
-389,292	-200,000	0,035	-0,130
-388,277	62,803	-0,080	-0,058
-387,263	-200,000	-0,015	0,084
-386,248	-94,365	0,165	0,032
-385,233	369,963	-0,052	0,076
-384,219	63,070	-0,115	-0,083
-383,204	-71,947	0,056	0,015
-382,190	-200,000	0,011	-0,092
-381,175	642,629	-0,069	-0,127
-380,160	-48,783	0,030	0,010
-379,146	-200,000	0,024	0,164
-378,131	102,812	-0,065	0,055
-377,117	-200,000	-0,011	-0,090
-376,102	107,016	-0,103	0,088
-375,088	11,174	0,020	-0,011
-374,073	597,963	0,037	-0,067
-373,058	-175,599	0,142	-0,003
-372,044	297,213	-0,071	0,094
-371,029	800,000	0,084	0,191
-370,015	29,824	0,092	-0,056
-369,000	800,000	0,037	0,094
-367,985	19,657	-0,067	-0,038
-366,971	800,000	0,023	0,064
-365,956	800,000	-0,016	0,047
-364,942	221,836	-0,057	-0,066
-363,927	316,187	0,055	0,075
-362,912	-200,000	0,025	-0,142
-361,898	-142,009	-0,078	0,005
-360,883	-75,895	-0,107	-0,027
-359,869	-200,000	0,016	-0,068
-358,854	-41,585	-0,105	0,038
-357,839	12,008	0,108	0,059
-356,825	800,000	-0,008	-0,019
-355,810	-115,401	0,119	0,016
-354,796	-37,236	-0,118	0,045
-353,781	144,671	0,014	0,014
-352,766	-8,390	0,074	0,036
-351,752	800,000	0,042	0,095
-350,737	-85,645	0,110	0,024
-349,723	-110,681	0,087	0,013
-348,708	800,000	0,017	0,042
-347,693	-200,000	-0,016	-0,085
-346,679	-200,000	0,002	-0,077
-345,664	72,252	-0,081	-0,061
-344,650	-184,503	0,105	0,001
-343,635	-148,732	0,112	-0,006
-342,620	-200,000	-0,006	0,105
-341,606	-88,357	0,058	-0,012
-340,591	4,633	0,028	-0,015
-339,577	23,289	-0,095	-0,056
-338,562	35,887	-0,149	-0,094
-337,548	-200,000	-0,002	-0,156
-336,533	-62,382	-0,050	-0,015
-335,518	671,117	0,045	-0,084
-334,504	51,544	0,216	-0,147
-333,489	84,784	-0,171	0,135
-332,475	202,302	-0,024	0,026
-331,460	-200,000	-0,001	0,136
-330,445	800,000	0,041	0,093
-329,431	336,468	-0,024	0,034
-328,416	352,284	0,081	0,116
-327,402	-51,168	-0,090	0,030
-326,387	-154,651	0,071	0,003
-325,372	153,773	-0,078	-0,076
-324,358	-45,334	0,172	-0,061
-323,343	-6,437	0,096	0,047
-322,329	209,652	-0,040	0,045
-321,314	2,783	0,059	-0,030
-320,299	-75,298	-0,073	0,018
-319,285	-85,080	0,132	-0,029
-318,270	800,000	0,028	0,080
-317,256	83,801	0,095	-0,074
-316,241	-49,111	0,093	0,032
-315,226	-123,728	0,014	-0,002
-314,212	-169,256	0,096	0,002
-313,197	47,734	0,074	0,049
-312,183	180,855	-0,061	-0,065
-311,168	409,744	-0,011	-0,016
-310,153	575,022	0,067	-0,118
-309,139	679,995	-0,058	0,108
-308,124	227,696	0,056	0,065
-307,110	-200,000	-0,001	-0,008
-306,095	-129,137	-0,048	-0,005
-305,080	-200,000	0,006	0,094
-304,066	-136,223	-0,139	-0,011
-303,051	-46,253	-0,084	0,029
-302,037	110,755	-0,043	-0,037
-301,022	800,000	-0,027	-0,071
-300,008	-200,000	0,012	0,074
-298,993	486,663	0,048	0,079
-297,978	-200,000	0,008	-0,080
-296,964	-200,000	-0,014	0,122
-295,949	-200,000	-0,031	-0,158
-294,935	-133,247	-0,063	0,006
-293,920	432,062	0,012	-0,019
-292,905	-16,471	0,130	0,059
-291,891	-200,000	-0,011	0,055
-290,876	-200,000	0,024	-0,186
-289,862	-167,829	-0,023	-0,001
-288,847	328,547	-0,023	-0,032
-287,832	279,297	0,054	0,069
-286,818	-200,000	-0,007	0,161
-285,803	-200,000	-0,034	0,127
-284,789	-200,000	-0,003	0,014
-283,774	800,000	0,038	0,099
-282,759	-90,953	-0,038	-0,008
-281,745	359,345	-0,023	0,033
-280,730	12,246	0,099	-0,054
-279,716	353,127	0,064	-0,091
-278,701	-59,166	0,058	0,018
-277,686	-200,000	0,005	0,144
-276,672	553,968	0,069	0,119
-275,657	-200,000	0,017	0,054
-274,643	800,000	0,042	0,096
-273,628	-200,000	-0,012	-0,100
-272,613	13,494	-0,123	-0,068
-271,599	85,803	0,082	-0,064
-270,584	800,000	0,052	0,128
-269,570	-200,000	0,011	0,092
-268,555	-97,678	-0,142	-0,026
-267,540	627,073	-0,048	0,087
-266,526	8,714	-0,045	-0,024
-265,511	-200,000	-0,034	0,186
-264,497	35,192	0,075	-0,047
-263,482	-200,000	-0,002	0,015
-262,467	85,998	0,095	-0,075
-261,453	201,285	0,019	0,021
-260,438	-200,000	-0,009	-0,054
-259,424	134,058	0,162	0,150
-258,409	18,912	-0,214	0,122
-257,395	-200,000	-0,001	0,062
-256,380	489,215	0,046	0,075
-255,365	800,000	-0,044	0,116
-254,351	294,172	-0,042	-0,055
-253,336	10,659	0,008	0,004
-252,322	-200,000	-0,037	0,126
-251,307	595,642	0,047	-0,084
-250,292	-200,000	-0,013	0,073
-249,278	-73,630	-0,068	0,017
-248,263	-34,969	0,189	0,074
-247,249	-150,356	0,096	0,005
-246,234	-2,574	-0,078	-0,039
-245,219	66,448	0,069	0,050
-244,205	327,657	-0,050	-0,068
-243,190	76,448	-0,134	-0,102
-242,176	135,747	0,189	0,176
-241,161	-41,144	0,075	-0,027
-240,146	-54,811	-0,028	0,009
-239,132	-200,000	-0,003	-0,053
-238,117	800,000	-0,070	-0,164
-237,103	800,000	0,064	-0,147
-236,088	352,459	-0,103	-0,146
-235,073	-58,320	0,108	0,033
-234,059	-38,629	0,127	0,048
-233,044	800,000	-0,049	0,113
-232,030	-170,923	-0,076	0,002
-231,015	89,526	-0,011	-0,009
-230,000	236,372	-0,069	-0,082
-228,986	724,577	-0,063	0,120
-227,971	42,091	0,083	0,054
-226,957	-76,306	-0,030	0,007
-225,942	-8,291	0,110	0,053
-224,927	800,000	0,038	0,082
-223,913	2,977	-0,095	-0,049
-222,898	-135,121	-0,048	0,004
-221,884	800,000	-0,051	-0,139
-220,869	800,000	0,040	0,114
-219,855	58,629	-0,075	0,052
-218,840	97,590	0,160	0,131
-217,825	-165,865	-0,066	-0,002
-216,811	381,780	0,070	-0,103
-215,796	-126,053	-0,085	-0,009
-214,782	54,959	0,098	0,068
-213,767	21,069	0,171	-0,099
-212,752	-24,136	0,080	-0,034
-211,738	356,853	-0,052	0,074
-210,723	800,000	-0,060	0,129
-209,709	-200,000	-0,008	-0,045
-208,694	-200,000	-0,004	-0,134
-207,679	-200,000	-0,030	0,099
-206,665	651,603	0,020	0,036
-205,650	-101,768	-0,061	0,010
-204,636	-200,000	0,024	0,091
-203,621	-200,000	0,017	0,061
-202,606	240,357	-0,045	-0,054
-201,592	-49,440	0,117	-0,040
-200,577	-72,645	0,050	0,013
-199,563	57,828	-0,086	0,060
-198,548	216,989	0,036	0,041
-197,533	-200,000	0,014	0,071
-196,519	800,000	0,026	-0,058
-195,504	-175,687	-0,205	0,004
-194,490	-76,001	-0,044	0,011
-193,475	-200,000	-0,026	-0,085
-192,460	325,642	-0,022	-0,030
-191,446	378,224	0,096	0,141
-190,431	258,296	-0,014	0,018
-189,417	800,000	-0,041	0,084
-188,402	-200,000	0,024	0,087
-187,387	54,093	-0,091	-0,062
-186,373	88,786	-0,140	-0,111
-185,358	-113,362	0,021	0,003
-184,344	-103,044	-0,019	0,003
-183,329	46,711	0,062	0,041
-182,315	-147,598	0,049	0,003
-181,300	-139,927	0,130	0,010
-180,285	-94,615	-0,138	0,026
-179,271	109,347	-0,090	-0,077
-178,256	101,325	-0,090	0,075
-177,242	-144,393	0,059	0,004
-176,227	-200,000	0,009	-0,029
-175,212	75,049	-0,043	-0,032
-174,198	216,354	0,064	0,072
-173,183	800,000	-0,059	-0,158
-172,169	82,497	-0,041	0,031
-171,154	-200,000	-0,040	-0,181
-170,139	38,784	0,031	0,020
-169,125	800,000	-0,028	-0,060
-168,110	681,994	-0,057	0,106
-167,096	263,133	-0,058	0,072
-166,081	298,510	-0,030	-0,039
-165,066	-64,741	0,053	0,015
-164,052	53,108	-0,070	0,047
-163,037	570,777	-0,079	-0,137
-162,023	-200,000	-0,005	-0,085
-161,008	157,727	-0,024	-0,024
-159,993	-200,000	-0,004	-0,058
-158,979	-116,807	0,145	-0,019
-157,964	-200,000	0,024	-0,094
-156,950	473,918	-0,020	-0,032
-155,935	-200,000	-0,003	-0,041
-154,920	-5,205	0,109	-0,053
-153,906	-13,511	0,084	-0,038
-152,891	-154,200	-0,085	-0,004
-151,877	180,084	0,045	-0,047
-150,862	-141,952	-0,085	-0,006
-149,847	-31,723	0,200	-0,079
-148,833	301,953	-0,067	-0,088
-147,818	249,064	0,049	-0,059
-146,804	-82,337	0,103	-0,024
-145,789	-200,000	0,017	-0,073
-144,775	-16,687	0,080	-0,036
-143,760	104,649	-0,152	-0,128
-142,745	800,000	-0,052	-0,106
-141,731	-200,000	-0,014	-0,065
-140,716	541,804	0,045	0,076
-139,702	800,000	0,029	0,091
-138,687	2,692	-0,075	0,039
-137,672	61,048	-0,111	-0,079
-136,658	800,000	0,069	-0,151
-135,643	42,637	-0,142	-0,092
-134,629	339,543	0,029	0,041
-133,614	-200,000	-0,002	0,043
-132,599	207,204	0,051	0,056
-131,585	96,981	-0,087	0,071
-130,570	-200,000	-0,000	0,072
-129,556	-144,430	0,131	-0,009
-128,541	-200,000	-0,028	0,125
-127,526	267,094	0,068	0,085
-126,512	-200,000	-0,023	0,116
-125,497	-165,703	0,068	-0,002
-124,483	34,970	0,045	0,028
-123,468	286,226	-0,080	0,102
-122,453	17,356	-0,132	-0,074
-121,439	580,186	0,051	-0,090
-120,424	-200,000	0,009	0,076
-119,410	-200,000	-0,003	0,058
-118,395	176,613	0,105	0,109
