DTS Sentinel unit serial number:	SN410029Multiplexer serial number:	ORYXHardware model number:	OX2-SRSoftware version number:	ORYX F/W v4,00 Oryx Data Collector v3.7.2.0data status	okinstallation	BH3 CH2differential loss correction	single-endedforward channel	channel 2reverse channel	N/Adate	2023/12/05time	16:02:28forward acquisition time	300,00reverse acquisition time	0,00gamma	499,1914k internal	0,3192k external	0,3192temperature offset calibration	1,0000default loss term (dB/km)	0,3820temperature slope calibration	1,0000multiplexer offset coefficient	1,0000multiplexer slope coefficient	1,0000fibre end	0,00T internal ref (°C)	11,07T ext. ref 1 (°C)	-3,31T ext. ref 2 (°C)	-3,51length (m)	temperature (°C)	Stokes	anti-Stokes-744,400	-200,000	-0,030	-0,158
-743,385	260,717	-0,102	0,130
-742,371	-200,000	0,004	-0,041
-741,356	-200,000	-0,078	0,251
-740,342	-200,000	0,000	-0,130
-739,327	-145,561	-0,326	0,021
-738,312	86,806	-0,103	-0,083
-737,298	449,180	-0,124	0,200
-736,283	201,497	-0,161	-0,182
-735,269	341,895	-0,179	0,255
-734,254	-200,000	-0,002	-0,097
-733,239	-63,194	-0,308	-0,092
-732,225	-200,000	0,017	-0,082
-731,210	-123,644	0,110	-0,013
-730,196	-192,272	0,092	0,001
-729,181	-96,757	-0,126	0,024
-728,167	-61,515	0,106	0,032
-727,152	130,293	-0,079	0,074
-726,137	800,000	0,007	-0,020
-725,123	20,435	-0,101	-0,059
-724,108	128,998	-0,017	-0,015
-723,094	-69,542	-0,086	-0,024
-722,079	800,000	-0,019	-0,055
-721,064	-106,482	-0,036	0,006
-720,050	-200,000	0,020	-0,074
-719,035	210,797	-0,040	-0,046
-718,021	302,436	-0,060	0,081
-717,006	-35,232	-0,144	-0,057
-715,991	147,675	-0,023	-0,023
-714,977	439,829	0,043	-0,069
-713,962	-143,471	0,131	-0,009
-712,948	-200,000	-0,015	0,085
-711,933	800,000	-0,012	-0,033
-710,918	347,235	0,012	-0,018
-709,904	-200,000	0,014	0,055
-708,889	-200,000	0,000	-0,043
-707,875	-200,000	-0,021	-0,073
-706,860	107,151	-0,066	-0,057
-705,845	-10,112	0,118	-0,057
-704,831	800,000	-0,025	0,057
-703,816	27,812	-0,018	-0,011
-702,802	-76,247	0,065	0,017
-701,787	-171,178	-0,116	0,003
-700,772	-8,805	0,208	0,101
-699,758	-0,389	-0,068	-0,035
-698,743	-75,689	0,050	-0,013
-697,729	800,000	-0,022	0,049
-696,714	-200,000	-0,024	-0,107
-695,699	206,719	-0,064	-0,072
-694,685	800,000	-0,048	-0,120
-693,670	394,658	0,083	-0,127
-692,656	-87,901	0,137	0,030
-691,641	800,000	-0,041	0,118
-690,627	137,563	0,079	-0,076
-689,612	-9,072	-0,127	0,062
-688,597	-62,599	-0,025	-0,008
-687,583	-130,292	0,032	-0,003
-686,568	-48,503	-0,095	0,033
-685,554	-200,000	-0,010	0,040
-684,539	-138,473	-0,053	0,004
-683,524	800,000	-0,060	0,152
-682,510	-109,697	0,114	0,017
-681,495	800,000	-0,046	0,099
-680,481	-200,000	0,002	-0,145
-679,466	800,000	0,040	-0,091
-678,451	71,792	0,122	-0,092
-677,437	800,000	-0,053	0,128
-676,422	121,238	0,020	-0,018
-675,408	-200,000	0,006	0,047
-674,393	-200,000	-0,019	0,082
-673,378	-200,000	0,001	0,030
-672,364	331,515	-0,064	-0,090
-671,349	-200,000	-0,003	0,065
-670,335	-79,156	-0,044	0,011
-669,320	33,648	0,214	0,135
-668,305	-200,000	-0,029	0,146
-667,291	-200,000	-0,016	0,053
-666,276	440,588	-0,079	0,126
-665,262	357,103	0,074	0,108
-664,247	711,452	-0,072	-0,138
-663,232	800,000	-0,038	-0,110
-662,218	-36,285	-0,085	-0,033
-661,203	-63,742	0,067	-0,020
-660,189	800,000	0,044	0,107
-659,174	655,886	-0,057	-0,107
-658,159	-200,000	0,004	0,037
-657,145	74,887	0,090	0,069
-656,130	109,038	0,114	-0,099
-655,116	-139,036	-0,055	0,004
-654,101	262,826	0,172	0,218
-653,086	546,605	0,048	0,084
-652,072	-200,000	-0,001	-0,042
-651,057	800,000	0,091	-0,229
-650,043	-200,000	-0,020	-0,067
-649,028	65,257	0,150	-0,110
-648,014	144,964	-0,044	-0,043
-646,999	-200,000	-0,018	0,074
-645,984	500,170	0,046	0,077
-644,970	-9,626	-0,103	-0,050
-643,955	-200,000	0,037	-0,122
-642,941	255,696	-0,070	-0,087
-641,926	557,966	-0,031	-0,054
-640,911	230,600	0,028	-0,033
-639,897	-200,000	0,051	0,215
-638,882	311,596	-0,030	-0,040
-637,868	13,668	-0,064	0,036
-636,853	77,029	0,139	-0,107
-635,838	-200,000	-0,021	-0,076
-634,824	-200,000	-0,021	-0,075
-633,809	172,229	0,017	0,018
-632,795	2,143	0,081	-0,043
-631,780	-130,767	-0,132	-0,013
-630,765	-91,519	0,101	0,021
-629,751	-108,243	-0,117	-0,018
-628,736	439,538	-0,100	-0,160
-627,722	-0,727	-0,017	0,008
-626,707	18,691	0,055	0,032
-625,692	-73,242	0,108	0,029
-624,678	389,359	0,060	0,091
-623,663	224,024	-0,072	0,085
-622,649	-200,000	-0,012	-0,087
-621,634	-91,843	-0,078	-0,016
-620,619	-200,000	-0,025	0,104
-619,605	738,154	0,048	-0,094
-618,590	-200,000	0,022	0,085
-617,576	800,000	0,030	0,082
-616,561	-30,990	0,080	0,033
-615,546	231,695	0,018	-0,022
-614,532	231,627	-0,091	-0,109
-613,517	-145,015	-0,066	-0,004
-612,503	58,625	0,086	0,061
-611,488	281,473	-0,004	0,005
-610,474	-106,426	-0,045	-0,007
-609,459	27,964	-0,065	-0,040
-608,444	-200,000	0,003	-0,022
-607,430	-200,000	-0,019	-0,093
-606,415	-2,247	0,079	-0,040
-605,401	-60,157	-0,072	-0,022
-604,386	-200,000	0,019	0,085
-603,371	149,715	-0,062	0,061
-602,357	800,000	-0,018	0,056
-601,342	149,296	-0,112	-0,110
-600,328	156,145	-0,136	-0,137
-599,313	-113,268	0,036	0,005
-598,298	190,042	-0,084	0,091
-597,284	277,929	-0,024	0,031
-596,269	800,000	-0,053	0,112
-595,255	800,000	-0,034	0,104
-594,240	-200,000	-0,000	0,004
-593,225	-200,000	-0,005	-0,110
-592,211	360,638	-0,125	-0,182
-591,196	666,484	-0,017	0,031
-590,182	205,521	-0,051	-0,057
-589,167	-200,000	-0,005	0,098
-588,152	751,512	0,039	0,076
-587,138	140,182	0,041	0,040
-586,123	-200,000	-0,008	-0,078
-585,109	120,872	-0,081	-0,073
-584,094	294,618	-0,090	-0,119
-583,079	-200,000	0,016	0,081
-582,065	94,759	-0,136	-0,112
-581,050	23,732	0,125	0,074
-580,036	-200,000	0,026	0,123
-579,021	294,944	-0,099	-0,132
-578,006	-200,000	-0,006	0,034
-576,992	800,000	0,067	0,140
-575,977	800,000	0,024	-0,056
-574,963	436,041	-0,049	-0,077
-573,948	120,868	-0,062	-0,056
-572,934	404,074	0,046	-0,070
-571,919	800,000	-0,056	-0,145
-570,904	-200,000	-0,016	0,115
-569,890	104,151	0,008	-0,007
-568,875	800,000	0,021	-0,066
-567,861	34,561	0,080	0,051
-566,846	-178,058	-0,151	0,003
-565,831	-124,541	-0,106	0,012
-564,817	14,824	0,065	-0,037
-563,802	-200,000	0,003	0,032
-562,788	800,000	0,056	-0,119
-561,773	649,852	-0,045	-0,084
-560,758	234,457	0,055	-0,066
-559,744	317,865	0,025	0,035
-558,729	-73,784	0,079	-0,021
-557,715	800,000	0,024	0,056
-556,700	800,000	-0,038	-0,097
-555,685	-89,320	0,100	-0,021
-554,671	162,202	-0,054	-0,055
-553,656	800,000	-0,038	0,110
-552,642	36,767	-0,094	-0,060
-551,627	183,373	-0,033	0,035
-550,612	800,000	-0,019	-0,060
-549,598	-200,000	-0,014	-0,054
-548,583	606,103	-0,052	-0,094
-547,569	232,595	-0,026	-0,031
-546,554	800,000	-0,030	0,068
-545,539	647,126	0,061	0,113
-544,525	205,143	0,063	-0,070
-543,510	-200,000	0,018	-0,077
-542,496	66,523	-0,133	0,098
-541,481	800,000	-0,040	0,120
-540,466	-173,330	-0,057	0,001
-539,452	8,552	0,015	-0,008
-538,437	-200,000	-0,018	0,085
-537,423	-200,000	-0,010	-0,062
-536,408	5,198	-0,125	0,067
-535,393	-200,000	0,022	-0,076
-534,379	800,000	0,016	-0,039
-533,364	292,056	0,042	-0,055
-532,350	-117,908	0,186	-0,024
-531,335	-167,781	0,101	-0,003
-530,321	294,878	0,041	0,054
-529,306	-144,484	-0,092	-0,006
-528,291	-200,000	0,030	-0,106
-527,277	241,172	-0,030	0,036
-526,262	-92,223	-0,165	0,033
-525,248	207,008	0,094	-0,106
-524,233	-200,000	0,008	0,114
-523,218	800,000	-0,060	0,150
-522,204	-200,000	0,000	0,030
-521,189	-200,000	0,008	0,061
-520,175	800,000	-0,024	-0,067
-519,160	-200,000	0,007	-0,028
-518,145	-44,400	0,102	-0,037
-517,131	-200,000	0,023	0,145
-516,116	6,772	0,071	0,038
-515,102	271,166	-0,032	0,041
-514,087	372,711	-0,005	-0,007
-513,072	160,329	0,053	-0,054
-512,058	-41,613	-0,042	0,016
-511,043	-153,631	0,040	-0,002
-510,029	341,668	0,090	0,127
-509,014	-156,176	0,159	0,007
-507,999	-140,632	-0,059	0,004
-506,985	134,648	-0,043	-0,041
-505,970	4,928	-0,080	-0,042
-504,956	456,278	0,065	0,104
-503,941	-200,000	-0,007	0,056
-502,926	560,529	0,094	0,164
-501,912	-78,410	-0,118	-0,029
-500,897	483,549	0,057	-0,094
-499,883	273,246	-0,108	-0,138
-498,868	800,000	-0,080	-0,160
-497,853	-151,081	0,058	-0,003
-496,839	-88,114	-0,069	-0,015
-495,824	-200,000	0,007	-0,107
-494,810	450,731	0,120	0,191
-493,795	307,958	0,043	0,058
-492,781	-88,268	0,051	-0,011
-491,766	-52,790	-0,047	-0,016
-490,751	800,000	-0,064	-0,142
-489,737	394,943	0,055	0,084
-488,722	-81,523	0,058	-0,014
-487,708	612,476	0,015	0,027
-486,693	94,305	0,078	-0,064
-485,678	800,000	0,056	-0,138
-484,664	-49,597	-0,080	-0,027
-483,649	48,516	0,057	-0,038
-482,635	-104,007	0,146	0,024
-481,620	417,169	0,052	0,080
-480,605	-200,000	-0,010	0,071
-479,591	-76,187	-0,028	0,007
-478,576	200,252	0,086	0,096
-477,562	16,322	-0,043	-0,024
-476,547	351,533	0,051	0,073
-475,532	227,410	0,069	-0,081
-474,518	-19,848	-0,053	-0,023
-473,503	-35,984	0,143	-0,055
-472,489	-200,000	-0,030	-0,122
-471,474	394,100	0,083	-0,125
-470,459	-37,232	-0,132	0,051
-469,445	576,911	-0,030	-0,054
-468,430	490,077	-0,043	-0,072
-467,416	-200,000	-0,022	0,080
-466,401	800,000	0,031	0,082
-465,386	-200,000	-0,049	-0,162
-464,372	-133,128	0,112	-0,010
-463,357	-49,529	-0,036	0,012
-462,343	81,401	-0,064	0,050
-461,328	-146,181	0,073	0,005
-460,313	-55,417	-0,040	0,013
-459,299	33,434	0,096	-0,060
-458,284	-104,491	0,070	-0,012
-457,270	800,000	-0,022	0,062
-456,255	206,363	0,056	-0,063
-455,241	800,000	-0,016	0,036
-454,226	-200,000	0,005	0,026
-453,211	120,176	0,078	-0,069
-452,197	-104,682	0,150	0,025
-451,182	23,803	0,116	0,069
-450,168	-97,404	-0,038	-0,007
-449,153	348,498	-0,033	-0,047
-448,138	-71,787	0,016	0,004
-447,124	271,788	0,039	0,050
-446,109	320,313	-0,073	0,100
-445,095	624,093	0,033	0,059
-444,080	800,000	-0,060	0,125
-443,065	800,000	0,024	0,070
-442,051	-200,000	-0,009	0,049
-441,036	-200,000	-0,006	0,080
-440,022	-91,154	-0,074	0,015
-439,007	800,000	0,014	0,037
-437,992	-200,000	0,003	-0,036
-436,978	-58,171	0,117	-0,037
-435,963	46,914	-0,087	0,058
-434,949	752,238	0,048	0,093
-433,934	-23,812	-0,111	-0,048
-432,919	739,527	0,043	0,084
-431,905	-200,000	-0,002	-0,025
-430,890	139,338	0,093	0,089
-429,876	37,942	-0,029	-0,019
-428,861	800,000	0,013	0,033
-427,846	600,139	-0,040	0,072
-426,832	176,764	-0,064	-0,067
-425,817	99,289	0,082	-0,068
-424,803	-39,875	-0,037	0,014
-423,788	-28,871	-0,099	-0,041
-422,773	-54,841	0,045	0,015
-421,759	-35,671	0,063	0,024
-420,744	96,245	-0,132	-0,109
-419,730	-106,296	-0,139	0,022
-418,715	62,956	0,069	-0,050
-417,701	193,421	-0,055	-0,060
-416,686	-200,000	0,011	0,073
-415,671	233,003	-0,051	-0,061
-414,657	-128,970	0,111	-0,011
-413,642	800,000	-0,043	-0,112
-412,628	175,964	-0,072	0,075
-411,613	-200,000	-0,032	-0,160
-410,598	-200,000	-0,008	0,082
-409,584	336,357	0,053	-0,074
-408,569	144,651	-0,038	0,037
-407,555	117,364	0,076	-0,067
-406,540	800,000	-0,034	-0,108
-405,525	800,000	-0,042	-0,097
-404,511	-200,000	-0,014	-0,110
-403,496	800,000	-0,067	0,136
-402,482	218,572	-0,033	-0,038
-401,467	66,107	0,069	-0,051
-400,452	156,836	0,055	-0,055
-399,438	591,526	0,056	0,100
-398,423	31,954	-0,084	-0,052
-397,409	393,110	-0,075	-0,113
-396,394	102,790	-0,059	-0,050
-395,379	187,926	-0,048	0,052
-394,365	-200,000	0,029	0,105
-393,350	8,179	0,210	0,113
-392,336	244,554	-0,055	0,067
-391,321	403,825	-0,051	0,078
-390,306	97,300	0,018	-0,015
-389,292	-16,817	-0,076	0,035
-388,277	-200,000	0,016	-0,129
-387,263	647,057	0,054	-0,099
-386,248	135,861	0,106	0,099
-385,233	644,820	0,046	0,084
-384,219	-200,000	0,015	-0,101
-383,204	22,994	-0,076	-0,045
-382,190	685,181	-0,060	-0,113
-381,175	-97,607	-0,046	0,009
-380,160	-200,000	0,013	-0,116
-379,146	0,628	0,122	-0,063
-378,131	1,746	-0,049	0,025
-377,117	-39,819	-0,044	0,016
-376,102	-200,000	-0,029	-0,102
-375,088	-200,000	-0,004	-0,055
-374,073	-200,000	0,018	-0,102
-373,058	-200,000	-0,034	0,139
-372,044	-35,673	0,158	0,061
-371,029	31,612	-0,040	-0,025
-370,015	-142,463	0,052	0,004
-369,000	-200,000	-0,012	-0,083
-367,985	-98,918	0,073	0,013
-366,971	25,099	-0,107	0,064
-365,956	-200,000	0,011	-0,105
-364,942	-200,000	-0,002	0,058
-363,927	-134,525	-0,080	0,007
-362,912	314,631	-0,030	0,041
-361,898	800,000	-0,007	0,018
-360,883	-184,782	-0,084	0,001
-359,869	-200,000	0,008	0,106
-358,854	205,918	-0,059	0,066
-357,839	-18,295	0,105	0,047
-356,825	-200,000	-0,010	-0,032
-355,810	-58,220	0,149	0,046
-354,796	-200,000	0,006	0,063
-353,781	-124,084	-0,122	0,014
-352,766	617,470	0,085	-0,153
-351,752	-200,000	-0,012	0,113
-350,737	-93,319	0,063	0,012
-349,723	-200,000	0,020	0,088
-348,708	-95,005	0,023	0,005
-347,693	-131,623	0,141	0,013
-346,679	49,403	-0,113	-0,076
-345,664	146,688	-0,017	-0,016
-344,650	-17,849	0,117	0,053
-343,635	337,689	0,025	-0,035
-342,620	-36,674	0,112	-0,043
-341,606	-200,000	0,009	0,042
-340,591	529,198	0,030	-0,051
-339,577	-90,948	-0,092	-0,019
-338,562	67,911	-0,091	0,067
-337,548	-200,000	-0,003	-0,044
-336,533	56,785	-0,117	-0,082
-335,518	-35,742	0,123	0,048
-334,504	187,461	0,111	0,119
-333,489	52,610	0,085	0,058
-332,475	-44,043	0,089	0,032
-331,460	-200,000	0,000	-0,051
-330,445	-200,000	0,023	-0,145
-329,431	119,047	0,042	-0,037
-328,416	-200,000	0,001	0,042
-327,402	-107,427	0,061	-0,009
-326,387	122,425	-0,081	-0,073
-325,372	72,329	0,083	0,062
-324,358	400,773	-0,023	-0,035
-323,343	146,642	-0,056	0,054
-322,329	-143,034	0,127	-0,009
-321,314	-200,000	0,020	0,065
-320,299	-158,794	0,079	-0,003
-319,285	-200,000	-0,036	0,164
-318,270	-63,738	-0,101	0,029
-317,256	-85,451	0,127	0,028
-316,241	169,679	0,024	0,025
-315,226	-200,000	0,014	-0,098
-314,212	3,873	0,052	0,027
-313,197	-121,491	0,034	-0,004
-312,183	800,000	0,027	0,058
-311,168	-94,130	-0,028	0,005
-310,153	453,841	0,025	0,039
-309,139	95,110	0,051	-0,042
-308,124	-200,000	0,003	-0,036
-307,110	298,186	-0,069	0,091
-306,095	-16,837	0,109	-0,049
-305,080	297,834	0,034	0,045
-304,066	86,691	0,067	-0,053
-303,051	-28,548	-0,035	-0,014
-302,037	-25,204	-0,037	-0,016
-301,022	3,096	-0,030	0,016
-300,008	131,006	-0,039	-0,036
-298,993	-39,805	0,110	-0,041
-297,978	684,526	0,055	0,104
-296,964	183,476	0,031	0,033
-295,949	-200,000	-0,003	-0,069
-294,935	-200,000	0,020	-0,153
-293,920	71,406	0,065	0,048
-292,905	112,116	0,099	0,086
-291,891	95,173	-0,039	0,032
-290,876	-200,000	0,037	0,160
-289,862	-40,889	0,026	0,009
-288,847	-200,000	-0,014	-0,082
-287,832	800,000	0,042	-0,122
-286,818	-64,566	-0,021	-0,006
-285,803	800,000	-0,043	0,110
-284,789	148,591	0,033	0,032
-283,774	800,000	-0,013	0,037
-282,759	24,002	-0,075	-0,044
-281,745	-200,000	0,004	-0,051
-280,730	48,323	-0,048	0,032
-279,716	-38,259	0,128	-0,048
-278,701	354,813	-0,070	0,099
-277,686	112,437	0,023	0,020
-276,672	545,007	-0,048	0,082
-275,657	-200,000	0,031	0,131
-274,643	-19,176	-0,104	0,046
-273,628	-200,000	-0,004	-0,104
-272,613	-200,000	0,007	-0,052
-271,599	800,000	0,060	0,172
-270,584	-200,000	-0,025	0,104
-269,570	-77,111	0,151	-0,037
-268,555	273,990	0,040	-0,051
-267,540	62,454	0,047	0,034
-266,526	129,459	0,101	0,092
-265,511	-42,650	-0,191	0,069
-264,497	112,557	0,031	-0,027
-263,482	139,325	0,130	-0,122
-262,467	-200,000	-0,033	0,108
-261,453	455,863	0,018	0,029
-260,438	-31,438	-0,149	-0,060
-259,424	220,938	-0,044	0,051
-258,409	-10,480	-0,058	-0,027
-257,395	-200,000	-0,001	-0,108
-256,380	-16,251	0,060	-0,027
-255,365	-152,515	0,145	0,007
-254,351	-124,325	-0,114	0,013
-253,336	-55,217	-0,027	-0,009
-252,322	-88,941	-0,126	0,026
-251,307	800,000	-0,005	-0,012
-250,292	-200,000	0,029	0,096
-249,278	449,345	0,032	-0,051
-248,263	-109,422	-0,059	-0,009
-247,249	209,163	0,018	-0,020
-246,234	777,721	0,044	-0,086
-245,219	433,339	0,076	-0,119
-244,205	79,734	-0,099	-0,076
-243,190	-174,680	-0,110	-0,002
-242,176	136,361	-0,044	-0,041
-241,161	-200,000	-0,035	0,122
-240,146	230,418	-0,012	-0,015
-239,132	-200,000	-0,017	-0,076
-238,117	-56,955	-0,071	0,022
-237,103	66,728	-0,100	0,073
-236,088	300,700	-0,011	0,014
-235,073	465,211	0,057	0,091
-234,059	191,814	0,031	-0,033
-233,044	800,000	-0,029	0,083
-232,030	68,231	-0,079	0,058
-231,015	-122,677	-0,105	0,012
-230,000	-152,507	0,053	-0,003
-228,986	236,570	-0,012	-0,014
-227,971	-73,264	-0,024	-0,006
-226,957	-130,773	0,130	0,012
-225,942	-200,000	0,010	0,093
-224,927	-200,000	0,008	-0,041
-223,913	-62,286	0,117	0,034
-222,898	-200,000	-0,005	0,144
-221,884	-17,891	0,084	0,037
-220,869	641,084	-0,019	-0,034
-219,855	800,000	0,070	0,158
-218,840	-200,000	0,006	0,052
-217,825	389,460	0,052	0,078
-216,811	-11,231	-0,060	0,028
-215,796	-200,000	-0,007	-0,073
-214,782	-61,884	0,051	0,015
-213,767	-24,366	0,097	-0,041
-212,752	-200,000	0,013	-0,209
-211,738	375,163	0,074	0,108
-210,723	495,636	0,048	0,078
-209,709	284,904	-0,083	-0,107
-208,694	144,240	-0,053	-0,051
-207,679	521,805	-0,056	0,094
-206,665	-123,827	0,071	0,008
-205,650	60,484	0,013	0,009
-204,636	-98,589	-0,091	-0,016
-203,621	109,912	-0,097	-0,083
-202,606	2,187	-0,197	-0,101
-201,592	-200,000	-0,003	0,017
-200,577	15,593	-0,022	0,012
-199,563	248,767	0,008	0,010
-198,548	-200,000	-0,018	0,074
-197,533	58,067	-0,008	-0,006
-196,519	263,075	-0,065	-0,080
-195,504	-200,000	-0,051	-0,200
-194,490	370,713	-0,076	0,111
-193,475	133,691	0,072	-0,066
-192,460	609,239	0,092	0,165
-191,446	365,473	-0,064	0,092
-190,431	315,052	0,183	0,247
-189,417	800,000	-0,065	-0,174
-188,402	-200,000	-0,040	-0,136
-187,387	-40,095	-0,059	-0,022
-186,373	-200,000	0,019	-0,083
-185,358	-200,000	0,015	0,074
-184,344	-200,000	0,015	0,066
-183,329	-94,556	0,026	0,005
-182,315	83,478	-0,043	0,033
-181,300	-200,000	-0,028	-0,089
-180,285	-27,604	-0,056	0,023
-179,271	312,397	0,022	0,029
-178,256	-95,163	0,056	0,011
-177,242	-200,000	-0,067	-0,225
-176,227	183,011	-0,016	-0,017
-175,212	53,037	-0,025	0,017
-174,198	-200,000	0,016	0,114
-173,183	720,109	-0,033	-0,063
-172,169	268,071	-0,053	-0,066
-171,154	-70,849	0,123	-0,033
-170,139	349,794	0,037	0,053
-169,125	393,250	-0,103	0,153
-168,110	-200,000	-0,006	0,025
-167,096	64,401	0,172	0,124
-166,081	1,703	-0,056	0,029
-165,066	491,107	-0,065	-0,107
-164,052	-126,950	0,059	0,006
-163,037	-93,757	-0,028	0,005
-162,023	800,000	-0,048	-0,120
-161,008	381,752	-0,048	0,070
-159,993	60,645	-0,125	0,089
-158,979	370,832	-0,041	-0,060
-157,964	-200,000	-0,026	0,094
-156,950	43,027	-0,046	0,030
-155,935	378,597	-0,067	-0,097
-154,920	198,902	0,059	-0,064
-153,906	-24,783	-0,092	-0,039
-152,891	-200,000	-0,031	0,104
-151,877	64,238	0,057	-0,041
-150,862	56,118	0,130	-0,090
-149,847	-200,000	-0,012	-0,060
-148,833	-13,502	-0,070	0,032
-147,818	45,190	0,061	0,040
-146,804	-141,686	0,155	0,011
-145,789	800,000	-0,017	-0,054
-144,775	-73,089	-0,061	-0,016
-143,760	564,748	0,094	-0,163
-142,745	800,000	-0,058	0,147
-141,731	800,000	0,046	0,100
-140,716	79,192	0,056	0,043
-139,702	800,000	0,023	-0,060
-138,687	48,431	0,047	0,032
-137,672	759,240	-0,075	0,145
-136,658	-70,136	0,113	0,030
-135,643	132,317	-0,092	-0,084
-134,629	-200,000	-0,012	-0,102
-133,614	-103,569	0,110	0,018
-132,599	-200,000	-0,009	0,054
-131,585	-21,301	0,096	0,041
-130,570	-86,889	-0,095	0,020
-129,556	17,105	0,040	-0,022
-128,541	130,838	-0,110	-0,101
-127,526	-83,523	0,068	-0,015
-126,512	-39,297	0,110	0,041
-125,497	-33,961	0,116	0,045
-124,483	134,290	0,096	0,089
-123,468	153,383	0,044	0,043
-122,453	-143,214	0,035	-0,002
-121,439	-22,898	0,054	0,023
-120,424	-200,000	-0,012	-0,050
-119,410	-28,823	0,043	-0,017
