DTS Sentinel unit serial number:	SN410029Multiplexer serial number:	ORYXHardware model number:	OX2-SRSoftware version number:	ORYX F/W v4,00 Oryx Data Collector v3.7.2.0data status	okinstallation	BH3 CH2differential loss correction	single-endedforward channel	channel 2reverse channel	N/Adate	2023/12/06time	00:02:28forward acquisition time	300,00reverse acquisition time	0,00gamma	499,1914k internal	0,3195k external	0,3195temperature offset calibration	1,0000default loss term (dB/km)	0,3820temperature slope calibration	1,0000multiplexer offset coefficient	1,0000multiplexer slope coefficient	1,0000fibre end	0,00T internal ref (°C)	9,44T ext. ref 1 (°C)	-5,30T ext. ref 2 (°C)	-5,38length (m)	temperature (°C)	Stokes	anti-Stokes-744,400	785,832	0,042	-0,084
-743,385	-61,330	-0,134	-0,041
-742,371	-200,000	0,002	0,086
-741,356	-37,912	-0,283	0,109
-740,342	800,000	0,052	-0,116
-739,327	-113,703	-0,246	-0,034
-738,312	159,649	-0,070	-0,071
-737,298	154,941	-0,103	0,104
-736,283	800,000	0,027	-0,060
-735,269	-56,310	-0,304	0,098
-734,254	-200,000	-0,053	-0,275
-733,239	-132,426	-0,376	-0,035
-732,225	-200,000	0,071	-0,239
-731,210	800,000	0,029	-0,077
-730,196	-200,000	0,001	-0,043
-729,181	239,862	-0,079	-0,096
-728,167	531,998	-0,025	0,043
-727,152	161,063	0,083	0,085
-726,137	37,813	-0,165	-0,106
-725,123	317,263	-0,062	-0,085
-724,108	-200,000	-0,014	-0,046
-723,094	-42,083	-0,079	-0,029
-722,079	-200,000	-0,028	0,098
-721,064	-167,851	-0,148	0,004
-720,050	800,000	-0,022	0,046
-719,035	-3,166	-0,134	0,068
-718,021	800,000	-0,060	0,136
-717,006	124,532	-0,064	-0,059
-715,991	253,064	-0,082	-0,102
-714,977	800,000	0,019	0,048
-713,962	-200,000	-0,044	-0,197
-712,948	99,394	-0,094	-0,079
-711,933	-70,834	0,049	0,013
-710,918	-200,000	0,004	0,031
-709,904	126,027	-0,025	0,023
-708,889	641,667	-0,078	-0,145
-707,875	-39,575	0,049	-0,018
-706,860	311,867	0,043	0,059
-705,845	173,751	-0,073	0,076
-704,831	-200,000	0,010	0,132
-703,816	82,890	0,043	0,034
-702,802	-200,000	0,015	-0,051
-701,787	168,375	0,045	0,047
-700,772	800,000	-0,020	-0,047
-699,758	-200,000	-0,022	-0,070
-698,743	-200,000	-0,011	-0,088
-697,729	800,000	0,011	-0,035
-696,714	246,720	0,062	-0,076
-695,699	90,870	0,037	0,030
-694,685	269,615	-0,085	0,109
-693,670	597,186	-0,088	-0,159
-692,656	800,000	-0,002	-0,005
-691,641	-72,247	0,100	0,027
-690,627	-200,000	-0,013	-0,106
-689,612	-200,000	-0,001	0,081
-688,597	-18,370	-0,131	0,059
-687,583	800,000	0,047	-0,097
-686,568	133,393	-0,076	-0,071
-685,554	253,706	-0,053	0,066
-684,539	-200,000	0,015	0,091
-683,524	-200,000	-0,035	0,000
-682,510	-26,594	-0,097	-0,041
-681,495	-122,486	-0,026	0,003
-680,481	35,298	0,040	0,026
-679,466	116,420	-0,068	-0,060
-678,451	-132,118	-0,077	0,007
-677,437	800,000	0,008	-0,024
-676,422	-200,000	0,033	-0,117
-675,408	-200,000	-0,002	-0,091
-674,393	800,000	-0,007	-0,015
-673,378	-65,724	-0,118	0,034
-672,364	800,000	-0,034	-0,087
-671,349	-200,000	-0,006	-0,077
-670,335	-200,000	0,043	-0,139
-669,320	240,608	0,074	0,090
-668,305	25,058	-0,071	-0,043
-667,291	744,185	-0,050	-0,098
-666,276	-93,544	0,136	0,027
-665,262	291,062	0,021	0,028
-664,247	-200,000	-0,044	-0,176
-663,232	-200,000	-0,005	-0,040
-662,218	583,566	0,072	0,130
-661,203	78,965	-0,038	-0,030
-660,189	27,707	0,074	-0,045
-659,174	-34,983	-0,079	-0,031
-658,159	-200,000	-0,012	-0,087
-657,145	800,000	-0,093	-0,194
-656,130	-12,056	0,092	0,043
-655,116	-92,313	-0,079	-0,016
-654,101	221,993	0,048	0,056
-653,086	-175,615	-0,117	0,002
-652,072	287,145	-0,057	-0,075
-651,057	10,778	-0,198	-0,110
-650,043	800,000	-0,012	-0,034
-649,028	-200,000	-0,003	0,017
-648,014	-177,079	0,082	0,001
-646,999	800,000	0,048	-0,114
-645,984	620,012	0,032	-0,058
-644,970	178,520	-0,107	0,113
-643,955	579,945	-0,071	-0,127
-642,941	800,000	0,030	-0,070
-641,926	-90,923	0,155	0,032
-640,911	335,039	-0,058	0,082
-639,897	118,839	0,044	0,039
-638,882	145,151	0,086	0,083
-637,868	147,162	0,135	0,132
-636,853	-200,000	-0,026	-0,162
-635,838	12,454	0,050	0,028
-634,824	162,346	-0,034	-0,035
-633,809	23,767	0,032	0,019
-632,795	214,473	-0,042	0,048
-631,780	-200,000	0,010	0,039
-630,765	66,035	0,045	-0,033
-629,751	415,871	0,025	0,038
-628,736	800,000	-0,079	-0,214
-627,722	-147,814	0,039	-0,002
-626,707	-116,995	-0,154	-0,020
-625,692	800,000	0,036	-0,111
-624,678	-30,583	0,122	-0,050
-623,663	800,000	-0,013	-0,032
-622,649	-200,000	0,005	-0,085
-621,634	144,255	-0,153	-0,148
-620,619	-123,040	-0,069	-0,008
-619,605	75,807	-0,060	-0,046
-618,590	800,000	0,060	0,139
-617,576	-6,801	0,064	0,032
-616,561	-28,173	-0,087	0,036
-615,546	-177,881	-0,187	-0,003
-614,532	313,166	0,018	-0,024
-613,517	-36,832	-0,084	-0,032
-612,503	236,603	-0,031	-0,038
-611,488	-200,000	-0,004	0,031
-610,474	-200,000	-0,017	0,077
-609,459	418,928	-0,065	-0,102
-608,444	119,777	0,089	0,080
-607,430	242,942	-0,075	-0,092
-606,415	243,644	-0,062	0,076
-605,401	-200,000	-0,009	-0,030
-604,386	-10,819	0,100	-0,048
-603,371	42,215	0,061	0,040
-602,357	571,178	-0,060	0,106
-601,342	-200,000	0,004	-0,026
-600,328	636,382	0,026	0,049
-599,313	58,271	0,094	-0,067
-598,298	800,000	0,036	-0,096
-597,284	85,137	-0,082	0,065
-596,269	-96,243	0,039	0,007
-595,255	-120,954	-0,038	0,005
-594,240	-72,457	-0,114	-0,030
-593,225	-74,333	-0,010	0,003
-592,211	148,257	-0,051	-0,050
-591,196	800,000	0,047	-0,098
-590,182	-56,301	-0,118	0,038
-589,167	120,759	0,060	0,054
-588,152	-200,000	-0,012	-0,056
-587,138	-9,253	-0,069	-0,033
-586,123	520,826	-0,034	-0,058
-585,109	-86,413	-0,086	-0,019
-584,094	-200,000	-0,002	-0,072
-583,079	-199,310	-0,162	0,001
-582,065	-113,671	0,052	-0,007
-581,050	-67,192	-0,060	-0,017
-580,036	-200,000	-0,026	0,091
-579,021	534,374	-0,093	-0,159
-578,006	-200,000	-0,024	-0,082
-576,992	-31,255	-0,074	-0,030
-575,977	268,491	-0,083	-0,106
-574,963	-94,617	0,131	0,026
-573,948	18,139	-0,102	0,059
-572,934	2,563	-0,129	-0,068
-571,919	-200,000	0,019	0,074
-570,904	-97,654	-0,126	0,023
-569,890	181,950	0,082	-0,087
-568,875	51,114	0,054	0,037
-567,861	115,385	-0,032	0,028
-566,846	-200,000	-0,008	0,055
-565,831	800,000	0,006	0,016
-564,817	800,000	-0,028	-0,078
-563,802	-120,448	-0,063	-0,008
-562,788	203,842	-0,078	-0,088
-561,773	800,000	0,122	-0,256
-560,758	-140,130	-0,019	-0,001
-559,744	153,679	0,044	-0,044
-558,729	-200,000	0,001	0,080
-557,715	-5,378	0,031	0,015
-556,700	529,931	0,074	0,126
-555,685	-200,000	-0,005	-0,046
-554,671	800,000	0,046	-0,128
-553,656	83,902	0,101	0,080
-552,642	-200,000	0,004	-0,056
-551,627	59,875	0,106	0,076
-550,612	-79,936	0,037	0,009
-549,598	343,989	-0,045	-0,064
-548,583	574,323	-0,011	0,019
-547,569	708,469	0,034	0,065
-546,554	599,477	0,076	0,138
-545,539	159,875	0,073	0,073
-544,525	264,990	-0,034	0,043
-543,510	208,763	0,067	0,076
-542,496	45,222	-0,161	-0,107
-541,481	-110,630	0,074	0,011
-540,466	-49,872	-0,083	0,028
-539,452	-200,000	-0,000	0,085
-538,437	-86,551	0,238	0,052
-537,423	179,636	-0,135	-0,143
-536,408	-200,000	0,016	-0,075
-535,393	2,317	0,112	-0,058
-534,379	183,943	-0,092	-0,098
-533,364	800,000	0,030	-0,093
-532,350	-200,000	0,004	-0,022
-531,335	225,858	-0,062	-0,073
-530,321	-12,009	0,041	-0,019
-529,306	-200,000	-0,003	0,017
-528,291	800,000	0,034	-0,078
-527,277	800,000	-0,021	-0,046
-526,262	129,353	0,050	0,046
-525,248	-79,588	0,057	-0,014
-524,233	-112,405	-0,127	0,018
-523,218	738,897	-0,041	0,080
-522,204	-110,478	-0,075	0,011
-521,189	-37,795	0,067	-0,026
-520,175	-95,096	-0,130	0,025
-519,160	454,689	-0,068	-0,109
-518,145	13,764	0,048	0,027
-517,131	257,172	-0,053	0,066
-516,116	-31,884	0,026	-0,011
-515,102	-19,217	0,044	0,020
-514,087	-5,531	-0,117	-0,058
-513,072	-24,050	-0,127	-0,055
-512,058	-200,000	0,001	-0,045
-511,043	31,384	-0,110	-0,068
-510,029	-200,000	0,008	0,051
-509,014	-92,188	0,273	0,055
-507,999	-50,747	-0,090	0,030
-506,985	232,092	0,102	0,121
-505,970	-200,000	-0,272	-0,000
-504,956	-200,000	0,017	-0,112
-503,941	66,252	-0,054	0,039
-502,926	175,122	0,057	-0,060
-501,912	800,000	0,062	0,191
-500,897	47,885	0,094	0,063
-499,883	135,795	-0,029	-0,027
-498,868	721,013	-0,034	-0,066
-497,853	42,709	-0,090	-0,059
-496,839	114,868	0,044	-0,038
-495,824	-125,740	0,031	0,003
-494,810	-200,000	-0,051	0,165
-493,795	800,000	0,049	0,150
-492,781	800,000	-0,048	-0,137
-491,766	12,495	-0,064	-0,036
-490,751	800,000	0,031	-0,083
-489,737	-33,115	-0,115	0,046
-488,722	-133,138	-0,013	0,001
-487,708	140,809	0,084	0,080
-486,693	-99,512	-0,061	-0,011
-485,678	-34,978	0,098	0,038
-484,664	800,000	0,016	0,039
-483,649	141,957	-0,112	-0,108
-482,635	-102,394	-0,111	0,019
-481,620	-95,969	0,062	0,012
-480,605	-200,000	0,009	0,053
-479,591	-29,322	0,096	0,039
-478,576	-81,403	-0,011	-0,003
-477,562	51,791	-0,135	-0,093
-476,547	-200,000	-0,001	-0,129
-475,532	-60,741	-0,097	-0,029
-474,518	105,666	-0,062	-0,053
-473,503	196,468	-0,056	0,062
-472,489	138,586	-0,083	0,078
-471,474	427,962	0,089	-0,139
-470,459	-200,000	0,013	-0,125
-469,445	800,000	-0,048	-0,125
-468,430	-65,975	-0,121	0,035
-467,416	185,463	0,113	-0,121
-466,401	72,241	0,040	-0,030
-465,386	178,286	-0,043	0,045
-464,372	800,000	-0,023	0,062
-463,357	800,000	-0,027	0,082
-462,343	-183,102	-0,123	-0,002
-461,328	595,125	0,057	0,103
-460,313	-191,878	-0,077	0,001
-459,299	-94,221	-0,150	0,029
-458,284	800,000	0,081	0,185
-457,270	80,409	0,061	0,047
-456,255	448,755	-0,069	-0,110
-455,241	-6,534	0,112	-0,055
-454,226	-110,094	-0,136	0,020
-453,211	389,978	0,106	-0,159
-452,197	800,000	0,048	0,132
-451,182	-8,972	-0,102	0,049
-450,168	-200,000	-0,034	-0,149
-449,153	230,273	0,053	-0,062
-448,138	-200,000	0,013	0,049
-447,124	763,292	0,038	-0,074
-446,109	681,870	0,065	0,123
-445,095	800,000	0,068	0,157
-444,080	-59,974	-0,162	0,049
-443,065	-200,000	-0,016	0,121
-442,051	-200,000	-0,015	-0,100
-441,036	-200,000	-0,026	-0,155
-440,022	101,576	-0,079	-0,066
-439,007	-178,437	0,063	0,001
-437,992	-200,000	-0,008	0,066
-436,978	-165,157	0,036	-0,001
-435,963	158,897	0,035	0,035
-434,949	237,429	0,172	0,206
-433,934	-52,882	-0,095	0,031
-432,919	-101,579	0,050	-0,009
-431,905	-200,000	0,031	0,141
-430,890	800,000	0,024	0,075
-429,876	-200,000	0,051	0,203
-428,861	7,743	0,034	-0,018
-427,846	193,604	0,043	0,047
-426,832	-200,000	-0,002	-0,060
-425,817	9,009	-0,052	0,028
-424,803	-200,000	0,005	-0,150
-423,788	-87,398	-0,138	0,030
-422,773	309,196	0,119	-0,160
-421,759	-200,000	0,017	-0,056
-420,744	800,000	-0,052	0,133
-419,730	-112,072	0,018	0,003
-418,715	-6,618	0,020	0,010
-417,701	-112,696	-0,050	-0,007
-416,686	93,432	-0,026	0,021
-415,671	-200,000	0,017	0,069
-414,657	800,000	0,013	-0,030
-413,642	-100,056	-0,094	0,017
-412,628	-58,144	-0,124	0,039
-411,613	-109,254	-0,056	-0,008
-410,598	800,000	-0,053	0,116
-409,584	-200,000	-0,008	0,055
-408,569	-50,038	0,170	0,058
-407,555	226,579	-0,067	-0,079
-406,540	-36,608	0,144	-0,055
-405,525	-70,569	-0,055	-0,015
-404,511	-65,480	0,029	-0,008
-403,496	40,266	-0,131	-0,084
-402,482	81,737	0,088	0,068
-401,467	-188,198	-0,123	-0,001
-400,452	2,638	-0,024	0,012
-399,438	223,125	0,039	-0,046
-398,423	144,643	0,077	0,074
-397,409	483,842	-0,093	0,153
-396,394	-200,000	-0,004	0,037
-395,379	800,000	-0,008	0,018
-394,365	-74,901	0,087	0,022
-393,350	27,279	0,169	0,102
-392,336	-200,000	-0,004	-0,072
-391,321	800,000	-0,039	-0,079
-390,306	-200,000	-0,004	-0,089
-389,292	482,281	0,032	-0,053
-388,277	-200,000	0,045	0,162
-387,263	284,451	-0,081	-0,105
-386,248	-108,200	0,073	-0,011
-385,233	235,776	-0,077	0,092
-384,219	313,815	0,075	-0,102
-383,204	800,000	-0,041	-0,102
-382,190	-11,634	-0,120	0,057
-381,175	-53,256	0,127	-0,041
-380,160	498,259	0,068	0,112
-379,146	186,365	-0,129	-0,138
-378,131	-144,523	-0,167	-0,011
-377,117	578,246	0,028	-0,049
-376,102	-200,000	0,014	-0,047
-375,088	70,092	0,018	0,013
-374,073	33,276	0,174	0,108
-373,058	-200,000	0,016	0,080
-372,044	0,837	0,087	-0,045
-371,029	129,449	-0,080	-0,074
-370,015	-145,239	0,169	-0,011
-369,000	248,156	-0,010	0,012
-367,985	563,625	-0,041	0,072
-366,971	27,087	0,041	-0,025
-365,956	188,328	0,044	0,047
-364,942	-101,968	-0,023	-0,004
-363,927	-143,441	0,220	0,015
-362,912	308,720	0,055	-0,074
-361,898	153,566	0,039	0,039
-360,883	260,994	0,088	0,109
-359,869	115,359	-0,080	0,070
-358,854	134,383	0,042	0,039
-357,839	-101,091	0,054	-0,009
-356,825	-200,000	0,016	-0,110
-355,810	800,000	0,024	-0,067
-354,796	-123,258	0,038	0,004
-353,781	800,000	0,055	-0,145
-352,766	199,089	0,085	-0,094
-351,752	505,300	0,050	0,084
-350,737	-200,000	-0,008	0,105
-349,723	225,427	0,084	0,098
-348,708	-42,184	-0,046	0,017
-347,693	-26,268	0,071	-0,030
-346,679	-200,000	0,018	-0,070
-345,664	-44,868	-0,107	0,038
-344,650	21,255	0,170	0,099
-343,635	181,705	-0,063	0,066
-342,620	-148,672	0,090	0,005
-341,606	-140,407	-0,127	0,009
-340,591	-114,537	0,115	0,016
-339,577	185,699	-0,089	-0,095
-338,562	-113,008	-0,032	-0,004
-337,548	-200,000	-0,007	-0,068
-336,533	-200,000	0,010	-0,095
-335,518	-200,000	0,028	0,098
-334,504	-200,000	-0,044	0,155
-333,489	-140,397	0,042	0,003
-332,475	800,000	-0,047	-0,137
-331,460	-200,000	-0,013	-0,095
-330,445	800,000	0,080	-0,177
-329,431	-200,000	0,000	0,035
-328,416	-200,000	-0,019	0,079
-327,402	-200,000	0,012	0,053
-326,387	-2,169	-0,043	0,022
-325,372	-20,359	-0,065	0,029
-324,358	-159,090	0,112	-0,004
-323,343	352,600	0,020	-0,028
-322,329	-98,544	0,112	0,020
-321,314	-200,000	-0,002	-0,048
-320,299	689,128	-0,056	-0,106
-319,285	-60,698	0,059	0,018
-318,270	-26,052	0,116	-0,049
-317,256	83,804	-0,095	-0,074
-316,241	-200,000	-0,011	-0,061
-315,226	635,784	0,048	0,087
-314,212	-200,000	-0,012	0,100
-313,197	235,534	-0,083	0,099
-312,183	800,000	0,052	-0,151
-311,168	-200,000	-0,027	-0,108
-310,153	-200,000	0,035	-0,160
-309,139	315,039	0,080	0,108
-308,124	800,000	0,079	0,178
-307,110	16,719	0,094	-0,053
-306,095	-200,000	0,003	-0,034
-305,080	14,286	0,025	-0,014
-304,066	800,000	0,031	-0,085
-303,051	494,305	0,019	0,031
-302,037	-101,561	0,137	-0,024
-301,022	-85,319	-0,066	-0,015
-300,008	-200,000	0,016	-0,183
-298,993	-32,541	0,016	0,006
-297,978	-77,972	-0,070	0,017
-296,964	47,628	-0,137	0,091
-295,949	4,970	0,059	-0,031
-294,935	-200,000	0,027	-0,110
-293,920	298,932	0,074	-0,098
-292,905	-3,236	0,046	0,023
-291,891	-113,954	-0,196	-0,027
-290,876	87,885	0,140	-0,111
-289,862	800,000	-0,011	0,027
-288,847	208,204	-0,073	0,081
-287,832	48,607	-0,018	-0,012
-286,818	-200,000	0,175	0,000
-285,803	800,000	-0,009	-0,019
-284,789	652,725	0,025	0,046
-283,774	3,303	0,079	0,041
-282,759	-131,911	-0,134	-0,012
-281,745	-82,503	-0,115	-0,027
-280,730	26,078	0,023	0,014
-279,716	280,580	-0,043	0,056
-278,701	800,000	0,040	0,121
-277,686	-81,881	0,067	0,016
-276,672	-155,737	0,035	0,002
-275,657	283,665	0,095	0,122
-274,643	134,360	-0,097	0,090
-273,628	800,000	-0,004	0,009
-272,613	270,131	0,061	0,077
-271,599	189,139	0,019	-0,020
-270,584	-34,612	0,045	-0,017
-269,570	70,164	-0,055	0,041
-268,555	-187,748	-0,123	-0,001
-267,540	156,995	-0,037	0,036
-266,526	52,783	-0,127	-0,087
-265,511	39,454	-0,036	-0,023
-264,497	-200,000	0,008	0,041
-263,482	61,710	0,073	0,052
-262,467	35,054	-0,083	0,052
-261,453	29,532	0,031	0,019
-260,438	-77,319	0,092	0,023
-259,424	800,000	-0,062	-0,134
-258,409	-200,000	-0,022	-0,171
-257,395	-200,000	-0,001	-0,110
-256,380	293,098	0,076	0,099
-255,365	800,000	0,044	0,113
-254,351	63,197	0,088	0,063
-253,336	79,922	0,035	0,027
-252,322	24,377	-0,133	0,078
-251,307	-200,000	0,020	0,188
-250,292	-148,714	0,113	0,006
-249,278	-39,919	0,127	-0,047
-248,263	419,906	-0,040	-0,062
-247,249	-67,827	-0,011	-0,003
-246,234	-97,451	-0,106	-0,020
-245,219	-200,000	-0,016	0,127
-244,205	-122,253	-0,127	0,015
-243,190	141,913	-0,013	-0,012
-242,176	659,015	0,019	-0,034
-241,161	-200,000	-0,012	0,142
-240,146	-200,000	-0,003	-0,045
-239,132	-200,000	-0,026	-0,099
-238,117	102,230	-0,038	-0,032
-237,103	55,638	-0,125	-0,087
-236,088	-120,602	0,057	0,007
-235,073	-111,222	0,096	0,014
-234,059	-85,174	-0,125	-0,028
-233,044	-101,630	0,098	-0,017
-232,030	533,932	-0,058	-0,098
-231,015	242,381	0,076	-0,091
-230,000	232,861	-0,024	-0,028
-228,986	66,203	0,038	0,027
-227,971	276,444	-0,016	0,020
-226,957	-87,222	0,164	0,035
-225,942	-92,562	0,020	-0,004
-224,927	-61,822	0,112	-0,033
-223,913	-200,000	0,027	-0,127
-222,898	22,301	-0,182	0,106
-221,884	-90,070	-0,084	0,017
-220,869	-200,000	-0,016	0,101
-219,855	800,000	0,019	0,044
-218,840	274,710	-0,024	-0,031
-217,825	800,000	0,037	-0,081
-216,811	-115,165	-0,041	-0,006
-215,796	-43,094	-0,083	0,030
-214,782	29,045	0,070	-0,043
-213,767	-5,959	0,078	-0,038
-212,752	-85,235	0,142	0,031
-211,738	-77,012	0,129	0,032
-210,723	531,230	0,034	0,058
-209,709	-16,587	-0,039	0,018
-208,694	800,000	-0,002	-0,006
-207,679	541,675	-0,081	-0,138
-206,665	800,000	0,017	0,033
-205,650	-146,618	0,183	-0,011
-204,636	-200,000	-0,031	-0,103
-203,621	-200,000	0,009	-0,035
-202,606	46,390	0,123	0,081
-201,592	55,424	-0,064	-0,044
-200,577	-200,000	-0,004	-0,037
-199,563	154,440	0,043	-0,042
-198,548	800,000	0,057	0,134
-197,533	-200,000	0,030	0,098
-196,519	535,457	0,044	0,075
-195,504	159,408	-0,077	0,076
-194,490	-13,574	0,080	0,037
-193,475	-200,000	0,000	0,032
-192,460	250,603	-0,012	-0,015
-191,446	205,138	-0,036	0,040
-190,431	-200,000	-0,009	0,070
-189,417	259,231	0,039	-0,049
-188,402	-11,313	-0,059	-0,028
-187,387	-151,052	-0,038	0,002
-186,373	-200,000	-0,024	0,092
-185,358	-200,000	0,010	-0,041
-184,344	-200,000	0,019	-0,072
-183,329	219,944	0,048	0,055
-182,315	220,556	-0,046	0,053
-181,300	-200,000	-0,001	0,042
-180,285	-115,469	-0,037	0,005
-179,271	800,000	0,016	0,042
-178,256	-15,928	-0,058	0,026
-177,242	-56,700	0,038	0,012
-176,227	-200,000	-0,036	0,130
-175,212	-122,158	-0,115	0,013
-174,198	80,926	0,061	-0,047
-173,183	-6,700	-0,130	-0,063
-172,169	91,787	-0,018	-0,014
-171,154	-167,429	0,033	0,001
-170,139	-69,802	0,158	-0,043
-169,125	100,786	-0,121	0,100
-168,110	-28,063	-0,068	0,028
-167,096	800,000	-0,028	0,078
-166,081	-200,000	0,004	0,197
-165,066	-200,000	0,018	-0,074
-164,052	800,000	0,030	0,083
-163,037	139,173	0,079	-0,074
-162,023	254,130	0,049	-0,060
-161,008	-200,000	0,005	-0,073
-159,993	800,000	-0,031	0,085
-158,979	164,998	0,036	0,036
-157,964	46,256	-0,070	0,046
-156,950	-167,744	0,073	0,002
-155,935	-112,760	-0,200	0,028
-154,920	216,397	0,029	0,033
-153,906	17,528	-0,019	0,011
-152,891	-30,692	-0,073	0,029
-151,877	54,192	0,030	0,021
-150,862	38,254	-0,031	-0,020
-149,847	133,170	-0,034	-0,031
-148,833	-138,978	0,076	0,006
-147,818	198,795	0,046	0,051
-146,804	36,068	0,160	-0,100
-145,789	416,717	0,091	-0,139
-144,775	785,282	-0,062	-0,122
-143,760	142,522	-0,036	-0,034
-142,745	-112,465	-0,087	0,012
-141,731	2,715	0,108	-0,055
-140,716	-5,479	0,059	-0,029
-139,702	800,000	-0,095	0,235
-138,687	-132,265	0,092	-0,008
-137,672	-167,088	-0,088	-0,002
-136,658	-200,000	0,044	0,000
-135,643	324,684	-0,102	-0,139
-134,629	362,091	-0,075	0,107
-133,614	-13,022	0,087	0,040
-132,599	800,000	0,056	0,139
-131,585	-200,000	0,004	0,054
-130,570	276,684	-0,038	0,048
-129,556	588,731	-0,047	0,083
-128,541	-200,000	0,023	-0,111
-127,526	-200,000	0,025	0,165
-126,512	800,000	0,063	0,139
-125,497	800,000	0,062	0,196
-124,483	-200,000	0,001	0,037
-123,468	-109,974	0,050	0,007
-122,453	266,479	-0,050	0,063
-121,439	11,722	-0,120	-0,066
-120,424	-70,960	-0,146	0,039
-119,410	419,829	0,139	0,213
