DTS Sentinel unit serial number:	SN410029Multiplexer serial number:	ORYXHardware model number:	OX2-SRSoftware version number:	ORYX F/W v4,00 Oryx Data Collector v3.7.2.0data status	okinstallation	BH3 CH2differential loss correction	single-endedforward channel	channel 2reverse channel	N/Adate	2023/12/05time	10:37:28forward acquisition time	300,00reverse acquisition time	0,00gamma	499,1914k internal	0,3201k external	0,3201temperature offset calibration	1,0000default loss term (dB/km)	0,3820temperature slope calibration	1,0000multiplexer offset coefficient	1,0000multiplexer slope coefficient	1,0000fibre end	0,00T internal ref (°C)	9,72T ext. ref 1 (°C)	-5,09T ext. ref 2 (°C)	-5,31length (m)	temperature (°C)	Stokes	anti-Stokes-744,400	-200,000	0,026	-0,225
-743,385	-51,997	-0,228	0,077
-742,371	119,380	0,051	-0,045
-741,356	229,376	-0,132	0,157
-740,342	105,455	0,059	-0,050
-739,327	6,554	-0,172	0,093
-738,312	-200,000	0,008	-0,176
-737,298	-30,899	-0,241	0,098
-736,283	290,227	-0,097	-0,129
-735,269	58,164	-0,107	0,076
-734,254	-200,000	0,001	-0,145
-733,239	-109,192	-0,396	-0,060
-732,225	-200,000	-0,022	-0,126
-731,210	-200,000	0,002	0,132
-730,196	320,202	0,070	0,097
-729,181	773,771	-0,073	-0,146
-728,167	220,548	-0,077	-0,090
-727,152	-200,000	0,011	-0,081
-726,137	-200,000	-0,003	-0,042
-725,123	75,921	0,137	-0,105
-724,108	-74,962	-0,203	-0,052
-723,094	800,000	0,006	-0,016
-722,079	255,066	-0,044	0,055
-721,064	263,375	0,055	-0,069
-720,050	49,203	-0,039	-0,026
-719,035	800,000	0,031	-0,094
-718,021	119,602	-0,134	-0,120
-717,006	-84,849	-0,173	-0,039
-715,991	385,307	-0,039	-0,059
-714,977	303,540	-0,127	-0,172
-713,962	-40,405	-0,230	-0,086
-712,948	78,969	-0,061	0,047
-711,933	-89,989	-0,140	-0,029
-710,918	800,000	0,013	0,028
-709,904	520,967	-0,113	-0,194
-708,889	384,276	0,041	0,062
-707,875	-61,541	-0,115	-0,035
-706,860	5,937	0,064	-0,034
-705,845	541,700	0,064	-0,111
-704,831	3,510	0,068	-0,036
-703,816	118,886	-0,069	-0,062
-702,802	-200,000	0,009	-0,030
-701,787	-42,571	-0,069	0,025
-700,772	741,850	-0,069	-0,135
-699,758	297,728	-0,071	-0,094
-698,743	3,492	0,139	0,073
-697,729	-200,000	-0,014	0,051
-696,714	-200,000	0,010	0,084
-695,699	184,577	-0,060	-0,065
-694,685	68,709	0,036	-0,026
-693,670	68,550	0,035	0,026
-692,656	-55,521	0,052	0,017
-691,641	-200,000	-0,008	0,058
-690,627	-39,836	-0,046	-0,017
-689,612	766,726	0,018	0,036
-688,597	-200,000	-0,020	-0,211
-687,583	618,713	-0,059	-0,109
-686,568	-81,425	-0,170	-0,040
-685,554	60,216	0,100	0,072
-684,539	-200,000	-0,020	0,138
-683,524	-124,824	-0,043	-0,005
-682,510	-200,000	0,010	-0,177
-681,495	35,742	-0,084	-0,053
-680,481	-57,489	0,014	0,004
-679,466	-200,000	0,027	-0,147
-678,451	800,000	0,042	-0,124
-677,437	156,429	-0,042	0,042
-676,422	142,428	0,029	0,028
-675,408	177,320	0,131	-0,138
-674,393	-200,000	0,037	-0,119
-673,378	262,507	-0,052	-0,066
-672,364	138,277	0,028	-0,026
-671,349	184,290	-0,071	-0,076
-670,335	298,895	-0,036	-0,048
-669,320	265,246	0,029	-0,037
-668,305	-7,708	-0,073	0,036
-667,291	87,517	-0,097	-0,078
-666,276	-196,167	-0,161	-0,001
-665,262	-44,430	-0,187	-0,068
-664,247	-154,761	0,108	-0,005
-663,232	-200,000	-0,001	-0,098
-662,218	531,408	0,093	-0,159
-661,203	-200,000	-0,001	-0,044
-660,189	-91,739	-0,072	0,015
-659,174	-200,000	0,014	-0,062
-658,159	160,715	-0,034	-0,034
-657,145	240,071	0,047	-0,057
-656,130	-89,672	0,095	-0,020
-655,116	-129,987	-0,049	-0,005
-654,101	-55,185	-0,143	0,046
-653,086	62,046	0,128	-0,092
-652,072	-200,000	0,019	-0,164
-651,057	-38,203	-0,105	-0,040
-650,043	-200,000	-0,000	0,015
-649,028	173,593	-0,035	-0,037
-648,014	296,131	0,042	-0,056
-646,999	-74,143	0,137	-0,036
-645,984	-200,000	-0,011	-0,044
-644,970	69,716	-0,084	0,063
-643,955	-200,000	0,011	0,105
-642,941	-200,000	-0,016	-0,059
-641,926	-62,877	-0,053	0,016
-640,911	398,727	0,023	0,035
-639,897	2,016	0,071	0,037
-638,882	-16,090	-0,131	0,060
-637,868	-141,075	-0,272	0,020
-636,853	8,341	-0,110	-0,060
-635,838	-108,453	-0,121	-0,019
-634,824	25,521	-0,052	-0,032
-633,809	-200,000	-0,025	-0,112
-632,795	800,000	-0,032	-0,071
-631,780	206,546	-0,095	0,107
-630,765	-55,042	-0,092	0,030
-629,751	-64,800	-0,041	-0,012
-628,736	-200,000	0,009	-0,096
-627,722	229,902	-0,105	0,125
-626,707	800,000	0,033	0,081
-625,692	400,727	0,051	0,078
-624,678	800,000	-0,041	0,083
-623,663	83,249	-0,068	-0,053
-622,649	117,990	-0,124	-0,110
-621,634	-200,000	0,016	-0,103
-620,619	199,603	0,084	-0,094
-619,605	-200,000	-0,001	0,040
-618,590	-128,143	0,166	-0,017
-617,576	-200,000	0,025	0,120
-616,561	-43,450	-0,081	0,030
-615,546	456,291	-0,046	-0,075
-614,532	12,603	-0,120	0,067
-613,517	40,717	-0,067	-0,044
-612,503	6,940	0,087	-0,047
-611,488	-200,000	-0,006	-0,105
-610,474	800,000	0,038	0,095
-609,459	-105,275	-0,078	-0,013
-608,444	-200,000	-0,024	0,109
-607,430	800,000	-0,022	0,060
-606,415	-200,000	-0,003	0,073
-605,401	39,728	-0,064	0,041
-604,386	-200,000	-0,004	-0,043
-603,371	99,944	0,096	0,080
-602,357	-200,000	0,012	0,130
-601,342	167,558	0,051	-0,053
-600,328	610,668	-0,010	-0,018
-599,313	-36,607	-0,095	0,037
-598,298	-33,692	0,086	-0,034
-597,284	91,565	-0,090	-0,073
-596,269	157,106	0,051	-0,051
-595,255	-200,000	-0,006	-0,047
-594,240	189,854	-0,106	-0,115
-593,225	273,911	-0,099	-0,127
-592,211	498,003	-0,079	-0,132
-591,196	471,197	0,075	0,123
-590,182	-200,000	0,000	0,067
-589,167	603,276	0,067	-0,121
-588,152	-25,808	-0,097	-0,041
-587,138	4,071	0,075	-0,040
-586,123	569,724	-0,047	-0,083
-585,109	800,000	-0,021	-0,051
-584,094	275,143	-0,049	0,063
-583,079	-61,745	-0,087	0,026
-582,065	363,906	-0,039	-0,057
-581,050	-200,000	0,009	-0,030
-580,036	-52,899	0,160	-0,053
-579,021	-27,285	-0,148	0,062
-578,006	-77,063	-0,046	0,012
-576,992	-200,000	-0,016	-0,087
-575,977	-37,000	-0,045	0,017
-574,963	-118,318	0,014	0,002
-573,948	-200,000	-0,010	-0,039
-572,934	92,123	0,106	-0,086
-571,919	304,453	0,034	-0,045
-570,904	800,000	-0,016	-0,039
-569,890	800,000	0,010	-0,032
-568,875	-200,000	0,016	0,082
-567,861	-45,583	0,114	0,041
-566,846	46,835	0,070	-0,047
-565,831	346,413	0,043	0,061
-564,817	-189,847	-0,037	0,000
-563,802	81,879	-0,025	-0,020
-562,788	-200,000	-0,005	-0,084
-561,773	417,615	0,021	0,033
-560,758	-200,000	0,014	0,114
-559,744	-173,047	0,145	-0,003
-558,729	641,479	-0,054	0,099
-557,715	239,675	0,053	-0,064
-556,700	-127,489	0,062	-0,006
-555,685	800,000	0,022	0,045
-554,671	-200,000	0,008	-0,077
-553,656	-200,000	-0,002	0,141
-552,642	-28,615	0,104	0,043
-551,627	-29,548	-0,035	0,014
-550,612	411,217	-0,058	-0,090
-549,598	800,000	-0,022	-0,053
-548,583	-200,000	0,021	-0,114
-547,569	-24,807	0,060	-0,026
-546,554	297,614	-0,098	-0,130
-545,539	341,760	0,097	-0,137
-544,525	96,332	-0,051	0,042
-543,510	-16,904	0,063	-0,029
-542,496	93,077	-0,069	0,056
-541,481	-18,478	-0,014	-0,006
-540,466	-200,000	0,003	-0,113
-539,452	-38,443	0,203	0,077
-538,437	-38,956	0,178	0,067
-537,423	55,891	-0,016	-0,011
-536,408	15,510	-0,140	0,079
-535,393	-89,604	-0,072	0,015
-534,379	800,000	0,052	-0,141
-533,364	-51,385	-0,098	-0,033
-532,350	-15,065	0,044	0,020
-531,335	-31,691	0,056	0,022
-530,321	-200,000	0,026	0,198
-529,306	-111,547	0,051	-0,007
-528,291	800,000	0,019	-0,053
-527,277	-200,000	0,003	-0,079
-526,262	-121,730	-0,049	-0,006
-525,248	-164,680	-0,023	0,001
-524,233	111,923	0,089	0,077
-523,218	14,641	0,156	0,088
-522,204	-200,000	0,004	0,094
-521,189	-200,000	-0,005	0,109
-520,175	95,065	0,023	-0,019
-519,160	-127,568	-0,124	-0,013
-518,145	17,794	0,093	-0,053
-517,131	259,706	0,084	-0,104
-516,116	164,893	0,033	-0,034
-515,102	557,166	-0,024	-0,042
-514,087	203,972	-0,104	-0,116
-513,072	-200,000	0,015	-0,072
-512,058	555,929	-0,049	0,086
-511,043	-200,000	-0,002	0,198
-510,029	-200,000	-0,006	0,033
-509,014	800,000	0,042	-0,112
-507,999	170,311	0,094	0,097
-506,985	-200,000	0,016	-0,063
-505,970	108,652	-0,032	-0,027
-504,956	559,613	-0,058	-0,102
-503,941	376,573	0,040	-0,059
-502,926	-200,000	0,002	0,027
-501,912	-90,125	0,089	0,019
-500,897	-8,630	-0,058	0,028
-499,883	-93,132	0,035	0,007
-498,868	208,835	0,076	-0,086
-497,853	800,000	-0,049	-0,101
-496,839	800,000	0,016	0,040
-495,824	256,057	0,017	0,021
-494,810	153,854	0,054	0,053
-493,795	17,222	-0,063	0,036
-492,781	-53,340	-0,039	0,013
-491,766	-146,473	-0,038	0,002
-490,751	44,235	-0,196	-0,129
-489,737	14,270	-0,093	-0,052
-488,722	32,866	-0,082	0,051
-487,708	-33,330	0,067	0,027
-486,693	119,696	0,092	-0,082
-485,678	468,795	0,058	-0,095
-484,664	497,184	-0,133	-0,221
-483,649	-200,000	0,012	-0,158
-482,635	-200,000	0,006	-0,084
-481,620	67,329	-0,061	0,045
-480,605	-200,000	-0,006	0,169
-479,591	-200,000	0,055	0,184
-478,576	311,948	-0,086	0,116
-477,562	-200,000	-0,005	-0,052
-476,547	216,470	0,103	-0,118
-475,532	348,366	-0,049	-0,070
-474,518	14,378	0,084	-0,047
-473,503	68,598	0,088	0,065
-472,489	800,000	0,046	0,109
-471,474	29,981	0,031	-0,019
-470,459	-57,106	0,072	-0,023
-469,445	-81,390	0,150	-0,035
-468,430	-200,000	0,014	-0,047
-467,416	-118,853	-0,035	-0,004
-466,401	35,867	0,033	-0,021
-465,386	-200,000	-0,035	0,152
-464,372	527,585	0,054	-0,092
-463,357	800,000	0,049	-0,147
-462,343	-16,374	-0,068	0,031
-461,328	80,744	-0,040	-0,031
-460,313	62,697	-0,014	-0,010
-459,299	461,825	0,074	0,120
-458,284	776,917	0,058	0,114
-457,270	-200,000	-0,013	-0,127
-456,255	-200,000	0,019	-0,061
-455,241	-200,000	-0,024	-0,103
-454,226	-52,392	-0,053	-0,017
-453,211	-200,000	0,041	-0,154
-452,197	-27,224	0,044	0,018
-451,182	800,000	0,029	0,092
-450,168	-46,235	0,025	-0,009
-449,153	-200,000	0,027	0,094
-448,138	-132,224	-0,027	-0,003
-447,124	800,000	0,030	-0,095
-446,109	-27,167	0,033	0,014
-445,095	-30,648	0,213	-0,086
-444,080	98,933	-0,046	0,038
-443,065	-64,987	0,231	-0,067
-442,051	-178,213	-0,143	0,002
-441,036	69,413	-0,031	-0,023
-440,022	-200,000	0,010	-0,081
-439,007	156,813	0,057	-0,057
-437,992	-111,767	-0,115	0,017
-436,978	181,947	-0,121	0,128
-435,963	-200,000	-0,013	-0,103
-434,949	58,172	0,016	0,011
-433,934	800,000	-0,012	0,026
-432,919	233,366	-0,067	0,079
-431,905	-200,000	-0,011	-0,042
-430,890	291,205	0,077	0,100
-429,876	-142,000	0,140	-0,010
-428,861	1,390	-0,085	-0,044
-427,846	2,113	0,070	-0,036
-426,832	447,445	-0,076	-0,121
-425,817	-144,595	0,028	-0,002
-424,803	-200,000	-0,002	-0,058
-423,788	-1,767	0,052	0,026
-422,773	-8,525	0,029	0,014
-421,759	800,000	-0,020	0,040
-420,744	-75,847	0,090	-0,023
-419,730	127,805	-0,038	-0,035
-418,715	-6,803	-0,095	-0,046
-417,701	800,000	0,012	0,033
-416,686	14,743	0,058	-0,032
-415,671	-200,000	0,007	0,114
-414,657	167,840	-0,095	0,097
-413,642	158,456	0,112	0,111
-412,628	88,221	-0,086	0,069
-411,613	-4,389	-0,157	0,078
-410,598	800,000	0,049	0,116
-409,584	393,047	0,110	0,165
-408,569	-200,000	0,014	-0,096
-407,555	14,301	-0,133	0,074
-406,540	-200,000	-0,003	0,038
-405,525	390,367	-0,045	0,067
-404,511	-200,000	0,021	-0,106
-403,496	-200,000	0,038	0,146
-402,482	-128,584	-0,030	0,003
-401,467	-143,358	0,132	0,009
-400,452	95,317	0,068	-0,056
-399,438	-34,803	-0,085	0,033
-398,423	800,000	-0,009	-0,020
-397,409	800,000	0,036	0,078
-396,394	-200,000	0,037	0,142
-395,379	-200,000	0,032	-0,127
-394,365	83,661	-0,063	0,049
-393,350	-200,000	0,010	0,055
-392,336	800,000	0,018	-0,045
-391,321	91,403	0,117	0,094
-390,306	-200,000	-0,003	-0,040
-389,292	475,666	-0,080	-0,130
-388,277	-200,000	0,042	-0,141
-387,263	-61,352	-0,092	0,028
-386,248	-200,000	0,005	0,159
-385,233	800,000	-0,033	0,093
-384,219	699,597	-0,028	-0,053
-383,204	80,648	-0,067	0,052
-382,190	75,378	0,138	0,104
-381,175	-200,000	-0,030	-0,136
-380,160	-93,095	0,093	-0,018
-379,146	68,957	0,065	0,048
-378,131	-200,000	-0,018	0,208
-377,117	-102,497	0,092	-0,016
-376,102	800,000	-0,030	-0,093
-375,088	440,162	-0,066	-0,104
-374,073	-56,599	-0,107	-0,034
-373,058	-32,390	0,053	-0,021
-372,044	-165,367	0,106	-0,003
-371,029	-200,000	0,002	0,062
-370,015	213,999	-0,068	0,077
-369,000	217,477	0,044	-0,051
-367,985	290,194	-0,088	-0,114
-366,971	45,523	0,043	0,028
-365,956	-1,143	-0,078	0,040
-364,942	75,152	0,075	-0,057
-363,927	-200,000	-0,018	0,061
-362,912	54,736	-0,092	-0,064
-361,898	-126,515	-0,122	-0,013
-360,883	61,251	-0,071	0,051
-359,869	-0,213	0,129	-0,066
-358,854	104,764	-0,096	0,081
-357,839	800,000	0,028	0,084
-356,825	-200,000	0,020	0,069
-355,810	-200,000	0,006	0,056
-354,796	27,008	-0,118	0,070
-353,781	-104,660	0,044	-0,007
-352,766	-200,000	-0,001	-0,031
-351,752	-22,700	-0,175	0,075
-350,737	-141,636	0,141	0,010
-349,723	583,121	-0,012	-0,021
-348,708	-39,855	-0,069	-0,026
-347,693	-78,352	-0,139	-0,034
-346,679	-30,211	0,159	-0,064
-345,664	-88,815	-0,183	0,039
-344,650	-8,311	0,106	0,051
-343,635	-158,828	0,037	0,001
-342,620	-200,000	0,006	0,106
-341,606	-101,252	0,015	0,003
-340,591	-27,225	-0,098	0,041
-339,577	43,645	-0,105	0,068
-338,562	29,358	0,060	-0,037
-337,548	57,327	0,026	0,018
-336,533	-135,983	0,110	0,009
-335,518	-109,645	-0,106	0,016
-334,504	-200,000	-0,014	-0,061
-333,489	66,725	-0,074	0,054
-332,475	800,000	0,017	0,045
-331,460	800,000	0,021	-0,045
-330,445	-41,882	0,071	-0,026
-329,431	106,872	-0,044	-0,037
-328,416	204,988	0,066	-0,073
-327,402	-0,892	0,041	0,021
-326,387	-18,014	0,023	-0,010
-325,372	-96,530	0,059	0,011
-324,358	-60,613	0,133	-0,040
-323,343	240,810	-0,039	0,046
-322,329	-38,455	-0,065	-0,024
-321,314	-200,000	0,023	0,076
-320,299	-200,000	0,026	0,116
-319,285	2,683	-0,084	-0,043
-318,270	-68,695	0,033	-0,009
-317,256	203,424	0,051	-0,056
-316,241	17,544	0,055	0,031
-315,226	71,825	0,034	0,026
-314,212	800,000	-0,017	0,038
-313,197	71,921	0,133	0,099
-312,183	-200,000	0,006	0,038
-311,168	-44,827	-0,151	-0,054
-310,153	-28,097	-0,070	-0,029
-309,139	231,640	-0,028	0,033
-308,124	439,720	0,022	0,034
-307,110	199,582	-0,009	0,010
-306,095	-93,615	-0,085	0,017
-305,080	17,910	-0,037	0,021
-304,066	134,347	0,060	-0,056
-303,051	-189,857	0,059	-0,000
-302,037	-95,209	-0,066	0,013
-301,022	43,422	0,075	-0,049
-300,008	800,000	-0,063	-0,128
-298,993	501,558	0,076	0,125
-297,978	151,421	-0,059	0,057
-296,964	-130,836	0,100	0,009
-295,949	-200,000	0,016	0,081
-294,935	-86,042	-0,111	0,024
-293,920	-12,079	0,105	-0,049
-292,905	-200,000	-0,022	0,151
-291,891	511,374	0,050	-0,083
-290,876	130,791	0,131	0,120
-289,862	-125,749	-0,167	-0,018
-288,847	-200,000	0,013	-0,177
-287,832	27,709	-0,062	-0,037
-286,818	800,000	0,033	-0,082
-285,803	74,392	0,042	-0,031
-284,789	261,562	0,084	0,104
-283,774	-25,623	-0,055	0,023
-282,759	465,803	-0,017	0,028
-281,745	800,000	-0,041	-0,090
-280,730	223,177	0,048	-0,056
-279,716	-153,487	0,028	0,001
-278,701	800,000	-0,016	0,035
-277,686	-161,191	0,145	-0,005
-276,672	319,651	0,040	0,054
-275,657	800,000	0,006	-0,016
-274,643	-139,125	-0,058	0,004
-273,628	-78,079	0,140	0,034
-272,613	351,141	-0,055	-0,078
-271,599	-160,022	-0,056	0,002
-270,584	-65,860	0,010	0,003
-269,570	7,305	0,071	0,038
-268,555	121,360	0,077	0,068
-267,540	16,074	-0,152	-0,086
-266,526	396,385	-0,096	-0,143
-265,511	354,316	-0,108	0,154
-264,497	382,558	0,050	-0,074
-263,482	-200,000	0,040	0,145
-262,467	-200,000	0,034	0,162
-261,453	589,110	0,015	0,027
-260,438	-200,000	0,002	-0,093
-259,424	148,754	-0,015	-0,015
-258,409	672,847	-0,026	-0,047
-257,395	800,000	0,033	0,082
-256,380	569,048	-0,068	0,119
-255,365	192,395	0,083	0,089
-254,351	-99,570	0,100	0,018
-253,336	-200,000	0,005	0,055
-252,322	-200,000	0,012	-0,086
-251,307	169,978	-0,040	0,041
-250,292	441,544	-0,061	0,095
-249,278	-200,000	-0,014	0,094
-248,263	-200,000	-0,011	0,084
-247,249	506,676	-0,079	0,131
-246,234	-40,475	0,092	-0,034
-245,219	60,643	-0,124	-0,087
-244,205	-22,829	0,005	0,002
-243,190	32,104	0,024	-0,015
-242,176	-106,560	0,081	-0,013
-241,161	639,820	0,024	0,044
-240,146	-72,311	-0,037	0,010
-239,132	157,728	-0,030	0,030
-238,117	-132,163	-0,067	0,006
-237,103	45,092	0,094	0,062
-236,088	800,000	-0,017	0,043
-235,073	-200,000	0,012	-0,073
-234,059	37,949	0,087	0,055
-233,044	-200,000	0,008	-0,039
-232,030	800,000	-0,029	0,061
-231,015	98,415	0,019	-0,015
-230,000	427,455	0,013	-0,020
-228,986	800,000	-0,037	-0,110
-227,971	-97,809	0,098	0,018
-226,957	21,861	0,094	-0,055
-225,942	156,457	0,113	-0,112
-224,927	-200,000	-0,004	0,116
-223,913	102,809	0,072	-0,060
-222,898	800,000	-0,052	-0,136
-221,884	-180,505	0,212	-0,003
-220,869	-200,000	-0,024	0,161
-219,855	47,178	0,080	0,053
-218,840	758,015	0,026	-0,050
-217,825	-200,000	-0,011	0,057
-216,811	-30,288	-0,080	0,032
-215,796	180,387	-0,089	-0,093
-214,782	800,000	0,095	-0,190
-213,767	800,000	0,039	-0,080
-212,752	501,413	0,023	-0,038
-211,738	91,497	0,041	-0,033
-210,723	233,431	0,032	-0,037
-209,709	-115,274	-0,080	0,011
-208,694	-200,000	-0,031	-0,112
-207,679	-200,000	0,003	0,024
-206,665	98,888	-0,115	0,094
-205,650	52,269	0,148	0,100
-204,636	275,909	-0,060	0,076
-203,621	222,989	0,044	0,051
-202,606	-200,000	0,010	-0,035
-201,592	-107,313	-0,070	-0,011
-200,577	-162,380	-0,047	-0,002
-199,563	-98,592	-0,016	0,003
-198,548	-200,000	-0,001	-0,139
-197,533	800,000	-0,030	0,091
-196,519	173,445	0,015	0,016
-195,504	-42,244	0,108	0,039
-194,490	-63,772	-0,122	-0,035
-193,475	602,638	-0,153	-0,272
-192,460	199,545	0,087	0,095
-191,446	-113,889	-0,029	-0,004
-190,431	-9,171	-0,011	0,005
-189,417	60,418	0,053	-0,037
-188,402	-200,000	0,016	0,099
-187,387	-37,382	-0,132	0,050
-186,373	58,900	-0,095	-0,066
-185,358	-15,681	-0,042	0,019
-184,344	-200,000	-0,035	0,135
-183,329	-200,000	-0,002	0,021
-182,315	-132,249	0,029	-0,003
-181,300	218,622	-0,042	-0,048
-180,285	800,000	-0,036	-0,076
-179,271	92,970	-0,040	-0,032
-178,256	-179,790	0,052	-0,001
-177,242	800,000	0,056	0,119
-176,227	-104,575	-0,035	0,006
-175,212	44,099	-0,057	0,037
-174,198	21,019	-0,112	-0,064
-173,183	34,856	0,053	-0,033
-172,169	-200,000	-0,003	-0,017
-171,154	-15,821	0,048	-0,022
-170,139	-24,275	-0,041	0,017
-169,125	13,449	-0,034	0,018
-168,110	-73,003	0,075	-0,020
-167,096	-200,000	0,001	0,107
-166,081	800,000	-0,064	-0,146
-165,066	275,810	-0,097	-0,122
-164,052	300,878	-0,093	0,122
-163,037	-104,844	-0,092	-0,015
-162,023	-85,195	0,090	-0,020
-161,008	25,232	-0,068	0,040
-159,993	-60,843	0,023	0,007
-158,979	254,385	0,082	-0,100
-157,964	13,504	-0,218	-0,120
-156,950	461,522	0,052	-0,083
-155,935	-135,523	0,094	0,008
-154,920	42,224	0,069	-0,044
-153,906	-26,380	0,062	0,026
-152,891	-200,000	0,026	0,088
-151,877	647,486	-0,044	-0,080
-150,862	-56,082	-0,027	0,009
-149,847	-200,000	0,010	0,091
-148,833	-83,501	0,047	-0,011
-147,818	29,692	0,007	-0,004
-146,804	36,726	-0,076	0,048
-145,789	-200,000	-0,002	0,036
-144,775	-200,000	-0,009	-0,113
-143,760	-124,758	-0,210	0,023
-142,745	1,259	0,044	-0,022
-141,731	-0,217	0,067	-0,034
-140,716	175,470	-0,024	-0,025
-139,702	494,456	-0,026	0,043
-138,687	36,086	-0,037	-0,023
-137,672	128,671	-0,093	-0,085
-136,658	800,000	-0,020	-0,056
-135,643	-132,722	0,013	0,001
-134,629	-83,674	0,128	0,029
-133,614	68,358	-0,035	0,025
-132,599	-200,000	-0,019	0,126
-131,585	205,304	0,073	0,081
-130,570	-200,000	0,026	-0,113
-129,556	800,000	0,009	0,029
-128,541	-57,385	0,049	0,015
-127,526	-162,390	-0,104	-0,004
-126,512	137,238	-0,114	0,106
-125,497	59,695	-0,103	-0,072
-124,483	-34,609	0,082	-0,032
-123,468	-200,000	0,033	-0,108
-122,453	800,000	-0,048	-0,095
-121,439	-200,000	0,013	-0,098
-120,424	90,487	0,018	0,015
-119,410	98,120	-0,028	-0,023
-118,395	-136,281	0,044	-0,004
