DTS Sentinel unit serial number:	SN410029Multiplexer serial number:	ORYXHardware model number:	OX2-SRSoftware version number:	ORYX F/W v4,00 Oryx Data Collector v3.7.2.0data status	okinstallation	BH3 CH2differential loss correction	single-endedforward channel	channel 2reverse channel	N/Adate	2023/12/05time	12:47:28forward acquisition time	300,00reverse acquisition time	0,00gamma	499,1914k internal	0,3195k external	0,3195temperature offset calibration	1,0000default loss term (dB/km)	0,3820temperature slope calibration	1,0000multiplexer offset coefficient	1,0000multiplexer slope coefficient	1,0000fibre end	0,00T internal ref (°C)	9,94T ext. ref 1 (°C)	-4,47T ext. ref 2 (°C)	-4,54length (m)	temperature (°C)	Stokes	anti-Stokes-744,400	-136,957	-0,104	-0,009
-743,385	136,626	-0,209	0,199
-742,371	31,823	0,082	-0,052
-741,356	8,681	-0,268	0,147
-740,342	-200,000	0,019	-0,171
-739,327	8,568	-0,238	0,130
-738,312	-200,000	0,050	-0,247
-737,298	4,755	-0,272	0,145
-736,283	351,561	-0,109	-0,157
-735,269	-140,951	-0,220	-0,016
-734,254	800,000	-0,036	0,088
-733,239	-84,260	-0,397	-0,091
-732,225	736,165	0,014	-0,028
-731,210	712,484	0,050	0,096
-730,196	-200,000	0,029	-0,155
-729,181	12,502	-0,140	-0,078
-728,167	-200,000	0,005	0,023
-727,152	-200,000	-0,016	0,068
-726,137	-166,413	-0,083	0,002
-725,123	-200,000	0,039	-0,163
-724,108	800,000	-0,083	-0,192
-723,094	-94,732	-0,080	-0,016
-722,079	539,287	0,078	-0,135
-721,064	164,715	0,108	-0,111
-720,050	179,282	-0,026	-0,028
-719,035	800,000	-0,035	0,109
-718,021	53,006	-0,088	-0,061
-717,006	65,278	0,132	-0,097
-715,991	230,447	-0,057	-0,068
-714,977	589,381	-0,069	-0,125
-713,962	-58,040	-0,077	-0,024
-712,948	113,835	0,027	0,024
-711,933	-200,000	-0,033	-0,149
-710,918	-28,932	-0,060	-0,025
-709,904	40,248	-0,110	-0,072
-708,889	4,734	-0,027	0,015
-707,875	-164,005	0,052	-0,002
-706,860	323,421	-0,079	-0,109
-705,845	-72,205	0,107	0,029
-704,831	-200,000	-0,032	-0,140
-703,816	-200,000	-0,017	-0,057
-702,802	201,596	-0,095	-0,107
-701,787	-200,000	0,002	-0,089
-700,772	-75,820	0,099	0,025
-699,758	-200,000	-0,005	-0,066
-698,743	211,486	-0,115	-0,132
-697,729	800,000	0,031	0,073
-696,714	-111,803	-0,141	0,021
-695,699	609,052	-0,059	-0,107
-694,685	69,448	-0,049	0,036
-693,670	497,010	-0,084	-0,141
-692,656	191,803	0,046	-0,051
-691,641	-18,473	-0,147	-0,066
-690,627	800,000	-0,026	-0,079
-689,612	-200,000	-0,027	-0,117
-688,597	14,195	-0,090	-0,051
-687,583	-200,000	-0,012	-0,049
-686,568	100,825	-0,062	-0,052
-685,554	800,000	0,060	-0,133
-684,539	58,754	-0,030	-0,021
-683,524	-115,796	0,032	0,004
-682,510	-129,975	0,048	0,005
-681,495	257,627	-0,067	-0,084
-680,481	-131,111	-0,062	0,006
-679,466	152,625	-0,065	-0,065
-678,451	447,263	0,050	-0,080
-677,437	-125,544	-0,130	0,014
-676,422	-200,000	0,002	0,102
-675,408	800,000	-0,026	0,062
-674,393	-200,000	0,021	-0,147
-673,378	703,275	-0,094	-0,180
-672,364	-115,528	-0,055	0,007
-671,349	-200,000	-0,017	-0,203
-670,335	139,926	0,034	-0,033
-669,320	-168,692	0,148	-0,004
-668,305	33,065	-0,087	-0,055
-667,291	800,000	0,053	-0,143
-666,276	-29,460	-0,131	-0,054
-665,262	78,699	0,129	-0,100
-664,247	-31,055	-0,068	0,028
-663,232	-200,000	-0,016	-0,097
-662,218	-200,000	0,019	0,091
-661,203	82,160	-0,009	-0,007
-660,189	800,000	-0,026	0,057
-659,174	462,634	-0,097	-0,157
-658,159	64,902	0,153	-0,112
-657,145	212,449	0,079	-0,090
-656,130	-200,000	0,009	0,035
-655,116	-163,327	-0,162	-0,006
-654,101	-200,000	-0,001	-0,120
-653,086	232,996	0,015	-0,018
-652,072	800,000	-0,020	-0,044
-651,057	-200,000	0,002	0,010
-650,043	343,738	0,094	-0,134
-649,028	215,274	0,064	-0,074
-648,014	-200,000	-0,011	-0,116
-646,999	-119,394	0,159	-0,020
-645,984	-85,953	-0,184	-0,041
-644,970	209,599	-0,077	0,087
-643,955	-57,449	-0,119	-0,038
-642,941	800,000	0,015	-0,037
-641,926	52,339	-0,074	-0,051
-640,911	-152,141	0,033	0,002
-639,897	7,187	0,034	-0,018
-638,882	111,402	-0,074	0,065
-637,868	800,000	-0,041	0,088
-636,853	800,000	0,015	-0,039
-635,838	-184,749	-0,177	0,002
-634,824	436,974	0,038	-0,060
-633,809	113,363	-0,134	-0,118
-632,795	79,242	0,026	0,020
-631,780	-107,357	-0,038	-0,006
-630,765	188,333	-0,091	0,098
-629,751	6,460	0,026	-0,014
-628,736	42,809	-0,066	-0,044
-627,722	156,330	0,053	-0,053
-626,707	284,981	-0,044	-0,058
-625,692	229,671	0,064	0,076
-624,678	228,184	-0,177	0,209
-623,663	-34,648	-0,061	-0,024
-622,649	504,681	0,075	-0,126
-621,634	82,053	-0,161	-0,126
-620,619	-200,000	0,023	-0,146
-619,605	424,415	-0,047	0,074
-618,590	49,967	0,039	0,027
-617,576	279,168	-0,061	0,078
-616,561	-88,747	0,110	-0,023
-615,546	-200,000	0,010	-0,117
-614,532	165,098	-0,101	-0,104
-613,517	-60,076	-0,106	-0,033
-612,503	-5,863	-0,145	-0,072
-611,488	-200,000	-0,018	0,060
-610,474	-200,000	0,013	0,059
-609,459	-200,000	-0,060	-0,227
-608,444	-61,515	0,048	0,015
-607,430	-200,000	0,028	-0,098
-606,415	-75,377	-0,203	-0,052
-605,401	-200,000	-0,023	0,111
-604,386	219,353	-0,049	0,057
-603,371	-200,000	-0,007	0,078
-602,357	-200,000	0,018	-0,061
-601,342	-70,798	-0,052	0,014
-600,328	268,707	-0,127	-0,162
-599,313	562,505	0,063	0,111
-598,298	-129,471	-0,029	0,003
-597,284	7,196	-0,091	0,049
-596,269	-141,262	0,021	0,002
-595,255	-119,323	0,079	-0,010
-594,240	99,512	-0,070	-0,059
-593,225	213,241	-0,054	0,062
-592,211	340,773	-0,092	0,131
-591,196	800,000	0,019	0,050
-590,182	-7,396	-0,096	0,047
-589,167	-99,845	0,135	0,024
-588,152	43,866	-0,072	0,048
-587,138	800,000	-0,031	0,077
-586,123	-200,000	0,022	-0,198
-585,109	-200,000	0,001	-0,082
-584,094	-105,644	0,098	0,016
-583,079	-200,000	-0,049	0,160
-582,065	-175,170	-0,055	0,001
-581,050	-115,684	0,066	0,009
-580,036	-95,121	-0,048	0,009
-579,021	277,037	0,029	-0,038
-578,006	-80,213	-0,087	-0,021
-576,992	-200,000	0,003	-0,107
-575,977	-152,976	-0,060	0,003
-574,963	64,601	0,088	0,064
-573,948	-33,620	0,026	-0,010
-572,934	526,111	0,013	0,022
-571,919	-6,312	-0,117	0,058
-570,904	15,971	0,039	-0,022
-569,890	173,279	0,090	-0,094
-568,875	-200,000	0,001	0,158
-567,861	130,278	0,062	0,058
-566,846	-200,000	0,008	-0,065
-565,831	45,176	0,058	0,038
-564,817	32,104	-0,148	0,092
-563,802	229,603	-0,058	-0,069
-562,788	-9,043	0,066	0,032
-561,773	-200,000	-0,008	0,161
-560,758	-200,000	0,022	0,074
-559,744	-151,208	0,089	0,005
-558,729	110,050	0,066	-0,058
-557,715	-200,000	0,001	-0,097
-556,700	-64,647	-0,068	0,020
-555,685	-37,506	-0,028	0,011
-554,671	-200,000	-0,024	-0,091
-553,656	105,093	0,082	0,070
-552,642	-83,283	0,047	-0,011
-551,627	-48,388	-0,214	0,074
-550,612	-136,651	-0,012	-0,001
-549,598	8,107	-0,067	-0,036
-548,583	-200,000	0,036	-0,196
-547,569	110,354	-0,089	0,077
-546,554	-200,000	0,030	0,107
-545,539	-153,920	-0,018	-0,001
-544,525	146,467	0,076	0,074
-543,510	800,000	-0,045	0,096
-542,496	2,050	0,102	-0,053
-541,481	69,863	-0,085	-0,063
-540,466	-200,000	0,017	0,078
-539,452	-4,084	0,142	0,071
-538,437	-0,162	0,096	0,049
-537,423	-57,541	0,178	-0,056
-536,408	246,625	-0,069	0,085
-535,393	53,744	-0,076	-0,052
-534,379	-162,951	0,061	-0,002
-533,364	2,314	0,152	-0,079
-532,350	800,000	0,052	0,105
-531,335	250,616	0,004	-0,005
-530,321	-10,535	0,043	0,020
-529,306	-200,000	0,014	-0,050
-528,291	-200,000	-0,018	-0,142
-527,277	-125,980	0,097	0,010
-526,262	11,596	-0,072	0,040
-525,248	800,000	0,053	-0,110
-524,233	800,000	-0,025	-0,074
-523,218	-158,498	-0,150	0,006
-522,204	-200,000	0,025	-0,134
-521,189	5,492	0,021	-0,011
-520,175	-200,000	-0,034	-0,143
-519,160	800,000	-0,016	0,047
-518,145	786,925	-0,053	-0,106
-517,131	-92,627	0,161	0,032
-516,116	800,000	0,033	-0,083
-515,102	78,034	-0,151	-0,116
-514,087	362,797	-0,030	0,043
-513,072	-200,000	0,012	0,054
-512,058	195,933	-0,109	-0,120
-511,043	-200,000	-0,035	0,201
-510,029	531,384	0,100	0,171
-509,014	800,000	-0,036	0,096
-507,999	-104,943	0,073	0,012
-506,985	32,961	0,027	-0,017
-505,970	-118,851	0,024	-0,003
-504,956	-200,000	-0,009	0,066
-503,941	24,276	0,086	0,051
-502,926	452,080	0,051	-0,081
-501,912	193,998	0,063	0,069
-500,897	-200,000	-0,124	0,000
-499,883	800,000	-0,026	-0,070
-498,868	-94,246	-0,076	0,015
-497,853	-136,202	-0,023	-0,002
-496,839	800,000	0,024	-0,072
-495,824	800,000	0,048	0,112
-494,810	425,671	0,086	0,134
-493,795	-200,000	-0,029	0,215
-492,781	-200,000	0,016	-0,051
-491,766	-200,000	0,003	0,029
-490,751	556,597	0,048	-0,084
-489,737	61,852	0,052	-0,037
-488,722	-200,000	0,020	-0,101
-487,708	-200,000	-0,066	-0,225
-486,693	37,080	0,036	0,023
-485,678	66,273	0,048	-0,035
-484,664	-200,000	0,005	0,064
-483,649	-109,620	-0,183	0,027
-482,635	-175,727	-0,086	-0,002
-481,620	800,000	-0,019	0,050
-480,605	-200,000	-0,008	-0,048
-479,591	3,390	-0,061	-0,032
-478,576	-98,383	-0,080	-0,015
-477,562	17,986	-0,057	-0,033
-476,547	279,105	-0,111	-0,143
-475,532	160,126	0,088	-0,089
-474,518	221,249	0,112	0,130
-473,503	-39,504	0,253	-0,095
-472,489	800,000	-0,061	0,166
-471,474	-39,325	0,045	0,017
-470,459	-200,000	0,006	-0,064
-469,445	-7,707	-0,031	-0,015
-468,430	-200,000	-0,008	0,031
-467,416	-148,606	0,150	0,009
-466,401	-81,923	-0,113	0,026
-465,386	-4,689	0,035	-0,017
-464,372	-17,885	0,061	-0,027
-463,357	176,615	0,055	0,058
-462,343	-55,170	-0,106	-0,034
-461,328	800,000	-0,032	-0,070
-460,313	-11,583	0,077	-0,036
-459,299	317,900	0,071	0,098
-458,284	422,694	0,029	0,046
-457,270	-200,000	0,031	0,166
-456,255	-22,050	0,072	0,032
-455,241	-136,889	0,080	0,007
-454,226	800,000	-0,027	0,056
-453,211	24,258	-0,048	-0,029
-452,197	-200,000	-0,019	0,066
-451,182	79,103	0,025	0,019
-450,168	800,000	-0,024	-0,052
-449,153	-200,000	0,011	-0,057
-448,138	800,000	0,025	-0,061
-447,124	184,109	0,089	-0,096
-446,109	800,000	-0,044	-0,122
-445,095	82,121	0,069	-0,054
-444,080	23,549	0,072	0,042
-443,065	-200,000	0,051	0,199
-442,051	-200,000	0,010	-0,053
-441,036	-200,000	-0,023	-0,177
-440,022	800,000	-0,031	-0,080
-439,007	-199,437	-0,076	0,000
-437,992	26,538	0,100	0,060
-436,978	-200,000	0,015	-0,073
-435,963	9,722	0,049	-0,027
-434,949	302,960	0,027	0,036
-433,934	-200,000	-0,004	-0,015
-432,919	-68,434	-0,111	-0,031
-431,905	109,447	-0,100	-0,086
-430,890	-143,682	0,163	0,011
-429,876	-87,375	0,060	0,013
-428,861	19,739	-0,025	0,014
-427,846	-81,557	-0,106	0,025
-426,832	-200,000	-0,031	-0,107
-425,817	32,775	0,110	-0,068
-424,803	511,302	0,022	-0,038
-423,788	6,854	0,055	-0,029
-422,773	800,000	-0,012	-0,028
-421,759	-200,000	-0,001	0,125
-420,744	-200,000	0,005	0,032
-419,730	-200,000	-0,007	-0,152
-418,715	774,667	-0,024	0,048
-417,701	-68,307	0,032	-0,009
-416,686	457,635	-0,041	0,066
-415,671	-97,178	0,157	0,029
-414,657	104,226	-0,046	0,039
-413,642	-116,597	-0,029	0,004
-412,628	800,000	-0,071	-0,153
-411,613	800,000	-0,059	-0,143
-410,598	-200,000	-0,017	0,075
-409,584	-155,418	-0,137	-0,006
-408,569	-200,000	0,039	0,186
-407,555	51,172	-0,075	-0,051
-406,540	154,874	0,040	0,040
-405,525	-21,054	0,126	-0,055
-404,511	83,842	-0,010	0,008
-403,496	-113,037	0,083	-0,012
-402,482	-26,863	0,046	-0,019
-401,467	-25,957	0,176	-0,074
-400,452	127,057	0,123	-0,112
-399,438	-200,000	0,000	0,062
-398,423	50,591	0,159	-0,108
-397,409	494,695	-0,031	-0,051
-396,394	-200,000	0,015	-0,055
-395,379	-44,631	0,027	0,010
-394,365	8,498	-0,063	-0,034
-393,350	-94,304	0,151	0,029
-392,336	68,879	-0,059	0,044
-391,321	-12,231	-0,067	0,031
-390,306	-200,000	-0,003	-0,065
-389,292	800,000	-0,055	-0,114
-388,277	800,000	-0,035	-0,093
-387,263	800,000	-0,037	0,099
-386,248	-200,000	0,027	0,142
-385,233	-200,000	-0,014	-0,101
-384,219	-200,000	0,031	-0,113
-383,204	-200,000	-0,002	0,172
-382,190	-200,000	-0,005	-0,079
-381,175	-200,000	0,005	-0,048
-380,160	-197,070	0,082	-0,000
-379,146	-123,289	-0,092	0,010
-378,131	297,402	-0,012	0,016
-377,117	-21,361	-0,090	0,040
-376,102	-144,848	-0,199	-0,013
-375,088	-200,000	0,000	-0,126
-374,073	799,479	0,008	0,016
-373,058	-57,305	-0,091	0,029
-372,044	-200,000	-0,011	0,040
-371,029	-76,651	0,115	0,029
-370,015	168,907	0,051	-0,052
-369,000	800,000	0,012	-0,032
-367,985	-200,000	-0,001	0,062
-366,971	52,775	-0,071	0,049
-365,956	12,229	0,104	-0,058
-364,942	800,000	-0,022	0,064
-363,927	-200,000	0,011	-0,035
-362,912	-200,000	0,012	0,050
-361,898	31,727	-0,124	-0,076
-360,883	-66,559	-0,120	0,034
-359,869	-200,000	-0,003	0,059
-358,854	780,520	-0,056	-0,110
-357,839	612,117	0,067	-0,120
-356,825	301,081	-0,093	-0,124
-355,810	-200,000	0,035	0,172
-354,796	-200,000	0,041	-0,136
-353,781	800,000	-0,058	-0,126
-352,766	-200,000	0,017	-0,118
-351,752	800,000	-0,035	-0,094
-350,737	20,150	0,116	0,067
-349,723	-200,000	0,002	0,158
-348,708	253,902	0,052	0,064
-347,693	-200,000	-0,007	-0,041
-346,679	-38,481	0,117	0,044
-345,664	-12,337	-0,098	-0,046
-344,650	75,749	0,095	-0,072
-343,635	72,132	0,073	0,054
-342,620	67,860	-0,038	-0,028
-341,606	11,453	-0,057	-0,031
-340,591	163,847	0,082	0,082
-339,577	-200,000	0,019	0,066
-338,562	-119,540	-0,090	-0,011
-337,548	-200,000	-0,003	0,082
-336,533	-200,000	-0,014	-0,054
-335,518	-200,000	0,017	0,087
-334,504	-200,000	0,024	0,185
-333,489	213,022	-0,105	-0,119
-332,475	318,406	-0,051	0,070
-331,460	264,937	-0,093	0,117
-330,445	680,658	0,080	0,150
-329,431	424,748	-0,072	0,111
-328,416	133,702	-0,091	0,085
-327,402	-200,000	0,007	0,027
-326,387	140,840	-0,103	-0,098
-325,372	728,450	-0,038	-0,073
-324,358	-200,000	0,007	-0,029
-323,343	-60,499	-0,105	-0,032
-322,329	-200,000	0,007	-0,059
-321,314	187,243	0,040	0,043
-320,299	-143,943	0,024	0,002
-319,285	261,199	-0,103	-0,129
-318,270	-200,000	-0,010	0,114
-317,256	13,136	0,021	0,012
-316,241	800,000	-0,063	0,140
-315,226	-73,184	0,038	-0,010
-314,212	800,000	-0,026	0,061
-313,197	39,546	0,055	0,035
-312,183	-66,843	-0,084	-0,024
-311,168	342,930	0,050	-0,071
-310,153	800,000	-0,028	-0,057
-309,139	48,276	0,062	0,042
-308,124	-14,580	0,070	0,032
-307,110	-133,075	0,085	0,008
-306,095	15,560	-0,053	0,030
-305,080	-107,424	0,055	-0,009
-304,066	9,703	-0,197	-0,107
-303,051	-200,000	0,006	-0,030
-302,037	-18,464	0,068	0,030
-301,022	-127,857	0,126	0,013
-300,008	-44,136	0,152	0,054
-298,993	800,000	0,052	0,144
-297,978	696,609	-0,035	0,066
-296,964	-48,380	-0,027	0,009
-295,949	71,496	0,037	-0,027
-294,935	-89,265	-0,084	0,018
-293,920	179,516	0,136	-0,143
-292,905	322,441	0,009	-0,013
-291,891	800,000	0,028	0,063
-290,876	-200,000	0,020	-0,072
-289,862	139,580	0,123	-0,116
-288,847	-200,000	-0,002	-0,060
-287,832	800,000	-0,089	0,182
-286,818	-200,000	-0,012	-0,076
-285,803	-45,697	0,142	0,050
-284,789	-11,292	-0,015	0,007
-283,774	37,157	0,139	-0,088
-282,759	58,029	-0,030	-0,021
-281,745	-67,315	0,073	0,020
-280,730	129,900	0,049	-0,045
-279,716	-17,575	0,065	0,029
-278,701	278,628	-0,068	0,087
-277,686	-134,339	0,075	-0,006
-276,672	-156,659	0,033	-0,001
-275,657	-162,111	0,110	0,004
-274,643	-15,655	-0,072	-0,033
-273,628	-200,000	0,021	0,072
-272,613	196,118	-0,084	-0,092
-271,599	-62,292	0,037	0,011
-270,584	-200,000	0,010	0,070
-269,570	-200,000	-0,015	0,173
-268,555	41,708	-0,093	0,060
-267,540	-200,000	-0,012	-0,112
-266,526	22,099	-0,101	0,059
-265,511	-200,000	-0,019	-0,088
-264,497	504,654	0,044	-0,073
-263,482	-55,612	0,086	0,027
-262,467	-129,983	0,124	0,012
-261,453	761,902	-0,074	0,144
-260,438	-143,610	0,080	0,005
-259,424	-79,261	-0,117	0,028
-258,409	-64,974	0,109	0,031
-257,395	-77,143	-0,060	0,015
-256,380	413,811	0,071	0,108
-255,365	-27,925	0,056	0,023
-254,351	-109,201	-0,051	-0,008
-253,336	-200,000	-0,004	0,070
-252,322	17,756	-0,032	-0,018
-251,307	-46,797	-0,048	-0,017
-250,292	51,647	0,061	-0,041
-249,278	355,287	0,017	0,024
-248,263	62,932	0,173	0,123
-247,249	-200,000	0,023	0,154
-246,234	-118,010	0,088	-0,011
-245,219	-63,798	-0,133	0,039
-244,205	34,068	0,046	0,028
-243,190	-200,000	-0,003	-0,051
-242,176	800,000	0,030	0,076
-241,161	-103,477	0,097	0,016
-240,146	-200,000	0,003	0,153
-239,132	-116,563	-0,072	-0,009
-238,117	194,650	0,021	-0,023
-237,103	561,584	-0,059	-0,103
-236,088	-200,000	-0,003	-0,104
-235,073	-200,000	0,092	0,000
-234,059	-145,819	-0,063	-0,004
-233,044	800,000	-0,059	0,171
-232,030	-114,945	0,123	0,017
-231,015	800,000	-0,032	-0,076
-230,000	-140,040	-0,050	0,004
-228,986	-200,000	-0,016	0,059
-227,971	-105,282	-0,068	-0,011
-226,957	357,435	0,058	-0,083
-225,942	-54,467	0,056	-0,018
-224,927	598,146	-0,027	0,047
-223,913	51,714	0,030	0,020
-222,898	-200,000	0,001	-0,129
-221,884	50,948	-0,149	0,101
-220,869	40,601	-0,139	-0,089
-219,855	-200,000	-0,006	-0,086
-218,840	800,000	0,030	0,090
-217,825	427,328	0,029	0,045
-216,811	800,000	-0,019	0,053
-215,796	91,467	0,038	-0,030
-214,782	800,000	0,044	-0,088
-213,767	-40,056	-0,277	0,103
-212,752	-132,302	0,183	0,017
-211,738	377,958	0,044	0,065
-210,723	96,756	-0,117	-0,096
-209,709	31,750	-0,109	-0,067
-208,694	741,930	-0,040	0,076
-207,679	111,783	-0,129	-0,111
-206,665	-110,885	0,128	-0,019
-205,650	548,181	-0,021	0,037
-204,636	-200,000	-0,020	-0,081
-203,621	75,946	0,098	-0,074
-202,606	-200,000	-0,044	-0,221
-201,592	679,277	0,012	-0,022
-200,577	224,323	-0,046	0,053
-199,563	-10,491	0,152	0,072
-198,548	142,968	-0,046	0,044
-197,533	800,000	0,035	0,069
-196,519	-49,890	0,100	-0,034
-195,504	39,985	0,013	0,008
-194,490	90,243	0,061	-0,048
-193,475	800,000	-0,039	-0,088
-192,460	74,526	-0,090	0,067
-191,446	-200,000	0,005	0,127
-190,431	138,160	0,007	-0,006
-189,417	133,540	-0,088	0,081
-188,402	-200,000	0,017	0,061
-187,387	119,186	-0,072	0,064
-186,373	800,000	0,019	-0,047
-185,358	-132,852	-0,065	0,006
-184,344	-200,000	0,025	0,108
-183,329	-200,000	0,006	0,118
-182,315	217,196	0,064	0,072
-181,300	-93,850	0,045	-0,009
-180,285	-114,255	-0,048	-0,007
-179,271	800,000	0,008	0,017
-178,256	121,693	0,087	0,077
-177,242	47,631	-0,037	0,025
-176,227	800,000	0,054	0,135
-175,212	-200,000	0,013	0,130
-174,198	800,000	0,056	0,147
-173,183	705,764	0,035	-0,066
-172,169	126,817	-0,078	-0,070
-171,154	29,708	0,055	-0,033
-170,139	-200,000	-0,007	-0,166
-169,125	-38,983	0,105	-0,039
-168,110	800,000	-0,051	0,108
-167,096	-96,934	0,024	0,004
-166,081	-45,307	0,096	0,034
-165,066	93,912	-0,100	-0,081
-164,052	-200,000	0,001	-0,078
-163,037	29,967	-0,074	-0,045
-162,023	304,234	-0,020	0,027
-161,008	-200,000	-0,001	0,084
-159,993	239,178	-0,036	0,043
-158,979	-41,274	-0,055	0,020
-157,964	113,294	-0,074	-0,064
-156,950	81,073	-0,151	-0,116
-155,935	-23,755	0,220	-0,094
-154,920	-103,108	-0,006	0,001
-153,906	-173,723	0,177	-0,004
-152,891	22,658	0,088	-0,051
-151,877	153,591	0,099	0,096
-150,862	121,762	-0,097	-0,086
-149,847	-105,573	0,038	0,006
-148,833	-30,421	-0,114	-0,046
-147,818	-77,298	0,162	-0,040
-146,804	797,121	0,055	0,109
-145,789	69,841	0,111	-0,081
-144,775	800,000	-0,030	-0,067
-143,760	-200,000	0,012	-0,047
-142,745	800,000	0,023	-0,046
-141,731	70,060	0,067	-0,049
-140,716	-129,170	0,149	0,015
-139,702	15,227	0,098	0,055
-138,687	-64,449	0,036	0,010
-137,672	437,325	-0,032	-0,050
-136,658	299,870	-0,031	-0,041
-135,643	-25,543	0,044	-0,018
-134,629	-200,000	-0,018	0,149
-133,614	10,950	0,082	0,044
-132,599	337,220	0,075	0,105
-131,585	800,000	0,061	0,129
-130,570	596,221	-0,020	-0,036
-129,556	258,810	-0,117	0,144
-128,541	-177,188	0,104	0,002
-127,526	348,143	0,083	-0,117
-126,512	52,200	0,038	-0,026
-125,497	800,000	0,034	-0,089
-124,483	-4,484	0,145	0,071
-123,468	15,682	0,053	-0,030
-122,453	-25,825	-0,153	0,064
-121,439	-200,000	-0,004	-0,081
-120,424	-168,054	-0,082	0,002
-119,410	-42,643	0,035	0,013
