DTS Sentinel unit serial number:	SN410029Multiplexer serial number:	ORYXHardware model number:	OX2-SRSoftware version number:	ORYX F/W v4,00 Oryx Data Collector v3.7.2.0data status	okinstallation	BH3 CH2differential loss correction	single-endedforward channel	channel 2reverse channel	N/Adate	2023/12/05time	18:07:28forward acquisition time	300,00reverse acquisition time	0,00gamma	499,1914k internal	0,3193k external	0,3193temperature offset calibration	1,0000default loss term (dB/km)	0,3820temperature slope calibration	1,0000multiplexer offset coefficient	1,0000multiplexer slope coefficient	1,0000fibre end	0,00T internal ref (°C)	10,74T ext. ref 1 (°C)	-3,99T ext. ref 2 (°C)	-4,17length (m)	temperature (°C)	Stokes	anti-Stokes-744,400	-4,948	-0,114	-0,057
-743,385	61,941	-0,141	0,102
-742,371	-183,989	0,109	-0,001
-741,356	108,662	-0,180	0,157
-740,342	800,000	-0,060	-0,126
-739,327	322,218	-0,079	0,110
-738,312	-200,000	-0,030	-0,107
-737,298	-106,332	-0,310	0,050
-736,283	1,211	-0,018	-0,009
-735,269	70,123	-0,150	0,113
-734,254	-200,000	0,016	-0,121
-733,239	-27,687	-0,297	0,125
-732,225	-200,000	0,005	-0,091
-731,210	-151,657	0,084	0,004
-730,196	8,655	-0,053	0,029
-729,181	51,506	-0,102	-0,070
-728,167	686,582	0,010	0,020
-727,152	5,258	0,065	0,035
-726,137	141,827	-0,063	-0,061
-725,123	6,597	-0,029	-0,016
-724,108	136,544	-0,059	-0,056
-723,094	60,916	-0,140	-0,101
-722,079	-200,000	0,019	-0,132
-721,064	800,000	0,045	-0,099
-720,050	434,709	-0,089	0,141
-719,035	-200,000	0,008	0,044
-718,021	-110,107	-0,125	0,019
-717,006	417,619	-0,102	-0,160
-715,991	-65,084	-0,136	-0,040
-714,977	92,955	-0,056	-0,046
-713,962	-26,028	-0,096	0,041
-712,948	-22,259	0,101	0,044
-711,933	86,408	-0,075	0,060
-710,918	627,647	0,048	0,089
-709,904	-200,000	-0,035	-0,158
-708,889	231,845	-0,078	-0,094
-707,875	800,000	0,021	0,054
-706,860	86,239	0,036	-0,029
-705,845	105,380	-0,041	-0,035
-704,831	310,567	0,043	-0,058
-703,816	-200,000	-0,006	-0,031
-702,802	284,242	0,022	0,029
-701,787	-200,000	-0,009	-0,151
-700,772	800,000	-0,026	-0,064
-699,758	55,511	-0,059	0,041
-698,743	-200,000	0,005	-0,018
-697,729	16,745	-0,084	0,048
-696,714	118,981	-0,046	0,042
-695,699	-200,000	-0,050	-0,169
-694,685	800,000	-0,027	-0,068
-693,670	-200,000	-0,012	-0,078
-692,656	58,702	0,052	-0,037
-691,641	-120,876	-0,037	-0,005
-690,627	57,476	0,169	0,120
-689,612	-54,167	-0,093	0,030
-688,597	-200,000	-0,010	-0,082
-687,583	137,870	-0,069	0,066
-686,568	92,194	-0,066	0,054
-685,554	800,000	-0,055	0,166
-684,539	791,351	-0,061	-0,122
-683,524	-34,300	-0,116	0,046
-682,510	-200,000	-0,025	0,099
-681,495	308,578	0,021	0,028
-680,481	93,429	-0,099	-0,081
-679,466	800,000	-0,029	-0,067
-678,451	51,089	-0,149	-0,103
-677,437	-200,000	-0,005	0,082
-676,422	201,417	0,060	-0,067
-675,408	23,644	-0,051	0,031
-674,393	-200,000	0,009	0,042
-673,378	-200,000	-0,044	-0,154
-672,364	573,425	0,041	-0,072
-671,349	-200,000	0,028	0,098
-670,335	-17,443	-0,024	0,011
-669,320	97,113	-0,044	0,037
-668,305	-200,000	-0,014	0,195
-667,291	-102,050	-0,066	-0,011
-666,276	316,446	0,038	-0,053
-665,262	800,000	0,048	-0,098
-664,247	800,000	-0,052	-0,157
-663,232	-170,832	-0,181	-0,004
-662,218	-80,402	0,018	0,004
-661,203	-70,341	0,052	-0,014
-660,189	-45,681	0,061	-0,022
-659,174	82,064	-0,102	-0,081
-658,159	-32,878	-0,072	0,029
-657,145	800,000	-0,019	-0,059
-656,130	800,000	0,024	-0,075
-655,116	284,863	0,065	-0,085
-654,101	800,000	-0,016	0,048
-653,086	370,587	-0,094	-0,138
-652,072	-200,000	-0,040	-0,141
-651,057	382,602	-0,047	-0,070
-650,043	-70,019	0,155	-0,043
-649,028	-29,186	-0,047	0,019
-648,014	-67,961	-0,110	0,031
-646,999	302,851	-0,026	0,035
-645,984	-78,279	-0,031	0,008
-644,970	-63,772	0,045	-0,013
-643,955	-89,255	-0,157	-0,033
-642,941	800,000	-0,026	-0,063
-641,926	-200,000	-0,034	-0,140
-640,911	-200,000	0,004	-0,013
-639,897	407,990	0,051	-0,079
-638,882	615,321	0,070	-0,128
-637,868	800,000	-0,025	0,063
-636,853	-200,000	0,036	-0,127
-635,838	109,777	-0,036	0,031
-634,824	41,812	-0,096	-0,063
-633,809	300,881	-0,044	0,059
-632,795	-108,002	0,041	0,006
-631,780	-200,000	-0,012	0,056
-630,765	581,375	-0,051	-0,091
-629,751	800,000	0,069	-0,176
-628,736	-73,823	-0,143	-0,037
-627,722	-21,965	-0,083	-0,036
-626,707	-200,000	0,015	-0,070
-625,692	539,095	-0,026	-0,045
-624,678	-70,248	-0,187	0,051
-623,663	-20,632	0,130	0,058
-622,649	114,506	-0,078	-0,069
-621,634	-200,000	-0,009	0,043
-620,619	691,259	0,027	0,051
-619,605	-200,000	-0,011	-0,049
-618,590	67,038	0,088	-0,065
-617,576	7,641	0,144	0,078
-616,561	-7,935	-0,092	0,045
-615,546	-58,401	0,074	-0,023
-614,532	-75,492	-0,082	-0,021
-613,517	80,062	0,086	0,067
-612,503	43,036	0,066	0,044
-611,488	57,893	-0,090	-0,064
-610,474	367,653	0,066	-0,098
-609,459	498,547	0,030	0,050
-608,444	800,000	-0,028	0,070
-607,430	-200,000	0,009	-0,074
-606,415	60,273	-0,089	-0,064
-605,401	-200,000	0,018	-0,106
-604,386	-157,951	-0,051	0,002
-603,371	-85,354	0,104	0,023
-602,357	24,520	-0,050	-0,030
-601,342	355,079	-0,134	-0,193
-600,328	94,041	-0,064	-0,053
-599,313	29,283	0,038	-0,023
-598,298	121,467	0,067	-0,061
-597,284	-5,728	-0,080	-0,040
-596,269	800,000	0,071	0,170
-595,255	-200,000	0,018	-0,075
-594,240	-200,000	0,064	0,211
-593,225	-42,927	-0,107	0,039
-592,211	-200,000	-0,005	0,106
-591,196	75,366	-0,034	0,026
-590,182	800,000	-0,011	0,022
-589,167	32,179	0,034	0,021
-588,152	-132,559	0,072	-0,007
-587,138	66,865	0,020	0,015
-586,123	365,613	-0,048	-0,070
-585,109	63,090	-0,105	0,076
-584,094	-57,045	0,149	0,047
-583,079	-200,000	0,011	-0,085
-582,065	800,000	0,042	-0,110
-581,050	800,000	-0,014	0,043
-580,036	-71,552	0,204	-0,055
-579,021	-200,000	-0,013	0,084
-578,006	8,493	-0,160	-0,087
-576,992	-168,637	0,065	0,002
-575,977	227,287	0,060	0,071
-574,963	800,000	-0,014	0,034
-573,948	800,000	-0,012	0,032
-572,934	-200,000	0,005	-0,140
-571,919	341,435	-0,032	-0,046
-570,904	-111,573	-0,134	0,019
-569,890	-40,617	0,157	-0,059
-568,875	-0,028	-0,109	-0,056
-567,861	-10,204	-0,074	-0,035
-566,846	-200,000	0,014	0,135
-565,831	-70,863	-0,044	0,012
-564,817	-200,000	0,024	0,134
-563,802	160,639	0,046	0,046
-562,788	640,144	0,070	0,130
-561,773	-19,920	0,070	-0,031
-560,758	-39,415	0,165	-0,063
-559,744	-200,000	-0,006	0,136
-558,729	-200,000	-0,013	0,155
-557,715	44,298	-0,060	-0,040
-556,700	-200,000	-0,025	-0,114
-555,685	-70,854	-0,080	-0,022
-554,671	-169,878	-0,072	-0,002
-553,656	-120,081	0,088	0,011
-552,642	-107,047	0,044	-0,007
-551,627	800,000	0,067	0,140
-550,612	-119,707	-0,172	0,021
-549,598	180,256	-0,056	-0,059
-548,583	55,786	-0,101	-0,071
-547,569	90,981	0,048	0,039
-546,554	800,000	0,049	-0,130
-545,539	133,181	-0,066	0,062
-544,525	-12,169	0,033	0,016
-543,510	3,712	-0,101	0,053
-542,496	-64,181	-0,185	-0,054
-541,481	800,000	-0,006	0,013
-540,466	-5,933	0,142	-0,070
-539,452	-200,000	-0,012	0,042
-538,437	30,293	-0,107	0,066
-537,423	-200,000	0,005	0,071
-536,408	59,264	-0,044	0,031
-535,393	230,512	0,076	-0,090
-534,379	-81,740	-0,073	0,017
-533,364	-104,376	0,068	0,011
-532,350	-200,000	0,020	0,111
-531,335	-200,000	0,013	0,097
-530,321	99,771	-0,054	0,045
-529,306	-200,000	0,033	0,134
-528,291	62,500	-0,112	-0,081
-527,277	-200,000	-0,007	-0,060
-526,262	173,932	-0,061	-0,064
-525,248	-200,000	0,013	0,076
-524,233	70,108	0,065	0,048
-523,218	22,861	0,129	0,076
-522,204	28,785	-0,178	0,109
-521,189	514,534	-0,020	-0,034
-520,175	396,167	-0,072	0,109
-519,160	648,135	-0,067	0,124
-518,145	151,182	0,019	-0,019
-517,131	800,000	0,038	0,109
-516,116	190,432	-0,058	0,063
-515,102	-200,000	0,010	0,040
-514,087	-126,655	-0,049	0,005
-513,072	46,935	0,113	-0,076
-512,058	554,997	0,072	-0,125
-511,043	-200,000	-0,027	-0,124
-510,029	-74,046	0,099	0,026
-509,014	156,401	0,059	-0,058
-507,999	558,909	0,050	0,088
-506,985	-101,255	-0,062	-0,011
-505,970	706,230	0,060	-0,115
-504,956	61,176	-0,080	-0,058
-503,941	-56,174	0,099	-0,032
-502,926	-200,000	0,010	-0,038
-501,912	800,000	-0,046	0,111
-500,897	94,374	-0,014	0,011
-499,883	-200,000	0,001	-0,027
-498,868	475,615	-0,068	-0,112
-497,853	-200,000	0,016	-0,150
-496,839	800,000	0,062	0,135
-495,824	229,295	-0,084	0,099
-494,810	314,785	-0,047	-0,064
-493,795	-200,000	-0,006	0,155
-492,781	228,314	-0,029	-0,034
-491,766	800,000	0,036	-0,096
-490,751	-79,439	-0,122	0,029
-489,737	-3,250	0,056	0,028
-488,722	-91,379	0,181	0,037
-487,708	434,316	-0,090	-0,141
-486,693	-113,046	-0,057	-0,008
-485,678	-90,738	0,146	0,030
-484,664	430,816	-0,034	-0,054
-483,649	-200,000	0,011	-0,060
-482,635	-200,000	-0,002	-0,041
-481,620	117,214	0,084	0,074
-480,605	-151,858	-0,033	-0,002
-479,591	-200,000	-0,010	-0,078
-478,576	479,906	0,033	0,055
-477,562	-200,000	0,005	0,092
-476,547	-17,825	-0,009	-0,004
-475,532	-200,000	0,009	0,069
-474,518	521,869	-0,042	-0,071
-473,503	-200,000	0,017	0,146
-472,489	259,372	0,117	0,146
-471,474	336,451	0,026	-0,036
-470,459	64,066	-0,186	-0,135
-469,445	-200,000	-0,018	0,106
-468,430	522,863	0,041	0,070
-467,416	11,136	0,026	-0,014
-466,401	-138,933	0,075	0,006
-465,386	-55,275	0,043	0,014
-464,372	125,842	0,068	0,062
-463,357	-200,000	-0,004	-0,025
-462,343	14,387	-0,059	-0,033
-461,328	105,511	-0,118	-0,100
-460,313	8,889	0,092	0,050
-459,299	-200,000	0,005	0,136
-458,284	62,587	0,034	0,025
-457,270	-200,000	0,009	-0,051
-456,255	800,000	0,050	-0,128
-455,241	113,321	-0,106	-0,092
-454,226	800,000	0,052	0,109
-453,211	118,515	0,116	0,103
-452,197	254,783	-0,076	0,094
-451,182	720,220	-0,027	0,051
-450,168	58,543	-0,133	-0,094
-449,153	-200,000	0,021	-0,127
-448,138	445,253	-0,078	-0,124
-447,124	-133,523	0,020	0,002
-446,109	-200,000	0,010	-0,187
-445,095	-159,084	0,049	0,002
-444,080	80,730	0,084	-0,065
-443,065	-200,000	0,013	0,082
-442,051	-89,152	0,068	0,014
-441,036	800,000	-0,023	-0,055
-440,022	494,280	-0,017	0,029
-439,007	-30,566	0,106	0,043
-437,992	-121,853	0,086	0,010
-436,978	-200,000	0,009	0,036
-435,963	-200,000	0,025	0,139
-434,949	800,000	-0,035	-0,079
-433,934	800,000	-0,036	-0,098
-432,919	274,018	-0,066	-0,084
-431,905	-200,000	-0,008	0,091
-430,890	-141,948	0,065	-0,005
-429,876	-200,000	-0,015	0,051
-428,861	77,177	-0,021	0,016
-427,846	197,831	-0,053	0,059
-426,832	389,051	0,049	-0,073
-425,817	699,748	-0,032	-0,061
-424,803	-200,000	0,006	0,041
-423,788	-124,985	-0,077	-0,008
-422,773	800,000	-0,034	-0,097
-421,759	-150,790	-0,076	-0,004
-420,744	-200,000	0,009	-0,121
-419,730	166,948	-0,111	-0,114
-418,715	121,279	0,132	-0,119
-417,701	-200,000	-0,020	-0,091
-416,686	51,524	0,114	-0,078
-415,671	6,867	-0,099	-0,053
-414,657	216,705	0,107	-0,122
-413,642	-32,057	-0,143	-0,057
-412,628	800,000	0,029	0,065
-411,613	607,612	-0,040	-0,073
-410,598	301,347	-0,080	-0,107
-409,584	-200,000	0,009	-0,175
-408,569	-11,609	0,240	0,113
-407,555	201,798	0,046	0,051
-406,540	68,257	0,051	0,037
-405,525	-200,000	-0,034	-0,117
-404,511	74,172	-0,084	-0,063
-403,496	131,188	0,034	0,032
-402,482	800,000	0,011	-0,033
-401,467	800,000	-0,038	-0,085
-400,452	-190,781	0,071	-0,001
-399,438	374,281	0,078	-0,114
-398,423	-62,086	-0,064	0,019
-397,409	-200,000	0,001	0,008
-396,394	110,729	-0,112	-0,097
-395,379	706,506	-0,029	-0,055
-394,365	-200,000	0,000	0,028
-393,350	-200,000	-0,006	0,155
-392,336	-74,050	-0,072	-0,019
-391,321	-143,053	-0,049	0,003
-390,306	33,547	-0,079	0,050
-389,292	-161,731	-0,105	0,004
-388,277	10,918	0,152	0,083
-387,263	800,000	0,019	0,056
-386,248	800,000	-0,043	0,100
-385,233	-200,000	-0,008	0,167
-384,219	268,009	0,088	0,110
-383,204	525,988	0,049	0,084
-382,190	295,153	-0,126	-0,166
-381,175	-200,000	0,036	-0,160
-380,160	-200,000	0,037	0,172
-379,146	-106,864	0,243	0,038
-378,131	124,870	-0,072	-0,066
-377,117	75,767	0,092	0,070
-376,102	-162,961	0,012	-0,000
-375,088	-200,000	-0,023	-0,106
-374,073	36,255	0,096	-0,060
-373,058	157,046	-0,073	0,072
-372,044	-103,737	0,042	0,007
-371,029	-200,000	-0,009	0,096
-370,015	174,574	0,089	-0,092
-369,000	735,266	0,038	-0,074
-367,985	800,000	-0,012	0,031
-366,971	-57,315	-0,063	-0,020
-365,956	-41,739	0,077	0,028
-364,942	235,559	0,033	-0,039
-363,927	-200,000	-0,038	0,141
-362,912	-130,644	0,055	-0,005
-361,898	104,488	0,111	0,094
-360,883	800,000	0,020	0,049
-359,869	-102,833	-0,158	-0,027
-358,854	-200,000	0,020	0,156
-357,839	-49,809	0,054	-0,018
-356,825	-40,823	-0,020	0,007
-355,810	-126,316	0,102	0,011
-354,796	415,804	-0,100	0,154
-353,781	800,000	0,036	-0,078
-352,766	800,000	-0,017	0,037
-351,752	-25,613	0,049	-0,021
-350,737	469,501	0,019	-0,031
-349,723	-200,000	0,007	-0,089
-348,708	526,537	0,004	-0,006
-347,693	26,678	-0,113	-0,068
-346,679	453,131	0,019	-0,031
-345,664	11,244	-0,112	0,061
-344,650	188,797	0,107	0,115
-343,635	-40,866	0,247	0,091
-342,620	-200,000	-0,009	0,056
-341,606	-105,102	-0,082	-0,013
-340,591	-200,000	0,027	-0,137
-339,577	-200,000	-0,048	-0,177
-338,562	339,008	-0,091	-0,127
-337,548	545,074	-0,033	0,058
-336,533	-5,193	0,106	0,052
-335,518	481,340	0,007	0,012
-334,504	763,640	-0,053	-0,103
-333,489	-32,251	0,134	0,054
-332,475	517,787	0,031	-0,053
-331,460	110,941	-0,083	-0,071
-330,445	-73,629	0,141	-0,037
-329,431	483,845	0,028	0,046
-328,416	-81,152	0,129	0,030
-327,402	290,551	0,067	-0,088
-326,387	255,604	0,112	0,137
-325,372	106,650	-0,015	-0,013
-324,358	28,681	-0,031	0,019
-323,343	419,632	0,054	-0,083
-322,329	207,235	-0,044	0,049
-321,314	23,265	0,177	0,104
-320,299	530,490	0,042	-0,071
-319,285	262,234	-0,064	0,080
-318,270	409,739	0,052	0,080
-317,256	-38,751	-0,228	0,086
-316,241	-200,000	0,009	-0,071
-315,226	631,610	0,033	0,061
-314,212	570,701	0,063	0,111
-313,197	-200,000	-0,008	-0,080
-312,183	800,000	-0,018	0,042
-311,168	149,531	-0,042	0,041
-310,153	800,000	-0,042	-0,094
-309,139	-31,825	0,018	-0,007
-308,124	-200,000	0,011	-0,036
-307,110	22,761	0,054	-0,032
-306,095	20,391	0,098	0,056
-305,080	-106,854	-0,117	-0,018
-304,066	-37,169	-0,157	-0,060
-303,051	-200,000	-0,010	-0,111
-302,037	160,298	-0,079	0,079
-301,022	-200,000	-0,014	0,053
-300,008	-200,000	-0,021	0,109
-298,993	205,963	0,092	0,103
-297,978	-68,803	-0,134	-0,037
-296,964	800,000	0,021	-0,066
-295,949	340,015	0,042	-0,059
-294,935	-155,804	-0,142	0,006
-293,920	-200,000	-0,001	0,082
-292,905	211,367	0,091	0,102
-291,891	-158,497	0,050	0,002
-290,876	305,664	-0,026	0,035
-289,862	778,618	0,071	0,140
-288,847	100,410	-0,025	-0,020
-287,832	-200,000	0,028	0,093
-286,818	800,000	0,025	-0,067
-285,803	800,000	0,012	-0,032
-284,789	-200,000	0,002	0,019
-283,774	146,869	-0,020	0,019
-282,759	208,741	0,051	0,057
-281,745	77,368	-0,128	-0,098
-280,730	107,429	-0,036	0,030
-279,716	-36,115	0,090	-0,035
-278,701	800,000	0,029	-0,076
-277,686	800,000	0,037	0,102
-276,672	192,701	0,104	-0,112
-275,657	-106,102	0,114	-0,018
-274,643	35,319	-0,141	0,088
-273,628	124,522	-0,062	0,056
-272,613	-200,000	-0,004	0,063
-271,599	-53,615	-0,133	-0,043
-270,584	47,660	-0,089	-0,059
-269,570	79,462	0,086	-0,066
-268,555	-200,000	-0,011	0,096
-267,540	-200,000	-0,017	-0,053
-266,526	160,131	-0,077	0,077
-265,511	110,725	0,094	0,081
-264,497	-200,000	0,001	0,056
-263,482	-60,887	0,062	0,019
-262,467	-56,222	-0,082	-0,026
-261,453	800,000	0,014	0,033
-260,438	-107,932	-0,086	-0,013
-259,424	162,329	-0,087	0,087
-258,409	64,833	0,065	0,047
-257,395	-21,199	0,090	-0,039
-256,380	-200,000	-0,024	0,107
-255,365	429,608	0,038	0,059
-254,351	800,000	0,038	-0,084
-253,336	-49,885	0,066	-0,022
-252,322	246,497	-0,102	-0,124
-251,307	133,778	0,037	-0,034
-250,292	550,064	0,046	0,079
-249,278	28,190	-0,083	0,050
-248,263	27,867	-0,042	-0,025
-247,249	-58,621	0,060	0,019
-246,234	-200,000	-0,012	-0,038
-245,219	800,000	-0,040	-0,109
-244,205	676,356	0,063	-0,117
-243,190	-65,051	0,072	-0,021
-242,176	5,880	0,043	-0,023
-241,161	800,000	0,046	0,099
-240,146	178,871	-0,103	0,107
-239,132	160,248	0,098	-0,098
-238,117	-200,000	0,020	0,083
-237,103	-53,293	-0,120	0,039
-236,088	586,432	-0,037	0,065
-235,073	800,000	0,064	-0,158
-234,059	2,349	0,088	-0,045
-233,044	-22,903	-0,159	-0,068
-232,030	21,965	-0,028	-0,016
-231,015	-62,950	-0,068	-0,020
-230,000	190,275	-0,081	0,087
-228,986	-200,000	0,004	-0,070
-227,971	62,319	-0,093	-0,066
-226,957	800,000	-0,042	0,130
-225,942	631,919	-0,028	-0,050
-224,927	-200,000	0,026	0,102
-223,913	-147,066	-0,162	0,010
-222,898	-118,376	0,140	0,017
-221,884	-54,375	0,086	-0,028
-220,869	-146,044	-0,085	-0,005
-219,855	-185,740	0,043	0,000
-218,840	16,461	0,130	-0,073
-217,825	-14,415	0,062	-0,028
-216,811	89,714	-0,077	0,061
-215,796	-83,120	0,053	-0,012
-214,782	755,318	-0,045	-0,087
-213,767	-200,000	0,046	0,166
-212,752	149,968	0,091	-0,089
-211,738	621,993	0,074	0,133
-210,723	115,504	0,037	-0,032
-209,709	800,000	0,017	-0,038
-208,694	31,936	-0,107	-0,066
-207,679	800,000	0,032	0,093
-206,665	-111,727	0,058	-0,008
-205,650	-107,854	-0,068	0,010
-204,636	79,611	-0,140	0,108
-203,621	800,000	-0,016	-0,042
-202,606	97,885	-0,064	0,052
-201,592	-37,457	-0,139	0,053
-200,577	253,155	-0,090	0,109
-199,563	-200,000	0,174	-0,000
-198,548	-45,133	-0,026	-0,009
-197,533	800,000	-0,067	0,148
-196,519	-80,303	0,094	-0,022
-195,504	32,893	-0,067	-0,041
-194,490	-15,923	0,066	0,030
-193,475	800,000	-0,030	-0,061
-192,460	297,979	0,049	0,065
-191,446	800,000	0,024	0,071
-190,431	172,940	0,078	0,080
-189,417	800,000	0,020	0,060
-188,402	-46,664	0,027	-0,010
-187,387	302,384	0,047	-0,062
-186,373	486,943	-0,059	0,096
-185,358	-2,430	0,092	-0,046
-184,344	181,690	0,019	0,020
-183,329	800,000	0,048	-0,106
-182,315	800,000	0,024	-0,064
-181,300	231,964	-0,073	-0,086
-180,285	224,017	0,048	-0,055
-179,271	151,911	0,047	-0,046
-178,256	267,808	-0,035	-0,044
-177,242	117,241	0,090	0,079
-176,227	342,996	0,045	-0,063
-175,212	-148,480	0,039	-0,002
-174,198	-66,411	-0,039	-0,011
-173,183	210,256	0,009	0,010
-172,169	67,661	-0,157	-0,114
-171,154	-200,000	0,023	-0,102
-170,139	103,922	0,030	-0,025
-169,125	78,398	-0,069	0,052
-168,110	-85,869	0,027	0,006
-167,096	-136,152	-0,053	0,004
-166,081	0,946	0,098	-0,050
-165,066	800,000	-0,041	-0,100
-164,052	-200,000	-0,028	0,125
-163,037	-200,000	0,001	0,076
-162,023	71,454	-0,041	0,031
-161,008	800,000	0,051	0,104
-159,993	38,018	-0,088	0,056
-158,979	-200,000	0,024	-0,086
-157,964	38,434	-0,115	-0,073
-156,950	371,986	0,066	-0,096
-155,935	-200,000	-0,007	-0,060
-154,920	130,368	-0,068	0,063
-153,906	-19,878	-0,137	0,060
-152,891	-98,358	0,145	-0,026
-151,877	-79,310	0,049	-0,012
-150,862	16,005	-0,189	-0,106
-149,847	-200,000	-0,007	-0,090
-148,833	-85,221	-0,125	0,028
-147,818	84,651	-0,039	0,030
-146,804	-89,173	0,171	-0,036
-145,789	188,426	-0,039	0,042
-144,775	462,250	0,020	-0,031
-143,760	-20,915	0,104	-0,045
-142,745	207,273	0,085	-0,094
-141,731	-200,000	-0,001	0,081
-140,716	-200,000	-0,032	-0,223
-139,702	200,532	-0,017	0,019
-138,687	101,396	0,096	0,079
-137,672	-55,061	-0,056	0,018
-136,658	800,000	-0,105	-0,226
-135,643	2,305	-0,118	0,061
-134,629	-142,055	0,025	-0,002
-133,614	730,902	-0,022	0,041
-132,599	-200,000	0,008	-0,040
-131,585	282,670	0,110	0,140
-130,570	-94,727	-0,137	-0,026
-129,556	-141,252	0,023	-0,002
-128,541	47,446	-0,124	-0,082
-127,526	101,687	0,098	-0,081
-126,512	-58,920	-0,085	-0,026
-125,497	-200,000	0,001	0,055
-124,483	344,253	-0,063	0,088
-123,468	601,382	-0,055	-0,098
-122,453	800,000	0,016	-0,042
-121,439	32,588	-0,116	-0,071
-120,424	502,569	0,039	0,065
-119,410	800,000	0,035	0,078
-118,395	-200,000	-0,027	0,150
