DTS Sentinel unit serial number:	SN410029Multiplexer serial number:	ORYXHardware model number:	OX2-SRSoftware version number:	ORYX F/W v4,00 Oryx Data Collector v3.7.2.0data status	okinstallation	BH3 CH2differential loss correction	single-endedforward channel	channel 2reverse channel	N/Adate	2023/12/05time	17:22:28forward acquisition time	300,00reverse acquisition time	0,00gamma	499,1914k internal	0,3192k external	0,3192temperature offset calibration	1,0000default loss term (dB/km)	0,3820temperature slope calibration	1,0000multiplexer offset coefficient	1,0000multiplexer slope coefficient	1,0000fibre end	0,00T internal ref (°C)	10,88T ext. ref 1 (°C)	-3,86T ext. ref 2 (°C)	-3,99length (m)	temperature (°C)	Stokes	anti-Stokes-744,400	501,308	0,037	-0,063
-743,385	800,000	-0,140	0,295
-742,371	20,762	-0,174	-0,103
-741,356	194,467	-0,133	0,147
-740,342	800,000	-0,032	-0,090
-739,327	8,861	-0,201	0,110
-738,312	-200,000	-0,007	-0,071
-737,298	46,354	-0,283	0,191
-736,283	227,757	-0,150	-0,178
-735,269	-200,000	0,026	0,110
-734,254	11,777	0,172	-0,096
-733,239	-99,418	-0,439	-0,080
-732,225	590,548	0,045	-0,081
-731,210	-200,000	0,003	0,112
-730,196	-200,000	-0,031	-0,106
-729,181	151,212	-0,092	0,091
-728,167	184,406	-0,041	-0,044
-727,152	334,196	-0,113	-0,160
-726,137	323,029	-0,052	-0,072
-725,123	-48,080	-0,104	-0,037
-724,108	279,904	-0,094	0,123
-723,094	88,150	-0,164	0,133
-722,079	415,161	0,060	0,094
-721,064	188,378	0,010	0,011
-720,050	-200,000	0,061	0,000
-719,035	800,000	-0,022	-0,057
-718,021	800,000	-0,048	-0,134
-717,006	295,294	-0,078	-0,105
-715,991	-81,646	-0,132	-0,031
-714,977	800,000	-0,014	-0,033
-713,962	312,450	0,035	-0,048
-712,948	-52,451	-0,130	-0,043
-711,933	473,131	0,024	-0,039
-710,918	21,867	-0,060	0,036
-709,904	124,990	-0,062	-0,057
-708,889	-9,285	-0,093	-0,045
-707,875	40,560	-0,115	-0,075
-706,860	-65,411	0,179	0,052
-705,845	-200,000	0,001	0,004
-704,831	-64,542	-0,096	0,028
-703,816	306,545	-0,034	-0,046
-702,802	21,525	-0,035	0,021
-701,787	-103,621	0,191	-0,032
-700,772	-20,621	0,070	-0,031
-699,758	-200,000	-0,006	-0,118
-698,743	33,813	0,051	0,033
-697,729	92,980	-0,053	0,043
-696,714	60,938	-0,117	0,084
-695,699	81,821	0,064	-0,051
-694,685	-16,389	0,049	-0,023
-693,670	-200,000	0,012	0,103
-692,656	-200,000	0,020	0,159
-691,641	-200,000	-0,004	0,067
-690,627	800,000	0,034	0,090
-689,612	-118,560	0,030	-0,004
-688,597	449,807	-0,035	-0,056
-687,583	-200,000	-0,041	-0,152
-686,568	774,385	-0,113	-0,225
-685,554	800,000	0,015	0,031
-684,539	-200,000	-0,004	0,040
-683,524	-171,189	0,080	0,002
-682,510	176,391	-0,060	-0,063
-681,495	45,807	-0,025	0,017
-680,481	-200,000	-0,010	-0,049
-679,466	-200,000	-0,010	-0,232
-678,451	800,000	0,019	-0,047
-677,437	-200,000	-0,013	0,094
-676,422	20,004	-0,084	-0,049
-675,408	-96,904	-0,072	0,014
-674,393	-53,474	0,120	0,040
-673,378	-104,087	-0,198	-0,033
-672,364	114,008	-0,092	0,081
-671,349	11,324	-0,104	-0,058
-670,335	800,000	-0,026	-0,076
-669,320	-200,000	-0,004	0,033
-668,305	87,340	0,074	0,059
-667,291	-200,000	-0,016	-0,098
-666,276	24,664	-0,126	-0,075
-665,262	-11,280	0,082	0,039
-664,247	24,648	-0,152	-0,091
-663,232	115,433	0,043	-0,038
-662,218	411,138	0,089	-0,138
-661,203	28,729	0,163	0,100
-660,189	-104,746	-0,027	-0,005
-659,174	-130,456	-0,099	-0,010
-658,159	569,881	-0,053	0,095
-657,145	-200,000	-0,006	0,050
-656,130	-200,000	0,001	0,103
-655,116	758,257	-0,035	0,070
-654,101	800,000	-0,041	0,109
-653,086	-200,000	0,013	0,074
-652,072	800,000	-0,032	0,067
-651,057	39,549	-0,075	-0,049
-650,043	80,846	-0,095	0,075
-649,028	115,429	-0,044	-0,039
-648,014	-200,000	0,001	0,061
-646,999	-200,000	-0,008	-0,082
-645,984	214,554	-0,074	0,085
-644,970	-62,123	0,085	-0,026
-643,955	-200,000	0,046	-0,201
-642,941	-200,000	0,030	0,106
-641,926	-17,103	0,045	0,020
-640,911	-79,325	-0,105	-0,026
-639,897	800,000	-0,031	0,080
-638,882	332,715	0,057	0,080
-637,868	-67,221	-0,047	-0,013
-636,853	-200,000	-0,015	-0,105
-635,838	226,900	-0,018	-0,021
-634,824	-200,000	-0,010	-0,033
-633,809	-25,756	0,160	0,068
-632,795	242,551	0,063	-0,077
-631,780	209,538	0,035	0,040
-630,765	-118,355	-0,065	-0,008
-629,751	-96,159	0,119	0,023
-628,736	-200,000	-0,038	-0,140
-627,722	-200,000	0,000	-0,012
-626,707	18,938	-0,026	-0,015
-625,692	267,234	-0,009	0,012
-624,678	40,351	-0,066	-0,043
-623,663	-200,000	0,015	0,119
-622,649	738,155	-0,049	-0,096
-621,634	800,000	-0,014	-0,035
-620,619	-17,545	-0,054	-0,024
-619,605	-152,322	-0,033	-0,002
-618,590	-155,826	-0,178	-0,008
-617,576	219,404	0,072	0,084
-616,561	750,410	-0,080	0,158
-615,546	-130,892	0,142	-0,014
-614,532	90,273	-0,069	-0,056
-613,517	-200,000	0,032	0,146
-612,503	-200,000	0,008	0,099
-611,488	6,899	0,105	-0,056
-610,474	800,000	-0,034	0,093
-609,459	160,577	-0,018	-0,019
-608,444	-200,000	0,001	-0,024
-607,430	247,404	-0,125	-0,153
-606,415	-61,600	0,066	-0,020
-605,401	-200,000	0,013	0,057
-604,386	323,021	0,113	0,156
-603,371	-88,389	-0,142	-0,031
-602,357	-200,000	0,101	0,000
-601,342	-5,836	0,094	0,046
-600,328	-200,000	-0,010	-0,051
-599,313	-200,000	-0,004	0,106
-598,298	480,665	-0,035	0,058
-597,284	21,172	-0,035	0,021
-596,269	80,860	-0,047	0,037
-595,255	-200,000	0,014	-0,056
-594,240	-200,000	-0,002	-0,073
-593,225	220,665	-0,020	0,023
-592,211	200,479	-0,102	-0,114
-591,196	145,212	0,094	-0,091
-590,182	-38,908	0,076	-0,029
-589,167	460,860	0,050	-0,082
-588,152	-20,218	-0,058	0,026
-587,138	-200,000	0,015	-0,074
-586,123	-200,000	0,027	-0,164
-585,109	-121,774	-0,280	0,033
-584,094	-122,916	0,164	0,019
-583,079	800,000	-0,041	0,105
-582,065	-200,000	-0,010	0,077
-581,050	-158,674	-0,132	-0,005
-580,036	800,000	0,054	0,135
-579,021	-115,900	-0,069	-0,009
-578,006	24,604	-0,126	-0,075
-576,992	-48,706	0,065	-0,023
-575,977	-51,599	-0,051	-0,017
-574,963	-97,519	0,108	0,020
-573,948	-163,990	0,137	0,005
-572,934	128,587	-0,052	-0,048
-571,919	119,226	-0,049	-0,044
-570,904	-7,345	-0,014	-0,007
-569,890	177,635	-0,033	0,035
-568,875	-200,000	0,008	0,142
-567,861	36,377	-0,020	0,013
-566,846	190,661	0,052	-0,057
-565,831	-200,000	-0,021	0,092
-564,817	33,913	0,130	0,082
-563,802	171,439	-0,141	-0,147
-562,788	104,839	-0,029	-0,024
-561,773	800,000	-0,096	-0,223
-560,758	-200,000	0,028	0,203
-559,744	800,000	0,031	0,068
-558,729	25,873	-0,126	-0,076
-557,715	-133,958	0,072	0,006
-556,700	614,299	-0,048	0,088
-555,685	-73,918	0,127	-0,033
-554,671	-172,032	-0,056	-0,001
-553,656	-102,220	0,069	0,012
-552,642	-200,000	0,009	0,114
-551,627	266,539	0,035	-0,044
-550,612	198,652	-0,042	0,047
-549,598	212,646	0,026	0,030
-548,583	163,251	0,044	-0,045
-547,569	-200,000	0,028	-0,124
-546,554	-200,000	0,013	-0,106
-545,539	221,552	0,097	0,112
-544,525	-138,292	0,196	0,015
-543,510	-26,070	-0,119	0,050
-542,496	549,989	-0,063	-0,110
-541,481	-200,000	0,015	-0,050
-540,466	-200,000	-0,005	-0,118
-539,452	-200,000	-0,002	-0,111
-538,437	79,198	0,032	-0,025
-537,423	116,146	0,042	0,037
-536,408	-33,124	0,115	-0,046
-535,393	8,828	-0,051	-0,028
-534,379	117,549	-0,019	-0,017
-533,364	793,892	-0,020	-0,039
-532,350	147,586	0,102	-0,099
-531,335	106,851	-0,033	-0,028
-530,321	271,176	-0,053	-0,067
-529,306	-119,109	0,052	-0,006
-528,291	68,167	-0,144	-0,107
-527,277	-130,138	-0,072	-0,007
-526,262	-72,865	0,098	-0,026
-525,248	401,928	-0,040	0,062
-524,233	-120,515	0,035	-0,004
-523,218	97,750	0,124	0,103
-522,204	531,209	-0,032	-0,054
-521,189	39,006	-0,067	0,043
-520,175	34,222	0,027	0,017
-519,160	81,096	-0,049	-0,038
-518,145	519,077	0,076	0,129
-517,131	-200,000	0,015	0,144
-516,116	-200,000	0,002	0,053
-515,102	58,617	-0,078	0,055
-514,087	74,926	0,070	0,054
-513,072	109,030	-0,109	0,094
-512,058	-200,000	-0,035	-0,155
-511,043	-200,000	0,036	0,172
-510,029	136,343	0,039	-0,037
-509,014	800,000	-0,029	0,070
-507,999	154,771	0,021	0,021
-506,985	-91,693	0,066	-0,013
-505,970	-58,766	-0,175	-0,054
-504,956	-200,000	0,024	0,094
-503,941	-117,401	-0,074	0,010
-502,926	35,656	0,082	-0,052
-501,912	222,610	0,079	-0,092
-500,897	-92,529	0,008	-0,002
-499,883	-109,424	-0,129	0,019
-498,868	-61,444	0,076	-0,023
-497,853	15,338	-0,057	0,032
-496,839	-72,351	0,168	0,044
-495,824	-117,184	0,091	0,012
-494,810	-200,000	-0,011	0,084
-493,795	-172,436	-0,052	-0,001
-492,781	16,069	-0,164	0,093
-491,766	-16,104	0,152	0,069
-490,751	94,423	0,059	0,048
-489,737	8,189	-0,075	0,041
-488,722	-200,000	0,016	0,125
-487,708	-73,791	0,109	-0,028
-486,693	119,558	0,038	0,034
-485,678	-37,270	-0,045	-0,017
-484,664	205,833	-0,027	-0,030
-483,649	-200,000	0,019	0,121
-482,635	14,823	0,031	-0,017
-481,620	89,128	-0,047	0,038
-480,605	800,000	0,069	-0,194
-479,591	-45,783	0,125	0,044
-478,576	19,778	0,066	-0,038
-477,562	204,048	-0,070	-0,078
-476,547	56,423	0,154	0,108
-475,532	-200,000	-0,031	-0,176
-474,518	-200,000	0,011	0,082
-473,503	800,000	-0,051	0,119
-472,489	51,380	0,007	0,005
-471,474	239,014	0,024	0,029
-470,459	-200,000	0,028	-0,185
-469,445	487,688	0,093	-0,154
-468,430	234,752	-0,036	0,043
-467,416	-200,000	-0,023	0,079
-466,401	268,554	0,085	0,108
-465,386	-118,808	0,029	0,004
-464,372	324,538	0,005	-0,007
-463,357	-200,000	0,010	0,037
-462,343	263,557	0,074	-0,092
-461,328	324,376	-0,020	-0,028
-460,313	-200,000	0,008	0,106
-459,299	-200,000	-0,006	0,245
-458,284	-200,000	0,001	0,114
-457,270	-200,000	0,001	-0,058
-456,255	-52,524	-0,130	-0,043
-455,241	-200,000	-0,026	-0,097
-454,226	12,409	-0,134	0,074
-453,211	-160,522	0,148	-0,006
-452,197	-200,000	0,007	-0,022
-451,182	-1,211	0,118	0,060
-450,168	-123,705	-0,246	0,028
-449,153	149,791	0,026	0,025
-448,138	-200,000	-0,017	-0,068
-447,124	173,758	-0,125	-0,130
-446,109	800,000	0,021	0,044
-445,095	-119,528	-0,061	-0,008
-444,080	460,539	-0,033	0,053
-443,065	800,000	-0,015	0,030
-442,051	-25,317	-0,125	-0,053
-441,036	800,000	0,081	-0,179
-440,022	800,000	0,014	-0,032
-439,007	17,699	0,042	-0,024
-437,992	395,405	-0,020	0,031
-436,978	-110,465	0,036	0,005
-435,963	800,000	-0,037	0,079
-434,949	-75,528	-0,153	0,039
-433,934	-200,000	0,000	-0,038
-432,919	-200,000	-0,001	0,021
-431,905	-200,000	0,010	-0,044
-430,890	-200,000	0,016	-0,092
-429,876	-200,000	0,015	0,091
-428,861	149,217	0,151	0,147
-427,846	181,966	-0,042	0,045
-426,832	6,200	-0,156	-0,083
-425,817	329,274	-0,076	-0,105
-424,803	138,022	0,052	-0,049
-423,788	-98,296	0,067	0,012
-422,773	9,379	0,020	-0,011
-421,759	-36,546	0,058	0,022
-420,744	112,173	-0,052	0,045
-419,730	800,000	0,018	0,054
-418,715	-200,000	0,004	-0,044
-417,701	680,490	0,016	0,030
-416,686	617,968	-0,039	-0,070
-415,671	-120,426	0,135	-0,016
-414,657	-105,352	0,108	-0,018
-413,642	-200,000	0,036	-0,144
-412,628	78,058	-0,197	-0,151
-411,613	148,930	0,036	0,035
-410,598	111,684	0,062	-0,054
-409,584	-103,409	0,144	0,024
-408,569	-200,000	-0,010	-0,087
-407,555	-18,608	0,079	0,036
-406,540	-200,000	-0,042	0,157
-405,525	-26,774	0,082	-0,034
-404,511	218,713	-0,060	-0,069
-403,496	732,972	0,095	-0,184
-402,482	-200,000	0,003	0,016
-401,467	150,672	0,048	0,047
-400,452	800,000	-0,013	0,033
-399,438	215,530	0,068	0,078
-398,423	99,484	-0,087	0,072
-397,409	800,000	-0,026	-0,070
-396,394	612,006	-0,035	-0,064
-395,379	-70,873	-0,140	-0,038
-394,365	335,239	-0,098	0,137
-393,350	541,547	0,024	0,041
-392,336	189,928	-0,036	-0,039
-391,321	-79,377	-0,019	-0,005
-390,306	-130,956	-0,109	0,010
-389,292	-140,648	0,114	-0,008
-388,277	516,021	0,019	0,031
-387,263	-188,364	-0,014	-0,000
-386,248	-200,000	0,011	-0,116
-385,233	80,839	0,051	0,039
-384,219	-79,405	0,115	0,028
-383,204	-200,000	-0,025	-0,112
-382,190	500,200	0,051	-0,085
-381,175	-19,647	0,126	0,056
-380,160	800,000	0,028	0,083
-379,146	-200,000	0,033	0,109
-378,131	-132,426	-0,029	-0,003
-377,117	204,277	-0,074	0,083
-376,102	353,334	0,022	0,031
-375,088	-200,000	-0,013	-0,095
-374,073	-200,000	-0,013	-0,059
-373,058	446,387	0,024	-0,038
-372,044	325,185	0,048	-0,066
-371,029	161,166	0,054	-0,055
-370,015	-200,000	0,003	0,076
-369,000	-200,000	-0,021	0,074
-367,985	207,538	0,083	-0,093
-366,971	592,598	-0,040	-0,071
-365,956	-200,000	0,001	-0,013
-364,942	-200,000	0,008	0,085
-363,927	13,947	0,100	0,056
-362,912	-200,000	-0,035	0,185
-361,898	370,287	-0,011	0,017
-360,883	-200,000	0,048	-0,168
-359,869	-200,000	-0,027	-0,106
-358,854	61,117	0,045	0,032
-357,839	-200,000	-0,024	-0,110
-356,825	95,713	-0,022	-0,018
-355,810	109,618	-0,115	0,099
-354,796	622,985	-0,116	0,210
-353,781	-48,030	-0,081	-0,028
-352,766	35,441	-0,006	0,004
-351,752	-71,556	0,129	0,034
-350,737	-38,025	0,209	0,079
-349,723	404,801	-0,049	0,074
-348,708	-59,121	0,053	-0,016
-347,693	800,000	0,012	-0,035
-346,679	800,000	0,035	-0,078
-345,664	449,293	-0,071	0,113
-344,650	17,003	0,037	-0,021
-343,635	12,733	-0,044	0,024
-342,620	702,129	0,022	0,041
-341,606	-200,000	-0,016	0,059
-340,591	-200,000	-0,005	0,105
-339,577	143,625	-0,023	0,022
-338,562	40,899	-0,137	0,089
-337,548	32,827	-0,047	-0,029
-336,533	800,000	-0,038	0,109
-335,518	160,584	0,033	0,033
-334,504	10,243	0,089	-0,048
-333,489	-2,384	-0,079	-0,040
-332,475	177,230	-0,117	-0,122
-331,460	164,445	-0,022	0,023
-330,445	155,287	-0,061	0,060
-329,431	800,000	0,030	-0,089
-328,416	33,405	-0,080	-0,050
-327,402	800,000	-0,058	0,136
-326,387	395,169	-0,038	-0,057
-325,372	-200,000	0,028	0,100
-324,358	311,537	-0,054	-0,073
-323,343	-41,398	0,046	0,017
-322,329	639,239	-0,028	-0,051
-321,314	-82,363	0,087	-0,020
-320,299	-200,000	-0,032	0,242
-319,285	-200,000	-0,025	0,157
-318,270	-200,000	0,004	-0,100
-317,256	-179,726	-0,030	0,000
-316,241	216,875	0,021	-0,024
-315,226	800,000	-0,026	0,066
-314,212	-200,000	0,049	0,215
-313,197	800,000	-0,030	0,078
-312,183	11,997	0,045	-0,025
-311,168	-200,000	0,030	-0,099
-310,153	-113,998	-0,103	0,014
-309,139	-200,000	-0,005	-0,038
-308,124	49,496	0,008	0,005
-307,110	163,227	0,074	0,075
-306,095	-200,000	-0,008	0,043
-305,080	-175,646	0,104	0,002
-304,066	800,000	0,009	-0,029
-303,051	-194,013	-0,053	-0,000
-302,037	-145,814	-0,126	-0,008
-301,022	-94,847	0,134	0,026
-300,008	-11,749	-0,037	-0,017
-298,993	158,548	0,080	0,080
-297,978	28,745	0,139	0,084
-296,964	38,787	-0,086	0,055
-295,949	117,720	-0,085	-0,075
-294,935	248,015	-0,041	-0,050
-293,920	800,000	0,029	-0,069
-292,905	639,960	0,085	0,155
-291,891	-179,116	0,102	0,002
-290,876	-16,446	0,116	0,052
-289,862	300,265	-0,031	-0,042
-288,847	-38,555	0,115	-0,043
-287,832	-10,034	-0,161	-0,076
-286,818	-142,732	0,077	-0,005
-285,803	-200,000	-0,011	0,082
-284,789	-200,000	0,012	0,087
-283,774	-6,989	0,045	0,022
-282,759	-40,760	-0,115	0,042
-281,745	227,807	-0,120	-0,140
-280,730	-20,358	0,057	0,025
-279,716	-115,772	-0,164	-0,022
-278,701	31,412	0,120	0,074
-277,686	388,825	0,059	0,087
-276,672	-103,997	-0,073	0,012
-275,657	727,830	-0,076	-0,145
-274,643	-200,000	-0,000	0,020
-273,628	440,514	-0,078	-0,122
-272,613	128,489	0,077	-0,070
-271,599	702,359	-0,044	-0,084
-270,584	345,391	0,040	0,056
-269,570	-200,000	0,018	0,059
-268,555	-76,095	0,054	-0,013
-267,540	800,000	-0,048	-0,136
-266,526	-200,000	-0,011	0,034
-265,511	-82,541	-0,089	0,021
-264,497	171,703	0,009	-0,009
-263,482	-128,107	0,046	0,005
-262,467	-25,049	-0,022	0,009
-261,453	-166,449	-0,129	-0,004
-260,438	-200,000	-0,007	-0,043
-259,424	24,898	0,054	0,032
-258,409	-99,082	-0,017	-0,003
-257,395	800,000	-0,035	0,093
-256,380	429,964	0,073	-0,114
-255,365	751,264	0,047	-0,091
-254,351	-200,000	0,031	-0,125
-253,336	-200,000	0,009	-0,091
-252,322	584,915	-0,072	-0,128
-251,307	10,949	-0,085	0,047
-250,292	615,816	0,039	-0,070
-249,278	-119,946	0,211	0,026
-248,263	213,790	0,083	0,094
-247,249	-200,000	0,020	0,172
-246,234	-200,000	-0,002	0,127
-245,219	-200,000	-0,002	-0,046
-244,205	-200,000	-0,011	0,050
-243,190	42,905	0,044	0,028
-242,176	111,248	0,050	0,043
-241,161	-200,000	-0,007	0,039
-240,146	-200,000	-0,022	0,120
-239,132	-144,180	0,033	-0,002
-238,117	-200,000	-0,042	-0,137
-237,103	-200,000	-0,012	-0,089
-236,088	270,678	-0,063	0,080
-235,073	130,137	0,109	0,100
-234,059	-126,102	0,090	-0,009
-233,044	-119,158	0,100	0,012
-232,030	800,000	-0,068	-0,148
-231,015	-28,496	-0,072	0,030
-230,000	28,990	-0,084	-0,051
-228,986	-25,385	-0,111	0,047
-227,971	-92,453	-0,101	0,020
-226,957	278,794	0,060	-0,076
-225,942	-200,000	-0,011	0,138
-224,927	91,195	0,121	0,097
-223,913	689,549	0,009	-0,017
-222,898	-86,888	-0,145	0,031
-221,884	-200,000	0,024	-0,166
-220,869	-100,819	0,059	-0,010
-219,855	593,564	-0,016	0,028
-218,840	-48,492	0,097	-0,033
-217,825	-200,000	-0,044	-0,165
-216,811	-154,946	-0,084	-0,004
-215,796	278,197	-0,058	-0,074
-214,782	-41,664	0,052	0,019
-213,767	-107,458	-0,054	-0,008
-212,752	-110,268	0,087	0,013
-211,738	-200,000	0,004	-0,127
-210,723	800,000	0,032	0,085
-209,709	-200,000	-0,017	-0,101
-208,694	390,888	0,082	-0,122
-207,679	-61,494	-0,102	-0,031
-206,665	-10,437	0,139	-0,065
-205,650	165,739	0,014	-0,014
-204,636	800,000	0,055	0,112
-203,621	278,724	0,068	-0,087
-202,606	-22,545	-0,188	-0,081
-201,592	448,394	0,055	-0,086
-200,577	518,296	-0,078	-0,131
-199,563	38,914	0,197	-0,125
-198,548	-132,393	-0,077	0,007
-197,533	349,599	-0,072	0,102
-196,519	-200,000	0,008	0,041
-195,504	-10,456	-0,070	0,033
-194,490	121,255	0,022	-0,019
-193,475	-108,931	-0,131	-0,020
-192,460	-200,000	0,002	-0,015
-191,446	690,419	0,087	0,164
-190,431	-50,382	-0,038	-0,013
-189,417	-57,678	-0,010	-0,003
-188,402	-29,042	-0,071	0,029
-187,387	-123,809	-0,097	0,011
-186,373	-80,280	-0,024	-0,006
-185,358	719,772	0,024	-0,046
-184,344	-164,678	0,040	0,001
-183,329	800,000	-0,031	0,066
-182,315	-200,000	-0,004	-0,114
-181,300	-200,000	-0,005	0,017
-180,285	206,717	0,039	-0,043
-179,271	800,000	0,033	0,074
-178,256	-138,298	-0,068	-0,005
-177,242	-120,093	0,129	-0,016
-176,227	-54,141	-0,075	-0,024
-175,212	800,000	0,034	0,082
-174,198	143,227	-0,053	0,050
-173,183	164,463	-0,146	0,147
-172,169	-200,000	0,002	-0,068
-171,154	152,085	0,011	-0,010
-170,139	-200,000	0,007	-0,035
-169,125	-200,000	-0,048	0,162
-168,110	-200,000	0,006	-0,049
-167,096	501,329	-0,095	-0,156
-166,081	800,000	-0,075	-0,165
-165,066	-133,381	-0,112	0,010
-164,052	-80,225	0,097	-0,023
-163,037	800,000	0,041	-0,114
-162,023	129,458	-0,028	-0,026
-161,008	-200,000	0,005	-0,085
-159,993	-112,329	0,128	0,018
-158,979	-85,532	-0,122	-0,027
-157,964	185,498	0,046	-0,049
-156,950	-57,884	-0,132	0,041
-155,935	-200,000	0,023	-0,078
-154,920	-36,728	-0,011	0,004
-153,906	279,478	0,046	0,059
-152,891	157,671	0,028	0,028
-151,877	-65,851	-0,089	-0,025
-150,862	800,000	-0,007	0,015
-149,847	800,000	-0,026	-0,066
-148,833	-200,000	-0,020	0,155
-147,818	27,715	0,085	-0,051
-146,804	-200,000	-0,011	-0,171
-145,789	-200,000	-0,009	-0,054
-144,775	-200,000	-0,003	-0,058
-143,760	515,368	-0,106	-0,177
-142,745	-200,000	-0,024	-0,109
-141,731	-200,000	-0,020	-0,095
-140,716	-200,000	0,021	-0,079
-139,702	157,132	0,040	-0,039
-138,687	-95,767	0,151	-0,028
-137,672	150,791	0,037	0,035
-136,658	-90,838	-0,155	-0,032
-135,643	-20,897	0,171	0,074
-134,629	-73,543	-0,107	0,028
-133,614	150,619	0,043	0,041
-132,599	-200,000	-0,019	0,150
-131,585	-200,000	-0,031	0,131
-130,570	316,472	0,099	0,134
-129,556	-200,000	-0,013	0,044
-128,541	290,542	-0,032	-0,042
-127,526	800,000	0,013	0,038
-126,512	800,000	-0,035	0,078
-125,497	800,000	0,023	-0,057
-124,483	58,974	0,078	0,055
-123,468	-70,959	-0,166	-0,044
-122,453	5,105	-0,050	0,026
-121,439	-5,711	0,058	-0,028
-120,424	-153,856	-0,083	-0,004
