DTS Sentinel unit serial number:	SN410029Multiplexer serial number:	ORYXHardware model number:	OX2-SRSoftware version number:	ORYX F/W v4,00 Oryx Data Collector v3.7.2.0data status	okinstallation	BH3 CH2differential loss correction	single-endedforward channel	channel 2reverse channel	N/Adate	2023/12/06time	01:37:28forward acquisition time	300,00reverse acquisition time	0,00gamma	499,1914k internal	0,3197k external	0,3197temperature offset calibration	1,0000default loss term (dB/km)	0,3820temperature slope calibration	1,0000multiplexer offset coefficient	1,0000multiplexer slope coefficient	1,0000fibre end	0,00T internal ref (°C)	9,18T ext. ref 1 (°C)	-5,77T ext. ref 2 (°C)	-5,86length (m)	temperature (°C)	Stokes	anti-Stokes-744,400	-138,544	-0,031	-0,002
-743,385	44,940	-0,300	0,201
-742,371	-144,116	0,085	-0,006
-741,356	227,006	-0,107	0,126
-740,342	56,601	-0,054	-0,038
-739,327	158,066	-0,080	0,081
-738,312	-200,000	-0,039	-0,176
-737,298	-74,929	-0,079	0,020
-736,283	-135,913	-0,163	0,014
-735,269	-63,402	-0,212	0,063
-734,254	352,729	0,078	-0,113
-733,239	-97,124	-0,267	-0,050
-732,225	-58,092	0,032	-0,010
-731,210	6,136	0,089	-0,048
-730,196	167,942	0,106	-0,110
-729,181	87,731	-0,084	-0,067
-728,167	389,987	-0,082	0,124
-727,152	370,884	-0,027	-0,040
-726,137	482,259	-0,025	0,042
-725,123	-200,000	-0,002	0,029
-724,108	561,288	-0,042	-0,075
-723,094	153,482	-0,087	-0,087
-722,079	49,963	-0,068	-0,047
-721,064	15,781	0,060	0,034
-720,050	481,122	0,011	0,019
-719,035	800,000	-0,039	0,080
-718,021	-200,000	-0,009	0,060
-717,006	167,910	-0,059	-0,062
-715,991	38,483	-0,036	-0,024
-714,977	36,855	-0,050	0,032
-713,962	-43,450	-0,088	-0,032
-712,948	150,085	0,057	-0,057
-711,933	283,461	0,026	0,034
-710,918	23,536	-0,078	-0,047
-709,904	256,234	0,083	0,104
-708,889	43,164	-0,068	-0,045
-707,875	141,740	-0,012	0,011
-706,860	-85,183	0,194	0,044
-705,845	800,000	-0,065	-0,133
-704,831	-16,700	-0,091	-0,042
-703,816	-52,597	0,069	-0,023
-702,802	315,709	-0,032	-0,043
-701,787	-30,435	-0,122	0,050
-700,772	-49,516	0,020	0,007
-699,758	78,238	0,106	0,082
-698,743	-32,554	0,054	-0,022
-697,729	-200,000	-0,002	0,023
-696,714	450,884	0,068	0,110
-695,699	-64,808	-0,086	-0,025
-694,685	-60,264	0,104	0,032
-693,670	33,150	-0,030	0,019
-692,656	107,074	0,010	-0,009
-691,641	-161,962	-0,073	0,003
-690,627	170,165	0,046	0,048
-689,612	422,770	0,042	0,066
-688,597	104,765	0,019	-0,017
-687,583	-200,000	-0,029	-0,179
-686,568	-165,641	0,042	-0,001
-685,554	800,000	-0,020	0,063
-684,539	137,501	0,097	-0,092
-683,524	-200,000	0,074	0,000
-682,510	-200,000	0,008	0,025
-681,495	253,053	0,040	-0,050
-680,481	215,895	-0,123	-0,142
-679,466	-200,000	-0,003	0,063
-678,451	151,221	0,037	-0,036
-677,437	721,554	0,026	-0,050
-676,422	800,000	-0,062	0,143
-675,408	-200,000	-0,012	0,217
-674,393	800,000	0,003	-0,007
-673,378	-200,000	-0,018	-0,147
-672,364	-200,000	0,027	0,154
-671,349	-200,000	-0,007	-0,067
-670,335	-126,705	0,055	0,006
-669,320	52,076	0,023	-0,016
-668,305	-35,970	0,102	0,040
-667,291	36,661	-0,203	0,130
-666,276	800,000	0,017	-0,042
-665,262	610,217	0,034	0,062
-664,247	-63,008	-0,084	0,025
-663,232	28,016	-0,132	0,080
-662,218	185,707	0,088	0,095
-661,203	800,000	0,041	-0,126
-660,189	692,150	0,064	-0,122
-659,174	71,138	-0,128	-0,096
-658,159	-200,000	-0,009	0,048
-657,145	3,716	-0,159	-0,084
-656,130	800,000	-0,024	-0,062
-655,116	800,000	0,075	0,154
-654,101	-200,000	0,031	0,154
-653,086	-91,856	0,018	-0,004
-652,072	-107,066	-0,127	0,020
-651,057	-50,342	0,015	-0,005
-650,043	76,246	-0,031	-0,024
-649,028	-94,109	-0,068	-0,013
-648,014	-200,000	0,026	-0,088
-646,999	-200,000	0,007	0,183
-645,984	-41,776	-0,072	-0,027
-644,970	-109,578	0,073	-0,011
-643,955	-31,776	-0,118	0,048
-642,941	-200,000	0,024	0,080
-641,926	-200,000	0,001	-0,153
-640,911	652,963	0,050	-0,093
-639,897	800,000	0,006	0,015
-638,882	-200,000	0,002	-0,093
-637,868	-107,146	-0,065	-0,010
-636,853	210,612	-0,089	-0,102
-635,838	436,075	-0,069	-0,110
-634,824	555,127	0,029	0,051
-633,809	15,035	0,097	-0,055
-632,795	-121,647	0,094	0,011
-631,780	86,286	-0,041	-0,033
-630,765	-200,000	-0,005	-0,112
-629,751	265,121	0,052	-0,066
-628,736	-74,404	-0,037	0,010
-627,722	58,719	0,141	-0,100
-626,707	40,258	0,088	0,057
-625,692	360,049	0,077	0,112
-624,678	-40,899	-0,039	-0,014
-623,663	800,000	-0,026	-0,070
-622,649	-68,979	-0,015	-0,004
-621,634	114,690	-0,128	-0,113
-620,619	2,147	-0,126	0,066
-619,605	800,000	-0,024	-0,051
-618,590	-200,000	0,090	-0,000
-617,576	-133,385	0,124	0,011
-616,561	-200,000	0,013	0,047
-615,546	-123,323	0,126	-0,014
-614,532	61,199	0,085	0,061
-613,517	526,781	-0,057	-0,097
-612,503	800,000	0,027	0,083
-611,488	-44,717	-0,095	-0,034
-610,474	85,359	0,059	-0,047
-609,459	-137,299	-0,093	-0,008
-608,444	-78,114	-0,059	-0,015
-607,430	-154,247	-0,162	-0,008
-606,415	-29,426	0,140	0,058
-605,401	-34,184	0,139	0,055
-604,386	98,171	0,044	0,037
-603,371	-200,000	0,007	0,071
-602,357	-167,227	-0,153	-0,004
-601,342	15,940	0,058	0,033
-600,328	56,072	-0,140	-0,098
-599,313	56,113	0,071	0,050
-598,298	-200,000	-0,044	0,170
-597,284	653,080	-0,051	0,095
-596,269	-52,377	-0,071	0,024
-595,255	800,000	0,020	0,053
-594,240	800,000	-0,052	-0,107
-593,225	585,761	-0,125	-0,223
-592,211	800,000	0,059	-0,137
-591,196	800,000	-0,008	-0,026
-590,182	351,857	-0,031	0,045
-589,167	280,134	0,053	0,069
-588,152	284,818	-0,048	-0,063
-587,138	-133,726	-0,090	-0,008
-586,123	-200,000	0,004	-0,050
-585,109	800,000	-0,039	0,083
-584,094	-100,884	-0,203	-0,036
-583,079	262,990	0,044	0,055
-582,065	-200,000	0,003	-0,021
-581,050	-200,000	0,000	0,091
-580,036	-60,171	0,058	0,018
-579,021	-74,408	-0,087	0,022
-578,006	800,000	-0,056	-0,142
-576,992	-195,730	0,086	-0,000
-575,977	800,000	0,022	-0,066
-574,963	-33,109	-0,111	0,044
-573,948	223,950	0,021	-0,025
-572,934	-200,000	-0,000	0,020
-571,919	-36,480	-0,108	-0,042
-570,904	86,229	-0,042	-0,033
-569,890	800,000	-0,025	-0,077
-568,875	-70,294	0,056	0,015
-567,861	800,000	-0,047	0,138
-566,846	-200,000	0,017	0,062
-565,831	114,635	-0,022	-0,020
-564,817	298,319	-0,022	-0,030
-563,802	74,715	-0,203	0,154
-562,788	104,770	-0,096	-0,082
-561,773	-200,000	0,001	0,046
-560,758	398,386	0,106	0,161
-559,744	-200,000	-0,007	0,027
-558,729	800,000	0,099	0,200
-557,715	-200,000	-0,037	-0,139
-556,700	2,426	-0,041	0,022
-555,685	722,423	0,021	0,042
-554,671	-200,000	-0,028	-0,132
-553,656	-61,728	-0,049	-0,015
-552,642	-159,847	-0,080	-0,003
-551,627	43,412	-0,126	0,083
-550,612	-200,000	0,006	-0,122
-549,598	-200,000	-0,010	-0,043
-548,583	-91,571	0,173	-0,035
-547,569	-200,000	-0,004	-0,058
-546,554	-200,000	-0,007	0,039
-545,539	11,255	-0,030	0,016
-544,525	-122,992	-0,130	0,015
-543,510	800,000	-0,032	0,090
-542,496	-89,364	-0,092	-0,019
-541,481	216,968	-0,078	-0,089
-540,466	-63,925	-0,034	0,010
-539,452	-139,690	0,072	0,005
-538,437	633,530	0,030	0,055
-537,423	-68,023	-0,010	-0,003
-536,408	800,000	-0,053	-0,150
-535,393	733,449	0,026	-0,051
-534,379	-34,096	0,143	0,056
-533,364	-107,492	0,035	0,006
-532,350	11,351	0,059	-0,033
-531,335	149,895	-0,064	0,063
-530,321	800,000	-0,025	0,057
-529,306	89,107	0,048	0,039
-528,291	800,000	-0,019	-0,041
-527,277	-200,000	-0,029	-0,102
-526,262	-56,024	-0,052	0,017
-525,248	400,038	0,032	0,049
-524,233	564,739	-0,040	0,071
-523,218	287,688	-0,065	0,085
-522,204	-200,000	0,016	0,084
-521,189	87,833	-0,046	-0,036
-520,175	431,039	-0,102	-0,160
-519,160	-200,000	0,006	-0,031
-518,145	-200,000	-0,004	-0,052
-517,131	-75,802	0,105	0,027
-516,116	2,676	0,073	-0,038
-515,102	659,185	-0,026	-0,049
-514,087	142,995	0,032	0,031
-513,072	-24,297	-0,086	-0,037
-512,058	195,055	-0,074	0,081
-511,043	-20,233	0,098	0,043
-510,029	800,000	-0,010	0,026
-509,014	-200,000	-0,011	0,126
-507,999	-34,321	-0,114	-0,045
-506,985	-6,867	0,068	0,033
-505,970	587,521	-0,029	0,052
-504,956	528,105	-0,027	-0,047
-503,941	-200,000	0,013	-0,083
-502,926	354,515	0,038	0,055
-501,912	-95,632	0,124	-0,024
-500,897	-186,119	0,028	-0,000
-499,883	-200,000	0,007	-0,132
-498,868	-200,000	-0,010	-0,104
-497,853	139,622	0,054	-0,051
-496,839	-200,000	-0,012	0,094
-495,824	-153,508	-0,024	0,001
-494,810	-180,498	0,069	0,001
-493,795	-200,000	0,017	0,111
-492,781	-89,154	-0,188	-0,040
-491,766	-200,000	0,022	-0,108
-490,751	-55,449	-0,107	0,034
-489,737	800,000	0,020	0,049
-488,722	800,000	0,020	-0,053
-487,708	-62,056	-0,134	0,040
-486,693	800,000	0,052	0,125
-485,678	-155,280	0,066	0,003
-484,664	161,149	-0,078	0,078
-483,649	-200,000	0,009	-0,066
-482,635	800,000	0,032	-0,072
-481,620	-75,774	0,073	0,018
-480,605	-200,000	0,010	0,069
-479,591	800,000	-0,009	0,025
-478,576	104,812	0,063	0,054
-477,562	748,321	-0,076	-0,148
-476,547	800,000	-0,039	-0,087
-475,532	143,068	0,018	-0,017
-474,518	111,885	0,142	0,123
-473,503	-163,407	-0,019	-0,001
-472,489	-69,361	0,133	-0,037
-471,474	-164,984	0,055	0,002
-470,459	218,001	-0,023	-0,027
-469,445	418,003	-0,073	-0,113
-468,430	-200,000	0,023	-0,137
-467,416	786,854	0,043	0,086
-466,401	-110,543	0,050	-0,007
-465,386	77,156	0,046	0,035
-464,372	387,471	0,097	0,145
-463,357	138,914	-0,133	0,126
-462,343	800,000	0,073	-0,162
-461,328	123,369	-0,048	0,044
-460,313	468,735	0,061	-0,098
-459,299	205,038	0,016	0,018
-458,284	800,000	-0,057	-0,147
-457,270	-200,000	-0,005	-0,103
-456,255	387,254	-0,047	0,070
-455,241	32,696	-0,041	-0,026
-454,226	800,000	-0,011	0,028
-453,211	138,401	-0,024	-0,023
-452,197	800,000	0,010	0,025
-451,182	-200,000	0,004	0,045
-450,168	274,018	0,032	0,041
-449,153	-21,837	-0,118	0,051
-448,138	-75,377	-0,036	-0,009
-447,124	-200,000	-0,008	0,118
-446,109	384,394	-0,037	-0,055
-445,095	-60,430	0,098	0,030
-444,080	668,731	0,086	0,161
-443,065	145,181	0,050	0,048
-442,051	134,748	0,061	-0,057
-441,036	-200,000	0,011	0,057
-440,022	-200,000	0,015	-0,078
-439,007	675,984	0,038	0,071
-437,992	167,682	0,103	-0,105
-436,978	-200,000	0,035	0,195
-435,963	-91,506	-0,053	0,011
-434,949	-200,000	-0,005	-0,033
-433,934	-35,149	-0,172	-0,067
-432,919	257,904	-0,037	-0,046
-431,905	168,152	0,115	0,118
-430,890	117,366	0,136	0,120
-429,876	-40,096	0,071	0,026
-428,861	-51,416	-0,021	0,007
-427,846	-101,441	-0,137	0,024
-426,832	486,405	0,043	0,071
-425,817	-200,000	0,022	-0,075
-424,803	-200,000	0,004	-0,025
-423,788	-200,000	0,015	-0,109
-422,773	-135,605	0,143	0,012
-421,759	-200,000	0,011	0,113
-420,744	-200,000	0,010	-0,079
-419,730	-200,000	-0,042	-0,135
-418,715	-200,000	0,004	0,067
-417,701	-200,000	0,028	0,178
-416,686	-22,571	-0,077	-0,033
-415,671	-200,000	0,021	0,086
-414,657	266,214	0,080	0,101
-413,642	-59,708	0,079	0,024
-412,628	-49,540	-0,093	0,032
-411,613	-131,916	0,070	0,007
-410,598	-200,000	-0,019	0,097
-409,584	-4,968	0,025	0,012
-408,569	3,055	0,144	-0,075
-407,555	-200,000	0,041	0,135
-406,540	-111,582	-0,101	0,015
-405,525	-200,000	-0,017	-0,083
-404,511	800,000	-0,035	-0,070
-403,496	-137,617	0,132	-0,011
-402,482	563,088	-0,025	-0,044
-401,467	22,152	-0,128	0,075
-400,452	800,000	0,057	0,153
-399,438	-148,540	0,070	0,004
-398,423	86,869	-0,022	-0,017
-397,409	-4,499	-0,057	0,028
-396,394	249,578	0,061	-0,075
-395,379	-105,236	0,040	0,006
-394,365	207,042	0,092	0,103
-393,350	-93,441	-0,101	-0,020
-392,336	544,851	0,038	0,065
-391,321	800,000	0,045	0,112
-390,306	149,156	0,089	-0,087
-389,292	-6,603	-0,135	0,066
-388,277	17,251	0,026	0,015
-387,263	-173,475	0,053	0,001
-386,248	665,543	0,039	-0,073
-385,233	-39,300	0,131	-0,049
-384,219	75,129	-0,051	0,039
-383,204	476,654	-0,026	-0,043
-382,190	-200,000	-0,013	-0,066
-381,175	-200,000	0,013	-0,189
-380,160	-143,612	-0,106	0,007
-379,146	-75,763	-0,129	-0,033
-378,131	-200,000	0,002	0,076
-377,117	19,098	-0,086	0,049
-376,102	168,363	-0,045	0,046
-375,088	-2,069	0,071	-0,036
-374,073	227,615	-0,018	-0,021
-373,058	-182,441	0,095	0,001
-372,044	-200,000	-0,001	-0,032
-371,029	-131,906	0,095	-0,009
-370,015	-200,000	0,001	-0,091
-369,000	-164,804	0,071	-0,002
-367,985	544,780	-0,085	-0,147
-366,971	-110,830	0,084	0,012
-365,956	-53,605	-0,042	0,014
-364,942	63,020	0,106	-0,076
-363,927	-200,000	0,015	-0,085
-362,912	800,000	0,066	-0,167
-361,898	295,288	-0,111	-0,146
-360,883	556,219	-0,095	-0,166
-359,869	369,844	0,079	-0,115
-358,854	19,291	-0,137	0,079
-357,839	-200,000	0,031	0,133
-356,825	518,615	-0,054	0,091
-355,810	-17,490	0,031	0,014
-354,796	69,828	-0,042	0,031
-353,781	800,000	-0,035	-0,083
-352,766	151,032	-0,058	0,057
-351,752	-89,004	-0,069	0,014
-350,737	800,000	0,068	0,135
-349,723	-200,000	-0,012	-0,072
-348,708	197,455	0,043	0,047
-347,693	-200,000	0,004	0,088
-346,679	341,222	-0,038	-0,054
-345,664	-200,000	0,013	-0,061
-344,650	252,162	-0,039	0,048
-343,635	8,149	0,061	-0,033
-342,620	-2,603	0,131	-0,066
-341,606	-77,265	-0,038	0,010
-340,591	800,000	-0,028	-0,078
-339,577	233,111	0,026	-0,031
-338,562	-59,609	-0,044	0,014
-337,548	-90,009	0,117	-0,024
-336,533	-67,126	0,091	-0,025
-335,518	-37,562	-0,025	0,010
-334,504	211,816	0,073	-0,082
-333,489	-108,235	-0,037	-0,006
-332,475	-200,000	-0,001	0,098
-331,460	-154,219	-0,068	-0,003
-330,445	800,000	-0,065	-0,139
-329,431	-22,476	0,197	0,085
-328,416	160,099	0,121	0,120
-327,402	800,000	-0,075	0,186
-326,387	83,849	-0,021	-0,016
-325,372	70,298	0,038	-0,028
-324,358	-200,000	-0,015	0,076
-323,343	98,429	0,104	0,086
-322,329	140,741	0,055	-0,052
-321,314	23,111	0,101	-0,059
-320,299	800,000	0,041	0,087
-319,285	-200,000	0,019	-0,064
-318,270	256,783	0,056	0,069
-317,256	207,371	-0,008	-0,009
-316,241	-82,609	0,149	-0,034
-315,226	82,908	-0,063	0,049
-314,212	-200,000	-0,035	0,137
-313,197	90,167	0,074	0,060
-312,183	-200,000	0,015	0,086
-311,168	-48,049	0,067	0,023
-310,153	627,426	-0,047	-0,085
-309,139	-116,499	0,058	0,008
-308,124	-28,082	-0,064	0,026
-307,110	-34,823	-0,074	0,029
-306,095	61,753	0,058	0,042
-305,080	-200,000	-0,007	-0,096
-304,066	365,234	0,024	-0,035
-303,051	341,629	-0,033	-0,046
-302,037	-109,199	0,101	0,015
-301,022	-200,000	0,009	-0,130
-300,008	178,091	0,071	-0,074
-298,993	800,000	0,035	0,086
-297,978	-200,000	0,002	0,025
-296,964	29,951	0,049	0,030
-295,949	228,278	0,059	-0,069
-294,935	132,013	-0,060	0,055
-293,920	136,815	0,099	0,092
-292,905	-200,000	-0,032	0,182
-291,891	-20,640	-0,137	0,060
-290,876	-188,196	0,073	0,001
-289,862	-93,823	-0,020	0,004
-288,847	-200,000	-0,050	0,198
-287,832	800,000	-0,055	-0,159
-286,818	187,879	-0,037	-0,039
-285,803	134,596	0,144	0,134
-284,789	2,885	0,098	0,051
-283,774	437,305	-0,069	-0,107
-282,759	-200,000	0,001	0,137
-281,745	-111,427	0,102	-0,015
-280,730	381,522	-0,046	-0,068
-279,716	795,446	0,015	-0,031
-278,701	268,925	0,112	0,141
-277,686	-200,000	-0,013	-0,192
-276,672	366,313	-0,004	0,006
-275,657	41,161	0,074	0,048
-274,643	38,164	-0,023	-0,015
-273,628	8,460	0,115	-0,062
-272,613	86,158	-0,081	-0,064
-271,599	-100,540	0,145	-0,025
-270,584	270,038	0,059	0,075
-269,570	-20,962	0,068	-0,030
-268,555	445,624	0,106	0,166
-267,540	46,960	-0,064	0,042
-266,526	-42,530	-0,126	0,046
-265,511	139,872	0,051	-0,048
-264,497	173,276	-0,153	-0,158
-263,482	181,772	0,088	0,093
-262,467	585,147	0,035	0,061
-261,453	457,265	0,051	-0,082
-260,438	-31,044	-0,169	0,068
-259,424	4,426	-0,143	0,075
-258,409	-30,702	-0,080	-0,032
-257,395	453,819	0,069	-0,110
-256,380	-59,964	-0,046	0,014
-255,365	-53,481	0,021	0,007
-254,351	-77,890	0,101	0,025
-253,336	-144,560	-0,185	-0,012
-252,322	91,949	-0,089	0,072
-251,307	-200,000	-0,016	0,070
-250,292	-200,000	0,025	-0,113
-249,278	800,000	-0,014	0,039
-248,263	800,000	-0,013	-0,039
-247,249	800,000	0,040	0,092
-246,234	-200,000	-0,009	-0,130
-245,219	-161,207	-0,108	-0,004
-244,205	390,465	0,028	-0,041
-243,190	333,073	-0,021	-0,029
-242,176	170,701	-0,070	0,072
-241,161	-200,000	-0,004	-0,109
-240,146	-180,317	0,060	-0,001
-239,132	121,048	-0,022	0,020
-238,117	-200,000	0,002	-0,021
-237,103	250,436	0,033	0,040
-236,088	170,999	0,050	0,051
-235,073	-200,000	0,008	-0,126
-234,059	-200,000	-0,014	0,117
-233,044	-200,000	-0,033	0,142
-232,030	-69,211	0,041	0,011
-231,015	-200,000	-0,023	0,098
-230,000	-82,664	-0,059	0,014
-228,986	102,794	-0,052	-0,044
-227,971	-96,196	0,022	-0,004
-226,957	208,635	-0,035	-0,039
-225,942	-87,781	0,111	-0,024
-224,927	789,233	0,051	0,100
-223,913	-200,000	-0,012	-0,109
-222,898	86,447	0,110	0,087
-221,884	-21,215	-0,027	-0,012
-220,869	-43,996	-0,128	0,046
-219,855	68,721	0,080	-0,059
-218,840	18,032	0,145	0,082
-217,825	282,501	0,016	-0,021
-216,811	-200,000	0,001	-0,105
-215,796	507,230	0,081	0,134
-214,782	-73,467	0,078	-0,020
-213,767	-175,453	0,057	-0,001
-212,752	-118,900	0,079	0,010
-211,738	-169,557	0,017	-0,000
-210,723	-200,000	-0,015	-0,111
-209,709	57,911	-0,083	0,058
-208,694	526,394	-0,054	-0,091
-207,679	-200,000	0,013	-0,135
-206,665	-54,231	-0,103	-0,033
-205,650	100,399	0,072	-0,059
-204,636	-57,302	-0,107	-0,033
-203,621	-50,757	-0,096	-0,032
-202,606	800,000	0,002	0,005
-201,592	800,000	-0,009	0,022
-200,577	-200,000	-0,000	-0,102
-199,563	800,000	0,012	-0,032
-198,548	-97,404	0,084	0,015
-197,533	7,689	-0,025	0,013
-196,519	575,121	0,044	0,077
-195,504	-200,000	0,004	0,085
-194,490	-151,634	-0,154	-0,008
-193,475	-200,000	0,028	-0,092
-192,460	436,969	0,012	-0,019
-191,446	40,367	0,066	0,042
-190,431	-112,341	0,112	-0,016
-189,417	166,406	0,073	0,074
-188,402	800,000	-0,040	-0,106
-187,387	265,312	-0,074	-0,092
-186,373	242,087	0,028	-0,033
-185,358	-85,389	-0,125	-0,028
-184,344	273,340	-0,005	0,007
-183,329	-200,000	-0,007	0,030
-182,315	100,443	-0,103	0,085
-181,300	750,930	0,015	-0,029
-180,285	20,016	-0,053	-0,031
-179,271	-200,000	-0,020	-0,096
-178,256	71,364	-0,149	-0,110
-177,242	57,140	0,081	0,056
-176,227	348,953	0,045	0,063
-175,212	-200,000	-0,010	0,083
-174,198	-45,906	0,106	-0,037
-173,183	800,000	-0,017	-0,036
-172,169	-3,200	-0,104	-0,051
-171,154	-200,000	0,060	-0,204
-170,139	99,421	-0,071	0,058
-169,125	676,461	-0,007	0,014
-168,110	-200,000	0,025	0,149
-167,096	800,000	-0,036	-0,100
-166,081	800,000	-0,052	-0,139
-165,066	-56,207	0,046	-0,014
-164,052	-181,924	-0,134	0,002
-163,037	-69,937	-0,102	-0,028
-162,023	277,879	0,061	0,078
-161,008	195,178	0,091	0,098
-159,993	-134,920	-0,109	0,009
-158,979	406,025	-0,024	-0,036
-157,964	20,157	-0,131	0,075
-156,950	800,000	-0,072	-0,151
-155,935	-200,000	0,001	0,055
-154,920	-200,000	-0,019	-0,064
-153,906	104,913	-0,128	0,107
-152,891	246,448	0,063	0,076
-151,877	74,890	-0,064	-0,048
-150,862	68,573	-0,049	0,036
-149,847	12,339	-0,051	-0,028
-148,833	422,160	0,043	0,066
-147,818	570,406	-0,026	0,045
-146,804	203,930	0,051	0,057
-145,789	250,623	-0,018	0,022
-144,775	-174,993	-0,111	-0,002
-143,760	155,608	0,112	-0,109
-142,745	584,596	0,069	-0,122
-141,731	-41,777	0,081	0,030
-140,716	-200,000	-0,009	0,059
-139,702	-128,213	0,139	-0,014
-138,687	-200,000	0,020	0,068
-137,672	-200,000	0,001	0,072
-136,658	-88,871	0,116	0,024
-135,643	-200,000	0,018	-0,119
-134,629	116,746	0,040	-0,035
-133,614	-200,000	0,010	0,075
-132,599	-200,000	-0,011	0,090
-131,585	-36,501	-0,065	0,025
-130,570	-83,354	-0,098	0,022
-129,556	-200,000	-0,011	-0,109
-128,541	-118,140	0,128	-0,016
-127,526	709,809	-0,042	0,079
-126,512	-200,000	-0,002	0,020
-125,497	176,928	-0,031	0,032
-124,483	-35,861	-0,138	-0,053
-123,468	-121,105	0,105	-0,012
-122,453	274,792	-0,025	0,032
-121,439	77,873	0,120	0,091
-120,424	149,869	-0,034	-0,033
-119,410	461,151	0,063	0,099
-118,395	-200,000	0,011	0,041
