DTS Sentinel unit serial number:	SN410029Multiplexer serial number:	ORYXHardware model number:	OX2-SRSoftware version number:	ORYX F/W v4,00 Oryx Data Collector v3.7.2.0data status	okinstallation	BH3 CH2differential loss correction	single-endedforward channel	channel 2reverse channel	N/Adate	2023/12/05time	17:57:28forward acquisition time	300,00reverse acquisition time	0,00gamma	499,1914k internal	0,3192k external	0,3192temperature offset calibration	1,0000default loss term (dB/km)	0,3820temperature slope calibration	1,0000multiplexer offset coefficient	1,0000multiplexer slope coefficient	1,0000fibre end	0,00T internal ref (°C)	10,76T ext. ref 1 (°C)	-3,92T ext. ref 2 (°C)	-4,14length (m)	temperature (°C)	Stokes	anti-Stokes-744,400	-200,000	-0,031	-0,160
-743,385	715,120	-0,099	0,192
-742,371	800,000	0,035	-0,084
-741,356	-200,000	-0,055	0,195
-740,342	-200,000	-0,003	-0,051
-739,327	800,000	-0,091	0,219
-738,312	15,335	-0,127	-0,072
-737,298	-142,321	-0,255	-0,018
-736,283	-200,000	0,010	-0,111
-735,269	-33,861	-0,159	0,064
-734,254	467,535	-0,083	-0,136
-733,239	-116,886	-0,453	0,060
-732,225	-200,000	0,029	-0,116
-731,210	734,677	-0,018	0,034
-730,196	-200,000	-0,025	-0,095
-729,181	97,341	0,117	-0,098
-728,167	-193,660	-0,048	-0,000
-727,152	57,486	0,011	0,008
-726,137	-76,116	-0,042	0,011
-725,123	232,315	0,049	-0,059
-724,108	162,350	-0,060	-0,062
-723,094	-58,608	-0,136	-0,043
-722,079	67,337	-0,111	-0,083
-721,064	-200,000	-0,019	-0,089
-720,050	-200,000	-0,003	-0,180
-719,035	95,488	0,102	0,085
-718,021	-107,221	-0,090	-0,014
-717,006	-48,532	-0,099	0,034
-715,991	43,637	-0,054	0,036
-714,977	-36,888	-0,038	-0,015
-713,962	800,000	-0,067	0,156
-712,948	800,000	-0,061	0,130
-711,933	-76,126	-0,094	0,024
-710,918	-200,000	0,001	-0,011
-709,904	44,089	-0,144	-0,096
-708,889	158,716	-0,060	-0,061
-707,875	397,696	-0,004	-0,006
-706,860	-200,000	0,043	-0,153
-705,845	53,337	-0,031	0,022
-704,831	-200,000	-0,002	0,021
-703,816	-200,000	-0,008	0,077
-702,802	-19,810	-0,057	-0,026
-701,787	-96,118	-0,046	-0,009
-700,772	610,902	0,037	-0,067
-699,758	132,844	-0,082	-0,077
-698,743	134,273	-0,033	-0,031
-697,729	-48,182	0,105	-0,037
-696,714	-200,000	-0,028	0,108
-695,699	100,055	-0,042	0,035
-694,685	649,355	-0,036	-0,067
-693,670	800,000	0,023	-0,056
-692,656	-17,893	0,050	0,023
-691,641	800,000	0,056	-0,120
-690,627	800,000	0,038	-0,076
-689,612	-90,258	-0,099	-0,021
-688,597	-117,956	-0,084	-0,011
-687,583	68,054	-0,086	-0,064
-686,568	-200,000	0,010	0,140
-685,554	130,745	0,085	-0,079
-684,539	494,779	0,036	-0,061
-683,524	67,771	0,012	-0,009
-682,510	800,000	0,009	-0,025
-681,495	-63,820	0,087	-0,026
-680,481	-200,000	-0,012	0,042
-679,466	-200,000	-0,005	-0,049
-678,451	66,373	0,127	-0,094
-677,437	186,591	0,059	-0,063
-676,422	-36,030	0,151	0,059
-675,408	800,000	-0,048	-0,150
-674,393	-61,468	-0,171	-0,052
-673,378	127,643	-0,023	-0,022
-672,364	-108,107	-0,104	-0,016
-671,349	-200,000	0,031	-0,110
-670,335	-200,000	-0,028	-0,162
-669,320	-71,832	0,026	0,007
-668,305	-55,665	-0,077	0,025
-667,291	800,000	-0,016	-0,050
-666,276	-163,579	-0,065	-0,002
-665,262	-200,000	-0,021	-0,107
-664,247	-47,343	-0,043	-0,015
-663,232	358,464	-0,043	-0,063
-662,218	-188,388	0,082	0,001
-661,203	607,120	0,045	-0,082
-660,189	-200,000	-0,001	-0,081
-659,174	63,811	-0,042	0,030
-658,159	-22,638	-0,068	-0,030
-657,145	517,016	-0,023	-0,039
-656,130	425,880	-0,090	-0,142
-655,116	-57,415	0,107	0,034
-654,101	800,000	0,076	0,172
-653,086	80,335	-0,127	-0,099
-652,072	-200,000	-0,012	-0,067
-651,057	-33,776	0,035	0,014
-650,043	246,286	0,091	-0,112
-649,028	-140,202	-0,088	0,007
-648,014	218,077	-0,073	0,084
-646,999	-56,906	0,082	0,026
-645,984	-200,000	-0,005	0,106
-644,970	-70,442	-0,144	0,039
-643,955	27,771	-0,080	0,049
-642,941	-200,000	0,009	0,123
-641,926	-27,293	0,169	-0,071
-640,911	-200,000	0,004	-0,087
-639,897	18,751	0,047	0,027
-638,882	178,322	-0,103	0,109
-637,868	-19,477	0,076	0,034
-636,853	-200,000	0,002	-0,019
-635,838	-200,000	0,005	-0,119
-634,824	-200,000	-0,003	0,029
-633,809	-200,000	-0,005	-0,052
-632,795	431,934	0,023	-0,037
-631,780	-38,142	-0,082	-0,031
-630,765	-124,616	0,072	-0,008
-629,751	-200,000	-0,013	-0,132
-628,736	157,843	-0,026	-0,026
-627,722	-53,201	-0,012	-0,004
-626,707	-200,000	0,002	-0,044
-625,692	475,796	0,057	0,094
-624,678	-200,000	0,025	-0,089
-623,663	-17,281	-0,086	-0,039
-622,649	86,000	-0,049	-0,039
-621,634	128,835	-0,127	-0,117
-620,619	800,000	0,033	0,084
-619,605	31,527	-0,062	-0,039
-618,590	800,000	-0,027	-0,079
-617,576	-63,694	-0,063	-0,018
-616,561	126,532	0,030	-0,027
-615,546	74,632	-0,036	-0,027
-614,532	-200,000	0,007	-0,229
-613,517	102,192	0,053	-0,045
-612,503	23,531	0,046	-0,027
-611,488	282,704	0,015	0,020
-610,474	110,800	0,072	-0,062
-609,459	184,528	0,078	-0,084
-608,444	779,156	-0,101	-0,200
-607,430	-83,156	0,071	0,016
-606,415	-98,957	-0,038	-0,007
-605,401	800,000	-0,028	-0,075
-604,386	287,702	-0,042	-0,055
-603,371	70,265	0,081	0,060
-602,357	-131,238	0,139	-0,013
-601,342	-16,820	0,087	0,040
-600,328	-128,979	-0,124	0,012
-599,313	-200,000	0,004	-0,128
-598,298	-200,000	0,029	-0,107
-597,284	-200,000	-0,025	-0,178
-596,269	167,269	-0,043	0,045
-595,255	194,997	-0,013	0,014
-594,240	-200,000	0,003	-0,107
-593,225	252,328	-0,064	-0,079
-592,211	-200,000	-0,017	-0,054
-591,196	105,998	0,176	-0,151
-590,182	183,996	0,090	-0,097
-589,167	23,668	0,084	0,050
-588,152	-200,000	0,001	0,039
-587,138	-75,463	0,099	-0,025
-586,123	251,930	-0,044	-0,054
-585,109	-200,000	-0,018	0,085
-584,094	-52,438	-0,039	0,013
-583,079	209,684	0,075	0,085
-582,065	69,967	-0,076	0,057
-581,050	-81,199	0,072	-0,017
-580,036	-19,322	-0,114	-0,051
-579,021	-124,525	0,073	0,008
-578,006	-55,125	0,078	-0,025
-576,992	288,054	-0,095	0,124
-575,977	197,262	0,039	0,043
-574,963	451,735	-0,067	0,108
-573,948	-200,000	-0,000	0,026
-572,934	-200,000	-0,011	0,084
-571,919	-141,487	-0,095	-0,007
-570,904	-200,000	-0,014	-0,128
-569,890	265,353	-0,103	-0,130
-568,875	800,000	-0,060	-0,138
-567,861	85,454	-0,065	0,052
-566,846	-200,000	0,021	0,073
-565,831	579,927	-0,037	-0,065
-564,817	-200,000	-0,019	-0,112
-563,802	800,000	-0,031	0,079
-562,788	-2,501	0,050	-0,025
-561,773	-52,092	-0,118	-0,039
-560,758	21,143	0,063	0,037
-559,744	-200,000	-0,010	-0,040
-558,729	-84,306	-0,081	0,018
-557,715	-200,000	-0,017	-0,092
-556,700	102,022	-0,106	-0,090
-555,685	800,000	0,072	-0,152
-554,671	393,035	-0,100	0,150
-553,656	794,685	0,060	0,120
-552,642	117,851	0,061	0,055
-551,627	-16,604	-0,110	-0,050
-550,612	322,845	0,041	-0,056
-549,598	-66,636	0,010	0,003
-548,583	342,759	0,061	0,087
-547,569	523,871	0,074	-0,127
-546,554	800,000	0,045	0,115
-545,539	-200,000	0,013	0,050
-544,525	467,473	-0,037	0,060
-543,510	800,000	0,044	-0,104
-542,496	-181,905	-0,094	0,001
-541,481	252,270	-0,016	-0,020
-540,466	-166,691	0,148	-0,004
-539,452	184,850	0,037	0,040
-538,437	113,239	-0,078	-0,068
-537,423	-200,000	-0,013	-0,068
-536,408	-200,000	0,016	-0,183
-535,393	-139,272	-0,023	-0,002
-534,379	800,000	0,034	-0,077
-533,364	278,910	-0,058	0,075
-532,350	14,576	0,050	-0,028
-531,335	43,972	-0,164	0,108
-530,321	-144,697	-0,116	-0,008
-529,306	-200,000	0,030	-0,103
-528,291	-200,000	-0,035	-0,165
-527,277	365,648	0,064	-0,093
-526,262	-125,392	0,059	0,006
-525,248	800,000	0,055	0,128
-524,233	-21,452	-0,037	0,016
-523,218	-114,547	0,136	0,019
-522,204	25,353	-0,139	-0,084
-521,189	800,000	-0,028	0,081
-520,175	28,560	-0,017	-0,010
-519,160	-114,945	-0,180	-0,024
-518,145	152,519	0,034	0,033
-517,131	-42,271	0,155	-0,057
-516,116	-200,000	0,001	0,083
-515,102	-45,019	0,094	0,034
-514,087	194,176	0,030	-0,033
-513,072	-52,565	-0,106	0,035
-512,058	-42,964	0,140	0,051
-511,043	790,638	-0,069	0,137
-510,029	-65,531	-0,081	-0,023
-509,014	130,224	0,087	-0,081
-507,999	-103,675	-0,047	0,008
-506,985	800,000	-0,031	-0,068
-505,970	63,710	-0,020	-0,014
-504,956	-148,484	-0,051	0,003
-503,941	-92,430	0,059	-0,012
-502,926	-200,000	-0,003	0,045
-501,912	-33,262	-0,062	0,025
-500,897	800,000	-0,032	0,103
-499,883	-8,649	0,029	0,014
-498,868	-87,303	-0,128	0,028
-497,853	-56,892	0,063	-0,020
-496,839	800,000	0,020	0,053
-495,824	13,688	0,052	-0,029
-494,810	-114,271	0,116	0,016
-493,795	480,725	-0,030	-0,050
-492,781	-200,000	0,023	0,107
-491,766	92,119	0,135	0,110
-490,751	-200,000	0,016	-0,079
-489,737	158,853	-0,077	-0,077
-488,722	800,000	-0,049	-0,137
-487,708	-60,622	0,155	0,047
-486,693	5,074	-0,063	-0,034
-485,678	-103,750	0,020	0,003
-484,664	-67,394	-0,245	0,069
-483,649	341,016	-0,034	-0,048
-482,635	-9,724	0,070	0,034
-481,620	766,912	0,063	0,124
-480,605	-200,000	-0,008	0,106
-479,591	800,000	0,020	-0,041
-478,576	293,201	-0,054	-0,072
-477,562	58,623	-0,074	-0,053
-476,547	-78,515	-0,080	-0,020
-475,532	13,891	0,074	0,041
-474,518	-200,000	0,009	0,048
-473,503	-82,489	-0,071	0,017
-472,489	474,118	-0,009	-0,015
-471,474	-200,000	0,025	0,088
-470,459	800,000	0,055	0,129
-469,445	39,397	-0,038	0,024
-468,430	-16,818	0,051	0,023
-467,416	36,325	-0,052	-0,033
-466,401	57,763	-0,065	-0,046
-465,386	133,104	-0,097	0,090
-464,372	-200,000	0,036	-0,134
-463,357	800,000	-0,033	0,097
-462,343	205,521	0,077	0,087
-461,328	-200,000	-0,031	-0,134
-460,313	-200,000	-0,007	-0,062
-459,299	-196,341	0,061	0,000
-458,284	-200,000	-0,017	0,122
-457,270	109,623	-0,028	0,025
-456,255	-86,433	-0,082	-0,018
-455,241	-200,000	0,023	-0,137
-454,226	800,000	-0,035	-0,089
-453,211	-200,000	0,027	0,089
-452,197	87,732	0,063	0,051
-451,182	-68,107	0,039	-0,011
-450,168	-200,000	-0,021	0,077
-449,153	173,117	0,041	0,043
-448,138	181,696	0,053	-0,057
-447,124	-200,000	0,002	0,071
-446,109	629,327	0,034	0,062
-445,095	-200,000	-0,005	-0,081
-444,080	-155,225	0,087	0,004
-443,065	800,000	-0,016	-0,036
-442,051	94,377	-0,105	-0,086
-441,036	-192,052	-0,123	0,001
-440,022	140,321	0,129	-0,123
-439,007	26,438	0,035	-0,021
-437,992	5,990	-0,065	0,035
-436,978	81,402	-0,022	-0,017
-435,963	732,714	-0,066	-0,127
-434,949	68,276	-0,086	0,064
-433,934	-200,000	-0,041	-0,141
-432,919	-104,399	0,038	0,006
-431,905	-200,000	-0,023	0,198
-430,890	-200,000	-0,010	0,100
-429,876	-145,509	-0,133	-0,008
-428,861	-83,071	0,072	-0,017
-427,846	654,211	-0,074	-0,138
-426,832	-33,328	-0,055	0,022
-425,817	377,474	0,012	0,018
-424,803	308,078	-0,038	-0,052
-423,788	615,466	0,008	-0,014
-422,773	33,068	0,148	-0,092
-421,759	300,391	0,079	0,105
-420,744	35,450	-0,051	-0,032
-419,730	800,000	-0,037	-0,098
-418,715	-200,000	-0,025	-0,160
-417,701	800,000	0,004	-0,008
-416,686	-119,921	-0,031	-0,004
-415,671	42,624	0,078	-0,051
-414,657	-68,997	-0,069	0,019
-413,642	-200,000	-0,003	-0,023
-412,628	457,077	-0,085	0,136
-411,613	800,000	-0,029	-0,066
-410,598	55,935	-0,019	-0,013
-409,584	712,117	0,082	0,157
-408,569	86,956	0,160	0,127
-407,555	800,000	-0,032	0,085
-406,540	216,846	0,046	0,052
-405,525	597,446	-0,028	0,050
-404,511	189,723	0,079	-0,085
-403,496	85,270	-0,050	-0,039
-402,482	332,250	-0,074	0,103
-401,467	-200,000	0,004	0,045
-400,452	2,275	0,101	0,052
-399,438	-45,555	0,063	0,022
-398,423	27,587	0,048	0,029
-397,409	-99,350	-0,052	0,009
-396,394	-200,000	0,022	-0,097
-395,379	-21,399	-0,061	-0,027
-394,365	-74,871	0,042	-0,011
-393,350	-27,743	0,126	0,052
-392,336	402,271	0,052	0,078
-391,321	-94,950	-0,072	-0,014
-390,306	362,363	-0,125	0,181
-389,292	325,976	-0,012	-0,017
-388,277	800,000	0,024	0,068
-387,263	-68,988	0,079	-0,022
-386,248	-200,000	0,013	0,097
-385,233	169,125	-0,073	0,075
-384,219	800,000	-0,031	-0,076
-383,204	450,935	0,040	-0,064
-382,190	-138,362	0,024	0,002
-381,175	-41,936	0,094	0,034
-380,160	-200,000	-0,025	-0,102
-379,146	-200,000	-0,016	0,098
-378,131	-32,879	-0,090	0,036
-377,117	-11,741	0,025	-0,012
-376,102	800,000	-0,059	-0,166
-375,088	800,000	0,039	0,105
-374,073	-200,000	0,013	0,216
-373,058	-39,399	-0,030	-0,011
-372,044	800,000	0,090	0,190
-371,029	-200,000	0,011	0,128
-370,015	-200,000	0,008	-0,027
-369,000	-200,000	0,007	-0,077
-367,985	99,649	-0,155	-0,129
-366,971	134,174	0,025	0,023
-365,956	254,026	-0,052	0,063
-364,942	800,000	-0,041	0,116
-363,927	-98,010	0,025	-0,005
-362,912	800,000	0,042	-0,088
-361,898	800,000	-0,039	-0,103
-360,883	-126,625	0,157	-0,016
-359,869	98,458	-0,074	-0,061
-358,854	142,289	-0,074	0,071
-357,839	110,907	0,060	0,052
-356,825	-123,792	-0,056	-0,006
-355,810	-5,686	-0,098	0,048
-354,796	54,358	0,036	0,025
-353,781	-122,967	0,108	0,012
-352,766	-200,000	0,009	-0,168
-351,752	-200,000	0,009	0,062
-350,737	-35,907	0,136	-0,052
-349,723	-136,994	0,020	0,002
-348,708	-65,376	0,060	0,017
-347,693	281,214	-0,031	-0,040
-346,679	158,050	-0,020	0,019
-345,664	-113,659	-0,125	0,017
-344,650	237,016	0,009	-0,011
-343,635	385,261	-0,036	-0,054
-342,620	-168,100	0,033	0,001
-341,606	18,579	-0,025	-0,014
-340,591	656,715	0,043	-0,079
-339,577	242,354	-0,072	0,087
-338,562	4,521	-0,080	-0,042
-337,548	-200,000	0,013	-0,043
-336,533	128,835	0,102	0,093
-335,518	-197,865	0,096	0,000
-334,504	226,130	0,019	-0,022
-333,489	-200,000	-0,016	-0,127
-332,475	800,000	-0,016	-0,043
-331,460	119,261	0,077	-0,069
-330,445	-82,477	-0,058	-0,013
-329,431	52,356	0,103	0,070
-328,416	800,000	-0,002	0,005
-327,402	-200,000	-0,019	-0,064
-326,387	215,434	-0,047	-0,054
-325,372	445,696	0,062	0,098
-324,358	73,257	0,105	-0,078
-323,343	-30,421	-0,109	0,044
-322,329	-200,000	-0,006	0,073
-321,314	302,448	0,049	0,065
-320,299	339,287	-0,025	-0,035
-319,285	-19,567	-0,075	-0,033
-318,270	-165,368	-0,118	-0,004
-317,256	-200,000	-0,016	-0,107
-316,241	791,876	0,031	-0,061
-315,226	418,122	-0,031	0,048
-314,212	800,000	0,032	0,086
-313,197	-92,673	0,106	0,021
-312,183	-110,289	-0,152	-0,022
-311,168	800,000	-0,074	0,176
-310,153	218,997	-0,092	0,106
-309,139	-200,000	-0,022	0,116
-308,124	604,873	0,041	0,074
-307,110	80,163	0,033	0,026
-306,095	800,000	0,017	0,041
-305,080	-119,564	-0,107	-0,013
-304,066	-26,648	-0,025	0,011
-303,051	800,000	0,018	-0,039
-302,037	-27,909	0,022	-0,009
-301,022	-152,707	0,096	0,005
-300,008	-77,959	0,059	-0,014
-298,993	-200,000	0,046	0,156
-297,978	-51,165	-0,061	0,020
-296,964	-1,255	-0,070	0,035
-295,949	193,270	0,086	0,093
-294,935	53,068	0,152	-0,104
-293,920	-136,034	0,111	-0,009
-292,905	197,860	-0,074	-0,081
-291,891	110,207	0,121	0,104
-290,876	383,246	0,106	0,157
-289,862	-200,000	-0,081	-0,000
-288,847	77,905	-0,084	-0,064
-287,832	-200,000	0,001	0,053
-286,818	296,496	-0,041	0,054
-285,803	361,842	-0,054	-0,077
-284,789	798,953	0,046	0,091
-283,774	211,427	0,050	0,056
-282,759	706,955	0,065	-0,123
-281,745	89,720	-0,105	-0,084
-280,730	-93,972	0,056	0,011
-279,716	-200,000	0,024	-0,113
-278,701	124,318	0,030	-0,027
-277,686	51,870	-0,021	0,014
-276,672	-146,982	0,193	-0,012
-275,657	-200,000	0,041	0,207
-274,643	13,988	-0,069	0,038
-273,628	41,254	-0,056	-0,036
-272,613	-20,474	-0,124	0,054
-271,599	-200,000	0,007	0,058
-270,584	306,294	0,052	0,069
-269,570	-81,930	0,091	0,021
-268,555	-37,697	-0,041	0,016
-267,540	800,000	0,025	-0,077
-266,526	800,000	0,035	-0,095
-265,511	-25,416	-0,046	-0,019
-264,497	-200,000	-0,003	-0,087
-263,482	520,707	0,113	-0,190
-262,467	133,282	-0,101	0,093
-261,453	118,169	0,084	-0,074
-260,438	9,923	-0,026	-0,014
-259,424	72,257	0,082	-0,061
-258,409	117,766	-0,068	-0,060
-257,395	234,666	-0,107	0,126
-256,380	49,585	-0,084	0,057
-255,365	24,412	0,064	0,038
-254,351	17,524	0,100	0,057
-253,336	-188,364	0,115	0,001
-252,322	518,847	-0,037	-0,061
-251,307	800,000	-0,025	-0,068
-250,292	-56,979	-0,065	-0,021
-249,278	800,000	0,080	0,173
-248,263	717,623	-0,047	-0,089
-247,249	-110,199	0,199	-0,029
-246,234	-200,000	-0,005	0,021
-245,219	800,000	0,010	0,022
-244,205	-134,886	-0,079	0,007
-243,190	-114,635	0,115	0,016
-242,176	745,449	-0,055	0,106
-241,161	15,608	0,146	0,082
-240,146	459,761	-0,051	0,081
-239,132	120,165	0,036	-0,032
-238,117	60,360	-0,058	0,041
-237,103	229,458	-0,068	-0,080
-236,088	11,031	-0,041	0,022
-235,073	-121,158	0,072	0,009
-234,059	-200,000	0,005	0,103
-233,044	-7,364	-0,035	0,017
-232,030	-53,515	-0,073	-0,024
-231,015	-27,794	0,070	0,029
-230,000	-175,352	-0,159	-0,003
-228,986	68,071	-0,057	-0,041
-227,971	-200,000	-0,014	-0,084
-226,957	76,972	0,180	0,136
-225,942	-85,411	0,041	-0,009
-224,927	800,000	-0,060	0,140
-223,913	7,090	-0,060	0,032
-222,898	-140,952	-0,046	-0,003
-221,884	18,739	-0,017	-0,010
-220,869	-152,642	0,053	-0,003
-219,855	540,356	0,062	0,106
-218,840	800,000	-0,087	0,174
-217,825	-73,191	0,075	0,020
-216,811	-129,507	-0,021	-0,002
-215,796	107,949	-0,036	0,031
-214,782	-1,275	-0,118	-0,060
-213,767	-43,121	0,062	-0,022
-212,752	84,450	0,049	0,038
-211,738	457,055	-0,020	0,032
-210,723	800,000	0,027	0,061
-209,709	171,794	0,108	-0,110
-208,694	-98,277	-0,110	-0,020
-207,679	283,706	0,051	0,065
-206,665	-61,276	0,109	-0,032
-205,650	-91,825	0,139	0,028
-204,636	82,777	-0,106	0,082
-203,621	523,930	-0,075	0,126
-202,606	800,000	0,054	0,124
-201,592	-200,000	0,037	-0,124
-200,577	19,097	-0,117	0,067
-199,563	800,000	0,073	0,158
-198,548	-200,000	-0,008	0,037
-197,533	-34,964	-0,072	0,028
-196,519	136,929	0,065	0,061
-195,504	800,000	0,043	-0,096
-194,490	800,000	0,051	0,105
-193,475	70,709	-0,148	-0,110
-192,460	0,405	-0,075	-0,038
-191,446	218,134	0,128	0,146
-190,431	63,465	0,102	0,073
-189,417	-200,000	-0,005	0,085
-188,402	1,849	0,010	-0,005
-187,387	-9,600	-0,066	-0,031
-186,373	2,793	0,139	-0,072
-185,358	800,000	-0,084	-0,170
-184,344	20,085	-0,031	-0,018
-183,329	-200,000	-0,014	0,088
-182,315	90,085	0,108	0,086
-181,300	228,415	-0,125	-0,146
-180,285	-57,225	-0,179	-0,056
-179,271	288,262	-0,068	-0,088
-178,256	-51,112	-0,094	-0,031
-177,242	127,896	0,033	-0,030
-176,227	-200,000	0,001	0,094
-175,212	229,439	0,093	-0,108
-174,198	84,407	-0,113	-0,088
-173,183	628,294	0,094	-0,170
-172,169	575,021	0,027	-0,047
-171,154	319,356	0,086	-0,117
-170,139	-200,000	-0,017	0,059
-169,125	626,465	0,017	-0,031
-168,110	-156,243	0,166	-0,007
-167,096	67,121	-0,097	-0,070
-166,081	204,960	0,035	-0,038
-165,066	-43,019	0,113	0,041
-164,052	69,433	-0,145	-0,106
-163,037	390,445	0,062	0,092
-162,023	-114,046	0,060	-0,008
-161,008	800,000	-0,027	-0,082
-159,993	41,312	0,017	0,011
-158,979	449,938	-0,027	-0,043
-157,964	-117,013	-0,223	-0,029
-156,950	284,758	0,022	-0,029
-155,935	90,408	0,054	0,043
-154,920	-130,954	0,097	-0,009
-153,906	-59,432	0,048	-0,015
-152,891	-200,000	0,018	0,136
-151,877	5,942	-0,038	-0,020
-150,862	-42,887	-0,152	-0,055
-149,847	-200,000	0,016	0,075
-148,833	267,277	-0,104	0,130
-147,818	-200,000	-0,008	-0,049
-146,804	-22,059	-0,093	0,040
-145,789	664,607	0,134	0,247
-144,775	631,507	-0,059	0,106
-143,760	800,000	-0,067	-0,145
-142,745	180,175	0,126	0,132
-141,731	37,982	-0,019	-0,012
-140,716	245,297	-0,043	-0,052
-139,702	-20,290	0,166	-0,073
-138,687	-200,000	0,015	0,075
-137,672	800,000	0,030	0,088
-136,658	-200,000	-0,011	-0,054
-135,643	512,317	0,049	-0,081
-134,629	-176,781	0,148	-0,003
-133,614	17,127	-0,022	-0,012
-132,599	98,731	-0,042	0,035
-131,585	800,000	-0,011	-0,022
-130,570	80,600	0,095	-0,073
-129,556	-200,000	0,016	-0,097
-128,541	6,938	-0,065	0,035
-127,526	-118,600	0,045	0,006
-126,512	-141,988	-0,053	-0,004
-125,497	-94,271	0,049	0,010
-124,483	203,754	0,084	-0,093
-123,468	-200,000	-0,034	0,212
-122,453	328,912	-0,023	0,031
-121,439	-63,668	0,082	-0,024
-120,424	-60,905	0,103	-0,031
-119,410	-68,088	0,067	-0,018
