DTS Sentinel unit serial number:	SN410029Multiplexer serial number:	ORYXHardware model number:	OX2-SRSoftware version number:	ORYX F/W v4,00 Oryx Data Collector v3.7.2.0data status	okinstallation	BH3 CH2differential loss correction	single-endedforward channel	channel 2reverse channel	N/Adate	2023/12/05time	14:12:28forward acquisition time	300,00reverse acquisition time	0,00gamma	499,1914k internal	0,3194k external	0,3194temperature offset calibration	1,0000default loss term (dB/km)	0,3820temperature slope calibration	1,0000multiplexer offset coefficient	1,0000multiplexer slope coefficient	1,0000fibre end	0,00T internal ref (°C)	10,79T ext. ref 1 (°C)	-3,16T ext. ref 2 (°C)	-3,34length (m)	temperature (°C)	Stokes	anti-Stokes-744,400	565,114	-0,108	-0,191
-743,385	216,731	-0,096	0,111
-742,371	-200,000	0,051	-0,273
-741,356	213,387	-0,135	0,155
-740,342	-200,000	-0,021	-0,074
-739,327	7,166	-0,230	0,125
-738,312	72,146	-0,246	-0,186
-737,298	-162,850	-0,223	0,008
-736,283	402,357	0,052	-0,079
-735,269	319,489	-0,134	0,186
-734,254	299,881	-0,094	-0,127
-733,239	-30,474	-0,407	-0,167
-732,225	240,273	0,125	-0,152
-731,210	-200,000	0,014	0,050
-730,196	-28,406	-0,010	0,004
-729,181	-5,090	-0,052	0,026
-728,167	533,329	0,028	0,049
-727,152	-107,647	-0,077	-0,012
-726,137	126,615	0,107	-0,099
-725,123	222,290	0,077	0,090
-724,108	582,060	-0,026	0,047
-723,094	-168,426	-0,138	-0,004
-722,079	384,808	0,047	-0,070
-721,064	800,000	-0,019	-0,042
-720,050	38,432	0,067	-0,043
-719,035	800,000	-0,001	-0,003
-718,021	-47,313	-0,070	0,025
-717,006	-200,000	0,016	-0,073
-715,991	800,000	-0,025	-0,075
-714,977	-51,803	-0,132	0,044
-713,962	-44,437	0,171	-0,062
-712,948	34,696	0,095	-0,060
-711,933	214,127	-0,023	-0,027
-710,918	800,000	0,048	0,132
-709,904	-200,000	0,000	-0,012
-708,889	231,460	-0,048	-0,058
-707,875	-2,909	-0,111	-0,056
-706,860	80,757	0,057	0,044
-705,845	737,293	0,057	0,112
-704,831	-40,843	0,071	-0,026
-703,816	-200,000	0,014	-0,057
-702,802	741,558	0,033	0,065
-701,787	800,000	0,018	0,047
-700,772	-9,574	-0,040	0,020
-699,758	-85,863	-0,175	0,039
-698,743	325,945	-0,020	0,028
-697,729	-200,000	-0,003	0,105
-696,714	134,582	-0,051	0,048
-695,699	19,939	0,083	0,049
-694,685	111,780	0,091	-0,080
-693,670	-118,126	-0,116	0,015
-692,656	197,553	0,054	0,060
-691,641	578,047	0,013	-0,023
-690,627	-102,167	0,098	0,017
-689,612	-142,390	-0,069	-0,005
-688,597	-200,000	-0,003	0,080
-687,583	800,000	-0,041	-0,127
-686,568	-200,000	0,016	-0,128
-685,554	539,702	0,006	0,010
-684,539	63,115	-0,039	-0,028
-683,524	-41,995	-0,098	0,036
-682,510	-200,000	-0,003	0,032
-681,495	393,814	-0,041	-0,062
-680,481	-26,262	-0,125	-0,053
-679,466	-200,000	0,010	-0,085
-678,451	117,237	0,033	-0,030
-677,437	-110,006	0,081	0,012
-676,422	-61,448	0,107	-0,032
-675,408	20,276	0,028	0,017
-674,393	136,124	-0,035	-0,033
-673,378	286,349	-0,043	-0,057
-672,364	85,818	-0,135	-0,108
-671,349	410,338	-0,082	-0,127
-670,335	-97,967	0,141	-0,026
-669,320	355,914	-0,046	-0,067
-668,305	-74,800	-0,041	0,011
-667,291	100,647	-0,115	0,097
-666,276	30,087	-0,128	-0,079
-665,262	-200,000	0,001	-0,069
-664,247	377,239	0,033	-0,049
-663,232	-200,000	0,006	-0,113
-662,218	104,310	0,035	0,030
-661,203	-89,789	0,089	0,019
-660,189	800,000	-0,020	0,061
-659,174	93,506	-0,146	-0,120
-658,159	800,000	0,010	-0,025
-657,145	408,976	0,015	-0,023
-656,130	-71,947	0,055	-0,015
-655,116	88,134	0,030	-0,024
-654,101	458,707	0,024	0,039
-653,086	800,000	0,061	0,131
-652,072	-200,000	0,007	0,039
-651,057	-142,196	-0,073	0,005
-650,043	151,225	-0,065	-0,065
-649,028	-186,899	0,111	-0,001
-648,014	-154,920	0,048	-0,002
-646,999	-200,000	0,002	-0,014
-645,984	-200,000	0,019	-0,081
-644,970	-110,691	0,095	-0,014
-643,955	-131,470	-0,141	0,013
-642,941	639,388	-0,083	-0,154
-641,926	-165,053	-0,146	-0,005
-640,911	-77,888	0,065	-0,016
-639,897	-200,000	0,025	-0,225
-638,882	504,788	-0,030	0,051
-637,868	36,748	0,004	-0,003
-636,853	-90,751	-0,052	-0,011
-635,838	-200,000	-0,022	-0,217
-634,824	800,000	0,018	0,056
-633,809	667,871	0,044	-0,084
-632,795	-200,000	0,002	-0,017
-631,780	-200,000	-0,001	0,104
-630,765	388,473	-0,074	-0,112
-629,751	-200,000	-0,006	-0,049
-628,736	800,000	-0,081	-0,228
-627,722	502,174	-0,060	-0,100
-626,707	249,115	0,054	-0,066
-625,692	27,826	0,063	0,038
-624,678	-200,000	0,005	-0,048
-623,663	69,843	-0,179	0,134
-622,649	-200,000	0,031	-0,129
-621,634	99,746	-0,085	-0,071
-620,619	-49,528	-0,056	-0,019
-619,605	261,617	-0,037	-0,047
-618,590	-200,000	0,005	-0,125
-617,576	450,790	-0,019	-0,030
-616,561	-48,512	-0,014	0,005
-615,546	113,456	-0,060	-0,053
-614,532	11,200	-0,052	-0,029
-613,517	-97,382	-0,146	0,027
-612,503	294,810	-0,046	-0,061
-611,488	-108,530	0,064	-0,010
-610,474	91,256	0,026	-0,022
-609,459	800,000	0,008	0,017
-608,444	-46,652	-0,040	-0,014
-607,430	154,082	-0,055	0,055
-606,415	-89,506	-0,065	0,014
-605,401	211,500	0,013	0,014
-604,386	-200,000	0,006	-0,058
-603,371	33,635	0,036	0,023
-602,357	25,670	0,128	0,077
-601,342	-200,000	0,008	0,088
-600,328	-200,000	0,018	-0,059
-599,313	745,548	-0,105	-0,205
-598,298	185,470	0,014	0,015
-597,284	-95,750	0,176	0,034
-596,269	344,974	0,031	0,044
-595,255	303,911	-0,029	0,039
-594,240	-58,288	0,158	-0,049
-593,225	-84,784	-0,157	0,035
-592,211	-144,234	-0,115	0,008
-591,196	-79,061	-0,057	-0,014
-590,182	358,649	-0,087	-0,126
-589,167	150,411	0,065	0,064
-588,152	-47,612	0,174	-0,061
-587,138	-16,367	-0,021	-0,010
-586,123	-200,000	0,032	-0,144
-585,109	22,129	-0,058	-0,034
-584,094	52,468	-0,122	-0,084
-583,079	-200,000	-0,001	-0,034
-582,065	-200,000	0,040	-0,128
-581,050	-200,000	0,005	-0,069
-580,036	-200,000	-0,004	-0,070
-579,021	-75,349	0,127	0,033
-578,006	14,525	-0,142	0,080
-576,992	447,464	-0,035	0,056
-575,977	-36,958	-0,068	0,026
-574,963	25,778	-0,088	0,053
-573,948	358,480	0,077	0,112
-572,934	558,614	0,095	-0,167
-571,919	38,656	-0,149	-0,096
-570,904	-200,000	0,031	0,130
-569,890	547,546	0,028	-0,049
-568,875	-69,101	0,071	-0,020
-567,861	-200,000	0,042	0,150
-566,846	62,044	-0,065	0,047
-565,831	-45,818	0,014	-0,005
-564,817	283,467	-0,076	-0,098
-563,802	12,802	-0,075	-0,042
-562,788	379,207	-0,089	-0,133
-561,773	237,816	-0,084	-0,102
-560,758	-151,630	-0,109	0,006
-559,744	152,366	-0,042	0,042
-558,729	472,586	0,014	-0,022
-557,715	103,134	-0,026	-0,022
-556,700	194,745	0,086	-0,095
-555,685	-43,023	-0,064	0,023
-554,671	-168,317	-0,079	-0,002
-553,656	225,314	0,059	-0,070
-552,642	263,871	-0,039	-0,049
-551,627	-129,004	0,070	-0,007
-550,612	-200,000	-0,026	-0,136
-549,598	-200,000	-0,005	0,075
-548,583	-200,000	-0,018	-0,164
-547,569	-200,000	-0,004	-0,031
-546,554	380,235	0,024	-0,036
-545,539	-180,878	-0,150	0,002
-544,525	-30,832	0,174	0,071
-543,510	-194,674	0,081	-0,000
-542,496	-200,000	-0,036	0,115
-541,481	309,107	-0,072	-0,098
-540,466	115,318	-0,187	-0,165
-539,452	800,000	-0,013	0,034
-538,437	44,136	0,080	-0,053
-537,423	-93,701	-0,044	-0,009
-536,408	800,000	-0,015	-0,043
-535,393	-4,240	0,044	0,022
-534,379	-200,000	-0,003	-0,180
-533,364	800,000	-0,035	-0,087
-532,350	-200,000	0,016	0,061
-531,335	800,000	0,042	0,084
-530,321	101,132	-0,140	0,118
-529,306	-125,752	0,036	-0,004
-528,291	800,000	0,036	0,090
-527,277	-200,000	0,007	-0,025
-526,262	800,000	0,060	0,139
-525,248	306,250	-0,045	0,060
-524,233	800,000	0,031	-0,070
-523,218	182,303	-0,066	-0,071
-522,204	-200,000	-0,002	0,009
-521,189	11,296	-0,099	0,054
-520,175	-200,000	0,002	-0,087
-519,160	45,224	0,019	0,013
-518,145	759,654	-0,046	0,091
-517,131	111,764	0,029	0,025
-516,116	-200,000	-0,004	-0,032
-515,102	-200,000	0,006	-0,047
-514,087	264,426	-0,050	-0,062
-513,072	102,930	0,015	0,013
-512,058	317,690	-0,019	-0,026
-511,043	-200,000	0,007	0,048
-510,029	550,935	-0,101	0,176
-509,014	-174,290	-0,068	0,001
-507,999	-130,891	0,004	0,000
-506,985	-200,000	-0,020	-0,135
-505,970	431,790	-0,033	-0,052
-504,956	-200,000	-0,007	-0,098
-503,941	175,930	0,023	-0,024
-502,926	654,342	0,057	-0,106
-501,912	23,097	0,098	0,058
-500,897	800,000	0,023	-0,058
-499,883	-120,122	-0,065	0,008
-498,868	-60,767	-0,083	0,025
-497,853	-77,787	0,171	0,042
-496,839	200,155	0,014	-0,016
-495,824	240,666	0,056	0,067
-494,810	6,160	0,100	0,053
-493,795	377,201	0,049	-0,072
-492,781	-200,000	0,011	0,047
-491,766	-81,815	-0,098	-0,023
-490,751	-200,000	0,031	0,098
-489,737	-134,075	0,161	-0,014
-488,722	800,000	-0,021	0,055
-487,708	-200,000	0,010	0,073
-486,693	800,000	-0,034	-0,105
-485,678	-118,222	0,075	0,010
-484,664	-22,695	-0,135	-0,059
-483,649	-200,000	0,010	-0,209
-482,635	800,000	-0,041	0,124
-481,620	-200,000	-0,008	0,104
-480,605	505,330	-0,060	0,100
-479,591	746,401	0,036	0,070
-478,576	268,029	-0,031	0,040
-477,562	783,896	-0,023	0,047
-476,547	126,975	0,049	0,045
-475,532	-105,386	-0,177	-0,029
-474,518	800,000	0,020	0,044
-473,503	116,794	-0,041	-0,036
-472,489	-200,000	0,001	-0,056
-471,474	40,478	-0,022	-0,014
-470,459	-200,000	0,022	-0,139
-469,445	414,891	-0,037	-0,057
-468,430	-200,000	0,007	0,028
-467,416	-116,983	0,171	0,022
-466,401	-83,360	0,024	0,005
-465,386	-200,000	0,031	-0,140
-464,372	2,651	-0,062	-0,032
-463,357	33,701	-0,133	0,083
-462,343	7,129	-0,107	-0,057
-461,328	152,133	0,086	-0,085
-460,313	197,565	-0,046	0,051
-459,299	800,000	0,028	0,067
-458,284	-92,867	0,086	0,017
-457,270	-44,363	-0,121	0,044
-456,255	-124,858	0,082	-0,009
-455,241	49,322	0,010	-0,007
-454,226	-200,000	-0,008	-0,058
-453,211	246,091	0,108	0,131
-452,197	-200,000	-0,001	-0,034
-451,182	-200,000	0,011	0,075
-450,168	-104,385	0,044	0,007
-449,153	149,381	-0,034	0,033
-448,138	39,991	-0,219	0,141
-447,124	-22,413	-0,043	-0,019
-446,109	338,936	-0,054	0,076
-445,095	-200,000	-0,020	0,066
-444,080	-39,934	-0,073	0,027
-443,065	315,732	-0,077	-0,104
-442,051	-105,253	-0,032	0,005
-441,036	-59,322	0,220	-0,068
-440,022	287,382	-0,025	-0,033
-439,007	626,520	0,016	0,029
-437,992	-119,849	0,218	-0,027
-436,978	-200,000	-0,004	0,104
-435,963	800,000	-0,033	0,068
-434,949	-71,198	-0,001	0,000
-433,934	-200,000	0,016	0,142
-432,919	354,414	0,051	0,073
-431,905	800,000	0,020	0,063
-430,890	-200,000	0,015	-0,068
-429,876	800,000	-0,028	-0,076
-428,861	-74,302	0,167	-0,043
-427,846	-128,724	0,023	-0,002
-426,832	-54,174	-0,113	0,037
-425,817	-16,929	0,047	-0,021
-424,803	-200,000	-0,011	0,055
-423,788	97,499	0,045	-0,037
-422,773	-16,149	-0,054	-0,025
-421,759	-120,079	0,162	-0,020
-420,744	800,000	0,015	0,040
-419,730	-3,122	-0,066	0,033
-418,715	-0,964	-0,088	0,045
-417,701	800,000	0,013	0,027
-416,686	800,000	0,034	-0,086
-415,671	-200,000	-0,002	-0,048
-414,657	-110,225	-0,120	0,018
-413,642	-16,817	-0,088	-0,040
-412,628	-200,000	-0,013	-0,174
-411,613	800,000	-0,049	-0,113
-410,598	-200,000	-0,010	0,072
-409,584	174,464	0,043	-0,045
-408,569	-87,552	-0,085	0,018
-407,555	-200,000	0,045	0,144
-406,540	-163,650	0,088	0,003
-405,525	73,741	0,028	-0,021
-404,511	574,904	-0,041	-0,072
-403,496	-111,782	-0,102	-0,015
-402,482	-55,856	0,048	-0,015
-401,467	-200,000	0,021	0,215
-400,452	82,630	0,056	0,044
-399,438	314,154	0,075	0,101
-398,423	-200,000	-0,002	0,045
-397,409	284,305	0,050	0,064
-396,394	-200,000	0,009	-0,132
-395,379	-200,000	-0,019	0,080
-394,365	151,351	0,123	0,121
-393,350	-141,661	-0,056	0,004
-392,336	254,395	0,101	-0,124
-391,321	557,410	0,063	-0,110
-390,306	-200,000	-0,028	-0,098
-389,292	-4,445	-0,103	-0,051
-388,277	-200,000	0,016	-0,163
-387,263	-200,000	0,005	-0,029
-386,248	-200,000	-0,011	0,090
-385,233	-127,922	0,053	0,005
-384,219	-27,774	-0,067	0,028
-383,204	800,000	-0,027	-0,082
-382,190	-30,156	-0,053	-0,021
-381,175	-51,521	0,074	-0,025
-380,160	61,738	-0,062	-0,044
-379,146	-28,981	0,105	-0,043
-378,131	-200,000	0,002	0,057
-377,117	628,429	0,039	0,071
-376,102	800,000	0,042	-0,085
-375,088	421,516	-0,072	-0,111
-374,073	-78,463	-0,051	-0,013
-373,058	-200,000	-0,008	-0,143
-372,044	-72,915	0,084	-0,022
-371,029	613,628	-0,065	0,118
-370,015	-200,000	-0,011	0,103
-369,000	625,586	0,060	-0,108
-367,985	-128,260	-0,032	0,003
-366,971	-107,728	-0,179	0,028
-365,956	-200,000	-0,013	0,054
-364,942	760,213	0,025	-0,050
-363,927	148,226	0,084	0,081
-362,912	30,818	0,095	-0,058
-361,898	130,385	0,082	0,075
-360,883	208,230	-0,067	0,075
-359,869	15,862	-0,074	0,042
-358,854	251,816	-0,026	-0,032
-357,839	315,158	-0,055	-0,075
-356,825	800,000	-0,027	0,071
-355,810	-200,000	0,056	0,205
-354,796	-200,000	0,009	0,038
-353,781	174,659	-0,036	-0,038
-352,766	-159,230	0,017	-0,001
-351,752	-200,000	-0,023	-0,105
-350,737	183,570	-0,103	0,109
-349,723	109,310	0,043	0,037
-348,708	-90,047	-0,053	-0,011
-347,693	14,659	0,155	-0,087
-346,679	-200,000	-0,026	-0,102
-345,664	520,240	0,034	-0,058
-344,650	-134,606	0,054	-0,005
-343,635	160,828	0,094	0,095
-342,620	800,000	0,021	0,047
-341,606	-107,066	0,138	-0,022
-340,591	-200,000	0,005	0,019
-339,577	-200,000	0,007	0,064
-338,562	-5,442	-0,110	0,054
-337,548	-200,000	-0,039	-0,137
-336,533	-29,936	0,022	0,009
-335,518	41,051	-0,128	0,083
-334,504	-200,000	0,008	-0,055
-333,489	-200,000	-0,014	0,057
-332,475	-200,000	-0,010	-0,072
-331,460	800,000	-0,041	-0,111
-330,445	800,000	0,031	-0,081
-329,431	-30,124	0,074	0,030
-328,416	-97,488	0,065	0,012
-327,402	-200,000	0,000	0,103
-326,387	-23,683	-0,088	0,038
-325,372	34,678	0,069	-0,043
-324,358	163,924	-0,078	0,079
-323,343	800,000	0,037	0,089
-322,329	-200,000	0,032	0,125
-321,314	-200,000	0,015	0,082
-320,299	-84,780	0,090	-0,020
-319,285	800,000	0,027	0,071
-318,270	800,000	-0,067	-0,134
-317,256	-166,856	-0,067	-0,002
-316,241	-200,000	-0,010	-0,116
-315,226	-15,190	-0,032	-0,015
-314,212	800,000	0,115	0,262
-313,197	-78,188	0,203	0,050
-312,183	800,000	0,056	0,146
-311,168	41,843	0,139	-0,090
-310,153	308,210	-0,044	-0,059
-309,139	-200,000	-0,010	-0,112
-308,124	-200,000	-0,003	0,013
-307,110	800,000	0,036	-0,080
-306,095	191,833	0,087	-0,094
-305,080	-12,738	0,137	0,064
-304,066	-200,000	0,032	-0,132
-303,051	-200,000	-0,042	-0,202
-302,037	800,000	0,028	-0,070
-301,022	800,000	-0,019	0,042
-300,008	288,799	0,069	0,089
-298,993	-200,000	0,011	0,150
-297,978	800,000	-0,058	0,114
-296,964	10,035	0,128	-0,070
-295,949	-200,000	0,021	0,066
-294,935	116,730	0,024	-0,021
-293,920	-200,000	-0,028	-0,112
-292,905	800,000	0,035	0,109
-291,891	800,000	-0,021	0,059
-290,876	91,132	-0,043	-0,034
-289,862	254,797	0,140	0,171
-288,847	66,727	0,099	-0,072
-287,832	180,736	-0,063	0,066
-286,818	508,450	-0,022	0,037
-285,803	-89,943	-0,074	0,015
-284,789	-108,488	0,090	0,014
-283,774	64,146	0,126	0,091
-282,759	26,528	-0,090	-0,054
-281,745	-200,000	-0,008	-0,081
-280,730	-200,000	-0,007	-0,080
-279,716	357,467	0,080	-0,115
-278,701	-200,000	-0,005	-0,061
-277,686	104,745	-0,047	-0,040
-276,672	-155,039	0,026	0,001
-275,657	180,250	0,181	-0,190
-274,643	-78,525	0,035	-0,008
-273,628	149,661	0,042	-0,041
-272,613	26,731	-0,056	-0,033
-271,599	154,901	0,151	0,149
-270,584	328,797	-0,087	0,121
-269,570	253,112	0,076	0,093
-268,555	-200,000	0,001	0,070
-267,540	96,564	-0,045	-0,037
-266,526	800,000	0,068	0,148
-265,511	140,023	-0,056	0,053
-264,497	-74,334	0,070	0,018
-263,482	-200,000	-0,013	0,125
-262,467	-200,000	0,028	0,109
-261,453	9,144	-0,035	-0,019
-260,438	422,711	-0,036	0,056
-259,424	-200,000	-0,011	0,167
-258,409	-200,000	0,005	-0,032
-257,395	620,571	0,034	-0,062
-256,380	-200,000	-0,008	0,155
-255,365	163,723	0,077	0,078
-254,351	-200,000	0,021	0,122
-253,336	-11,508	-0,066	0,031
-252,322	800,000	-0,092	-0,183
-251,307	-55,007	-0,129	-0,041
-250,292	-200,000	0,032	0,120
-249,278	-72,309	0,144	0,038
-248,263	-120,841	-0,231	-0,028
-247,249	-69,077	-0,091	0,025
-246,234	180,282	-0,008	0,008
-245,219	-142,536	-0,211	0,015
-244,205	-25,499	-0,012	-0,005
-243,190	-15,446	0,113	-0,051
-242,176	378,007	0,043	0,064
-241,161	-3,607	0,124	0,062
-240,146	800,000	0,071	0,187
-239,132	305,923	-0,026	0,034
-238,117	-118,433	0,016	0,002
-237,103	-13,128	0,096	-0,045
-236,088	780,719	0,065	-0,127
-235,073	-49,016	0,052	0,018
-234,059	-89,841	0,060	-0,013
-233,044	-200,000	-0,022	0,102
-232,030	-200,000	0,002	-0,128
-231,015	260,086	-0,098	0,121
-230,000	178,881	-0,065	0,068
-228,986	-52,595	0,105	-0,034
-227,971	-155,789	-0,051	0,002
-226,957	-200,000	0,024	0,155
-225,942	-137,821	0,158	0,012
-224,927	229,851	-0,062	0,072
-223,913	-200,000	-0,006	0,078
-222,898	225,522	-0,028	-0,033
-221,884	419,048	0,057	0,087
-220,869	154,050	0,113	0,111
-219,855	11,426	-0,030	-0,016
-218,840	69,376	0,093	0,069
-217,825	-200,000	0,019	0,059
-216,811	800,000	0,022	0,045
-215,796	281,741	-0,079	-0,102
-214,782	181,971	-0,135	-0,142
-213,767	800,000	-0,036	0,106
-212,752	200,497	-0,067	0,074
-211,738	-200,000	-0,018	-0,057
-210,723	800,000	-0,030	0,082
-209,709	34,547	-0,060	0,037
-208,694	210,706	-0,012	-0,014
-207,679	325,139	-0,060	-0,082
-206,665	-200,000	-0,003	-0,018
-205,650	800,000	0,025	0,068
-204,636	800,000	-0,032	0,089
-203,621	-24,660	0,105	-0,044
-202,606	-200,000	-0,040	0,128
-201,592	800,000	-0,052	0,109
-200,577	-200,000	0,018	-0,099
-199,563	-200,000	-0,040	0,000
-198,548	175,116	0,097	0,101
-197,533	-200,000	-0,026	0,124
-196,519	-77,755	-0,098	0,024
-195,504	800,000	0,021	-0,049
-194,490	33,648	0,060	-0,037
-193,475	126,389	0,050	-0,045
-192,460	59,678	-0,067	-0,047
-191,446	-82,627	0,116	-0,027
-190,431	-156,344	0,145	0,006
-189,417	207,597	-0,060	-0,067
-188,402	141,422	0,028	-0,027
-187,387	632,807	-0,054	0,098
-186,373	800,000	-0,005	0,010
-185,358	519,261	-0,046	0,078
-184,344	-200,000	0,014	0,052
-183,329	-200,000	0,005	-0,082
-182,315	422,002	-0,028	-0,043
-181,300	800,000	0,007	0,020
-180,285	2,498	-0,044	-0,023
-179,271	150,253	-0,190	-0,184
-178,256	378,632	0,030	0,044
-177,242	800,000	-0,090	0,182
-176,227	-200,000	-0,011	0,057
-175,212	800,000	0,039	0,102
-174,198	-82,243	-0,030	0,007
-173,183	130,696	0,043	0,040
-172,169	-200,000	-0,003	0,076
-171,154	710,231	0,059	-0,112
-170,139	800,000	0,016	-0,047
-169,125	-118,389	-0,081	0,010
-168,110	-200,000	-0,004	0,105
-167,096	800,000	-0,038	0,099
-166,081	800,000	-0,050	-0,136
-165,066	-200,000	-0,007	-0,032
-164,052	-64,429	0,122	0,035
-163,037	630,694	0,065	0,118
-162,023	800,000	0,005	0,013
-161,008	498,351	-0,058	0,096
-159,993	-174,149	-0,042	0,001
-158,979	143,575	0,123	-0,117
-157,964	105,799	-0,036	-0,030
-156,950	800,000	0,033	-0,083
-155,935	136,058	0,103	0,095
-154,920	-200,000	0,007	0,080
-153,906	795,998	0,089	-0,176
-152,891	-181,046	-0,100	-0,001
-151,877	432,569	-0,058	-0,091
-150,862	-200,000	0,040	-0,125
-149,847	-200,000	0,042	-0,213
-148,833	-65,546	0,020	0,006
-147,818	81,868	0,144	0,111
-146,804	-200,000	0,040	0,200
-145,789	-200,000	0,015	0,083
-144,775	-200,000	0,002	0,077
-143,760	193,433	-0,036	-0,038
-142,745	375,491	-0,068	0,099
-141,731	-200,000	0,016	0,055
-140,716	87,914	0,070	0,055
-139,702	541,496	-0,055	-0,094
-138,687	316,294	0,031	0,042
-137,672	-200,000	0,004	0,023
-136,658	37,756	-0,064	-0,040
-135,643	-200,000	0,001	0,114
-134,629	374,888	0,038	-0,055
-133,614	800,000	-0,011	0,025
-132,599	-200,000	0,007	-0,028
-131,585	-200,000	-0,023	0,118
-130,570	800,000	0,028	-0,073
-129,556	-159,471	-0,056	-0,002
-128,541	-200,000	0,026	0,086
-127,526	74,254	0,136	0,102
-126,512	-200,000	-0,004	-0,042
-125,497	258,582	-0,037	0,045
-124,483	25,958	0,081	0,048
-123,468	565,798	0,027	0,047
-122,453	800,000	0,015	0,045
-121,439	-69,047	0,108	-0,029
-120,424	-200,000	-0,003	0,159
