DTS Sentinel unit serial number:	SN410029Multiplexer serial number:	ORYXHardware model number:	OX2-SRSoftware version number:	ORYX F/W v4,00 Oryx Data Collector v3.7.2.0data status	okinstallation	BH3 CH2differential loss correction	single-endedforward channel	channel 2reverse channel	N/Adate	2023/12/05time	23:27:28forward acquisition time	300,00reverse acquisition time	0,00gamma	499,1914k internal	0,3195k external	0,3195temperature offset calibration	1,0000default loss term (dB/km)	0,3820temperature slope calibration	1,0000multiplexer offset coefficient	1,0000multiplexer slope coefficient	1,0000fibre end	0,00T internal ref (°C)	9,59T ext. ref 1 (°C)	-5,49T ext. ref 2 (°C)	-5,57length (m)	temperature (°C)	Stokes	anti-Stokes-744,400	46,386	0,062	-0,042
-743,385	-24,776	-0,242	0,104
-742,371	-200,000	-0,013	-0,116
-741,356	119,476	-0,184	0,166
-740,342	221,181	-0,111	-0,130
-739,327	-6,463	-0,187	0,093
-738,312	800,000	-0,042	-0,128
-737,298	156,195	-0,181	0,182
-736,283	334,097	-0,122	-0,172
-735,269	-78,443	-0,212	0,053
-734,254	94,910	-0,095	-0,079
-733,239	24,073	-0,270	-0,162
-732,225	-200,000	0,015	-0,144
-731,210	-96,530	0,144	0,028
-730,196	-88,792	0,034	-0,007
-729,181	800,000	-0,055	0,138
-728,167	125,007	-0,078	0,072
-727,152	-194,267	-0,154	-0,001
-726,137	23,418	0,084	0,050
-725,123	800,000	0,015	0,039
-724,108	112,755	-0,104	-0,092
-723,094	800,000	-0,034	-0,093
-722,079	166,230	-0,138	-0,142
-721,064	406,406	-0,007	-0,011
-720,050	-200,000	0,004	-0,036
-719,035	-200,000	-0,078	-0,278
-718,021	-147,407	0,067	-0,004
-717,006	800,000	-0,045	-0,094
-715,991	171,489	-0,123	-0,128
-714,977	800,000	-0,076	-0,191
-713,962	-200,000	0,001	-0,096
-712,948	95,713	0,065	0,054
-711,933	-200,000	-0,002	-0,028
-710,918	211,067	0,079	-0,090
-709,904	232,069	-0,062	-0,074
-708,889	2,459	-0,150	-0,079
-707,875	-200,000	-0,002	-0,091
-706,860	-200,000	-0,043	0,157
-705,845	34,200	-0,082	-0,052
-704,831	-29,716	0,076	-0,031
-703,816	-200,000	-0,005	0,062
-702,802	-200,000	-0,007	-0,026
-701,787	198,695	-0,143	-0,160
-700,772	362,385	0,038	-0,055
-699,758	-200,000	-0,013	0,045
-698,743	25,371	0,012	0,007
-697,729	119,865	0,073	-0,066
-696,714	-112,741	-0,047	0,007
-695,699	-200,000	0,003	-0,063
-694,685	800,000	-0,057	0,134
-693,670	10,895	-0,107	-0,059
-692,656	794,136	0,022	0,044
-691,641	9,377	0,153	-0,084
-690,627	615,180	0,045	0,082
-689,612	-66,355	-0,140	-0,040
-688,597	163,766	0,078	-0,080
-687,583	51,431	-0,034	-0,024
-686,568	800,000	-0,053	-0,153
-685,554	-200,000	0,007	0,037
-684,539	-200,000	-0,002	0,073
-683,524	137,324	-0,049	-0,046
-682,510	-31,588	-0,052	-0,021
-681,495	-200,000	0,018	0,079
-680,481	22,432	-0,091	0,054
-679,466	-17,060	0,022	0,010
-678,451	-145,485	-0,196	0,013
-677,437	60,183	0,070	-0,050
-676,422	-49,165	-0,066	-0,023
-675,408	-200,000	-0,047	0,165
-674,393	-200,000	-0,022	-0,086
-673,378	420,870	-0,087	-0,136
-672,364	369,245	-0,053	-0,078
-671,349	218,638	0,069	-0,080
-670,335	-147,583	0,040	-0,002
-669,320	800,000	-0,046	0,096
-668,305	-200,000	-0,055	0,186
-667,291	-132,975	-0,025	-0,002
-666,276	165,385	-0,168	-0,172
-665,262	461,050	-0,033	-0,054
-664,247	-109,994	-0,134	-0,020
-663,232	120,402	0,132	-0,119
-662,218	20,669	0,186	0,109
-661,203	-106,023	-0,115	0,019
-660,189	-21,360	-0,168	-0,074
-659,174	-200,000	-0,007	-0,047
-658,159	800,000	0,037	0,100
-657,145	-86,324	-0,055	-0,012
-656,130	279,812	-0,090	-0,117
-655,116	255,144	0,069	-0,085
-654,101	356,732	0,115	-0,168
-653,086	-79,244	-0,131	0,032
-652,072	800,000	-0,041	-0,127
-651,057	800,000	-0,075	-0,184
-650,043	394,256	-0,024	-0,036
-649,028	-200,000	-0,020	-0,110
-648,014	800,000	0,049	-0,116
-646,999	800,000	-0,032	0,072
-645,984	553,099	-0,098	0,171
-644,970	10,647	-0,161	-0,089
-643,955	-56,286	-0,034	0,011
-642,941	-200,000	0,008	-0,111
-641,926	-200,000	0,003	-0,095
-640,911	198,331	0,029	-0,032
-639,897	10,626	0,027	0,015
-638,882	43,156	0,005	0,003
-637,868	-200,000	-0,003	-0,083
-636,853	-200,000	0,020	-0,087
-635,838	34,678	-0,066	-0,042
-634,824	800,000	-0,050	-0,155
-633,809	293,512	0,109	0,145
-632,795	162,470	-0,073	0,074
-631,780	463,127	0,050	-0,081
-630,765	40,606	-0,075	-0,049
-629,751	130,605	-0,090	-0,084
-628,736	-98,362	-0,051	0,009
-627,722	-200,000	-0,001	0,041
-626,707	-200,000	-0,024	-0,154
-625,692	127,785	0,105	0,097
-624,678	254,101	0,016	0,019
-623,663	305,449	-0,044	0,060
-622,649	49,553	-0,070	0,048
-621,634	-200,000	-0,007	-0,131
-620,619	281,972	-0,069	0,089
-619,605	327,274	0,052	-0,073
-618,590	800,000	0,017	0,045
-617,576	-200,000	0,004	0,021
-616,561	-200,000	-0,026	-0,109
-615,546	800,000	-0,066	-0,201
-614,532	87,282	-0,060	-0,048
-613,517	-123,576	-0,094	-0,011
-612,503	-200,000	-0,025	0,083
-611,488	87,873	0,008	0,006
-610,474	-2,749	0,178	0,090
-609,459	-69,883	0,096	-0,026
-608,444	-200,000	-0,013	-0,099
-607,430	800,000	-0,035	-0,075
-606,415	-200,000	0,011	-0,147
-605,401	272,260	-0,035	0,045
-604,386	-14,333	-0,058	-0,027
-603,371	-16,310	0,025	0,011
-602,357	800,000	0,046	-0,093
-601,342	-110,374	0,127	0,019
-600,328	-200,000	0,043	-0,144
-599,313	743,152	-0,042	-0,082
-598,298	-93,912	-0,055	0,011
-597,284	421,060	0,044	0,068
-596,269	-77,394	0,030	0,007
-595,255	306,730	-0,025	-0,034
-594,240	800,000	-0,054	-0,136
-593,225	800,000	-0,028	-0,083
-592,211	800,000	-0,073	0,199
-591,196	-125,032	-0,074	0,008
-590,182	25,094	-0,046	-0,028
-589,167	421,377	-0,068	0,106
-588,152	-127,138	0,110	-0,012
-587,138	-167,464	-0,087	0,002
-586,123	-200,000	-0,019	-0,147
-585,109	486,453	0,069	-0,115
-584,094	165,405	0,024	-0,025
-583,079	70,652	0,054	0,040
-582,065	131,286	-0,047	0,044
-581,050	800,000	0,072	0,156
-580,036	160,226	-0,063	-0,063
-579,021	-39,019	-0,087	0,033
-578,006	-25,692	-0,043	0,018
-576,992	100,088	0,139	-0,116
-575,977	-200,000	-0,006	0,078
-574,963	25,460	0,061	-0,037
-573,948	88,830	0,028	0,022
-572,934	66,015	-0,084	-0,061
-571,919	7,175	-0,063	-0,034
-570,904	84,802	-0,037	-0,029
-569,890	-57,880	-0,094	-0,030
-568,875	-153,102	0,087	-0,004
-567,861	196,321	-0,074	-0,082
-566,846	-88,642	0,053	0,011
-565,831	-23,038	0,084	-0,036
-564,817	89,440	-0,070	-0,057
-563,802	3,720	0,017	-0,009
-562,788	125,205	0,054	0,049
-561,773	-29,051	-0,031	-0,013
-560,758	102,897	0,062	0,053
-559,744	-90,638	0,082	-0,017
-558,729	-200,000	0,013	0,055
-557,715	247,713	-0,016	-0,019
-556,700	800,000	0,085	-0,175
-555,685	669,273	-0,068	-0,129
-554,671	-128,427	-0,020	-0,002
-553,656	-200,000	0,032	0,125
-552,642	-146,249	-0,083	-0,005
-551,627	800,000	0,049	-0,110
-550,612	-200,000	0,033	0,113
-549,598	-79,681	-0,189	-0,046
-548,583	-200,000	0,036	-0,123
-547,569	-114,505	-0,033	0,005
-546,554	-200,000	0,001	-0,014
-545,539	366,411	-0,008	0,012
-544,525	800,000	0,077	-0,188
-543,510	800,000	-0,063	0,159
-542,496	-200,000	0,011	-0,064
-541,481	121,289	-0,126	-0,113
-540,466	-200,000	0,028	0,149
-539,452	800,000	0,060	0,127
-538,437	63,363	-0,041	0,030
-537,423	800,000	0,030	0,064
-536,408	189,367	-0,101	-0,109
-535,393	-200,000	-0,026	-0,198
-534,379	-189,013	-0,074	0,001
-533,364	-49,185	-0,131	0,045
-532,350	53,969	-0,082	0,057
-531,335	342,180	0,049	0,070
-530,321	-68,313	0,045	0,013
-529,306	73,035	0,068	0,051
-528,291	12,894	0,079	-0,044
-527,277	-200,000	-0,005	-0,020
-526,262	163,200	-0,023	0,024
-525,248	61,851	-0,057	0,041
-524,233	-129,939	0,060	-0,006
-523,218	69,978	-0,026	-0,020
-522,204	-200,000	0,002	0,060
-521,189	-69,725	0,044	-0,012
-520,175	-141,795	-0,032	-0,002
-519,160	-200,000	-0,004	0,083
-518,145	-35,329	-0,063	0,025
-517,131	-200,000	0,013	0,118
-516,116	170,013	0,065	-0,068
-515,102	-6,646	0,181	0,089
-514,087	167,847	-0,073	-0,075
-513,072	-200,000	-0,043	-0,161
-512,058	4,263	0,144	-0,076
-511,043	800,000	0,049	-0,101
-510,029	-5,977	0,030	-0,015
-509,014	466,516	-0,047	-0,076
-507,999	542,882	0,044	-0,077
-506,985	-88,863	-0,148	0,031
-505,970	-69,892	-0,026	0,007
-504,956	761,987	-0,066	-0,131
-503,941	-200,000	-0,007	-0,173
-502,926	49,463	0,055	-0,037
-501,912	-61,191	-0,091	0,027
-500,897	-200,000	-0,006	0,106
-499,883	427,708	-0,037	-0,058
-498,868	-200,000	-0,032	-0,174
-497,853	-74,187	0,117	-0,030
-496,839	-56,844	-0,115	0,036
-495,824	22,123	0,155	0,091
-494,810	-200,000	0,014	0,127
-493,795	483,848	-0,068	0,113
-492,781	-200,000	-0,002	-0,009
-491,766	-200,000	0,008	0,031
-490,751	364,910	-0,064	-0,093
-489,737	-200,000	0,037	0,150
-488,722	435,420	0,039	-0,061
-487,708	-54,787	-0,059	-0,019
-486,693	-3,458	0,036	0,018
-485,678	800,000	0,070	-0,140
-484,664	800,000	0,023	0,063
-483,649	84,852	-0,085	0,067
-482,635	-200,000	0,032	0,148
-481,620	80,120	0,135	0,105
-480,605	-99,702	0,048	-0,009
-479,591	-200,000	-0,008	-0,065
-478,576	331,880	-0,137	-0,191
-477,562	412,984	-0,114	0,175
-476,547	-200,000	-0,007	-0,133
-475,532	-200,000	0,025	-0,133
-474,518	-151,010	0,076	-0,004
-473,503	239,323	-0,126	0,152
-472,489	-16,524	-0,089	0,041
-471,474	6,728	-0,109	0,058
-470,459	-158,426	-0,098	0,004
-469,445	-186,175	-0,023	-0,000
-468,430	25,536	-0,047	-0,028
-467,416	131,243	-0,035	-0,033
-466,401	-71,380	0,237	0,063
-465,386	-200,000	-0,010	-0,036
-464,372	-200,000	0,000	0,051
-463,357	800,000	-0,066	-0,162
-462,343	-200,000	-0,001	0,038
-461,328	248,467	-0,085	-0,103
-460,313	5,298	0,057	-0,030
-459,299	363,938	0,041	0,060
-458,284	128,316	0,050	0,046
-457,270	233,220	0,019	0,023
-456,255	-6,007	-0,085	-0,042
-455,241	35,252	-0,167	-0,105
-454,226	-192,114	-0,036	0,000
-453,211	281,085	-0,048	-0,062
-452,197	-74,675	0,100	0,026
-451,182	80,920	-0,074	0,058
-450,168	-200,000	0,010	-0,055
-449,153	-108,011	0,053	0,008
-448,138	-63,984	-0,142	-0,042
-447,124	555,239	0,054	-0,094
-446,109	-70,317	0,089	0,024
-445,095	90,758	-0,061	0,049
-444,080	127,408	-0,030	0,027
-443,065	-24,419	-0,120	-0,051
-442,051	800,000	0,012	0,037
-441,036	-81,358	0,048	-0,011
-440,022	-33,470	-0,110	-0,043
-439,007	800,000	0,004	0,009
-437,992	134,765	0,027	-0,026
-436,978	-200,000	-0,002	0,072
-435,963	62,221	0,159	0,114
-434,949	-92,498	0,132	0,026
-433,934	-67,419	-0,072	0,020
-432,919	-124,108	-0,039	-0,004
-431,905	-107,736	-0,066	0,010
-430,890	-200,000	0,001	0,033
-429,876	-142,975	0,066	0,005
-428,861	-114,075	-0,134	0,018
-427,846	-60,930	0,098	-0,030
-426,832	19,981	0,045	-0,026
-425,817	89,322	-0,068	0,054
-424,803	-125,858	-0,028	0,003
-423,788	742,932	-0,068	0,132
-422,773	235,211	0,110	0,131
-421,759	-51,692	0,108	0,036
-420,744	-75,077	-0,058	0,015
-419,730	-125,698	0,082	0,009
-418,715	147,464	0,074	0,072
-417,701	-157,376	0,144	-0,006
-416,686	-19,179	0,098	0,044
-415,671	-200,000	-0,010	0,096
-414,657	153,158	0,064	0,063
-413,642	547,022	-0,043	0,075
-412,628	-200,000	0,008	0,117
-411,613	-152,976	0,136	-0,007
-410,598	-74,659	0,121	0,031
-409,584	-200,000	0,018	0,065
-408,569	-200,000	0,019	0,074
-407,555	-82,601	0,080	0,018
-406,540	-200,000	-0,008	-0,072
-405,525	52,760	-0,145	0,099
-404,511	210,915	0,071	-0,080
-403,496	76,241	0,129	-0,098
-402,482	-44,826	-0,081	-0,029
-401,467	-2,588	0,105	-0,053
-400,452	431,084	0,117	0,183
-399,438	-200,000	-0,002	0,090
-398,423	-187,506	-0,060	-0,001
-397,409	-200,000	-0,028	0,123
-396,394	273,788	-0,040	0,051
-395,379	-86,473	0,070	0,015
-394,365	-200,000	-0,000	-0,017
-393,350	800,000	0,053	0,109
-392,336	-200,000	0,003	-0,060
-391,321	-80,906	0,046	-0,011
-390,306	-200,000	-0,023	-0,127
-389,292	33,335	-0,057	-0,036
-388,277	-62,494	0,096	0,028
-387,263	35,481	0,026	0,016
-386,248	-200,000	0,021	0,130
-385,233	-156,346	0,236	-0,010
-384,219	-200,000	-0,009	0,043
-383,204	-200,000	-0,009	0,078
-382,190	-200,000	0,004	0,031
-381,175	30,278	0,073	-0,045
-380,160	69,420	0,045	0,034
-379,146	-154,170	0,132	0,006
-378,131	145,226	0,034	0,032
-377,117	-63,033	-0,165	-0,049
-376,102	-87,828	0,131	-0,028
-375,088	-59,706	0,104	0,032
-374,073	168,777	-0,021	-0,022
-373,058	137,029	-0,058	0,054
-372,044	717,678	-0,024	0,046
-371,029	-164,460	0,157	-0,005
-370,015	-62,747	0,020	-0,006
-369,000	74,677	-0,027	0,020
-367,985	37,284	-0,030	0,019
-366,971	-79,611	0,034	-0,008
-365,956	-50,903	0,083	-0,028
-364,942	-148,857	0,047	-0,003
-363,927	800,000	0,013	0,038
-362,912	5,309	-0,069	0,037
-361,898	-81,467	-0,056	0,013
-360,883	-78,480	-0,102	0,025
-359,869	214,070	-0,062	0,070
-358,854	252,981	0,094	-0,115
-357,839	-200,000	0,004	0,032
-356,825	800,000	0,004	0,011
-355,810	-149,692	-0,111	-0,006
-354,796	358,154	-0,052	-0,075
-353,781	42,378	-0,096	-0,063
-352,766	800,000	0,017	0,040
-351,752	-33,502	-0,119	0,047
-350,737	800,000	0,087	0,241
-349,723	83,526	0,069	0,054
-348,708	-85,790	-0,089	-0,020
-347,693	34,561	0,073	0,045
-346,679	-56,205	-0,108	0,034
-345,664	-129,917	0,103	-0,010
-344,650	-200,000	-0,014	0,046
-343,635	704,285	-0,074	0,140
-342,620	-37,925	0,088	-0,033
-341,606	-134,829	-0,112	0,010
-340,591	24,156	0,053	0,031
-339,577	-200,000	-0,022	-0,073
-338,562	-110,884	-0,046	-0,007
-337,548	-99,251	0,065	0,012
-336,533	792,054	-0,049	0,097
-335,518	170,347	-0,116	0,120
-334,504	-65,525	0,090	-0,026
-333,489	36,210	0,109	-0,068
-332,475	86,969	-0,082	0,065
-331,460	86,810	-0,034	-0,027
-330,445	-144,163	0,141	0,009
-329,431	-200,000	0,003	0,046
-328,416	-77,700	-0,097	-0,024
-327,402	368,017	-0,012	0,017
-326,387	114,399	-0,042	-0,036
-325,372	-200,000	-0,003	-0,085
-324,358	438,818	0,048	-0,075
-323,343	-200,000	-0,014	-0,071
-322,329	114,452	-0,049	0,043
-321,314	91,123	0,079	0,063
-320,299	800,000	-0,022	0,058
-319,285	800,000	0,018	-0,045
-318,270	39,668	-0,043	0,027
-317,256	96,735	-0,123	-0,101
-316,241	800,000	0,020	-0,060
-315,226	-200,000	-0,004	-0,028
-314,212	-200,000	-0,005	0,091
-313,197	9,532	0,096	0,052
-312,183	446,503	0,030	0,048
-311,168	621,821	-0,056	0,101
-310,153	-141,195	-0,096	-0,007
-309,139	13,661	0,047	0,026
-308,124	-200,000	0,030	0,127
-307,110	471,852	0,088	0,143
-306,095	348,917	-0,069	-0,098
-305,080	-200,000	0,003	-0,049
-304,066	-200,000	-0,008	-0,180
-303,051	-154,510	0,204	0,010
-302,037	-200,000	0,008	-0,093
-301,022	800,000	-0,022	-0,050
-300,008	-200,000	0,047	0,161
-298,993	369,132	0,073	0,106
-297,978	-200,000	0,040	0,171
-296,964	614,690	0,084	0,152
-295,949	800,000	-0,079	-0,166
-294,935	800,000	0,016	-0,046
-293,920	424,737	-0,037	0,057
-292,905	-200,000	-0,006	0,036
-291,891	-53,206	-0,106	-0,035
-290,876	3,662	0,033	-0,017
-289,862	-200,000	0,010	0,063
-288,847	-200,000	-0,015	-0,120
-287,832	15,160	0,017	-0,009
-286,818	-200,000	-0,035	-0,205
-285,803	-55,417	-0,135	0,043
-284,789	-200,000	0,009	0,075
-283,774	-200,000	-0,009	0,151
-282,759	333,117	-0,063	0,088
-281,745	139,589	-0,032	-0,030
-280,730	-200,000	0,052	-0,197
-279,716	61,544	-0,038	0,027
-278,701	94,740	0,147	-0,119
-277,686	0,067	0,041	-0,021
-276,672	139,696	0,023	0,021
-275,657	34,268	0,008	0,005
-274,643	143,464	-0,072	-0,068
-273,628	417,139	-0,053	-0,082
-272,613	168,133	-0,071	0,072
-271,599	-200,000	0,021	-0,116
-270,584	44,535	0,066	0,043
-269,570	-200,000	0,008	0,224
-268,555	-117,102	-0,095	0,012
-267,540	-200,000	0,008	-0,145
-266,526	-155,117	0,090	-0,004
-265,511	-200,000	-0,009	-0,037
-264,497	-46,747	-0,074	-0,026
-263,482	165,551	0,099	0,100
-262,467	-200,000	0,016	0,091
-261,453	-44,752	0,044	0,016
-260,438	-40,729	0,031	-0,011
-259,424	-4,019	-0,101	-0,050
-258,409	-126,985	-0,108	-0,011
-257,395	-200,000	0,005	0,068
-256,380	-92,731	-0,045	-0,009
-255,365	-118,485	0,138	0,017
-254,351	-135,102	-0,054	-0,005
-253,336	-89,596	0,059	0,012
-252,322	271,217	-0,059	-0,075
-251,307	-200,000	0,002	-0,027
-250,292	486,128	0,044	-0,071
-249,278	-71,596	0,146	-0,039
-248,263	-200,000	-0,003	-0,060
-247,249	176,013	-0,060	0,063
-246,234	307,535	0,053	0,071
-245,219	138,497	-0,067	0,063
-244,205	-200,000	0,006	0,052
-243,190	-200,000	-0,011	0,247
-242,176	140,821	0,051	0,048
-241,161	354,275	0,084	-0,120
-240,146	-200,000	0,017	-0,132
-239,132	136,574	-0,045	-0,042
-238,117	13,577	-0,189	-0,105
-237,103	153,166	-0,103	-0,101
-236,088	-116,829	-0,117	-0,015
-235,073	54,840	0,141	0,097
-234,059	18,999	0,146	0,084
-233,044	-200,000	0,034	-0,133
-232,030	664,460	-0,026	0,048
-231,015	-6,179	-0,067	-0,033
-230,000	-112,833	-0,184	0,026
-228,986	123,824	0,055	-0,049
-227,971	-32,518	0,158	0,062
-226,957	800,000	0,014	0,032
-225,942	462,356	0,063	0,101
-224,927	196,963	-0,033	0,036
-223,913	269,639	-0,003	0,004
-222,898	-200,000	-0,012	-0,131
-221,884	-15,852	-0,238	0,108
-220,869	-161,857	0,071	0,003
-219,855	800,000	-0,026	0,076
-218,840	-200,000	-0,022	0,171
-217,825	-38,545	-0,131	-0,049
-216,811	800,000	-0,057	-0,171
-215,796	800,000	-0,034	-0,090
-214,782	23,506	-0,103	0,060
-213,767	-135,489	-0,071	0,006
-212,752	120,750	0,105	-0,093
-211,738	-200,000	0,026	-0,093
-210,723	-200,000	-0,017	0,101
-209,709	-81,191	0,061	0,014
-208,694	800,000	0,012	0,027
-207,679	166,738	0,021	-0,021
-206,665	800,000	-0,016	0,048
-205,650	-78,073	0,089	0,022
-204,636	-27,682	0,092	-0,038
-203,621	-200,000	0,002	0,058
-202,606	800,000	-0,018	-0,054
-201,592	800,000	0,034	-0,086
-200,577	-101,685	0,012	-0,002
-199,563	-138,152	0,096	-0,007
-198,548	108,497	0,027	0,023
-197,533	800,000	0,053	0,147
-196,519	16,543	0,006	-0,004
-195,504	748,888	-0,028	0,055
-194,490	243,782	-0,073	-0,087
-193,475	-81,857	-0,139	-0,032
-192,460	-200,000	-0,005	-0,028
-191,446	110,246	-0,065	-0,055
-190,431	-200,000	-0,007	-0,103
-189,417	800,000	0,042	0,113
-188,402	103,108	-0,104	0,087
-187,387	800,000	0,037	-0,112
-186,373	-89,604	-0,154	-0,032
-185,358	-200,000	0,032	-0,118
-184,344	444,500	0,051	-0,081
-183,329	40,171	0,035	-0,022
-182,315	312,702	0,044	-0,059
-181,300	800,000	-0,018	-0,053
-180,285	411,461	0,047	-0,072
-179,271	-200,000	0,012	0,170
-178,256	-200,000	0,015	-0,053
-177,242	-200,000	0,018	0,086
-176,227	-7,217	0,149	0,072
-175,212	-200,000	-0,012	0,092
-174,198	-124,047	0,073	0,008
-173,183	32,023	-0,054	0,033
-172,169	800,000	-0,023	-0,060
-171,154	800,000	0,075	0,161
-170,139	800,000	-0,007	0,021
-169,125	325,461	0,076	-0,104
-168,110	495,460	-0,078	0,128
-167,096	44,516	0,055	0,036
-166,081	-200,000	-0,005	-0,055
-165,066	242,391	-0,057	-0,068
-164,052	296,119	0,041	0,054
-163,037	-22,672	-0,104	-0,044
-162,023	-200,000	-0,026	0,100
-161,008	-50,429	0,094	0,031
-159,993	-200,000	-0,023	0,091
-158,979	-76,172	-0,118	-0,030
-157,964	-165,401	0,139	0,004
-156,950	-200,000	-0,055	-0,200
-155,935	-91,484	0,052	-0,011
-154,920	204,983	-0,041	0,045
-153,906	-101,862	0,127	0,022
-152,891	800,000	0,018	-0,049
-151,877	388,475	0,068	-0,101
-150,862	-74,591	-0,078	0,020
-149,847	-56,444	-0,032	0,010
-148,833	-160,893	0,080	-0,003
-147,818	-59,112	0,092	-0,028
-146,804	-89,469	0,015	-0,003
-145,789	-200,000	0,003	0,074
-144,775	-40,620	-0,128	0,047
-143,760	85,997	-0,050	0,039
-142,745	-79,610	-0,081	0,019
-141,731	81,413	0,102	-0,078
-140,716	800,000	0,073	0,182
-139,702	185,629	0,050	0,053
-138,687	-200,000	0,005	0,056
-137,672	652,163	-0,021	0,039
-136,658	700,262	-0,015	0,029
-135,643	800,000	-0,019	-0,039
-134,629	-86,512	0,109	0,024
-133,614	-83,596	0,132	0,030
-132,599	800,000	-0,015	0,037
-131,585	75,475	-0,067	-0,050
-130,570	-200,000	-0,007	0,080
-129,556	-183,675	0,039	0,000
-128,541	36,204	-0,100	0,063
-127,526	-200,000	-0,005	0,037
-126,512	33,481	-0,056	0,035
-125,497	76,426	0,125	0,094
-124,483	12,432	-0,058	0,032
-123,468	444,394	0,040	-0,062
-122,453	81,393	-0,084	0,064
-121,439	-200,000	-0,012	-0,083
-120,424	45,392	-0,031	-0,020
-119,410	417,662	-0,074	-0,113
