DTS Sentinel unit serial number:	SN410029Multiplexer serial number:	ORYXHardware model number:	OX2-SRSoftware version number:	ORYX F/W v4,00 Oryx Data Collector v3.7.2.0data status	okinstallation	BH3 CH2differential loss correction	single-endedforward channel	channel 2reverse channel	N/Adate	2023/12/06time	07:27:28forward acquisition time	300,00reverse acquisition time	0,00gamma	499,1914k internal	0,3197k external	0,3197temperature offset calibration	1,0000default loss term (dB/km)	0,3820temperature slope calibration	1,0000multiplexer offset coefficient	1,0000multiplexer slope coefficient	1,0000fibre end	0,00T internal ref (°C)	8,81T ext. ref 1 (°C)	-5,84T ext. ref 2 (°C)	-5,95length (m)	temperature (°C)	Stokes	anti-Stokes-744,400	101,045	0,109	-0,092
-743,385	800,000	-0,072	0,168
-742,371	9,949	0,010	-0,005
-741,356	8,166	-0,178	0,097
-740,342	325,544	0,122	-0,171
-739,327	800,000	-0,146	0,343
-738,312	96,946	0,100	-0,084
-737,298	-77,222	-0,193	0,049
-736,283	800,000	-0,011	0,024
-735,269	-28,015	-0,259	0,109
-734,254	-121,340	0,139	0,017
-733,239	-159,561	-0,353	0,014
-732,225	547,381	-0,047	-0,082
-731,210	-100,922	0,069	0,012
-730,196	-176,263	-0,126	-0,002
-729,181	120,787	0,054	-0,049
-728,167	76,201	-0,019	0,015
-727,152	271,239	-0,055	-0,070
-726,137	-200,000	-0,011	0,044
-725,123	28,299	-0,105	-0,064
-724,108	-54,200	0,086	-0,028
-723,094	38,846	-0,190	-0,123
-722,079	173,526	-0,156	-0,163
-721,064	-3,943	0,129	-0,065
-720,050	-200,000	0,012	0,054
-719,035	679,505	-0,018	-0,034
-718,021	-147,891	-0,097	-0,006
-717,006	-60,835	-0,065	0,020
-715,991	53,538	-0,070	0,049
-714,977	103,996	-0,076	0,065
-713,962	-41,436	0,087	-0,032
-712,948	43,464	0,045	0,030
-711,933	-200,000	0,014	-0,085
-710,918	112,029	-0,058	-0,051
-709,904	-184,354	-0,072	-0,001
-708,889	149,556	-0,109	-0,107
-707,875	515,527	-0,081	0,137
-706,860	98,980	0,052	0,043
-705,845	800,000	0,062	-0,165
-704,831	246,752	-0,042	0,052
-703,816	-6,116	-0,066	0,033
-702,802	-88,985	-0,078	0,017
-701,787	-35,466	-0,150	0,059
-700,772	-4,980	-0,045	-0,022
-699,758	20,563	-0,052	0,031
-698,743	-200,000	-0,001	0,050
-697,729	150,949	0,169	0,167
-696,714	-39,858	0,071	-0,027
-695,699	175,574	0,119	-0,125
-694,685	-83,353	-0,167	-0,039
-693,670	58,120	-0,049	-0,035
-692,656	-86,505	0,129	0,028
-691,641	800,000	-0,034	0,093
-690,627	800,000	0,042	0,134
-689,612	-145,472	-0,108	0,007
-688,597	800,000	0,063	-0,169
-687,583	-111,205	-0,140	-0,021
-686,568	800,000	0,048	-0,102
-685,554	-119,516	-0,051	-0,006
-684,539	-12,401	0,090	-0,042
-683,524	-123,350	-0,174	-0,020
-682,510	-200,000	0,009	-0,090
-681,495	-4,339	-0,123	-0,061
-680,481	-200,000	-0,025	0,089
-679,466	-44,453	-0,078	-0,028
-678,451	-64,363	-0,176	-0,052
-677,437	-200,000	-0,000	-0,039
-676,422	800,000	0,013	-0,030
-675,408	-63,470	0,107	0,032
-674,393	800,000	0,026	0,053
-673,378	-200,000	-0,039	-0,148
-672,364	-171,349	-0,084	-0,002
-671,349	38,251	-0,085	-0,055
-670,335	89,706	0,076	-0,062
-669,320	-180,696	0,147	-0,002
-668,305	19,451	0,174	0,101
-667,291	611,044	-0,069	-0,126
-666,276	-51,566	0,074	0,025
-665,262	-200,000	-0,018	0,099
-664,247	-189,645	0,087	-0,001
-663,232	-68,955	-0,077	-0,021
-662,218	-200,000	-0,013	-0,110
-661,203	-200,000	-0,035	0,153
-660,189	490,964	-0,030	0,050
-659,174	-124,699	-0,156	-0,017
-658,159	7,966	-0,066	0,036
-657,145	98,154	-0,090	-0,076
-656,130	44,896	0,043	0,029
-655,116	-152,653	0,064	0,003
-654,101	800,000	0,044	0,109
-653,086	167,152	-0,037	0,038
-652,072	752,130	0,033	-0,065
-651,057	800,000	-0,052	-0,134
-650,043	-63,900	0,043	0,013
-649,028	43,929	-0,109	0,072
-648,014	-163,966	0,100	-0,003
-646,999	22,530	-0,110	-0,065
-645,984	-50,846	-0,073	-0,025
-644,970	800,000	0,014	0,027
-643,955	199,439	0,031	0,034
-642,941	622,830	-0,062	-0,113
-641,926	-175,837	0,026	-0,000
-640,911	215,769	0,104	0,120
-639,897	-134,294	-0,050	-0,004
-638,882	-28,510	-0,064	0,027
-637,868	243,748	0,044	-0,053
-636,853	332,819	-0,108	-0,151
-635,838	800,000	-0,023	0,073
-634,824	-73,216	-0,027	0,007
-633,809	525,483	0,046	0,079
-632,795	-200,000	0,042	0,144
-631,780	41,041	0,101	0,066
-630,765	287,742	0,011	0,014
-629,751	-71,030	-0,060	0,016
-628,736	45,802	-0,098	-0,066
-627,722	-200,000	0,036	-0,135
-626,707	39,398	0,169	-0,109
-625,692	-200,000	-0,026	-0,093
-624,678	-96,628	0,040	-0,008
-623,663	1,200	-0,021	-0,011
-622,649	98,350	-0,031	0,026
-621,634	800,000	-0,028	-0,063
-620,619	33,589	-0,137	0,086
-619,605	118,050	-0,060	-0,054
-618,590	-137,084	-0,043	0,003
-617,576	-152,466	0,178	0,009
-616,561	-200,000	0,020	0,091
-615,546	159,374	-0,031	0,031
-614,532	209,592	-0,091	-0,104
-613,517	-200,000	-0,005	0,051
-612,503	-99,213	-0,033	-0,006
-611,488	-70,752	-0,104	0,028
-610,474	-115,323	-0,052	-0,007
-609,459	369,315	0,075	-0,111
-608,444	-26,034	0,157	-0,066
-607,430	11,534	-0,102	-0,057
-606,415	800,000	-0,090	-0,190
-605,401	395,141	0,089	-0,135
-604,386	179,969	0,113	-0,120
-603,371	-200,000	0,014	-0,068
-602,357	-200,000	0,007	-0,042
-601,342	-200,000	-0,019	-0,172
-600,328	717,405	-0,061	-0,118
-599,313	-200,000	-0,000	-0,080
-598,298	-128,372	0,042	0,004
-597,284	325,067	0,047	-0,066
-596,269	147,101	-0,099	0,097
-595,255	700,132	-0,067	0,128
-594,240	-200,000	-0,032	-0,132
-593,225	-86,230	-0,103	0,023
-592,211	634,506	0,049	-0,091
-591,196	-96,766	-0,048	-0,009
-590,182	100,144	0,071	0,060
-589,167	-125,526	0,174	0,019
-588,152	-90,166	-0,181	0,038
-587,138	-200,000	-0,027	-0,109
-586,123	-21,286	0,046	0,020
-585,109	136,128	-0,064	0,061
-584,094	-200,000	0,000	0,062
-583,079	-200,000	0,007	0,035
-582,065	49,847	0,144	0,098
-581,050	-200,000	-0,039	0,135
-580,036	800,000	0,008	-0,020
-579,021	-200,000	0,007	-0,026
-578,006	-98,967	-0,117	-0,021
-576,992	425,473	0,001	0,001
-575,977	-15,248	-0,119	0,055
-574,963	-95,773	-0,052	0,010
-573,948	-30,354	-0,132	0,054
-572,934	-170,034	0,152	0,004
-571,919	-42,796	-0,029	-0,011
-570,904	-43,861	-0,067	-0,024
-569,890	56,859	0,147	-0,103
-568,875	14,494	0,087	-0,049
-567,861	-200,000	-0,003	-0,152
-566,846	-27,558	-0,073	0,030
-565,831	-83,718	0,099	-0,023
-564,817	322,162	0,092	-0,127
-563,802	-200,000	-0,001	0,034
-562,788	124,691	0,028	0,026
-561,773	146,926	-0,051	-0,050
-560,758	800,000	0,034	0,094
-559,744	-17,486	0,055	0,025
-558,729	337,025	-0,025	0,035
-557,715	314,062	-0,052	0,071
-556,700	230,105	0,065	0,077
-555,685	222,065	-0,101	0,117
-554,671	341,025	-0,049	-0,070
-553,656	456,845	0,050	0,081
-552,642	539,703	0,109	0,188
-551,627	800,000	0,031	0,092
-550,612	-200,000	-0,021	0,102
-549,598	800,000	0,066	0,162
-548,583	116,527	-0,019	0,017
-547,569	364,876	-0,032	0,047
-546,554	-55,616	-0,044	-0,014
-545,539	-192,296	0,028	-0,000
-544,525	-200,000	-0,017	-0,136
-543,510	-200,000	-0,013	-0,116
-542,496	-41,685	-0,144	-0,053
-541,481	24,872	-0,013	0,008
-540,466	7,910	0,202	0,109
-539,452	-173,735	0,181	0,004
-538,437	483,302	-0,019	0,031
-537,423	-200,000	0,005	-0,079
-536,408	-200,000	0,023	0,141
-535,393	337,269	0,076	0,107
-534,379	248,190	-0,107	-0,131
-533,364	-200,000	0,043	-0,157
-532,350	236,207	-0,052	-0,063
-531,335	-200,000	-0,006	0,032
-530,321	-83,697	-0,123	0,028
-529,306	72,306	-0,065	-0,049
-528,291	78,786	-0,094	0,073
-527,277	-200,000	0,005	-0,094
-526,262	-200,000	-0,016	0,125
-525,248	1,085	0,037	-0,019
-524,233	188,791	0,032	-0,035
-523,218	-200,000	0,002	0,012
-522,204	800,000	-0,039	-0,101
-521,189	800,000	0,018	0,049
-520,175	-108,474	-0,130	-0,020
-519,160	-124,306	-0,041	0,005
-518,145	64,395	0,065	-0,047
-517,131	-123,188	-0,170	0,019
-516,116	-60,265	-0,145	-0,044
-515,102	-31,830	0,177	-0,071
-514,087	-200,000	-0,016	0,067
-513,072	40,451	-0,066	-0,043
-512,058	-200,000	0,006	-0,026
-511,043	-33,890	0,092	0,037
-510,029	111,427	0,053	0,046
-509,014	-15,696	0,199	-0,091
-507,999	-49,703	-0,031	-0,010
-506,985	-9,745	0,041	-0,019
-505,970	-200,000	-0,036	0,136
-504,956	-27,112	-0,065	0,027
-503,941	436,205	0,076	0,120
-502,926	620,111	0,015	0,028
-501,912	260,032	0,071	-0,088
-500,897	-200,000	-0,007	-0,088
-499,883	520,660	0,043	-0,073
-498,868	508,768	0,071	0,120
-497,853	-44,342	0,119	0,043
-496,839	351,139	-0,076	0,108
-495,824	800,000	0,052	0,125
-494,810	-96,164	0,186	-0,035
-493,795	-55,505	0,061	-0,020
-492,781	800,000	0,009	-0,024
-491,766	800,000	-0,049	-0,121
-490,751	604,797	-0,087	-0,158
-489,737	155,954	-0,048	-0,048
-488,722	239,841	-0,062	0,075
-487,708	-200,000	-0,011	0,062
-486,693	46,340	-0,055	-0,037
-485,678	-2,077	0,057	-0,029
-484,664	-200,000	-0,007	0,101
-483,649	-140,517	0,062	-0,005
-482,635	-200,000	0,011	0,037
-481,620	233,398	-0,011	0,013
-480,605	-200,000	0,003	0,069
-479,591	-167,104	0,164	-0,005
-478,576	17,207	0,018	0,010
-477,562	-200,000	-0,007	-0,128
-476,547	-122,470	-0,068	-0,008
-475,532	800,000	0,050	0,142
-474,518	-137,362	0,067	0,005
-473,503	128,247	0,071	0,065
-472,489	-200,000	-0,007	0,169
-471,474	-200,000	0,016	-0,172
-470,459	-123,485	-0,094	-0,011
-469,445	348,564	0,035	-0,049
-468,430	-163,701	0,027	0,001
-467,416	135,988	0,022	-0,021
-466,401	-22,741	-0,063	0,027
-465,386	72,326	0,040	0,030
-464,372	-26,601	-0,121	0,051
-463,357	-200,000	-0,043	-0,135
-462,343	800,000	-0,025	0,062
-461,328	269,423	0,055	-0,069
-460,313	-95,087	0,127	0,024
-459,299	-200,000	-0,042	-0,148
-458,284	452,619	0,029	0,047
-457,270	-63,684	0,058	-0,017
-456,255	-127,273	-0,092	0,010
-455,241	760,791	-0,004	0,008
-454,226	-200,000	0,007	-0,119
-453,211	162,243	-0,082	-0,082
-452,197	-122,848	0,072	-0,008
-451,182	800,000	-0,036	0,079
-450,168	100,894	-0,070	0,059
-449,153	-80,075	0,144	-0,035
-448,138	-79,318	-0,100	-0,024
-447,124	-200,000	-0,006	-0,144
-446,109	123,557	0,084	-0,076
-445,095	-200,000	-0,001	0,089
-444,080	-200,000	-0,009	0,053
-443,065	429,433	0,031	0,049
-442,051	-25,645	0,054	0,023
-441,036	-200,000	-0,040	0,145
-440,022	-125,430	0,129	0,014
-439,007	300,831	-0,026	0,035
-437,992	184,665	0,072	0,076
-436,978	113,393	0,116	-0,102
-435,963	578,613	0,015	0,026
-434,949	669,131	-0,040	0,075
-433,934	800,000	0,029	0,068
-432,919	-200,000	-0,008	-0,066
-431,905	63,693	-0,092	-0,067
-430,890	-103,845	0,089	-0,015
-429,876	-118,076	0,187	0,024
-428,861	-200,000	0,011	-0,094
-427,846	-200,000	-0,010	0,080
-426,832	-200,000	-0,014	0,118
-425,817	-200,000	0,000	-0,026
-424,803	-22,684	-0,133	-0,058
-423,788	516,450	0,042	0,071
-422,773	237,194	-0,077	-0,092
-421,759	424,167	-0,020	0,032
-420,744	800,000	-0,045	0,098
-419,730	149,648	-0,079	0,077
-418,715	469,542	-0,027	-0,044
-417,701	510,531	-0,041	-0,069
-416,686	102,080	0,115	0,096
-415,671	-13,263	-0,102	-0,047
-414,657	38,452	0,067	0,043
-413,642	-15,686	0,097	0,044
-412,628	120,301	0,049	-0,043
-411,613	-127,580	-0,111	-0,011
-410,598	-89,117	-0,239	-0,050
-409,584	-200,000	0,004	-0,020
-408,569	-91,513	0,044	-0,009
-407,555	45,482	0,166	0,110
-406,540	-200,000	0,011	-0,053
-405,525	-104,429	0,098	-0,016
-404,511	-41,739	-0,141	0,052
-403,496	395,842	0,043	0,065
-402,482	-49,726	0,037	-0,013
-401,467	48,170	0,102	0,069
-400,452	296,855	0,102	0,135
-399,438	800,000	-0,006	-0,014
-398,423	-18,109	-0,027	-0,012
-397,409	727,845	0,051	-0,099
-396,394	12,176	0,068	-0,038
-395,379	73,818	-0,055	-0,041
-394,365	-5,664	0,128	0,063
-393,350	-200,000	-0,006	-0,022
-392,336	-63,662	-0,090	0,026
-391,321	523,117	0,104	0,176
-390,306	99,418	-0,012	0,010
-389,292	197,909	0,124	-0,136
-388,277	-98,954	0,077	0,014
-387,263	60,680	-0,089	-0,063
-386,248	-200,000	0,005	0,038
-385,233	15,778	-0,013	-0,007
-384,219	800,000	0,025	0,074
-383,204	-96,811	-0,041	-0,008
-382,190	-24,211	0,140	-0,060
-381,175	-200,000	-0,005	-0,084
-380,160	-1,773	0,103	-0,052
-379,146	800,000	-0,012	0,029
-378,131	800,000	-0,042	-0,092
-377,117	-200,000	-0,002	0,044
-376,102	-81,250	-0,114	-0,027
-375,088	-200,000	-0,004	-0,063
-374,073	-65,863	0,064	-0,018
-373,058	800,000	-0,019	-0,055
-372,044	-200,000	-0,001	0,061
-371,029	-200,000	0,007	-0,024
-370,015	-121,035	0,073	0,009
-369,000	752,831	0,021	-0,040
-367,985	89,045	0,022	-0,018
-366,971	-176,581	-0,106	-0,002
-365,956	103,050	0,044	0,037
-364,942	-80,557	0,186	0,044
-363,927	373,448	-0,046	0,067
-362,912	-95,389	0,041	-0,008
-361,898	63,106	-0,115	-0,083
-360,883	-200,000	-0,002	-0,136
-359,869	-200,000	0,027	-0,198
-358,854	-26,511	-0,111	-0,047
-357,839	800,000	0,027	0,059
-356,825	800,000	0,032	0,080
-355,810	-200,000	0,001	0,023
-354,796	356,040	-0,052	0,075
-353,781	28,370	-0,095	-0,057
-352,766	519,198	-0,034	0,057
-351,752	800,000	0,068	0,180
-350,737	-48,901	0,087	0,030
-349,723	536,957	0,071	0,121
-348,708	-200,000	0,004	0,078
-347,693	-47,069	-0,171	0,059
-346,679	800,000	0,026	0,076
-345,664	140,551	-0,042	-0,039
-344,650	-200,000	0,034	-0,116
-343,635	-200,000	0,008	0,053
-342,620	-64,682	0,095	0,027
-341,606	121,121	-0,018	-0,016
-340,591	-134,197	0,046	-0,004
-339,577	16,653	-0,083	-0,047
-338,562	-40,864	-0,122	-0,045
-337,548	-200,000	0,006	-0,200
-336,533	338,007	-0,058	-0,081
-335,518	220,019	0,141	0,163
-334,504	-55,208	0,186	0,060
-333,489	800,000	-0,032	0,082
-332,475	-200,000	0,004	0,014
-331,460	49,871	-0,025	0,017
-330,445	213,169	0,049	-0,055
-329,431	118,382	-0,057	0,051
-328,416	-200,000	-0,034	0,173
-327,402	-200,000	-0,048	0,167
-326,387	-62,441	0,163	0,048
-325,372	-49,605	-0,129	0,044
-324,358	52,216	-0,055	0,038
-323,343	-75,265	-0,079	-0,020
-322,329	77,044	0,040	0,030
-321,314	-133,664	0,089	0,008
-320,299	-15,549	-0,040	-0,018
-319,285	459,518	0,024	0,038
-318,270	-54,404	-0,104	-0,034
-317,256	81,212	-0,066	0,051
-316,241	-87,183	0,029	-0,006
-315,226	-200,000	-0,019	0,064
-314,212	-200,000	-0,016	-0,078
-313,197	400,161	0,067	0,101
-312,183	-7,361	-0,081	0,039
-311,168	227,183	0,071	-0,083
-310,153	-160,264	-0,109	0,004
-309,139	-123,750	-0,124	-0,014
-308,124	200,000	-0,036	0,040
-307,110	519,269	0,035	-0,059
-306,095	-120,482	0,123	0,015
-305,080	800,000	-0,018	-0,049
-304,066	-200,000	-0,003	-0,111
-303,051	800,000	-0,008	-0,023
-302,037	-200,000	0,005	-0,081
-301,022	-115,686	0,070	-0,009
-300,008	-200,000	-0,002	-0,089
-298,993	65,423	0,142	0,103
-297,978	800,000	-0,054	0,137
-296,964	57,541	-0,077	-0,054
-295,949	-71,759	0,061	-0,016
-294,935	39,625	-0,047	-0,030
-293,920	513,494	-0,039	-0,066
-292,905	800,000	-0,018	-0,039
-291,891	-200,000	0,019	0,149
-290,876	-200,000	-0,041	0,152
-289,862	-5,040	0,052	-0,026
-288,847	112,930	-0,031	0,027
-287,832	-200,000	0,000	-0,072
-286,818	-73,525	0,080	0,021
-285,803	-200,000	0,027	0,119
-284,789	693,792	0,039	-0,073
-283,774	575,307	-0,053	0,094
-282,759	-36,274	-0,081	0,031
-281,745	800,000	-0,019	0,055
-280,730	-65,621	-0,105	0,030
-279,716	394,643	-0,015	0,022
-278,701	800,000	0,060	-0,131
-277,686	-20,142	-0,057	0,025
-276,672	-200,000	-0,013	-0,072
-275,657	548,463	-0,121	-0,208
-274,643	800,000	-0,043	-0,129
-273,628	800,000	-0,014	-0,042
-272,613	-131,280	0,107	-0,010
-271,599	80,474	-0,112	0,086
-270,584	-200,000	0,037	0,158
-269,570	700,213	-0,074	0,139
-268,555	-102,990	0,084	0,014
-267,540	800,000	0,050	0,152
-266,526	241,991	0,081	-0,097
-265,511	-200,000	-0,008	-0,029
-264,497	800,000	-0,031	0,077
-263,482	229,014	0,023	0,026
-262,467	-200,000	-0,009	-0,041
-261,453	-112,931	-0,056	-0,008
-260,438	-200,000	0,001	0,030
-259,424	-72,928	-0,121	-0,032
-258,409	-200,000	0,007	-0,072
-257,395	124,850	0,031	-0,028
-256,380	-82,163	0,044	-0,010
-255,365	458,077	0,053	0,085
-254,351	-72,746	0,040	0,011
-253,336	800,000	-0,034	-0,100
-252,322	800,000	-0,064	-0,157
-251,307	-200,000	-0,013	0,110
-250,292	223,749	0,067	-0,078
-249,278	800,000	-0,029	0,066
-248,263	-200,000	-0,055	0,189
-247,249	-200,000	0,033	0,128
-246,234	112,142	-0,167	0,144
-245,219	800,000	0,030	0,074
-244,205	8,047	-0,027	-0,014
-243,190	15,338	-0,186	-0,104
-242,176	462,802	0,037	0,059
-241,161	229,641	0,035	-0,041
-240,146	800,000	-0,037	0,074
-239,132	-178,040	-0,161	-0,003
-238,117	177,630	-0,067	-0,069
-237,103	88,881	0,025	0,020
-236,088	141,735	-0,059	0,056
-235,073	81,078	0,061	0,047
-234,059	800,000	0,019	0,044
-233,044	184,150	0,073	0,077
-232,030	290,957	0,043	0,056
-231,015	42,649	0,025	-0,016
-230,000	-200,000	0,022	0,118
-228,986	-200,000	0,019	-0,097
-227,971	-200,000	-0,006	-0,034
-226,957	-113,220	-0,010	0,001
-225,942	251,331	-0,100	0,122
-224,927	73,666	-0,027	-0,020
-223,913	197,250	-0,095	0,104
-222,898	800,000	0,035	-0,079
-221,884	-83,609	0,125	-0,028
-220,869	383,656	0,088	-0,129
-219,855	264,163	0,050	-0,062
-218,840	388,120	0,077	-0,114
-217,825	-200,000	-0,010	0,059
-216,811	153,687	-0,171	-0,168
-215,796	-200,000	-0,064	-0,234
-214,782	800,000	-0,058	0,178
-213,767	-69,291	0,053	-0,014
-212,752	-200,000	-0,004	0,024
-211,738	800,000	0,025	0,071
-210,723	-200,000	-0,005	-0,065
-209,709	-72,392	0,072	-0,019
-208,694	68,022	-0,046	-0,034
-207,679	396,151	-0,056	-0,083
-206,665	800,000	-0,004	-0,011
-205,650	344,474	0,051	0,071
-204,636	-97,023	-0,061	-0,011
-203,621	332,441	-0,028	0,039
-202,606	79,178	-0,099	-0,076
-201,592	-200,000	-0,009	0,041
-200,577	-68,738	-0,074	-0,020
-199,563	310,507	0,107	-0,143
-198,548	-0,178	0,079	-0,040
-197,533	-200,000	0,011	0,078
-196,519	265,752	-0,022	0,028
-195,504	446,253	0,030	0,047
-194,490	-123,391	0,042	-0,005
-193,475	3,664	0,053	-0,027
-192,460	17,975	-0,058	-0,033
-191,446	-120,081	-0,145	-0,017
-190,431	800,000	0,015	-0,044
-189,417	-64,471	-0,014	-0,004
-188,402	-170,045	0,062	0,002
-187,387	53,694	-0,098	-0,067
-186,373	27,920	-0,046	0,028
-185,358	-200,000	-0,003	-0,148
-184,344	-34,038	0,026	0,010
-183,329	258,411	-0,043	0,052
-182,315	27,655	0,086	0,051
-181,300	-200,000	0,014	0,121
-180,285	-166,239	-0,090	-0,003
-179,271	-149,061	-0,045	-0,003
-178,256	-200,000	0,026	-0,087
-177,242	0,207	0,076	-0,039
-176,227	-200,000	-0,011	-0,042
-175,212	-200,000	-0,010	0,091
-174,198	-28,368	0,064	-0,026
-173,183	-91,131	-0,264	-0,054
-172,169	800,000	0,018	0,047
-171,154	173,960	0,024	-0,024
-170,139	159,364	0,020	-0,020
-169,125	-200,000	-0,010	0,071
-168,110	-93,778	-0,040	0,008
-167,096	-50,871	0,085	-0,028
-166,081	800,000	0,029	-0,071
-165,066	315,102	-0,132	-0,177
-164,052	91,699	0,027	-0,022
-163,037	-134,569	-0,193	0,017
-162,023	19,037	0,170	-0,097
-161,008	115,862	0,042	0,037
-159,993	43,526	-0,066	-0,043
-158,979	-200,000	0,003	-0,123
-157,964	-59,549	0,063	-0,019
-156,950	35,617	0,054	0,034
-155,935	365,147	-0,024	-0,034
-154,920	-13,572	0,144	-0,066
-153,906	416,194	0,055	0,084
-152,891	800,000	-0,021	0,059
-151,877	772,983	-0,067	-0,132
-150,862	603,282	0,004	-0,007
-149,847	299,996	-0,032	-0,042
-148,833	800,000	-0,040	-0,084
-147,818	800,000	0,074	0,185
-146,804	17,965	-0,068	0,038
-145,789	55,262	0,050	0,034
-144,775	-86,835	-0,037	0,008
-143,760	259,910	0,057	-0,070
-142,745	255,029	0,040	-0,049
-141,731	-50,510	0,070	0,023
-140,716	800,000	0,016	0,042
-139,702	-99,882	0,035	0,006
-138,687	35,156	0,068	0,042
-137,672	596,604	-0,015	0,027
-136,658	-59,697	-0,214	-0,065
-135,643	-183,376	-0,110	0,001
-134,629	-200,000	-0,010	-0,047
-133,614	482,482	0,099	0,160
-132,599	-200,000	-0,003	0,081
-131,585	215,775	0,056	0,063
-130,570	144,177	-0,054	-0,051
-129,556	-200,000	-0,009	-0,208
-128,541	800,000	-0,042	0,124
-127,526	-200,000	-0,010	-0,048
-126,512	-175,598	0,066	-0,001
-125,497	-59,512	0,055	0,017
-124,483	-200,000	0,011	0,039
-123,468	144,705	0,056	-0,053
-122,453	-131,274	0,042	0,004
-121,439	-10,461	-0,072	-0,034
-120,424	-200,000	-0,001	-0,082
-119,410	351,810	-0,078	0,111
