DTS Sentinel unit serial number:	SN410029Multiplexer serial number:	ORYXHardware model number:	OX2-SRSoftware version number:	ORYX F/W v4,00 Oryx Data Collector v3.7.2.0data status	okinstallation	BH3 CH2differential loss correction	single-endedforward channel	channel 2reverse channel	N/Adate	2023/12/05time	23:07:28forward acquisition time	300,00reverse acquisition time	0,00gamma	499,1914k internal	0,3194k external	0,3194temperature offset calibration	1,0000default loss term (dB/km)	0,3820temperature slope calibration	1,0000multiplexer offset coefficient	1,0000multiplexer slope coefficient	1,0000fibre end	0,00T internal ref (°C)	9,70T ext. ref 1 (°C)	-5,42T ext. ref 2 (°C)	-5,51length (m)	temperature (°C)	Stokes	anti-Stokes-744,400	608,913	-0,124	-0,226
-743,385	-69,730	-0,204	0,056
-742,371	-61,782	0,019	0,006
-741,356	-110,763	-0,117	0,017
-740,342	-200,000	0,012	-0,086
-739,327	-39,066	-0,300	0,114
-738,312	422,125	-0,084	-0,131
-737,298	-104,014	-0,106	0,018
-736,283	800,000	-0,019	-0,055
-735,269	36,412	-0,152	0,097
-734,254	-200,000	-0,032	-0,189
-733,239	18,945	-0,455	-0,265
-732,225	63,758	0,041	-0,030
-731,210	-2,981	0,152	0,077
-730,196	635,909	0,005	-0,009
-729,181	722,922	0,021	-0,042
-728,167	431,756	-0,037	-0,058
-727,152	800,000	0,016	-0,045
-726,137	178,353	0,023	-0,024
-725,123	800,000	0,049	0,157
-724,108	-151,061	-0,091	-0,005
-723,094	341,461	-0,081	-0,116
-722,079	-113,590	-0,092	-0,013
-721,064	190,069	-0,041	0,045
-720,050	-152,607	-0,033	0,002
-719,035	800,000	0,055	0,127
-718,021	199,905	-0,057	-0,064
-717,006	147,998	0,053	-0,052
-715,991	407,453	-0,035	-0,053
-714,977	-66,644	-0,111	0,032
-713,962	800,000	0,021	0,065
-712,948	368,276	0,049	-0,072
-711,933	542,450	-0,045	-0,079
-710,918	800,000	-0,053	-0,112
-709,904	-200,000	-0,023	-0,127
-708,889	363,368	-0,074	-0,108
-707,875	-33,938	-0,061	-0,024
-706,860	800,000	0,018	-0,051
-705,845	-24,765	0,045	0,019
-704,831	31,998	0,094	-0,059
-703,816	46,123	-0,075	-0,050
-702,802	220,057	-0,056	-0,066
-701,787	-200,000	0,002	0,039
-700,772	250,113	-0,054	-0,067
-699,758	184,196	0,056	0,061
-698,743	394,305	0,053	0,081
-697,729	800,000	-0,038	0,093
-696,714	350,146	0,025	-0,036
-695,699	-200,000	0,008	-0,104
-694,685	-200,000	-0,055	-0,189
-693,670	656,419	-0,039	-0,073
-692,656	414,975	-0,114	-0,178
-691,641	499,976	0,057	0,096
-690,627	-13,515	0,099	-0,046
-689,612	800,000	-0,031	0,069
-688,597	-16,764	-0,068	0,031
-687,583	11,416	-0,036	0,020
-686,568	-200,000	-0,015	-0,076
-685,554	-58,520	0,060	-0,019
-684,539	554,457	-0,111	0,195
-683,524	-121,781	0,055	0,007
-682,510	800,000	-0,067	0,146
-681,495	-200,000	-0,006	-0,112
-680,481	-200,000	0,003	0,012
-679,466	75,760	-0,187	-0,143
-678,451	800,000	0,024	-0,054
-677,437	800,000	-0,030	-0,077
-676,422	-133,193	0,136	0,012
-675,408	-200,000	0,006	-0,020
-674,393	543,144	-0,096	-0,168
-673,378	491,317	0,064	-0,106
-672,364	167,733	-0,021	-0,021
-671,349	-152,103	-0,118	0,006
-670,335	800,000	-0,042	-0,091
-669,320	-93,216	0,134	-0,027
-668,305	192,488	-0,065	-0,072
-667,291	-25,421	-0,027	0,012
-666,276	-200,000	-0,023	0,088
-665,262	301,844	0,054	0,073
-664,247	-7,087	-0,140	-0,069
-663,232	-200,000	-0,014	0,094
-662,218	800,000	-0,003	-0,006
-661,203	-200,000	-0,001	0,055
-660,189	800,000	0,034	0,077
-659,174	-148,302	-0,160	-0,009
-658,159	13,769	-0,029	-0,016
-657,145	23,955	0,066	-0,039
-656,130	-97,561	0,040	-0,008
-655,116	-77,531	0,070	-0,018
-654,101	-77,289	0,088	-0,022
-653,086	-200,000	0,002	0,051
-652,072	-62,072	-0,069	0,021
-651,057	-200,000	-0,004	-0,134
-650,043	224,399	-0,045	-0,052
-649,028	186,346	0,060	-0,065
-648,014	41,941	0,060	0,039
-646,999	-50,501	0,121	-0,041
-645,984	-85,430	-0,140	0,031
-644,970	181,542	-0,151	-0,162
-643,955	28,014	-0,119	-0,073
-642,941	800,000	-0,034	0,084
-641,926	120,195	0,042	0,038
-640,911	245,115	0,038	-0,046
-639,897	563,389	-0,050	0,089
-638,882	-76,095	0,095	0,024
-637,868	800,000	-0,064	-0,157
-636,853	800,000	-0,042	-0,090
-635,838	101,913	-0,101	-0,086
-634,824	-200,000	0,033	0,157
-633,809	-200,000	0,001	-0,089
-632,795	-73,283	-0,038	-0,010
-631,780	-68,844	-0,119	-0,033
-630,765	186,725	-0,032	-0,034
-629,751	-99,187	-0,108	-0,020
-628,736	-200,000	0,026	-0,181
-627,722	-200,000	0,018	0,100
-626,707	-54,419	0,039	0,013
-625,692	1,743	0,029	0,015
-624,678	105,881	-0,106	-0,091
-623,663	594,334	-0,050	-0,090
-622,649	-9,570	-0,166	-0,080
-621,634	280,685	0,056	-0,073
-620,619	-32,272	-0,120	-0,048
-619,605	-149,943	0,004	-0,000
-618,590	800,000	0,045	-0,093
-617,576	-57,206	0,134	-0,043
-616,561	-114,974	-0,079	0,011
-615,546	-96,819	-0,126	-0,024
-614,532	197,575	-0,056	-0,062
-613,517	-200,000	0,018	0,118
-612,503	20,613	0,084	0,049
-611,488	-200,000	-0,005	0,032
-610,474	67,513	0,125	0,093
-609,459	444,952	0,113	0,180
-608,444	140,408	-0,078	0,074
-607,430	-200,000	0,023	-0,158
-606,415	-61,408	0,018	0,005
-605,401	-43,461	0,006	-0,002
-604,386	-73,922	0,045	0,012
-603,371	-200,000	-0,003	0,022
-602,357	34,056	-0,134	0,084
-601,342	-200,000	0,043	0,140
-600,328	405,220	-0,026	-0,040
-599,313	800,000	0,051	-0,109
-598,298	117,555	0,070	-0,063
-597,284	104,990	0,083	0,071
-596,269	140,324	0,100	0,096
-595,255	800,000	0,033	0,080
-594,240	98,132	0,018	-0,015
-593,225	-200,000	0,000	-0,074
-592,211	-71,507	-0,177	0,048
-591,196	-24,841	-0,136	0,058
-590,182	369,120	0,069	0,102
-589,167	139,542	0,049	0,046
-588,152	203,910	0,029	-0,032
-587,138	573,069	0,038	-0,068
-586,123	195,096	0,031	-0,034
-585,109	-92,271	-0,093	-0,019
-584,094	670,575	-0,028	-0,053
-583,079	412,012	-0,035	-0,054
-582,065	800,000	0,037	-0,078
-581,050	-200,000	-0,016	0,134
-580,036	141,103	-0,079	0,076
-579,021	-22,615	0,161	-0,070
-578,006	-169,932	-0,104	-0,003
-576,992	-62,652	0,059	0,018
-575,977	394,294	-0,045	-0,068
-574,963	186,199	0,081	0,087
-573,948	-200,000	-0,012	-0,088
-572,934	-146,781	-0,126	0,008
-571,919	-93,319	0,142	-0,028
-570,904	-121,251	-0,104	0,012
-569,890	331,823	-0,055	-0,077
-568,875	-97,793	0,032	0,006
-567,861	-94,612	-0,121	-0,024
-566,846	-200,000	0,028	-0,164
-565,831	341,482	0,042	0,059
-564,817	-15,223	-0,084	0,039
-563,802	28,136	-0,153	-0,093
-562,788	-200,000	-0,013	0,063
-561,773	-162,074	-0,084	0,003
-560,758	375,515	0,013	-0,019
-559,744	96,419	-0,098	-0,081
-558,729	800,000	0,019	0,039
-557,715	15,825	-0,114	0,065
-556,700	232,919	-0,103	-0,122
-555,685	439,097	0,009	-0,014
-554,671	-200,000	-0,007	-0,053
-553,656	235,725	-0,023	0,027
-552,642	758,551	-0,072	0,141
-551,627	800,000	0,042	0,096
-550,612	144,970	0,083	-0,080
-549,598	800,000	-0,037	-0,086
-548,583	800,000	-0,070	-0,187
-547,569	-164,597	-0,156	-0,005
-546,554	291,326	0,073	0,096
-545,539	44,861	0,138	-0,092
-544,525	-95,872	0,026	-0,005
-543,510	499,029	0,032	-0,054
-542,496	234,822	-0,036	0,043
-541,481	89,994	-0,012	0,009
-540,466	800,000	0,063	0,151
-539,452	-200,000	0,012	0,051
-538,437	42,874	-0,027	0,018
-537,423	314,957	0,086	0,117
-536,408	-200,000	0,011	-0,269
-535,393	-47,054	-0,063	0,022
-534,379	394,292	0,031	0,047
-533,364	-200,000	-0,007	0,056
-532,350	-200,000	-0,005	-0,030
-531,335	-200,000	0,006	-0,096
-530,321	372,406	0,029	0,043
-529,306	549,621	0,054	-0,093
-528,291	202,872	-0,125	-0,140
-527,277	-75,134	-0,139	-0,036
-526,262	-67,592	0,040	-0,011
-525,248	800,000	-0,041	0,094
-524,233	337,156	0,096	0,135
-523,218	21,392	0,097	0,057
-522,204	129,606	0,103	0,095
-521,189	403,901	-0,026	0,039
-520,175	-200,000	-0,005	0,057
-519,160	144,944	-0,096	-0,093
-518,145	-119,398	0,037	0,005
-517,131	452,740	0,093	0,149
-516,116	800,000	0,077	0,186
-515,102	15,479	-0,158	0,089
-514,087	-200,000	-0,006	0,082
-513,072	137,092	-0,074	-0,070
-512,058	18,454	0,099	-0,057
-511,043	-101,720	0,114	-0,020
-510,029	-97,303	-0,058	-0,011
-509,014	135,383	0,116	0,109
-507,999	800,000	0,046	0,096
-506,985	109,722	-0,208	-0,180
-505,970	729,730	-0,068	-0,131
-504,956	-200,000	0,009	0,206
-503,941	-200,000	0,019	-0,110
-502,926	-8,927	0,193	0,093
-501,912	-6,424	0,118	-0,058
-500,897	-200,000	0,011	0,114
-499,883	-83,640	-0,099	-0,023
-498,868	132,733	-0,030	-0,028
-497,853	739,567	0,047	0,092
-496,839	242,570	-0,092	0,112
-495,824	54,619	-0,017	-0,012
-494,810	-44,563	0,111	-0,040
-493,795	88,135	-0,035	0,028
-492,781	3,872	-0,071	0,038
-491,766	238,922	0,056	0,068
-490,751	800,000	0,052	0,112
-489,737	-200,000	-0,034	0,137
-488,722	-114,816	0,089	0,012
-487,708	-200,000	-0,002	-0,044
-486,693	324,273	0,012	0,016
-485,678	-140,515	-0,076	-0,006
-484,664	4,542	0,095	-0,050
-483,649	-200,000	-0,014	-0,175
-482,635	15,033	-0,081	0,046
-481,620	54,277	0,086	0,060
-480,605	147,887	-0,031	0,030
-479,591	-200,000	-0,025	0,089
-478,576	-14,945	-0,078	0,036
-477,562	-54,344	-0,123	-0,040
-476,547	-200,000	0,012	-0,079
-475,532	-10,936	-0,069	0,033
-474,518	-200,000	0,011	-0,097
-473,503	800,000	0,003	-0,009
-472,489	-149,059	0,084	-0,005
-471,474	-52,906	-0,038	-0,013
-470,459	70,588	0,082	-0,061
-469,445	29,300	-0,062	0,038
-468,430	-200,000	-0,023	0,082
-467,416	-200,000	-0,008	0,093
-466,401	194,790	0,019	0,021
-465,386	800,000	0,027	0,063
-464,372	97,322	-0,029	0,024
-463,357	800,000	0,009	-0,025
-462,343	98,311	-0,062	-0,052
-461,328	138,000	-0,097	-0,092
-460,313	42,238	-0,013	0,008
-459,299	17,810	0,132	0,075
-458,284	57,018	0,065	0,046
-457,270	-48,075	-0,021	0,007
-456,255	35,534	-0,118	-0,075
-455,241	-200,000	0,175	-0,000
-454,226	-200,000	-0,004	-0,015
-453,211	7,560	-0,048	-0,026
-452,197	412,964	0,038	0,058
-451,182	335,457	0,070	0,098
-450,168	-110,163	0,056	0,008
-449,153	242,271	-0,069	0,084
-448,138	335,693	-0,041	-0,058
-447,124	-91,072	-0,054	0,011
-446,109	-132,778	-0,051	0,005
-445,095	-108,462	0,106	-0,016
-444,080	397,077	0,026	0,040
-443,065	-72,587	-0,081	0,021
-442,051	305,645	0,024	-0,033
-441,036	6,041	-0,048	0,026
-440,022	-200,000	0,044	-0,153
-439,007	126,193	-0,027	0,025
-437,992	-200,000	0,009	0,075
-436,978	4,601	0,037	-0,019
-435,963	2,455	0,066	-0,034
-434,949	800,000	0,020	0,052
-433,934	50,444	-0,170	-0,115
-432,919	201,473	0,107	-0,119
-431,905	27,970	-0,131	-0,080
-430,890	249,911	0,076	0,093
-429,876	-150,905	0,128	0,007
-428,861	-86,857	-0,033	0,007
-427,846	135,202	0,125	0,117
-426,832	-79,033	-0,107	0,026
-425,817	260,901	-0,024	-0,029
-424,803	-48,341	-0,128	-0,044
-423,788	-200,000	0,005	0,099
-422,773	-36,425	0,096	0,037
-421,759	61,177	-0,044	0,031
-420,744	-54,838	0,040	0,013
-419,730	800,000	-0,026	-0,057
-418,715	70,191	-0,082	-0,061
-417,701	559,984	0,053	-0,093
-416,686	-200,000	0,025	0,122
-415,671	-0,020	0,102	0,052
-414,657	51,253	0,019	0,013
-413,642	800,000	-0,040	0,118
-412,628	-200,000	-0,006	-0,023
-411,613	800,000	0,027	0,060
-410,598	-40,683	0,057	-0,021
-409,584	310,585	-0,099	-0,133
-408,569	-59,474	0,108	-0,033
-407,555	-134,101	-0,051	-0,004
-406,540	-94,089	0,018	-0,003
-405,525	-200,000	0,003	-0,025
-404,511	-69,202	-0,099	-0,027
-403,496	800,000	0,031	0,085
-402,482	800,000	0,048	0,121
-401,467	15,577	0,040	0,023
-400,452	-200,000	0,017	0,084
-399,438	-200,000	0,003	0,088
-398,423	800,000	0,069	0,140
-397,409	-66,209	-0,086	-0,024
-396,394	95,576	0,109	-0,090
-395,379	-9,942	0,029	0,014
-394,365	-73,720	0,081	0,021
-393,350	800,000	-0,023	0,058
-392,336	800,000	0,036	-0,102
-391,321	16,792	-0,119	-0,068
-390,306	279,104	0,024	-0,031
-389,292	-181,076	-0,136	0,002
-388,277	-200,000	-0,001	-0,123
-387,263	69,899	-0,032	-0,024
-386,248	303,211	-0,069	0,092
-385,233	-200,000	0,007	-0,034
-384,219	-200,000	-0,007	0,035
-383,204	137,641	-0,055	-0,052
-382,190	-200,000	0,009	-0,082
-381,175	-200,000	0,022	0,074
-380,160	278,784	0,065	-0,083
-379,146	-200,000	-0,012	0,073
-378,131	30,918	-0,095	-0,058
-377,117	800,000	0,037	-0,108
-376,102	-200,000	0,039	-0,214
-375,088	-200,000	0,005	-0,090
-374,073	764,566	0,042	-0,082
-373,058	-100,806	-0,081	-0,014
-372,044	-200,000	0,001	0,044
-371,029	59,776	0,116	-0,082
-370,015	-18,458	-0,077	0,035
-369,000	34,846	0,033	0,021
-367,985	-200,000	-0,006	-0,226
-366,971	-200,000	0,005	-0,046
-365,956	-200,000	0,006	-0,033
-364,942	800,000	0,027	-0,055
-363,927	-125,121	0,044	0,005
-362,912	-78,914	0,166	-0,040
-361,898	-92,283	-0,056	0,011
-360,883	502,375	-0,061	-0,102
-359,869	800,000	-0,010	-0,025
-358,854	112,821	0,049	0,043
-357,839	-188,721	0,076	0,001
-356,825	-149,122	0,041	-0,002
-355,810	14,413	0,052	0,029
-354,796	39,555	-0,081	-0,052
-353,781	72,622	0,098	-0,074
-352,766	114,088	0,097	0,085
-351,752	134,203	-0,069	0,064
-350,737	-200,000	0,017	0,088
-349,723	43,430	0,064	0,042
-348,708	-171,303	0,085	0,002
-347,693	286,815	-0,046	-0,060
-346,679	-99,125	-0,117	0,021
-345,664	800,000	0,023	0,053
-344,650	110,582	-0,067	0,057
-343,635	-200,000	-0,000	0,105
-342,620	800,000	0,100	0,242
-341,606	-57,263	-0,096	0,030
-340,591	169,840	-0,026	0,027
-339,577	171,898	-0,050	0,051
-338,562	126,849	0,087	-0,079
-337,548	-124,680	0,093	0,010
-336,533	518,651	-0,080	-0,135
-335,518	106,361	0,124	0,105
-334,504	132,861	0,060	0,056
-333,489	-200,000	-0,030	0,110
-332,475	-200,000	-0,008	-0,047
-331,460	557,522	-0,050	-0,087
-330,445	304,926	0,056	0,075
-329,431	24,241	0,052	0,031
-328,416	632,062	0,069	0,125
-327,402	800,000	-0,024	0,050
-326,387	-77,757	0,143	-0,035
-325,372	800,000	-0,043	-0,089
-324,358	-200,000	0,020	-0,069
-323,343	248,852	-0,095	0,116
-322,329	143,025	0,054	0,052
-321,314	390,687	0,089	0,132
-320,299	-200,000	0,039	-0,189
-319,285	41,965	-0,117	-0,076
-318,270	82,831	-0,065	0,050
-317,256	-164,988	-0,090	0,003
-316,241	-200,000	0,008	-0,069
-315,226	-200,000	0,001	-0,030
-314,212	-200,000	-0,003	0,066
-313,197	56,619	0,076	-0,053
-312,183	-136,554	-0,114	-0,009
-311,168	-200,000	0,027	-0,195
-310,153	-200,000	-0,011	0,062
-309,139	-8,928	-0,018	0,009
-308,124	206,832	0,080	-0,090
-307,110	16,297	-0,064	0,036
-306,095	-169,709	-0,066	0,002
-305,080	-176,848	-0,171	0,003
-304,066	-100,818	-0,146	0,025
-303,051	-105,129	0,015	-0,002
-302,037	20,934	-0,167	-0,096
-301,022	37,508	0,078	-0,049
-300,008	-49,685	0,040	0,014
-298,993	-13,233	-0,040	0,019
-297,978	-105,297	0,185	0,030
-296,964	-61,471	-0,148	-0,044
-295,949	800,000	-0,052	-0,138
-294,935	-86,296	-0,062	0,014
-293,920	800,000	-0,025	0,062
-292,905	-200,000	-0,000	-0,010
-291,891	-156,995	0,145	0,006
-290,876	155,984	0,050	0,049
-289,862	63,027	0,009	-0,006
-288,847	-100,538	-0,055	0,010
-287,832	60,516	-0,248	-0,176
-286,818	-37,516	-0,068	0,026
-285,803	28,860	0,167	0,101
-284,789	-117,235	0,084	0,011
-283,774	-40,835	-0,084	0,031
-282,759	572,622	0,011	-0,020
-281,745	-10,757	0,093	-0,044
-280,730	67,298	0,049	0,036
-279,716	369,729	-0,020	-0,029
-278,701	-105,949	-0,057	0,009
-277,686	800,000	-0,038	-0,099
-276,672	-200,000	0,005	0,032
-275,657	-200,000	0,010	-0,091
-274,643	-56,973	0,045	0,014
-273,628	-36,658	-0,123	-0,047
-272,613	280,467	-0,119	-0,152
-271,599	-200,000	-0,001	-0,103
-270,584	-76,730	0,078	0,019
-269,570	-145,088	-0,106	0,007
-268,555	366,491	0,041	-0,059
-267,540	292,583	-0,003	-0,003
-266,526	-126,209	-0,098	0,010
-265,511	-200,000	0,017	0,098
-264,497	-200,000	-0,017	0,104
-263,482	-181,697	0,190	0,003
-262,467	-200,000	-0,009	0,034
-261,453	-200,000	0,019	0,115
-260,438	-200,000	0,001	0,073
-259,424	451,639	-0,058	0,091
-258,409	571,700	0,072	-0,126
-257,395	69,548	0,130	-0,095
-256,380	-94,260	0,125	-0,024
-255,365	60,544	-0,025	-0,018
-254,351	-200,000	-0,015	0,087
-253,336	-47,314	0,048	0,017
-252,322	-39,076	-0,211	-0,079
-251,307	351,986	0,059	0,084
-250,292	153,440	-0,060	-0,059
-249,278	-200,000	-0,022	0,182
-248,263	-200,000	0,019	0,172
-247,249	-129,359	0,098	0,010
-246,234	-7,872	-0,133	-0,064
-245,219	-200,000	0,022	-0,091
-244,205	86,336	-0,155	-0,122
-243,190	-8,027	0,110	0,053
-242,176	800,000	0,066	0,141
-241,161	-200,000	-0,019	0,066
-240,146	-7,409	-0,025	0,012
-239,132	800,000	-0,037	-0,112
-238,117	-200,000	-0,011	-0,039
-237,103	-61,150	-0,017	-0,005
-236,088	106,867	0,099	0,084
-235,073	-55,721	0,080	0,025
-234,059	-184,308	-0,047	-0,001
-233,044	-61,639	0,060	-0,018
-232,030	-200,000	0,032	0,108
-231,015	-200,000	0,007	0,066
-230,000	800,000	0,072	-0,154
-228,986	209,941	-0,082	-0,092
-227,971	519,484	0,024	-0,040
-226,957	242,234	0,072	0,086
-225,942	-200,000	-0,001	0,053
-224,927	-43,381	0,046	0,017
-223,913	130,981	-0,076	-0,070
-222,898	-95,585	-0,125	-0,024
-221,884	-133,787	0,082	-0,007
-220,869	-200,000	0,026	0,118
-219,855	-200,000	-0,004	0,065
-218,840	-81,908	-0,026	0,006
-217,825	-200,000	-0,003	0,045
-216,811	759,879	0,045	-0,087
-215,796	-93,193	0,050	0,010
-214,782	119,727	0,092	-0,081
-213,767	184,613	0,114	-0,121
-212,752	-200,000	0,053	-0,251
-211,738	-20,987	-0,004	0,002
-210,723	-200,000	0,012	-0,092
-209,709	-63,931	0,106	0,031
-208,694	-76,027	-0,137	0,034
-207,679	-200,000	-0,005	-0,090
-206,665	-107,440	-0,141	-0,022
-205,650	-29,557	0,119	-0,048
-204,636	175,236	0,098	0,102
-203,621	800,000	0,020	-0,061
-202,606	425,130	0,037	-0,057
-201,592	-200,000	-0,003	-0,026
-200,577	-200,000	0,013	-0,061
-199,563	250,098	-0,038	0,046
-198,548	40,968	-0,043	0,028
-197,533	-139,468	0,129	-0,010
-196,519	593,840	0,008	0,014
-195,504	-78,332	-0,116	-0,028
-194,490	299,018	0,034	0,045
-193,475	74,792	-0,137	-0,103
-192,460	800,000	0,061	-0,142
-191,446	664,881	0,027	-0,049
-190,431	-200,000	0,016	0,126
-189,417	18,883	-0,055	0,031
-188,402	-200,000	0,015	0,058
-187,387	3,456	0,082	-0,042
-186,373	6,672	0,121	0,064
-185,358	522,752	-0,066	0,110
-184,344	-200,000	0,000	-0,078
-183,329	-33,014	0,112	0,044
-182,315	800,000	0,094	0,239
-181,300	-117,929	0,119	-0,015
-180,285	-169,239	-0,190	-0,005
-179,271	271,209	0,116	-0,145
-178,256	-200,000	0,008	0,094
-177,242	147,710	0,091	-0,087
-176,227	-200,000	0,010	0,045
-175,212	-99,299	0,068	0,012
-174,198	104,466	0,088	0,074
-173,183	552,177	-0,122	-0,210
-172,169	-200,000	-0,017	-0,104
-171,154	800,000	-0,017	0,038
-170,139	-200,000	0,001	0,111
-169,125	-70,339	-0,070	-0,019
-168,110	800,000	-0,059	0,118
-167,096	497,052	-0,056	0,092
-166,081	-51,429	-0,185	0,061
-165,066	800,000	0,038	0,095
-164,052	279,285	0,095	-0,121
-163,037	-129,178	-0,036	0,004
-162,023	800,000	0,031	-0,061
-161,008	-200,000	0,011	0,048
-159,993	519,972	0,061	0,102
-158,979	800,000	0,013	0,032
-157,964	-185,782	0,035	-0,000
-156,950	-200,000	-0,009	-0,099
-155,935	68,117	0,109	0,080
-154,920	800,000	-0,064	0,149
-153,906	-200,000	-0,003	0,069
-152,891	223,633	-0,002	0,002
-151,877	281,469	-0,049	-0,063
-150,862	8,280	0,133	-0,071
-149,847	800,000	0,029	0,075
-148,833	113,396	-0,080	-0,069
-147,818	132,552	0,042	-0,038
-146,804	217,045	0,098	0,111
-145,789	-200,000	-0,009	0,056
-144,775	-42,919	0,097	0,035
-143,760	-200,000	-0,041	-0,174
-142,745	800,000	-0,060	0,169
-141,731	446,786	-0,085	0,134
-140,716	305,709	0,046	0,062
-139,702	-7,784	0,136	-0,065
-138,687	156,713	-0,076	0,075
-137,672	87,287	-0,037	-0,029
-136,658	9,345	-0,020	-0,011
-135,643	109,106	0,005	-0,004
-134,629	-0,428	-0,079	0,040
-133,614	-109,010	0,093	0,014
-132,599	-73,544	0,075	0,019
-131,585	25,507	-0,043	0,025
-130,570	39,033	-0,060	-0,038
-129,556	-200,000	0,008	0,098
-128,541	124,721	-0,067	-0,060
-127,526	658,967	0,040	-0,074
-126,512	-117,253	0,139	0,018
-125,497	521,314	0,088	0,148
-124,483	800,000	0,072	0,152
-123,468	-108,108	-0,121	0,018
-122,453	-200,000	-0,001	-0,046
-121,439	-63,777	-0,138	-0,040
-120,424	51,536	0,060	0,041
-119,410	-200,000	0,012	-0,058
-118,395	-200,000	0,017	0,076
