DTS Sentinel unit serial number:	SN410029Multiplexer serial number:	ORYXHardware model number:	OX2-SRSoftware version number:	ORYX F/W v4,00 Oryx Data Collector v3.7.2.0data status	okinstallation	BH3 CH2differential loss correction	single-endedforward channel	channel 2reverse channel	N/Adate	2023/12/05time	22:57:28forward acquisition time	300,00reverse acquisition time	0,00gamma	499,1914k internal	0,3194k external	0,3194temperature offset calibration	1,0000default loss term (dB/km)	0,3820temperature slope calibration	1,0000multiplexer offset coefficient	1,0000multiplexer slope coefficient	1,0000fibre end	0,00T internal ref (°C)	9,77T ext. ref 1 (°C)	-5,37T ext. ref 2 (°C)	-5,45length (m)	temperature (°C)	Stokes	anti-Stokes-744,400	398,499	0,082	-0,126
-743,385	-70,274	-0,222	0,061
-742,371	192,392	0,042	0,046
-741,356	148,938	-0,192	0,190
-740,342	790,057	-0,070	-0,142
-739,327	-90,937	-0,238	0,050
-738,312	337,982	-0,081	-0,115
-737,298	-95,284	-0,313	-0,061
-736,283	-200,000	0,039	-0,158
-735,269	-50,909	-0,250	0,085
-734,254	-200,000	0,004	0,067
-733,239	-98,768	-0,306	0,056
-732,225	-36,529	-0,053	-0,021
-731,210	-200,000	0,019	-0,068
-730,196	-35,469	0,031	-0,012
-729,181	92,521	-0,082	-0,068
-728,167	-97,661	-0,089	-0,017
-727,152	-200,000	-0,015	0,067
-726,137	523,519	-0,058	-0,099
-725,123	464,754	-0,123	-0,202
-724,108	-59,513	-0,124	-0,039
-723,094	5,977	-0,134	-0,072
-722,079	-75,771	-0,163	-0,042
-721,064	-87,409	-0,148	-0,032
-720,050	90,261	-0,061	0,050
-719,035	668,266	0,063	-0,119
-718,021	-200,000	-0,027	-0,165
-717,006	-114,020	-0,197	-0,028
-715,991	-200,000	-0,039	-0,145
-714,977	-200,000	0,001	-0,049
-713,962	71,547	0,109	0,082
-712,948	-98,478	-0,163	-0,030
-711,933	-200,000	-0,009	0,140
-710,918	-200,000	0,015	-0,051
-709,904	120,139	-0,051	0,046
-708,889	-80,321	-0,077	-0,019
-707,875	118,047	0,084	0,076
-706,860	-86,218	-0,129	0,029
-705,845	-200,000	0,031	-0,210
-704,831	800,000	0,027	-0,082
-703,816	-200,000	0,027	-0,129
-702,802	24,906	-0,096	-0,058
-701,787	-113,879	0,090	0,013
-700,772	800,000	0,019	-0,059
-699,758	144,704	-0,173	-0,168
-698,743	-83,068	0,143	0,033
-697,729	138,698	0,045	-0,043
-696,714	126,075	0,057	-0,053
-695,699	-91,395	0,091	0,019
-694,685	-200,000	0,004	-0,014
-693,670	-200,000	-0,003	-0,132
-692,656	-74,117	0,115	-0,030
-691,641	-200,000	-0,019	0,117
-690,627	77,021	0,087	-0,067
-689,612	-127,205	-0,176	0,018
-688,597	159,232	0,055	0,056
-687,583	496,041	-0,048	-0,081
-686,568	-83,562	0,051	0,012
-685,554	-62,671	0,131	0,039
-684,539	93,752	-0,071	-0,058
-683,524	-200,000	0,040	-0,171
-682,510	-200,000	-0,016	-0,085
-681,495	-46,351	-0,091	-0,032
-680,481	800,000	-0,017	-0,053
-679,466	-200,000	-0,018	-0,102
-678,451	-44,734	-0,153	-0,055
-677,437	225,396	-0,029	-0,034
-676,422	71,655	-0,087	0,066
-675,408	-98,914	0,094	0,017
-674,393	-97,593	-0,035	-0,007
-673,378	463,756	-0,044	-0,072
-672,364	800,000	-0,063	-0,154
-671,349	-200,000	-0,000	-0,077
-670,335	-35,477	-0,093	-0,037
-669,320	125,993	0,094	-0,086
-668,305	-200,000	-0,006	-0,109
-667,291	172,225	0,060	-0,063
-666,276	800,000	-0,046	-0,144
-665,262	800,000	-0,016	-0,047
-664,247	627,801	-0,047	-0,086
-663,232	535,379	0,018	0,031
-662,218	800,000	0,048	-0,140
-661,203	800,000	0,055	0,116
-660,189	-200,000	-0,005	0,033
-659,174	-200,000	-0,004	0,031
-658,159	-200,000	0,023	-0,106
-657,145	-200,000	-0,027	-0,184
-656,130	-200,000	0,036	-0,139
-655,116	-200,000	0,025	0,085
-654,101	-36,425	-0,052	0,020
-653,086	205,380	-0,064	-0,072
-652,072	110,086	0,075	-0,066
-651,057	507,168	-0,073	-0,124
-650,043	-2,987	0,039	-0,020
-649,028	81,012	-0,100	0,079
-648,014	338,893	0,074	-0,105
-646,999	-44,281	-0,048	0,017
-645,984	72,575	0,041	-0,031
-644,970	768,822	0,029	0,058
-643,955	-60,087	-0,115	0,035
-642,941	161,339	-0,084	0,085
-641,926	-107,285	-0,072	0,011
-640,911	-200,000	-0,000	0,126
-639,897	-24,023	0,030	0,013
-638,882	-200,000	0,009	0,048
-637,868	99,811	-0,083	-0,070
-636,853	37,507	-0,123	-0,079
-635,838	229,194	-0,079	-0,093
-634,824	-39,130	0,119	0,045
-633,809	800,000	-0,030	0,070
-632,795	9,418	-0,083	-0,046
-631,780	-56,000	0,083	-0,027
-630,765	-65,971	-0,098	0,028
-629,751	270,374	0,113	0,144
-628,736	1,198	-0,119	-0,062
-627,722	-140,391	0,047	-0,003
-626,707	800,000	-0,042	-0,084
-625,692	603,921	-0,077	0,140
-624,678	140,415	0,063	0,060
-623,663	800,000	-0,019	-0,039
-622,649	35,443	-0,099	-0,063
-621,634	67,152	-0,035	-0,026
-620,619	-76,588	-0,144	-0,036
-619,605	223,589	0,085	0,099
-618,590	102,841	0,113	0,096
-617,576	130,283	-0,099	0,092
-616,561	37,620	0,065	-0,042
-615,546	-200,000	0,054	-0,000
-614,532	-200,000	0,018	0,076
-613,517	-200,000	-0,014	-0,081
-612,503	553,356	-0,019	-0,034
-611,488	800,000	0,074	0,166
-610,474	235,753	0,016	0,019
-609,459	526,818	0,062	0,106
-608,444	751,045	-0,051	0,101
-607,430	-200,000	-0,025	-0,150
-606,415	-38,262	0,101	0,038
-605,401	393,617	-0,028	0,043
-604,386	358,395	-0,052	0,076
-603,371	-29,022	0,142	0,059
-602,357	-162,027	-0,033	-0,001
-601,342	367,811	0,035	-0,052
-600,328	95,774	0,067	-0,056
-599,313	38,552	-0,046	0,030
-598,298	-200,000	0,015	-0,063
-597,284	492,328	-0,037	0,061
-596,269	111,512	-0,009	0,008
-595,255	-200,000	-0,016	0,052
-594,240	-200,000	-0,006	-0,050
-593,225	-45,413	-0,123	-0,044
-592,211	-68,327	-0,061	-0,017
-591,196	4,393	-0,062	-0,033
-590,182	103,801	0,113	-0,096
-589,167	-200,000	-0,005	-0,081
-588,152	12,712	-0,113	0,063
-587,138	-4,785	-0,052	-0,026
-586,123	377,192	-0,117	-0,174
-585,109	78,925	-0,104	-0,081
-584,094	10,164	-0,042	0,023
-583,079	800,000	-0,026	-0,070
-582,065	-200,000	-0,022	0,117
-581,050	73,992	-0,081	-0,061
-580,036	-107,449	-0,168	0,026
-579,021	15,299	-0,057	0,032
-578,006	-146,629	0,012	0,001
-576,992	-96,590	-0,083	0,016
-575,977	-32,988	0,053	-0,021
-574,963	800,000	-0,039	0,119
-573,948	165,271	-0,070	0,072
-572,934	800,000	0,020	-0,041
-571,919	362,964	-0,028	-0,041
-570,904	-58,205	-0,106	-0,033
-569,890	800,000	-0,042	-0,110
-568,875	800,000	0,031	-0,076
-567,861	-100,744	-0,100	-0,018
-566,846	-200,000	0,011	-0,063
-565,831	331,598	0,083	-0,116
-564,817	5,422	0,038	0,020
-563,802	-119,859	-0,090	-0,011
-562,788	-200,000	-0,008	0,043
-561,773	165,608	-0,202	-0,207
-560,758	-57,907	0,108	0,034
-559,744	800,000	0,030	-0,082
-558,729	-40,814	0,136	0,051
-557,715	-200,000	-0,018	0,078
-556,700	357,720	-0,076	-0,110
-555,685	800,000	0,051	-0,116
-554,671	-200,000	0,034	-0,116
-553,656	800,000	0,050	0,129
-552,642	800,000	-0,049	0,141
-551,627	98,747	0,026	-0,021
-550,612	-115,440	0,077	-0,010
-549,598	-61,607	-0,219	-0,066
-548,583	622,262	-0,027	-0,049
-547,569	-142,596	0,099	0,007
-546,554	800,000	-0,037	0,104
-545,539	684,462	0,037	0,071
-544,525	-103,406	0,077	-0,013
-543,510	107,168	-0,124	0,107
-542,496	800,000	0,039	-0,097
-541,481	-200,000	-0,001	-0,058
-540,466	-97,593	0,104	-0,019
-539,452	256,490	0,037	0,046
-538,437	-120,127	0,070	-0,009
-537,423	-176,542	-0,065	-0,001
-536,408	-200,000	-0,000	-0,073
-535,393	-200,000	0,024	-0,102
-534,379	-200,000	-0,002	0,022
-533,364	-200,000	0,001	0,122
-532,350	-122,503	0,175	-0,020
-531,335	800,000	-0,022	-0,061
-530,321	800,000	0,042	0,090
-529,306	98,430	0,104	0,086
-528,291	464,879	-0,057	-0,092
-527,277	800,000	-0,037	-0,104
-526,262	15,911	-0,120	0,068
-525,248	-200,000	-0,022	-0,159
-524,233	0,223	-0,040	0,020
-523,218	505,731	-0,059	0,100
-522,204	107,974	0,027	-0,024
-521,189	314,853	-0,071	0,098
-520,175	226,485	-0,094	0,111
-519,160	-200,000	-0,009	-0,085
-518,145	-200,000	-0,025	0,082
-517,131	138,161	-0,047	-0,044
-516,116	-200,000	-0,002	0,029
-515,102	26,074	-0,169	0,102
-514,087	-32,176	-0,118	-0,048
-513,072	800,000	-0,021	0,043
-512,058	115,852	0,064	-0,056
-511,043	-95,662	-0,142	-0,027
-510,029	-200,000	-0,013	0,120
-509,014	153,259	0,034	0,033
-507,999	268,352	0,097	-0,123
-506,985	55,944	-0,066	0,046
-505,970	616,138	-0,033	0,061
-504,956	2,339	-0,092	-0,048
-503,941	-48,589	-0,109	-0,038
-502,926	-200,000	0,004	0,015
-501,912	544,873	0,088	0,153
-500,897	-48,358	0,038	-0,013
-499,883	800,000	-0,024	-0,075
-498,868	31,613	-0,044	-0,028
-497,853	34,432	-0,077	0,048
-496,839	800,000	-0,031	-0,084
-495,824	131,007	0,086	-0,080
-494,810	-200,000	-0,023	0,103
-493,795	210,985	-0,070	0,079
-492,781	240,959	-0,068	-0,082
-491,766	317,546	-0,059	-0,080
-490,751	198,254	0,050	-0,055
-489,737	-200,000	0,007	0,195
-488,722	-200,000	-0,005	0,030
-487,708	723,167	0,049	0,094
-486,693	-200,000	0,035	0,123
-485,678	91,787	-0,081	-0,066
-484,664	71,397	-0,069	-0,052
-483,649	-200,000	0,016	0,113
-482,635	154,641	0,097	0,097
-481,620	-36,772	0,103	0,040
-480,605	642,922	0,064	0,119
-479,591	281,473	0,051	0,066
-478,576	476,579	0,037	0,061
-477,562	120,045	0,094	-0,084
-476,547	-200,000	-0,019	-0,120
-475,532	800,000	0,040	-0,086
-474,518	-200,000	0,001	0,043
-473,503	333,812	0,115	0,161
-472,489	-200,000	0,005	-0,029
-471,474	800,000	0,011	0,024
-470,459	743,959	0,030	-0,058
-469,445	-50,499	-0,073	0,025
-468,430	-36,868	0,023	0,009
-467,416	393,665	0,036	0,054
-466,401	-200,000	-0,027	0,135
-465,386	-200,000	0,141	0,000
-464,372	51,232	-0,085	-0,058
-463,357	107,839	-0,052	0,044
-462,343	26,690	0,081	-0,049
-461,328	-28,027	-0,040	-0,016
-460,313	29,711	-0,017	0,010
-459,299	-127,817	0,228	0,023
-458,284	-200,000	0,022	-0,109
-457,270	-149,093	-0,044	-0,003
-456,255	-200,000	-0,014	0,061
-455,241	-95,337	0,108	-0,021
-454,226	-25,126	-0,044	0,019
-453,211	627,891	0,012	0,022
-452,197	-121,201	0,186	0,022
-451,182	62,490	-0,027	-0,019
-450,168	599,420	-0,042	0,075
-449,153	73,199	-0,160	-0,120
-448,138	-200,000	-0,004	-0,089
-447,124	-44,402	0,059	0,021
-446,109	192,849	-0,088	0,096
-445,095	-191,147	0,092	-0,001
-444,080	554,795	-0,036	0,063
-443,065	800,000	-0,029	-0,059
-442,051	800,000	-0,020	0,047
-441,036	-200,000	-0,008	-0,125
-440,022	200,885	-0,046	0,051
-439,007	19,714	0,026	0,015
-437,992	800,000	-0,045	-0,098
-436,978	-162,513	0,071	0,002
-435,963	124,241	0,078	0,071
-434,949	65,769	-0,142	0,104
-433,934	89,114	-0,111	-0,089
-432,919	-200,000	0,033	-0,208
-431,905	800,000	-0,031	-0,096
-430,890	-83,842	0,210	-0,048
-429,876	-11,181	-0,079	0,037
-428,861	87,431	0,052	0,042
-427,846	79,774	-0,070	-0,054
-426,832	-113,112	-0,117	-0,016
-425,817	-54,884	-0,077	0,025
-424,803	36,674	-0,060	0,038
-423,788	501,155	-0,009	0,015
-422,773	-200,000	-0,010	0,128
-421,759	-200,000	0,005	-0,032
-420,744	-155,477	0,034	-0,002
-419,730	800,000	0,043	-0,095
-418,715	43,961	-0,144	-0,095
-417,701	790,648	-0,044	-0,087
-416,686	414,461	-0,032	-0,049
-415,671	-174,318	0,080	-0,002
-414,657	215,407	0,058	-0,066
-413,642	800,000	-0,046	-0,110
-412,628	-119,969	-0,083	-0,010
-411,613	-200,000	0,024	0,084
-410,598	-200,000	-0,009	0,070
-409,584	-200,000	-0,010	0,064
-408,569	5,395	0,119	0,063
-407,555	-200,000	-0,024	0,099
-406,540	123,547	-0,033	0,030
-405,525	-76,643	0,042	0,010
-404,511	382,642	-0,065	-0,096
-403,496	-200,000	-0,008	-0,117
-402,482	-5,408	-0,012	0,006
-401,467	-200,000	-0,018	0,106
-400,452	-104,777	0,021	-0,003
-399,438	800,000	0,019	-0,048
-398,423	113,199	-0,166	-0,145
-397,409	478,404	0,040	-0,066
-396,394	-66,370	0,016	-0,005
-395,379	-75,425	0,080	0,020
-394,365	-1,508	0,132	0,067
-393,350	-13,384	0,104	0,048
-392,336	47,053	0,015	-0,010
-391,321	-200,000	0,031	-0,171
-390,306	-32,437	-0,063	-0,025
-389,292	264,698	0,115	-0,144
-388,277	-200,000	-0,040	-0,145
-387,263	800,000	-0,040	0,099
-386,248	-93,605	0,105	0,021
-385,233	-200,000	-0,016	0,094
-384,219	800,000	0,019	-0,040
-383,204	262,863	0,051	-0,063
-382,190	186,648	0,075	-0,080
-381,175	-200,000	0,001	-0,079
-380,160	32,338	0,143	0,088
-379,146	-115,691	0,011	-0,001
-378,131	-2,434	-0,122	0,061
-377,117	-200,000	0,033	0,113
-376,102	559,787	-0,018	-0,032
-375,088	-143,198	-0,062	-0,004
-374,073	-200,000	0,004	-0,018
-373,058	-200,000	-0,015	-0,074
-372,044	-24,041	0,016	0,007
-371,029	533,669	-0,024	0,042
-370,015	-200,000	-0,008	0,126
-369,000	-93,962	-0,051	0,010
-367,985	-109,157	0,101	0,015
-366,971	-200,000	0,034	0,138
-365,956	32,982	-0,065	-0,040
-364,942	-62,343	0,156	0,046
-363,927	-200,000	0,025	0,095
-362,912	-69,808	0,075	-0,020
-361,898	-36,295	0,031	-0,012
-360,883	643,935	-0,043	-0,079
-359,869	142,912	0,042	-0,040
-358,854	-192,598	0,050	-0,000
-357,839	67,364	0,025	-0,018
-356,825	-200,000	0,008	-0,085
-355,810	-200,000	-0,007	0,051
-354,796	187,220	-0,040	-0,043
-353,781	43,211	0,077	0,050
-352,766	97,919	0,132	-0,109
-351,752	-121,406	0,135	0,016
-350,737	-67,231	0,078	0,022
-349,723	32,087	-0,046	0,029
-348,708	579,818	-0,035	-0,061
-347,693	7,751	-0,051	-0,027
-346,679	-45,889	-0,060	0,021
-345,664	65,812	-0,089	0,064
-344,650	93,121	-0,032	0,026
-343,635	-34,371	0,165	0,065
-342,620	-200,000	0,000	0,004
-341,606	356,251	-0,132	0,189
-340,591	800,000	-0,036	-0,083
-339,577	497,043	-0,050	-0,082
-338,562	-200,000	0,000	0,162
-337,548	-70,890	0,063	-0,017
-336,533	-2,205	0,074	-0,037
-335,518	-200,000	0,046	-0,163
-334,504	800,000	0,015	-0,037
-333,489	-200,000	0,003	0,053
-332,475	-30,050	-0,141	0,057
-331,460	-200,000	0,002	0,016
-330,445	526,593	-0,010	-0,017
-329,431	800,000	0,024	0,055
-328,416	-200,000	-0,010	-0,050
-327,402	-10,421	-0,022	0,010
-326,387	-19,463	0,201	-0,089
-325,372	36,554	0,046	-0,029
-324,358	-200,000	0,014	0,046
-323,343	-200,000	-0,004	0,014
-322,329	-200,000	0,018	0,087
-321,314	25,096	-0,011	0,007
-320,299	411,045	0,037	0,056
-319,285	-41,018	-0,135	-0,050
-318,270	-200,000	-0,007	-0,030
-317,256	-200,000	0,120	-0,000
-316,241	-200,000	-0,018	-0,121
-315,226	212,746	-0,105	-0,119
-314,212	-153,891	0,072	-0,003
-313,197	-66,174	0,149	0,042
-312,183	-200,000	0,008	0,029
-311,168	800,000	0,084	-0,219
-310,153	-200,000	-0,033	-0,147
-309,139	-24,951	-0,017	0,007
-308,124	147,109	-0,118	-0,113
-307,110	-33,642	0,138	0,054
-306,095	522,563	0,038	-0,063
-305,080	-44,215	-0,087	0,031
-304,066	-57,761	0,069	0,021
-303,051	-102,692	-0,077	-0,013
-302,037	100,228	-0,060	0,050
-301,022	-200,000	0,005	-0,065
-300,008	-200,000	0,001	0,057
-298,993	-200,000	-0,028	0,113
-297,978	-71,311	0,028	-0,008
-296,964	167,324	-0,091	0,093
-295,949	-200,000	-0,035	-0,112
-294,935	-125,568	0,038	-0,004
-293,920	800,000	-0,047	0,100
-292,905	219,409	0,060	-0,069
-291,891	408,524	0,042	0,064
-290,876	-147,513	0,084	-0,005
-289,862	-152,264	0,106	-0,005
-288,847	-200,000	0,020	-0,132
-287,832	-136,180	-0,080	0,007
-286,818	209,125	-0,053	0,060
-285,803	-200,000	0,010	0,060
-284,789	483,004	0,078	0,128
-283,774	800,000	0,066	0,193
-282,759	0,210	0,101	-0,051
-281,745	-117,043	0,104	0,013
-280,730	-200,000	-0,038	-0,169
-279,716	800,000	0,038	-0,110
-278,701	800,000	0,028	0,067
-277,686	720,755	-0,038	0,073
-276,672	-200,000	0,007	0,216
-275,657	-200,000	0,048	0,163
-274,643	-159,690	-0,069	0,003
-273,628	-200,000	0,004	0,062
-272,613	47,443	-0,102	-0,068
-271,599	-57,329	0,083	0,026
-270,584	-51,627	0,048	-0,016
-269,570	-200,000	0,003	0,036
-268,555	589,728	-0,042	0,074
-267,540	83,348	0,111	0,086
-266,526	50,617	0,044	-0,030
-265,511	-200,000	-0,000	-0,037
-264,497	-53,387	-0,062	0,020
-263,482	-126,618	0,143	-0,015
-262,467	118,283	0,014	-0,012
-261,453	-14,494	-0,136	0,062
-260,438	51,264	-0,024	0,017
-259,424	-59,362	-0,102	-0,031
-258,409	-42,863	-0,030	0,011
-257,395	800,000	0,023	0,060
-256,380	126,207	0,030	-0,027
-255,365	-162,550	0,125	-0,004
-254,351	54,684	0,081	0,056
-253,336	13,847	-0,051	0,028
-252,322	-114,999	-0,086	-0,012
-251,307	800,000	-0,070	-0,142
-250,292	-200,000	-0,006	-0,023
-249,278	-39,180	-0,086	-0,032
-248,263	791,151	0,078	0,154
-247,249	315,049	0,013	0,017
-246,234	-86,392	-0,091	0,020
-245,219	471,920	-0,056	-0,090
-244,205	194,488	0,065	-0,071
-243,190	800,000	-0,008	-0,021
-242,176	233,249	-0,050	-0,059
-241,161	-200,000	0,007	0,161
-240,146	60,919	0,145	0,103
-239,132	-106,193	-0,123	-0,020
-238,117	114,453	-0,069	-0,060
-237,103	800,000	0,049	-0,148
-236,088	-200,000	0,010	-0,086
-235,073	265,658	0,042	-0,053
-234,059	-6,686	0,067	-0,033
-233,044	444,608	-0,021	-0,033
-232,030	23,910	-0,023	-0,014
-231,015	61,525	0,015	-0,011
-230,000	31,302	-0,110	-0,068
-228,986	329,856	0,106	-0,146
-227,971	-82,916	0,084	0,019
-226,957	71,705	0,043	-0,032
-225,942	-145,061	-0,123	0,008
-224,927	-200,000	-0,004	0,030
-223,913	512,423	0,017	-0,028
-222,898	687,131	0,034	-0,063
-221,884	-200,000	-0,039	0,139
-220,869	-92,926	0,085	0,017
-219,855	800,000	0,068	0,172
-218,840	800,000	-0,059	0,181
-217,825	691,173	-0,043	-0,081
-216,811	-124,889	-0,125	-0,014
-215,796	193,385	-0,095	-0,103
-214,782	-162,890	0,054	-0,002
-213,767	76,863	0,053	-0,040
-212,752	443,505	0,078	0,123
-211,738	-67,841	-0,145	0,040
-210,723	800,000	0,026	0,059
-209,709	112,959	0,070	-0,060
-208,694	800,000	-0,074	-0,191
-207,679	-37,170	-0,041	0,016
-206,665	617,218	-0,034	0,062
-205,650	236,895	0,052	0,062
-204,636	-200,000	-0,004	0,066
-203,621	184,695	-0,103	0,109
-202,606	110,213	0,156	-0,133
-201,592	-73,998	-0,219	-0,056
-200,577	-113,153	0,159	-0,022
-199,563	-200,000	-0,011	-0,108
-198,548	135,024	0,076	0,071
-197,533	-20,434	0,026	0,011
-196,519	-200,000	0,029	0,164
-195,504	-200,000	-0,006	0,077
-194,490	-200,000	0,003	-0,031
-193,475	37,400	-0,025	-0,016
-192,460	28,403	0,115	-0,069
-191,446	-200,000	-0,013	0,079
-190,431	-62,281	0,044	-0,013
-189,417	254,160	-0,071	0,087
-188,402	-200,000	0,006	-0,044
-187,387	119,611	0,014	0,012
-186,373	-168,795	-0,090	-0,002
-185,358	653,647	-0,019	-0,035
-184,344	-57,610	0,136	0,042
-183,329	357,853	-0,045	0,064
-182,315	143,111	-0,037	0,035
-181,300	86,984	0,039	-0,031
-180,285	-200,000	-0,008	-0,085
-179,271	139,144	-0,020	0,019
-178,256	-143,807	0,005	0,000
-177,242	-54,590	0,162	-0,052
-176,227	-55,861	0,182	0,057
-175,212	471,389	-0,047	-0,076
-174,198	77,170	0,049	0,037
-173,183	-200,000	-0,009	-0,035
-172,169	98,193	0,013	0,011
-171,154	-7,219	0,082	0,039
-170,139	301,125	0,017	0,023
-169,125	-200,000	0,019	-0,114
-168,110	800,000	-0,033	0,067
-167,096	-200,000	-0,002	-0,056
-166,081	-84,220	0,033	-0,007
-165,066	91,325	-0,171	-0,136
-164,052	800,000	0,039	-0,114
-163,037	-200,000	-0,025	-0,086
-162,023	-160,308	0,160	-0,006
-161,008	-23,114	0,096	-0,041
-159,993	-157,625	0,070	0,003
-158,979	800,000	-0,048	-0,111
-157,964	-200,000	-0,024	-0,097
-156,950	60,616	-0,118	-0,083
-155,935	157,901	0,093	0,091
-154,920	87,368	0,082	0,064
-153,906	800,000	0,057	0,165
-152,891	-76,716	-0,119	0,030
-151,877	-43,658	0,126	-0,045
-150,862	128,253	-0,134	-0,122
-149,847	-200,000	0,047	-0,154
-148,833	116,914	-0,013	0,011
-147,818	519,548	0,012	-0,019
-146,804	199,834	0,077	-0,085
-145,789	492,096	-0,071	0,116
-144,775	-8,122	0,027	0,013
-143,760	187,964	-0,149	-0,159
-142,745	21,156	-0,042	-0,024
-141,731	-200,000	-0,013	-0,103
-140,716	-90,380	0,207	-0,042
-139,702	-200,000	0,008	0,061
-138,687	-200,000	-0,020	0,074
-137,672	-29,740	-0,146	-0,059
-136,658	-200,000	0,013	-0,095
-135,643	15,943	-0,086	-0,048
-134,629	-149,088	0,137	-0,008
-133,614	-75,168	0,039	0,010
-132,599	-140,942	0,142	0,010
-131,585	494,526	0,042	0,069
-130,570	522,535	0,015	-0,026
-129,556	-200,000	0,006	0,043
-128,541	800,000	-0,060	-0,124
-127,526	260,421	0,074	-0,091
-126,512	383,491	0,026	0,038
-125,497	-28,277	0,077	0,031
-124,483	-51,381	-0,040	-0,013
-123,468	-200,000	0,007	-0,128
-122,453	-184,170	-0,102	0,001
-121,439	-200,000	0,003	-0,071
-120,424	109,574	-0,130	-0,111
