DTS Sentinel unit serial number:	SN410029Multiplexer serial number:	ORYXHardware model number:	OX2-SRSoftware version number:	ORYX F/W v4,00 Oryx Data Collector v3.7.2.0data status	okinstallation	BH3 CH2differential loss correction	single-endedforward channel	channel 2reverse channel	N/Adate	2023/12/05time	12:17:28forward acquisition time	300,00reverse acquisition time	0,00gamma	499,1914k internal	0,3196k external	0,3196temperature offset calibration	1,0000default loss term (dB/km)	0,3820temperature slope calibration	1,0000multiplexer offset coefficient	1,0000multiplexer slope coefficient	1,0000fibre end	0,00T internal ref (°C)	9,78T ext. ref 1 (°C)	-4,68T ext. ref 2 (°C)	-4,75length (m)	temperature (°C)	Stokes	anti-Stokes-744,400	-81,325	0,037	0,009
-743,385	124,184	-0,159	0,145
-742,371	-0,638	0,100	-0,052
-741,356	334,065	-0,207	0,292
-740,342	-62,184	-0,061	-0,018
-739,327	-17,396	-0,232	0,106
-738,312	213,415	-0,077	-0,088
-737,298	-54,021	-0,215	0,071
-736,283	472,221	0,082	-0,135
-735,269	381,016	-0,159	0,239
-734,254	800,000	0,013	-0,033
-733,239	-153,281	-0,333	-0,017
-732,225	230,863	-0,024	-0,029
-731,210	-143,622	0,210	-0,014
-730,196	-36,343	-0,112	0,044
-729,181	327,387	-0,087	-0,122
-728,167	403,668	-0,019	-0,029
-727,152	-200,000	-0,005	-0,024
-726,137	-200,000	-0,041	-0,147
-725,123	434,807	-0,062	-0,098
-724,108	6,632	-0,094	-0,051
-723,094	679,138	-0,057	-0,108
-722,079	-134,086	-0,153	0,014
-721,064	-179,517	-0,065	-0,001
-720,050	45,807	-0,021	-0,014
-719,035	0,734	-0,050	-0,026
-718,021	800,000	-0,005	0,016
-717,006	-152,216	-0,161	-0,008
-715,991	112,157	0,105	-0,092
-714,977	-117,403	0,041	-0,005
-713,962	55,384	-0,014	0,010
-712,948	-200,000	-0,013	0,076
-711,933	-200,000	-0,015	0,120
-710,918	800,000	-0,032	-0,072
-709,904	-29,125	-0,137	-0,057
-708,889	-108,429	-0,057	-0,009
-707,875	800,000	-0,050	-0,117
-706,860	-200,000	-0,008	0,052
-705,845	-200,000	-0,022	0,083
-704,831	-200,000	0,012	0,097
-703,816	-200,000	-0,018	-0,119
-702,802	-138,964	-0,069	0,005
-701,787	68,434	-0,106	-0,079
-700,772	-200,000	0,055	-0,198
-699,758	223,497	-0,035	-0,042
-698,743	-16,919	0,140	0,064
-697,729	-4,650	0,094	0,047
-696,714	800,000	-0,065	0,138
-695,699	217,111	-0,087	-0,101
-694,685	-200,000	-0,003	0,052
-693,670	-11,925	-0,120	0,057
-692,656	-25,672	-0,027	-0,012
-691,641	776,133	-0,052	0,104
-690,627	335,295	0,081	0,115
-689,612	382,785	0,026	0,038
-688,597	-200,000	-0,020	0,115
-687,583	-200,000	0,027	0,108
-686,568	135,292	-0,107	-0,102
-685,554	-34,623	-0,134	-0,053
-684,539	-46,282	-0,033	0,012
-683,524	129,647	0,037	-0,034
-682,510	267,437	0,049	-0,062
-681,495	260,477	0,026	-0,033
-680,481	159,138	0,028	-0,028
-679,466	-200,000	-0,003	-0,031
-678,451	-45,449	-0,190	-0,068
-677,437	73,784	-0,094	-0,072
-676,422	-79,170	-0,070	0,017
-675,408	-200,000	0,028	0,133
-674,393	46,910	-0,009	0,006
-673,378	1,247	-0,087	-0,045
-672,364	361,335	-0,108	-0,158
-671,349	240,798	0,021	-0,025
-670,335	-83,436	-0,083	0,019
-669,320	34,747	0,016	-0,010
-668,305	-200,000	0,033	0,119
-667,291	-18,464	0,036	-0,016
-666,276	375,687	-0,051	0,076
-665,262	-131,406	-0,094	-0,009
-664,247	3,032	0,141	0,074
-663,232	-200,000	0,006	0,074
-662,218	59,826	0,069	0,049
-661,203	92,442	-0,072	-0,059
-660,189	138,795	0,050	-0,048
-659,174	800,000	-0,065	-0,147
-658,159	800,000	-0,086	-0,202
-657,145	211,450	-0,024	-0,028
-656,130	-200,000	0,014	-0,116
-655,116	105,574	0,138	0,118
-654,101	46,485	0,065	0,043
-653,086	-200,000	0,004	-0,047
-652,072	-49,701	0,060	-0,021
-651,057	-200,000	-0,016	-0,090
-650,043	-200,000	0,016	-0,137
-649,028	800,000	-0,003	0,007
-648,014	189,258	0,072	-0,078
-646,999	68,783	-0,036	-0,027
-645,984	243,711	0,084	-0,102
-644,970	-194,861	-0,141	-0,001
-643,955	60,865	-0,043	0,031
-642,941	180,929	0,061	-0,065
-641,926	751,101	-0,006	-0,012
-640,911	800,000	-0,049	0,116
-639,897	-200,000	-0,068	0,268
-638,882	209,165	0,004	0,005
-637,868	-64,873	-0,055	0,016
-636,853	6,411	-0,155	-0,083
-635,838	88,690	-0,151	-0,122
-634,824	-70,542	-0,027	0,007
-633,809	76,101	-0,078	0,060
-632,795	-200,000	-0,027	0,149
-631,780	-200,000	0,013	-0,068
-630,765	-104,252	-0,027	-0,004
-629,751	210,467	-0,043	0,049
-628,736	118,743	0,044	-0,039
-627,722	-200,000	0,006	-0,033
-626,707	-37,647	0,003	-0,001
-625,692	230,549	0,105	0,125
-624,678	96,595	-0,059	0,049
-623,663	-113,967	-0,122	-0,017
-622,649	168,135	0,029	-0,030
-621,634	-200,000	0,003	-0,187
-620,619	354,117	0,056	-0,081
-619,605	-159,170	0,049	-0,002
-618,590	-25,442	-0,090	-0,038
-617,576	-200,000	0,000	-0,053
-616,561	291,023	-0,083	0,110
-615,546	232,582	-0,107	-0,128
-614,532	-131,728	-0,222	-0,021
-613,517	-200,000	0,032	0,109
-612,503	-45,727	0,093	0,033
-611,488	1,554	0,081	0,042
-610,474	-200,000	-0,019	-0,072
-609,459	-200,000	-0,017	-0,112
-608,444	-110,536	-0,126	0,019
-607,430	275,159	-0,014	0,018
-606,415	-99,606	0,093	0,017
-605,401	-200,000	-0,034	-0,119
-604,386	-200,000	-0,006	-0,065
-603,371	239,756	-0,121	0,146
-602,357	74,554	-0,155	0,118
-601,342	725,403	-0,021	0,040
-600,328	-60,389	-0,085	0,026
-599,313	3,675	-0,028	0,015
-598,298	148,162	0,032	0,031
-597,284	290,283	0,023	0,031
-596,269	-200,000	0,036	0,116
-595,255	-200,000	0,002	-0,048
-594,240	220,247	-0,102	0,119
-593,225	143,233	0,050	0,049
-592,211	-43,583	-0,138	-0,050
-591,196	-50,687	-0,090	-0,030
-590,182	-200,000	-0,036	-0,152
-589,167	300,518	-0,040	-0,053
-588,152	34,030	-0,059	0,037
-587,138	-13,696	-0,019	-0,009
-586,123	-50,696	-0,102	0,035
-585,109	198,891	-0,149	-0,166
-584,094	-63,568	0,039	0,012
-583,079	369,287	0,044	0,065
-582,065	-7,049	-0,044	-0,022
-581,050	319,184	0,088	-0,121
-580,036	-200,000	0,006	0,091
-579,021	-200,000	-0,005	0,066
-578,006	754,425	-0,053	0,103
-576,992	177,418	0,045	0,048
-575,977	314,809	0,051	-0,070
-574,963	83,034	0,054	-0,043
-573,948	134,942	0,046	-0,043
-572,934	605,640	-0,035	-0,064
-571,919	-64,618	-0,135	0,039
-570,904	-66,348	-0,106	-0,030
-569,890	-8,131	-0,131	-0,063
-568,875	-200,000	-0,010	-0,038
-567,861	-10,026	0,056	0,027
-566,846	58,830	0,124	0,088
-565,831	381,265	-0,051	-0,077
-564,817	22,788	-0,224	-0,132
-563,802	367,162	-0,058	-0,085
-562,788	-71,317	-0,172	-0,046
-561,773	-200,000	0,003	-0,044
-560,758	800,000	-0,039	0,124
-559,744	201,681	0,136	0,152
-558,729	-75,273	0,101	0,026
-557,715	133,303	-0,102	-0,096
-556,700	-31,596	-0,086	0,035
-555,685	800,000	0,068	-0,147
-554,671	-87,606	-0,120	0,026
-553,656	71,756	0,016	0,012
-552,642	-25,098	-0,039	-0,017
-551,627	55,415	-0,065	-0,045
-550,612	-200,000	-0,003	-0,046
-549,598	389,144	-0,097	-0,145
-548,583	773,384	-0,022	-0,044
-547,569	129,131	0,017	0,016
-546,554	-170,425	0,110	-0,003
-545,539	-69,805	0,078	0,021
-544,525	-9,980	-0,169	-0,081
-543,510	800,000	-0,049	-0,114
-542,496	800,000	-0,046	0,125
-541,481	-53,833	-0,039	0,013
-540,466	-200,000	-0,020	0,069
-539,452	-200,000	-0,006	-0,019
-538,437	-169,130	0,101	0,003
-537,423	-140,056	-0,082	-0,006
-536,408	-167,968	0,069	0,002
-535,393	275,926	-0,089	0,114
-534,379	-200,000	0,015	-0,062
-533,364	-51,329	-0,138	-0,046
-532,350	-200,000	-0,013	0,046
-531,335	-8,669	0,055	-0,026
-530,321	-91,833	0,158	0,032
-529,306	183,800	-0,112	0,119
-528,291	311,999	-0,083	-0,113
-527,277	-157,375	0,104	-0,004
-526,262	508,331	0,013	0,021
-525,248	-47,435	0,210	-0,073
-524,233	84,062	-0,015	0,012
-523,218	800,000	0,087	0,209
-522,204	226,710	0,018	-0,021
-521,189	-0,823	-0,084	-0,043
-520,175	2,144	-0,061	0,032
-519,160	800,000	-0,042	-0,098
-518,145	800,000	-0,034	0,076
-517,131	421,233	0,077	0,120
-516,116	61,808	-0,081	-0,058
-515,102	40,360	-0,034	-0,022
-514,087	-11,049	-0,077	0,037
-513,072	-190,287	-0,166	0,001
-512,058	589,064	0,018	-0,032
-511,043	-200,000	-0,018	0,083
-510,029	724,902	0,044	0,084
-509,014	-141,865	0,026	0,002
-507,999	88,917	-0,039	0,031
-506,985	-10,610	-0,038	0,018
-505,970	-190,344	-0,103	-0,001
-504,956	800,000	-0,042	-0,125
-503,941	-200,000	-0,003	0,036
-502,926	800,000	-0,090	0,200
-501,912	26,648	-0,060	0,036
-500,897	-94,181	0,020	0,004
-499,883	-129,973	-0,050	-0,005
-498,868	-8,193	0,094	0,046
-497,853	-43,804	-0,039	-0,014
-496,839	800,000	-0,049	-0,141
-495,824	9,904	0,104	-0,057
-494,810	800,000	-0,036	-0,086
-493,795	800,000	0,056	-0,122
-492,781	458,578	-0,043	0,068
-491,766	196,610	0,011	-0,012
-490,751	-79,149	-0,178	-0,043
-489,737	-23,846	0,049	0,021
-488,722	-177,090	-0,103	0,002
-487,708	109,398	0,126	0,109
-486,693	-200,000	0,021	0,125
-485,678	-8,917	-0,052	-0,025
-484,664	-200,000	-0,027	-0,125
-483,649	800,000	0,023	0,056
-482,635	-104,177	0,015	-0,002
-481,620	-24,476	0,019	-0,008
-480,605	-120,072	0,233	0,028
-479,591	76,638	-0,048	0,037
-478,576	-89,363	0,035	-0,007
-477,562	84,087	-0,021	-0,017
-476,547	110,125	-0,093	-0,080
-475,532	-15,040	0,069	0,032
-474,518	-200,000	0,015	0,158
-473,503	-200,000	0,009	-0,037
-472,489	800,000	-0,041	0,087
-471,474	-200,000	-0,020	-0,091
-470,459	-200,000	0,001	-0,032
-469,445	423,738	-0,051	-0,079
-468,430	800,000	-0,003	0,008
-467,416	-134,376	0,064	-0,006
-466,401	-186,081	-0,114	0,001
-465,386	184,815	-0,031	-0,033
-464,372	-194,428	0,075	0,000
-463,357	800,000	0,026	0,056
-462,343	747,059	-0,038	-0,073
-461,328	342,991	0,030	0,042
-460,313	556,492	0,068	0,118
-459,299	800,000	0,009	-0,021
-458,284	-184,681	0,104	0,001
-457,270	-135,727	-0,023	-0,002
-456,255	-200,000	0,005	0,028
-455,241	211,087	0,078	0,089
-454,226	45,332	-0,132	-0,088
-453,211	144,898	-0,039	-0,038
-452,197	-200,000	0,006	0,061
-451,182	-38,593	0,023	-0,009
-450,168	-19,992	0,115	0,051
-449,153	107,854	-0,054	0,046
-448,138	276,345	0,101	-0,129
-447,124	800,000	0,064	-0,167
-446,109	229,060	0,046	-0,054
-445,095	304,376	-0,074	0,099
-444,080	96,809	-0,002	0,002
-443,065	-7,974	0,107	0,052
-442,051	224,639	-0,039	-0,045
-441,036	-105,055	-0,162	-0,026
-440,022	-81,414	0,045	-0,011
-439,007	-157,697	0,160	-0,007
-437,992	800,000	0,032	0,070
-436,978	-200,000	-0,006	0,056
-435,963	-66,148	-0,034	-0,010
-434,949	800,000	0,034	-0,070
-433,934	43,303	-0,128	-0,084
-432,919	-99,148	-0,006	-0,001
-431,905	-37,600	-0,014	-0,005
-430,890	-92,397	0,143	0,029
-429,876	252,492	-0,040	0,049
-428,861	-200,000	0,026	0,097
-427,846	367,801	-0,016	0,023
-426,832	800,000	0,027	-0,070
-425,817	218,413	0,075	-0,086
-424,803	-124,871	0,046	-0,005
-423,788	-173,794	-0,078	-0,002
-422,773	41,266	0,136	-0,089
-421,759	734,258	-0,036	0,069
-420,744	-76,890	-0,097	-0,024
-419,730	-75,319	-0,160	0,041
-418,715	-39,834	0,044	-0,016
-417,701	-169,610	-0,106	-0,003
-416,686	67,871	0,104	-0,077
-415,671	250,208	0,062	0,076
-414,657	-200,000	-0,013	0,168
-413,642	-200,000	0,041	0,196
-412,628	62,625	-0,022	-0,015
-411,613	-200,000	0,022	-0,073
-410,598	24,374	0,070	-0,042
-409,584	800,000	-0,093	0,224
-408,569	193,551	0,150	0,164
-407,555	-24,537	0,032	0,014
-406,540	-81,498	0,123	0,029
-405,525	150,694	0,031	0,030
-404,511	157,162	-0,071	-0,071
-403,496	-200,000	0,030	-0,185
-402,482	-200,000	0,003	0,025
-401,467	461,657	0,031	-0,050
-400,452	167,616	0,040	0,040
-399,438	800,000	0,073	-0,185
-398,423	387,002	0,015	0,022
-397,409	-140,368	0,094	-0,007
-396,394	298,183	-0,006	-0,008
-395,379	-22,893	0,075	0,032
-394,365	-73,762	0,123	0,032
-393,350	794,776	0,061	0,122
-392,336	249,335	-0,068	0,083
-391,321	-197,868	-0,049	0,000
-390,306	-113,272	0,041	-0,006
-389,292	800,000	0,051	-0,157
-388,277	800,000	0,068	0,157
-387,263	800,000	0,056	0,126
-386,248	430,403	-0,044	0,068
-385,233	549,951	-0,069	0,119
-384,219	-113,710	-0,195	0,027
-383,204	-200,000	0,049	-0,206
-382,190	-163,187	-0,058	-0,002
-381,175	420,330	0,133	0,205
-380,160	331,842	0,046	-0,064
-379,146	800,000	0,042	-0,087
-378,131	-200,000	-0,016	-0,081
-377,117	638,088	0,042	-0,077
-376,102	202,845	-0,095	-0,106
-375,088	-200,000	-0,008	-0,026
-374,073	216,052	0,024	-0,028
-373,058	-7,225	0,080	-0,039
-372,044	-141,101	0,102	-0,007
-371,029	-80,714	0,117	-0,028
-370,015	48,209	-0,027	0,018
-369,000	-200,000	-0,001	0,022
-367,985	-45,262	0,191	-0,068
-366,971	-35,036	-0,070	-0,027
-365,956	-3,231	0,081	0,040
-364,942	800,000	0,045	-0,109
-363,927	37,065	0,114	-0,073
-362,912	78,796	0,129	-0,099
-361,898	800,000	-0,080	0,165
-360,883	75,769	0,067	-0,051
-359,869	173,871	-0,118	-0,122
-358,854	367,562	0,082	0,119
-357,839	87,706	-0,035	0,027
-356,825	-98,504	0,145	0,026
-355,810	800,000	0,024	0,064
-354,796	20,859	0,023	0,013
-353,781	-200,000	0,003	0,106
-352,766	-77,582	-0,059	0,015
-351,752	-126,028	0,172	-0,018
-350,737	-200,000	0,002	0,024
-349,723	152,714	0,095	0,093
-348,708	-200,000	0,007	-0,134
-347,693	800,000	0,032	-0,082
-346,679	178,693	-0,093	-0,098
-345,664	120,265	0,056	0,050
-344,650	-129,072	-0,045	0,004
-343,635	354,055	-0,021	-0,029
-342,620	97,328	0,131	-0,108
-341,606	85,238	0,046	0,036
-340,591	103,253	0,031	0,026
-339,577	509,150	-0,024	-0,040
-338,562	-43,931	0,069	0,025
-337,548	-12,111	-0,119	-0,056
-336,533	-42,080	0,157	0,057
-335,518	800,000	0,042	0,096
-334,504	-200,000	-0,008	-0,117
-333,489	179,736	-0,048	-0,050
-332,475	-69,994	-0,030	-0,008
-331,460	-3,913	0,035	-0,017
-330,445	-200,000	0,026	-0,095
-329,431	352,845	0,045	0,064
-328,416	-149,577	0,146	-0,008
-327,402	-3,810	-0,039	-0,020
-326,387	-31,112	0,062	0,025
-325,372	597,121	0,003	-0,005
-324,358	115,994	-0,059	-0,051
-323,343	800,000	0,040	0,099
-322,329	-75,660	0,084	0,021
-321,314	800,000	0,015	-0,038
-320,299	-61,521	0,108	0,032
-319,285	408,207	-0,068	-0,103
-318,270	170,702	-0,061	-0,063
-317,256	-200,000	-0,018	-0,130
-316,241	800,000	0,076	-0,161
-315,226	317,965	-0,038	0,052
-314,212	-200,000	-0,037	0,155
-313,197	262,389	-0,039	-0,048
-312,183	162,773	0,078	0,078
-311,168	-19,183	-0,051	0,023
-310,153	-200,000	-0,051	-0,168
-309,139	-97,235	-0,137	-0,025
-308,124	133,490	-0,073	-0,067
-307,110	505,178	-0,044	0,073
-306,095	107,173	0,155	0,132
-305,080	-200,000	-0,001	-0,124
-304,066	121,044	0,044	0,039
-303,051	462,776	-0,047	-0,076
-302,037	-55,358	0,031	-0,010
-301,022	93,305	0,092	0,074
-300,008	584,543	0,053	-0,094
-298,993	131,409	0,126	0,116
-297,978	-43,040	0,083	-0,030
-296,964	16,523	-0,104	-0,059
-295,949	-29,539	-0,045	0,018
-294,935	-125,657	-0,060	-0,006
-293,920	800,000	-0,026	-0,064
-292,905	-81,428	0,179	-0,042
-291,891	-10,876	-0,055	-0,026
-290,876	455,352	-0,062	-0,099
-289,862	615,677	-0,034	0,060
-288,847	-200,000	0,014	-0,132
-287,832	-40,559	0,066	-0,024
-286,818	-19,062	-0,063	-0,028
-285,803	-43,519	0,132	0,047
-284,789	800,000	-0,049	-0,111
-283,774	85,743	-0,047	0,037
-282,759	800,000	-0,043	-0,102
-281,745	203,271	-0,066	-0,074
-280,730	15,759	-0,082	-0,046
-279,716	-12,673	0,144	-0,067
-278,701	691,458	0,049	0,092
-277,686	648,290	-0,026	0,047
-276,672	-150,150	-0,007	-0,000
-275,657	800,000	0,025	0,063
-274,643	99,964	0,024	-0,020
-273,628	800,000	-0,130	-0,269
-272,613	800,000	-0,009	-0,022
-271,599	117,701	0,173	0,152
-270,584	319,481	0,091	0,124
-269,570	-87,573	0,085	-0,018
-268,555	69,748	-0,098	-0,072
-267,540	323,590	-0,022	-0,029
-266,526	28,134	-0,116	0,070
-265,511	645,628	-0,012	-0,022
-264,497	800,000	0,007	0,016
-263,482	-153,692	0,114	0,005
-262,467	233,952	0,020	0,024
-261,453	-200,000	-0,008	0,048
-260,438	125,748	-0,038	-0,034
-259,424	800,000	0,042	-0,089
-258,409	-200,000	-0,035	-0,127
-257,395	-200,000	-0,040	0,162
-256,380	561,708	0,028	0,049
-255,365	114,566	-0,093	0,081
-254,351	-15,513	0,094	-0,043
-253,336	800,000	0,041	-0,091
-252,322	382,594	0,074	0,109
-251,307	-0,272	-0,038	-0,019
-250,292	-200,000	0,012	0,045
-249,278	-136,704	0,213	-0,017
-248,263	-200,000	0,017	0,094
-247,249	800,000	0,004	-0,013
-246,234	67,681	-0,049	0,036
-245,219	-200,000	0,003	-0,074
-244,205	-76,317	-0,144	-0,036
-243,190	-7,565	-0,051	-0,025
-242,176	800,000	0,061	0,176
-241,161	-200,000	0,015	0,047
-240,146	-200,000	-0,021	-0,085
-239,132	800,000	0,035	-0,081
-238,117	778,075	-0,014	-0,027
-237,103	-200,000	0,041	-0,143
-236,088	0,621	0,095	-0,048
-235,073	540,568	0,091	0,155
-234,059	-200,000	0,005	0,121
-233,044	57,100	0,089	0,062
-232,030	119,114	-0,075	-0,066
-231,015	800,000	-0,008	-0,017
-230,000	-200,000	-0,005	-0,029
-228,986	800,000	-0,044	-0,098
-227,971	23,108	0,053	0,031
-226,957	357,724	-0,021	0,031
-225,942	373,347	0,006	0,009
-224,927	-200,000	0,007	-0,113
-223,913	-78,558	-0,033	-0,008
-222,898	-45,448	0,093	-0,033
-221,884	-106,562	0,090	0,014
-220,869	246,065	-0,024	-0,029
-219,855	102,066	0,018	-0,015
-218,840	-154,481	0,060	0,003
-217,825	800,000	-0,017	-0,042
-216,811	60,234	-0,022	0,015
-215,796	461,858	-0,029	-0,047
-214,782	467,802	-0,027	0,044
-213,767	-32,041	0,078	0,031
-212,752	107,891	0,090	0,077
-211,738	-200,000	-0,004	0,153
-210,723	-200,000	-0,008	0,089
-209,709	-20,158	0,067	0,029
-208,694	201,955	-0,040	-0,044
-207,679	-31,164	-0,020	0,008
-206,665	-172,741	0,128	0,003
-205,650	800,000	-0,058	-0,150
-204,636	800,000	0,030	-0,083
-203,621	800,000	0,070	0,160
-202,606	-68,789	-0,108	-0,029
-201,592	800,000	0,019	-0,046
-200,577	-200,000	-0,028	0,102
-199,563	800,000	0,009	-0,021
-198,548	-200,000	-0,008	-0,055
-197,533	33,828	-0,060	0,037
-196,519	-200,000	0,005	0,108
-195,504	800,000	-0,036	0,108
-194,490	-200,000	-0,008	-0,068
-193,475	800,000	0,050	-0,102
-192,460	73,993	-0,148	0,110
-191,446	800,000	0,020	0,041
-190,431	83,214	0,085	0,066
-189,417	4,716	-0,037	-0,019
-188,402	-0,353	-0,055	0,028
-187,387	-35,907	0,022	-0,008
-186,373	409,709	-0,033	-0,050
-185,358	-34,774	0,060	-0,023
-184,344	77,090	0,144	0,109
-183,329	-194,378	0,072	0,000
-182,315	-200,000	-0,009	0,145
-181,300	-50,094	0,087	0,029
-180,285	245,122	-0,053	0,063
-179,271	-129,434	-0,073	-0,007
-178,256	141,789	-0,005	0,005
-177,242	-200,000	0,014	0,114
-176,227	800,000	-0,017	0,042
-175,212	569,040	0,057	0,099
-174,198	261,573	-0,106	0,131
-173,183	-52,104	-0,060	0,020
-172,169	194,035	-0,036	0,039
-171,154	800,000	-0,054	-0,162
-170,139	507,067	0,036	0,060
-169,125	800,000	0,032	0,089
-168,110	-200,000	-0,013	0,078
-167,096	-200,000	0,003	0,078
-166,081	-121,528	-0,011	-0,001
-165,066	-200,000	-0,003	-0,108
-164,052	-200,000	-0,001	0,008
-163,037	735,661	0,091	0,175
-162,023	67,055	-0,081	0,059
-161,008	69,486	-0,064	-0,047
-159,993	-94,956	-0,124	-0,024
-158,979	-77,690	0,092	0,022
-157,964	-121,591	-0,035	-0,004
-156,950	800,000	0,023	0,056
-155,935	-181,013	0,032	-0,000
-154,920	188,417	-0,170	-0,181
-153,906	-200,000	-0,021	-0,091
-152,891	-65,546	0,047	-0,013
-151,877	800,000	0,044	0,089
-150,862	-143,919	0,066	-0,004
-149,847	37,101	-0,104	0,066
-148,833	-159,393	-0,118	0,005
-147,818	-200,000	0,018	-0,074
-146,804	-200,000	0,003	0,084
-145,789	800,000	-0,044	-0,092
-144,775	-145,172	0,049	0,003
-143,760	31,270	-0,073	-0,045
-142,745	-120,397	-0,030	0,004
-141,731	739,101	-0,061	-0,118
-140,716	-183,335	0,038	-0,000
-139,702	-200,000	-0,016	0,095
-138,687	-174,397	0,079	0,002
-137,672	66,382	-0,125	-0,090
-136,658	-63,847	-0,091	-0,026
-135,643	800,000	0,017	-0,045
-134,629	-200,000	0,002	-0,015
-133,614	-200,000	0,019	0,091
-132,599	800,000	-0,047	-0,123
-131,585	-38,680	0,171	-0,064
-130,570	220,369	-0,018	0,020
-129,556	33,449	-0,155	-0,095
-128,541	800,000	-0,077	-0,156
-127,526	-200,000	-0,028	-0,137
-126,512	-87,436	0,151	-0,032
-125,497	-174,632	0,164	-0,003
-124,483	15,325	-0,057	-0,031
-123,468	800,000	0,052	0,119
-122,453	800,000	0,051	-0,115
-121,439	-127,719	-0,100	0,010
-120,424	404,743	-0,014	-0,022
-119,410	-40,396	0,122	-0,045
