DTS Sentinel unit serial number:	SN410029Multiplexer serial number:	ORYXHardware model number:	OX2-SRSoftware version number:	ORYX F/W v4,00 Oryx Data Collector v3.7.2.0data status	okinstallation	BH3 CH2differential loss correction	single-endedforward channel	channel 2reverse channel	N/Adate	2023/12/06time	07:32:28forward acquisition time	300,00reverse acquisition time	0,00gamma	499,1914k internal	0,3197k external	0,3197temperature offset calibration	1,0000default loss term (dB/km)	0,3820temperature slope calibration	1,0000multiplexer offset coefficient	1,0000multiplexer slope coefficient	1,0000fibre end	0,00T internal ref (°C)	8,81T ext. ref 1 (°C)	-5,81T ext. ref 2 (°C)	-5,92length (m)	temperature (°C)	Stokes	anti-Stokes-744,400	-200,000	-0,037	-0,146
-743,385	-95,026	-0,246	0,048
-742,371	420,230	-0,021	-0,033
-741,356	44,362	-0,102	0,068
-740,342	-200,000	-0,034	0,120
-739,327	284,167	-0,073	0,096
-738,312	418,790	0,034	-0,053
-737,298	-58,904	-0,213	0,067
-736,283	-200,000	0,041	-0,138
-735,269	74,175	-0,219	0,167
-734,254	319,422	-0,100	-0,138
-733,239	-99,165	-0,371	-0,068
-732,225	-129,888	0,232	-0,023
-731,210	-70,248	0,063	-0,017
-730,196	800,000	0,054	0,157
-729,181	800,000	0,021	0,057
-728,167	44,137	-0,109	-0,073
-727,152	-128,122	-0,106	-0,011
-726,137	-200,000	0,025	0,127
-725,123	-93,851	-0,089	-0,018
-724,108	237,237	-0,034	-0,041
-723,094	223,299	-0,072	0,085
-722,079	-200,000	0,010	0,038
-721,064	-200,000	-0,004	0,035
-720,050	23,463	-0,161	0,096
-719,035	-140,799	-0,110	0,008
-718,021	-67,593	-0,085	-0,024
-717,006	604,135	0,075	-0,136
-715,991	489,643	-0,094	-0,157
-714,977	-53,505	-0,134	-0,044
-713,962	800,000	-0,048	0,133
-712,948	-12,575	-0,103	0,049
-711,933	-95,750	-0,063	0,012
-710,918	137,124	-0,027	0,025
-709,904	259,140	-0,087	-0,109
-708,889	185,744	0,069	0,075
-707,875	259,838	-0,092	0,116
-706,860	-200,000	-0,017	0,076
-705,845	122,178	-0,098	-0,089
-704,831	-200,000	0,000	-0,040
-703,816	638,784	0,008	-0,016
-702,802	-98,924	0,034	0,006
-701,787	-168,738	0,031	-0,001
-700,772	-200,000	-0,004	0,015
-699,758	656,657	0,081	-0,152
-698,743	85,545	-0,036	0,029
-697,729	800,000	-0,048	-0,111
-696,714	-200,000	0,017	-0,070
-695,699	-200,000	0,043	-0,147
-694,685	108,328	-0,144	-0,125
-693,670	31,178	-0,065	-0,040
-692,656	-200,000	-0,025	-0,091
-691,641	800,000	0,052	0,147
-690,627	-16,812	0,134	0,061
-689,612	84,003	-0,096	-0,076
-688,597	-119,184	0,110	-0,014
-687,583	248,972	0,080	-0,099
-686,568	-200,000	0,018	-0,130
-685,554	-14,066	0,154	-0,072
-684,539	-200,000	-0,005	0,018
-683,524	128,401	0,083	-0,077
-682,510	-200,000	0,021	0,236
-681,495	639,815	-0,031	0,058
-680,481	800,000	-0,042	-0,108
-679,466	328,857	0,097	-0,136
-678,451	-200,000	0,018	-0,177
-677,437	316,724	0,057	-0,079
-676,422	800,000	-0,014	0,044
-675,408	800,000	-0,032	-0,076
-674,393	269,390	-0,080	-0,103
-673,378	2,253	-0,107	-0,056
-672,364	-16,306	-0,038	0,018
-671,349	-29,272	-0,104	-0,043
-670,335	-200,000	-0,012	-0,052
-669,320	-200,000	0,005	-0,051
-668,305	-200,000	0,002	0,035
-667,291	-200,000	0,003	0,106
-666,276	203,204	-0,086	0,097
-665,262	4,498	-0,179	-0,095
-664,247	800,000	0,026	-0,070
-663,232	-21,570	-0,048	0,021
-662,218	86,729	0,060	-0,048
-661,203	-200,000	-0,006	0,029
-660,189	224,994	-0,009	-0,011
-659,174	-200,000	-0,026	-0,142
-658,159	-78,604	0,028	-0,007
-657,145	250,918	0,101	-0,125
-656,130	156,775	-0,063	0,063
-655,116	137,608	-0,027	0,025
-654,101	256,768	0,035	-0,044
-653,086	-200,000	0,011	-0,092
-652,072	-200,000	-0,014	-0,168
-651,057	60,217	-0,193	-0,138
-650,043	-151,577	-0,014	-0,001
-649,028	-24,860	-0,067	-0,029
-648,014	5,882	0,098	0,053
-646,999	800,000	0,036	-0,076
-645,984	123,038	0,045	-0,041
-644,970	751,553	-0,052	0,103
-643,955	83,996	0,052	-0,041
-642,941	800,000	-0,047	-0,142
-641,926	-89,404	0,072	-0,015
-640,911	-200,000	-0,012	0,128
-639,897	-6,543	0,126	-0,062
-638,882	-200,000	-0,016	0,094
-637,868	63,798	-0,083	-0,060
-636,853	174,540	0,081	-0,085
-635,838	205,491	-0,036	-0,041
-634,824	103,953	-0,109	-0,093
-633,809	-32,557	-0,075	0,030
-632,795	229,422	0,031	0,036
-631,780	65,222	0,081	0,059
-630,765	20,229	0,117	-0,068
-629,751	166,592	-0,064	-0,066
-628,736	680,643	-0,035	0,067
-627,722	77,679	-0,107	0,083
-626,707	800,000	-0,030	-0,063
-625,692	-65,923	0,047	-0,013
-624,678	-179,422	0,006	0,000
-623,663	-200,000	-0,017	-0,102
-622,649	118,123	-0,097	-0,086
-621,634	128,660	-0,088	0,081
-620,619	-92,581	0,037	-0,007
-619,605	46,451	-0,040	0,027
-618,590	-200,000	-0,021	0,105
-617,576	215,115	-0,042	-0,048
-616,561	-125,055	-0,059	-0,006
-615,546	229,813	-0,183	-0,217
-614,532	800,000	0,039	-0,098
-613,517	638,027	0,046	-0,086
-612,503	265,809	0,033	-0,042
-611,488	-165,525	0,164	0,005
-610,474	18,050	0,067	0,039
-609,459	-200,000	0,014	0,047
-608,444	-200,000	-0,003	0,020
-607,430	47,674	-0,138	0,093
-606,415	3,761	0,121	0,064
-605,401	-200,000	0,001	0,023
-604,386	-18,403	0,075	-0,034
-603,371	58,763	0,040	-0,028
-602,357	349,015	-0,022	-0,031
-601,342	-200,000	0,027	-0,104
-600,328	-200,000	-0,035	-0,173
-599,313	-45,411	-0,121	-0,043
-598,298	44,204	0,105	-0,070
-597,284	800,000	-0,034	-0,101
-596,269	800,000	-0,015	0,046
-595,255	-31,619	0,089	-0,036
-594,240	18,696	-0,172	-0,100
-593,225	-167,065	0,075	0,002
-592,211	-200,000	-0,004	-0,060
-591,196	-200,000	0,012	-0,186
-590,182	800,000	-0,045	0,133
-589,167	-200,000	0,004	-0,121
-588,152	157,701	-0,130	0,130
-587,138	136,609	-0,071	0,067
-586,123	162,577	-0,123	-0,125
-585,109	-79,023	0,051	-0,012
-584,094	45,878	-0,110	-0,074
-583,079	638,307	-0,007	0,013
-582,065	75,092	0,095	-0,072
-581,050	388,690	0,073	0,110
-580,036	-127,892	-0,027	0,003
-579,021	267,481	-0,071	-0,090
-578,006	47,636	-0,155	-0,105
-576,992	800,000	0,012	0,025
-575,977	8,837	0,122	0,066
-574,963	336,126	0,049	0,069
-573,948	-136,226	-0,130	0,011
-572,934	-139,787	0,041	0,003
-571,919	-58,520	-0,103	-0,032
-570,904	800,000	0,016	-0,035
-569,890	800,000	0,049	-0,104
-568,875	272,010	0,020	-0,025
-567,861	-89,859	-0,004	-0,001
-566,846	47,312	0,152	0,102
-565,831	97,815	-0,037	0,031
-564,817	-200,000	0,034	-0,122
-563,802	-87,271	-0,093	-0,020
-562,788	90,136	0,046	0,037
-561,773	65,982	0,049	0,036
-560,758	368,197	0,079	0,116
-559,744	29,900	-0,066	-0,041
-558,729	-181,835	-0,064	-0,001
-557,715	95,963	0,026	-0,022
-556,700	-146,338	0,076	0,005
-555,685	800,000	0,054	0,120
-554,671	115,592	-0,078	-0,069
-553,656	800,000	-0,039	0,107
-552,642	-200,000	-0,041	0,152
-551,627	-200,000	-0,010	-0,041
-550,612	-189,131	-0,039	0,000
-549,598	-200,000	0,011	-0,152
-548,583	-200,000	-0,028	-0,099
-547,569	-17,070	0,093	-0,042
-546,554	-110,762	0,071	0,010
-545,539	-200,000	-0,007	0,098
-544,525	-200,000	0,040	0,129
-543,510	-200,000	0,000	0,059
-542,496	125,332	-0,032	-0,029
-541,481	-200,000	0,009	-0,049
-540,466	-60,605	0,091	0,028
-539,452	-138,878	0,100	-0,008
-538,437	8,755	0,066	0,036
-537,423	-157,321	0,053	-0,002
-536,408	243,859	0,080	0,097
-535,393	-15,701	-0,055	-0,025
-534,379	800,000	-0,046	-0,106
-533,364	-200,000	-0,008	0,049
-532,350	-19,434	-0,149	-0,067
-531,335	-15,270	0,148	0,068
-530,321	86,392	-0,045	-0,036
-529,306	-200,000	-0,011	-0,076
-528,291	38,032	-0,014	-0,009
-527,277	-200,000	0,002	-0,173
-526,262	-127,717	0,175	0,018
-525,248	52,120	0,059	0,041
-524,233	670,433	-0,057	0,107
-523,218	251,330	0,122	0,150
-522,204	-200,000	0,009	0,049
-521,189	23,964	-0,055	0,033
-520,175	800,000	0,058	-0,165
-519,160	209,530	-0,032	-0,036
-518,145	4,537	0,120	-0,063
-517,131	-170,507	0,066	0,002
-516,116	800,000	0,038	0,102
-515,102	196,782	0,167	0,184
-514,087	253,923	0,004	0,005
-513,072	-35,275	-0,028	0,011
-512,058	234,565	0,014	-0,017
-511,043	285,260	-0,055	-0,072
-510,029	-117,221	0,173	-0,022
-509,014	800,000	0,035	-0,091
-507,999	435,359	-0,087	0,136
-506,985	-200,000	-0,015	0,100
-505,970	14,068	-0,039	-0,022
-504,956	206,453	0,011	-0,012
-503,941	-157,475	0,053	-0,002
-502,926	-172,257	0,082	0,002
-501,912	537,698	-0,025	-0,043
-500,897	-39,391	-0,124	-0,047
-499,883	-200,000	-0,005	-0,078
-498,868	-46,365	-0,134	-0,047
-497,853	-200,000	0,006	-0,073
-496,839	-134,964	-0,029	0,003
-495,824	-2,346	0,111	-0,056
-494,810	-200,000	0,001	-0,109
-493,795	-65,392	-0,114	0,033
-492,781	800,000	-0,047	-0,106
-491,766	298,014	0,098	-0,130
-490,751	-113,589	-0,152	0,021
-489,737	100,342	0,029	0,024
-488,722	-18,982	-0,072	0,032
-487,708	19,683	0,150	0,087
-486,693	221,561	0,087	0,101
-485,678	285,894	0,040	-0,052
-484,664	26,480	-0,087	-0,052
-483,649	331,129	-0,046	0,064
-482,635	800,000	0,053	0,117
-481,620	-200,000	-0,003	0,172
-480,605	53,212	-0,069	0,048
-479,591	-200,000	-0,007	0,033
-478,576	58,095	0,043	-0,030
-477,562	27,065	-0,023	-0,014
-476,547	57,146	0,114	-0,080
-475,532	96,285	-0,095	-0,078
-474,518	-66,147	-0,066	0,019
-473,503	-200,000	-0,005	-0,090
-472,489	-163,233	-0,051	0,002
-471,474	-200,000	-0,008	0,089
-470,459	128,576	0,021	-0,019
-469,445	800,000	-0,044	-0,109
-468,430	-142,672	-0,005	0,000
-467,416	800,000	-0,016	0,042
-466,401	334,744	-0,051	0,071
-465,386	-200,000	0,024	0,090
-464,372	-9,716	-0,089	0,042
-463,357	-109,423	0,122	0,018
-462,343	800,000	0,064	-0,176
-461,328	231,050	-0,044	-0,052
-460,313	-114,293	0,032	-0,004
-459,299	800,000	-0,034	0,100
-458,284	24,907	0,034	0,020
-457,270	-200,000	-0,016	-0,053
-456,255	125,365	-0,066	0,060
-455,241	-200,000	0,002	-0,023
-454,226	-200,000	0,004	-0,043
-453,211	800,000	-0,057	0,116
-452,197	800,000	0,019	0,041
-451,182	-200,000	-0,018	0,072
-450,168	-50,011	0,084	-0,029
-449,153	-16,040	-0,059	0,027
-448,138	-35,431	-0,114	0,044
-447,124	283,506	-0,014	-0,018
-446,109	-117,528	0,163	0,021
-445,095	-22,080	0,010	-0,004
-444,080	94,456	-0,056	-0,046
-443,065	24,254	0,113	0,067
-442,051	634,748	0,041	-0,075
-441,036	167,486	-0,036	-0,037
-440,022	-144,964	-0,097	-0,006
-439,007	220,080	0,058	0,067
-437,992	85,724	-0,054	0,043
-436,978	-200,000	-0,003	0,071
-435,963	800,000	-0,026	-0,061
-434,949	800,000	0,060	-0,158
-433,934	-49,727	-0,032	0,011
-432,919	-200,000	-0,001	-0,086
-431,905	793,141	-0,019	-0,039
-430,890	362,676	-0,008	0,011
-429,876	-91,037	0,077	0,016
-428,861	129,866	-0,061	0,056
-427,846	-116,356	-0,118	-0,016
-426,832	-47,132	-0,088	-0,031
-425,817	-200,000	-0,015	-0,110
-424,803	-200,000	-0,005	-0,069
-423,788	-3,726	0,154	0,076
-422,773	-51,169	0,112	0,037
-421,759	-80,578	-0,187	0,045
-420,744	-200,000	0,004	-0,049
-419,730	-200,000	-0,009	-0,054
-418,715	418,428	-0,079	-0,121
-417,701	565,385	-0,077	0,134
-416,686	-22,363	-0,095	-0,041
-415,671	-200,000	-0,008	0,034
-414,657	161,273	0,058	-0,058
-413,642	-200,000	0,019	-0,098
-412,628	5,399	0,030	-0,016
-411,613	465,411	-0,048	-0,077
-410,598	694,011	0,035	0,067
-409,584	546,360	0,046	0,079
-408,569	-200,000	0,013	0,070
-407,555	800,000	0,014	-0,041
-406,540	32,313	-0,052	-0,032
-405,525	800,000	-0,034	0,088
-404,511	-108,023	-0,056	-0,009
-403,496	800,000	0,054	-0,139
-402,482	89,916	0,119	0,096
-401,467	103,312	-0,108	0,091
-400,452	-200,000	-0,006	-0,020
-399,438	58,722	0,128	0,090
-398,423	148,204	0,025	0,024
-397,409	-147,643	0,086	0,005
-396,394	83,044	-0,047	0,037
-395,379	39,195	-0,032	0,021
-394,365	149,731	-0,100	0,098
-393,350	-200,000	0,009	0,105
-392,336	178,183	-0,085	0,090
-391,321	111,152	-0,094	-0,081
-390,306	-200,000	0,009	0,060
-389,292	-85,419	-0,027	0,006
-388,277	581,135	-0,017	0,031
-387,263	800,000	0,047	0,096
-386,248	-23,938	-0,094	0,040
-385,233	-140,691	0,081	-0,006
-384,219	-148,841	0,074	-0,004
-383,204	800,000	0,019	-0,045
-382,190	-200,000	0,008	0,176
-381,175	-151,094	0,175	0,009
-380,160	-200,000	0,002	0,082
-379,146	800,000	0,006	0,018
-378,131	800,000	-0,024	0,061
-377,117	166,802	-0,038	0,039
-376,102	-200,000	-0,027	-0,103
-375,088	230,737	-0,086	-0,102
-374,073	-200,000	0,008	-0,061
-373,058	243,157	0,129	0,155
-372,044	751,621	0,044	-0,086
-371,029	172,201	0,047	-0,049
-370,015	406,757	-0,073	-0,111
-369,000	800,000	0,032	-0,098
-367,985	214,498	-0,063	-0,072
-366,971	-200,000	-0,020	0,159
-365,956	-200,000	-0,002	0,128
-364,942	-192,310	0,030	-0,000
-363,927	-200,000	0,014	0,062
-362,912	-36,859	0,132	-0,051
-361,898	-35,362	-0,118	0,046
-360,883	-64,977	0,070	-0,020
-359,869	796,436	-0,063	0,125
-358,854	471,972	0,015	0,024
-357,839	800,000	0,045	0,129
-356,825	193,094	-0,094	0,103
-355,810	131,651	-0,084	-0,077
-354,796	68,685	-0,036	-0,027
-353,781	264,484	0,063	-0,079
-352,766	-105,562	-0,034	0,005
-351,752	3,630	-0,033	0,017
-350,737	418,730	0,089	0,137
-349,723	77,644	-0,098	-0,074
-348,708	-151,768	0,058	-0,003
-347,693	34,502	-0,105	0,066
-346,679	-49,431	-0,050	-0,017
-345,664	237,068	-0,032	-0,038
-344,650	-200,000	0,025	-0,107
-343,635	800,000	0,022	0,064
-342,620	123,244	0,079	-0,071
-341,606	202,556	-0,059	-0,065
-340,591	714,928	0,035	0,066
-339,577	-114,564	-0,107	-0,015
-338,562	342,541	0,038	-0,053
-337,548	224,812	0,058	0,068
-336,533	-200,000	0,042	0,158
-335,518	9,694	0,051	-0,027
-334,504	399,914	-0,100	0,151
-333,489	-121,490	-0,047	-0,006
-332,475	800,000	0,023	0,051
-331,460	317,782	-0,037	0,050
-330,445	633,010	-0,096	-0,175
-329,431	-200,000	-0,006	-0,132
-328,416	-200,000	0,012	0,134
-327,402	57,123	-0,067	-0,047
-326,387	800,000	-0,022	0,067
-325,372	-200,000	-0,018	-0,063
-324,358	55,274	-0,014	-0,010
-323,343	-59,893	0,081	0,025
-322,329	-88,456	-0,053	0,011
-321,314	390,231	0,067	0,101
-320,299	-200,000	-0,017	-0,102
-319,285	800,000	-0,033	-0,086
-318,270	96,541	-0,085	0,069
-317,256	-200,000	-0,015	-0,080
-316,241	-40,614	0,011	0,004
-315,226	18,011	0,058	0,033
-314,212	800,000	-0,060	0,126
-313,197	27,664	-0,075	0,045
-312,183	119,111	0,038	0,034
-311,168	-83,404	-0,080	0,018
-310,153	-28,272	0,048	0,020
-309,139	800,000	-0,035	-0,097
-308,124	800,000	-0,062	0,145
-307,110	-200,000	-0,005	0,038
-306,095	193,572	0,040	-0,043
-305,080	50,464	0,013	-0,009
-304,066	800,000	-0,025	-0,055
-303,051	60,044	-0,097	-0,068
-302,037	-200,000	-0,064	-0,215
-301,022	178,895	-0,087	0,091
-300,008	-200,000	-0,007	0,150
-298,993	-200,000	-0,020	0,155
-297,978	-88,277	-0,120	0,026
-296,964	411,367	-0,017	-0,026
-295,949	-200,000	-0,017	-0,071
-294,935	11,112	0,009	0,005
-293,920	390,361	-0,055	-0,082
-292,905	160,035	0,043	-0,043
-291,891	800,000	-0,019	0,054
-290,876	800,000	-0,018	-0,042
-289,862	788,035	0,052	0,103
-288,847	779,126	-0,051	-0,099
-287,832	-200,000	-0,007	-0,061
-286,818	-46,010	-0,120	-0,042
-285,803	-37,955	0,033	0,012
-284,789	179,588	-0,067	-0,070
-283,774	-103,736	0,139	-0,023
-282,759	-200,000	-0,026	-0,098
-281,745	-200,000	-0,038	-0,127
-280,730	524,539	-0,045	-0,076
-279,716	-163,051	0,057	-0,002
-278,701	156,224	0,099	0,098
-277,686	314,276	-0,013	-0,017
-276,672	-200,000	0,020	0,064
-275,657	793,670	0,025	-0,049
-274,643	569,799	-0,013	-0,023
-273,628	248,280	-0,095	-0,115
-272,613	-10,627	-0,147	-0,069
-271,599	440,986	-0,052	-0,082
-270,584	-86,213	0,048	-0,010
-269,570	489,823	0,043	0,070
-268,555	90,523	0,053	-0,042
-267,540	-200,000	-0,006	-0,039
-266,526	70,529	0,071	-0,052
-265,511	800,000	-0,072	-0,205
-264,497	-200,000	0,129	0,000
-263,482	-200,000	0,012	0,137
-262,467	424,377	-0,088	0,135
-261,453	-84,376	0,066	-0,015
-260,438	-127,384	-0,165	-0,017
-259,424	-200,000	0,002	-0,059
-258,409	800,000	-0,029	0,079
-257,395	413,593	-0,004	0,006
-256,380	97,867	0,106	0,087
-255,365	-123,709	0,080	-0,009
-254,351	260,489	-0,062	0,077
-253,336	-145,164	-0,067	-0,004
-252,322	800,000	-0,023	-0,052
-251,307	87,004	0,051	-0,040
-250,292	-121,992	0,196	0,023
-249,278	236,640	0,033	0,039
-248,263	67,270	0,073	0,053
-247,249	222,710	0,016	-0,018
-246,234	25,572	0,071	0,042
-245,219	-158,109	-0,068	-0,003
-244,205	-77,772	-0,112	0,027
-243,190	385,171	0,094	0,139
-242,176	535,681	-0,037	0,062
-241,161	800,000	0,053	0,109
-240,146	-200,000	0,000	0,042
-239,132	-54,030	0,084	-0,027
-238,117	208,227	0,069	-0,077
-237,103	13,162	-0,082	-0,045
-236,088	-10,401	0,064	-0,030
-235,073	-40,486	-0,090	-0,033
-234,059	-109,161	0,039	0,006
-233,044	101,932	0,019	-0,015
-232,030	114,743	-0,080	-0,070
-231,015	-10,290	0,018	0,008
-230,000	43,672	-0,154	-0,100
-228,986	96,923	0,073	-0,060
-227,971	175,994	0,077	-0,079
-226,957	800,000	0,039	0,091
-225,942	-141,133	0,137	-0,010
-224,927	800,000	-0,034	-0,104
-223,913	800,000	0,057	-0,162
-222,898	800,000	-0,030	0,071
-221,884	305,567	-0,034	-0,045
-220,869	800,000	0,031	0,065
-219,855	800,000	0,023	0,064
-218,840	-200,000	-0,018	0,058
-217,825	39,056	0,072	0,046
-216,811	-200,000	0,023	0,106
-215,796	188,059	0,047	0,050
-214,782	800,000	-0,026	0,058
-213,767	183,464	0,061	0,064
-212,752	-200,000	0,002	-0,052
-211,738	55,244	0,114	-0,078
-210,723	329,548	-0,109	0,149
-209,709	26,832	-0,070	0,041
-208,694	-40,585	-0,113	-0,042
-207,679	95,159	0,015	-0,013
-206,665	117,329	-0,017	0,015
-205,650	-37,056	0,161	-0,061
-204,636	-20,215	0,018	-0,008
-203,621	-147,797	-0,074	0,004
-202,606	-34,417	0,105	-0,041
-201,592	800,000	0,031	0,066
-200,577	800,000	0,041	-0,110
-199,563	-76,120	-0,138	0,035
-198,548	800,000	0,031	0,071
-197,533	-71,540	0,069	-0,018
-196,519	-200,000	-0,003	0,064
-195,504	14,784	-0,109	-0,061
-194,490	-200,000	-0,033	-0,135
-193,475	-17,581	-0,187	-0,083
-192,460	800,000	0,065	0,132
-191,446	288,992	0,160	0,207
-190,431	-4,350	0,050	0,025
-189,417	259,530	0,054	0,067
-188,402	800,000	0,042	-0,086
-187,387	-200,000	0,017	0,135
-186,373	-48,895	0,052	-0,018
-185,358	34,422	0,054	-0,033
-184,344	349,413	0,033	-0,047
-183,329	476,830	-0,066	0,106
-182,315	-200,000	-0,003	0,128
-181,300	800,000	-0,041	-0,119
-180,285	-200,000	-0,008	-0,049
-179,271	-200,000	-0,006	-0,090
-178,256	192,592	-0,063	-0,067
-177,242	-196,899	0,119	-0,001
-176,227	32,740	0,134	0,082
-175,212	800,000	-0,036	-0,084
-174,198	-93,741	-0,007	0,001
-173,183	321,964	-0,022	0,030
-172,169	-200,000	-0,010	-0,125
-171,154	-102,671	-0,080	-0,013
-170,139	51,551	0,118	-0,080
-169,125	326,926	0,067	0,092
-168,110	367,629	0,008	-0,012
-167,096	-3,183	0,079	0,039
-166,081	240,206	0,038	-0,045
-165,066	800,000	-0,019	0,040
-164,052	800,000	-0,034	0,095
-163,037	159,031	-0,121	-0,120
-162,023	-48,804	0,034	0,012
-161,008	-200,000	0,030	0,107
-159,993	408,835	-0,043	0,065
-158,979	135,278	-0,037	-0,034
-157,964	-62,532	-0,012	-0,003
-156,950	197,203	0,036	0,039
-155,935	-200,000	-0,028	0,110
-154,920	126,433	0,066	0,060
-153,906	-35,991	0,115	0,044
-152,891	275,489	0,057	0,072
-151,877	-200,000	-0,024	0,083
-150,862	51,187	-0,131	-0,088
-149,847	800,000	-0,047	-0,094
-148,833	-19,019	0,111	0,049
-147,818	-200,000	-0,014	0,068
-146,804	-200,000	0,024	0,212
-145,789	-200,000	-0,016	0,098
-144,775	-200,000	0,019	-0,133
-143,760	-11,565	-0,036	-0,017
-142,745	89,255	0,077	-0,061
-141,731	-64,521	-0,051	-0,015
-140,716	-200,000	-0,002	0,043
-139,702	-200,000	-0,002	0,098
-138,687	-71,001	0,136	-0,036
-137,672	-200,000	0,013	0,155
-136,658	-20,403	-0,087	-0,038
-135,643	129,605	0,061	0,055
-134,629	-159,466	0,072	-0,003
-133,614	800,000	-0,046	-0,134
-132,599	521,106	-0,035	0,059
-131,585	311,322	-0,076	-0,101
-130,570	408,633	0,096	-0,144
-129,556	-113,590	-0,044	-0,006
-128,541	61,342	0,069	-0,048
-127,526	160,939	0,024	0,024
-126,512	-159,585	0,078	-0,003
-125,497	-66,794	-0,149	0,041
-124,483	-200,000	-0,010	0,125
-123,468	-143,709	-0,091	0,006
-122,453	579,708	-0,040	0,070
-121,439	189,063	-0,018	0,019
-120,424	-19,327	0,079	0,035
-119,410	-63,670	-0,103	-0,030
