DTS Sentinel unit serial number:	SN410029Multiplexer serial number:	ORYXHardware model number:	OX2-SRSoftware version number:	ORYX F/W v4,00 Oryx Data Collector v3.7.2.0data status	okinstallation	BH3 CH2differential loss correction	single-endedforward channel	channel 2reverse channel	N/Adate	2023/12/05time	12:37:28forward acquisition time	300,00reverse acquisition time	0,00gamma	499,1914k internal	0,3195k external	0,3195temperature offset calibration	1,0000default loss term (dB/km)	0,3820temperature slope calibration	1,0000multiplexer offset coefficient	1,0000multiplexer slope coefficient	1,0000fibre end	0,00T internal ref (°C)	9,88T ext. ref 1 (°C)	-4,51T ext. ref 2 (°C)	-4,57length (m)	temperature (°C)	Stokes	anti-Stokes-744,400	573,173	0,075	-0,133
-743,385	5,041	-0,269	0,144
-742,371	-200,000	0,010	-0,121
-741,356	-200,000	-0,042	0,359
-740,342	178,187	-0,041	0,044
-739,327	3,458	-0,218	0,116
-738,312	199,600	-0,147	-0,165
-737,298	-56,399	-0,050	0,016
-736,283	-200,000	0,008	-0,168
-735,269	120,430	-0,168	0,152
-734,254	-200,000	-0,017	-0,145
-733,239	-140,668	-0,391	-0,029
-732,225	-200,000	-0,003	-0,200
-731,210	-200,000	-0,005	0,061
-730,196	-169,555	0,030	0,001
-729,181	-89,069	-0,155	-0,033
-728,167	28,119	-0,214	-0,131
-727,152	-143,405	0,068	0,005
-726,137	-92,910	-0,171	-0,034
-725,123	-200,000	-0,000	-0,135
-724,108	147,372	-0,129	-0,127
-723,094	100,188	-0,074	-0,062
-722,079	257,129	-0,148	-0,185
-721,064	193,745	-0,111	-0,122
-720,050	-112,520	0,102	0,015
-719,035	79,062	-0,123	0,096
-718,021	-7,242	-0,087	0,043
-717,006	-66,512	-0,083	-0,024
-715,991	232,617	-0,092	-0,110
-714,977	-43,709	0,058	-0,021
-713,962	-67,861	0,056	-0,016
-712,948	79,420	-0,105	-0,082
-711,933	28,704	-0,098	0,060
-710,918	9,279	-0,130	0,071
-709,904	86,280	-0,088	-0,070
-708,889	-200,000	-0,028	-0,165
-707,875	-200,000	0,026	0,084
-706,860	-194,240	0,250	0,001
-705,845	137,932	-0,072	-0,069
-704,831	-200,000	0,023	0,111
-703,816	197,864	-0,031	-0,034
-702,802	800,000	-0,062	-0,162
-701,787	679,161	-0,020	0,038
-700,772	353,042	-0,020	0,028
-699,758	-200,000	0,004	0,086
-698,743	114,667	0,088	0,078
-697,729	-35,535	0,031	0,012
-696,714	-200,000	0,024	-0,088
-695,699	-164,274	-0,105	-0,003
-694,685	444,481	-0,043	-0,070
-693,670	-44,826	0,047	0,017
-692,656	-200,000	-0,025	-0,110
-691,641	114,005	0,040	0,035
-690,627	248,271	0,056	-0,069
-689,612	-200,000	0,012	0,187
-688,597	224,030	-0,042	0,049
-687,583	-200,000	0,017	-0,102
-686,568	800,000	-0,032	-0,068
-685,554	628,908	0,071	0,132
-684,539	380,266	-0,058	-0,086
-683,524	-200,000	-0,022	0,079
-682,510	468,540	-0,048	0,078
-681,495	-37,033	-0,140	0,054
-680,481	-200,000	0,002	-0,019
-679,466	188,261	0,051	0,055
-678,451	-115,427	0,087	-0,012
-677,437	460,477	0,040	0,065
-676,422	61,158	-0,033	-0,024
-675,408	546,237	-0,094	0,165
-674,393	-21,546	-0,134	0,059
-673,378	-200,000	-0,000	0,043
-672,364	477,552	0,041	-0,067
-671,349	-23,430	-0,088	0,038
-670,335	253,767	0,065	0,081
-669,320	800,000	-0,069	0,141
-668,305	199,507	-0,012	-0,014
-667,291	-122,521	-0,117	-0,014
-666,276	322,407	-0,046	0,064
-665,262	-200,000	0,010	-0,089
-664,247	-80,069	0,069	0,017
-663,232	687,039	0,064	0,122
-662,218	800,000	-0,051	0,140
-661,203	-200,000	0,004	-0,180
-660,189	138,949	0,138	-0,132
-659,174	-200,000	0,019	-0,204
-658,159	-62,091	-0,131	-0,040
-657,145	800,000	0,013	-0,036
-656,130	-101,687	-0,026	0,005
-655,116	191,790	0,133	-0,146
-654,101	45,820	-0,018	0,012
-653,086	433,975	-0,032	-0,050
-652,072	-200,000	0,002	0,074
-651,057	-200,000	0,001	-0,119
-650,043	-57,366	-0,048	-0,015
-649,028	-200,000	-0,023	-0,096
-648,014	800,000	-0,063	0,174
-646,999	-200,000	-0,020	0,136
-645,984	199,888	-0,074	0,082
-644,970	-29,461	-0,091	0,038
-643,955	563,178	-0,031	0,055
-642,941	2,134	0,032	0,017
-641,926	800,000	-0,020	-0,055
-640,911	170,466	0,049	0,051
-639,897	775,159	0,013	-0,025
-638,882	800,000	-0,025	0,061
-637,868	270,442	-0,079	-0,102
-636,853	683,340	0,027	-0,051
-635,838	589,822	-0,045	0,081
-634,824	800,000	-0,066	0,136
-633,809	285,804	-0,058	-0,076
-632,795	-200,000	0,016	-0,155
-631,780	128,619	-0,068	0,063
-630,765	-38,999	-0,049	-0,019
-629,751	-28,272	0,100	-0,042
-628,736	-142,813	0,074	-0,005
-627,722	-200,000	0,018	0,076
-626,707	-94,052	-0,052	0,010
-625,692	41,300	-0,007	0,004
-624,678	-200,000	0,017	0,156
-623,663	-200,000	-0,025	0,097
-622,649	-56,851	-0,168	-0,054
-621,634	800,000	-0,046	-0,109
-620,619	-124,093	-0,219	0,025
-619,605	386,317	-0,028	0,042
-618,590	119,918	0,031	-0,028
-617,576	-96,668	0,143	0,027
-616,561	-136,951	-0,139	-0,011
-615,546	24,094	-0,100	-0,059
-614,532	-79,008	0,103	0,025
-613,517	-200,000	0,015	-0,172
-612,503	7,214	0,014	0,008
-611,488	-109,146	-0,063	0,010
-610,474	800,000	0,063	0,161
-609,459	318,324	-0,068	0,094
-608,444	-40,569	0,180	0,068
-607,430	-200,000	-0,038	-0,153
-606,415	348,524	-0,032	-0,046
-605,401	471,566	-0,054	0,088
-604,386	-91,388	-0,042	0,009
-603,371	581,071	-0,031	0,055
-602,357	-91,833	0,115	-0,024
-601,342	-200,000	-0,010	-0,160
-600,328	72,360	0,110	-0,083
-599,313	392,025	0,091	0,137
-598,298	800,000	0,056	-0,155
-597,284	-200,000	-0,002	-0,071
-596,269	800,000	0,071	0,146
-595,255	-21,148	-0,223	0,098
-594,240	-160,355	0,197	-0,008
-593,225	25,672	-0,035	-0,021
-592,211	263,049	-0,048	0,061
-591,196	-117,043	0,060	-0,008
-590,182	416,836	0,066	-0,102
-589,167	800,000	0,052	0,155
-588,152	73,193	-0,077	-0,058
-587,138	17,008	0,097	0,056
-586,123	800,000	0,036	-0,089
-585,109	281,190	-0,082	-0,107
-584,094	-200,000	-0,008	-0,113
-583,079	275,923	0,066	0,085
-582,065	-200,000	-0,001	0,108
-581,050	169,079	-0,152	0,158
-580,036	-4,516	0,166	0,083
-579,021	-200,000	-0,042	-0,170
-578,006	547,461	-0,022	-0,039
-576,992	-96,215	0,117	-0,022
-575,977	-21,104	0,097	0,043
-574,963	340,060	-0,059	0,084
-573,948	-200,000	-0,032	0,134
-572,934	445,154	0,054	0,087
-571,919	673,878	-0,045	-0,086
-570,904	800,000	-0,017	-0,038
-569,890	82,265	-0,163	0,128
-568,875	-200,000	-0,024	-0,089
-567,861	53,679	-0,068	-0,047
-566,846	682,673	0,061	0,116
-565,831	-79,251	-0,077	-0,019
-564,817	-200,000	-0,022	0,079
-563,802	-108,888	-0,108	-0,016
-562,788	800,000	0,037	-0,080
-561,773	77,897	-0,082	0,063
-560,758	229,457	0,050	-0,059
-559,744	-28,552	0,024	-0,010
-558,729	239,304	-0,019	0,023
-557,715	-52,872	-0,109	-0,036
-556,700	-24,123	-0,188	-0,081
-555,685	96,012	0,127	0,105
-554,671	-200,000	-0,031	0,134
-553,656	-85,048	0,208	-0,047
-552,642	258,620	-0,131	0,164
-551,627	0,673	0,063	-0,032
-550,612	800,000	0,013	-0,026
-549,598	-200,000	-0,019	0,068
-548,583	-134,307	0,084	0,007
-547,569	-47,456	0,047	-0,016
-546,554	64,339	0,076	-0,055
-545,539	-74,658	0,069	0,018
-544,525	734,517	-0,029	0,057
-543,510	163,901	-0,119	0,121
-542,496	-200,000	0,012	-0,046
-541,481	100,799	0,018	0,015
-540,466	-82,490	-0,214	-0,050
-539,452	-29,754	-0,024	0,010
-538,437	800,000	-0,030	0,061
-537,423	240,491	-0,027	0,032
-536,408	127,721	0,088	-0,081
-535,393	800,000	0,048	-0,106
-534,379	-131,150	-0,164	-0,016
-533,364	-148,027	0,170	-0,010
-532,350	-36,215	0,092	0,036
-531,335	48,430	0,151	0,102
-530,321	107,321	0,136	0,117
-529,306	20,512	0,065	0,038
-528,291	130,140	-0,029	-0,027
-527,277	55,628	0,064	0,045
-526,262	-200,000	-0,035	-0,117
-525,248	800,000	-0,017	-0,045
-524,233	-200,000	-0,014	0,048
-523,218	-200,000	-0,003	0,013
-522,204	271,124	0,040	0,051
-521,189	99,464	-0,060	-0,050
-520,175	-200,000	-0,038	-0,130
-519,160	-44,686	0,076	-0,027
-518,145	800,000	0,010	-0,022
-517,131	-132,490	0,117	0,011
-516,116	97,064	0,031	0,026
-515,102	-200,000	0,010	0,115
-514,087	-200,000	-0,001	0,099
-513,072	107,409	-0,085	0,073
-512,058	-17,937	-0,025	0,011
-511,043	-200,000	-0,024	-0,100
-510,029	171,031	-0,084	-0,087
-509,014	-43,515	-0,089	0,032
-507,999	129,449	-0,052	0,048
-506,985	189,208	0,041	0,044
-505,970	800,000	0,008	0,020
-504,956	71,796	0,040	-0,030
-503,941	-106,167	-0,101	-0,016
-502,926	450,828	0,061	0,098
-501,912	-26,130	0,068	-0,029
-500,897	800,000	0,029	-0,070
-499,883	83,076	0,023	-0,018
-498,868	-200,000	0,016	-0,063
-497,853	150,479	0,029	0,028
-496,839	167,147	0,148	-0,151
-495,824	-50,189	0,021	-0,007
-494,810	308,307	0,039	0,052
-493,795	686,767	0,053	-0,101
-492,781	184,402	0,034	0,036
-491,766	800,000	0,054	-0,148
-490,751	-200,000	0,023	-0,145
-489,737	10,027	0,130	-0,071
-488,722	17,193	-0,123	0,070
-487,708	-108,497	0,134	0,021
-486,693	-200,000	0,046	-0,163
-485,678	85,007	-0,050	-0,040
-484,664	800,000	0,026	0,082
-483,649	800,000	-0,004	0,010
-482,635	-60,703	0,156	-0,047
-481,620	446,335	0,045	0,072
-480,605	800,000	-0,009	0,018
-479,591	800,000	0,034	-0,110
-478,576	261,967	-0,032	-0,040
-477,562	800,000	0,028	-0,084
-476,547	-102,998	-0,080	-0,013
-475,532	800,000	0,028	0,066
-474,518	85,802	-0,035	-0,028
-473,503	-68,794	0,134	0,037
-472,489	47,623	-0,013	-0,009
-471,474	-200,000	-0,014	-0,059
-470,459	800,000	-0,049	-0,136
-469,445	-119,908	0,112	0,014
-468,430	-200,000	0,012	-0,232
-467,416	1,845	-0,024	0,012
-466,401	203,956	0,037	0,041
-465,386	-125,572	0,093	0,010
-464,372	-200,000	0,004	0,016
-463,357	327,152	0,055	-0,076
-462,343	-124,111	-0,168	0,019
-461,328	51,119	0,126	0,086
-460,313	315,939	-0,026	-0,036
-459,299	-107,635	0,193	0,030
-458,284	-141,679	0,054	-0,004
-457,270	436,817	-0,058	-0,092
-456,255	540,038	-0,051	-0,088
-455,241	-80,926	0,100	0,024
-454,226	-112,703	0,047	0,007
-453,211	48,847	-0,087	0,059
-452,197	586,747	-0,029	0,052
-451,182	-200,000	0,011	0,091
-450,168	9,572	-0,024	0,013
-449,153	344,440	-0,033	-0,047
-448,138	147,545	-0,085	-0,082
-447,124	-200,000	-0,033	0,105
-446,109	246,235	0,041	-0,050
-445,095	59,715	0,050	0,036
-444,080	-200,000	0,004	0,065
-443,065	-200,000	0,016	0,089
-442,051	43,786	-0,184	0,121
-441,036	-112,669	-0,036	-0,005
-440,022	4,035	-0,036	-0,019
-439,007	-1,703	-0,119	-0,060
-437,992	366,916	0,096	0,140
-436,978	-200,000	-0,022	0,115
-435,963	-127,566	0,113	0,012
-434,949	-200,000	-0,042	-0,161
-433,934	-118,803	-0,239	-0,030
-432,919	196,209	-0,058	-0,064
-431,905	333,016	-0,024	-0,034
-430,890	-200,000	0,009	0,148
-429,876	197,080	-0,089	0,097
-428,861	-200,000	0,003	0,048
-427,846	-71,652	0,058	-0,015
-426,832	-200,000	0,009	-0,048
-425,817	800,000	0,010	-0,022
-424,803	-112,799	-0,171	-0,024
-423,788	-29,590	0,023	0,009
-422,773	-12,640	0,168	0,078
-421,759	147,219	-0,085	0,083
-420,744	-44,397	0,028	0,010
-419,730	31,395	-0,009	0,005
-418,715	-99,526	-0,139	-0,025
-417,701	95,604	0,059	0,048
-416,686	800,000	-0,031	0,067
-415,671	475,673	0,037	0,061
-414,657	15,888	-0,072	-0,040
-413,642	265,971	0,044	-0,056
-412,628	-18,059	0,106	-0,048
-411,613	286,604	-0,079	-0,103
-410,598	503,866	0,010	-0,016
-409,584	-120,547	0,088	-0,011
-408,569	73,126	-0,090	0,068
-407,555	-8,028	0,133	0,064
-406,540	353,942	-0,052	-0,074
-405,525	535,107	-0,041	-0,070
-404,511	-49,538	-0,157	0,053
-403,496	-200,000	-0,002	0,098
-402,482	495,052	0,039	-0,065
-401,467	-200,000	0,020	0,080
-400,452	800,000	-0,029	0,069
-399,438	668,631	0,018	-0,035
-398,423	145,381	0,025	-0,024
-397,409	800,000	0,012	-0,031
-396,394	-200,000	-0,023	-0,096
-395,379	101,875	-0,087	0,073
-394,365	-9,808	0,072	-0,034
-393,350	-200,000	0,039	-0,130
-392,336	800,000	-0,008	-0,018
-391,321	-170,536	0,094	0,002
-390,306	-200,000	-0,031	-0,187
-389,292	-75,715	0,068	-0,017
-388,277	800,000	-0,055	-0,163
-387,263	-200,000	0,023	0,119
-386,248	-200,000	-0,011	0,053
-385,233	9,405	0,084	0,045
-384,219	40,850	-0,046	-0,030
-383,204	88,524	-0,161	-0,128
-382,190	-189,765	-0,050	-0,000
-381,175	-200,000	0,007	0,061
-380,160	9,499	0,019	0,011
-379,146	-200,000	0,017	0,056
-378,131	800,000	0,019	0,052
-377,117	800,000	-0,035	-0,070
-376,102	167,868	-0,052	0,053
-375,088	570,695	0,020	0,035
-374,073	-44,659	0,046	-0,016
-373,058	17,644	-0,111	0,063
-372,044	-200,000	-0,030	0,129
-371,029	757,358	-0,094	-0,184
-370,015	-200,000	-0,028	-0,095
-369,000	98,902	-0,055	-0,046
-367,985	-200,000	-0,044	-0,199
-366,971	191,766	0,065	0,070
-365,956	-200,000	0,013	0,120
-364,942	98,845	-0,068	0,056
-363,927	104,099	-0,042	0,036
-362,912	-24,921	0,025	0,010
-361,898	116,365	-0,004	-0,004
-360,883	155,783	0,052	0,051
-359,869	-18,267	0,093	0,041
-358,854	-32,831	-0,047	0,019
-357,839	-200,000	0,020	0,076
-356,825	-200,000	0,012	0,130
-355,810	391,364	0,009	-0,014
-354,796	110,911	-0,067	-0,058
-353,781	11,569	0,155	-0,085
-352,766	221,833	0,025	-0,029
-351,752	4,116	-0,110	-0,058
-350,737	614,836	-0,048	-0,087
-349,723	157,005	0,002	0,002
-348,708	239,891	0,068	0,082
-347,693	-140,106	0,098	0,007
-346,679	800,000	-0,043	-0,117
-345,664	-36,235	0,179	-0,069
-344,650	320,004	0,046	-0,063
-343,635	-200,000	-0,002	0,025
-342,620	-200,000	0,016	-0,114
-341,606	-22,672	0,151	-0,065
-340,591	-200,000	0,017	0,107
-339,577	142,749	-0,024	0,023
-338,562	-52,728	0,055	-0,018
-337,548	800,000	0,022	-0,052
-336,533	250,966	-0,095	0,116
-335,518	-124,076	0,135	0,015
-334,504	474,977	-0,069	0,111
-333,489	-200,000	-0,016	0,088
-332,475	-5,842	-0,051	0,025
-331,460	-200,000	0,000	0,013
-330,445	-177,020	-0,017	-0,000
-329,431	-72,150	0,162	0,043
-328,416	-200,000	0,005	0,069
-327,402	-200,000	0,020	0,065
-326,387	-80,835	0,123	0,029
-325,372	235,126	0,110	-0,130
-324,358	371,122	-0,071	-0,103
-323,343	-200,000	0,050	-0,248
-322,329	-107,374	0,020	0,003
-321,314	54,467	0,082	0,057
-320,299	-100,821	-0,022	-0,004
-319,285	547,929	0,018	-0,031
-318,270	350,445	-0,046	-0,065
-317,256	-58,660	0,117	0,036
-316,241	-200,000	0,002	-0,082
-315,226	248,326	0,065	-0,079
-314,212	94,367	0,068	-0,056
-313,197	-155,399	0,110	0,005
-312,183	-200,000	-0,008	-0,119
-311,168	-200,000	0,004	-0,154
-310,153	-92,923	-0,216	0,043
-309,139	79,858	0,044	0,034
-308,124	-200,000	0,003	0,039
-307,110	800,000	-0,033	-0,079
-306,095	-200,000	0,011	0,035
-305,080	197,563	0,077	0,084
-304,066	148,954	0,087	0,084
-303,051	78,310	-0,071	-0,055
-302,037	-183,269	-0,152	0,002
-301,022	121,651	-0,032	-0,029
-300,008	-200,000	-0,003	-0,095
-298,993	800,000	-0,026	-0,057
-297,978	800,000	-0,050	-0,114
-296,964	-200,000	-0,001	-0,032
-295,949	-162,175	-0,234	0,008
-294,935	-200,000	0,024	-0,094
-293,920	800,000	0,040	0,112
-292,905	81,864	-0,036	0,028
-291,891	800,000	0,062	-0,191
-290,876	188,389	-0,008	-0,008
-289,862	-74,777	-0,215	-0,055
-288,847	125,920	-0,014	0,013
-287,832	-200,000	0,013	-0,083
-286,818	-200,000	-0,034	0,180
-285,803	-200,000	-0,008	-0,073
-284,789	-23,139	0,052	-0,022
-283,774	800,000	-0,087	-0,212
-282,759	-200,000	0,002	0,070
-281,745	237,059	-0,110	-0,131
-280,730	147,373	-0,050	-0,049
-279,716	-200,000	-0,001	0,067
-278,701	-15,282	0,117	-0,054
-277,686	800,000	-0,051	0,118
-276,672	18,001	-0,108	0,062
-275,657	800,000	0,040	0,109
-274,643	800,000	-0,024	0,052
-273,628	-55,891	-0,158	0,050
-272,613	47,005	0,057	0,038
-271,599	221,618	-0,025	-0,029
-270,584	-200,000	0,012	0,090
-269,570	-69,214	-0,054	-0,015
-268,555	800,000	0,024	0,074
-267,540	-200,000	0,001	0,122
-266,526	113,362	0,018	-0,015
-265,511	482,269	-0,031	-0,050
-264,497	-108,813	-0,149	-0,023
-263,482	800,000	0,021	-0,044
-262,467	-78,805	0,116	-0,028
-261,453	6,404	-0,055	0,029
-260,438	500,803	0,063	0,104
-259,424	-200,000	-0,003	-0,037
-258,409	-64,199	0,073	-0,021
-257,395	134,210	0,035	0,033
-256,380	391,095	0,008	0,012
-255,365	246,837	0,023	-0,027
-254,351	-13,227	-0,071	-0,033
-253,336	233,267	0,056	0,066
-252,322	303,910	-0,085	-0,114
-251,307	68,084	0,083	-0,061
-250,292	-113,289	-0,086	-0,012
-249,278	257,849	-0,125	0,154
-248,263	-200,000	0,002	0,026
-247,249	785,396	0,047	-0,093
-246,234	-85,897	-0,099	0,022
-245,219	263,397	0,052	0,064
-244,205	800,000	0,053	-0,111
-243,190	-200,000	0,012	0,054
-242,176	667,381	-0,047	-0,086
-241,161	-30,691	0,172	0,069
-240,146	-37,755	0,138	-0,052
-239,132	-86,666	-0,081	0,018
-238,117	-97,126	-0,173	-0,032
-237,103	-200,000	-0,056	0,000
-236,088	-200,000	0,008	0,064
-235,073	-200,000	0,006	0,095
-234,059	-200,000	0,012	0,286
-233,044	-112,186	-0,130	0,018
-232,030	165,916	-0,082	0,083
-231,015	-102,217	0,041	-0,007
-230,000	-58,842	0,089	0,027
-228,986	-12,589	-0,083	-0,039
-227,971	-25,749	0,073	-0,031
-226,957	327,240	0,051	-0,070
-225,942	227,487	0,079	-0,092
-224,927	153,123	0,111	-0,109
-223,913	-200,000	-0,010	-0,128
-222,898	-200,000	-0,002	-0,029
-221,884	-108,956	0,050	0,008
-220,869	221,657	-0,038	-0,044
-219,855	262,605	-0,042	0,053
-218,840	-32,711	-0,116	0,046
-217,825	-67,061	-0,048	0,013
-216,811	-144,082	-0,059	0,004
-215,796	22,846	0,036	0,021
-214,782	-105,697	-0,136	-0,022
-213,767	800,000	0,052	0,105
-212,752	-116,191	0,115	-0,015
-211,738	-54,779	0,037	-0,012
-210,723	800,000	0,022	-0,048
-209,709	-81,363	-0,141	-0,033
-208,694	278,177	-0,104	-0,133
-207,679	5,645	-0,070	0,037
-206,665	-113,556	0,139	-0,019
-205,650	54,555	-0,041	-0,028
-204,636	-105,977	0,145	0,023
-203,621	78,755	0,066	-0,051
-202,606	322,539	0,033	-0,045
-201,592	800,000	0,020	0,054
-200,577	-200,000	-0,012	-0,082
-199,563	332,338	0,043	0,060
-198,548	800,000	-0,024	0,069
-197,533	427,873	-0,042	0,065
-196,519	146,291	0,148	0,142
-195,504	-4,585	-0,095	-0,047
-194,490	-200,000	-0,005	-0,117
-193,475	353,657	-0,063	-0,089
-192,460	24,577	0,032	-0,019
-191,446	-163,130	0,044	-0,001
-190,431	-86,768	-0,051	0,011
-189,417	-150,124	-0,048	0,003
-188,402	800,000	0,006	-0,019
-187,387	714,413	-0,040	0,077
-186,373	-126,692	0,057	0,006
-185,358	42,190	0,077	-0,050
-184,344	-55,886	0,143	-0,045
-183,329	190,976	0,027	-0,029
-182,315	800,000	-0,019	0,061
-181,300	-1,184	-0,133	0,067
-180,285	475,847	0,100	-0,161
-179,271	-200,000	0,020	-0,096
-178,256	19,733	0,123	0,070
-177,242	-200,000	-0,009	-0,055
-176,227	70,981	-0,009	-0,007
-175,212	251,035	0,012	-0,015
-174,198	117,789	-0,023	0,020
-173,183	-200,000	-0,029	0,133
-172,169	-22,681	-0,121	0,052
-171,154	800,000	-0,043	-0,131
-170,139	-200,000	-0,003	0,065
-169,125	-142,871	-0,033	-0,002
-168,110	609,614	0,048	0,086
-167,096	109,932	0,051	-0,044
-166,081	-93,331	-0,082	0,016
-165,066	-129,305	-0,132	0,013
-164,052	281,162	0,071	0,090
-163,037	277,666	0,061	0,077
-162,023	243,527	0,064	0,076
-161,008	-23,582	-0,054	-0,023
-159,993	-76,929	-0,087	-0,021
-158,979	-200,000	0,015	0,081
-157,964	-200,000	0,011	-0,121
-156,950	-76,727	0,064	-0,016
-155,935	136,223	0,117	0,108
-154,920	-200,000	-0,010	0,195
-153,906	-142,437	0,124	0,009
-152,891	-165,760	-0,123	0,004
-151,877	38,093	0,034	-0,022
-150,862	4,867	0,030	0,016
-149,847	-120,014	0,051	0,006
-148,833	2,523	0,039	-0,020
-147,818	800,000	-0,022	0,057
-146,804	-82,646	0,154	-0,035
-145,789	421,599	0,049	0,075
-144,775	-200,000	0,013	-0,123
-143,760	-200,000	-0,028	-0,092
-142,745	-200,000	0,067	-0,235
-141,731	157,417	0,060	0,059
-140,716	131,744	-0,074	-0,068
-139,702	800,000	-0,052	-0,159
-138,687	-200,000	0,007	-0,075
-137,672	-146,582	-0,091	0,006
-136,658	57,173	0,042	-0,029
-135,643	-200,000	-0,007	-0,157
-134,629	19,063	0,032	-0,018
-133,614	341,263	-0,052	-0,073
-132,599	108,164	-0,059	0,050
-131,585	-126,939	0,141	-0,015
-130,570	-82,435	-0,112	-0,026
-129,556	-21,113	-0,065	0,028
-128,541	323,127	-0,031	-0,043
-127,526	86,279	0,047	-0,037
-126,512	335,087	0,067	0,092
-125,497	299,638	0,050	-0,065
-124,483	255,207	-0,050	0,061
-123,468	86,645	0,038	-0,030
-122,453	729,508	-0,072	-0,138
-121,439	58,950	-0,061	0,043
-120,424	-99,464	-0,123	0,022
-119,410	147,070	-0,045	-0,043
