DTS Sentinel unit serial number:	SN410029Multiplexer serial number:	ORYXHardware model number:	OX2-SRSoftware version number:	ORYX F/W v4,00 Oryx Data Collector v3.7.2.0data status	okinstallation	BH3 CH2differential loss correction	single-endedforward channel	channel 2reverse channel	N/Adate	2023/12/06time	01:57:28forward acquisition time	300,00reverse acquisition time	0,00gamma	499,1914k internal	0,3197k external	0,3197temperature offset calibration	1,0000default loss term (dB/km)	0,3820temperature slope calibration	1,0000multiplexer offset coefficient	1,0000multiplexer slope coefficient	1,0000fibre end	0,00T internal ref (°C)	9,12T ext. ref 1 (°C)	-5,79T ext. ref 2 (°C)	-5,86length (m)	temperature (°C)	Stokes	anti-Stokes-744,400	-200,000	-0,021	-0,098
-743,385	192,050	-0,207	0,228
-742,371	-200,000	-0,005	-0,168
-741,356	-45,823	-0,294	0,105
-740,342	-141,779	0,069	-0,005
-739,327	18,049	-0,191	0,110
-738,312	-200,000	-0,063	-0,206
-737,298	97,541	-0,232	0,194
-736,283	800,000	-0,050	-0,147
-735,269	485,933	-0,171	0,285
-734,254	800,000	0,032	0,089
-733,239	-115,514	-0,464	0,063
-732,225	2,999	0,071	-0,037
-731,210	-200,000	-0,028	0,140
-730,196	252,396	-0,066	-0,082
-729,181	166,664	0,045	0,047
-728,167	800,000	-0,035	0,075
-727,152	-53,432	0,042	-0,014
-726,137	800,000	0,070	-0,153
-725,123	242,683	0,034	-0,041
-724,108	-115,662	0,122	-0,017
-723,094	-179,985	-0,079	0,001
-722,079	-132,387	0,061	-0,006
-721,064	-67,821	0,032	-0,009
-720,050	71,667	-0,078	0,059
-719,035	-200,000	0,001	0,097
-718,021	145,795	-0,053	0,052
-717,006	-109,538	-0,094	0,014
-715,991	-49,143	-0,169	-0,058
-714,977	800,000	-0,041	-0,102
-713,962	-45,580	0,075	-0,027
-712,948	-200,000	0,032	0,181
-711,933	-200,000	-0,008	0,027
-710,918	-200,000	-0,035	-0,151
-709,904	-78,134	-0,045	0,011
-708,889	126,903	-0,097	-0,089
-707,875	-29,411	0,125	0,052
-706,860	614,638	-0,052	-0,096
-705,845	162,122	-0,060	-0,061
-704,831	-200,000	-0,017	-0,104
-703,816	41,942	0,040	0,026
-702,802	-200,000	-0,001	0,073
-701,787	-200,000	-0,032	-0,134
-700,772	-200,000	-0,029	-0,094
-699,758	57,924	-0,049	0,035
-698,743	-200,000	0,007	-0,049
-697,729	-200,000	-0,009	0,041
-696,714	-200,000	0,034	0,110
-695,699	-95,747	-0,132	-0,025
-694,685	165,599	0,029	0,030
-693,670	46,089	-0,014	-0,010
-692,656	138,380	0,036	0,034
-691,641	800,000	-0,033	-0,100
-690,627	-86,710	0,052	0,012
-689,612	124,821	-0,037	-0,034
-688,597	278,194	0,058	-0,076
-687,583	800,000	-0,045	-0,144
-686,568	277,743	-0,033	0,043
-685,554	-82,913	-0,124	-0,029
-684,539	800,000	-0,033	0,092
-683,524	134,301	0,047	-0,044
-682,510	-200,000	-0,013	-0,079
-681,495	8,903	-0,041	-0,022
-680,481	153,438	-0,089	-0,089
-679,466	-90,864	-0,125	-0,026
-678,451	91,925	-0,047	0,038
-677,437	162,449	-0,028	-0,028
-676,422	-200,000	0,010	0,068
-675,408	39,279	0,096	-0,062
-674,393	479,644	-0,027	0,045
-673,378	800,000	-0,048	-0,127
-672,364	89,785	-0,113	-0,092
-671,349	-200,000	0,006	-0,022
-670,335	726,421	-0,075	-0,146
-669,320	751,829	-0,050	0,098
-668,305	-200,000	-0,005	0,068
-667,291	97,515	-0,079	-0,066
-666,276	479,262	0,071	-0,117
-665,262	291,631	-0,135	-0,178
-664,247	61,991	-0,062	0,045
-663,232	567,830	-0,011	-0,020
-662,218	221,406	-0,097	-0,113
-661,203	20,974	-0,065	0,038
-660,189	-200,000	0,013	0,096
-659,174	245,357	-0,024	0,030
-658,159	-200,000	0,001	-0,059
-657,145	-60,289	-0,132	-0,040
-656,130	9,378	0,055	0,030
-655,116	75,196	0,072	-0,055
-654,101	65,587	-0,144	0,106
-653,086	96,103	0,125	0,104
-652,072	48,087	-0,049	0,033
-651,057	-97,096	-0,096	-0,018
-650,043	211,344	0,053	-0,060
-649,028	800,000	-0,046	-0,129
-648,014	382,225	0,020	0,031
-646,999	800,000	0,073	0,158
-645,984	149,289	-0,124	-0,121
-644,970	374,960	0,061	-0,090
-643,955	-80,426	-0,044	-0,011
-642,941	800,000	-0,071	-0,191
-641,926	-56,372	0,129	0,041
-640,911	470,027	-0,081	0,132
-639,897	407,395	-0,049	-0,076
-638,882	800,000	-0,030	-0,089
-637,868	-9,425	-0,165	0,080
-636,853	-197,462	-0,172	-0,001
-635,838	-140,109	0,065	0,005
-634,824	761,494	-0,054	-0,107
-633,809	800,000	0,018	0,054
-632,795	-54,032	0,070	-0,023
-631,780	-189,654	0,106	-0,001
-630,765	-21,401	-0,117	-0,051
-629,751	317,223	0,029	0,040
-628,736	80,960	0,064	0,050
-627,722	68,053	-0,068	0,050
-626,707	-200,000	-0,008	0,239
-625,692	800,000	-0,010	0,032
-624,678	-200,000	0,000	0,133
-623,663	370,732	-0,024	0,035
-622,649	110,888	-0,145	0,126
-621,634	-200,000	-0,009	-0,065
-620,619	94,927	-0,090	0,075
-619,605	-60,205	-0,039	-0,012
-618,590	-67,051	-0,052	-0,015
-617,576	800,000	0,035	0,098
-616,561	65,257	-0,076	0,055
-615,546	800,000	0,052	0,106
-614,532	-65,212	-0,064	-0,019
-613,517	800,000	-0,030	-0,079
-612,503	176,753	-0,053	-0,056
-611,488	-200,000	0,023	0,121
-610,474	-200,000	0,025	0,133
-609,459	-200,000	0,029	0,113
-608,444	-101,805	-0,080	-0,014
-607,430	136,539	-0,037	-0,035
-606,415	342,288	-0,077	-0,109
-605,401	242,491	-0,107	-0,130
-604,386	583,840	0,081	-0,145
-603,371	355,503	0,025	0,037
-602,357	548,418	-0,038	-0,065
-601,342	490,204	-0,084	-0,140
-600,328	55,109	-0,111	-0,077
-599,313	-114,550	-0,094	0,013
-598,298	660,292	-0,068	-0,127
-597,284	-49,024	-0,039	0,013
-596,269	295,836	0,034	-0,045
-595,255	117,699	-0,022	-0,019
-594,240	-200,000	-0,002	-0,020
-593,225	103,310	0,102	-0,086
-592,211	-12,512	-0,094	-0,044
-591,196	-30,404	-0,053	0,021
-590,182	-1,065	-0,037	0,019
-589,167	-20,448	0,029	0,013
-588,152	-135,851	0,113	-0,009
-587,138	312,206	-0,048	-0,066
-586,123	627,776	0,034	-0,063
-585,109	53,046	0,052	-0,036
-584,094	23,576	-0,089	-0,053
-583,079	-200,000	-0,023	-0,106
-582,065	149,817	0,024	0,024
-581,050	-200,000	-0,041	-0,152
-580,036	2,342	-0,022	-0,012
-579,021	-79,236	-0,061	0,015
-578,006	-200,000	0,018	0,121
-576,992	800,000	0,013	0,036
-575,977	-200,000	0,004	0,067
-574,963	-19,698	0,071	0,032
-573,948	800,000	0,006	0,018
-572,934	-200,000	0,010	-0,088
-571,919	800,000	-0,114	-0,281
-570,904	-200,000	0,020	0,116
-569,890	-200,000	-0,002	-0,036
-568,875	-143,860	0,042	0,003
-567,861	-200,000	0,018	0,140
-566,846	-130,929	0,088	0,008
-565,831	-200,000	-0,002	0,097
-564,817	-200,000	0,021	0,106
-563,802	93,974	-0,127	-0,104
-562,788	299,754	-0,080	-0,107
-561,773	70,792	0,031	-0,023
-560,758	693,462	0,046	0,087
-559,744	-149,317	-0,078	-0,004
-558,729	-18,116	0,016	0,007
-557,715	-133,819	-0,157	0,014
-556,700	-65,051	-0,028	0,008
-555,685	55,097	-0,046	0,032
-554,671	800,000	0,017	0,045
-553,656	-126,127	-0,077	-0,008
-552,642	-109,541	0,031	-0,005
-551,627	-200,000	-0,002	-0,042
-550,612	58,088	-0,114	-0,081
-549,598	391,703	-0,045	-0,068
-548,583	800,000	-0,042	-0,124
-547,569	255,607	0,064	0,080
-546,554	-200,000	0,017	0,085
-545,539	800,000	0,051	0,124
-544,525	242,377	-0,094	0,114
-543,510	-94,638	-0,028	0,005
-542,496	-105,343	-0,100	-0,016
-541,481	-53,522	-0,069	-0,023
-540,466	132,975	0,078	0,073
-539,452	45,099	-0,138	0,092
-538,437	256,445	0,064	0,080
-537,423	-200,000	0,050	0,182
-536,408	-132,030	0,034	-0,003
-535,393	-200,000	0,012	-0,042
-534,379	-200,000	-0,015	0,063
-533,364	-200,000	-0,013	0,079
-532,350	201,811	-0,044	-0,049
-531,335	312,284	-0,038	0,052
-530,321	-14,467	-0,078	0,036
-529,306	-200,000	-0,006	0,021
-528,291	12,809	0,120	-0,067
-527,277	800,000	-0,060	-0,123
-526,262	-200,000	-0,012	0,066
-525,248	155,834	-0,049	0,049
-524,233	-200,000	-0,001	-0,009
-523,218	41,864	0,144	-0,094
-522,204	-145,791	0,046	-0,003
-521,189	363,448	-0,072	-0,105
-520,175	-18,307	0,088	0,040
-519,160	-79,227	-0,091	0,022
-518,145	-11,810	0,041	-0,019
-517,131	408,086	0,008	0,012
-516,116	-115,347	-0,101	-0,014
-515,102	800,000	-0,038	0,103
-514,087	-44,930	0,120	-0,043
-513,072	574,853	0,036	-0,064
-512,058	-69,967	-0,051	0,014
-511,043	141,448	0,088	-0,085
-510,029	-47,711	0,080	0,028
-509,014	-0,608	-0,100	0,051
-507,999	-200,000	0,051	0,172
-506,985	-200,000	-0,009	-0,045
-505,970	800,000	-0,014	-0,042
-504,956	-116,616	-0,113	-0,015
-503,941	-111,545	0,068	0,010
-502,926	-140,701	0,106	-0,008
-501,912	20,449	0,138	-0,081
-500,897	33,162	0,005	0,003
-499,883	206,685	0,132	0,149
-498,868	-115,533	-0,222	-0,030
-497,853	-200,000	-0,009	-0,111
-496,839	73,579	0,100	-0,075
-495,824	-6,301	0,092	0,045
-494,810	800,000	-0,075	0,199
-493,795	-200,000	-0,018	0,125
-492,781	140,416	0,077	0,074
-491,766	-119,758	-0,078	-0,010
-490,751	-200,000	-0,024	-0,154
-489,737	530,556	-0,023	0,039
-488,722	800,000	-0,023	-0,059
-487,708	-200,000	-0,001	0,075
-486,693	252,224	0,043	-0,053
-485,678	279,202	-0,047	0,060
-484,664	605,193	0,087	-0,158
-483,649	122,467	-0,019	0,017
-482,635	800,000	0,055	-0,118
-481,620	-32,255	-0,105	0,042
-480,605	37,944	0,070	-0,044
-479,591	-38,080	-0,116	-0,044
-478,576	309,291	-0,040	0,055
-477,562	-105,153	0,106	-0,017
-476,547	-47,897	0,023	-0,008
-475,532	-1,137	0,095	0,048
-474,518	479,955	0,041	-0,067
-473,503	15,388	0,050	0,028
-472,489	254,389	0,050	-0,062
-471,474	-200,000	0,001	0,008
-470,459	-125,195	-0,085	-0,009
-469,445	187,639	0,043	0,047
-468,430	-14,768	0,046	-0,021
-467,416	-200,000	-0,002	0,197
-466,401	138,398	0,050	-0,047
-465,386	275,349	0,081	0,104
-464,372	800,000	0,019	0,047
-463,357	800,000	-0,072	-0,145
-462,343	127,123	-0,160	-0,147
-461,328	800,000	0,051	-0,162
-460,313	15,241	0,110	0,062
-459,299	250,314	0,033	0,040
-458,284	-200,000	0,007	0,092
-457,270	551,097	-0,087	0,151
-456,255	-150,782	-0,008	-0,000
-455,241	661,823	-0,057	0,106
-454,226	30,951	-0,008	-0,005
-453,211	132,655	-0,032	-0,029
-452,197	89,156	0,034	-0,028
-451,182	595,058	-0,052	0,094
-450,168	-10,554	0,167	-0,079
-449,153	15,516	-0,077	-0,043
-448,138	101,887	0,032	0,027
-447,124	-12,018	-0,167	-0,078
-446,109	-200,000	0,011	0,143
-445,095	-50,765	0,135	0,045
-444,080	-9,227	-0,097	0,046
-443,065	-55,118	0,071	-0,023
-442,051	-200,000	0,129	0,000
-441,036	-200,000	-0,004	-0,131
-440,022	-77,885	0,023	0,006
-439,007	800,000	-0,004	0,008
-437,992	-133,460	-0,098	0,009
-436,978	800,000	-0,017	0,041
-435,963	201,582	0,107	0,119
-434,949	225,625	0,041	0,048
-433,934	29,744	0,106	-0,065
-432,919	126,446	0,025	-0,022
-431,905	-200,000	0,019	0,166
-430,890	800,000	-0,043	0,120
-429,876	5,858	-0,016	-0,008
-428,861	-137,184	-0,140	0,011
-427,846	128,595	-0,023	0,021
-426,832	279,519	0,009	-0,011
-425,817	574,012	-0,072	-0,127
-424,803	800,000	-0,039	-0,089
-423,788	-115,404	-0,053	-0,007
-422,773	59,778	0,102	0,072
-421,759	172,773	-0,068	0,071
-420,744	221,996	0,059	0,068
-419,730	5,066	-0,082	0,043
-418,715	102,612	-0,197	-0,166
-417,701	5,179	-0,052	0,027
-416,686	800,000	0,027	0,055
-415,671	237,068	0,058	-0,069
-414,657	57,141	-0,060	0,042
-413,642	39,934	0,132	-0,085
-412,628	481,558	-0,089	0,145
-411,613	800,000	0,052	0,121
-410,598	741,880	-0,041	-0,080
-409,584	73,905	-0,095	0,072
-408,569	243,718	-0,059	0,072
-407,555	-200,000	-0,013	-0,045
-406,540	-200,000	0,009	-0,073
-405,525	-200,000	-0,021	-0,117
-404,511	-200,000	0,034	-0,116
-403,496	-132,697	0,058	0,005
-402,482	100,909	-0,159	0,132
-401,467	332,029	0,041	-0,057
-400,452	8,786	0,066	-0,035
-399,438	-200,000	-0,003	0,025
-398,423	-25,815	0,050	-0,021
-397,409	-5,324	0,068	-0,033
-396,394	26,778	-0,140	-0,084
-395,379	-107,042	0,129	-0,020
-394,365	-200,000	0,176	0,000
-393,350	-200,000	-0,033	0,189
-392,336	-101,971	0,018	0,003
-391,321	189,780	0,038	0,041
-390,306	231,103	-0,025	-0,029
-389,292	322,938	-0,021	0,029
-388,277	-200,000	-0,026	-0,121
-387,263	-200,000	-0,010	0,067
-386,248	140,982	-0,021	0,020
-385,233	800,000	0,054	-0,127
-384,219	165,244	-0,044	0,044
-383,204	441,309	0,025	0,039
-382,190	119,218	0,072	-0,064
-381,175	-200,000	-0,025	0,091
-380,160	-200,000	-0,025	0,100
-379,146	-191,955	0,159	-0,001
-378,131	800,000	-0,037	0,108
-377,117	248,331	-0,056	-0,068
-376,102	183,222	0,019	0,020
-375,088	-200,000	-0,005	-0,141
-374,073	464,585	0,016	0,026
-373,058	-140,896	0,092	-0,007
-372,044	-115,040	0,116	-0,016
-371,029	-126,945	-0,177	-0,018
-370,015	-91,338	-0,164	0,033
-369,000	3,537	-0,063	-0,033
-367,985	-200,000	-0,034	-0,121
-366,971	192,801	0,018	0,019
-365,956	-126,113	0,079	0,008
-364,942	144,502	0,089	0,086
-363,927	-200,000	-0,007	-0,055
-362,912	-200,000	0,023	0,099
-361,898	-200,000	-0,018	-0,087
-360,883	-200,000	0,006	0,060
-359,869	-200,000	0,012	0,069
-358,854	176,811	-0,034	-0,036
-357,839	109,204	0,034	0,029
-356,825	-200,000	0,062	0,220
-355,810	247,008	0,105	-0,127
-354,796	-200,000	-0,016	0,111
-353,781	-200,000	0,011	-0,121
-352,766	-200,000	-0,038	0,000
-351,752	577,263	-0,072	0,128
-350,737	-13,924	0,087	0,040
-349,723	-106,363	0,091	0,014
-348,708	800,000	0,028	0,061
-347,693	-200,000	0,003	-0,109
-346,679	-78,725	-0,145	-0,035
-345,664	-200,000	-0,015	-0,074
-344,650	-88,666	0,075	0,016
-343,635	-121,612	0,156	-0,018
-342,620	385,933	-0,081	0,121
-341,606	73,610	0,039	0,030
-340,591	-93,645	0,109	-0,021
-339,577	179,707	0,035	-0,037
-338,562	169,072	-0,105	-0,108
-337,548	-200,000	-0,004	-0,046
-336,533	800,000	0,035	0,070
-335,518	800,000	0,027	-0,059
-334,504	800,000	-0,053	0,119
-333,489	-200,000	0,014	-0,073
-332,475	125,383	-0,134	0,121
-331,460	198,418	-0,059	-0,064
-330,445	105,190	0,066	-0,056
-329,431	48,121	-0,085	0,057
-328,416	-62,241	0,077	-0,023
-327,402	-200,000	-0,033	-0,133
-326,387	-6,329	0,097	0,047
-325,372	-84,659	0,053	-0,012
-324,358	60,728	-0,091	0,064
-323,343	14,275	-0,160	0,089
-322,329	194,814	-0,095	-0,104
-321,314	21,626	0,064	0,037
-320,299	800,000	0,046	-0,136
-319,285	-200,000	-0,030	-0,096
-318,270	-62,670	-0,062	-0,018
-317,256	-68,972	-0,156	0,043
-316,241	-200,000	0,007	-0,100
-315,226	-200,000	-0,009	-0,046
-314,212	350,855	0,056	-0,080
-313,197	-200,000	0,004	-0,135
-312,183	-200,000	0,031	0,108
-311,168	-88,484	-0,015	0,003
-310,153	-91,487	-0,093	-0,019
-309,139	-200,000	-0,005	0,032
-308,124	355,849	0,144	0,205
-307,110	-6,588	0,101	-0,049
-306,095	49,860	0,083	0,056
-305,080	-200,000	0,030	0,150
-304,066	67,708	0,118	-0,086
-303,051	-200,000	-0,007	-0,056
-302,037	800,000	-0,039	-0,103
-301,022	-12,854	-0,138	-0,064
-300,008	-200,000	-0,032	0,230
-298,993	-48,552	0,087	0,030
-297,978	-200,000	-0,004	-0,117
-296,964	800,000	0,038	-0,098
-295,949	-200,000	-0,001	-0,035
-294,935	623,767	-0,024	0,043
-293,920	163,172	0,100	-0,100
-292,905	26,395	0,161	0,096
-291,891	-200,000	-0,011	0,074
-290,876	86,110	0,059	0,046
-289,862	-137,584	0,076	-0,006
-288,847	-200,000	-0,009	-0,078
-287,832	34,580	0,069	0,043
-286,818	-116,041	0,044	0,006
-285,803	-46,903	0,132	0,046
-284,789	529,137	0,049	-0,083
-283,774	109,139	0,064	-0,055
-282,759	669,842	-0,009	-0,017
-281,745	38,552	-0,032	0,020
-280,730	-121,977	0,045	0,005
-279,716	-72,058	0,088	-0,023
-278,701	77,195	0,015	0,012
-277,686	603,418	0,011	-0,020
-276,672	-135,927	0,134	0,011
-275,657	-66,356	-0,102	0,029
-274,643	-200,000	0,020	-0,066
-273,628	44,037	-0,020	0,013
-272,613	-200,000	0,004	0,018
-271,599	154,242	0,036	-0,036
-270,584	-200,000	0,005	0,066
-269,570	-166,717	0,101	0,003
-268,555	77,231	-0,083	0,063
-267,540	0,547	-0,041	0,021
-266,526	-82,268	-0,141	0,033
-265,511	-200,000	-0,008	-0,146
-264,497	-103,943	0,064	-0,011
-263,482	-106,242	-0,133	-0,021
-262,467	194,099	0,077	0,083
-261,453	-21,825	0,131	-0,057
-260,438	495,765	-0,016	-0,026
-259,424	-200,000	0,001	0,183
-258,409	342,265	0,089	-0,125
-257,395	-5,082	0,012	-0,006
-256,380	23,988	-0,035	0,020
-255,365	-200,000	0,002	-0,096
-254,351	-83,801	0,157	0,036
-253,336	-138,012	-0,069	-0,005
-252,322	656,900	0,004	0,008
-251,307	33,146	-0,025	-0,016
-250,292	202,887	-0,080	-0,089
-249,278	800,000	0,043	0,086
-248,263	-200,000	-0,004	-0,036
-247,249	221,918	0,120	-0,138
-246,234	-200,000	-0,020	0,088
-245,219	800,000	-0,042	-0,124
-244,205	800,000	0,046	-0,126
-243,190	452,839	-0,048	0,075
-242,176	-175,253	-0,146	0,003
-241,161	115,210	0,079	-0,069
-240,146	800,000	0,085	0,195
-239,132	19,374	0,142	-0,081
-238,117	-171,860	-0,052	-0,001
-237,103	-200,000	0,003	-0,085
-236,088	-200,000	0,014	-0,091
-235,073	-123,032	0,198	0,022
-234,059	279,652	0,069	0,088
-233,044	-200,000	0,049	-0,185
-232,030	-200,000	-0,005	-0,074
-231,015	3,328	0,095	0,049
-230,000	800,000	-0,021	-0,052
-228,986	120,473	0,011	-0,009
-227,971	-200,000	-0,000	0,005
-226,957	-72,972	-0,115	-0,030
-225,942	800,000	0,025	-0,061
-224,927	800,000	0,039	0,103
-223,913	328,563	-0,061	0,084
-222,898	800,000	0,020	0,055
-221,884	135,242	0,032	-0,030
-220,869	-200,000	0,002	0,116
-219,855	297,647	0,150	0,197
-218,840	25,698	-0,152	0,090
-217,825	86,035	0,024	-0,019
-216,811	-200,000	0,023	-0,144
-215,796	-8,433	0,040	-0,019
-214,782	31,467	-0,059	0,036
-213,767	-25,284	0,059	0,025
-212,752	-200,000	0,047	0,156
-211,738	800,000	0,046	0,139
-210,723	-96,590	-0,048	-0,009
-209,709	-200,000	0,003	-0,155
-208,694	-120,271	-0,080	-0,010
-207,679	177,136	-0,119	-0,124
-206,665	-168,262	0,080	-0,002
-205,650	297,292	0,021	-0,027
-204,636	-200,000	-0,025	0,108
-203,621	-200,000	0,027	0,104
-202,606	-33,562	0,043	0,017
-201,592	-200,000	-0,013	0,070
-200,577	-200,000	0,002	-0,083
-199,563	39,729	-0,072	-0,046
-198,548	800,000	0,024	0,073
-197,533	40,899	0,065	0,042
-196,519	-200,000	0,007	0,039
-195,504	-59,063	-0,128	-0,039
-194,490	-200,000	-0,026	0,000
-193,475	-161,645	-0,142	-0,005
-192,460	396,945	0,040	-0,059
-191,446	-91,901	0,104	-0,021
-190,431	800,000	-0,051	0,126
-189,417	-179,687	-0,014	-0,000
-188,402	427,101	0,072	0,111
-187,387	-132,588	-0,166	-0,015
-186,373	120,595	0,078	-0,069
-185,358	800,000	0,043	-0,112
-184,344	-93,067	-0,053	-0,010
-183,329	69,116	-0,102	0,075
-182,315	707,423	-0,072	-0,136
-181,300	267,748	0,050	0,063
-180,285	-200,000	-0,029	-0,184
-179,271	-200,000	-0,033	-0,113
-178,256	62,776	0,049	0,035
-177,242	-93,773	0,068	0,013
-176,227	-200,000	0,000	0,080
-175,212	415,016	0,044	0,067
-174,198	118,392	0,057	-0,050
-173,183	103,326	-0,031	-0,026
-172,169	-200,000	0,002	-0,143
-171,154	60,261	-0,192	-0,135
-170,139	-200,000	-0,018	-0,101
-169,125	800,000	0,035	0,101
-168,110	-200,000	0,017	0,103
-167,096	-132,049	0,067	-0,006
-166,081	800,000	0,028	0,073
-165,066	251,402	0,065	-0,079
-164,052	67,679	0,017	-0,012
-163,037	207,659	-0,037	-0,042
-162,023	160,260	0,018	0,018
-161,008	800,000	-0,044	0,092
-159,993	-92,298	0,058	0,011
-158,979	631,535	-0,073	-0,131
-157,964	363,149	0,060	-0,086
-156,950	134,263	0,065	-0,060
-155,935	-200,000	0,018	0,106
-154,920	-46,691	0,021	0,007
-153,906	-200,000	0,010	0,037
-152,891	800,000	0,017	-0,036
-151,877	-200,000	-0,020	0,073
-150,862	72,923	-0,049	-0,036
-149,847	800,000	-0,111	-0,293
-148,833	384,399	0,067	-0,099
-147,818	56,612	-0,088	0,061
-146,804	-200,000	0,015	-0,060
-145,789	-193,428	0,109	0,001
-144,775	-147,451	-0,078	-0,005
-143,760	-35,071	-0,066	-0,025
-142,745	-200,000	-0,044	-0,144
-141,731	393,370	-0,068	-0,102
-140,716	43,855	-0,056	0,037
-139,702	-200,000	-0,014	0,136
-138,687	-21,598	-0,052	-0,022
-137,672	-77,090	-0,083	0,020
-136,658	-95,573	-0,071	-0,013
-135,643	-134,598	-0,091	0,008
-134,629	-200,000	-0,022	0,111
-133,614	614,335	-0,045	0,081
-132,599	55,360	0,144	-0,099
-131,585	-7,712	0,089	0,043
-130,570	-102,757	-0,042	0,007
-129,556	800,000	-0,021	-0,058
-128,541	68,027	-0,084	-0,061
-127,526	-8,013	-0,099	-0,047
-126,512	442,735	0,087	-0,136
-125,497	-5,478	0,020	0,010
-124,483	-10,690	0,189	0,089
-123,468	-121,401	0,064	0,007
-122,453	-106,619	-0,161	-0,025
-121,439	-7,629	-0,099	0,048
-120,424	344,265	0,043	-0,060
-119,410	13,111	0,105	0,058
