DTS Sentinel unit serial number:	SN410029Multiplexer serial number:	ORYXHardware model number:	OX2-SRSoftware version number:	ORYX F/W v4,00 Oryx Data Collector v3.7.2.0data status	okinstallation	BH3 CH2differential loss correction	single-endedforward channel	channel 2reverse channel	N/Adate	2023/12/06time	00:42:28forward acquisition time	300,00reverse acquisition time	0,00gamma	499,1914k internal	0,3196k external	0,3196temperature offset calibration	1,0000default loss term (dB/km)	0,3820temperature slope calibration	1,0000multiplexer offset coefficient	1,0000multiplexer slope coefficient	1,0000fibre end	0,00T internal ref (°C)	9,37T ext. ref 1 (°C)	-5,51T ext. ref 2 (°C)	-5,58length (m)	temperature (°C)	Stokes	anti-Stokes-744,400	-3,363	-0,088	-0,044
-743,385	713,549	-0,143	0,277
-742,371	412,315	-0,019	0,030
-741,356	800,000	-0,087	0,200
-740,342	-43,705	0,115	-0,042
-739,327	187,318	-0,221	0,241
-738,312	-200,000	-0,019	-0,164
-737,298	-98,118	-0,166	0,031
-736,283	-200,000	-0,029	-0,217
-735,269	47,284	-0,215	0,145
-734,254	769,558	-0,030	-0,060
-733,239	-107,681	-0,428	-0,067
-732,225	-200,000	0,011	-0,087
-731,210	-179,224	0,039	-0,001
-730,196	141,273	0,041	0,039
-729,181	800,000	-0,029	0,079
-728,167	-200,000	0,029	-0,161
-727,152	536,939	-0,109	-0,188
-726,137	-33,799	-0,136	-0,054
-725,123	-200,000	0,002	-0,067
-724,108	-200,000	-0,046	-0,166
-723,094	-200,000	0,008	-0,057
-722,079	-33,862	0,067	-0,027
-721,064	552,943	-0,027	-0,048
-720,050	48,745	-0,151	0,103
-719,035	12,866	0,068	0,038
-718,021	800,000	-0,025	-0,053
-717,006	364,630	-0,049	-0,071
-715,991	5,211	-0,053	0,029
-714,977	29,743	0,030	-0,018
-713,962	-43,807	0,056	-0,020
-712,948	18,567	-0,117	0,068
-711,933	-56,018	0,041	0,013
-710,918	397,810	-0,116	-0,177
-709,904	-200,000	0,024	-0,167
-708,889	-67,357	-0,148	-0,042
-707,875	800,000	-0,046	-0,106
-706,860	800,000	0,036	0,080
-705,845	-86,030	0,047	-0,011
-704,831	240,877	0,055	-0,067
-703,816	-57,396	-0,062	0,020
-702,802	20,465	0,024	-0,014
-701,787	-81,843	-0,151	-0,036
-700,772	304,267	-0,115	0,156
-699,758	-99,979	-0,069	0,012
-698,743	593,334	0,008	0,015
-697,729	31,196	0,042	0,026
-696,714	-44,936	-0,050	-0,018
-695,699	800,000	0,011	0,023
-694,685	459,245	0,033	0,053
-693,670	192,734	-0,088	-0,096
-692,656	800,000	0,041	0,097
-691,641	772,733	-0,040	0,079
-690,627	800,000	-0,016	0,034
-689,612	-200,000	0,004	-0,110
-688,597	-135,432	-0,091	0,008
-687,583	-200,000	0,003	-0,044
-686,568	-114,716	0,106	0,014
-685,554	356,793	0,021	-0,031
-684,539	-69,083	0,104	0,029
-683,524	-200,000	-0,022	0,114
-682,510	378,499	-0,089	-0,133
-681,495	-200,000	0,001	-0,052
-680,481	-172,422	-0,089	-0,002
-679,466	800,000	-0,071	-0,181
-678,451	54,131	-0,013	-0,009
-677,437	36,746	0,138	0,088
-676,422	-20,940	-0,107	0,047
-675,408	-200,000	0,008	0,035
-674,393	-200,000	-0,000	0,059
-673,378	-163,477	-0,075	-0,003
-672,364	-34,162	0,067	-0,027
-671,349	565,979	-0,053	-0,095
-670,335	220,094	-0,020	0,024
-669,320	-162,446	0,108	-0,004
-668,305	-200,000	-0,016	0,057
-667,291	-3,866	-0,025	-0,012
-666,276	-200,000	-0,023	-0,121
-665,262	-200,000	-0,004	-0,224
-664,247	285,360	-0,057	-0,074
-663,232	-200,000	0,107	-0,000
-662,218	-198,319	0,167	0,001
-661,203	29,334	-0,035	0,022
-660,189	456,581	-0,068	0,109
-659,174	-200,000	0,006	-0,040
-658,159	24,766	-0,061	-0,036
-657,145	-200,000	-0,001	0,174
-656,130	66,987	0,008	0,006
-655,116	-55,886	-0,056	-0,018
-654,101	-96,434	0,021	-0,004
-653,086	800,000	-0,038	0,094
-652,072	-74,952	0,127	-0,033
-651,057	-32,049	-0,111	-0,045
-650,043	-200,000	0,017	-0,239
-649,028	-112,121	0,041	-0,006
-648,014	-200,000	-0,002	0,009
-646,999	158,709	0,030	0,030
-645,984	-200,000	0,024	0,107
-644,970	-110,437	-0,093	-0,014
-643,955	-200,000	0,024	-0,135
-642,941	288,227	-0,073	-0,096
-641,926	74,557	0,065	0,049
-640,911	363,023	-0,048	0,071
-639,897	40,813	-0,015	-0,010
-638,882	-74,698	-0,044	0,011
-637,868	800,000	-0,043	0,101
-636,853	352,886	0,048	-0,069
-635,838	-63,535	0,013	0,004
-634,824	800,000	-0,041	-0,096
-633,809	85,703	0,034	-0,027
-632,795	800,000	0,020	-0,043
-631,780	130,455	0,034	0,031
-630,765	800,000	0,079	0,176
-629,751	106,482	-0,103	-0,089
-628,736	-200,000	0,016	-0,203
-627,722	-0,208	-0,079	-0,040
-626,707	548,772	0,060	0,105
-625,692	-65,409	0,070	0,020
-624,678	-111,048	0,049	-0,007
-623,663	-200,000	-0,023	-0,181
-622,649	-200,000	-0,001	0,036
-621,634	146,339	0,051	-0,050
-620,619	75,271	-0,105	-0,080
-619,605	266,566	-0,064	0,082
-618,590	526,094	-0,071	-0,122
-617,576	61,974	-0,124	0,089
-616,561	493,691	-0,081	0,136
-615,546	-200,000	0,001	-0,017
-614,532	-200,000	0,010	-0,085
-613,517	-200,000	-0,064	0,000
-612,503	554,580	-0,075	-0,132
-611,488	-112,338	0,062	0,009
-610,474	-43,333	0,143	-0,052
-609,459	46,321	0,090	-0,060
-608,444	279,330	-0,107	-0,139
-607,430	800,000	-0,037	0,113
-606,415	36,760	0,049	0,031
-605,401	-96,348	-0,057	-0,011
-604,386	26,379	-0,004	-0,002
-603,371	-89,439	0,068	-0,014
-602,357	-133,641	-0,092	-0,008
-601,342	-74,457	-0,064	-0,017
-600,328	265,344	-0,132	-0,167
-599,313	-39,323	-0,112	0,042
-598,298	-200,000	0,001	-0,121
-597,284	-97,411	0,153	0,029
-596,269	239,806	0,070	-0,085
-595,255	800,000	-0,086	-0,174
-594,240	140,188	-0,096	-0,092
-593,225	209,131	-0,129	-0,146
-592,211	-39,389	0,028	0,011
-591,196	-200,000	0,010	-0,109
-590,182	-52,910	0,028	0,009
-589,167	-7,749	-0,070	0,034
-588,152	-15,537	-0,046	-0,021
-587,138	800,000	0,028	0,074
-586,123	169,249	-0,084	0,087
-585,109	-69,946	0,126	0,034
-584,094	93,151	0,031	0,026
-583,079	70,222	-0,022	-0,017
-582,065	167,462	0,071	0,073
-581,050	-200,000	-0,047	0,185
-580,036	-6,244	0,107	0,053
-579,021	-82,740	-0,106	0,025
-578,006	800,000	0,022	0,061
-576,992	61,854	-0,080	-0,058
-575,977	-200,000	0,020	0,167
-574,963	1,277	0,099	0,051
-573,948	121,849	0,087	0,079
-572,934	-199,775	-0,053	-0,000
-571,919	520,082	0,056	-0,095
-570,904	-119,264	0,049	-0,006
-569,890	-200,000	-0,029	-0,194
-568,875	-200,000	-0,007	0,029
-567,861	-72,530	0,084	-0,022
-566,846	-18,475	-0,036	-0,016
-565,831	-85,482	-0,043	0,010
-564,817	800,000	-0,045	-0,102
-563,802	183,863	-0,024	-0,025
-562,788	524,536	0,027	-0,047
-561,773	256,913	0,043	0,054
-560,758	-200,000	0,055	0,244
-559,744	-200,000	0,008	0,034
-558,729	626,180	0,071	-0,130
-557,715	800,000	0,012	0,034
-556,700	-119,337	-0,107	-0,013
-555,685	-22,499	0,165	-0,072
-554,671	-200,000	-0,008	0,029
-553,656	-71,254	0,048	-0,013
-552,642	189,473	-0,143	0,155
-551,627	-86,785	-0,066	-0,014
-550,612	-53,562	-0,093	0,031
-549,598	-200,000	-0,033	0,114
-548,583	800,000	-0,043	0,130
-547,569	15,717	-0,036	0,020
-546,554	72,898	0,015	-0,011
-545,539	800,000	0,036	-0,072
-544,525	-200,000	0,026	-0,085
-543,510	-61,990	-0,117	0,035
-542,496	-69,283	0,148	0,041
-541,481	-96,520	0,171	-0,032
-540,466	800,000	-0,036	0,110
-539,452	72,660	0,027	-0,020
-538,437	95,927	0,018	0,015
-537,423	359,975	-0,107	0,155
-536,408	-200,000	-0,014	0,082
-535,393	74,436	0,107	0,081
-534,379	-200,000	0,026	-0,099
-533,364	580,857	-0,040	-0,072
-532,350	-200,000	-0,004	0,211
-531,335	-200,000	0,039	0,127
-530,321	-122,149	0,091	-0,011
-529,306	-36,651	0,089	-0,034
-528,291	-200,000	-0,008	-0,037
-527,277	-156,524	-0,160	-0,007
-526,262	-200,000	0,012	-0,102
-525,248	38,381	0,093	0,059
-524,233	800,000	-0,029	-0,069
-523,218	-79,593	0,077	-0,019
-522,204	2,388	-0,053	-0,028
-521,189	800,000	-0,069	-0,194
-520,175	15,914	-0,115	-0,065
-519,160	-200,000	-0,013	0,078
-518,145	128,848	-0,006	-0,005
-517,131	-200,000	0,002	0,056
-516,116	800,000	-0,031	0,084
-515,102	-66,943	-0,060	0,017
-514,087	-41,681	-0,135	-0,050
-513,072	-200,000	0,010	-0,088
-512,058	-200,000	0,008	-0,039
-511,043	-1,650	-0,063	-0,032
-510,029	-200,000	0,015	0,145
-509,014	800,000	0,033	0,084
-507,999	269,286	0,043	-0,054
-506,985	-116,165	-0,171	-0,023
-505,970	-134,461	0,083	0,007
-504,956	-155,110	-0,066	-0,003
-503,941	173,349	0,073	0,076
-502,926	-95,354	0,028	-0,005
-501,912	-154,969	0,073	-0,003
-500,897	-13,561	-0,052	-0,024
-499,883	-200,000	-0,001	-0,076
-498,868	617,964	-0,029	0,053
-497,853	-200,000	0,015	-0,117
-496,839	-90,512	0,188	0,039
-495,824	249,596	0,032	-0,040
-494,810	-54,815	0,104	-0,034
-493,795	7,061	-0,071	-0,038
-492,781	-200,000	0,000	-0,162
-491,766	123,191	-0,097	0,088
-490,751	169,634	-0,023	0,024
-489,737	-200,000	0,005	-0,058
-488,722	239,795	0,090	0,109
-487,708	-200,000	0,009	-0,099
-486,693	-64,453	-0,049	-0,014
-485,678	-166,133	0,057	-0,002
-484,664	121,376	-0,098	-0,088
-483,649	-144,688	0,149	0,010
-482,635	-200,000	-0,003	-0,066
-481,620	653,323	-0,025	-0,046
-480,605	37,629	0,059	0,038
-479,591	800,000	0,026	0,069
-478,576	58,620	0,015	0,010
-477,562	800,000	0,093	-0,189
-476,547	71,472	-0,062	0,046
-475,532	71,226	0,084	-0,063
-474,518	384,903	0,140	-0,208
-473,503	800,000	0,026	-0,072
-472,489	-200,000	0,027	-0,088
-471,474	-111,811	-0,094	-0,014
-470,459	-200,000	-0,008	-0,187
-469,445	-128,307	0,028	0,003
-468,430	800,000	-0,005	-0,013
-467,416	258,252	0,101	0,125
-466,401	98,285	0,204	-0,169
-465,386	-40,807	0,030	-0,011
-464,372	800,000	0,036	0,072
-463,357	-57,139	-0,126	-0,040
-462,343	465,999	-0,037	0,061
-461,328	-66,839	-0,070	-0,020
-460,313	-112,178	-0,059	0,008
-459,299	800,000	0,034	0,105
-458,284	116,682	0,098	-0,087
-457,270	-150,202	0,087	0,005
-456,255	565,218	-0,019	0,033
-455,241	-152,070	-0,092	-0,005
-454,226	-104,809	-0,145	-0,024
-453,211	158,521	0,135	-0,135
-452,197	-11,762	-0,128	0,060
-451,182	94,079	0,010	0,008
-450,168	-200,000	0,014	-0,077
-449,153	39,952	-0,053	0,034
-448,138	730,284	-0,050	0,097
-447,124	-103,090	-0,021	-0,004
-446,109	2,297	-0,111	-0,057
-445,095	-73,159	0,142	0,037
-444,080	-200,000	-0,007	0,133
-443,065	321,436	0,039	-0,053
-442,051	-200,000	-0,029	-0,103
-441,036	800,000	0,063	-0,170
-440,022	-200,000	-0,012	-0,128
-439,007	143,007	-0,074	-0,071
-437,992	-141,600	0,011	-0,001
-436,978	193,719	0,048	-0,053
-435,963	-117,738	-0,035	-0,004
-434,949	56,573	0,040	-0,028
-433,934	106,083	0,045	0,038
-432,919	-129,609	-0,055	-0,005
-431,905	210,980	0,037	0,042
-430,890	-200,000	0,033	-0,151
-429,876	-55,054	0,117	0,038
-428,861	147,939	-0,024	0,024
-427,846	800,000	-0,054	0,122
-426,832	181,989	-0,018	-0,019
-425,817	501,974	0,042	0,070
-424,803	437,935	-0,062	-0,097
-423,788	130,242	0,076	0,070
-422,773	-200,000	-0,016	0,062
-421,759	-22,025	-0,089	-0,039
-420,744	344,879	0,054	0,076
-419,730	-16,970	-0,086	-0,039
-418,715	-145,727	-0,070	-0,004
-417,701	102,441	-0,107	0,090
-416,686	330,683	-0,068	-0,095
-415,671	122,797	0,070	-0,063
-414,657	-43,358	0,094	0,034
-413,642	49,742	-0,043	0,029
-412,628	32,627	0,072	-0,045
-411,613	-200,000	-0,024	-0,127
-410,598	800,000	-0,028	-0,086
-409,584	800,000	-0,072	0,175
-408,569	451,815	-0,079	0,126
-407,555	-28,770	0,134	0,055
-406,540	-63,727	0,019	0,006
-405,525	-96,287	-0,102	0,019
-404,511	-183,080	-0,081	0,001
-403,496	-117,630	0,067	-0,009
-402,482	-169,615	0,018	0,000
-401,467	-6,437	0,102	0,050
-400,452	800,000	-0,034	0,082
-399,438	-200,000	0,044	0,160
-398,423	-111,416	-0,016	0,002
-397,409	538,335	-0,071	-0,121
-396,394	-200,000	-0,013	0,150
-395,379	800,000	-0,010	-0,027
-394,365	-144,462	-0,013	-0,001
-393,350	-41,728	0,037	0,014
-392,336	-200,000	-0,003	-0,028
-391,321	-14,578	-0,142	-0,065
-390,306	-80,163	-0,062	-0,015
-389,292	-200,000	-0,014	-0,079
-388,277	-200,000	0,001	-0,023
-387,263	209,186	-0,031	-0,035
-386,248	-200,000	0,003	0,109
-385,233	319,626	0,096	0,131
-384,219	-200,000	-0,020	-0,101
-383,204	-200,000	-0,015	-0,204
-382,190	-143,256	-0,185	-0,013
-381,175	-112,548	0,066	-0,009
-380,160	345,031	0,009	0,013
-379,146	731,729	0,071	0,138
-378,131	-200,000	0,006	0,050
-377,117	-76,371	-0,109	0,027
-376,102	-200,000	-0,002	-0,159
-375,088	-23,754	-0,100	-0,043
-374,073	100,366	-0,043	-0,036
-373,058	-39,804	0,045	-0,017
-372,044	46,989	0,062	-0,041
-371,029	-200,000	0,004	0,015
-370,015	800,000	-0,024	-0,051
-369,000	342,592	-0,076	-0,107
-367,985	169,891	0,036	0,037
-366,971	-162,603	0,083	0,003
-365,956	-118,811	-0,073	-0,009
-364,942	651,266	0,044	-0,082
-363,927	44,192	0,067	0,044
-362,912	126,734	-0,166	-0,151
-361,898	-101,677	-0,024	-0,004
-360,883	3,998	-0,112	-0,059
-359,869	800,000	0,055	-0,127
-358,854	-16,724	0,093	-0,042
-357,839	742,567	-0,028	-0,054
-356,825	21,209	-0,027	-0,015
-355,810	501,612	0,018	-0,029
-354,796	207,237	-0,150	-0,168
-353,781	-165,599	-0,056	-0,002
-352,766	49,278	-0,046	-0,031
-351,752	-200,000	0,025	-0,094
-350,737	14,115	0,113	-0,063
-349,723	168,615	-0,049	0,050
-348,708	800,000	0,053	0,136
-347,693	-200,000	-0,002	0,031
-346,679	-200,000	-0,019	-0,154
-345,664	16,824	0,079	0,045
-344,650	800,000	-0,028	0,086
-343,635	199,232	-0,101	-0,111
-342,620	198,543	0,066	0,073
-341,606	36,452	-0,108	-0,068
-340,591	184,640	0,107	-0,114
-339,577	772,520	0,036	0,071
-338,562	-79,260	-0,107	-0,026
-337,548	19,697	-0,017	0,010
-336,533	244,591	0,018	0,022
-335,518	-101,609	0,060	-0,010
-334,504	203,428	0,083	0,093
-333,489	800,000	0,031	-0,074
-332,475	-97,620	-0,118	0,022
-331,460	-200,000	0,006	-0,238
-330,445	800,000	0,056	-0,163
-329,431	800,000	-0,046	-0,092
-328,416	-200,000	-0,031	0,124
-327,402	-200,000	-0,008	0,061
-326,387	-143,642	0,102	0,007
-325,372	-115,405	-0,055	-0,007
-324,358	-93,799	0,133	-0,026
-323,343	800,000	0,048	0,132
-322,329	-200,000	0,076	0,251
-321,314	-93,882	0,064	0,013
-320,299	302,304	0,100	0,133
-319,285	800,000	0,012	-0,026
-318,270	-200,000	-0,003	-0,012
-317,256	-2,313	0,096	0,048
-316,241	-200,000	0,004	0,125
-315,226	213,223	0,092	0,105
-314,212	-75,267	0,064	0,016
-313,197	800,000	0,016	0,049
-312,183	800,000	0,063	-0,159
-311,168	-130,012	-0,087	-0,008
-310,153	-200,000	-0,025	-0,085
-309,139	-200,000	0,014	0,171
-308,124	-200,000	0,015	0,129
-307,110	66,438	0,048	-0,035
-306,095	-3,157	-0,022	-0,011
-305,080	-69,116	0,062	-0,017
-304,066	327,861	-0,085	0,118
-303,051	-85,166	-0,135	-0,030
-302,037	-65,698	-0,157	-0,045
-301,022	800,000	0,028	0,085
-300,008	-200,000	-0,006	0,055
-298,993	-62,942	0,073	-0,022
-297,978	114,769	-0,076	0,066
-296,964	-90,681	0,071	0,014
-295,949	512,118	0,054	-0,091
-294,935	-200,000	0,001	-0,152
-293,920	161,967	0,041	-0,041
-292,905	-200,000	0,024	0,107
-291,891	-26,335	0,133	-0,056
-290,876	-61,841	0,042	-0,013
-289,862	-53,417	0,066	-0,022
-288,847	21,212	-0,111	-0,064
-287,832	-82,878	-0,167	-0,038
-286,818	-200,000	-0,035	-0,210
-285,803	800,000	0,043	0,108
-284,789	109,053	-0,119	0,102
-283,774	68,024	0,065	0,048
-282,759	362,885	0,041	0,059
-281,745	-200,000	0,010	-0,063
-280,730	378,367	0,039	0,057
-279,716	-200,000	-0,001	0,091
-278,701	-200,000	0,000	0,002
-277,686	800,000	-0,010	0,023
-276,672	800,000	0,032	0,083
-275,657	-200,000	0,004	-0,060
-274,643	-18,158	-0,097	-0,043
-273,628	-200,000	0,007	-0,084
-272,613	113,888	-0,067	-0,058
-271,599	584,988	0,110	0,193
-270,584	-200,000	-0,019	0,145
-269,570	-200,000	-0,023	0,077
-268,555	245,549	-0,049	0,059
-267,540	-135,673	-0,153	0,013
-266,526	-61,302	-0,047	0,014
-265,511	176,555	0,044	0,046
-264,497	189,081	0,017	0,018
-263,482	-52,823	-0,063	0,021
-262,467	721,092	-0,066	0,125
-261,453	800,000	0,022	0,052
-260,438	800,000	0,061	-0,147
-259,424	83,805	-0,110	-0,086
-258,409	37,263	0,054	-0,034
-257,395	-200,000	0,000	-0,017
-256,380	-200,000	0,004	0,082
-255,365	-200,000	-0,031	0,101
-254,351	-24,215	0,124	0,053
-253,336	415,700	-0,050	0,077
-252,322	800,000	-0,027	-0,068
-251,307	-130,443	-0,070	0,007
-250,292	746,377	-0,018	0,036
-249,278	800,000	0,054	0,132
-248,263	-19,935	-0,067	-0,029
-247,249	122,642	-0,087	0,077
-246,234	299,809	0,050	0,066
-245,219	187,576	-0,081	-0,087
-244,205	-44,453	0,047	-0,017
-243,190	-26,001	-0,112	0,047
-242,176	-200,000	-0,004	0,184
-241,161	800,000	0,055	0,112
-240,146	-83,771	-0,064	0,014
-239,132	-120,244	-0,163	0,020
-238,117	-200,000	-0,010	0,036
-237,103	105,458	-0,069	-0,058
-236,088	-176,671	-0,147	0,003
-235,073	29,653	0,052	0,031
-234,059	-200,000	0,069	0,227
-233,044	221,158	-0,051	0,058
-232,030	-200,000	0,018	-0,058
-231,015	387,684	-0,072	0,107
-230,000	337,134	-0,103	-0,144
-228,986	419,638	0,052	-0,080
-227,971	-29,003	0,076	0,031
-226,957	800,000	0,064	0,144
-225,942	75,596	-0,080	-0,060
-224,927	-62,355	-0,141	0,042
-223,913	-113,635	0,080	-0,011
-222,898	800,000	0,024	-0,062
-221,884	0,041	0,120	0,061
-220,869	-200,000	-0,000	0,075
-219,855	424,507	0,092	0,141
-218,840	800,000	0,036	0,107
-217,825	800,000	-0,030	0,082
-216,811	427,239	0,024	0,037
-215,796	-200,000	0,014	-0,116
-214,782	236,957	0,070	-0,083
-213,767	-95,898	0,112	-0,021
-212,752	145,611	0,024	0,023
-211,738	-200,000	-0,009	0,099
-210,723	-200,000	-0,020	-0,066
-209,709	800,000	0,024	-0,071
-208,694	-200,000	0,016	-0,149
-207,679	-24,921	-0,166	-0,070
-206,665	91,805	0,059	-0,048
-205,650	800,000	0,045	0,098
-204,636	791,651	-0,019	0,037
-203,621	-48,129	-0,023	0,008
-202,606	-96,266	0,052	0,010
-201,592	-126,511	0,014	-0,001
-200,577	177,054	0,048	0,050
-199,563	-95,412	0,087	0,016
-198,548	800,000	0,015	-0,036
-197,533	71,505	0,019	0,014
-196,519	-18,691	-0,089	-0,040
-195,504	800,000	0,041	0,081
-194,490	-100,998	-0,176	0,031
-193,475	-8,345	-0,028	-0,013
-192,460	-200,000	0,028	0,202
-191,446	-75,541	0,075	-0,019
-190,431	107,696	-0,124	-0,106
-189,417	-200,000	0,042	-0,157
-188,402	70,734	0,130	-0,096
-187,387	-56,566	-0,038	-0,012
-186,373	-200,000	0,019	-0,100
-185,358	10,008	0,120	-0,065
-184,344	361,855	0,080	0,115
-183,329	123,012	0,094	0,084
-182,315	33,569	0,130	0,080
-181,300	36,733	-0,097	0,061
-180,285	-8,046	0,031	-0,015
-179,271	285,564	0,038	0,049
-178,256	-192,080	0,056	-0,000
-177,242	60,303	0,082	0,058
-176,227	67,891	0,065	-0,048
-175,212	-200,000	0,003	-0,075
-174,198	100,836	0,048	0,040
-173,183	145,091	-0,061	-0,058
-172,169	209,892	-0,070	-0,078
-171,154	-3,647	0,144	0,071
-170,139	-110,524	0,057	0,008
-169,125	-36,288	0,067	0,026
-168,110	187,006	0,082	0,087
-167,096	-31,659	0,052	0,021
-166,081	791,861	-0,024	0,047
-165,066	433,880	-0,081	0,126
-164,052	-200,000	0,028	0,125
-163,037	5,503	0,083	0,044
-162,023	451,349	-0,052	0,082
-161,008	-200,000	-0,011	0,097
-159,993	-121,346	0,071	0,008
-158,979	-111,249	-0,123	0,018
-157,964	445,332	-0,081	-0,127
-156,950	-69,701	-0,073	-0,020
-155,935	1,933	0,045	0,023
-154,920	800,000	-0,043	-0,092
-153,906	-99,766	0,117	-0,021
-152,891	191,767	0,034	0,036
-151,877	-55,474	0,135	0,043
-150,862	-29,867	-0,051	-0,021
-149,847	-200,000	-0,002	0,138
-148,833	800,000	-0,019	0,039
-147,818	154,312	-0,045	-0,044
-146,804	66,786	0,114	0,082
-145,789	800,000	-0,047	0,117
-144,775	-110,594	0,064	-0,009
-143,760	52,325	-0,035	-0,023
-142,745	-200,000	-0,006	0,086
-141,731	22,490	0,072	0,042
-140,716	171,518	0,046	-0,047
-139,702	800,000	0,022	-0,054
-138,687	86,788	0,115	-0,090
-137,672	-147,163	-0,019	-0,001
-136,658	-111,966	-0,177	0,025
-135,643	-160,281	0,042	0,002
-134,629	-28,419	0,136	-0,056
-133,614	-200,000	-0,004	-0,169
-132,599	-200,000	0,015	0,106
-131,585	75,392	0,092	-0,069
-130,570	619,716	-0,082	0,147
-129,556	124,272	-0,160	0,143
-128,541	256,193	-0,078	-0,095
-127,526	-33,578	-0,123	-0,048
-126,512	-22,660	0,087	0,037
-125,497	200,252	0,025	-0,027
-124,483	-200,000	0,009	0,064
-123,468	-132,359	0,036	-0,003
-122,453	-29,921	0,130	0,053
-121,439	28,353	0,047	-0,028
-120,424	-39,706	-0,039	-0,014
-119,410	-86,978	0,115	0,025
