DTS Sentinel unit serial number:	SN410029Multiplexer serial number:	ORYXHardware model number:	OX2-SRSoftware version number:	ORYX F/W v4,00 Oryx Data Collector v3.7.2.0data status	okinstallation	BH3 CH2differential loss correction	single-endedforward channel	channel 2reverse channel	N/Adate	2023/12/05time	13:32:28forward acquisition time	300,00reverse acquisition time	0,00gamma	499,1914k internal	0,3195k external	0,3195temperature offset calibration	1,0000default loss term (dB/km)	0,3820temperature slope calibration	1,0000multiplexer offset coefficient	1,0000multiplexer slope coefficient	1,0000fibre end	0,00T internal ref (°C)	10,42T ext. ref 1 (°C)	-3,47T ext. ref 2 (°C)	-3,51length (m)	temperature (°C)	Stokes	anti-Stokes-744,400	77,335	-0,112	-0,086
-743,385	800,000	-0,057	0,122
-742,371	-87,659	-0,087	0,019
-741,356	-182,694	-0,125	-0,002
-740,342	800,000	0,043	-0,091
-739,327	-200,000	-0,058	0,197
-738,312	-200,000	-0,023	-0,185
-737,298	277,521	-0,217	0,282
-736,283	10,837	0,101	-0,056
-735,269	204,795	-0,144	0,163
-734,254	59,183	-0,105	-0,075
-733,239	-94,324	-0,303	-0,060
-732,225	168,079	0,093	0,096
-731,210	33,351	-0,066	-0,042
-730,196	800,000	-0,032	-0,095
-729,181	453,623	0,047	0,076
-728,167	-200,000	0,006	-0,079
-727,152	53,549	-0,018	-0,012
-726,137	800,000	-0,016	-0,040
-725,123	23,769	-0,043	0,026
-724,108	732,346	-0,066	-0,129
-723,094	800,000	-0,045	-0,128
-722,079	-200,000	-0,009	0,052
-721,064	800,000	-0,030	-0,067
-720,050	800,000	0,038	0,080
-719,035	554,735	-0,077	0,135
-718,021	-200,000	-0,006	0,030
-717,006	331,150	-0,030	-0,042
-715,991	-45,431	0,063	-0,023
-714,977	223,118	-0,085	-0,100
-713,962	-15,322	0,123	0,057
-712,948	-82,107	-0,086	-0,020
-711,933	193,971	-0,115	-0,127
-710,918	82,615	0,114	-0,090
-709,904	-200,000	0,005	-0,191
-708,889	78,001	-0,133	-0,103
-707,875	-200,000	-0,025	0,096
-706,860	222,348	-0,058	-0,068
-705,845	-91,803	-0,091	-0,019
-704,831	800,000	0,016	-0,046
-703,816	-70,123	-0,032	0,009
-702,802	-129,279	-0,034	0,003
-701,787	-78,662	0,114	0,028
-700,772	-200,000	-0,010	-0,164
-699,758	-53,116	-0,063	-0,021
-698,743	-177,785	0,146	0,002
-697,729	-50,150	-0,061	0,021
-696,714	800,000	0,048	-0,107
-695,699	-89,036	0,093	0,020
-694,685	-42,449	0,058	0,022
-693,670	-58,828	-0,055	0,017
-692,656	86,170	0,096	-0,077
-691,641	52,790	-0,034	0,024
-690,627	-200,000	-0,041	0,193
-689,612	800,000	-0,094	0,204
-688,597	-200,000	-0,025	-0,100
-687,583	59,057	-0,059	-0,042
-686,568	-62,158	0,082	0,025
-685,554	218,774	-0,048	-0,056
-684,539	-17,329	0,042	0,019
-683,524	71,765	-0,113	0,085
-682,510	-200,000	-0,028	0,117
-681,495	-72,128	-0,193	0,052
-680,481	-178,256	-0,111	0,002
-679,466	-10,717	-0,039	-0,018
-678,451	15,734	-0,143	-0,082
-677,437	400,379	0,044	0,067
-676,422	-200,000	-0,008	0,098
-675,408	7,650	0,096	0,052
-674,393	21,381	0,135	0,079
-673,378	100,324	0,016	0,014
-672,364	-47,860	0,129	0,045
-671,349	-200,000	-0,003	0,108
-670,335	-120,553	-0,076	0,009
-669,320	421,908	0,149	0,234
-668,305	800,000	-0,009	-0,019
-667,291	117,251	-0,039	0,035
-666,276	-200,000	-0,022	0,084
-665,262	-104,007	-0,089	0,015
-664,247	-200,000	-0,019	-0,072
-663,232	-200,000	0,005	0,059
-662,218	149,926	0,089	-0,087
-661,203	-64,270	-0,158	0,046
-660,189	-194,887	0,121	0,001
-659,174	-200,000	0,014	0,107
-658,159	267,009	-0,060	0,077
-657,145	-4,088	-0,016	0,008
-656,130	328,552	0,040	0,057
-655,116	76,825	0,096	0,074
-654,101	-200,000	0,018	-0,116
-653,086	-200,000	-0,012	0,071
-652,072	800,000	-0,030	-0,079
-651,057	-150,020	-0,136	0,008
-650,043	307,595	0,051	-0,069
-649,028	-101,819	-0,122	-0,021
-648,014	800,000	0,054	0,114
-646,999	800,000	0,025	0,056
-645,984	143,053	-0,054	0,052
-644,970	425,648	-0,032	-0,050
-643,955	-21,225	-0,118	-0,052
-642,941	800,000	0,028	-0,090
-641,926	-200,000	-0,011	-0,099
-640,911	-200,000	0,007	0,078
-639,897	-124,608	-0,070	-0,008
-638,882	145,978	0,015	-0,014
-637,868	-200,000	0,018	0,128
-636,853	35,869	-0,143	0,091
-635,838	306,355	-0,041	0,056
-634,824	-200,000	-0,011	-0,119
-633,809	-133,757	0,172	-0,015
-632,795	85,914	0,105	0,084
-631,780	800,000	-0,021	0,044
-630,765	394,449	-0,198	-0,301
-629,751	-144,494	-0,088	0,006
-628,736	-3,196	-0,033	0,017
-627,722	-31,144	0,091	-0,037
-626,707	146,455	0,042	0,041
-625,692	48,929	0,107	0,073
-624,678	-52,627	-0,082	-0,027
-623,663	-200,000	-0,007	0,034
-622,649	249,839	0,085	-0,104
-621,634	-200,000	0,007	-0,044
-620,619	-136,490	0,187	0,016
-619,605	395,300	-0,038	-0,057
-618,590	800,000	-0,056	-0,144
-617,576	-77,680	0,035	0,009
-616,561	327,052	-0,022	-0,030
-615,546	93,355	-0,070	-0,057
-614,532	-200,000	-0,001	-0,031
-613,517	-128,969	-0,045	-0,005
-612,503	108,029	-0,064	0,055
-611,488	-200,000	0,012	0,135
-610,474	34,585	0,120	0,076
-609,459	736,438	0,014	0,028
-608,444	13,922	-0,107	0,060
-607,430	265,214	-0,057	-0,073
-606,415	36,573	-0,088	0,056
-605,401	20,446	0,085	0,050
-604,386	199,338	-0,071	0,079
-603,371	396,213	0,058	0,087
-602,357	22,472	0,110	0,065
-601,342	51,230	-0,074	-0,051
-600,328	-2,489	0,060	-0,030
-599,313	800,000	0,020	0,062
-598,298	0,205	-0,066	0,034
-597,284	-106,256	0,157	0,025
-596,269	-200,000	-0,041	0,152
-595,255	82,678	0,116	0,091
-594,240	64,621	-0,038	-0,027
-593,225	-18,018	-0,112	-0,051
-592,211	-200,000	-0,009	0,035
-591,196	-90,078	0,100	-0,021
-590,182	6,314	-0,123	-0,066
-589,167	-133,182	0,079	0,007
-588,152	-91,684	0,117	-0,024
-587,138	-200,000	-0,004	-0,086
-586,123	-84,816	0,103	0,023
-585,109	-47,306	-0,119	-0,042
-584,094	34,731	-0,060	-0,038
-583,079	-200,000	-0,002	-0,068
-582,065	800,000	0,056	-0,116
-581,050	800,000	-0,025	-0,070
-580,036	800,000	-0,026	0,061
-579,021	370,036	-0,073	-0,107
-578,006	-30,456	-0,127	-0,052
-576,992	274,658	0,054	-0,069
-575,977	460,624	0,030	-0,049
-574,963	248,628	-0,098	0,120
-573,948	-85,576	-0,157	-0,035
-572,934	-54,791	-0,132	0,043
-571,919	455,236	0,109	-0,175
-570,904	-156,315	0,024	-0,001
-569,890	93,108	-0,070	-0,057
-568,875	439,291	-0,046	-0,073
-567,861	-57,644	0,111	0,035
-566,846	-200,000	0,042	0,147
-565,831	-9,399	0,019	-0,009
-564,817	462,530	0,042	0,068
-563,802	-120,173	0,141	-0,017
-562,788	-116,276	-0,157	0,021
-561,773	527,407	0,011	-0,019
-560,758	-200,000	0,025	0,237
-559,744	22,615	-0,045	-0,026
-558,729	196,090	-0,066	0,073
-557,715	329,657	0,021	0,029
-556,700	-200,000	0,003	0,102
-555,685	48,514	0,063	0,042
-554,671	15,062	0,046	0,026
-553,656	-200,000	-0,152	0,000
-552,642	800,000	0,033	0,078
-551,627	-200,000	0,022	0,147
-550,612	744,378	-0,033	-0,064
-549,598	-200,000	0,018	-0,072
-548,583	-97,117	-0,110	0,021
-547,569	800,000	0,005	-0,010
-546,554	-131,916	-0,137	0,013
-545,539	421,986	-0,053	0,083
-544,525	-200,000	0,014	-0,116
-543,510	514,916	-0,077	-0,130
-542,496	503,624	-0,075	0,127
-541,481	-13,838	0,079	-0,037
-540,466	-50,535	-0,175	-0,059
-539,452	-200,000	0,030	0,166
-538,437	-70,362	-0,059	-0,016
-537,423	45,637	-0,124	0,083
-536,408	66,406	-0,093	0,068
-535,393	152,687	-0,093	-0,092
-534,379	404,721	0,049	-0,075
-533,364	186,154	0,104	-0,112
-532,350	63,003	0,119	0,086
-531,335	-53,078	-0,136	-0,045
-530,321	-27,701	-0,014	0,006
-529,306	-100,849	0,027	-0,005
-528,291	350,897	-0,061	-0,087
-527,277	174,176	0,051	0,053
-526,262	113,693	-0,031	-0,027
-525,248	-70,193	0,067	-0,018
-524,233	322,478	0,080	0,111
-523,218	-200,000	0,005	0,112
-522,204	800,000	-0,028	-0,057
-521,189	-200,000	-0,044	-0,168
-520,175	-200,000	-0,023	-0,099
-519,160	-200,000	-0,004	-0,015
-518,145	-82,121	0,173	0,041
-517,131	463,245	-0,069	-0,111
-516,116	652,247	0,037	0,069
-515,102	750,147	-0,055	0,109
-514,087	-90,941	-0,110	-0,023
-513,072	-130,622	0,158	0,015
-512,058	-200,000	0,011	-0,188
-511,043	246,865	0,036	-0,044
-510,029	115,256	0,033	0,029
-509,014	30,513	-0,041	0,025
-507,999	-82,333	-0,033	0,008
-506,985	-67,737	0,109	-0,031
-505,970	-133,838	-0,042	0,004
-504,956	4,127	0,041	0,021
-503,941	-32,708	0,069	0,027
-502,926	100,238	0,126	-0,106
-501,912	608,831	0,093	0,168
-500,897	-93,958	-0,086	-0,017
-499,883	-200,000	-0,026	0,143
-498,868	-124,419	-0,074	-0,008
-497,853	-200,000	0,027	-0,120
-496,839	-200,000	0,008	0,083
-495,824	-200,000	0,011	-0,046
-494,810	-30,372	0,051	0,021
-493,795	120,307	0,031	-0,028
-492,781	266,146	-0,071	0,090
-491,766	-200,000	0,001	-0,046
-490,751	-200,000	0,007	-0,046
-489,737	52,053	0,057	-0,039
-488,722	-200,000	0,033	0,148
-487,708	-132,919	0,065	-0,006
-486,693	-27,286	0,055	-0,023
-485,678	800,000	-0,049	-0,100
-484,664	576,645	0,039	0,069
-483,649	800,000	0,026	-0,074
-482,635	-200,000	0,004	-0,134
-481,620	95,016	0,097	0,079
-480,605	-200,000	0,003	0,095
-479,591	-200,000	-0,008	0,072
-478,576	367,272	-0,066	0,096
-477,562	73,583	-0,046	-0,035
-476,547	-32,298	0,101	-0,041
-475,532	-10,454	0,141	0,067
-474,518	-36,759	0,096	0,037
-473,503	800,000	-0,027	-0,082
-472,489	240,331	0,122	0,147
-471,474	-200,000	0,018	0,145
-470,459	800,000	0,010	-0,029
-469,445	-158,722	-0,074	-0,003
-468,430	-200,000	0,015	-0,111
-467,416	36,290	0,083	0,053
-466,401	412,667	0,044	-0,068
-465,386	66,219	0,078	-0,057
-464,372	-200,000	0,013	0,068
-463,357	27,568	-0,118	-0,072
-462,343	263,019	0,026	0,033
-461,328	-111,922	0,126	-0,018
-460,313	-50,971	-0,094	-0,032
-459,299	-71,836	0,063	0,017
-458,284	-200,000	0,010	-0,049
-457,270	-93,759	-0,013	-0,002
-456,255	-200,000	-0,007	-0,040
-455,241	708,675	-0,008	-0,016
-454,226	-200,000	0,005	-0,147
-453,211	105,699	-0,055	-0,047
-452,197	276,570	-0,072	0,092
-451,182	133,052	0,059	0,055
-450,168	466,004	-0,022	0,035
-449,153	-89,541	0,061	-0,013
-448,138	-200,000	-0,002	-0,086
-447,124	800,000	0,037	0,091
-446,109	-200,000	0,006	0,071
-445,095	-49,997	0,115	-0,039
-444,080	-2,319	0,080	0,040
-443,065	0,893	-0,113	0,058
-442,051	301,397	-0,025	-0,033
-441,036	800,000	-0,023	-0,047
-440,022	-200,000	-0,000	-0,051
-439,007	-25,280	-0,029	0,012
-437,992	-83,694	0,135	0,031
-436,978	800,000	0,058	0,144
-435,963	-67,992	0,097	-0,027
-434,949	186,558	-0,026	-0,028
-433,934	800,000	0,028	-0,055
-432,919	-81,414	0,205	-0,048
-431,905	800,000	-0,028	-0,061
-430,890	-105,734	0,049	0,008
-429,876	-200,000	-0,027	0,154
-428,861	352,591	0,137	0,196
-427,846	177,096	-0,061	0,064
-426,832	-200,000	-0,003	-0,102
-425,817	121,045	0,032	-0,028
-424,803	800,000	-0,013	-0,030
-423,788	76,897	0,033	0,025
-422,773	415,054	0,014	0,022
-421,759	112,029	-0,069	-0,060
-420,744	40,558	-0,103	0,067
-419,730	408,115	-0,026	0,040
-418,715	523,689	0,044	-0,074
-417,701	121,925	0,099	-0,089
-416,686	-200,000	0,059	-0,192
-415,671	334,007	0,086	0,120
-414,657	-4,944	-0,092	-0,045
-413,642	166,438	-0,030	0,030
-412,628	-57,997	-0,138	0,043
-411,613	-200,000	-0,000	0,010
-410,598	479,933	-0,080	0,131
-409,584	800,000	-0,032	-0,068
-408,569	-89,973	0,066	-0,014
-407,555	-200,000	-0,011	-0,060
-406,540	316,475	0,020	0,027
-405,525	448,440	-0,037	-0,059
-404,511	751,224	0,010	-0,020
-403,496	96,823	-0,081	-0,067
-402,482	-61,292	-0,038	-0,012
-401,467	-57,164	0,130	0,041
-400,452	-200,000	-0,008	0,036
-399,438	56,410	-0,061	-0,042
-398,423	86,499	-0,114	-0,091
-397,409	283,936	-0,026	-0,033
-396,394	151,931	0,048	0,048
-395,379	-200,000	-0,002	-0,160
-394,365	800,000	0,035	0,093
-393,350	-200,000	0,004	0,085
-392,336	-71,056	0,074	0,020
-391,321	-73,627	-0,098	0,025
-390,306	175,540	0,076	0,079
-389,292	-18,725	-0,152	-0,068
-388,277	-200,000	0,046	-0,181
-387,263	231,949	-0,100	-0,118
-386,248	-200,000	-0,000	-0,043
-385,233	183,449	0,012	0,013
-384,219	211,387	-0,046	-0,052
-383,204	-200,000	0,005	-0,180
-382,190	-66,268	-0,190	-0,054
-381,175	132,825	0,065	-0,060
-380,160	749,784	0,023	0,045
-379,146	350,523	-0,049	0,071
-378,131	-200,000	-0,009	-0,030
-377,117	-98,292	0,108	0,020
-376,102	800,000	0,045	-0,129
-375,088	793,551	0,064	-0,126
-374,073	800,000	0,053	0,156
-373,058	300,466	-0,054	-0,072
-372,044	-200,000	-0,022	0,115
-371,029	-79,299	-0,006	0,001
-370,015	-200,000	-0,023	0,095
-369,000	18,905	0,084	-0,048
-367,985	-120,212	-0,161	-0,020
-366,971	-200,000	0,007	-0,072
-365,956	-200,000	0,004	0,027
-364,942	135,638	0,102	0,096
-363,927	-93,214	0,013	-0,003
-362,912	-200,000	-0,010	0,100
-361,898	182,236	-0,041	-0,044
-360,883	800,000	-0,045	0,091
-359,869	112,351	-0,129	-0,112
-358,854	-200,000	-0,004	0,073
-357,839	-125,776	0,084	-0,009
-356,825	-200,000	-0,005	0,068
-355,810	-200,000	0,024	0,218
-354,796	76,018	-0,170	-0,129
-353,781	800,000	-0,062	0,139
-352,766	179,005	0,062	0,066
-351,752	76,262	-0,064	0,048
-350,737	187,278	0,085	-0,091
-349,723	800,000	0,022	0,063
-348,708	-136,489	0,083	0,007
-347,693	90,629	0,073	0,058
-346,679	21,715	0,052	-0,030
-345,664	-77,939	-0,168	0,041
-344,650	800,000	-0,032	-0,072
-343,635	-200,000	-0,003	-0,083
-342,620	-200,000	0,005	-0,059
-341,606	-24,750	0,072	-0,031
-340,591	800,000	-0,078	-0,155
-339,577	17,442	0,089	0,051
-338,562	207,478	-0,028	0,032
-337,548	9,268	-0,082	-0,044
-336,533	261,707	0,123	0,153
-335,518	-35,115	0,045	-0,017
-334,504	112,669	0,047	-0,041
-333,489	-180,901	-0,146	0,002
-332,475	-49,739	-0,071	-0,024
-331,460	-200,000	-0,009	-0,068
-330,445	800,000	-0,035	0,077
-329,431	18,705	0,122	0,070
-328,416	800,000	0,036	-0,081
-327,402	800,000	-0,022	0,050
-326,387	-67,982	-0,081	0,022
-325,372	800,000	0,025	-0,052
-324,358	-2,611	0,068	0,034
-323,343	-200,000	-0,019	-0,075
-322,329	-49,884	0,078	-0,026
-321,314	800,000	-0,047	-0,103
-320,299	800,000	-0,033	0,069
-319,285	362,903	0,023	-0,034
-318,270	283,347	0,040	0,052
-317,256	0,844	-0,095	-0,049
-316,241	191,770	0,061	0,066
-315,226	-200,000	0,032	0,168
-314,212	130,476	-0,041	-0,038
-313,197	59,481	0,071	0,050
-312,183	-53,117	0,061	-0,020
-311,168	800,000	0,038	-0,079
-310,153	-200,000	-0,010	-0,090
-309,139	-116,250	0,092	0,012
-308,124	-200,000	0,003	-0,019
-307,110	-145,170	0,123	0,008
-306,095	230,847	0,085	0,100
-305,080	399,890	-0,069	-0,104
-304,066	800,000	-0,037	0,083
-303,051	-200,000	0,021	-0,087
-302,037	8,182	-0,182	-0,097
-301,022	800,000	0,022	-0,066
-300,008	663,573	0,030	0,056
-298,993	-96,424	0,054	0,010
-297,978	111,479	0,104	-0,090
-296,964	35,694	0,047	0,029
-295,949	-120,610	0,051	-0,006
-294,935	-200,000	-0,015	-0,097
-293,920	518,188	0,030	-0,050
-292,905	54,110	0,130	0,090
-291,891	61,250	-0,041	0,029
-290,876	-4,915	0,093	0,045
-289,862	-200,000	-0,018	-0,176
-288,847	-89,674	-0,108	-0,022
-287,832	475,426	0,093	-0,151
-286,818	-145,389	0,048	0,003
-285,803	105,213	0,077	0,065
-284,789	-85,735	0,095	-0,021
-283,774	800,000	-0,012	0,036
-282,759	-163,255	-0,061	-0,002
-281,745	41,075	-0,113	-0,073
-280,730	-200,000	-0,002	-0,065
-279,716	800,000	0,027	-0,069
-278,701	-200,000	-0,025	0,090
-277,686	-17,915	0,140	0,063
-276,672	692,729	-0,050	0,094
-275,657	177,474	0,083	-0,087
-274,643	27,656	0,102	-0,061
-273,628	-124,081	-0,088	-0,010
-272,613	-200,000	0,020	-0,144
-271,599	143,073	-0,025	-0,024
-270,584	-200,000	-0,000	-0,082
-269,570	21,646	-0,041	-0,024
-268,555	800,000	-0,012	0,028
-267,540	195,859	0,060	-0,065
-266,526	335,056	-0,118	-0,164
-265,511	800,000	0,058	0,126
-264,497	258,604	0,029	-0,036
-263,482	-19,313	-0,079	0,035
-262,467	153,524	-0,088	-0,086
-261,453	315,475	-0,068	0,092
-260,438	8,281	-0,031	-0,017
-259,424	479,501	0,030	0,049
-258,409	-114,769	0,010	0,001
-257,395	-200,000	-0,021	0,091
-256,380	-151,883	-0,046	-0,002
-255,365	-21,665	0,061	-0,026
-254,351	48,103	0,049	0,033
-253,336	800,000	-0,012	0,039
-252,322	-200,000	-0,043	-0,155
-251,307	800,000	-0,053	0,106
-250,292	800,000	-0,029	-0,075
-249,278	0,201	-0,109	0,055
-248,263	-200,000	-0,015	0,106
-247,249	-200,000	0,032	0,143
-246,234	-43,358	0,092	0,033
-245,219	419,653	-0,032	0,049
-244,205	-200,000	-0,008	-0,131
-243,190	-94,421	-0,047	0,009
-242,176	-60,481	0,077	0,023
-241,161	538,826	0,052	0,088
-240,146	-21,412	-0,117	0,051
-239,132	-110,329	-0,103	0,015
-238,117	-200,000	-0,026	-0,112
-237,103	-200,000	-0,018	-0,079
-236,088	-79,124	-0,124	0,030
-235,073	-200,000	-0,005	0,120
-234,059	231,380	-0,082	-0,096
-233,044	50,828	0,038	0,025
-232,030	-36,093	0,063	0,024
-231,015	-200,000	0,023	-0,092
-230,000	128,805	-0,144	-0,132
-228,986	-72,968	0,116	0,030
-227,971	177,866	-0,023	0,024
-226,957	213,380	0,074	0,084
-225,942	72,592	0,122	-0,091
-224,927	-200,000	-0,016	0,100
-223,913	-200,000	0,005	-0,085
-222,898	800,000	-0,014	-0,028
-221,884	-200,000	0,004	-0,041
-220,869	124,107	0,078	0,070
-219,855	2,772	-0,020	0,010
-218,840	130,340	0,054	-0,049
-217,825	-137,546	-0,132	-0,010
-216,811	385,653	-0,061	-0,090
-215,796	423,246	-0,054	-0,083
-214,782	151,944	0,057	0,056
-213,767	-200,000	0,014	0,075
-212,752	-200,000	0,013	0,117
-211,738	41,192	0,178	0,115
-210,723	800,000	0,011	0,029
-209,709	-43,830	-0,059	-0,021
-208,694	-135,578	-0,086	0,007
-207,679	127,997	0,068	-0,061
-206,665	72,733	-0,029	0,021
-205,650	-200,000	0,033	-0,104
-204,636	800,000	0,042	0,115
-203,621	-112,802	0,091	-0,013
-202,606	59,413	0,145	0,101
-201,592	3,557	-0,077	-0,040
-200,577	415,789	0,034	-0,051
-199,563	800,000	-0,036	-0,095
-198,548	508,789	0,022	-0,036
-197,533	158,205	0,093	0,092
-196,519	-36,608	0,136	-0,052
-195,504	213,379	0,112	-0,126
-194,490	-150,492	-0,247	-0,013
-193,475	543,274	-0,073	0,125
-192,460	-200,000	-0,010	0,051
-191,446	326,825	0,023	0,031
-190,431	-200,000	-0,006	0,058
-189,417	-74,319	-0,148	0,038
-188,402	-200,000	-0,008	0,049
-187,387	-200,000	-0,002	-0,071
-186,373	-113,995	0,097	0,013
-185,358	-200,000	0,016	0,075
-184,344	159,621	-0,070	0,070
-183,329	-0,497	0,103	0,052
-182,315	800,000	-0,035	0,087
-181,300	-200,000	0,023	0,138
-180,285	93,288	-0,041	0,033
-179,271	-63,700	-0,042	0,012
-178,256	196,285	-0,063	0,069
-177,242	-127,357	0,047	-0,005
-176,227	444,956	-0,062	0,098
-175,212	-162,269	0,072	0,002
-174,198	800,000	0,009	-0,022
-173,183	-129,394	-0,172	-0,017
-172,169	-107,279	-0,013	-0,002
-171,154	-178,386	-0,041	0,001
-170,139	-111,069	-0,014	-0,002
-169,125	133,755	0,068	-0,063
-168,110	-200,000	0,009	0,064
-167,096	800,000	-0,033	0,099
-166,081	-29,949	-0,110	0,045
-165,066	-200,000	-0,010	0,035
-164,052	-200,000	-0,029	-0,133
-163,037	337,572	0,040	-0,056
-162,023	-32,923	-0,092	-0,036
-161,008	-200,000	-0,030	0,105
-159,993	32,712	-0,071	-0,044
-158,979	800,000	0,038	-0,094
-157,964	220,014	0,052	-0,059
-156,950	-77,294	0,092	0,023
-155,935	74,179	-0,084	0,063
-154,920	714,654	-0,023	-0,043
-153,906	-87,547	-0,069	-0,015
-152,891	97,261	-0,089	0,073
-151,877	-13,714	0,074	0,034
-150,862	-62,311	-0,130	-0,038
-149,847	-182,856	-0,068	0,001
-148,833	-34,535	0,029	-0,011
-147,818	-86,368	0,008	-0,002
-146,804	249,631	-0,072	-0,087
-145,789	-200,000	0,004	-0,041
-144,775	169,246	-0,076	0,077
-143,760	800,000	-0,003	0,007
-142,745	-200,000	0,021	-0,096
-141,731	83,975	0,027	-0,021
-140,716	-51,968	-0,088	0,029
-139,702	800,000	0,012	-0,026
-138,687	149,162	0,170	0,164
-137,672	-75,854	0,097	-0,024
-136,658	-73,469	-0,056	-0,014
-135,643	151,484	-0,157	-0,152
-134,629	158,015	-0,103	-0,101
-133,614	-101,836	0,031	0,005
-132,599	36,051	0,046	-0,029
-131,585	-56,231	-0,135	0,043
-130,570	442,034	0,057	0,089
-129,556	33,219	0,017	0,010
-128,541	76,793	-0,024	0,018
-127,526	136,118	0,108	0,101
-126,512	-200,000	0,004	0,082
-125,497	229,342	-0,038	0,044
-124,483	106,460	-0,038	0,032
-123,468	58,259	0,061	0,043
-122,453	252,331	-0,128	0,155
-121,439	800,000	0,031	0,093
-120,424	-8,709	-0,065	-0,031
-119,410	-200,000	-0,017	0,104
-118,395	213,760	-0,055	0,062
