DTS Sentinel unit serial number:	SN410029Multiplexer serial number:	ORYXHardware model number:	OX2-SRSoftware version number:	ORYX F/W v4,00 Oryx Data Collector v3.7.2.0data status	okinstallation	BH3 CH2differential loss correction	single-endedforward channel	channel 2reverse channel	N/Adate	2023/12/06time	05:07:29forward acquisition time	300,00reverse acquisition time	0,00gamma	499,1914k internal	0,3197k external	0,3197temperature offset calibration	1,0000default loss term (dB/km)	0,3820temperature slope calibration	1,0000multiplexer offset coefficient	1,0000multiplexer slope coefficient	1,0000fibre end	0,00T internal ref (°C)	8,93T ext. ref 1 (°C)	-5,68T ext. ref 2 (°C)	-5,78length (m)	temperature (°C)	Stokes	anti-Stokes-744,400	-200,000	-0,034	-0,152
-743,385	-136,267	-0,155	0,013
-742,371	12,508	0,065	-0,036
-741,356	-168,566	-0,248	-0,007
-740,342	-38,258	-0,066	-0,025
-739,327	3,076	-0,178	-0,094
-738,312	293,935	-0,114	-0,152
-737,298	-101,699	-0,279	0,049
-736,283	42,584	0,198	-0,131
-735,269	188,000	-0,137	0,149
-734,254	-200,000	0,003	-0,074
-733,239	-110,769	-0,329	-0,049
-732,225	-200,000	0,013	-0,119
-731,210	-200,000	0,015	0,150
-730,196	177,370	-0,071	0,075
-729,181	-27,946	-0,046	0,019
-728,167	-200,000	-0,017	-0,109
-727,152	152,551	-0,129	-0,128
-726,137	-3,455	0,101	-0,051
-725,123	800,000	-0,064	-0,130
-724,108	-91,434	-0,129	0,026
-723,094	338,132	0,098	0,140
-722,079	-19,171	-0,066	-0,030
-721,064	-200,000	0,026	0,172
-720,050	254,558	0,057	0,071
-719,035	800,000	-0,034	-0,072
-718,021	-74,802	0,055	0,014
-717,006	-200,000	-0,047	-0,158
-715,991	114,968	-0,168	-0,149
-714,977	-118,794	-0,082	-0,010
-713,962	-51,561	0,100	-0,034
-712,948	-12,259	0,029	0,014
-711,933	-53,629	0,066	-0,022
-710,918	-81,070	-0,106	0,025
-709,904	-200,000	-0,026	0,097
-708,889	0,154	0,093	-0,048
-707,875	195,089	-0,044	-0,048
-706,860	-187,295	0,095	0,001
-705,845	160,772	0,080	-0,082
-704,831	-200,000	0,007	0,025
-703,816	0,887	0,097	-0,051
-702,802	800,000	-0,092	0,189
-701,787	-134,184	0,133	0,012
-700,772	148,475	-0,113	0,111
-699,758	-200,000	0,021	-0,078
-698,743	-68,044	0,146	0,041
-697,729	-6,008	-0,056	0,028
-696,714	-33,522	-0,038	0,015
-695,699	800,000	0,030	-0,075
-694,685	-91,058	-0,120	0,025
-693,670	-200,000	0,018	0,060
-692,656	800,000	-0,029	0,073
-691,641	800,000	-0,049	0,137
-690,627	190,024	-0,040	0,044
-689,612	704,764	-0,028	0,054
-688,597	-18,053	-0,104	-0,047
-687,583	130,156	-0,047	-0,044
-686,568	-79,821	-0,087	-0,021
-685,554	494,680	0,006	0,010
-684,539	-200,000	0,021	0,099
-683,524	-63,104	0,226	-0,067
-682,510	-200,000	-0,059	-0,218
-681,495	-200,000	0,001	-0,188
-680,481	-200,000	-0,003	-0,089
-679,466	800,000	0,025	0,065
-678,451	-200,000	-0,018	-0,089
-677,437	-72,723	-0,040	0,011
-676,422	88,692	0,107	0,086
-675,408	-5,641	-0,054	0,027
-674,393	-200,000	0,011	0,078
-673,378	182,628	-0,146	-0,156
-672,364	800,000	0,045	-0,121
-671,349	-200,000	-0,012	-0,071
-670,335	-58,343	-0,119	0,037
-669,320	-200,000	0,025	0,192
-668,305	800,000	0,080	0,200
-667,291	583,607	-0,024	-0,044
-666,276	-200,000	0,045	-0,149
-665,262	-200,000	-0,007	-0,188
-664,247	-143,258	-0,071	0,005
-663,232	-200,000	0,004	-0,045
-662,218	-20,119	-0,052	0,023
-661,203	204,265	0,020	-0,023
-660,189	-200,000	-0,006	-0,161
-659,174	-35,446	-0,175	0,069
-658,159	292,921	-0,061	-0,081
-657,145	17,904	-0,135	0,078
-656,130	285,386	-0,139	0,182
-655,116	800,000	0,027	0,068
-654,101	-118,271	-0,074	-0,009
-653,086	13,083	-0,028	0,016
-652,072	73,167	-0,076	-0,057
-651,057	38,536	-0,060	0,039
-650,043	676,944	0,058	-0,109
-649,028	149,123	0,071	0,070
-648,014	-200,000	-0,005	-0,022
-646,999	110,272	-0,054	0,047
-645,984	633,844	0,065	0,120
-644,970	688,989	-0,084	-0,159
-643,955	60,873	-0,029	-0,021
-642,941	800,000	-0,082	0,217
-641,926	-32,279	0,112	0,045
-640,911	197,777	0,094	0,104
-639,897	33,287	-0,119	-0,074
-638,882	303,190	0,057	0,076
-637,868	-200,000	-0,004	-0,093
-636,853	33,837	-0,089	0,056
-635,838	59,711	0,023	-0,016
-634,824	701,129	0,033	-0,063
-633,809	-172,243	0,183	0,004
-632,795	212,068	-0,072	-0,083
-631,780	347,982	-0,039	-0,055
-630,765	-200,000	0,000	0,061
-629,751	677,355	-0,025	-0,047
-628,736	-101,402	-0,128	-0,022
-627,722	301,421	0,056	-0,076
-626,707	250,796	-0,047	0,058
-625,692	-66,565	-0,018	-0,005
-624,678	51,481	0,097	0,067
-623,663	800,000	-0,048	-0,109
-622,649	508,547	-0,034	-0,057
-621,634	-68,790	-0,216	0,060
-620,619	7,260	0,065	-0,035
-619,605	366,766	0,055	0,081
-618,590	474,318	0,032	-0,052
-617,576	156,639	0,107	-0,107
-616,561	91,260	0,089	-0,072
-615,546	-85,938	-0,101	-0,023
-614,532	3,733	-0,134	-0,070
-613,517	10,934	0,073	0,040
-612,503	-52,680	0,088	-0,029
-611,488	136,698	0,019	-0,018
-610,474	213,140	-0,045	0,052
-609,459	-200,000	-0,021	0,072
-608,444	349,318	-0,109	-0,156
-607,430	-124,727	-0,034	-0,004
-606,415	-200,000	-0,044	-0,144
-605,401	-96,367	-0,063	0,012
-604,386	800,000	0,013	-0,028
-603,371	171,513	0,052	0,054
-602,357	-200,000	0,018	0,151
-601,342	-107,325	0,015	-0,002
-600,328	526,369	-0,076	-0,130
-599,313	395,124	0,124	-0,188
-598,298	-124,887	-0,141	0,016
-597,284	581,106	0,058	0,104
-596,269	-32,939	0,101	-0,040
-595,255	800,000	0,044	-0,098
-594,240	-200,000	0,021	0,000
-593,225	-0,996	-0,052	-0,026
-592,211	-200,000	-0,004	-0,147
-591,196	-200,000	-0,013	0,145
-590,182	109,138	-0,060	0,052
-589,167	-74,152	0,109	0,028
-588,152	-125,614	0,087	0,009
-587,138	800,000	-0,029	0,069
-586,123	800,000	-0,065	-0,153
-585,109	-200,000	-0,015	-0,221
-584,094	-200,000	-0,005	-0,028
-583,079	-200,000	0,014	-0,104
-582,065	-72,612	-0,027	-0,007
-581,050	305,361	0,079	-0,107
-580,036	-63,741	-0,204	0,060
-579,021	76,666	-0,137	-0,105
-578,006	800,000	-0,047	-0,105
-576,992	-131,988	0,153	-0,014
-575,977	58,725	-0,084	0,060
-574,963	800,000	-0,010	0,020
-573,948	-200,000	0,040	-0,140
-572,934	-37,817	-0,018	-0,007
-571,919	-200,000	-0,017	0,060
-570,904	800,000	-0,005	0,012
-569,890	-200,000	0,018	0,079
-568,875	-200,000	-0,008	-0,026
-567,861	473,185	0,036	-0,059
-566,846	147,072	-0,091	-0,089
-565,831	81,032	0,008	0,006
-564,817	22,648	-0,111	0,065
-563,802	800,000	0,033	0,081
-562,788	-6,539	-0,088	-0,043
-561,773	-0,225	-0,142	0,073
-560,758	-140,838	-0,101	0,007
-559,744	-77,450	-0,044	0,011
-558,729	119,164	0,062	0,055
-557,715	-44,096	0,076	-0,028
-556,700	-200,000	-0,016	-0,083
-555,685	-65,789	-0,069	-0,020
-554,671	-200,000	-0,002	0,137
-553,656	-45,498	-0,120	-0,043
-552,642	-98,342	0,021	-0,004
-551,627	226,354	-0,025	-0,029
-550,612	-200,000	-0,013	0,066
-549,598	-30,611	-0,068	0,028
-548,583	189,200	-0,079	-0,086
-547,569	101,939	0,031	-0,026
-546,554	-100,787	0,027	-0,005
-545,539	278,072	-0,051	0,065
-544,525	-200,000	0,003	-0,038
-543,510	-13,246	-0,166	-0,078
-542,496	219,145	0,013	0,015
-541,481	-65,135	0,013	-0,004
-540,466	74,430	0,037	0,028
-539,452	382,320	0,019	-0,029
-538,437	800,000	0,036	0,082
-537,423	-110,519	0,053	0,008
-536,408	-200,000	0,031	0,107
-535,393	-200,000	0,006	0,121
-534,379	-76,285	0,116	-0,029
-533,364	123,238	0,052	-0,047
-532,350	50,900	0,040	-0,027
-531,335	-132,264	-0,054	-0,005
-530,321	-200,000	0,001	0,121
-529,306	273,814	0,031	0,040
-528,291	72,335	-0,096	0,072
-527,277	-200,000	-0,003	-0,030
-526,262	-200,000	0,018	-0,060
-525,248	800,000	-0,057	-0,118
-524,233	-44,941	-0,026	-0,009
-523,218	30,617	-0,118	0,073
-522,204	224,446	-0,112	-0,130
-521,189	-75,574	0,128	-0,032
-520,175	25,207	-0,093	-0,056
-519,160	142,785	-0,019	0,018
-518,145	212,566	-0,150	0,171
-517,131	-38,158	0,116	0,044
-516,116	-200,000	0,001	-0,048
-515,102	72,071	0,048	-0,036
-514,087	-87,352	-0,127	-0,027
-513,072	332,619	0,062	-0,087
-512,058	-200,000	-0,004	-0,164
-511,043	106,700	0,149	-0,127
-510,029	122,047	-0,051	0,046
-509,014	-199,783	0,035	0,000
-507,999	616,611	-0,049	0,090
-506,985	-200,000	-0,020	0,238
-505,970	-149,146	-0,090	-0,005
-504,956	800,000	-0,023	0,054
-503,941	353,715	0,033	0,047
-502,926	-77,940	0,168	0,041
-501,912	61,515	-0,075	0,054
-500,897	91,259	-0,060	0,049
-499,883	155,215	0,055	-0,054
-498,868	15,327	-0,103	0,058
-497,853	-150,836	-0,113	0,006
-496,839	283,434	0,036	0,047
-495,824	-61,785	0,103	-0,031
-494,810	344,997	0,013	-0,019
-493,795	-99,484	0,076	-0,014
-492,781	531,800	-0,008	-0,014
-491,766	-200,000	-0,013	0,076
-490,751	520,773	-0,024	-0,041
-489,737	650,983	0,047	-0,086
-488,722	-48,118	0,110	0,038
-487,708	480,682	0,030	-0,049
-486,693	-200,000	-0,012	-0,078
-485,678	-65,041	-0,162	-0,047
-484,664	800,000	-0,029	-0,068
-483,649	-200,000	0,021	0,130
-482,635	-87,780	-0,095	0,020
-481,620	-200,000	0,017	0,071
-480,605	434,369	0,112	0,176
-479,591	-200,000	-0,048	0,174
-478,576	800,000	0,024	-0,055
-477,562	800,000	-0,028	-0,061
-476,547	-200,000	0,013	-0,101
-475,532	800,000	0,023	-0,058
-474,518	6,366	-0,079	-0,042
-473,503	62,893	0,079	-0,057
-472,489	4,280	-0,035	0,019
-471,474	-95,234	0,112	0,022
-470,459	-200,000	-0,021	0,071
-469,445	-58,479	-0,168	-0,052
-468,430	662,031	-0,084	-0,158
-467,416	471,315	0,023	0,038
-466,401	-200,000	-0,003	0,052
-465,386	113,296	-0,076	0,066
-464,372	-200,000	0,043	0,154
-463,357	800,000	-0,042	0,085
-462,343	800,000	0,037	-0,091
-461,328	750,345	-0,024	-0,046
-460,313	-200,000	0,005	0,047
-459,299	-200,000	0,033	0,134
-458,284	-200,000	-0,025	0,118
-457,270	800,000	-0,010	-0,030
-456,255	-200,000	-0,025	-0,112
-455,241	68,062	0,105	-0,077
-454,226	-92,443	0,132	-0,027
-453,211	-200,000	0,017	-0,073
-452,197	-200,000	0,002	0,037
-451,182	390,329	-0,019	-0,029
-450,168	800,000	0,044	0,092
-449,153	29,444	0,034	-0,021
-448,138	-200,000	0,009	-0,048
-447,124	-58,549	-0,211	-0,065
-446,109	-24,625	0,096	0,041
-445,095	469,906	-0,030	-0,049
-444,080	800,000	0,060	-0,139
-443,065	-79,698	0,059	0,014
-442,051	-200,000	0,000	-0,111
-441,036	800,000	0,075	-0,217
-440,022	-200,000	-0,008	0,037
-439,007	208,906	-0,019	0,021
-437,992	800,000	-0,017	-0,051
-436,978	25,491	-0,034	0,020
-435,963	800,000	0,022	-0,051
-434,949	-200,000	-0,017	-0,097
-433,934	458,123	0,041	-0,065
-432,919	800,000	0,010	-0,030
-431,905	800,000	-0,024	-0,062
-430,890	-81,581	-0,067	0,016
-429,876	-15,641	0,130	0,060
-428,861	-81,983	-0,091	-0,021
-427,846	-200,000	-0,010	0,125
-426,832	431,213	0,060	0,093
-425,817	800,000	0,017	0,043
-424,803	32,046	0,057	-0,035
-423,788	800,000	-0,017	-0,039
-422,773	474,600	0,070	0,114
-421,759	-200,000	-0,009	0,158
-420,744	-12,291	-0,051	-0,024
-419,730	65,473	-0,081	-0,059
-418,715	280,324	-0,045	-0,058
-417,701	-200,000	-0,022	0,076
-416,686	800,000	-0,042	-0,132
-415,671	287,959	-0,053	0,069
-414,657	-19,618	0,163	0,072
-413,642	-25,232	0,070	-0,029
-412,628	-200,000	-0,021	0,070
-411,613	461,392	0,044	-0,071
-410,598	-200,000	0,007	0,088
-409,584	242,978	0,120	0,145
-408,569	800,000	0,036	0,083
-407,555	162,283	0,224	0,225
-406,540	-131,051	-0,216	-0,020
-405,525	-86,275	0,096	-0,021
-404,511	800,000	-0,034	-0,079
-403,496	13,714	0,021	0,012
-402,482	-200,000	0,015	0,074
-401,467	-200,000	0,006	-0,057
-400,452	-200,000	-0,033	0,172
-399,438	-200,000	0,004	0,016
-398,423	-200,000	0,004	0,045
-397,409	-60,120	-0,107	0,033
-396,394	-97,074	-0,091	-0,017
-395,379	-200,000	-0,008	-0,070
-394,365	107,006	0,107	0,091
-393,350	-108,840	-0,055	-0,008
-392,336	800,000	0,028	0,081
-391,321	800,000	0,021	0,046
-390,306	108,573	0,052	-0,045
-389,292	-200,000	0,032	-0,142
-388,277	-200,000	0,013	-0,042
-387,263	169,886	-0,125	0,129
-386,248	-200,000	0,011	0,048
-385,233	-200,000	0,003	-0,059
-384,219	-83,441	0,098	-0,022
-383,204	-107,316	0,057	0,009
-382,190	-17,162	0,031	0,014
-381,175	557,637	0,026	-0,046
-380,160	800,000	-0,047	0,118
-379,146	-152,740	0,097	0,005
-378,131	723,353	-0,050	0,095
-377,117	-95,395	0,061	0,012
-376,102	-104,166	-0,089	0,015
-375,088	-141,295	-0,162	0,012
-374,073	-200,000	0,009	-0,034
-373,058	-133,957	-0,064	0,006
-372,044	-53,914	0,143	0,046
-371,029	800,000	0,044	0,130
-370,015	176,241	-0,093	0,097
-369,000	-11,663	-0,018	0,008
-367,985	-24,936	-0,016	0,007
-366,971	583,313	0,087	-0,154
-365,956	103,499	-0,033	-0,028
-364,942	-126,445	0,140	-0,015
-363,927	599,413	-0,061	-0,109
-362,912	622,278	0,024	0,043
-361,898	130,117	0,046	-0,042
-360,883	800,000	-0,036	0,090
-359,869	-61,532	0,118	-0,035
-358,854	-187,973	0,058	-0,001
-357,839	-200,000	0,001	0,007
-356,825	537,233	0,040	0,069
-355,810	30,942	0,054	-0,033
-354,796	55,777	-0,050	-0,035
-353,781	-121,084	0,058	0,007
-352,766	-200,000	0,007	0,161
-351,752	800,000	-0,049	0,133
-350,737	393,005	0,066	0,099
-349,723	344,777	0,056	0,079
-348,708	-37,615	0,105	0,040
-347,693	-99,642	-0,158	0,028
-346,679	35,421	-0,128	0,080
-345,664	-91,287	-0,091	0,019
-344,650	-200,000	-0,010	-0,090
-343,635	370,346	0,023	0,034
-342,620	41,470	0,068	-0,044
-341,606	-200,000	0,015	0,107
-340,591	-128,783	-0,095	-0,009
-339,577	102,398	0,077	0,064
-338,562	22,719	-0,019	0,011
-337,548	666,991	-0,041	0,077
-336,533	-156,471	0,138	0,006
-335,518	390,510	-0,030	-0,045
-334,504	-89,126	0,055	-0,012
-333,489	-64,482	-0,026	-0,007
-332,475	280,798	-0,046	-0,059
-331,460	-153,869	-0,042	-0,002
-330,445	-200,000	-0,003	-0,011
-329,431	774,429	-0,010	-0,020
-328,416	-200,000	-0,007	0,088
-327,402	-132,885	0,140	-0,013
-326,387	-44,283	-0,014	-0,005
-325,372	-44,001	-0,055	-0,020
-324,358	-35,619	-0,176	-0,068
-323,343	-61,549	0,125	-0,037
-322,329	264,528	0,084	0,106
-321,314	277,244	0,148	-0,188
-320,299	-62,480	0,071	0,021
-319,285	85,147	0,078	0,061
-318,270	-123,600	-0,064	0,007
-317,256	13,713	-0,047	0,026
-316,241	-154,239	0,073	0,003
-315,226	-200,000	0,028	0,113
-314,212	-200,000	-0,011	-0,091
-313,197	195,896	-0,090	0,098
-312,183	301,408	0,049	0,065
-311,168	-2,272	0,087	-0,044
-310,153	50,279	-0,092	-0,062
-309,139	10,465	-0,074	0,040
-308,124	268,361	0,067	-0,084
-307,110	-9,526	0,136	-0,065
-306,095	76,839	0,142	0,107
-305,080	-200,000	-0,030	0,148
-304,066	-200,000	-0,014	0,072
-303,051	-200,000	-0,010	0,086
-302,037	34,542	-0,056	0,035
-301,022	-1,502	0,068	0,034
-300,008	-3,089	-0,065	0,032
-298,993	-125,123	0,054	-0,006
-297,978	104,231	0,049	-0,041
-296,964	318,372	0,093	-0,126
-295,949	-168,929	-0,127	-0,003
-294,935	285,981	0,007	0,009
-293,920	-5,144	0,109	-0,053
-292,905	74,582	0,101	0,076
-291,891	205,212	-0,056	0,062
-290,876	248,123	0,093	0,112
-289,862	18,869	0,063	0,036
-288,847	97,499	-0,089	0,073
-287,832	65,827	0,100	-0,072
-286,818	-176,108	0,067	0,001
-285,803	-74,402	-0,097	0,025
-284,789	248,757	-0,070	0,085
-283,774	63,033	0,039	-0,028
-282,759	392,557	0,060	-0,090
-281,745	-200,000	0,027	0,087
-280,730	153,944	0,049	-0,048
-279,716	-177,830	0,089	-0,001
-278,701	389,225	0,063	0,093
-277,686	-64,621	-0,110	-0,032
-276,672	-27,132	-0,028	-0,012
-275,657	800,000	0,029	0,068
-274,643	64,932	-0,109	-0,079
-273,628	-42,841	-0,116	-0,042
-272,613	557,339	0,102	0,176
-271,599	-200,000	-0,028	0,134
-270,584	-81,851	-0,070	0,016
-269,570	-200,000	0,012	0,057
-268,555	91,148	-0,061	-0,049
-267,540	62,690	-0,029	-0,021
-266,526	-200,000	0,010	0,057
-265,511	800,000	-0,015	-0,039
-264,497	144,934	0,107	0,103
-263,482	800,000	0,049	-0,120
-262,467	-200,000	0,009	-0,032
-261,453	-200,000	0,014	0,114
-260,438	49,747	-0,068	-0,046
-259,424	-73,920	-0,180	-0,046
-258,409	720,848	-0,073	-0,139
-257,395	79,040	0,018	-0,014
-256,380	-87,066	0,126	-0,027
-255,365	50,815	-0,069	-0,047
-254,351	58,174	0,060	0,042
-253,336	269,625	0,064	0,080
-252,322	482,049	-0,046	-0,075
-251,307	79,354	0,026	-0,020
-250,292	23,143	-0,038	0,022
-249,278	115,548	0,097	0,084
-248,263	800,000	0,050	0,140
-247,249	-51,681	0,052	-0,017
-246,234	-72,396	-0,141	-0,037
-245,219	-92,930	-0,057	0,011
-244,205	-200,000	-0,021	-0,198
-243,190	800,000	-0,023	0,048
-242,176	-200,000	-0,004	0,013
-241,161	-41,092	0,035	0,013
-240,146	-200,000	0,046	0,163
-239,132	6,338	0,180	-0,095
-238,117	-45,975	-0,089	-0,031
-237,103	-64,598	-0,050	0,014
-236,088	-144,533	0,022	0,001
-235,073	114,217	0,085	-0,074
-234,059	-200,000	-0,015	0,051
-233,044	-74,621	0,100	-0,026
-232,030	-200,000	0,017	0,077
-231,015	361,425	-0,060	-0,087
-230,000	-200,000	-0,010	0,064
-228,986	-169,442	0,046	-0,001
-227,971	58,491	0,075	-0,053
-226,957	544,407	0,020	-0,034
-225,942	320,678	-0,037	0,050
-224,927	-29,353	0,133	-0,054
-223,913	83,661	0,024	0,019
-222,898	-200,000	-0,007	0,126
-221,884	144,044	-0,051	-0,048
-220,869	-24,215	0,146	-0,062
-219,855	-200,000	0,032	0,156
-218,840	-200,000	-0,006	0,138
-217,825	-3,140	0,026	-0,013
-216,811	48,472	-0,096	0,064
-215,796	-118,547	-0,081	-0,010
-214,782	-130,165	-0,175	0,017
-213,767	800,000	-0,004	-0,011
-212,752	51,232	0,109	0,074
-211,738	-200,000	-0,019	-0,157
-210,723	414,865	-0,056	-0,086
-209,709	1,529	0,075	-0,038
-208,694	-169,301	-0,083	-0,002
-207,679	49,091	0,087	0,058
-206,665	-69,362	-0,087	-0,024
-205,650	12,005	0,036	0,019
-204,636	553,679	0,040	0,068
-203,621	-138,281	-0,124	-0,010
-202,606	110,708	0,165	-0,142
-201,592	-147,621	-0,030	0,002
-200,577	-3,813	0,084	0,041
-199,563	305,904	0,040	-0,053
-198,548	92,385	-0,034	0,027
-197,533	253,754	-0,041	-0,051
-196,519	623,760	-0,016	-0,028
-195,504	481,626	0,085	-0,138
-194,490	75,328	-0,110	-0,083
-193,475	29,271	0,058	-0,035
-192,460	-200,000	0,008	-0,106
-191,446	37,531	0,052	-0,033
-190,431	227,100	0,018	-0,021
-189,417	400,864	-0,028	0,042
-188,402	-58,168	-0,023	0,007
-187,387	8,614	-0,068	-0,036
-186,373	800,000	-0,064	-0,185
-185,358	258,756	0,076	0,094
-184,344	-114,825	-0,115	0,015
-183,329	800,000	-0,037	-0,113
-182,315	-90,524	0,128	-0,026
-181,300	-93,197	-0,077	-0,015
-180,285	-31,503	0,081	-0,032
-179,271	496,474	-0,036	0,059
-178,256	600,969	-0,030	-0,053
-177,242	800,000	0,061	-0,125
-176,227	61,195	-0,119	0,084
-175,212	-79,321	-0,124	-0,030
-174,198	-200,000	-0,024	0,091
-173,183	3,268	-0,101	-0,052
-172,169	32,166	-0,076	-0,047
-171,154	-200,000	-0,010	-0,072
-170,139	55,369	0,098	-0,067
-169,125	36,223	0,104	-0,065
-168,110	-49,567	0,044	0,015
-167,096	3,677	0,069	-0,036
-166,081	-71,929	-0,032	-0,008
-165,066	25,206	0,068	0,040
-164,052	135,793	-0,075	-0,069
-163,037	800,000	-0,039	-0,109
-162,023	800,000	-0,034	-0,100
-161,008	-200,000	0,040	-0,136
-159,993	-0,181	-0,138	0,070
-158,979	-3,529	0,049	-0,024
-157,964	-200,000	0,026	-0,106
-156,950	-200,000	-0,002	-0,056
-155,935	-112,684	-0,143	-0,020
-154,920	-2,681	0,071	-0,035
-153,906	91,202	-0,062	0,050
-152,891	516,437	-0,046	0,076
-151,877	800,000	0,031	0,074
-150,862	-200,000	-0,021	0,127
-149,847	800,000	-0,003	0,007
-148,833	353,488	0,009	0,013
-147,818	-184,938	-0,008	0,000
-146,804	315,273	0,093	-0,125
-145,789	-76,131	-0,066	-0,016
-144,775	615,253	-0,016	-0,028
-143,760	605,995	0,027	0,048
-142,745	198,747	0,150	-0,163
-141,731	-200,000	-0,013	-0,126
-140,716	182,375	0,044	0,047
-139,702	-31,820	-0,055	-0,022
-138,687	-200,000	-0,007	-0,047
-137,672	502,545	-0,054	0,089
-136,658	-200,000	-0,037	-0,125
-135,643	14,170	0,105	0,058
-134,629	800,000	-0,056	0,134
-133,614	800,000	0,022	0,049
-132,599	-200,000	-0,002	0,043
-131,585	-175,647	0,080	-0,001
-130,570	187,065	0,056	-0,059
-129,556	-20,680	-0,099	-0,043
-128,541	800,000	0,022	-0,065
-127,526	-22,707	-0,040	0,017
-126,512	51,777	0,134	0,091
-125,497	139,383	-0,035	0,033
-124,483	417,995	-0,009	0,014
-123,468	560,224	-0,054	0,094
-122,453	-200,000	-0,007	0,033
-121,439	-200,000	-0,013	0,051
-120,424	-31,354	-0,186	-0,074
-119,410	800,000	-0,049	-0,128
