DTS Sentinel unit serial number:	SN410029Multiplexer serial number:	ORYXHardware model number:	OX2-SRSoftware version number:	ORYX F/W v4,00 Oryx Data Collector v3.7.2.0data status	okinstallation	BH3 CH2differential loss correction	single-endedforward channel	channel 2reverse channel	N/Adate	2023/12/06time	04:32:28forward acquisition time	300,00reverse acquisition time	0,00gamma	499,1914k internal	0,3197k external	0,3197temperature offset calibration	1,0000default loss term (dB/km)	0,3820temperature slope calibration	1,0000multiplexer offset coefficient	1,0000multiplexer slope coefficient	1,0000fibre end	0,00T internal ref (°C)	8,93T ext. ref 1 (°C)	-5,69T ext. ref 2 (°C)	-5,78length (m)	temperature (°C)	Stokes	anti-Stokes-744,400	800,000	0,091	-0,189
-743,385	1,074	-0,195	0,101
-742,371	220,834	0,057	-0,067
-741,356	49,571	-0,233	0,159
-740,342	29,818	0,128	-0,079
-739,327	-56,985	-0,270	0,086
-738,312	-200,000	0,042	-0,202
-737,298	-66,351	-0,297	0,085
-736,283	-119,378	0,117	-0,015
-735,269	-177,015	-0,175	-0,003
-734,254	-200,000	-0,025	-0,215
-733,239	1,699	-0,413	-0,216
-732,225	-129,017	0,212	-0,021
-731,210	449,084	-0,057	0,091
-730,196	-200,000	0,011	0,098
-729,181	-122,195	-0,045	-0,005
-728,167	-136,934	-0,106	-0,009
-727,152	738,854	0,025	-0,050
-726,137	40,169	-0,127	0,083
-725,123	-3,374	-0,123	-0,062
-724,108	-200,000	-0,022	-0,138
-723,094	374,329	-0,080	-0,119
-722,079	-189,660	-0,099	0,001
-721,064	-122,225	0,140	-0,017
-720,050	-200,000	0,002	-0,160
-719,035	-200,000	0,009	0,056
-718,021	-7,353	-0,018	-0,009
-717,006	-15,848	-0,075	-0,035
-715,991	0,150	-0,150	-0,077
-714,977	11,205	0,063	-0,035
-713,962	-101,242	0,040	-0,007
-712,948	800,000	0,025	0,059
-711,933	-37,040	0,099	0,038
-710,918	-200,000	0,038	-0,134
-709,904	44,683	-0,137	-0,091
-708,889	139,893	-0,041	-0,039
-707,875	800,000	0,040	-0,116
-706,860	800,000	0,049	-0,116
-705,845	-65,178	0,163	0,047
-704,831	-200,000	-0,031	-0,143
-703,816	-64,096	0,074	-0,022
-702,802	-194,984	-0,022	0,000
-701,787	-200,000	-0,019	-0,090
-700,772	393,022	-0,089	-0,135
-699,758	-200,000	0,005	0,103
-698,743	-69,052	0,045	0,013
-697,729	-200,000	-0,004	0,043
-696,714	-200,000	0,004	-0,048
-695,699	176,671	-0,048	-0,050
-694,685	-60,569	0,034	0,010
-693,670	22,053	-0,095	-0,056
-692,656	-52,439	-0,047	-0,016
-691,641	461,233	-0,090	-0,146
-690,627	-130,633	0,049	-0,005
-689,612	599,546	0,071	0,129
-688,597	-133,221	-0,126	-0,011
-687,583	-26,488	-0,065	-0,027
-686,568	97,859	-0,059	-0,050
-685,554	216,912	-0,061	-0,071
-684,539	800,000	-0,016	-0,040
-683,524	115,865	0,090	-0,080
-682,510	11,731	-0,032	-0,018
-681,495	554,243	0,014	-0,025
-680,481	-25,742	-0,065	0,028
-679,466	294,132	-0,067	-0,089
-678,451	117,869	-0,054	-0,048
-677,437	49,768	0,081	0,055
-676,422	-96,715	0,063	-0,012
-675,408	-89,696	-0,113	-0,024
-674,393	-151,672	-0,068	0,004
-673,378	-19,008	-0,033	0,015
-672,364	-200,000	0,011	-0,143
-671,349	-200,000	0,006	0,070
-670,335	-124,336	-0,148	-0,017
-669,320	-200,000	0,005	-0,055
-668,305	611,572	-0,023	-0,041
-667,291	-55,394	-0,022	0,007
-666,276	-95,268	0,130	0,025
-665,262	-200,000	-0,014	-0,156
-664,247	800,000	0,020	-0,050
-663,232	496,860	-0,051	-0,085
-662,218	146,212	0,087	0,084
-661,203	-132,841	0,102	-0,009
-660,189	170,052	-0,026	0,027
-659,174	91,846	0,078	0,064
-658,159	-200,000	-0,026	-0,090
-657,145	74,667	-0,138	0,105
-656,130	-33,842	0,138	0,055
-655,116	800,000	-0,038	-0,091
-654,101	734,481	0,060	0,118
-653,086	338,852	-0,096	-0,136
-652,072	642,370	0,057	-0,107
-651,057	-200,000	-0,008	-0,085
-650,043	-200,000	0,020	-0,105
-649,028	5,312	-0,071	0,038
-648,014	140,581	-0,017	0,016
-646,999	313,714	0,008	0,011
-645,984	-79,517	0,118	-0,029
-644,970	-52,308	-0,129	-0,043
-643,955	280,537	-0,083	-0,107
-642,941	80,892	-0,057	-0,044
-641,926	49,303	0,060	-0,041
-640,911	132,028	-0,065	0,061
-639,897	503,409	-0,077	0,130
-638,882	-65,251	-0,020	0,006
-637,868	479,684	-0,100	-0,165
-636,853	-200,000	0,016	-0,150
-635,838	334,155	-0,133	-0,187
-634,824	188,830	-0,073	-0,079
-633,809	-80,798	0,061	0,015
-632,795	-172,019	0,125	-0,003
-631,780	-200,000	0,013	0,043
-630,765	-67,750	-0,062	-0,018
-629,751	376,343	-0,064	-0,095
-628,736	-117,713	-0,196	-0,025
-627,722	206,315	0,078	-0,088
-626,707	47,786	0,109	-0,074
-625,692	-200,000	0,014	0,179
-624,678	436,617	0,083	0,131
-623,663	645,956	0,031	-0,058
-622,649	-139,179	0,034	-0,003
-621,634	33,504	-0,050	0,031
-620,619	-200,000	-0,005	-0,049
-619,605	800,000	0,056	0,156
-618,590	13,947	0,026	0,015
-617,576	195,228	0,007	-0,008
-616,561	-98,292	-0,105	-0,019
-615,546	-153,747	0,031	-0,002
-614,532	800,000	0,025	-0,079
-613,517	-36,046	-0,099	0,039
-612,503	-112,501	-0,076	-0,011
-611,488	34,013	0,168	0,106
-610,474	800,000	0,039	0,101
-609,459	751,954	-0,032	-0,062
-608,444	-200,000	0,030	-0,130
-607,430	-135,404	-0,034	0,003
-606,415	150,956	-0,086	-0,085
-605,401	18,909	0,044	0,025
-604,386	-28,106	0,018	-0,008
-603,371	-200,000	-0,003	0,126
-602,357	-136,462	0,062	0,005
-601,342	181,465	0,074	0,079
-600,328	-200,000	-0,035	-0,193
-599,313	91,189	0,058	-0,047
-598,298	-200,000	-0,023	-0,172
-597,284	71,945	-0,044	-0,033
-596,269	-63,084	0,094	-0,028
-595,255	747,124	0,026	0,051
-594,240	800,000	-0,048	0,133
-593,225	-117,739	-0,177	-0,023
-592,211	302,799	0,015	-0,021
-591,196	800,000	-0,019	-0,044
-590,182	-15,874	-0,103	0,047
-589,167	57,261	0,034	0,024
-588,152	309,376	-0,045	0,061
-587,138	70,416	0,037	-0,028
-586,123	-200,000	0,007	-0,049
-585,109	-12,141	-0,095	0,045
-584,094	-3,588	-0,038	-0,019
-583,079	-200,000	0,026	-0,094
-582,065	-36,946	0,031	-0,012
-581,050	-200,000	-0,023	0,094
-580,036	156,209	0,039	0,039
-579,021	268,191	-0,064	-0,081
-578,006	565,129	-0,053	-0,093
-576,992	161,303	-0,055	-0,056
-575,977	-200,000	0,003	-0,046
-574,963	-125,442	0,223	-0,024
-573,948	-2,222	-0,052	0,026
-572,934	424,644	-0,037	0,058
-571,919	297,435	-0,089	-0,119
-570,904	-200,000	0,039	-0,195
-569,890	-200,000	-0,001	-0,072
-568,875	800,000	0,039	-0,111
-567,861	-139,249	0,067	0,005
-566,846	-200,000	0,004	0,065
-565,831	140,009	0,078	0,074
-564,817	280,000	0,043	-0,056
-563,802	-52,338	-0,034	-0,011
-562,788	-127,346	0,140	0,015
-561,773	-104,527	0,019	-0,003
-560,758	-200,000	-0,044	0,172
-559,744	-70,943	0,090	0,024
-558,729	800,000	-0,064	0,128
-557,715	78,825	0,085	0,066
-556,700	-16,152	-0,030	-0,014
-555,685	-33,603	-0,140	-0,055
-554,671	550,032	-0,067	-0,117
-553,656	245,262	0,010	-0,012
-552,642	-91,858	0,132	0,027
-551,627	-200,000	0,024	-0,112
-550,612	-47,699	-0,099	0,034
-549,598	-181,359	-0,051	-0,001
-548,583	21,032	0,053	0,031
-547,569	-200,000	0,020	0,116
-546,554	219,950	0,042	0,049
-545,539	800,000	0,027	0,082
-544,525	121,383	-0,085	0,076
-543,510	209,818	0,015	-0,017
-542,496	111,267	0,066	-0,058
-541,481	-37,526	-0,151	-0,058
-540,466	-79,272	0,046	0,011
-539,452	27,998	0,065	0,039
-538,437	-200,000	0,014	0,106
-537,423	253,676	0,023	0,029
-536,408	10,571	-0,111	0,061
-535,393	388,997	-0,086	-0,129
-534,379	800,000	-0,015	-0,034
-533,364	702,037	0,034	-0,065
-532,350	-200,000	0,030	-0,149
-531,335	-200,000	0,036	0,140
-530,321	-149,407	-0,048	0,003
-529,306	-51,961	-0,054	-0,018
-528,291	484,629	-0,016	0,026
-527,277	-2,207	0,046	-0,023
-526,262	-200,000	-0,011	0,082
-525,248	-41,224	0,057	0,021
-524,233	30,340	-0,045	0,028
-523,218	-152,234	0,083	0,004
-522,204	-74,684	-0,137	0,035
-521,189	800,000	0,042	-0,107
-520,175	-137,238	-0,048	-0,004
-519,160	-200,000	0,035	0,175
-518,145	-116,719	0,058	-0,008
-517,131	56,818	0,059	-0,042
-516,116	-200,000	-0,005	0,095
-515,102	800,000	0,059	0,187
-514,087	-65,621	-0,158	-0,046
-513,072	71,744	-0,109	0,082
-512,058	-200,000	0,037	-0,135
-511,043	-200,000	0,040	-0,130
-510,029	595,997	0,029	-0,053
-509,014	196,499	0,108	0,119
-507,999	61,238	-0,047	0,034
-506,985	653,747	-0,020	-0,037
-505,970	800,000	0,042	-0,103
-504,956	800,000	0,017	-0,053
-503,941	467,752	0,055	-0,089
-502,926	800,000	-0,075	-0,181
-501,912	-200,000	0,010	-0,100
-500,897	800,000	-0,051	0,109
-499,883	150,119	0,142	-0,140
-498,868	589,350	-0,055	0,099
-497,853	-31,005	-0,126	0,051
-496,839	-82,579	0,070	0,016
-495,824	46,496	-0,046	-0,031
-494,810	800,000	0,024	0,062
-493,795	800,000	-0,022	0,044
-492,781	800,000	0,049	0,124
-491,766	-7,157	-0,161	-0,079
-490,751	63,116	-0,103	-0,074
-489,737	-152,025	-0,057	0,003
-488,722	127,134	0,103	0,094
-487,708	-200,000	0,001	-0,069
-486,693	70,127	0,082	0,061
-485,678	-7,247	0,080	0,039
-484,664	800,000	-0,022	0,054
-483,649	800,000	-0,063	-0,130
-482,635	142,480	0,105	0,101
-481,620	-200,000	-0,004	0,093
-480,605	760,943	0,075	0,148
-479,591	577,029	-0,081	0,143
-478,576	-200,000	-0,036	-0,114
-477,562	800,000	-0,019	-0,045
-476,547	487,991	-0,040	-0,065
-475,532	-68,482	-0,203	0,056
-474,518	190,929	-0,037	-0,041
-473,503	-200,000	-0,046	0,156
-472,489	399,132	-0,056	0,085
-471,474	-68,053	0,028	0,008
-470,459	-200,000	0,001	-0,029
-469,445	-21,334	0,059	0,026
-468,430	-66,605	-0,117	-0,033
-467,416	800,000	-0,026	-0,057
-466,401	713,608	-0,038	0,073
-465,386	200,033	0,071	-0,078
-464,372	-200,000	0,005	0,016
-463,357	800,000	0,030	-0,083
-462,343	326,152	-0,007	-0,010
-461,328	-23,545	0,104	-0,045
-460,313	287,997	0,058	-0,076
-459,299	313,137	0,027	-0,037
-458,284	-31,592	0,096	0,039
-457,270	-200,000	-0,015	0,111
-456,255	-36,027	-0,109	0,042
-455,241	139,694	0,020	0,019
-454,226	22,175	0,023	-0,014
-453,211	-200,000	0,004	0,092
-452,197	196,755	-0,071	-0,077
-451,182	790,545	-0,072	0,142
-450,168	-66,131	-0,056	0,016
-449,153	34,500	0,093	-0,059
-448,138	-13,121	0,050	-0,023
-447,124	41,948	-0,093	-0,061
-446,109	-200,000	0,006	0,124
-445,095	-11,121	0,098	0,046
-444,080	72,168	0,125	-0,093
-443,065	75,149	-0,009	0,007
-442,051	-200,000	0,030	-0,144
-441,036	39,026	-0,074	0,048
-440,022	800,000	-0,058	-0,143
-439,007	-148,984	0,042	0,002
-437,992	-200,000	-0,014	-0,117
-436,978	69,033	0,082	-0,061
-435,963	-105,423	-0,170	0,028
-434,949	-200,000	0,034	-0,143
-433,934	238,597	0,106	-0,127
-432,919	-69,187	-0,155	-0,043
-431,905	800,000	0,010	-0,030
-430,890	-12,336	0,059	0,027
-429,876	-5,247	-0,024	0,012
-428,861	-200,000	0,014	0,149
-427,846	167,520	0,017	-0,018
-426,832	-121,690	0,051	0,006
-425,817	-42,172	-0,083	-0,030
-424,803	-105,972	0,125	-0,020
-423,788	-185,130	-0,073	0,001
-422,773	800,000	0,085	0,245
-421,759	-200,000	-0,001	0,038
-420,744	-200,000	0,008	0,050
-419,730	43,604	0,067	-0,044
-418,715	-9,205	-0,074	-0,035
-417,701	62,390	0,038	0,027
-416,686	253,686	-0,038	0,047
-415,671	-135,825	0,028	0,002
-414,657	-141,877	0,040	0,003
-413,642	-20,583	0,083	0,037
-412,628	-77,892	0,121	0,030
-411,613	79,246	-0,174	-0,134
-410,598	-145,923	-0,115	-0,007
-409,584	-70,579	-0,024	0,006
-408,569	496,607	0,051	0,085
-407,555	97,690	0,114	0,094
-406,540	45,296	0,110	-0,073
-405,525	667,900	-0,062	0,116
-404,511	800,000	-0,035	-0,074
-403,496	113,890	0,103	-0,090
-402,482	-89,239	0,049	0,010
-401,467	89,742	0,145	0,116
-400,452	-200,000	-0,004	0,101
-399,438	800,000	0,036	-0,110
-398,423	-200,000	-0,021	-0,211
-397,409	115,839	-0,064	-0,056
-396,394	-200,000	-0,001	0,053
-395,379	-200,000	0,019	0,244
-394,365	-58,394	-0,137	-0,043
-393,350	-48,972	0,071	0,024
-392,336	-35,536	0,105	-0,041
-391,321	-36,500	-0,130	-0,050
-390,306	-4,261	-0,043	-0,021
-389,292	-123,415	-0,031	-0,004
-388,277	271,033	0,110	0,140
-387,263	87,313	-0,078	-0,062
-386,248	-2,421	-0,056	0,028
-385,233	762,316	-0,048	0,094
-384,219	800,000	-0,037	0,079
-383,204	11,295	0,159	-0,087
-382,190	2,122	-0,096	-0,050
-381,175	-200,000	-0,007	-0,090
-380,160	37,301	0,137	-0,087
-379,146	-105,072	-0,123	-0,020
-378,131	27,920	0,030	-0,018
-377,117	-33,517	-0,159	0,063
-376,102	195,356	0,094	0,102
-375,088	431,832	-0,018	-0,029
-374,073	228,862	0,088	0,103
-373,058	-53,365	0,105	0,034
-372,044	800,000	-0,021	0,062
-371,029	424,833	0,090	0,140
-370,015	507,969	-0,052	-0,087
-369,000	-42,443	-0,136	0,050
-367,985	-157,223	-0,202	0,009
-366,971	800,000	0,015	0,040
-365,956	-83,774	0,132	-0,030
-364,942	-15,823	0,033	0,015
-363,927	800,000	0,042	0,121
-362,912	494,582	-0,100	0,165
-361,898	800,000	-0,012	-0,033
-360,883	800,000	-0,034	-0,090
-359,869	-46,016	0,042	-0,015
-358,854	-200,000	0,006	0,058
-357,839	673,300	-0,060	0,112
-356,825	-200,000	0,020	0,136
-355,810	402,105	-0,039	0,058
-354,796	-154,524	0,047	-0,002
-353,781	-200,000	0,028	-0,099
-352,766	57,535	0,097	-0,068
-351,752	-98,009	0,062	-0,011
-350,737	199,600	0,095	0,105
-349,723	282,541	-0,072	0,093
-348,708	4,578	-0,029	-0,015
-347,693	32,388	0,024	-0,015
-346,679	-200,000	-0,010	0,095
-345,664	-155,280	-0,059	-0,003
-344,650	130,027	-0,086	-0,079
-343,635	-110,793	0,078	0,011
-342,620	-200,000	0,001	0,097
-341,606	-200,000	0,003	-0,023
-340,591	-110,389	-0,220	-0,032
-339,577	-58,595	0,196	0,061
-338,562	11,617	0,121	0,066
-337,548	-162,664	-0,184	-0,006
-336,533	500,651	-0,029	0,048
-335,518	190,712	0,103	0,111
-334,504	-53,049	-0,086	0,028
-333,489	58,438	-0,093	0,065
-332,475	381,609	-0,028	-0,041
-331,460	-56,671	-0,091	-0,029
-330,445	283,592	-0,051	-0,066
-329,431	-170,031	-0,039	-0,001
-328,416	7,559	0,156	0,083
-327,402	-200,000	0,012	-0,064
-326,387	-133,804	0,094	0,008
-325,372	-76,270	-0,100	-0,025
-324,358	-200,000	-0,002	-0,030
-323,343	-32,770	0,093	0,037
-322,329	-200,000	-0,015	0,072
-321,314	218,466	-0,035	0,040
-320,299	113,490	-0,060	0,052
-319,285	800,000	0,064	-0,140
-318,270	-105,923	-0,122	-0,019
-317,256	-200,000	0,005	-0,110
-316,241	296,460	-0,026	0,034
-315,226	-61,467	-0,029	-0,009
-314,212	143,638	0,025	0,024
-313,197	158,419	-0,085	0,084
-312,183	12,509	0,085	0,047
-311,168	800,000	0,005	-0,015
-310,153	454,880	-0,074	-0,117
-309,139	723,709	0,045	0,085
-308,124	-43,755	-0,078	-0,028
-307,110	-43,649	0,082	0,030
-306,095	-23,269	0,055	-0,024
-305,080	-36,210	0,067	0,026
-304,066	236,520	-0,088	-0,104
-303,051	800,000	-0,054	-0,115
-302,037	-200,000	0,003	0,103
-301,022	-200,000	-0,007	0,105
-300,008	14,045	0,124	0,069
-298,993	800,000	0,053	0,139
-297,978	-45,810	0,096	0,034
-296,964	800,000	-0,059	-0,133
-295,949	17,433	-0,131	-0,074
-294,935	-57,345	0,031	-0,010
-293,920	-200,000	0,048	0,225
-292,905	-200,000	0,092	0,000
-291,891	-96,467	-0,094	-0,018
-290,876	-200,000	-0,029	0,190
-289,862	-185,440	-0,107	-0,001
-288,847	-200,000	0,012	0,081
-287,832	800,000	0,045	-0,112
-286,818	58,876	-0,137	0,096
-285,803	-182,287	0,112	0,001
-284,789	800,000	0,016	-0,046
-283,774	-59,320	-0,125	0,038
-282,759	-52,642	-0,055	-0,018
-281,745	198,448	-0,125	-0,137
-280,730	800,000	0,042	-0,107
-279,716	800,000	0,053	-0,107
-278,701	-66,864	-0,042	0,012
-277,686	450,138	0,066	0,105
-276,672	303,322	-0,010	-0,013
-275,657	34,749	0,109	0,068
-274,643	-82,804	-0,137	0,031
-273,628	-39,401	0,015	0,006
-272,613	-200,000	-0,006	-0,103
-271,599	-200,000	0,046	0,164
-270,584	-200,000	0,006	0,109
-269,570	-200,000	0,004	-0,146
-268,555	287,206	-0,090	-0,117
-267,540	-200,000	0,006	-0,051
-266,526	191,568	-0,045	-0,048
-265,511	-158,228	0,059	-0,002
-264,497	199,351	-0,012	0,013
-263,482	128,991	0,179	0,164
-262,467	-54,932	0,011	0,004
-261,453	800,000	-0,060	-0,147
-260,438	27,571	-0,033	0,020
-259,424	-19,068	-0,085	-0,038
-258,409	475,753	0,053	-0,085
-257,395	54,524	0,060	0,041
-256,380	120,788	-0,027	-0,024
-255,365	316,820	0,029	-0,040
-254,351	353,717	0,024	0,035
-253,336	-200,000	0,003	0,102
-252,322	97,769	0,042	0,034
-251,307	-63,222	0,117	0,034
-250,292	486,698	0,051	-0,084
-249,278	800,000	0,033	0,086
-248,263	26,695	-0,020	-0,012
-247,249	-122,444	0,078	-0,009
-246,234	800,000	0,051	-0,104
-245,219	-7,673	-0,074	-0,035
-244,205	-200,000	0,002	0,027
-243,190	34,617	-0,081	-0,051
-242,176	483,153	-0,038	-0,061
-241,161	272,193	-0,050	-0,064
-240,146	464,970	0,081	0,130
-239,132	-200,000	0,000	-0,034
-238,117	685,770	0,024	0,046
-237,103	-200,000	-0,035	-0,139
-236,088	53,976	-0,211	-0,144
-235,073	-2,037	0,009	0,004
-234,059	740,762	0,026	-0,051
-233,044	508,244	0,071	0,119
-232,030	-28,733	0,174	-0,071
-231,015	-0,920	-0,090	-0,045
-230,000	213,963	-0,031	-0,035
-228,986	156,388	-0,124	-0,123
-227,971	171,155	0,038	0,039
-226,957	-35,161	-0,088	0,034
-225,942	800,000	0,020	-0,040
-224,927	-34,874	0,140	0,054
-223,913	327,597	-0,086	-0,118
-222,898	-200,000	0,007	-0,116
-221,884	-127,678	-0,102	-0,010
-220,869	800,000	-0,016	-0,043
-219,855	98,571	-0,007	0,006
-218,840	-87,895	0,108	0,023
-217,825	-200,000	0,016	0,120
-216,811	681,185	-0,056	0,104
-215,796	152,303	0,052	0,050
-214,782	12,297	-0,010	-0,006
-213,767	161,357	-0,028	0,028
-212,752	-162,690	0,115	-0,004
-211,738	-31,447	-0,149	-0,060
-210,723	333,805	-0,026	-0,036
-209,709	-137,588	0,031	0,002
-208,694	-200,000	0,034	-0,137
-207,679	245,834	0,053	-0,064
-206,665	238,377	-0,021	-0,024
-205,650	-200,000	0,008	-0,125
-204,636	-71,471	0,150	0,040
-203,621	-200,000	0,033	0,129
-202,606	35,454	0,022	0,014
-201,592	429,591	-0,044	-0,068
-200,577	-19,021	-0,033	-0,015
-199,563	-200,000	0,003	0,086
-198,548	149,595	0,104	0,100
-197,533	-130,280	0,074	-0,007
-196,519	213,511	-0,047	0,053
-195,504	61,395	-0,038	-0,027
-194,490	800,000	-0,058	-0,121
-193,475	84,329	-0,082	-0,064
-192,460	347,374	-0,035	-0,049
-191,446	-106,105	0,072	0,011
-190,431	53,230	-0,039	0,026
-189,417	-106,138	0,095	-0,015
-188,402	800,000	-0,046	-0,093
-187,387	800,000	-0,024	-0,065
-186,373	800,000	0,046	-0,097
-185,358	-200,000	-0,003	-0,038
-184,344	360,498	0,040	0,057
-183,329	-200,000	0,030	0,113
-182,315	-200,000	-0,003	0,079
-181,300	140,517	-0,032	-0,030
-180,285	-106,796	0,152	-0,024
-179,271	529,693	-0,030	0,051
-178,256	12,318	0,109	-0,060
-177,242	-200,000	0,010	-0,160
-176,227	434,210	-0,043	-0,067
-175,212	214,419	-0,026	0,030
-174,198	-55,814	0,052	0,016
-173,183	478,130	-0,008	0,014
-172,169	-180,981	0,119	0,002
-171,154	15,870	0,136	-0,076
-170,139	26,942	-0,076	0,045
-169,125	-111,010	0,128	-0,019
-168,110	800,000	0,013	0,029
-167,096	14,319	-0,048	-0,026
-166,081	800,000	-0,058	-0,169
-165,066	75,357	0,097	-0,073
-164,052	539,672	-0,025	-0,043
-163,037	800,000	0,020	0,054
-162,023	-137,507	-0,091	0,007
-161,008	133,758	-0,065	0,060
-159,993	-200,000	-0,016	0,060
-158,979	800,000	-0,019	-0,052
-157,964	-200,000	-0,033	0,134
-156,950	51,733	0,042	-0,028
-155,935	-200,000	-0,013	0,121
-154,920	-54,146	0,172	0,055
-153,906	186,729	0,153	0,162
-152,891	195,375	-0,065	0,070
-151,877	257,907	-0,072	0,088
-150,862	39,865	-0,094	0,060
-149,847	189,263	-0,033	-0,035
-148,833	-200,000	0,025	0,108
-147,818	758,926	0,034	-0,066
-146,804	76,589	-0,102	0,077
-145,789	-200,000	-0,005	0,108
-144,775	179,113	0,090	-0,094
-143,760	800,000	-0,032	0,087
-142,745	270,662	0,016	-0,021
-141,731	205,633	-0,080	0,089
-140,716	-200,000	-0,005	-0,030
-139,702	6,743	0,074	0,039
-138,687	-101,416	0,117	-0,020
-137,672	-152,082	-0,060	0,003
-136,658	169,831	0,040	-0,041
-135,643	-200,000	0,011	0,085
-134,629	800,000	0,035	-0,084
-133,614	800,000	-0,023	0,047
-132,599	-200,000	0,009	0,109
-131,585	-50,339	0,074	0,025
-130,570	-200,000	-0,038	0,246
-129,556	-5,980	0,063	0,030
-128,541	-200,000	0,007	-0,096
-127,526	-32,225	-0,124	-0,049
-126,512	109,825	0,019	0,016
-125,497	724,999	0,044	0,083
-124,483	-200,000	-0,012	0,090
-123,468	459,914	0,060	-0,096
-122,453	14,120	-0,032	-0,018
-121,439	188,675	-0,114	-0,122
-120,424	355,270	-0,021	0,030
-119,410	-200,000	0,018	-0,073
-118,395	88,429	0,020	-0,016
