DTS Sentinel unit serial number:	SN410029Multiplexer serial number:	ORYXHardware model number:	OX2-SRSoftware version number:	ORYX F/W v4,00 Oryx Data Collector v3.7.2.0data status	okinstallation	BH3 CH2differential loss correction	single-endedforward channel	channel 2reverse channel	N/Adate	2023/12/05time	12:27:28forward acquisition time	300,00reverse acquisition time	0,00gamma	499,1914k internal	0,3195k external	0,3195temperature offset calibration	1,0000default loss term (dB/km)	0,3820temperature slope calibration	1,0000multiplexer offset coefficient	1,0000multiplexer slope coefficient	1,0000fibre end	0,00T internal ref (°C)	9,85T ext. ref 1 (°C)	-4,54T ext. ref 2 (°C)	-4,58length (m)	temperature (°C)	Stokes	anti-Stokes-744,400	362,434	0,054	-0,080
-743,385	-30,624	-0,225	0,092
-742,371	800,000	-0,051	-0,131
-741,356	63,196	-0,127	0,093
-740,342	800,000	-0,100	-0,224
-739,327	-14,995	-0,354	0,165
-738,312	56,492	-0,052	-0,037
-737,298	-60,756	-0,232	0,071
-736,283	800,000	-0,068	-0,187
-735,269	-119,526	-0,258	0,032
-734,254	93,196	-0,056	-0,046
-733,239	-45,674	-0,362	-0,130
-732,225	-200,000	-0,004	-0,070
-731,210	-26,663	0,071	0,030
-730,196	649,603	-0,046	0,085
-729,181	182,097	-0,095	-0,102
-728,167	-200,000	0,037	-0,145
-727,152	-200,000	0,022	-0,175
-726,137	398,573	-0,040	-0,062
-725,123	-133,309	-0,189	-0,017
-724,108	-200,000	0,010	-0,063
-723,094	800,000	-0,022	-0,068
-722,079	800,000	0,025	-0,074
-721,064	-200,000	-0,040	-0,143
-720,050	-7,992	-0,069	0,034
-719,035	295,658	-0,038	-0,050
-718,021	645,389	-0,032	-0,060
-717,006	-12,803	-0,124	-0,059
-715,991	181,471	-0,034	-0,037
-714,977	-164,700	-0,186	0,006
-713,962	-200,000	-0,041	-0,151
-712,948	316,497	-0,028	0,039
-711,933	800,000	-0,004	0,011
-710,918	-200,000	0,008	-0,149
-709,904	6,532	-0,138	-0,075
-708,889	430,933	-0,069	-0,109
-707,875	286,984	-0,056	-0,074
-706,860	-2,978	-0,072	-0,037
-705,845	-197,496	-0,014	0,000
-704,831	67,315	0,103	0,076
-703,816	37,521	-0,105	-0,068
-702,802	294,126	-0,095	-0,127
-701,787	-11,017	-0,064	0,031
-700,772	-5,048	0,072	0,036
-699,758	800,000	0,016	-0,046
-698,743	94,069	-0,080	-0,066
-697,729	-70,251	0,145	-0,040
-696,714	755,650	0,033	0,066
-695,699	-200,000	-0,006	-0,023
-694,685	277,774	0,050	0,065
-693,670	-200,000	-0,012	-0,064
-692,656	297,177	0,023	0,031
-691,641	521,816	0,052	-0,088
-690,627	-125,279	-0,045	0,005
-689,612	679,308	0,053	0,101
-688,597	59,930	-0,072	0,052
-687,583	-39,152	-0,140	-0,053
-686,568	-159,405	-0,118	0,005
-685,554	10,681	-0,103	-0,057
-684,539	181,046	-0,056	0,060
-683,524	-34,183	0,091	0,036
-682,510	-200,000	0,010	-0,055
-681,495	800,000	-0,009	0,019
-680,481	-104,517	0,061	-0,010
-679,466	348,814	-0,060	-0,086
-678,451	-200,000	-0,006	-0,090
-677,437	800,000	0,083	-0,196
-676,422	785,476	0,037	-0,073
-675,408	355,572	0,075	-0,109
-674,393	570,784	-0,026	-0,046
-673,378	-200,000	-0,036	-0,146
-672,364	621,724	0,100	-0,183
-671,349	800,000	-0,107	-0,247
-670,335	712,773	0,065	0,126
-669,320	-200,000	0,031	0,107
-668,305	-186,460	0,123	-0,001
-667,291	512,013	-0,004	0,006
-666,276	-1,944	-0,158	-0,080
-665,262	192,830	0,090	-0,099
-664,247	800,000	-0,022	-0,070
-663,232	-79,110	-0,055	-0,013
-662,218	-76,392	0,124	0,031
-661,203	-119,022	-0,159	-0,020
-660,189	-50,300	0,073	0,025
-659,174	8,062	0,014	-0,007
-658,159	800,000	-0,042	-0,127
-657,145	47,184	-0,058	-0,039
-656,130	9,195	-0,016	0,009
-655,116	-200,000	-0,003	-0,038
-654,101	-200,000	0,007	0,178
-653,086	256,578	-0,080	0,100
-652,072	433,728	-0,088	-0,139
-651,057	580,517	0,018	0,031
-650,043	-46,408	-0,147	0,052
-649,028	609,176	0,026	0,048
-648,014	-25,672	-0,009	0,004
-646,999	741,224	0,063	0,124
-645,984	-66,118	0,093	-0,027
-644,970	392,087	-0,052	-0,079
-643,955	-200,000	0,051	-0,186
-642,941	-200,000	0,003	-0,076
-641,926	10,194	-0,124	-0,068
-640,911	23,574	-0,052	0,031
-639,897	-122,430	-0,104	0,012
-638,882	337,938	0,048	0,067
-637,868	-153,970	0,063	-0,003
-636,853	800,000	0,044	-0,137
-635,838	135,892	0,029	-0,028
-634,824	445,201	0,109	0,174
-633,809	-65,615	0,073	-0,021
-632,795	-200,000	0,036	0,138
-631,780	-200,000	0,000	-0,085
-630,765	-100,855	-0,110	-0,020
-629,751	293,518	-0,052	0,069
-628,736	13,337	-0,153	-0,086
-627,722	224,563	-0,040	-0,047
-626,707	800,000	-0,039	-0,085
-625,692	72,576	0,061	0,046
-624,678	-78,668	-0,056	-0,014
-623,663	-200,000	0,020	0,186
-622,649	-109,122	0,077	-0,012
-621,634	-26,693	0,066	0,028
-620,619	-154,065	0,142	-0,007
-619,605	381,545	-0,081	0,121
-618,590	800,000	-0,017	0,055
-617,576	146,418	0,116	-0,113
-616,561	17,113	-0,081	0,046
-615,546	-124,684	-0,137	-0,015
-614,532	800,000	-0,057	0,125
-613,517	-200,000	0,000	-0,113
-612,503	-200,000	-0,020	0,126
-611,488	508,620	-0,050	-0,085
-610,474	39,465	-0,054	-0,035
-609,459	49,102	-0,023	0,015
-608,444	-200,000	-0,017	-0,069
-607,430	800,000	-0,048	-0,109
-606,415	50,741	-0,011	0,008
-605,401	-200,000	-0,008	0,112
-604,386	133,553	0,124	0,116
-603,371	-17,261	-0,089	-0,041
-602,357	50,273	0,044	-0,030
-601,342	-44,896	-0,091	0,033
-600,328	-200,000	-0,007	-0,071
-599,313	-200,000	-0,022	-0,114
-598,298	358,980	-0,025	0,037
-597,284	233,479	-0,023	-0,027
-596,269	800,000	0,018	-0,058
-595,255	99,240	0,059	-0,049
-594,240	-15,927	-0,156	-0,072
-593,225	-200,000	-0,036	-0,125
-592,211	-200,000	-0,024	-0,090
-591,196	-52,066	-0,167	-0,056
-590,182	-41,298	0,118	0,044
-589,167	724,853	0,050	-0,097
-588,152	-99,485	0,171	-0,031
-587,138	129,425	-0,062	0,058
-586,123	-200,000	-0,002	-0,093
-585,109	800,000	-0,049	0,131
-584,094	115,865	-0,089	-0,079
-583,079	-171,901	0,133	0,003
-582,065	-200,000	0,034	-0,111
-581,050	800,000	0,058	0,157
-580,036	40,391	0,118	0,077
-579,021	-17,562	-0,013	-0,006
-578,006	800,000	-0,047	0,102
-576,992	301,490	-0,010	-0,013
-575,977	-62,239	-0,072	0,022
-574,963	-128,125	0,176	0,018
-573,948	400,884	0,067	-0,103
-572,934	-42,686	-0,085	0,031
-571,919	-14,768	-0,014	-0,007
-570,904	23,850	0,016	0,009
-569,890	-50,646	-0,164	0,055
-568,875	-111,413	0,077	-0,011
-567,861	-50,453	-0,164	0,056
-566,846	-24,397	0,061	0,026
-565,831	-200,000	-0,011	-0,060
-564,817	-200,000	-0,009	-0,057
-563,802	-112,565	-0,078	-0,011
-562,788	168,414	0,018	-0,018
-561,773	800,000	-0,020	-0,041
-560,758	651,393	0,042	0,079
-559,744	-2,296	-0,050	-0,025
-558,729	-200,000	0,010	-0,047
-557,715	800,000	-0,050	-0,120
-556,700	178,841	0,054	-0,057
-555,685	675,640	0,024	-0,045
-554,671	-17,540	0,170	0,077
-553,656	-200,000	0,019	-0,081
-552,642	707,651	-0,071	0,135
-551,627	504,317	0,051	-0,085
-550,612	800,000	0,034	-0,075
-549,598	-200,000	-0,013	-0,077
-548,583	-200,000	-0,010	-0,082
-547,569	248,492	-0,063	-0,077
-546,554	-16,163	0,018	0,008
-545,539	271,825	0,052	-0,066
-544,525	327,066	-0,004	-0,005
-543,510	-200,000	-0,001	-0,045
-542,496	-80,086	-0,121	-0,029
-541,481	-106,596	-0,102	-0,016
-540,466	168,683	0,018	-0,018
-539,452	67,641	0,093	0,069
-538,437	423,023	0,021	-0,033
-537,423	-7,868	0,040	0,019
-536,408	-66,476	-0,134	0,038
-535,393	182,524	-0,066	-0,070
-534,379	-165,091	-0,139	-0,004
-533,364	9,102	0,110	-0,060
-532,350	800,000	-0,033	-0,089
-531,335	81,129	0,141	-0,110
-530,321	-200,000	-0,014	0,073
-529,306	344,128	-0,043	0,061
-528,291	734,792	-0,071	-0,138
-527,277	-200,000	-0,000	0,019
-526,262	-149,321	0,089	0,005
-525,248	339,784	0,010	0,015
-524,233	-53,674	0,155	0,051
-523,218	-200,000	-0,004	-0,165
-522,204	-200,000	0,026	-0,107
-521,189	14,945	0,156	-0,088
-520,175	800,000	-0,015	0,046
-519,160	104,554	-0,078	-0,066
-518,145	243,139	0,050	-0,061
-517,131	-47,141	-0,153	-0,054
-516,116	800,000	-0,038	-0,088
-515,102	-29,526	-0,146	-0,060
-514,087	-200,000	0,003	-0,138
-513,072	118,575	-0,088	-0,078
-512,058	-200,000	0,027	-0,130
-511,043	-200,000	-0,002	-0,032
-510,029	608,018	0,053	0,096
-509,014	800,000	-0,025	-0,070
-507,999	-200,000	-0,008	0,117
-506,985	-200,000	0,007	-0,052
-505,970	-200,000	0,004	-0,026
-504,956	-120,057	-0,105	0,013
-503,941	1,897	-0,149	0,077
-502,926	349,497	0,062	0,088
-501,912	288,011	-0,016	-0,021
-500,897	-200,000	-0,027	0,090
-499,883	-55,060	-0,109	0,035
-498,868	-20,945	0,101	0,045
-497,853	-74,469	-0,073	-0,019
-496,839	458,657	0,025	-0,041
-495,824	800,000	-0,012	0,035
-494,810	800,000	0,038	0,093
-493,795	-142,619	0,120	0,008
-492,781	-39,985	-0,117	0,044
-491,766	-164,283	-0,115	-0,004
-490,751	113,903	-0,124	-0,109
-489,737	605,606	0,014	-0,025
-488,722	-127,911	0,188	0,019
-487,708	-87,203	0,040	0,009
-486,693	576,460	-0,052	0,092
-485,678	800,000	0,017	-0,039
-484,664	4,988	-0,117	0,062
-483,649	9,304	-0,031	0,017
-482,635	-0,329	0,088	0,045
-481,620	-107,662	-0,088	-0,014
-480,605	-200,000	-0,001	-0,055
-479,591	-72,023	0,100	0,027
-478,576	-161,997	-0,171	-0,006
-477,562	800,000	0,026	-0,062
-476,547	0,858	-0,019	-0,010
-475,532	141,864	0,071	0,068
-474,518	-200,000	0,012	0,038
-473,503	-200,000	0,006	0,132
-472,489	-19,210	-0,061	-0,027
-471,474	240,994	0,076	-0,092
-470,459	-200,000	0,002	-0,106
-469,445	-200,000	-0,017	-0,069
-468,430	137,199	0,026	0,024
-467,416	800,000	0,074	-0,163
-466,401	800,000	-0,058	-0,144
-465,386	-200,000	0,004	0,058
-464,372	181,678	-0,064	0,068
-463,357	211,272	0,075	0,085
-462,343	800,000	0,023	-0,061
-461,328	-30,747	-0,106	-0,043
-460,313	-200,000	0,009	0,115
-459,299	-200,000	-0,004	-0,159
-458,284	-177,855	0,163	-0,003
-457,270	-112,240	-0,111	-0,016
-456,255	-19,743	-0,093	0,041
-455,241	153,384	-0,133	-0,131
-454,226	-107,117	-0,078	-0,012
-453,211	-121,964	0,153	-0,018
-452,197	219,859	0,193	-0,224
-451,182	800,000	0,027	-0,082
-450,168	-200,000	0,042	0,145
-449,153	-200,000	-0,002	0,038
-448,138	-200,000	-0,016	-0,100
-447,124	-200,000	0,015	-0,235
-446,109	318,937	-0,065	0,089
-445,095	190,276	0,149	0,161
-444,080	-154,826	0,151	-0,007
-443,065	192,882	0,047	0,052
-442,051	-200,000	-0,019	0,066
-441,036	56,016	-0,015	0,011
-440,022	-74,871	-0,052	-0,013
-439,007	-200,000	-0,005	0,147
-437,992	-62,282	0,084	0,025
-436,978	-124,091	-0,042	-0,005
-435,963	-200,000	-0,012	0,053
-434,949	107,544	0,087	-0,075
-433,934	20,471	-0,045	-0,026
-432,919	-18,981	-0,077	0,035
-431,905	423,802	-0,068	0,106
-430,890	218,501	0,036	-0,041
-429,876	696,220	-0,076	0,144
-428,861	-200,000	0,019	0,143
-427,846	206,576	0,022	-0,024
-426,832	420,086	-0,030	-0,047
-425,817	621,689	-0,032	-0,058
-424,803	-200,000	0,005	0,221
-423,788	800,000	-0,087	-0,174
-422,773	-158,304	0,098	-0,004
-421,759	-200,000	-0,025	0,099
-420,744	655,635	0,050	0,092
-419,730	145,343	-0,075	-0,072
-418,715	66,525	0,022	0,016
-417,701	-200,000	0,014	-0,062
-416,686	-196,198	0,034	0,000
-415,671	167,318	0,059	-0,061
-414,657	-22,913	0,042	0,018
-413,642	-103,036	0,043	-0,007
-412,628	-200,000	0,020	0,119
-411,613	-31,219	0,099	-0,040
-410,598	-42,165	0,129	-0,047
-409,584	-200,000	-0,037	-0,168
-408,569	-118,252	-0,083	-0,011
-407,555	800,000	0,023	0,048
-406,540	-175,477	-0,082	0,002
-405,525	70,355	-0,078	-0,058
-404,511	800,000	-0,067	-0,142
-403,496	-200,000	0,026	-0,103
-402,482	-200,000	0,004	-0,030
-401,467	156,009	0,116	0,115
-400,452	800,000	-0,048	0,102
-399,438	429,498	0,068	0,106
-398,423	-200,000	0,018	0,094
-397,409	-200,000	-0,002	-0,140
-396,394	800,000	-0,029	-0,087
-395,379	349,916	0,076	0,108
-394,365	154,235	0,097	0,096
-393,350	524,412	-0,068	0,116
-392,336	123,127	0,063	0,056
-391,321	800,000	-0,016	-0,049
-390,306	-74,012	0,123	0,032
-389,292	-200,000	-0,004	-0,038
-388,277	-200,000	0,006	-0,038
-387,263	-200,000	0,013	0,096
-386,248	764,883	0,042	0,083
-385,233	722,762	-0,065	0,125
-384,219	-200,000	0,016	0,080
-383,204	-95,725	-0,178	-0,034
-382,190	-179,420	-0,088	0,001
-381,175	-13,372	0,174	-0,081
-380,160	800,000	0,035	-0,089
-379,146	-160,293	0,027	-0,001
-378,131	65,776	-0,017	0,013
-377,117	-34,279	0,072	-0,028
-376,102	800,000	0,026	0,075
-375,088	-23,235	0,127	0,055
-374,073	-200,000	0,000	-0,147
-373,058	46,585	0,105	-0,070
-372,044	800,000	-0,062	0,167
-371,029	-77,927	-0,097	0,024
-370,015	421,834	0,033	-0,051
-369,000	389,773	-0,027	0,041
-367,985	800,000	0,044	-0,106
-366,971	4,080	0,045	0,024
-365,956	108,775	-0,067	-0,057
-364,942	22,163	0,120	0,070
-363,927	800,000	-0,045	0,129
-362,912	164,196	0,057	-0,057
-361,898	-200,000	-0,009	0,052
-360,883	37,597	-0,105	0,067
-359,869	386,971	-0,100	0,148
-358,854	-200,000	-0,001	-0,043
-357,839	3,729	-0,110	-0,058
-356,825	634,212	-0,057	0,103
-355,810	614,266	-0,036	-0,066
-354,796	-200,000	-0,010	0,107
-353,781	-34,569	-0,121	-0,047
-352,766	35,218	0,173	-0,109
-351,752	292,322	0,041	-0,053
-350,737	86,473	0,124	0,098
-349,723	800,000	0,038	0,116
-348,708	427,832	-0,057	0,089
-347,693	22,880	0,053	-0,031
-346,679	800,000	-0,063	0,151
-345,664	0,720	-0,144	-0,074
-344,650	-165,453	0,163	0,005
-343,635	589,148	-0,042	0,074
-342,620	-200,000	0,016	-0,068
-341,606	8,465	-0,033	-0,018
-340,591	153,417	-0,126	0,124
-339,577	-58,662	-0,062	-0,019
-338,562	-200,000	0,055	-0,176
-337,548	-47,611	-0,050	-0,017
-336,533	307,681	0,033	0,045
-335,518	-200,000	0,025	-0,090
-334,504	77,708	0,133	0,101
-333,489	78,490	-0,101	-0,078
-332,475	259,032	-0,064	-0,079
-331,460	-154,079	0,049	-0,002
-330,445	-200,000	-0,023	0,107
-329,431	800,000	0,061	0,137
-328,416	-200,000	0,023	0,130
-327,402	800,000	0,046	0,101
-326,387	-32,248	0,022	-0,009
-325,372	-200,000	-0,002	-0,039
-324,358	-200,000	-0,000	0,101
-323,343	800,000	0,028	-0,067
-322,329	-120,616	0,050	-0,006
-321,314	19,566	0,039	-0,023
-320,299	-108,245	0,141	-0,022
-319,285	800,000	0,015	-0,037
-318,270	-43,895	-0,097	-0,035
-317,256	534,855	-0,057	-0,097
-316,241	239,890	-0,093	0,111
-315,226	800,000	-0,034	0,091
-314,212	284,983	0,105	0,135
-313,197	800,000	0,034	0,079
-312,183	247,089	-0,018	-0,022
-311,168	-200,000	-0,015	0,076
-310,153	-200,000	0,001	0,052
-309,139	726,553	-0,044	0,084
-308,124	-76,520	-0,060	-0,015
-307,110	-200,000	0,025	0,113
-306,095	-200,000	0,019	-0,109
-305,080	1,133	0,130	0,066
-304,066	383,272	-0,065	0,097
-303,051	-17,586	0,104	0,047
-302,037	253,552	-0,095	-0,116
-301,022	800,000	-0,025	-0,051
-300,008	-124,831	0,064	0,007
-298,993	-46,400	0,086	-0,030
-297,978	547,249	0,020	-0,034
-296,964	-200,000	-0,015	0,059
-295,949	-200,000	-0,029	-0,100
-294,935	357,767	-0,067	-0,095
-293,920	-200,000	0,017	-0,057
-292,905	-44,458	0,134	-0,048
-291,891	73,868	0,103	-0,077
-290,876	652,684	-0,015	0,028
-289,862	52,722	-0,054	0,037
-288,847	-157,298	-0,044	-0,002
-287,832	-186,984	0,107	-0,001
-286,818	-104,643	0,062	-0,010
-285,803	-33,416	0,072	-0,028
-284,789	240,267	-0,040	0,048
-283,774	48,859	0,124	0,083
-282,759	306,634	0,032	0,043
-281,745	800,000	-0,015	-0,039
-280,730	-200,000	0,029	-0,138
-279,716	204,524	-0,017	-0,019
-278,701	206,225	0,101	0,112
-277,686	-200,000	-0,002	0,036
-276,672	8,510	-0,175	0,094
-275,657	10,431	-0,114	-0,062
-274,643	800,000	0,027	-0,073
-273,628	-200,000	0,001	-0,069
-272,613	11,113	0,136	-0,074
-271,599	800,000	0,046	0,104
-270,584	800,000	-0,027	-0,070
-269,570	332,100	0,060	0,083
-268,555	-99,950	-0,152	-0,027
-267,540	287,970	0,014	-0,018
-266,526	84,522	-0,115	0,090
-265,511	127,665	0,071	0,064
-264,497	800,000	0,007	0,015
-263,482	-163,596	0,047	-0,002
-262,467	-86,702	0,118	-0,026
-261,453	-90,934	0,177	0,036
-260,438	79,973	-0,059	-0,045
-259,424	-39,477	0,024	0,009
-258,409	54,328	-0,112	0,077
-257,395	316,306	0,029	-0,039
-256,380	-200,000	0,032	0,213
-255,365	29,305	-0,072	-0,043
-254,351	191,269	-0,053	0,057
-253,336	-200,000	-0,040	-0,188
-252,322	177,928	-0,054	-0,057
-251,307	22,158	0,101	0,059
-250,292	113,106	-0,029	-0,025
-249,278	-78,135	0,096	0,023
-248,263	21,008	-0,136	0,079
-247,249	229,980	-0,075	0,088
-246,234	51,684	-0,068	0,046
-245,219	18,439	0,092	-0,053
-244,205	395,256	-0,051	-0,076
-243,190	341,280	0,071	-0,099
-242,176	232,103	0,038	-0,044
-241,161	-24,046	-0,058	-0,024
-240,146	-13,812	0,059	0,027
-239,132	562,289	0,012	0,020
-238,117	-117,086	-0,114	0,015
-237,103	362,993	0,048	-0,069
-236,088	-200,000	0,008	0,034
-235,073	306,763	-0,060	0,080
-234,059	-200,000	-0,021	0,096
-233,044	-200,000	0,004	0,127
-232,030	566,271	0,062	-0,108
-231,015	-103,076	-0,163	-0,027
-230,000	-200,000	0,019	0,084
-228,986	140,431	-0,073	0,069
-227,971	-47,486	0,037	0,013
-226,957	800,000	0,081	0,162
-225,942	800,000	0,070	0,163
-224,927	-142,894	-0,110	-0,008
-223,913	-200,000	-0,006	-0,052
-222,898	-23,708	-0,051	0,022
-221,884	94,678	-0,182	0,148
-220,869	42,603	-0,070	-0,045
-219,855	-200,000	0,018	0,091
-218,840	449,258	-0,026	0,041
-217,825	800,000	-0,027	0,054
-216,811	661,137	-0,052	-0,097
-215,796	-200,000	-0,003	-0,134
-214,782	123,870	-0,022	-0,020
-213,767	-200,000	-0,035	-0,153
-212,752	800,000	0,030	0,067
-211,738	-6,951	0,113	0,054
-210,723	-5,008	-0,123	-0,060
-209,709	293,214	-0,042	-0,054
-208,694	173,362	-0,006	-0,006
-207,679	-200,000	-0,010	0,052
-206,665	8,652	-0,065	0,035
-205,650	61,255	0,137	-0,097
-204,636	131,855	0,058	0,053
-203,621	-188,021	0,018	0,000
-202,606	57,838	-0,059	0,041
-201,592	11,073	-0,092	-0,050
-200,577	270,139	0,062	0,078
-199,563	800,000	0,067	0,159
-198,548	800,000	-0,016	0,041
-197,533	149,724	0,115	0,111
-196,519	-118,825	0,062	-0,008
-195,504	-200,000	-0,023	-0,088
-194,490	167,545	-0,149	-0,151
-193,475	800,000	0,040	-0,100
-192,460	-159,696	0,052	0,002
-191,446	199,063	-0,089	0,097
-190,431	800,000	0,058	0,115
-189,417	800,000	-0,032	0,066
-188,402	-200,000	0,001	0,045
-187,387	464,034	0,091	-0,146
-186,373	800,000	-0,055	0,121
-185,358	122,742	-0,065	-0,058
-184,344	335,837	0,055	0,076
-183,329	242,193	0,063	-0,076
-182,315	-55,587	-0,021	0,007
-181,300	-66,336	-0,235	-0,066
-180,285	-200,000	-0,002	-0,020
-179,271	639,602	-0,058	-0,106
-178,256	-200,000	0,018	-0,169
-177,242	552,857	0,074	0,128
-176,227	-200,000	0,032	0,184
-175,212	-87,243	0,145	-0,031
-174,198	256,686	-0,086	-0,106
-173,183	344,915	0,070	-0,098
-172,169	-9,707	-0,125	-0,059
-171,154	409,636	-0,099	-0,150
-170,139	-106,647	-0,040	-0,006
-169,125	-31,345	0,129	-0,051
-168,110	622,863	0,082	0,148
-167,096	-200,000	-0,008	0,052
-166,081	-200,000	-0,005	-0,069
-165,066	-115,848	0,091	-0,012
-164,052	-37,148	-0,145	0,055
-163,037	-164,536	0,100	-0,003
-162,023	404,628	0,035	-0,053
-161,008	0,188	-0,098	-0,050
-159,993	-200,000	0,004	-0,021
-158,979	800,000	0,044	0,125
-157,964	-200,000	0,010	-0,040
-156,950	-51,478	0,039	0,013
-155,935	-106,032	0,086	-0,014
-154,920	305,845	0,066	0,088
-153,906	-200,000	0,020	0,085
-152,891	152,965	-0,071	0,070
-151,877	234,736	0,073	-0,086
-150,862	-59,235	-0,103	-0,031
-149,847	-200,000	0,018	-0,142
-148,833	-200,000	-0,013	-0,043
-147,818	-100,344	0,211	0,037
-146,804	152,005	0,079	-0,076
-145,789	84,320	0,027	-0,021
-144,775	800,000	-0,008	0,021
-143,760	-200,000	-0,009	-0,034
-142,745	126,299	0,077	-0,069
-141,731	-20,261	0,060	-0,026
-140,716	-200,000	-0,031	0,142
-139,702	-95,155	0,018	-0,004
-138,687	-49,615	-0,020	0,007
-137,672	-128,510	-0,143	-0,014
-136,658	142,459	0,078	0,074
-135,643	72,697	-0,185	0,137
-134,629	-200,000	0,017	0,089
-133,614	103,581	-0,127	0,106
-132,599	-37,418	0,134	-0,051
-131,585	-163,968	0,068	-0,002
-130,570	192,900	0,036	0,038
-129,556	-200,000	0,003	-0,101
-128,541	-200,000	0,034	-0,219
-127,526	-31,288	-0,023	0,009
-126,512	254,651	-0,064	-0,078
-125,497	58,599	-0,110	0,077
-124,483	411,942	-0,065	-0,098
-123,468	479,965	0,025	-0,041
-122,453	-200,000	-0,010	-0,090
-121,439	800,000	-0,020	0,061
-120,424	800,000	-0,061	-0,183
