DTS Sentinel unit serial number:	SN410029Multiplexer serial number:	ORYXHardware model number:	OX2-SRSoftware version number:	ORYX F/W v4,00 Oryx Data Collector v3.7.2.0data status	okinstallation	BH3 CH2differential loss correction	single-endedforward channel	channel 2reverse channel	N/Adate	2023/12/06time	03:27:29forward acquisition time	300,00reverse acquisition time	0,00gamma	499,1914k internal	0,3197k external	0,3197temperature offset calibration	1,0000default loss term (dB/km)	0,3820temperature slope calibration	1,0000multiplexer offset coefficient	1,0000multiplexer slope coefficient	1,0000fibre end	0,00T internal ref (°C)	8,94T ext. ref 1 (°C)	-5,76T ext. ref 2 (°C)	-5,86length (m)	temperature (°C)	Stokes	anti-Stokes-744,400	491,596	0,033	0,056
-743,385	120,985	-0,269	0,243
-742,371	-200,000	-0,016	-0,081
-741,356	-200,000	-0,050	0,205
-740,342	800,000	0,018	-0,054
-739,327	-22,486	-0,063	0,028
-738,312	168,097	-0,058	-0,060
-737,298	25,928	-0,213	0,129
-736,283	-200,000	-0,017	-0,180
-735,269	410,338	-0,105	0,163
-734,254	38,052	0,023	0,015
-733,239	-155,749	-0,260	-0,012
-732,225	491,014	0,077	-0,129
-731,210	545,573	-0,091	0,159
-730,196	68,409	-0,070	-0,053
-729,181	86,709	-0,077	0,062
-728,167	-80,167	-0,128	-0,031
-727,152	71,807	-0,037	0,028
-726,137	-61,584	-0,195	-0,059
-725,123	-182,834	-0,060	-0,001
-724,108	800,000	-0,025	0,076
-723,094	128,693	0,115	-0,107
-722,079	-200,000	0,009	-0,083
-721,064	-200,000	0,019	-0,149
-720,050	144,949	0,054	-0,052
-719,035	-65,474	-0,068	0,020
-718,021	800,000	-0,041	-0,095
-717,006	-200,000	-0,037	-0,162
-715,991	197,882	-0,165	-0,184
-714,977	-49,197	-0,040	-0,014
-713,962	-200,000	0,004	0,020
-712,948	-200,000	-0,023	0,094
-711,933	345,371	-0,034	0,048
-710,918	178,022	-0,084	0,089
-709,904	800,000	-0,027	0,059
-708,889	-200,000	-0,004	-0,024
-707,875	-96,479	-0,078	0,015
-706,860	800,000	-0,049	0,105
-705,845	-104,684	0,066	-0,011
-704,831	361,319	0,023	0,034
-703,816	-47,396	0,020	-0,007
-702,802	316,274	-0,075	-0,104
-701,787	-30,096	-0,122	0,050
-700,772	-200,000	0,165	0,000
-699,758	166,939	-0,081	0,083
-698,743	800,000	0,020	0,062
-697,729	-200,000	0,012	0,051
-696,714	176,161	-0,075	0,079
-695,699	185,322	-0,037	-0,040
-694,685	-200,000	0,005	0,118
-693,670	-200,000	0,007	-0,132
-692,656	102,232	0,030	-0,026
-691,641	800,000	0,023	0,068
-690,627	-200,000	-0,022	0,191
-689,612	83,085	0,112	-0,088
-688,597	-129,375	-0,064	0,006
-687,583	5,508	0,102	0,055
-686,568	421,250	-0,051	-0,079
-685,554	-200,000	0,046	-0,173
-684,539	-200,000	-0,009	0,056
-683,524	307,679	-0,060	0,081
-682,510	668,056	-0,022	0,042
-681,495	-200,000	-0,040	-0,169
-680,481	-119,073	-0,064	0,008
-679,466	800,000	0,048	-0,105
-678,451	-8,346	-0,063	-0,031
-677,437	-200,000	-0,004	-0,130
-676,422	7,787	-0,088	-0,048
-675,408	473,932	-0,036	-0,059
-674,393	-53,618	-0,069	-0,023
-673,378	-122,180	-0,010	0,001
-672,364	377,146	-0,026	0,039
-671,349	-194,054	-0,051	0,000
-670,335	88,144	-0,010	0,008
-669,320	800,000	0,015	0,036
-668,305	369,018	-0,095	-0,140
-667,291	-30,959	-0,041	-0,017
-666,276	333,393	0,046	-0,064
-665,262	368,456	-0,043	-0,063
-664,247	147,294	0,075	0,074
-663,232	800,000	-0,026	-0,080
-662,218	25,164	0,087	0,052
-661,203	-123,025	-0,073	0,008
-660,189	22,162	0,032	-0,019
-659,174	-98,770	0,022	-0,004
-658,159	800,000	-0,045	0,115
-657,145	484,715	0,027	0,045
-656,130	-200,000	0,001	0,008
-655,116	87,126	-0,069	-0,056
-654,101	556,199	0,061	0,108
-653,086	-117,984	0,066	-0,008
-652,072	581,029	0,018	-0,032
-651,057	-200,000	-0,047	-0,222
-650,043	-200,000	0,027	-0,123
-649,028	-19,102	-0,133	0,060
-648,014	361,210	0,052	0,076
-646,999	-61,029	0,123	-0,037
-645,984	386,409	-0,070	-0,105
-644,970	800,000	0,026	-0,073
-643,955	-200,000	0,001	-0,027
-642,941	99,190	-0,111	-0,093
-641,926	-55,175	0,065	-0,021
-640,911	800,000	0,035	-0,100
-639,897	-147,422	-0,070	-0,004
-638,882	-32,629	-0,205	0,082
-637,868	-12,087	0,031	-0,015
-636,853	-200,000	0,000	0,033
-635,838	16,002	-0,095	-0,054
-634,824	-36,931	-0,097	-0,037
-633,809	800,000	0,025	0,053
-632,795	70,682	-0,096	-0,072
-631,780	639,236	0,017	-0,032
-630,765	800,000	-0,046	-0,122
-629,751	435,640	-0,062	-0,098
-628,736	800,000	-0,042	-0,103
-627,722	800,000	0,053	0,110
-626,707	-116,950	0,170	0,022
-625,692	-200,000	-0,001	0,109
-624,678	-67,244	-0,077	0,022
-623,663	378,385	-0,029	0,043
-622,649	800,000	-0,051	-0,120
-621,634	-35,307	-0,049	0,019
-620,619	90,032	-0,142	-0,115
-619,605	21,349	0,239	0,140
-618,590	69,811	-0,086	0,064
-617,576	-16,933	-0,020	-0,009
-616,561	-30,964	-0,112	0,046
-615,546	-200,000	0,008	-0,072
-614,532	-119,650	-0,128	0,016
-613,517	-81,111	0,037	0,009
-612,503	-200,000	-0,010	0,046
-611,488	89,082	0,141	0,113
-610,474	-39,554	-0,123	0,046
-609,459	748,912	0,052	0,102
-608,444	-200,000	0,005	-0,078
-607,430	800,000	0,009	-0,020
-606,415	242,915	-0,017	-0,021
-605,401	-19,096	0,037	-0,017
-604,386	-159,269	0,117	-0,005
-603,371	-200,000	-0,031	0,120
-602,357	-3,007	-0,098	-0,049
-601,342	800,000	-0,034	0,072
-600,328	534,428	-0,113	-0,195
-599,313	212,002	-0,061	0,070
-598,298	32,429	-0,121	-0,076
-597,284	-110,439	0,105	-0,016
-596,269	-35,985	-0,017	0,007
-595,255	800,000	-0,006	-0,016
-594,240	18,496	0,029	-0,017
-593,225	-110,486	-0,132	-0,020
-592,211	97,688	-0,097	-0,081
-591,196	-147,669	-0,085	0,005
-590,182	-34,570	-0,016	0,006
-589,167	235,147	-0,076	0,091
-588,152	-95,876	-0,096	0,018
-587,138	-50,239	0,050	-0,017
-586,123	122,952	-0,049	-0,044
-585,109	-200,000	0,009	-0,046
-584,094	3,481	0,090	-0,047
-583,079	118,944	-0,101	-0,090
-582,065	-84,558	0,116	0,026
-581,050	82,639	-0,120	0,094
-580,036	-139,556	-0,067	-0,005
-579,021	800,000	-0,067	-0,164
-578,006	-109,487	-0,112	-0,017
-576,992	-87,648	0,048	-0,010
-575,977	800,000	-0,030	-0,077
-574,963	355,160	0,070	0,101
-573,948	800,000	-0,006	-0,018
-572,934	800,000	-0,046	-0,126
-571,919	-105,917	-0,147	-0,024
-570,904	17,515	0,086	0,049
-569,890	-200,000	0,001	-0,016
-568,875	-48,520	0,140	0,048
-567,861	35,918	0,090	0,057
-566,846	189,249	0,102	0,111
-565,831	-42,726	-0,051	-0,019
-564,817	-34,351	-0,068	0,027
-563,802	14,777	0,064	-0,036
-562,788	40,872	-0,110	-0,071
-561,773	562,421	0,071	-0,125
-560,758	-65,093	0,070	-0,020
-559,744	800,000	0,063	0,138
-558,729	800,000	-0,035	0,086
-557,715	800,000	-0,022	0,058
-556,700	-200,000	-0,008	-0,108
-555,685	53,808	0,057	0,039
-554,671	-200,000	-0,004	0,059
-553,656	-200,000	-0,023	-0,086
-552,642	-130,311	0,094	0,009
-551,627	406,050	-0,012	0,019
-550,612	-105,785	0,072	-0,012
-549,598	178,425	0,068	-0,072
-548,583	-62,012	-0,109	-0,033
-547,569	182,779	-0,046	-0,049
-546,554	54,011	-0,058	0,040
-545,539	-31,148	0,081	0,033
-544,525	649,489	0,076	-0,140
-543,510	-200,000	-0,019	0,098
-542,496	-87,241	-0,129	0,028
-541,481	-200,000	-0,001	-0,012
-540,466	-200,000	0,009	0,125
-539,452	29,630	0,066	-0,040
-538,437	-68,422	0,110	-0,031
-537,423	100,211	-0,075	0,063
-536,408	71,929	-0,083	0,063
-535,393	800,000	-0,014	-0,034
-534,379	-125,340	-0,102	-0,011
-533,364	224,724	-0,021	0,025
-532,350	-60,465	0,088	0,027
-531,335	-42,722	0,140	0,051
-530,321	-200,000	0,001	-0,058
-529,306	43,884	-0,138	-0,091
-528,291	-94,353	-0,049	-0,010
-527,277	800,000	0,027	-0,064
-526,262	-60,927	-0,108	0,033
-525,248	-200,000	-0,029	-0,107
-524,233	-200,000	0,014	0,094
-523,218	-200,000	0,006	-0,053
-522,204	509,567	-0,043	-0,073
-521,189	-200,000	0,005	-0,057
-520,175	12,241	-0,113	0,062
-519,160	391,120	-0,033	-0,049
-518,145	-200,000	0,019	0,198
-517,131	71,188	0,140	-0,105
-516,116	95,327	-0,043	-0,035
-515,102	111,217	-0,064	0,055
-514,087	448,092	-0,009	-0,014
-513,072	-115,083	-0,021	0,003
-512,058	-11,618	-0,013	-0,006
-511,043	800,000	0,038	0,094
-510,029	800,000	0,015	0,038
-509,014	295,658	0,049	0,064
-507,999	400,383	0,014	-0,021
-506,985	266,913	0,041	-0,052
-505,970	-200,000	0,014	-0,080
-504,956	-51,323	-0,185	0,062
-503,941	800,000	-0,022	-0,051
-502,926	40,773	0,090	-0,059
-501,912	-200,000	0,036	0,000
-500,897	22,001	-0,122	0,071
-499,883	-43,151	0,009	-0,003
-498,868	792,962	-0,022	0,045
-497,853	-200,000	-0,014	-0,051
-496,839	-200,000	-0,008	-0,070
-495,824	-130,733	0,077	-0,007
-494,810	-71,822	0,100	-0,027
-493,795	-200,000	-0,008	0,140
-492,781	-80,079	-0,074	0,018
-491,766	-31,333	0,036	0,015
-490,751	-34,741	0,089	-0,035
-489,737	609,447	0,008	-0,015
-488,722	800,000	-0,047	0,127
-487,708	252,077	-0,044	-0,054
-486,693	227,939	0,084	0,099
-485,678	-200,000	-0,042	0,133
-484,664	-128,936	-0,100	0,010
-483,649	800,000	0,020	-0,062
-482,635	-161,527	0,177	0,006
-481,620	-200,000	-0,029	0,121
-480,605	-188,862	0,149	0,001
-479,591	45,794	-0,086	0,057
-478,576	-200,000	-0,008	-0,032
-477,562	39,465	0,094	-0,060
-476,547	800,000	-0,068	-0,141
-475,532	800,000	-0,033	-0,086
-474,518	-137,115	0,086	0,007
-473,503	800,000	0,032	-0,081
-472,489	800,000	0,037	-0,081
-471,474	256,984	0,061	-0,075
-470,459	-7,217	-0,147	-0,072
-469,445	-200,000	0,021	-0,075
-468,430	800,000	-0,018	0,050
-467,416	-200,000	0,019	-0,096
-466,401	-90,823	0,172	0,035
-465,386	-200,000	-0,005	-0,133
-464,372	-179,476	0,170	-0,003
-463,357	151,750	0,021	-0,020
-462,343	-200,000	0,017	-0,093
-461,328	-187,100	0,157	0,002
-460,313	800,000	0,044	0,091
-459,299	788,025	0,048	0,095
-458,284	-200,000	0,010	0,167
-457,270	120,265	0,069	0,061
-456,255	-7,876	-0,093	0,045
-455,241	-117,087	-0,099	0,013
-454,226	-200,000	0,008	0,025
-453,211	-83,205	0,136	-0,031
-452,197	800,000	0,095	-0,212
-451,182	-200,000	-0,005	-0,058
-450,168	605,954	-0,062	0,111
-449,153	-35,839	0,118	0,046
-448,138	800,000	0,023	-0,052
-447,124	34,308	-0,062	0,039
-446,109	128,241	0,098	-0,090
-445,095	246,830	0,090	0,109
-444,080	38,733	0,148	-0,095
-443,065	-30,429	-0,129	-0,053
-442,051	114,617	0,090	-0,079
-441,036	28,466	-0,089	-0,054
-440,022	-42,184	-0,120	0,044
-439,007	618,656	-0,015	-0,027
-437,992	3,988	0,031	0,016
-436,978	-200,000	0,000	-0,015
-435,963	118,665	-0,028	-0,025
-434,949	2,579	-0,070	-0,037
-433,934	-12,057	-0,140	0,066
-432,919	-51,001	-0,093	0,031
-431,905	480,911	0,092	0,151
-430,890	800,000	0,016	0,049
-429,876	-200,000	-0,015	0,081
-428,861	-200,000	-0,015	0,098
-427,846	293,542	0,031	0,041
-426,832	-94,490	-0,033	0,006
-425,817	-200,000	-0,006	0,106
-424,803	-50,122	-0,079	-0,027
-423,788	-200,000	0,011	-0,122
-422,773	800,000	-0,059	0,120
-421,759	800,000	0,043	0,106
-420,744	-43,461	-0,048	-0,017
-419,730	220,549	-0,043	0,050
-418,715	800,000	-0,026	0,062
-417,701	-200,000	0,021	-0,100
-416,686	-2,287	0,115	-0,058
-415,671	122,299	0,089	-0,080
-414,657	-14,168	-0,062	-0,028
-413,642	56,018	0,054	0,038
-412,628	-28,733	0,036	0,015
-411,613	800,000	0,061	-0,125
-410,598	-84,810	0,048	0,011
-409,584	-134,412	0,044	0,004
-408,569	177,392	0,035	-0,037
-407,555	429,870	0,031	0,049
-406,540	158,983	-0,121	-0,121
-405,525	148,114	0,061	0,059
-404,511	-200,000	0,033	-0,126
-403,496	164,346	-0,022	-0,022
-402,482	-168,135	0,115	-0,003
-401,467	460,319	0,064	0,103
-400,452	800,000	0,023	-0,046
-399,438	-42,617	0,168	0,061
-398,423	-190,667	-0,129	0,001
-397,409	-91,078	-0,018	-0,004
-396,394	346,126	-0,075	-0,106
-395,379	269,736	-0,058	0,073
-394,365	585,149	0,077	0,137
-393,350	-200,000	-0,020	0,076
-392,336	-87,029	0,008	0,002
-391,321	-42,195	0,101	0,037
-390,306	-200,000	-0,009	-0,281
-389,292	-200,000	0,011	0,068
-388,277	-200,000	0,029	-0,104
-387,263	38,606	0,122	0,078
-386,248	258,045	0,059	0,074
-385,233	597,347	-0,047	0,084
-384,219	-200,000	-0,000	0,029
-383,204	-200,000	0,006	-0,128
-382,190	-50,426	0,007	-0,002
-381,175	251,291	0,066	0,081
-380,160	205,340	-0,098	-0,109
-379,146	452,186	-0,048	0,077
-378,131	-117,168	0,088	0,011
-377,117	602,642	-0,030	-0,053
-376,102	440,087	0,026	-0,041
-375,088	-37,418	-0,052	0,020
-374,073	-99,671	0,050	0,009
-373,058	182,260	-0,032	0,033
-372,044	-200,000	-0,017	0,151
-371,029	-200,000	-0,036	0,116
-370,015	800,000	0,035	0,075
-369,000	-90,065	-0,026	-0,005
-367,985	-137,270	-0,015	-0,001
-366,971	-25,506	-0,079	0,033
-365,956	135,899	-0,092	-0,086
-364,942	-200,000	0,005	-0,040
-363,927	41,125	-0,064	-0,041
-362,912	481,245	0,113	0,185
-361,898	-200,000	-0,028	-0,095
-360,883	-31,326	-0,095	0,038
-359,869	8,310	0,051	-0,028
-358,854	123,254	-0,057	-0,051
-357,839	800,000	-0,006	0,014
-356,825	-164,266	0,039	0,001
-355,810	-13,641	0,187	0,087
-354,796	-200,000	-0,008	-0,120
-353,781	-200,000	0,009	0,068
-352,766	-200,000	-0,008	-0,165
-351,752	559,713	-0,005	0,009
-350,737	138,890	-0,067	0,064
-349,723	2,983	0,163	0,085
-348,708	-200,000	0,015	-0,060
-347,693	-13,695	0,050	0,023
-346,679	157,209	-0,119	-0,118
-345,664	-63,202	-0,094	0,028
-344,650	-200,000	-0,004	0,142
-343,635	77,859	0,041	0,031
-342,620	-51,173	0,094	0,032
-341,606	800,000	-0,009	-0,025
-340,591	-1,651	0,065	-0,033
-339,577	-99,657	-0,108	-0,019
-338,562	-168,593	-0,070	-0,002
-337,548	800,000	-0,042	0,117
-336,533	-146,594	0,151	0,009
-335,518	-91,962	0,032	-0,006
-334,504	-27,741	-0,056	-0,023
-333,489	64,533	-0,036	0,026
-332,475	-200,000	-0,007	-0,068
-331,460	786,383	0,038	-0,076
-330,445	-200,000	0,023	-0,181
-329,431	6,265	0,040	0,021
-328,416	-200,000	0,000	0,059
-327,402	-85,110	0,082	0,018
-326,387	-47,921	-0,164	-0,057
-325,372	338,227	-0,017	-0,023
-324,358	86,511	0,043	0,034
-323,343	-123,067	0,067	-0,008
-322,329	-200,000	0,011	0,147
-321,314	-73,212	-0,042	0,011
-320,299	800,000	0,078	0,166
-319,285	-99,331	-0,108	-0,019
-318,270	406,460	0,032	-0,048
-317,256	-200,000	-0,032	-0,214
-316,241	-200,000	0,023	-0,078
-315,226	86,148	-0,086	0,068
-314,212	-6,234	0,042	-0,021
-313,197	-200,000	0,005	-0,092
-312,183	99,463	0,075	0,062
-311,168	-46,026	-0,054	-0,019
-310,153	34,240	-0,156	-0,097
-309,139	-47,473	-0,105	0,036
-308,124	-59,157	0,095	0,029
-307,110	489,505	-0,052	0,086
-306,095	14,124	-0,065	-0,036
-305,080	59,617	0,142	-0,100
-304,066	-96,708	0,060	-0,011
-303,051	311,024	0,070	0,094
-302,037	-108,669	0,049	0,007
-301,022	647,095	-0,090	0,166
-300,008	-200,000	0,007	0,085
-298,993	56,718	0,068	0,047
-297,978	778,244	0,060	0,118
-296,964	-200,000	0,003	-0,131
-295,949	237,605	0,036	0,042
-294,935	-36,052	-0,095	-0,037
-293,920	-26,205	0,112	0,047
-292,905	49,967	0,100	-0,068
-291,891	2,781	0,080	0,042
-290,876	243,259	0,014	0,017
-289,862	-69,401	0,077	0,021
-288,847	-181,449	-0,071	0,001
-287,832	292,452	-0,113	-0,147
-286,818	-107,263	-0,096	-0,015
-285,803	-200,000	-0,027	0,120
-284,789	43,710	0,137	0,089
-283,774	9,112	0,010	0,005
-282,759	37,194	0,014	0,009
-281,745	37,375	-0,048	-0,030
-280,730	143,763	0,138	-0,132
-279,716	-200,000	0,012	0,089
-278,701	-51,950	0,293	0,097
-277,686	-89,906	-0,116	0,024
-276,672	-200,000	0,017	0,063
-275,657	41,791	-0,140	-0,090
-274,643	-200,000	-0,002	-0,026
-273,628	-53,678	-0,076	0,025
-272,613	697,001	0,051	0,095
-271,599	-108,499	0,084	0,013
-270,584	-200,000	-0,014	0,076
-269,570	-64,373	-0,161	0,046
-268,555	558,246	0,061	0,106
-267,540	302,747	-0,020	0,026
-266,526	-200,000	0,009	0,059
-265,511	14,521	-0,084	-0,047
-264,497	800,000	0,024	0,056
-263,482	-121,600	-0,095	0,011
-262,467	522,232	0,080	-0,135
-261,453	-94,918	0,119	0,023
-260,438	224,742	-0,075	-0,087
-259,424	233,485	0,034	-0,040
-258,409	216,872	-0,098	-0,112
-257,395	-74,677	-0,056	-0,014
-256,380	-79,208	0,198	0,048
-255,365	123,778	0,094	0,084
-254,351	42,440	0,080	0,052
-253,336	577,806	0,003	0,006
-252,322	-200,000	-0,026	-0,150
-251,307	-200,000	0,026	0,160
-250,292	-39,171	0,061	0,023
-249,278	-186,372	0,051	0,001
-248,263	-200,000	-0,014	-0,068
-247,249	-116,574	0,068	0,009
-246,234	-77,382	-0,063	0,016
-245,219	773,673	-0,055	-0,108
-244,205	-5,204	-0,094	-0,046
-243,190	-62,602	0,066	-0,020
-242,176	84,627	-0,084	-0,065
-241,161	800,000	-0,010	0,028
-240,146	502,958	-0,026	0,043
-239,132	-200,000	-0,010	0,121
-238,117	800,000	-0,023	-0,066
-237,103	306,360	0,062	-0,083
-236,088	800,000	0,061	0,175
-235,073	-200,000	0,003	-0,017
-234,059	-200,000	0,007	0,044
-233,044	-115,864	-0,046	-0,006
-232,030	-200,000	0,004	-0,135
-231,015	-112,684	-0,110	0,015
-230,000	-200,000	0,004	-0,192
-228,986	-99,774	-0,179	-0,032
-227,971	89,717	-0,082	0,065
-226,957	67,134	0,078	0,057
-225,942	-161,241	0,157	-0,006
-224,927	-200,000	0,028	0,000
-223,913	22,441	-0,102	0,059
-222,898	-22,853	-0,097	-0,042
-221,884	280,984	-0,087	-0,111
-220,869	-43,520	0,088	0,031
-219,855	-200,000	-0,011	-0,108
-218,840	-200,000	-0,017	0,126
-217,825	800,000	0,033	-0,094
-216,811	-44,898	0,039	0,014
-215,796	550,631	-0,047	0,080
-214,782	164,770	0,033	0,033
-213,767	-80,050	-0,068	0,016
-212,752	52,918	0,045	0,031
-211,738	424,776	-0,064	-0,098
-210,723	-200,000	0,007	0,030
-209,709	-200,000	0,007	0,043
-208,694	-200,000	0,003	0,088
-207,679	-94,840	-0,084	0,016
-206,665	-20,851	-0,092	-0,040
-205,650	-200,000	0,125	-0,000
-204,636	800,000	-0,045	-0,138
-203,621	173,842	-0,083	-0,086
-202,606	243,104	-0,066	0,080
-201,592	-200,000	-0,038	-0,180
-200,577	198,465	0,047	0,051
-199,563	-200,000	0,041	0,167
-198,548	-155,907	-0,027	-0,001
-197,533	-124,106	0,099	0,011
-196,519	-123,411	-0,008	-0,001
-195,504	-77,236	-0,081	-0,020
-194,490	50,058	-0,038	0,026
-193,475	267,232	-0,021	-0,026
-192,460	530,749	0,055	-0,093
-191,446	-100,167	0,107	0,019
-190,431	466,643	0,065	-0,104
-189,417	312,922	-0,109	0,147
-188,402	-53,071	-0,115	-0,038
-187,387	800,000	-0,026	0,054
-186,373	79,373	0,083	0,064
-185,358	800,000	-0,025	-0,051
-184,344	346,696	0,099	0,140
-183,329	385,223	-0,090	0,132
-182,315	219,929	0,092	0,105
-181,300	74,338	-0,023	0,017
-180,285	302,975	-0,096	-0,127
-179,271	-200,000	-0,004	0,107
-178,256	225,649	-0,065	0,075
-177,242	800,000	-0,050	0,122
-176,227	-129,566	0,050	-0,005
-175,212	305,036	-0,083	0,109
-174,198	-200,000	-0,002	-0,183
-173,183	-200,000	-0,017	-0,156
-172,169	101,539	0,059	-0,049
-171,154	-200,000	-0,016	-0,065
-170,139	361,148	-0,052	-0,074
-169,125	-71,709	0,109	-0,029
-168,110	132,479	0,042	0,039
-167,096	38,998	-0,085	-0,054
-166,081	-200,000	-0,000	0,033
-165,066	272,237	0,042	0,053
-164,052	-200,000	0,007	0,062
-163,037	-200,000	-0,001	-0,100
-162,023	-82,204	0,177	0,041
-161,008	-39,263	-0,039	0,015
-159,993	126,947	0,073	-0,066
-158,979	-200,000	0,032	-0,154
-157,964	91,406	-0,111	-0,089
-156,950	-105,942	0,090	0,014
-155,935	31,929	0,224	0,137
-154,920	116,919	-0,085	0,075
-153,906	-76,170	-0,088	-0,022
-152,891	37,129	0,069	0,044
-151,877	-80,555	-0,094	-0,022
-150,862	49,609	-0,138	-0,092
-149,847	-145,516	-0,043	-0,003
-148,833	-200,000	-0,011	-0,101
-147,818	800,000	0,051	0,102
-146,804	154,744	0,077	0,075
-145,789	-120,816	0,093	-0,011
-144,775	108,622	-0,064	0,055
-143,760	-139,970	0,063	-0,005
-142,745	187,499	0,016	0,017
-141,731	158,377	0,050	0,050
-140,716	-200,000	-0,016	0,093
-139,702	35,817	0,086	0,054
-138,687	72,881	-0,054	0,040
-137,672	-83,833	0,148	0,033
-136,658	-22,909	0,053	-0,023
-135,643	237,677	-0,109	-0,129
-134,629	-27,934	0,061	-0,025
-133,614	-200,000	0,004	0,062
-132,599	37,403	0,141	0,089
-131,585	355,252	-0,022	-0,031
-130,570	-200,000	-0,008	-0,116
-129,556	-105,840	0,048	-0,008
-128,541	-200,000	0,008	0,101
-127,526	58,429	0,133	0,093
-126,512	779,718	-0,045	0,087
-125,497	-200,000	-0,001	0,181
-124,483	729,237	0,032	-0,062
-123,468	800,000	0,028	-0,058
-122,453	271,312	-0,077	0,097
-121,439	-200,000	0,004	0,043
-120,424	202,359	0,096	-0,106
-119,410	-76,643	0,119	0,029
-118,395	146,971	0,125	0,119
