DTS Sentinel unit serial number:	SN410029Multiplexer serial number:	ORYXHardware model number:	OX2-SRSoftware version number:	ORYX F/W v4,00 Oryx Data Collector v3.7.2.0data status	okinstallation	BH3 CH2differential loss correction	single-endedforward channel	channel 2reverse channel	N/Adate	2023/12/05time	20:52:28forward acquisition time	300,00reverse acquisition time	0,00gamma	499,1914k internal	0,3193k external	0,3193temperature offset calibration	1,0000default loss term (dB/km)	0,3820temperature slope calibration	1,0000multiplexer offset coefficient	1,0000multiplexer slope coefficient	1,0000fibre end	0,00T internal ref (°C)	10,41T ext. ref 1 (°C)	-4,40T ext. ref 2 (°C)	-4,48length (m)	temperature (°C)	Stokes	anti-Stokes-744,400	60,667	-0,091	-0,066
-743,385	800,000	-0,107	0,250
-742,371	25,413	0,156	-0,094
-741,356	79,194	-0,282	0,220
-740,342	800,000	0,030	-0,079
-739,327	133,609	-0,155	0,146
-738,312	341,269	-0,064	-0,091
-737,298	12,994	-0,195	0,109
-736,283	-200,000	0,010	-0,074
-735,269	800,000	-0,086	0,235
-734,254	35,568	-0,196	-0,125
-733,239	-65,067	-0,187	-0,055
-732,225	72,910	0,075	-0,057
-731,210	64,823	0,051	0,037
-730,196	-168,251	-0,038	0,001
-729,181	-200,000	0,007	-0,027
-728,167	-200,000	0,017	-0,135
-727,152	-127,708	-0,079	0,008
-726,137	-200,000	0,000	0,008
-725,123	87,912	0,036	-0,029
-724,108	-48,864	-0,077	0,027
-723,094	-200,000	-0,021	-0,161
-722,079	163,520	-0,128	-0,132
-721,064	-107,479	0,087	-0,014
-720,050	211,319	-0,072	-0,083
-719,035	-65,951	0,015	0,004
-718,021	-136,120	-0,210	-0,018
-717,006	-25,105	-0,086	-0,037
-715,991	-200,000	0,013	-0,061
-714,977	-200,000	0,000	0,051
-713,962	800,000	-0,032	-0,099
-712,948	104,374	-0,012	0,010
-711,933	-121,409	0,058	-0,007
-710,918	800,000	-0,077	0,160
-709,904	-142,007	-0,148	0,011
-708,889	234,178	-0,045	-0,054
-707,875	206,916	0,092	0,104
-706,860	463,833	-0,042	0,068
-705,845	653,439	0,070	0,132
-704,831	-200,000	-0,003	-0,042
-703,816	800,000	-0,003	0,011
-702,802	-162,367	-0,028	-0,001
-701,787	29,472	-0,110	-0,068
-700,772	-200,000	0,001	-0,143
-699,758	258,118	0,046	0,057
-698,743	-20,881	-0,081	-0,036
-697,729	-50,971	-0,067	0,023
-696,714	747,701	0,016	0,031
-695,699	45,355	-0,086	-0,058
-694,685	-17,523	-0,137	-0,063
-693,670	152,246	-0,100	-0,099
-692,656	-200,000	-0,008	-0,083
-691,641	800,000	0,016	0,051
-690,627	-48,908	0,120	-0,041
-689,612	-65,645	-0,105	0,030
-688,597	243,641	0,044	-0,053
-687,583	-200,000	0,004	-0,116
-686,568	-14,283	-0,151	-0,071
-685,554	-200,000	-0,033	-0,221
-684,539	800,000	0,060	-0,148
-683,524	244,513	-0,079	-0,096
-682,510	-51,530	-0,129	0,043
-681,495	800,000	-0,009	-0,028
-680,481	3,257	-0,097	-0,051
-679,466	-99,876	-0,141	-0,025
-678,451	468,399	-0,067	-0,110
-677,437	83,767	-0,097	0,077
-676,422	12,312	0,108	0,060
-675,408	-42,752	-0,075	-0,028
-674,393	-146,484	-0,133	0,008
-673,378	163,899	-0,051	0,052
-672,364	800,000	-0,005	0,011
-671,349	800,000	0,008	0,024
-670,335	-2,081	-0,088	0,045
-669,320	-200,000	0,015	0,169
-668,305	800,000	0,033	-0,094
-667,291	524,317	-0,016	-0,027
-666,276	-36,074	-0,115	0,045
-665,262	-200,000	0,005	-0,064
-664,247	-68,487	-0,084	-0,023
-663,232	-130,962	0,156	0,015
-662,218	-200,000	0,025	0,123
-661,203	-200,000	-0,003	0,010
-660,189	565,244	-0,041	0,072
-659,174	-200,000	0,011	-0,037
-658,159	800,000	0,035	-0,095
-657,145	175,416	-0,086	-0,091
-656,130	113,967	0,023	0,021
-655,116	-64,708	-0,140	-0,041
-654,101	-116,414	-0,136	0,018
-653,086	-200,000	-0,001	0,066
-652,072	125,493	-0,165	-0,151
-651,057	-92,341	-0,102	-0,021
-650,043	-200,000	0,008	-0,054
-649,028	68,049	0,086	0,064
-648,014	800,000	-0,025	-0,053
-646,999	-104,181	0,173	0,029
-645,984	-141,494	0,085	-0,006
-644,970	-200,000	-0,014	-0,117
-643,955	102,468	0,022	0,019
-642,941	768,416	-0,090	-0,178
-641,926	-200,000	-0,017	-0,123
-640,911	331,572	-0,091	-0,128
-639,897	-18,963	0,135	0,061
-638,882	79,081	0,073	0,057
-637,868	-170,406	0,068	0,002
-636,853	-24,424	0,067	-0,029
-635,838	618,520	-0,086	-0,158
-634,824	800,000	-0,034	-0,100
-633,809	130,705	0,045	-0,042
-632,795	-87,013	0,048	0,010
-631,780	-200,000	-0,017	-0,081
-630,765	445,940	-0,060	0,097
-629,751	-200,000	0,027	-0,125
-628,736	61,682	-0,065	0,047
-627,722	-185,926	0,101	0,001
-626,707	-200,000	-0,011	-0,088
-625,692	483,461	-0,022	0,037
-624,678	-72,803	0,133	0,035
-623,663	458,937	-0,022	0,036
-622,649	-200,000	-0,022	-0,157
-621,634	-200,000	-0,029	-0,126
-620,619	-200,000	-0,014	-0,088
-619,605	202,064	-0,075	0,084
-618,590	350,937	-0,033	-0,047
-617,576	-2,755	0,121	0,061
-616,561	57,665	0,056	-0,040
-615,546	418,378	-0,065	-0,101
-614,532	-200,000	0,016	-0,169
-613,517	208,093	-0,128	-0,145
-612,503	800,000	-0,077	-0,177
-611,488	48,889	0,078	0,053
-610,474	-200,000	-0,007	0,124
-609,459	800,000	-0,047	-0,105
-608,444	397,607	-0,064	-0,097
-607,430	-200,000	-0,025	-0,110
-606,415	-39,917	0,094	-0,035
-605,401	172,611	-0,045	0,047
-604,386	345,475	-0,058	0,082
-603,371	-143,590	0,124	0,008
-602,357	800,000	0,049	0,120
-601,342	165,088	-0,058	-0,060
-600,328	304,469	-0,045	-0,060
-599,313	-25,183	-0,035	0,015
-598,298	771,128	0,023	-0,046
-597,284	51,718	-0,083	0,057
-596,269	199,427	-0,049	0,055
-595,255	608,052	-0,051	0,093
-594,240	-200,000	-0,000	0,038
-593,225	-200,000	0,003	0,042
-592,211	59,991	0,032	0,023
-591,196	-200,000	-0,024	0,084
-590,182	-117,088	-0,179	0,023
-589,167	257,195	0,035	0,043
-588,152	-200,000	0,004	0,136
-587,138	-95,406	-0,161	-0,031
-586,123	359,176	-0,095	-0,138
-585,109	-200,000	0,046	-0,171
-584,094	-108,483	-0,028	0,004
-583,079	-108,848	0,045	0,007
-582,065	400,641	0,059	0,089
-581,050	-164,255	0,093	-0,003
-580,036	800,000	-0,056	-0,128
-579,021	88,257	0,057	0,046
-578,006	473,945	-0,016	-0,026
-576,992	486,860	0,045	-0,075
-575,977	383,942	-0,083	0,125
-574,963	-200,000	0,029	0,140
-573,948	108,189	-0,066	0,057
-572,934	328,765	-0,042	-0,059
-571,919	-200,000	0,029	-0,141
-570,904	157,437	-0,083	-0,083
-569,890	-200,000	-0,018	-0,124
-568,875	-93,596	0,152	-0,030
-567,861	75,207	-0,015	0,012
-566,846	-127,316	0,144	0,015
-565,831	-13,931	-0,050	0,024
-564,817	224,345	0,075	-0,088
-563,802	36,278	0,039	0,025
-562,788	-200,000	-0,018	-0,103
-561,773	-200,000	-0,029	0,114
-560,758	800,000	0,015	0,042
-559,744	184,652	0,048	0,051
-558,729	-20,660	-0,161	-0,071
-557,715	282,630	-0,030	0,039
-556,700	-200,000	0,021	0,131
-555,685	65,994	-0,062	-0,045
-554,671	-200,000	0,027	0,153
-553,656	-200,000	0,019	-0,063
-552,642	800,000	0,017	0,037
-551,627	-200,000	-0,027	0,120
-550,612	11,389	-0,109	0,060
-549,598	-161,273	-0,250	-0,009
-548,583	-200,000	0,002	-0,028
-547,569	-144,469	-0,017	-0,001
-546,554	55,537	-0,006	-0,004
-545,539	217,518	0,076	-0,087
-544,525	-198,921	0,050	0,000
-543,510	36,045	-0,008	0,005
-542,496	-155,433	-0,102	-0,005
-541,481	228,869	0,037	-0,043
-540,466	21,872	-0,076	0,045
-539,452	-144,372	0,077	-0,005
-538,437	29,415	0,038	0,024
-537,423	-7,928	-0,104	-0,050
-536,408	196,131	0,059	-0,065
-535,393	-87,341	-0,053	0,012
-534,379	800,000	-0,034	-0,091
-533,364	39,663	0,126	-0,081
-532,350	170,653	0,110	-0,114
-531,335	800,000	0,020	-0,045
-530,321	186,256	0,025	-0,027
-529,306	45,546	-0,108	-0,072
-528,291	800,000	-0,011	-0,029
-527,277	487,325	-0,052	-0,086
-526,262	-200,000	0,004	0,018
-525,248	-96,955	0,071	0,013
-524,233	-200,000	0,002	0,101
-523,218	518,427	-0,071	0,121
-522,204	-200,000	-0,020	0,086
-521,189	588,888	-0,041	-0,073
-520,175	-98,472	0,069	0,013
-519,160	154,205	-0,076	0,076
-518,145	247,619	-0,135	-0,165
-517,131	-18,755	0,102	-0,046
-516,116	256,209	-0,003	-0,003
-515,102	379,630	0,057	-0,084
-514,087	158,394	0,103	-0,103
-513,072	-133,796	0,064	0,006
-512,058	-119,151	-0,141	0,018
-511,043	-132,459	-0,082	0,008
-510,029	64,696	0,101	0,074
-509,014	39,826	-0,058	-0,038
-507,999	131,121	0,046	-0,043
-506,985	-200,000	-0,017	0,095
-505,970	-200,000	0,001	-0,238
-504,956	-115,402	-0,016	0,002
-503,941	553,991	-0,056	0,097
-502,926	-57,337	0,119	-0,038
-501,912	85,598	0,060	0,048
-500,897	-200,000	-0,048	0,199
-499,883	800,000	-0,018	0,045
-498,868	-200,000	-0,001	0,034
-497,853	-154,138	-0,088	-0,004
-496,839	-185,876	0,203	0,002
-495,824	149,108	-0,111	0,108
-494,810	481,993	0,043	0,071
-493,795	-55,685	0,080	-0,026
-492,781	161,060	0,055	0,055
-491,766	800,000	0,047	-0,099
-490,751	-120,888	-0,065	0,008
-489,737	400,639	-0,024	-0,037
-488,722	-200,000	0,019	-0,067
-487,708	-200,000	0,001	0,034
-486,693	-200,000	-0,008	0,088
-485,678	9,973	0,103	-0,056
-484,664	-137,240	-0,188	0,015
-483,649	-200,000	-0,010	-0,045
-482,635	79,644	-0,049	0,038
-481,620	5,890	0,034	0,018
-480,605	160,877	0,073	0,074
-479,591	-127,668	-0,152	0,016
-478,576	253,175	0,031	0,038
-477,562	-200,000	-0,002	-0,039
-476,547	60,538	-0,098	0,070
-475,532	-54,320	-0,138	-0,045
-474,518	-21,289	0,083	-0,037
-473,503	90,429	0,095	0,077
-472,489	431,947	-0,027	0,043
-471,474	-65,169	0,143	0,041
-470,459	800,000	0,037	0,097
-469,445	38,826	-0,083	0,053
-468,430	-200,000	-0,017	-0,060
-467,416	168,995	-0,037	-0,039
-466,401	-105,041	-0,123	0,020
-465,386	211,422	0,088	0,100
-464,372	561,483	-0,091	0,160
-463,357	-61,606	-0,046	0,014
-462,343	-200,000	0,001	-0,067
-461,328	-113,702	-0,116	0,016
-460,313	96,296	0,052	0,043
-459,299	-19,296	-0,014	-0,006
-458,284	98,994	-0,069	0,058
-457,270	580,916	0,048	0,084
-456,255	6,314	-0,091	-0,049
-455,241	-8,419	0,100	-0,048
-454,226	-200,000	0,011	-0,057
-453,211	800,000	0,019	0,042
-452,197	514,585	-0,057	0,097
-451,182	800,000	-0,075	0,151
-450,168	511,013	-0,041	0,068
-449,153	-27,221	-0,072	0,030
-448,138	-200,000	0,015	-0,076
-447,124	464,692	0,080	-0,129
-446,109	800,000	-0,058	-0,138
-445,095	-28,610	0,053	-0,022
-444,080	606,936	-0,092	-0,165
-443,065	-98,497	0,076	0,014
-442,051	-5,478	0,041	0,020
-441,036	-200,000	0,000	-0,082
-440,022	-200,000	-0,040	-0,134
-439,007	438,711	0,077	-0,122
-437,992	-32,781	0,083	0,033
-436,978	18,899	-0,090	-0,052
-435,963	-84,400	0,118	-0,027
-434,949	-107,272	0,044	-0,007
-433,934	-89,496	-0,068	0,014
-432,919	238,997	-0,069	-0,083
-431,905	-28,621	-0,161	0,066
-430,890	358,564	0,110	0,159
-429,876	-200,000	-0,027	0,088
-428,861	-86,608	0,097	0,021
-427,846	-200,000	0,019	0,067
-426,832	-200,000	-0,117	0,000
-425,817	800,000	-0,059	-0,128
-424,803	-37,751	0,062	0,024
-423,788	32,036	0,096	0,060
-422,773	-200,000	0,001	0,008
-421,759	306,888	0,025	-0,034
-420,744	135,887	-0,096	0,090
-419,730	632,765	-0,061	0,111
-418,715	-113,007	0,114	0,016
-417,701	54,257	-0,067	-0,046
-416,686	437,099	0,066	0,104
-415,671	59,091	0,073	-0,052
-414,657	-200,000	0,008	0,151
-413,642	800,000	0,044	-0,096
-412,628	-89,053	-0,096	-0,020
-411,613	232,279	-0,055	-0,066
-410,598	-200,000	-0,034	-0,140
-409,584	14,385	0,082	0,046
-408,569	-200,000	-0,037	0,170
-407,555	-200,000	-0,002	-0,029
-406,540	800,000	-0,018	0,040
-405,525	35,614	-0,098	0,062
-404,511	164,347	-0,053	-0,054
-403,496	800,000	0,030	-0,087
-402,482	117,880	-0,054	0,048
-401,467	73,931	0,083	-0,063
-400,452	503,680	-0,055	0,093
-399,438	70,149	0,106	0,079
-398,423	-200,000	0,003	0,177
-397,409	-41,616	-0,080	0,029
-396,394	-177,982	0,108	0,002
-395,379	-200,000	0,028	-0,113
-394,365	-200,000	0,006	0,038
-393,350	-36,639	0,088	0,034
-392,336	484,193	0,048	0,078
-391,321	34,258	0,038	0,024
-390,306	800,000	0,021	-0,043
-389,292	210,112	-0,096	-0,109
-388,277	440,905	0,055	-0,087
-387,263	-200,000	0,024	0,125
-386,248	-2,412	0,156	-0,079
-385,233	738,912	0,033	0,064
-384,219	800,000	-0,028	-0,089
-383,204	-80,079	0,079	-0,019
-382,190	150,004	-0,080	0,078
-381,175	-127,737	0,110	-0,011
-380,160	-200,000	0,015	-0,144
-379,146	65,823	0,070	0,051
-378,131	-146,742	-0,159	0,010
-377,117	244,579	-0,047	-0,057
-376,102	-200,000	-0,026	-0,084
-375,088	-200,000	-0,027	-0,114
-374,073	800,000	-0,127	-0,279
-373,058	800,000	0,010	0,024
-372,044	-113,691	0,147	-0,020
-371,029	-200,000	-0,013	0,042
-370,015	259,534	0,127	0,158
-369,000	-200,000	0,001	-0,123
-367,985	-132,541	-0,084	0,008
-366,971	200,817	0,095	-0,105
-365,956	448,988	0,046	0,073
-364,942	800,000	-0,058	0,142
-363,927	17,224	0,096	0,055
-362,912	264,050	-0,102	-0,127
-361,898	-1,655	-0,094	-0,047
-360,883	122,700	0,039	-0,035
-359,869	800,000	-0,056	-0,170
-358,854	74,228	0,087	0,066
-357,839	95,590	0,069	0,057
-356,825	-200,000	0,035	0,128
-355,810	-200,000	-0,003	-0,012
-354,796	-52,873	-0,129	-0,042
-353,781	309,778	0,040	-0,053
-352,766	-18,009	-0,066	-0,030
-351,752	131,962	-0,040	0,037
-350,737	258,030	0,104	0,129
-349,723	-200,000	-0,024	0,221
-348,708	244,010	0,088	0,106
-347,693	800,000	-0,035	0,095
-346,679	12,253	0,072	0,040
-345,664	-84,972	-0,069	0,015
-344,650	800,000	0,032	-0,068
-343,635	800,000	0,008	-0,022
-342,620	-38,557	0,052	0,020
-341,606	-63,601	0,023	-0,007
-340,591	74,294	-0,083	-0,062
-339,577	-200,000	-0,001	0,047
-338,562	-75,188	0,105	-0,027
-337,548	-84,487	0,028	-0,006
-336,533	-200,000	0,013	-0,053
-335,518	800,000	0,051	0,105
-334,504	-69,019	0,115	-0,031
-333,489	73,803	-0,081	0,061
-332,475	800,000	-0,040	0,090
-331,460	-47,813	-0,108	-0,037
-330,445	190,505	0,099	0,107
-329,431	-200,000	-0,001	0,012
-328,416	276,020	0,088	0,112
-327,402	415,836	-0,048	0,074
-326,387	-35,037	0,056	0,022
-325,372	-121,824	-0,045	-0,005
-324,358	-200,000	0,017	0,140
-323,343	-165,543	0,112	0,003
-322,329	29,584	-0,067	-0,041
-321,314	307,196	0,060	-0,080
-320,299	229,419	-0,082	0,096
-319,285	-147,705	0,115	-0,007
-318,270	-26,545	-0,112	-0,047
-317,256	-200,000	-0,007	0,023
-316,241	70,566	0,056	-0,042
-315,226	-200,000	0,012	0,133
-314,212	265,080	-0,024	0,030
-313,197	-78,866	0,136	-0,033
-312,183	-200,000	-0,014	-0,085
-311,168	-10,595	-0,116	0,055
-310,153	27,602	-0,035	-0,021
-309,139	-200,000	-0,004	-0,020
-308,124	-200,000	-0,024	-0,110
-307,110	212,066	0,047	-0,053
-306,095	-69,076	0,106	-0,029
-305,080	65,624	0,153	0,111
-304,066	-72,436	-0,099	-0,026
-303,051	13,388	0,079	-0,044
-302,037	800,000	-0,034	-0,093
-301,022	800,000	0,029	-0,079
-300,008	302,208	-0,059	-0,078
-298,993	-104,705	0,145	-0,024
-297,978	176,366	0,076	-0,079
-296,964	213,540	-0,057	-0,064
-295,949	178,119	-0,052	0,055
-294,935	206,073	-0,081	-0,091
-293,920	800,000	-0,020	0,040
-292,905	468,309	0,081	0,131
-291,891	-87,365	0,117	-0,025
-290,876	-76,313	-0,067	-0,017
-289,862	243,574	0,065	0,078
-288,847	-200,000	0,008	-0,059
-287,832	-200,000	-0,006	-0,043
-286,818	15,996	-0,127	-0,072
-285,803	800,000	-0,021	-0,054
-284,789	-200,000	0,014	0,103
-283,774	19,684	0,061	0,035
-282,759	168,119	-0,091	0,093
-281,745	22,918	-0,083	0,048
-280,730	50,392	-0,094	-0,064
-279,716	800,000	0,029	0,059
-278,701	610,184	-0,037	-0,066
-277,686	60,298	0,056	0,040
-276,672	-97,169	-0,010	0,002
-275,657	25,558	-0,068	-0,040
-274,643	510,928	-0,058	0,097
-273,628	150,853	0,009	0,008
-272,613	413,177	0,021	-0,031
-271,599	19,281	0,178	-0,102
-270,584	120,975	0,065	0,058
-269,570	-9,092	-0,009	0,004
-268,555	128,544	-0,074	-0,068
-267,540	800,000	-0,045	0,110
-266,526	800,000	0,016	-0,049
-265,511	-200,000	0,000	-0,096
-264,497	40,298	0,147	-0,095
-263,482	800,000	-0,063	0,128
-262,467	-200,000	-0,021	0,121
-261,453	356,615	0,064	-0,091
-260,438	-116,327	0,071	0,009
-259,424	80,820	-0,030	0,023
-258,409	-200,000	0,032	-0,112
-257,395	26,241	0,111	-0,066
-256,380	35,679	-0,079	-0,049
-255,365	-200,000	0,005	-0,077
-254,351	101,618	0,031	0,026
-253,336	-48,140	-0,095	0,033
-252,322	99,260	0,096	0,079
-251,307	62,413	0,115	0,082
-250,292	-200,000	0,014	0,101
-249,278	-125,328	0,018	-0,002
-248,263	-7,473	-0,102	0,049
-247,249	-200,000	-0,032	0,156
-246,234	-200,000	0,019	0,069
-245,219	-200,000	0,004	-0,034
-244,205	-200,000	-0,022	0,102
-243,190	241,867	0,037	-0,044
-242,176	-75,941	0,117	-0,029
-241,161	-200,000	0,010	0,157
-240,146	319,961	0,060	0,082
-239,132	42,518	-0,023	0,015
-238,117	-200,000	-0,032	-0,143
-237,103	-200,000	0,001	-0,112
-236,088	46,249	0,082	-0,054
-235,073	-200,000	-0,007	0,093
-234,059	-100,114	0,091	0,016
-233,044	77,391	0,070	-0,053
-232,030	61,469	0,078	-0,055
-231,015	-119,344	-0,087	0,011
-230,000	43,309	-0,127	0,083
-228,986	29,468	0,116	0,070
-227,971	85,402	-0,032	-0,025
-226,957	-200,000	-0,011	0,094
-225,942	285,997	-0,092	-0,119
-224,927	800,000	-0,019	0,042
-223,913	800,000	0,009	-0,021
-222,898	1,517	-0,247	-0,126
-221,884	640,957	-0,018	0,033
-220,869	-200,000	0,007	-0,041
-219,855	362,574	-0,032	0,047
-218,840	800,000	0,027	-0,061
-217,825	237,466	-0,092	-0,110
-216,811	6,577	0,139	0,074
-215,796	800,000	-0,025	-0,075
-214,782	800,000	0,028	0,067
-213,767	-200,000	0,002	-0,042
-212,752	221,990	-0,050	0,057
-211,738	800,000	0,009	0,020
-210,723	-127,757	0,087	0,009
-209,709	800,000	0,059	-0,121
-208,694	800,000	0,032	0,096
-207,679	80,987	-0,033	-0,025
-206,665	353,685	-0,089	0,126
-205,650	-200,000	0,018	0,125
-204,636	3,844	-0,047	-0,025
-203,621	282,446	-0,044	-0,056
-202,606	-200,000	-0,017	-0,128
-201,592	-122,138	-0,043	-0,005
-200,577	60,884	-0,081	-0,057
-199,563	-200,000	-0,010	0,056
-198,548	-66,825	-0,093	-0,026
-197,533	-135,947	-0,080	-0,007
-196,519	-50,427	0,071	0,024
-195,504	800,000	0,020	0,054
-194,490	307,023	-0,034	0,045
-193,475	414,048	0,078	-0,119
-192,460	-33,304	0,053	-0,021
-191,446	-106,985	0,056	-0,009
-190,431	143,731	0,060	0,057
-189,417	-69,820	0,089	0,024
-188,402	-133,278	-0,104	0,009
-187,387	276,924	-0,110	0,140
-186,373	196,587	-0,072	0,078
-185,358	290,978	-0,073	0,094
-184,344	-150,872	0,212	-0,011
-183,329	202,472	0,022	0,024
-182,315	800,000	0,073	0,152
-181,300	-96,779	-0,051	-0,010
-180,285	-106,799	-0,097	0,015
-179,271	454,907	-0,047	-0,075
-178,256	-200,000	-0,014	0,073
-177,242	-163,426	-0,126	0,004
-176,227	169,508	0,042	-0,043
-175,212	69,768	-0,058	0,042
-174,198	-117,649	0,052	0,007
-173,183	125,516	0,067	-0,060
-172,169	-200,000	-0,046	-0,206
-171,154	289,520	-0,049	-0,063
-170,139	-38,371	0,061	0,023
-169,125	-200,000	-0,004	0,037
-168,110	42,882	0,087	-0,056
-167,096	-200,000	-0,044	-0,152
-166,081	37,756	0,031	0,019
-165,066	-200,000	-0,016	0,111
-164,052	134,212	0,075	-0,069
-163,037	-200,000	-0,030	0,099
-162,023	528,334	0,019	0,031
-161,008	-20,057	0,058	-0,025
-159,993	-124,921	-0,110	-0,012
-158,979	-200,000	-0,026	0,249
-157,964	-195,035	-0,076	0,000
-156,950	800,000	-0,034	-0,080
-155,935	800,000	0,015	0,036
-154,920	-51,048	0,014	-0,005
-153,906	278,825	0,073	0,093
-152,891	121,098	-0,107	0,095
-151,877	800,000	0,040	-0,121
-150,862	20,764	0,055	-0,031
-149,847	-200,000	0,026	-0,127
-148,833	-85,113	0,079	-0,017
-147,818	-86,157	0,185	-0,040
-146,804	45,975	-0,056	0,037
-145,789	23,530	-0,067	0,039
-144,775	-20,560	-0,081	-0,035
-143,760	-16,078	0,024	0,011
-142,745	-17,952	-0,162	-0,072
-141,731	800,000	0,020	0,057
-140,716	-111,372	-0,085	0,012
-139,702	800,000	-0,017	-0,035
-138,687	-74,252	0,116	-0,030
-137,672	-200,000	-0,041	-0,140
-136,658	800,000	-0,039	-0,080
-135,643	-28,034	-0,064	0,026
-134,629	384,822	0,022	0,033
-133,614	28,071	0,059	0,035
-132,599	-86,520	0,159	-0,034
-131,585	-145,811	0,034	0,002
-130,570	-5,588	0,030	0,015
-129,556	48,326	0,086	-0,057
-128,541	-200,000	0,010	-0,141
-127,526	800,000	0,076	-0,169
-126,512	-87,927	-0,032	-0,007
-125,497	276,693	0,113	0,143
-124,483	-93,785	-0,061	0,012
-123,468	800,000	0,007	0,016
-122,453	-200,000	-0,092	0,000
-121,439	-200,000	0,016	-0,090
-120,424	214,346	0,096	-0,108
-119,410	-21,269	0,033	0,014
-118,395	-200,000	0,003	0,056
