DTS Sentinel unit serial number:	SN410029Multiplexer serial number:	ORYXHardware model number:	OX2-SRSoftware version number:	ORYX F/W v4,00 Oryx Data Collector v3.7.2.0data status	okinstallation	BH3 CH2differential loss correction	single-endedforward channel	channel 2reverse channel	N/Adate	2023/12/05time	11:37:28forward acquisition time	300,00reverse acquisition time	0,00gamma	499,1914k internal	0,3195k external	0,3195temperature offset calibration	1,0000default loss term (dB/km)	0,3820temperature slope calibration	1,0000multiplexer offset coefficient	1,0000multiplexer slope coefficient	1,0000fibre end	0,00T internal ref (°C)	9,68T ext. ref 1 (°C)	-5,05T ext. ref 2 (°C)	-5,12length (m)	temperature (°C)	Stokes	anti-Stokes-744,400	-25,063	-0,187	-0,080
-743,385	713,881	-0,058	0,112
-742,371	-165,479	-0,083	0,003
-741,356	141,212	-0,202	0,195
-740,342	246,504	0,094	-0,116
-739,327	-104,045	-0,247	0,042
-738,312	-200,000	-0,008	-0,046
-737,298	-80,392	-0,303	0,073
-736,283	-147,593	0,007	0,000
-735,269	-14,706	-0,205	0,095
-734,254	-18,197	-0,119	0,054
-733,239	-148,132	-0,378	-0,022
-732,225	-200,000	0,011	-0,050
-731,210	-200,000	-0,036	0,175
-730,196	418,444	-0,061	-0,095
-729,181	-200,000	0,006	0,047
-728,167	-170,790	0,017	0,000
-727,152	157,391	0,141	-0,142
-726,137	-90,550	-0,121	0,025
-725,123	163,809	-0,061	-0,063
-724,108	-96,449	-0,182	-0,035
-723,094	-71,499	-0,246	-0,066
-722,079	800,000	0,053	-0,159
-721,064	114,140	0,143	-0,126
-720,050	730,976	-0,070	-0,138
-719,035	-34,690	0,062	-0,025
-718,021	511,705	-0,055	-0,093
-717,006	-114,752	0,124	0,017
-715,991	-176,045	-0,184	-0,003
-714,977	-200,000	-0,038	-0,147
-713,962	-14,906	-0,049	-0,023
-712,948	370,282	-0,034	-0,050
-711,933	-30,640	0,070	0,029
-710,918	194,759	-0,065	0,071
-709,904	-200,000	0,025	-0,126
-708,889	-200,000	-0,013	-0,097
-707,875	-126,282	-0,046	-0,005
-706,860	2,785	-0,044	-0,023
-705,845	-200,000	0,012	0,078
-704,831	-200,000	-0,019	0,093
-703,816	-104,646	0,155	-0,026
-702,802	168,844	-0,031	0,033
-701,787	800,000	-0,050	-0,146
-700,772	-62,756	0,042	-0,013
-699,758	-56,339	-0,037	-0,012
-698,743	-69,621	0,090	-0,025
-697,729	-200,000	-0,005	-0,077
-696,714	-200,000	0,001	0,083
-695,699	-159,530	-0,212	0,008
-694,685	-200,000	-0,001	-0,039
-693,670	-200,000	0,005	-0,085
-692,656	76,019	0,071	0,054
-691,641	297,715	0,061	0,081
-690,627	-77,220	0,091	-0,023
-689,612	800,000	0,042	-0,109
-688,597	-136,491	-0,098	-0,008
-687,583	-13,520	-0,099	-0,047
-686,568	-125,657	0,090	0,010
-685,554	800,000	0,023	-0,056
-684,539	-153,397	-0,126	-0,006
-683,524	139,285	-0,052	0,050
-682,510	304,250	-0,037	0,050
-681,495	116,780	-0,083	0,074
-680,481	68,910	-0,042	-0,031
-679,466	800,000	0,039	-0,086
-678,451	-74,244	0,075	-0,020
-677,437	-200,000	-0,024	-0,086
-676,422	224,036	0,080	-0,094
-675,408	38,571	-0,127	0,082
-674,393	-74,286	-0,063	0,016
-673,378	-63,124	0,159	-0,047
-672,364	24,777	-0,161	-0,097
-671,349	800,000	-0,038	-0,090
-670,335	-93,408	0,105	-0,021
-669,320	800,000	-0,031	-0,082
-668,305	71,438	0,037	0,028
-667,291	-99,977	-0,196	0,035
-666,276	315,429	0,085	-0,117
-665,262	-91,116	-0,090	0,019
-664,247	800,000	0,014	-0,044
-663,232	-200,000	-0,041	-0,167
-662,218	800,000	0,040	0,085
-661,203	329,916	-0,035	0,049
-660,189	210,822	0,109	-0,125
-659,174	-36,904	0,043	-0,017
-658,159	-26,852	-0,110	0,046
-657,145	17,825	0,015	0,009
-656,130	-200,000	0,004	0,061
-655,116	783,400	0,052	0,104
-654,101	66,733	-0,064	-0,048
-653,086	-200,000	-0,067	0,000
-652,072	-200,000	-0,015	0,098
-651,057	-9,838	-0,089	-0,043
-650,043	220,753	-0,144	-0,168
-649,028	-27,988	0,028	0,012
-648,014	-46,130	0,091	0,032
-646,999	-200,000	-0,020	-0,111
-645,984	800,000	-0,014	-0,035
-644,970	-147,791	-0,056	0,003
-643,955	22,936	0,031	0,018
-642,941	-200,000	-0,016	-0,110
-641,926	92,693	-0,104	-0,085
-640,911	800,000	0,040	-0,116
-639,897	1,344	-0,145	-0,075
-638,882	800,000	-0,037	-0,080
-637,868	221,650	0,044	-0,051
-636,853	-24,407	-0,160	0,069
-635,838	-87,723	-0,084	-0,018
-634,824	78,926	0,063	-0,049
-633,809	72,440	-0,148	-0,112
-632,795	-200,000	0,004	0,047
-631,780	223,447	0,079	0,092
-630,765	24,402	-0,135	-0,081
-629,751	453,468	-0,091	-0,147
-628,736	-200,000	0,025	-0,081
-627,722	800,000	-0,019	-0,041
-626,707	-200,000	-0,000	-0,096
-625,692	772,242	0,007	-0,015
-624,678	-200,000	0,015	-0,048
-623,663	-139,555	-0,104	0,008
-622,649	-132,374	-0,151	0,014
-621,634	-200,000	-0,044	-0,140
-620,619	-111,292	-0,077	0,011
-619,605	773,388	-0,055	-0,109
-618,590	-84,111	0,102	0,023
-617,576	518,577	0,087	-0,148
-616,561	195,016	0,013	-0,014
-615,546	-200,000	0,005	-0,023
-614,532	-47,925	-0,076	-0,026
-613,517	-76,322	0,090	0,023
-612,503	301,693	0,076	-0,102
-611,488	144,360	-0,073	-0,070
-610,474	-34,668	0,072	0,028
-609,459	-200,000	0,004	0,086
-608,444	-5,578	-0,157	-0,078
-607,430	115,089	-0,014	-0,012
-606,415	-200,000	-0,023	-0,154
-605,401	518,512	0,010	0,016
-604,386	-200,000	-0,000	0,054
-603,371	-200,000	0,010	0,127
-602,357	92,873	0,045	-0,037
-601,342	-164,739	-0,106	0,003
-600,328	-200,000	-0,034	-0,118
-599,313	5,591	-0,118	-0,063
-598,298	4,658	-0,060	0,032
-597,284	-141,979	0,075	-0,005
-596,269	800,000	0,047	0,122
-595,255	377,251	0,087	0,129
-594,240	114,397	-0,151	-0,133
-593,225	68,044	0,063	0,047
-592,211	50,029	-0,035	0,024
-591,196	-200,000	0,020	-0,083
-590,182	-200,000	0,000	-0,071
-589,167	-106,167	0,117	-0,019
-588,152	-36,222	-0,116	-0,045
-587,138	-123,630	0,101	-0,011
-586,123	800,000	-0,038	0,105
-585,109	-11,966	-0,111	-0,052
-584,094	1,701	0,096	0,050
-583,079	5,538	0,070	0,037
-582,065	-200,000	-0,003	0,135
-581,050	402,908	0,033	0,051
-580,036	136,603	-0,043	0,041
-579,021	147,025	0,044	0,043
-578,006	-49,575	0,089	-0,030
-576,992	800,000	0,029	0,063
-575,977	-200,000	0,030	-0,149
-574,963	-29,314	0,065	0,027
-573,948	-49,049	-0,042	0,014
-572,934	47,188	0,056	0,037
-571,919	-117,819	-0,067	0,009
-570,904	-200,000	0,027	0,092
-569,890	-8,994	-0,083	-0,040
-568,875	425,659	-0,037	-0,058
-567,861	-29,512	0,186	-0,077
-566,846	-101,674	0,102	-0,018
-565,831	-121,470	0,080	-0,010
-564,817	160,996	-0,047	0,048
-563,802	41,649	-0,055	-0,036
-562,788	100,697	0,034	-0,028
-561,773	-43,323	0,080	0,029
-560,758	-18,961	0,130	-0,058
-559,744	-65,768	-0,044	0,013
-558,729	76,056	-0,088	0,067
-557,715	209,107	0,076	-0,087
-556,700	145,884	0,175	-0,170
-555,685	600,815	0,046	0,083
-554,671	234,357	-0,043	0,051
-553,656	-166,335	-0,080	-0,002
-552,642	800,000	0,029	-0,074
-551,627	131,548	0,016	0,015
-550,612	-32,636	0,163	-0,065
-549,598	-126,127	-0,106	0,011
-548,583	-200,000	-0,100	0,000
-547,569	-200,000	-0,012	0,162
-546,554	-119,389	0,136	-0,017
-545,539	311,202	-0,092	-0,125
-544,525	17,905	-0,064	0,037
-543,510	800,000	0,030	-0,068
-542,496	588,492	0,048	0,085
-541,481	800,000	-0,035	-0,074
-540,466	-53,405	0,043	0,014
-539,452	-87,115	0,251	0,055
-538,437	58,390	0,126	-0,089
-537,423	-200,000	-0,014	0,208
-536,408	300,927	0,048	0,065
-535,393	25,873	-0,110	0,066
-534,379	-173,495	-0,077	0,002
-533,364	-60,669	-0,035	0,011
-532,350	-200,000	-0,008	0,034
-531,335	-155,311	0,079	0,004
-530,321	-200,000	-0,001	0,056
-529,306	-63,634	0,082	0,024
-528,291	792,922	-0,080	0,159
-527,277	-64,908	-0,199	0,058
-526,262	69,801	0,057	-0,042
-525,248	-200,000	0,028	0,116
-524,233	-189,375	-0,056	0,000
-523,218	-39,716	0,088	0,033
-522,204	-118,286	-0,027	0,003
-521,189	-200,000	-0,030	-0,143
-520,175	87,999	0,096	0,076
-519,160	-70,973	-0,088	0,024
-518,145	800,000	0,024	0,072
-517,131	87,309	0,030	-0,024
-516,116	-200,000	0,018	-0,100
-515,102	136,621	-0,136	0,128
-514,087	354,956	-0,054	-0,078
-513,072	-111,044	0,024	0,004
-512,058	116,136	-0,076	0,067
-511,043	192,669	0,075	0,082
-510,029	-200,000	0,017	0,211
-509,014	109,432	-0,012	0,010
-507,999	40,076	0,056	0,036
-506,985	-10,703	-0,077	-0,037
-505,970	439,649	-0,036	-0,057
-504,956	-41,616	0,092	-0,034
-503,941	-143,003	0,059	0,004
-502,926	800,000	-0,007	0,019
-501,912	800,000	-0,051	-0,105
-500,897	348,395	-0,043	-0,061
-499,883	665,742	-0,045	-0,085
-498,868	-107,322	-0,192	-0,030
-497,853	-200,000	-0,044	-0,171
-496,839	368,417	-0,093	-0,136
-495,824	-28,488	0,058	-0,024
-494,810	800,000	0,068	0,156
-493,795	130,262	0,012	0,011
-492,781	-200,000	-0,010	0,180
-491,766	321,983	-0,076	0,105
-490,751	-87,587	-0,039	-0,008
-489,737	-2,344	-0,070	0,035
-488,722	-200,000	0,010	0,105
-487,708	229,469	0,094	0,111
-486,693	-154,992	-0,026	-0,001
-485,678	-200,000	0,122	-0,000
-484,664	-49,730	0,049	0,017
-483,649	-200,000	-0,008	-0,067
-482,635	-95,742	0,057	-0,011
-481,620	757,498	0,049	0,096
-480,605	-200,000	0,013	0,150
-479,591	-153,609	-0,088	-0,004
-478,576	309,950	0,086	0,116
-477,562	-200,000	-0,003	-0,068
-476,547	128,629	0,034	-0,031
-475,532	148,382	-0,118	-0,115
-474,518	800,000	0,054	-0,119
-473,503	40,993	0,005	-0,003
-472,489	-13,885	0,019	0,009
-471,474	800,000	0,049	-0,099
-470,459	140,719	-0,202	-0,193
-469,445	-17,853	-0,111	0,050
-468,430	550,920	-0,015	0,027
-467,416	697,560	0,089	-0,169
-466,401	-111,157	0,063	0,009
-465,386	-200,000	0,001	-0,027
-464,372	-2,541	0,108	-0,055
-463,357	-166,371	-0,126	-0,004
-462,343	800,000	-0,027	-0,057
-461,328	-200,000	0,010	-0,081
-460,313	-101,135	-0,055	0,010
-459,299	108,266	0,013	0,012
-458,284	800,000	0,071	-0,169
-457,270	800,000	0,042	-0,091
-456,255	-67,065	-0,078	-0,022
-455,241	-15,325	-0,128	0,059
-454,226	670,929	-0,030	0,056
-453,211	-200,000	-0,006	0,024
-452,197	-100,446	0,132	-0,023
-451,182	-129,751	-0,086	-0,008
-450,168	-128,211	0,118	-0,012
-449,153	-41,192	-0,097	0,036
-448,138	-111,131	-0,109	-0,016
-447,124	-200,000	0,032	0,132
-446,109	-200,000	-0,047	-0,229
-445,095	5,524	-0,124	-0,066
-444,080	31,038	0,100	-0,062
-443,065	-40,113	-0,073	0,027
-442,051	-72,596	-0,025	0,007
-441,036	4,255	0,111	0,058
-440,022	603,959	-0,098	-0,176
-439,007	505,567	0,056	-0,094
-437,992	-200,000	0,013	-0,094
-436,978	-142,304	-0,096	0,007
-435,963	800,000	-0,025	0,075
-434,949	134,898	-0,085	0,079
-433,934	-175,054	-0,078	-0,002
-432,919	705,645	0,033	-0,063
-431,905	229,978	0,077	-0,091
-430,890	-59,251	0,058	0,018
-429,876	-200,000	-0,037	0,119
-428,861	-200,000	-0,005	0,041
-427,846	-200,000	-0,003	-0,192
-426,832	-131,870	0,038	0,003
-425,817	800,000	-0,016	-0,040
-424,803	800,000	0,056	-0,171
-423,788	429,722	-0,069	0,108
-422,773	163,824	0,087	-0,088
-421,759	-8,365	0,109	-0,053
-420,744	-99,170	-0,139	-0,025
-419,730	-200,000	-0,022	-0,109
-418,715	31,448	-0,127	0,078
-417,701	111,029	0,044	0,038
-416,686	407,029	-0,048	0,074
-415,671	-174,187	-0,043	-0,001
-414,657	72,404	-0,141	0,106
-413,642	-87,883	0,141	-0,030
-412,628	-200,000	-0,004	-0,160
-411,613	101,633	0,030	0,025
-410,598	60,920	0,099	-0,071
-409,584	-200,000	0,005	-0,073
-408,569	-200,000	-0,001	0,164
-407,555	-35,588	0,068	0,027
-406,540	-200,000	0,005	0,131
-405,525	332,491	0,038	0,052
-404,511	-120,598	-0,108	0,013
-403,496	74,232	-0,051	-0,039
-402,482	-76,084	-0,009	-0,002
-401,467	-12,772	-0,084	0,039
-400,452	800,000	0,044	0,103
-399,438	-67,331	-0,035	0,010
-398,423	-200,000	0,009	-0,072
-397,409	-200,000	0,003	-0,024
-396,394	294,292	-0,147	0,193
-395,379	-200,000	-0,000	0,029
-394,365	-118,761	0,049	0,006
-393,350	191,484	0,088	-0,095
-392,336	40,494	-0,140	-0,090
-391,321	-200,000	0,017	0,061
-390,306	-200,000	0,031	-0,129
-389,292	141,177	-0,085	-0,081
-388,277	-200,000	-0,018	-0,072
-387,263	10,756	0,172	0,094
-386,248	-200,000	-0,039	0,161
-385,233	402,851	0,036	-0,054
-384,219	-200,000	-0,011	-0,043
-383,204	-174,058	-0,079	-0,002
-382,190	-200,000	0,024	-0,156
-381,175	-121,653	0,102	-0,012
-380,160	-105,062	0,080	-0,013
-379,146	378,534	0,044	0,065
-378,131	92,112	0,135	0,109
-377,117	-200,000	-0,000	-0,086
-376,102	497,207	-0,068	0,113
-375,088	-200,000	-0,008	-0,068
-374,073	366,550	-0,086	-0,125
-373,058	604,679	-0,025	0,045
-372,044	-89,410	-0,087	0,018
-371,029	-59,837	0,126	0,038
-370,015	-200,000	-0,006	0,041
-369,000	-200,000	0,024	0,090
-367,985	-49,255	0,086	-0,029
-366,971	118,053	-0,079	-0,070
-365,956	-165,849	0,153	-0,005
-364,942	-200,000	0,028	0,183
-363,927	-200,000	0,020	0,118
-362,912	-20,716	-0,033	-0,014
-361,898	800,000	-0,048	-0,117
-360,883	558,138	-0,046	0,079
-359,869	-200,000	0,028	0,141
-358,854	55,995	-0,050	0,035
-357,839	800,000	0,011	-0,025
-356,825	25,851	0,102	0,061
-355,810	503,874	-0,047	0,078
-354,796	96,563	0,039	-0,032
-353,781	144,225	0,103	-0,099
-352,766	800,000	0,042	-0,085
-351,752	240,843	0,023	0,028
-350,737	-177,369	0,120	-0,002
-349,723	206,779	0,068	-0,076
-348,708	-4,586	0,301	-0,149
-347,693	-200,000	0,021	-0,066
-346,679	-200,000	-0,008	-0,061
-345,664	136,300	-0,065	-0,061
-344,650	800,000	0,045	-0,136
-343,635	414,132	-0,070	0,107
-342,620	65,876	0,037	0,027
-341,606	171,676	-0,119	0,123
-340,591	-13,720	-0,067	-0,031
-339,577	-180,391	-0,035	-0,001
-338,562	-165,113	-0,087	-0,003
-337,548	-75,101	-0,082	0,021
-336,533	102,590	0,155	0,130
-335,518	-112,550	0,032	0,004
-334,504	-81,945	0,071	-0,017
-333,489	800,000	0,063	-0,176
-332,475	33,823	0,115	-0,071
-331,460	402,123	-0,028	-0,042
-330,445	157,635	0,056	0,056
-329,431	-200,000	0,028	0,129
-328,416	-10,443	-0,030	0,014
-327,402	-200,000	0,006	0,188
-326,387	198,400	-0,109	0,120
-325,372	-200,000	-0,006	-0,027
-324,358	424,958	0,039	-0,060
-323,343	-200,000	0,004	0,093
-322,329	-17,426	-0,082	0,037
-321,314	40,443	0,048	0,031
-320,299	-93,775	-0,036	-0,007
-319,285	169,330	0,040	-0,041
-318,270	574,697	-0,024	0,042
-317,256	-200,000	0,013	0,132
-316,241	-82,164	0,192	-0,045
-315,226	87,229	0,044	-0,035
-314,212	65,676	-0,169	0,122
-313,197	54,483	-0,017	-0,012
-312,183	800,000	-0,043	0,107
-311,168	-200,000	-0,017	0,114
-310,153	44,529	0,132	-0,087
-309,139	-15,108	0,028	0,013
-308,124	-200,000	0,000	0,130
-307,110	-200,000	0,016	-0,067
-306,095	800,000	0,043	0,103
-305,080	-200,000	-0,022	0,099
-304,066	800,000	-0,034	0,086
-303,051	-68,858	0,023	-0,006
-302,037	90,899	-0,109	0,088
-301,022	-51,694	0,041	-0,013
-300,008	55,256	0,112	-0,077
-298,993	235,650	0,056	-0,066
-297,978	800,000	0,057	0,122
-296,964	-200,000	-0,007	-0,065
-295,949	-7,997	-0,090	-0,043
-294,935	159,989	-0,030	-0,030
-293,920	-200,000	0,014	-0,054
-292,905	-166,685	0,040	-0,001
-291,891	524,175	0,063	0,106
-290,876	-200,000	0,003	0,036
-289,862	253,898	0,055	0,068
-288,847	-60,726	-0,033	0,010
-287,832	-200,000	0,003	-0,095
-286,818	88,160	-0,039	0,031
-285,803	-93,630	0,151	-0,029
-284,789	-26,141	0,105	0,044
-283,774	-200,000	0,022	-0,086
-282,759	-200,000	-0,023	-0,133
-281,745	152,576	0,079	-0,078
-280,730	117,629	-0,062	0,055
-279,716	260,280	-0,058	-0,072
-278,701	-72,056	0,107	0,028
-277,686	259,690	0,057	0,071
-276,672	-165,108	0,168	0,005
-275,657	-200,000	0,008	-0,056
-274,643	32,880	-0,049	-0,030
-273,628	-61,739	-0,147	0,044
-272,613	-200,000	-0,021	-0,133
-271,599	22,108	0,170	0,099
-270,584	15,974	0,028	0,016
-269,570	-200,000	0,005	0,054
-268,555	-200,000	-0,003	-0,031
-267,540	-33,009	-0,052	0,021
-266,526	-200,000	-0,004	-0,122
-265,511	87,046	-0,087	0,068
-264,497	152,303	-0,032	0,031
-263,482	-61,296	-0,067	-0,020
-262,467	-46,855	0,141	-0,049
-261,453	-200,000	-0,015	-0,069
-260,438	-200,000	0,001	-0,123
-259,424	-26,995	-0,052	-0,022
-258,409	800,000	0,038	-0,092
-257,395	-80,828	-0,004	-0,001
-256,380	800,000	-0,014	0,040
-255,365	50,704	-0,084	-0,057
-254,351	-200,000	0,017	-0,091
-253,336	18,463	0,065	-0,037
-252,322	-56,911	-0,072	-0,022
-251,307	13,868	0,087	-0,048
-250,292	-133,078	-0,137	0,012
-249,278	720,120	-0,039	0,074
-248,263	800,000	-0,012	-0,034
-247,249	360,275	0,042	0,060
-246,234	-34,744	-0,042	-0,016
-245,219	65,990	-0,085	-0,061
-244,205	800,000	0,013	0,034
-243,190	171,854	-0,080	-0,082
-242,176	458,040	0,094	0,150
-241,161	-47,422	0,140	0,048
-240,146	764,470	0,076	0,148
-239,132	188,966	-0,025	0,026
-238,117	307,341	-0,012	-0,017
-237,103	127,737	-0,009	-0,008
-236,088	-200,000	-0,005	0,061
-235,073	-200,000	-0,021	0,115
-234,059	-52,334	0,061	-0,020
-233,044	33,908	-0,097	-0,060
-232,030	-134,221	0,165	0,014
-231,015	-93,675	-0,112	-0,022
-230,000	-118,618	-0,184	-0,023
-228,986	-115,551	0,097	-0,013
-227,971	-48,851	0,080	0,027
-226,957	45,429	0,016	0,010
-225,942	-67,018	0,099	-0,028
-224,927	-69,584	0,046	0,012
-223,913	55,718	-0,051	0,035
-222,898	-200,000	0,022	0,104
-221,884	28,515	-0,017	0,010
-220,869	-200,000	-0,015	0,088
-219,855	112,112	0,169	0,146
-218,840	1,085	-0,111	-0,057
-217,825	-155,103	0,130	0,006
-216,811	-87,739	-0,149	0,032
-215,796	800,000	-0,082	-0,227
-214,782	-125,660	0,114	-0,012
-213,767	-75,557	0,114	-0,029
-212,752	468,396	-0,032	0,051
-211,738	-65,630	-0,078	0,022
-210,723	758,442	0,068	-0,131
-209,709	-1,232	0,080	-0,040
-208,694	184,416	0,052	-0,055
-207,679	621,369	-0,088	0,159
-206,665	-200,000	-0,013	-0,040
-205,650	-32,418	-0,096	-0,038
-204,636	73,873	0,116	0,087
-203,621	309,480	-0,033	-0,044
-202,606	-35,357	-0,183	0,071
-201,592	-174,955	0,062	0,001
-200,577	-136,155	-0,076	-0,006
-199,563	33,049	0,109	0,067
-198,548	412,492	-0,051	0,078
-197,533	44,790	-0,042	0,027
-196,519	800,000	-0,090	0,197
-195,504	800,000	0,016	-0,040
-194,490	564,404	0,045	0,078
-193,475	800,000	0,028	0,067
-192,460	51,414	-0,131	-0,089
-191,446	156,309	-0,066	-0,065
-190,431	159,902	0,116	0,115
-189,417	241,063	-0,050	0,060
-188,402	22,761	0,015	0,009
-187,387	-99,398	0,078	-0,014
-186,373	-200,000	-0,047	-0,197
-185,358	53,216	-0,163	0,111
-184,344	109,387	0,048	0,041
-183,329	-87,151	0,144	0,031
-182,315	-200,000	-0,011	-0,088
-181,300	-52,469	-0,102	-0,034
-180,285	-42,291	-0,145	0,053
-179,271	144,685	-0,022	-0,021
-178,256	-6,066	-0,093	0,045
-177,242	125,213	0,102	0,092
-176,227	800,000	-0,049	0,103
-175,212	313,155	-0,051	-0,069
-174,198	-200,000	0,008	-0,052
-173,183	-133,420	-0,166	-0,015
-172,169	595,010	0,041	0,073
-171,154	-54,650	0,055	0,018
-170,139	302,365	0,073	0,096
-169,125	701,900	0,030	-0,057
-168,110	-38,922	-0,066	-0,025
-167,096	-12,501	-0,147	0,068
-166,081	-171,944	0,119	0,003
-165,066	218,375	-0,058	-0,066
-164,052	-138,377	0,082	0,006
-163,037	-13,077	-0,082	0,038
-162,023	145,443	0,072	0,068
-161,008	800,000	0,025	0,065
-159,993	334,552	0,057	0,079
-158,979	-127,041	-0,100	0,010
-157,964	48,258	-0,046	0,031
-156,950	800,000	0,035	-0,074
-155,935	89,733	-0,060	0,048
-154,920	-200,000	0,052	0,234
-153,906	-200,000	-0,025	0,079
-152,891	530,672	-0,042	-0,071
-151,877	-20,839	0,049	0,021
-150,862	412,359	-0,025	-0,037
-149,847	-160,270	0,161	-0,006
-148,833	-60,829	0,121	0,036
-147,818	-200,000	-0,016	0,156
-146,804	277,469	-0,027	0,034
-145,789	-200,000	-0,001	-0,075
-144,775	250,143	-0,114	-0,138
-143,760	-200,000	0,004	-0,073
-142,745	39,066	-0,206	-0,131
-141,731	-37,000	0,043	-0,016
-140,716	-149,215	0,163	-0,009
-139,702	93,767	-0,067	0,054
-138,687	258,965	0,030	0,037
-137,672	-63,456	-0,034	0,010
-136,658	-200,000	-0,006	0,077
-135,643	800,000	0,052	0,144
-134,629	-136,277	-0,116	0,010
-133,614	6,684	-0,081	-0,043
-132,599	-58,451	0,095	0,029
-131,585	800,000	-0,041	0,097
-130,570	800,000	0,051	0,125
-129,556	127,058	-0,015	0,014
-128,541	800,000	0,026	-0,076
-127,526	-200,000	-0,035	-0,126
-126,512	592,542	0,041	0,072
-125,497	162,095	0,055	0,055
-124,483	-101,806	0,092	-0,016
-123,468	7,868	0,053	-0,028
-122,453	-129,982	-0,110	-0,011
-121,439	800,000	0,015	-0,039
-120,424	106,033	-0,017	0,014
-119,410	-200,000	-0,016	-0,066
