DTS Sentinel unit serial number:	SN410029Multiplexer serial number:	ORYXHardware model number:	OX2-SRSoftware version number:	ORYX F/W v4,00 Oryx Data Collector v3.7.2.0data status	okinstallation	BH3 CH2differential loss correction	single-endedforward channel	channel 2reverse channel	N/Adate	2023/12/06time	00:47:28forward acquisition time	300,00reverse acquisition time	0,00gamma	499,1914k internal	0,3196k external	0,3196temperature offset calibration	1,0000default loss term (dB/km)	0,3820temperature slope calibration	1,0000multiplexer offset coefficient	1,0000multiplexer slope coefficient	1,0000fibre end	0,00T internal ref (°C)	9,36T ext. ref 1 (°C)	-5,55T ext. ref 2 (°C)	-5,63length (m)	temperature (°C)	Stokes	anti-Stokes-744,400	-61,914	-0,147	-0,045
-743,385	800,000	-0,075	0,163
-742,371	-80,237	0,095	0,023
-741,356	-109,600	-0,284	-0,043
-740,342	151,807	-0,110	0,110
-739,327	-87,550	-0,189	-0,041
-738,312	424,827	0,045	-0,071
-737,298	-62,410	-0,119	0,036
-736,283	331,490	0,066	-0,093
-735,269	143,723	-0,246	0,238
-734,254	436,718	-0,034	0,054
-733,239	-72,046	-0,378	-0,101
-732,225	93,552	0,105	0,087
-731,210	207,706	0,091	0,104
-730,196	-200,000	-0,031	-0,109
-729,181	-44,735	-0,122	-0,044
-728,167	-123,440	0,156	-0,018
-727,152	501,109	0,034	-0,057
-726,137	307,759	-0,017	-0,023
-725,123	93,379	-0,118	-0,097
-724,108	-64,373	-0,172	-0,051
-723,094	447,871	0,050	-0,080
-722,079	479,188	0,034	0,057
-721,064	122,466	0,024	-0,021
-720,050	-200,000	-0,004	0,039
-719,035	-200,000	-0,030	0,119
-718,021	-60,336	-0,174	0,054
-717,006	43,653	-0,086	-0,057
-715,991	-200,000	-0,009	-0,083
-714,977	-129,510	-0,126	0,012
-713,962	40,243	-0,043	-0,028
-712,948	613,096	0,067	0,122
-711,933	276,717	-0,124	-0,161
-710,918	800,000	0,016	-0,050
-709,904	-162,069	-0,138	0,005
-708,889	-200,000	0,007	-0,137
-707,875	-16,299	0,035	-0,016
-706,860	39,383	-0,063	-0,041
-705,845	-0,058	0,078	0,040
-704,831	249,947	0,051	0,064
-703,816	41,808	0,082	-0,054
-702,802	82,355	-0,082	0,065
-701,787	-200,000	-0,018	-0,073
-700,772	-200,000	-0,032	-0,181
-699,758	93,626	-0,073	0,060
-698,743	409,057	0,022	0,034
-697,729	-200,000	-0,011	0,123
-696,714	651,959	0,075	-0,141
-695,699	-200,000	0,001	-0,037
-694,685	10,305	-0,007	0,004
-693,670	-129,537	-0,116	-0,012
-692,656	85,108	0,049	-0,039
-691,641	-183,733	0,037	-0,000
-690,627	-49,107	-0,023	0,008
-689,612	140,079	-0,020	-0,019
-688,597	-25,833	-0,039	0,016
-687,583	-200,000	-0,001	-0,076
-686,568	370,424	-0,065	-0,096
-685,554	-200,000	-0,003	0,015
-684,539	-200,000	-0,011	0,052
-683,524	-200,000	-0,005	-0,091
-682,510	-6,865	0,026	0,013
-681,495	-26,334	-0,098	0,042
-680,481	-114,340	-0,050	-0,007
-679,466	20,794	-0,054	-0,032
-678,451	800,000	-0,031	-0,074
-677,437	-200,000	-0,002	-0,063
-676,422	274,410	0,081	0,104
-675,408	-164,699	-0,051	-0,002
-674,393	-200,000	-0,030	-0,103
-673,378	-29,642	-0,108	-0,044
-672,364	800,000	0,027	-0,057
-671,349	218,212	-0,095	-0,110
-670,335	389,700	0,033	0,050
-669,320	418,553	-0,004	-0,006
-668,305	-133,184	-0,189	0,017
-667,291	-83,404	0,163	-0,038
-666,276	409,472	-0,137	-0,211
-665,262	-41,316	-0,026	-0,010
-664,247	-58,676	0,166	-0,052
-663,232	12,508	-0,016	0,009
-662,218	45,918	0,072	0,048
-661,203	24,244	-0,123	0,074
-660,189	28,045	0,065	-0,040
-659,174	167,668	-0,054	-0,056
-658,159	70,417	0,052	-0,039
-657,145	344,352	-0,044	0,063
-656,130	-200,000	0,003	0,144
-655,116	293,276	0,113	0,150
-654,101	-74,675	0,075	-0,019
-653,086	800,000	-0,042	0,103
-652,072	421,362	-0,089	-0,139
-651,057	-200,000	0,019	-0,179
-650,043	800,000	-0,060	0,181
-649,028	800,000	0,045	0,133
-648,014	-76,610	0,095	0,024
-646,999	-126,525	0,068	-0,007
-645,984	-200,000	-0,011	0,050
-644,970	-74,931	-0,158	0,041
-643,955	800,000	-0,037	-0,088
-642,941	-73,978	-0,205	0,054
-641,926	-85,769	0,116	-0,026
-640,911	94,318	0,160	0,132
-639,897	800,000	-0,011	0,033
-638,882	732,160	-0,029	0,056
-637,868	800,000	-0,041	0,103
-636,853	154,671	-0,106	0,105
-635,838	-200,000	0,007	0,045
-634,824	345,320	-0,024	-0,034
-633,809	300,531	0,133	-0,179
-632,795	77,975	-0,086	0,067
-631,780	249,013	-0,070	-0,087
-630,765	477,787	-0,049	0,080
-629,751	69,548	-0,087	-0,065
-628,736	800,000	-0,013	-0,040
-627,722	800,000	0,037	-0,095
-626,707	-32,189	0,103	-0,041
-625,692	-134,375	0,062	-0,005
-624,678	-33,454	-0,074	-0,029
-623,663	63,839	-0,043	-0,031
-622,649	541,209	-0,056	-0,097
-621,634	133,720	-0,037	0,035
-620,619	800,000	-0,050	0,109
-619,605	-7,841	-0,064	0,031
-618,590	156,744	-0,075	-0,075
-617,576	606,824	-0,025	0,046
-616,561	65,891	-0,091	-0,067
-615,546	745,044	-0,020	0,039
-614,532	-59,629	-0,185	-0,057
-613,517	-179,094	-0,057	-0,001
-612,503	-25,271	0,029	0,012
-611,488	-68,415	0,179	0,050
-610,474	264,467	-0,035	-0,044
-609,459	36,983	-0,067	0,043
-608,444	800,000	0,030	0,080
-607,430	-200,000	0,027	-0,103
-606,415	444,805	0,073	-0,117
-605,401	632,192	0,071	-0,130
-604,386	85,535	0,111	0,088
-603,371	-41,195	0,077	-0,029
-602,357	-51,632	0,102	0,034
-601,342	-57,264	-0,154	-0,049
-600,328	243,039	-0,069	0,083
-599,313	800,000	0,043	0,093
-598,298	120,794	0,132	0,119
-597,284	-200,000	-0,011	-0,135
-596,269	-185,304	0,110	-0,001
-595,255	218,125	-0,120	-0,138
-594,240	-200,000	-0,015	0,115
-593,225	800,000	0,031	0,089
-592,211	413,567	-0,041	-0,063
-591,196	113,832	0,040	0,035
-590,182	378,624	0,035	-0,052
-589,167	-174,344	0,150	-0,003
-588,152	336,512	0,007	0,009
-587,138	-162,413	-0,103	0,004
-586,123	286,991	0,047	-0,062
-585,109	304,791	-0,127	0,171
-584,094	-51,930	-0,017	-0,006
-583,079	737,456	0,034	-0,066
-582,065	416,110	-0,055	0,085
-581,050	-200,000	-0,020	0,109
-580,036	102,188	-0,090	0,076
-579,021	800,000	0,039	0,115
-578,006	-200,000	0,022	-0,130
-576,992	-100,102	0,086	0,015
-575,977	-200,000	0,021	0,075
-574,963	380,061	-0,025	0,038
-573,948	346,053	0,102	0,145
-572,934	475,748	0,077	-0,126
-571,919	-61,293	-0,102	-0,031
-570,904	-83,285	-0,065	0,015
-569,890	-200,000	-0,010	-0,082
-568,875	-75,887	0,110	0,028
-567,861	476,038	-0,053	0,087
-566,846	14,463	-0,069	-0,039
-565,831	-61,928	0,056	-0,017
-564,817	236,182	-0,062	-0,074
-563,802	200,904	-0,014	0,016
-562,788	-78,850	0,053	-0,013
-561,773	-153,094	-0,149	0,007
-560,758	-33,738	0,079	-0,031
-559,744	800,000	0,048	0,129
-558,729	-200,000	-0,002	0,067
-557,715	130,927	-0,069	-0,064
-556,700	-71,037	0,082	-0,022
-555,685	119,119	-0,113	-0,101
-554,671	-200,000	0,032	-0,130
-553,656	64,764	-0,033	0,024
-552,642	22,788	0,090	0,053
-551,627	-60,096	0,100	0,031
-550,612	-143,344	-0,043	-0,003
-549,598	-19,945	-0,204	-0,090
-548,583	24,124	0,128	0,076
-547,569	341,041	0,011	-0,015
-546,554	135,775	0,106	0,100
-545,539	190,511	-0,047	0,051
-544,525	-177,379	-0,058	-0,001
-543,510	800,000	-0,035	-0,071
-542,496	-74,771	-0,072	-0,019
-541,481	-17,907	0,058	-0,026
-540,466	-200,000	-0,019	0,166
-539,452	93,199	0,043	-0,035
-538,437	308,371	0,046	-0,062
-537,423	800,000	-0,053	-0,111
-536,408	-7,746	0,134	0,065
-535,393	762,963	0,057	-0,112
-534,379	-200,000	0,015	-0,112
-533,364	648,072	0,035	-0,065
-532,350	800,000	0,042	0,118
-531,335	-164,756	-0,054	0,002
-530,321	-200,000	-0,033	0,263
-529,306	438,249	0,076	0,120
-528,291	800,000	-0,036	-0,089
-527,277	-200,000	-0,033	-0,136
-526,262	231,978	0,055	0,065
-525,248	237,047	0,027	0,032
-524,233	-148,852	0,090	0,005
-523,218	800,000	0,021	-0,046
-522,204	-38,367	-0,116	-0,044
-521,189	143,099	-0,090	-0,087
-520,175	800,000	-0,016	0,048
-519,160	124,067	0,074	0,067
-518,145	607,033	-0,031	0,055
-517,131	157,287	0,071	-0,071
-516,116	800,000	-0,013	-0,033
-515,102	-71,767	0,050	0,013
-514,087	209,408	-0,113	-0,128
-513,072	316,033	0,027	-0,037
-512,058	800,000	0,026	0,073
-511,043	800,000	-0,039	-0,107
-510,029	163,171	0,048	0,048
-509,014	-200,000	-0,001	-0,130
-507,999	767,922	-0,022	-0,044
-506,985	424,419	-0,072	-0,112
-505,970	689,255	-0,094	-0,178
-504,956	297,187	-0,061	-0,082
-503,941	5,189	-0,010	-0,005
-502,926	800,000	0,040	0,118
-501,912	800,000	0,095	0,237
-500,897	5,608	0,099	-0,053
-499,883	-59,301	-0,096	-0,030
-498,868	-200,000	0,015	-0,112
-497,853	255,031	-0,084	-0,104
-496,839	-200,000	-0,024	-0,082
-495,824	26,728	-0,033	0,020
-494,810	-200,000	0,022	0,111
-493,795	144,497	-0,050	-0,048
-492,781	364,990	0,082	-0,119
-491,766	76,866	-0,127	-0,097
-490,751	-200,000	-0,001	-0,084
-489,737	-200,000	-0,015	-0,111
-488,722	238,907	-0,047	0,056
-487,708	-111,490	0,122	-0,018
-486,693	37,529	0,067	-0,043
-485,678	149,335	-0,063	-0,062
-484,664	22,278	-0,043	0,025
-483,649	404,038	-0,050	-0,077
-482,635	800,000	0,064	-0,149
-481,620	69,443	-0,026	0,020
-480,605	-32,203	-0,050	0,020
-479,591	136,181	0,046	-0,044
-478,576	-200,000	-0,008	-0,032
-477,562	-132,268	-0,062	0,006
-476,547	-200,000	-0,083	0,000
-475,532	73,673	0,073	-0,055
-474,518	335,255	0,088	0,123
-473,503	-54,898	0,071	0,023
-472,489	-118,576	0,148	-0,019
-471,474	-200,000	-0,047	-0,157
-470,459	-45,522	-0,116	0,041
-469,445	-124,357	-0,083	0,009
-468,430	175,649	-0,057	-0,060
-467,416	800,000	-0,034	0,083
-466,401	800,000	0,013	-0,038
-465,386	-103,151	0,135	0,023
-464,372	-61,925	-0,068	0,020
-463,357	800,000	0,013	0,035
-462,343	-200,000	0,020	0,109
-461,328	146,973	-0,094	-0,091
-460,313	159,105	-0,070	-0,070
-459,299	-71,234	0,030	-0,008
-458,284	73,203	0,142	0,107
-457,270	-200,000	0,002	-0,008
-456,255	-56,875	-0,108	-0,034
-455,241	676,316	0,065	0,122
-454,226	283,658	-0,100	-0,130
-453,211	800,000	-0,040	0,080
-452,197	71,927	0,126	0,094
-451,182	141,793	-0,133	-0,127
-450,168	283,865	-0,101	0,131
-449,153	-14,287	0,127	0,059
-448,138	-116,341	-0,008	-0,001
-447,124	-102,372	-0,186	-0,032
-446,109	-200,000	-0,013	-0,068
-445,095	-200,000	0,037	-0,133
-444,080	-200,000	0,012	-0,054
-443,065	61,984	0,156	0,112
-442,051	-200,000	0,018	-0,065
-441,036	211,171	0,041	-0,046
-440,022	52,110	-0,075	-0,051
-439,007	800,000	0,012	0,024
-437,992	-67,349	0,047	0,013
-436,978	-200,000	-0,005	0,024
-435,963	-200,000	0,001	0,064
-434,949	-122,226	-0,024	-0,003
-433,934	-159,673	-0,155	0,006
-432,919	-200,000	0,047	-0,173
-431,905	-200,000	-0,002	0,120
-430,890	-200,000	0,016	0,088
-429,876	23,861	-0,037	-0,022
-428,861	452,881	0,039	0,062
-427,846	52,710	-0,074	-0,051
-426,832	-200,000	-0,007	-0,026
-425,817	50,284	-0,106	0,072
-424,803	-200,000	0,001	-0,036
-423,788	800,000	0,039	0,098
-422,773	-72,314	0,016	-0,004
-421,759	-75,130	0,108	0,028
-420,744	800,000	-0,048	-0,119
-419,730	249,639	0,052	-0,063
-418,715	51,995	-0,106	-0,073
-417,701	16,356	0,103	0,058
-416,686	-99,412	0,074	0,013
-415,671	218,645	0,073	-0,084
-414,657	-200,000	-0,016	0,108
-413,642	10,003	-0,078	-0,043
-412,628	140,517	-0,050	0,048
-411,613	26,681	0,142	0,086
-410,598	313,643	0,068	0,093
-409,584	70,802	0,057	0,042
-408,569	29,105	0,075	0,046
-407,555	161,151	-0,085	-0,086
-406,540	265,121	-0,046	-0,057
-405,525	-113,906	0,031	-0,004
-404,511	3,485	0,072	-0,038
-403,496	380,506	-0,063	-0,093
-402,482	-200,000	0,044	-0,149
-401,467	800,000	-0,074	0,167
-400,452	-200,000	-0,008	-0,088
-399,438	101,764	0,049	-0,041
-398,423	332,728	-0,097	0,135
-397,409	-200,000	0,003	0,112
-396,394	-200,000	0,045	-0,257
-395,379	800,000	0,058	-0,138
-394,365	25,987	0,061	0,037
-393,350	-200,000	0,007	-0,024
-392,336	-1,074	0,098	-0,049
-391,321	800,000	-0,027	-0,079
-390,306	369,999	0,048	0,070
-389,292	733,666	-0,051	0,099
-388,277	-200,000	-0,029	-0,175
-387,263	99,740	0,115	0,096
-386,248	-35,276	0,068	0,026
-385,233	83,144	0,134	0,105
-384,219	800,000	0,037	0,092
-383,204	800,000	0,015	0,037
-382,190	23,056	-0,104	-0,061
-381,175	-77,534	-0,143	-0,035
-380,160	800,000	0,043	0,101
-379,146	191,587	0,083	-0,090
-378,131	-177,602	0,154	-0,003
-377,117	800,000	0,040	-0,097
-376,102	83,423	-0,090	-0,071
-375,088	80,484	-0,065	0,050
-374,073	-24,204	-0,039	-0,016
-373,058	220,243	0,088	-0,101
-372,044	15,087	0,023	-0,013
-371,029	32,198	0,064	-0,040
-370,015	-200,000	-0,009	-0,056
-369,000	7,630	-0,111	-0,060
-367,985	-200,000	-0,004	-0,098
-366,971	281,858	0,020	-0,025
-365,956	-37,324	-0,068	0,026
-364,942	63,218	0,173	0,124
-363,927	800,000	-0,057	0,114
-362,912	128,696	-0,113	0,103
-361,898	-87,993	0,231	-0,049
-360,883	-20,249	-0,100	-0,044
-359,869	-81,902	-0,086	0,020
-358,854	-111,591	0,093	0,013
-357,839	-157,629	0,091	0,004
-356,825	138,262	-0,051	-0,048
-355,810	-34,730	-0,098	0,038
-354,796	-200,000	-0,016	-0,068
-353,781	-146,103	-0,127	-0,008
-352,766	-3,358	0,065	0,032
-351,752	-108,769	0,057	0,009
-350,737	163,691	-0,035	0,035
-349,723	410,732	0,025	0,038
-348,708	-147,397	0,124	0,007
-347,693	800,000	0,060	-0,123
-346,679	356,514	-0,068	-0,098
-345,664	221,248	-0,049	-0,057
-344,650	-1,624	-0,106	0,053
-343,635	-80,529	0,112	0,027
-342,620	800,000	0,046	0,137
-341,606	208,809	-0,123	-0,139
-340,591	-3,148	-0,094	0,047
-339,577	76,290	-0,055	0,042
-338,562	-85,859	0,052	0,012
-337,548	-200,000	-0,007	0,027
-336,533	600,925	0,038	0,067
-335,518	119,951	0,075	0,067
-334,504	500,765	-0,015	0,024
-333,489	-200,000	-0,008	0,045
-332,475	-5,026	-0,058	0,029
-331,460	198,444	-0,080	-0,087
-330,445	537,594	0,005	-0,009
-329,431	-200,000	0,004	-0,036
-328,416	-200,000	0,054	-0,182
-327,402	100,458	0,093	0,077
-326,387	149,229	-0,083	0,081
-325,372	-129,085	-0,096	-0,010
-324,358	-125,649	0,057	-0,006
-323,343	800,000	0,029	0,063
-322,329	610,540	0,083	0,149
-321,314	-200,000	-0,023	0,097
-320,299	136,075	-0,055	0,052
-319,285	-106,111	-0,049	0,008
-318,270	-1,263	0,060	-0,030
-317,256	-200,000	0,022	-0,179
-316,241	-200,000	-0,014	-0,077
-315,226	253,388	0,042	0,052
-314,212	-109,975	0,189	0,028
-313,197	2,538	-0,007	0,004
-312,183	585,063	0,037	-0,065
-311,168	-200,000	-0,025	0,093
-310,153	7,767	-0,035	-0,019
-309,139	-200,000	0,013	-0,247
-308,124	800,000	-0,021	0,043
-307,110	800,000	0,052	0,140
-306,095	800,000	-0,054	-0,164
-305,080	55,383	0,112	-0,077
-304,066	303,787	0,030	-0,040
-303,051	800,000	-0,018	0,048
-302,037	280,478	-0,105	-0,134
-301,022	169,494	0,058	0,060
-300,008	800,000	0,029	0,072
-298,993	335,447	0,026	0,036
-297,978	-200,000	0,008	0,060
-296,964	-83,998	-0,045	-0,010
-295,949	649,902	0,044	-0,080
-294,935	-200,000	-0,015	0,048
-293,920	22,774	-0,141	-0,082
-292,905	-185,255	0,056	0,001
-291,891	-200,000	-0,031	0,100
-290,876	262,573	0,060	0,075
-289,862	4,577	0,111	0,058
-288,847	50,576	-0,073	0,050
-287,832	-200,000	-0,016	0,087
-286,818	186,984	-0,044	0,047
-285,803	-144,167	0,044	0,003
-284,789	-109,183	0,148	0,022
-283,774	-144,284	-0,064	0,004
-282,759	432,930	-0,019	-0,030
-281,745	-200,000	0,022	-0,079
-280,730	18,108	-0,060	0,034
-279,716	156,579	0,070	0,069
-278,701	537,180	-0,051	-0,087
-277,686	-28,469	0,063	-0,026
-276,672	800,000	0,059	0,127
-275,657	45,934	0,145	-0,096
-274,643	800,000	-0,093	-0,212
-273,628	28,120	-0,104	0,062
-272,613	734,803	0,039	-0,076
-271,599	-130,265	0,060	0,006
-270,584	-200,000	0,036	0,138
-269,570	-84,209	0,066	0,015
-268,555	648,614	-0,012	-0,021
-267,540	-200,000	-0,008	0,079
-266,526	-13,544	-0,057	0,026
-265,511	-69,159	-0,176	0,048
-264,497	-200,000	-0,025	-0,108
-263,482	451,838	0,073	0,116
-262,467	800,000	0,043	0,107
-261,453	386,943	0,020	-0,030
-260,438	204,345	0,057	-0,063
-259,424	162,766	-0,086	0,086
-258,409	509,559	-0,040	-0,067
-257,395	362,204	0,034	0,049
-256,380	140,649	0,131	0,123
-255,365	742,614	-0,028	-0,054
-254,351	-35,034	0,131	-0,051
-253,336	26,068	-0,134	0,080
-252,322	240,348	-0,129	-0,153
-251,307	552,411	0,106	-0,183
-250,292	-200,000	-0,027	0,184
-249,278	611,520	0,074	0,133
-248,263	649,218	-0,054	0,098
-247,249	114,306	-0,088	-0,077
-246,234	800,000	-0,013	-0,037
-245,219	-40,716	-0,113	0,042
-244,205	-200,000	-0,007	0,084
-243,190	800,000	0,012	0,032
-242,176	800,000	0,086	0,181
-241,161	44,385	-0,041	0,027
-240,146	151,459	-0,107	-0,104
-239,132	321,605	-0,019	0,026
-238,117	800,000	-0,011	0,033
-237,103	-20,425	0,080	-0,035
-236,088	-25,619	-0,148	0,062
-235,073	795,908	-0,057	0,113
-234,059	800,000	0,021	0,052
-233,044	-176,895	0,085	0,002
-232,030	-200,000	-0,002	-0,054
-231,015	-200,000	-0,034	-0,107
-230,000	113,308	0,062	-0,054
-228,986	577,132	-0,033	-0,058
-227,971	800,000	-0,037	0,090
-226,957	-65,334	-0,039	0,011
-225,942	293,583	-0,006	-0,008
-224,927	-200,000	-0,013	0,066
-223,913	-84,206	-0,153	-0,034
-222,898	-7,712	0,095	-0,046
-221,884	73,215	-0,035	-0,026
-220,869	-22,191	-0,096	-0,041
-219,855	31,337	0,047	0,029
-218,840	-73,493	0,111	0,029
-217,825	-200,000	0,026	0,089
-216,811	-14,672	-0,098	0,045
-215,796	-200,000	-0,023	-0,110
-214,782	-41,755	0,159	0,058
-213,767	287,990	-0,056	-0,072
-212,752	-200,000	-0,007	0,099
-211,738	-200,000	-0,006	-0,117
-210,723	-200,000	0,009	-0,068
-209,709	127,779	0,114	-0,104
-208,694	800,000	-0,017	0,039
-207,679	57,960	0,089	-0,062
-206,665	11,155	0,029	-0,016
-205,650	-109,081	-0,109	-0,016
-204,636	-0,378	0,167	-0,084
-203,621	800,000	-0,013	0,030
-202,606	-200,000	-0,035	0,116
-201,592	34,300	-0,059	-0,037
-200,577	246,073	-0,065	-0,079
-199,563	-200,000	0,002	-0,102
-198,548	-170,583	-0,044	0,001
-197,533	-200,000	-0,004	0,089
-196,519	-200,000	0,003	0,010
-195,504	-200,000	-0,001	0,040
-194,490	500,984	0,042	-0,070
-193,475	281,471	-0,072	0,093
-192,460	35,590	0,053	0,033
-191,446	767,184	0,096	0,187
-190,431	617,182	0,023	0,042
-189,417	-200,000	-0,046	0,222
-188,402	800,000	0,029	-0,072
-187,387	-117,417	-0,182	-0,023
-186,373	-64,832	-0,076	0,022
-185,358	-200,000	0,034	0,110
-184,344	159,188	0,097	0,096
-183,329	800,000	0,007	0,021
-182,315	-165,792	0,187	-0,006
-181,300	150,180	-0,042	-0,041
-180,285	-98,411	0,034	-0,006
-179,271	554,524	-0,040	-0,068
-178,256	-6,610	-0,148	-0,072
-177,242	565,907	0,092	-0,160
-176,227	800,000	-0,050	0,120
-175,212	-200,000	0,004	0,148
-174,198	-200,000	-0,001	-0,011
-173,183	-77,024	-0,121	-0,030
-172,169	36,272	0,038	0,024
-171,154	9,451	0,026	0,014
-170,139	-200,000	-0,023	-0,167
-169,125	-187,583	0,113	0,001
-168,110	529,166	-0,053	0,090
-167,096	-200,000	-0,009	0,033
-166,081	800,000	-0,025	-0,061
-165,066	800,000	0,034	0,076
-164,052	-100,653	-0,141	0,024
-163,037	-200,000	0,027	0,190
-162,023	105,150	0,068	-0,057
-161,008	236,028	-0,072	0,085
-159,993	-120,712	0,093	0,011
-158,979	-29,749	-0,122	0,049
-157,964	-200,000	-0,015	0,056
-156,950	-200,000	-0,025	-0,107
-155,935	-200,000	0,040	-0,195
-154,920	361,355	-0,053	-0,076
-153,906	-76,809	0,174	0,043
-152,891	800,000	-0,034	0,095
-151,877	212,264	0,021	0,024
-150,862	-92,132	-0,040	-0,008
-149,847	800,000	-0,049	-0,099
-148,833	800,000	0,044	-0,102
-147,818	-92,471	0,049	-0,010
-146,804	-37,746	-0,119	-0,045
-145,789	800,000	0,029	-0,072
-144,775	800,000	0,033	-0,069
-143,760	800,000	-0,004	0,010
-142,745	800,000	0,013	0,035
-141,731	800,000	-0,014	0,040
-140,716	-200,000	0,003	-0,016
-139,702	-146,861	0,166	0,010
-138,687	-21,615	-0,131	-0,057
-137,672	-148,997	-0,134	0,008
-136,658	-200,000	-0,035	-0,229
-135,643	692,416	0,040	-0,074
-134,629	-200,000	-0,007	-0,045
-133,614	-93,580	0,054	-0,010
-132,599	-12,182	0,033	-0,015
-131,585	98,274	0,074	0,061
-130,570	-15,766	-0,063	0,028
-129,556	227,097	-0,063	-0,073
-128,541	-200,000	-0,008	0,064
-127,526	-98,241	-0,054	-0,010
-126,512	-64,234	-0,070	0,020
-125,497	-12,562	-0,114	0,053
-124,483	800,000	0,024	-0,076
-123,468	-20,885	-0,160	0,069
-122,453	-140,819	0,101	0,007
-121,439	52,942	-0,103	0,070
-120,424	800,000	-0,018	-0,050
-119,410	-200,000	0,022	0,132
