DTS Sentinel unit serial number:	SN410029Multiplexer serial number:	ORYXHardware model number:	OX2-SRSoftware version number:	ORYX F/W v4,00 Oryx Data Collector v3.7.2.0data status	okinstallation	BH3 CH2differential loss correction	single-endedforward channel	channel 2reverse channel	N/Adate	2023/12/06time	02:27:28forward acquisition time	300,00reverse acquisition time	0,00gamma	499,1914k internal	0,3197k external	0,3197temperature offset calibration	1,0000default loss term (dB/km)	0,3820temperature slope calibration	1,0000multiplexer offset coefficient	1,0000multiplexer slope coefficient	1,0000fibre end	0,00T internal ref (°C)	9,02T ext. ref 1 (°C)	-5,87T ext. ref 2 (°C)	-5,95length (m)	temperature (°C)	Stokes	anti-Stokes-744,400	-34,187	-0,088	-0,035
-743,385	216,361	-0,157	0,182
-742,371	-200,000	-0,008	-0,085
-741,356	101,505	-0,170	0,145
-740,342	-64,038	-0,089	-0,026
-739,327	11,381	-0,291	0,162
-738,312	800,000	-0,057	-0,171
-737,298	-108,809	-0,150	0,023
-736,283	800,000	0,048	-0,122
-735,269	-157,692	-0,202	0,009
-734,254	-200,000	-0,003	-0,032
-733,239	-147,933	-0,399	-0,024
-732,225	237,460	0,113	-0,137
-731,210	800,000	0,075	0,215
-730,196	233,199	-0,122	-0,146
-729,181	-62,412	-0,060	-0,018
-728,167	54,462	0,081	0,057
-727,152	23,785	0,052	-0,031
-726,137	106,605	-0,048	-0,041
-725,123	788,660	0,059	-0,118
-724,108	-80,959	-0,027	-0,006
-723,094	30,059	0,046	-0,028
-722,079	-200,000	-0,026	-0,132
-721,064	307,320	-0,062	0,084
-720,050	800,000	-0,021	-0,050
-719,035	-69,318	-0,023	0,006
-718,021	-200,000	-0,010	-0,165
-717,006	-110,307	-0,161	-0,024
-715,991	-200,000	0,002	-0,074
-714,977	800,000	-0,043	-0,102
-713,962	186,398	-0,098	-0,106
-712,948	6,487	0,059	0,032
-711,933	-200,000	0,010	-0,060
-710,918	-50,570	0,014	0,005
-709,904	-11,834	-0,152	-0,072
-708,889	-200,000	-0,025	-0,118
-707,875	150,761	-0,082	0,081
-706,860	70,922	0,081	0,061
-705,845	-200,000	0,015	-0,071
-704,831	133,734	0,053	-0,050
-703,816	382,763	-0,048	0,072
-702,802	-200,000	-0,001	-0,105
-701,787	-200,000	0,005	-0,050
-700,772	-107,411	-0,085	0,013
-699,758	135,187	0,104	-0,098
-698,743	-200,000	0,022	0,154
-697,729	113,939	0,062	0,055
-696,714	28,968	-0,074	0,045
-695,699	-21,841	-0,101	-0,045
-694,685	800,000	-0,045	-0,142
-693,670	522,486	-0,117	-0,201
-692,656	-200,000	-0,009	-0,273
-691,641	800,000	0,032	0,088
-690,627	122,955	0,031	-0,028
-689,612	-34,623	-0,136	0,054
-688,597	-136,877	0,097	0,008
-687,583	-83,854	0,106	0,024
-686,568	156,860	0,074	-0,074
-685,554	-200,000	0,030	-0,109
-684,539	-20,143	-0,060	-0,027
-683,524	800,000	-0,017	0,052
-682,510	-200,000	0,005	0,030
-681,495	-200,000	-0,034	0,124
-680,481	-86,988	-0,087	-0,019
-679,466	443,217	0,011	0,017
-678,451	-200,000	0,033	-0,106
-677,437	800,000	-0,063	0,130
-676,422	-47,352	0,144	0,051
-675,408	-100,143	0,078	-0,014
-674,393	42,339	0,033	-0,022
-673,378	145,451	-0,076	-0,074
-672,364	800,000	-0,041	0,097
-671,349	800,000	-0,035	-0,081
-670,335	-52,799	0,190	-0,063
-669,320	-61,914	-0,088	-0,027
-668,305	353,005	-0,076	0,109
-667,291	91,708	0,076	0,062
-666,276	6,411	-0,054	-0,029
-665,262	-200,000	-0,010	-0,078
-664,247	800,000	0,027	-0,066
-663,232	110,268	0,062	-0,054
-662,218	-44,936	0,031	0,011
-661,203	250,101	-0,053	-0,065
-660,189	-200,000	-0,005	0,081
-659,174	64,961	-0,085	-0,062
-658,159	248,660	-0,043	-0,053
-657,145	20,753	-0,128	-0,075
-656,130	217,928	-0,038	-0,044
-655,116	-28,824	0,108	-0,045
-654,101	8,755	0,084	0,046
-653,086	-200,000	-0,003	-0,062
-652,072	63,523	0,030	0,022
-651,057	159,903	-0,020	-0,020
-650,043	27,970	0,101	0,062
-649,028	-200,000	-0,040	-0,192
-648,014	-16,020	-0,117	-0,054
-646,999	-200,000	-0,013	-0,045
-645,984	-200,000	0,011	0,041
-644,970	800,000	-0,014	-0,036
-643,955	-101,708	-0,065	-0,011
-642,941	-63,666	-0,080	0,024
-641,926	277,464	-0,063	-0,082
-640,911	800,000	0,051	-0,150
-639,897	800,000	-0,029	0,079
-638,882	-149,930	-0,046	-0,003
-637,868	723,068	-0,028	-0,055
-636,853	800,000	0,060	-0,176
-635,838	-200,000	0,020	-0,070
-634,824	-15,903	-0,109	0,050
-633,809	-70,224	0,111	0,030
-632,795	63,631	0,067	-0,049
-631,780	25,516	0,079	-0,048
-630,765	800,000	0,035	-0,104
-629,751	800,000	-0,036	0,078
-628,736	-30,009	0,035	0,014
-627,722	22,718	-0,136	-0,080
-626,707	-200,000	0,005	-0,088
-625,692	-200,000	-0,016	0,058
-624,678	2,539	0,051	-0,027
-623,663	779,992	0,009	-0,018
-622,649	329,133	-0,072	0,101
-621,634	-200,000	-0,010	-0,109
-620,619	121,997	0,044	-0,040
-619,605	800,000	-0,062	-0,144
-618,590	-96,348	0,137	-0,026
-617,576	-60,032	0,017	0,005
-616,561	274,057	-0,068	-0,087
-615,546	255,565	-0,117	0,146
-614,532	800,000	-0,060	-0,135
-613,517	527,593	-0,082	0,140
-612,503	2,216	-0,139	-0,073
-611,488	-200,000	0,012	-0,084
-610,474	-200,000	-0,003	0,136
-609,459	590,738	-0,041	0,073
-608,444	15,459	0,043	0,025
-607,430	319,352	-0,067	-0,092
-606,415	84,780	0,007	-0,005
-605,401	511,319	0,083	-0,141
-604,386	643,072	-0,027	-0,050
-603,371	-57,097	0,056	0,018
-602,357	179,727	0,030	-0,032
-601,342	-102,329	-0,073	0,013
-600,328	800,000	-0,044	-0,116
-599,313	-59,417	-0,038	0,012
-598,298	-145,088	-0,060	0,004
-597,284	136,712	-0,021	-0,020
-596,269	411,730	-0,089	0,137
-595,255	-110,869	0,111	-0,016
-594,240	-132,873	-0,119	0,011
-593,225	-45,315	-0,233	-0,083
-592,211	-33,947	-0,023	0,009
-591,196	800,000	-0,021	-0,044
-590,182	31,950	-0,058	-0,036
-589,167	-200,000	-0,004	0,062
-588,152	-121,951	0,035	-0,004
-587,138	90,481	0,168	-0,136
-586,123	-172,529	0,035	0,001
-585,109	800,000	-0,030	0,082
-584,094	146,613	-0,079	-0,077
-583,079	633,259	-0,056	0,104
-582,065	-135,353	0,045	-0,004
-581,050	-72,743	0,152	-0,040
-580,036	-42,078	-0,028	-0,010
-579,021	356,913	0,060	-0,087
-578,006	334,389	-0,030	-0,042
-576,992	80,984	-0,092	0,071
-575,977	266,429	0,111	0,141
-574,963	-200,000	0,007	0,042
-573,948	536,639	-0,100	-0,173
-572,934	-200,000	0,010	-0,155
-571,919	0,546	0,178	-0,092
-570,904	-200,000	0,019	-0,126
-569,890	-200,000	-0,015	-0,060
-568,875	-61,512	-0,119	-0,036
-567,861	6,882	-0,086	-0,046
-566,846	-138,874	-0,020	0,002
-565,831	279,524	-0,061	-0,078
-564,817	800,000	0,006	0,013
-563,802	-133,782	0,049	0,004
-562,788	800,000	0,054	-0,127
-561,773	800,000	-0,035	-0,072
-560,758	747,369	-0,009	0,017
-559,744	136,475	0,121	0,114
-558,729	723,360	0,054	-0,104
-557,715	-200,000	-0,025	-0,123
-556,700	366,566	-0,028	-0,041
-555,685	334,061	-0,124	-0,174
-554,671	48,523	0,147	-0,100
-553,656	-45,827	0,128	0,045
-552,642	-200,000	-0,007	0,050
-551,627	-57,460	0,106	0,033
-550,612	-89,052	-0,159	0,034
-549,598	-200,000	-0,003	0,179
-548,583	532,794	-0,056	-0,096
-547,569	-173,661	-0,185	0,004
-546,554	-45,112	0,085	0,030
-545,539	-66,239	0,146	-0,042
-544,525	39,622	-0,056	0,036
-543,510	-200,000	0,018	-0,130
-542,496	-200,000	0,009	-0,091
-541,481	188,039	-0,127	0,137
-540,466	6,513	0,161	0,086
-539,452	245,633	0,045	0,055
-538,437	8,490	0,123	-0,067
-537,423	198,437	-0,093	-0,103
-536,408	24,701	0,077	-0,046
-535,393	583,613	-0,086	-0,153
-534,379	225,140	0,056	-0,066
-533,364	-200,000	0,004	-0,144
-532,350	263,370	0,022	-0,028
-531,335	-92,065	0,087	-0,018
-530,321	800,000	-0,019	0,056
-529,306	541,295	0,034	0,058
-528,291	476,716	-0,050	-0,082
-527,277	116,562	0,056	-0,050
-526,262	553,238	-0,047	-0,082
-525,248	83,132	0,173	0,136
-524,233	35,940	0,052	-0,033
-523,218	118,860	-0,061	-0,054
-522,204	-152,738	0,048	0,002
-521,189	-112,192	-0,069	0,010
-520,175	598,235	-0,032	0,058
-519,160	143,948	0,074	0,071
-518,145	-27,325	0,136	0,057
-517,131	-25,217	-0,164	0,070
-516,116	800,000	-0,055	0,123
-515,102	800,000	-0,020	0,055
-514,087	77,555	0,029	0,022
-513,072	-200,000	-0,016	-0,183
-512,058	800,000	0,065	-0,200
-511,043	-145,479	0,104	-0,007
-510,029	-200,000	-0,000	0,072
-509,014	52,171	-0,110	0,076
-507,999	-25,247	-0,059	0,025
-506,985	-200,000	-0,013	0,061
-505,970	338,096	-0,041	-0,057
-504,956	-200,000	-0,005	-0,043
-503,941	47,748	0,051	-0,034
-502,926	-68,553	0,178	0,049
-501,912	52,396	-0,099	-0,068
-500,897	-200,000	0,004	-0,030
-499,883	-88,503	0,013	0,003
-498,868	-200,000	-0,091	-0,000
-497,853	-88,493	-0,074	-0,016
-496,839	21,672	-0,117	0,069
-495,824	-29,095	0,103	0,042
-494,810	-98,520	0,088	0,016
-493,795	-200,000	-0,009	0,083
-492,781	-79,377	0,130	-0,032
-491,766	800,000	0,011	-0,029
-490,751	-200,000	-0,016	0,174
-489,737	267,294	-0,083	0,105
-488,722	526,103	-0,031	-0,052
-487,708	444,652	-0,045	0,071
-486,693	-153,297	0,078	-0,004
-485,678	468,911	-0,048	0,078
-484,664	-75,824	-0,025	-0,006
-483,649	586,673	0,047	-0,084
-482,635	34,093	-0,091	-0,057
-481,620	-50,279	-0,123	0,042
-480,605	-1,427	0,150	0,076
-479,591	-134,129	0,071	0,006
-478,576	800,000	0,043	0,091
-477,562	181,323	0,045	0,048
-476,547	800,000	0,072	-0,156
-475,532	800,000	0,040	-0,098
-474,518	800,000	-0,031	-0,063
-473,503	-200,000	0,001	0,081
-472,489	41,440	0,073	0,048
-471,474	-162,817	0,080	0,003
-470,459	-200,000	0,000	-0,119
-469,445	538,887	0,073	0,126
-468,430	215,168	-0,033	-0,038
-467,416	263,036	0,052	-0,066
-466,401	20,781	-0,059	-0,034
-465,386	191,815	-0,038	0,041
-464,372	-200,000	0,010	0,056
-463,357	-200,000	-0,012	-0,088
-462,343	-200,000	-0,005	-0,070
-461,328	-200,000	-0,012	-0,041
-460,313	-102,197	-0,025	-0,004
-459,299	-156,513	0,084	-0,004
-458,284	-151,950	-0,051	0,003
-457,270	800,000	0,013	-0,032
-456,255	101,319	-0,018	0,015
-455,241	800,000	0,059	0,184
-454,226	47,919	0,053	-0,036
-453,211	-200,000	0,046	-0,167
-452,197	-36,196	0,088	-0,034
-451,182	274,750	0,089	-0,114
-450,168	-60,743	-0,112	0,034
-449,153	-110,735	0,065	0,010
-448,138	-164,917	-0,039	0,001
-447,124	223,015	-0,028	0,033
-446,109	-30,974	-0,035	-0,014
-445,095	-200,000	-0,026	-0,093
-444,080	84,303	0,045	0,035
-443,065	-200,000	-0,007	-0,062
-442,051	78,196	0,049	-0,037
-441,036	-12,294	-0,043	0,020
-440,022	73,887	0,091	-0,068
-439,007	-200,000	-0,004	0,089
-437,992	-200,000	0,002	0,116
-436,978	342,230	0,067	0,095
-435,963	800,000	0,039	0,081
-434,949	208,148	-0,008	-0,009
-433,934	-200,000	-0,005	0,025
-432,919	326,875	-0,026	0,035
-431,905	29,476	0,044	0,027
-430,890	-88,425	-0,022	0,005
-429,876	-65,009	0,181	-0,052
-428,861	800,000	0,060	0,156
-427,846	-168,853	-0,066	0,002
-426,832	-99,635	-0,113	-0,020
-425,817	-115,791	0,034	-0,005
-424,803	-200,000	0,010	-0,081
-423,788	-75,455	-0,098	-0,025
-422,773	486,193	0,031	0,050
-421,759	-200,000	-0,003	0,096
-420,744	106,762	0,063	-0,054
-419,730	800,000	-0,060	-0,148
-418,715	555,887	-0,040	-0,069
-417,701	-200,000	-0,054	-0,184
-416,686	800,000	0,036	0,075
-415,671	671,207	-0,027	-0,051
-414,657	156,189	-0,034	0,033
-413,642	268,364	-0,083	-0,105
-412,628	-172,199	0,132	0,003
-411,613	90,560	-0,078	-0,063
-410,598	186,896	-0,054	-0,058
-409,584	-29,931	0,090	0,037
-408,569	158,326	0,175	0,175
-407,555	-200,000	-0,011	0,051
-406,540	349,411	0,109	0,155
-405,525	44,951	0,072	0,048
-404,511	-200,000	-0,011	-0,118
-403,496	402,648	-0,010	0,015
-402,482	141,109	0,074	-0,070
-401,467	800,000	0,038	0,115
-400,452	107,883	0,108	0,093
-399,438	800,000	-0,058	0,148
-398,423	800,000	-0,009	-0,023
-397,409	800,000	0,007	0,022
-396,394	343,377	0,040	-0,057
-395,379	44,278	-0,129	0,085
-394,365	800,000	-0,038	-0,113
-393,350	449,046	0,074	-0,118
-392,336	205,612	-0,026	-0,029
-391,321	34,642	-0,099	-0,062
-390,306	-88,389	-0,137	-0,029
-389,292	-111,742	-0,080	-0,012
-388,277	111,455	-0,079	-0,068
-387,263	-151,058	0,089	-0,005
-386,248	21,333	0,152	0,088
-385,233	244,991	0,061	0,073
-384,219	676,290	-0,038	-0,072
-383,204	-163,249	-0,142	0,005
-382,190	800,000	-0,016	-0,049
-381,175	-200,000	-0,034	0,171
-380,160	800,000	-0,017	-0,044
-379,146	189,088	0,068	-0,073
-378,131	656,431	-0,058	0,108
-377,117	-200,000	0,016	0,143
-376,102	84,631	-0,101	0,080
-375,088	143,922	-0,091	-0,087
-374,073	-45,409	0,096	0,034
-373,058	-200,000	-0,023	0,077
-372,044	-26,614	0,116	0,048
-371,029	-184,119	0,127	-0,001
-370,015	-116,553	-0,154	-0,020
-369,000	218,190	-0,132	-0,152
-367,985	-200,000	0,013	-0,135
-366,971	-147,799	-0,112	0,007
-365,956	-147,807	-0,077	-0,005
-364,942	-200,000	0,012	-0,107
-363,927	800,000	-0,053	0,105
-362,912	-63,659	0,077	0,022
-361,898	-200,000	0,015	0,101
-360,883	651,274	0,038	0,071
-359,869	136,844	0,049	0,046
-358,854	-132,179	0,027	-0,002
-357,839	-200,000	0,038	-0,160
-356,825	78,509	-0,055	0,042
-355,810	-45,914	0,119	0,042
-354,796	50,496	-0,097	0,066
-353,781	4,106	0,132	-0,069
-352,766	605,864	-0,018	-0,032
-351,752	-200,000	-0,004	-0,165
-350,737	-200,000	0,061	0,274
-349,723	-200,000	0,031	0,169
-348,708	-140,894	0,097	0,007
-347,693	-122,954	0,041	-0,005
-346,679	78,277	0,048	-0,037
-345,664	183,417	-0,063	0,067
-344,650	98,311	0,052	-0,043
-343,635	42,853	-0,097	0,063
-342,620	88,794	0,045	-0,035
-341,606	25,724	-0,135	0,080
-340,591	-87,565	0,047	-0,010
-339,577	170,113	-0,046	-0,048
-338,562	-168,084	0,092	0,003
-337,548	-200,000	-0,003	-0,028
-336,533	229,480	0,051	0,059
-335,518	800,000	-0,039	0,081
-334,504	50,522	-0,117	-0,079
-333,489	800,000	-0,038	-0,091
-332,475	-200,000	0,021	-0,150
-331,460	-200,000	0,018	-0,079
-330,445	113,078	0,044	-0,038
-329,431	154,357	-0,119	0,117
-328,416	243,795	0,094	0,114
-327,402	-200,000	-0,045	0,167
-326,387	274,631	-0,068	-0,087
-325,372	-69,626	0,104	-0,028
-324,358	800,000	-0,057	-0,174
-323,343	648,704	-0,070	0,129
-322,329	-68,662	0,021	-0,006
-321,314	-200,000	-0,001	0,096
-320,299	115,057	0,129	0,113
-319,285	149,411	0,130	-0,127
-318,270	800,000	-0,011	0,023
-317,256	-200,000	-0,017	-0,153
-316,241	-0,205	0,097	-0,049
-315,226	232,988	0,165	0,194
-314,212	-140,889	0,098	-0,007
-313,197	35,050	0,071	-0,044
-312,183	-105,845	-0,091	0,015
-311,168	1,193	-0,144	0,074
-310,153	-86,707	-0,075	0,016
-309,139	800,000	0,021	0,062
-308,124	-200,000	0,023	0,130
-307,110	-200,000	0,018	0,081
-306,095	-128,447	-0,017	-0,002
-305,080	-182,145	-0,151	-0,002
-304,066	-200,000	0,009	0,079
-303,051	-29,172	-0,119	-0,049
-302,037	-66,155	0,146	-0,041
-301,022	-122,761	-0,074	0,008
-300,008	194,075	0,075	0,082
-298,993	800,000	0,091	0,188
-297,978	-173,940	-0,135	-0,003
-296,964	523,663	0,039	-0,066
-295,949	82,852	-0,122	0,095
-294,935	57,753	-0,134	-0,093
-293,920	-184,628	-0,108	0,001
-292,905	553,714	0,025	0,044
-291,891	800,000	0,020	0,045
-290,876	-151,969	0,157	0,008
-289,862	-200,000	0,013	-0,133
-288,847	139,727	-0,023	0,022
-287,832	317,460	-0,035	0,048
-286,818	214,237	0,036	-0,041
-285,803	800,000	-0,055	0,120
-284,789	-95,726	0,026	0,005
-283,774	-114,254	0,018	-0,002
-282,759	-200,000	-0,002	0,150
-281,745	-200,000	-0,008	-0,083
-280,730	-49,716	-0,052	-0,018
-279,716	99,473	0,048	0,039
-278,701	181,156	-0,032	-0,033
-277,686	-29,831	0,118	-0,048
-276,672	281,097	0,033	0,043
-275,657	-200,000	0,025	-0,083
-274,643	598,606	-0,065	0,115
-273,628	92,855	-0,016	-0,013
-272,613	69,389	0,050	-0,037
-271,599	800,000	0,059	0,120
-270,584	778,536	-0,019	0,037
-269,570	-200,000	-0,028	0,112
-268,555	118,783	0,067	0,059
-267,540	800,000	-0,079	-0,187
-266,526	-200,000	0,000	0,008
-265,511	-23,312	0,081	0,035
-264,497	-161,680	0,120	0,004
-263,482	-84,920	-0,192	0,043
-262,467	153,957	0,080	0,078
-261,453	800,000	0,020	0,045
-260,438	-11,281	-0,053	-0,025
-259,424	-200,000	-0,006	-0,060
-258,409	196,495	0,094	0,103
-257,395	98,785	0,101	0,083
-256,380	-131,244	0,122	0,011
-255,365	497,794	0,072	0,119
-254,351	800,000	0,026	0,057
-253,336	-92,735	-0,150	-0,030
-252,322	-137,510	-0,062	-0,005
-251,307	-77,699	0,061	-0,015
-250,292	-25,499	-0,051	-0,021
-249,278	170,719	-0,041	-0,042
-248,263	46,578	0,022	-0,015
-247,249	-120,618	0,104	0,012
-246,234	-152,718	-0,112	0,006
-245,219	64,613	0,030	0,022
-244,205	479,128	-0,045	-0,073
-243,190	-47,269	0,078	0,027
-242,176	-200,000	0,005	-0,030
-241,161	800,000	0,057	0,117
-240,146	617,040	-0,035	0,062
-239,132	477,138	0,042	-0,067
-238,117	-200,000	0,000	0,014
-237,103	-119,035	-0,154	0,019
-236,088	-17,226	-0,035	-0,016
-235,073	-55,931	0,113	0,036
-234,059	-200,000	-0,022	-0,107
-233,044	283,343	0,070	0,089
-232,030	46,646	0,057	-0,038
-231,015	-64,761	0,043	0,012
-230,000	-27,429	0,058	-0,024
-228,986	630,013	0,024	-0,043
-227,971	475,480	-0,059	0,095
-226,957	-200,000	-0,016	0,105
-225,942	-200,000	-0,010	0,067
-224,927	-200,000	-0,003	0,078
-223,913	-140,212	0,024	0,002
-222,898	226,281	-0,082	0,095
-221,884	673,353	0,086	0,160
-220,869	-200,000	-0,000	0,001
-219,855	120,759	0,040	-0,035
-218,840	-200,000	-0,013	0,190
-217,825	-145,473	-0,204	-0,013
-216,811	499,379	0,080	0,131
-215,796	-200,000	0,013	-0,091
-214,782	800,000	-0,063	-0,143
-213,767	58,350	-0,116	0,081
-212,752	800,000	0,058	0,134
-211,738	73,377	-0,117	0,087
-210,723	26,638	0,094	-0,056
-209,709	753,003	-0,026	-0,051
-208,694	-200,000	0,001	0,059
-207,679	-200,000	0,010	-0,079
-206,665	-3,347	-0,098	-0,049
-205,650	-1,066	0,047	0,023
-204,636	147,412	0,069	0,066
-203,621	-200,000	0,016	0,055
-202,606	65,128	0,067	-0,048
-201,592	44,009	0,060	0,039
-200,577	-41,837	-0,061	-0,022
-199,563	1,505	0,040	0,020
-198,548	538,476	0,048	0,082
-197,533	471,944	-0,059	0,095
-196,519	-200,000	0,018	0,111
-195,504	-60,296	-0,118	-0,036
-194,490	286,546	-0,025	0,033
-193,475	248,169	-0,024	-0,028
-192,460	669,405	0,010	0,018
-191,446	800,000	-0,064	0,136
-190,431	-200,000	-0,005	0,074
-189,417	-68,954	0,107	-0,029
-188,402	39,993	-0,082	-0,052
-187,387	-200,000	-0,006	0,065
-186,373	37,962	-0,043	0,027
-185,358	800,000	-0,057	-0,149
-184,344	-87,776	0,127	-0,027
-183,329	754,830	0,034	0,066
-182,315	-79,304	-0,099	0,024
-181,300	-200,000	-0,019	-0,080
-180,285	-200,000	-0,003	-0,197
-179,271	434,631	-0,026	-0,040
-178,256	-6,313	-0,107	0,052
-177,242	103,348	0,086	-0,072
-176,227	577,501	0,021	0,037
-175,212	-79,485	-0,086	0,020
-174,198	58,134	0,105	0,073
-173,183	-200,000	0,005	-0,065
-172,169	420,513	-0,076	0,117
-171,154	248,939	-0,034	-0,042
-170,139	20,826	-0,014	-0,008
-169,125	-200,000	0,017	0,082
-168,110	-200,000	-0,022	-0,076
-167,096	30,597	0,049	-0,030
-166,081	-200,000	0,028	-0,090
-165,066	-200,000	0,009	-0,156
-164,052	-6,823	-0,227	0,109
-163,037	-121,996	-0,116	0,013
-162,023	-66,718	0,105	0,029
-161,008	160,652	-0,033	-0,032
-159,993	37,392	-0,069	0,043
-158,979	-200,000	-0,008	0,050
-157,964	30,294	-0,122	-0,074
-156,950	800,000	0,026	0,071
-155,935	-59,440	0,032	-0,010
-154,920	209,600	0,105	-0,118
-153,906	330,606	0,071	0,097
-152,891	64,919	-0,074	-0,053
-151,877	-200,000	-0,023	0,086
-150,862	-90,392	0,081	0,017
-149,847	800,000	0,013	-0,039
-148,833	783,874	0,059	0,115
-147,818	-200,000	0,003	0,076
-146,804	-150,595	0,118	-0,006
-145,789	-200,000	0,007	0,036
-144,775	-104,800	0,102	-0,017
-143,760	800,000	-0,056	-0,147
-142,745	-200,000	0,004	0,058
-141,731	672,546	-0,055	-0,102
-140,716	-69,389	0,036	-0,010
-139,702	372,192	0,050	0,073
-138,687	34,106	0,106	0,066
-137,672	21,210	0,128	0,074
-136,658	-95,553	-0,114	0,022
-135,643	-173,852	-0,091	0,002
-134,629	-87,181	-0,079	-0,017
-133,614	-200,000	0,019	-0,081
-132,599	114,555	0,173	-0,150
-131,585	800,000	0,018	0,045
-130,570	1,630	-0,106	0,054
-129,556	-54,537	-0,091	0,029
-128,541	-200,000	-0,009	-0,130
-127,526	166,355	-0,076	0,077
-126,512	-101,716	0,045	-0,008
-125,497	-20,789	0,117	-0,051
-124,483	358,506	-0,035	0,050
-123,468	116,415	-0,066	0,057
-122,453	800,000	0,001	-0,002
-121,439	455,029	0,059	0,094
-120,424	-122,378	0,064	0,007
-119,410	-49,766	-0,076	0,026
