DTS Sentinel unit serial number:	SN410029Multiplexer serial number:	ORYXHardware model number:	OX2-SRSoftware version number:	ORYX F/W v4,00 Oryx Data Collector v3.7.2.0data status	okinstallation	BH3 CH2differential loss correction	single-endedforward channel	channel 2reverse channel	N/Adate	2023/12/05time	18:37:28forward acquisition time	300,00reverse acquisition time	0,00gamma	499,1914k internal	0,3193k external	0,3193temperature offset calibration	1,0000default loss term (dB/km)	0,3820temperature slope calibration	1,0000multiplexer offset coefficient	1,0000multiplexer slope coefficient	1,0000fibre end	0,00T internal ref (°C)	10,64T ext. ref 1 (°C)	-3,99T ext. ref 2 (°C)	-4,11length (m)	temperature (°C)	Stokes	anti-Stokes-744,400	-200,000	-0,034	-0,180
-743,385	-60,759	-0,285	0,088
-742,371	-102,376	0,141	-0,024
-741,356	-101,641	-0,306	0,054
-740,342	800,000	-0,094	-0,205
-739,327	88,932	-0,095	0,077
-738,312	446,338	-0,081	-0,130
-737,298	-142,335	-0,304	0,022
-736,283	800,000	-0,113	-0,233
-735,269	55,783	-0,133	0,094
-734,254	75,995	-0,035	0,027
-733,239	-184,766	-0,415	-0,005
-732,225	-66,433	0,110	0,032
-731,210	-92,731	0,005	0,001
-730,196	61,400	-0,024	0,018
-729,181	-48,739	-0,109	-0,038
-728,167	390,415	0,046	-0,070
-727,152	-81,984	-0,178	0,042
-726,137	97,055	0,129	-0,107
-725,123	-97,770	0,058	0,011
-724,108	35,127	-0,140	-0,089
-723,094	-41,297	-0,196	-0,073
-722,079	-76,720	-0,098	-0,025
-721,064	35,833	-0,206	-0,132
-720,050	800,000	-0,024	0,073
-719,035	-18,771	0,005	-0,002
-718,021	-5,209	-0,159	0,079
-717,006	-90,026	-0,073	0,015
-715,991	-200,000	-0,061	-0,264
-714,977	-200,000	-0,004	-0,175
-713,962	800,000	0,030	-0,072
-712,948	41,046	0,022	0,014
-711,933	19,096	-0,046	0,027
-710,918	-28,700	-0,052	-0,022
-709,904	92,410	-0,044	-0,036
-708,889	24,510	-0,041	-0,025
-707,875	-81,369	-0,165	-0,039
-706,860	-0,162	0,034	-0,018
-705,845	800,000	-0,031	-0,073
-704,831	-121,777	-0,133	-0,016
-703,816	339,313	-0,071	0,102
-702,802	-147,953	-0,034	-0,002
-701,787	-200,000	-0,028	-0,145
-700,772	-74,149	-0,191	-0,050
-699,758	-148,569	0,045	-0,003
-698,743	-200,000	-0,010	0,137
-697,729	166,549	-0,009	0,010
-696,714	-200,000	-0,012	0,050
-695,699	-200,000	-0,017	-0,161
-694,685	-47,712	0,026	0,009
-693,670	-200,000	0,010	-0,047
-692,656	800,000	0,075	-0,187
-691,641	-200,000	-0,018	-0,106
-690,627	-155,482	-0,102	-0,005
-689,612	800,000	-0,068	-0,192
-688,597	800,000	0,040	0,088
-687,583	93,528	0,031	0,026
-686,568	-145,551	-0,127	0,008
-685,554	-151,497	-0,110	-0,006
-684,539	-200,000	0,018	-0,110
-683,524	800,000	0,021	0,061
-682,510	-47,988	-0,038	-0,013
-681,495	-84,293	0,050	-0,011
-680,481	12,302	0,035	-0,020
-679,466	-200,000	-0,026	-0,087
-678,451	800,000	-0,064	-0,137
-677,437	-106,567	-0,148	-0,024
-676,422	-75,427	-0,103	0,027
-675,408	-35,277	0,021	-0,008
-674,393	-200,000	-0,012	0,125
-673,378	-8,511	-0,129	0,063
-672,364	-50,598	-0,058	0,020
-671,349	501,617	-0,078	0,131
-670,335	800,000	-0,026	-0,057
-669,320	32,706	0,026	0,016
-668,305	-127,726	0,187	-0,019
-667,291	-40,264	-0,224	-0,084
-666,276	-132,974	-0,033	-0,003
-665,262	8,719	-0,051	-0,028
-664,247	659,079	-0,087	-0,163
-663,232	55,276	-0,169	0,118
-662,218	-200,000	0,020	0,101
-661,203	-200,000	0,005	0,046
-660,189	-6,641	-0,142	-0,070
-659,174	-74,101	-0,148	-0,039
-658,159	-200,000	-0,022	-0,192
-657,145	-77,662	-0,141	-0,035
-656,130	2,593	-0,027	0,014
-655,116	472,376	0,025	0,040
-654,101	-116,784	-0,060	0,008
-653,086	756,806	0,052	0,103
-652,072	-135,524	0,075	0,006
-651,057	58,686	-0,159	0,113
-650,043	-130,355	-0,074	-0,007
-649,028	360,410	-0,046	0,067
-648,014	135,260	-0,093	-0,088
-646,999	-200,000	-0,013	0,121
-645,984	-200,000	0,011	0,074
-644,970	800,000	0,061	-0,138
-643,955	-54,266	-0,030	-0,010
-642,941	178,297	0,062	-0,066
-641,926	-200,000	0,002	-0,027
-640,911	800,000	0,084	0,171
-639,897	-200,000	-0,000	-0,056
-638,882	-200,000	-0,008	-0,029
-637,868	-200,000	-0,014	-0,054
-636,853	-136,272	-0,084	-0,007
-635,838	800,000	-0,053	-0,164
-634,824	60,413	-0,059	-0,042
-633,809	800,000	0,032	-0,076
-632,795	-137,582	-0,229	-0,018
-631,780	-200,000	-0,013	-0,064
-630,765	174,293	-0,032	0,033
-629,751	590,484	0,014	0,026
-628,736	-51,564	-0,152	-0,051
-627,722	214,379	-0,031	0,035
-626,707	-157,133	-0,070	-0,003
-625,692	40,919	0,140	-0,092
-624,678	800,000	-0,061	-0,128
-623,663	-26,242	0,077	-0,033
-622,649	-200,000	-0,021	0,150
-621,634	-200,000	0,001	0,069
-620,619	-34,582	-0,025	-0,010
-619,605	84,870	0,113	-0,089
-618,590	800,000	-0,032	-0,072
-617,576	180,773	-0,060	-0,064
-616,561	-200,000	-0,082	-0,000
-615,546	-25,046	-0,073	-0,031
-614,532	800,000	-0,012	-0,032
-613,517	-112,719	-0,091	0,013
-612,503	-200,000	-0,008	-0,035
-611,488	-200,000	0,039	-0,190
-610,474	-103,261	0,070	-0,012
-609,459	-41,947	-0,144	0,053
-608,444	-108,634	0,044	0,007
-607,430	-200,000	-0,001	0,053
-606,415	800,000	-0,041	-0,109
-605,401	-200,000	-0,016	-0,054
-604,386	-196,725	0,156	0,001
-603,371	-60,327	-0,065	0,020
-602,357	143,573	0,032	-0,031
-601,342	285,083	-0,080	-0,105
-600,328	694,688	-0,061	0,117
-599,313	-91,852	-0,010	0,002
-598,298	-109,777	0,048	-0,007
-597,284	529,195	-0,040	0,068
-596,269	61,855	0,079	-0,057
-595,255	-50,004	0,060	-0,020
-594,240	519,184	0,032	0,054
-593,225	800,000	-0,018	-0,056
-592,211	-140,095	-0,081	-0,006
-591,196	-96,917	0,113	-0,021
-590,182	-200,000	-0,016	-0,106
-589,167	-200,000	-0,014	0,071
-588,152	800,000	0,045	-0,093
-587,138	-200,000	-0,007	-0,100
-586,123	420,512	-0,138	-0,216
-585,109	-200,000	0,028	-0,127
-584,094	610,507	0,021	-0,038
-583,079	800,000	0,068	-0,213
-582,065	659,164	0,073	-0,137
-581,050	-200,000	-0,019	0,134
-580,036	800,000	0,024	0,071
-579,021	96,407	-0,026	0,022
-578,006	-200,000	-0,002	0,092
-576,992	-47,178	0,140	0,049
-575,977	119,045	0,060	-0,054
-574,963	611,136	-0,048	0,087
-573,948	800,000	-0,039	0,120
-572,934	43,248	-0,052	0,034
-571,919	-162,742	-0,092	0,003
-570,904	800,000	0,043	0,116
-569,890	-133,980	-0,057	0,005
-568,875	-107,713	0,089	-0,014
-567,861	-87,105	0,055	-0,012
-566,846	312,525	-0,069	-0,094
-565,831	-108,962	0,094	0,014
-564,817	385,742	-0,034	-0,051
-563,802	-200,000	0,005	-0,042
-562,788	800,000	-0,005	-0,012
-561,773	-200,000	0,017	-0,125
-560,758	384,393	0,032	0,048
-559,744	238,078	-0,101	0,121
-558,729	800,000	-0,026	0,064
-557,715	58,018	-0,037	0,026
-556,700	576,169	-0,051	-0,090
-555,685	326,732	-0,077	0,107
-554,671	51,220	0,016	-0,011
-553,656	-188,015	-0,110	-0,001
-552,642	-155,797	0,156	-0,007
-551,627	518,056	-0,081	0,138
-550,612	-114,342	0,021	-0,003
-549,598	540,053	0,089	-0,155
-548,583	163,805	-0,057	-0,058
-547,569	151,559	-0,033	0,032
-546,554	46,451	0,031	0,020
-545,539	68,461	-0,056	0,041
-544,525	-99,301	0,159	-0,029
-543,510	1,576	-0,044	0,023
-542,496	-169,842	-0,142	-0,004
-541,481	122,541	-0,130	-0,117
-540,466	119,054	0,020	0,018
-539,452	51,279	0,048	-0,033
-538,437	800,000	0,058	-0,131
-537,423	-171,516	-0,036	0,001
-536,408	-118,217	-0,076	0,010
-535,393	352,054	0,085	-0,122
-534,379	312,246	-0,014	0,020
-533,364	27,840	0,083	-0,050
-532,350	74,449	0,047	0,036
-531,335	-200,000	0,041	0,166
-530,321	800,000	0,060	0,134
-529,306	-57,079	-0,191	0,061
-528,291	71,357	0,029	0,021
-527,277	70,857	-0,023	0,017
-526,262	-200,000	0,013	-0,128
-525,248	-30,685	0,021	-0,008
-524,233	-104,527	-0,077	0,013
-523,218	800,000	-0,044	0,099
-522,204	249,624	0,053	-0,065
-521,189	-127,237	-0,069	0,007
-520,175	-58,725	-0,042	0,013
-519,160	117,008	0,157	-0,139
-518,145	3,544	-0,010	0,005
-517,131	-75,152	0,275	0,070
-516,116	-200,000	-0,003	0,077
-515,102	88,078	-0,039	0,031
-514,087	-200,000	-0,027	0,133
-513,072	-200,000	-0,005	0,062
-512,058	70,486	-0,046	0,035
-511,043	-23,782	0,011	0,005
-510,029	177,420	0,076	0,080
-509,014	124,932	0,088	-0,080
-507,999	21,641	0,055	0,032
-506,985	-86,061	-0,028	0,006
-505,970	329,490	0,071	-0,099
-504,956	-69,050	-0,071	0,020
-503,941	-115,854	0,046	-0,006
-502,926	-160,695	0,068	0,003
-501,912	570,977	0,087	0,153
-500,897	184,991	0,019	0,020
-499,883	-200,000	-0,001	0,086
-498,868	-87,047	-0,107	-0,023
-497,853	180,497	0,028	-0,030
-496,839	-40,886	-0,162	-0,060
-495,824	800,000	-0,033	0,095
-494,810	202,876	0,035	-0,039
-493,795	598,112	0,102	-0,184
-492,781	213,933	-0,028	0,032
-491,766	-74,816	0,065	-0,017
-490,751	194,106	-0,044	0,048
-489,737	-200,000	0,067	-0,220
-488,722	-18,999	0,075	0,034
-487,708	106,218	0,061	0,052
-486,693	-200,000	0,004	0,102
-485,678	-200,000	0,009	0,066
-484,664	-115,222	0,060	0,008
-483,649	800,000	-0,041	0,087
-482,635	-92,421	0,093	0,019
-481,620	-200,000	0,000	-0,010
-480,605	17,161	0,044	0,025
-479,591	800,000	-0,029	0,070
-478,576	761,545	-0,085	0,167
-477,562	763,885	-0,007	0,015
-476,547	-46,129	-0,029	0,010
-475,532	-25,866	-0,115	-0,049
-474,518	-200,000	-0,029	-0,093
-473,503	252,898	0,054	-0,067
-472,489	62,333	-0,039	0,028
-471,474	-47,268	0,058	-0,020
-470,459	-200,000	0,002	0,063
-469,445	518,784	-0,052	0,087
-468,430	-81,882	-0,182	0,043
-467,416	33,223	0,123	0,077
-466,401	78,829	0,072	-0,056
-465,386	-136,609	-0,035	0,003
-464,372	-25,275	-0,056	-0,024
-463,357	-200,000	-0,013	0,062
-462,343	-93,397	-0,029	-0,006
-461,328	-200,000	-0,042	-0,147
-460,313	-29,133	0,040	0,016
-459,299	800,000	0,040	0,124
-458,284	684,108	0,020	-0,037
-457,270	-111,604	0,048	-0,007
-456,255	-36,819	0,063	0,024
-455,241	77,984	-0,097	-0,074
-454,226	267,989	-0,052	0,065
-453,211	264,932	-0,050	0,063
-452,197	-200,000	0,010	-0,034
-451,182	564,096	0,060	0,106
-450,168	-10,018	0,042	-0,020
-449,153	513,906	0,046	-0,078
-448,138	171,041	0,046	0,047
-447,124	555,576	0,071	-0,123
-446,109	-90,305	-0,105	-0,022
-445,095	381,782	0,076	0,113
-444,080	-144,267	0,087	-0,006
-443,065	218,671	0,138	0,159
-442,051	-200,000	-0,013	0,104
-441,036	-108,534	0,136	-0,021
-440,022	-200,000	0,000	-0,049
-439,007	-79,071	-0,112	-0,027
-437,992	-200,000	0,013	-0,063
-436,978	166,822	-0,030	-0,030
-435,963	-63,800	-0,074	0,022
-434,949	106,841	-0,037	-0,032
-433,934	793,887	0,022	0,044
-432,919	127,086	-0,077	-0,071
-431,905	-48,640	-0,054	0,019
-430,890	-200,000	0,041	-0,134
-429,876	-200,000	0,047	0,157
-428,861	-200,000	0,019	-0,060
-427,846	371,381	-0,033	0,049
-426,832	193,149	-0,064	0,069
-425,817	-200,000	-0,023	-0,145
-424,803	297,521	-0,041	-0,054
-423,788	71,409	0,046	0,034
-422,773	800,000	0,054	0,110
-421,759	-200,000	0,003	0,128
-420,744	-200,000	-0,011	0,096
-419,730	-200,000	-0,014	-0,214
-418,715	-108,251	-0,102	0,016
-417,701	246,379	-0,116	0,141
-416,686	588,919	0,048	0,085
-415,671	-200,000	-0,025	0,170
-414,657	-200,000	0,033	0,113
-413,642	800,000	-0,034	0,108
-412,628	-200,000	-0,011	0,091
-411,613	800,000	0,063	0,148
-410,598	131,208	0,088	0,081
-409,584	-200,000	-0,010	0,073
-408,569	-200,000	0,010	0,115
-407,555	800,000	0,062	-0,177
-406,540	800,000	-0,026	0,066
-405,525	73,181	0,099	0,074
-404,511	-200,000	0,002	0,032
-403,496	-200,000	-0,035	-0,124
-402,482	627,294	0,044	-0,080
-401,467	800,000	-0,032	0,087
-400,452	36,176	-0,135	0,086
-399,438	160,216	-0,039	-0,039
-398,423	721,581	0,013	0,024
-397,409	-200,000	0,001	0,056
-396,394	-92,444	-0,102	-0,020
-395,379	-125,065	-0,074	0,008
-394,365	135,833	0,114	0,107
-393,350	-91,553	0,114	-0,023
-392,336	172,037	-0,106	-0,110
-391,321	156,772	-0,127	-0,126
-390,306	-168,345	-0,050	-0,001
-389,292	124,304	-0,067	-0,061
-388,277	-200,000	0,022	0,130
-387,263	-78,629	0,103	0,025
-386,248	-200,000	-0,015	-0,054
-385,233	-129,209	0,030	0,003
-384,219	-101,446	-0,182	-0,031
-383,204	424,378	-0,052	-0,081
-382,190	-93,640	0,033	-0,006
-381,175	115,359	0,034	-0,030
-380,160	-61,589	-0,034	0,010
-379,146	-200,000	0,004	0,048
-378,131	-103,612	0,136	0,023
-377,117	347,509	-0,048	-0,068
-376,102	380,158	0,049	-0,073
-375,088	179,961	-0,116	-0,122
-374,073	-0,189	0,092	-0,047
-373,058	800,000	0,055	0,150
-372,044	152,041	0,023	-0,023
-371,029	-149,322	-0,065	0,004
-370,015	2,419	-0,043	0,022
-369,000	-200,000	0,003	-0,034
-367,985	-200,000	-0,004	0,053
-366,971	-200,000	-0,011	-0,140
-365,956	-62,211	0,151	0,045
-364,942	-86,773	0,035	-0,008
-363,927	-200,000	0,012	0,092
-362,912	800,000	-0,023	-0,061
-361,898	612,691	-0,046	0,082
-360,883	-200,000	-0,008	-0,069
-359,869	384,104	-0,023	-0,034
-358,854	800,000	0,034	-0,072
-357,839	-160,405	-0,033	-0,001
-356,825	-102,622	0,059	0,010
-355,810	-200,000	0,036	-0,142
-354,796	207,168	-0,042	-0,047
-353,781	800,000	-0,026	-0,068
-352,766	-200,000	-0,018	-0,131
-351,752	48,222	0,132	0,088
-350,737	-110,651	0,092	0,013
-349,723	-120,655	-0,068	-0,008
-348,708	-200,000	0,012	0,051
-347,693	102,635	0,094	-0,079
-346,679	-200,000	0,007	-0,044
-345,664	189,906	-0,055	-0,060
-344,650	-200,000	-0,025	-0,085
-343,635	-200,000	-0,026	0,117
-342,620	-200,000	-0,028	-0,094
-341,606	-200,000	-0,007	0,056
-340,591	80,070	0,124	-0,096
-339,577	51,976	-0,093	-0,064
-338,562	214,733	0,092	-0,104
-337,548	-139,551	0,092	-0,007
-336,533	-43,356	0,050	0,018
-335,518	-25,829	-0,008	0,003
-334,504	19,595	-0,037	0,022
-333,489	800,000	-0,025	-0,064
-332,475	800,000	0,020	-0,059
-331,460	-200,000	0,020	0,225
-330,445	49,223	0,024	-0,016
-329,431	-200,000	0,004	-0,037
-328,416	162,422	-0,084	-0,084
-327,402	-81,649	0,041	0,010
-326,387	432,481	-0,043	0,067
-325,372	81,064	0,085	-0,066
-324,358	-200,000	-0,033	-0,122
-323,343	628,968	-0,047	-0,086
-322,329	-150,639	0,123	-0,007
-321,314	532,321	0,044	-0,076
-320,299	-200,000	0,008	-0,032
-319,285	-132,989	-0,080	-0,007
-318,270	85,359	-0,059	-0,046
-317,256	283,313	0,053	0,069
-316,241	-200,000	0,022	-0,159
-315,226	-56,088	-0,056	-0,018
-314,212	800,000	-0,035	0,079
-313,197	-200,000	0,011	-0,040
-312,183	7,392	0,165	0,088
-311,168	-133,402	-0,147	0,013
-310,153	83,829	0,037	0,029
-309,139	-45,238	-0,014	0,005
-308,124	1,819	0,112	-0,057
-307,110	166,671	0,092	0,093
-306,095	800,000	-0,010	-0,027
-305,080	800,000	-0,026	-0,078
-304,066	-200,000	-0,010	-0,069
-303,051	266,488	-0,086	0,107
-302,037	-159,207	-0,070	0,003
-301,022	-200,000	0,008	0,039
-300,008	-100,140	0,121	0,021
-298,993	-200,000	-0,012	0,050
-297,978	-57,924	-0,015	-0,005
-296,964	-49,049	-0,014	0,005
-295,949	264,471	0,046	0,058
-294,935	-30,591	0,047	0,019
-293,920	-200,000	0,003	0,028
-292,905	166,857	-0,064	-0,065
-291,891	145,207	0,046	0,044
-290,876	-13,722	0,069	-0,032
-289,862	325,712	-0,064	-0,089
-288,847	127,369	-0,082	-0,075
-287,832	661,724	0,037	-0,069
-286,818	-140,209	-0,083	-0,006
-285,803	-165,748	0,184	0,006
-284,789	-80,194	0,141	0,034
-283,774	15,827	0,009	0,005
-282,759	-185,789	0,027	-0,000
-281,745	-27,140	-0,122	-0,051
-280,730	-200,000	0,032	-0,115
-279,716	-200,000	-0,010	0,069
-278,701	-167,832	0,030	-0,001
-277,686	-55,662	0,049	-0,016
-276,672	102,427	0,119	0,099
-275,657	800,000	-0,035	0,097
-274,643	16,687	-0,067	-0,038
-273,628	417,990	-0,041	-0,064
-272,613	-200,000	-0,014	0,122
-271,599	-173,861	0,155	0,003
-270,584	179,950	0,100	0,105
-269,570	-200,000	-0,033	-0,166
-268,555	-27,844	-0,033	0,013
-267,540	800,000	-0,037	0,106
-266,526	800,000	-0,083	-0,200
-265,511	54,045	-0,051	-0,035
-264,497	67,621	-0,123	0,090
-263,482	85,133	-0,055	0,043
-262,467	345,562	0,024	0,034
-261,453	-3,657	-0,079	0,039
-260,438	286,826	-0,068	-0,088
-259,424	-200,000	0,005	-0,173
-258,409	-47,728	-0,091	-0,031
-257,395	-120,464	0,123	0,015
-256,380	-200,000	-0,031	0,131
-255,365	800,000	-0,081	0,198
-254,351	266,870	0,060	0,075
-253,336	-38,205	-0,073	-0,027
-252,322	800,000	0,011	-0,023
-251,307	55,294	0,033	0,023
-250,292	486,716	0,082	-0,134
-249,278	9,254	0,087	0,047
-248,263	33,578	0,092	0,057
-247,249	-151,128	0,057	0,003
-246,234	208,153	-0,080	-0,089
-245,219	-19,094	-0,091	-0,040
-244,205	-200,000	0,004	-0,080
-243,190	108,134	-0,068	-0,058
-242,176	-161,636	0,070	0,003
-241,161	-200,000	-0,020	0,094
-240,146	227,899	0,077	0,089
-239,132	-71,967	-0,110	0,029
-238,117	-200,000	0,018	-0,147
-237,103	-200,000	0,010	0,035
-236,088	-200,000	0,004	-0,080
-235,073	-200,000	0,005	-0,051
-234,059	-200,000	-0,018	0,122
-233,044	-49,611	0,157	-0,053
-232,030	800,000	-0,050	-0,126
-231,015	-11,393	-0,061	0,029
-230,000	578,946	0,026	-0,046
-228,986	-107,139	0,085	-0,013
-227,971	101,718	0,014	-0,012
-226,957	800,000	0,047	0,132
-225,942	198,413	0,061	0,067
-224,927	106,168	-0,075	-0,063
-223,913	-115,981	0,066	-0,009
-222,898	3,153	0,067	-0,035
-221,884	4,031	-0,146	-0,076
-220,869	461,053	0,031	0,049
-219,855	161,533	-0,041	0,041
-218,840	129,811	0,075	-0,069
-217,825	43,291	-0,054	0,035
-216,811	-200,000	0,004	-0,125
-215,796	-37,718	-0,101	0,038
-214,782	-200,000	0,019	-0,085
-213,767	-2,186	-0,031	-0,015
-212,752	800,000	0,028	0,075
-211,738	221,156	-0,058	-0,066
-210,723	4,677	-0,086	0,045
-209,709	-105,570	0,114	0,018
-208,694	70,347	-0,081	0,060
-207,679	-200,000	0,004	0,141
-206,665	348,563	0,064	0,090
-205,650	90,319	0,088	0,070
-204,636	523,836	-0,047	0,079
-203,621	167,661	0,067	-0,068
-202,606	800,000	0,043	-0,102
-201,592	-200,000	-0,035	-0,120
-200,577	26,116	-0,059	0,035
-199,563	-119,397	-0,078	-0,010
-198,548	-19,021	0,055	0,024
-197,533	-200,000	0,005	-0,049
-196,519	545,713	-0,050	0,086
-195,504	-91,345	-0,191	-0,039
-194,490	-167,968	0,058	0,002
-193,475	115,340	-0,015	-0,013
-192,460	-200,000	0,016	0,105
-191,446	558,316	0,006	-0,010
-190,431	800,000	-0,025	0,075
-189,417	-200,000	-0,011	0,063
-188,402	-100,818	0,105	0,018
-187,387	-200,000	-0,001	-0,077
-186,373	-51,300	-0,055	-0,018
-185,358	-200,000	0,002	-0,021
-184,344	800,000	-0,009	-0,024
-183,329	-70,585	-0,099	0,026
-182,315	18,786	0,121	0,069
-181,300	800,000	-0,073	0,166
-180,285	-145,390	-0,038	-0,002
-179,271	-11,420	-0,055	-0,026
-178,256	-107,600	-0,102	-0,016
-177,242	659,051	-0,072	-0,132
-176,227	525,889	0,064	-0,107
-175,212	513,661	-0,089	-0,148
-174,198	66,320	0,043	-0,031
-173,183	800,000	-0,037	-0,089
-172,169	-35,304	-0,031	0,012
-171,154	-200,000	-0,003	-0,027
-170,139	-68,256	0,024	0,007
-169,125	-111,224	0,024	-0,004
-168,110	-93,991	0,173	0,034
-167,096	84,592	-0,029	-0,023
-166,081	-200,000	0,007	0,105
-165,066	-200,000	-0,012	0,112
-164,052	800,000	0,028	0,066
-163,037	-200,000	0,001	-0,040
-162,023	367,341	0,101	0,146
-161,008	-200,000	-0,009	0,079
-159,993	502,007	-0,049	0,082
-158,979	-200,000	0,008	0,109
-157,964	800,000	0,038	0,086
-156,950	-200,000	0,027	0,110
-155,935	133,253	-0,089	0,082
-154,920	-200,000	0,022	0,133
-153,906	-101,697	0,139	-0,024
-152,891	800,000	-0,032	0,084
-151,877	62,389	-0,031	-0,022
-150,862	771,504	0,015	0,030
-149,847	800,000	-0,021	-0,062
-148,833	471,119	0,110	-0,177
-147,818	-129,230	0,112	-0,011
-146,804	-101,090	0,070	0,012
-145,789	-110,283	-0,167	-0,025
-144,775	-103,974	0,036	-0,006
-143,760	-200,000	0,020	-0,069
-142,745	800,000	0,015	-0,034
-141,731	47,626	-0,042	-0,028
-140,716	193,431	0,059	0,063
-139,702	-200,000	0,011	-0,112
-138,687	310,497	0,056	0,075
-137,672	800,000	-0,040	0,107
-136,658	-200,000	-0,028	-0,167
-135,643	49,517	-0,057	-0,038
-134,629	-200,000	-0,021	-0,186
-133,614	-140,354	0,129	-0,009
-132,599	-200,000	0,046	0,189
-131,585	-200,000	0,019	0,157
-130,570	-200,000	0,022	0,075
-129,556	124,755	0,075	-0,067
-128,541	286,968	0,044	0,056
-127,526	55,398	-0,060	-0,041
-126,512	103,614	0,070	0,058
-125,497	479,529	-0,055	-0,089
-124,483	-167,047	-0,123	0,004
-123,468	404,814	0,034	0,051
-122,453	433,344	0,060	-0,093
-121,439	531,880	0,034	-0,057
