DTS Sentinel unit serial number:	SN410029Multiplexer serial number:	ORYXHardware model number:	OX2-SRSoftware version number:	ORYX F/W v4,00 Oryx Data Collector v3.7.2.0data status	okinstallation	BH3 CH2differential loss correction	single-endedforward channel	channel 2reverse channel	N/Adate	2023/12/05time	19:12:28forward acquisition time	300,00reverse acquisition time	0,00gamma	499,1914k internal	0,3193k external	0,3193temperature offset calibration	1,0000default loss term (dB/km)	0,3820temperature slope calibration	1,0000multiplexer offset coefficient	1,0000multiplexer slope coefficient	1,0000fibre end	0,00T internal ref (°C)	10,62T ext. ref 1 (°C)	-3,86T ext. ref 2 (°C)	-4,03length (m)	temperature (°C)	Stokes	anti-Stokes-744,400	-92,229	-0,039	-0,008
-743,385	-35,565	-0,293	0,115
-742,371	569,292	-0,057	-0,101
-741,356	800,000	-0,095	0,219
-740,342	-120,807	-0,110	-0,013
-739,327	3,722	-0,212	0,113
-738,312	-48,697	-0,148	-0,051
-737,298	-62,054	-0,283	0,086
-736,283	285,886	-0,198	-0,261
-735,269	-24,479	-0,220	0,095
-734,254	214,905	-0,099	-0,115
-733,239	-116,664	-0,377	-0,050
-732,225	28,527	0,128	0,079
-731,210	-200,000	0,031	0,154
-730,196	-200,000	-0,027	0,097
-729,181	194,256	-0,045	-0,050
-728,167	29,009	0,079	-0,049
-727,152	-200,000	-0,034	0,000
-726,137	36,179	0,054	-0,035
-725,123	22,922	-0,104	-0,062
-724,108	-200,000	-0,017	-0,102
-723,094	-109,197	-0,220	-0,034
-722,079	-103,475	-0,126	-0,021
-721,064	254,743	-0,080	-0,100
-720,050	-200,000	0,004	0,025
-719,035	-1,137	-0,097	0,050
-718,021	304,723	-0,009	-0,013
-717,006	-200,000	-0,002	-0,071
-715,991	-200,000	-0,054	-0,184
-714,977	-14,443	0,062	0,029
-713,962	-105,127	-0,082	0,013
-712,948	2,798	-0,043	-0,022
-711,933	-6,352	-0,118	0,059
-710,918	269,394	0,055	-0,070
-709,904	-142,737	-0,165	-0,012
-708,889	-142,520	-0,138	0,010
-707,875	555,052	0,073	-0,128
-706,860	46,935	0,059	0,040
-705,845	800,000	0,042	0,096
-704,831	-39,036	0,092	0,035
-703,816	-200,000	0,001	0,072
-702,802	-200,000	-0,002	-0,192
-701,787	-200,000	-0,031	-0,106
-700,772	165,947	-0,069	0,071
-699,758	-200,000	-0,070	-0,000
-698,743	73,552	0,075	-0,057
-697,729	517,671	-0,083	0,142
-696,714	213,692	-0,072	-0,083
-695,699	-148,891	-0,097	0,006
-694,685	182,336	0,035	-0,038
-693,670	-200,000	0,018	-0,141
-692,656	-32,714	-0,092	0,037
-691,641	20,457	0,221	0,130
-690,627	278,007	-0,065	0,084
-689,612	-139,764	-0,122	-0,009
-688,597	-108,663	-0,089	0,014
-687,583	8,362	-0,126	0,069
-686,568	-0,912	-0,195	-0,100
-685,554	-119,688	-0,075	-0,009
-684,539	-57,460	-0,186	0,059
-683,524	197,174	0,086	-0,096
-682,510	115,171	-0,077	-0,068
-681,495	211,442	0,051	0,059
-680,481	-5,257	-0,158	0,079
-679,466	-140,095	-0,075	-0,006
-678,451	-200,000	-0,028	-0,106
-677,437	-200,000	-0,009	-0,066
-676,422	110,054	0,112	-0,098
-675,408	800,000	0,015	0,040
-674,393	800,000	0,023	-0,063
-673,378	267,837	-0,102	-0,130
-672,364	771,135	-0,046	-0,091
-671,349	-33,252	0,053	0,021
-670,335	250,219	0,037	-0,045
-669,320	120,507	0,057	-0,052
-668,305	-69,830	0,047	-0,013
-667,291	221,881	-0,102	0,119
-666,276	109,176	-0,117	-0,102
-665,262	746,148	-0,078	-0,154
-664,247	-200,000	0,035	0,131
-663,232	328,421	-0,063	0,088
-662,218	-83,573	0,052	-0,012
-661,203	-56,010	-0,119	-0,038
-660,189	-200,000	-0,009	-0,146
-659,174	188,794	-0,076	0,082
-658,159	-62,372	-0,175	-0,052
-657,145	-20,684	0,132	-0,058
-656,130	71,319	-0,070	-0,052
-655,116	-200,000	-0,020	-0,169
-654,101	-200,000	-0,053	0,185
-653,086	800,000	0,039	0,079
-652,072	72,954	-0,073	-0,055
-651,057	170,701	-0,053	-0,055
-650,043	-34,111	-0,079	-0,032
-649,028	181,791	-0,059	-0,063
-648,014	-200,000	0,008	-0,056
-646,999	751,629	-0,026	-0,052
-645,984	34,558	-0,128	0,081
-644,970	800,000	-0,015	-0,035
-643,955	-179,990	-0,101	-0,002
-642,941	193,454	-0,052	-0,058
-641,926	306,385	0,020	-0,026
-640,911	-68,534	-0,021	0,006
-639,897	800,000	0,030	-0,068
-638,882	28,596	-0,057	0,035
-637,868	800,000	-0,017	-0,046
-636,853	-200,000	-0,068	-0,221
-635,838	-200,000	-0,058	-0,191
-634,824	182,012	-0,057	-0,061
-633,809	728,748	-0,013	0,025
-632,795	-19,038	0,072	-0,032
-631,780	579,582	-0,052	-0,092
-630,765	-6,594	-0,043	0,021
-629,751	-200,000	-0,019	0,066
-628,736	301,476	-0,078	-0,105
-627,722	561,918	-0,090	-0,158
-626,707	77,090	0,088	0,068
-625,692	-87,024	-0,098	-0,022
-624,678	800,000	-0,017	-0,039
-623,663	-76,437	-0,110	-0,028
-622,649	-54,530	0,063	0,021
-621,634	-200,000	-0,010	0,044
-620,619	-200,000	0,013	-0,084
-619,605	40,045	-0,063	-0,041
-618,590	-90,275	0,007	0,001
-617,576	-59,326	0,104	-0,032
-616,561	455,000	-0,075	0,122
-615,546	23,060	-0,094	0,056
-614,532	92,832	-0,074	-0,060
-613,517	284,481	0,073	-0,095
-612,503	-136,193	-0,018	0,001
-611,488	-200,000	-0,012	-0,086
-610,474	-132,523	-0,106	-0,010
-609,459	772,727	0,048	0,096
-608,444	800,000	0,033	0,081
-607,430	800,000	-0,030	0,094
-606,415	-68,782	-0,107	0,030
-605,401	-200,000	-0,015	0,114
-604,386	636,956	0,054	0,100
-603,371	800,000	-0,083	0,194
-602,357	-109,804	0,033	0,005
-601,342	21,233	0,036	-0,021
-600,328	-156,961	-0,147	-0,006
-599,313	792,588	0,066	-0,132
-598,298	19,531	0,178	-0,103
-597,284	-200,000	-0,004	0,095
-596,269	657,678	0,017	-0,032
-595,255	-200,000	-0,001	0,025
-594,240	618,065	0,081	-0,147
-593,225	800,000	0,057	0,121
-592,211	393,693	0,096	-0,145
-591,196	126,870	-0,049	-0,045
-590,182	-153,078	0,035	-0,002
-589,167	32,582	0,136	0,085
-588,152	730,395	0,031	0,061
-587,138	219,713	-0,119	-0,139
-586,123	-200,000	-0,020	-0,094
-585,109	800,000	-0,085	-0,198
-584,094	218,047	0,076	-0,089
-583,079	-200,000	0,007	0,051
-582,065	190,834	-0,039	-0,042
-581,050	-200,000	-0,018	0,108
-580,036	627,944	-0,030	0,055
-579,021	234,152	-0,030	-0,036
-578,006	126,406	0,042	-0,038
-576,992	-159,485	-0,142	-0,006
-575,977	266,480	0,057	0,072
-574,963	-200,000	0,022	0,164
-573,948	800,000	-0,028	0,062
-572,934	800,000	-0,023	0,068
-571,919	-200,000	0,010	-0,047
-570,904	-200,000	0,004	-0,023
-569,890	-67,165	-0,041	-0,012
-568,875	800,000	-0,029	-0,064
-567,861	18,910	0,133	0,077
-566,846	-115,430	0,097	0,013
-565,831	174,249	-0,060	-0,063
-564,817	21,189	-0,104	-0,061
-563,802	-112,708	0,075	-0,011
-562,788	43,254	0,070	0,046
-561,773	800,000	-0,039	0,103
-560,758	800,000	0,049	0,107
-559,744	-39,226	-0,140	-0,053
-558,729	-132,079	0,107	-0,010
-557,715	67,925	-0,109	-0,081
-556,700	-167,750	-0,089	-0,002
-555,685	186,390	0,032	0,035
-554,671	-200,000	0,015	-0,078
-553,656	262,220	-0,029	0,036
-552,642	-26,626	0,134	-0,056
-551,627	774,912	-0,065	0,130
-550,612	-112,769	-0,060	0,009
-549,598	559,324	0,023	-0,040
-548,583	22,499	-0,083	-0,049
-547,569	-200,000	-0,008	0,073
-546,554	245,054	-0,102	0,124
-545,539	153,833	0,044	-0,044
-544,525	-8,260	0,039	-0,019
-543,510	414,036	-0,038	-0,058
-542,496	-90,810	-0,088	-0,018
-541,481	-200,000	0,017	-0,086
-540,466	-200,000	-0,000	-0,063
-539,452	180,892	-0,051	0,055
-538,437	800,000	-0,015	0,047
-537,423	734,281	-0,052	-0,101
-536,408	104,860	0,039	-0,033
-535,393	800,000	-0,017	-0,047
-534,379	450,660	0,026	-0,041
-533,364	800,000	0,045	-0,136
-532,350	125,124	0,024	-0,022
-531,335	-200,000	-0,042	0,172
-530,321	139,654	-0,101	0,096
-529,306	800,000	-0,048	-0,102
-528,291	742,270	-0,059	-0,116
-527,277	88,998	-0,096	-0,077
-526,262	-80,149	0,135	-0,032
-525,248	-200,000	0,006	0,032
-524,233	800,000	0,042	-0,091
-523,218	37,835	0,066	-0,042
-522,204	109,136	0,066	-0,057
-521,189	800,000	-0,016	0,045
-520,175	486,629	-0,050	-0,082
-519,160	-200,000	-0,001	-0,048
-518,145	615,753	-0,018	0,033
-517,131	-45,591	0,071	0,025
-516,116	69,627	0,056	0,042
-515,102	781,817	0,024	0,049
-514,087	800,000	-0,037	-0,092
-513,072	-6,225	-0,032	0,016
-512,058	-200,000	-0,015	0,082
-511,043	800,000	-0,036	0,077
-510,029	800,000	-0,026	-0,080
-509,014	514,886	0,042	0,072
-507,999	-150,411	0,089	0,005
-506,985	-98,637	0,104	-0,019
-505,970	-67,476	-0,228	0,064
-504,956	-200,000	0,010	-0,087
-503,941	223,190	0,136	-0,158
-502,926	-100,336	-0,131	0,023
-501,912	183,451	0,120	0,128
-500,897	-105,557	-0,011	-0,002
-499,883	309,463	-0,082	0,112
-498,868	-123,513	-0,104	0,012
-497,853	-200,000	0,031	0,156
-496,839	174,741	-0,026	0,028
-495,824	591,711	0,087	0,156
-494,810	-55,219	0,029	0,009
-493,795	245,473	0,071	-0,086
-492,781	-200,000	-0,069	0,000
-491,766	726,314	0,039	-0,075
-490,751	327,453	-0,124	0,172
-489,737	148,690	-0,033	0,032
-488,722	-200,000	-0,013	0,115
-487,708	7,640	-0,050	0,027
-486,693	-200,000	-0,002	0,074
-485,678	-200,000	0,008	0,059
-484,664	800,000	-0,075	-0,179
-483,649	157,204	-0,104	-0,103
-482,635	93,216	-0,118	-0,096
-481,620	160,973	-0,048	-0,048
-480,605	-46,840	0,090	-0,032
-479,591	-200,000	0,039	0,000
-478,576	800,000	0,045	0,117
-477,562	-107,697	0,108	0,017
-476,547	374,683	0,043	-0,064
-475,532	-62,707	-0,028	-0,008
-474,518	-200,000	0,014	-0,087
-473,503	112,531	0,089	0,078
-472,489	132,337	-0,046	-0,042
-471,474	193,700	0,059	0,065
-470,459	-19,476	-0,119	-0,053
-469,445	288,537	0,094	-0,123
-468,430	23,609	-0,122	0,072
-467,416	800,000	0,048	0,104
-466,401	69,930	0,105	0,078
-465,386	-112,427	0,096	0,014
-464,372	800,000	-0,048	0,125
-463,357	102,599	0,083	0,070
-462,343	-111,880	0,071	-0,010
-461,328	-200,000	-0,009	-0,155
-460,313	800,000	-0,037	0,110
-459,299	149,291	0,017	-0,017
-458,284	-76,867	0,133	-0,033
-457,270	-20,867	-0,026	-0,011
-456,255	-200,000	-0,011	-0,062
-455,241	102,701	0,034	-0,029
-454,226	-5,806	-0,089	-0,044
-453,211	-3,629	-0,026	0,013
-452,197	-76,391	0,097	-0,024
-451,182	537,625	0,047	0,081
-450,168	-200,000	0,002	0,028
-449,153	-108,625	0,115	0,018
-448,138	1,778	-0,047	-0,025
-447,124	32,920	-0,079	-0,049
-446,109	-44,451	0,087	0,031
-445,095	168,584	0,106	-0,109
-444,080	-129,323	0,039	-0,004
-443,065	-152,974	0,129	0,006
-442,051	324,430	-0,056	-0,077
-441,036	650,396	-0,033	0,060
-440,022	120,193	0,087	0,078
-439,007	-200,000	-0,024	0,082
-437,992	127,227	0,115	0,105
-436,978	-200,000	-0,019	0,106
-435,963	-152,068	0,157	-0,008
-434,949	-200,000	-0,012	0,040
-433,934	-200,000	-0,017	-0,141
-432,919	-200,000	-0,020	-0,104
-431,905	206,812	0,048	-0,054
-430,890	220,777	0,103	0,119
-429,876	-38,290	0,073	0,028
-428,861	15,691	0,097	0,055
-427,846	-101,326	0,114	-0,020
-426,832	158,420	-0,055	-0,055
-425,817	-200,000	0,007	-0,035
-424,803	-116,849	-0,080	0,010
-423,788	373,380	0,106	0,156
-422,773	-52,947	-0,096	0,032
-421,759	800,000	0,047	-0,139
-420,744	-200,000	-0,022	0,080
-419,730	800,000	-0,036	0,105
-418,715	-200,000	-0,071	-0,000
-417,701	180,374	0,171	-0,181
-416,686	91,300	-0,108	0,087
-415,671	800,000	0,034	0,071
-414,657	-200,000	-0,002	-0,090
-413,642	-162,531	0,086	0,003
-412,628	-25,379	-0,099	0,042
-411,613	-111,102	0,232	0,034
-410,598	800,000	-0,041	-0,111
-409,584	-82,392	-0,196	-0,045
-408,569	-200,000	0,007	-0,029
-407,555	800,000	-0,011	0,032
-406,540	231,882	0,107	0,127
-405,525	-125,542	-0,127	-0,014
-404,511	-115,781	0,052	0,007
-403,496	800,000	0,040	0,091
-402,482	480,112	-0,036	-0,059
-401,467	156,990	0,071	-0,071
-400,452	352,833	0,016	0,023
-399,438	-31,792	-0,050	-0,020
-398,423	-200,000	-0,009	-0,106
-397,409	-121,547	0,089	-0,010
-396,394	-43,331	-0,061	-0,022
-395,379	3,339	0,098	-0,051
-394,365	-144,089	0,132	-0,009
-393,350	50,963	-0,096	0,066
-392,336	-106,660	0,016	-0,002
-391,321	253,531	-0,044	-0,054
-390,306	-75,531	-0,037	-0,009
-389,292	596,004	-0,049	-0,088
-388,277	800,000	-0,012	-0,033
-387,263	88,738	0,096	0,077
-386,248	642,569	0,051	-0,093
-385,233	41,612	-0,088	-0,057
-384,219	658,589	-0,053	-0,099
-383,204	-200,000	-0,011	-0,075
-382,190	370,823	0,013	0,018
-381,175	-140,664	0,031	-0,002
-380,160	-106,802	0,133	-0,021
-379,146	728,918	0,025	0,049
-378,131	280,584	-0,021	0,026
-377,117	800,000	0,014	-0,041
-376,102	-200,000	-0,027	-0,095
-375,088	-200,000	0,011	-0,037
-374,073	695,911	-0,060	-0,114
-373,058	-200,000	-0,018	0,061
-372,044	-47,693	0,118	-0,041
-371,029	140,583	-0,087	0,082
-370,015	-142,769	-0,114	-0,008
-369,000	-37,475	0,054	0,021
-367,985	87,118	-0,047	0,037
-366,971	-112,557	0,098	-0,014
-365,956	-200,000	-0,020	0,099
-364,942	376,057	0,020	0,030
-363,927	7,724	0,102	0,055
-362,912	49,070	-0,103	-0,070
-361,898	148,886	-0,061	-0,059
-360,883	-76,672	-0,043	-0,011
-359,869	-200,000	-0,010	-0,082
-358,854	-173,975	-0,053	-0,001
-357,839	800,000	0,053	0,124
-356,825	-200,000	-0,002	-0,012
-355,810	38,563	-0,163	0,104
-354,796	-12,891	-0,133	-0,062
-353,781	-12,028	-0,100	0,047
-352,766	158,889	0,012	-0,012
-351,752	-200,000	-0,026	0,093
-350,737	161,635	0,049	0,049
-349,723	154,478	-0,097	0,096
-348,708	-30,374	0,051	-0,021
-347,693	-87,487	-0,075	-0,016
-346,679	-200,000	-0,009	-0,176
-345,664	-200,000	0,020	0,074
-344,650	259,548	0,045	0,056
-343,635	67,271	-0,020	0,014
-342,620	-200,000	0,016	-0,101
-341,606	-49,806	0,075	0,025
-340,591	515,999	-0,074	0,125
-339,577	-183,939	-0,091	0,001
-338,562	-185,235	0,038	0,000
-337,548	220,629	0,073	0,084
-336,533	76,385	0,027	0,020
-335,518	-41,449	0,111	0,041
-334,504	800,000	-0,043	0,134
-333,489	581,673	-0,022	-0,039
-332,475	800,000	-0,035	-0,096
-331,460	-200,000	0,019	-0,127
-330,445	181,555	0,035	0,037
-329,431	-200,000	0,012	-0,057
-328,416	-200,000	0,009	0,038
-327,402	-4,985	0,061	-0,030
-326,387	-65,913	-0,005	0,001
-325,372	630,228	0,104	-0,189
-324,358	800,000	0,020	-0,054
-323,343	7,323	-0,072	0,039
-322,329	800,000	0,009	0,022
-321,314	800,000	0,039	0,116
-320,299	800,000	-0,039	0,105
-319,285	-200,000	0,000	-0,060
-318,270	20,873	-0,091	0,053
-317,256	-134,522	-0,066	0,006
-316,241	414,273	0,036	0,055
-315,226	65,879	-0,032	0,024
-314,212	188,731	-0,066	0,071
-313,197	-93,434	0,084	0,017
-312,183	792,621	-0,019	-0,037
-311,168	-200,000	-0,015	-0,071
-310,153	-134,647	0,053	-0,005
-309,139	121,735	-0,059	-0,053
-308,124	-114,979	0,160	-0,022
-307,110	180,966	0,034	0,036
-306,095	-200,000	0,007	0,022
-305,080	146,621	-0,095	0,092
-304,066	612,801	0,063	0,113
-303,051	438,693	0,025	0,039
-302,037	58,463	-0,108	0,076
-301,022	55,792	0,033	-0,023
-300,008	123,109	0,055	0,050
-298,993	-82,822	-0,053	-0,012
-297,978	64,114	0,138	0,100
-296,964	-200,000	0,016	-0,084
-295,949	800,000	0,007	0,017
-294,935	-112,601	0,121	-0,017
-293,920	-200,000	0,014	-0,063
-292,905	26,250	-0,049	0,029
-291,891	560,579	0,053	0,092
-290,876	80,302	-0,067	0,052
-289,862	-155,221	0,134	-0,006
-288,847	-52,040	-0,179	-0,059
-287,832	82,360	-0,126	0,098
-286,818	-33,745	0,103	-0,040
-285,803	159,159	-0,108	-0,108
-284,789	-78,892	-0,063	0,015
-283,774	-200,000	0,020	0,116
-282,759	800,000	0,038	-0,091
-281,745	640,894	-0,059	-0,108
-280,730	131,022	-0,062	-0,057
-279,716	-200,000	-0,004	-0,097
-278,701	800,000	0,054	0,135
-277,686	10,568	0,062	0,034
-276,672	800,000	-0,040	0,091
-275,657	94,964	0,071	-0,058
-274,643	16,775	-0,063	-0,036
-273,628	-200,000	0,007	-0,054
-272,613	228,394	-0,112	0,131
-271,599	-82,866	0,152	-0,035
-270,584	43,580	0,060	0,039
-269,570	717,415	0,047	0,090
-268,555	233,885	-0,017	-0,020
-267,540	-9,560	-0,035	0,017
-266,526	800,000	0,030	0,068
-265,511	800,000	-0,060	-0,131
-264,497	66,983	0,043	0,032
-263,482	236,111	0,097	0,115
-262,467	800,000	-0,017	0,039
-261,453	102,566	-0,065	0,055
-260,438	-200,000	-0,026	-0,089
-259,424	800,000	-0,039	-0,109
-258,409	-200,000	0,039	-0,163
-257,395	800,000	0,045	0,102
-256,380	5,096	-0,113	0,059
-255,365	61,765	-0,103	0,073
-254,351	190,109	0,066	0,071
-253,336	-52,414	-0,202	0,066
-252,322	-10,624	-0,120	-0,056
-251,307	591,615	0,022	-0,038
-250,292	115,664	-0,095	0,083
-249,278	302,315	0,139	0,184
-248,263	443,537	0,081	-0,128
-247,249	-42,059	0,028	0,010
-246,234	-200,000	0,021	-0,125
-245,219	363,005	-0,054	-0,078
-244,205	-200,000	-0,045	-0,170
-243,190	-82,789	0,151	-0,035
-242,176	446,276	0,061	0,096
-241,161	89,943	-0,071	-0,057
-240,146	-200,000	0,016	0,083
-239,132	-131,911	-0,082	-0,008
-238,117	-164,067	0,127	-0,004
-237,103	523,739	-0,029	-0,048
-236,088	-103,159	0,067	-0,011
-235,073	500,755	0,040	-0,066
-234,059	-200,000	0,011	0,116
-233,044	-71,541	-0,067	0,018
-232,030	46,624	-0,120	0,079
-231,015	-178,878	-0,137	-0,002
-230,000	38,876	0,035	0,023
-228,986	75,881	-0,075	0,057
-227,971	277,519	0,090	0,115
-226,957	145,564	0,029	0,028
-225,942	-0,643	0,035	-0,018
-224,927	800,000	-0,045	-0,096
-223,913	-200,000	-0,005	0,022
-222,898	256,694	-0,100	-0,122
-221,884	-200,000	-0,002	-0,020
-220,869	800,000	0,030	0,084
-219,855	29,826	0,139	0,084
-218,840	-200,000	0,023	0,109
-217,825	147,485	-0,032	-0,030
-216,811	-61,189	-0,116	-0,035
-215,796	23,727	0,140	-0,082
-214,782	-200,000	-0,006	0,033
-213,767	-200,000	0,025	0,181
-212,752	800,000	0,029	0,089
-211,738	49,828	-0,126	-0,085
-210,723	474,417	-0,021	-0,034
-209,709	-200,000	-0,014	-0,067
-208,694	256,391	-0,071	-0,087
-207,679	-62,191	-0,072	0,021
-206,665	227,263	0,064	0,075
-205,650	756,778	0,007	-0,013
-204,636	-200,000	0,031	0,183
-203,621	-16,894	0,009	0,004
-202,606	151,771	0,075	0,073
-201,592	40,362	0,022	-0,014
-200,577	-200,000	0,001	0,161
-199,563	18,272	0,058	-0,033
-198,548	800,000	0,050	0,112
-197,533	800,000	-0,047	0,104
-196,519	592,072	0,072	0,128
-195,504	360,078	-0,077	-0,110
-194,490	10,687	-0,092	0,050
-193,475	-160,909	-0,088	-0,003
-192,460	388,627	0,039	0,058
-191,446	520,979	0,025	0,041
-190,431	228,937	0,067	0,078
-189,417	-72,200	-0,056	-0,015
-188,402	-150,533	0,059	-0,003
-187,387	337,407	0,105	-0,146
-186,373	-200,000	-0,006	-0,088
-185,358	632,803	0,016	-0,029
-184,344	328,135	-0,057	0,078
-183,329	-200,000	-0,005	0,047
-182,315	800,000	-0,036	-0,085
-181,300	-22,762	0,103	-0,044
-180,285	-200,000	-0,049	-0,177
-179,271	-83,508	0,075	0,017
-178,256	161,621	0,041	0,041
-177,242	20,827	0,051	-0,029
-176,227	32,603	0,069	0,042
-175,212	-200,000	0,022	0,165
-174,198	452,510	-0,039	0,062
-173,183	800,000	0,011	0,024
-172,169	800,000	-0,058	-0,177
-171,154	12,791	0,061	-0,033
-170,139	800,000	-0,025	-0,075
-169,125	-100,879	0,027	0,005
-168,110	-52,916	0,024	0,008
-167,096	-54,978	-0,047	0,015
-166,081	201,800	0,060	-0,066
-165,066	-200,000	-0,013	-0,122
-164,052	-200,000	0,008	0,102
-163,037	-200,000	0,021	0,111
-162,023	-48,758	0,095	-0,032
-161,008	-200,000	0,028	0,091
-159,993	44,154	-0,136	0,089
-158,979	-71,940	-0,121	-0,032
-157,964	800,000	-0,056	-0,115
-156,950	-200,000	-0,000	-0,074
-155,935	800,000	0,048	-0,111
-154,920	-51,281	0,197	-0,065
-153,906	-200,000	0,000	-0,022
-152,891	1,695	0,081	-0,041
-151,877	-64,183	-0,129	0,037
-150,862	236,904	0,094	-0,112
-149,847	-200,000	0,016	-0,118
-148,833	800,000	0,019	-0,050
-147,818	-9,613	0,124	0,059
-146,804	-200,000	-0,003	-0,048
-145,789	-200,000	-0,020	0,082
-144,775	9,478	0,036	0,019
-143,760	-73,957	0,088	-0,022
-142,745	-200,000	0,010	-0,237
-141,731	34,058	-0,066	0,041
-140,716	-200,000	-0,018	0,122
-139,702	-200,000	-0,017	0,113
-138,687	-13,503	0,035	0,016
-137,672	-52,922	-0,044	0,014
-136,658	161,389	0,031	0,031
-135,643	-200,000	0,021	0,112
-134,629	75,626	0,106	0,080
-133,614	99,612	-0,127	0,105
-132,599	-65,177	0,048	-0,014
-131,585	188,157	-0,030	0,032
-130,570	-38,866	0,120	-0,045
-129,556	-200,000	0,008	-0,183
-128,541	198,647	-0,048	0,053
-127,526	-111,864	0,112	-0,016
-126,512	800,000	-0,012	-0,034
-125,497	130,045	0,052	-0,048
-124,483	-14,358	0,056	0,026
-123,468	94,188	0,058	-0,047
-122,453	-30,317	-0,073	-0,029
-121,439	-179,569	-0,206	0,003
-120,424	-200,000	0,006	0,029
-119,410	-57,127	-0,101	-0,032
