DTS Sentinel unit serial number:	SN410029Multiplexer serial number:	ORYXHardware model number:	OX2-SRSoftware version number:	ORYX F/W v4,00 Oryx Data Collector v3.7.2.0data status	okinstallation	BH3 CH2differential loss correction	single-endedforward channel	channel 2reverse channel	N/Adate	2023/12/05time	13:52:28forward acquisition time	300,00reverse acquisition time	0,00gamma	499,1914k internal	0,3194k external	0,3194temperature offset calibration	1,0000default loss term (dB/km)	0,3820temperature slope calibration	1,0000multiplexer offset coefficient	1,0000multiplexer slope coefficient	1,0000fibre end	0,00T internal ref (°C)	10,66T ext. ref 1 (°C)	-3,11T ext. ref 2 (°C)	-3,25length (m)	temperature (°C)	Stokes	anti-Stokes-744,400	-200,000	0,040	-0,201
-743,385	-33,314	-0,189	0,076
-742,371	321,311	-0,062	-0,086
-741,356	-26,151	-0,190	0,081
-740,342	-200,000	-0,020	0,120
-739,327	-88,345	-0,275	0,059
-738,312	-24,793	-0,056	-0,024
-737,298	414,556	-0,064	0,100
-736,283	92,558	-0,136	-0,112
-735,269	208,712	-0,151	0,172
-734,254	800,000	-0,072	-0,159
-733,239	-90,022	-0,437	-0,092
-732,225	-200,000	-0,023	-0,089
-731,210	53,544	0,043	0,030
-730,196	-200,000	0,011	-0,052
-729,181	-200,000	-0,014	0,050
-728,167	-200,000	0,015	-0,068
-727,152	174,679	0,018	0,019
-726,137	-108,650	-0,051	0,008
-725,123	-66,893	-0,121	-0,034
-724,108	800,000	-0,064	-0,172
-723,094	-200,000	-0,029	-0,095
-722,079	260,822	-0,100	-0,126
-721,064	-140,319	0,093	0,007
-720,050	-200,000	0,031	-0,119
-719,035	625,503	0,062	-0,115
-718,021	682,221	-0,073	-0,139
-717,006	136,973	-0,051	-0,049
-715,991	78,793	0,042	0,033
-714,977	800,000	-0,037	0,110
-713,962	800,000	-0,033	0,070
-712,948	-200,000	-0,012	0,071
-711,933	269,293	0,111	0,142
-710,918	88,425	-0,067	0,054
-709,904	-13,142	-0,043	0,020
-708,889	-22,372	-0,093	-0,041
-707,875	-46,850	0,023	0,008
-706,860	215,808	0,023	-0,026
-705,845	-76,531	0,058	0,015
-704,831	-15,175	-0,031	-0,014
-703,816	-200,000	-0,003	0,101
-702,802	-42,015	-0,045	-0,017
-701,787	291,451	-0,068	-0,091
-700,772	-200,000	0,029	-0,154
-699,758	-200,000	-0,002	0,006
-698,743	-29,792	0,092	0,038
-697,729	430,556	-0,030	-0,048
-696,714	157,920	-0,050	0,050
-695,699	147,258	0,043	-0,042
-694,685	-200,000	-0,003	-0,018
-693,670	285,123	-0,056	-0,073
-692,656	262,535	-0,035	0,044
-691,641	67,833	-0,155	0,115
-690,627	-200,000	-0,037	-0,146
-689,612	180,692	-0,017	-0,018
-688,597	-35,006	-0,179	-0,071
-687,583	-200,000	0,010	-0,098
-686,568	173,522	-0,114	-0,120
-685,554	620,366	-0,026	-0,047
-684,539	-2,226	0,052	-0,027
-683,524	800,000	-0,013	-0,037
-682,510	-71,216	0,140	0,038
-681,495	755,845	-0,054	-0,107
-680,481	478,072	-0,069	-0,114
-679,466	333,833	-0,073	-0,104
-678,451	760,793	-0,036	-0,071
-677,437	-200,000	0,030	0,155
-676,422	-30,767	-0,137	0,056
-675,408	-200,000	-0,008	0,046
-674,393	240,095	0,063	0,077
-673,378	-200,000	-0,028	-0,116
-672,364	-80,549	-0,115	0,028
-671,349	235,815	-0,046	0,055
-670,335	153,036	0,042	-0,042
-669,320	-167,329	0,105	0,003
-668,305	170,268	-0,050	-0,052
-667,291	-157,633	-0,048	-0,002
-666,276	-114,099	-0,156	-0,022
-665,262	-200,000	0,036	-0,134
-664,247	-14,399	0,063	0,029
-663,232	-82,929	0,093	-0,022
-662,218	-200,000	0,021	0,078
-661,203	-6,941	0,205	0,101
-660,189	-200,000	0,008	0,046
-659,174	800,000	-0,038	0,095
-658,159	15,452	-0,062	-0,035
-657,145	-137,124	0,123	-0,010
-656,130	385,577	-0,014	0,021
-655,116	-200,000	0,009	0,052
-654,101	56,162	-0,095	0,067
-653,086	-200,000	-0,032	-0,144
-652,072	-133,701	0,056	-0,005
-651,057	189,111	-0,059	-0,065
-650,043	18,510	-0,162	-0,094
-649,028	-200,000	0,043	0,173
-648,014	-76,439	0,088	-0,022
-646,999	-199,333	-0,116	0,000
-645,984	-37,771	0,062	-0,024
-644,970	-37,967	-0,078	-0,030
-643,955	7,696	0,122	0,066
-642,941	800,000	-0,045	-0,138
-641,926	-200,000	0,014	-0,095
-640,911	-200,000	-0,000	0,046
-639,897	-200,000	-0,037	-0,172
-638,882	800,000	-0,052	-0,161
-637,868	-200,000	0,027	0,147
-636,853	37,126	-0,102	-0,065
-635,838	243,963	0,090	0,110
-634,824	437,271	0,006	0,009
-633,809	26,721	0,054	0,033
-632,795	-170,124	-0,039	0,001
-631,780	-75,670	0,071	-0,018
-630,765	118,060	-0,051	0,046
-629,751	254,773	-0,071	-0,088
-628,736	244,703	-0,044	-0,054
-627,722	-200,000	0,003	-0,210
-626,707	700,407	0,038	0,074
-625,692	-200,000	-0,019	0,101
-624,678	308,640	-0,068	0,093
-623,663	423,672	0,009	-0,015
-622,649	49,046	-0,061	0,042
-621,634	800,000	-0,030	0,091
-620,619	-96,322	0,067	-0,013
-619,605	-125,092	-0,087	-0,010
-618,590	22,063	-0,132	-0,078
-617,576	247,433	-0,092	0,113
-616,561	481,798	0,061	0,101
-615,546	27,040	0,078	-0,048
-614,532	-200,000	-0,028	-0,125
-613,517	197,954	-0,069	-0,076
-612,503	120,110	0,043	-0,039
-611,488	-112,071	0,037	-0,005
-610,474	-200,000	-0,001	0,032
-609,459	21,424	0,102	0,060
-608,444	-200,000	-0,006	-0,206
-607,430	-200,000	0,000	-0,043
-606,415	-54,686	-0,081	-0,026
-605,401	389,142	0,088	-0,132
-604,386	480,222	0,069	-0,114
-603,371	-200,000	0,010	0,159
-602,357	-122,970	0,119	-0,014
-601,342	-200,000	0,010	0,105
-600,328	621,635	-0,042	0,076
-599,313	-200,000	-0,007	0,054
-598,298	-94,497	0,056	0,011
-597,284	206,031	-0,101	0,114
-596,269	207,347	0,052	0,059
-595,255	-24,457	-0,082	-0,035
-594,240	800,000	0,031	-0,070
-593,225	81,285	-0,096	-0,075
-592,211	-200,000	-0,002	-0,113
-591,196	-200,000	-0,020	0,127
-590,182	800,000	0,088	0,190
-589,167	-79,191	-0,050	0,012
-588,152	322,683	-0,037	-0,051
-587,138	800,000	-0,034	0,099
-586,123	800,000	-0,024	-0,062
-585,109	-200,000	-0,006	0,078
-584,094	-200,000	-0,002	-0,055
-583,079	-112,499	0,025	0,004
-582,065	-200,000	0,002	-0,098
-581,050	-42,044	-0,138	0,051
-580,036	114,982	-0,054	0,048
-579,021	43,108	-0,170	0,112
-578,006	800,000	-0,028	-0,075
-576,992	-73,966	0,079	0,021
-575,977	42,615	0,029	-0,019
-574,963	800,000	-0,004	0,013
-573,948	257,855	-0,036	-0,044
-572,934	180,618	0,104	-0,111
-571,919	275,767	-0,057	-0,074
-570,904	127,142	0,101	-0,093
-569,890	-200,000	0,024	-0,102
-568,875	87,290	0,093	0,075
-567,861	582,877	0,044	0,079
-566,846	800,000	-0,048	0,096
-565,831	-139,644	0,107	0,008
-564,817	800,000	0,027	-0,071
-563,802	-104,700	-0,141	-0,023
-562,788	665,782	0,009	0,018
-561,773	30,494	0,037	-0,023
-560,758	-66,483	0,067	0,019
-559,744	-53,215	-0,159	-0,052
-558,729	-57,617	0,076	-0,024
-557,715	26,701	0,090	0,054
-556,700	-69,191	-0,137	0,038
-555,685	23,489	0,031	-0,018
-554,671	-200,000	0,026	0,087
-553,656	-200,000	0,018	-0,087
-552,642	-200,000	0,025	0,089
-551,627	261,537	0,033	0,041
-550,612	-200,000	-0,003	-0,074
-549,598	635,829	0,053	-0,097
-548,583	-152,967	-0,115	0,006
-547,569	54,517	0,042	0,029
-546,554	268,549	-0,048	-0,061
-545,539	293,157	0,024	-0,031
-544,525	-200,000	-0,018	0,084
-543,510	305,466	0,051	-0,068
-542,496	-200,000	0,010	-0,118
-541,481	150,930	-0,067	-0,066
-540,466	-52,468	-0,033	0,011
-539,452	-4,902	0,063	0,031
-538,437	-96,779	0,107	0,020
-537,423	-25,601	-0,144	0,061
-536,408	-30,361	0,077	-0,031
-535,393	196,479	-0,101	-0,111
-534,379	-15,869	0,013	-0,006
-533,364	-200,000	0,011	0,036
-532,350	-80,370	-0,029	0,007
-531,335	-139,790	-0,061	0,005
-530,321	-8,844	-0,104	0,050
-529,306	-5,907	-0,075	0,037
-528,291	-200,000	0,041	-0,234
-527,277	-200,000	-0,005	0,021
-526,262	-200,000	0,027	0,093
-525,248	342,597	0,148	0,209
-524,233	13,466	0,073	-0,041
-523,218	-200,000	-0,012	0,108
-522,204	152,032	0,102	-0,101
-521,189	-200,000	0,015	-0,113
-520,175	15,652	-0,051	-0,029
-519,160	175,364	0,052	0,054
-518,145	-15,163	0,093	0,043
-517,131	800,000	-0,031	-0,071
-516,116	728,372	0,051	-0,099
-515,102	-129,960	-0,248	-0,024
-514,087	144,111	-0,063	-0,061
-513,072	-39,994	-0,071	-0,027
-512,058	-96,102	-0,107	0,020
-511,043	223,043	-0,021	-0,025
-510,029	81,044	-0,058	0,045
-509,014	167,088	0,025	0,025
-507,999	-91,189	0,103	-0,021
-506,985	292,160	-0,099	0,131
-505,970	-200,000	0,016	-0,216
-504,956	214,680	0,019	-0,022
-503,941	271,168	-0,013	-0,017
-502,926	-54,094	0,105	0,034
-501,912	-129,233	-0,144	-0,014
-500,897	198,810	-0,030	-0,034
-499,883	650,495	0,071	-0,132
-498,868	191,474	-0,161	-0,175
-497,853	101,043	-0,036	-0,030
-496,839	382,302	0,069	0,102
-495,824	-59,078	0,132	-0,041
-494,810	-200,000	-0,009	-0,099
-493,795	414,496	0,013	-0,020
-492,781	-200,000	-0,014	0,060
-491,766	158,065	-0,086	-0,086
-490,751	-132,837	-0,119	0,011
-489,737	-115,522	0,139	-0,019
-488,722	-99,066	0,041	-0,007
-487,708	346,482	0,085	0,121
-486,693	791,981	-0,051	0,102
-485,678	-128,509	-0,141	-0,014
-484,664	-200,000	0,007	-0,027
-483,649	-200,000	-0,005	-0,061
-482,635	-200,000	-0,010	-0,087
-481,620	456,398	0,078	-0,125
-480,605	43,984	0,065	0,043
-479,591	-38,283	0,036	-0,014
-478,576	522,836	-0,026	-0,045
-477,562	800,000	0,031	-0,088
-476,547	-200,000	-0,009	0,056
-475,532	-200,000	-0,020	0,092
-474,518	722,431	0,062	0,120
-473,503	-200,000	0,004	0,041
-472,489	102,451	-0,102	-0,086
-471,474	-56,224	-0,134	-0,043
-470,459	69,491	-0,140	0,104
-469,445	736,916	-0,006	0,012
-468,430	-123,977	-0,098	-0,011
-467,416	151,329	0,054	0,054
-466,401	-200,000	-0,027	0,112
-465,386	-200,000	0,014	-0,064
-464,372	214,548	0,048	0,055
-463,357	532,469	0,022	0,037
-462,343	104,610	-0,100	-0,085
-461,328	-103,138	0,034	-0,006
-460,313	-178,263	0,052	0,001
-459,299	-200,000	-0,015	0,111
-458,284	-29,636	0,078	0,032
-457,270	-61,312	0,062	0,019
-456,255	3,897	-0,082	-0,043
-455,241	-39,660	-0,032	-0,012
-454,226	800,000	0,058	-0,137
-453,211	420,687	-0,129	-0,200
-452,197	800,000	-0,039	0,117
-451,182	116,681	0,109	0,096
-450,168	118,472	0,093	-0,082
-449,153	-162,235	0,105	-0,004
-448,138	127,928	0,058	-0,053
-447,124	-200,000	-0,023	-0,102
-446,109	-29,744	0,094	-0,039
-445,095	25,343	-0,037	0,022
-444,080	-82,872	0,067	0,016
-443,065	83,845	0,137	-0,107
-442,051	-200,000	0,007	0,092
-441,036	158,775	-0,092	-0,092
-440,022	-65,040	-0,069	0,020
-439,007	-25,654	0,104	0,044
-437,992	-200,000	-0,020	-0,069
-436,978	-104,173	-0,090	-0,015
-435,963	-0,445	0,061	-0,031
-434,949	581,377	-0,067	0,118
-433,934	71,166	0,106	-0,079
-432,919	-200,000	0,000	0,027
-431,905	-200,000	0,008	-0,153
-430,890	326,668	-0,085	-0,118
-429,876	-8,278	0,138	-0,067
-428,861	-200,000	0,035	-0,117
-427,846	-153,991	0,128	0,006
-426,832	800,000	0,032	0,073
-425,817	-60,286	-0,080	0,024
-424,803	197,762	-0,081	-0,089
-423,788	220,896	-0,054	0,062
-422,773	51,157	-0,078	0,053
-421,759	-200,000	-0,017	-0,066
-420,744	-13,282	0,115	0,053
-419,730	-125,675	-0,159	-0,017
-418,715	-200,000	-0,029	-0,099
-417,701	800,000	0,033	0,067
-416,686	571,145	0,031	0,054
-415,671	-57,041	0,046	0,015
-414,657	-71,781	0,111	-0,030
-413,642	800,000	-0,066	-0,145
-412,628	233,163	-0,033	0,039
-411,613	-147,379	-0,086	-0,005
-410,598	34,518	0,037	0,023
-409,584	424,075	-0,068	0,106
-408,569	800,000	-0,056	0,149
-407,555	-27,907	-0,176	0,073
-406,540	800,000	0,032	0,086
-405,525	-200,000	-0,003	-0,014
-404,511	259,309	-0,043	-0,054
-403,496	800,000	-0,005	-0,010
-402,482	12,042	0,094	0,052
-401,467	-200,000	-0,004	0,081
-400,452	292,716	-0,015	0,020
-399,438	800,000	-0,110	0,247
-398,423	800,000	0,037	0,084
-397,409	12,762	-0,233	-0,129
-396,394	397,847	0,020	-0,030
-395,379	80,326	-0,099	0,076
-394,365	800,000	0,047	0,111
-393,350	496,239	0,086	0,143
-392,336	-200,000	0,017	0,075
-391,321	-45,227	-0,038	-0,013
-390,306	113,694	-0,069	0,060
-389,292	688,009	-0,034	-0,064
-388,277	-90,507	0,067	-0,014
-387,263	800,000	0,024	0,060
-386,248	-200,000	0,015	0,182
-385,233	-100,428	0,054	0,010
-384,219	546,861	0,017	-0,030
-383,204	-87,705	-0,045	0,010
-382,190	800,000	0,038	0,089
-381,175	-56,921	0,084	0,027
-380,160	800,000	0,057	0,129
-379,146	133,735	0,063	0,059
-378,131	800,000	0,017	0,039
-377,117	-200,000	-0,016	0,189
-376,102	-6,565	-0,055	-0,027
-375,088	-200,000	0,003	-0,129
-374,073	512,941	-0,084	-0,142
-373,058	-200,000	-0,031	-0,202
-372,044	-200,000	-0,009	-0,051
-371,029	-200,000	-0,012	0,068
-370,015	-184,852	0,151	0,002
-369,000	645,224	-0,023	-0,043
-367,985	136,446	0,131	-0,123
-366,971	141,369	-0,068	-0,065
-365,956	-27,772	0,072	0,030
-364,942	206,104	0,112	0,125
-363,927	-123,639	0,038	0,004
-362,912	-200,000	0,003	0,065
-361,898	-200,000	0,005	0,030
-360,883	-147,510	-0,071	-0,004
-359,869	800,000	-0,026	-0,069
-358,854	525,391	0,040	0,067
-357,839	-200,000	-0,004	0,017
-356,825	-85,121	0,150	-0,033
-355,810	-61,644	-0,108	0,032
-354,796	-46,395	0,093	0,033
-353,781	-21,032	0,093	-0,041
-352,766	79,491	-0,138	-0,106
-351,752	-44,422	0,138	0,049
-350,737	-26,314	0,042	0,018
-349,723	-200,000	0,008	0,140
-348,708	394,834	0,059	-0,089
-347,693	551,448	-0,116	-0,200
-346,679	-100,437	0,061	0,011
-345,664	-200,000	-0,017	-0,124
-344,650	-200,000	0,004	-0,138
-343,635	-36,915	0,124	0,048
-342,620	800,000	0,024	0,067
-341,606	167,987	0,129	0,132
-340,591	-200,000	-0,011	-0,050
-339,577	203,621	-0,051	-0,057
-338,562	60,604	0,035	-0,025
-337,548	-43,055	-0,058	-0,021
-336,533	800,000	-0,022	0,057
-335,518	490,216	-0,026	0,043
-334,504	567,202	-0,030	-0,053
-333,489	800,000	-0,041	-0,107
-332,475	-11,608	0,082	-0,038
-331,460	-19,362	-0,149	-0,066
-330,445	-86,687	0,096	0,021
-329,431	-50,544	0,088	0,029
-328,416	-200,000	0,006	0,159
-327,402	280,795	0,045	-0,057
-326,387	-8,793	-0,082	-0,040
-325,372	-58,700	-0,134	0,041
-324,358	54,414	-0,052	-0,036
-323,343	771,230	0,045	0,089
-322,329	274,443	0,119	-0,152
-321,314	131,660	0,113	0,104
-320,299	-114,288	0,015	-0,002
-319,285	36,875	0,051	-0,033
-318,270	-133,931	0,012	-0,001
-317,256	800,000	-0,055	-0,115
-316,241	-200,000	0,013	-0,085
-315,226	800,000	0,039	-0,091
-314,212	102,158	-0,006	0,005
-313,197	506,446	-0,013	0,022
-312,183	254,102	0,036	0,045
-311,168	-199,380	-0,073	-0,000
-310,153	391,568	-0,023	0,034
-309,139	-200,000	-0,002	-0,137
-308,124	563,189	-0,041	-0,072
-307,110	288,333	0,095	0,123
-306,095	51,250	0,079	-0,053
-305,080	-23,033	-0,030	0,013
-304,066	-200,000	-0,004	0,030
-303,051	340,841	-0,077	-0,109
-302,037	800,000	0,041	0,087
-301,022	-20,202	-0,075	0,033
-300,008	-200,000	-0,018	-0,091
-298,993	-119,467	0,087	-0,011
-297,978	800,000	0,029	0,083
-296,964	-200,000	-0,004	-0,101
-295,949	-48,215	0,031	0,011
-294,935	-200,000	0,012	0,054
-293,920	800,000	-0,020	0,047
-292,905	-121,831	-0,067	0,008
-291,891	1,956	-0,108	0,055
-290,876	81,039	-0,130	0,101
-289,862	-200,000	-0,021	0,149
-288,847	800,000	-0,032	-0,074
-287,832	-200,000	-0,013	0,044
-286,818	-200,000	-0,031	0,100
-285,803	493,127	0,017	0,029
-284,789	-69,714	0,105	-0,028
-283,774	99,717	0,073	0,061
-282,759	-100,258	0,081	0,014
-281,745	-200,000	0,003	-0,079
-280,730	579,473	-0,033	-0,057
-279,716	-126,085	0,100	-0,011
-278,701	212,150	0,073	-0,083
-277,686	-51,118	0,118	0,039
-276,672	-200,000	-0,026	0,113
-275,657	-59,353	-0,102	-0,031
-274,643	800,000	0,021	-0,044
-273,628	450,354	0,053	0,084
-272,613	-200,000	-0,003	-0,078
-271,599	-200,000	0,189	0,000
-270,584	-200,000	0,028	0,207
-269,570	-95,494	0,115	-0,022
-268,555	-200,000	-0,017	0,209
-267,540	-99,896	-0,207	0,037
-266,526	-49,405	-0,091	-0,031
-265,511	114,878	0,055	0,048
-264,497	800,000	0,009	-0,024
-263,482	-69,264	-0,047	-0,013
-262,467	-100,166	0,088	-0,016
-261,453	209,902	0,087	0,098
-260,438	-12,615	-0,149	0,069
-259,424	48,743	0,059	-0,040
-258,409	-200,000	0,015	-0,054
-257,395	212,168	-0,122	0,137
-256,380	-117,435	0,046	-0,006
-255,365	-200,000	-0,001	0,021
-254,351	485,974	0,016	0,027
-253,336	708,583	0,020	-0,039
-252,322	-6,956	-0,129	0,062
-251,307	800,000	-0,041	0,093
-250,292	-39,501	-0,139	0,052
-249,278	-200,000	-0,010	-0,071
-248,263	351,740	0,093	0,133
-247,249	800,000	-0,029	-0,062
-246,234	388,151	-0,057	0,084
-245,219	800,000	0,050	-0,138
-244,205	605,485	-0,016	0,029
-243,190	94,884	0,099	0,080
-242,176	-10,494	-0,058	-0,027
-241,161	-200,000	-0,001	0,083
-240,146	311,884	-0,036	0,049
-239,132	178,861	0,052	-0,054
-238,117	800,000	-0,014	0,038
-237,103	800,000	0,039	-0,112
-236,088	-87,862	-0,060	-0,013
-235,073	-25,104	0,096	-0,040
-234,059	5,294	0,063	0,033
-233,044	-200,000	0,017	0,092
-232,030	800,000	0,051	-0,139
-231,015	394,831	-0,070	-0,105
-230,000	12,783	-0,218	0,120
-228,986	-111,180	0,051	0,007
-227,971	-200,000	-0,001	-0,007
-226,957	310,435	0,127	0,170
-225,942	-155,411	-0,175	0,008
-224,927	160,723	0,106	-0,106
-223,913	-200,000	-0,005	-0,094
-222,898	455,422	0,073	-0,115
-221,884	-94,494	0,052	-0,010
-220,869	33,735	0,089	0,055
-219,855	319,698	0,036	-0,049
-218,840	-200,000	0,028	-0,109
-217,825	217,781	-0,077	-0,088
-216,811	-86,069	-0,088	0,019
-215,796	-83,422	-0,066	-0,015
-214,782	719,757	0,066	-0,126
-213,767	800,000	0,061	-0,127
-212,752	66,830	0,193	0,140
-211,738	800,000	0,008	-0,020
-210,723	-30,650	0,066	-0,026
-209,709	-115,466	0,071	0,009
-208,694	119,933	-0,090	0,080
-207,679	-38,371	-0,120	0,045
-206,665	800,000	-0,012	-0,033
-205,650	55,942	0,126	0,087
-204,636	800,000	-0,053	0,132
-203,621	690,061	-0,054	0,102
-202,606	800,000	-0,052	0,123
-201,592	11,540	0,119	0,065
-200,577	152,600	0,070	-0,068
-199,563	528,523	-0,005	0,009
-198,548	-4,110	-0,073	0,036
-197,533	-15,676	0,050	-0,023
-196,519	-126,733	-0,055	-0,006
-195,504	-163,941	-0,048	-0,002
-194,490	-200,000	-0,013	0,079
-193,475	-200,000	-0,033	-0,137
-192,460	-25,738	-0,168	-0,070
-191,446	744,042	0,032	-0,063
-190,431	559,185	-0,066	0,113
-189,417	58,832	-0,073	0,051
-188,402	76,720	0,176	-0,133
-187,387	-200,000	0,018	-0,084
-186,373	-110,189	-0,011	-0,002
-185,358	800,000	0,031	-0,083
-184,344	-30,108	-0,064	-0,026
-183,329	300,847	-0,083	0,109
-182,315	-200,000	-0,032	0,125
-181,300	551,601	-0,093	-0,160
-180,285	-24,345	0,115	-0,049
-179,271	800,000	-0,098	-0,204
-178,256	-118,770	0,131	-0,016
-177,242	800,000	0,025	-0,053
-176,227	-200,000	-0,016	0,200
-175,212	-200,000	-0,021	0,127
-174,198	31,469	0,029	-0,017
-173,183	800,000	0,046	0,119
-172,169	72,684	-0,077	-0,057
-171,154	-130,928	-0,073	-0,007
-170,139	800,000	-0,033	0,094
-169,125	-200,000	-0,012	-0,044
-168,110	-200,000	0,008	0,084
-167,096	8,063	0,058	0,031
-166,081	565,128	-0,105	-0,183
-165,066	-75,364	-0,110	0,028
-164,052	800,000	0,046	-0,092
-163,037	667,074	0,096	-0,178
-162,023	-200,000	-0,022	-0,165
-161,008	-200,000	-0,008	0,178
-159,993	-33,473	-0,077	0,030
-158,979	-93,135	-0,087	-0,017
-157,964	-56,846	0,195	0,061
-156,950	-47,894	0,003	-0,001
-155,935	-200,000	-0,012	0,167
-154,920	-200,000	-0,015	0,061
-153,906	800,000	0,042	0,118
-152,891	458,747	0,008	0,013
-151,877	-90,443	-0,005	0,001
-150,862	-80,084	-0,117	-0,028
-149,847	800,000	0,080	-0,192
-148,833	800,000	-0,040	0,105
-147,818	800,000	0,002	0,007
-146,804	800,000	-0,049	0,102
-145,789	-200,000	0,005	0,112
-144,775	-168,638	-0,039	0,001
-143,760	800,000	-0,042	-0,092
-142,745	112,038	-0,045	-0,038
-141,731	585,685	-0,012	-0,020
-140,716	-200,000	-0,002	0,028
-139,702	-200,000	0,045	0,178
-138,687	53,247	0,163	0,111
-137,672	-200,000	-0,002	-0,008
-136,658	800,000	0,015	-0,043
-135,643	70,351	0,039	0,029
-134,629	-200,000	0,057	0,256
-133,614	-85,023	0,098	0,022
-132,599	-200,000	-0,011	0,063
-131,585	-200,000	0,010	0,175
-130,570	99,904	-0,072	-0,059
-129,556	-200,000	-0,018	-0,161
-128,541	28,473	-0,068	-0,041
-127,526	-112,331	-0,032	0,005
-126,512	800,000	-0,034	0,075
-125,497	117,844	0,108	-0,095
-124,483	100,421	0,061	0,051
-123,468	18,763	0,019	0,011
-122,453	145,532	0,023	0,022
-121,439	-200,000	0,006	-0,091
-120,424	800,000	-0,048	-0,104
