DTS Sentinel unit serial number:	SN410029Multiplexer serial number:	ORYXHardware model number:	OX2-SRSoftware version number:	ORYX F/W v4,00 Oryx Data Collector v3.7.2.0data status	okinstallation	BH3 CH2differential loss correction	single-endedforward channel	channel 2reverse channel	N/Adate	2023/12/06time	05:57:28forward acquisition time	300,00reverse acquisition time	0,00gamma	499,1914k internal	0,3197k external	0,3197temperature offset calibration	1,0000default loss term (dB/km)	0,3820temperature slope calibration	1,0000multiplexer offset coefficient	1,0000multiplexer slope coefficient	1,0000fibre end	0,00T internal ref (°C)	8,91T ext. ref 1 (°C)	-5,67T ext. ref 2 (°C)	-5,78length (m)	temperature (°C)	Stokes	anti-Stokes-744,400	-200,000	-0,002	0,008
-743,385	132,863	-0,190	0,179
-742,371	-131,452	0,063	-0,006
-741,356	113,487	-0,141	0,125
-740,342	-200,000	-0,034	-0,180
-739,327	16,075	-0,178	0,102
-738,312	-200,000	-0,043	-0,206
-737,298	-102,253	-0,139	-0,024
-736,283	203,921	0,004	0,004
-735,269	99,571	-0,145	0,122
-734,254	-164,313	-0,076	-0,003
-733,239	-135,579	-0,375	0,032
-732,225	800,000	0,005	-0,012
-731,210	12,155	-0,049	0,027
-730,196	-200,000	0,029	-0,097
-729,181	167,857	-0,049	-0,051
-728,167	-61,833	-0,041	0,013
-727,152	-43,493	0,063	-0,023
-726,137	-200,000	0,000	0,041
-725,123	139,683	-0,098	0,094
-724,108	-200,000	-0,009	-0,151
-723,094	-61,848	-0,074	-0,022
-722,079	212,852	-0,068	0,079
-721,064	-23,457	0,072	0,031
-720,050	-131,249	-0,036	-0,003
-719,035	-182,647	0,023	-0,000
-718,021	-200,000	0,027	-0,123
-717,006	52,913	-0,016	-0,011
-715,991	800,000	-0,093	-0,290
-714,977	-150,150	-0,068	-0,004
-713,962	82,299	0,047	-0,037
-712,948	-100,076	0,129	-0,023
-711,933	-59,666	0,077	0,024
-710,918	800,000	-0,014	0,038
-709,904	90,733	0,090	-0,073
-708,889	-61,699	-0,035	0,011
-707,875	-200,000	0,009	0,072
-706,860	507,104	0,052	0,088
-705,845	-200,000	-0,009	-0,069
-704,831	-71,991	0,103	0,028
-703,816	-200,000	0,023	-0,151
-702,802	-200,000	-0,025	-0,102
-701,787	-200,000	0,021	-0,076
-700,772	85,270	0,118	-0,094
-699,758	-100,091	-0,118	-0,021
-698,743	-49,067	0,125	-0,043
-697,729	54,429	0,053	0,037
-696,714	800,000	0,021	0,062
-695,699	-27,708	-0,075	0,031
-694,685	-200,000	0,024	-0,149
-693,670	369,817	-0,033	-0,049
-692,656	-200,000	0,151	0,000
-691,641	256,148	-0,051	0,064
-690,627	231,137	0,085	0,101
-689,612	-107,586	0,105	-0,017
-688,597	-101,782	-0,146	-0,025
-687,583	-200,000	-0,027	0,116
-686,568	800,000	-0,032	-0,095
-685,554	-116,896	0,035	-0,005
-684,539	-85,163	0,103	0,023
-683,524	800,000	-0,046	-0,130
-682,510	241,508	0,057	0,069
-681,495	42,336	0,050	0,033
-680,481	800,000	0,032	0,074
-679,466	-91,994	-0,130	0,027
-678,451	800,000	-0,011	0,034
-677,437	206,072	0,080	-0,091
-676,422	-55,250	0,073	0,024
-675,408	-87,640	-0,048	0,010
-674,393	199,598	-0,042	-0,046
-673,378	-62,080	-0,150	0,045
-672,364	-71,197	-0,026	-0,007
-671,349	-200,000	-0,016	0,061
-670,335	-29,109	-0,071	-0,030
-669,320	163,880	0,096	0,098
-668,305	61,140	0,080	-0,058
-667,291	800,000	0,055	0,116
-666,276	262,129	0,018	0,023
-665,262	-200,000	0,005	-0,026
-664,247	800,000	0,036	-0,091
-663,232	28,047	0,056	-0,034
-662,218	-128,396	0,179	-0,018
-661,203	-200,000	0,019	0,085
-660,189	-200,000	0,032	0,115
-659,174	800,000	-0,009	0,023
-658,159	-200,000	0,005	-0,110
-657,145	-10,303	-0,091	-0,044
-656,130	-200,000	0,018	-0,083
-655,116	-200,000	0,029	0,108
-654,101	126,483	-0,140	0,129
-653,086	-30,073	-0,059	0,024
-652,072	-200,000	0,004	-0,038
-651,057	-200,000	0,004	0,065
-650,043	333,847	-0,062	0,088
-649,028	-117,496	0,075	-0,010
-648,014	85,349	-0,036	0,028
-646,999	587,255	0,017	0,031
-645,984	-196,415	0,108	-0,001
-644,970	-200,000	0,012	-0,084
-643,955	-200,000	-0,005	-0,023
-642,941	800,000	0,042	-0,109
-641,926	22,035	-0,074	0,044
-640,911	-25,943	-0,093	-0,039
-639,897	-200,000	0,019	0,085
-638,882	23,600	-0,106	-0,063
-637,868	447,677	0,052	0,083
-636,853	256,236	-0,016	0,020
-635,838	106,541	-0,137	-0,118
-634,824	596,273	0,065	0,117
-633,809	-200,000	0,028	0,140
-632,795	90,937	0,084	0,069
-631,780	-200,000	-0,027	0,149
-630,765	-70,606	0,084	0,023
-629,751	-200,000	0,014	-0,066
-628,736	-200,000	-0,036	-0,128
-627,722	800,000	0,060	-0,162
-626,707	-51,047	-0,125	0,042
-625,692	-111,094	0,133	-0,020
-624,678	75,140	-0,019	0,015
-623,663	-36,505	-0,022	0,008
-622,649	409,154	0,025	0,039
-621,634	800,000	0,003	0,007
-620,619	-69,564	0,170	-0,047
-619,605	29,807	-0,034	0,021
-618,590	-158,923	0,209	-0,008
-617,576	-155,242	-0,056	0,003
-616,561	-36,924	-0,112	0,043
-615,546	800,000	-0,043	-0,125
-614,532	523,766	-0,081	-0,138
-613,517	374,901	0,026	-0,038
-612,503	-105,288	-0,043	-0,007
-611,488	-200,000	-0,003	0,076
-610,474	150,642	0,088	-0,087
-609,459	378,631	0,103	0,153
-608,444	-152,486	0,015	-0,001
-607,430	-54,892	-0,127	-0,041
-606,415	-200,000	0,031	-0,118
-605,401	757,566	-0,022	-0,043
-604,386	124,452	0,088	0,080
-603,371	-129,975	-0,094	0,009
-602,357	-200,000	-0,002	0,017
-601,342	-135,989	-0,162	0,014
-600,328	111,344	-0,057	-0,050
-599,313	800,000	-0,035	-0,105
-598,298	252,775	0,092	0,114
-597,284	800,000	-0,018	-0,041
-596,269	-69,828	-0,159	-0,044
-595,255	574,605	0,041	-0,073
-594,240	-61,845	-0,164	-0,049
-593,225	-126,555	-0,096	-0,010
-592,211	361,019	-0,069	-0,100
-591,196	-200,000	0,006	-0,101
-590,182	-52,840	-0,023	-0,007
-589,167	-103,441	0,055	-0,009
-588,152	548,081	0,018	0,031
-587,138	25,593	-0,079	0,047
-586,123	76,508	-0,042	0,032
-585,109	259,210	0,051	-0,064
-584,094	-6,560	-0,033	-0,016
-583,079	-94,886	0,126	-0,024
-582,065	-200,000	0,016	-0,081
-581,050	800,000	0,033	-0,086
-580,036	800,000	-0,037	-0,089
-579,021	-200,000	0,029	-0,099
-578,006	-45,592	0,098	-0,035
-576,992	-29,739	0,061	0,025
-575,977	68,420	-0,016	0,012
-574,963	-40,627	-0,044	0,017
-573,948	363,890	-0,034	-0,049
-572,934	-200,000	-0,015	0,099
-571,919	-124,396	-0,074	0,008
-570,904	121,474	-0,049	-0,044
-569,890	-54,982	-0,198	-0,064
-568,875	158,924	-0,070	0,071
-567,861	289,149	0,095	0,125
-566,846	99,097	0,172	-0,143
-565,831	-146,713	-0,122	0,008
-564,817	409,390	-0,011	-0,017
-563,802	709,898	0,037	-0,070
-562,788	509,152	-0,024	0,041
-561,773	171,902	0,097	-0,100
-560,758	800,000	-0,063	0,142
-559,744	-200,000	0,018	0,068
-558,729	33,144	-0,034	0,021
-557,715	800,000	-0,047	0,115
-556,700	-103,593	0,094	-0,016
-555,685	7,759	-0,082	-0,044
-554,671	164,446	0,100	0,102
-553,656	453,466	0,052	-0,084
-552,642	168,885	0,045	-0,046
-551,627	75,609	-0,080	0,061
-550,612	370,520	-0,068	-0,100
-549,598	800,000	-0,021	-0,064
-548,583	800,000	-0,080	-0,202
-547,569	800,000	0,040	-0,096
-546,554	41,492	0,107	-0,070
-545,539	73,584	0,079	0,060
-544,525	-114,729	-0,157	0,022
-543,510	-2,882	-0,081	-0,041
-542,496	-200,000	0,056	-0,213
-541,481	800,000	0,026	0,061
-540,466	340,550	0,036	-0,051
-539,452	-179,023	0,080	0,001
-538,437	800,000	0,041	0,093
-537,423	14,911	0,078	-0,044
-536,408	800,000	0,023	0,048
-535,393	800,000	0,036	-0,083
-534,379	-200,000	-0,002	-0,026
-533,364	121,727	0,091	-0,082
-532,350	-6,037	0,145	0,071
-531,335	-200,000	0,013	0,068
-530,321	-27,140	0,124	0,052
-529,306	-76,712	0,168	-0,042
-528,291	679,732	-0,022	0,041
-527,277	-200,000	0,013	0,057
-526,262	800,000	-0,041	0,087
-525,248	4,047	-0,041	0,021
-524,233	800,000	-0,052	0,120
-523,218	540,985	0,023	0,039
-522,204	-0,095	-0,035	0,018
-521,189	337,467	0,091	0,128
-520,175	-200,000	-0,023	-0,081
-519,160	-200,000	-0,019	-0,087
-518,145	-200,000	0,023	0,083
-517,131	-200,000	-0,010	-0,041
-516,116	-200,000	0,008	-0,043
-515,102	84,330	-0,054	0,043
-514,087	-200,000	-0,026	0,102
-513,072	-73,136	-0,123	0,032
-512,058	-92,548	-0,017	-0,003
-511,043	37,865	-0,028	-0,018
-510,029	50,131	0,059	0,040
-509,014	-68,276	0,007	0,002
-507,999	0,856	-0,110	-0,057
-506,985	800,000	-0,036	-0,074
-505,970	125,382	-0,098	-0,090
-504,956	291,958	0,020	0,026
-503,941	-200,000	0,010	0,148
-502,926	-26,078	-0,120	0,051
-501,912	-15,418	0,215	0,099
-500,897	-106,569	0,170	-0,027
-499,883	-117,152	-0,084	0,011
-498,868	27,449	0,015	-0,009
-497,853	375,456	-0,102	0,150
-496,839	118,384	0,086	0,076
-495,824	-104,596	-0,040	0,007
-494,810	290,349	0,117	0,154
-493,795	115,656	-0,050	0,045
-492,781	660,103	-0,112	-0,209
-491,766	800,000	0,070	-0,148
-490,751	-200,000	0,009	-0,086
-489,737	-87,237	0,082	0,018
-488,722	47,203	0,059	0,039
-487,708	-77,909	0,116	-0,029
-486,693	275,460	-0,053	0,068
-485,678	-158,585	0,077	0,003
-484,664	-200,000	-0,029	0,107
-483,649	95,695	0,107	-0,088
-482,635	-200,000	0,010	-0,099
-481,620	70,970	-0,107	0,080
-480,605	243,465	0,035	0,042
-479,591	-86,678	0,165	0,036
-478,576	572,584	-0,054	0,095
-477,562	-36,969	0,146	-0,056
-476,547	219,097	-0,068	-0,079
-475,532	332,520	-0,072	-0,100
-474,518	-200,000	-0,003	0,103
-473,503	800,000	0,037	0,079
-472,489	-107,090	0,118	0,019
-471,474	268,209	-0,036	-0,046
-470,459	-147,246	0,044	0,003
-469,445	-200,000	-0,016	-0,060
-468,430	-200,000	0,000	0,032
-467,416	800,000	0,042	-0,110
-466,401	-200,000	-0,016	-0,135
-465,386	204,841	-0,062	0,070
-464,372	644,039	0,017	-0,032
-463,357	800,000	-0,025	-0,053
-462,343	-200,000	-0,024	-0,107
-461,328	-200,000	-0,016	-0,058
-460,313	800,000	0,045	0,091
-459,299	366,531	-0,062	-0,091
-458,284	-200,000	0,017	0,164
-457,270	-97,454	-0,056	0,010
-456,255	-200,000	0,037	-0,145
-455,241	254,326	-0,013	-0,016
-454,226	800,000	0,036	-0,083
-453,211	128,143	0,119	-0,109
-452,197	511,681	0,023	-0,039
-451,182	339,831	-0,092	-0,130
-450,168	-200,000	0,004	0,084
-449,153	800,000	-0,009	-0,024
-448,138	485,131	0,074	-0,122
-447,124	72,460	-0,109	-0,082
-446,109	-95,114	0,106	-0,020
-445,095	269,198	-0,149	-0,188
-444,080	-15,468	0,029	0,013
-443,065	577,636	0,024	0,043
-442,051	-200,000	-0,002	-0,106
-441,036	397,062	-0,064	-0,097
-440,022	-200,000	-0,028	-0,165
-439,007	-6,056	-0,072	0,035
-437,992	800,000	0,012	-0,025
-436,978	-200,000	0,029	0,148
-435,963	-200,000	-0,002	0,050
-434,949	37,734	0,033	-0,021
-433,934	-67,510	0,069	0,019
-432,919	-200,000	-0,007	-0,038
-431,905	255,240	-0,056	-0,070
-430,890	-177,324	0,024	-0,000
-429,876	-154,924	0,109	0,005
-428,861	318,849	-0,057	0,078
-427,846	112,846	-0,040	0,035
-426,832	800,000	-0,104	-0,223
-425,817	-200,000	0,000	-0,067
-424,803	-200,000	0,004	-0,146
-423,788	210,574	0,050	0,057
-422,773	-113,599	0,116	-0,016
-421,759	-106,670	0,173	-0,027
-420,744	-73,803	-0,072	0,019
-419,730	262,584	-0,094	-0,117
-418,715	232,653	-0,102	-0,120
-417,701	-200,000	0,008	0,051
-416,686	-200,000	0,021	-0,081
-415,671	800,000	0,015	0,046
-414,657	-200,000	0,025	0,093
-413,642	-200,000	-0,008	-0,036
-412,628	385,651	-0,047	-0,070
-411,613	56,530	-0,053	-0,037
-410,598	775,246	-0,040	0,079
-409,584	341,858	0,074	0,104
-408,569	-200,000	0,006	0,104
-407,555	-200,000	-0,007	-0,199
-406,540	-200,000	-0,009	-0,060
-405,525	-85,613	-0,122	0,027
-404,511	-81,020	-0,256	0,060
-403,496	42,808	0,089	-0,058
-402,482	800,000	0,020	0,062
-401,467	457,065	-0,073	0,117
-400,452	64,949	0,035	-0,025
-399,438	271,224	-0,076	-0,096
-398,423	-200,000	0,010	-0,102
-397,409	111,694	-0,034	-0,029
-396,394	-200,000	0,009	0,035
-395,379	-50,443	-0,055	-0,019
-394,365	92,604	0,078	-0,063
-393,350	-200,000	0,054	0,192
-392,336	-30,098	0,015	0,006
-391,321	766,173	0,019	-0,037
-390,306	64,243	0,152	0,110
-389,292	-62,159	-0,049	0,014
-388,277	409,741	-0,083	0,127
-387,263	-3,034	-0,117	0,059
-386,248	-49,541	0,085	0,029
-385,233	-67,227	0,078	0,022
-384,219	381,376	-0,007	0,011
-383,204	-200,000	0,002	-0,059
-382,190	-89,389	-0,096	-0,020
-381,175	-48,174	-0,063	0,022
-380,160	-126,572	-0,204	0,022
-379,146	-58,894	0,035	0,011
-378,131	800,000	0,023	-0,056
-377,117	-172,241	-0,038	0,001
-376,102	-200,000	-0,012	-0,057
-375,088	-64,595	-0,099	0,029
-374,073	-79,172	0,119	-0,029
-373,058	-1,882	-0,001	0,000
-372,044	-200,000	0,007	0,092
-371,029	800,000	0,011	-0,032
-370,015	-200,000	0,019	0,075
-369,000	37,590	-0,059	-0,037
-367,985	-28,275	0,133	-0,055
-366,971	-131,425	-0,083	0,008
-365,956	-44,976	0,099	-0,035
-364,942	633,113	0,040	0,073
-363,927	-200,000	-0,016	0,149
-362,912	35,593	-0,105	-0,066
-361,898	800,000	-0,017	0,050
-360,883	-200,000	0,016	0,107
-359,869	-200,000	-0,014	-0,069
-358,854	800,000	0,009	0,024
-357,839	800,000	-0,056	0,118
-356,825	-200,000	0,025	0,140
-355,810	-112,023	-0,232	-0,033
-354,796	800,000	0,015	-0,037
-353,781	-29,270	-0,090	0,037
-352,766	-60,296	-0,059	-0,018
-351,752	269,963	-0,045	0,057
-350,737	7,441	0,115	0,061
-349,723	516,582	0,048	0,081
-348,708	456,658	-0,055	-0,088
-347,693	-200,000	-0,005	0,123
-346,679	76,701	-0,042	0,032
-345,664	109,180	-0,125	-0,107
-344,650	198,790	0,052	-0,057
-343,635	-23,463	0,086	-0,037
-342,620	286,265	0,075	0,097
-341,606	-200,000	-0,018	0,060
-340,591	-73,488	0,146	0,038
-339,577	-134,750	0,029	-0,002
-338,562	704,690	-0,007	0,013
-337,548	800,000	0,013	-0,036
-336,533	106,792	0,044	0,037
-335,518	224,170	0,063	0,073
-334,504	47,961	0,089	-0,060
-333,489	14,034	0,091	-0,051
-332,475	46,109	-0,076	-0,050
-331,460	193,880	-0,058	-0,063
-330,445	-200,000	-0,004	0,066
-329,431	-129,981	0,087	0,008
-328,416	-76,242	0,109	0,027
-327,402	375,191	-0,063	0,092
-326,387	75,456	0,044	0,034
-325,372	-43,468	-0,079	0,028
-324,358	77,044	0,144	-0,109
-323,343	272,508	0,013	-0,017
-322,329	139,030	0,038	0,036
-321,314	-200,000	-0,010	0,053
-320,299	-200,000	0,003	0,052
-319,285	-105,081	0,063	0,010
-318,270	800,000	-0,025	-0,063
-317,256	-102,836	0,014	0,002
-316,241	397,377	-0,050	0,075
-315,226	56,421	0,104	0,072
-314,212	800,000	-0,008	0,018
-313,197	179,767	-0,040	0,042
-312,183	-200,000	-0,007	0,112
-311,168	-200,000	-0,018	0,113
-310,153	54,129	-0,069	-0,047
-309,139	141,085	0,065	-0,062
-308,124	-200,000	0,027	-0,105
-307,110	-4,814	0,102	0,050
-306,095	-89,224	0,124	-0,026
-305,080	-102,049	-0,104	-0,018
-304,066	-7,174	-0,124	-0,060
-303,051	800,000	-0,061	-0,186
-302,037	115,523	0,052	-0,045
-301,022	800,000	-0,028	-0,076
-300,008	599,195	0,068	-0,120
-298,993	-103,306	-0,091	0,015
-297,978	-121,901	-0,062	-0,007
-296,964	-200,000	0,014	0,059
-295,949	-3,942	-0,132	0,065
-294,935	-200,000	0,011	-0,067
-293,920	171,468	-0,039	0,040
-292,905	-71,186	0,026	0,007
-291,891	-46,806	0,059	0,020
-290,876	461,521	0,036	0,058
-289,862	-61,741	0,187	-0,056
-288,847	-200,000	-0,012	-0,062
-287,832	-200,000	-0,002	-0,028
-286,818	130,294	0,116	0,106
-285,803	-200,000	0,011	0,152
-284,789	-52,964	-0,141	-0,046
-283,774	407,976	0,069	0,105
-282,759	345,694	0,060	-0,085
-281,745	-200,000	0,003	-0,061
-280,730	800,000	0,078	-0,190
-279,716	-200,000	0,003	-0,091
-278,701	-200,000	-0,009	0,057
-277,686	-63,162	0,040	0,012
-276,672	190,528	0,008	0,009
-275,657	-77,062	-0,147	0,036
-274,643	144,984	-0,013	0,012
-273,628	-1,459	-0,115	-0,058
-272,613	3,040	-0,040	-0,021
-271,599	-31,656	0,039	-0,015
-270,584	-200,000	-0,030	0,146
-269,570	-200,000	0,010	-0,099
-268,555	800,000	0,031	0,095
-267,540	-200,000	0,007	-0,053
-266,526	195,716	0,047	-0,051
-265,511	10,010	-0,167	0,090
-264,497	-200,000	0,019	-0,097
-263,482	121,126	0,096	0,086
-262,467	116,688	0,073	-0,064
-261,453	57,557	-0,017	0,012
-260,438	-87,828	0,089	0,019
-259,424	8,510	-0,166	0,089
-258,409	577,206	-0,020	0,034
-257,395	800,000	-0,036	0,089
-256,380	52,615	0,098	-0,067
-255,365	800,000	0,041	-0,107
-254,351	150,339	-0,034	0,033
-253,336	800,000	-0,054	-0,111
-252,322	290,994	0,067	-0,087
-251,307	-82,267	0,135	0,031
-250,292	334,686	-0,034	0,047
-249,278	-117,176	0,054	-0,007
-248,263	-86,787	0,084	-0,018
-247,249	4,292	-0,104	-0,054
-246,234	97,984	-0,053	0,044
-245,219	-200,000	-0,006	0,092
-244,205	-103,748	0,045	-0,007
-243,190	-154,258	-0,098	0,005
-242,176	-115,611	0,170	-0,023
-241,161	72,880	-0,085	0,063
-240,146	800,000	0,016	0,047
-239,132	55,059	-0,052	0,036
-238,117	-84,143	-0,086	0,019
-237,103	800,000	-0,078	-0,166
-236,088	800,000	0,035	0,096
-235,073	490,030	-0,068	0,111
-234,059	107,929	0,036	0,030
-233,044	-4,755	0,097	0,048
-232,030	138,027	-0,060	-0,056
-231,015	34,045	0,164	-0,102
-230,000	103,749	-0,057	0,048
-228,986	40,482	-0,054	0,035
-227,971	-130,699	-0,020	0,002
-226,957	-4,815	-0,101	0,049
-225,942	146,268	0,033	-0,032
-224,927	138,659	0,082	0,077
-223,913	-94,897	-0,032	0,006
-222,898	-200,000	-0,014	-0,048
-221,884	-200,000	0,019	0,091
-220,869	-178,511	0,066	0,001
-219,855	277,345	-0,040	0,051
-218,840	800,000	-0,045	0,127
-217,825	-200,000	0,004	-0,066
-216,811	159,450	-0,079	0,078
-215,796	445,120	0,085	-0,133
-214,782	-70,867	-0,110	-0,029
-213,767	40,314	0,134	-0,086
-212,752	-89,652	0,113	0,024
-211,738	22,719	0,119	0,069
-210,723	-200,000	-0,005	-0,019
-209,709	219,939	0,021	-0,024
-208,694	-52,244	0,030	0,010
-207,679	-78,069	-0,088	0,022
-206,665	-150,952	0,151	-0,008
-205,650	-0,913	0,101	-0,051
-204,636	-200,000	-0,008	-0,037
-203,621	246,734	-0,089	0,108
-202,606	175,019	-0,039	0,041
-201,592	725,041	0,025	-0,049
-200,577	-4,336	-0,053	-0,026
-199,563	226,043	0,119	0,137
-198,548	244,177	0,095	0,113
-197,533	-200,000	-0,010	0,033
-196,519	306,971	-0,066	-0,088
-195,504	64,875	-0,039	0,028
-194,490	800,000	0,038	0,075
-193,475	111,716	0,105	0,090
-192,460	179,941	0,070	0,073
-191,446	800,000	0,051	0,137
-190,431	-200,000	-0,021	0,113
-189,417	93,364	-0,052	0,042
-188,402	3,713	-0,093	-0,048
-187,387	-200,000	0,031	-0,122
-186,373	307,833	-0,109	-0,145
-185,358	-200,000	-0,025	0,140
-184,344	-152,471	0,146	0,007
-183,329	800,000	-0,034	0,091
-182,315	118,939	0,040	-0,035
-181,300	-66,895	-0,060	0,017
-180,285	340,195	-0,049	0,069
-179,271	226,907	0,029	-0,034
-178,256	178,469	0,067	-0,070
-177,242	161,463	-0,101	-0,101
-176,227	42,801	0,014	-0,009
-175,212	800,000	0,049	0,115
-174,198	-88,395	-0,116	0,024
-173,183	-98,956	-0,106	0,019
-172,169	800,000	-0,023	-0,049
-171,154	-21,385	0,090	0,039
-170,139	710,947	-0,031	0,058
-169,125	-200,000	-0,005	0,055
-168,110	-200,000	-0,019	0,073
-167,096	61,674	-0,032	-0,023
-166,081	196,860	-0,059	0,064
-165,066	188,151	-0,077	-0,082
-164,052	23,869	-0,041	0,024
-163,037	-200,000	0,017	0,151
-162,023	350,267	-0,071	0,100
-161,008	385,374	-0,035	-0,051
-159,993	800,000	0,050	0,147
-158,979	-121,427	-0,054	-0,006
-157,964	-143,075	-0,068	0,005
-156,950	800,000	0,004	-0,009
-155,935	51,885	-0,019	0,013
-154,920	-74,121	-0,046	-0,012
-153,906	471,904	-0,086	0,138
-152,891	66,182	-0,077	-0,056
-151,877	800,000	-0,069	-0,143
-150,862	390,585	-0,115	-0,170
-149,847	-200,000	0,009	-0,030
-148,833	-127,865	0,088	0,009
-147,818	423,307	0,085	0,130
-146,804	4,120	0,087	0,045
-145,789	27,492	0,038	-0,023
-144,775	-40,449	-0,111	-0,041
-143,760	-60,273	0,057	-0,017
-142,745	800,000	0,014	-0,034
-141,731	421,544	0,064	0,098
-140,716	-200,000	0,018	-0,063
-139,702	375,416	0,039	0,056
-138,687	-96,551	0,059	0,011
-137,672	800,000	0,016	0,036
-136,658	-120,622	-0,072	0,009
-135,643	306,893	-0,052	-0,069
-134,629	-83,637	0,125	-0,028
-133,614	-200,000	0,007	-0,134
-132,599	800,000	-0,033	0,089
-131,585	800,000	0,026	0,059
-130,570	52,766	-0,041	0,028
-129,556	800,000	-0,049	-0,106
-128,541	-63,370	-0,058	0,017
-127,526	464,704	0,042	-0,067
-126,512	-142,180	0,077	-0,005
-125,497	-9,150	-0,073	-0,034
-124,483	-183,872	0,057	0,001
-123,468	-200,000	0,006	-0,090
-122,453	568,201	-0,120	-0,208
-121,439	212,710	0,077	-0,086
-120,424	-200,000	-0,002	0,046
-119,410	800,000	-0,024	0,052
-118,395	90,566	0,049	0,039
