DTS Sentinel unit serial number:	SN410029Multiplexer serial number:	ORYXHardware model number:	OX2-SRSoftware version number:	ORYX F/W v4,00 Oryx Data Collector v3.7.2.0data status	okinstallation	BH3 CH2differential loss correction	single-endedforward channel	channel 2reverse channel	N/Adate	2023/12/05time	12:07:28forward acquisition time	300,00reverse acquisition time	0,00gamma	499,1914k internal	0,3196k external	0,3196temperature offset calibration	1,0000default loss term (dB/km)	0,3820temperature slope calibration	1,0000multiplexer offset coefficient	1,0000multiplexer slope coefficient	1,0000fibre end	0,00T internal ref (°C)	9,74T ext. ref 1 (°C)	-4,87T ext. ref 2 (°C)	-4,94length (m)	temperature (°C)	Stokes	anti-Stokes-744,400	327,894	-0,122	-0,171
-743,385	-2,537	-0,218	0,111
-742,371	-200,000	-0,003	-0,115
-741,356	-200,000	-0,032	0,128
-740,342	-200,000	-0,020	-0,203
-739,327	-67,766	-0,205	0,058
-738,312	548,670	-0,110	-0,193
-737,298	-28,435	-0,210	0,088
-736,283	234,611	0,056	-0,067
-735,269	448,599	-0,120	0,193
-734,254	195,221	-0,161	-0,178
-733,239	-14,475	-0,250	-0,117
-732,225	47,799	0,045	0,030
-731,210	-33,827	0,057	-0,023
-730,196	-200,000	-0,014	-0,081
-729,181	214,713	0,078	-0,090
-728,167	137,127	0,057	-0,055
-727,152	256,728	-0,022	-0,028
-726,137	-138,190	-0,209	-0,017
-725,123	-174,247	0,040	0,001
-724,108	-93,676	0,204	0,041
-723,094	227,866	-0,162	-0,192
-722,079	-200,000	-0,055	-0,213
-721,064	111,734	-0,067	-0,059
-720,050	24,072	-0,039	0,024
-719,035	-82,640	0,053	-0,012
-718,021	39,574	-0,190	-0,124
-717,006	800,000	0,057	-0,135
-715,991	246,065	-0,134	-0,165
-714,977	-200,000	0,019	-0,163
-713,962	414,421	0,018	-0,028
-712,948	-200,000	0,009	-0,041
-711,933	-200,000	-0,031	0,123
-710,918	589,167	-0,101	-0,182
-709,904	-91,923	-0,156	0,032
-708,889	800,000	-0,030	-0,072
-707,875	-200,000	0,012	-0,061
-706,860	-62,767	-0,015	0,005
-705,845	800,000	-0,043	0,131
-704,831	800,000	0,033	-0,077
-703,816	688,010	-0,080	0,153
-702,802	66,869	0,050	-0,037
-701,787	-27,070	-0,152	-0,064
-700,772	-200,000	0,018	-0,091
-699,758	-42,876	-0,069	0,025
-698,743	-200,000	-0,011	0,093
-697,729	-200,000	0,019	0,102
-696,714	-20,593	0,167	-0,074
-695,699	800,000	0,061	-0,173
-694,685	-200,000	-0,013	-0,088
-693,670	51,688	-0,074	0,051
-692,656	46,866	0,116	-0,078
-691,641	-200,000	0,022	-0,086
-690,627	800,000	0,038	0,090
-689,612	290,966	0,073	0,097
-688,597	743,220	-0,057	0,111
-687,583	369,550	-0,044	-0,065
-686,568	-200,000	-0,012	-0,069
-685,554	-89,611	-0,068	0,014
-684,539	-44,861	0,040	-0,014
-683,524	800,000	-0,050	0,102
-682,510	-200,000	0,003	-0,035
-681,495	58,430	-0,019	-0,014
-680,481	255,792	-0,107	-0,133
-679,466	-200,000	-0,013	-0,084
-678,451	168,777	-0,059	-0,061
-677,437	800,000	-0,051	-0,105
-676,422	298,133	0,060	-0,080
-675,408	-200,000	-0,005	-0,026
-674,393	-47,114	-0,125	-0,044
-673,378	-200,000	0,018	-0,130
-672,364	-200,000	0,032	-0,151
-671,349	284,121	-0,061	-0,080
-670,335	-200,000	0,020	-0,078
-669,320	-78,146	-0,107	0,026
-668,305	598,751	0,049	-0,089
-667,291	47,069	-0,068	0,046
-666,276	190,523	-0,055	0,060
-665,262	800,000	0,016	-0,044
-664,247	-115,118	-0,035	0,005
-663,232	104,791	-0,097	0,083
-662,218	-44,238	-0,090	0,032
-661,203	714,511	0,023	0,045
-660,189	800,000	-0,030	-0,086
-659,174	-7,136	-0,127	0,062
-658,159	510,336	0,101	-0,171
-657,145	25,552	-0,104	-0,063
-656,130	479,908	-0,061	-0,100
-655,116	-200,000	0,022	-0,173
-654,101	295,496	0,117	0,156
-653,086	603,830	0,031	-0,056
-652,072	325,219	0,028	0,039
-651,057	122,689	-0,067	-0,061
-650,043	-33,947	0,098	-0,039
-649,028	-76,652	-0,027	-0,007
-648,014	34,852	-0,077	-0,049
-646,999	-200,000	-0,011	0,154
-645,984	-87,310	-0,044	-0,010
-644,970	82,372	0,124	-0,098
-643,955	143,134	0,108	-0,105
-642,941	800,000	-0,029	-0,068
-641,926	-77,742	-0,139	-0,035
-640,911	-154,936	-0,085	-0,004
-639,897	-200,000	-0,039	0,154
-638,882	-130,991	-0,112	-0,011
-637,868	-200,000	0,002	-0,050
-636,853	800,000	-0,020	-0,046
-635,838	-200,000	-0,004	-0,034
-634,824	275,140	-0,082	0,106
-633,809	59,260	-0,027	0,020
-632,795	-200,000	-0,020	-0,121
-631,780	-150,928	0,076	0,004
-630,765	349,477	-0,067	-0,096
-629,751	-131,150	0,079	-0,007
-628,736	-90,127	0,111	-0,023
-627,722	-106,080	0,027	-0,004
-626,707	-200,000	0,012	0,117
-625,692	-200,000	0,010	-0,096
-624,678	128,095	-0,078	0,072
-623,663	-39,885	0,142	-0,054
-622,649	107,143	0,106	0,091
-621,634	800,000	-0,015	-0,036
-620,619	34,931	-0,120	-0,076
-619,605	-200,000	0,014	-0,216
-618,590	-51,716	0,088	0,029
-617,576	-149,472	-0,090	-0,005
-616,561	239,938	-0,015	-0,018
-615,546	-137,293	-0,049	0,004
-614,532	754,117	-0,050	-0,099
-613,517	-134,869	0,094	0,008
-612,503	292,048	-0,054	-0,071
-611,488	-118,067	0,068	0,009
-610,474	167,678	-0,050	0,052
-609,459	-181,583	0,108	0,001
-608,444	236,699	0,050	0,060
-607,430	-80,251	-0,058	-0,014
-606,415	136,360	0,062	-0,059
-605,401	800,000	-0,048	0,136
-604,386	149,443	0,061	-0,060
-603,371	291,828	0,003	-0,003
-602,357	-111,917	0,041	0,006
-601,342	249,374	0,027	0,033
-600,328	800,000	-0,050	-0,108
-599,313	-200,000	0,023	-0,095
-598,298	800,000	0,018	-0,058
-597,284	-183,303	-0,055	-0,001
-596,269	206,125	-0,050	-0,056
-595,255	-200,000	-0,003	-0,043
-594,240	469,235	-0,070	-0,115
-593,225	800,000	0,015	-0,045
-592,211	-74,225	-0,037	0,010
-591,196	399,155	-0,014	-0,021
-590,182	800,000	-0,025	-0,081
-589,167	301,951	-0,086	0,115
-588,152	58,333	-0,058	0,041
-587,138	63,335	0,038	0,028
-586,123	190,045	-0,152	-0,166
-585,109	-183,352	-0,006	0,000
-584,094	-60,603	-0,027	-0,008
-583,079	159,590	-0,025	-0,025
-582,065	-54,815	0,020	-0,006
-581,050	-200,000	0,107	0,000
-580,036	303,990	0,075	-0,100
-579,021	-98,046	0,088	-0,016
-578,006	-200,000	-0,007	-0,052
-576,992	123,754	-0,052	-0,047
-575,977	505,508	0,095	0,160
-574,963	800,000	0,003	0,008
-573,948	-200,000	0,005	0,047
-572,934	-200,000	-0,003	0,049
-571,919	-200,000	-0,012	-0,094
-570,904	800,000	0,021	0,044
-569,890	92,596	0,069	-0,057
-568,875	728,660	0,055	-0,106
-567,861	277,799	0,078	0,100
-566,846	800,000	0,077	0,202
-565,831	-13,698	-0,052	0,024
-564,817	-64,229	-0,211	0,062
-563,802	120,267	-0,059	-0,053
-562,788	146,071	-0,056	-0,054
-561,773	-1,656	0,072	-0,036
-560,758	0,911	0,077	0,040
-559,744	-109,801	0,152	-0,023
-558,729	800,000	0,084	0,178
-557,715	-200,000	-0,002	-0,117
-556,700	-64,260	-0,034	-0,010
-555,685	800,000	0,019	-0,057
-554,671	800,000	-0,023	-0,060
-553,656	196,123	-0,007	0,007
-552,642	10,410	-0,075	-0,041
-551,627	-72,011	-0,051	0,014
-550,612	688,191	-0,043	0,081
-549,598	-200,000	-0,021	-0,098
-548,583	-200,000	0,012	-0,045
-547,569	3,836	-0,126	0,066
-546,554	28,652	-0,073	-0,045
-545,539	800,000	-0,032	-0,087
-544,525	-200,000	0,026	-0,088
-543,510	-75,901	-0,053	0,013
-542,496	657,544	-0,033	-0,061
-541,481	800,000	-0,033	-0,094
-540,466	-200,000	0,038	-0,170
-539,452	296,824	0,104	-0,138
-538,437	308,850	0,066	0,089
-537,423	-145,716	-0,053	0,003
-536,408	-104,905	-0,050	0,008
-535,393	68,554	0,014	0,010
-534,379	105,134	-0,053	-0,046
-533,364	331,320	0,057	-0,080
-532,350	-94,153	-0,028	-0,005
-531,335	-200,000	0,028	0,117
-530,321	-200,000	-0,000	0,097
-529,306	86,280	-0,122	0,097
-528,291	136,156	-0,060	-0,056
-527,277	-200,000	0,039	-0,136
-526,262	-200,000	-0,005	-0,022
-525,248	-75,921	0,030	-0,008
-524,233	-200,000	0,029	0,178
-523,218	614,999	0,024	0,043
-522,204	-122,716	-0,133	0,015
-521,189	20,702	-0,067	-0,039
-520,175	-200,000	0,009	-0,048
-519,160	-87,212	0,034	0,007
-518,145	-51,921	-0,056	0,019
-517,131	-192,842	0,155	0,001
-516,116	-95,752	0,100	0,019
-515,102	180,501	-0,068	0,072
-514,087	800,000	-0,050	-0,121
-513,072	758,739	0,029	0,056
-512,058	-24,188	0,131	0,056
-511,043	183,095	-0,060	0,064
-510,029	468,158	-0,056	0,091
-509,014	-200,000	-0,010	-0,056
-507,999	-18,548	-0,105	-0,047
-506,985	-137,935	-0,070	-0,006
-505,970	-200,000	0,014	-0,105
-504,956	529,208	-0,040	0,068
-503,941	-200,000	0,020	0,093
-502,926	-164,570	-0,057	-0,002
-501,912	-196,649	0,076	-0,000
-500,897	800,000	-0,052	0,140
-499,883	-151,512	-0,136	-0,007
-498,868	800,000	-0,018	0,042
-497,853	-35,330	-0,037	-0,014
-496,839	800,000	0,060	-0,179
-495,824	-140,320	0,057	-0,004
-494,810	163,077	-0,003	0,003
-493,795	-125,239	0,069	0,008
-492,781	225,437	0,032	-0,038
-491,766	-109,023	0,027	-0,004
-490,751	-20,178	-0,123	-0,055
-489,737	180,232	-0,095	-0,101
-488,722	-9,001	0,077	0,037
-487,708	-84,119	0,137	-0,031
-486,693	800,000	0,036	0,075
-485,678	800,000	-0,027	-0,082
-484,664	2,790	-0,039	0,020
-483,649	334,635	-0,060	-0,085
-482,635	118,717	-0,121	0,108
-481,620	257,903	0,128	0,159
-480,605	-200,000	0,006	0,095
-479,591	464,965	-0,087	0,140
-478,576	10,783	0,039	-0,022
-477,562	-163,679	-0,095	-0,003
-476,547	-200,000	-0,013	-0,167
-475,532	347,758	-0,046	0,066
-474,518	-19,475	0,124	-0,055
-473,503	-140,435	-0,110	-0,008
-472,489	7,411	-0,085	0,046
-471,474	570,224	0,065	-0,114
-470,459	-200,000	-0,020	-0,128
-469,445	270,819	-0,067	-0,086
-468,430	-39,841	0,069	0,026
-467,416	800,000	-0,014	-0,039
-466,401	-200,000	0,010	-0,038
-465,386	-65,711	0,054	0,016
-464,372	800,000	0,030	0,090
-463,357	35,885	0,053	0,033
-462,343	-200,000	0,016	-0,078
-461,328	-120,763	-0,197	-0,024
-460,313	-138,022	0,160	-0,013
-459,299	-1,760	-0,042	-0,021
-458,284	121,522	-0,037	0,033
-457,270	-73,339	0,033	0,009
-456,255	-70,219	-0,145	0,039
-455,241	800,000	-0,031	-0,095
-454,226	145,157	0,070	0,067
-453,211	398,941	-0,035	-0,053
-452,197	319,776	0,074	0,101
-451,182	800,000	0,025	0,050
-450,168	800,000	-0,021	-0,057
-449,153	474,564	-0,045	0,073
-448,138	71,200	-0,100	0,074
-447,124	800,000	-0,039	-0,116
-446,109	201,262	-0,056	0,063
-445,095	149,876	0,074	0,072
-444,080	162,823	-0,069	0,070
-443,065	135,580	-0,037	0,035
-442,051	800,000	-0,043	-0,087
-441,036	106,082	-0,063	0,053
-440,022	-12,952	-0,044	0,021
-439,007	-200,000	-0,007	0,092
-437,992	28,606	-0,035	0,021
-436,978	-53,946	0,124	0,040
-435,963	-200,000	-0,001	-0,157
-434,949	606,214	-0,040	-0,073
-433,934	-53,963	-0,126	-0,041
-432,919	203,342	-0,032	-0,036
-431,905	671,192	0,048	-0,090
-430,890	800,000	0,012	-0,037
-429,876	-200,000	0,004	0,105
-428,861	49,495	0,045	0,030
-427,846	59,730	0,081	-0,058
-426,832	206,525	0,028	0,032
-425,817	20,430	-0,098	-0,057
-424,803	-115,416	0,063	-0,008
-423,788	-79,222	-0,062	0,015
-422,773	-53,202	0,046	0,015
-421,759	346,377	0,065	-0,092
-420,744	-200,000	0,009	0,091
-419,730	86,103	0,033	0,026
-418,715	-3,346	-0,197	-0,098
-417,701	-200,000	0,004	0,021
-416,686	446,932	-0,009	0,014
-415,671	292,315	0,057	-0,074
-414,657	-21,515	0,125	0,054
-413,642	165,015	0,033	0,033
-412,628	-200,000	0,008	-0,052
-411,613	27,865	-0,044	0,027
-410,598	199,336	0,023	0,025
-409,584	-40,977	0,049	-0,018
-408,569	-116,320	0,082	0,011
-407,555	800,000	0,034	0,082
-406,540	-200,000	0,000	0,022
-405,525	-200,000	-0,026	0,149
-404,511	-68,196	-0,029	-0,008
-403,496	800,000	0,033	-0,084
-402,482	451,440	-0,037	0,059
-401,467	800,000	-0,037	0,097
-400,452	-200,000	0,023	0,208
-399,438	13,478	0,093	0,052
-398,423	-45,845	0,083	0,029
-397,409	554,991	0,079	-0,137
-396,394	236,032	-0,082	-0,098
-395,379	800,000	-0,021	-0,060
-394,365	240,383	0,063	0,076
-393,350	-116,145	0,020	-0,003
-392,336	-200,000	0,022	0,079
-391,321	800,000	-0,032	0,079
-390,306	143,769	0,038	0,037
-389,292	-200,000	0,009	0,053
-388,277	63,370	0,043	0,031
-387,263	88,701	0,041	0,033
-386,248	-25,060	-0,089	0,038
-385,233	61,141	0,102	-0,073
-384,219	800,000	0,051	-0,106
-383,204	-200,000	0,007	-0,130
-382,190	-54,502	0,032	-0,010
-381,175	800,000	0,011	-0,024
-380,160	91,312	0,050	0,040
-379,146	-200,000	-0,004	0,130
-378,131	714,089	0,028	0,053
-377,117	431,994	-0,074	0,116
-376,102	-200,000	0,020	-0,071
-375,088	-200,000	0,000	-0,194
-374,073	757,870	0,047	-0,091
-373,058	86,852	-0,081	0,064
-372,044	-200,000	-0,014	0,180
-371,029	800,000	-0,012	0,027
-370,015	-200,000	-0,016	-0,117
-369,000	91,289	0,026	0,021
-367,985	-200,000	-0,014	-0,123
-366,971	43,899	-0,077	-0,051
-365,956	-11,368	-0,061	0,029
-364,942	-96,078	-0,040	-0,008
-363,927	-166,249	-0,066	-0,002
-362,912	21,533	0,089	-0,052
-361,898	-200,000	0,014	-0,052
-360,883	236,213	-0,037	0,044
-359,869	-200,000	-0,011	0,122
-358,854	-180,674	0,069	0,001
-357,839	-97,483	-0,103	0,019
-356,825	-169,520	0,098	0,002
-355,810	-200,000	0,007	0,054
-354,796	-36,586	-0,128	-0,049
-353,781	-200,000	0,001	0,033
-352,766	-5,093	0,165	-0,081
-351,752	-200,000	0,006	-0,061
-350,737	800,000	0,011	-0,032
-349,723	269,006	-0,051	0,064
-348,708	274,973	0,106	0,135
-347,693	94,082	-0,088	0,071
-346,679	587,564	-0,042	-0,075
-345,664	-74,055	-0,062	0,016
-344,650	-200,000	0,027	-0,124
-343,635	181,714	-0,003	0,003
-342,620	191,272	-0,027	-0,029
-341,606	28,166	-0,067	-0,041
-340,591	-16,924	0,091	-0,041
-339,577	800,000	0,020	-0,054
-338,562	35,954	-0,145	-0,091
-337,548	336,863	0,089	-0,125
-336,533	-3,232	0,135	0,067
-335,518	-200,000	-0,034	0,190
-334,504	800,000	0,019	0,060
-333,489	-53,871	-0,077	0,025
-332,475	-55,824	0,047	-0,015
-331,460	-153,529	-0,022	0,001
-330,445	-200,000	-0,010	-0,135
-329,431	470,076	-0,034	0,054
-328,416	6,350	0,038	-0,020
-327,402	350,070	-0,069	0,098
-326,387	800,000	-0,016	-0,044
-325,372	-51,222	0,047	0,016
-324,358	99,374	-0,070	0,058
-323,343	386,252	-0,063	0,093
-322,329	-46,816	0,069	0,024
-321,314	-130,897	-0,078	-0,007
-320,299	758,623	-0,066	0,128
-319,285	-55,603	0,077	-0,024
-318,270	-200,000	-0,010	-0,051
-317,256	-92,090	-0,062	0,012
-316,241	800,000	-0,042	0,097
-315,226	-200,000	-0,008	0,048
-314,212	-9,490	0,136	0,065
-313,197	311,128	-0,043	0,057
-312,183	-200,000	-0,002	-0,086
-311,168	429,048	-0,029	0,045
-310,153	-200,000	0,003	-0,011
-309,139	-173,405	-0,019	0,000
-308,124	118,093	-0,132	0,117
-307,110	700,109	-0,053	0,099
-306,095	378,949	-0,022	0,032
-305,080	-200,000	0,002	0,037
-304,066	231,286	-0,008	0,009
-303,051	-112,916	0,092	0,013
-302,037	164,054	0,034	0,034
-301,022	152,498	0,087	-0,085
-300,008	-0,529	-0,066	-0,033
-298,993	279,417	0,040	0,051
-297,978	800,000	-0,025	0,076
-296,964	291,175	0,020	-0,026
-295,949	-200,000	-0,029	-0,138
-294,935	800,000	-0,042	-0,110
-293,920	800,000	-0,058	-0,147
-292,905	8,139	0,087	0,047
-291,891	-200,000	0,010	0,091
-290,876	800,000	0,053	0,107
-289,862	-200,000	0,003	-0,026
-288,847	27,680	-0,065	-0,039
-287,832	6,051	0,022	-0,011
-286,818	69,242	0,128	0,094
-285,803	-122,512	0,177	0,020
-284,789	-32,104	-0,053	-0,021
-283,774	219,411	-0,108	0,124
-282,759	-66,579	-0,067	0,019
-281,745	800,000	-0,035	-0,085
-280,730	-46,957	-0,093	0,032
-279,716	-160,057	-0,127	0,005
-278,701	800,000	0,014	0,038
-277,686	-6,210	0,120	-0,059
-276,672	-200,000	0,038	0,200
-275,657	-103,620	-0,070	0,012
-274,643	-200,000	0,001	-0,015
-273,628	-123,159	0,042	-0,005
-272,613	-25,448	0,046	0,019
-271,599	-200,000	0,037	0,152
-270,584	-102,643	0,145	0,024
-269,570	361,438	-0,035	0,050
-268,555	-13,597	-0,057	-0,026
-267,540	225,165	0,038	-0,044
-266,526	-81,429	-0,084	-0,020
-265,511	800,000	-0,060	-0,144
-264,497	52,163	0,036	0,025
-263,482	65,030	0,050	0,036
-262,467	7,778	0,094	0,050
-261,453	-184,217	-0,055	-0,001
-260,438	-134,784	-0,089	-0,008
-259,424	800,000	-0,019	-0,056
-258,409	800,000	0,021	-0,055
-257,395	-200,000	0,005	0,087
-256,380	174,356	0,063	0,065
-255,365	800,000	0,040	0,085
-254,351	682,596	0,016	0,031
-253,336	135,841	0,028	0,026
-252,322	791,418	-0,039	-0,077
-251,307	87,365	0,033	0,026
-250,292	111,244	-0,089	0,077
-249,278	-150,432	0,100	-0,005
-248,263	-141,834	0,126	-0,009
-247,249	-105,648	-0,086	0,014
-246,234	370,750	-0,082	-0,119
-245,219	-200,000	0,009	-0,059
-244,205	-200,000	0,003	-0,109
-243,190	-99,771	0,078	0,014
-242,176	187,699	0,040	0,043
-241,161	-200,000	0,067	0,213
-240,146	-167,666	-0,063	-0,002
-239,132	-200,000	-0,015	0,058
-238,117	800,000	-0,013	-0,026
-237,103	-200,000	-0,004	0,064
-236,088	23,121	0,024	-0,014
-235,073	3,938	0,114	0,059
-234,059	426,454	-0,042	-0,065
-233,044	-24,209	0,148	-0,063
-232,030	72,513	-0,048	-0,035
-231,015	187,150	0,057	-0,061
-230,000	179,973	-0,052	-0,055
-228,986	365,883	-0,057	0,082
-227,971	325,210	-0,047	-0,065
-226,957	106,492	-0,038	0,032
-225,942	308,972	0,015	0,020
-224,927	-3,159	0,104	-0,052
-223,913	270,694	0,074	0,093
-222,898	-99,927	-0,117	-0,021
-221,884	-200,000	0,008	0,133
-220,869	387,440	0,054	-0,080
-219,855	81,490	-0,034	0,026
-218,840	800,000	0,023	-0,047
-217,825	346,170	-0,078	-0,109
-216,811	237,686	0,041	0,048
-215,796	7,116	0,063	-0,034
-214,782	-183,183	0,098	0,001
-213,767	-200,000	0,016	-0,069
-212,752	-200,000	0,011	0,166
-211,738	126,597	-0,042	0,038
-210,723	-4,924	-0,101	-0,050
-209,709	57,833	-0,093	0,065
-208,694	-95,652	0,064	-0,012
-207,679	549,341	0,027	-0,046
-206,665	800,000	-0,047	-0,101
-205,650	-130,763	0,128	0,012
-204,636	-121,742	0,105	0,012
-203,621	-200,000	-0,001	0,031
-202,606	601,723	-0,086	0,154
-201,592	341,530	-0,008	0,011
-200,577	-200,000	-0,008	0,116
-199,563	659,616	-0,062	-0,115
-198,548	155,123	0,047	0,046
-197,533	53,894	0,118	-0,081
-196,519	-200,000	-0,016	-0,086
-195,504	291,181	-0,033	-0,043
-194,490	800,000	0,029	0,059
-193,475	-64,953	0,052	0,015
-192,460	-200,000	-0,007	0,077
-191,446	514,436	-0,045	-0,076
-190,431	-123,242	0,102	0,011
-189,417	800,000	0,026	-0,063
-188,402	-102,165	-0,036	-0,006
-187,387	30,488	-0,050	-0,030
-186,373	423,549	-0,044	-0,068
-185,358	-20,315	0,037	0,016
-184,344	124,527	-0,015	-0,013
-183,329	-73,866	0,052	-0,013
-182,315	31,017	0,040	0,025
-181,300	-154,606	-0,040	-0,002
-180,285	8,747	-0,150	0,080
-179,271	217,501	0,117	-0,133
-178,256	297,809	0,030	0,039
-177,242	190,289	0,107	-0,114
-176,227	-200,000	-0,022	0,092
-175,212	235,783	0,068	0,080
-174,198	800,000	0,024	0,062
-173,183	31,770	0,037	-0,023
-172,169	-200,000	-0,005	0,018
-171,154	800,000	0,017	-0,041
-170,139	-200,000	0,023	0,102
-169,125	-84,786	0,140	-0,031
-168,110	7,739	-0,060	0,032
-167,096	169,278	0,043	0,044
-166,081	485,366	0,023	-0,038
-165,066	47,147	-0,040	0,027
-164,052	155,193	-0,076	-0,075
-163,037	77,832	-0,055	0,042
-162,023	-200,000	0,024	0,139
-161,008	-76,435	0,193	-0,048
-159,993	-137,383	-0,055	0,004
-158,979	-200,000	-0,003	0,072
-157,964	-50,422	-0,072	-0,024
-156,950	-200,000	0,035	-0,187
-155,935	-91,696	0,075	0,015
-154,920	-31,444	-0,030	0,012
-153,906	-200,000	-0,026	0,087
-152,891	320,352	0,082	-0,111
-151,877	192,892	0,019	-0,021
-150,862	10,843	0,014	0,008
-149,847	-200,000	-0,016	-0,103
-148,833	379,702	-0,040	0,058
-147,818	-200,000	0,001	0,043
-146,804	491,566	0,045	-0,073
-145,789	-200,000	0,002	-0,033
-144,775	-200,000	0,000	-0,066
-143,760	-200,000	-0,009	-0,130
-142,745	228,642	-0,101	-0,117
-141,731	133,435	-0,092	-0,085
-140,716	-101,748	-0,126	-0,022
-139,702	27,377	0,067	-0,040
-138,687	-39,543	0,046	-0,017
-137,672	-89,186	0,102	-0,021
-136,658	-135,148	0,115	0,010
-135,643	-200,000	0,010	0,154
-134,629	-200,000	0,011	0,079
-133,614	11,703	0,056	-0,031
-132,599	83,142	0,174	0,135
-131,585	800,000	0,027	-0,058
-130,570	558,874	-0,056	-0,096
-129,556	-112,193	-0,114	-0,016
-128,541	-200,000	0,001	-0,079
-127,526	-200,000	-0,005	0,106
-126,512	800,000	0,018	0,054
-125,497	-200,000	0,020	0,091
-124,483	40,424	0,101	-0,064
-123,468	-200,000	0,007	0,119
-122,453	-48,816	-0,048	0,016
-121,439	-200,000	-0,005	-0,019
-120,424	800,000	-0,036	-0,104
-119,410	-200,000	0,017	-0,084
