DTS Sentinel unit serial number:	SN410029Multiplexer serial number:	ORYXHardware model number:	OX2-SRSoftware version number:	ORYX F/W v4,00 Oryx Data Collector v3.7.2.0data status	okinstallation	BH3 CH2differential loss correction	single-endedforward channel	channel 2reverse channel	N/Adate	2023/12/05time	20:57:28forward acquisition time	300,00reverse acquisition time	0,00gamma	499,1914k internal	0,3193k external	0,3193temperature offset calibration	1,0000default loss term (dB/km)	0,3820temperature slope calibration	1,0000multiplexer offset coefficient	1,0000multiplexer slope coefficient	1,0000fibre end	0,00T internal ref (°C)	10,39T ext. ref 1 (°C)	-4,39T ext. ref 2 (°C)	-4,48length (m)	temperature (°C)	Stokes	anti-Stokes-744,400	-111,382	-0,137	0,020
-743,385	800,000	-0,073	0,218
-742,371	-166,407	0,157	0,005
-741,356	-30,006	-0,140	0,058
-740,342	153,427	-0,098	-0,098
-739,327	3,699	-0,323	0,171
-738,312	800,000	-0,070	-0,180
-737,298	110,157	-0,214	0,187
-736,283	600,990	-0,050	-0,091
-735,269	-16,969	-0,167	0,077
-734,254	77,342	0,048	-0,037
-733,239	-64,114	-0,299	-0,088
-732,225	116,575	0,062	-0,055
-731,210	139,902	0,095	0,091
-730,196	194,269	0,078	-0,086
-729,181	112,664	0,047	-0,041
-728,167	-25,155	-0,080	0,035
-727,152	67,183	-0,120	-0,089
-726,137	-38,651	-0,108	0,041
-725,123	194,475	-0,111	-0,123
-724,108	-96,796	-0,119	0,023
-723,094	62,995	-0,077	-0,056
-722,079	472,704	0,033	0,055
-721,064	-200,000	0,001	-0,150
-720,050	-107,359	0,043	-0,007
-719,035	-16,184	-0,077	0,035
-718,021	155,355	0,035	-0,035
-717,006	800,000	-0,058	-0,144
-715,991	-64,708	0,111	-0,033
-714,977	-200,000	-0,046	-0,165
-713,962	-80,282	-0,059	0,014
-712,948	-87,960	0,072	0,016
-711,933	-193,795	-0,062	-0,000
-710,918	-185,863	-0,136	0,001
-709,904	-200,000	0,010	-0,033
-708,889	800,000	-0,056	-0,137
-707,875	345,172	0,044	-0,062
-706,860	188,259	-0,113	-0,123
-705,845	-200,000	0,003	0,028
-704,831	81,093	0,091	0,072
-703,816	510,688	0,042	-0,072
-702,802	436,275	-0,030	-0,047
-701,787	154,413	-0,179	-0,179
-700,772	800,000	-0,001	0,002
-699,758	-174,602	-0,178	-0,004
-698,743	-200,000	0,002	0,083
-697,729	800,000	0,053	0,145
-696,714	-200,000	-0,008	0,074
-695,699	432,016	-0,072	-0,113
-694,685	-200,000	0,000	0,105
-693,670	256,051	-0,046	0,057
-692,656	-200,000	-0,039	-0,128
-691,641	800,000	-0,012	-0,034
-690,627	49,076	-0,056	0,038
-689,612	-155,241	0,122	-0,006
-688,597	-200,000	-0,039	-0,171
-687,583	800,000	-0,044	-0,092
-686,568	49,603	-0,117	-0,080
-685,554	-45,496	-0,106	-0,038
-684,539	472,516	0,098	0,162
-683,524	800,000	0,021	-0,064
-682,510	182,779	0,016	0,017
-681,495	800,000	0,012	-0,034
-680,481	-200,000	-0,015	-0,100
-679,466	-200,000	-0,004	0,114
-678,451	33,974	-0,099	-0,063
-677,437	-200,000	-0,023	0,137
-676,422	-200,000	-0,045	0,146
-675,408	-74,960	0,151	-0,039
-674,393	-117,757	-0,054	-0,007
-673,378	-200,000	0,004	-0,118
-672,364	423,967	-0,062	-0,097
-671,349	-200,000	-0,017	-0,059
-670,335	-200,000	-0,004	0,081
-669,320	535,732	-0,074	0,129
-668,305	-68,657	-0,044	-0,012
-667,291	-84,571	0,034	0,008
-666,276	-200,000	0,004	-0,031
-665,262	-106,121	-0,032	-0,005
-664,247	191,470	-0,048	-0,052
-663,232	800,000	-0,090	0,182
-662,218	-165,386	0,058	-0,002
-661,203	-200,000	-0,016	0,093
-660,189	221,358	0,074	0,087
-659,174	-1,095	-0,127	0,065
-658,159	-200,000	-0,002	0,008
-657,145	800,000	0,078	-0,192
-656,130	-200,000	0,011	-0,038
-655,116	-121,802	-0,240	-0,028
-654,101	-200,000	-0,048	-0,164
-653,086	243,299	-0,128	-0,157
-652,072	-91,726	-0,105	-0,021
-651,057	633,156	0,016	-0,030
-650,043	-141,865	-0,120	0,009
-649,028	800,000	-0,043	-0,138
-648,014	800,000	-0,021	0,063
-646,999	-102,113	-0,038	-0,007
-645,984	733,155	-0,010	0,019
-644,970	402,484	-0,070	-0,107
-643,955	800,000	-0,029	-0,071
-642,941	-188,939	-0,068	-0,001
-641,926	-200,000	0,018	-0,083
-640,911	126,596	-0,038	0,035
-639,897	-87,653	-0,039	0,008
-638,882	800,000	0,031	-0,076
-637,868	-135,986	-0,038	0,003
-636,853	383,890	0,043	-0,065
-635,838	-69,922	-0,030	0,008
-634,824	-71,516	0,120	-0,032
-633,809	-80,104	0,067	0,016
-632,795	-62,251	0,123	-0,037
-631,780	800,000	0,047	0,110
-630,765	-87,280	-0,166	0,036
-629,751	800,000	0,023	-0,058
-628,736	-200,000	0,011	0,059
-627,722	58,874	-0,097	-0,069
-626,707	63,374	0,026	0,019
-625,692	-122,731	-0,038	0,004
-624,678	-200,000	-0,011	0,106
-623,663	-36,093	-0,068	-0,027
-622,649	-200,000	-0,022	-0,222
-621,634	-32,096	-0,232	0,094
-620,619	314,580	0,048	-0,065
-619,605	-200,000	0,041	-0,134
-618,590	-74,672	-0,080	0,021
-617,576	54,137	-0,053	0,037
-616,561	-10,071	0,070	-0,034
-615,546	-96,090	0,059	-0,011
-614,532	1,030	-0,042	0,022
-613,517	261,608	0,059	0,074
-612,503	-78,381	-0,144	-0,036
-611,488	-78,200	0,128	0,032
-610,474	-81,879	-0,019	0,004
-609,459	-178,600	0,049	0,001
-608,444	-32,558	-0,080	0,032
-607,430	-55,626	0,093	-0,030
-606,415	-160,043	-0,182	-0,007
-605,401	-118,858	-0,060	0,008
-604,386	-200,000	-0,029	-0,102
-603,371	-200,000	0,004	-0,088
-602,357	250,654	-0,080	0,099
-601,342	223,880	0,032	0,038
-600,328	-149,892	-0,111	0,006
-599,313	-200,000	-0,027	0,089
-598,298	291,775	0,053	-0,069
-597,284	-135,234	0,024	-0,002
-596,269	-200,000	-0,005	0,033
-595,255	-105,622	0,091	0,015
-594,240	800,000	-0,004	-0,011
-593,225	199,287	-0,114	-0,126
-592,211	-109,292	0,073	-0,011
-591,196	-138,737	-0,101	-0,008
-590,182	-200,000	-0,001	-0,050
-589,167	-68,593	-0,205	0,057
-588,152	-200,000	0,015	0,077
-587,138	26,212	-0,013	-0,008
-586,123	-200,000	0,021	-0,072
-585,109	421,391	-0,017	0,026
-584,094	-200,000	0,011	-0,114
-583,079	-164,596	0,123	-0,004
-582,065	800,000	-0,005	-0,014
-581,050	-200,000	-0,010	-0,060
-580,036	-200,000	0,002	0,030
-579,021	205,026	-0,056	-0,063
-578,006	-102,079	-0,090	-0,016
-576,992	-200,000	0,009	0,058
-575,977	747,775	-0,063	0,123
-574,963	-7,221	0,010	0,005
-573,948	-139,734	0,120	0,009
-572,934	-59,765	0,067	-0,021
-571,919	800,000	0,026	-0,053
-570,904	53,565	0,031	0,022
-569,890	-147,542	-0,138	0,008
-568,875	80,264	-0,037	0,029
-567,861	64,902	0,110	-0,080
-566,846	382,467	0,005	-0,007
-565,831	800,000	-0,067	0,142
-564,817	-123,968	-0,137	0,015
-563,802	-135,555	0,026	0,002
-562,788	-200,000	-0,019	-0,121
-561,773	-200,000	0,017	0,068
-560,758	800,000	0,015	0,037
-559,744	-200,000	-0,002	-0,025
-558,729	615,990	0,052	-0,094
-557,715	333,083	-0,031	0,044
-556,700	-200,000	-0,005	-0,173
-555,685	-200,000	0,035	-0,154
-554,671	-73,568	-0,116	-0,030
-553,656	800,000	0,023	0,061
-552,642	800,000	-0,052	0,116
-551,627	-200,000	0,011	-0,056
-550,612	313,106	0,051	0,069
-549,598	-130,158	-0,099	-0,010
-548,583	800,000	0,036	0,083
-547,569	-200,000	-0,016	-0,092
-546,554	21,377	0,032	0,019
-545,539	444,284	0,043	-0,068
-544,525	387,681	-0,024	-0,036
-543,510	-71,972	-0,063	-0,017
-542,496	91,397	-0,020	0,016
-541,481	0,555	-0,172	-0,089
-540,466	233,302	-0,068	-0,081
-539,452	568,567	-0,067	-0,118
-538,437	-88,211	0,092	0,020
-537,423	505,322	-0,037	-0,062
-536,408	-200,000	-0,028	-0,136
-535,393	173,068	-0,105	0,110
-534,379	-200,000	-0,034	-0,137
-533,364	-200,000	0,046	-0,199
-532,350	143,541	0,087	0,084
-531,335	-57,573	-0,102	0,032
-530,321	-40,428	-0,008	-0,003
-529,306	-144,207	-0,071	0,005
-528,291	800,000	-0,020	0,050
-527,277	-200,000	0,023	-0,132
-526,262	67,506	0,037	-0,027
-525,248	-39,847	-0,119	-0,045
-524,233	321,364	0,011	0,015
-523,218	-200,000	0,025	0,182
-522,204	-80,356	-0,049	0,012
-521,189	-200,000	-0,004	0,024
-520,175	-200,000	0,011	-0,183
-519,160	800,000	-0,045	-0,115
-518,145	-150,876	0,177	0,010
-517,131	-81,194	-0,064	0,015
-516,116	-52,582	-0,057	-0,019
-515,102	-61,728	-0,065	-0,019
-514,087	-80,759	-0,099	0,023
-513,072	-200,000	0,003	-0,080
-512,058	-26,597	-0,122	-0,051
-511,043	115,071	0,081	-0,072
-510,029	386,115	0,069	0,103
-509,014	-21,087	-0,073	0,032
-507,999	-81,887	-0,085	-0,020
-506,985	581,828	0,020	0,036
-505,970	44,306	-0,117	-0,078
-504,956	-200,000	0,023	-0,087
-503,941	46,045	-0,144	-0,096
-502,926	-162,085	0,156	0,006
-501,912	-198,092	-0,017	0,000
-500,897	163,478	0,047	0,048
-499,883	-200,000	-0,051	-0,182
-498,868	-200,000	-0,018	-0,092
-497,853	182,833	0,033	0,036
-496,839	-122,393	0,091	-0,011
-495,824	-53,061	0,146	0,048
-494,810	-151,879	0,088	0,005
-493,795	-18,888	0,095	-0,043
-492,781	-200,000	0,027	-0,100
-491,766	-200,000	0,022	-0,106
-490,751	214,037	-0,115	0,131
-489,737	327,994	-0,082	-0,114
-488,722	18,613	0,022	-0,012
-487,708	-200,000	0,015	0,210
-486,693	-33,546	0,072	-0,029
-485,678	121,719	-0,014	0,013
-484,664	37,317	0,039	-0,025
-483,649	-200,000	-0,028	0,132
-482,635	-200,000	0,000	-0,046
-481,620	138,289	0,047	0,045
-480,605	41,800	0,096	-0,063
-479,591	-200,000	-0,001	-0,065
-478,576	319,461	-0,059	0,081
-477,562	158,332	-0,061	0,061
-476,547	136,337	-0,067	-0,063
-475,532	-55,168	0,009	0,003
-474,518	-82,418	0,043	-0,010
-473,503	800,000	-0,038	-0,078
-472,489	42,079	-0,093	0,061
-471,474	-80,147	-0,010	-0,002
-470,459	-200,000	-0,015	-0,117
-469,445	-200,000	0,002	0,048
-468,430	-200,000	0,011	-0,041
-467,416	800,000	0,045	0,091
-466,401	-80,166	0,089	0,021
-465,386	-200,000	0,022	0,076
-464,372	800,000	-0,028	-0,083
-463,357	-78,884	-0,025	-0,006
-462,343	38,196	-0,056	0,036
-461,328	800,000	0,030	0,062
-460,313	-200,000	-0,026	0,105
-459,299	57,497	0,197	-0,138
-458,284	800,000	-0,046	-0,122
-457,270	-200,000	-0,021	-0,070
-456,255	-97,036	-0,056	-0,010
-455,241	800,000	0,022	-0,048
-454,226	800,000	0,022	-0,049
-453,211	-200,000	-0,014	-0,067
-452,197	800,000	0,067	-0,161
-451,182	-200,000	0,003	-0,055
-450,168	193,172	0,063	0,069
-449,153	800,000	-0,025	-0,058
-448,138	-124,193	-0,084	0,009
-447,124	-111,726	0,039	-0,006
-446,109	63,891	-0,052	0,038
-445,095	68,585	0,140	0,103
-444,080	352,759	-0,042	0,061
-443,065	229,893	-0,023	0,028
-442,051	43,746	-0,121	-0,080
-441,036	97,219	-0,083	-0,069
-440,022	-200,000	0,004	0,020
-439,007	-200,000	-0,002	0,041
-437,992	-200,000	0,016	-0,132
-436,978	-200,000	0,032	0,162
-435,963	-200,000	0,018	0,259
-434,949	-142,129	0,171	0,012
-433,934	691,540	0,030	-0,058
-432,919	159,617	-0,073	-0,073
-431,905	164,720	-0,024	-0,025
-430,890	117,452	0,175	0,155
-429,876	-200,000	0,011	-0,037
-428,861	301,969	0,036	0,048
-427,846	-200,000	0,000	0,028
-426,832	-126,599	-0,094	-0,010
-425,817	19,570	-0,069	0,040
-424,803	531,568	-0,016	0,028
-423,788	126,287	-0,064	0,059
-422,773	683,134	0,046	0,087
-421,759	691,178	0,061	0,116
-420,744	186,936	-0,035	-0,038
-419,730	-90,480	0,182	0,038
-418,715	-122,061	-0,139	-0,016
-417,701	89,934	0,084	0,068
-416,686	3,374	0,256	0,134
-415,671	-200,000	0,007	0,096
-414,657	-200,000	-0,027	0,176
-413,642	255,201	0,077	0,095
-412,628	800,000	0,042	-0,094
-411,613	-200,000	0,005	-0,058
-410,598	-42,819	0,057	-0,021
-409,584	800,000	0,015	-0,034
-408,569	-200,000	-0,015	0,084
-407,555	-28,709	0,046	0,019
-406,540	-26,705	0,149	0,062
-405,525	134,761	-0,189	0,177
-404,511	-200,000	0,006	-0,094
-403,496	566,312	-0,044	0,078
-402,482	215,448	0,005	0,006
-401,467	58,642	0,144	-0,102
-400,452	-200,000	-0,013	-0,234
-399,438	-107,598	0,084	0,013
-398,423	-200,000	-0,033	0,150
-397,409	-200,000	0,004	-0,054
-396,394	104,356	0,030	-0,026
-395,379	-6,079	0,070	0,034
-394,365	341,842	0,077	0,109
-393,350	321,530	0,055	-0,076
-392,336	52,003	0,037	0,025
-391,321	87,972	0,088	0,070
-390,306	-200,000	-0,014	-0,138
-389,292	588,175	0,043	0,077
-388,277	-133,309	0,081	-0,007
-387,263	-17,754	0,137	0,062
-386,248	116,361	0,050	-0,044
-385,233	172,591	0,073	0,076
-384,219	800,000	-0,021	0,047
-383,204	-89,235	-0,051	0,011
-382,190	-8,828	-0,158	-0,076
-381,175	-200,000	-0,007	-0,153
-380,160	-117,580	-0,035	0,004
-379,146	53,611	0,158	0,109
-378,131	-55,429	0,044	-0,014
-377,117	-200,000	-0,021	-0,098
-376,102	-200,000	-0,029	-0,127
-375,088	-200,000	0,021	-0,140
-374,073	-78,734	0,104	0,025
-373,058	800,000	-0,028	0,057
-372,044	-38,819	0,173	-0,065
-371,029	441,919	-0,042	0,066
-370,015	46,952	-0,036	-0,024
-369,000	-99,380	-0,119	0,021
-367,985	-11,767	0,015	-0,007
-366,971	497,996	0,058	0,096
-365,956	601,754	0,059	0,106
-364,942	-73,179	0,055	0,014
-363,927	-181,472	0,021	-0,000
-362,912	-86,936	-0,099	0,022
-361,898	-7,575	-0,153	-0,074
-360,883	258,618	0,060	0,075
-359,869	68,350	-0,041	-0,030
-358,854	-86,880	0,073	-0,016
-357,839	125,156	0,021	0,019
-356,825	800,000	0,060	0,123
-355,810	704,149	-0,030	0,058
-354,796	200,487	0,091	0,100
-353,781	-104,249	-0,102	-0,017
-352,766	317,438	0,069	-0,094
-351,752	-200,000	-0,006	0,078
-350,737	-200,000	-0,006	-0,092
-349,723	33,286	0,096	-0,060
-348,708	-16,993	-0,014	-0,006
-347,693	-52,313	-0,044	0,015
-346,679	800,000	0,014	-0,040
-345,664	-108,404	0,067	0,010
-344,650	-90,917	0,048	-0,010
-343,635	800,000	-0,019	0,049
-342,620	-200,000	0,008	0,031
-341,606	-200,000	-0,033	0,106
-340,591	800,000	-0,033	0,066
-339,577	115,004	0,069	0,060
-338,562	121,016	0,064	-0,057
-337,548	2,511	-0,090	-0,047
-336,533	48,694	0,057	0,038
-335,518	350,420	-0,090	0,128
-334,504	198,523	0,120	-0,131
-333,489	-87,768	-0,086	0,018
-332,475	-101,710	-0,093	-0,016
-331,460	24,998	0,035	0,021
-330,445	800,000	-0,056	-0,155
-329,431	-89,067	0,111	0,023
-328,416	800,000	-0,046	0,143
-327,402	21,021	0,011	-0,006
-326,387	-200,000	-0,016	0,107
-325,372	-118,904	-0,027	-0,003
-324,358	-200,000	-0,014	0,048
-323,343	-34,042	-0,055	0,022
-322,329	59,951	0,068	0,048
-321,314	-30,368	0,119	-0,048
-320,299	800,000	-0,007	-0,020
-319,285	-98,368	-0,096	0,017
-318,270	-200,000	0,002	0,105
-317,256	-200,000	0,014	0,074
-316,241	2,987	-0,159	0,083
-315,226	-1,732	-0,143	0,072
-314,212	-35,777	0,075	0,029
-313,197	-200,000	0,004	-0,015
-312,183	-106,263	0,063	0,010
-311,168	-200,000	0,004	-0,042
-310,153	-200,000	0,016	-0,074
-309,139	78,131	0,052	0,040
-308,124	799,541	0,052	0,103
-307,110	-164,017	-0,100	0,003
-306,095	47,913	0,061	0,041
-305,080	50,282	-0,063	0,042
-304,066	395,289	0,036	-0,054
-303,051	-139,587	-0,083	-0,006
-302,037	-130,948	-0,108	-0,010
-301,022	129,098	0,070	0,064
-300,008	509,332	-0,006	0,010
-298,993	800,000	0,020	-0,047
-297,978	89,864	0,052	0,041
-296,964	-126,941	-0,164	0,017
-295,949	177,720	0,021	-0,022
-294,935	170,841	-0,040	-0,042
-293,920	-11,663	0,079	-0,037
-292,905	-16,699	0,067	0,030
-291,891	15,259	0,153	0,086
-290,876	800,000	-0,032	-0,071
-289,862	-119,969	-0,031	0,004
-288,847	28,896	-0,098	0,059
-287,832	322,056	-0,072	-0,098
-286,818	424,055	0,063	0,097
-285,803	191,051	-0,067	0,073
-284,789	-200,000	0,007	-0,021
-283,774	-10,021	-0,016	-0,008
-282,759	-200,000	0,016	0,074
-281,745	-40,064	-0,118	0,044
-280,730	22,537	-0,086	-0,050
-279,716	-27,696	0,097	-0,040
-278,701	-200,000	-0,039	0,162
-277,686	516,803	0,061	0,102
-276,672	-200,000	0,015	0,053
-275,657	684,706	-0,065	0,123
-274,643	800,000	-0,020	0,053
-273,628	-153,087	-0,051	-0,003
-272,613	-200,000	-0,004	-0,103
-271,599	-56,145	-0,027	-0,008
-270,584	340,921	-0,056	0,079
-269,570	588,798	-0,016	-0,029
-268,555	-20,636	-0,111	0,049
-267,540	-154,841	-0,027	-0,001
-266,526	109,798	-0,064	-0,055
-265,511	800,000	0,068	-0,171
-264,497	41,786	-0,059	-0,038
-263,482	34,708	0,076	0,048
-262,467	46,827	-0,083	0,055
-261,453	8,387	-0,050	0,027
-260,438	-200,000	-0,001	-0,086
-259,424	-47,957	-0,067	0,023
-258,409	800,000	-0,011	0,023
-257,395	119,903	-0,055	-0,048
-256,380	-24,693	0,121	0,051
-255,365	-105,635	0,123	-0,020
-254,351	-200,000	0,006	0,058
-253,336	31,849	-0,123	0,076
-252,322	416,500	0,071	0,108
-251,307	162,951	0,105	-0,106
-250,292	281,773	-0,048	-0,062
-249,278	790,035	0,043	0,085
-248,263	800,000	0,058	-0,122
-247,249	-116,620	-0,073	-0,010
-246,234	-200,000	-0,014	-0,048
-245,219	409,091	-0,039	0,059
-244,205	80,647	0,073	-0,056
-243,190	-47,233	-0,073	-0,025
-242,176	588,422	0,002	-0,003
-241,161	-26,672	-0,142	0,059
-240,146	182,498	0,108	-0,113
-239,132	800,000	0,023	0,069
-238,117	206,256	0,019	0,021
-237,103	-117,412	-0,108	-0,014
-236,088	151,644	-0,041	-0,040
-235,073	322,212	0,099	0,135
-234,059	210,095	-0,097	0,109
-233,044	98,113	0,050	0,041
-232,030	1,790	-0,061	0,032
-231,015	-44,478	-0,124	-0,044
-230,000	-46,314	0,104	0,036
-228,986	312,241	0,059	-0,079
-227,971	-27,757	0,022	-0,009
-226,957	248,530	-0,083	0,100
-225,942	154,965	0,044	-0,043
-224,927	-74,807	0,123	0,031
-223,913	-15,873	-0,028	0,013
-222,898	-200,000	0,020	-0,108
-221,884	800,000	-0,041	0,094
-220,869	384,279	0,088	0,129
-219,855	-200,000	-0,037	-0,126
-218,840	2,956	0,075	0,039
-217,825	-89,919	-0,139	-0,029
-216,811	-200,000	0,039	-0,129
-215,796	32,831	-0,152	-0,094
-214,782	-172,922	0,103	0,002
-213,767	472,238	0,012	0,019
-212,752	-200,000	0,003	0,148
-211,738	0,902	0,197	-0,101
-210,723	-200,000	-0,020	-0,080
-209,709	49,885	-0,073	-0,049
-208,694	-29,268	-0,103	-0,042
-207,679	-200,000	0,021	0,086
-206,665	191,765	0,070	0,076
-205,650	560,291	-0,038	0,066
-204,636	-58,694	-0,099	-0,030
-203,621	138,053	0,052	-0,049
-202,606	-125,831	0,127	0,014
-201,592	422,776	-0,016	0,025
-200,577	-200,000	-0,016	-0,091
-199,563	797,988	-0,081	-0,160
-198,548	194,010	0,135	-0,146
-197,533	-200,000	0,012	-0,086
-196,519	85,895	-0,047	0,037
-195,504	5,927	0,076	-0,040
-194,490	-18,903	-0,044	0,020
-193,475	800,000	-0,021	-0,064
-192,460	73,595	0,063	0,047
-191,446	-68,231	0,100	0,027
-190,431	-153,381	-0,030	0,001
-189,417	111,503	-0,060	-0,052
-188,402	2,682	0,145	0,075
-187,387	602,919	-0,052	0,093
-186,373	-96,012	-0,099	0,019
-185,358	-200,000	0,037	0,137
-184,344	138,692	-0,096	-0,090
-183,329	-35,955	0,077	0,030
-182,315	-200,000	-0,000	-0,077
-181,300	-153,823	-0,061	0,003
-180,285	65,721	-0,062	0,045
-179,271	21,849	0,061	0,035
-178,256	73,450	-0,148	-0,110
-177,242	-163,555	0,107	-0,004
-176,227	-200,000	-0,020	0,081
-175,212	-135,789	-0,016	-0,001
-174,198	-47,336	0,036	-0,012
-173,183	-144,742	0,150	0,010
-172,169	-200,000	0,013	-0,067
-171,154	800,000	-0,032	-0,080
-170,139	503,629	0,045	0,075
-169,125	-200,000	-0,004	0,132
-168,110	800,000	-0,014	-0,041
-167,096	-200,000	-0,030	-0,158
-166,081	-200,000	-0,012	0,058
-165,066	-79,693	0,054	0,013
-164,052	800,000	0,014	0,042
-163,037	63,473	0,140	0,100
-162,023	196,010	0,058	0,063
-161,008	135,096	0,058	0,053
-159,993	219,902	-0,024	0,028
-158,979	618,533	-0,021	0,038
-157,964	-200,000	-0,023	-0,104
-156,950	37,620	0,108	-0,068
-155,935	290,892	0,090	0,117
-154,920	392,723	0,070	-0,104
-153,906	800,000	0,057	0,142
-152,891	123,232	0,031	0,027
-151,877	-200,000	-0,002	0,031
-150,862	397,898	0,058	-0,086
-149,847	101,759	-0,100	-0,083
-148,833	133,853	-0,025	0,023
-147,818	294,508	0,068	0,088
-146,804	-200,000	0,002	-0,021
-145,789	-200,000	0,001	-0,020
-144,775	-200,000	-0,040	-0,144
-143,760	73,823	-0,094	-0,070
-142,745	-171,820	0,035	0,001
-141,731	442,746	-0,056	-0,088
-140,716	-200,000	-0,040	-0,177
-139,702	-200,000	0,016	-0,078
-138,687	-93,540	-0,061	0,012
-137,672	-200,000	-0,009	0,063
-136,658	155,291	0,022	-0,021
-135,643	-166,510	-0,087	-0,003
-134,629	112,621	-0,019	-0,016
-133,614	800,000	0,046	0,101
-132,599	22,932	-0,104	-0,061
-131,585	800,000	0,048	0,124
-130,570	-200,000	0,011	0,042
-129,556	-127,362	-0,034	-0,003
-128,541	-136,721	0,096	0,008
-127,526	-91,500	-0,162	-0,033
-126,512	157,528	0,038	-0,038
-125,497	124,850	0,104	0,093
-124,483	225,262	-0,046	0,053
-123,468	1,337	0,024	-0,012
-122,453	423,695	0,046	-0,070
-121,439	675,993	0,045	-0,083
-120,424	-140,956	-0,062	0,004
