DTS Sentinel unit serial number:	SN410029Multiplexer serial number:	ORYXHardware model number:	OX2-SRSoftware version number:	ORYX F/W v4,00 Oryx Data Collector v3.7.2.0data status	okinstallation	BH3 CH2differential loss correction	single-endedforward channel	channel 2reverse channel	N/Adate	2023/12/06time	02:07:28forward acquisition time	300,00reverse acquisition time	0,00gamma	499,1914k internal	0,3196k external	0,3196temperature offset calibration	1,0000default loss term (dB/km)	0,3820temperature slope calibration	1,0000multiplexer offset coefficient	1,0000multiplexer slope coefficient	1,0000fibre end	0,00T internal ref (°C)	9,07T ext. ref 1 (°C)	-5,80T ext. ref 2 (°C)	-5,88length (m)	temperature (°C)	Stokes	anti-Stokes-744,400	-200,000	0,001	-0,120
-743,385	-6,197	-0,176	0,087
-742,371	800,000	-0,075	-0,156
-741,356	-72,238	-0,166	0,044
-740,342	66,078	-0,080	0,059
-739,327	-32,430	-0,206	-0,083
-738,312	180,667	-0,060	-0,064
-737,298	-69,957	-0,102	-0,028
-736,283	384,271	-0,067	-0,101
-735,269	-45,885	-0,180	0,064
-734,254	321,589	-0,034	-0,047
-733,239	-107,764	-0,366	-0,057
-732,225	-71,258	0,109	0,029
-731,210	20,863	-0,036	-0,021
-730,196	-24,157	0,045	-0,020
-729,181	349,528	0,079	-0,114
-728,167	-121,714	-0,084	-0,010
-727,152	8,456	0,060	-0,033
-726,137	-43,846	-0,145	-0,053
-725,123	392,603	0,044	-0,066
-724,108	-30,798	-0,129	-0,053
-723,094	276,017	-0,062	-0,080
-722,079	-200,000	-0,003	-0,038
-721,064	800,000	0,064	-0,158
-720,050	-5,250	-0,151	-0,075
-719,035	-200,000	-0,040	0,155
-718,021	-176,078	-0,127	0,002
-717,006	-200,000	0,003	-0,030
-715,991	320,773	-0,098	-0,136
-714,977	53,768	-0,049	-0,034
-713,962	-134,695	-0,177	0,015
-712,948	800,000	0,047	0,143
-711,933	-200,000	0,006	-0,053
-710,918	142,767	-0,070	0,067
-709,904	-200,000	0,008	-0,035
-708,889	21,031	-0,141	-0,083
-707,875	-61,672	0,098	0,030
-706,860	51,767	-0,026	-0,018
-705,845	-152,483	0,052	-0,003
-704,831	-200,000	0,007	0,104
-703,816	800,000	0,040	0,114
-702,802	-11,722	-0,134	-0,064
-701,787	-200,000	0,016	-0,060
-700,772	800,000	-0,015	-0,042
-699,758	-200,000	-0,004	0,151
-698,743	-200,000	-0,025	-0,156
-697,729	-200,000	0,001	-0,087
-696,714	800,000	-0,023	0,055
-695,699	460,972	-0,052	-0,085
-694,685	800,000	-0,030	-0,073
-693,670	537,000	-0,099	-0,172
-692,656	-200,000	-0,006	-0,113
-691,641	404,901	-0,048	-0,073
-690,627	-29,263	-0,068	0,028
-689,612	130,579	-0,156	0,145
-688,597	154,446	0,128	-0,128
-687,583	24,095	-0,102	-0,061
-686,568	-200,000	-0,013	-0,131
-685,554	-68,673	0,145	0,041
-684,539	-184,368	0,055	-0,001
-683,524	-200,000	0,004	-0,037
-682,510	344,160	-0,102	0,146
-681,495	341,584	-0,043	0,061
-680,481	-200,000	0,002	-0,019
-679,466	-90,351	-0,056	-0,012
-678,451	61,948	0,108	-0,078
-677,437	73,372	-0,118	-0,089
-676,422	-124,453	0,034	0,004
-675,408	800,000	0,005	-0,011
-674,393	-61,372	0,063	0,019
-673,378	132,146	0,074	-0,069
-672,364	-200,000	-0,008	-0,136
-671,349	800,000	0,046	-0,124
-670,335	321,962	0,020	-0,028
-669,320	38,348	-0,038	-0,025
-668,305	288,871	0,121	0,159
-667,291	-200,000	-0,001	-0,005
-666,276	-66,504	-0,102	-0,029
-665,262	637,425	-0,061	-0,113
-664,247	-200,000	0,016	-0,117
-663,232	-200,000	-0,033	-0,111
-662,218	434,474	0,024	-0,039
-661,203	800,000	0,027	0,064
-660,189	-200,000	-0,019	-0,068
-659,174	414,781	-0,045	-0,070
-658,159	-200,000	0,020	-0,160
-657,145	800,000	-0,013	-0,030
-656,130	-200,000	0,029	0,166
-655,116	364,271	-0,028	-0,041
-654,101	-200,000	-0,003	-0,031
-653,086	-52,747	-0,114	0,038
-652,072	800,000	-0,016	-0,042
-651,057	294,980	0,087	-0,116
-650,043	91,356	-0,159	0,129
-649,028	177,857	-0,093	0,098
-648,014	-200,000	0,047	0,152
-646,999	123,175	0,065	0,059
-645,984	-56,863	0,089	0,029
-644,970	-162,632	-0,074	0,003
-643,955	121,089	-0,086	0,078
-642,941	-200,000	-0,006	-0,091
-641,926	23,412	-0,053	-0,031
-640,911	193,384	0,089	-0,097
-639,897	322,377	0,043	0,060
-638,882	492,668	0,034	-0,056
-637,868	255,400	-0,037	0,046
-636,853	-112,017	0,041	-0,006
-635,838	800,000	-0,020	0,044
-634,824	-200,000	-0,044	-0,153
-633,809	133,934	0,116	-0,109
-632,795	432,434	-0,025	-0,039
-631,780	-200,000	0,001	-0,038
-630,765	-4,676	-0,137	-0,068
-629,751	-66,272	0,097	-0,028
-628,736	27,254	0,036	-0,022
-627,722	529,492	-0,014	0,023
-626,707	-60,435	-0,108	0,033
-625,692	-200,000	0,000	0,132
-624,678	-200,000	-0,004	0,054
-623,663	44,103	0,097	0,064
-622,649	127,739	-0,054	0,049
-621,634	-103,933	-0,064	0,011
-620,619	613,669	-0,094	0,172
-619,605	-26,159	-0,110	-0,047
-618,590	-90,546	-0,039	0,008
-617,576	18,858	0,056	0,032
-616,561	-25,569	0,113	-0,048
-615,546	800,000	-0,068	-0,151
-614,532	160,158	0,010	-0,010
-613,517	412,286	-0,079	-0,122
-612,503	115,620	0,065	0,058
-611,488	51,132	-0,091	0,062
-610,474	595,451	-0,025	0,046
-609,459	800,000	-0,031	-0,069
-608,444	45,495	-0,004	0,002
-607,430	800,000	-0,053	0,122
-606,415	-137,337	-0,071	-0,006
-605,401	800,000	0,037	-0,098
-604,386	800,000	-0,028	-0,084
-603,371	-99,940	0,044	0,008
-602,357	-19,727	-0,080	-0,036
-601,342	800,000	-0,015	0,047
-600,328	-16,683	-0,060	0,027
-599,313	-58,454	-0,106	0,033
-598,298	-13,381	0,094	0,044
-597,284	-200,000	-0,007	0,022
-596,269	486,196	0,090	0,149
-595,255	800,000	-0,034	0,079
-594,240	-200,000	-0,010	-0,075
-593,225	-200,000	0,016	-0,128
-592,211	-200,000	-0,014	-0,060
-591,196	-200,000	-0,018	0,071
-590,182	30,721	-0,093	-0,058
-589,167	323,255	0,036	0,050
-588,152	669,949	0,024	0,045
-587,138	224,918	0,049	-0,057
-586,123	-200,000	-0,009	-0,047
-585,109	-75,273	-0,104	0,027
-584,094	-200,000	0,021	0,166
-583,079	800,000	-0,007	-0,020
-582,065	-86,921	0,056	0,012
-581,050	366,931	-0,060	-0,088
-580,036	50,470	-0,157	-0,107
-579,021	-200,000	-0,008	-0,032
-578,006	-200,000	0,016	-0,061
-576,992	147,649	-0,046	-0,045
-575,977	-57,737	0,087	0,027
-574,963	-200,000	-0,001	-0,074
-573,948	-20,486	-0,021	0,009
-572,934	41,981	-0,088	-0,058
-571,919	2,262	-0,063	0,033
-570,904	-64,717	-0,064	-0,019
-569,890	285,282	-0,094	0,123
-568,875	718,104	0,038	0,073
-567,861	-32,904	-0,122	0,049
-566,846	-200,000	0,002	0,087
-565,831	-200,000	0,022	0,144
-564,817	-85,040	-0,192	0,043
-563,802	800,000	-0,034	-0,071
-562,788	272,516	0,059	0,075
-561,773	143,467	0,085	0,082
-560,758	-10,086	0,098	0,047
-559,744	133,498	0,043	0,041
-558,729	205,164	-0,041	-0,047
-557,715	-178,799	-0,033	-0,001
-556,700	800,000	-0,022	-0,056
-555,685	108,853	0,168	0,145
-554,671	-200,000	0,001	-0,032
-553,656	-13,439	-0,016	0,008
-552,642	-103,637	-0,077	-0,013
-551,627	-200,000	-0,015	-0,081
-550,612	-75,827	0,070	-0,018
-549,598	-29,198	-0,123	-0,051
-548,583	56,715	0,074	-0,052
-547,569	800,000	-0,003	0,009
-546,554	611,571	-0,048	0,087
-545,539	179,920	-0,028	-0,030
-544,525	-53,076	-0,075	-0,025
-543,510	-122,139	0,067	0,008
-542,496	83,294	-0,077	-0,061
-541,481	-200,000	-0,002	-0,101
-540,466	-56,651	0,040	-0,013
-539,452	-200,000	0,019	0,085
-538,437	7,886	0,056	-0,030
-537,423	507,902	-0,030	0,050
-536,408	-200,000	-0,012	0,078
-535,393	65,204	0,006	0,004
-534,379	-28,848	-0,111	0,046
-533,364	800,000	0,039	-0,103
-532,350	83,123	0,010	0,008
-531,335	13,200	0,091	0,051
-530,321	10,393	0,156	0,085
-529,306	-200,000	0,020	-0,124
-528,291	800,000	-0,059	0,170
-527,277	8,903	-0,173	-0,094
-526,262	-200,000	0,026	-0,180
-525,248	159,763	0,016	-0,017
-524,233	144,658	0,117	0,113
-523,218	112,413	-0,055	-0,048
-522,204	-81,769	0,067	0,016
-521,189	26,518	-0,085	-0,051
-520,175	-158,034	0,060	0,002
-519,160	127,168	0,033	-0,031
-518,145	-52,729	0,056	0,019
-517,131	-200,000	0,011	0,167
-516,116	800,000	-0,044	0,103
-515,102	-200,000	-0,002	-0,079
-514,087	-37,646	0,096	-0,037
-513,072	-200,000	-0,021	-0,086
-512,058	-99,187	0,065	0,012
-511,043	-68,988	0,055	-0,015
-510,029	8,317	0,192	0,104
-509,014	133,679	-0,011	0,011
-507,999	573,149	0,019	-0,034
-506,985	-200,000	-0,010	-0,069
-505,970	594,759	-0,060	-0,108
-504,956	-67,293	-0,144	0,041
-503,941	483,265	-0,032	-0,052
-502,926	1,031	0,076	0,039
-501,912	-200,000	0,003	0,020
-500,897	-84,357	0,077	0,018
-499,883	800,000	-0,006	-0,017
-498,868	800,000	-0,065	-0,201
-497,853	-66,642	0,141	-0,040
-496,839	-200,000	-0,029	-0,139
-495,824	800,000	-0,021	0,048
-494,810	-200,000	0,011	-0,131
-493,795	800,000	-0,021	-0,056
-492,781	191,824	0,035	-0,039
-491,766	-200,000	0,015	0,050
-490,751	581,726	0,011	-0,019
-489,737	22,899	0,053	0,031
-488,722	800,000	0,011	0,031
-487,708	-200,000	0,023	0,116
-486,693	38,605	-0,013	0,008
-485,678	800,000	0,014	-0,041
-484,664	-200,000	0,006	0,034
-483,649	254,433	-0,062	-0,077
-482,635	370,427	-0,016	-0,024
-481,620	800,000	-0,027	-0,056
-480,605	-48,279	0,063	-0,022
-479,591	278,850	-0,010	0,013
-478,576	-47,111	-0,052	-0,018
-477,562	-200,000	-0,002	0,081
-476,547	-76,464	0,141	-0,035
-475,532	-108,592	0,146	-0,022
-474,518	-200,000	-0,001	-0,023
-473,503	36,933	-0,024	-0,016
-472,489	115,121	-0,047	0,041
-471,474	205,269	-0,036	0,040
-470,459	-83,973	-0,170	-0,039
-469,445	800,000	0,071	-0,177
-468,430	261,476	-0,065	-0,081
-467,416	800,000	0,034	0,070
-466,401	800,000	-0,065	0,135
-465,386	-13,914	0,099	0,046
-464,372	-200,000	0,008	-0,105
-463,357	-24,017	-0,077	0,033
-462,343	-200,000	0,042	-0,153
-461,328	165,625	0,068	-0,069
-460,313	276,250	0,033	-0,042
-459,299	800,000	0,040	0,107
-458,284	22,013	0,159	0,093
-457,270	-200,000	-0,005	0,093
-456,255	-200,000	0,012	0,109
-455,241	-64,958	-0,127	-0,037
-454,226	-200,000	0,022	0,101
-453,211	122,908	0,043	-0,038
-452,197	-200,000	-0,026	0,154
-451,182	74,369	0,137	0,103
-450,168	70,774	-0,053	-0,039
-449,153	-88,211	0,088	0,019
-448,138	-8,132	-0,129	0,062
-447,124	-200,000	-0,017	-0,114
-446,109	332,508	-0,036	-0,050
-445,095	-200,000	-0,015	0,130
-444,080	-63,936	0,064	0,019
-443,065	-22,971	-0,106	0,046
-442,051	-200,000	0,000	-0,065
-441,036	21,199	0,108	-0,063
-440,022	-200,000	-0,017	-0,096
-439,007	-200,000	-0,036	-0,121
-437,992	15,645	0,096	0,054
-436,978	-76,545	0,099	-0,025
-435,963	20,448	0,013	-0,008
-434,949	35,795	-0,051	-0,032
-433,934	-54,393	-0,077	-0,025
-432,919	300,949	0,037	0,049
-431,905	-102,921	0,039	0,007
-430,890	65,610	0,034	0,025
-429,876	557,038	-0,011	-0,020
-428,861	-37,797	0,200	0,076
-427,846	-34,899	0,081	-0,032
-426,832	-200,000	0,019	-0,104
-425,817	-141,079	-0,107	0,008
-424,803	108,883	0,071	-0,061
-423,788	86,129	-0,050	-0,039
-422,773	800,000	0,071	-0,191
-421,759	600,395	0,052	0,093
-420,744	538,605	-0,095	0,163
-419,730	-200,000	0,002	-0,121
-418,715	-19,258	-0,061	0,027
-417,701	56,811	0,050	0,035
-416,686	-54,812	0,149	-0,048
-415,671	-200,000	-0,005	-0,044
-414,657	587,755	0,014	-0,025
-413,642	69,241	0,125	-0,093
-412,628	516,038	0,008	-0,013
-411,613	134,357	-0,043	-0,040
-410,598	800,000	0,040	-0,116
-409,584	-129,770	-0,022	-0,002
-408,569	800,000	0,055	-0,119
-407,555	637,928	0,024	-0,044
-406,540	-200,000	0,001	0,050
-405,525	-19,444	-0,074	-0,033
-404,511	206,866	-0,058	0,065
-403,496	6,742	0,076	-0,041
-402,482	-200,000	0,041	-0,148
-401,467	86,742	0,033	-0,026
-400,452	222,192	-0,132	0,152
-399,438	237,547	0,060	0,072
-398,423	196,258	-0,018	0,020
-397,409	-200,000	-0,014	0,045
-396,394	33,244	0,024	0,015
-395,379	-57,443	0,054	0,017
-394,365	521,192	-0,025	0,042
-393,350	-68,540	0,119	-0,033
-392,336	52,197	-0,111	-0,076
-391,321	563,097	0,040	-0,071
-390,306	-67,509	-0,077	-0,022
-389,292	731,075	-0,014	-0,027
-388,277	-200,000	0,007	0,050
-387,263	153,326	0,106	0,104
-386,248	-105,176	0,059	-0,010
-385,233	800,000	-0,026	-0,070
-384,219	800,000	-0,029	-0,083
-383,204	147,931	-0,066	0,064
-382,190	679,877	0,027	-0,051
-381,175	81,839	0,051	-0,040
-380,160	48,250	0,094	0,063
-379,146	525,060	0,063	-0,107
-378,131	800,000	-0,071	0,151
-377,117	367,147	0,098	0,142
-376,102	275,568	-0,067	-0,086
-375,088	599,668	-0,082	0,147
-374,073	94,845	-0,016	0,013
-373,058	-67,242	0,080	-0,022
-372,044	-27,860	0,064	0,026
-371,029	-104,176	0,065	-0,011
-370,015	80,417	0,135	0,104
-369,000	-108,614	-0,069	-0,011
-367,985	-88,291	-0,069	-0,015
-366,971	-200,000	-0,014	-0,059
-365,956	-200,000	0,011	0,104
-364,942	4,991	0,086	0,045
-363,927	199,579	0,038	0,042
-362,912	-200,000	-0,024	0,142
-361,898	-114,478	-0,129	0,018
-360,883	21,530	-0,126	0,073
-359,869	-23,034	-0,163	0,070
-358,854	548,346	0,033	-0,056
-357,839	456,420	0,055	-0,088
-356,825	-200,000	-0,008	0,045
-355,810	-72,568	-0,039	-0,010
-354,796	-117,036	0,026	-0,003
-353,781	166,334	-0,092	-0,094
-352,766	10,799	-0,089	0,049
-351,752	800,000	0,072	0,156
-350,737	199,206	0,031	-0,034
-349,723	110,921	-0,065	0,056
-348,708	105,457	-0,060	0,051
-347,693	-200,000	0,019	0,138
-346,679	59,771	0,013	0,009
-345,664	-103,871	-0,092	0,015
-344,650	438,866	0,031	-0,048
-343,635	-200,000	0,001	0,063
-342,620	-41,870	0,098	-0,036
-341,606	-200,000	-0,005	0,082
-340,591	-200,000	-0,021	-0,087
-339,577	-200,000	0,012	-0,083
-338,562	179,207	0,080	-0,084
-337,548	-200,000	-0,089	0,000
-336,533	-200,000	-0,034	0,176
-335,518	-132,261	0,045	0,004
-334,504	82,460	0,123	0,096
-333,489	4,332	-0,154	-0,081
-332,475	125,442	-0,010	0,009
-331,460	375,144	-0,071	-0,104
-330,445	-200,000	-0,009	0,078
-329,431	-100,719	0,086	0,015
-328,416	-61,114	0,046	0,014
-327,402	-23,472	-0,033	-0,014
-326,387	189,146	-0,061	-0,065
-325,372	82,394	-0,102	0,079
-324,358	37,547	0,050	0,032
-323,343	-200,000	0,000	-0,097
-322,329	-68,277	-0,137	-0,038
-321,314	52,258	0,090	0,061
-320,299	800,000	0,059	0,119
-319,285	-200,000	0,008	0,040
-318,270	270,252	-0,016	-0,021
-317,256	-21,580	0,025	0,011
-316,241	-73,800	-0,096	0,025
-315,226	637,167	0,030	0,054
-314,212	-142,104	-0,040	0,003
-313,197	-200,000	-0,011	-0,101
-312,183	90,128	-0,017	0,014
-311,168	454,863	-0,052	-0,083
-310,153	-200,000	0,016	-0,103
-309,139	348,312	0,039	-0,055
-308,124	16,551	0,114	-0,064
-307,110	227,055	0,047	-0,054
-306,095	-200,000	0,000	-0,072
-305,080	-14,418	-0,015	-0,007
-304,066	332,490	-0,072	-0,100
-303,051	-200,000	-0,019	-0,070
-302,037	398,070	-0,043	0,065
-301,022	-200,000	0,021	-0,109
-300,008	142,106	0,073	0,069
-298,993	-159,238	0,052	-0,002
-297,978	148,516	0,086	0,083
-296,964	76,267	-0,118	-0,090
-295,949	-200,000	0,012	-0,164
-294,935	-70,193	0,047	-0,013
-293,920	-110,743	0,049	-0,007
-292,905	240,528	0,057	-0,068
-291,891	242,553	-0,003	0,004
-290,876	-12,147	0,048	0,022
-289,862	-200,000	0,013	-0,125
-288,847	-97,498	-0,021	0,004
-287,832	-200,000	-0,029	0,173
-286,818	22,980	-0,100	0,058
-285,803	800,000	-0,040	-0,094
-284,789	800,000	0,030	0,060
-283,774	33,512	-0,092	-0,057
-282,759	665,312	0,062	-0,114
-281,745	52,069	-0,042	0,029
-280,730	-101,200	0,128	0,022
-279,716	-74,212	-0,022	-0,006
-278,701	349,918	0,007	0,009
-277,686	-66,051	0,093	0,026
-276,672	-116,133	0,080	-0,010
-275,657	-148,417	-0,082	-0,005
-274,643	-200,000	-0,000	0,006
-273,628	360,450	0,017	-0,024
-272,613	-115,917	0,170	-0,022
-271,599	-200,000	-0,014	-0,102
-270,584	-116,918	0,097	-0,013
-269,570	169,891	0,066	0,068
-268,555	52,953	-0,138	0,094
-267,540	-200,000	-0,021	-0,109
-266,526	-133,318	-0,091	-0,008
-265,511	229,382	-0,066	0,077
-264,497	800,000	-0,028	-0,067
-263,482	-200,000	0,007	0,084
-262,467	565,168	0,069	0,119
-261,453	201,811	0,033	-0,037
-260,438	-200,000	-0,006	-0,097
-259,424	-52,072	0,140	-0,046
-258,409	-124,065	-0,149	0,017
-257,395	190,937	-0,032	-0,035
-256,380	2,852	0,080	0,042
-255,365	-200,000	0,002	0,125
-254,351	142,066	-0,046	0,044
-253,336	201,794	0,054	-0,059
-252,322	86,185	-0,050	-0,039
-251,307	-140,183	-0,044	-0,003
-250,292	-53,866	0,041	-0,013
-249,278	-118,387	0,028	0,003
-248,263	-200,000	0,009	0,092
-247,249	800,000	-0,021	0,044
-246,234	-76,981	-0,034	0,008
-245,219	339,436	0,085	0,118
-244,205	17,290	-0,096	-0,054
-243,190	98,705	-0,028	-0,023
-242,176	-200,000	-0,006	0,073
-241,161	-200,000	-0,018	0,080
-240,146	800,000	-0,032	0,098
-239,132	-184,274	0,075	-0,001
-238,117	800,000	0,022	-0,060
-237,103	-42,934	-0,249	-0,090
-236,088	-200,000	0,041	0,131
-235,073	-124,838	-0,141	0,015
-234,059	-200,000	0,030	-0,262
-233,044	112,377	0,058	0,050
-232,030	430,139	-0,031	-0,049
-231,015	19,924	-0,101	0,058
-230,000	270,971	-0,063	0,080
-228,986	-184,765	-0,028	-0,000
-227,971	-200,000	-0,004	0,038
-226,957	469,040	0,040	0,065
-225,942	132,298	0,104	-0,095
-224,927	460,553	-0,083	-0,133
-223,913	-87,273	-0,075	-0,016
-222,898	-87,955	-0,065	-0,014
-221,884	-59,371	-0,023	0,007
-220,869	800,000	0,039	0,117
-219,855	-200,000	0,025	0,158
-218,840	387,755	0,076	0,112
-217,825	557,186	-0,050	-0,087
-216,811	-150,017	0,016	-0,001
-215,796	-85,299	0,018	0,004
-214,782	-145,480	0,187	0,012
-213,767	62,371	-0,211	-0,150
-212,752	-32,660	-0,115	0,046
-211,738	-200,000	-0,000	0,081
-210,723	299,981	-0,059	0,078
-209,709	632,021	0,046	-0,083
-208,694	432,452	-0,026	0,040
-207,679	9,015	0,030	-0,016
-206,665	-32,816	-0,062	0,025
-205,650	-200,000	-0,006	0,114
-204,636	42,473	0,123	0,080
-203,621	159,780	0,101	0,100
-202,606	2,955	-0,146	0,075
-201,592	800,000	-0,069	-0,152
-200,577	-35,291	-0,063	0,024
-199,563	233,187	-0,046	0,054
-198,548	443,573	-0,058	0,091
-197,533	-200,000	-0,017	0,102
-196,519	-21,329	-0,063	0,027
-195,504	379,409	-0,026	-0,038
-194,490	-200,000	0,004	-0,117
-193,475	300,277	-0,049	0,064
-192,460	-200,000	0,010	0,096
-191,446	-200,000	-0,008	0,110
-190,431	-67,922	0,135	-0,037
-189,417	-129,850	-0,174	-0,017
-188,402	553,646	0,015	-0,027
-187,387	-200,000	-0,001	0,024
-186,373	-107,982	0,037	0,006
-185,358	727,381	0,025	-0,047
-184,344	800,000	0,048	0,136
-183,329	-150,209	-0,098	0,005
-182,315	125,765	0,137	0,123
-181,300	-200,000	0,009	-0,041
-180,285	731,618	0,016	0,031
-179,271	-154,380	0,101	0,005
-178,256	-121,445	0,099	-0,012
-177,242	-84,539	-0,015	-0,003
-176,227	684,188	0,037	0,070
-175,212	-200,000	0,107	-0,000
-174,198	179,496	0,035	0,036
-173,183	800,000	-0,058	-0,118
-172,169	770,016	-0,078	-0,153
-171,154	800,000	0,026	-0,071
-170,139	70,286	0,079	-0,058
-169,125	800,000	0,024	0,069
-168,110	-143,206	-0,078	-0,005
-167,096	-200,000	0,019	-0,132
-166,081	800,000	0,047	-0,093
-165,066	243,187	-0,054	-0,064
-164,052	-200,000	0,017	0,097
-163,037	-200,000	-0,028	-0,108
-162,023	46,143	0,117	-0,077
-161,008	800,000	-0,015	0,039
-159,993	-200,000	0,006	-0,019
-158,979	196,724	-0,045	0,049
-157,964	-200,000	-0,023	-0,084
-156,950	49,825	0,123	-0,082
-155,935	-96,558	-0,058	-0,011
-154,920	28,947	0,151	-0,091
-153,906	763,411	0,064	-0,125
-152,891	10,270	-0,130	0,070
-151,877	-12,869	0,183	0,084
-150,862	-200,000	0,011	-0,191
-149,847	16,974	0,233	-0,131
-148,833	31,115	0,111	-0,068
-147,818	470,690	0,063	-0,101
-146,804	467,177	-0,075	-0,119
-145,789	13,011	-0,053	-0,029
-144,775	579,618	-0,008	-0,015
-143,760	10,868	-0,024	-0,013
-142,745	478,474	-0,062	-0,101
-141,731	-154,161	0,080	-0,004
-140,716	-170,955	0,127	-0,003
-139,702	-200,000	0,014	0,065
-138,687	24,976	-0,071	0,042
-137,672	-200,000	-0,021	-0,104
-136,658	800,000	0,048	-0,130
-135,643	-200,000	0,008	-0,054
-134,629	318,935	-0,040	0,054
-133,614	195,503	0,087	0,094
-132,599	620,718	-0,028	-0,050
-131,585	15,572	0,073	0,041
-130,570	-200,000	0,012	0,078
-129,556	78,161	-0,091	-0,069
-128,541	-200,000	-0,035	-0,207
-127,526	-58,205	0,028	-0,009
-126,512	-133,179	-0,097	-0,009
-125,497	-11,635	0,118	0,055
-124,483	-21,318	-0,074	0,032
-123,468	89,555	-0,064	0,050
-122,453	102,617	0,027	-0,022
-121,439	131,906	0,103	-0,094
-120,424	-136,192	-0,138	0,011
