DTS Sentinel unit serial number:	SN410029Multiplexer serial number:	ORYXHardware model number:	OX2-SRSoftware version number:	ORYX F/W v4,00 Oryx Data Collector v3.7.2.0data status	okinstallation	BH3 CH2differential loss correction	single-endedforward channel	channel 2reverse channel	N/Adate	2023/12/06time	05:47:28forward acquisition time	300,00reverse acquisition time	0,00gamma	499,1914k internal	0,3197k external	0,3197temperature offset calibration	1,0000default loss term (dB/km)	0,3820temperature slope calibration	1,0000multiplexer offset coefficient	1,0000multiplexer slope coefficient	1,0000fibre end	0,00T internal ref (°C)	8,92T ext. ref 1 (°C)	-5,68T ext. ref 2 (°C)	-5,78length (m)	temperature (°C)	Stokes	anti-Stokes-744,400	138,121	-0,112	-0,107
-743,385	491,729	-0,086	0,144
-742,371	-20,563	-0,123	0,055
-741,356	219,202	-0,183	0,213
-740,342	-200,000	0,008	-0,195
-739,327	-45,322	-0,205	0,073
-738,312	-138,528	-0,103	-0,008
-737,298	-120,593	-0,255	-0,031
-736,283	800,000	-0,037	-0,099
-735,269	-97,441	-0,158	-0,030
-734,254	-200,000	-0,014	-0,168
-733,239	-162,579	-0,486	-0,017
-732,225	-29,499	0,151	-0,063
-731,210	93,542	0,128	0,106
-730,196	-200,000	0,009	-0,090
-729,181	572,192	-0,086	-0,153
-728,167	-200,000	0,005	-0,057
-727,152	57,213	0,086	0,061
-726,137	241,451	0,073	-0,089
-725,123	66,410	-0,084	0,062
-724,108	11,851	-0,042	0,023
-723,094	70,537	-0,096	-0,072
-722,079	122,374	-0,158	-0,143
-721,064	800,000	-0,023	-0,051
-720,050	800,000	0,040	0,083
-719,035	800,000	0,031	0,099
-718,021	800,000	-0,113	-0,234
-717,006	-74,512	-0,070	0,018
-715,991	-43,987	-0,095	0,034
-714,977	-200,000	-0,042	-0,141
-713,962	-90,976	0,121	-0,025
-712,948	253,778	-0,043	-0,054
-711,933	-200,000	-0,001	0,021
-710,918	-53,602	-0,185	-0,061
-709,904	800,000	-0,095	-0,238
-708,889	30,541	-0,066	-0,041
-707,875	800,000	0,046	0,102
-706,860	800,000	-0,017	-0,053
-705,845	-200,000	-0,024	0,096
-704,831	-200,000	-0,031	0,197
-703,816	-94,900	-0,049	0,010
-702,802	112,852	-0,161	-0,142
-701,787	-108,008	-0,117	0,018
-700,772	-200,000	0,010	-0,092
-699,758	22,641	-0,181	-0,108
-698,743	-57,308	0,028	0,009
-697,729	3,636	-0,035	-0,018
-696,714	208,789	0,076	0,086
-695,699	-104,326	0,120	0,020
-694,685	-125,624	-0,059	-0,006
-693,670	732,960	-0,056	-0,109
-692,656	-136,482	-0,052	-0,004
-691,641	58,629	-0,016	0,011
-690,627	-99,883	0,049	-0,009
-689,612	-73,381	-0,026	-0,007
-688,597	358,340	0,013	-0,018
-687,583	-10,697	-0,072	0,035
-686,568	412,181	-0,069	0,106
-685,554	279,581	0,023	-0,030
-684,539	462,130	-0,098	-0,159
-683,524	22,358	0,059	-0,035
-682,510	-200,000	0,029	-0,169
-681,495	602,074	0,046	-0,083
-680,481	158,115	-0,076	-0,076
-679,466	714,934	-0,051	-0,100
-678,451	-73,521	0,040	-0,011
-677,437	-133,397	0,107	0,010
-676,422	80,330	0,083	-0,065
-675,408	-200,000	0,003	-0,085
-674,393	357,473	-0,044	-0,065
-673,378	41,183	-0,077	0,050
-672,364	-135,375	-0,100	-0,009
-671,349	-169,702	-0,126	-0,003
-670,335	-107,378	-0,039	0,006
-669,320	23,276	-0,008	-0,005
-668,305	-8,490	0,163	0,079
-667,291	5,764	-0,173	-0,093
-666,276	-89,626	-0,068	-0,014
-665,262	758,805	-0,040	-0,079
-664,247	-86,443	-0,112	-0,025
-663,232	-4,530	0,141	-0,070
-662,218	107,390	0,019	-0,016
-661,203	-42,393	0,130	0,048
-660,189	-27,777	-0,067	-0,028
-659,174	561,346	0,022	0,038
-658,159	-0,250	-0,136	0,070
-657,145	4,781	0,120	0,064
-656,130	162,020	-0,127	-0,129
-655,116	-104,574	-0,021	0,003
-654,101	800,000	-0,058	0,140
-653,086	-50,588	0,068	0,023
-652,072	-200,000	-0,020	-0,154
-651,057	-200,000	-0,017	-0,098
-650,043	-57,279	-0,191	-0,061
-649,028	-86,239	-0,119	-0,026
-648,014	99,762	-0,105	0,089
-646,999	-3,080	0,187	-0,094
-645,984	-46,753	-0,061	-0,021
-644,970	800,000	-0,042	-0,130
-643,955	-87,038	-0,031	-0,007
-642,941	9,716	-0,060	-0,033
-641,926	-200,000	0,015	0,083
-640,911	381,448	0,089	0,133
-639,897	-200,000	-0,009	0,069
-638,882	326,638	-0,018	0,025
-637,868	-133,302	-0,088	0,008
-636,853	-26,139	-0,108	0,046
-635,838	800,000	-0,038	0,107
-634,824	122,323	0,157	-0,142
-633,809	-200,000	-0,004	0,110
-632,795	48,809	0,073	0,049
-631,780	-88,765	-0,037	0,008
-630,765	51,852	-0,112	0,077
-629,751	2,628	-0,117	0,061
-628,736	111,051	0,022	-0,019
-627,722	800,000	0,035	-0,080
-626,707	800,000	-0,021	-0,048
-625,692	-200,000	-0,012	-0,101
-624,678	-121,187	-0,033	0,004
-623,663	-26,326	0,110	-0,046
-622,649	-200,000	-0,003	-0,091
-621,634	-147,850	-0,124	-0,007
-620,619	800,000	-0,056	-0,158
-619,605	-137,058	0,071	0,006
-618,590	245,732	-0,065	-0,080
-617,576	-200,000	-0,005	0,029
-616,561	440,704	0,073	-0,116
-615,546	107,174	-0,096	-0,083
-614,532	192,037	-0,101	-0,110
-613,517	-34,279	-0,090	0,036
-612,503	-200,000	-0,013	-0,161
-611,488	207,860	-0,099	-0,112
-610,474	221,255	0,092	0,108
-609,459	800,000	-0,047	0,140
-608,444	-127,354	0,030	-0,003
-607,430	-197,801	0,142	0,001
-606,415	87,563	-0,025	0,020
-605,401	648,940	0,048	-0,089
-604,386	-54,325	0,131	0,043
-603,371	-99,819	-0,018	-0,003
-602,357	199,335	0,103	-0,114
-601,342	800,000	0,072	-0,170
-600,328	-200,000	-0,048	-0,185
-599,313	13,287	0,129	-0,072
-598,298	800,000	0,042	-0,089
-597,284	146,215	-0,009	0,009
-596,269	-200,000	0,002	0,103
-595,255	189,334	-0,068	-0,074
-594,240	-200,000	0,001	-0,030
-593,225	127,619	-0,068	0,062
-592,211	800,000	0,056	-0,113
-591,196	31,770	-0,032	0,020
-590,182	-94,891	0,098	0,019
-589,167	-195,041	0,113	0,001
-588,152	800,000	0,054	0,140
-587,138	800,000	-0,042	-0,091
-586,123	36,099	-0,144	0,092
-585,109	93,995	-0,089	0,073
-584,094	218,782	-0,035	0,041
-583,079	114,035	-0,045	-0,040
-582,065	-59,101	-0,017	0,005
-581,050	58,609	0,056	0,040
-580,036	-200,000	0,028	-0,158
-579,021	-200,000	-0,003	-0,055
-578,006	-91,831	-0,054	0,011
-576,992	-200,000	-0,019	-0,119
-575,977	-54,660	0,127	-0,041
-574,963	-87,210	0,267	0,058
-573,948	442,976	0,043	-0,068
-572,934	-81,523	0,086	-0,020
-571,919	-200,000	0,024	-0,114
-570,904	800,000	-0,006	0,012
-569,890	-200,000	-0,023	0,129
-568,875	62,139	-0,089	0,064
-567,861	800,000	0,006	-0,015
-566,846	80,970	-0,006	0,005
-565,831	-153,551	-0,101	-0,005
-564,817	53,600	0,083	-0,057
-563,802	-104,171	-0,132	0,022
-562,788	-200,000	-0,011	-0,058
-561,773	-138,228	-0,085	0,007
-560,758	595,625	0,027	-0,049
-559,744	800,000	-0,039	-0,109
-558,729	-200,000	-0,001	0,030
-557,715	800,000	-0,031	0,096
-556,700	196,126	-0,009	-0,010
-555,685	280,808	-0,032	-0,041
-554,671	-80,276	0,114	0,027
-553,656	-21,208	0,055	0,024
-552,642	-38,414	0,052	0,020
-551,627	800,000	-0,030	0,084
-550,612	227,274	-0,085	-0,100
-549,598	800,000	0,035	-0,082
-548,583	-70,371	-0,080	-0,022
-547,569	200,690	-0,108	-0,120
-546,554	95,915	0,150	0,123
-545,539	-147,859	-0,106	0,006
-544,525	134,056	0,054	-0,050
-543,510	4,665	0,071	-0,038
-542,496	70,093	-0,086	-0,064
-541,481	44,437	-0,035	-0,023
-540,466	-116,731	0,047	0,006
-539,452	-200,000	0,004	0,021
-538,437	23,786	0,063	-0,037
-537,423	354,268	0,043	-0,062
-536,408	-79,602	0,105	0,025
-535,393	800,000	-0,018	-0,055
-534,379	-3,727	-0,148	-0,074
-533,364	-73,201	0,024	-0,006
-532,350	-71,094	0,058	0,016
-531,335	-130,723	0,077	0,007
-530,321	250,319	0,038	0,047
-529,306	-153,009	-0,082	0,004
-528,291	-168,679	-0,183	-0,005
-527,277	-48,857	0,185	-0,064
-526,262	-200,000	0,015	0,092
-525,248	800,000	0,072	-0,153
-524,233	-200,000	0,034	-0,134
-523,218	-73,598	0,065	-0,017
-522,204	-68,222	-0,125	-0,035
-521,189	61,540	-0,017	0,012
-520,175	460,761	0,035	0,056
-519,160	800,000	0,011	-0,034
-518,145	573,133	0,059	0,104
-517,131	-200,000	-0,012	0,041
-516,116	-200,000	0,005	0,089
-515,102	-200,000	-0,010	0,038
-514,087	148,729	0,039	-0,038
-513,072	-200,000	-0,033	-0,137
-512,058	309,452	-0,034	0,046
-511,043	-200,000	-0,018	0,081
-510,029	176,931	0,050	0,052
-509,014	-200,000	-0,020	0,120
-507,999	-200,000	-0,006	-0,087
-506,985	-49,794	-0,112	-0,038
-505,970	-144,941	-0,078	0,005
-504,956	564,291	0,111	-0,194
-503,941	-63,021	-0,032	-0,009
-502,926	-33,661	-0,141	-0,056
-501,912	-200,000	0,018	0,073
-500,897	121,082	-0,065	-0,058
-499,883	-200,000	0,028	-0,172
-498,868	46,539	-0,045	-0,030
-497,853	288,328	0,152	-0,198
-496,839	129,361	0,043	0,040
-495,824	-200,000	-0,022	0,212
-494,810	480,543	-0,016	0,026
-493,795	146,478	-0,154	0,149
-492,781	164,877	-0,050	0,051
-491,766	-137,455	-0,095	-0,008
-490,751	-111,586	-0,031	-0,004
-489,737	49,800	-0,093	-0,063
-488,722	-157,887	0,077	-0,003
-487,708	161,720	0,036	-0,036
-486,693	-200,000	0,044	0,211
-485,678	89,843	-0,026	-0,021
-484,664	28,917	0,132	0,080
-483,649	30,598	-0,026	0,016
-482,635	187,136	0,072	0,077
-481,620	800,000	-0,044	0,098
-480,605	-200,000	-0,003	0,034
-479,591	-200,000	-0,015	-0,122
-478,576	-200,000	0,005	-0,039
-477,562	-200,000	-0,051	-0,177
-476,547	68,941	-0,086	-0,064
-475,532	800,000	-0,025	-0,072
-474,518	-200,000	-0,003	-0,059
-473,503	532,929	0,036	0,062
-472,489	-41,750	-0,087	-0,032
-471,474	88,407	0,025	-0,020
-470,459	160,395	0,029	0,029
-469,445	-200,000	-0,010	-0,150
-468,430	24,915	0,110	-0,066
-467,416	150,139	0,086	0,084
-466,401	-200,000	0,003	-0,043
-465,386	800,000	0,063	-0,186
-464,372	-5,441	-0,049	-0,024
-463,357	-200,000	0,016	-0,125
-462,343	-200,000	-0,031	-0,131
-461,328	-200,000	-0,002	-0,053
-460,313	23,697	-0,069	0,041
-459,299	-40,414	0,072	0,027
-458,284	531,954	0,057	-0,098
-457,270	691,229	0,055	-0,104
-456,255	308,902	-0,009	-0,013
-455,241	-200,000	-0,006	-0,108
-454,226	60,034	-0,069	-0,049
-453,211	-116,899	0,116	-0,015
-452,197	-175,079	0,143	-0,003
-451,182	-74,017	0,102	-0,027
-450,168	271,133	-0,090	-0,114
-449,153	800,000	0,022	-0,044
-448,138	800,000	0,022	-0,053
-447,124	41,097	-0,043	0,028
-446,109	94,528	0,100	0,082
-445,095	-82,297	0,116	0,027
-444,080	-149,474	0,083	0,005
-443,065	233,015	0,030	0,036
-442,051	800,000	-0,085	-0,204
-441,036	800,000	-0,049	0,123
-440,022	-43,309	0,114	0,041
-439,007	800,000	-0,013	-0,037
-437,992	-200,000	0,004	-0,046
-436,978	391,744	0,012	0,019
-435,963	800,000	0,039	0,088
-434,949	648,045	-0,043	-0,079
-433,934	-188,926	0,127	-0,001
-432,919	-183,348	0,023	0,000
-431,905	64,254	-0,084	0,061
-430,890	723,098	-0,084	0,162
-429,876	-200,000	-0,001	0,194
-428,861	-68,300	-0,047	0,013
-427,846	206,690	-0,097	0,109
-426,832	619,683	0,052	0,094
-425,817	179,338	-0,078	-0,082
-424,803	90,879	0,070	-0,056
-423,788	-7,609	0,120	0,058
-422,773	-134,358	0,080	-0,007
-421,759	-200,000	-0,014	-0,072
-420,744	800,000	-0,074	0,158
-419,730	268,032	-0,073	-0,092
-418,715	-200,000	-0,014	-0,082
-417,701	-6,901	0,114	-0,055
-416,686	-103,407	0,171	0,029
-415,671	200,589	0,084	0,093
-414,657	-200,000	0,011	0,132
-413,642	-164,629	-0,207	0,007
-412,628	146,088	-0,035	-0,034
-411,613	-196,708	-0,115	-0,001
-410,598	800,000	0,065	-0,131
-409,584	710,003	0,019	0,037
-408,569	-72,423	0,012	0,003
-407,555	-200,000	-0,021	-0,070
-406,540	-127,456	0,161	0,017
-405,525	130,265	-0,150	0,138
-404,511	-200,000	-0,037	-0,127
-403,496	688,097	-0,058	-0,110
-402,482	242,876	-0,052	-0,062
-401,467	800,000	0,041	-0,084
-400,452	-6,349	-0,019	-0,009
-399,438	63,435	-0,118	-0,085
-398,423	118,582	0,055	-0,049
-397,409	800,000	0,047	-0,095
-396,394	-188,213	-0,127	-0,001
-395,379	-200,000	0,007	0,089
-394,365	-200,000	0,011	0,069
-393,350	76,179	-0,008	0,006
-392,336	612,652	-0,048	0,086
-391,321	800,000	0,014	-0,035
-390,306	-200,000	-0,008	-0,040
-389,292	14,842	-0,069	-0,039
-388,277	236,188	-0,050	0,059
-387,263	800,000	-0,025	0,065
-386,248	-101,584	0,181	0,031
-385,233	800,000	-0,054	0,164
-384,219	30,060	0,048	0,029
-383,204	-105,534	-0,047	0,008
-382,190	498,619	-0,075	0,124
-381,175	-39,953	-0,099	-0,037
-380,160	273,355	-0,092	-0,117
-379,146	-75,530	-0,100	0,025
-378,131	-142,279	0,100	0,007
-377,117	-104,996	-0,079	-0,013
-376,102	-36,565	-0,167	-0,064
-375,088	496,679	0,092	-0,152
-374,073	-200,000	0,026	0,085
-373,058	-103,892	0,026	-0,004
-372,044	-22,089	-0,048	0,021
-371,029	-126,195	0,010	-0,001
-370,015	153,718	0,098	-0,097
-369,000	7,384	-0,129	-0,069
-367,985	459,667	-0,069	0,110
-366,971	-85,261	0,037	-0,008
-365,956	-200,000	0,016	-0,070
-364,942	-200,000	-0,026	0,110
-363,927	800,000	-0,024	-0,049
-362,912	-55,353	-0,056	-0,018
-361,898	233,367	0,065	-0,077
-360,883	-1,259	0,082	0,041
-359,869	-200,000	0,007	-0,035
-358,854	587,536	0,045	-0,080
-357,839	-169,831	0,092	-0,002
-356,825	-174,260	0,042	-0,001
-355,810	800,000	-0,079	-0,181
-354,796	313,445	-0,062	0,084
-353,781	218,550	-0,124	-0,142
-352,766	800,000	0,017	0,042
-351,752	682,471	-0,074	0,138
-350,737	-200,000	-0,005	0,116
-349,723	181,281	0,118	0,124
-348,708	231,353	-0,048	0,056
-347,693	25,114	-0,088	-0,052
-346,679	-58,634	-0,071	0,022
-345,664	295,081	0,035	-0,047
-344,650	-76,165	0,019	0,005
-343,635	-97,891	0,059	-0,011
-342,620	-188,005	0,191	-0,002
-341,606	53,571	-0,066	0,046
-340,591	-131,013	-0,066	-0,006
-339,577	-70,876	-0,175	0,047
-338,562	-24,118	0,118	-0,050
-337,548	-200,000	0,040	0,152
-336,533	97,071	-0,057	0,046
-335,518	17,752	-0,050	0,029
-334,504	-35,440	-0,061	0,024
-333,489	-105,500	0,095	-0,015
-332,475	45,145	-0,200	-0,132
-331,460	101,693	-0,038	-0,032
-330,445	-200,000	-0,002	0,126
-329,431	-35,850	-0,106	0,041
-328,416	-40,672	-0,100	-0,037
-327,402	-200,000	0,014	0,073
-326,387	83,894	0,056	0,043
-325,372	-30,032	0,118	-0,048
-324,358	-65,006	0,160	0,046
-323,343	-126,751	-0,081	0,008
-322,329	-107,877	0,136	-0,021
-321,314	800,000	0,010	0,024
-320,299	-85,706	-0,080	-0,018
-319,285	-200,000	0,023	-0,167
-318,270	800,000	0,012	-0,032
-317,256	281,977	0,020	-0,026
-316,241	-200,000	-0,009	-0,091
-315,226	-200,000	0,010	0,043
-314,212	-14,896	-0,132	-0,060
-313,197	-200,000	-0,002	-0,017
-312,183	-109,059	-0,129	-0,019
-311,168	-175,505	-0,134	0,003
-310,153	-16,530	-0,048	-0,022
-309,139	-90,217	0,114	0,024
-308,124	-79,050	0,067	0,016
-307,110	236,769	0,046	0,054
-306,095	505,310	0,054	0,091
-305,080	575,961	0,064	-0,111
-304,066	-65,756	-0,142	-0,040
-303,051	-92,229	-0,024	-0,005
-302,037	-200,000	-0,006	0,036
-301,022	-200,000	0,006	0,039
-300,008	800,000	0,062	0,125
-298,993	-154,346	-0,113	-0,005
-297,978	240,707	0,031	0,037
-296,964	512,293	-0,010	-0,016
-295,949	-50,300	0,045	0,015
-294,935	410,070	-0,071	-0,108
-293,920	-200,000	-0,012	-0,059
-292,905	546,576	0,016	0,027
-291,891	32,474	0,145	0,089
-290,876	-32,085	-0,097	0,039
-289,862	48,553	0,123	-0,082
-288,847	-74,208	-0,204	-0,052
-287,832	107,576	-0,113	0,097
-286,818	106,630	-0,098	0,084
-285,803	438,231	-0,050	0,079
-284,789	-200,000	0,040	0,237
-283,774	111,949	-0,042	0,036
-282,759	800,000	-0,033	-0,075
-281,745	-200,000	-0,001	0,032
-280,730	13,775	0,017	-0,009
-279,716	800,000	-0,028	0,080
-278,701	800,000	-0,026	-0,059
-277,686	25,689	0,221	0,131
-276,672	60,130	-0,060	0,042
-275,657	203,098	0,066	0,073
-274,643	-200,000	0,002	-0,008
-273,628	284,801	-0,092	-0,119
-272,613	530,825	0,009	0,015
-271,599	-120,019	0,049	0,006
-270,584	800,000	0,038	0,104
-269,570	-200,000	-0,018	0,062
-268,555	-200,000	-0,020	0,077
-267,540	-63,647	0,054	0,016
-266,526	-164,276	-0,103	0,003
-265,511	-148,129	0,074	0,004
-264,497	124,264	0,008	0,007
-263,482	160,235	-0,091	0,091
-262,467	774,855	0,066	0,128
-261,453	776,699	-0,047	0,091
-260,438	3,330	0,037	-0,019
-259,424	-200,000	0,013	0,071
-258,409	315,255	0,116	0,157
-257,395	-121,191	0,088	0,010
-256,380	-200,000	-0,005	0,051
-255,365	340,255	-0,025	-0,035
-254,351	800,000	0,079	0,167
-253,336	-200,000	0,036	-0,159
-252,322	-8,877	-0,134	-0,064
-251,307	545,882	-0,017	0,028
-250,292	77,264	0,047	-0,036
-249,278	334,793	0,072	0,100
-248,263	352,512	0,071	0,101
-247,249	642,638	-0,057	0,104
-246,234	-200,000	0,018	0,086
-245,219	800,000	0,056	0,146
-244,205	169,650	-0,054	-0,055
-243,190	-41,335	0,054	-0,020
-242,176	425,309	-0,009	-0,014
-241,161	63,789	0,097	0,069
-240,146	800,000	-0,067	0,197
-239,132	351,419	0,085	-0,121
-238,117	162,497	-0,026	-0,026
-237,103	-3,130	-0,104	0,052
-236,088	-200,000	-0,006	0,143
-235,073	202,496	0,123	0,135
-234,059	-43,150	0,060	0,021
-233,044	-172,137	0,110	-0,002
-232,030	-56,454	-0,054	-0,017
-231,015	-200,000	-0,007	-0,088
-230,000	-122,946	0,175	0,020
-228,986	-40,033	0,056	0,021
-227,971	800,000	0,009	-0,029
-226,957	55,908	0,027	-0,019
-225,942	800,000	0,044	0,098
-224,927	423,181	-0,137	0,210
-223,913	-151,523	-0,130	0,007
-222,898	-66,249	0,202	0,057
-221,884	-200,000	-0,002	-0,017
-220,869	-200,000	0,012	0,173
-219,855	179,028	0,132	-0,138
-218,840	-200,000	-0,017	-0,064
-217,825	89,091	-0,108	0,086
-216,811	755,654	-0,070	-0,136
-215,796	217,712	0,072	-0,083
-214,782	417,189	0,080	0,122
-213,767	-200,000	0,019	-0,180
-212,752	-200,000	-0,045	-0,153
-211,738	234,222	0,097	0,114
-210,723	-21,309	-0,004	0,002
-209,709	-15,713	-0,104	-0,047
-208,694	800,000	-0,047	0,097
-207,679	187,240	0,036	-0,038
-206,665	44,504	-0,112	0,074
-205,650	446,929	0,037	-0,058
-204,636	-70,414	0,013	0,003
-203,621	-127,326	0,089	0,009
-202,606	-200,000	-0,015	-0,090
-201,592	800,000	0,027	-0,076
-200,577	360,196	0,057	-0,082
-199,563	800,000	0,026	-0,063
-198,548	-200,000	0,010	0,037
-197,533	-8,323	-0,036	0,017
-196,519	40,325	-0,078	-0,050
-195,504	-162,852	0,046	0,002
-194,490	-200,000	0,017	0,097
-193,475	83,591	-0,077	-0,059
-192,460	8,058	-0,061	0,033
-191,446	-200,000	0,011	0,129
-190,431	-164,012	0,053	-0,002
-189,417	44,974	-0,026	-0,017
-188,402	-200,000	-0,004	0,018
-187,387	24,161	-0,091	-0,054
-186,373	182,070	0,116	-0,122
-185,358	316,892	0,013	-0,017
-184,344	112,442	0,096	-0,083
-183,329	75,878	-0,039	0,030
-182,315	-200,000	0,060	0,225
-181,300	149,657	0,084	-0,081
-180,285	-23,655	-0,055	0,023
-179,271	0,880	-0,033	0,017
-178,256	282,254	-0,056	-0,072
-177,242	800,000	0,050	0,118
-176,227	-85,583	-0,089	0,020
-175,212	-200,000	-0,009	-0,112
-174,198	-94,537	-0,110	-0,021
-173,183	-57,994	0,176	0,054
-172,169	-200,000	-0,005	0,142
-171,154	19,205	0,113	0,065
-170,139	368,522	0,064	0,093
-169,125	642,016	0,043	0,079
-168,110	-200,000	0,006	0,139
-167,096	135,537	-0,065	0,060
-166,081	-124,983	-0,040	0,004
-165,066	-200,000	-0,028	-0,107
-164,052	800,000	-0,025	0,071
-163,037	800,000	0,039	0,081
-162,023	-86,087	0,052	0,011
-161,008	89,656	-0,055	0,043
-159,993	83,788	0,021	0,017
-158,979	-28,788	0,023	-0,009
-157,964	-36,459	0,014	-0,005
-156,950	332,389	0,078	-0,108
-155,935	20,566	0,101	-0,058
-154,920	-9,189	-0,131	0,062
-153,906	800,000	-0,018	0,039
-152,891	-2,626	-0,054	0,027
-151,877	190,006	-0,060	-0,064
-150,862	168,528	0,054	-0,055
-149,847	467,854	-0,075	-0,120
-148,833	266,447	0,034	-0,042
-147,818	800,000	-0,028	-0,083
-146,804	554,075	-0,051	0,088
-145,789	416,111	0,055	0,083
-144,775	-83,268	-0,070	0,016
-143,760	-4,086	-0,149	0,073
-142,745	250,295	-0,126	0,153
-141,731	-36,859	-0,050	0,019
-140,716	-78,316	0,041	0,010
-139,702	-38,947	-0,022	-0,008
-138,687	-200,000	-0,007	0,086
-137,672	315,173	0,019	-0,025
-136,658	-196,336	-0,105	0,000
-135,643	-59,469	-0,108	-0,033
-134,629	-57,538	-0,113	0,035
-133,614	45,367	-0,049	-0,032
-132,599	60,392	-0,018	0,013
-131,585	228,323	-0,056	0,065
-130,570	-70,977	0,081	0,022
-129,556	88,083	-0,084	-0,066
-128,541	-90,078	-0,129	0,027
-127,526	-27,573	0,091	-0,037
-126,512	-200,000	0,031	0,126
-125,497	-200,000	-0,007	0,050
-124,483	354,729	-0,022	0,032
-123,468	800,000	-0,007	-0,016
-122,453	-158,228	-0,083	-0,003
-121,439	-200,000	-0,002	-0,054
-120,424	-18,765	0,087	-0,038
-119,410	-200,000	0,008	0,103
