DTS Sentinel unit serial number:	SN410029Multiplexer serial number:	ORYXHardware model number:	OX2-SRSoftware version number:	ORYX F/W v4,00 Oryx Data Collector v3.7.2.0data status	okinstallation	BH3 CH2differential loss correction	single-endedforward channel	channel 2reverse channel	N/Adate	2023/12/05time	21:12:28forward acquisition time	300,00reverse acquisition time	0,00gamma	499,1914k internal	0,3194k external	0,3194temperature offset calibration	1,0000default loss term (dB/km)	0,3820temperature slope calibration	1,0000multiplexer offset coefficient	1,0000multiplexer slope coefficient	1,0000fibre end	0,00T internal ref (°C)	10,36T ext. ref 1 (°C)	-4,50T ext. ref 2 (°C)	-4,59length (m)	temperature (°C)	Stokes	anti-Stokes-744,400	-43,972	-0,088	-0,032
-743,385	774,065	-0,106	0,213
-742,371	-200,000	-0,015	-0,141
-741,356	-83,846	-0,170	0,039
-740,342	-200,000	0,026	-0,215
-739,327	-80,515	-0,283	0,068
-738,312	76,326	-0,102	-0,079
-737,298	-103,044	-0,158	-0,027
-736,283	-13,205	-0,111	-0,052
-735,269	-182,876	-0,187	0,002
-734,254	-13,264	-0,157	-0,074
-733,239	-63,692	-0,303	-0,090
-732,225	137,558	0,055	0,052
-731,210	-200,000	0,027	0,086
-730,196	-200,000	-0,006	-0,095
-729,181	188,015	0,054	0,059
-728,167	-39,415	-0,063	-0,024
-727,152	266,420	-0,124	-0,158
-726,137	133,918	-0,041	-0,039
-725,123	800,000	0,058	-0,172
-724,108	-200,000	-0,012	-0,073
-723,094	69,921	-0,084	-0,063
-722,079	-28,410	0,040	-0,017
-721,064	-156,295	-0,149	0,007
-720,050	-200,000	0,015	-0,109
-719,035	-200,000	0,005	-0,052
-718,021	303,420	0,028	0,038
-717,006	-50,473	-0,015	0,005
-715,991	-200,000	-0,017	-0,211
-714,977	55,487	-0,076	-0,054
-713,962	-6,895	0,119	-0,059
-712,948	800,000	0,013	0,032
-711,933	30,179	-0,028	-0,017
-710,918	25,547	-0,088	0,053
-709,904	-25,006	-0,140	0,060
-708,889	296,265	0,009	0,012
-707,875	-121,461	-0,055	0,007
-706,860	-194,791	-0,041	0,000
-705,845	-200,000	-0,023	-0,087
-704,831	-60,169	0,145	0,045
-703,816	89,458	-0,033	0,027
-702,802	-200,000	-0,025	-0,086
-701,787	323,744	-0,094	-0,131
-700,772	-2,330	0,092	-0,047
-699,758	592,160	0,022	-0,041
-698,743	61,788	0,049	0,036
-697,729	800,000	0,025	0,053
-696,714	-16,108	0,048	-0,022
-695,699	98,775	0,042	-0,035
-694,685	-200,000	-0,062	-0,245
-693,670	800,000	-0,022	-0,066
-692,656	138,595	-0,071	-0,067
-691,641	431,403	-0,074	-0,117
-690,627	301,845	0,093	0,125
-689,612	54,856	-0,120	0,084
-688,597	-66,178	-0,052	-0,015
-687,583	524,113	-0,024	-0,042
-686,568	57,921	-0,084	0,060
-685,554	800,000	0,054	0,132
-684,539	20,815	-0,015	-0,009
-683,524	93,544	0,014	-0,011
-682,510	-82,922	0,021	0,005
-681,495	498,999	0,101	-0,169
-680,481	-89,589	0,083	0,018
-679,466	-75,715	-0,139	0,035
-678,451	49,526	0,099	0,068
-677,437	800,000	0,024	-0,055
-676,422	293,568	-0,050	-0,066
-675,408	800,000	-0,015	-0,037
-674,393	-200,000	-0,003	0,078
-673,378	365,162	-0,088	0,130
-672,364	133,795	-0,083	-0,078
-671,349	475,638	0,076	-0,126
-670,335	800,000	-0,029	-0,075
-669,320	-200,000	0,072	0,000
-668,305	65,677	-0,045	-0,033
-667,291	800,000	-0,035	-0,099
-666,276	-200,000	-0,011	-0,097
-665,262	563,705	-0,114	-0,201
-664,247	330,174	-0,023	-0,032
-663,232	455,662	0,050	-0,082
-662,218	-75,568	-0,069	-0,018
-661,203	-50,584	-0,065	0,022
-660,189	-200,000	0,002	-0,020
-659,174	-200,000	0,002	-0,112
-658,159	800,000	-0,051	-0,127
-657,145	-200,000	-0,013	-0,171
-656,130	800,000	0,042	-0,088
-655,116	-200,000	-0,011	-0,063
-654,101	-70,014	-0,074	-0,020
-653,086	-200,000	-0,006	0,035
-652,072	800,000	-0,030	-0,089
-651,057	-116,597	-0,108	-0,014
-650,043	-129,448	0,203	-0,020
-649,028	-63,215	-0,065	-0,019
-648,014	49,510	0,071	-0,049
-646,999	800,000	-0,024	-0,056
-645,984	-200,000	0,005	-0,103
-644,970	14,676	-0,071	0,040
-643,955	-97,678	0,083	0,016
-642,941	-200,000	-0,016	-0,096
-641,926	-0,326	-0,011	-0,005
-640,911	567,697	-0,050	0,088
-639,897	317,140	-0,059	0,081
-638,882	151,337	-0,101	0,100
-637,868	-200,000	0,015	0,051
-636,853	-23,560	-0,055	-0,024
-635,838	45,509	0,067	-0,045
-634,824	-57,061	-0,085	0,027
-633,809	59,981	-0,078	-0,056
-632,795	316,248	-0,052	-0,072
-631,780	326,654	-0,086	0,119
-630,765	66,225	-0,028	0,021
-629,751	-31,189	-0,205	-0,083
-628,736	239,715	-0,046	-0,056
-627,722	800,000	0,022	0,057
-626,707	-200,000	0,025	0,133
-625,692	-200,000	0,032	0,293
-624,678	-150,599	0,007	0,000
-623,663	40,219	-0,048	0,031
-622,649	-11,173	-0,134	-0,064
-621,634	1,399	0,091	-0,047
-620,619	-33,791	-0,114	0,045
-619,605	-18,218	0,060	-0,027
-618,590	-168,586	-0,019	0,001
-617,576	-157,566	-0,104	-0,004
-616,561	80,045	0,025	-0,020
-615,546	-144,585	0,077	-0,005
-614,532	-19,073	0,165	-0,074
-613,517	-76,018	-0,177	0,045
-612,503	-200,000	-0,020	0,139
-611,488	69,252	0,088	0,066
-610,474	276,297	-0,054	0,070
-609,459	-200,000	0,001	-0,082
-608,444	222,738	0,125	-0,147
-607,430	800,000	-0,049	-0,135
-606,415	167,957	-0,131	-0,135
-605,401	-200,000	-0,014	0,047
-604,386	49,871	-0,095	-0,065
-603,371	-34,221	-0,087	0,035
-602,357	-114,009	0,106	-0,015
-601,342	628,164	0,034	-0,062
-600,328	448,174	-0,039	-0,062
-599,313	800,000	0,043	-0,101
-598,298	-200,000	-0,002	-0,032
-597,284	31,107	0,024	-0,015
-596,269	-28,618	-0,095	0,039
-595,255	336,158	0,056	-0,079
-594,240	-200,000	0,016	-0,159
-593,225	-200,000	0,010	0,059
-592,211	116,044	-0,097	0,086
-591,196	168,965	-0,034	-0,036
-590,182	171,091	-0,045	0,047
-589,167	-200,000	-0,005	-0,053
-588,152	-42,762	-0,045	-0,016
-587,138	800,000	0,004	-0,010
-586,123	800,000	-0,021	-0,051
-585,109	201,379	-0,119	-0,133
-584,094	-81,272	-0,100	-0,024
-583,079	288,417	0,144	0,189
-582,065	603,273	-0,053	0,096
-581,050	553,451	-0,049	-0,086
-580,036	-200,000	0,019	-0,062
-579,021	-55,037	-0,122	0,039
-578,006	-200,000	0,004	0,044
-576,992	493,530	-0,044	-0,073
-575,977	800,000	0,075	0,191
-574,963	311,782	0,028	0,038
-573,948	-10,367	-0,071	-0,034
-572,934	800,000	0,042	0,092
-571,919	343,482	-0,063	0,090
-570,904	-64,450	0,122	0,036
-569,890	-83,307	-0,089	0,021
-568,875	94,153	0,135	0,111
-567,861	24,456	-0,143	0,086
-566,846	-168,772	-0,113	0,003
-565,831	800,000	-0,036	0,092
-564,817	584,483	-0,067	-0,120
-563,802	-60,050	0,103	-0,032
-562,788	-200,000	-0,005	0,020
-561,773	-200,000	-0,000	-0,177
-560,758	-56,534	0,140	0,044
-559,744	35,967	-0,024	0,016
-558,729	800,000	0,051	-0,107
-557,715	-143,862	0,065	-0,004
-556,700	-200,000	-0,034	-0,172
-555,685	35,786	0,035	-0,022
-554,671	729,994	-0,017	-0,033
-553,656	-43,776	-0,041	0,015
-552,642	3,595	0,105	-0,055
-551,627	45,896	-0,047	0,031
-550,612	-200,000	0,007	-0,049
-549,598	-200,000	-0,009	-0,144
-548,583	-123,161	-0,186	0,021
-547,569	800,000	-0,035	-0,107
-546,554	-71,664	0,066	0,018
-545,539	-200,000	0,008	0,047
-544,525	525,131	-0,009	-0,015
-543,510	128,834	-0,102	0,094
-542,496	-71,110	0,045	0,012
-541,481	99,227	0,016	-0,014
-540,466	658,083	0,013	-0,025
-539,452	-200,000	-0,025	0,092
-538,437	233,799	0,014	-0,017
-537,423	-32,641	0,126	-0,051
-536,408	47,934	0,098	0,066
-535,393	800,000	-0,040	0,117
-534,379	206,599	-0,082	-0,092
-533,364	227,898	-0,017	-0,019
-532,350	4,146	0,099	-0,052
-531,335	-106,158	0,030	0,005
-530,321	7,284	0,206	-0,111
-529,306	-97,507	-0,050	-0,009
-528,291	800,000	0,014	0,032
-527,277	15,693	0,161	-0,091
-526,262	321,534	0,040	-0,055
-525,248	421,376	0,043	0,067
-524,233	-200,000	-0,002	0,070
-523,218	3,955	0,037	0,020
-522,204	800,000	-0,072	0,221
-521,189	338,107	-0,036	-0,051
-520,175	-200,000	0,008	-0,031
-519,160	-200,000	-0,011	-0,051
-518,145	-200,000	-0,004	0,074
-517,131	-18,009	0,047	-0,021
-516,116	-200,000	-0,001	-0,014
-515,102	800,000	0,034	0,070
-514,087	-200,000	-0,038	-0,137
-513,072	176,371	0,091	0,096
-512,058	800,000	0,042	-0,105
-511,043	-200,000	0,015	0,097
-510,029	222,937	0,121	0,141
-509,014	-65,709	0,023	0,007
-507,999	-200,000	-0,000	-0,019
-506,985	-39,540	0,096	-0,036
-505,970	123,770	-0,066	-0,060
-504,956	-96,177	0,068	0,013
-503,941	-107,698	0,096	-0,015
-502,926	-200,000	-0,005	-0,096
-501,912	-107,871	-0,092	-0,014
-500,897	-50,648	0,126	-0,043
-499,883	-200,000	-0,020	-0,093
-498,868	431,081	0,063	0,098
-497,853	482,762	-0,035	0,058
-496,839	-71,802	-0,018	-0,005
-495,824	-122,901	0,121	0,014
-494,810	-23,425	0,084	0,036
-493,795	800,000	-0,031	0,092
-492,781	-39,045	-0,150	-0,057
-491,766	483,816	-0,048	-0,080
-490,751	67,655	0,082	-0,060
-489,737	90,296	-0,064	-0,052
-488,722	-200,000	-0,025	0,112
-487,708	-10,665	0,098	0,046
-486,693	650,219	-0,028	-0,052
-485,678	108,850	-0,022	-0,019
-484,664	6,120	0,031	0,017
-483,649	-200,000	0,016	0,099
-482,635	-25,828	0,110	-0,047
-481,620	125,473	0,140	-0,128
-480,605	561,245	0,033	0,058
-479,591	800,000	-0,027	0,060
-478,576	800,000	-0,032	0,076
-477,562	-110,708	0,028	-0,004
-476,547	316,937	0,045	-0,062
-475,532	-200,000	-0,010	-0,107
-474,518	-151,472	0,147	0,008
-473,503	61,562	0,040	0,029
-472,489	-5,454	0,117	-0,058
-471,474	-200,000	0,004	0,067
-470,459	-44,598	-0,092	-0,033
-469,445	285,399	-0,058	-0,075
-468,430	200,379	-0,101	-0,112
-467,416	101,617	0,043	-0,036
-466,401	74,040	-0,024	-0,018
-465,386	204,690	-0,037	0,041
-464,372	-95,780	-0,092	-0,018
-463,357	147,304	-0,038	-0,036
-462,343	516,979	-0,036	0,061
-461,328	-40,392	0,146	-0,054
-460,313	-200,000	0,017	-0,056
-459,299	-200,000	0,002	-0,008
-458,284	178,370	-0,051	-0,054
-457,270	284,249	-0,047	0,060
-456,255	30,179	-0,073	-0,045
-455,241	112,476	0,113	-0,099
-454,226	123,770	-0,033	-0,029
-453,211	-200,000	0,003	0,024
-452,197	-200,000	0,009	0,096
-451,182	-119,886	0,092	-0,011
-450,168	-200,000	-0,004	-0,022
-449,153	63,622	-0,070	0,051
-448,138	530,826	-0,031	-0,053
-447,124	-200,000	-0,031	-0,160
-446,109	-90,420	0,129	0,027
-445,095	39,228	0,045	0,029
-444,080	27,122	0,056	-0,034
-443,065	323,720	0,112	0,155
-442,051	800,000	-0,065	0,131
-441,036	-159,273	-0,104	0,004
-440,022	296,075	-0,068	0,090
-439,007	-200,000	-0,001	-0,017
-437,992	50,613	-0,026	0,018
-436,978	-200,000	-0,003	0,050
-435,963	738,641	-0,056	0,109
-434,949	-106,338	-0,149	0,024
-433,934	71,066	-0,149	-0,111
-432,919	373,004	-0,079	-0,116
-431,905	222,537	-0,045	0,053
-430,890	-35,162	0,084	-0,033
-429,876	26,296	-0,060	-0,036
-428,861	-200,000	-0,004	0,070
-427,846	-200,000	0,001	-0,020
-426,832	-106,113	-0,158	-0,025
-425,817	789,025	0,036	0,071
-424,803	-9,178	0,085	0,041
-423,788	-200,000	0,005	0,019
-422,773	-200,000	-0,007	0,110
-421,759	-18,513	0,121	0,054
-420,744	-200,000	-0,030	0,140
-419,730	435,024	-0,057	-0,090
-418,715	507,037	-0,070	-0,117
-417,701	-114,392	-0,064	-0,009
-416,686	-79,212	0,158	-0,038
-415,671	-200,000	-0,041	0,139
-414,657	-200,000	0,016	0,159
-413,642	-74,733	-0,167	-0,043
-412,628	-73,445	0,018	0,005
-411,613	92,895	0,125	-0,102
-410,598	-8,557	0,111	0,053
-409,584	70,948	-0,133	0,099
-408,569	424,097	0,067	0,104
-407,555	-56,397	0,111	-0,035
-406,540	800,000	0,028	0,070
-405,525	-59,570	-0,052	-0,016
-404,511	-54,073	-0,218	0,071
-403,496	-200,000	0,012	0,050
-402,482	457,098	0,048	0,076
-401,467	330,834	-0,068	0,095
-400,452	97,415	0,154	0,127
-399,438	351,558	-0,018	0,025
-398,423	-200,000	-0,016	-0,131
-397,409	-95,847	0,048	0,009
-396,394	244,000	0,088	0,107
-395,379	109,519	0,117	-0,101
-394,365	153,436	-0,079	0,078
-393,350	57,444	0,157	0,110
-392,336	31,918	0,037	-0,023
-391,321	333,069	-0,025	0,035
-390,306	-200,000	0,009	-0,062
-389,292	800,000	-0,067	0,171
-388,277	-80,369	0,107	-0,025
-387,263	800,000	-0,013	0,037
-386,248	560,879	0,062	-0,109
-385,233	800,000	-0,094	0,231
-384,219	-200,000	0,013	0,147
-383,204	-171,456	-0,178	0,004
-382,190	-153,984	0,086	0,004
-381,175	169,876	0,074	-0,076
-380,160	-108,833	-0,050	0,008
-379,146	-26,973	0,153	0,064
-378,131	246,645	0,026	-0,031
-377,117	-200,000	0,023	0,083
-376,102	800,000	0,026	-0,055
-375,088	735,751	0,049	-0,094
-374,073	800,000	-0,031	0,089
-373,058	471,952	0,054	0,088
-372,044	-63,906	0,128	0,037
-371,029	-162,063	-0,080	-0,003
-370,015	112,400	0,030	0,026
-369,000	-8,745	-0,178	0,086
-367,985	-99,231	-0,097	-0,017
-366,971	-200,000	-0,044	-0,150
-365,956	-135,909	0,075	0,006
-364,942	-100,796	0,058	-0,010
-363,927	386,362	0,028	-0,041
-362,912	-200,000	0,010	0,077
-361,898	-200,000	-0,007	-0,035
-360,883	-200,000	-0,050	-0,185
-359,869	515,242	-0,049	0,083
-358,854	68,447	0,069	0,050
-357,839	-95,185	-0,065	-0,012
-356,825	800,000	0,042	-0,107
-355,810	800,000	0,054	-0,117
-354,796	-58,389	-0,059	-0,018
-353,781	-156,262	0,107	-0,005
-352,766	800,000	0,061	0,121
-351,752	-200,000	0,041	-0,162
-350,737	361,935	-0,053	0,076
-349,723	81,436	0,153	0,119
-348,708	117,868	-0,017	-0,015
-347,693	-134,903	-0,081	-0,007
-346,679	603,765	-0,103	-0,185
-345,664	365,029	0,051	0,074
-344,650	592,649	0,067	0,120
-343,635	800,000	-0,032	0,073
-342,620	-138,184	-0,134	-0,011
-341,606	-9,506	-0,040	-0,019
-340,591	18,903	0,064	-0,037
-339,577	134,316	-0,079	-0,074
-338,562	393,861	0,060	-0,090
-337,548	27,833	0,150	-0,090
-336,533	-200,000	-0,031	-0,132
-335,518	78,461	0,166	0,127
-334,504	182,417	0,089	0,095
-333,489	417,274	-0,108	0,167
-332,475	800,000	-0,054	-0,122
-331,460	189,310	-0,048	-0,052
-330,445	75,820	-0,034	0,026
-329,431	237,948	-0,069	0,082
-328,416	800,000	0,044	0,091
-327,402	-31,901	-0,073	0,029
-326,387	248,949	-0,106	-0,129
-325,372	-51,365	-0,103	0,034
-324,358	-157,637	0,039	-0,002
-323,343	-108,062	0,027	0,004
-322,329	-44,547	0,039	0,014
-321,314	56,106	0,197	-0,137
-320,299	-33,051	-0,121	-0,048
-319,285	-109,682	0,151	0,023
-318,270	800,000	-0,046	-0,119
-317,256	140,763	-0,064	-0,061
-316,241	704,228	-0,067	0,127
-315,226	800,000	0,032	-0,098
-314,212	-200,000	0,016	-0,074
-313,197	-200,000	0,014	0,045
-312,183	-11,507	-0,098	-0,046
-311,168	381,182	0,115	0,170
-310,153	-46,681	-0,184	-0,064
-309,139	800,000	-0,036	0,076
-308,124	-182,031	0,120	0,002
-307,110	-45,130	0,117	0,041
-306,095	327,607	-0,027	-0,038
-305,080	-113,635	-0,106	-0,015
-304,066	-200,000	-0,023	0,124
-303,051	-200,000	-0,015	-0,089
-302,037	40,983	0,032	-0,021
-301,022	226,663	-0,086	-0,101
-300,008	56,028	0,023	0,016
-298,993	102,290	0,073	0,061
-297,978	51,350	0,100	0,068
-296,964	567,058	-0,061	-0,106
-295,949	150,866	-0,065	0,063
-294,935	19,211	-0,121	0,070
-293,920	36,576	0,101	0,064
-292,905	235,365	0,113	-0,133
-291,891	-127,483	0,093	0,010
-290,876	561,497	0,021	0,037
-289,862	-37,076	-0,183	-0,070
-288,847	77,833	-0,085	0,065
-287,832	-136,156	0,053	-0,004
-286,818	755,122	-0,075	0,146
-285,803	280,460	0,044	0,057
-284,789	39,623	-0,041	0,026
-283,774	-53,098	0,057	-0,019
-282,759	423,247	0,027	-0,041
-281,745	72,242	0,078	-0,058
-280,730	800,000	-0,064	-0,142
-279,716	-125,982	0,030	-0,003
-278,701	-30,791	0,121	0,049
-277,686	74,434	0,173	0,130
-276,672	261,244	0,045	-0,056
-275,657	-110,206	-0,037	-0,005
-274,643	-200,000	-0,017	-0,086
-273,628	800,000	-0,022	-0,046
-272,613	800,000	-0,086	0,242
-271,599	51,684	-0,014	-0,010
-270,584	66,461	0,071	0,052
-269,570	717,376	0,043	0,082
-268,555	87,765	-0,113	-0,090
-267,540	800,000	-0,022	-0,049
-266,526	-200,000	-0,008	0,039
-265,511	-200,000	0,007	-0,042
-264,497	-24,997	-0,104	-0,044
-263,482	39,887	0,227	0,146
-262,467	-87,894	0,051	0,011
-261,453	660,803	0,047	0,086
-260,438	-200,000	0,009	0,054
-259,424	735,898	0,053	-0,103
-258,409	-200,000	0,004	-0,038
-257,395	697,126	0,043	-0,081
-256,380	800,000	0,039	0,086
-255,365	-200,000	-0,007	0,027
-254,351	-200,000	-0,007	0,090
-253,336	49,166	-0,117	-0,079
-252,322	547,186	-0,053	-0,091
-251,307	-117,049	0,064	-0,008
-250,292	-200,000	-0,000	0,044
-249,278	-200,000	0,020	0,076
-248,263	799,313	0,042	0,083
-247,249	82,892	0,061	-0,047
-246,234	-23,942	-0,106	-0,045
-245,219	92,750	-0,061	-0,049
-244,205	-6,833	-0,161	0,078
-243,190	-168,309	0,079	0,002
-242,176	9,203	-0,032	0,018
-241,161	-78,512	0,122	0,030
-240,146	-200,000	0,000	0,011
-239,132	99,775	-0,092	-0,076
-238,117	293,894	-0,088	-0,115
-237,103	-14,266	0,026	0,012
-236,088	-12,965	-0,118	-0,055
-235,073	-103,809	0,122	-0,020
-234,059	800,000	-0,035	-0,110
-233,044	466,714	0,087	0,139
-232,030	800,000	-0,028	0,073
-231,015	247,199	0,081	-0,098
-230,000	-44,156	0,027	0,010
-228,986	-62,060	0,089	-0,026
-227,971	-101,001	-0,215	0,037
-226,957	-200,000	-0,034	0,164
-225,942	-77,364	0,085	-0,021
-224,927	581,587	-0,023	-0,040
-223,913	-8,130	0,071	0,034
-222,898	451,458	-0,054	-0,086
-221,884	800,000	-0,012	0,031
-220,869	93,757	0,014	-0,011
-219,855	-200,000	0,004	0,083
-218,840	73,179	0,125	0,093
-217,825	448,287	0,041	-0,065
-216,811	394,128	0,043	-0,065
-215,796	800,000	-0,045	-0,109
-214,782	-85,332	-0,146	-0,032
-213,767	-52,927	-0,116	-0,038
-212,752	-41,307	0,212	0,078
-211,738	800,000	0,030	0,080
-210,723	-200,000	-0,006	0,093
-209,709	-200,000	0,003	0,017
-208,694	-200,000	-0,009	-0,062
-207,679	-74,275	-0,034	-0,009
-206,665	-180,109	0,122	0,002
-205,650	-200,000	-0,007	-0,036
-204,636	-32,036	0,168	-0,067
-203,621	-101,026	-0,096	0,017
-202,606	360,048	-0,128	-0,184
-201,592	800,000	0,061	-0,132
-200,577	-185,540	0,088	0,001
-199,563	304,735	-0,024	0,032
-198,548	-1,879	0,134	-0,067
-197,533	-63,118	-0,104	0,030
-196,519	264,810	-0,022	-0,028
-195,504	32,913	-0,035	-0,021
-194,490	522,460	-0,005	0,008
-193,475	72,039	-0,037	-0,027
-192,460	329,346	-0,045	-0,062
-191,446	800,000	0,021	-0,044
-190,431	54,936	0,032	0,022
-189,417	79,804	-0,032	0,025
-188,402	309,766	-0,009	-0,012
-187,387	800,000	-0,079	-0,167
-186,373	178,057	0,025	0,026
-185,358	-200,000	0,027	-0,165
-184,344	13,152	-0,023	0,012
-183,329	-98,214	-0,261	0,047
-182,315	-200,000	-0,000	0,137
-181,300	41,365	-0,076	-0,049
-180,285	38,016	-0,090	-0,057
-179,271	229,045	0,048	-0,055
-178,256	-200,000	0,004	-0,059
-177,242	-139,733	0,182	0,014
-176,227	-200,000	-0,037	0,118
-175,212	268,095	0,057	-0,071
-174,198	-200,000	0,006	-0,051
-173,183	-200,000	0,030	-0,124
-172,169	162,571	0,042	-0,042
-171,154	-54,221	-0,023	-0,007
-170,139	-200,000	0,009	-0,130
-169,125	181,762	-0,069	0,072
-168,110	138,346	0,055	-0,051
-167,096	220,667	0,050	0,057
-166,081	-200,000	0,043	0,140
-165,066	-28,308	0,048	-0,020
-164,052	698,622	-0,063	-0,119
-163,037	-79,384	-0,160	0,038
-162,023	-103,526	-0,063	-0,011
-161,008	13,080	-0,042	0,023
-159,993	-138,399	0,091	-0,007
-158,979	-110,166	0,012	-0,002
-157,964	-200,000	-0,001	-0,086
-156,950	45,706	-0,056	0,037
-155,935	-200,000	0,010	0,064
-154,920	109,641	-0,040	0,034
-153,906	250,666	-0,029	0,035
-152,891	-31,299	0,044	0,018
-151,877	800,000	-0,030	-0,093
-150,862	-27,667	-0,113	-0,047
-149,847	389,093	-0,033	-0,049
-148,833	800,000	-0,028	-0,075
-147,818	-200,000	0,025	-0,101
-146,804	604,447	-0,038	0,068
-145,789	-200,000	0,007	-0,120
-144,775	-200,000	0,005	-0,021
-143,760	523,146	-0,097	-0,163
-142,745	521,624	-0,042	0,070
-141,731	-101,331	-0,073	0,013
-140,716	-200,000	0,005	0,023
-139,702	158,564	-0,073	0,072
-138,687	96,904	-0,070	-0,057
-137,672	-200,000	0,020	0,079
-136,658	-200,000	-0,012	0,064
-135,643	-200,000	-0,001	-0,049
-134,629	-52,634	-0,089	-0,029
-133,614	85,842	-0,018	0,014
-132,599	399,394	0,094	0,140
-131,585	67,304	0,109	0,079
-130,570	-73,795	-0,021	0,006
-129,556	-69,492	-0,142	-0,038
-128,541	616,811	-0,053	-0,095
-127,526	-32,222	0,066	-0,026
-126,512	284,564	0,036	0,046
-125,497	133,076	-0,063	0,058
-124,483	-181,792	-0,161	-0,002
-123,468	9,197	-0,023	-0,013
-122,453	-200,000	-0,031	-0,118
-121,439	-200,000	-0,030	-0,152
-120,424	-83,398	0,102	-0,023
