DTS Sentinel unit serial number:	SN410029Multiplexer serial number:	ORYXHardware model number:	OX2-SRSoftware version number:	ORYX F/W v4,00 Oryx Data Collector v3.7.2.0data status	okinstallation	BH3 CH2differential loss correction	single-endedforward channel	channel 2reverse channel	N/Adate	2023/12/06time	05:02:28forward acquisition time	300,00reverse acquisition time	0,00gamma	499,1914k internal	0,3197k external	0,3197temperature offset calibration	1,0000default loss term (dB/km)	0,3820temperature slope calibration	1,0000multiplexer offset coefficient	1,0000multiplexer slope coefficient	1,0000fibre end	0,00T internal ref (°C)	8,93T ext. ref 1 (°C)	-5,69T ext. ref 2 (°C)	-5,79length (m)	temperature (°C)	Stokes	anti-Stokes-744,400	800,000	-0,024	0,050
-743,385	-57,971	-0,301	0,095
-742,371	-200,000	-0,023	-0,160
-741,356	245,423	-0,128	0,157
-740,342	234,922	-0,014	0,016
-739,327	-28,355	-0,357	0,149
-738,312	-113,763	0,116	-0,016
-737,298	-136,528	-0,263	0,022
-736,283	800,000	-0,040	-0,114
-735,269	800,000	-0,038	0,108
-734,254	64,573	-0,052	-0,038
-733,239	23,540	-0,375	-0,224
-732,225	30,047	0,071	-0,044
-731,210	166,643	0,137	0,141
-730,196	402,757	-0,077	-0,118
-729,181	-200,000	-0,010	0,093
-728,167	-200,000	-0,014	-0,204
-727,152	171,242	-0,080	-0,084
-726,137	-200,000	-0,002	-0,009
-725,123	800,000	-0,042	-0,110
-724,108	743,691	0,024	-0,047
-723,094	178,356	-0,060	-0,064
-722,079	-200,000	-0,026	-0,161
-721,064	316,203	-0,055	-0,076
-720,050	7,519	-0,096	0,052
-719,035	-200,000	0,012	0,065
-718,021	-46,508	-0,211	-0,075
-717,006	-200,000	0,024	-0,135
-715,991	-123,204	-0,165	0,019
-714,977	-200,000	-0,006	-0,128
-713,962	-159,609	-0,153	0,006
-712,948	176,945	-0,033	-0,035
-711,933	83,119	-0,103	0,082
-710,918	85,708	-0,073	0,058
-709,904	37,278	-0,036	0,023
-708,889	-200,000	0,000	0,001
-707,875	-23,991	-0,087	0,037
-706,860	-200,000	0,019	0,148
-705,845	-200,000	-0,002	0,154
-704,831	125,449	0,050	-0,046
-703,816	-200,000	-0,018	0,115
-702,802	177,181	-0,124	-0,131
-701,787	-200,000	-0,061	-0,208
-700,772	5,409	0,074	-0,040
-699,758	800,000	-0,052	0,126
-698,743	199,728	0,055	0,062
-697,729	800,000	-0,027	0,068
-696,714	372,056	0,065	-0,097
-695,699	-82,656	-0,035	0,008
-694,685	-200,000	-0,010	-0,152
-693,670	55,068	-0,051	-0,036
-692,656	1,518	0,113	0,059
-691,641	132,495	-0,059	0,055
-690,627	574,725	0,065	-0,116
-689,612	-200,000	-0,000	-0,157
-688,597	4,332	-0,088	-0,047
-687,583	23,173	-0,175	0,104
-686,568	-200,000	-0,004	-0,099
-685,554	-74,367	0,063	0,016
-684,539	89,730	-0,034	-0,028
-683,524	0,599	-0,095	0,049
-682,510	592,362	0,062	0,112
-681,495	-16,597	-0,140	-0,064
-680,481	-200,000	0,004	-0,208
-679,466	238,538	0,016	-0,020
-678,451	-134,515	0,077	-0,007
-677,437	-200,000	-0,009	-0,064
-676,422	616,245	0,095	0,175
-675,408	-97,898	0,077	-0,014
-674,393	-11,209	-0,065	0,031
-673,378	-90,207	-0,020	0,004
-672,364	-200,000	0,014	-0,129
-671,349	800,000	-0,007	-0,023
-670,335	1,635	-0,107	0,056
-669,320	-200,000	0,001	-0,039
-668,305	-200,000	0,021	-0,070
-667,291	-99,785	0,061	-0,011
-666,276	-93,955	0,074	0,015
-665,262	-105,220	-0,099	0,016
-664,247	-88,996	-0,051	0,011
-663,232	255,063	-0,041	0,051
-662,218	52,258	0,091	-0,063
-661,203	556,948	0,041	-0,073
-660,189	-37,533	-0,071	0,028
-659,174	213,774	-0,038	0,044
-658,159	7,538	-0,085	0,046
-657,145	-200,000	0,001	0,038
-656,130	216,560	-0,024	0,027
-655,116	-200,000	0,040	0,169
-654,101	800,000	0,025	-0,075
-653,086	-200,000	0,001	-0,013
-652,072	-200,000	-0,011	-0,057
-651,057	229,983	0,137	-0,163
-650,043	-93,627	-0,112	-0,022
-649,028	-131,164	-0,124	0,012
-648,014	279,616	0,056	0,073
-646,999	-19,234	-0,081	-0,036
-645,984	-46,920	0,096	0,034
-644,970	-47,678	-0,094	0,033
-643,955	215,007	0,045	-0,052
-642,941	140,418	-0,111	-0,106
-641,926	-77,235	0,056	-0,014
-640,911	800,000	-0,052	0,155
-639,897	-200,000	-0,008	0,129
-638,882	20,243	0,014	0,008
-637,868	-200,000	0,016	0,092
-636,853	-200,000	-0,021	0,076
-635,838	-200,000	-0,020	0,076
-634,824	101,579	-0,064	-0,054
-633,809	478,726	-0,024	-0,040
-632,795	763,178	0,056	0,110
-631,780	13,055	0,032	0,018
-630,765	-18,727	-0,096	-0,043
-629,751	-200,000	0,026	-0,094
-628,736	540,133	0,006	-0,011
-627,722	103,476	0,075	-0,064
-626,707	722,460	0,059	0,114
-625,692	-200,000	0,020	0,139
-624,678	370,644	0,013	0,019
-623,663	85,712	0,084	0,067
-622,649	-200,000	-0,011	-0,044
-621,634	33,531	-0,085	0,054
-620,619	65,987	0,064	-0,047
-619,605	-200,000	0,005	-0,226
-618,590	-31,696	0,087	0,035
-617,576	-200,000	0,032	0,116
-616,561	5,409	0,017	0,009
-615,546	-26,529	-0,118	-0,050
-614,532	-200,000	-0,037	-0,124
-613,517	800,000	-0,032	-0,084
-612,503	157,669	-0,074	-0,074
-611,488	225,145	0,042	0,049
-610,474	-200,000	0,005	-0,055
-609,459	58,694	0,095	-0,067
-608,444	-200,000	0,034	-0,137
-607,430	-200,000	0,039	-0,238
-606,415	22,294	-0,011	0,007
-605,401	800,000	0,026	-0,064
-604,386	800,000	0,062	-0,158
-603,371	-17,754	0,112	-0,051
-602,357	171,486	-0,082	0,085
-601,342	-158,890	-0,043	-0,002
-600,328	497,701	-0,066	-0,110
-599,313	-200,000	0,012	0,096
-598,298	342,514	0,034	0,049
-597,284	-200,000	0,059	0,194
-596,269	26,973	-0,053	-0,032
-595,255	800,000	0,014	0,040
-594,240	239,591	0,033	0,040
-593,225	800,000	-0,067	0,179
-592,211	-9,641	0,086	0,042
-591,196	-93,170	-0,110	0,022
-590,182	800,000	0,035	0,083
-589,167	-200,000	0,002	0,106
-588,152	-136,785	-0,029	-0,002
-587,138	53,332	-0,094	0,065
-586,123	195,710	-0,077	0,085
-585,109	800,000	0,071	-0,211
-584,094	541,798	-0,050	-0,086
-583,079	-200,000	0,009	0,078
-582,065	-44,269	0,130	0,047
-581,050	-200,000	0,024	0,169
-580,036	104,792	-0,031	0,026
-579,021	800,000	-0,088	-0,198
-578,006	718,327	0,005	-0,010
-576,992	48,355	0,052	-0,035
-575,977	-155,282	-0,098	0,005
-574,963	-126,226	-0,055	0,006
-573,948	177,441	0,107	-0,113
-572,934	-200,000	-0,026	0,091
-571,919	800,000	-0,057	-0,119
-570,904	617,672	-0,067	-0,122
-569,890	235,400	0,053	-0,063
-568,875	261,604	-0,077	0,097
-567,861	800,000	0,037	0,078
-566,846	-200,000	-0,001	0,150
-565,831	800,000	-0,049	0,117
-564,817	-200,000	0,010	-0,174
-563,802	78,021	-0,062	-0,048
-562,788	168,843	0,098	-0,101
-561,773	-200,000	0,001	0,116
-560,758	548,730	0,088	0,152
-559,744	281,458	-0,095	0,124
-558,729	142,399	0,087	-0,084
-557,715	-100,653	0,069	-0,012
-556,700	-200,000	-0,005	-0,057
-555,685	493,976	0,056	-0,093
-554,671	-57,052	-0,077	-0,024
-553,656	-200,000	0,020	-0,100
-552,642	132,557	0,026	0,024
-551,627	23,123	-0,072	0,042
-550,612	-30,017	-0,080	-0,033
-549,598	-122,263	-0,063	0,007
-548,583	-19,685	0,062	0,027
-547,569	-17,227	0,107	0,049
-546,554	800,000	0,014	-0,030
-545,539	-117,436	0,022	0,003
-544,525	623,702	-0,044	0,080
-543,510	-200,000	0,005	0,050
-542,496	797,662	-0,033	0,065
-541,481	142,936	-0,062	-0,059
-540,466	47,361	0,019	-0,013
-539,452	86,488	0,055	0,044
-538,437	222,780	-0,069	0,080
-537,423	-25,727	0,082	0,035
-536,408	-140,299	-0,181	0,013
-535,393	800,000	0,045	-0,092
-534,379	-50,027	0,139	0,047
-533,364	135,396	-0,090	0,085
-532,350	651,037	-0,058	-0,108
-531,335	-200,000	-0,004	-0,044
-530,321	-42,763	0,053	0,020
-529,306	-85,670	0,051	-0,011
-528,291	608,349	-0,046	0,084
-527,277	40,420	-0,054	0,035
-526,262	-36,053	0,059	-0,023
-525,248	535,201	-0,021	0,036
-524,233	434,775	0,073	0,115
-523,218	800,000	-0,012	0,031
-522,204	105,871	0,073	-0,063
-521,189	3,552	-0,157	-0,082
-520,175	800,000	-0,067	-0,157
-519,160	-61,163	0,109	-0,033
-518,145	800,000	0,031	0,069
-517,131	22,768	-0,095	-0,056
-516,116	800,000	0,052	0,123
-515,102	-200,000	-0,002	0,010
-514,087	-200,000	-0,008	-0,034
-513,072	-200,000	0,000	-0,098
-512,058	-87,347	0,095	0,021
-511,043	3,646	0,059	0,031
-510,029	800,000	0,035	-0,109
-509,014	800,000	-0,054	-0,139
-507,999	341,278	0,086	0,121
-506,985	-200,000	0,015	-0,079
-505,970	800,000	0,036	-0,083
-504,956	176,912	0,069	-0,072
-503,941	-200,000	-0,022	0,082
-502,926	748,364	-0,015	-0,030
-501,912	800,000	0,022	0,044
-500,897	-40,767	0,048	-0,018
-499,883	-200,000	-0,028	-0,123
-498,868	-49,250	-0,080	0,027
-497,853	765,689	0,044	-0,087
-496,839	-200,000	-0,029	0,133
-495,824	-34,701	0,152	-0,060
-494,810	-27,893	0,152	0,063
-493,795	-200,000	-0,015	-0,103
-492,781	170,762	-0,069	-0,071
-491,766	800,000	0,030	0,082
-490,751	89,119	-0,069	-0,055
-489,737	56,058	0,117	-0,082
-488,722	-185,825	-0,093	-0,001
-487,708	54,545	0,132	0,092
-486,693	79,532	0,032	-0,025
-485,678	215,917	0,062	-0,072
-484,664	-61,178	-0,004	-0,001
-483,649	4,696	-0,065	-0,034
-482,635	222,202	0,062	-0,072
-481,620	-127,294	0,086	-0,009
-480,605	-184,994	0,098	-0,001
-479,591	800,000	0,011	0,029
-478,576	6,081	0,079	-0,042
-477,562	-200,000	-0,001	-0,083
-476,547	537,780	-0,024	0,041
-475,532	-29,944	0,139	-0,057
-474,518	-200,000	-0,011	-0,165
-473,503	-33,358	-0,120	-0,047
-472,489	-200,000	0,002	0,013
-471,474	136,466	0,061	0,057
-470,459	-15,861	-0,052	0,024
-469,445	800,000	0,016	-0,049
-468,430	309,462	0,091	0,123
-467,416	-83,027	0,119	0,027
-466,401	246,887	-0,051	0,062
-465,386	368,039	0,065	0,095
-464,372	-1,647	0,170	0,086
-463,357	-200,000	-0,045	0,142
-462,343	-200,000	-0,017	-0,090
-461,328	-200,000	0,010	0,090
-460,313	-82,133	-0,094	-0,022
-459,299	122,056	0,092	0,083
-458,284	630,501	-0,019	-0,035
-457,270	-117,597	0,019	0,002
-456,255	337,831	-0,080	-0,112
-455,241	-200,000	-0,031	-0,161
-454,226	137,144	-0,058	-0,054
-453,211	-200,000	0,001	-0,128
-452,197	-200,000	0,005	-0,034
-451,182	-133,943	0,045	-0,004
-450,168	402,398	-0,046	-0,069
-449,153	-85,847	-0,109	0,024
-448,138	-32,136	-0,140	-0,056
-447,124	-76,956	-0,080	-0,020
-446,109	800,000	-0,043	0,096
-445,095	91,615	-0,068	0,055
-444,080	-42,409	-0,034	-0,012
-443,065	310,053	0,035	-0,047
-442,051	424,797	-0,050	-0,078
-441,036	207,798	-0,077	-0,087
-440,022	33,103	-0,109	-0,068
-439,007	35,470	-0,118	0,074
-437,992	-200,000	0,018	-0,076
-436,978	800,000	0,034	0,073
-435,963	-93,394	0,097	-0,019
-434,949	521,618	-0,034	-0,057
-433,934	-200,000	-0,004	0,088
-432,919	-51,285	0,050	-0,017
-431,905	109,294	0,106	0,092
-430,890	800,000	0,031	0,083
-429,876	800,000	-0,050	0,120
-428,861	-200,000	0,005	0,054
-427,846	9,666	0,026	-0,014
-426,832	-38,854	-0,185	-0,070
-425,817	-60,657	-0,055	-0,017
-424,803	-200,000	0,022	-0,071
-423,788	-200,000	-0,005	-0,022
-422,773	-200,000	0,003	0,077
-421,759	25,890	0,107	0,064
-420,744	-131,908	0,056	-0,005
-419,730	-161,617	-0,069	0,002
-418,715	307,921	0,077	-0,104
-417,701	155,550	-0,049	-0,049
-416,686	-200,000	-0,006	0,054
-415,671	-200,000	-0,002	0,029
-414,657	800,000	0,043	0,117
-413,642	179,828	0,078	0,082
-412,628	83,702	-0,041	-0,032
-411,613	-52,108	-0,092	-0,031
-410,598	-200,000	-0,017	0,119
-409,584	14,942	0,143	0,080
-408,569	-155,660	0,169	0,008
-407,555	-57,943	-0,103	0,032
-406,540	6,327	-0,106	-0,056
-405,525	-12,485	0,063	0,029
-404,511	13,215	-0,047	-0,026
-403,496	-200,000	0,005	-0,058
-402,482	-131,711	0,114	0,011
-401,467	-200,000	-0,015	0,103
-400,452	-3,466	-0,048	-0,024
-399,438	529,991	-0,079	0,135
-398,423	800,000	-0,034	0,091
-397,409	623,793	0,088	-0,159
-396,394	393,476	-0,030	-0,045
-395,379	800,000	-0,086	0,199
-394,365	28,430	0,021	0,013
-393,350	800,000	-0,022	0,046
-392,336	405,452	0,033	0,050
-391,321	800,000	0,012	-0,030
-390,306	-200,000	-0,003	0,076
-389,292	-6,121	-0,089	-0,044
-388,277	27,590	0,070	0,042
-387,263	150,021	0,063	-0,061
-386,248	-81,545	-0,079	-0,019
-385,233	-200,000	0,008	0,041
-384,219	-27,487	0,165	0,069
-383,204	800,000	0,032	-0,082
-382,190	-117,024	-0,025	0,003
-381,175	34,215	0,122	0,076
-380,160	-200,000	0,010	-0,091
-379,146	800,000	0,022	0,064
-378,131	800,000	0,050	0,114
-377,117	53,040	-0,131	-0,090
-376,102	-21,606	0,105	-0,046
-375,088	5,727	0,112	-0,059
-374,073	-139,967	-0,097	-0,007
-373,058	-54,174	-0,176	0,057
-372,044	124,731	0,074	0,067
-371,029	744,449	0,089	0,173
-370,015	-200,000	-0,021	0,097
-369,000	89,190	-0,017	-0,013
-367,985	677,194	0,023	-0,044
-366,971	-95,522	0,175	-0,033
-365,956	95,868	-0,064	-0,053
-364,942	-51,439	0,079	0,026
-363,927	-102,496	-0,123	0,021
-362,912	-200,000	-0,004	0,040
-361,898	800,000	-0,028	-0,086
-360,883	800,000	0,043	-0,117
-359,869	538,357	0,029	0,049
-358,854	-200,000	0,009	0,118
-357,839	45,037	0,051	0,033
-356,825	-55,829	-0,073	-0,023
-355,810	316,750	-0,044	0,059
-354,796	41,064	-0,109	0,070
-353,781	-129,569	0,153	-0,015
-352,766	-140,416	0,144	0,011
-351,752	-200,000	0,001	-0,038
-350,737	-200,000	0,014	-0,083
-349,723	63,082	0,097	-0,070
-348,708	800,000	-0,027	-0,074
-347,693	695,347	0,047	-0,089
-346,679	53,673	-0,033	-0,022
-345,664	-118,585	0,131	-0,016
-344,650	-200,000	-0,021	0,102
-343,635	367,198	0,073	0,105
-342,620	46,969	0,020	0,013
-341,606	-200,000	0,001	-0,028
-340,591	109,043	0,135	0,115
-339,577	-88,833	-0,114	-0,024
-338,562	-63,238	-0,129	-0,038
-337,548	-200,000	0,028	-0,095
-336,533	678,358	0,043	0,080
-335,518	259,131	0,076	0,094
-334,504	120,271	-0,022	-0,019
-333,489	136,593	-0,107	-0,100
-332,475	391,755	0,035	0,053
-331,460	-105,962	0,064	-0,010
-330,445	533,117	-0,100	-0,170
-329,431	-200,000	-0,006	0,035
-328,416	331,910	0,010	0,014
-327,402	331,445	-0,058	-0,081
-326,387	19,913	0,125	-0,072
-325,372	-94,852	-0,103	-0,020
-324,358	82,594	-0,089	-0,069
-323,343	-0,572	0,097	-0,049
-322,329	207,325	-0,059	-0,066
-321,314	99,306	0,056	0,046
-320,299	339,110	-0,035	0,049
-319,285	-126,019	-0,097	-0,010
-318,270	16,595	-0,137	0,077
-317,256	-200,000	-0,024	0,098
-316,241	618,704	-0,044	0,079
-315,226	-200,000	0,013	0,091
-314,212	478,185	0,090	0,147
-313,197	664,529	-0,018	-0,034
-312,183	287,185	-0,033	0,043
-311,168	-163,271	-0,065	-0,002
-310,153	800,000	-0,062	-0,164
-309,139	-89,099	-0,050	-0,010
-308,124	-142,520	0,042	-0,003
-307,110	56,814	0,118	-0,082
-306,095	-200,000	-0,038	0,138
-305,080	-146,023	0,031	0,002
-304,066	96,499	0,062	-0,051
-303,051	-200,000	-0,012	0,045
-302,037	315,889	0,009	-0,012
-301,022	430,959	0,066	-0,102
-300,008	54,086	0,079	0,054
-298,993	-200,000	0,004	0,169
-297,978	-96,601	0,065	-0,012
-296,964	-21,431	-0,058	-0,025
-295,949	-200,000	0,031	-0,177
-294,935	16,470	-0,086	-0,049
-293,920	-70,157	0,101	-0,027
-292,905	-200,000	-0,010	-0,038
-291,891	-37,504	-0,123	-0,047
-290,876	231,689	0,044	0,051
-289,862	-77,999	0,145	-0,035
-288,847	302,859	0,018	-0,024
-287,832	33,768	0,038	0,023
-286,818	800,000	-0,032	-0,076
-285,803	278,616	-0,069	0,088
-284,789	777,329	0,040	0,079
-283,774	38,169	0,056	0,036
-282,759	-200,000	0,019	0,069
-281,745	4,588	0,024	0,012
-280,730	6,803	-0,181	-0,096
-279,716	-200,000	-0,030	-0,106
-278,701	68,717	0,042	-0,031
-277,686	32,303	0,081	0,050
-276,672	-69,494	0,139	-0,038
-275,657	530,774	-0,090	-0,152
-274,643	-70,492	-0,129	-0,035
-273,628	253,779	0,102	0,125
-272,613	-109,214	0,122	-0,018
-271,599	52,193	0,132	-0,090
-270,584	-2,642	-0,058	-0,029
-269,570	-200,000	0,008	0,139
-268,555	-94,248	-0,091	0,018
-267,540	727,090	-0,030	0,058
-266,526	-25,745	-0,085	-0,036
-265,511	-200,000	-0,005	-0,022
-264,497	800,000	0,028	-0,084
-263,482	46,484	0,088	0,058
-262,467	132,360	-0,191	0,176
-261,453	-6,696	-0,156	0,075
-260,438	-200,000	0,012	-0,102
-259,424	-200,000	0,001	0,062
-258,409	-61,302	-0,200	0,060
-257,395	-200,000	0,007	-0,064
-256,380	-200,000	0,008	-0,041
-255,365	364,129	-0,077	0,111
-254,351	63,970	0,045	-0,032
-253,336	1,813	-0,112	0,057
-252,322	45,498	0,061	0,040
-251,307	181,122	0,081	-0,085
-250,292	5,814	0,035	0,019
-249,278	411,978	0,061	0,093
-248,263	800,000	0,031	0,072
-247,249	37,004	0,127	0,080
-246,234	-200,000	-0,018	-0,145
-245,219	-71,153	-0,105	-0,028
-244,205	-200,000	-0,007	0,049
-243,190	339,049	0,028	0,039
-242,176	-200,000	0,005	-0,059
-241,161	-200,000	0,006	-0,070
-240,146	-90,600	0,075	0,015
-239,132	800,000	0,005	-0,010
-238,117	538,225	-0,007	-0,013
-237,103	-61,581	0,091	0,027
-236,088	800,000	-0,027	-0,076
-235,073	96,144	0,146	0,119
-234,059	-101,984	0,148	-0,025
-233,044	74,341	-0,112	0,084
-232,030	-33,465	0,118	-0,046
-231,015	75,514	-0,019	0,015
-230,000	14,959	-0,032	0,018
-228,986	51,333	0,053	-0,036
-227,971	41,965	0,025	0,016
-226,957	-127,733	-0,087	-0,009
-225,942	-200,000	-0,015	-0,116
-224,927	-200,000	0,009	0,164
-223,913	750,428	0,051	0,098
-222,898	25,720	0,038	0,022
-221,884	703,266	-0,041	0,077
-220,869	403,206	-0,084	0,126
-219,855	169,607	-0,049	0,050
-218,840	105,177	-0,026	0,022
-217,825	271,495	0,057	-0,071
-216,811	41,832	0,064	-0,041
-215,796	-29,867	0,106	-0,043
-214,782	-41,489	0,024	0,009
-213,767	344,294	-0,031	-0,043
-212,752	321,586	0,038	0,052
-211,738	366,903	-0,097	0,140
-210,723	125,227	-0,035	-0,031
-209,709	800,000	-0,021	0,060
-208,694	800,000	-0,032	-0,089
-207,679	-31,299	-0,061	-0,024
-206,665	-200,000	-0,008	0,108
-205,650	-200,000	-0,060	-0,000
-204,636	-164,528	-0,129	0,004
-203,621	25,988	-0,103	-0,061
-202,606	-200,000	-0,027	-0,140
-201,592	39,262	-0,114	-0,072
-200,577	-200,000	-0,002	-0,029
-199,563	123,825	0,025	0,022
-198,548	-200,000	-0,004	0,099
-197,533	-200,000	0,038	0,125
-196,519	509,931	-0,050	-0,083
-195,504	-37,674	-0,097	0,037
-194,490	-5,479	0,077	0,037
-193,475	159,265	-0,130	-0,129
-192,460	456,051	0,062	-0,098
-191,446	52,124	-0,194	-0,131
-190,431	-200,000	0,004	0,039
-189,417	178,516	-0,081	-0,084
-188,402	222,818	0,069	-0,079
-187,387	10,103	-0,078	-0,042
-186,373	-200,000	0,018	0,062
-185,358	95,029	-0,128	-0,103
-184,344	-85,205	0,044	0,010
-183,329	338,744	-0,043	-0,060
-182,315	89,955	0,032	-0,025
-181,300	-200,000	-0,006	-0,087
-180,285	-12,294	-0,077	-0,036
-179,271	-200,000	0,011	0,037
-178,256	50,144	0,040	0,027
-177,242	-92,171	-0,079	0,016
-176,227	56,741	0,091	0,063
-175,212	105,064	-0,034	0,028
-174,198	166,397	-0,073	-0,074
-173,183	-52,369	-0,110	0,036
-172,169	-200,000	-0,005	-0,130
-171,154	319,077	-0,029	-0,040
-170,139	44,431	-0,178	-0,116
-169,125	-26,803	-0,095	0,039
-168,110	-200,000	0,009	0,046
-167,096	-200,000	0,011	0,051
-166,081	147,655	-0,062	-0,060
-165,066	169,348	-0,095	0,096
-164,052	29,704	0,076	0,046
-163,037	-200,000	-0,004	0,090
-162,023	-68,255	0,116	-0,032
-161,008	-200,000	-0,003	0,015
-159,993	789,607	0,038	-0,075
-158,979	-200,000	0,037	-0,174
-157,964	-200,000	-0,007	-0,190
-156,950	3,336	-0,039	0,020
-155,935	-95,481	0,132	0,025
-154,920	800,000	0,018	0,049
-153,906	54,486	0,065	0,044
-152,891	374,719	-0,063	0,091
-151,877	748,565	-0,037	0,070
-150,862	37,314	0,043	-0,027
-149,847	116,316	-0,046	-0,040
-148,833	207,094	0,039	0,043
-147,818	-14,537	-0,118	0,054
-146,804	-164,282	0,121	0,004
-145,789	-200,000	-0,007	-0,064
-144,775	800,000	-0,013	-0,041
-143,760	8,918	-0,063	0,033
-142,745	-150,753	0,132	-0,007
-141,731	-172,963	0,030	-0,001
-140,716	85,423	-0,008	-0,006
-139,702	195,518	-0,064	0,069
-138,687	-135,141	0,075	0,006
-137,672	423,138	-0,067	0,103
-136,658	-200,000	0,001	-0,043
-135,643	197,982	-0,021	-0,022
-134,629	-107,108	0,074	0,012
-133,614	735,011	0,068	0,130
-132,599	-73,247	-0,054	-0,014
-131,585	-18,286	0,074	0,033
-130,570	800,000	0,014	-0,040
-129,556	252,602	0,026	-0,032
-128,541	435,667	-0,059	-0,092
-127,526	57,816	-0,026	0,018
-126,512	800,000	0,013	-0,035
-125,497	333,269	0,049	0,068
-124,483	-200,000	0,030	-0,101
-123,468	-180,503	0,030	0,000
-122,453	-200,000	-0,003	-0,101
-121,439	-55,601	0,071	-0,022
-120,424	-50,150	-0,058	0,020
-119,410	-155,840	0,146	-0,006
-118,395	800,000	-0,061	0,127
-117,380	800,000	-0,016	0,038
