DTS Sentinel unit serial number:	SN410029Multiplexer serial number:	ORYXHardware model number:	OX2-SRSoftware version number:	ORYX F/W v4,00 Oryx Data Collector v3.7.2.0data status	okinstallation	BH3 CH2differential loss correction	single-endedforward channel	channel 2reverse channel	N/Adate	2023/12/06time	05:37:28forward acquisition time	300,00reverse acquisition time	0,00gamma	499,1914k internal	0,3197k external	0,3197temperature offset calibration	1,0000default loss term (dB/km)	0,3820temperature slope calibration	1,0000multiplexer offset coefficient	1,0000multiplexer slope coefficient	1,0000fibre end	0,00T internal ref (°C)	8,92T ext. ref 1 (°C)	-5,68T ext. ref 2 (°C)	-5,79length (m)	temperature (°C)	Stokes	anti-Stokes-744,400	118,069	-0,196	-0,176
-743,385	1,809	-0,146	0,076
-742,371	-200,000	0,011	-0,149
-741,356	152,634	-0,146	0,145
-740,342	-200,000	0,001	-0,091
-739,327	-20,095	-0,284	0,127
-738,312	-200,000	-0,007	-0,143
-737,298	-10,477	-0,145	0,070
-736,283	800,000	-0,035	-0,076
-735,269	117,908	-0,116	0,104
-734,254	103,249	-0,133	-0,113
-733,239	-56,724	-0,225	-0,072
-732,225	207,303	0,078	0,089
-731,210	800,000	0,043	0,089
-730,196	534,513	-0,047	-0,081
-729,181	155,135	-0,105	-0,105
-728,167	649,851	-0,047	-0,088
-727,152	800,000	-0,034	-0,107
-726,137	57,814	0,096	-0,068
-725,123	800,000	-0,071	-0,147
-724,108	515,510	-0,090	-0,154
-723,094	222,504	-0,075	-0,087
-722,079	800,000	-0,035	-0,078
-721,064	-97,518	-0,097	-0,018
-720,050	800,000	0,034	-0,081
-719,035	483,239	0,033	0,055
-718,021	595,390	0,053	-0,096
-717,006	-62,136	-0,117	0,035
-715,991	-200,000	-0,005	-0,063
-714,977	617,142	-0,005	0,010
-713,962	-200,000	0,037	-0,135
-712,948	356,569	0,051	-0,073
-711,933	214,246	-0,053	-0,061
-710,918	-165,586	-0,150	0,005
-709,904	-88,828	-0,096	-0,021
-708,889	800,000	0,030	-0,081
-707,875	133,611	-0,055	-0,052
-706,860	98,974	-0,078	-0,066
-705,845	-38,976	-0,017	0,006
-704,831	40,224	0,074	0,048
-703,816	50,303	-0,141	-0,096
-702,802	-66,230	-0,097	0,028
-701,787	46,901	0,061	-0,041
-700,772	40,157	-0,052	-0,034
-699,758	89,965	-0,119	-0,097
-698,743	800,000	-0,023	-0,063
-697,729	-29,790	0,081	0,033
-696,714	144,092	-0,066	0,064
-695,699	-80,252	-0,171	-0,041
-694,685	433,130	-0,082	-0,129
-693,670	-10,027	0,033	0,016
-692,656	579,897	-0,063	0,112
-691,641	-200,000	0,005	0,098
-690,627	800,000	-0,068	0,188
-689,612	273,655	0,035	0,045
-688,597	800,000	-0,032	0,091
-687,583	111,634	-0,112	0,099
-686,568	763,701	-0,052	-0,102
-685,554	377,954	-0,128	-0,191
-684,539	90,422	-0,036	0,030
-683,524	-153,447	0,101	0,005
-682,510	35,829	0,073	-0,046
-681,495	-23,015	-0,040	-0,017
-680,481	-42,169	-0,119	-0,044
-679,466	-24,765	-0,036	0,016
-678,451	616,411	-0,031	0,056
-677,437	-6,941	0,097	-0,048
-676,422	465,138	0,012	-0,020
-675,408	-183,682	-0,113	-0,001
-674,393	800,000	0,011	0,031
-673,378	-200,000	-0,014	-0,116
-672,364	-89,120	-0,150	0,032
-671,349	195,132	-0,131	-0,145
-670,335	-128,002	-0,068	0,007
-669,320	-48,268	0,016	-0,006
-668,305	-93,597	-0,150	0,030
-667,291	163,728	0,053	0,055
-666,276	-67,210	-0,178	-0,051
-665,262	-200,000	0,028	-0,102
-664,247	224,874	0,009	0,010
-663,232	-155,083	-0,052	-0,002
-662,218	218,357	0,048	-0,056
-661,203	-113,752	-0,178	0,025
-660,189	466,896	-0,059	-0,097
-659,174	3,542	0,039	-0,021
-658,159	-200,000	-0,011	-0,147
-657,145	283,706	-0,042	-0,055
-656,130	-198,748	-0,112	0,000
-655,116	262,784	0,032	-0,040
-654,101	-200,000	-0,012	-0,082
-653,086	-84,756	-0,107	0,024
-652,072	620,351	-0,041	0,075
-651,057	800,000	-0,057	-0,131
-650,043	-200,000	0,042	-0,156
-649,028	800,000	0,046	-0,103
-648,014	278,819	-0,059	-0,076
-646,999	-200,000	0,011	-0,081
-645,984	-200,000	-0,009	-0,038
-644,970	800,000	-0,067	-0,149
-643,955	322,595	0,055	-0,076
-642,941	-51,619	-0,025	-0,008
-641,926	-200,000	0,001	-0,120
-640,911	-61,801	-0,078	0,024
-639,897	7,895	0,114	-0,062
-638,882	-51,112	-0,107	-0,036
-637,868	27,323	0,124	0,075
-636,853	677,633	-0,045	-0,085
-635,838	-200,000	-0,036	-0,169
-634,824	64,191	0,015	-0,011
-633,809	54,488	0,047	-0,033
-632,795	-132,989	-0,046	0,004
-631,780	800,000	-0,039	-0,116
-630,765	-200,000	-0,011	-0,055
-629,751	392,431	0,021	0,032
-628,736	139,097	-0,040	-0,038
-627,722	-200,000	0,005	0,029
-626,707	440,844	-0,047	-0,075
-625,692	380,152	-0,062	-0,092
-624,678	120,785	0,056	0,050
-623,663	-11,159	-0,059	0,028
-622,649	-32,797	-0,119	-0,048
-621,634	-200,000	-0,015	-0,089
-620,619	-117,217	0,127	0,017
-619,605	800,000	-0,030	0,094
-618,590	-134,717	0,108	-0,009
-617,576	-76,660	-0,081	-0,021
-616,561	60,191	0,085	0,061
-615,546	173,408	0,085	0,089
-614,532	800,000	-0,026	-0,078
-613,517	159,619	-0,101	-0,101
-612,503	-88,284	0,093	-0,020
-611,488	-85,128	0,117	0,026
-610,474	800,000	0,030	-0,079
-609,459	800,000	-0,027	0,069
-608,444	-200,000	-0,006	-0,026
-607,430	-83,851	-0,157	-0,036
-606,415	86,515	-0,120	-0,096
-605,401	241,929	-0,033	-0,040
-604,386	-200,000	-0,001	0,068
-603,371	273,521	0,062	-0,079
-602,357	201,402	-0,084	-0,094
-601,342	3,218	-0,117	0,062
-600,328	404,060	-0,067	0,103
-599,313	106,025	-0,107	-0,092
-598,298	7,620	0,023	0,013
-597,284	-102,485	0,130	0,022
-596,269	9,875	-0,091	0,050
-595,255	14,713	0,081	0,046
-594,240	169,213	-0,040	0,041
-593,225	-200,000	0,003	-0,042
-592,211	324,325	-0,095	-0,132
-591,196	52,029	-0,039	-0,027
-590,182	-200,000	0,020	0,068
-589,167	-5,224	0,023	0,011
-588,152	476,872	-0,048	0,079
-587,138	-154,548	0,198	0,009
-586,123	-200,000	-0,018	-0,079
-585,109	170,304	0,057	0,059
-584,094	-200,000	0,005	0,024
-583,079	7,525	-0,109	0,059
-582,065	-122,039	0,136	0,016
-581,050	-200,000	-0,015	0,074
-580,036	-200,000	0,008	-0,066
-579,021	-200,000	-0,009	-0,155
-578,006	-111,900	-0,144	0,021
-576,992	69,630	0,088	-0,065
-575,977	-200,000	-0,033	-0,117
-574,963	336,353	-0,057	0,081
-573,948	-200,000	-0,022	0,070
-572,934	-200,000	0,009	0,050
-571,919	84,043	0,078	0,062
-570,904	720,708	0,038	-0,073
-569,890	278,626	-0,066	0,085
-568,875	194,944	-0,042	0,046
-567,861	-200,000	0,000	0,075
-566,846	137,590	-0,064	0,060
-565,831	59,020	0,050	-0,035
-564,817	-20,117	-0,229	-0,102
-563,802	213,196	-0,028	0,032
-562,788	48,363	-0,058	0,039
-561,773	19,644	0,050	-0,029
-560,758	51,798	0,116	0,080
-559,744	-60,177	0,085	0,026
-558,729	87,356	0,154	0,123
-557,715	-200,000	-0,044	-0,173
-556,700	-158,000	-0,057	0,002
-555,685	174,285	0,022	0,022
-554,671	-10,425	-0,094	-0,045
-553,656	83,507	0,032	0,026
-552,642	115,479	0,073	-0,064
-551,627	-53,760	0,028	0,009
-550,612	800,000	-0,035	0,071
-549,598	-17,443	-0,043	-0,020
-548,583	800,000	0,017	-0,038
-547,569	83,124	-0,071	0,056
-546,554	-108,344	0,121	-0,019
-545,539	-73,149	-0,070	-0,019
-544,525	124,769	-0,120	0,109
-543,510	289,007	-0,081	0,106
-542,496	-48,484	-0,259	0,090
-541,481	800,000	0,037	-0,109
-540,466	233,616	-0,051	0,061
-539,452	-157,341	-0,077	-0,003
-538,437	-200,000	0,002	-0,075
-537,423	-35,697	-0,084	-0,033
-536,408	285,352	-0,091	-0,118
-535,393	-200,000	-0,041	-0,161
-534,379	-59,913	0,049	-0,015
-533,364	-200,000	-0,005	-0,053
-532,350	379,804	0,030	-0,044
-531,335	71,999	-0,035	0,026
-530,321	800,000	-0,053	0,143
-529,306	-59,956	-0,137	0,042
-528,291	-141,119	0,052	-0,004
-527,277	104,451	0,038	-0,032
-526,262	-72,729	-0,036	-0,009
-525,248	-16,109	0,085	0,039
-524,233	-91,005	0,057	-0,012
-523,218	-94,665	0,054	-0,011
-522,204	430,058	-0,083	0,130
-521,189	-123,082	-0,114	0,013
-520,175	162,317	-0,106	-0,108
-519,160	316,881	0,026	0,036
-518,145	-55,136	0,106	-0,034
-517,131	-200,000	0,032	-0,113
-516,116	-200,000	0,037	0,187
-515,102	5,005	0,091	-0,048
-514,087	92,904	-0,130	0,106
-513,072	9,599	-0,081	0,044
-512,058	-71,537	-0,098	0,026
-511,043	-200,000	0,007	-0,114
-510,029	-111,356	0,196	0,029
-509,014	800,000	-0,023	0,056
-507,999	19,165	0,162	0,094
-506,985	-52,999	0,023	0,008
-505,970	-60,726	-0,065	0,020
-504,956	41,827	0,056	-0,037
-503,941	140,464	0,128	-0,122
-502,926	61,570	0,046	-0,033
-501,912	-114,696	0,186	0,025
-500,897	-180,472	-0,032	0,000
-499,883	-87,831	-0,040	-0,009
-498,868	654,369	-0,082	0,153
-497,853	47,759	-0,036	-0,024
-496,839	800,000	-0,042	0,100
-495,824	800,000	0,055	-0,126
-494,810	-200,000	0,052	0,211
-493,795	739,630	0,034	0,067
-492,781	190,403	0,074	0,080
-491,766	800,000	-0,041	-0,083
-490,751	-200,000	-0,039	-0,150
-489,737	72,635	0,079	-0,059
-488,722	-53,109	0,110	-0,036
-487,708	800,000	0,017	0,034
-486,693	-200,000	-0,006	-0,039
-485,678	-156,174	0,075	-0,003
-484,664	-200,000	-0,005	0,021
-483,649	-179,637	-0,091	-0,001
-482,635	-53,526	-0,182	-0,060
-481,620	-62,216	0,131	0,039
-480,605	-85,179	-0,021	-0,005
-479,591	135,868	-0,059	0,055
-478,576	-200,000	0,015	0,186
-477,562	800,000	-0,087	0,257
-476,547	-92,890	0,132	-0,026
-475,532	295,963	0,026	0,034
-474,518	492,071	-0,022	0,037
-473,503	-200,000	-0,002	0,071
-472,489	-200,000	-0,004	-0,063
-471,474	323,795	-0,054	0,074
-470,459	-36,380	-0,076	0,029
-469,445	-95,298	-0,044	0,008
-468,430	800,000	0,024	0,073
-467,416	-144,866	0,055	0,004
-466,401	-200,000	0,023	0,151
-465,386	-200,000	-0,049	0,172
-464,372	-200,000	-0,031	0,192
-463,357	225,151	-0,095	-0,111
-462,343	7,842	0,075	-0,040
-461,328	-200,000	-0,001	-0,096
-460,313	-200,000	0,010	-0,134
-459,299	721,070	0,042	-0,082
-458,284	177,471	0,050	0,052
-457,270	-200,000	0,015	-0,158
-456,255	800,000	-0,057	-0,164
-455,241	545,878	-0,090	-0,156
-454,226	68,492	0,110	-0,081
-453,211	800,000	-0,007	0,016
-452,197	21,207	0,021	-0,012
-451,182	755,231	0,014	0,027
-450,168	128,885	-0,051	0,047
-449,153	307,950	0,014	0,019
-448,138	-71,463	0,107	-0,029
-447,124	65,204	0,043	-0,031
-446,109	-200,000	0,013	-0,062
-445,095	-200,000	-0,011	0,080
-444,080	-28,184	-0,049	0,020
-443,065	-200,000	0,007	-0,066
-442,051	-118,018	0,130	0,017
-441,036	238,875	-0,016	0,019
-440,022	-124,945	-0,107	0,012
-439,007	48,506	-0,042	-0,028
-437,992	424,516	-0,024	-0,038
-436,978	-200,000	0,031	0,206
-435,963	502,990	-0,115	0,191
-434,949	-4,696	0,050	-0,025
-433,934	98,138	0,075	-0,062
-432,919	154,100	-0,140	-0,138
-431,905	-200,000	0,006	0,060
-430,890	3,492	-0,043	0,022
-429,876	197,251	-0,037	-0,041
-428,861	369,818	0,013	-0,019
-427,846	64,199	0,044	0,032
-426,832	219,472	0,091	-0,104
-425,817	180,961	-0,046	-0,049
-424,803	108,768	0,103	0,089
-423,788	-200,000	-0,023	0,243
-422,773	-118,894	-0,047	-0,006
-421,759	-184,212	0,059	0,001
-420,744	6,539	0,074	-0,040
-419,730	373,549	0,054	0,079
-418,715	-87,052	-0,132	0,029
-417,701	-155,392	0,142	0,007
-416,686	-200,000	0,170	0,000
-415,671	36,327	0,119	0,075
-414,657	-103,904	-0,038	0,006
-413,642	-66,841	0,096	0,027
-412,628	-124,630	0,075	-0,008
-411,613	31,967	-0,200	-0,124
-410,598	4,913	-0,042	0,022
-409,584	-114,328	0,059	-0,008
-408,569	-92,534	0,112	0,022
-407,555	800,000	0,049	0,153
-406,540	-200,000	-0,015	-0,074
-405,525	-147,647	-0,087	-0,005
-404,511	197,243	0,032	-0,035
-403,496	-200,000	0,001	-0,042
-402,482	-36,630	0,062	0,024
-401,467	-200,000	-0,002	0,054
-400,452	96,056	-0,068	0,056
-399,438	266,761	0,065	0,082
-398,423	-200,000	-0,002	-0,009
-397,409	-200,000	-0,009	-0,042
-396,394	-200,000	0,004	0,069
-395,379	120,363	-0,109	0,098
-394,365	-50,162	0,053	-0,018
-393,350	800,000	0,039	0,115
-392,336	-10,094	-0,049	-0,023
-391,321	74,714	0,099	0,075
-390,306	-48,301	-0,077	-0,027
-389,292	36,948	-0,097	-0,061
-388,277	-87,763	0,026	0,006
-387,263	-59,060	-0,066	-0,020
-386,248	-99,407	-0,120	-0,021
-385,233	-200,000	0,040	0,129
-384,219	65,035	-0,104	0,076
-383,204	3,209	-0,064	-0,033
-382,190	194,155	0,098	-0,107
-381,175	-13,651	0,040	0,019
-380,160	-200,000	-0,007	-0,116
-379,146	-20,879	-0,039	0,017
-378,131	-55,478	-0,126	0,040
-377,117	800,000	0,035	0,096
-376,102	-177,282	-0,112	-0,002
-375,088	520,028	-0,048	-0,081
-374,073	17,008	0,055	0,031
-373,058	-139,045	0,098	-0,008
-372,044	-200,000	0,008	-0,057
-371,029	-200,000	-0,004	-0,146
-370,015	192,960	0,015	0,017
-369,000	73,741	0,095	-0,072
-367,985	800,000	0,040	-0,084
-366,971	-200,000	-0,009	-0,083
-365,956	-13,800	0,066	-0,030
-364,942	96,962	0,072	0,059
-363,927	177,901	-0,043	0,045
-362,912	-90,611	-0,050	0,010
-361,898	137,387	-0,094	0,088
-360,883	167,324	0,079	-0,080
-359,869	196,664	-0,069	0,076
-358,854	-72,508	0,098	-0,026
-357,839	-120,212	-0,064	-0,008
-356,825	155,048	-0,035	-0,034
-355,810	-13,009	0,081	-0,038
-354,796	-200,000	-0,023	-0,093
-353,781	-113,181	-0,102	-0,014
-352,766	-108,800	-0,034	-0,005
-351,752	800,000	-0,021	0,056
-350,737	-200,000	-0,003	0,098
-349,723	-93,448	0,089	-0,017
-348,708	-200,000	-0,032	0,143
-347,693	83,197	0,075	-0,059
-346,679	800,000	-0,017	-0,051
-345,664	-161,766	0,036	-0,001
-344,650	-200,000	0,006	-0,030
-343,635	-185,110	0,089	0,001
-342,620	-157,586	0,111	0,005
-341,606	800,000	-0,028	0,080
-340,591	-35,552	-0,028	-0,011
-339,577	-200,000	0,018	0,068
-338,562	130,765	-0,055	-0,051
-337,548	237,480	0,126	-0,150
-336,533	9,259	0,064	0,034
-335,518	348,349	-0,043	0,062
-334,504	-200,000	-0,024	0,097
-333,489	466,263	-0,040	-0,065
-332,475	-200,000	0,011	0,057
-331,460	-200,000	0,027	-0,114
-330,445	-200,000	-0,001	0,018
-329,431	401,991	0,066	0,100
-328,416	-159,884	0,116	0,004
-327,402	-200,000	0,010	0,059
-326,387	8,574	0,046	-0,025
-325,372	319,505	0,075	-0,102
-324,358	466,088	0,097	-0,155
-323,343	780,746	-0,073	-0,143
-322,329	106,592	-0,061	0,052
-321,314	-200,000	0,025	0,102
-320,299	-31,967	0,068	0,027
-319,285	279,367	-0,040	0,051
-318,270	800,000	-0,061	-0,165
-317,256	-8,895	-0,149	-0,071
-316,241	328,396	0,056	0,077
-315,226	75,730	-0,046	-0,035
-314,212	-200,000	0,015	0,180
-313,197	311,861	0,013	-0,017
-312,183	482,703	0,034	0,056
-311,168	-88,634	-0,089	-0,019
-310,153	42,993	-0,074	0,048
-309,139	-200,000	-0,006	-0,118
-308,124	-104,917	0,023	0,004
-307,110	800,000	-0,029	0,075
-306,095	133,144	0,193	0,179
-305,080	215,257	-0,081	-0,092
-304,066	104,873	-0,012	0,010
-303,051	41,289	-0,028	0,018
-302,037	226,244	0,112	-0,130
-301,022	9,028	0,055	0,029
-300,008	800,000	0,071	0,150
-298,993	304,673	0,076	0,101
-297,978	129,305	-0,096	-0,087
-296,964	780,154	-0,015	-0,029
-295,949	137,020	0,111	-0,104
-294,935	-83,519	-0,141	0,032
-293,920	800,000	0,024	-0,067
-292,905	-200,000	0,009	0,076
-291,891	255,844	-0,053	-0,065
-290,876	-200,000	-0,010	-0,142
-289,862	-61,103	0,042	-0,013
-288,847	800,000	0,040	-0,111
-287,832	800,000	0,019	0,045
-286,818	109,520	0,026	0,022
-285,803	-3,282	0,146	-0,072
-284,789	-139,407	0,151	-0,011
-283,774	-143,526	-0,099	0,007
-282,759	-153,975	-0,052	0,002
-281,745	-138,947	-0,096	0,007
-280,730	-200,000	0,006	-0,050
-279,716	-3,649	0,029	0,014
-278,701	-200,000	-0,033	0,149
-277,686	590,011	0,057	0,102
-276,672	-200,000	-0,025	0,080
-275,657	24,871	-0,159	-0,094
-274,643	23,223	0,091	-0,053
-273,628	-176,167	-0,078	0,001
-272,613	567,870	-0,052	0,090
-271,599	158,454	0,145	-0,144
-270,584	170,245	0,119	0,122
-269,570	362,181	0,038	0,054
-268,555	800,000	0,068	0,141
-267,540	-200,000	-0,018	-0,079
-266,526	98,056	-0,004	-0,003
-265,511	-200,000	0,030	0,116
-264,497	-11,646	0,057	-0,027
-263,482	-56,415	0,122	-0,039
-262,467	-200,000	-0,030	-0,107
-261,453	537,186	0,014	0,023
-260,438	800,000	-0,033	0,096
-259,424	-48,764	-0,136	-0,046
-258,409	756,830	0,039	0,076
-257,395	251,625	0,117	0,143
-256,380	263,798	-0,054	0,067
-255,365	-200,000	-0,018	0,068
-254,351	-123,716	-0,146	-0,016
-253,336	-200,000	0,007	-0,035
-252,322	-200,000	-0,020	-0,097
-251,307	6,361	-0,074	-0,039
-250,292	278,383	0,028	0,035
-249,278	-68,204	0,028	-0,008
-248,263	316,924	0,095	0,129
-247,249	-122,430	0,006	0,001
-246,234	-78,933	0,116	0,028
-245,219	-200,000	-0,037	-0,198
-244,205	-200,000	0,021	-0,172
-243,190	310,152	0,024	0,032
-242,176	-139,664	0,072	-0,005
-241,161	684,795	0,036	0,067
-240,146	-200,000	0,028	0,144
-239,132	-200,000	0,011	-0,112
-238,117	-143,464	0,106	0,007
-237,103	-200,000	0,011	-0,108
-236,088	-67,817	0,018	-0,005
-235,073	-56,346	-0,083	0,026
-234,059	-22,731	-0,040	-0,017
-233,044	13,001	0,052	0,028
-232,030	-74,366	-0,172	0,044
-231,015	-200,000	-0,024	-0,099
-230,000	86,980	-0,100	-0,079
-228,986	-50,190	-0,074	-0,025
-227,971	-161,454	0,120	-0,004
-226,957	-200,000	0,021	0,113
-225,942	523,331	0,075	0,126
-224,927	260,957	-0,022	-0,027
-223,913	-56,303	0,019	0,006
-222,898	-200,000	-0,011	-0,126
-221,884	-136,705	0,056	-0,005
-220,869	-200,000	0,004	-0,044
-219,855	800,000	0,076	-0,175
-218,840	-200,000	-0,002	0,071
-217,825	-200,000	-0,019	0,088
-216,811	-200,000	-0,013	0,075
-215,796	-11,737	0,074	0,034
-214,782	384,963	-0,033	-0,048
-213,767	800,000	0,036	0,073
-212,752	800,000	0,056	0,116
-211,738	295,923	0,062	-0,081
-210,723	-163,669	-0,078	-0,003
-209,709	-200,000	0,026	-0,106
-208,694	74,840	-0,046	-0,035
-207,679	-143,066	-0,056	-0,004
-206,665	-200,000	0,027	0,164
-205,650	-21,705	-0,189	0,082
-204,636	800,000	-0,050	0,145
-203,621	183,514	0,059	0,063
-202,606	-36,276	0,090	0,035
-201,592	-21,896	-0,033	0,014
-200,577	-200,000	0,009	-0,138
-199,563	-26,866	-0,111	-0,046
-198,548	431,415	0,078	-0,121
-197,533	406,532	-0,077	-0,117
-196,519	101,918	-0,030	0,025
-195,504	-98,893	-0,117	-0,021
-194,490	63,749	0,048	-0,034
-193,475	427,329	-0,130	-0,200
-192,460	10,085	0,048	0,026
-191,446	-165,725	0,114	-0,003
-190,431	-33,054	0,063	-0,025
-189,417	-200,000	0,002	-0,027
-188,402	-33,812	-0,061	0,024
-187,387	366,830	-0,069	-0,099
-186,373	50,234	-0,091	0,061
-185,358	560,287	-0,015	0,026
-184,344	800,000	0,027	0,067
-183,329	218,476	0,120	0,137
-182,315	-70,823	-0,098	-0,026
-181,300	-84,703	-0,063	-0,014
-180,285	103,874	-0,093	-0,078
-179,271	-99,679	-0,093	0,016
-178,256	-29,683	-0,087	0,035
-177,242	580,490	-0,027	-0,047
-176,227	61,276	-0,024	-0,017
-175,212	3,549	0,117	0,061
-174,198	-200,000	-0,025	-0,093
-173,183	-200,000	-0,027	0,143
-172,169	-200,000	0,024	0,125
-171,154	11,250	0,016	-0,009
-170,139	800,000	0,050	0,127
-169,125	27,164	0,104	0,062
-168,110	-40,918	-0,130	-0,048
-167,096	800,000	-0,038	-0,085
-166,081	475,622	-0,101	-0,163
-165,066	108,517	0,029	0,024
-164,052	118,655	-0,064	-0,057
-163,037	51,110	0,089	0,060
-162,023	-60,658	0,063	0,019
-161,008	-200,000	-0,009	0,170
-159,993	800,000	0,005	0,011
-158,979	-200,000	0,001	-0,102
-157,964	416,659	-0,041	0,063
-156,950	-135,222	0,068	0,006
-155,935	-200,000	0,000	-0,064
-154,920	52,080	0,029	-0,019
-153,906	-134,608	0,104	0,009
-152,891	-200,000	-0,012	-0,049
-151,877	-200,000	-0,016	-0,160
-150,862	800,000	-0,032	-0,098
-149,847	-139,465	-0,077	-0,006
-148,833	66,116	0,047	0,034
-147,818	204,183	0,079	0,087
-146,804	800,000	0,010	0,032
-145,789	-200,000	0,018	0,094
-144,775	-92,786	-0,024	0,005
-143,760	-200,000	-0,001	0,187
-142,745	800,000	-0,059	-0,178
-141,731	-200,000	0,025	-0,109
-140,716	-84,312	-0,120	0,027
-139,702	717,914	-0,035	-0,066
-138,687	3,162	-0,083	0,043
-137,672	130,529	-0,082	-0,075
-136,658	-200,000	0,020	0,073
-135,643	-7,041	-0,101	-0,049
-134,629	-18,807	-0,069	0,030
-133,614	-81,113	0,144	0,034
-132,599	161,870	-0,067	0,067
-131,585	-92,260	0,043	0,009
-130,570	-96,611	-0,074	0,014
-129,556	133,927	0,038	-0,035
-128,541	-200,000	-0,040	-0,176
-127,526	-156,505	0,120	0,005
-126,512	-200,000	0,034	0,157
-125,497	-132,265	0,064	-0,006
-124,483	353,648	0,055	0,078
-123,468	31,835	0,126	-0,077
-122,453	-77,642	-0,056	0,014
-121,439	800,000	0,051	-0,127
-120,424	77,352	-0,083	-0,063
-119,410	-200,000	0,020	-0,175
