DTS Sentinel unit serial number:	SN410029Multiplexer serial number:	ORYXHardware model number:	OX2-SRSoftware version number:	ORYX F/W v4,00 Oryx Data Collector v3.7.2.0data status	okinstallation	BH3 CH2differential loss correction	single-endedforward channel	channel 2reverse channel	N/Adate	2023/12/06time	06:17:28forward acquisition time	300,00reverse acquisition time	0,00gamma	499,1914k internal	0,3196k external	0,3196temperature offset calibration	1,0000default loss term (dB/km)	0,3820temperature slope calibration	1,0000multiplexer offset coefficient	1,0000multiplexer slope coefficient	1,0000fibre end	0,00T internal ref (°C)	8,89T ext. ref 1 (°C)	-5,74T ext. ref 2 (°C)	-5,85length (m)	temperature (°C)	Stokes	anti-Stokes-744,400	204,488	-0,110	-0,124
-743,385	-154,434	-0,337	0,016
-742,371	800,000	0,033	0,076
-741,356	88,806	-0,170	0,138
-740,342	12,724	0,048	-0,027
-739,327	-110,967	-0,165	-0,024
-738,312	-200,000	0,016	-0,086
-737,298	-56,997	-0,274	0,088
-736,283	567,868	-0,039	0,069
-735,269	-24,813	-0,144	0,062
-734,254	277,194	-0,035	-0,046
-733,239	-77,516	-0,372	-0,093
-732,225	-92,960	-0,019	0,004
-731,210	800,000	0,072	0,169
-730,196	-28,693	0,127	0,053
-729,181	167,725	0,046	-0,048
-728,167	-200,000	0,001	-0,038
-727,152	81,888	-0,067	-0,053
-726,137	-49,332	0,043	0,015
-725,123	119,019	0,086	-0,077
-724,108	11,687	-0,062	-0,035
-723,094	178,745	-0,062	-0,066
-722,079	-116,175	-0,045	0,006
-721,064	-200,000	0,000	-0,018
-720,050	116,985	-0,059	-0,053
-719,035	800,000	-0,013	0,038
-718,021	241,343	-0,063	-0,077
-717,006	-34,777	-0,125	-0,049
-715,991	-200,000	-0,011	-0,147
-714,977	800,000	-0,014	-0,036
-713,962	-200,000	-0,023	-0,099
-712,948	-106,003	-0,034	0,006
-711,933	-27,860	0,045	-0,019
-710,918	-77,006	-0,053	-0,013
-709,904	-91,761	-0,179	-0,037
-708,889	46,533	-0,119	-0,080
-707,875	84,770	-0,112	-0,089
-706,860	-200,000	-0,015	-0,054
-705,845	110,659	-0,024	0,021
-704,831	800,000	-0,019	-0,052
-703,816	534,354	-0,027	-0,047
-702,802	800,000	-0,096	-0,225
-701,787	800,000	0,026	0,068
-700,772	339,394	-0,079	-0,113
-699,758	-200,000	0,024	0,120
-698,743	-200,000	0,029	0,106
-697,729	76,421	0,115	0,088
-696,714	-61,290	0,139	0,042
-695,699	64,060	-0,111	-0,081
-694,685	317,204	0,048	-0,066
-693,670	209,569	-0,107	-0,122
-692,656	-32,330	-0,059	0,024
-691,641	800,000	0,051	0,108
-690,627	670,269	0,074	-0,139
-689,612	-61,564	0,026	-0,008
-688,597	-117,570	-0,044	-0,006
-687,583	-119,304	-0,041	-0,005
-686,568	76,349	0,037	-0,029
-685,554	-54,370	0,098	0,032
-684,539	-84,482	0,153	-0,035
-683,524	-200,000	-0,007	0,026
-682,510	14,581	-0,044	-0,025
-681,495	-90,270	-0,057	-0,012
-680,481	54,960	-0,018	-0,012
-679,466	708,785	-0,036	-0,069
-678,451	-200,000	0,014	-0,155
-677,437	9,932	-0,080	0,044
-676,422	-7,937	-0,077	-0,037
-675,408	417,120	-0,146	-0,228
-674,393	317,692	-0,046	0,063
-673,378	-200,000	-0,009	-0,030
-672,364	38,166	-0,115	-0,074
-671,349	161,853	0,116	0,119
-670,335	-128,951	-0,084	-0,008
-669,320	-200,000	-0,017	0,062
-668,305	24,033	0,153	0,092
-667,291	113,294	-0,061	0,054
-666,276	-200,000	0,009	0,037
-665,262	94,415	-0,079	-0,066
-664,247	162,609	0,085	-0,086
-663,232	-51,578	-0,071	0,024
-662,218	800,000	0,059	0,148
-661,203	37,842	-0,088	-0,056
-660,189	199,492	-0,136	-0,151
-659,174	98,932	-0,120	-0,101
-658,159	445,425	0,084	-0,135
-657,145	-151,333	-0,099	-0,005
-656,130	-200,000	0,012	0,087
-655,116	47,502	0,126	-0,085
-654,101	800,000	0,052	-0,108
-653,086	-200,000	-0,005	0,050
-652,072	9,888	-0,086	0,047
-651,057	800,000	-0,039	-0,084
-650,043	800,000	0,022	-0,066
-649,028	-200,000	-0,014	0,133
-648,014	-200,000	0,035	0,152
-646,999	581,002	-0,090	0,161
-645,984	6,435	-0,037	-0,020
-644,970	-100,550	0,150	0,027
-643,955	147,287	-0,054	0,053
-642,941	-200,000	0,033	-0,123
-641,926	-71,553	-0,066	-0,018
-640,911	389,434	-0,043	-0,065
-639,897	23,198	0,080	-0,048
-638,882	-78,684	-0,104	0,025
-637,868	33,962	-0,037	-0,023
-636,853	91,096	0,088	-0,071
-635,838	-200,000	-0,028	-0,111
-634,824	-139,444	-0,049	-0,004
-633,809	-146,986	-0,030	-0,002
-632,795	-127,650	-0,099	-0,010
-631,780	-200,000	0,028	0,181
-630,765	41,184	0,060	-0,039
-629,751	786,487	-0,083	-0,166
-628,736	143,254	-0,132	-0,127
-627,722	-43,037	-0,058	0,021
-626,707	-200,000	0,034	0,123
-625,692	169,022	0,036	0,038
-624,678	-97,477	-0,141	0,026
-623,663	208,923	0,055	0,063
-622,649	14,830	-0,091	0,052
-621,634	-85,765	-0,147	-0,033
-620,619	-118,867	-0,063	-0,008
-619,605	800,000	0,101	0,225
-618,590	-25,333	-0,094	0,040
-617,576	-54,498	0,111	0,036
-616,561	138,060	0,065	-0,062
-615,546	-87,499	0,182	0,039
-614,532	22,077	-0,139	-0,082
-613,517	2,129	-0,102	-0,053
-612,503	245,818	0,011	-0,014
-611,488	-133,217	0,129	-0,012
-610,474	-200,000	-0,007	0,053
-609,459	168,160	-0,056	0,058
-608,444	-200,000	0,025	0,094
-607,430	76,133	-0,047	-0,036
-606,415	-200,000	-0,049	-0,180
-605,401	445,596	0,018	0,029
-604,386	34,687	0,075	0,047
-603,371	-200,000	-0,012	0,056
-602,357	-148,657	0,125	-0,007
-601,342	800,000	-0,035	-0,086
-600,328	800,000	-0,089	-0,189
-599,313	-200,000	0,018	-0,086
-598,298	-121,552	-0,097	-0,012
-597,284	252,384	-0,052	0,065
-596,269	-200,000	-0,016	0,069
-595,255	41,021	-0,062	0,040
-594,240	-40,909	-0,068	0,025
-593,225	9,949	-0,105	0,057
-592,211	-123,572	-0,089	0,010
-591,196	-25,825	0,100	-0,042
-590,182	800,000	0,035	0,073
-589,167	-46,681	0,123	0,043
-588,152	-139,902	-0,069	0,005
-587,138	-37,409	-0,051	0,020
-586,123	126,704	-0,059	-0,054
-585,109	-76,556	-0,057	0,014
-584,094	-200,000	-0,037	-0,130
-583,079	316,790	0,035	0,048
-582,065	-200,000	0,023	-0,140
-581,050	-200,000	-0,016	-0,080
-580,036	-200,000	0,021	-0,094
-579,021	-157,189	0,074	0,003
-578,006	-200,000	0,042	-0,182
-576,992	-67,009	0,117	0,033
-575,977	-173,379	-0,095	-0,002
-574,963	-200,000	-0,004	-0,094
-573,948	63,493	-0,052	-0,038
-572,934	-200,000	0,035	-0,150
-571,919	-73,247	-0,123	0,032
-570,904	-44,756	-0,058	-0,021
-569,890	288,389	0,011	-0,015
-568,875	-200,000	0,009	0,104
-567,861	-45,591	0,167	-0,060
-566,846	715,226	-0,041	0,079
-565,831	121,608	0,083	0,075
-564,817	-200,000	-0,008	-0,173
-563,802	-200,000	-0,010	-0,065
-562,788	800,000	-0,073	-0,154
-561,773	-153,827	0,066	-0,003
-560,758	-200,000	0,024	0,116
-559,744	-45,949	0,039	0,014
-558,729	-47,186	0,054	-0,019
-557,715	-110,306	-0,034	0,005
-556,700	-200,000	-0,014	0,087
-555,685	37,248	-0,133	-0,085
-554,671	148,401	-0,018	-0,017
-553,656	-44,804	0,052	0,019
-552,642	-32,544	0,120	0,048
-551,627	-200,000	-0,039	0,145
-550,612	-181,985	0,228	-0,003
-549,598	576,258	-0,041	0,072
-548,583	-148,112	-0,093	0,005
-547,569	-200,000	-0,021	-0,233
-546,554	67,971	0,120	-0,088
-545,539	-200,000	-0,029	0,096
-544,525	800,000	0,038	-0,096
-543,510	72,807	-0,065	-0,049
-542,496	430,485	-0,051	-0,080
-541,481	216,681	0,068	0,078
-540,466	-200,000	-0,034	-0,176
-539,452	557,656	-0,026	-0,046
-538,437	-200,000	0,003	0,100
-537,423	-200,000	-0,019	0,134
-536,408	22,833	-0,057	-0,034
-535,393	-100,632	-0,116	-0,021
-534,379	-200,000	0,006	-0,089
-533,364	10,374	0,087	0,048
-532,350	-100,445	0,050	0,009
-531,335	-200,000	-0,017	0,070
-530,321	-200,000	0,050	0,180
-529,306	156,713	-0,076	0,076
-528,291	312,870	-0,048	-0,066
-527,277	-68,308	-0,104	0,029
-526,262	48,017	-0,083	-0,056
-525,248	189,385	0,088	-0,095
-524,233	-82,566	-0,093	0,022
-523,218	-156,583	0,059	0,003
-522,204	247,152	-0,069	0,084
-521,189	-200,000	0,030	-0,114
-520,175	-39,223	-0,078	0,029
-519,160	-200,000	-0,033	-0,111
-518,145	-139,480	0,129	-0,010
-517,131	-13,281	0,052	0,024
-516,116	88,073	-0,067	-0,054
-515,102	-200,000	0,037	0,130
-514,087	-68,026	0,193	0,054
-513,072	-130,327	0,035	-0,003
-512,058	-200,000	0,022	-0,070
-511,043	149,894	0,088	-0,086
-510,029	54,405	-0,082	0,057
-509,014	249,106	0,129	-0,158
-507,999	-200,000	0,006	-0,029
-506,985	110,332	0,017	-0,015
-505,970	-22,106	-0,141	-0,061
-504,956	-200,000	-0,000	-0,110
-503,941	-200,000	-0,038	0,147
-502,926	-200,000	-0,019	0,070
-501,912	800,000	0,047	0,140
-500,897	20,266	0,102	-0,059
-499,883	-21,197	0,083	-0,036
-498,868	47,402	-0,043	-0,029
-497,853	800,000	-0,053	0,159
-496,839	-200,000	0,017	0,159
-495,824	-200,000	-0,002	0,149
-494,810	800,000	0,020	-0,060
-493,795	129,219	0,060	-0,055
-492,781	-186,194	-0,158	-0,002
-491,766	178,834	-0,082	-0,087
-490,751	101,476	0,026	-0,021
-489,737	-200,000	-0,010	-0,086
-488,722	-200,000	0,013	0,046
-487,708	90,178	-0,019	0,015
-486,693	800,000	-0,006	-0,018
-485,678	-10,155	-0,128	-0,061
-484,664	-200,000	0,015	-0,059
-483,649	-200,000	0,016	-0,117
-482,635	78,153	-0,101	-0,078
-481,620	-200,000	0,041	-0,164
-480,605	314,263	0,041	0,056
-479,591	42,503	-0,021	0,014
-478,576	-118,600	0,084	-0,011
-477,562	-200,000	-0,002	0,019
-476,547	372,423	0,025	-0,037
-475,532	-90,026	-0,194	-0,040
-474,518	20,659	0,117	0,068
-473,503	205,879	0,075	-0,085
-472,489	-94,958	0,132	0,025
-471,474	85,581	0,086	0,068
-470,459	-36,485	-0,060	-0,023
-469,445	274,083	0,102	-0,130
-468,430	70,183	-0,044	-0,033
-467,416	-74,128	-0,140	0,036
-466,401	133,919	0,124	0,116
-465,386	-16,204	0,035	-0,016
-464,372	60,046	-0,045	-0,032
-463,357	-54,297	-0,053	-0,017
-462,343	168,054	-0,036	-0,037
-461,328	-77,313	0,038	0,009
-460,313	591,075	0,031	0,056
-459,299	248,024	0,079	0,096
-458,284	-200,000	-0,007	-0,140
-457,270	26,444	0,120	0,072
-456,255	105,984	-0,158	0,135
-455,241	-16,166	0,052	-0,024
-454,226	-19,250	0,041	0,018
-453,211	689,068	0,063	0,120
-452,197	-200,000	0,001	0,089
-451,182	-200,000	0,004	0,102
-450,168	-200,000	0,018	-0,138
-449,153	620,876	0,049	-0,088
-448,138	-165,769	-0,035	-0,001
-447,124	800,000	-0,016	0,047
-446,109	800,000	-0,047	0,117
-445,095	-116,639	0,026	-0,003
-444,080	45,862	0,116	0,077
-443,065	-114,416	0,114	-0,016
-442,051	48,963	-0,022	0,015
-441,036	674,061	-0,030	-0,056
-440,022	220,842	-0,062	-0,071
-439,007	-142,098	0,061	0,004
-437,992	-177,085	-0,024	-0,000
-436,978	-200,000	-0,013	0,218
-435,963	-41,003	0,053	0,020
-434,949	-200,000	-0,026	-0,101
-433,934	777,155	0,038	-0,075
-432,919	-19,441	-0,148	0,066
-431,905	454,574	-0,028	0,045
-430,890	-200,000	0,021	-0,070
-429,876	800,000	-0,030	0,080
-428,861	-200,000	0,012	0,069
-427,846	19,825	0,026	-0,015
-426,832	-176,305	-0,078	-0,001
-425,817	-47,629	0,066	0,023
-424,803	-200,000	0,005	-0,030
-423,788	238,721	0,050	0,060
-422,773	128,797	-0,121	0,111
-421,759	-55,198	-0,039	0,013
-420,744	-122,013	-0,088	0,010
-419,730	540,796	0,043	-0,073
-418,715	234,521	-0,085	-0,101
-417,701	23,204	-0,091	-0,054
-416,686	12,368	0,041	-0,022
-415,671	-160,552	0,134	-0,005
-414,657	800,000	0,076	0,160
-413,642	596,295	0,028	-0,050
-412,628	504,191	0,048	0,080
-411,613	-74,643	-0,088	0,023
-410,598	-55,836	0,099	-0,032
-409,584	-200,000	-0,013	0,101
-408,569	26,753	0,110	0,066
-407,555	-32,893	0,093	0,037
-406,540	-115,118	0,069	0,009
-405,525	-91,777	0,079	-0,016
-404,511	163,137	0,008	0,009
-403,496	-132,062	0,062	-0,006
-402,482	-79,265	0,211	-0,051
-401,467	156,616	0,030	-0,030
-400,452	-40,438	0,048	0,018
-399,438	212,203	0,015	-0,017
-398,423	689,257	-0,023	-0,044
-397,409	-83,838	0,101	0,023
-396,394	122,753	0,032	0,029
-395,379	191,020	-0,107	-0,116
-394,365	800,000	-0,025	0,067
-393,350	-200,000	-0,003	0,087
-392,336	-115,675	-0,103	0,014
-391,321	-200,000	-0,008	-0,037
-390,306	-32,051	-0,140	-0,056
-389,292	-38,181	-0,122	0,046
-388,277	800,000	-0,018	0,053
-387,263	-52,967	0,095	0,031
-386,248	-200,000	0,004	0,015
-385,233	-25,200	-0,128	0,054
-384,219	147,100	0,025	-0,024
-383,204	7,065	-0,076	-0,040
-382,190	-61,682	-0,088	-0,026
-381,175	-200,000	-0,000	0,010
-380,160	-90,504	-0,086	-0,018
-379,146	92,135	0,163	0,132
-378,131	-43,351	0,065	-0,023
-377,117	-131,832	-0,050	-0,005
-376,102	111,772	0,055	-0,047
-375,088	309,860	-0,143	-0,193
-374,073	-200,000	-0,031	0,145
-373,058	-200,000	-0,025	0,085
-372,044	800,000	-0,028	0,088
-371,029	-200,000	-0,029	0,170
-370,015	43,541	-0,101	0,066
-369,000	-200,000	0,032	0,111
-367,985	222,430	-0,069	-0,080
-366,971	63,327	0,067	-0,048
-365,956	-48,509	0,140	0,048
-364,942	54,953	0,113	0,078
-363,927	192,360	0,051	0,055
-362,912	800,000	-0,024	0,060
-361,898	43,941	-0,109	-0,072
-360,883	-200,000	0,012	-0,070
-359,869	215,828	0,012	-0,013
-358,854	-120,314	0,079	-0,010
-357,839	800,000	-0,046	-0,094
-356,825	-69,695	0,097	0,026
-355,810	178,514	-0,041	0,043
-354,796	-200,000	0,024	0,143
-353,781	270,761	0,063	-0,079
-352,766	-200,000	0,005	0,109
-351,752	-200,000	0,054	0,196
-350,737	-44,025	0,059	-0,021
-349,723	-23,695	-0,102	0,044
-348,708	362,819	-0,052	-0,075
-347,693	-192,875	-0,064	0,000
-346,679	2,113	-0,147	-0,076
-345,664	-200,000	0,011	0,050
-344,650	-116,745	0,017	-0,002
-343,635	-65,736	0,099	-0,028
-342,620	-200,000	-0,001	0,010
-341,606	-70,704	0,025	-0,007
-340,591	-13,684	-0,077	0,036
-339,577	-109,694	-0,062	0,009
-338,562	339,056	-0,055	-0,077
-337,548	89,061	-0,058	-0,046
-336,533	-200,000	0,002	0,034
-335,518	88,132	-0,129	0,103
-334,504	-28,274	0,085	0,035
-333,489	-109,476	-0,037	-0,006
-332,475	51,055	-0,089	-0,060
-331,460	510,812	0,086	-0,143
-330,445	-64,667	-0,142	0,041
-329,431	123,973	0,124	0,111
-328,416	800,000	-0,037	0,094
-327,402	800,000	0,027	-0,067
-326,387	-56,535	-0,128	-0,040
-325,372	38,382	0,056	-0,036
-324,358	-200,000	-0,022	0,079
-323,343	-133,786	-0,112	-0,010
-322,329	96,974	0,077	-0,063
-321,314	800,000	0,047	-0,139
-320,299	-200,000	-0,009	-0,088
-319,285	-78,909	0,089	0,021
-318,270	313,075	-0,053	-0,071
-317,256	424,245	-0,026	-0,040
-316,241	30,333	0,043	0,026
-315,226	-1,892	0,092	0,046
-314,212	-200,000	0,021	0,076
-313,197	602,789	0,025	0,045
-312,183	169,040	0,083	0,085
-311,168	-200,000	-0,021	-0,068
-310,153	-69,557	0,086	0,024
-309,139	800,000	0,024	-0,056
-308,124	-200,000	-0,002	-0,089
-307,110	-200,000	0,029	0,101
-306,095	140,028	0,166	0,157
-305,080	86,123	-0,037	0,029
-304,066	566,133	-0,073	-0,128
-303,051	800,000	0,051	-0,129
-302,037	108,874	-0,048	-0,041
-301,022	25,901	0,142	0,084
-300,008	-98,445	-0,074	0,014
-298,993	45,095	-0,035	0,023
-297,978	24,625	0,102	0,060
-296,964	532,552	-0,030	-0,051
-295,949	92,207	-0,024	0,019
-294,935	-97,178	0,137	-0,025
-293,920	-200,000	-0,016	0,075
-292,905	-200,000	-0,009	0,188
-291,891	-200,000	-0,002	0,081
-290,876	78,189	-0,125	0,096
-289,862	246,058	0,084	-0,102
-288,847	800,000	-0,095	-0,229
-287,832	800,000	0,051	-0,144
-286,818	526,522	-0,068	-0,116
-285,803	-149,824	0,037	0,002
-284,789	-200,000	-0,002	0,010
-283,774	-200,000	0,015	0,180
-282,759	-200,000	0,017	0,083
-281,745	-99,214	0,039	0,007
-280,730	800,000	0,016	0,043
-279,716	55,870	-0,170	-0,118
-278,701	-65,671	0,044	0,013
-277,686	-37,823	0,122	-0,046
-276,672	-200,000	-0,006	-0,073
-275,657	-200,000	0,007	0,099
-274,643	800,000	0,054	-0,131
-273,628	7,881	-0,017	0,009
-272,613	-113,175	-0,062	0,009
-271,599	709,168	0,022	0,042
-270,584	625,698	0,025	-0,045
-269,570	372,522	0,021	-0,030
-268,555	-200,000	0,002	-0,073
-267,540	666,999	-0,105	-0,194
-266,526	800,000	0,054	-0,154
-265,511	800,000	0,045	-0,099
-264,497	363,947	0,112	0,162
-263,482	-200,000	-0,016	0,158
-262,467	-200,000	0,040	0,144
-261,453	-144,045	0,127	-0,008
-260,438	149,286	0,134	-0,129
-259,424	800,000	0,018	-0,048
-258,409	-200,000	-0,007	-0,085
-257,395	-200,000	-0,010	-0,051
-256,380	134,842	-0,047	0,044
-255,365	-200,000	-0,005	-0,153
-254,351	250,543	-0,077	-0,094
-253,336	-181,934	0,040	-0,001
-252,322	800,000	-0,018	-0,047
-251,307	-200,000	-0,011	-0,156
-250,292	-64,703	0,073	-0,021
-249,278	94,035	0,081	0,065
-248,263	-200,000	-0,033	0,105
-247,249	-64,627	0,143	0,041
-246,234	-103,640	-0,138	0,023
-245,219	-200,000	0,032	-0,109
-244,205	171,364	-0,080	-0,082
-243,190	-200,000	-0,019	-0,084
-242,176	800,000	0,047	-0,122
-241,161	-13,510	-0,073	-0,033
-240,146	800,000	0,019	-0,043
-239,132	-166,890	-0,041	-0,001
-238,117	-200,000	0,014	-0,087
-237,103	784,779	0,015	0,029
-236,088	17,360	-0,113	-0,064
-235,073	-200,000	0,042	0,189
-234,059	345,102	0,106	-0,149
-233,044	-64,965	0,086	-0,025
-232,030	-180,548	-0,193	0,003
-231,015	-200,000	-0,001	-0,059
-230,000	-91,951	0,161	0,032
-228,986	-200,000	0,008	0,037
-227,971	-72,909	0,190	-0,050
-226,957	-1,227	-0,081	0,041
-225,942	-200,000	0,025	0,084
-224,927	-200,000	-0,003	-0,113
-223,913	226,565	0,091	-0,106
-222,898	-200,000	0,015	-0,050
-221,884	-36,915	-0,113	-0,043
-220,869	-108,626	-0,179	0,027
-219,855	-107,458	0,062	0,010
-218,840	381,853	-0,056	-0,082
-217,825	44,077	-0,021	0,014
-216,811	615,084	0,039	-0,071
-215,796	-200,000	-0,027	-0,110
-214,782	207,696	-0,138	0,154
-213,767	-200,000	-0,008	0,027
-212,752	800,000	0,039	0,084
-211,738	-28,423	-0,064	0,026
-210,723	-200,000	-0,021	0,128
-209,709	-200,000	0,002	-0,031
-208,694	66,671	0,065	-0,047
-207,679	-38,474	0,143	0,054
-206,665	-173,488	-0,072	-0,002
-205,650	745,973	-0,048	0,093
-204,636	800,000	0,077	0,164
-203,621	583,773	-0,084	0,147
-202,606	46,105	0,144	-0,095
-201,592	626,586	-0,085	-0,154
-200,577	-136,468	0,030	-0,002
-199,563	58,915	-0,041	0,029
-198,548	690,106	-0,037	-0,070
-197,533	-44,695	0,127	0,045
-196,519	29,468	-0,059	-0,036
-195,504	118,906	-0,039	-0,034
-194,490	110,542	0,087	0,074
-193,475	55,989	-0,043	0,030
-192,460	800,000	-0,046	0,091
-191,446	-59,214	0,168	0,051
-190,431	325,705	-0,029	0,040
-189,417	186,211	0,066	-0,070
-188,402	-16,674	0,079	-0,035
-187,387	800,000	-0,019	0,046
-186,373	16,681	0,024	-0,014
-185,358	-200,000	0,004	-0,027
-184,344	-62,694	-0,073	0,021
-183,329	-200,000	0,008	0,105
-182,315	-200,000	0,013	0,071
-181,300	800,000	-0,036	0,084
-180,285	-50,777	0,016	-0,005
-179,271	-200,000	0,036	-0,204
-178,256	-200,000	-0,019	-0,104
-177,242	-63,942	-0,033	-0,010
-176,227	-200,000	0,012	-0,120
-175,212	-125,160	-0,068	0,007
-174,198	-200,000	0,002	-0,041
-173,183	143,786	0,011	0,011
-172,169	-200,000	-0,022	-0,123
-171,154	338,204	-0,089	0,124
-170,139	-29,563	-0,106	0,043
-169,125	-200,000	0,040	-0,186
-168,110	-200,000	0,042	0,175
-167,096	-38,762	-0,175	0,065
-166,081	51,644	0,079	0,053
-165,066	-125,099	-0,108	0,012
-164,052	76,062	-0,077	0,058
-163,037	-165,999	-0,053	0,002
-162,023	153,948	0,106	0,103
-161,008	568,182	-0,107	0,185
-159,993	207,762	-0,062	0,069
-158,979	10,212	-0,071	-0,038
-157,964	133,457	0,042	-0,039
-156,950	694,042	0,016	-0,030
-155,935	-169,360	0,106	0,003
-154,920	730,973	0,057	0,110
-153,906	-200,000	0,030	0,125
-152,891	-46,643	-0,139	0,048
-151,877	25,355	0,070	0,041
-150,862	-0,168	-0,038	0,019
-149,847	-3,854	-0,051	-0,025
-148,833	-19,890	0,153	-0,067
-147,818	800,000	0,025	-0,054
-146,804	800,000	-0,014	-0,042
-145,789	-101,769	0,139	-0,024
-144,775	229,239	-0,084	-0,098
-143,760	-200,000	-0,067	-0,231
-142,745	-53,723	0,016	0,005
-141,731	-200,000	-0,023	-0,241
-140,716	425,169	0,120	0,185
-139,702	-200,000	-0,009	0,043
-138,687	14,492	-0,100	0,055
-137,672	266,544	0,054	-0,067
-136,658	-139,329	-0,180	0,014
-135,643	210,467	0,052	0,058
-134,629	-200,000	-0,013	-0,067
-133,614	102,973	0,084	0,070
-132,599	114,619	0,086	0,074
-131,585	40,576	-0,101	0,065
-130,570	-36,819	0,010	-0,004
-129,556	800,000	-0,007	-0,019
-128,541	759,367	-0,049	-0,094
-127,526	16,907	0,132	-0,074
-126,512	-200,000	-0,007	-0,068
-125,497	307,595	-0,016	-0,021
-124,483	800,000	0,062	-0,136
-123,468	-44,838	0,017	-0,006
-122,453	51,412	-0,062	0,042
-121,439	-200,000	0,014	0,064
-120,424	400,546	-0,104	0,155
