DTS Sentinel unit serial number:	SN410029Multiplexer serial number:	ORYXHardware model number:	OX2-SRSoftware version number:	ORYX F/W v4,00 Oryx Data Collector v3.7.2.0data status	okinstallation	BH3 CH2differential loss correction	single-endedforward channel	channel 2reverse channel	N/Adate	2023/12/05time	22:12:28forward acquisition time	300,00reverse acquisition time	0,00gamma	499,1914k internal	0,3194k external	0,3194temperature offset calibration	1,0000default loss term (dB/km)	0,3820temperature slope calibration	1,0000multiplexer offset coefficient	1,0000multiplexer slope coefficient	1,0000fibre end	0,00T internal ref (°C)	10,06T ext. ref 1 (°C)	-5,05T ext. ref 2 (°C)	-5,15length (m)	temperature (°C)	Stokes	anti-Stokes-744,400	33,240	0,032	-0,020
-743,385	55,512	-0,124	0,088
-742,371	337,421	0,018	-0,025
-741,356	-60,062	-0,213	0,066
-740,342	186,879	-0,029	-0,031
-739,327	103,360	-0,218	0,187
-738,312	-200,000	0,009	-0,074
-737,298	400,971	-0,062	0,096
-736,283	-200,000	0,018	-0,109
-735,269	36,078	-0,186	0,119
-734,254	-97,855	-0,069	-0,013
-733,239	-58,367	-0,359	-0,113
-732,225	100,652	-0,076	-0,064
-731,210	-200,000	-0,022	0,072
-730,196	-200,000	-0,013	-0,053
-729,181	-200,000	-0,001	-0,111
-728,167	172,548	-0,018	0,019
-727,152	800,000	-0,027	-0,056
-726,137	81,071	-0,119	0,094
-725,123	800,000	0,046	-0,110
-724,108	231,521	-0,092	-0,110
-723,094	719,562	0,059	-0,114
-722,079	114,452	-0,079	-0,070
-721,064	-38,176	-0,200	-0,077
-720,050	68,211	0,096	0,071
-719,035	85,525	-0,056	0,045
-718,021	195,892	0,043	0,048
-717,006	-72,498	-0,022	-0,006
-715,991	800,000	-0,069	-0,195
-714,977	-200,000	-0,023	-0,082
-713,962	85,256	-0,102	-0,081
-712,948	133,199	0,103	0,097
-711,933	-142,651	-0,095	0,007
-710,918	-19,686	-0,061	-0,027
-709,904	-127,877	-0,008	0,001
-708,889	-107,100	-0,067	-0,011
-707,875	65,970	0,010	0,007
-706,860	476,930	0,058	-0,096
-705,845	95,839	-0,090	-0,075
-704,831	492,463	0,062	-0,104
-703,816	13,295	-0,098	0,055
-702,802	-36,181	-0,028	0,011
-701,787	613,253	0,020	-0,037
-700,772	-200,000	0,009	-0,091
-699,758	-130,591	-0,169	-0,016
-698,743	-200,000	-0,011	0,099
-697,729	-130,314	0,096	0,009
-696,714	3,685	-0,070	-0,037
-695,699	-200,000	0,000	0,042
-694,685	800,000	-0,013	0,033
-693,670	-200,000	-0,004	-0,068
-692,656	-48,940	-0,088	-0,031
-691,641	529,665	0,074	-0,128
-690,627	427,807	-0,016	-0,025
-689,612	2,596	-0,106	-0,056
-688,597	48,249	-0,130	-0,088
-687,583	-200,000	-0,020	-0,167
-686,568	638,547	-0,111	-0,207
-685,554	746,857	-0,034	-0,067
-684,539	800,000	0,030	-0,067
-683,524	227,855	-0,030	0,035
-682,510	-200,000	0,009	0,113
-681,495	800,000	0,020	-0,045
-680,481	745,003	-0,042	0,083
-679,466	252,551	-0,021	0,026
-678,451	-200,000	-0,030	-0,103
-677,437	-35,393	-0,012	0,005
-676,422	46,911	0,029	0,020
-675,408	-102,537	0,071	0,012
-674,393	-200,000	0,002	0,278
-673,378	-200,000	-0,001	-0,005
-672,364	-200,000	-0,026	0,000
-671,349	445,308	-0,080	-0,128
-670,335	248,705	0,038	-0,047
-669,320	-145,303	0,069	-0,004
-668,305	-100,449	0,059	-0,011
-667,291	-83,774	0,069	-0,016
-666,276	-73,285	-0,029	0,008
-665,262	800,000	0,019	-0,043
-664,247	-10,061	0,050	-0,024
-663,232	88,880	-0,061	-0,049
-662,218	-93,184	0,114	-0,023
-661,203	86,266	-0,044	-0,035
-660,189	-65,473	0,229	-0,066
-659,174	-106,267	-0,097	0,016
-658,159	702,171	0,026	-0,051
-657,145	-82,548	-0,111	0,026
-656,130	-68,760	-0,100	0,028
-655,116	-147,134	0,093	0,006
-654,101	260,555	0,039	0,050
-653,086	-200,000	0,006	-0,037
-652,072	80,959	-0,071	0,056
-651,057	-76,607	-0,130	-0,033
-650,043	-106,253	-0,078	0,013
-649,028	349,865	-0,014	0,021
-648,014	-87,517	0,067	0,015
-646,999	89,575	0,020	0,016
-645,984	-200,000	-0,011	0,183
-644,970	800,000	-0,011	-0,025
-643,955	-200,000	0,003	-0,109
-642,941	800,000	0,022	-0,070
-641,926	-77,794	0,089	0,022
-640,911	-98,468	0,074	-0,014
-639,897	-87,028	-0,084	0,019
-638,882	-116,231	0,067	0,009
-637,868	-117,394	0,071	-0,009
-636,853	-165,922	-0,098	-0,003
-635,838	800,000	0,005	-0,013
-634,824	-200,000	-0,002	-0,057
-633,809	14,037	0,081	0,045
-632,795	418,443	0,021	-0,033
-631,780	132,376	-0,102	0,096
-630,765	203,923	0,019	0,021
-629,751	234,019	-0,090	-0,108
-628,736	-59,001	0,098	0,030
-627,722	232,850	-0,028	0,033
-626,707	-116,704	-0,061	0,008
-625,692	-65,284	0,072	0,021
-624,678	800,000	0,071	0,154
-623,663	-200,000	-0,009	0,030
-622,649	-140,523	-0,165	-0,012
-621,634	-117,904	-0,135	0,017
-620,619	55,335	-0,078	0,054
-619,605	-177,833	-0,061	-0,001
-618,590	81,699	0,140	-0,110
-617,576	800,000	-0,028	0,079
-616,561	-43,937	0,143	-0,052
-615,546	-66,539	-0,084	0,024
-614,532	-134,643	-0,076	0,007
-613,517	80,066	-0,145	-0,113
-612,503	43,708	0,075	-0,050
-611,488	111,653	-0,064	-0,056
-610,474	-200,000	0,026	0,159
-609,459	-112,574	-0,030	0,004
-608,444	-17,552	-0,127	0,057
-607,430	-200,000	0,016	-0,156
-606,415	35,738	-0,086	0,055
-605,401	29,247	0,066	-0,041
-604,386	102,455	-0,075	0,064
-603,371	396,272	0,050	-0,076
-602,357	311,292	0,088	0,120
-601,342	-74,677	-0,198	-0,051
-600,328	-96,099	0,094	-0,018
-599,313	-200,000	-0,022	-0,083
-598,298	567,102	0,043	0,075
-597,284	-21,175	0,108	0,048
-596,269	149,700	-0,079	-0,078
-595,255	188,226	0,057	0,062
-594,240	800,000	0,042	0,084
-593,225	800,000	-0,030	0,063
-592,211	178,397	0,027	0,028
-591,196	61,345	-0,034	0,024
-590,182	-50,840	-0,090	-0,031
-589,167	-36,575	0,101	0,039
-588,152	409,884	0,046	0,071
-587,138	61,350	-0,047	0,034
-586,123	800,000	0,002	0,006
-585,109	565,758	-0,081	-0,143
-584,094	800,000	0,012	-0,036
-583,079	-84,742	0,048	-0,011
-582,065	800,000	0,022	0,061
-581,050	800,000	0,024	-0,066
-580,036	-134,380	-0,097	-0,008
-579,021	800,000	-0,042	-0,091
-578,006	308,322	0,108	-0,147
-576,992	-32,106	-0,115	-0,046
-575,977	137,563	0,105	-0,099
-574,963	800,000	-0,019	0,047
-573,948	-79,955	-0,102	0,025
-572,934	-2,099	0,008	0,004
-571,919	86,688	-0,033	0,026
-570,904	-54,409	-0,047	0,015
-569,890	-200,000	0,004	-0,037
-568,875	15,422	-0,112	0,063
-567,861	2,262	0,053	-0,028
-566,846	-124,182	0,072	0,008
-565,831	56,768	-0,078	-0,055
-564,817	28,950	-0,085	-0,052
-563,802	-200,000	-0,022	-0,187
-562,788	-86,258	-0,073	-0,016
-561,773	645,993	0,044	0,081
-560,758	35,956	-0,104	-0,066
-559,744	153,857	0,061	-0,060
-558,729	-2,120	0,049	0,025
-557,715	38,112	0,006	0,004
-556,700	800,000	0,020	-0,054
-555,685	800,000	-0,026	0,061
-554,671	176,011	0,035	-0,037
-553,656	-106,016	0,090	0,015
-552,642	40,933	-0,113	0,074
-551,627	94,629	-0,060	-0,050
-550,612	-200,000	-0,009	0,155
-549,598	800,000	0,018	-0,040
-548,583	-156,621	-0,095	-0,004
-547,569	-200,000	-0,011	-0,062
-546,554	-200,000	-0,004	-0,064
-545,539	-125,214	-0,168	-0,018
-544,525	-187,192	0,139	0,001
-543,510	-60,216	0,117	-0,036
-542,496	144,489	-0,114	-0,111
-541,481	66,034	-0,141	-0,104
-540,466	800,000	0,045	0,094
-539,452	800,000	0,025	-0,058
-538,437	-31,909	0,097	0,039
-537,423	-142,269	-0,131	0,009
-536,408	-122,413	0,042	0,005
-535,393	-200,000	-0,003	-0,032
-534,379	-68,633	-0,078	-0,022
-533,364	-98,263	0,065	-0,012
-532,350	187,445	0,034	-0,036
-531,335	376,832	-0,038	-0,057
-530,321	217,904	0,029	0,034
-529,306	800,000	0,024	0,070
-528,291	113,603	-0,033	-0,029
-527,277	218,553	-0,048	0,056
-526,262	-200,000	0,032	-0,102
-525,248	-70,261	0,050	0,014
-524,233	800,000	-0,058	0,146
-523,218	246,085	0,063	-0,077
-522,204	-200,000	-0,004	0,030
-521,189	-118,123	0,050	-0,006
-520,175	800,000	-0,076	-0,215
-519,160	-157,324	0,095	-0,004
-518,145	-200,000	0,023	-0,100
-517,131	-200,000	0,024	0,124
-516,116	199,583	-0,030	0,033
-515,102	800,000	0,029	0,074
-514,087	-44,016	-0,070	-0,025
-513,072	-200,000	0,007	0,055
-512,058	-200,000	0,008	-0,150
-511,043	-45,852	0,096	-0,034
-510,029	-200,000	-0,003	0,022
-509,014	204,521	-0,128	0,144
-507,999	-200,000	-0,025	0,135
-506,985	800,000	0,046	-0,119
-505,970	51,229	-0,204	-0,140
-504,956	-149,664	-0,129	-0,007
-503,941	108,944	0,055	-0,047
-502,926	27,947	-0,047	-0,028
-501,912	-200,000	-0,025	0,105
-500,897	-200,000	-0,029	-0,113
-499,883	-200,000	-0,012	-0,089
-498,868	800,000	-0,041	-0,091
-497,853	-69,410	0,088	-0,024
-496,839	-200,000	-0,030	-0,143
-495,824	-200,000	0,001	0,094
-494,810	69,048	0,026	-0,020
-493,795	800,000	0,020	0,051
-492,781	-200,000	0,009	0,034
-491,766	-107,931	-0,148	0,023
-490,751	425,877	0,041	0,064
-489,737	-200,000	0,011	-0,059
-488,722	406,953	-0,115	0,176
-487,708	312,181	0,096	0,130
-486,693	800,000	0,065	0,130
-485,678	457,709	-0,036	0,058
-484,664	-200,000	0,015	0,126
-483,649	800,000	-0,015	-0,041
-482,635	-30,724	0,106	0,043
-481,620	-81,661	0,128	-0,030
-480,605	-14,071	-0,164	0,076
-479,591	533,262	-0,049	0,083
-478,576	-54,066	0,035	-0,011
-477,562	-200,000	-0,066	-0,235
-476,547	800,000	-0,067	-0,145
-475,532	129,191	0,143	0,131
-474,518	29,543	0,110	-0,067
-473,503	790,563	0,028	0,056
-472,489	43,964	-0,046	-0,030
-471,474	-157,769	-0,047	0,002
-470,459	-200,000	0,003	0,033
-469,445	425,555	-0,029	0,046
-468,430	-200,000	0,003	-0,111
-467,416	-110,804	0,119	-0,018
-466,401	-200,000	0,041	-0,138
-465,386	800,000	0,031	0,064
-464,372	-200,000	0,006	-0,047
-463,357	585,421	-0,061	0,108
-462,343	506,147	0,040	-0,068
-461,328	-200,000	0,019	0,100
-460,313	-93,656	0,014	0,003
-459,299	37,675	0,077	0,049
-458,284	-70,850	-0,037	0,010
-457,270	-109,528	-0,072	-0,011
-456,255	-200,000	-0,014	-0,215
-455,241	140,578	0,048	0,046
-454,226	664,562	0,060	-0,112
-453,211	-200,000	0,017	0,178
-452,197	-200,000	-0,014	0,120
-451,182	245,540	0,132	0,161
-450,168	266,997	-0,026	0,032
-449,153	242,648	-0,043	-0,052
-448,138	45,333	0,126	-0,083
-447,124	-200,000	0,011	-0,036
-446,109	800,000	0,027	-0,061
-445,095	800,000	0,019	0,045
-444,080	226,216	0,033	0,038
-443,065	244,095	0,041	0,050
-442,051	-200,000	0,010	-0,097
-441,036	65,887	-0,080	-0,058
-440,022	-2,363	-0,071	0,036
-439,007	257,365	-0,070	0,087
-437,992	-101,457	-0,054	0,009
-436,978	-200,000	-0,011	-0,094
-435,963	-37,035	-0,056	0,022
-434,949	84,339	-0,095	-0,074
-433,934	46,698	0,058	0,039
-432,919	800,000	0,031	-0,090
-431,905	66,148	-0,022	-0,016
-430,890	-200,000	-0,033	-0,130
-429,876	139,881	-0,072	-0,068
-428,861	133,866	-0,103	-0,096
-427,846	-109,930	0,074	0,011
-426,832	-31,891	0,005	0,002
-425,817	-200,000	-0,004	0,108
-424,803	205,562	0,007	-0,008
-423,788	291,136	0,034	0,044
-422,773	-46,383	0,177	0,062
-421,759	-41,561	-0,047	0,017
-420,744	127,711	0,103	0,094
-419,730	-200,000	0,007	-0,088
-418,715	-200,000	0,155	-0,000
-417,701	-94,305	-0,092	0,018
-416,686	-200,000	-0,014	-0,151
-415,671	-154,957	0,147	0,007
-414,657	79,291	0,091	0,070
-413,642	-200,000	-0,000	0,131
-412,628	487,444	0,036	-0,060
-411,613	-81,389	-0,131	-0,031
-410,598	-200,000	0,027	0,094
-409,584	321,142	0,088	0,121
-408,569	315,597	-0,066	-0,089
-407,555	-200,000	0,012	0,222
-406,540	800,000	-0,006	0,015
-405,525	-200,000	-0,012	-0,080
-404,511	-200,000	0,009	-0,039
-403,496	527,337	-0,013	0,022
-402,482	66,954	0,199	0,146
-401,467	800,000	-0,010	-0,030
-400,452	-33,718	-0,111	0,044
-399,438	18,944	-0,023	-0,013
-398,423	800,000	0,135	-0,280
-397,409	800,000	0,054	0,152
-396,394	-34,430	-0,130	-0,051
-395,379	132,341	-0,053	0,049
-394,365	-1,550	0,129	-0,065
-393,350	446,483	0,033	0,053
-392,336	-20,475	-0,141	-0,062
-391,321	92,679	0,082	-0,067
-390,306	-151,260	0,193	-0,010
-389,292	160,453	0,054	-0,054
-388,277	667,230	0,019	-0,036
-387,263	-145,297	-0,178	-0,011
-386,248	180,889	0,089	-0,094
-385,233	-200,000	0,012	-0,074
-384,219	-200,000	0,002	0,068
-383,204	-73,527	-0,113	0,029
-382,190	-122,809	0,074	-0,008
-381,175	23,014	-0,128	0,075
-380,160	800,000	0,005	0,014
-379,146	800,000	-0,009	-0,023
-378,131	800,000	0,028	-0,063
-377,117	800,000	-0,051	-0,110
-376,102	-132,009	-0,128	0,012
-375,088	-34,280	-0,099	-0,039
-374,073	456,468	0,043	0,069
-373,058	-66,736	0,049	-0,014
-372,044	-18,657	0,119	-0,053
-371,029	57,953	0,083	-0,058
-370,015	-109,662	0,112	0,017
-369,000	-200,000	-0,006	-0,037
-367,985	80,640	-0,078	-0,060
-366,971	17,076	0,119	0,068
-365,956	219,195	-0,055	0,063
-364,942	264,748	-0,008	0,010
-363,927	-9,260	0,092	0,044
-362,912	-200,000	0,016	0,067
-361,898	4,242	-0,106	-0,056
-360,883	153,361	0,027	-0,027
-359,869	800,000	0,019	-0,045
-358,854	127,728	0,048	-0,044
-357,839	400,386	-0,039	0,059
-356,825	-200,000	-0,007	0,037
-355,810	-200,000	0,016	0,072
-354,796	85,300	-0,044	0,034
-353,781	-37,818	-0,070	0,027
-352,766	1,236	-0,037	0,019
-351,752	75,552	-0,117	-0,088
-350,737	-200,000	-0,015	-0,059
-349,723	4,883	0,020	-0,010
-348,708	800,000	-0,055	0,119
-347,693	-42,729	-0,159	-0,058
-346,679	-200,000	0,040	-0,148
-345,664	-200,000	0,016	-0,072
-344,650	-200,000	0,009	-0,093
-343,635	-185,289	0,096	-0,001
-342,620	-129,774	-0,059	-0,006
-341,606	-200,000	-0,010	0,077
-340,591	800,000	-0,042	-0,124
-339,577	88,489	-0,039	-0,031
-338,562	52,877	-0,171	-0,117
-337,548	800,000	-0,018	0,045
-336,533	569,896	0,067	0,117
-335,518	24,529	0,122	0,072
-334,504	40,731	-0,092	0,059
-333,489	37,671	0,122	0,078
-332,475	61,918	-0,081	0,058
-331,460	27,304	0,017	-0,010
-330,445	48,947	0,137	-0,092
-329,431	800,000	0,028	0,083
-328,416	-200,000	0,006	-0,019
-327,402	-62,887	-0,063	0,019
-326,387	-61,695	-0,110	-0,033
-325,372	118,477	-0,137	-0,121
-324,358	800,000	0,025	-0,051
-323,343	-200,000	0,008	-0,091
-322,329	-200,000	0,001	0,025
-321,314	800,000	-0,055	0,133
-320,299	-58,570	0,069	0,021
-319,285	-3,625	0,089	-0,044
-318,270	39,484	0,026	-0,017
-317,256	44,640	0,114	-0,075
-316,241	15,739	0,044	0,025
-315,226	-200,000	0,039	0,166
-314,212	49,441	0,034	-0,023
-313,197	-96,005	0,151	-0,028
-312,183	209,344	0,090	-0,101
-311,168	-87,895	-0,098	-0,021
-310,153	89,785	-0,094	-0,075
-309,139	-9,595	0,160	0,076
-308,124	-99,012	0,067	0,012
-307,110	-127,462	0,212	-0,022
-306,095	800,000	-0,032	-0,089
-305,080	-72,722	-0,043	0,011
-304,066	163,534	0,011	-0,012
-303,051	782,483	-0,102	-0,201
-302,037	137,352	-0,074	-0,069
-301,022	263,822	0,022	0,028
-300,008	-200,000	0,000	0,134
-298,993	-72,269	0,035	-0,009
-297,978	404,542	0,086	0,130
-296,964	800,000	-0,020	0,047
-295,949	800,000	0,010	0,031
-294,935	515,035	-0,047	0,079
-293,920	-200,000	-0,001	-0,066
-292,905	173,369	0,094	0,098
-291,891	-200,000	0,005	-0,058
-290,876	-85,102	0,059	0,013
-289,862	-200,000	0,001	0,040
-288,847	-75,268	-0,147	-0,037
-287,832	-200,000	-0,041	-0,153
-286,818	-200,000	-0,005	0,119
-285,803	-200,000	-0,021	0,159
-284,789	146,619	0,032	-0,031
-283,774	-200,000	0,032	0,207
-282,759	61,809	-0,066	-0,047
-281,745	-50,732	-0,123	0,041
-280,730	-200,000	0,019	-0,094
-279,716	-98,762	0,097	-0,018
-278,701	99,281	-0,039	0,033
-277,686	296,644	-0,110	0,145
-276,672	770,718	-0,016	-0,031
-275,657	-200,000	0,028	0,116
-274,643	-200,000	-0,113	-0,000
-273,628	-200,000	-0,007	-0,118
-272,613	-200,000	0,004	0,026
-271,599	112,907	-0,182	-0,158
-270,584	-5,992	0,127	0,062
-269,570	217,627	-0,046	-0,053
-268,555	-200,000	-0,038	0,148
-267,540	169,211	0,029	-0,030
-266,526	-200,000	-0,068	-0,232
-265,511	-200,000	0,016	-0,106
-264,497	-200,000	-0,007	-0,197
-263,482	800,000	0,042	0,131
-262,467	398,718	0,119	0,179
-261,453	55,645	-0,048	0,033
-260,438	132,202	0,079	-0,073
-259,424	255,869	-0,068	-0,083
-258,409	434,270	-0,012	-0,019
-257,395	-17,170	-0,044	-0,020
-256,380	234,669	0,069	0,081
-255,365	169,236	0,038	0,039
-254,351	-200,000	0,030	0,194
-253,336	50,021	-0,088	-0,059
-252,322	-52,412	0,056	-0,019
-251,307	30,703	0,070	0,043
-250,292	800,000	0,036	0,099
-249,278	213,897	0,044	0,050
-248,263	154,692	-0,055	-0,054
-247,249	-188,402	0,107	-0,001
-246,234	360,677	-0,028	-0,041
-245,219	-43,701	0,119	-0,043
-244,205	543,878	-0,059	0,101
-243,190	717,760	0,060	-0,115
-242,176	101,038	-0,065	0,054
-241,161	568,695	0,030	-0,053
-240,146	175,969	-0,060	-0,062
-239,132	397,780	0,048	0,072
-238,117	137,050	0,020	0,019
-237,103	93,701	0,040	-0,033
-236,088	-200,000	0,015	0,126
-235,073	-79,505	-0,046	0,011
-234,059	-8,995	0,038	-0,018
-233,044	-72,781	-0,065	0,017
-232,030	-200,000	0,003	0,097
-231,015	309,736	0,028	-0,038
-230,000	788,185	-0,041	-0,080
-228,986	-200,000	0,020	0,086
-227,971	-127,962	0,040	0,004
-226,957	-200,000	0,016	0,202
-225,942	-200,000	0,003	0,085
-224,927	31,899	0,099	-0,061
-223,913	497,047	-0,058	-0,095
-222,898	153,570	0,083	-0,081
-221,884	221,145	-0,064	-0,074
-220,869	1,069	0,083	-0,042
-219,855	331,728	0,013	-0,018
-218,840	347,859	0,079	0,112
-217,825	800,000	0,040	0,111
-216,811	-200,000	0,012	-0,148
-215,796	-200,000	0,026	-0,113
-214,782	-114,440	-0,032	-0,004
-213,767	-200,000	0,012	0,109
-212,752	-152,528	-0,064	-0,003
-211,738	-200,000	-0,008	-0,047
-210,723	6,473	0,053	0,028
-209,709	85,727	-0,045	0,035
-208,694	246,423	0,050	0,060
-207,679	474,490	0,044	-0,070
-206,665	800,000	-0,021	-0,045
-205,650	-200,000	-0,000	0,044
-204,636	0,764	0,041	0,021
-203,621	21,154	-0,053	-0,031
-202,606	-200,000	-0,007	-0,050
-201,592	-13,846	-0,079	-0,036
-200,577	182,977	-0,089	-0,094
-199,563	-117,731	-0,168	-0,021
-198,548	-80,159	0,043	0,010
-197,533	-88,268	0,148	-0,031
-196,519	-84,917	-0,029	0,006
-195,504	-55,971	-0,110	0,035
-194,490	-142,888	-0,069	-0,005
-193,475	800,000	-0,020	-0,053
-192,460	342,415	-0,063	0,088
-191,446	-30,124	0,195	-0,079
-190,431	-73,360	-0,025	-0,006
-189,417	-200,000	0,010	-0,062
-188,402	95,375	0,105	0,085
-187,387	0,948	-0,025	0,013
-186,373	800,000	-0,030	0,076
-185,358	-200,000	-0,008	-0,085
-184,344	325,943	0,010	-0,014
-183,329	-147,403	0,136	-0,008
-182,315	800,000	0,008	0,020
-181,300	-200,000	-0,021	0,077
-180,285	265,714	0,108	0,135
-179,271	-200,000	-0,013	0,060
-178,256	323,756	0,067	0,091
-177,242	130,955	-0,002	-0,002
-176,227	-125,937	0,142	0,015
-175,212	538,670	-0,054	0,091
-174,198	-200,000	-0,037	0,163
-173,183	103,009	-0,029	-0,024
-172,169	-200,000	-0,003	-0,152
-171,154	-88,221	0,161	0,034
-170,139	54,458	-0,070	-0,048
-169,125	-41,428	-0,085	-0,031
-168,110	-39,549	0,083	0,031
-167,096	223,856	-0,042	0,048
-166,081	68,739	-0,177	0,129
-165,066	-200,000	0,011	-0,103
-164,052	288,044	-0,123	0,159
-163,037	-13,269	0,101	-0,047
-162,023	800,000	0,032	-0,091
-161,008	-12,761	-0,110	-0,051
-159,993	-200,000	0,012	-0,064
-158,979	444,942	0,050	0,078
-157,964	463,462	-0,042	-0,068
-156,950	259,796	-0,077	0,095
-155,935	512,614	-0,042	0,070
-154,920	-200,000	-0,003	0,021
-153,906	-200,000	-0,017	0,132
-152,891	-200,000	0,002	0,078
-151,877	-56,027	-0,220	-0,069
-150,862	88,639	-0,134	-0,106
-149,847	800,000	0,038	-0,076
-148,833	197,120	-0,048	-0,053
-147,818	206,787	0,019	0,021
-146,804	446,774	0,024	0,037
-145,789	600,470	-0,067	-0,119
-144,775	800,000	0,033	0,077
-143,760	136,131	-0,090	-0,084
-142,745	-135,227	-0,049	0,004
-141,731	-93,749	0,085	-0,017
-140,716	-195,679	0,137	0,001
-139,702	-144,677	-0,006	0,000
-138,687	800,000	0,040	-0,096
-137,672	694,259	-0,066	0,123
-136,658	-200,000	-0,002	-0,071
-135,643	-200,000	0,000	0,111
-134,629	36,631	-0,096	0,061
-133,614	44,516	-0,033	-0,022
-132,599	101,116	0,072	0,060
-131,585	228,719	0,064	0,074
-130,570	-123,792	-0,066	0,007
-129,556	-200,000	-0,009	-0,093
-128,541	-66,905	0,055	-0,015
-127,526	-200,000	0,028	0,092
-126,512	107,747	0,036	0,030
-125,497	-200,000	0,024	0,094
-124,483	460,244	0,042	-0,067
-123,468	800,000	0,041	0,110
-122,453	-163,249	-0,133	0,004
-121,439	-200,000	0,009	-0,148
-120,424	129,093	0,125	-0,113
-119,410	195,861	-0,047	0,051
