DTS Sentinel unit serial number:	SN410029Multiplexer serial number:	ORYXHardware model number:	OX2-SRSoftware version number:	ORYX F/W v4,00 Oryx Data Collector v3.7.2.0data status	okinstallation	BH3 CH2differential loss correction	single-endedforward channel	channel 2reverse channel	N/Adate	2023/12/06time	04:57:28forward acquisition time	300,00reverse acquisition time	0,00gamma	499,1914k internal	0,3197k external	0,3197temperature offset calibration	1,0000default loss term (dB/km)	0,3820temperature slope calibration	1,0000multiplexer offset coefficient	1,0000multiplexer slope coefficient	1,0000fibre end	0,00T internal ref (°C)	8,93T ext. ref 1 (°C)	-5,69T ext. ref 2 (°C)	-5,80length (m)	temperature (°C)	Stokes	anti-Stokes-744,400	-200,000	-0,016	-0,140
-743,385	-160,502	-0,156	0,006
-742,371	800,000	0,039	-0,099
-741,356	60,915	-0,177	0,128
-740,342	-175,717	-0,073	-0,001
-739,327	-87,708	-0,326	0,071
-738,312	-200,000	0,042	-0,254
-737,298	-168,737	-0,321	0,009
-736,283	800,000	0,014	-0,034
-735,269	-26,121	-0,209	0,089
-734,254	-200,000	-0,024	-0,085
-733,239	-4,386	-0,505	-0,253
-732,225	800,000	0,057	-0,151
-731,210	800,000	0,062	0,173
-730,196	-129,820	0,151	0,015
-729,181	287,306	-0,084	-0,111
-728,167	-200,000	0,013	-0,079
-727,152	-129,433	0,091	-0,009
-726,137	258,901	-0,076	-0,095
-725,123	800,000	-0,018	0,052
-724,108	-200,000	0,013	-0,138
-723,094	-200,000	-0,027	-0,185
-722,079	-108,654	-0,180	-0,028
-721,064	16,304	-0,131	-0,075
-720,050	-200,000	-0,009	-0,121
-719,035	-55,234	0,075	-0,024
-718,021	800,000	-0,029	-0,079
-717,006	-33,572	-0,108	-0,043
-715,991	800,000	-0,039	-0,091
-714,977	53,975	-0,074	-0,051
-713,962	-74,906	0,129	-0,033
-712,948	202,393	-0,024	-0,027
-711,933	-45,597	0,075	-0,027
-710,918	113,629	-0,137	-0,121
-709,904	199,544	-0,024	0,027
-708,889	800,000	0,085	-0,189
-707,875	800,000	-0,078	-0,188
-706,860	-200,000	-0,022	-0,115
-705,845	486,923	0,036	-0,060
-704,831	564,265	-0,046	0,082
-703,816	-200,000	-0,028	0,145
-702,802	-128,395	-0,027	0,003
-701,787	-117,762	0,083	0,011
-700,772	-200,000	-0,007	-0,141
-699,758	-36,708	-0,208	-0,081
-698,743	-106,468	0,042	0,007
-697,729	-67,844	0,069	-0,020
-696,714	-12,692	-0,091	-0,043
-695,699	-51,684	-0,120	-0,040
-694,685	143,503	0,057	-0,056
-693,670	18,364	-0,206	-0,120
-692,656	-128,902	-0,057	-0,006
-691,641	800,000	0,050	0,125
-690,627	25,387	-0,137	0,082
-689,612	-83,356	0,097	0,022
-688,597	531,395	-0,114	-0,197
-687,583	-24,540	-0,062	-0,027
-686,568	362,737	-0,046	-0,068
-685,554	800,000	0,021	0,052
-684,539	223,538	0,028	0,033
-683,524	389,250	-0,040	-0,061
-682,510	-200,000	-0,021	0,096
-681,495	36,105	0,142	-0,091
-680,481	-200,000	-0,001	-0,139
-679,466	71,244	0,032	-0,024
-678,451	373,071	-0,022	0,033
-677,437	-185,593	-0,090	-0,001
-676,422	-137,524	-0,109	-0,009
-675,408	-58,012	0,062	0,020
-674,393	-200,000	-0,028	-0,131
-673,378	586,267	0,037	-0,066
-672,364	-34,655	0,173	-0,068
-671,349	-113,195	0,131	-0,019
-670,335	-25,106	-0,217	0,093
-669,320	71,521	0,034	-0,026
-668,305	-72,543	-0,068	-0,018
-667,291	-118,708	0,105	0,013
-666,276	787,153	-0,058	-0,115
-665,262	214,920	-0,106	-0,122
-664,247	-155,576	-0,119	-0,005
-663,232	-81,103	-0,058	-0,014
-662,218	-132,612	-0,090	-0,008
-661,203	-188,029	-0,022	-0,000
-660,189	-155,868	-0,133	-0,006
-659,174	14,100	0,085	0,048
-658,159	437,814	0,030	-0,048
-657,145	283,303	-0,169	-0,221
-656,130	-141,704	0,073	-0,005
-655,116	-74,671	0,016	0,004
-654,101	-24,850	-0,075	0,032
-653,086	-200,000	0,016	-0,071
-652,072	93,958	0,094	0,078
-651,057	378,613	-0,055	-0,081
-650,043	82,679	-0,080	-0,063
-649,028	-144,319	0,057	0,004
-648,014	220,673	0,126	-0,147
-646,999	493,505	-0,045	-0,075
-645,984	-200,000	0,009	0,134
-644,970	-21,917	-0,041	0,018
-643,955	597,365	-0,013	-0,024
-642,941	-56,016	-0,038	0,012
-641,926	-200,000	0,018	0,093
-640,911	47,061	-0,081	0,055
-639,897	-51,508	-0,120	0,040
-638,882	138,006	-0,040	-0,038
-637,868	18,197	0,160	-0,092
-636,853	-5,806	-0,063	-0,031
-635,838	-200,000	0,032	0,108
-634,824	365,461	0,089	-0,131
-633,809	-20,468	-0,169	-0,075
-632,795	185,991	-0,013	0,014
-631,780	800,000	0,017	0,037
-630,765	235,923	0,061	0,074
-629,751	800,000	0,042	-0,131
-628,736	338,000	-0,097	-0,137
-627,722	-48,178	-0,059	-0,020
-626,707	444,906	0,032	0,051
-625,692	-200,000	0,005	0,073
-624,678	95,846	0,033	0,027
-623,663	5,771	0,097	-0,052
-622,649	104,478	-0,032	0,027
-621,634	24,721	-0,100	-0,060
-620,619	231,080	-0,077	-0,092
-619,605	329,321	0,044	0,061
-618,590	-11,562	0,113	-0,054
-617,576	-76,394	-0,094	0,024
-616,561	-200,000	-0,004	-0,085
-615,546	447,013	-0,042	0,068
-614,532	-200,000	-0,049	0,175
-613,517	800,000	-0,038	-0,078
-612,503	-200,000	0,023	-0,179
-611,488	668,031	0,081	-0,152
-610,474	-122,864	0,047	0,005
-609,459	800,000	-0,019	-0,039
-608,444	191,400	0,028	-0,030
-607,430	149,578	-0,087	-0,085
-606,415	76,421	0,064	-0,049
-605,401	-12,725	0,009	0,004
-604,386	789,357	0,037	-0,075
-603,371	800,000	-0,060	0,126
-602,357	-200,000	-0,011	-0,090
-601,342	2,838	0,022	-0,012
-600,328	112,877	-0,124	0,109
-599,313	-107,264	-0,116	-0,018
-598,298	51,320	0,021	-0,014
-597,284	-173,721	0,012	0,000
-596,269	351,762	0,022	0,032
-595,255	-41,639	0,081	0,030
-594,240	-200,000	0,015	-0,055
-593,225	800,000	-0,012	0,031
-592,211	800,000	-0,027	-0,060
-591,196	-146,238	-0,060	-0,004
-590,182	-200,000	0,011	-0,044
-589,167	-98,579	-0,080	-0,015
-588,152	-10,104	-0,069	0,033
-587,138	424,062	-0,027	0,041
-586,123	-39,046	-0,122	-0,046
-585,109	-200,000	0,003	-0,135
-584,094	-19,427	-0,030	0,013
-583,079	-80,971	0,004	-0,001
-582,065	75,360	0,045	0,034
-581,050	296,355	-0,039	0,051
-580,036	-11,755	0,095	-0,045
-579,021	-181,186	0,114	-0,002
-578,006	126,298	-0,095	0,087
-576,992	-156,024	-0,157	0,007
-575,977	227,523	-0,091	0,107
-574,963	329,345	0,077	0,107
-573,948	140,541	0,061	-0,059
-572,934	-200,000	0,010	-0,052
-571,919	-15,872	-0,017	-0,008
-570,904	800,000	-0,017	-0,051
-569,890	173,263	-0,104	-0,108
-568,875	-55,186	0,024	0,008
-567,861	448,259	0,036	-0,058
-566,846	-181,507	-0,061	-0,001
-565,831	-200,000	0,025	-0,196
-564,817	9,715	0,043	0,023
-563,802	-200,000	0,004	-0,047
-562,788	180,825	-0,071	-0,075
-561,773	800,000	-0,018	0,049
-560,758	-36,108	0,031	-0,012
-559,744	800,000	0,039	0,082
-558,729	-82,149	0,029	-0,007
-557,715	-147,988	0,076	-0,005
-556,700	-78,400	-0,109	-0,027
-555,685	391,859	0,052	-0,079
-554,671	-46,193	0,017	-0,006
-553,656	183,701	0,088	0,094
-552,642	-60,210	0,119	0,036
-551,627	354,301	-0,036	0,052
-550,612	-200,000	-0,004	-0,174
-549,598	72,724	-0,154	-0,116
-548,583	-20,095	-0,060	0,027
-547,569	-11,650	-0,030	-0,014
-546,554	229,858	0,059	-0,070
-545,539	800,000	0,033	-0,076
-544,525	47,367	-0,076	-0,051
-543,510	800,000	0,019	-0,045
-542,496	800,000	-0,036	-0,087
-541,481	800,000	0,064	-0,129
-540,466	30,310	0,072	-0,044
-539,452	-200,000	-0,022	0,140
-538,437	-2,932	-0,079	-0,040
-537,423	800,000	-0,034	-0,084
-536,408	21,318	0,075	0,044
-535,393	800,000	-0,029	-0,090
-534,379	-36,470	-0,081	-0,031
-533,364	800,000	-0,052	-0,122
-532,350	19,989	0,050	0,029
-531,335	-189,294	0,054	0,000
-530,321	-115,667	-0,052	-0,007
-529,306	66,862	0,083	0,061
-528,291	800,000	-0,028	-0,076
-527,277	323,803	-0,089	-0,123
-526,262	-200,000	-0,018	-0,066
-525,248	800,000	-0,023	-0,059
-524,233	122,276	-0,075	0,068
-523,218	-200,000	-0,004	0,080
-522,204	-24,719	-0,037	-0,016
-521,189	800,000	-0,044	-0,096
-520,175	703,063	0,025	0,049
-519,160	-103,422	-0,176	0,030
-518,145	-154,679	0,084	-0,004
-517,131	800,000	-0,046	-0,114
-516,116	-200,000	-0,010	0,058
-515,102	-21,081	0,068	-0,030
-514,087	800,000	-0,041	0,084
-513,072	21,148	-0,035	-0,020
-512,058	800,000	-0,092	0,206
-511,043	162,382	0,092	-0,093
-510,029	-160,257	-0,084	-0,003
-509,014	-63,873	-0,137	0,040
-507,999	800,000	0,035	-0,093
-506,985	-172,539	0,005	0,000
-505,970	276,005	0,050	0,064
-504,956	-83,721	-0,080	-0,018
-503,941	158,409	0,041	0,041
-502,926	-101,322	-0,154	-0,027
-501,912	96,443	0,095	0,078
-500,897	-105,408	0,053	0,009
-499,883	-200,000	0,037	-0,119
-498,868	-132,409	-0,098	0,009
-497,853	602,536	-0,033	-0,059
-496,839	-58,282	-0,081	-0,025
-495,824	111,554	0,092	0,080
-494,810	-200,000	0,003	0,038
-493,795	-128,142	-0,030	0,003
-492,781	-200,000	0,005	0,044
-491,766	151,362	-0,004	-0,004
-490,751	58,977	0,115	-0,081
-489,737	-200,000	-0,018	-0,124
-488,722	-1,327	-0,062	0,031
-487,708	44,982	0,073	-0,049
-486,693	-98,735	-0,121	-0,022
-485,678	-172,282	-0,130	0,003
-484,664	319,637	-0,043	0,059
-483,649	-200,000	0,002	-0,053
-482,635	436,080	-0,068	0,107
-481,620	-200,000	0,010	0,045
-480,605	-50,400	0,179	0,060
-479,591	-50,754	0,039	0,013
-478,576	-200,000	-0,017	0,100
-477,562	-200,000	0,042	-0,141
-476,547	-200,000	-0,038	-0,128
-475,532	-177,110	0,106	0,002
-474,518	158,958	0,039	-0,039
-473,503	60,609	0,058	0,041
-472,489	-120,743	0,077	0,009
-471,474	18,302	-0,114	0,066
-470,459	-36,511	-0,241	-0,093
-469,445	-38,246	0,079	-0,030
-468,430	87,011	0,005	-0,004
-467,416	-200,000	-0,002	0,071
-466,401	-85,221	0,109	-0,024
-465,386	800,000	-0,044	-0,106
-464,372	-200,000	0,009	-0,040
-463,357	-60,151	-0,117	-0,036
-462,343	18,854	-0,083	0,048
-461,328	124,472	-0,035	-0,032
-460,313	-9,357	-0,128	-0,061
-459,299	120,249	0,156	0,139
-458,284	-23,332	0,096	0,041
-457,270	38,551	-0,025	-0,016
-456,255	86,293	-0,131	0,104
-455,241	38,329	-0,020	0,013
-454,226	-69,140	-0,113	-0,031
-453,211	637,595	-0,031	-0,056
-452,197	-200,000	-0,003	-0,043
-451,182	16,188	-0,025	-0,014
-450,168	37,982	0,185	-0,118
-449,153	-200,000	0,018	-0,067
-448,138	7,546	-0,087	0,047
-447,124	2,088	0,080	-0,041
-446,109	-200,000	-0,001	-0,043
-445,095	-63,751	0,098	-0,029
-444,080	-200,000	0,023	0,129
-443,065	324,015	-0,073	-0,100
-442,051	82,501	0,045	-0,035
-441,036	441,736	-0,012	0,019
-440,022	800,000	0,070	-0,143
-439,007	522,441	-0,087	0,148
-437,992	51,212	0,141	0,096
-436,978	-129,666	0,286	0,028
-435,963	-200,000	0,001	-0,089
-434,949	800,000	-0,036	-0,072
-433,934	-18,426	-0,053	-0,024
-432,919	223,612	-0,085	-0,098
-431,905	734,432	0,010	0,020
-430,890	800,000	-0,037	0,085
-429,876	800,000	0,032	0,064
-428,861	2,202	0,080	0,041
-427,846	800,000	-0,043	0,126
-426,832	800,000	-0,042	0,091
-425,817	800,000	0,033	0,073
-424,803	-10,694	-0,157	-0,075
-423,788	-151,772	0,062	-0,003
-422,773	800,000	0,024	0,048
-421,759	-200,000	0,038	-0,172
-420,744	115,667	-0,061	-0,053
-419,730	800,000	0,015	-0,043
-418,715	800,000	-0,054	-0,130
-417,701	800,000	0,051	0,160
-416,686	800,000	0,024	-0,061
-415,671	-161,479	0,148	-0,005
-414,657	99,774	0,106	-0,088
-413,642	-200,000	0,012	0,090
-412,628	449,087	0,046	0,073
-411,613	17,042	-0,017	0,010
-410,598	-50,177	-0,098	0,033
-409,584	591,827	-0,051	0,091
-408,569	-200,000	0,020	0,157
-407,555	492,646	0,036	0,060
-406,540	800,000	0,057	0,173
-405,525	-200,000	0,005	-0,039
-404,511	-66,096	-0,182	0,052
-403,496	-33,374	0,165	0,065
-402,482	78,772	-0,096	-0,074
-401,467	370,128	0,124	0,182
-400,452	-148,047	0,056	0,003
-399,438	193,696	-0,019	0,020
-398,423	98,473	0,080	0,066
-397,409	228,822	-0,014	-0,017
-396,394	-200,000	-0,017	-0,077
-395,379	800,000	-0,025	0,064
-394,365	800,000	-0,030	-0,063
-393,350	-200,000	0,004	0,059
-392,336	123,660	0,127	0,115
-391,321	800,000	-0,010	0,030
-390,306	-200,000	-0,018	-0,144
-389,292	-77,906	0,018	0,004
-388,277	496,469	-0,019	-0,031
-387,263	129,254	0,022	0,020
-386,248	21,787	0,147	-0,086
-385,233	206,694	-0,072	0,081
-384,219	293,629	-0,063	0,083
-383,204	-38,952	0,018	0,007
-382,190	800,000	-0,025	0,057
-381,175	-66,303	0,113	0,032
-380,160	354,515	0,036	-0,052
-379,146	45,034	-0,074	0,049
-378,131	144,190	-0,073	0,070
-377,117	126,076	-0,040	-0,036
-376,102	-200,000	0,024	-0,085
-375,088	-200,000	0,008	-0,059
-374,073	347,008	0,005	-0,007
-373,058	-200,000	-0,015	0,143
-372,044	-71,782	0,162	0,043
-371,029	40,458	0,134	-0,086
-370,015	-31,472	0,164	0,066
-369,000	411,139	-0,073	-0,111
-367,985	-112,863	-0,122	-0,017
-366,971	-84,639	-0,191	0,043
-365,956	3,994	0,108	-0,056
-364,942	-200,000	0,018	0,099
-363,927	302,768	0,029	0,038
-362,912	-200,000	-0,023	0,112
-361,898	102,729	0,041	-0,034
-360,883	-102,392	-0,055	0,009
-359,869	-90,154	-0,128	-0,026
-358,854	32,907	-0,116	0,072
-357,839	-200,000	0,009	0,125
-356,825	-200,000	0,000	0,241
-355,810	-200,000	-0,001	0,193
-354,796	-84,576	0,027	0,006
-353,781	-143,692	-0,043	-0,003
-352,766	-102,241	0,123	-0,021
-351,752	-200,000	-0,013	-0,047
-350,737	15,675	0,122	0,068
-349,723	-95,960	0,013	0,002
-348,708	-200,000	-0,007	0,187
-347,693	-200,000	-0,027	-0,179
-346,679	-200,000	0,000	-0,119
-345,664	-79,553	-0,056	0,014
-344,650	-37,930	-0,078	-0,029
-343,635	-110,893	0,065	0,010
-342,620	552,332	-0,066	0,113
-341,606	-200,000	-0,020	0,082
-340,591	-69,728	0,188	-0,051
-339,577	135,025	0,129	-0,120
-338,562	-200,000	-0,016	0,088
-337,548	18,733	-0,043	0,024
-336,533	-200,000	-0,004	0,167
-335,518	800,000	-0,017	0,045
-334,504	-200,000	-0,014	0,139
-333,489	-71,441	-0,084	0,022
-332,475	-135,129	-0,111	0,009
-331,460	56,988	-0,106	0,074
-330,445	-200,000	-0,003	-0,017
-329,431	800,000	0,050	-0,130
-328,416	39,085	0,114	-0,073
-327,402	190,096	0,117	-0,126
-326,387	104,476	0,047	0,040
-325,372	-99,118	-0,029	-0,005
-324,358	59,393	0,095	-0,067
-323,343	-200,000	-0,007	-0,026
-322,329	-200,000	-0,003	-0,079
-321,314	-200,000	0,003	0,064
-320,299	-200,000	0,030	-0,099
-319,285	156,705	0,031	-0,030
-318,270	40,775	-0,138	0,089
-317,256	80,428	-0,113	-0,087
-316,241	-200,000	-0,016	-0,069
-315,226	-200,000	0,002	0,156
-314,212	800,000	-0,039	-0,097
-313,197	-50,084	-0,049	0,016
-312,183	256,333	0,016	0,020
-311,168	206,122	-0,037	-0,041
-310,153	-146,552	0,067	-0,004
-309,139	-53,001	0,147	-0,048
-308,124	-200,000	-0,004	-0,082
-307,110	657,069	0,075	-0,138
-306,095	-200,000	0,026	0,128
-305,080	-110,137	0,027	-0,004
-304,066	59,623	-0,072	-0,051
-303,051	-200,000	0,018	-0,095
-302,037	-31,116	0,162	-0,065
-301,022	73,275	-0,042	0,031
-300,008	194,520	0,046	-0,050
-298,993	-200,000	-0,007	0,041
-297,978	-200,000	0,007	-0,106
-296,964	-112,328	-0,108	0,015
-295,949	437,469	-0,058	-0,090
-294,935	22,739	0,070	-0,041
-293,920	-89,188	0,104	-0,022
-292,905	416,224	0,102	0,156
-291,891	450,809	-0,048	-0,077
-290,876	690,654	0,053	0,099
-289,862	128,769	-0,020	-0,018
-288,847	172,012	-0,077	0,080
-287,832	800,000	-0,013	0,037
-286,818	352,429	-0,112	0,159
-285,803	-141,559	0,131	0,009
-284,789	21,847	0,084	0,049
-283,774	-52,702	-0,112	0,037
-282,759	-200,000	-0,004	-0,145
-281,745	97,468	-0,057	0,046
-280,730	258,241	-0,065	0,080
-279,716	530,721	0,014	0,024
-278,701	379,913	0,067	0,099
-277,686	154,257	0,060	0,058
-276,672	800,000	0,050	0,117
-275,657	268,197	0,045	-0,056
-274,643	-200,000	0,006	-0,057
-273,628	-152,443	0,072	-0,004
-272,613	300,061	-0,022	-0,029
-271,599	47,642	0,039	0,026
-270,584	800,000	-0,035	0,090
-269,570	302,057	-0,031	0,041
-268,555	549,298	-0,040	0,069
-267,540	-128,604	0,020	-0,002
-266,526	-34,562	-0,052	0,020
-265,511	-200,000	0,013	-0,085
-264,497	-200,000	0,007	0,090
-263,482	-200,000	-0,007	0,079
-262,467	-70,034	0,098	-0,027
-261,453	245,964	0,106	0,128
-260,438	-200,000	0,017	0,124
-259,424	-9,501	-0,084	-0,040
-258,409	-0,153	0,127	-0,064
-257,395	-71,064	0,049	-0,013
-256,380	139,227	0,078	0,073
-255,365	294,788	-0,016	-0,021
-254,351	-9,987	0,133	-0,063
-253,336	194,534	0,004	0,004
-252,322	148,265	-0,075	-0,073
-251,307	-197,189	0,119	-0,001
-250,292	539,452	0,024	-0,041
-249,278	177,537	0,028	0,030
-248,263	163,510	0,014	0,014
-247,249	303,396	-0,105	-0,139
-246,234	-200,000	-0,007	0,042
-245,219	740,923	-0,032	-0,062
-244,205	-200,000	-0,010	-0,121
-243,190	-200,000	0,002	0,081
-242,176	251,141	0,114	0,139
-241,161	-200,000	0,015	0,141
-240,146	800,000	-0,029	0,069
-239,132	-32,860	-0,154	0,061
-238,117	403,614	-0,052	-0,079
-237,103	-46,727	0,074	0,026
-236,088	248,327	0,016	-0,019
-235,073	800,000	0,043	0,087
-234,059	800,000	-0,063	-0,150
-233,044	-200,000	-0,001	0,098
-232,030	144,943	0,061	0,058
-231,015	-200,000	-0,002	-0,156
-230,000	-200,000	-0,003	0,117
-228,986	-38,443	0,120	0,045
-227,971	-33,631	0,128	-0,050
-226,957	-200,000	0,017	0,073
-225,942	564,005	0,019	0,033
-224,927	-200,000	-0,013	-0,130
-223,913	-2,522	-0,163	-0,081
-222,898	-85,773	0,045	-0,010
-221,884	800,000	0,054	-0,123
-220,869	61,825	0,091	0,065
-219,855	-200,000	0,009	-0,036
-218,840	77,592	0,104	-0,079
-217,825	-69,136	-0,059	0,016
-216,811	-200,000	0,020	0,071
-215,796	-200,000	0,021	0,090
-214,782	800,000	0,051	-0,126
-213,767	-200,000	-0,016	0,102
-212,752	460,817	0,112	0,179
-211,738	384,779	-0,057	-0,083
-210,723	-200,000	-0,020	0,078
-209,709	-99,508	-0,043	0,008
-208,694	66,655	0,097	-0,070
-207,679	234,977	-0,075	0,089
-206,665	-166,849	-0,105	-0,003
-205,650	106,663	0,086	0,073
-204,636	71,544	0,058	0,043
-203,621	-64,807	-0,123	0,035
-202,606	-200,000	-0,025	-0,079
-201,592	65,153	0,050	-0,036
-200,577	372,611	-0,065	-0,095
-199,563	711,900	0,010	-0,019
-198,548	135,602	-0,061	-0,057
-197,533	78,998	0,052	-0,040
-196,519	-74,349	-0,057	-0,015
-195,504	-132,331	-0,116	0,011
-194,490	800,000	-0,103	-0,211
-193,475	479,808	-0,040	-0,064
-192,460	496,057	-0,055	0,090
-191,446	800,000	0,052	-0,108
-190,431	329,627	0,035	-0,048
-189,417	453,353	0,023	-0,037
-188,402	-29,788	-0,091	0,037
-187,387	-58,549	-0,103	0,032
-186,373	800,000	-0,046	0,107
-185,358	222,340	0,088	-0,101
-184,344	-100,429	-0,059	-0,010
-183,329	-162,470	-0,049	-0,002
-182,315	800,000	-0,034	0,067
-181,300	-95,814	0,046	-0,009
-180,285	-151,327	0,064	-0,003
-179,271	7,378	-0,090	-0,048
-178,256	10,305	0,006	-0,003
-177,242	-200,000	-0,031	-0,155
-176,227	115,448	0,071	-0,062
-175,212	21,967	0,067	0,039
-174,198	367,738	-0,078	-0,113
-173,183	-48,052	-0,072	-0,025
-172,169	141,035	-0,050	0,047
-171,154	44,663	-0,042	0,027
-170,139	-26,001	0,120	-0,050
-169,125	163,297	0,113	0,114
-168,110	-200,000	0,010	0,080
-167,096	156,768	0,133	0,131
-166,081	800,000	-0,032	0,069
-165,066	-200,000	-0,001	-0,004
-164,052	-70,817	0,079	0,021
-163,037	800,000	-0,017	-0,039
-162,023	316,887	0,092	0,124
-161,008	-200,000	0,007	0,103
-159,993	194,611	-0,109	-0,118
-158,979	-34,020	-0,087	0,034
-157,964	-200,000	-0,010	-0,089
-156,950	-102,946	-0,118	-0,020
-155,935	-200,000	0,002	0,078
-154,920	108,879	0,102	0,087
-153,906	-200,000	-0,052	0,191
-152,891	-200,000	0,026	0,105
-151,877	438,948	-0,055	0,086
-150,862	800,000	0,023	-0,057
-149,847	41,915	0,054	-0,035
-148,833	-12,919	-0,113	0,052
-147,818	-43,579	0,092	-0,033
-146,804	-12,834	0,178	-0,082
-145,789	-117,216	-0,052	0,007
-144,775	203,817	-0,122	0,134
-143,760	800,000	-0,029	0,085
-142,745	33,201	-0,095	-0,058
-141,731	253,332	0,131	0,159
-140,716	-200,000	-0,003	0,063
-139,702	59,699	0,099	0,070
-138,687	-103,840	0,097	0,016
-137,672	-107,958	-0,148	-0,023
-136,658	-200,000	0,005	-0,099
-135,643	-89,341	0,065	-0,014
-134,629	221,182	-0,030	0,034
-133,614	-79,711	0,114	0,027
-132,599	569,165	-0,054	0,093
-131,585	592,985	0,082	0,145
-130,570	237,822	-0,060	-0,070
-129,556	-200,000	0,011	0,053
-128,541	800,000	-0,064	-0,159
-127,526	-75,225	-0,049	0,012
-126,512	-200,000	0,021	0,087
-125,497	800,000	-0,043	0,122
-124,483	-200,000	0,007	-0,067
-123,468	304,610	0,014	0,019
-122,453	-137,674	0,149	-0,012
-121,439	800,000	-0,040	-0,106
-120,424	518,968	-0,064	-0,107
