DTS Sentinel unit serial number:	SN410029Multiplexer serial number:	ORYXHardware model number:	OX2-SRSoftware version number:	ORYX F/W v4,00 Oryx Data Collector v3.7.2.0data status	okinstallation	BH3 CH2differential loss correction	single-endedforward channel	channel 2reverse channel	N/Adate	2023/12/06time	01:42:28forward acquisition time	300,00reverse acquisition time	0,00gamma	499,1914k internal	0,3196k external	0,3196temperature offset calibration	1,0000default loss term (dB/km)	0,3820temperature slope calibration	1,0000multiplexer offset coefficient	1,0000multiplexer slope coefficient	1,0000fibre end	0,00T internal ref (°C)	9,16T ext. ref 1 (°C)	-5,79T ext. ref 2 (°C)	-5,86length (m)	temperature (°C)	Stokes	anti-Stokes-744,400	-200,000	-0,039	-0,127
-743,385	-57,872	-0,239	0,076
-742,371	-200,000	0,032	-0,129
-741,356	97,001	-0,175	0,146
-740,342	45,298	-0,070	-0,047
-739,327	-11,720	-0,184	0,088
-738,312	-100,680	-0,024	-0,004
-737,298	-190,922	-0,288	-0,002
-736,283	-112,473	0,151	-0,022
-735,269	41,446	-0,286	0,188
-734,254	671,814	0,018	0,033
-733,239	-102,611	-0,374	-0,064
-732,225	80,851	0,110	-0,087
-731,210	-200,000	-0,033	0,156
-730,196	63,763	0,017	-0,012
-729,181	800,000	0,021	0,061
-728,167	-200,000	-0,027	-0,118
-727,152	543,307	-0,043	0,075
-726,137	-35,894	-0,067	0,026
-725,123	24,762	-0,116	-0,070
-724,108	-200,000	-0,009	-0,106
-723,094	800,000	-0,066	-0,170
-722,079	-200,000	0,023	-0,097
-721,064	800,000	0,028	0,085
-720,050	-93,271	-0,091	-0,018
-719,035	146,697	0,025	0,024
-718,021	45,506	-0,095	-0,064
-717,006	-200,000	-0,043	-0,172
-715,991	800,000	-0,049	0,121
-714,977	-200,000	-0,012	0,045
-713,962	89,027	0,065	-0,053
-712,948	107,645	0,134	0,116
-711,933	800,000	-0,027	-0,075
-710,918	36,980	-0,085	-0,054
-709,904	-200,000	-0,051	-0,186
-708,889	-24,534	-0,023	-0,010
-707,875	207,889	-0,025	-0,028
-706,860	712,185	-0,097	0,188
-705,845	-90,909	0,063	-0,013
-704,831	-73,541	-0,008	0,002
-703,816	6,623	0,084	0,045
-702,802	-200,000	-0,011	0,131
-701,787	420,869	0,054	-0,085
-700,772	-200,000	-0,010	0,079
-699,758	-134,850	0,073	-0,006
-698,743	-200,000	0,008	0,046
-697,729	488,722	0,069	0,116
-696,714	-200,000	0,018	0,087
-695,699	-200,000	0,028	-0,141
-694,685	-200,000	-0,026	-0,100
-693,670	800,000	0,008	0,018
-692,656	-122,210	-0,245	-0,029
-691,641	800,000	-0,044	0,099
-690,627	281,709	0,028	0,037
-689,612	-37,063	-0,123	0,048
-688,597	-141,608	0,021	0,002
-687,583	-116,667	-0,079	0,010
-686,568	90,246	-0,074	-0,060
-685,554	-200,000	0,009	0,068
-684,539	304,640	-0,051	-0,069
-683,524	800,000	-0,040	-0,122
-682,510	96,865	-0,056	0,046
-681,495	7,831	0,100	-0,054
-680,481	-114,455	-0,288	0,040
-679,466	651,268	-0,053	-0,099
-678,451	99,391	-0,109	0,092
-677,437	513,771	-0,037	0,062
-676,422	50,424	0,157	0,108
-675,408	-200,000	0,039	-0,149
-674,393	779,684	-0,025	-0,049
-673,378	481,901	-0,053	0,088
-672,364	-200,000	0,005	0,086
-671,349	-77,847	0,043	-0,011
-670,335	60,801	-0,129	0,093
-669,320	-200,000	-0,008	0,135
-668,305	800,000	-0,008	0,021
-667,291	-72,148	0,119	0,032
-666,276	14,154	-0,081	-0,045
-665,262	452,164	-0,049	-0,079
-664,247	-200,000	-0,029	-0,176
-663,232	-188,182	0,046	-0,000
-662,218	800,000	-0,030	0,086
-661,203	-50,098	0,064	-0,022
-660,189	165,774	-0,031	-0,032
-659,174	441,101	0,032	-0,051
-658,159	-34,811	-0,087	0,034
-657,145	-200,000	0,003	-0,041
-656,130	-35,985	-0,118	0,046
-655,116	-200,000	0,008	-0,116
-654,101	-200,000	0,022	0,096
-653,086	34,098	0,032	0,020
-652,072	371,572	-0,062	0,092
-651,057	-200,000	0,011	-0,116
-650,043	386,500	-0,081	-0,122
-649,028	-200,000	-0,002	-0,022
-648,014	-200,000	0,007	-0,048
-646,999	515,305	-0,096	0,164
-645,984	-200,000	0,030	-0,113
-644,970	-32,906	-0,067	-0,027
-643,955	-4,672	0,036	-0,018
-642,941	800,000	0,036	-0,110
-641,926	-82,637	-0,054	0,013
-640,911	800,000	0,013	-0,025
-639,897	-200,000	-0,019	0,123
-638,882	800,000	0,025	-0,051
-637,868	-85,859	-0,165	0,037
-636,853	-30,788	-0,073	0,030
-635,838	3,603	-0,118	0,062
-634,824	58,917	-0,069	0,049
-633,809	69,999	0,098	0,073
-632,795	-77,443	-0,045	0,011
-631,780	800,000	0,012	-0,031
-630,765	800,000	-0,024	0,059
-629,751	318,248	-0,045	-0,062
-628,736	800,000	0,027	-0,080
-627,722	-10,098	0,083	-0,040
-626,707	9,256	0,140	0,077
-625,692	107,348	-0,070	-0,061
-624,678	94,899	-0,067	-0,055
-623,663	89,448	0,017	-0,013
-622,649	-49,655	-0,107	-0,037
-621,634	140,334	-0,018	-0,017
-620,619	800,000	-0,021	-0,050
-619,605	-107,514	0,079	0,012
-618,590	370,315	-0,041	0,061
-617,576	307,367	-0,033	0,045
-616,561	-200,000	-0,006	-0,035
-615,546	-200,000	-0,010	-0,090
-614,532	373,609	-0,069	-0,102
-613,517	-200,000	-0,014	-0,160
-612,503	-200,000	0,021	0,161
-611,488	28,918	0,058	0,036
-610,474	62,266	0,067	0,048
-609,459	101,095	0,071	0,060
-608,444	246,704	-0,064	-0,078
-607,430	-89,054	-0,184	0,039
-606,415	800,000	-0,064	-0,172
-605,401	21,037	0,134	0,078
-604,386	76,324	0,130	-0,099
-603,371	-2,948	0,068	0,034
-602,357	184,365	-0,067	0,072
-601,342	-85,017	-0,212	0,048
-600,328	683,511	-0,050	-0,094
-599,313	-200,000	-0,004	-0,032
-598,298	-15,192	0,122	-0,056
-597,284	-59,407	0,097	0,030
-596,269	137,469	0,156	0,148
-595,255	-30,915	-0,196	0,080
-594,240	16,182	-0,149	-0,085
-593,225	20,953	-0,002	-0,001
-592,211	-200,000	0,023	-0,194
-591,196	-200,000	0,012	-0,063
-590,182	800,000	-0,046	-0,098
-589,167	-1,233	0,140	-0,071
-588,152	341,613	-0,028	0,039
-587,138	800,000	0,022	-0,065
-586,123	-18,056	-0,095	-0,043
-585,109	-200,000	0,003	0,058
-584,094	47,016	-0,123	-0,082
-583,079	-200,000	-0,017	0,117
-582,065	-130,122	0,105	-0,010
-581,050	-40,827	0,008	-0,003
-580,036	800,000	-0,021	0,065
-579,021	319,534	0,050	-0,069
-578,006	29,930	-0,078	-0,048
-576,992	-200,000	0,023	-0,101
-575,977	-20,071	0,044	0,019
-574,963	-200,000	-0,013	0,050
-573,948	-200,000	0,024	0,126
-572,934	179,445	-0,064	-0,068
-571,919	800,000	-0,043	-0,136
-570,904	800,000	0,044	-0,110
-569,890	7,719	0,021	-0,011
-568,875	322,222	-0,034	-0,047
-567,861	60,812	0,099	0,071
-566,846	9,916	0,044	-0,024
-565,831	-200,000	0,027	-0,128
-564,817	-88,662	-0,116	-0,025
-563,802	800,000	-0,047	-0,126
-562,788	800,000	-0,041	-0,112
-561,773	-153,975	0,078	0,004
-560,758	321,782	0,054	-0,074
-559,744	-86,054	0,101	0,022
-558,729	-200,000	-0,001	0,130
-557,715	534,646	-0,044	-0,075
-556,700	177,523	0,042	0,044
-555,685	145,408	-0,127	0,123
-554,671	-72,701	-0,151	-0,040
-553,656	108,743	0,162	0,140
-552,642	11,538	-0,147	0,081
-551,627	-41,513	0,107	0,039
-550,612	113,580	-0,049	-0,043
-549,598	501,460	-0,016	-0,027
-548,583	-200,000	0,011	-0,107
-547,569	-200,000	0,015	-0,058
-546,554	-141,449	0,148	-0,011
-545,539	-200,000	-0,026	0,124
-544,525	-5,409	0,126	0,062
-543,510	-87,702	-0,094	0,020
-542,496	-200,000	-0,008	-0,051
-541,481	-122,714	0,125	0,014
-540,466	-32,411	0,033	0,013
-539,452	-200,000	-0,023	0,097
-538,437	-200,000	0,017	-0,055
-537,423	120,967	0,095	0,085
-536,408	-44,833	-0,084	-0,030
-535,393	-32,745	-0,194	-0,078
-534,379	-35,819	-0,021	0,008
-533,364	16,530	0,147	0,084
-532,350	-200,000	0,013	-0,086
-531,335	462,858	0,091	0,148
-530,321	-200,000	0,004	-0,050
-529,306	-39,674	-0,071	-0,027
-528,291	-98,285	-0,187	-0,034
-527,277	233,838	0,024	0,029
-526,262	-77,465	0,049	0,012
-525,248	-46,466	0,096	0,034
-524,233	-200,000	0,010	0,086
-523,218	175,889	0,050	-0,053
-522,204	800,000	0,039	0,092
-521,189	-200,000	0,001	0,125
-520,175	100,184	-0,109	0,091
-519,160	-200,000	0,011	0,122
-518,145	21,810	0,083	-0,049
-517,131	-106,187	0,128	0,021
-516,116	-200,000	0,001	0,071
-515,102	-200,000	-0,019	-0,083
-514,087	-47,325	-0,011	0,004
-513,072	-200,000	-0,042	-0,154
-512,058	52,974	0,077	-0,053
-511,043	402,877	0,073	0,111
-510,029	-200,000	-0,011	-0,111
-509,014	-200,000	0,008	-0,075
-507,999	-3,917	-0,124	0,062
-506,985	390,839	-0,014	0,021
-505,970	-200,000	0,010	-0,108
-504,956	248,861	-0,104	-0,127
-503,941	17,208	-0,020	0,012
-502,926	40,388	0,070	0,045
-501,912	-181,966	-0,071	-0,001
-500,897	-87,616	0,056	-0,012
-499,883	196,968	-0,080	-0,088
-498,868	-200,000	0,021	-0,066
-497,853	-200,000	-0,025	-0,115
-496,839	196,101	-0,040	-0,044
-495,824	-72,643	0,087	0,023
-494,810	-62,438	0,054	-0,016
-493,795	-117,676	-0,099	0,013
-492,781	-81,723	-0,020	0,005
-491,766	149,832	0,192	-0,188
-490,751	-200,000	-0,021	-0,119
-489,737	800,000	0,028	-0,082
-488,722	-200,000	-0,016	-0,083
-487,708	229,726	-0,037	-0,043
-486,693	58,830	0,075	0,053
-485,678	-200,000	-0,006	-0,164
-484,664	250,200	-0,077	-0,095
-483,649	-200,000	-0,001	0,084
-482,635	-19,140	-0,044	0,019
-481,620	-200,000	0,001	0,023
-480,605	-89,070	0,119	-0,025
-479,591	-122,884	-0,049	0,006
-478,576	208,444	-0,089	-0,100
-477,562	307,566	0,100	0,135
-476,547	42,517	-0,061	-0,040
-475,532	-200,000	-0,028	0,303
-474,518	-200,000	0,006	0,097
-473,503	-161,753	0,080	-0,003
-472,489	-200,000	-0,016	0,064
-471,474	800,000	-0,038	-0,077
-470,459	800,000	-0,053	-0,113
-469,445	10,304	0,068	-0,037
-468,430	-14,855	-0,098	0,045
-467,416	-52,116	0,153	0,051
-466,401	183,129	0,052	-0,056
-465,386	-115,777	0,019	0,003
-464,372	112,572	0,065	0,057
-463,357	-21,366	-0,120	-0,053
-462,343	800,000	-0,023	-0,072
-461,328	691,943	-0,009	0,017
-460,313	800,000	-0,025	0,059
-459,299	800,000	0,028	0,059
-458,284	-200,000	0,014	-0,094
-457,270	107,666	0,092	-0,079
-456,255	-166,849	-0,115	-0,003
-455,241	-36,253	0,058	0,023
-454,226	-200,000	0,020	0,091
-453,211	132,238	-0,071	0,066
-452,197	-173,253	0,024	-0,001
-451,182	-25,014	0,038	-0,016
-450,168	181,941	0,154	0,164
-449,153	694,542	0,088	-0,168
-448,138	237,999	0,018	-0,022
-447,124	248,627	0,072	-0,088
-446,109	-26,083	-0,165	-0,070
-445,095	171,936	0,043	0,044
-444,080	-103,090	0,066	-0,011
-443,065	800,000	-0,017	0,036
-442,051	77,290	-0,090	-0,069
-441,036	-200,000	-0,027	-0,098
-440,022	-200,000	-0,013	-0,136
-439,007	-96,845	-0,032	-0,006
-437,992	195,455	-0,110	0,121
-436,978	234,255	0,047	0,056
-435,963	-200,000	-0,000	0,051
-434,949	308,307	0,045	-0,061
-433,934	-0,036	0,078	-0,040
-432,919	68,300	0,039	-0,028
-431,905	-200,000	-0,016	0,078
-430,890	-136,739	0,061	0,005
-429,876	340,933	0,072	-0,102
-428,861	-200,000	0,023	-0,088
-427,846	107,323	0,067	-0,057
-426,832	81,140	-0,126	-0,098
-425,817	-200,000	0,005	-0,086
-424,803	312,969	-0,043	-0,058
-423,788	54,520	-0,028	-0,019
-422,773	-200,000	-0,020	-0,115
-421,759	110,636	0,096	-0,083
-420,744	-6,847	0,172	0,084
-419,730	800,000	-0,011	-0,024
-418,715	-86,178	-0,076	0,017
-417,701	145,180	-0,078	0,075
-416,686	-200,000	0,016	-0,062
-415,671	-118,624	-0,060	0,008
-414,657	18,104	0,052	0,030
-413,642	174,225	-0,032	-0,033
-412,628	800,000	-0,049	-0,107
-411,613	-28,962	-0,060	-0,024
-410,598	-45,174	0,025	0,009
-409,584	202,576	0,014	0,015
-408,569	175,174	0,125	0,130
-407,555	-45,617	-0,117	0,041
-406,540	-103,429	-0,011	0,002
-405,525	-142,222	-0,100	-0,007
-404,511	-123,036	-0,077	0,009
-403,496	-133,145	0,092	-0,008
-402,482	-36,356	0,228	-0,088
-401,467	800,000	0,025	-0,054
-400,452	261,604	0,102	0,127
-399,438	-200,000	0,035	0,175
-398,423	477,175	0,071	-0,115
-397,409	-11,014	-0,106	-0,050
-396,394	800,000	-0,030	0,072
-395,379	800,000	0,036	-0,098
-394,365	800,000	0,025	-0,062
-393,350	-200,000	0,015	0,089
-392,336	-40,956	-0,024	0,009
-391,321	398,529	0,038	0,057
-390,306	-22,820	0,066	-0,029
-389,292	-124,943	0,102	0,011
-388,277	20,897	-0,071	-0,041
-387,263	-136,350	0,142	-0,012
-386,248	469,111	-0,072	0,117
-385,233	-114,240	0,035	-0,005
-384,219	192,197	0,062	-0,067
-383,204	-83,418	-0,155	0,035
-382,190	-62,669	-0,124	-0,037
-381,175	29,629	-0,025	-0,016
-380,160	-51,666	0,042	0,014
-379,146	-200,000	-0,015	-0,106
-378,131	-168,129	0,181	-0,005
-377,117	-38,672	-0,107	-0,040
-376,102	467,240	0,008	0,013
-375,088	702,685	-0,027	0,051
-374,073	-30,288	0,142	-0,058
-373,058	-39,887	-0,132	0,049
-372,044	-200,000	-0,015	-0,060
-371,029	-98,596	0,051	0,009
-370,015	433,652	0,020	-0,032
-369,000	800,000	0,036	0,086
-367,985	-200,000	-0,022	-0,078
-366,971	-49,210	-0,161	-0,055
-365,956	-11,141	-0,040	-0,019
-364,942	8,023	0,100	0,054
-363,927	65,351	0,100	-0,073
-362,912	169,000	-0,124	0,127
-361,898	-108,249	-0,040	0,006
-360,883	295,347	0,084	-0,110
-359,869	-200,000	0,009	0,081
-358,854	577,932	-0,038	0,068
-357,839	-5,045	0,095	0,047
-356,825	-200,000	-0,030	0,111
-355,810	-48,323	-0,051	0,017
-354,796	-80,841	-0,120	0,028
-353,781	-200,000	0,004	-0,143
-352,766	281,627	-0,067	-0,087
-351,752	-13,087	-0,028	0,013
-350,737	-103,114	0,097	0,016
-349,723	800,000	0,042	-0,133
-348,708	174,501	0,009	0,009
-347,693	-24,668	0,060	0,026
-346,679	256,783	-0,076	0,094
-345,664	-200,000	0,044	-0,321
-344,650	90,977	0,118	-0,095
-343,635	-200,000	-0,021	0,117
-342,620	35,097	0,092	0,058
-341,606	-149,893	-0,074	-0,004
-340,591	-123,818	0,134	-0,015
-339,577	-30,608	-0,075	0,030
-338,562	406,326	0,010	-0,015
-337,548	359,095	0,017	0,025
-336,533	191,539	0,025	-0,027
-335,518	-200,000	0,000	0,081
-334,504	800,000	0,041	-0,083
-333,489	153,836	-0,058	-0,057
-332,475	26,694	-0,120	-0,072
-331,460	-17,698	-0,082	0,037
-330,445	670,568	-0,029	-0,055
-329,431	-200,000	0,014	-0,065
-328,416	184,337	0,054	0,057
-327,402	23,759	0,056	-0,033
-326,387	-200,000	0,062	-0,213
-325,372	-6,650	-0,133	-0,065
-324,358	-33,176	-0,101	-0,040
-323,343	4,172	0,034	-0,018
-322,329	-90,083	0,081	-0,017
-321,314	395,228	0,106	0,160
-320,299	800,000	0,018	0,039
-319,285	800,000	0,049	-0,145
-318,270	-80,135	-0,067	0,016
-317,256	229,438	-0,060	-0,071
-316,241	-200,000	-0,021	-0,150
-315,226	-58,787	-0,139	0,043
-314,212	-119,739	0,096	-0,012
-313,197	-26,791	-0,075	0,031
-312,183	362,057	0,074	-0,106
-311,168	-56,496	-0,017	-0,005
-310,153	-200,000	-0,001	-0,094
-309,139	800,000	-0,041	-0,103
-308,124	59,544	0,138	-0,097
-307,110	-200,000	0,001	0,054
-306,095	280,135	-0,048	0,061
-305,080	475,753	-0,043	0,070
-304,066	98,711	-0,053	-0,044
-303,051	-41,650	-0,019	0,007
-302,037	169,997	-0,128	0,131
-301,022	222,954	-0,071	-0,083
-300,008	112,012	0,041	0,036
-298,993	800,000	-0,043	0,135
-297,978	-200,000	0,000	-0,001
-296,964	447,208	0,023	-0,036
-295,949	-5,630	0,023	0,011
-294,935	-175,849	-0,065	0,001
-293,920	-167,336	0,142	0,004
-292,905	112,582	-0,110	0,095
-291,891	406,049	0,033	-0,051
-290,876	-23,891	0,065	0,028
-289,862	54,673	0,069	0,048
-288,847	-200,000	-0,014	-0,166
-287,832	800,000	0,044	-0,127
-286,818	-95,255	-0,078	-0,015
-285,803	291,348	0,080	0,105
-284,789	102,794	0,080	0,067
-283,774	237,018	-0,047	0,056
-282,759	52,587	0,037	-0,025
-281,745	-131,453	-0,018	-0,002
-280,730	-104,832	-0,087	-0,014
-279,716	169,299	-0,078	-0,080
-278,701	800,000	0,070	0,154
-277,686	-200,000	-0,006	0,049
-276,672	702,776	0,053	0,100
-275,657	-200,000	-0,029	0,100
-274,643	-135,792	-0,107	-0,009
-273,628	800,000	0,012	-0,034
-272,613	800,000	0,040	0,085
-271,599	65,486	0,024	-0,017
-270,584	197,269	0,088	0,096
-269,570	-13,672	0,129	0,059
-268,555	168,374	-0,034	-0,034
-267,540	-69,594	-0,025	-0,007
-266,526	-69,980	-0,061	-0,016
-265,511	188,540	-0,063	-0,067
-264,497	800,000	0,029	0,076
-263,482	71,900	-0,026	0,020
-262,467	113,146	0,096	0,084
-261,453	533,452	-0,026	-0,045
-260,438	800,000	-0,084	-0,196
-259,424	-200,000	-0,001	-0,044
-258,409	240,241	-0,071	0,085
-257,395	205,423	0,025	-0,028
-256,380	411,103	0,101	0,154
-255,365	154,641	0,032	-0,032
-254,351	-75,417	0,119	-0,030
-253,336	-76,317	-0,157	0,039
-252,322	182,112	0,037	-0,039
-251,307	23,298	-0,158	0,092
-250,292	673,148	0,032	-0,060
-249,278	800,000	0,030	0,088
-248,263	269,814	-0,034	0,043
-247,249	433,569	0,088	-0,138
-246,234	94,421	-0,127	0,103
-245,219	-200,000	0,015	-0,055
-244,205	-200,000	0,026	0,102
-243,190	534,129	0,060	0,101
-242,176	163,901	0,095	-0,095
-241,161	-200,000	0,018	0,126
-240,146	207,574	0,056	0,062
-239,132	-78,088	-0,056	-0,014
-238,117	-200,000	-0,008	0,052
-237,103	-30,280	-0,052	0,021
-236,088	-200,000	0,001	0,112
-235,073	-200,000	0,001	0,149
-234,059	-26,676	-0,017	0,007
-233,044	128,408	0,058	0,053
-232,030	-4,962	-0,061	-0,030
-231,015	6,013	0,062	0,033
-230,000	-200,000	-0,033	-0,105
-228,986	800,000	-0,015	-0,044
-227,971	40,480	0,087	0,056
-226,957	-35,316	-0,108	0,042
-225,942	752,262	-0,088	0,170
-224,927	25,840	-0,112	0,067
-223,913	-71,366	0,014	-0,004
-222,898	566,497	-0,062	0,108
-221,884	-54,615	0,033	0,011
-220,869	-148,146	0,068	-0,004
-219,855	170,798	0,060	0,061
-218,840	-200,000	-0,012	-0,103
-217,825	-24,604	0,102	-0,043
-216,811	-200,000	0,001	0,179
-215,796	800,000	-0,028	-0,070
-214,782	800,000	0,023	0,071
-213,767	42,456	0,074	0,048
-212,752	-25,727	0,116	0,049
-211,738	800,000	0,045	0,090
-210,723	-27,434	-0,107	-0,044
-209,709	-200,000	-0,010	-0,145
-208,694	282,867	0,038	-0,049
-207,679	800,000	-0,052	0,117
-206,665	470,075	0,064	0,103
-205,650	110,119	-0,093	0,079
-204,636	-168,332	0,052	-0,001
-203,621	562,616	0,046	0,080
-202,606	27,802	-0,060	-0,036
-201,592	-97,110	-0,150	-0,028
-200,577	800,000	-0,037	-0,081
-199,563	800,000	-0,010	0,021
-198,548	-86,093	0,137	-0,030
-197,533	138,417	0,110	0,103
-196,519	52,252	0,063	0,043
-195,504	-32,667	-0,091	0,036
-194,490	-146,605	-0,130	0,008
-193,475	735,169	-0,055	0,105
-192,460	-200,000	0,019	-0,081
-191,446	472,216	-0,043	0,069
-190,431	800,000	-0,041	-0,097
-189,417	-200,000	0,022	0,091
-188,402	-200,000	0,002	-0,073
-187,387	469,780	0,019	-0,031
-186,373	79,540	-0,117	0,089
-185,358	-200,000	-0,022	-0,115
-184,344	-181,251	0,022	-0,000
-183,329	-200,000	-0,010	0,064
-182,315	-31,764	-0,127	0,050
-181,300	800,000	0,040	0,101
-180,285	-200,000	-0,000	0,021
-179,271	-97,288	-0,113	0,021
-178,256	-84,090	0,113	-0,025
-177,242	26,450	-0,063	0,037
-176,227	-200,000	0,001	0,044
-175,212	-77,958	-0,151	0,037
-174,198	161,470	-0,069	0,069
-173,183	-200,000	0,021	-0,072
-172,169	203,022	0,020	-0,022
-171,154	137,278	0,061	-0,057
-170,139	160,303	0,162	0,161
-169,125	-26,738	-0,126	0,052
-168,110	-38,555	0,025	0,009
-167,096	-15,147	0,122	0,056
-166,081	-197,133	0,028	0,000
-165,066	800,000	-0,009	-0,022
-164,052	116,997	-0,062	0,054
-163,037	-149,835	0,100	-0,005
-162,023	800,000	-0,034	0,100
-161,008	-200,000	0,000	0,157
-159,993	-200,000	0,010	0,104
-158,979	-103,609	-0,184	0,030
-157,964	-200,000	0,012	0,133
-156,950	-33,886	-0,124	0,048
-155,935	-74,847	0,116	-0,029
-154,920	53,134	0,216	0,147
-153,906	-104,137	0,046	-0,008
-152,891	2,152	-0,058	0,030
-151,877	800,000	-0,030	0,070
-150,862	701,605	-0,056	0,105
-149,847	-64,271	0,041	0,012
-148,833	-200,000	-0,008	0,000
-147,818	800,000	-0,031	0,086
-146,804	28,402	0,098	0,059
-145,789	120,477	0,068	0,060
-144,775	376,925	-0,024	-0,035
-143,760	10,922	-0,086	0,046
-142,745	158,736	-0,049	-0,048
-141,731	252,385	0,052	0,064
-140,716	167,506	-0,068	0,069
-139,702	-60,301	0,091	-0,027
-138,687	414,347	0,080	0,122
-137,672	294,749	0,053	0,069
-136,658	23,809	0,077	-0,045
-135,643	518,250	-0,047	-0,078
-134,629	-105,459	-0,044	-0,007
-133,614	-200,000	0,031	0,138
-132,599	266,873	-0,032	-0,040
-131,585	85,342	0,146	0,114
-130,570	-200,000	0,039	0,187
-129,556	800,000	-0,067	0,168
-128,541	-0,492	-0,181	-0,091
-127,526	50,631	-0,137	-0,092
-126,512	-122,351	0,141	0,016
-125,497	-24,331	-0,043	-0,018
-124,483	-200,000	0,057	0,192
-123,468	134,469	0,099	0,091
-122,453	-52,039	-0,032	-0,011
-121,439	13,616	0,047	0,026
-120,424	138,805	-0,072	-0,068
-119,410	407,812	0,049	0,073
-118,395	383,193	-0,109	0,160
