DTS Sentinel unit serial number:	SN410029Multiplexer serial number:	ORYXHardware model number:	OX2-SRSoftware version number:	ORYX F/W v4,00 Oryx Data Collector v3.7.2.0data status	okinstallation	BH3 CH2differential loss correction	single-endedforward channel	channel 2reverse channel	N/Adate	2023/12/06time	04:42:28forward acquisition time	300,00reverse acquisition time	0,00gamma	499,1914k internal	0,3197k external	0,3197temperature offset calibration	1,0000default loss term (dB/km)	0,3820temperature slope calibration	1,0000multiplexer offset coefficient	1,0000multiplexer slope coefficient	1,0000fibre end	0,00T internal ref (°C)	8,93T ext. ref 1 (°C)	-5,71T ext. ref 2 (°C)	-5,80length (m)	temperature (°C)	Stokes	anti-Stokes-744,400	171,816	-0,136	-0,143
-743,385	-95,047	-0,253	0,049
-742,371	800,000	0,025	0,056
-741,356	231,444	-0,182	0,217
-740,342	26,557	-0,044	-0,027
-739,327	-121,028	-0,139	0,017
-738,312	-200,000	0,008	-0,118
-737,298	-12,331	-0,212	0,101
-736,283	90,130	-0,136	-0,111
-735,269	46,576	-0,087	0,059
-734,254	72,867	-0,077	-0,059
-733,239	-139,982	-0,419	-0,032
-732,225	175,614	0,062	-0,066
-731,210	61,083	-0,050	0,036
-730,196	19,142	-0,114	0,067
-729,181	-200,000	-0,012	-0,158
-728,167	367,548	-0,033	0,049
-727,152	218,377	-0,122	0,142
-726,137	-200,000	0,001	0,088
-725,123	375,358	-0,083	-0,123
-724,108	1,052	-0,201	-0,105
-723,094	-200,000	0,005	0,090
-722,079	228,334	-0,108	-0,128
-721,064	177,394	-0,143	-0,152
-720,050	-200,000	-0,025	-0,105
-719,035	-25,362	-0,041	0,017
-718,021	-145,788	-0,173	-0,011
-717,006	106,860	0,024	-0,020
-715,991	-163,504	-0,061	0,002
-714,977	55,024	-0,163	-0,115
-713,962	80,045	0,095	0,075
-712,948	-160,485	-0,094	0,004
-711,933	800,000	-0,050	-0,104
-710,918	-200,000	-0,026	0,091
-709,904	64,463	-0,149	-0,109
-708,889	-91,970	-0,059	-0,012
-707,875	-200,000	-0,004	-0,120
-706,860	390,093	0,063	0,096
-705,845	134,214	0,142	0,134
-704,831	-77,000	0,033	0,008
-703,816	-28,258	-0,101	-0,042
-702,802	-128,701	-0,076	-0,008
-701,787	-200,000	-0,032	-0,122
-700,772	-200,000	0,010	-0,057
-699,758	-200,000	0,009	-0,030
-698,743	-86,739	0,100	-0,022
-697,729	-14,933	0,111	0,052
-696,714	394,082	0,077	0,117
-695,699	800,000	-0,018	-0,052
-694,685	-200,000	0,038	0,138
-693,670	-53,091	-0,072	0,024
-692,656	800,000	0,027	-0,057
-691,641	-188,035	-0,035	-0,000
-690,627	-200,000	0,029	0,000
-689,612	10,717	0,098	-0,054
-688,597	663,303	-0,074	-0,140
-687,583	363,276	0,033	-0,049
-686,568	216,181	-0,139	-0,161
-685,554	28,359	0,055	0,034
-684,539	40,703	-0,029	-0,019
-683,524	800,000	-0,013	-0,032
-682,510	-200,000	-0,013	0,110
-681,495	311,977	-0,027	-0,038
-680,481	167,916	0,092	-0,095
-679,466	242,311	-0,079	-0,096
-678,451	800,000	-0,034	-0,099
-677,437	-200,000	0,001	0,079
-676,422	-200,000	0,019	0,067
-675,408	13,182	-0,132	0,074
-674,393	11,821	-0,078	0,043
-673,378	43,112	-0,030	-0,020
-672,364	151,652	-0,082	-0,081
-671,349	182,954	-0,061	-0,066
-670,335	347,405	-0,028	0,040
-669,320	775,393	0,046	-0,092
-668,305	800,000	-0,047	-0,102
-667,291	-188,390	-0,134	-0,001
-666,276	-200,000	-0,006	0,034
-665,262	76,145	-0,052	-0,040
-664,247	-8,895	-0,063	-0,030
-663,232	-107,821	-0,081	0,013
-662,218	-116,773	-0,082	0,011
-661,203	453,275	0,017	0,027
-660,189	475,541	-0,048	-0,079
-659,174	800,000	0,040	-0,116
-658,159	-60,296	-0,227	-0,070
-657,145	-200,000	-0,038	0,126
-656,130	424,309	-0,064	0,100
-655,116	-200,000	-0,010	-0,093
-654,101	-59,098	-0,029	0,009
-653,086	-130,140	0,149	-0,015
-652,072	90,881	-0,144	-0,117
-651,057	-200,000	-0,004	0,053
-650,043	88,557	-0,137	0,110
-649,028	4,878	0,126	0,067
-648,014	163,815	-0,068	0,070
-646,999	-96,609	0,154	-0,029
-645,984	319,528	0,058	-0,079
-644,970	-200,000	0,035	0,125
-643,955	-200,000	0,016	-0,082
-642,941	-53,621	-0,111	-0,037
-641,926	-158,262	0,102	0,004
-640,911	-200,000	-0,019	0,109
-639,897	-200,000	0,021	0,074
-638,882	151,600	-0,035	-0,034
-637,868	800,000	-0,076	0,166
-636,853	-170,525	0,127	-0,003
-635,838	-10,765	-0,072	-0,034
-634,824	31,732	-0,093	0,058
-633,809	149,541	0,062	-0,060
-632,795	-200,000	0,002	-0,095
-631,780	57,824	0,022	0,016
-630,765	800,000	0,033	-0,068
-629,751	-200,000	-0,025	0,098
-628,736	-200,000	0,007	0,024
-627,722	-89,218	-0,061	-0,013
-626,707	-200,000	0,005	0,028
-625,692	-200,000	0,014	-0,068
-624,678	1,446	0,043	0,022
-623,663	-200,000	0,009	-0,055
-622,649	-86,472	-0,072	0,016
-621,634	-103,848	-0,072	-0,012
-620,619	7,448	0,004	0,002
-619,605	423,322	0,053	0,083
-618,590	-200,000	-0,016	0,084
-617,576	47,180	0,022	-0,015
-616,561	-200,000	0,012	0,058
-615,546	800,000	0,008	0,019
-614,532	800,000	0,028	-0,068
-613,517	-200,000	0,002	-0,018
-612,503	-151,548	-0,027	0,001
-611,488	-200,000	-0,019	-0,085
-610,474	525,277	0,029	-0,050
-609,459	183,980	-0,018	-0,020
-608,444	112,286	0,042	-0,037
-607,430	-200,000	0,005	0,120
-606,415	-129,216	-0,162	-0,016
-605,401	307,955	0,020	-0,027
-604,386	800,000	-0,049	0,149
-603,371	-48,494	-0,058	0,020
-602,357	9,079	-0,059	-0,032
-601,342	-200,000	-0,004	-0,042
-600,328	-200,000	0,006	-0,097
-599,313	-51,909	-0,070	-0,024
-598,298	-200,000	0,010	0,035
-597,284	-200,000	0,016	0,065
-596,269	45,926	-0,030	-0,020
-595,255	-63,156	-0,145	0,043
-594,240	268,366	0,029	-0,037
-593,225	146,098	-0,128	-0,124
-592,211	-200,000	-0,026	-0,146
-591,196	800,000	-0,054	-0,114
-590,182	-130,925	0,057	0,005
-589,167	393,447	-0,036	-0,054
-588,152	316,011	0,036	-0,050
-587,138	34,589	-0,101	-0,064
-586,123	-200,000	-0,031	-0,106
-585,109	-159,423	-0,040	-0,002
-584,094	120,370	0,023	0,020
-583,079	-43,918	-0,114	-0,041
-582,065	-200,000	0,039	-0,135
-581,050	231,282	0,022	0,026
-580,036	437,532	-0,061	-0,096
-579,021	-97,543	-0,061	0,011
-578,006	-200,000	0,002	0,085
-576,992	44,052	0,070	-0,046
-575,977	-200,000	0,003	0,048
-574,963	800,000	-0,009	0,027
-573,948	-48,815	0,106	0,037
-572,934	-200,000	-0,053	0,174
-571,919	644,476	-0,062	0,115
-570,904	-87,889	-0,100	-0,022
-569,890	311,804	-0,080	0,108
-568,875	-200,000	-0,011	0,105
-567,861	-200,000	-0,024	-0,103
-566,846	-200,000	-0,023	-0,108
-565,831	-200,000	0,034	-0,108
-564,817	35,584	-0,080	-0,051
-563,802	-200,000	0,010	-0,159
-562,788	215,900	0,057	-0,065
-561,773	361,816	0,025	-0,036
-560,758	-200,000	-0,017	-0,115
-559,744	-200,000	-0,011	0,037
-558,729	-200,000	0,012	-0,103
-557,715	-200,000	-0,025	-0,124
-556,700	-86,582	-0,049	-0,011
-555,685	-200,000	-0,004	-0,050
-554,671	44,198	0,065	0,043
-553,656	-126,156	0,076	-0,008
-552,642	174,736	-0,050	0,053
-551,627	64,111	-0,003	-0,002
-550,612	224,841	-0,049	-0,058
-549,598	-200,000	-0,039	-0,265
-548,583	-200,000	0,002	-0,063
-547,569	-200,000	0,024	-0,087
-546,554	-103,205	-0,046	-0,008
-545,539	-200,000	-0,005	-0,042
-544,525	800,000	-0,053	-0,109
-543,510	263,578	0,042	-0,053
-542,496	426,211	0,048	-0,075
-541,481	38,236	0,034	0,022
-540,466	-200,000	0,000	0,095
-539,452	800,000	0,058	-0,184
-538,437	87,141	0,014	0,011
-537,423	-200,000	0,018	0,074
-536,408	53,862	0,096	-0,066
-535,393	107,682	0,130	-0,111
-534,379	120,875	-0,013	0,012
-533,364	-25,591	0,072	0,030
-532,350	-200,000	0,005	0,103
-531,335	-200,000	-0,009	0,165
-530,321	644,453	-0,013	-0,024
-529,306	68,917	0,089	0,066
-528,291	-129,190	-0,072	-0,007
-527,277	653,233	-0,036	-0,068
-526,262	-23,334	0,088	-0,038
-525,248	237,831	-0,062	0,075
-524,233	-63,523	0,063	0,019
-523,218	-68,170	-0,038	-0,011
-522,204	-130,078	-0,043	-0,004
-521,189	474,893	0,055	-0,089
-520,175	-17,646	-0,092	0,041
-519,160	400,537	-0,040	-0,060
-518,145	-5,849	-0,006	0,003
-517,131	317,635	0,101	0,138
-516,116	-118,345	-0,027	0,003
-515,102	-13,603	0,123	0,057
-514,087	501,735	0,089	0,148
-513,072	800,000	0,025	0,074
-512,058	800,000	-0,085	-0,174
-511,043	280,736	0,101	0,131
-510,029	233,738	0,023	0,027
-509,014	-200,000	0,012	0,075
-507,999	144,274	-0,052	-0,050
-506,985	-39,933	-0,165	0,062
-505,970	368,233	0,071	-0,104
-504,956	-200,000	-0,010	-0,065
-503,941	104,904	0,014	0,012
-502,926	-11,171	-0,071	-0,034
-501,912	434,727	-0,018	-0,028
-500,897	-56,831	-0,091	-0,029
-499,883	-70,576	0,120	0,033
-498,868	-55,476	0,049	-0,016
-497,853	-88,491	-0,076	0,016
-496,839	393,441	0,065	-0,098
-495,824	-200,000	0,013	-0,138
-494,810	38,956	0,075	0,048
-493,795	-116,280	0,080	0,011
-492,781	-168,795	0,101	-0,003
-491,766	253,923	-0,081	-0,100
-490,751	800,000	0,086	0,182
-489,737	-75,953	-0,097	0,025
-488,722	-10,354	0,210	0,100
-487,708	-123,584	0,075	-0,009
-486,693	333,108	-0,012	-0,017
-485,678	617,293	-0,047	-0,085
-484,664	-200,000	0,009	0,060
-483,649	274,776	-0,064	-0,082
-482,635	48,740	-0,051	-0,034
-481,620	293,701	0,073	0,096
-480,605	10,483	0,053	-0,029
-479,591	-50,734	0,038	0,013
-478,576	33,094	-0,153	-0,096
-477,562	-12,266	-0,065	0,031
-476,547	34,909	-0,077	-0,048
-475,532	230,708	-0,114	0,135
-474,518	-179,013	0,130	-0,002
-473,503	101,767	0,078	-0,066
-472,489	395,520	-0,014	0,021
-471,474	-200,000	-0,002	0,010
-470,459	-200,000	-0,001	-0,023
-469,445	16,635	0,097	-0,055
-468,430	-170,019	-0,090	0,002
-467,416	24,070	-0,068	0,040
-466,401	170,390	-0,052	0,053
-465,386	259,407	0,056	0,069
-464,372	-62,958	-0,070	-0,021
-463,357	-200,000	0,000	-0,088
-462,343	-43,974	-0,085	-0,031
-461,328	-200,000	-0,052	0,000
-460,313	107,862	0,050	0,043
-459,299	-200,000	0,024	-0,087
-458,284	-104,509	-0,137	-0,023
-457,270	592,522	0,024	0,042
-456,255	-200,000	-0,012	-0,220
-455,241	62,392	-0,112	-0,080
-454,226	-200,000	0,014	-0,171
-453,211	-112,752	0,165	0,023
-452,197	214,028	0,142	0,162
-451,182	-117,506	0,117	-0,015
-450,168	56,926	0,109	0,076
-449,153	-22,163	0,046	0,020
-448,138	104,847	-0,104	-0,089
-447,124	-66,142	0,107	-0,030
-446,109	302,596	-0,063	0,084
-445,095	-200,000	0,010	0,043
-444,080	-200,000	0,007	-0,146
-443,065	469,073	-0,012	-0,019
-442,051	423,223	-0,029	0,046
-441,036	120,743	-0,050	-0,045
-440,022	-200,000	-0,032	-0,111
-439,007	-200,000	-0,015	-0,067
-437,992	556,099	0,088	-0,152
-436,978	-200,000	-0,003	0,082
-435,963	800,000	-0,031	-0,065
-434,949	207,730	-0,031	-0,035
-433,934	-144,485	-0,099	0,006
-432,919	-200,000	-0,002	-0,110
-431,905	14,294	-0,104	-0,058
-430,890	71,757	0,106	0,079
-429,876	190,437	-0,169	0,183
-428,861	800,000	-0,004	-0,009
-427,846	192,630	-0,046	0,050
-426,832	-200,000	-0,041	-0,165
-425,817	316,825	-0,072	-0,098
-424,803	-69,808	-0,202	-0,055
-423,788	-12,500	0,044	-0,021
-422,773	-84,417	0,067	0,015
-421,759	13,089	-0,073	0,040
-420,744	-200,000	-0,011	-0,127
-419,730	-200,000	-0,002	-0,057
-418,715	-200,000	-0,006	-0,159
-417,701	800,000	0,031	-0,068
-416,686	-200,000	0,007	-0,087
-415,671	800,000	0,033	0,101
-414,657	254,097	0,041	0,050
-413,642	800,000	0,057	-0,124
-412,628	-200,000	0,038	0,126
-411,613	800,000	0,035	0,086
-410,598	256,350	-0,086	-0,106
-409,584	-200,000	-0,020	-0,067
-408,569	-200,000	0,021	0,118
-407,555	-31,606	-0,097	0,039
-406,540	800,000	-0,063	0,179
-405,525	-200,000	0,001	0,121
-404,511	-200,000	0,033	-0,141
-403,496	654,892	-0,050	-0,093
-402,482	28,195	-0,070	0,042
-401,467	-104,500	-0,108	0,018
-400,452	-30,421	0,121	0,049
-399,438	-200,000	0,017	0,058
-398,423	-200,000	-0,023	0,097
-397,409	800,000	-0,017	-0,036
-396,394	-45,502	0,020	-0,007
-395,379	122,875	-0,023	0,021
-394,365	122,648	0,107	0,096
-393,350	-56,900	0,088	0,028
-392,336	438,822	-0,077	0,122
-391,321	20,976	-0,066	-0,038
-390,306	-20,709	-0,012	-0,005
-389,292	800,000	-0,043	0,126
-388,277	228,352	0,060	0,070
-387,263	217,622	0,056	-0,064
-386,248	-85,932	0,124	-0,027
-385,233	-200,000	-0,026	0,112
-384,219	-73,132	0,142	-0,037
-383,204	-135,424	-0,070	-0,006
-382,190	86,809	0,075	-0,060
-381,175	800,000	-0,055	-0,113
-380,160	-61,629	0,155	0,046
-379,146	51,582	-0,122	0,083
-378,131	-200,000	0,032	0,169
-377,117	227,909	0,073	-0,086
-376,102	-72,013	0,024	0,006
-375,088	181,032	-0,034	-0,035
-374,073	-100,068	-0,074	0,013
-373,058	-24,010	0,106	0,045
-372,044	-10,159	0,060	0,029
-371,029	-135,024	-0,059	0,005
-370,015	-39,890	0,167	0,062
-369,000	1,266	-0,087	-0,045
-367,985	-200,000	0,037	-0,149
-366,971	-43,666	0,073	-0,026
-365,956	-200,000	0,030	0,211
-364,942	-200,000	-0,030	0,107
-363,927	199,365	-0,018	0,020
-362,912	-8,527	0,137	0,066
-361,898	-13,920	0,016	0,007
-360,883	38,756	-0,029	-0,019
-359,869	800,000	-0,035	-0,073
-358,854	45,109	0,025	-0,016
-357,839	-143,260	-0,086	-0,006
-356,825	-200,000	0,024	0,104
-355,810	-200,000	-0,008	0,086
-354,796	469,476	-0,074	-0,120
-353,781	-200,000	-0,020	-0,101
-352,766	63,682	-0,101	0,073
-351,752	407,258	-0,038	0,058
-350,737	-115,624	0,197	-0,026
-349,723	165,547	0,101	0,102
-348,708	54,913	0,085	0,059
-347,693	144,182	-0,087	-0,083
-346,679	658,745	-0,050	-0,093
-345,664	-200,000	0,013	-0,093
-344,650	-28,547	-0,020	-0,008
-343,635	-128,723	0,152	0,015
-342,620	-66,943	0,115	0,032
-341,606	-84,268	-0,057	-0,013
-340,591	800,000	-0,064	-0,158
-339,577	-14,450	0,076	0,035
-338,562	89,320	0,122	-0,098
-337,548	-113,126	-0,170	0,024
-336,533	-200,000	-0,002	0,008
-335,518	-200,000	-0,031	0,164
-334,504	-186,481	-0,097	-0,001
-333,489	259,044	0,017	0,021
-332,475	225,400	-0,031	0,037
-331,460	184,618	0,029	-0,031
-330,445	56,546	-0,098	0,068
-329,431	-200,000	0,007	0,093
-328,416	-200,000	0,022	0,110
-327,402	129,176	0,087	-0,080
-326,387	130,705	0,070	0,064
-325,372	-135,563	0,020	-0,002
-324,358	779,403	0,101	-0,199
-323,343	103,433	-0,033	0,028
-322,329	-200,000	-0,016	0,084
-321,314	-5,480	0,107	0,053
-320,299	537,026	0,037	0,063
-319,285	800,000	0,035	-0,077
-318,270	41,286	0,090	-0,058
-317,256	304,730	0,014	-0,018
-316,241	96,713	0,010	-0,009
-315,226	-200,000	0,002	-0,014
-314,212	-200,000	-0,013	0,176
-313,197	44,227	-0,088	-0,058
-312,183	-200,000	-0,015	0,115
-311,168	451,320	0,025	0,039
-310,153	-200,000	0,014	-0,067
-309,139	-110,462	-0,131	-0,019
-308,124	-200,000	-0,003	0,012
-307,110	-38,736	-0,035	-0,013
-306,095	-200,000	-0,033	0,134
-305,080	-128,968	0,145	-0,014
-304,066	472,643	0,044	-0,072
-303,051	-200,000	0,020	0,127
-302,037	186,447	-0,121	-0,129
-301,022	49,244	-0,234	0,157
-300,008	191,104	0,100	0,108
-298,993	-200,000	-0,013	-0,059
-297,978	115,065	-0,100	-0,088
-296,964	-200,000	-0,000	-0,060
-295,949	-92,904	-0,074	0,015
-294,935	117,371	0,016	-0,014
-293,920	800,000	-0,062	-0,187
-292,905	299,825	0,150	-0,198
-291,891	67,647	-0,112	0,082
-290,876	-113,944	-0,102	0,014
-289,862	112,565	0,011	0,009
-288,847	163,392	-0,047	0,048
-287,832	-200,000	-0,001	0,024
-286,818	800,000	0,015	-0,045
-285,803	800,000	-0,046	0,102
-284,789	210,722	0,072	-0,081
-283,774	113,329	-0,068	0,059
-282,759	-136,981	0,089	-0,007
-281,745	782,524	-0,101	-0,200
-280,730	-121,485	0,107	0,013
-279,716	-14,754	-0,010	0,004
-278,701	-200,000	-0,012	0,079
-277,686	800,000	-0,007	-0,015
-276,672	-115,033	-0,072	0,010
-275,657	383,348	0,056	0,082
-274,643	301,306	0,091	-0,121
-273,628	-200,000	-0,018	-0,098
-272,613	123,996	-0,092	-0,082
-271,599	12,336	0,075	0,041
-270,584	-21,122	0,145	-0,063
-269,570	-24,064	-0,087	-0,037
-268,555	26,364	0,129	0,077
-267,540	800,000	-0,036	0,076
-266,526	-61,743	-0,078	-0,023
-265,511	-200,000	0,017	0,075
-264,497	-118,853	-0,056	0,007
-263,482	-56,697	0,059	0,019
-262,467	163,950	-0,044	0,045
-261,453	-137,325	0,177	-0,014
-260,438	-163,647	-0,079	0,003
-259,424	-49,829	-0,117	-0,040
-258,409	-94,049	-0,044	-0,009
-257,395	-123,332	0,165	-0,019
-256,380	800,000	0,034	0,094
-255,365	-200,000	0,012	0,128
-254,351	-89,672	0,156	-0,032
-253,336	73,359	0,033	0,025
-252,322	-59,230	0,083	0,026
-251,307	-200,000	-0,015	-0,077
-250,292	192,519	-0,022	0,023
-249,278	-121,014	-0,070	-0,008
-248,263	-200,000	0,030	0,138
-247,249	-200,000	-0,010	-0,046
-246,234	-200,000	0,020	0,134
-245,219	201,190	-0,078	0,085
-244,205	-21,493	-0,183	-0,079
-243,190	428,533	-0,016	-0,025
-242,176	-200,000	0,065	0,225
-241,161	358,006	-0,047	0,068
-240,146	546,348	-0,088	-0,151
-239,132	800,000	-0,016	0,042
-238,117	294,203	-0,028	0,036
-237,103	146,475	0,019	-0,019
-236,088	800,000	-0,049	-0,147
-235,073	224,242	0,078	0,090
-234,059	272,316	0,112	0,141
-233,044	286,337	0,058	0,075
-232,030	15,948	0,072	-0,040
-231,015	-200,000	-0,002	-0,017
-230,000	89,866	0,023	-0,019
-228,986	-200,000	-0,017	-0,072
-227,971	77,706	-0,099	0,075
-226,957	3,498	0,090	0,046
-225,942	273,873	0,051	-0,064
-224,927	77,922	0,075	0,057
-223,913	-200,000	-0,021	0,100
-222,898	161,659	0,058	0,058
-221,884	-200,000	-0,025	0,108
-220,869	-153,738	0,108	-0,005
-219,855	210,869	0,056	-0,063
-218,840	800,000	0,028	0,084
-217,825	-200,000	0,037	0,195
-216,811	113,800	-0,116	-0,100
-215,796	-117,063	-0,130	-0,017
-214,782	-200,000	-0,008	0,173
-213,767	800,000	-0,033	0,068
-212,752	-200,000	0,073	0,250
-211,738	-127,952	0,213	-0,022
-210,723	-7,655	-0,068	0,033
-209,709	-35,834	-0,161	0,062
-208,694	-200,000	0,003	0,049
-207,679	385,765	-0,028	-0,042
-206,665	-200,000	-0,018	-0,064
-205,650	467,927	0,027	0,043
-204,636	23,630	-0,052	0,030
-203,621	374,770	0,082	0,119
-202,606	-200,000	0,015	0,064
-201,592	-200,000	-0,033	-0,165
-200,577	-78,989	-0,042	0,010
-199,563	-200,000	-0,014	0,077
-198,548	440,527	0,008	-0,012
-197,533	-48,857	0,083	0,028
-196,519	-200,000	0,008	0,034
-195,504	-200,000	-0,003	0,013
-194,490	-200,000	-0,050	-0,163
-193,475	-80,987	-0,182	-0,043
-192,460	-115,206	-0,074	0,010
-191,446	-64,784	0,107	0,031
-190,431	-200,000	-0,021	0,121
-189,417	-200,000	-0,002	-0,009
-188,402	-55,607	0,056	-0,018
-187,387	-150,490	-0,124	-0,007
-186,373	-50,607	0,117	-0,039
-185,358	800,000	0,026	-0,056
-184,344	-95,101	0,044	0,008
-183,329	-200,000	0,013	-0,121
-182,315	115,318	-0,037	0,032
-181,300	125,313	-0,075	0,067
-180,285	-200,000	-0,013	-0,091
-179,271	-10,555	0,072	0,034
-178,256	-200,000	0,003	0,039
-177,242	137,376	0,134	0,125
-176,227	722,091	-0,043	0,082
-175,212	192,514	0,084	-0,090
-174,198	132,243	0,077	-0,070
-173,183	408,093	-0,086	0,129
-172,169	800,000	-0,061	-0,164
-171,154	800,000	0,056	-0,155
-170,139	672,195	-0,012	0,022
-169,125	-200,000	0,022	0,156
-168,110	-144,124	-0,025	0,002
-167,096	-200,000	-0,030	-0,133
-166,081	564,976	-0,038	0,066
-165,066	-148,387	-0,223	-0,013
-164,052	182,851	0,122	0,129
-163,037	800,000	-0,054	0,136
-162,023	800,000	-0,045	0,095
-161,008	-200,000	0,028	0,119
-159,993	-200,000	0,029	-0,187
-158,979	-200,000	-0,012	-0,185
-157,964	800,000	-0,040	-0,118
-156,950	56,467	-0,048	-0,033
-155,935	727,381	0,043	0,082
-154,920	800,000	0,008	-0,020
-153,906	-200,000	-0,007	0,033
-152,891	-100,981	0,083	-0,014
-151,877	-49,303	-0,149	-0,050
-150,862	178,303	0,025	-0,026
-149,847	147,848	0,020	-0,019
-148,833	18,126	0,152	-0,086
-147,818	170,417	0,088	0,089
-146,804	-200,000	-0,001	0,063
-145,789	-200,000	-0,025	0,107
-144,775	182,194	-0,046	0,048
-143,760	-200,000	-0,006	-0,179
-142,745	416,849	-0,073	-0,111
-141,731	104,132	0,045	-0,038
-140,716	177,060	0,048	-0,050
-139,702	207,437	0,062	0,069
-138,687	22,540	0,058	-0,034
-137,672	-200,000	-0,016	-0,097
-136,658	-200,000	-0,004	0,017
-135,643	-200,000	0,029	-0,136
-134,629	-91,506	-0,222	0,045
-133,614	-29,240	-0,168	0,068
-132,599	65,503	-0,040	0,029
-131,585	-121,661	0,052	-0,006
-130,570	-75,464	0,029	0,007
-129,556	800,000	0,070	-0,177
-128,541	28,700	-0,075	-0,045
-127,526	-200,000	-0,029	-0,109
-126,512	233,945	0,034	-0,040
-125,497	-200,000	0,032	0,134
-124,483	-113,068	-0,205	-0,028
-123,468	-24,499	-0,013	0,005
-122,453	-63,126	-0,136	-0,040
-121,439	677,373	-0,096	-0,178
