DTS Sentinel unit serial number:	SN410029Multiplexer serial number:	ORYXHardware model number:	OX2-SRSoftware version number:	ORYX F/W v4,00 Oryx Data Collector v3.7.2.0data status	okinstallation	BH3 CH2differential loss correction	single-endedforward channel	channel 2reverse channel	N/Adate	2023/12/06time	07:47:28forward acquisition time	300,00reverse acquisition time	0,00gamma	499,1914k internal	0,3197k external	0,3197temperature offset calibration	1,0000default loss term (dB/km)	0,3820temperature slope calibration	1,0000multiplexer offset coefficient	1,0000multiplexer slope coefficient	1,0000fibre end	0,00T internal ref (°C)	8,79T ext. ref 1 (°C)	-5,82T ext. ref 2 (°C)	-5,94length (m)	temperature (°C)	Stokes	anti-Stokes-744,400	183,556	-0,066	-0,071
-743,385	21,487	-0,048	0,028
-742,371	-66,565	-0,072	-0,021
-741,356	118,848	-0,166	0,149
-740,342	200,868	-0,084	-0,094
-739,327	-12,513	-0,297	0,141
-738,312	-133,716	-0,124	0,011
-737,298	76,097	-0,277	0,213
-736,283	800,000	-0,014	0,028
-735,269	9,140	-0,327	0,180
-734,254	-200,000	0,043	-0,185
-733,239	-109,921	-0,352	-0,053
-732,225	98,428	-0,147	-0,124
-731,210	-200,000	-0,007	0,110
-730,196	43,543	-0,069	0,046
-729,181	-166,640	-0,167	0,005
-728,167	269,814	-0,072	0,093
-727,152	-104,772	-0,124	0,021
-726,137	1,390	0,074	0,039
-725,123	-200,000	-0,003	-0,097
-724,108	541,549	-0,075	-0,131
-723,094	-50,979	-0,051	0,017
-722,079	11,923	0,065	-0,037
-721,064	314,408	-0,049	-0,068
-720,050	142,437	-0,105	0,101
-719,035	-133,475	0,076	-0,007
-718,021	-59,108	-0,146	-0,045
-717,006	-121,463	-0,144	-0,017
-715,991	119,462	-0,173	-0,156
-714,977	-109,519	-0,122	0,019
-713,962	-46,660	-0,130	-0,046
-712,948	-25,500	0,055	-0,024
-711,933	4,482	-0,123	-0,066
-710,918	218,319	-0,012	0,014
-709,904	86,661	0,060	-0,048
-708,889	374,580	-0,080	-0,119
-707,875	-5,248	-0,040	-0,020
-706,860	-200,000	0,025	-0,195
-705,845	-52,831	-0,115	0,038
-704,831	482,052	-0,034	0,057
-703,816	254,020	-0,088	-0,109
-702,802	800,000	0,018	-0,050
-701,787	200,492	0,137	-0,153
-700,772	800,000	0,028	-0,080
-699,758	260,733	0,053	-0,067
-698,743	92,551	0,022	0,018
-697,729	800,000	-0,035	-0,084
-696,714	438,694	0,052	0,083
-695,699	-0,575	-0,133	-0,068
-694,685	-200,000	-0,005	-0,135
-693,670	-81,894	-0,064	-0,015
-692,656	-14,462	0,016	-0,007
-691,641	155,254	-0,105	-0,105
-690,627	-200,000	-0,014	0,135
-689,612	800,000	-0,016	0,040
-688,597	58,642	-0,036	-0,026
-687,583	98,693	-0,025	0,021
-686,568	-117,846	-0,110	-0,014
-685,554	287,295	-0,068	-0,089
-684,539	16,700	0,090	0,051
-683,524	-200,000	0,037	-0,128
-682,510	287,327	0,010	-0,013
-681,495	-24,820	-0,174	-0,075
-680,481	-77,540	-0,099	0,025
-679,466	76,472	-0,049	-0,038
-678,451	305,036	-0,013	-0,018
-677,437	800,000	-0,031	0,089
-676,422	-23,633	-0,145	0,063
-675,408	-137,519	0,098	-0,008
-674,393	800,000	0,052	-0,110
-673,378	-165,245	-0,110	-0,003
-672,364	123,953	-0,035	0,032
-671,349	795,715	-0,044	-0,088
-670,335	-35,615	0,080	-0,031
-669,320	43,275	-0,052	-0,034
-668,305	800,000	-0,013	-0,028
-667,291	-200,000	-0,014	-0,070
-666,276	-10,297	-0,112	0,054
-665,262	800,000	-0,076	-0,193
-664,247	-46,221	-0,054	0,019
-663,232	22,978	0,083	-0,049
-662,218	151,512	-0,038	0,038
-661,203	-17,851	-0,076	0,035
-660,189	-42,727	-0,112	-0,041
-659,174	38,087	0,040	-0,025
-658,159	322,273	0,068	-0,094
-657,145	800,000	-0,046	-0,114
-656,130	156,237	-0,092	-0,092
-655,116	103,711	0,032	0,028
-654,101	800,000	0,034	0,101
-653,086	305,613	-0,023	0,032
-652,072	-60,603	-0,049	-0,015
-651,057	800,000	-0,021	-0,058
-650,043	147,225	-0,030	-0,030
-649,028	475,591	-0,109	0,179
-648,014	205,252	0,084	0,095
-646,999	800,000	-0,052	0,160
-645,984	217,329	0,092	0,107
-644,970	-140,591	-0,137	0,010
-643,955	-200,000	0,002	0,019
-642,941	-200,000	0,001	0,020
-641,926	519,174	0,046	-0,079
-640,911	-34,964	0,108	0,043
-639,897	800,000	-0,034	-0,077
-638,882	-200,000	-0,022	-0,081
-637,868	21,341	-0,058	0,034
-636,853	-200,000	-0,014	-0,182
-635,838	60,959	0,084	0,060
-634,824	-200,000	0,002	0,029
-633,809	800,000	0,064	0,171
-632,795	346,523	0,085	0,122
-631,780	-124,883	0,120	0,013
-630,765	-11,994	-0,086	0,041
-629,751	-161,057	-0,069	0,003
-628,736	727,020	0,030	-0,058
-627,722	-26,300	-0,117	-0,049
-626,707	-105,420	0,143	-0,023
-625,692	800,000	-0,060	0,169
-624,678	192,287	0,126	0,138
-623,663	251,873	0,062	-0,077
-622,649	544,171	-0,046	0,079
-621,634	80,598	0,064	-0,050
-620,619	-34,552	0,140	-0,055
-619,605	220,931	-0,104	0,121
-618,590	663,461	-0,042	-0,080
-617,576	-200,000	0,023	0,152
-616,561	-57,313	0,025	0,008
-615,546	-60,025	-0,125	0,039
-614,532	110,234	-0,092	-0,080
-613,517	-17,377	0,062	0,028
-612,503	-99,017	0,109	-0,020
-611,488	195,241	0,051	-0,056
-610,474	-200,000	-0,001	-0,037
-609,459	17,666	-0,015	0,009
-608,444	86,008	-0,082	-0,065
-607,430	-33,043	-0,082	-0,033
-606,415	180,988	-0,082	-0,087
-605,401	659,015	-0,103	0,193
-604,386	39,563	0,171	0,111
-603,371	-63,883	0,013	0,004
-602,357	-10,167	-0,063	-0,030
-601,342	45,960	-0,068	-0,045
-600,328	20,711	0,048	-0,028
-599,313	207,977	-0,105	-0,118
-598,298	-200,000	0,015	0,071
-597,284	800,000	0,033	-0,084
-596,269	-108,151	-0,086	0,013
-595,255	176,108	0,041	-0,043
-594,240	-146,612	-0,124	-0,008
-593,225	800,000	-0,061	-0,133
-592,211	-39,125	-0,074	-0,028
-591,196	-161,249	-0,129	-0,005
-590,182	-9,790	0,094	0,045
-589,167	-99,112	-0,072	-0,013
-588,152	-200,000	0,006	0,089
-587,138	800,000	0,005	-0,015
-586,123	-195,860	-0,067	-0,000
-585,109	-0,870	-0,050	0,026
-584,094	-200,000	-0,014	-0,058
-583,079	-200,000	0,022	-0,159
-582,065	271,714	-0,064	0,082
-581,050	-124,608	0,158	0,017
-580,036	12,631	-0,054	0,030
-579,021	109,393	-0,035	0,031
-578,006	-38,054	-0,019	-0,007
-576,992	393,917	0,079	-0,119
-575,977	418,007	-0,080	-0,124
-574,963	-62,537	0,038	-0,011
-573,948	-191,472	-0,181	0,001
-572,934	-150,296	0,112	-0,006
-571,919	166,176	-0,023	0,023
-570,904	-200,000	0,013	-0,102
-569,890	-200,000	0,000	-0,139
-568,875	800,000	-0,035	0,088
-567,861	-95,432	0,057	-0,011
-566,846	-200,000	-0,013	0,045
-565,831	-200,000	-0,010	0,071
-564,817	-200,000	0,001	0,076
-563,802	-97,255	-0,125	0,023
-562,788	-22,054	0,162	0,071
-561,773	-22,503	0,037	0,016
-560,758	-200,000	-0,008	0,040
-559,744	159,699	0,011	-0,011
-558,729	-17,353	-0,079	0,036
-557,715	-200,000	0,016	-0,125
-556,700	165,997	-0,025	-0,025
-555,685	-140,258	-0,068	-0,005
-554,671	178,969	0,069	-0,073
-553,656	-45,755	0,038	0,014
-552,642	200,675	0,069	0,077
-551,627	69,650	-0,088	0,066
-550,612	190,668	0,033	-0,036
-549,598	-200,000	-0,019	-0,159
-548,583	800,000	-0,026	-0,069
-547,569	-31,239	-0,018	-0,007
-546,554	-16,472	-0,168	0,077
-545,539	-94,899	-0,046	-0,009
-544,525	53,128	0,092	0,064
-543,510	124,150	-0,029	0,026
-542,496	-140,663	-0,061	0,005
-541,481	800,000	-0,041	-0,097
-540,466	52,648	-0,053	-0,037
-539,452	-200,000	-0,003	0,050
-538,437	-143,769	0,116	-0,008
-537,423	-64,858	0,059	0,017
-536,408	-96,165	-0,145	0,028
-535,393	-200,000	0,013	-0,095
-534,379	17,424	-0,099	-0,056
-533,364	-94,666	-0,099	0,019
-532,350	409,930	-0,053	0,082
-531,335	90,747	-0,085	0,068
-530,321	800,000	0,041	-0,116
-529,306	-59,010	-0,175	-0,054
-528,291	-115,579	0,180	0,024
-527,277	-0,556	0,181	-0,092
-526,262	-200,000	0,007	0,059
-525,248	-173,805	-0,140	-0,003
-524,233	106,220	0,124	0,106
-523,218	193,969	-0,050	0,055
-522,204	-172,522	-0,044	-0,001
-521,189	149,363	-0,062	0,061
-520,175	-200,000	-0,020	-0,081
-519,160	800,000	-0,050	-0,118
-518,145	-200,000	0,027	-0,122
-517,131	-114,620	0,162	-0,022
-516,116	-28,925	0,040	0,017
-515,102	-115,655	-0,069	-0,009
-514,087	-75,998	0,107	0,027
-513,072	-78,306	-0,066	-0,016
-512,058	-200,000	0,005	0,090
-511,043	-200,000	-0,015	0,113
-510,029	-200,000	-0,004	-0,155
-509,014	135,388	-0,077	0,072
-507,999	163,899	0,056	0,056
-506,985	800,000	0,036	-0,081
-505,970	800,000	-0,052	-0,122
-504,956	-125,937	0,132	0,014
-503,941	-200,000	0,015	0,062
-502,926	-84,520	0,065	0,015
-501,912	800,000	-0,024	0,051
-500,897	163,496	-0,082	-0,083
-499,883	800,000	-0,022	-0,055
-498,868	167,252	0,042	-0,043
-497,853	45,204	-0,096	-0,063
-496,839	-91,144	0,030	0,006
-495,824	106,372	0,028	-0,024
-494,810	-92,582	0,152	-0,031
-493,795	47,427	-0,036	-0,024
-492,781	109,149	-0,068	-0,059
-491,766	132,787	0,083	-0,077
-490,751	800,000	-0,031	-0,084
-489,737	-200,000	0,004	0,021
-488,722	-68,579	0,091	-0,025
-487,708	-62,457	0,085	0,025
-486,693	330,494	0,087	0,121
-485,678	800,000	0,042	-0,091
-484,664	103,511	-0,049	0,041
-483,649	-200,000	-0,009	-0,105
-482,635	28,500	0,107	-0,065
-481,620	17,168	-0,114	0,065
-480,605	-126,414	0,041	-0,004
-479,591	-200,000	0,003	-0,170
-478,576	-125,506	-0,119	-0,013
-477,562	-200,000	-0,008	0,092
-476,547	-200,000	-0,019	-0,075
-475,532	-160,935	-0,040	0,001
-474,518	403,627	0,061	-0,092
-473,503	-132,495	0,010	-0,001
-472,489	282,299	0,094	0,121
-471,474	800,000	0,022	-0,046
-470,459	-200,000	0,032	-0,147
-469,445	-101,770	-0,007	-0,001
-468,430	355,316	-0,016	0,024
-467,416	-200,000	-0,011	-0,066
-466,401	122,785	0,141	0,127
-465,386	-105,034	-0,125	0,020
-464,372	-200,000	0,001	-0,015
-463,357	490,508	-0,033	-0,055
-462,343	800,000	-0,017	-0,044
-461,328	-51,546	-0,074	-0,025
-460,313	-33,348	0,101	-0,040
-459,299	495,726	-0,074	-0,123
-458,284	-200,000	0,032	-0,103
-457,270	-69,908	0,141	-0,038
-456,255	20,715	-0,097	-0,056
-455,241	-184,904	-0,018	0,000
-454,226	800,000	-0,030	0,061
-453,211	135,558	-0,091	0,085
-452,197	-36,887	-0,082	-0,031
-451,182	107,577	-0,057	0,049
-450,168	-200,000	-0,029	0,099
-449,153	-69,126	-0,037	0,010
-448,138	800,000	-0,010	0,024
-447,124	190,230	0,061	0,066
-446,109	-200,000	0,009	-0,107
-445,095	256,829	0,080	-0,099
-444,080	171,457	-0,042	0,044
-443,065	-200,000	0,014	0,058
-442,051	-32,703	0,032	0,013
-441,036	-200,000	-0,035	0,129
-440,022	-27,825	0,105	-0,043
-439,007	-38,686	0,110	-0,042
-437,992	-108,237	0,138	-0,021
-436,978	793,980	0,040	0,080
-435,963	-200,000	0,006	0,022
-434,949	-6,487	0,116	0,057
-433,934	-174,365	-0,160	-0,003
-432,919	-116,696	-0,137	-0,018
-431,905	800,000	0,032	0,090
-430,890	-200,000	0,010	0,085
-429,876	232,653	0,016	0,018
-428,861	759,123	0,023	0,044
-427,846	373,279	-0,027	-0,040
-426,832	-23,253	0,090	0,039
-425,817	-90,808	0,067	0,014
-424,803	206,347	-0,025	-0,029
-423,788	800,000	0,044	-0,125
-422,773	39,553	-0,044	-0,029
-421,759	738,732	0,026	0,051
-420,744	-40,466	-0,121	0,045
-419,730	-200,000	0,020	-0,170
-418,715	350,608	-0,008	-0,011
-417,701	-200,000	-0,036	-0,122
-416,686	-200,000	0,026	0,122
-415,671	-200,000	-0,022	0,109
-414,657	800,000	-0,034	0,103
-413,642	-104,788	-0,073	0,012
-412,628	133,889	0,042	-0,040
-411,613	800,000	0,017	-0,043
-410,598	758,928	0,076	0,149
-409,584	800,000	-0,027	0,061
-408,569	-200,000	0,020	-0,171
-407,555	-86,173	0,116	0,025
-406,540	800,000	-0,037	-0,104
-405,525	783,530	0,063	0,125
-404,511	-21,952	-0,031	0,014
-403,496	98,480	-0,072	-0,060
-402,482	800,000	0,007	0,018
-401,467	402,823	0,102	0,154
-400,452	-200,000	-0,004	-0,073
-399,438	69,031	-0,097	0,072
-398,423	13,592	0,109	0,061
-397,409	800,000	-0,014	-0,036
-396,394	800,000	0,063	-0,179
-395,379	194,892	0,050	0,055
-394,365	41,248	-0,075	-0,049
-393,350	92,199	0,136	0,110
-392,336	133,950	0,165	0,154
-391,321	129,130	-0,114	0,104
-390,306	-120,843	-0,100	0,012
-389,292	-200,000	-0,020	-0,102
-388,277	259,039	0,028	0,035
-387,263	-200,000	-0,004	0,034
-386,248	-141,526	0,095	0,007
-385,233	-145,384	0,100	0,006
-384,219	74,019	-0,059	-0,044
-383,204	-200,000	0,007	0,048
-382,190	800,000	-0,048	-0,104
-381,175	-200,000	0,017	-0,082
-380,160	9,258	0,082	0,044
-379,146	800,000	0,056	0,138
-378,131	-63,138	-0,063	0,018
-377,117	170,646	-0,073	-0,075
-376,102	-42,221	-0,125	0,046
-375,088	-200,000	-0,005	0,028
-374,073	300,621	0,067	-0,089
-373,058	-64,443	0,051	0,015
-372,044	-199,033	-0,052	0,000
-371,029	-200,000	-0,001	0,158
-370,015	95,575	-0,032	-0,026
-369,000	-200,000	-0,011	0,038
-367,985	475,060	-0,045	0,074
-366,971	224,792	0,064	-0,075
-365,956	14,915	-0,069	-0,039
-364,942	2,562	-0,087	0,045
-363,927	222,291	0,106	-0,123
-362,912	136,553	-0,056	0,052
-361,898	800,000	0,034	0,074
-360,883	191,761	0,116	-0,126
-359,869	-200,000	-0,001	0,078
-358,854	300,210	0,048	0,063
-357,839	-200,000	0,009	0,134
-356,825	100,343	-0,090	0,075
-355,810	172,466	0,097	0,100
-354,796	507,071	0,072	-0,119
-353,781	61,660	0,043	0,030
-352,766	-200,000	-0,013	0,052
-351,752	-81,629	0,131	-0,031
-350,737	-200,000	-0,027	0,099
-349,723	107,077	-0,046	0,039
-348,708	800,000	-0,030	0,064
-347,693	-200,000	-0,002	0,023
-346,679	-200,000	0,008	-0,098
-345,664	224,707	-0,069	-0,080
-344,650	119,364	0,037	0,033
-343,635	-200,000	-0,049	0,166
-342,620	-96,710	0,145	0,027
-341,606	-1,312	0,113	0,057
-340,591	100,742	0,116	-0,097
-339,577	800,000	0,018	0,054
-338,562	139,292	-0,033	-0,031
-337,548	-200,000	0,003	-0,034
-336,533	-8,838	0,042	0,020
-335,518	800,000	0,012	-0,026
-334,504	343,076	0,123	-0,174
-333,489	-200,000	-0,007	0,058
-332,475	-200,000	-0,023	-0,148
-331,460	-200,000	0,000	-0,032
-330,445	144,041	0,028	0,027
-329,431	800,000	-0,022	0,054
-328,416	-200,000	0,030	-0,110
-327,402	23,802	0,139	0,082
-326,387	302,027	-0,044	0,059
-325,372	342,505	-0,102	-0,144
-324,358	-200,000	-0,000	-0,104
-323,343	330,420	-0,021	0,029
-322,329	-200,000	0,042	0,185
-321,314	-135,046	-0,130	0,011
-320,299	-200,000	-0,003	0,092
-319,285	800,000	0,043	-0,105
-318,270	800,000	0,012	0,030
-317,256	-65,750	-0,179	-0,051
-316,241	-200,000	0,003	-0,028
-315,226	-101,339	0,027	0,005
-314,212	118,951	0,046	0,041
-313,197	262,069	0,072	0,090
-312,183	-200,000	0,003	0,022
-311,168	-200,000	-0,019	-0,143
-310,153	459,115	-0,065	-0,105
-309,139	-111,843	0,046	-0,007
-308,124	-74,484	0,062	0,016
-307,110	610,033	-0,062	-0,112
-306,095	-143,030	0,140	-0,010
-305,080	-46,024	0,150	-0,053
-304,066	108,067	-0,131	0,111
-303,051	-200,000	-0,023	-0,078
-302,037	64,734	0,051	-0,037
-301,022	-143,815	-0,021	0,001
-300,008	-126,735	0,159	0,017
-298,993	800,000	-0,076	0,164
-297,978	336,581	0,039	-0,054
-296,964	-124,637	-0,088	-0,010
-295,949	800,000	-0,003	-0,008
-294,935	800,000	-0,056	-0,166
-293,920	-200,000	-0,001	-0,149
-292,905	13,406	0,032	-0,018
-291,891	-200,000	-0,018	-0,075
-290,876	-107,267	-0,145	-0,023
-289,862	-200,000	0,003	0,177
-288,847	301,026	-0,039	-0,051
-287,832	211,727	-0,079	-0,089
-286,818	-4,001	0,016	0,008
-285,803	-200,000	-0,001	0,040
-284,789	584,517	0,056	0,099
-283,774	-13,747	0,110	0,051
-282,759	-200,000	0,001	0,167
-281,745	205,382	-0,065	0,072
-280,730	221,133	-0,087	-0,100
-279,716	-200,000	-0,010	-0,085
-278,701	-200,000	0,003	0,120
-277,686	326,764	0,135	0,186
-276,672	-200,000	0,004	0,109
-275,657	-200,000	0,024	-0,146
-274,643	551,401	-0,087	-0,149
-273,628	156,351	0,070	-0,069
-272,613	800,000	0,046	0,112
-271,599	-103,955	0,058	0,010
-270,584	607,240	0,035	-0,063
-269,570	-200,000	-0,044	0,207
-268,555	-118,106	-0,060	0,008
-267,540	60,873	-0,112	0,079
-266,526	672,906	0,053	0,099
-265,511	68,670	0,032	0,023
-264,497	-31,286	-0,021	-0,009
-263,482	141,418	-0,028	0,026
-262,467	57,430	0,062	-0,043
-261,453	-200,000	-0,015	-0,083
-260,438	-200,000	-0,008	0,142
-259,424	178,304	-0,058	-0,060
-258,409	800,000	0,011	-0,030
-257,395	-200,000	-0,030	-0,262
-256,380	-81,692	0,168	-0,039
-255,365	10,288	-0,081	-0,044
-254,351	-200,000	-0,001	-0,094
-253,336	392,319	-0,005	0,008
-252,322	-200,000	0,001	0,034
-251,307	-82,903	-0,046	-0,010
-250,292	-55,325	-0,087	0,028
-249,278	-103,901	0,012	0,002
-248,263	-149,172	0,057	0,003
-247,249	-31,853	0,043	0,017
-246,234	54,203	0,005	-0,004
-245,219	89,880	-0,044	0,035
-244,205	-200,000	0,018	-0,074
-243,190	-200,000	0,011	-0,117
-242,176	800,000	0,042	0,107
-241,161	358,159	-0,048	0,069
-240,146	-200,000	0,002	-0,048
-239,132	6,354	-0,102	-0,054
-238,117	251,769	-0,034	-0,041
-237,103	-10,973	-0,148	-0,069
-236,088	-200,000	-0,007	-0,127
-235,073	-200,000	0,009	0,146
-234,059	115,680	0,036	0,032
-233,044	-200,000	-0,023	0,096
-232,030	-87,529	-0,051	-0,011
-231,015	-95,086	-0,155	0,030
-230,000	-200,000	0,008	-0,089
-228,986	263,324	-0,066	0,083
-227,971	-104,146	0,101	-0,017
-226,957	36,517	-0,172	0,108
-225,942	3,265	0,061	-0,032
-224,927	-200,000	0,002	0,060
-223,913	-200,000	0,015	-0,110
-222,898	-200,000	0,035	-0,193
-221,884	-151,515	-0,070	0,004
-220,869	-116,532	0,144	0,019
-219,855	-140,712	0,057	-0,004
-218,840	-141,328	0,153	0,011
-217,825	-200,000	-0,066	0,234
-216,811	-51,859	-0,025	-0,008
-215,796	-38,239	0,103	-0,039
-214,782	-200,000	0,038	0,123
-213,767	-69,831	-0,053	-0,014
-212,752	-144,954	0,079	0,005
-211,738	800,000	0,001	-0,002
-210,723	43,918	-0,100	0,066
-209,709	188,598	-0,032	0,034
-208,694	318,420	0,035	0,048
-207,679	800,000	0,007	-0,020
-206,665	792,651	0,047	-0,092
-205,650	12,973	0,028	-0,015
-204,636	800,000	-0,018	-0,041
-203,621	-200,000	-0,014	-0,045
-202,606	-99,147	0,053	0,009
-201,592	-200,000	0,017	-0,120
-200,577	205,514	0,092	0,103
-199,563	-104,253	-0,130	0,021
-198,548	291,929	0,049	0,063
-197,533	-87,805	0,093	-0,020
-196,519	-54,328	-0,103	0,033
-195,504	-200,000	-0,008	0,043
-194,490	-200,000	-0,005	0,081
-193,475	-24,601	-0,168	-0,071
-192,460	-41,154	-0,136	-0,050
-191,446	800,000	-0,063	0,132
-190,431	-200,000	-0,019	-0,070
-189,417	96,775	0,085	0,069
-188,402	-138,099	-0,146	0,011
-187,387	7,000	-0,100	-0,053
-186,373	-200,000	-0,008	0,028
-185,358	390,689	0,080	0,118
-184,344	-200,000	-0,008	0,058
-183,329	800,000	0,015	0,039
-182,315	112,619	-0,099	0,085
-181,300	-59,041	0,062	-0,019
-180,285	75,440	-0,119	-0,090
-179,271	149,767	0,059	0,057
-178,256	70,389	0,084	0,062
-177,242	-103,602	-0,010	-0,002
-176,227	-183,743	0,154	0,002
-175,212	44,988	0,115	-0,075
-174,198	285,822	0,131	-0,169
-173,183	-200,000	-0,050	-0,175
-172,169	800,000	-0,076	-0,233
-171,154	56,721	-0,099	-0,069
-170,139	800,000	0,034	-0,068
-169,125	-85,807	0,062	0,013
-168,110	-104,643	0,082	0,013
-167,096	-174,633	-0,146	0,003
-166,081	-200,000	-0,009	0,073
-165,066	256,236	0,090	0,110
-164,052	-9,065	-0,098	0,046
-163,037	-25,574	0,079	-0,033
-162,023	222,378	0,103	0,118
-161,008	286,541	-0,009	-0,011
-159,993	800,000	-0,030	-0,071
-158,979	60,647	-0,094	-0,066
-157,964	-39,009	0,085	0,032
-156,950	-200,000	-0,016	0,060
-155,935	122,957	-0,094	-0,083
-154,920	800,000	0,024	-0,062
-153,906	738,008	0,021	0,040
-152,891	-118,444	-0,084	0,010
-151,877	-25,430	-0,088	-0,037
-150,862	71,952	-0,105	-0,078
-149,847	59,976	-0,101	-0,071
-148,833	-81,684	0,071	-0,017
-147,818	800,000	-0,033	0,097
-146,804	-87,617	-0,073	-0,016
-145,789	545,515	-0,074	0,127
-144,775	-200,000	-0,014	0,098
-143,760	-200,000	-0,011	0,097
-142,745	-108,703	-0,090	-0,014
-141,731	-62,687	0,037	0,011
-140,716	-20,049	-0,073	-0,032
-139,702	-58,862	-0,041	-0,012
-138,687	-200,000	0,007	-0,074
-137,672	48,049	-0,151	-0,100
-136,658	465,877	-0,087	-0,139
-135,643	449,510	-0,040	-0,063
-134,629	800,000	-0,054	-0,157
-133,614	101,156	-0,068	-0,057
-132,599	-200,000	0,009	-0,091
-131,585	-200,000	-0,001	0,053
-130,570	-200,000	-0,009	-0,145
-129,556	-74,898	-0,034	-0,009
-128,541	-200,000	0,027	-0,116
-127,526	800,000	-0,025	0,074
-126,512	-200,000	0,007	0,163
-125,497	-200,000	-0,008	0,038
-124,483	-73,417	-0,162	0,042
-123,468	-44,402	0,100	0,036
-122,453	99,627	-0,079	-0,065
-121,439	-200,000	0,019	-0,064
