DTS Sentinel unit serial number:	SN410029Multiplexer serial number:	ORYXHardware model number:	OX2-SRSoftware version number:	ORYX F/W v4,00 Oryx Data Collector v3.7.2.0data status	okinstallation	BH3 CH2differential loss correction	single-endedforward channel	channel 2reverse channel	N/Adate	2023/12/06time	04:47:28forward acquisition time	300,00reverse acquisition time	0,00gamma	499,1914k internal	0,3197k external	0,3197temperature offset calibration	1,0000default loss term (dB/km)	0,3820temperature slope calibration	1,0000multiplexer offset coefficient	1,0000multiplexer slope coefficient	1,0000fibre end	0,00T internal ref (°C)	8,93T ext. ref 1 (°C)	-5,71T ext. ref 2 (°C)	-5,80length (m)	temperature (°C)	Stokes	anti-Stokes-744,400	110,501	-0,079	-0,069
-743,385	-162,063	-0,165	-0,006
-742,371	-200,000	0,017	-0,095
-741,356	178,936	-0,152	0,162
-740,342	-85,008	0,123	0,028
-739,327	170,056	-0,249	0,259
-738,312	45,613	-0,094	0,063
-737,298	-117,710	-0,348	0,045
-736,283	130,761	0,062	0,058
-735,269	116,030	-0,161	0,143
-734,254	87,323	-0,029	0,023
-733,239	-167,118	-0,388	0,011
-732,225	-4,144	0,157	-0,079
-731,210	-80,084	0,090	0,022
-730,196	-200,000	-0,028	0,096
-729,181	28,578	-0,074	-0,045
-728,167	-62,398	-0,066	-0,020
-727,152	800,000	0,024	0,075
-726,137	-184,558	0,071	0,001
-725,123	-63,030	0,102	0,030
-724,108	-64,603	-0,028	-0,008
-723,094	-40,899	-0,129	-0,048
-722,079	4,984	-0,100	-0,053
-721,064	-200,000	0,018	-0,101
-720,050	-146,799	-0,067	0,004
-719,035	-60,908	-0,031	-0,009
-718,021	800,000	-0,060	-0,174
-717,006	-44,946	-0,095	-0,034
-715,991	-111,824	-0,086	-0,013
-714,977	-200,000	0,007	-0,043
-713,962	-117,598	-0,049	-0,006
-712,948	-140,164	0,082	-0,006
-711,933	-90,439	0,121	-0,025
-710,918	-200,000	-0,026	-0,165
-709,904	-7,491	-0,148	-0,072
-708,889	34,043	-0,153	-0,097
-707,875	520,451	0,067	-0,114
-706,860	126,768	-0,085	0,078
-705,845	-200,000	-0,033	-0,120
-704,831	-94,335	0,116	-0,023
-703,816	-200,000	0,011	-0,085
-702,802	-103,496	-0,157	-0,027
-701,787	-200,000	0,023	-0,101
-700,772	5,765	-0,136	-0,073
-699,758	83,497	0,099	-0,079
-698,743	-200,000	0,025	-0,174
-697,729	222,329	0,055	0,065
-696,714	155,095	-0,078	0,079
-695,699	282,457	-0,021	-0,027
-694,685	800,000	-0,049	-0,142
-693,670	-200,000	0,004	-0,133
-692,656	800,000	-0,035	0,080
-691,641	100,221	-0,115	-0,097
-690,627	-85,445	0,128	0,029
-689,612	-200,000	0,022	0,122
-688,597	800,000	-0,020	0,064
-687,583	127,106	-0,040	-0,037
-686,568	39,339	-0,154	-0,100
-685,554	498,259	-0,072	-0,120
-684,539	42,145	-0,024	0,016
-683,524	95,593	0,057	0,047
-682,510	-136,943	-0,039	-0,003
-681,495	-200,000	-0,007	-0,039
-680,481	-200,000	0,005	0,055
-679,466	94,023	-0,026	-0,022
-678,451	-77,637	0,117	-0,029
-677,437	-200,000	-0,007	0,073
-676,422	800,000	0,028	-0,061
-675,408	-105,450	-0,120	0,020
-674,393	71,190	-0,120	-0,091
-673,378	800,000	-0,032	-0,101
-672,364	54,443	-0,013	0,009
-671,349	526,739	0,034	0,058
-670,335	-81,506	-0,104	0,025
-669,320	-34,469	-0,050	0,020
-668,305	-46,305	0,067	-0,024
-667,291	47,782	-0,149	0,101
-666,276	-200,000	-0,014	-0,095
-665,262	-117,183	-0,117	-0,015
-664,247	-89,430	-0,026	-0,005
-663,232	223,809	0,107	-0,125
-662,218	-97,152	0,063	0,012
-661,203	551,984	-0,026	0,045
-660,189	91,962	-0,082	-0,067
-659,174	-200,000	-0,036	-0,191
-658,159	-200,000	0,027	-0,104
-657,145	365,696	-0,051	0,075
-656,130	-96,577	-0,150	0,028
-655,116	541,775	-0,075	0,131
-654,101	-200,000	-0,017	-0,079
-653,086	108,920	0,108	0,094
-652,072	-56,705	-0,212	-0,068
-651,057	15,312	-0,100	0,057
-650,043	74,234	-0,018	-0,013
-649,028	-74,251	-0,059	-0,015
-648,014	800,000	-0,068	0,140
-646,999	-200,000	0,007	0,033
-645,984	-200,000	0,003	0,011
-644,970	800,000	-0,039	-0,103
-643,955	-200,000	0,020	-0,109
-642,941	-200,000	-0,055	-0,187
-641,926	20,141	0,123	-0,072
-640,911	-200,000	-0,002	0,131
-639,897	-200,000	-0,001	0,151
-638,882	-130,295	0,078	0,008
-637,868	-21,824	-0,042	0,019
-636,853	-200,000	-0,002	-0,070
-635,838	113,044	-0,063	-0,056
-634,824	51,733	0,062	-0,042
-633,809	-73,395	0,038	-0,010
-632,795	-151,269	0,232	-0,012
-631,780	45,685	-0,144	0,096
-630,765	182,134	-0,060	-0,064
-629,751	-29,491	0,091	-0,038
-628,736	-200,000	0,000	0,033
-627,722	15,348	0,090	-0,051
-626,707	-89,540	-0,076	-0,016
-625,692	205,398	-0,051	-0,058
-624,678	-68,307	0,170	-0,048
-623,663	800,000	-0,027	-0,064
-622,649	-200,000	0,015	0,120
-621,634	-6,621	-0,173	0,085
-620,619	800,000	0,027	-0,076
-619,605	-200,000	-0,010	0,093
-618,590	510,304	-0,069	0,116
-617,576	-121,377	0,060	-0,007
-616,561	-170,485	-0,085	0,002
-615,546	800,000	-0,025	0,067
-614,532	-200,000	0,028	-0,141
-613,517	-200,000	0,044	0,149
-612,503	81,457	0,104	0,081
-611,488	-118,310	-0,080	0,010
-610,474	-119,886	-0,019	0,002
-609,459	752,806	0,009	0,018
-608,444	387,713	-0,028	-0,041
-607,430	800,000	-0,045	-0,115
-606,415	-200,000	-0,015	-0,110
-605,401	-200,000	0,025	0,083
-604,386	-200,000	-0,005	0,157
-603,371	-115,223	0,058	0,008
-602,357	-73,626	0,122	-0,032
-601,342	515,906	-0,058	-0,098
-600,328	284,940	0,053	-0,070
-599,313	-2,465	0,071	0,036
-598,298	-200,000	0,043	0,140
-597,284	-200,000	-0,013	0,086
-596,269	99,212	-0,066	0,055
-595,255	-70,994	0,122	-0,033
-594,240	-24,994	-0,148	0,063
-593,225	-200,000	-0,052	-0,188
-592,211	-107,408	0,125	-0,020
-591,196	292,922	-0,054	-0,072
-590,182	-82,506	0,029	0,007
-589,167	-51,931	0,071	0,024
-588,152	386,020	0,021	-0,031
-587,138	140,708	-0,084	0,080
-586,123	-200,000	-0,010	-0,182
-585,109	109,834	-0,049	-0,043
-584,094	-71,566	-0,157	-0,042
-583,079	-120,112	0,117	0,014
-582,065	174,988	-0,065	-0,068
-581,050	11,849	0,070	0,039
-580,036	-200,000	-0,003	0,114
-579,021	157,702	-0,126	0,126
-578,006	-200,000	-0,018	-0,105
-576,992	62,262	-0,079	-0,057
-575,977	104,332	0,013	-0,011
-574,963	37,679	-0,116	-0,074
-573,948	40,263	0,023	0,015
-572,934	210,503	0,032	-0,036
-571,919	-200,000	-0,005	-0,105
-570,904	53,742	0,078	-0,054
-569,890	-200,000	0,001	-0,111
-568,875	0,712	0,096	0,050
-567,861	-127,621	-0,062	0,006
-566,846	-38,789	0,071	0,027
-565,831	-108,390	0,056	-0,009
-564,817	362,892	0,038	-0,055
-563,802	148,419	-0,064	-0,063
-562,788	456,343	-0,080	-0,129
-561,773	-59,506	0,041	-0,013
-560,758	75,480	-0,070	-0,053
-559,744	-200,000	-0,013	0,056
-558,729	-87,178	-0,014	0,003
-557,715	349,710	-0,063	0,090
-556,700	800,000	-0,015	-0,031
-555,685	800,000	-0,014	-0,039
-554,671	80,332	0,132	-0,103
-553,656	363,605	-0,057	-0,084
-552,642	-17,782	-0,024	0,011
-551,627	-200,000	-0,001	0,053
-550,612	800,000	-0,045	-0,104
-549,598	-200,000	0,001	0,053
-548,583	416,403	-0,045	-0,069
-547,569	-125,674	-0,139	0,015
-546,554	-200,000	0,042	0,187
-545,539	269,995	0,053	0,067
-544,525	-200,000	0,026	-0,092
-543,510	-200,000	-0,011	0,047
-542,496	-76,712	-0,134	-0,034
-541,481	-4,762	-0,068	-0,034
-540,466	-200,000	-0,014	-0,196
-539,452	54,234	-0,055	0,038
-538,437	1,348	-0,061	-0,031
-537,423	-200,000	-0,001	-0,010
-536,408	-200,000	0,013	-0,135
-535,393	345,721	0,036	-0,052
-534,379	-200,000	-0,015	-0,056
-533,364	-156,679	-0,070	0,003
-532,350	220,882	0,046	0,054
-531,335	-37,755	-0,125	0,048
-530,321	157,492	0,055	0,055
-529,306	800,000	0,029	0,094
-528,291	233,933	0,057	0,068
-527,277	-145,363	0,038	-0,002
-526,262	-200,000	0,024	-0,095
-525,248	-97,822	-0,119	-0,022
-524,233	-25,368	0,119	0,051
-523,218	171,424	0,046	-0,047
-522,204	14,246	0,081	0,045
-521,189	800,000	0,026	-0,077
-520,175	104,867	-0,096	-0,082
-519,160	192,701	0,057	-0,063
-518,145	635,516	0,029	-0,054
-517,131	-200,000	0,014	0,192
-516,116	169,912	0,082	-0,084
-515,102	296,807	-0,014	-0,019
-514,087	311,665	-0,083	-0,113
-513,072	-74,406	-0,144	0,037
-512,058	351,461	-0,101	-0,145
-511,043	217,204	0,014	-0,016
-510,029	63,714	0,090	-0,065
-509,014	549,111	-0,068	-0,118
-507,999	-200,000	-0,007	-0,041
-506,985	127,260	-0,103	-0,095
-505,970	123,951	-0,115	-0,104
-504,956	-200,000	0,000	0,011
-503,941	-108,748	-0,056	-0,009
-502,926	-89,325	0,044	0,009
-501,912	87,776	0,123	0,098
-500,897	-200,000	0,049	0,198
-499,883	-14,142	-0,111	-0,052
-498,868	160,175	-0,056	-0,056
-497,853	-200,000	-0,007	0,088
-496,839	-41,475	-0,100	-0,037
-495,824	67,512	0,146	0,107
-494,810	800,000	0,020	0,041
-493,795	-200,000	0,001	-0,011
-492,781	-181,294	0,027	-0,000
-491,766	800,000	0,013	0,033
-490,751	-200,000	0,004	0,018
-489,737	92,452	0,089	-0,072
-488,722	13,045	-0,050	0,028
-487,708	-200,000	0,008	0,103
-486,693	-200,000	0,003	0,043
-485,678	290,672	0,076	0,099
-484,664	340,958	-0,022	-0,031
-483,649	168,262	-0,057	0,058
-482,635	182,018	0,047	-0,050
-481,620	22,592	-0,046	-0,027
-480,605	-200,000	0,008	0,039
-479,591	-200,000	-0,000	0,012
-478,576	-200,000	-0,027	-0,122
-477,562	-47,984	-0,078	0,027
-476,547	284,682	-0,058	-0,075
-475,532	70,495	0,063	0,047
-474,518	19,915	0,185	-0,107
-473,503	177,402	-0,010	-0,011
-472,489	-71,134	0,167	0,045
-471,474	76,620	-0,126	-0,096
-470,459	427,463	0,098	-0,152
-469,445	-200,000	-0,015	-0,095
-468,430	295,909	0,078	0,103
-467,416	-106,736	0,094	-0,015
-466,401	-62,717	0,094	-0,028
-465,386	-96,283	0,071	0,014
-464,372	-200,000	-0,022	0,124
-463,357	-200,000	-0,015	0,120
-462,343	-200,000	0,009	-0,035
-461,328	97,019	-0,092	-0,076
-460,313	800,000	0,013	-0,029
-459,299	265,371	-0,010	0,012
-458,284	-93,149	0,025	-0,005
-457,270	800,000	0,058	-0,141
-456,255	169,017	-0,025	0,025
-455,241	451,647	-0,084	0,134
-454,226	290,046	0,050	-0,065
-453,211	800,000	0,027	0,056
-452,197	-200,000	0,031	-0,114
-451,182	672,078	0,043	0,080
-450,168	800,000	0,027	0,058
-449,153	417,282	0,077	0,119
-448,138	70,229	-0,111	0,083
-447,124	800,000	-0,051	-0,127
-446,109	289,714	-0,076	-0,100
-445,095	-39,459	0,057	-0,021
-444,080	-200,000	0,003	0,072
-443,065	-11,034	0,078	0,037
-442,051	-200,000	-0,020	0,127
-441,036	-200,000	0,003	-0,059
-440,022	633,647	0,036	0,066
-439,007	-200,000	-0,017	-0,110
-437,992	150,620	0,060	0,059
-436,978	-200,000	-0,009	-0,098
-435,963	800,000	0,027	-0,057
-434,949	751,346	-0,048	0,094
-433,934	-74,369	-0,016	-0,004
-432,919	-22,370	-0,094	0,041
-431,905	-26,725	0,108	0,045
-430,890	-14,001	0,102	0,047
-429,876	184,609	0,073	-0,078
-428,861	82,753	-0,033	0,026
-427,846	-200,000	-0,016	0,102
-426,832	-200,000	0,020	-0,125
-425,817	22,868	0,028	-0,016
-424,803	-130,751	-0,100	0,010
-423,788	-174,510	0,110	0,002
-422,773	564,954	-0,028	0,048
-421,759	-200,000	0,004	0,028
-420,744	415,900	-0,061	0,094
-419,730	-107,682	-0,049	-0,008
-418,715	-124,514	-0,057	0,006
-417,701	800,000	0,065	-0,144
-416,686	162,131	-0,037	-0,038
-415,671	800,000	0,022	-0,053
-414,657	800,000	0,055	0,135
-413,642	800,000	-0,014	0,039
-412,628	-106,373	-0,088	-0,014
-411,613	-200,000	-0,003	-0,056
-410,598	800,000	0,024	0,052
-409,584	-200,000	0,010	-0,187
-408,569	800,000	-0,021	0,067
-407,555	135,146	-0,126	0,118
-406,540	-17,899	0,148	0,067
-405,525	-71,956	-0,069	-0,018
-404,511	-76,694	-0,143	0,036
-403,496	-22,826	-0,044	0,019
-402,482	-200,000	0,007	0,025
-401,467	800,000	0,039	0,097
-400,452	118,021	0,067	0,059
-399,438	-200,000	0,001	0,104
-398,423	-200,000	-0,008	0,043
-397,409	383,912	-0,085	-0,126
-396,394	-12,875	-0,035	-0,016
-395,379	173,133	-0,025	0,026
-394,365	95,760	0,135	0,110
-393,350	-148,654	-0,168	0,010
-392,336	-104,752	0,131	-0,021
-391,321	82,365	0,082	0,064
-390,306	-200,000	-0,013	-0,071
-389,292	-162,990	0,087	0,003
-388,277	374,621	0,021	-0,030
-387,263	-64,313	0,136	0,039
-386,248	319,996	0,036	0,050
-385,233	-93,607	0,108	0,021
-384,219	54,128	-0,057	0,040
-383,204	-200,000	0,003	0,021
-382,190	378,628	0,042	-0,062
-381,175	-143,401	-0,114	-0,008
-380,160	210,574	-0,006	-0,006
-379,146	124,051	0,050	-0,045
-378,131	800,000	-0,027	0,056
-377,117	13,329	0,056	-0,031
-376,102	800,000	-0,035	0,072
-375,088	174,027	-0,029	-0,030
-374,073	359,547	0,058	-0,083
-373,058	-200,000	-0,007	0,046
-372,044	143,591	0,106	0,102
-371,029	647,884	-0,058	0,107
-370,015	-200,000	0,026	0,114
-369,000	64,756	-0,106	-0,077
-367,985	84,092	0,106	-0,083
-366,971	-200,000	-0,006	0,029
-365,956	-200,000	-0,001	0,117
-364,942	91,331	-0,059	-0,048
-363,927	131,478	-0,064	-0,059
-362,912	800,000	0,004	-0,010
-361,898	37,646	-0,116	-0,074
-360,883	173,119	-0,041	0,043
-359,869	100,229	-0,102	0,085
-358,854	-200,000	-0,010	0,059
-357,839	165,794	0,063	0,064
-356,825	-79,232	0,025	-0,006
-355,810	-200,000	-0,002	0,110
-354,796	29,127	-0,114	0,069
-353,781	327,305	-0,092	0,127
-352,766	622,278	-0,043	0,078
-351,752	5,971	0,129	-0,069
-350,737	-41,597	-0,124	-0,046
-349,723	513,022	0,010	-0,018
-348,708	670,176	0,057	0,106
-347,693	-135,736	-0,018	-0,001
-346,679	105,179	-0,114	-0,097
-345,664	-200,000	0,005	-0,046
-344,650	309,423	0,016	0,021
-343,635	290,686	0,062	-0,081
-342,620	-23,046	0,078	0,033
-341,606	-58,657	-0,115	-0,036
-340,591	-200,000	0,007	0,074
-339,577	486,480	-0,047	-0,077
-338,562	-9,986	-0,112	-0,053
-337,548	-141,370	-0,064	0,005
-336,533	-37,747	0,062	-0,023
-335,518	40,200	-0,100	0,065
-334,504	40,960	0,015	0,010
-333,489	79,745	-0,028	-0,021
-332,475	203,842	-0,044	0,049
-331,460	-18,769	-0,157	-0,070
-330,445	81,696	0,060	-0,047
-329,431	-36,655	-0,037	-0,014
-328,416	-200,000	0,045	0,145
-327,402	-32,356	-0,122	0,049
-326,387	108,537	0,048	-0,041
-325,372	320,615	0,054	-0,073
-324,358	613,371	0,011	0,021
-323,343	-32,618	0,014	-0,006
-322,329	800,000	-0,026	0,072
-321,314	-129,859	0,209	-0,020
-320,299	-38,652	0,099	0,037
-319,285	-39,698	0,038	0,014
-318,270	220,753	-0,115	-0,133
-317,256	800,000	0,022	-0,068
-316,241	-61,607	-0,176	0,052
-315,226	-200,000	-0,011	0,071
-314,212	101,076	-0,018	0,015
-313,197	-119,998	0,085	-0,010
-312,183	-200,000	-0,004	-0,022
-311,168	-200,000	-0,016	-0,093
-310,153	372,511	0,057	-0,084
-309,139	297,464	0,097	0,127
-308,124	245,223	-0,055	0,066
-307,110	800,000	0,076	0,181
-306,095	-200,000	-0,022	0,171
-305,080	-200,000	-0,011	0,056
-304,066	157,933	-0,099	-0,099
-303,051	128,006	0,041	0,037
-302,037	185,952	-0,100	-0,106
-301,022	-200,000	-0,002	0,074
-300,008	1,500	-0,015	-0,008
-298,993	-75,006	0,014	-0,003
-297,978	118,725	-0,049	-0,043
-296,964	-102,594	-0,044	0,007
-295,949	-99,013	0,084	-0,015
-294,935	800,000	-0,070	0,154
-293,920	174,210	-0,048	0,049
-292,905	-65,962	0,048	0,014
-291,891	-200,000	0,064	0,242
-290,876	-200,000	-0,010	0,073
-289,862	10,191	0,126	-0,068
-288,847	133,098	-0,014	0,013
-287,832	-72,902	-0,142	-0,037
-286,818	-21,549	0,036	0,016
-285,803	189,937	0,021	0,023
-284,789	109,598	0,132	-0,113
-283,774	212,842	-0,024	0,027
-282,759	51,745	0,115	-0,078
-281,745	-27,135	-0,143	-0,059
-280,730	-200,000	-0,012	0,148
-279,716	-142,980	-0,067	0,005
-278,701	229,004	0,051	-0,060
-277,686	89,326	0,124	0,099
-276,672	-200,000	-0,056	0,195
-275,657	63,217	-0,035	0,025
-274,643	24,582	-0,082	-0,048
-273,628	15,348	0,099	-0,055
-272,613	342,538	-0,039	-0,054
-271,599	800,000	-0,050	-0,103
-270,584	-127,191	0,130	0,013
-269,570	127,687	0,061	-0,055
-268,555	-200,000	0,031	-0,120
-267,540	-109,486	0,122	-0,018
-266,526	800,000	0,023	-0,058
-265,511	-200,000	-0,002	-0,019
-264,497	-157,196	0,051	0,002
-263,482	-200,000	0,010	0,059
-262,467	94,532	0,013	-0,010
-261,453	-200,000	0,013	0,048
-260,438	-200,000	-0,020	-0,072
-259,424	-200,000	0,009	-0,111
-258,409	120,082	-0,128	0,113
-257,395	-57,148	0,067	-0,021
-256,380	-191,494	0,090	-0,001
-255,365	398,111	0,027	0,040
-254,351	-200,000	0,005	-0,051
-253,336	-108,052	0,140	0,021
-252,322	-200,000	0,011	-0,037
-251,307	-96,489	0,105	0,020
-250,292	149,584	0,047	0,045
-249,278	-119,800	0,161	0,020
-248,263	-105,440	0,100	0,016
-247,249	-200,000	-0,024	0,157
-246,234	-83,383	-0,074	-0,017
-245,219	-200,000	-0,002	0,124
-244,205	-118,386	-0,077	0,010
-243,190	-200,000	-0,027	0,145
-242,176	800,000	0,024	-0,076
-241,161	92,263	0,117	0,094
-240,146	239,495	-0,029	0,035
-239,132	151,243	0,137	0,133
-238,117	146,349	0,057	0,055
-237,103	-52,497	-0,155	0,051
-236,088	-94,254	0,103	-0,020
-235,073	183,328	0,106	-0,111
-234,059	-200,000	0,035	0,137
-233,044	36,994	-0,072	0,045
-232,030	-200,000	-0,032	0,138
-231,015	-200,000	0,005	0,112
-230,000	66,719	0,053	0,038
-228,986	-200,000	-0,006	-0,151
-227,971	800,000	0,092	0,192
-226,957	-133,278	0,100	0,009
-225,942	800,000	0,058	0,125
-224,927	-95,055	-0,175	-0,034
-223,913	-200,000	0,006	-0,043
-222,898	-200,000	0,002	-0,076
-221,884	-200,000	-0,004	-0,031
-220,869	94,941	0,048	-0,039
-219,855	282,771	0,025	0,032
-218,840	-200,000	0,023	0,130
-217,825	-200,000	-0,039	-0,137
-216,811	800,000	-0,044	-0,091
-215,796	-200,000	-0,002	-0,175
-214,782	748,911	-0,068	-0,132
-213,767	149,738	0,092	0,089
-212,752	-112,366	-0,057	0,008
-211,738	375,485	0,028	-0,041
-210,723	800,000	0,050	-0,103
-209,709	-17,115	-0,212	-0,095
-208,694	-7,354	0,052	-0,025
-207,679	101,797	0,118	0,098
-206,665	199,451	0,030	-0,033
-205,650	163,971	-0,042	-0,042
-204,636	-83,510	-0,068	-0,015
-203,621	105,491	-0,085	-0,072
-202,606	-59,535	0,187	-0,057
-201,592	-57,486	-0,154	-0,048
-200,577	47,368	0,153	-0,102
-199,563	92,564	-0,162	-0,130
-198,548	15,349	0,114	0,064
-197,533	800,000	-0,042	0,109
-196,519	800,000	0,048	0,099
-195,504	137,076	-0,140	-0,130
-194,490	141,587	-0,062	-0,058
-193,475	-54,321	0,041	-0,013
-192,460	48,985	-0,050	-0,033
-191,446	519,445	-0,026	0,044
-190,431	-200,000	0,014	0,090
-189,417	-51,346	-0,121	-0,040
-188,402	800,000	0,017	-0,050
-187,387	17,650	0,062	0,035
-186,373	800,000	-0,032	-0,072
-185,358	527,896	-0,035	-0,059
-184,344	-200,000	0,014	-0,090
-183,329	453,796	0,008	0,013
-182,315	800,000	0,029	0,061
-181,300	-200,000	0,003	-0,174
-180,285	-120,088	-0,109	-0,013
-179,271	741,270	-0,067	-0,129
-178,256	-200,000	0,010	0,053
-177,242	-200,000	0,019	0,085
-176,227	-200,000	-0,012	0,092
-175,212	381,367	0,048	0,070
-174,198	-86,055	0,129	-0,028
-173,183	-200,000	0,016	0,096
-172,169	-192,757	-0,195	-0,001
-171,154	185,255	-0,046	-0,049
-170,139	-200,000	-0,005	-0,027
-169,125	-200,000	-0,013	0,056
-168,110	-45,082	-0,078	-0,028
-167,096	157,304	0,009	-0,009
-166,081	-200,000	0,017	-0,193
-165,066	-200,000	-0,059	-0,220
-164,052	-61,658	-0,135	0,040
-163,037	-154,860	0,061	0,003
-162,023	328,157	0,026	0,035
-161,008	-133,815	-0,122	-0,011
-159,993	800,000	0,022	-0,049
-158,979	187,027	0,063	0,067
-157,964	-200,000	-0,014	0,114
-156,950	-200,000	0,008	-0,052
-155,935	-2,176	-0,078	0,039
-154,920	196,387	0,041	0,044
-153,906	-118,606	0,078	0,010
-152,891	-200,000	0,006	-0,056
-151,877	19,392	-0,060	-0,034
-150,862	-101,819	0,083	-0,014
-149,847	-34,027	-0,005	-0,002
-148,833	44,971	0,115	0,075
-147,818	-200,000	0,001	0,126
-146,804	-106,304	-0,122	-0,019
-145,789	-27,489	-0,129	0,053
-144,775	800,000	-0,026	0,081
-143,760	800,000	0,048	-0,108
-142,745	-147,499	0,016	-0,001
-141,731	-200,000	0,029	-0,148
-140,716	800,000	0,066	-0,133
-139,702	-200,000	0,012	0,105
-138,687	-99,555	-0,096	0,017
-137,672	124,850	0,047	0,042
-136,658	-200,000	-0,005	-0,038
-135,643	93,274	-0,068	0,054
-134,629	-200,000	0,002	0,091
-133,614	190,430	0,128	-0,137
-132,599	800,000	0,036	-0,083
-131,585	-63,054	-0,108	-0,031
-130,570	-85,949	0,100	0,022
-129,556	211,558	0,052	-0,059
-128,541	-91,252	-0,147	-0,030
-127,526	-200,000	0,010	-0,047
-126,512	-151,218	-0,097	0,005
-125,497	17,260	0,085	-0,048
-124,483	411,909	0,024	0,036
-123,468	-40,964	0,070	-0,026
-122,453	-72,388	0,075	0,020
-121,439	-65,367	-0,099	0,028
-120,424	171,510	0,086	-0,088
