DTS Sentinel unit serial number:	SN410029Multiplexer serial number:	ORYXHardware model number:	OX2-SRSoftware version number:	ORYX F/W v4,00 Oryx Data Collector v3.7.2.0data status	okinstallation	BH3 CH2differential loss correction	single-endedforward channel	channel 2reverse channel	N/Adate	2023/12/06time	00:07:28forward acquisition time	300,00reverse acquisition time	0,00gamma	499,1914k internal	0,3195k external	0,3195temperature offset calibration	1,0000default loss term (dB/km)	0,3820temperature slope calibration	1,0000multiplexer offset coefficient	1,0000multiplexer slope coefficient	1,0000fibre end	0,00T internal ref (°C)	9,44T ext. ref 1 (°C)	-5,31T ext. ref 2 (°C)	-5,39length (m)	temperature (°C)	Stokes	anti-Stokes-744,400	55,384	-0,066	-0,046
-743,385	-42,545	-0,118	0,044
-742,371	800,000	0,043	-0,119
-741,356	37,932	-0,174	0,113
-740,342	323,744	0,035	0,049
-739,327	-26,730	-0,157	0,066
-738,312	-87,264	-0,149	0,033
-737,298	-70,636	-0,218	0,060
-736,283	135,890	-0,099	-0,094
-735,269	-109,304	-0,136	0,021
-734,254	800,000	0,012	-0,033
-733,239	-88,903	-0,403	-0,086
-732,225	-140,751	0,131	-0,010
-731,210	-200,000	0,054	0,201
-730,196	85,099	0,045	-0,036
-729,181	-47,645	-0,066	-0,023
-728,167	-51,555	0,123	-0,042
-727,152	47,388	-0,070	-0,048
-726,137	-16,000	-0,116	0,053
-725,123	-91,970	-0,125	-0,026
-724,108	-79,152	-0,094	0,023
-723,094	-97,793	0,062	0,012
-722,079	-82,462	-0,085	0,020
-721,064	312,715	0,077	-0,105
-720,050	172,353	0,045	0,047
-719,035	-166,579	-0,099	-0,003
-718,021	-200,000	-0,042	-0,189
-717,006	-137,598	-0,107	0,009
-715,991	-63,139	-0,144	-0,043
-714,977	-195,028	-0,016	0,000
-713,962	79,727	-0,099	-0,078
-712,948	-58,857	0,070	-0,022
-711,933	-200,000	-0,066	0,000
-710,918	260,855	-0,049	-0,062
-709,904	-172,564	-0,086	-0,002
-708,889	-200,000	-0,006	-0,081
-707,875	38,015	-0,101	-0,065
-706,860	800,000	0,032	0,093
-705,845	-65,480	-0,007	-0,002
-704,831	-200,000	0,026	-0,120
-703,816	203,400	0,030	-0,033
-702,802	355,994	0,066	-0,095
-701,787	431,255	0,022	-0,034
-700,772	-51,881	-0,118	-0,040
-699,758	39,831	-0,068	0,044
-698,743	-200,000	-0,012	0,055
-697,729	-133,011	0,110	-0,010
-696,714	690,803	0,039	0,075
-695,699	-200,000	-0,016	-0,109
-694,685	800,000	0,055	-0,166
-693,670	-200,000	0,003	-0,083
-692,656	161,475	-0,005	-0,005
-691,641	-200,000	-0,043	0,164
-690,627	29,704	-0,017	-0,010
-689,612	-200,000	0,001	0,100
-688,597	212,504	-0,093	-0,107
-687,583	49,267	-0,179	-0,122
-686,568	-200,000	0,003	0,055
-685,554	-16,800	-0,109	-0,050
-684,539	35,761	0,115	-0,073
-683,524	-200,000	-0,028	0,148
-682,510	800,000	0,018	-0,038
-681,495	-130,726	0,136	0,013
-680,481	-200,000	-0,032	-0,124
-679,466	-200,000	-0,033	0,113
-678,451	346,726	-0,023	0,032
-677,437	-200,000	-0,016	-0,057
-676,422	-200,000	-0,003	0,044
-675,408	107,425	0,103	0,089
-674,393	-200,000	0,001	-0,015
-673,378	-200,000	0,031	-0,181
-672,364	-105,934	-0,111	-0,018
-671,349	-59,898	0,078	-0,024
-670,335	-200,000	0,031	0,154
-669,320	23,990	-0,080	0,048
-668,305	-200,000	0,008	-0,093
-667,291	-108,863	-0,163	-0,025
-666,276	-125,998	-0,026	0,003
-665,262	-200,000	0,012	-0,074
-664,247	-200,000	-0,020	-0,076
-663,232	-89,309	-0,044	-0,009
-662,218	82,064	-0,071	-0,056
-661,203	-39,129	-0,083	0,032
-660,189	126,740	-0,076	0,070
-659,174	8,319	-0,055	-0,030
-658,159	-84,448	-0,071	0,016
-657,145	-43,262	-0,055	-0,020
-656,130	-120,296	0,042	-0,005
-655,116	-200,000	-0,012	-0,049
-654,101	800,000	-0,086	0,200
-653,086	324,290	-0,044	0,061
-652,072	-200,000	-0,018	-0,109
-651,057	0,870	-0,045	0,023
-650,043	-200,000	0,026	0,166
-649,028	-200,000	-0,016	0,065
-648,014	-142,493	-0,070	0,005
-646,999	239,654	0,032	0,039
-645,984	279,701	-0,063	0,082
-644,970	627,496	-0,019	-0,036
-643,955	91,105	-0,114	-0,093
-642,941	800,000	-0,067	-0,141
-641,926	-127,733	0,060	-0,006
-640,911	359,750	0,050	0,072
-639,897	426,832	-0,040	0,063
-638,882	-148,397	-0,037	-0,002
-637,868	-53,188	0,116	-0,039
-636,853	-111,642	-0,069	0,010
-635,838	182,685	-0,127	-0,136
-634,824	800,000	-0,062	-0,182
-633,809	-122,553	0,038	0,004
-632,795	-200,000	0,022	0,106
-631,780	-142,669	0,087	-0,006
-630,765	-34,250	-0,113	0,045
-629,751	12,389	0,140	-0,078
-628,736	800,000	-0,079	-0,226
-627,722	800,000	-0,035	-0,082
-626,707	-92,434	-0,141	0,029
-625,692	800,000	0,032	0,076
-624,678	-50,715	0,081	-0,027
-623,663	-200,000	0,013	-0,064
-622,649	763,882	0,032	0,063
-621,634	57,301	-0,080	0,057
-620,619	-200,000	0,023	-0,110
-619,605	-92,359	0,095	0,019
-618,590	-55,075	0,111	-0,036
-617,576	-24,126	0,046	0,020
-616,561	-200,000	-0,005	-0,031
-615,546	401,156	-0,067	-0,103
-614,532	43,328	-0,066	0,044
-613,517	92,067	0,141	-0,115
-612,503	31,859	0,060	-0,037
-611,488	-200,000	0,015	-0,097
-610,474	350,344	0,057	0,082
-609,459	15,826	0,070	-0,040
-608,444	766,876	-0,003	0,006
-607,430	245,753	-0,043	-0,052
-606,415	-200,000	-0,001	-0,034
-605,401	338,292	-0,058	-0,083
-604,386	89,177	0,120	0,097
-603,371	-38,475	0,051	0,019
-602,357	124,021	-0,065	-0,059
-601,342	-200,000	0,010	-0,098
-600,328	346,568	-0,036	-0,051
-599,313	-119,325	0,042	-0,005
-598,298	-133,913	-0,149	0,013
-597,284	21,274	-0,086	-0,051
-596,269	1,601	0,098	0,051
-595,255	-31,267	-0,079	-0,032
-594,240	49,308	-0,079	0,054
-593,225	17,913	0,081	0,047
-592,211	-121,123	0,020	-0,002
-591,196	786,944	0,015	0,030
-590,182	321,278	0,075	0,104
-589,167	113,111	0,080	0,070
-588,152	267,466	0,030	0,038
-587,138	36,948	0,102	0,065
-586,123	256,861	-0,037	0,047
-585,109	38,636	-0,082	-0,053
-584,094	-99,719	0,072	0,013
-583,079	800,000	0,068	0,148
-582,065	-200,000	-0,002	0,020
-581,050	5,875	0,122	0,065
-580,036	-24,753	-0,056	-0,024
-579,021	-200,000	0,007	0,079
-578,006	-151,212	-0,022	-0,001
-576,992	-15,342	-0,081	0,037
-575,977	310,387	-0,027	-0,036
-574,963	-48,997	0,076	0,026
-573,948	-200,000	-0,007	-0,044
-572,934	558,188	-0,002	-0,003
-571,919	147,350	-0,158	-0,154
-570,904	-200,000	-0,002	0,008
-569,890	-200,000	-0,002	-0,042
-568,875	800,000	-0,030	-0,077
-567,861	-200,000	-0,010	-0,034
-566,846	-66,512	-0,155	-0,044
-565,831	72,594	0,029	-0,022
-564,817	-82,080	-0,041	0,010
-563,802	-53,737	-0,057	-0,019
-562,788	-158,159	-0,182	-0,008
-561,773	800,000	0,022	0,055
-560,758	-46,985	0,100	0,035
-559,744	141,946	0,080	0,077
-558,729	-200,000	-0,017	0,090
-557,715	-39,610	-0,116	-0,044
-556,700	800,000	-0,051	-0,116
-555,685	-104,333	-0,092	0,015
-554,671	-200,000	0,008	-0,060
-553,656	-116,055	-0,032	0,004
-552,642	-33,238	0,110	0,044
-551,627	-200,000	-0,008	-0,035
-550,612	-52,288	-0,132	0,044
-549,598	-3,083	-0,100	-0,050
-548,583	-200,000	-0,012	-0,078
-547,569	-200,000	0,002	-0,032
-546,554	356,531	-0,120	0,173
-545,539	138,007	0,025	-0,024
-544,525	-64,113	0,096	0,028
-543,510	215,722	-0,109	0,125
-542,496	272,301	-0,090	-0,116
-541,481	-200,000	-0,005	0,115
-540,466	161,842	0,030	-0,030
-539,452	-161,180	0,164	-0,006
-538,437	-152,890	0,161	0,008
-537,423	-186,891	0,111	0,001
-536,408	45,863	0,125	0,084
-535,393	-200,000	-0,005	-0,102
-534,379	800,000	0,062	-0,137
-533,364	552,306	-0,071	0,124
-532,350	272,476	0,036	-0,046
-531,335	-112,932	0,111	0,016
-530,321	-62,966	-0,076	-0,023
-529,306	-200,000	0,001	-0,098
-528,291	118,649	0,073	-0,065
-527,277	-16,971	0,068	0,031
-526,262	103,094	0,151	-0,128
-525,248	-200,000	0,017	-0,131
-524,233	-200,000	0,006	0,115
-523,218	226,422	0,043	0,050
-522,204	348,609	-0,038	-0,054
-521,189	523,277	-0,029	-0,049
-520,175	417,969	-0,018	-0,028
-519,160	366,862	0,060	-0,088
-518,145	4,085	-0,091	0,048
-517,131	627,068	0,071	0,129
-516,116	-152,540	0,079	-0,004
-515,102	244,673	0,004	0,005
-514,087	-200,000	-0,031	-0,122
-513,072	-200,000	-0,004	-0,109
-512,058	-14,442	-0,080	-0,037
-511,043	96,926	-0,023	0,019
-510,029	800,000	-0,028	0,078
-509,014	-200,000	-0,010	0,061
-507,999	-200,000	0,001	0,106
-506,985	-22,495	-0,054	-0,023
-505,970	-91,928	-0,043	-0,009
-504,956	436,486	0,021	0,034
-503,941	-200,000	0,010	0,184
-502,926	204,545	0,071	0,080
-501,912	-200,000	-0,031	0,196
-500,897	-200,000	0,014	-0,057
-499,883	-35,724	0,160	0,062
-498,868	-29,117	0,087	-0,036
-497,853	367,557	0,052	-0,075
-496,839	800,000	-0,035	-0,103
-495,824	41,248	-0,096	0,062
-494,810	222,472	0,065	0,075
-493,795	16,895	-0,092	0,053
-492,781	-133,156	0,030	-0,003
-491,766	2,836	0,030	0,015
-490,751	268,935	-0,077	-0,098
-489,737	522,351	-0,012	-0,021
-488,722	-114,979	0,174	0,024
-487,708	203,794	0,044	0,049
-486,693	38,573	0,170	0,109
-485,678	-136,674	-0,139	0,011
-484,664	50,376	-0,125	0,085
-483,649	662,328	-0,057	-0,107
-482,635	-73,523	0,153	-0,040
-481,620	159,410	-0,065	0,065
-480,605	144,800	0,064	-0,062
-479,591	353,981	-0,097	-0,140
-478,576	62,533	-0,020	-0,014
-477,562	406,779	-0,047	-0,072
-476,547	-200,000	0,002	0,033
-475,532	800,000	-0,010	-0,023
-474,518	-200,000	0,014	0,058
-473,503	95,054	0,076	0,062
-472,489	-200,000	0,038	0,129
-471,474	800,000	-0,067	-0,145
-470,459	383,251	-0,058	0,086
-469,445	-97,140	-0,096	0,018
-468,430	-107,150	0,041	-0,006
-467,416	-200,000	-0,019	0,089
-466,401	15,526	0,100	0,057
-465,386	28,885	-0,096	0,059
-464,372	-128,903	0,094	-0,009
-463,357	210,154	0,062	-0,070
-462,343	71,173	-0,164	-0,123
-461,328	-200,000	-0,006	0,059
-460,313	-200,000	-0,003	0,063
-459,299	-200,000	0,029	0,093
-458,284	-200,000	0,029	-0,157
-457,270	-200,000	-0,018	0,093
-456,255	-106,584	-0,091	0,014
-455,241	-152,859	-0,011	-0,001
-454,226	800,000	0,048	0,098
-453,211	800,000	0,056	0,161
-452,197	-200,000	0,003	-0,024
-451,182	-200,000	0,013	0,092
-450,168	377,118	0,059	0,088
-449,153	-115,219	-0,110	0,015
-448,138	-200,000	-0,033	-0,193
-447,124	189,327	-0,071	-0,077
-446,109	-33,626	-0,033	-0,013
-445,095	800,000	0,029	0,088
-444,080	-200,000	0,000	0,144
-443,065	-200,000	0,009	0,043
-442,051	-200,000	-0,020	-0,113
-441,036	-89,098	-0,044	0,009
-440,022	72,127	0,057	0,043
-439,007	-200,000	-0,015	0,063
-437,992	800,000	-0,016	0,038
-436,978	0,281	0,133	-0,068
-435,963	-200,000	-0,013	0,041
-434,949	280,145	-0,015	0,019
-433,934	-50,019	0,048	0,016
-432,919	-91,444	-0,131	-0,027
-431,905	-96,558	0,052	-0,010
-430,890	-140,094	0,158	0,012
-429,876	-76,719	0,090	0,023
-428,861	-200,000	0,000	0,004
-427,846	-157,788	-0,100	-0,004
-426,832	-200,000	-0,006	-0,111
-425,817	40,098	-0,030	0,019
-424,803	233,802	0,099	-0,118
-423,788	20,448	0,155	-0,090
-422,773	800,000	-0,047	-0,128
-421,759	140,449	-0,019	-0,018
-420,744	132,179	0,043	0,040
-419,730	270,885	-0,044	-0,056
-418,715	800,000	-0,024	0,061
-417,701	-200,000	-0,027	-0,221
-416,686	53,507	-0,056	0,039
-415,671	-18,300	0,190	0,085
-414,657	-200,000	0,004	0,195
-413,642	800,000	0,014	0,041
-412,628	64,243	-0,115	0,083
-411,613	446,986	0,041	-0,066
-410,598	-200,000	-0,008	0,053
-409,584	417,849	-0,084	0,129
-408,569	-200,000	0,001	-0,056
-407,555	651,135	0,027	0,050
-406,540	-200,000	0,044	0,153
-405,525	31,842	-0,049	-0,030
-404,511	-35,395	0,055	-0,021
-403,496	-200,000	0,009	-0,097
-402,482	800,000	-0,005	-0,013
-401,467	800,000	-0,055	0,118
-400,452	-200,000	-0,017	-0,095
-399,438	305,534	0,059	-0,079
-398,423	-97,037	-0,071	0,013
-397,409	-200,000	-0,007	-0,202
-396,394	14,862	0,066	-0,037
-395,379	300,686	0,104	-0,138
-394,365	116,847	0,024	-0,021
-393,350	800,000	-0,040	-0,084
-392,336	363,070	0,023	-0,034
-391,321	463,168	0,009	0,014
-390,306	427,207	-0,087	-0,135
-389,292	-122,244	0,045	-0,005
-388,277	-185,100	-0,150	-0,002
-387,263	793,098	0,043	-0,085
-386,248	100,536	0,043	0,036
-385,233	62,564	0,118	0,084
-384,219	-200,000	0,004	0,018
-383,204	-200,000	-0,012	-0,040
-382,190	-200,000	-0,003	0,010
-381,175	-76,095	-0,180	-0,045
-380,160	775,174	-0,070	-0,138
-379,146	-200,000	0,027	0,090
-378,131	-109,624	0,087	0,013
-377,117	694,716	-0,069	0,131
-376,102	-124,816	-0,114	-0,012
-375,088	800,000	0,022	0,063
-374,073	277,953	-0,026	-0,034
-373,058	-200,000	0,004	0,022
-372,044	-74,652	0,089	-0,023
-371,029	-200,000	-0,004	0,073
-370,015	4,007	0,096	-0,050
-369,000	-2,140	0,041	0,020
-367,985	-121,721	-0,051	-0,006
-366,971	-45,887	0,085	0,030
-365,956	-55,957	-0,017	0,005
-364,942	731,911	0,026	-0,051
-363,927	446,138	-0,065	0,102
-362,912	112,018	-0,035	0,030
-361,898	417,654	-0,039	0,059
-360,883	-82,994	-0,159	0,037
-359,869	-42,471	-0,214	-0,078
-358,854	-43,787	0,097	-0,035
-357,839	-200,000	0,038	0,190
-356,825	212,740	0,052	0,059
-355,810	235,038	0,036	0,043
-354,796	-27,887	-0,144	0,060
-353,781	111,990	0,046	-0,040
-352,766	-93,776	-0,144	-0,028
-351,752	59,450	-0,070	-0,049
-350,737	-55,404	0,079	-0,025
-349,723	800,000	0,006	-0,018
-348,708	239,614	0,038	0,045
-347,693	-93,449	-0,045	-0,009
-346,679	49,822	-0,052	-0,035
-345,664	-200,000	0,022	-0,151
-344,650	-137,379	-0,079	-0,006
-343,635	-200,000	-0,017	0,126
-342,620	135,169	0,058	0,054
-341,606	111,158	0,089	0,077
-340,591	619,158	0,065	0,117
-339,577	8,364	-0,030	-0,016
-338,562	-136,934	0,144	0,012
-337,548	168,338	-0,082	-0,084
-336,533	-200,000	0,006	0,098
-335,518	333,566	0,006	-0,008
-334,504	800,000	-0,018	0,051
-333,489	-142,614	-0,107	-0,007
-332,475	-98,862	0,077	0,014
-331,460	-200,000	-0,001	0,079
-330,445	-147,211	-0,083	0,005
-329,431	137,329	0,129	0,121
-328,416	55,493	0,098	0,068
-327,402	372,852	0,059	0,086
-326,387	-200,000	0,003	-0,088
-325,372	110,887	0,078	-0,067
-324,358	191,018	0,024	-0,026
-323,343	147,237	-0,062	-0,060
-322,329	-72,459	0,078	-0,021
-321,314	5,415	0,071	-0,037
-320,299	50,270	0,100	0,067
-319,285	800,000	0,021	-0,047
-318,270	87,387	-0,113	-0,089
-317,256	583,270	0,044	-0,078
-316,241	-200,000	-0,007	-0,148
-315,226	-10,411	-0,062	-0,030
-314,212	-200,000	0,018	0,093
-313,197	175,179	0,059	0,061
-312,183	-152,592	-0,124	-0,006
-311,168	-200,000	0,003	-0,037
-310,153	101,319	-0,137	0,114
-309,139	-200,000	-0,003	0,092
-308,124	-200,000	0,011	-0,065
-307,110	-101,755	0,050	-0,009
-306,095	-200,000	-0,034	0,155
-305,080	147,617	0,109	0,105
-304,066	303,479	0,095	0,126
-303,051	608,870	-0,066	-0,119
-302,037	465,637	0,056	0,090
-301,022	181,654	-0,025	-0,027
-300,008	-200,000	-0,021	-0,082
-298,993	-162,418	0,028	-0,001
-297,978	800,000	0,027	0,076
-296,964	-162,379	-0,030	0,001
-295,949	-44,138	-0,169	-0,060
-294,935	800,000	-0,010	-0,026
-293,920	63,183	0,055	-0,039
-292,905	-31,749	-0,104	0,042
-291,891	-129,431	-0,191	-0,019
-290,876	-200,000	-0,012	0,096
-289,862	-200,000	0,001	-0,073
-288,847	-84,283	-0,014	-0,003
-287,832	-200,000	0,051	-0,167
-286,818	3,225	0,116	0,060
-285,803	-69,662	0,200	-0,054
-284,789	-200,000	-0,000	0,063
-283,774	800,000	-0,050	0,138
-282,759	800,000	0,028	0,077
-281,745	226,325	-0,017	-0,020
-280,730	800,000	0,054	0,156
-279,716	800,000	-0,053	0,106
-278,701	-200,000	-0,014	-0,049
-277,686	2,470	0,185	0,095
-276,672	-200,000	0,010	0,094
-275,657	800,000	0,046	-0,130
-274,643	-174,330	-0,049	-0,001
-273,628	-200,000	-0,017	-0,112
-272,613	113,739	0,057	0,049
-271,599	336,581	-0,101	0,140
-270,584	-200,000	0,010	0,054
-269,570	-118,025	0,081	-0,010
-268,555	99,669	-0,034	-0,028
-267,540	385,652	0,031	0,046
-266,526	-52,820	-0,125	0,041
-265,511	45,338	0,118	-0,078
-264,497	-93,634	-0,048	-0,009
-263,482	-200,000	-0,008	0,089
-262,467	-200,000	0,015	-0,048
-261,453	-53,715	-0,020	-0,006
-260,438	502,053	0,060	-0,099
-259,424	-80,543	-0,160	-0,038
-258,409	-34,660	-0,067	0,026
-257,395	376,147	-0,063	-0,093
-256,380	197,210	0,066	-0,072
-255,365	-200,000	0,020	0,096
-254,351	-200,000	0,005	0,143
-253,336	800,000	-0,016	-0,044
-252,322	-200,000	0,012	-0,178
-251,307	152,645	0,128	-0,125
-250,292	67,595	0,058	-0,043
-249,278	412,353	0,101	-0,153
-248,263	262,551	-0,089	0,110
-247,249	-167,444	-0,058	0,002
-246,234	800,000	0,005	-0,014
-245,219	-136,100	-0,090	-0,007
-244,205	192,682	-0,025	-0,027
-243,190	-200,000	-0,075	0,000
-242,176	-200,000	-0,000	0,012
-241,161	198,724	0,054	-0,059
-240,146	-108,062	-0,022	-0,003
-239,132	360,373	-0,079	0,114
-238,117	-200,000	0,035	-0,235
-237,103	371,255	-0,113	0,164
-236,088	800,000	0,016	0,036
-235,073	-134,593	-0,026	0,002
-234,059	32,382	0,042	-0,026
-233,044	800,000	0,059	0,117
-232,030	-87,671	-0,092	-0,020
-231,015	-153,712	0,076	0,004
-230,000	292,600	-0,051	-0,067
-228,986	-200,000	0,005	0,066
-227,971	-200,000	0,008	0,041
-226,957	-200,000	0,019	0,076
-225,942	280,482	-0,035	-0,044
-224,927	416,358	-0,005	-0,008
-223,913	160,633	-0,086	-0,086
-222,898	-113,525	-0,092	-0,013
-221,884	-200,000	-0,001	-0,008
-220,869	-169,436	0,097	-0,002
-219,855	-200,000	0,005	0,159
-218,840	800,000	0,007	0,017
-217,825	99,104	-0,022	0,018
-216,811	-87,107	0,085	-0,018
-215,796	-171,051	-0,101	-0,002
-214,782	72,862	-0,057	-0,042
-213,767	222,091	0,044	-0,051
-212,752	-87,439	-0,081	0,017
-211,738	-119,556	0,124	-0,015
-210,723	-112,253	-0,054	0,008
-209,709	45,517	0,083	-0,055
-208,694	800,000	-0,027	0,064
-207,679	-200,000	-0,006	0,066
-206,665	-200,000	0,008	0,105
-205,650	-200,000	0,006	0,070
-204,636	117,352	-0,048	0,042
-203,621	-147,571	0,246	0,015
-202,606	-200,000	-0,036	0,114
-201,592	-52,981	0,097	0,032
-200,577	-20,663	-0,089	-0,039
-199,563	-11,187	0,086	-0,040
-198,548	-18,938	0,110	-0,049
-197,533	534,919	0,017	0,028
-196,519	-200,000	-0,020	-0,070
-195,504	-17,297	-0,138	0,062
-194,490	458,253	0,006	0,010
-193,475	139,851	-0,060	-0,056
-192,460	-200,000	-0,006	0,022
-191,446	16,341	0,078	0,044
-190,431	32,744	0,075	-0,046
-189,417	229,936	-0,029	-0,034
-188,402	648,950	0,014	0,025
-187,387	71,144	-0,108	-0,080
-186,373	-200,000	0,004	0,030
-185,358	-100,967	0,068	0,012
-184,344	40,037	-0,148	0,094
-183,329	-59,304	0,067	0,020
-182,315	-88,657	-0,040	-0,008
-181,300	800,000	-0,042	-0,129
-180,285	22,613	-0,086	-0,050
-179,271	-59,857	0,023	0,007
-178,256	-200,000	0,009	-0,104
-177,242	-27,265	0,059	-0,024
-176,227	41,547	-0,099	-0,064
-175,212	-156,341	0,069	0,003
-174,198	205,015	0,043	0,048
-173,183	-200,000	-0,006	0,059
-172,169	-200,000	0,012	-0,127
-171,154	-10,217	-0,114	-0,054
-170,139	-200,000	-0,011	0,103
-169,125	663,637	-0,011	0,021
-168,110	320,114	-0,038	0,052
-167,096	-90,201	-0,039	0,008
-166,081	800,000	0,048	-0,142
-165,066	454,340	0,043	-0,068
-164,052	373,551	-0,059	-0,086
-163,037	-200,000	-0,007	0,026
-162,023	21,323	0,045	-0,026
-161,008	-49,310	0,045	-0,015
-159,993	285,436	-0,068	0,088
-158,979	-200,000	-0,017	-0,082
-157,964	221,529	-0,060	-0,069
-156,950	-200,000	-0,006	-0,127
-155,935	216,200	-0,070	-0,079
-154,920	-89,701	0,143	0,030
-153,906	800,000	-0,044	-0,094
-152,891	29,383	0,108	0,065
-151,877	-6,291	0,089	-0,043
-150,862	77,091	-0,135	-0,102
-149,847	228,245	0,085	0,099
-148,833	-37,637	-0,030	-0,011
-147,818	-200,000	0,016	-0,098
-146,804	150,987	-0,081	0,078
-145,789	56,330	-0,064	0,044
-144,775	800,000	0,039	-0,094
-143,760	-131,808	-0,045	0,004
-142,745	-6,959	-0,209	-0,101
-141,731	280,140	0,094	-0,120
-140,716	-200,000	-0,012	0,104
-139,702	173,524	-0,036	0,037
-138,687	739,496	-0,035	-0,068
-137,672	800,000	0,021	-0,066
-136,658	244,829	-0,067	-0,080
-135,643	-200,000	-0,015	0,073
-134,629	94,541	0,063	0,051
-133,614	148,901	0,093	0,089
-132,599	-200,000	-0,025	0,144
-131,585	142,457	0,106	0,100
-130,570	19,342	-0,103	-0,059
-129,556	460,969	-0,047	-0,074
-128,541	-60,227	-0,157	-0,047
-127,526	800,000	0,026	0,059
-126,512	-200,000	-0,030	0,153
-125,497	38,384	0,093	0,059
-124,483	-28,690	0,136	0,055
-123,468	75,440	0,079	0,059
-122,453	-121,582	-0,040	0,005
-121,439	114,307	-0,031	-0,027
-120,424	-65,859	-0,040	-0,011
