DTS Sentinel unit serial number:	SN410029Multiplexer serial number:	ORYXHardware model number:	OX2-SRSoftware version number:	ORYX F/W v4,00 Oryx Data Collector v3.7.2.0data status	okinstallation	BH3 CH2differential loss correction	single-endedforward channel	channel 2reverse channel	N/Adate	2023/12/05time	10:42:28forward acquisition time	300,00reverse acquisition time	0,00gamma	499,1914k internal	0,3199k external	0,3199temperature offset calibration	1,0000default loss term (dB/km)	0,3820temperature slope calibration	1,0000multiplexer offset coefficient	1,0000multiplexer slope coefficient	1,0000fibre end	0,00T internal ref (°C)	9,67T ext. ref 1 (°C)	-5,17T ext. ref 2 (°C)	-5,34length (m)	temperature (°C)	Stokes	anti-Stokes-744,400	740,926	0,053	-0,105
-743,385	-73,615	-0,300	0,079
-742,371	-185,212	0,052	-0,001
-741,356	35,294	-0,186	0,119
-740,342	-200,000	0,032	-0,122
-739,327	165,749	-0,194	0,200
-738,312	51,994	-0,124	-0,086
-737,298	18,687	-0,185	0,107
-736,283	-200,000	-0,039	-0,130
-735,269	19,528	-0,245	0,143
-734,254	-200,000	0,011	-0,042
-733,239	-94,900	-0,374	-0,073
-732,225	-11,741	0,173	-0,082
-731,210	-200,000	0,013	0,187
-730,196	-200,000	-0,011	-0,066
-729,181	-70,263	-0,090	0,025
-728,167	800,000	0,041	-0,096
-727,152	118,505	-0,120	-0,108
-726,137	-200,000	-0,010	-0,098
-725,123	-119,480	-0,150	-0,019
-724,108	-65,110	-0,114	-0,033
-723,094	26,721	-0,042	-0,026
-722,079	80,185	-0,097	0,075
-721,064	800,000	0,042	-0,090
-720,050	793,905	0,073	-0,146
-719,035	-43,392	-0,186	-0,068
-718,021	800,000	-0,037	-0,108
-717,006	800,000	-0,021	-0,055
-715,991	-0,747	-0,146	-0,075
-714,977	800,000	-0,071	-0,143
-713,962	53,516	-0,111	-0,077
-712,948	62,729	0,089	0,065
-711,933	-200,000	0,002	-0,063
-710,918	-200,000	0,007	-0,119
-709,904	-141,629	-0,116	-0,008
-708,889	29,362	-0,087	0,053
-707,875	-60,123	-0,032	0,010
-706,860	180,067	0,044	0,047
-705,845	-148,318	-0,095	0,006
-704,831	-16,381	0,014	-0,006
-703,816	-200,000	-0,006	-0,081
-702,802	-7,672	0,074	0,036
-701,787	49,132	-0,140	-0,095
-700,772	800,000	-0,021	0,049
-699,758	800,000	-0,029	-0,068
-698,743	-52,381	-0,051	-0,017
-697,729	-190,691	-0,053	0,000
-696,714	-95,117	0,068	0,013
-695,699	-200,000	0,032	-0,103
-694,685	-200,000	-0,011	-0,183
-693,670	-200,000	-0,007	0,034
-692,656	800,000	0,045	-0,099
-691,641	-152,887	-0,087	0,004
-690,627	-11,307	0,049	-0,023
-689,612	-200,000	-0,006	-0,071
-688,597	-109,365	0,112	0,017
-687,583	-200,000	0,067	-0,226
-686,568	233,876	-0,099	-0,118
-685,554	800,000	-0,048	-0,111
-684,539	-147,907	0,096	-0,006
-683,524	800,000	-0,024	0,069
-682,510	-200,000	0,004	-0,096
-681,495	275,678	-0,041	-0,053
-680,481	-71,724	-0,113	0,030
-679,466	-19,521	-0,093	-0,042
-678,451	-31,313	-0,092	-0,038
-677,437	-96,167	-0,165	0,031
-676,422	17,170	0,043	0,024
-675,408	261,151	-0,053	-0,066
-674,393	21,785	-0,063	-0,037
-673,378	-50,914	-0,071	0,024
-672,364	353,105	-0,047	0,068
-671,349	221,764	-0,155	-0,181
-670,335	228,352	0,082	-0,097
-669,320	26,971	-0,089	-0,054
-668,305	75,019	-0,074	0,056
-667,291	397,119	0,050	-0,075
-666,276	110,548	-0,094	-0,082
-665,262	800,000	0,084	-0,198
-664,247	79,767	-0,131	0,102
-663,232	800,000	0,021	0,050
-662,218	714,349	0,028	0,054
-661,203	100,231	0,082	0,069
-660,189	-46,487	-0,039	0,014
-659,174	454,631	-0,020	-0,032
-658,159	-200,000	-0,056	-0,203
-657,145	14,163	-0,046	0,026
-656,130	260,327	-0,072	0,090
-655,116	-80,307	0,102	-0,025
-654,101	371,802	0,030	-0,045
-653,086	-200,000	-0,001	0,025
-652,072	-100,624	0,039	0,007
-651,057	209,072	-0,081	0,092
-650,043	-90,504	0,069	-0,014
-649,028	800,000	-0,030	-0,092
-648,014	317,804	-0,091	-0,125
-646,999	-200,000	-0,016	0,116
-645,984	800,000	-0,035	0,098
-644,970	94,885	0,062	-0,051
-643,955	800,000	-0,056	0,143
-642,941	148,916	-0,041	0,040
-641,926	800,000	-0,025	-0,062
-640,911	-200,000	0,011	-0,066
-639,897	65,121	0,070	-0,051
-638,882	800,000	-0,075	-0,230
-637,868	-59,601	0,013	-0,004
-636,853	119,074	-0,063	0,056
-635,838	256,490	-0,188	-0,234
-634,824	-200,000	0,001	-0,142
-633,809	-200,000	-0,025	0,122
-632,795	-200,000	-0,007	0,031
-631,780	0,332	-0,129	0,067
-630,765	-71,365	0,069	0,019
-629,751	360,608	-0,016	-0,024
-628,736	468,328	-0,046	-0,075
-627,722	155,032	0,060	0,060
-626,707	182,451	0,085	0,091
-625,692	-6,176	0,097	0,048
-624,678	-131,136	0,060	0,006
-623,663	-152,480	-0,127	0,006
-622,649	94,231	-0,102	0,084
-621,634	800,000	-0,045	0,100
-620,619	-110,329	0,057	0,008
-619,605	800,000	0,031	-0,075
-618,590	-200,000	0,030	-0,100
-617,576	228,995	0,043	0,051
-616,561	269,337	-0,082	0,104
-615,546	80,340	-0,128	0,100
-614,532	-200,000	0,000	-0,036
-613,517	-200,000	-0,028	-0,101
-612,503	-33,667	-0,084	-0,033
-611,488	788,896	0,081	0,162
-610,474	68,851	0,078	0,058
-609,459	145,137	-0,060	-0,058
-608,444	-200,000	0,004	-0,135
-607,430	5,909	-0,082	0,044
-606,415	800,000	0,035	0,081
-605,401	-200,000	0,029	0,124
-604,386	-16,196	-0,042	-0,019
-603,371	-200,000	0,022	0,130
-602,357	-15,461	0,074	-0,034
-601,342	-107,505	-0,074	-0,012
-600,328	113,203	-0,039	-0,034
-599,313	95,479	0,065	0,053
-598,298	141,910	-0,071	-0,068
-597,284	497,941	0,045	0,075
-596,269	-200,000	0,026	0,226
-595,255	109,339	0,040	-0,034
-594,240	-14,108	-0,031	-0,015
-593,225	214,249	-0,031	-0,035
-592,211	-95,251	0,039	0,008
-591,196	-200,000	-0,004	0,039
-590,182	-200,000	-0,196	-0,000
-589,167	-42,222	0,245	0,090
-588,152	-114,345	-0,090	-0,012
-587,138	81,564	-0,123	-0,096
-586,123	-128,664	-0,123	-0,012
-585,109	1,506	-0,108	0,056
-584,094	164,380	0,142	0,145
-583,079	202,437	0,089	0,100
-582,065	77,853	0,146	0,113
-581,050	50,978	-0,019	0,013
-580,036	-172,080	0,143	-0,003
-579,021	417,166	-0,038	-0,059
-578,006	49,335	0,023	-0,015
-576,992	-39,801	0,075	-0,028
-575,977	800,000	-0,087	-0,199
-574,963	385,123	0,028	0,041
-573,948	800,000	-0,017	0,051
-572,934	-200,000	0,021	0,103
-571,919	-43,661	-0,134	-0,049
-570,904	-200,000	0,012	-0,089
-569,890	-200,000	-0,013	-0,120
-568,875	-1,494	-0,089	0,045
-567,861	-76,716	-0,038	0,009
-566,846	-200,000	0,043	0,156
-565,831	11,605	0,147	0,081
-564,817	-69,461	0,054	-0,015
-563,802	-200,000	0,030	-0,123
-562,788	-12,961	-0,022	0,010
-561,773	-115,526	-0,064	-0,009
-560,758	-200,000	0,012	0,098
-559,744	800,000	0,037	0,075
-558,729	336,579	-0,050	-0,070
-557,715	212,662	0,076	-0,087
-556,700	83,860	-0,093	-0,074
-555,685	-12,263	-0,163	0,077
-554,671	205,767	0,035	-0,040
-553,656	313,621	-0,110	-0,150
-552,642	36,339	0,172	0,109
-551,627	114,129	-0,087	0,076
-550,612	-9,522	-0,070	0,033
-549,598	-200,000	0,029	-0,117
-548,583	117,371	-0,077	-0,069
-547,569	-143,316	0,120	0,008
-546,554	305,959	0,070	0,095
-545,539	800,000	0,031	-0,079
-544,525	31,035	0,116	-0,072
-543,510	-200,000	0,012	-0,042
-542,496	-69,008	-0,048	0,013
-541,481	257,312	0,060	0,074
-540,466	95,642	0,099	0,081
-539,452	127,009	-0,063	0,058
-538,437	327,653	-0,056	0,078
-537,423	142,672	0,084	0,080
-536,408	19,868	0,050	-0,029
-535,393	75,828	-0,036	-0,027
-534,379	183,043	-0,092	-0,098
-533,364	54,857	-0,106	0,074
-532,350	-200,000	-0,002	0,052
-531,335	62,962	-0,020	-0,014
-530,321	49,339	-0,040	0,027
-529,306	709,157	0,090	0,173
-528,291	437,257	0,025	-0,039
-527,277	-200,000	0,005	-0,045
-526,262	-8,918	-0,113	-0,055
-525,248	-42,712	0,125	0,046
-524,233	-200,000	0,036	-0,114
-523,218	-60,690	0,168	0,051
-522,204	62,029	0,091	-0,065
-521,189	-200,000	0,003	0,075
-520,175	-200,000	0,002	-0,085
-519,160	198,738	0,034	0,038
-518,145	-200,000	0,005	0,050
-517,131	-187,240	-0,076	0,001
-516,116	-200,000	0,009	-0,162
-515,102	-200,000	0,030	-0,112
-514,087	800,000	-0,044	-0,108
-513,072	-200,000	-0,025	-0,118
-512,058	24,628	0,008	-0,005
-511,043	-140,000	-0,055	-0,004
-510,029	-94,829	-0,063	0,012
-509,014	34,077	-0,093	0,058
-507,999	9,853	-0,125	0,068
-506,985	-200,000	-0,003	-0,073
-505,970	66,879	-0,038	0,028
-504,956	-33,426	-0,023	-0,009
-503,941	202,213	-0,049	-0,055
-502,926	-120,296	0,136	0,016
-501,912	-200,000	0,006	0,091
-500,897	-24,195	0,063	0,027
-499,883	61,067	-0,096	-0,069
-498,868	-142,435	0,068	-0,005
-497,853	-200,000	-0,043	-0,158
-496,839	10,292	0,110	0,060
-495,824	-45,790	-0,051	-0,018
-494,810	755,896	0,035	0,069
-493,795	19,901	-0,047	0,027
-492,781	75,713	-0,083	0,063
-491,766	-200,000	0,012	-0,078
-490,751	-17,185	0,187	0,085
-489,737	222,808	0,094	-0,109
-488,722	629,647	0,026	-0,047
-487,708	1,778	-0,057	-0,029
-486,693	411,568	-0,089	0,136
-485,678	153,391	0,067	-0,066
-484,664	386,745	0,041	-0,062
-483,649	-92,169	-0,157	-0,032
-482,635	-200,000	0,009	-0,097
-481,620	800,000	0,029	-0,078
-480,605	-200,000	-0,009	0,052
-479,591	800,000	0,024	-0,071
-478,576	-200,000	0,006	0,057
-477,562	512,651	-0,020	-0,034
-476,547	-200,000	-0,007	0,082
-475,532	-200,000	-0,033	-0,109
-474,518	-200,000	0,030	0,184
-473,503	190,475	0,079	0,086
-472,489	-200,000	0,017	0,158
-471,474	-19,959	-0,103	0,046
-470,459	-200,000	-0,008	0,025
-469,445	-133,504	0,091	0,008
-468,430	-89,791	-0,069	-0,014
-467,416	800,000	-0,070	0,150
-466,401	-200,000	0,045	-0,148
-465,386	800,000	-0,033	0,096
-464,372	-37,532	-0,258	0,099
-463,357	61,820	0,097	-0,069
-462,343	-77,158	-0,099	0,025
-461,328	800,000	0,025	0,071
-460,313	800,000	0,031	-0,081
-459,299	-200,000	0,005	0,083
-458,284	-200,000	-0,011	0,079
-457,270	-109,835	-0,089	0,013
-456,255	-200,000	-0,008	0,059
-455,241	-200,000	0,048	0,000
-454,226	-200,000	-0,021	-0,087
-453,211	800,000	-0,036	0,084
-452,197	52,343	-0,051	0,035
-451,182	-200,000	0,017	0,104
-450,168	219,986	-0,040	0,046
-449,153	22,719	-0,106	0,062
-448,138	-200,000	0,039	-0,205
-447,124	221,476	-0,111	-0,128
-446,109	-200,000	0,035	-0,147
-445,095	-200,000	0,002	0,033
-444,080	184,865	-0,022	0,023
-443,065	187,353	-0,013	0,014
-442,051	-25,323	0,044	-0,019
-441,036	43,697	0,075	0,050
-440,022	-200,000	-0,024	-0,086
-439,007	-200,000	-0,014	-0,104
-437,992	-77,794	-0,046	-0,011
-436,978	-122,394	0,051	0,006
-435,963	-91,890	0,116	-0,023
-434,949	800,000	-0,055	0,160
-433,934	800,000	-0,079	-0,191
-432,919	245,594	0,074	0,090
-431,905	800,000	0,028	0,082
-430,890	111,419	0,042	-0,037
-429,876	53,445	0,065	0,045
-428,861	800,000	0,004	-0,009
-427,846	163,865	-0,063	-0,063
-426,832	-54,100	-0,063	-0,020
-425,817	509,517	0,020	-0,033
-424,803	-200,000	0,011	-0,073
-423,788	-11,507	0,108	-0,051
-422,773	87,007	0,128	0,102
-421,759	288,535	0,071	0,093
-420,744	-55,545	-0,058	-0,019
-419,730	7,070	0,071	0,038
-418,715	-27,098	0,077	-0,032
-417,701	-138,993	0,088	-0,007
-416,686	86,370	-0,095	-0,075
-415,671	61,011	-0,085	0,060
-414,657	800,000	0,023	0,063
-413,642	800,000	0,016	0,045
-412,628	-98,664	-0,118	0,021
-411,613	127,188	-0,080	0,073
-410,598	-95,929	-0,031	-0,006
-409,584	260,029	0,075	-0,093
-408,569	-127,148	-0,121	-0,013
-407,555	-149,361	0,051	0,003
-406,540	36,654	-0,039	-0,025
-405,525	-21,712	-0,162	-0,070
-404,511	317,665	-0,077	-0,104
-403,496	800,000	-0,028	0,060
-402,482	22,031	0,056	-0,033
-401,467	-167,752	0,135	0,004
-400,452	83,747	0,147	0,115
-399,438	152,584	-0,027	-0,026
-398,423	-103,671	-0,043	0,007
-397,409	800,000	-0,067	-0,153
-396,394	6,923	-0,093	0,050
-395,379	130,816	0,144	0,133
-394,365	-88,914	-0,039	0,008
-393,350	-49,673	0,029	0,010
-392,336	-200,000	-0,032	-0,117
-391,321	800,000	-0,047	0,121
-390,306	206,958	-0,020	-0,023
-389,292	-200,000	-0,016	-0,057
-388,277	-80,947	0,055	-0,013
-387,263	800,000	0,033	0,084
-386,248	-183,646	0,079	-0,001
-385,233	800,000	-0,044	0,103
-384,219	58,387	-0,057	0,040
-383,204	-69,771	-0,062	-0,017
-382,190	248,227	-0,006	0,007
-381,175	-200,000	-0,000	0,032
-380,160	177,839	-0,069	0,072
-379,146	-36,267	-0,103	0,040
-378,131	-27,724	0,041	0,017
-377,117	730,752	0,012	0,024
-376,102	365,769	-0,037	0,053
-375,088	-89,179	0,107	0,022
-374,073	621,878	0,036	-0,065
-373,058	-54,472	0,035	0,011
-372,044	-166,696	-0,055	-0,002
-371,029	159,859	-0,128	0,128
-370,015	-58,842	0,064	0,020
-369,000	15,726	-0,080	-0,045
-367,985	72,409	-0,082	-0,061
-366,971	86,205	-0,127	-0,101
-365,956	136,512	0,028	0,026
-364,942	26,249	-0,056	-0,034
-363,927	235,416	0,057	-0,068
-362,912	10,654	0,041	-0,022
-361,898	173,218	-0,074	-0,077
-360,883	-200,000	0,010	-0,057
-359,869	-35,073	0,124	-0,048
-358,854	41,325	-0,057	-0,037
-357,839	40,954	-0,069	0,044
-356,825	80,525	0,048	-0,037
-355,810	800,000	0,033	-0,073
-354,796	-49,268	0,050	-0,017
-353,781	73,387	0,086	0,065
-352,766	-117,531	-0,079	-0,010
-351,752	531,995	-0,059	0,101
-350,737	-96,979	0,072	-0,013
-349,723	-74,371	0,098	0,025
-348,708	141,033	0,096	0,091
-347,693	800,000	-0,062	-0,193
-346,679	119,199	-0,114	-0,101
-345,664	-10,427	-0,032	0,015
-344,650	60,186	0,085	0,060
-343,635	83,346	0,005	-0,004
-342,620	617,875	-0,027	0,050
-341,606	305,261	-0,045	0,060
-340,591	23,009	0,126	-0,074
-339,577	16,622	-0,110	-0,062
-338,562	707,403	-0,053	-0,101
-337,548	198,062	0,070	-0,077
-336,533	485,589	0,053	0,086
-335,518	-200,000	-0,018	-0,083
-334,504	187,204	-0,048	0,051
-333,489	106,685	0,052	-0,045
-332,475	19,901	0,106	-0,061
-331,460	26,667	0,067	-0,040
-330,445	-200,000	0,056	-0,196
-329,431	131,926	0,039	-0,036
-328,416	-10,004	-0,072	-0,034
-327,402	-200,000	-0,018	0,103
-326,387	-200,000	-0,021	0,191
-325,372	-129,839	0,032	-0,003
-324,358	800,000	0,037	-0,100
-323,343	183,907	-0,029	0,031
-322,329	-156,008	0,070	0,003
-321,314	-86,802	0,124	-0,027
-320,299	-68,678	0,080	-0,022
-319,285	-86,346	-0,107	0,023
-318,270	-200,000	0,004	-0,077
-317,256	-200,000	0,033	-0,121
-316,241	-200,000	0,046	-0,175
-315,226	45,883	0,052	-0,034
-314,212	-200,000	-0,004	-0,041
-313,197	-85,173	0,106	0,024
-312,183	483,303	-0,103	0,169
-311,168	-72,393	0,109	0,029
-310,153	-161,082	-0,117	0,004
-309,139	-200,000	0,028	-0,097
-308,124	-200,000	-0,017	0,094
-307,110	-85,866	0,079	0,017
-306,095	90,073	0,115	0,092
-305,080	-146,419	0,134	0,008
-304,066	-62,509	0,092	-0,027
-303,051	-56,723	-0,145	0,046
-302,037	-79,613	-0,051	-0,012
-301,022	196,949	-0,029	-0,032
-300,008	-174,544	-0,112	0,002
-298,993	688,701	0,086	0,161
-297,978	-81,389	-0,158	-0,037
-296,964	800,000	-0,034	-0,070
-295,949	-149,996	-0,038	-0,002
-294,935	-200,000	0,008	-0,103
-293,920	32,831	-0,046	0,028
-292,905	-101,514	0,120	0,021
-291,891	35,193	0,075	-0,047
-290,876	243,097	-0,042	0,050
-289,862	-133,278	-0,087	0,008
-288,847	-40,260	0,130	0,048
-287,832	-43,010	-0,146	-0,053
-286,818	-200,000	0,015	0,068
-285,803	605,333	-0,025	0,045
-284,789	130,485	-0,139	0,127
-283,774	-10,648	0,189	0,089
-282,759	800,000	-0,021	0,059
-281,745	-200,000	0,022	-0,086
-280,730	369,138	-0,073	-0,105
-279,716	-1,215	0,056	0,028
-278,701	-200,000	0,003	0,023
-277,686	155,996	0,048	0,048
-276,672	228,817	0,025	0,030
-275,657	-65,833	-0,112	-0,032
-274,643	268,981	-0,026	-0,033
-273,628	-200,000	-0,012	-0,126
-272,613	358,080	0,087	-0,124
-271,599	800,000	-0,041	0,130
-270,584	-52,334	0,045	-0,015
-269,570	-78,911	0,026	0,006
-268,555	800,000	0,062	0,149
-267,540	20,758	-0,144	-0,083
-266,526	751,035	-0,040	-0,077
-265,511	223,051	0,058	-0,067
-264,497	85,630	-0,070	0,055
-263,482	136,145	-0,031	-0,029
-262,467	-200,000	-0,020	-0,159
-261,453	136,930	-0,029	-0,027
-260,438	-200,000	-0,107	0,000
-259,424	-122,049	-0,078	-0,009
-258,409	-200,000	-0,017	0,071
-257,395	-129,092	0,075	0,007
-256,380	113,785	0,019	0,016
-255,365	-200,000	0,006	-0,034
-254,351	799,623	-0,085	-0,168
-253,336	73,593	0,128	-0,096
-252,322	-200,000	-0,045	-0,143
-251,307	227,932	0,074	-0,086
-250,292	-84,972	0,105	-0,023
-249,278	-96,639	-0,018	-0,003
-248,263	499,507	0,098	0,163
-247,249	-58,246	-0,055	0,017
-246,234	-200,000	-0,006	-0,063
-245,219	-200,000	0,019	-0,086
-244,205	-11,464	-0,048	-0,022
-243,190	207,910	-0,044	0,050
-242,176	142,275	0,147	0,140
-241,161	-49,222	0,076	0,026
-240,146	-200,000	0,011	0,074
-239,132	800,000	-0,043	0,110
-238,117	-149,760	-0,170	-0,009
-237,103	-200,000	0,007	-0,041
-236,088	77,255	-0,062	-0,047
-235,073	777,005	-0,047	0,092
-234,059	800,000	-0,032	0,084
-233,044	-52,543	0,025	0,008
-232,030	-200,000	-0,009	0,137
-231,015	157,008	-0,103	-0,102
-230,000	156,604	-0,022	0,021
-228,986	706,242	-0,043	-0,082
-227,971	6,842	0,129	0,068
-226,957	422,270	0,063	0,097
-225,942	-200,000	0,003	-0,063
-224,927	-167,537	-0,041	0,001
-223,913	-170,028	-0,148	0,004
-222,898	-29,716	0,023	-0,009
-221,884	-200,000	0,019	-0,122
-220,869	-200,000	-0,001	0,077
-219,855	3,195	0,128	0,066
-218,840	-14,480	0,061	-0,028
-217,825	800,000	0,038	-0,110
-216,811	-200,000	-0,010	0,073
-215,796	184,554	-0,011	-0,011
-214,782	257,623	-0,052	-0,063
-213,767	29,940	-0,059	-0,036
-212,752	755,976	0,070	0,135
-211,738	-200,000	0,014	0,052
-210,723	-21,624	0,004	-0,002
-209,709	800,000	0,036	-0,077
-208,694	-200,000	0,022	-0,069
-207,679	642,734	-0,056	-0,101
-206,665	-200,000	0,026	-0,093
-205,650	800,000	0,035	-0,102
-204,636	366,683	0,062	0,089
-203,621	800,000	0,015	0,038
-202,606	63,760	0,071	-0,051
-201,592	-200,000	0,011	0,074
-200,577	-48,150	-0,057	-0,020
-199,563	355,612	0,021	0,030
-198,548	111,449	0,083	0,071
-197,533	800,000	0,051	0,149
-196,519	800,000	0,037	-0,088
-195,504	51,556	-0,075	-0,051
-194,490	-14,279	-0,026	0,012
-193,475	-16,548	0,030	-0,014
-192,460	-90,163	0,116	0,024
-191,446	-162,213	0,154	-0,005
-190,431	-200,000	0,006	0,062
-189,417	-11,688	-0,101	-0,047
-188,402	800,000	-0,070	-0,174
-187,387	-4,191	0,008	-0,004
-186,373	584,840	0,087	0,153
-185,358	190,962	0,041	0,044
-184,344	-147,450	-0,090	-0,005
-183,329	-200,000	0,057	-0,213
-182,315	-200,000	0,002	-0,065
-181,300	30,186	0,021	0,013
-180,285	-36,626	-0,020	-0,007
-179,271	19,302	0,043	0,025
-178,256	34,365	-0,040	0,025
-177,242	76,836	0,167	0,126
-176,227	-134,488	-0,052	-0,004
-175,212	-200,000	0,017	-0,055
-174,198	-200,000	0,013	-0,074
-173,183	383,961	0,024	-0,035
-172,169	-200,000	-0,006	-0,128
-171,154	-109,105	0,074	0,011
-170,139	-200,000	-0,003	0,125
-169,125	418,280	0,105	-0,160
-168,110	-200,000	-0,002	0,012
-167,096	61,010	0,092	-0,065
-166,081	-200,000	-0,031	0,000
-165,066	-200,000	0,058	-0,200
-164,052	800,000	-0,016	0,045
-163,037	176,879	-0,094	0,097
-162,023	-146,139	0,118	-0,007
-161,008	157,928	0,094	0,093
-159,993	41,881	-0,019	-0,012
-158,979	-3,740	0,016	-0,008
-157,964	800,000	-0,009	0,026
-156,950	-145,828	-0,111	-0,007
-155,935	-200,000	-0,007	0,096
-154,920	-200,000	0,031	0,191
-153,906	-200,000	-0,051	0,180
-152,891	-200,000	-0,016	0,062
-151,877	-200,000	0,020	0,076
-150,862	101,048	-0,063	-0,052
-149,847	-64,202	-0,070	0,020
-148,833	45,049	-0,064	-0,042
-147,818	89,079	0,154	0,122
-146,804	-49,579	0,062	0,021
-145,789	109,282	0,104	-0,089
-144,775	800,000	-0,033	-0,103
-143,760	800,000	0,009	-0,022
-142,745	138,460	-0,059	-0,055
-141,731	95,820	-0,061	0,050
-140,716	22,848	0,067	-0,039
-139,702	-176,018	0,127	0,002
-138,687	220,097	-0,058	-0,066
-137,672	-200,000	-0,015	0,067
-136,658	564,542	-0,016	-0,027
-135,643	50,602	-0,092	-0,062
-134,629	-9,344	0,065	0,031
-133,614	-106,344	0,120	-0,019
-132,599	-88,382	0,015	-0,003
-131,585	-200,000	-0,045	0,144
-130,570	-37,819	-0,130	0,049
-129,556	134,693	-0,014	0,013
-128,541	260,861	-0,041	0,050
-127,526	800,000	0,058	-0,129
-126,512	522,410	-0,046	0,077
-125,497	44,323	0,083	-0,054
-124,483	71,395	-0,041	0,030
-123,468	-26,031	0,037	0,015
-122,453	-127,659	-0,120	-0,012
-121,439	-56,113	-0,129	-0,041
-120,424	800,000	0,020	-0,056
-119,410	73,158	0,060	0,045
-118,395	-200,000	-0,007	0,023
