DTS Sentinel unit serial number:	SN410029Multiplexer serial number:	ORYXHardware model number:	OX2-SRSoftware version number:	ORYX F/W v4,00 Oryx Data Collector v3.7.2.0data status	okinstallation	BH3 CH2differential loss correction	single-endedforward channel	channel 2reverse channel	N/Adate	2023/12/05time	20:37:28forward acquisition time	300,00reverse acquisition time	0,00gamma	499,1914k internal	0,3193k external	0,3193temperature offset calibration	1,0000default loss term (dB/km)	0,3820temperature slope calibration	1,0000multiplexer offset coefficient	1,0000multiplexer slope coefficient	1,0000fibre end	0,00T internal ref (°C)	10,45T ext. ref 1 (°C)	-4,37T ext. ref 2 (°C)	-4,46length (m)	temperature (°C)	Stokes	anti-Stokes-744,400	-200,000	-0,011	-0,183
-743,385	351,522	-0,075	0,108
-742,371	-33,229	-0,073	-0,029
-741,356	157,107	-0,118	0,119
-740,342	3,163	-0,160	-0,085
-739,327	148,759	-0,155	0,153
-738,312	-200,000	-0,033	-0,147
-737,298	15,630	-0,201	0,115
-736,283	-57,879	-0,057	-0,018
-735,269	-200,000	-0,021	0,101
-734,254	-157,266	-0,132	0,006
-733,239	-136,159	-0,411	-0,035
-732,225	37,830	0,188	-0,122
-731,210	-20,221	0,086	-0,038
-730,196	-200,000	0,044	-0,178
-729,181	92,671	-0,061	-0,050
-728,167	-200,000	-0,036	-0,200
-727,152	-111,693	-0,100	-0,015
-726,137	7,646	-0,043	0,023
-725,123	-200,000	-0,017	0,121
-724,108	-184,610	-0,113	0,001
-723,094	800,000	-0,046	-0,132
-722,079	-101,158	-0,083	-0,015
-721,064	229,057	-0,059	-0,071
-720,050	-18,469	0,049	-0,022
-719,035	-200,000	0,029	-0,099
-718,021	-200,000	-0,006	-0,088
-717,006	-56,895	0,052	-0,017
-715,991	-200,000	-0,007	-0,188
-714,977	235,122	0,112	-0,135
-713,962	-101,809	-0,079	0,014
-712,948	800,000	-0,050	0,137
-711,933	41,129	-0,031	0,020
-710,918	-56,600	-0,060	-0,019
-709,904	7,007	-0,116	-0,063
-708,889	800,000	-0,080	-0,190
-707,875	-57,436	-0,133	0,042
-706,860	-141,449	0,069	-0,005
-705,845	-5,553	-0,146	0,073
-704,831	-59,121	-0,050	0,015
-703,816	-12,759	-0,091	0,043
-702,802	-200,000	-0,038	-0,147
-701,787	-17,047	-0,091	-0,042
-700,772	-37,916	-0,043	-0,016
-699,758	170,893	-0,031	0,033
-698,743	-87,446	0,051	-0,011
-697,729	126,232	0,064	-0,059
-696,714	800,000	0,017	0,040
-695,699	-200,000	-0,010	-0,041
-694,685	-59,110	-0,123	0,038
-693,670	-102,065	0,134	-0,023
-692,656	278,793	-0,099	-0,128
-691,641	-121,981	0,169	0,020
-690,627	-92,768	0,077	-0,016
-689,612	-141,244	-0,112	0,008
-688,597	-172,836	-0,139	-0,003
-687,583	289,464	-0,139	-0,184
-686,568	800,000	-0,065	0,137
-685,554	177,495	0,024	-0,025
-684,539	121,241	0,065	-0,059
-683,524	678,885	0,040	0,076
-682,510	80,996	0,096	-0,075
-681,495	-200,000	0,007	-0,168
-680,481	676,257	0,021	-0,040
-679,466	404,533	-0,023	0,036
-678,451	-72,444	0,056	0,015
-677,437	111,965	-0,024	-0,021
-676,422	-21,301	-0,064	0,028
-675,408	131,160	0,086	0,081
-674,393	-200,000	-0,003	0,197
-673,378	-200,000	0,019	-0,080
-672,364	632,402	-0,047	-0,088
-671,349	25,724	-0,157	-0,095
-670,335	-94,594	-0,081	-0,016
-669,320	-47,353	0,032	-0,011
-668,305	-110,223	-0,180	-0,027
-667,291	75,575	-0,097	0,075
-666,276	800,000	0,065	-0,183
-665,262	100,310	0,028	-0,024
-664,247	-101,296	-0,121	0,021
-663,232	426,936	0,081	-0,127
-662,218	267,068	-0,059	0,076
-661,203	36,061	0,057	0,036
-660,189	-200,000	0,016	-0,110
-659,174	-34,904	-0,167	0,066
-658,159	119,431	-0,114	-0,103
-657,145	-100,514	-0,074	-0,013
-656,130	466,349	0,021	0,034
-655,116	-200,000	-0,010	-0,061
-654,101	-161,393	-0,134	-0,005
-653,086	82,810	-0,094	-0,074
-652,072	21,779	-0,087	0,052
-651,057	268,353	-0,013	0,017
-650,043	211,472	-0,109	-0,124
-649,028	96,701	-0,037	-0,031
-648,014	-200,000	0,041	0,159
-646,999	17,926	0,067	-0,039
-645,984	-177,921	-0,067	-0,001
-644,970	-130,261	-0,061	-0,006
-643,955	699,621	-0,041	-0,080
-642,941	-200,000	-0,008	-0,160
-641,926	-200,000	-0,011	-0,194
-640,911	98,429	-0,117	0,098
-639,897	7,579	0,129	0,070
-638,882	79,962	0,040	-0,031
-637,868	46,071	-0,099	-0,066
-636,853	-172,547	-0,077	0,002
-635,838	-32,623	-0,115	-0,046
-634,824	-63,317	-0,028	-0,008
-633,809	64,840	0,073	0,054
-632,795	800,000	-0,010	-0,027
-631,780	-200,000	0,036	-0,117
-630,765	-31,802	0,036	0,015
-629,751	99,094	0,033	0,028
-628,736	393,476	0,141	-0,214
-627,722	120,127	-0,071	0,064
-626,707	81,672	0,077	0,060
-625,692	-49,552	-0,113	0,039
-624,678	433,684	0,097	0,153
-623,663	-108,336	0,092	-0,014
-622,649	-200,000	0,037	-0,145
-621,634	-200,000	-0,012	0,089
-620,619	-200,000	0,002	-0,039
-619,605	332,021	-0,053	0,075
-618,590	3,756	-0,059	0,031
-617,576	-200,000	0,017	0,056
-616,561	-58,478	0,170	0,053
-615,546	93,178	0,013	0,011
-614,532	-200,000	0,004	0,068
-613,517	-200,000	0,015	-0,050
-612,503	51,809	-0,093	0,064
-611,488	-9,543	0,152	0,073
-610,474	250,669	0,133	-0,164
-609,459	800,000	-0,050	-0,111
-608,444	-87,139	0,026	0,006
-607,430	248,818	0,039	-0,048
-606,415	-200,000	0,042	-0,187
-605,401	-0,740	0,096	-0,049
-604,386	-40,272	0,068	-0,025
-603,371	-168,105	-0,053	-0,001
-602,357	535,224	0,074	-0,127
-601,342	-200,000	-0,009	-0,158
-600,328	697,042	-0,048	-0,092
-599,313	52,673	-0,098	-0,068
-598,298	-200,000	-0,010	-0,131
-597,284	800,000	0,039	-0,101
-596,269	215,797	0,043	-0,049
-595,255	436,909	-0,052	-0,082
-594,240	392,025	-0,045	-0,068
-593,225	663,655	0,034	-0,063
-592,211	-200,000	-0,014	-0,078
-591,196	-168,828	0,083	-0,002
-590,182	800,000	-0,033	0,098
-589,167	7,520	0,088	-0,048
-588,152	800,000	0,028	0,086
-587,138	52,659	-0,035	-0,024
-586,123	800,000	-0,013	-0,036
-585,109	-51,221	0,132	0,045
-584,094	219,098	0,070	0,081
-583,079	9,567	-0,052	0,028
-582,065	72,610	-0,102	-0,077
-581,050	-47,812	-0,027	-0,010
-580,036	-200,000	-0,030	-0,113
-579,021	116,872	0,114	-0,101
-578,006	800,000	0,026	-0,059
-576,992	506,119	-0,107	0,180
-575,977	800,000	-0,016	0,037
-574,963	-200,000	0,015	-0,068
-573,948	800,000	-0,048	0,152
-572,934	-89,289	0,080	-0,017
-571,919	-135,387	0,068	-0,006
-570,904	-136,137	-0,153	0,013
-569,890	-200,000	0,006	-0,137
-568,875	-200,000	0,014	-0,089
-567,861	8,993	-0,135	-0,074
-566,846	-155,437	0,071	0,003
-565,831	-200,000	0,006	-0,097
-564,817	-200,000	-0,029	-0,105
-563,802	100,450	-0,043	0,037
-562,788	-142,749	0,058	-0,004
-561,773	-33,038	0,035	0,014
-560,758	-200,000	0,020	-0,069
-559,744	800,000	0,062	-0,143
-558,729	-200,000	-0,004	-0,033
-557,715	412,602	-0,016	-0,025
-556,700	-200,000	-0,001	0,017
-555,685	800,000	0,009	-0,025
-554,671	121,189	-0,130	-0,117
-553,656	-56,860	-0,054	-0,017
-552,642	800,000	0,025	0,051
-551,627	-200,000	-0,033	0,141
-550,612	21,331	-0,149	-0,088
-549,598	-78,672	-0,093	0,023
-548,583	-129,791	-0,134	-0,013
-547,569	-60,867	-0,057	0,017
-546,554	-175,937	0,037	0,001
-545,539	-200,000	0,014	0,109
-544,525	-73,049	-0,113	0,030
-543,510	214,022	-0,121	-0,138
-542,496	-200,000	0,014	-0,064
-541,481	-53,892	-0,092	0,030
-540,466	111,905	-0,078	-0,068
-539,452	674,216	0,041	0,077
-538,437	-116,256	0,152	0,020
-537,423	218,554	-0,018	0,021
-536,408	-63,680	0,143	-0,042
-535,393	-200,000	0,010	-0,048
-534,379	800,000	-0,066	-0,139
-533,364	-200,000	0,017	-0,073
-532,350	-38,589	-0,186	-0,071
-531,335	75,787	0,113	-0,086
-530,321	26,526	0,104	-0,063
-529,306	65,690	-0,063	0,046
-528,291	-173,917	-0,024	-0,000
-527,277	-161,195	-0,018	-0,001
-526,262	76,802	-0,144	-0,110
-525,248	-200,000	-0,003	0,077
-524,233	192,786	0,077	0,084
-523,218	31,391	0,077	0,048
-522,204	-52,932	-0,099	-0,033
-521,189	-22,224	-0,061	-0,026
-520,175	199,673	-0,078	0,087
-519,160	502,137	-0,064	0,106
-518,145	800,000	0,027	0,064
-517,131	381,102	0,032	0,047
-516,116	303,333	-0,076	-0,102
-515,102	-65,031	-0,047	0,014
-514,087	192,216	0,154	-0,168
-513,072	211,633	-0,053	-0,060
-512,058	-114,993	0,040	0,005
-511,043	-200,000	0,024	0,137
-510,029	32,326	-0,063	-0,039
-509,014	-200,000	-0,008	0,036
-507,999	-30,711	0,082	-0,033
-506,985	14,086	-0,070	-0,039
-505,970	-22,343	-0,097	-0,042
-504,956	408,134	-0,053	0,081
-503,941	73,469	0,217	0,164
-502,926	-200,000	-0,005	0,158
-501,912	-38,011	0,127	0,049
-500,897	-116,254	-0,179	0,024
-499,883	243,429	0,111	0,134
-498,868	-91,267	0,136	-0,028
-497,853	-93,529	0,016	-0,003
-496,839	800,000	0,021	-0,062
-495,824	-200,000	0,057	0,194
-494,810	800,000	0,021	0,051
-493,795	-127,950	-0,078	0,008
-492,781	800,000	0,047	0,100
-491,766	-200,000	0,002	0,060
-490,751	157,985	-0,056	-0,056
-489,737	-200,000	0,007	0,023
-488,722	-148,127	-0,084	-0,005
-487,708	-200,000	0,015	0,182
-486,693	-200,000	-0,028	0,127
-485,678	-200,000	0,017	0,112
-484,664	-200,000	0,005	-0,104
-483,649	6,173	-0,024	0,013
-482,635	-74,044	-0,166	0,043
-481,620	-200,000	0,065	0,212
-480,605	800,000	0,033	-0,068
-479,591	800,000	-0,020	0,055
-478,576	59,948	0,074	-0,053
-477,562	800,000	0,080	-0,187
-476,547	800,000	-0,062	-0,130
-475,532	-200,000	0,020	0,066
-474,518	-200,000	-0,001	-0,052
-473,503	65,341	0,089	-0,065
-472,489	-200,000	0,044	0,151
-471,474	149,733	-0,076	0,074
-470,459	800,000	0,021	-0,045
-469,445	-200,000	0,022	-0,079
-468,430	-200,000	-0,011	0,056
-467,416	-66,994	0,160	0,045
-466,401	605,497	-0,033	0,060
-465,386	493,330	-0,092	0,152
-464,372	234,528	-0,009	-0,011
-463,357	-6,260	-0,112	-0,055
-462,343	-200,000	-0,021	-0,138
-461,328	228,927	-0,078	-0,092
-460,313	800,000	-0,058	0,163
-459,299	-142,509	0,120	-0,008
-458,284	800,000	0,025	0,057
-457,270	-200,000	-0,012	0,038
-456,255	-25,032	-0,155	-0,066
-455,241	-200,000	-0,037	0,137
-454,226	800,000	-0,054	-0,156
-453,211	416,281	-0,061	0,094
-452,197	-38,390	0,041	0,015
-451,182	665,076	0,067	0,125
-450,168	-200,000	0,017	0,070
-449,153	-18,625	-0,126	0,056
-448,138	-21,111	0,063	-0,028
-447,124	-200,000	-0,010	0,059
-446,109	-37,446	0,150	0,057
-445,095	800,000	-0,047	0,109
-444,080	206,018	-0,058	0,065
-443,065	53,590	0,117	-0,081
-442,051	175,151	0,059	-0,061
-441,036	800,000	0,053	-0,165
-440,022	380,395	0,046	-0,068
-439,007	-70,977	0,039	-0,011
-437,992	55,461	0,124	-0,087
-436,978	800,000	0,065	0,176
-435,963	121,449	0,044	0,040
-434,949	630,299	0,069	0,127
-433,934	28,279	-0,061	-0,037
-432,919	514,761	-0,084	-0,141
-431,905	-119,042	0,105	-0,013
-430,890	-76,523	0,109	0,027
-429,876	-200,000	-0,003	0,019
-428,861	800,000	0,005	0,015
-427,846	-90,037	0,138	-0,029
-426,832	-200,000	-0,027	-0,092
-425,817	41,088	-0,072	0,046
-424,803	-200,000	0,012	0,041
-423,788	170,449	-0,043	-0,045
-422,773	-81,593	-0,060	0,014
-421,759	-200,000	0,003	0,162
-420,744	-92,852	-0,036	-0,007
-419,730	77,331	-0,106	-0,081
-418,715	65,909	-0,111	-0,081
-417,701	-25,519	0,152	0,064
-416,686	419,463	0,120	-0,186
-415,671	432,455	0,025	0,039
-414,657	-200,000	-0,039	-0,180
-413,642	151,436	0,032	0,031
-412,628	-200,000	0,015	0,112
-411,613	62,743	-0,159	-0,114
-410,598	-200,000	0,011	-0,041
-409,584	-76,357	0,043	0,011
-408,569	346,721	0,059	0,084
-407,555	-117,357	-0,204	0,026
-406,540	-41,854	0,068	0,025
-405,525	43,646	0,021	-0,014
-404,511	-200,000	0,021	0,167
-403,496	276,891	-0,065	-0,083
-402,482	-200,000	-0,015	-0,075
-401,467	77,028	-0,106	0,081
-400,452	-96,297	0,057	-0,011
-399,438	31,765	0,051	-0,031
-398,423	-180,972	-0,087	0,001
-397,409	303,153	0,064	-0,086
-396,394	-30,749	-0,152	-0,062
-395,379	800,000	-0,038	0,082
-394,365	460,289	0,047	0,076
-393,350	87,293	0,064	-0,051
-392,336	395,384	0,023	0,034
-391,321	674,524	-0,005	0,009
-390,306	-35,953	0,051	-0,020
-389,292	-200,000	-0,000	-0,017
-388,277	800,000	-0,019	-0,043
-387,263	-200,000	0,000	0,039
-386,248	373,119	-0,063	0,092
-385,233	528,317	0,146	0,248
-384,219	676,185	-0,076	0,142
-383,204	-200,000	-0,139	0,000
-382,190	-90,867	-0,200	0,041
-381,175	156,521	-0,068	0,067
-380,160	279,031	0,015	-0,020
-379,146	604,860	-0,037	-0,066
-378,131	99,835	-0,089	0,074
-377,117	-200,000	0,004	0,069
-376,102	69,059	0,070	-0,052
-375,088	-124,709	-0,211	-0,023
-374,073	-95,127	-0,123	0,024
-373,058	-172,530	0,058	-0,001
-372,044	21,214	0,177	0,103
-371,029	-200,000	0,056	0,180
-370,015	-107,246	-0,107	-0,017
-369,000	97,701	0,114	0,094
-367,985	-177,683	-0,124	-0,002
-366,971	55,398	-0,011	-0,008
-365,956	-151,323	0,087	0,005
-364,942	161,999	-0,041	-0,041
-363,927	800,000	-0,010	-0,030
-362,912	-200,000	0,004	0,187
-361,898	358,802	-0,083	0,120
-360,883	-200,000	0,005	0,109
-359,869	-200,000	0,004	0,142
-358,854	800,000	0,049	0,118
-357,839	-200,000	0,026	0,099
-356,825	800,000	-0,045	0,101
-355,810	-200,000	-0,014	0,065
-354,796	-200,000	-0,001	-0,033
-353,781	800,000	0,057	-0,127
-352,766	-139,748	-0,057	0,004
-351,752	212,411	0,054	0,061
-350,737	31,801	0,153	0,094
-349,723	-76,445	0,095	-0,024
-348,708	157,223	-0,092	-0,091
-347,693	498,532	-0,087	0,144
-346,679	759,349	-0,051	-0,100
-345,664	800,000	0,016	-0,040
-344,650	22,589	0,141	-0,083
-343,635	-43,019	0,115	0,042
-342,620	-76,954	-0,053	0,013
-341,606	-142,641	-0,171	0,012
-340,591	50,920	-0,036	-0,025
-339,577	800,000	0,029	-0,077
-338,562	-73,769	-0,094	-0,024
-337,548	11,196	-0,068	0,037
-336,533	86,155	0,052	-0,041
-335,518	68,008	0,142	-0,104
-334,504	-43,714	-0,192	0,069
-333,489	-147,968	-0,087	-0,005
-332,475	-179,515	0,099	0,002
-331,460	13,181	-0,029	-0,016
-330,445	-200,000	0,006	0,025
-329,431	108,151	0,074	0,063
-328,416	-200,000	-0,005	0,027
-327,402	-200,000	-0,008	0,040
-326,387	-200,000	0,001	0,030
-325,372	-54,994	-0,093	-0,030
-324,358	-200,000	-0,034	-0,118
-323,343	800,000	0,016	-0,035
-322,329	800,000	0,026	0,057
-321,314	800,000	0,054	0,142
-320,299	332,803	0,064	0,090
-319,285	351,031	0,060	0,086
-318,270	162,656	0,050	-0,050
-317,256	146,561	0,038	0,037
-316,241	-15,757	-0,053	-0,024
-315,226	52,474	0,088	0,060
-314,212	237,272	0,042	0,049
-313,197	-73,517	0,067	-0,017
-312,183	800,000	0,081	0,198
-311,168	216,948	-0,029	0,033
-310,153	555,246	-0,071	-0,123
-309,139	800,000	0,026	-0,071
-308,124	58,912	0,093	-0,065
-307,110	-200,000	0,017	0,166
-306,095	-124,325	-0,094	-0,010
-305,080	52,929	0,030	-0,021
-304,066	-101,984	0,107	0,018
-303,051	514,964	0,065	-0,110
-302,037	-42,812	0,086	-0,031
-301,022	-200,000	-0,039	-0,124
-300,008	-200,000	-0,003	0,149
-298,993	800,000	0,052	0,111
-297,978	800,000	0,079	0,168
-296,964	-200,000	-0,038	-0,170
-295,949	49,978	0,086	0,058
-294,935	-3,345	-0,032	-0,016
-293,920	-114,079	0,129	0,018
-292,905	800,000	0,016	-0,033
-291,891	-200,000	-0,009	0,055
-290,876	-21,923	0,096	0,041
-289,862	-200,000	0,004	-0,104
-288,847	-71,048	-0,162	0,043
-287,832	-200,000	0,003	-0,156
-286,818	12,020	0,040	-0,022
-285,803	-72,883	0,097	-0,025
-284,789	225,498	0,067	-0,078
-283,774	800,000	0,035	-0,089
-282,759	800,000	0,014	-0,029
-281,745	-200,000	-0,005	-0,055
-280,730	516,741	-0,079	-0,132
-279,716	22,276	-0,136	0,079
-278,701	-59,418	0,144	-0,044
-277,686	613,016	0,093	0,168
-276,672	-200,000	0,001	0,159
-275,657	-200,000	0,002	-0,027
-274,643	579,067	-0,042	0,073
-273,628	-200,000	-0,013	0,126
-272,613	800,000	0,010	0,027
-271,599	-200,000	-0,015	0,120
-270,584	800,000	-0,045	0,092
-269,570	-43,408	0,109	0,039
-268,555	-122,735	-0,078	0,009
-267,540	44,171	-0,208	0,136
-266,526	470,208	0,052	-0,084
-265,511	-200,000	0,040	0,157
-264,497	800,000	0,009	0,018
-263,482	409,521	0,094	0,143
-262,467	-16,000	0,171	0,077
-261,453	-200,000	-0,001	-0,090
-260,438	-200,000	-0,027	-0,102
-259,424	1,884	-0,052	0,027
-258,409	258,537	-0,089	0,110
-257,395	-200,000	0,003	-0,108
-256,380	92,112	0,077	-0,062
-255,365	-64,768	-0,026	-0,007
-254,351	98,051	-0,043	0,036
-253,336	-120,791	0,006	0,001
-252,322	-200,000	-0,021	-0,088
-251,307	-200,000	-0,004	0,083
-250,292	800,000	-0,035	-0,086
-249,278	102,999	0,040	0,034
-248,263	236,817	-0,016	0,019
-247,249	-200,000	-0,003	-0,052
-246,234	-200,000	-0,022	-0,126
-245,219	-59,485	-0,081	0,025
-244,205	-200,000	-0,007	-0,056
-243,190	92,625	0,007	0,006
-242,176	173,434	0,131	0,135
-241,161	683,091	-0,037	0,069
-240,146	-135,303	-0,116	-0,010
-239,132	496,249	-0,052	-0,085
-238,117	-200,000	0,005	-0,041
-237,103	380,484	-0,053	-0,078
-236,088	446,925	-0,010	-0,015
-235,073	-200,000	0,024	-0,137
-234,059	800,000	-0,043	0,110
-233,044	139,108	0,041	0,039
-232,030	800,000	-0,063	-0,182
-231,015	581,541	0,017	0,030
-230,000	-200,000	0,042	-0,211
-228,986	-200,000	-0,015	-0,081
-227,971	800,000	0,041	-0,114
-226,957	800,000	0,026	-0,064
-225,942	3,710	-0,188	0,098
-224,927	-200,000	0,008	0,105
-223,913	-200,000	0,011	-0,063
-222,898	-137,978	-0,066	0,005
-221,884	800,000	0,028	-0,071
-220,869	-53,243	0,085	0,028
-219,855	43,338	0,049	-0,032
-218,840	35,541	-0,098	0,061
-217,825	-200,000	0,010	-0,059
-216,811	-6,157	-0,017	0,008
-215,796	288,673	-0,061	-0,080
-214,782	-200,000	0,004	-0,086
-213,767	-200,000	-0,008	-0,085
-212,752	-200,000	0,015	-0,067
-211,738	139,320	-0,094	0,088
-210,723	230,425	-0,049	-0,058
-209,709	-88,504	-0,032	0,007
-208,694	-200,000	0,008	-0,122
-207,679	47,876	-0,070	-0,047
-206,665	22,056	0,064	0,037
-205,650	565,611	0,054	0,093
-204,636	-7,927	0,042	0,020
-203,621	556,179	-0,036	0,062
-202,606	357,981	0,053	-0,075
-201,592	13,352	0,057	0,031
-200,577	150,729	-0,100	-0,097
-199,563	269,610	0,025	-0,032
-198,548	-51,260	0,090	-0,030
-197,533	70,911	0,074	-0,055
-196,519	-115,626	0,073	-0,010
-195,504	333,224	-0,045	0,062
-194,490	-91,374	0,101	0,021
-193,475	236,588	-0,179	-0,212
-192,460	-26,848	0,009	0,004
-191,446	-200,000	0,012	0,081
-190,431	328,977	0,050	-0,069
-189,417	-10,225	-0,082	-0,039
-188,402	800,000	0,054	-0,118
-187,387	-27,748	0,114	-0,047
-186,373	-36,454	-0,012	0,004
-185,358	77,172	-0,072	-0,054
-184,344	-31,209	-0,099	0,040
-183,329	-186,470	0,059	0,001
-182,315	202,504	0,128	-0,141
-181,300	158,938	-0,044	0,043
-180,285	-115,621	0,066	0,009
-179,271	-92,789	-0,086	-0,017
-178,256	-200,000	0,018	-0,074
-177,242	632,533	-0,014	-0,025
-176,227	142,559	0,098	0,093
-175,212	50,148	0,102	0,069
-174,198	187,136	-0,013	0,014
-173,183	-200,000	-0,005	0,077
-172,169	87,430	-0,139	-0,110
-171,154	-200,000	-0,027	0,168
-170,139	-200,000	-0,007	0,113
-169,125	-68,258	0,165	0,045
-168,110	20,069	0,057	-0,033
-167,096	-16,793	-0,121	0,054
-166,081	-56,044	-0,117	0,037
-165,066	-200,000	0,010	-0,061
-164,052	204,751	0,042	0,046
-163,037	-200,000	0,007	0,067
-162,023	-200,000	-0,040	-0,146
-161,008	-200,000	0,064	-0,212
-159,993	68,813	-0,100	0,073
-158,979	565,815	-0,058	0,101
-157,964	-189,175	-0,118	-0,001
-156,950	215,008	0,033	-0,037
-155,935	-97,226	0,042	-0,008
-154,920	532,828	0,058	0,098
-153,906	-200,000	0,028	-0,130
-152,891	-69,565	-0,018	0,005
-151,877	-200,000	-0,010	-0,053
-150,862	-137,800	-0,153	-0,012
-149,847	179,579	-0,009	-0,010
-148,833	-136,752	-0,066	0,005
-147,818	-200,000	0,015	0,103
-146,804	800,000	-0,025	0,049
-145,789	50,735	-0,089	0,060
-144,775	-200,000	-0,033	-0,115
-143,760	-200,000	0,008	-0,069
-142,745	313,749	-0,094	-0,126
-141,731	363,119	-0,085	0,122
-140,716	-86,761	-0,022	-0,005
-139,702	40,729	0,065	0,042
-138,687	275,104	0,118	-0,149
-137,672	-200,000	0,012	-0,153
-136,658	-96,756	-0,055	-0,010
-135,643	3,794	-0,155	0,081
-134,629	52,042	0,127	-0,086
-133,614	-200,000	-0,003	-0,137
-132,599	-93,971	0,060	0,012
-131,585	-31,692	-0,023	-0,009
-130,570	58,216	-0,049	0,034
-129,556	800,000	-0,031	0,085
-128,541	800,000	0,030	0,088
-127,526	-200,000	0,027	0,103
-126,512	-200,000	-0,032	0,188
-125,497	22,355	0,067	0,039
-124,483	14,267	-0,050	-0,028
-123,468	-200,000	0,009	-0,054
-122,453	-200,000	-0,001	0,089
-121,439	-200,000	0,002	-0,039
-120,424	-200,000	0,009	0,084
-119,410	161,314	0,044	0,044
