DTS Sentinel unit serial number:	SN410029Multiplexer serial number:	ORYXHardware model number:	OX2-SRSoftware version number:	ORYX F/W v4,00 Oryx Data Collector v3.7.2.0data status	okinstallation	BH3 CH2differential loss correction	single-endedforward channel	channel 2reverse channel	N/Adate	2023/12/06time	01:27:28forward acquisition time	300,00reverse acquisition time	0,00gamma	499,1914k internal	0,3197k external	0,3197temperature offset calibration	1,0000default loss term (dB/km)	0,3820temperature slope calibration	1,0000multiplexer offset coefficient	1,0000multiplexer slope coefficient	1,0000fibre end	0,00T internal ref (°C)	9,22T ext. ref 1 (°C)	-5,76T ext. ref 2 (°C)	-5,85length (m)	temperature (°C)	Stokes	anti-Stokes-744,400	-200,000	0,044	-0,238
-743,385	-92,005	-0,230	0,047
-742,371	800,000	0,058	0,119
-741,356	376,996	-0,125	0,187
-740,342	-51,221	0,047	0,016
-739,327	82,107	-0,137	0,108
-738,312	164,398	-0,142	-0,146
-737,298	228,110	-0,107	0,128
-736,283	800,000	-0,067	-0,180
-735,269	654,024	-0,152	0,285
-734,254	114,991	-0,057	-0,051
-733,239	18,732	-0,389	-0,226
-732,225	-200,000	-0,028	-0,266
-731,210	360,991	0,047	0,069
-730,196	-11,027	-0,177	-0,085
-729,181	102,949	0,041	-0,035
-728,167	779,511	-0,078	-0,157
-727,152	-21,288	0,137	0,060
-726,137	510,473	-0,103	0,174
-725,123	-200,000	-0,009	-0,045
-724,108	98,531	0,121	-0,102
-723,094	-166,521	-0,179	0,005
-722,079	65,467	-0,067	-0,049
-721,064	-50,222	0,063	0,021
-720,050	25,097	0,038	-0,023
-719,035	267,258	-0,035	-0,045
-718,021	352,061	-0,030	0,043
-717,006	210,037	0,026	-0,030
-715,991	-20,974	-0,252	-0,112
-714,977	362,747	-0,071	-0,103
-713,962	-200,000	-0,030	-0,097
-712,948	277,233	0,069	0,090
-711,933	378,890	0,059	-0,088
-710,918	800,000	0,034	-0,108
-709,904	111,780	-0,069	-0,061
-708,889	-173,125	-0,219	0,005
-707,875	-200,000	-0,000	-0,033
-706,860	-115,403	0,037	0,005
-705,845	-200,000	0,004	0,030
-704,831	-200,000	-0,025	0,106
-703,816	77,044	-0,072	-0,056
-702,802	-92,989	-0,037	0,007
-701,787	310,612	-0,077	-0,105
-700,772	8,338	-0,067	-0,036
-699,758	800,000	0,047	-0,118
-698,743	-200,000	0,003	0,157
-697,729	-126,608	-0,092	-0,010
-696,714	612,358	0,047	0,086
-695,699	-30,914	-0,023	0,010
-694,685	406,296	0,072	-0,111
-693,670	-88,902	-0,035	-0,007
-692,656	-72,851	0,064	-0,017
-691,641	-200,000	0,024	0,160
-690,627	121,756	-0,100	0,091
-689,612	-62,668	0,118	-0,035
-688,597	247,660	-0,027	-0,033
-687,583	201,956	-0,085	0,096
-686,568	151,571	-0,125	-0,124
-685,554	-200,000	-0,011	-0,054
-684,539	-200,000	0,031	0,167
-683,524	-80,609	0,093	0,022
-682,510	161,104	-0,037	0,038
-681,495	504,160	-0,017	-0,029
-680,481	132,665	0,065	-0,061
-679,466	-200,000	0,014	-0,046
-678,451	800,000	-0,039	-0,095
-677,437	68,507	-0,075	0,056
-676,422	-78,831	0,110	-0,027
-675,408	-200,000	-0,006	0,137
-674,393	381,326	0,104	0,156
-673,378	-191,747	-0,081	0,001
-672,364	2,147	-0,096	0,050
-671,349	-200,000	0,006	-0,035
-670,335	800,000	-0,015	0,044
-669,320	-8,565	-0,109	0,053
-668,305	-200,000	-0,017	0,157
-667,291	-95,865	0,113	-0,022
-666,276	136,949	-0,058	0,055
-665,262	-124,900	-0,038	0,004
-664,247	-200,000	0,016	-0,093
-663,232	139,908	-0,086	-0,082
-662,218	91,958	-0,078	0,064
-661,203	800,000	-0,026	0,068
-660,189	-185,383	0,057	-0,001
-659,174	190,206	-0,105	-0,115
-658,159	-28,698	-0,102	0,042
-657,145	800,000	-0,005	0,013
-656,130	-65,870	0,062	-0,018
-655,116	226,373	0,012	-0,014
-654,101	-65,221	0,076	0,022
-653,086	71,356	-0,084	0,063
-652,072	173,983	-0,034	0,036
-651,057	-200,000	-0,019	0,063
-650,043	76,694	-0,118	-0,091
-649,028	-101,777	0,175	-0,030
-648,014	677,018	-0,053	-0,100
-646,999	70,833	0,121	0,091
-645,984	-200,000	0,009	-0,045
-644,970	696,686	-0,054	-0,104
-643,955	-200,000	0,002	-0,040
-642,941	-11,496	0,128	-0,061
-641,926	99,069	-0,058	0,049
-640,911	800,000	0,057	-0,130
-639,897	8,464	0,148	0,081
-638,882	-2,678	0,125	0,063
-637,868	800,000	-0,007	-0,022
-636,853	66,161	-0,095	-0,070
-635,838	800,000	0,069	0,141
-634,824	25,830	-0,089	-0,054
-633,809	256,645	0,083	0,104
-632,795	-200,000	0,013	0,118
-631,780	529,332	0,019	0,033
-630,765	-116,988	-0,127	0,017
-629,751	-99,382	-0,089	0,016
-628,736	-200,000	-0,003	0,165
-627,722	800,000	-0,037	-0,103
-626,707	3,748	-0,060	0,032
-625,692	-24,959	0,171	0,073
-624,678	-53,814	-0,028	-0,009
-623,663	-200,000	-0,009	-0,044
-622,649	-97,461	-0,105	0,020
-621,634	414,177	-0,064	-0,100
-620,619	-200,000	0,001	-0,021
-619,605	800,000	-0,017	-0,050
-618,590	-5,217	0,168	-0,084
-617,576	-96,869	-0,111	-0,021
-616,561	-26,102	0,050	-0,021
-615,546	102,897	-0,134	-0,114
-614,532	800,000	0,024	-0,063
-613,517	-22,238	-0,089	0,039
-612,503	17,753	0,156	-0,090
-611,488	-37,374	-0,089	-0,034
-610,474	-78,307	0,086	0,021
-609,459	800,000	-0,004	-0,009
-608,444	46,414	-0,035	0,024
-607,430	-162,487	0,022	0,001
-606,415	82,888	-0,022	0,017
-605,401	-191,422	0,126	0,001
-604,386	59,895	0,072	-0,051
-603,371	613,639	0,025	0,045
-602,357	-163,151	-0,110	-0,004
-601,342	800,000	-0,042	-0,114
-600,328	-200,000	-0,003	0,101
-599,313	26,980	-0,092	-0,055
-598,298	116,904	0,028	-0,025
-597,284	767,332	-0,055	-0,108
-596,269	7,271	0,052	0,028
-595,255	800,000	0,032	0,097
-594,240	-16,117	-0,056	0,026
-593,225	-18,041	0,027	-0,012
-592,211	800,000	-0,032	-0,067
-591,196	102,725	-0,061	-0,052
-590,182	-84,056	0,036	0,008
-589,167	-200,000	-0,012	0,048
-588,152	114,898	-0,024	0,021
-587,138	29,204	0,055	0,034
-586,123	-200,000	0,003	-0,123
-585,109	195,836	0,032	-0,035
-584,094	309,948	-0,034	-0,046
-583,079	-200,000	-0,008	0,053
-582,065	-115,725	0,201	0,027
-581,050	-17,840	-0,058	-0,026
-580,036	-200,000	0,003	0,115
-579,021	141,268	0,053	-0,051
-578,006	37,805	-0,078	-0,050
-576,992	-95,513	0,129	0,025
-575,977	-61,463	0,024	0,007
-574,963	-200,000	-0,018	0,253
-573,948	565,306	-0,046	-0,081
-572,934	800,000	-0,015	-0,031
-571,919	496,301	0,107	-0,178
-570,904	184,463	-0,088	0,095
-569,890	-200,000	-0,017	0,078
-568,875	800,000	-0,026	0,054
-567,861	11,394	0,075	-0,042
-566,846	203,123	0,050	-0,056
-565,831	224,201	0,026	-0,031
-564,817	52,766	-0,067	-0,046
-563,802	-58,529	-0,083	-0,026
-562,788	524,703	0,033	-0,056
-561,773	116,995	-0,114	-0,101
-560,758	419,015	-0,051	0,079
-559,744	-200,000	0,006	0,047
-558,729	-200,000	-0,004	-0,085
-557,715	-200,000	0,000	0,034
-556,700	245,134	-0,058	-0,070
-555,685	66,465	-0,065	-0,048
-554,671	-200,000	-0,009	0,039
-553,656	-41,900	0,085	-0,031
-552,642	800,000	0,037	0,095
-551,627	156,777	0,071	-0,071
-550,612	82,458	-0,100	-0,079
-549,598	381,910	-0,061	-0,091
-548,583	129,542	-0,132	-0,122
-547,569	242,637	-0,014	-0,017
-546,554	800,000	0,017	-0,052
-545,539	152,028	0,050	-0,050
-544,525	686,472	0,043	0,082
-543,510	-197,434	-0,055	0,000
-542,496	-115,406	-0,148	0,020
-541,481	-68,641	0,054	0,015
-540,466	213,383	-0,034	0,039
-539,452	-200,000	0,001	-0,012
-538,437	-200,000	-0,037	0,125
-537,423	800,000	-0,023	0,054
-536,408	-200,000	0,016	-0,060
-535,393	-200,000	-0,015	-0,069
-534,379	68,692	-0,043	-0,032
-533,364	36,199	0,094	0,060
-532,350	-200,000	0,028	0,121
-531,335	800,000	-0,017	-0,048
-530,321	-127,018	0,109	0,011
-529,306	-200,000	-0,007	-0,117
-528,291	-130,838	0,040	0,004
-527,277	122,467	-0,123	-0,111
-526,262	-111,964	-0,131	-0,019
-525,248	-200,000	-0,028	0,124
-524,233	345,164	0,038	-0,054
-523,218	59,692	-0,054	-0,039
-522,204	62,019	0,042	-0,030
-521,189	-127,539	-0,134	0,014
-520,175	254,400	0,083	-0,103
-519,160	-200,000	-0,005	-0,094
-518,145	61,757	0,140	0,101
-517,131	328,887	-0,064	0,089
-516,116	800,000	0,044	0,115
-515,102	254,230	0,016	-0,020
-514,087	8,391	0,045	0,024
-513,072	480,564	0,056	-0,092
-512,058	800,000	-0,039	-0,115
-511,043	-11,302	-0,039	-0,019
-510,029	330,674	0,056	0,078
-509,014	800,000	-0,014	-0,037
-507,999	171,857	-0,096	0,100
-506,985	-105,387	0,126	0,020
-505,970	-13,055	-0,171	-0,080
-504,956	-53,905	0,081	0,026
-503,941	281,644	-0,031	-0,040
-502,926	-41,803	-0,155	-0,057
-501,912	599,828	0,037	0,067
-500,897	404,858	-0,070	0,107
-499,883	-20,787	-0,045	0,020
-498,868	-31,984	0,054	0,022
-497,853	-33,928	0,122	-0,048
-496,839	-65,533	0,042	0,012
-495,824	160,190	0,058	-0,058
-494,810	-200,000	0,012	0,097
-493,795	-61,380	0,093	0,028
-492,781	46,803	0,108	-0,073
-491,766	-200,000	0,023	-0,086
-490,751	-200,000	-0,009	-0,116
-489,737	-200,000	-0,002	0,014
-488,722	252,440	-0,100	0,123
-487,708	-200,000	0,005	0,065
-486,693	462,267	-0,023	0,036
-485,678	-50,615	-0,100	-0,034
-484,664	80,276	-0,100	0,077
-483,649	800,000	-0,025	0,055
-482,635	-185,219	-0,181	0,002
-481,620	93,734	0,065	-0,053
-480,605	-144,614	0,132	-0,009
-479,591	-200,000	0,031	0,151
-478,576	93,176	-0,127	0,103
-477,562	800,000	-0,025	-0,075
-476,547	77,279	-0,025	0,019
-475,532	800,000	-0,006	0,016
-474,518	-45,158	-0,076	-0,027
-473,503	87,158	0,048	-0,038
-472,489	-200,000	0,014	-0,094
-471,474	103,604	0,071	-0,060
-470,459	-200,000	-0,015	-0,137
-469,445	595,329	-0,061	0,110
-468,430	685,488	0,028	0,052
-467,416	77,862	0,047	0,036
-466,401	-200,000	0,039	-0,130
-465,386	197,828	0,086	-0,095
-464,372	-77,957	0,056	0,014
-463,357	-167,627	-0,082	0,002
-462,343	181,851	-0,085	0,090
-461,328	618,100	-0,041	-0,074
-460,313	68,826	0,176	-0,130
-459,299	-117,864	0,051	-0,007
-458,284	290,678	0,048	-0,062
-457,270	187,928	-0,058	-0,062
-456,255	800,000	0,023	-0,053
-455,241	327,921	0,022	-0,030
-454,226	692,286	0,032	-0,060
-453,211	117,576	-0,082	-0,073
-452,197	132,660	-0,097	0,090
-451,182	-27,971	0,158	0,066
-450,168	455,340	-0,043	-0,069
-449,153	796,182	-0,049	0,097
-448,138	147,722	0,127	-0,123
-447,124	-74,944	-0,049	-0,013
-446,109	-135,106	-0,065	-0,006
-445,095	71,971	-0,075	0,056
-444,080	-200,000	0,007	0,032
-443,065	-200,000	-0,017	0,056
-442,051	-200,000	0,031	-0,127
-441,036	119,345	-0,068	-0,061
-440,022	19,822	-0,032	0,019
-439,007	-165,871	-0,051	0,002
-437,992	57,198	-0,083	-0,058
-436,978	-78,563	0,105	0,026
-435,963	28,508	0,029	0,018
-434,949	-200,000	0,018	-0,063
-433,934	-200,000	-0,045	-0,181
-432,919	-5,674	-0,121	-0,060
-431,905	-200,000	0,043	0,140
-430,890	-87,267	0,094	0,020
-429,876	-200,000	0,025	0,195
-428,861	800,000	-0,070	0,161
-427,846	-86,868	0,137	0,030
-426,832	-200,000	0,043	-0,188
-425,817	-200,000	-0,013	-0,138
-424,803	582,670	0,105	-0,186
-423,788	-144,367	-0,054	-0,004
-422,773	79,771	-0,007	-0,005
-421,759	66,372	0,053	0,039
-420,744	-41,355	-0,163	0,060
-419,730	519,692	0,034	0,058
-418,715	425,762	-0,076	-0,118
-417,701	-41,500	0,078	0,029
-416,686	800,000	0,031	0,076
-415,671	-139,799	0,137	0,010
-414,657	433,982	-0,020	0,032
-413,642	-200,000	0,009	0,057
-412,628	146,843	-0,036	-0,035
-411,613	164,026	-0,024	-0,024
-410,598	-200,000	0,029	-0,166
-409,584	-28,625	0,137	-0,056
-408,569	66,593	0,038	-0,028
-407,555	-200,000	0,012	0,106
-406,540	800,000	0,030	0,061
-405,525	458,852	-0,072	-0,115
-404,511	800,000	-0,044	-0,100
-403,496	-200,000	-0,003	-0,120
-402,482	168,892	0,040	-0,041
-401,467	-98,689	-0,060	0,011
-400,452	167,349	0,062	-0,063
-399,438	-40,680	0,186	-0,069
-398,423	-83,030	-0,063	0,014
-397,409	800,000	-0,027	-0,076
-396,394	-200,000	-0,010	0,036
-395,379	781,978	0,035	-0,068
-394,365	123,210	-0,034	-0,030
-393,350	-200,000	0,017	0,059
-392,336	405,514	-0,042	0,063
-391,321	19,899	-0,106	-0,061
-390,306	-38,342	0,023	-0,009
-389,292	-200,000	-0,013	0,098
-388,277	-200,000	-0,003	0,100
-387,263	43,395	-0,057	-0,038
-386,248	800,000	-0,029	-0,091
-385,233	25,603	-0,109	0,065
-384,219	209,914	-0,047	0,053
-383,204	-18,246	-0,181	0,081
-382,190	-200,000	-0,044	-0,165
-381,175	176,217	0,021	-0,022
-380,160	800,000	-0,048	0,144
-379,146	800,000	0,077	0,203
-378,131	195,910	0,078	0,086
-377,117	-200,000	0,015	-0,105
-376,102	-55,733	-0,113	0,036
-375,088	779,752	-0,028	-0,054
-374,073	800,000	-0,021	-0,043
-373,058	-200,000	-0,008	0,067
-372,044	-122,646	0,154	-0,018
-371,029	180,192	0,056	-0,058
-370,015	535,440	-0,005	0,008
-369,000	-142,315	-0,109	-0,008
-367,985	800,000	-0,031	-0,091
-366,971	52,498	-0,035	0,024
-365,956	-73,668	-0,161	0,042
-364,942	-200,000	0,024	-0,153
-363,927	800,000	-0,050	0,103
-362,912	0,895	0,226	0,116
-361,898	-155,055	-0,204	0,009
-360,883	800,000	0,031	0,065
-359,869	230,439	-0,070	-0,082
-358,854	-110,697	0,059	0,009
-357,839	-173,849	0,059	0,001
-356,825	-200,000	-0,056	-0,000
-355,810	25,370	-0,088	0,052
-354,796	-118,788	-0,110	-0,014
-353,781	-131,750	-0,076	0,007
-352,766	-118,443	-0,157	0,020
-351,752	290,629	-0,033	0,044
-350,737	800,000	-0,032	0,084
-349,723	-200,000	-0,020	-0,082
-348,708	11,904	-0,047	-0,026
-347,693	-200,000	-0,011	-0,071
-346,679	7,660	-0,050	0,027
-345,664	741,556	0,007	-0,013
-344,650	-171,114	0,135	-0,003
-343,635	-108,533	0,058	0,009
-342,620	800,000	-0,010	-0,032
-341,606	800,000	-0,032	-0,063
-340,591	800,000	-0,022	0,064
-339,577	-55,382	-0,114	0,036
-338,562	800,000	0,015	-0,035
-337,548	434,696	-0,005	-0,008
-336,533	251,404	0,031	0,037
-335,518	246,630	0,013	0,015
-334,504	-99,723	-0,064	-0,011
-333,489	800,000	0,023	0,070
-332,475	-200,000	-0,024	0,112
-331,460	-200,000	-0,009	0,070
-330,445	800,000	-0,033	-0,079
-329,431	1,906	0,145	-0,075
-328,416	-14,653	0,094	0,043
-327,402	-14,218	0,031	0,014
-326,387	200,724	-0,051	-0,056
-325,372	776,874	0,036	0,072
-324,358	-200,000	0,012	-0,111
-323,343	240,604	-0,021	0,025
-322,329	-71,384	-0,059	-0,016
-321,314	-85,400	0,137	-0,030
-320,299	800,000	0,016	0,044
-319,285	800,000	0,025	-0,061
-318,270	-99,973	-0,048	-0,009
-317,256	374,620	0,040	-0,059
-316,241	83,076	-0,073	-0,057
-315,226	281,147	0,106	0,137
-314,212	81,412	0,046	0,036
-313,197	62,921	0,090	0,064
-312,183	-101,553	0,041	0,007
-311,168	-96,282	-0,033	0,006
-310,153	800,000	-0,055	0,139
-309,139	800,000	0,036	-0,099
-308,124	800,000	0,036	-0,107
-307,110	-200,000	0,031	0,140
-306,095	276,399	0,080	-0,102
-305,080	-68,919	-0,079	0,022
-304,066	-59,241	-0,125	-0,038
-303,051	236,777	0,092	-0,109
-302,037	-200,000	0,005	0,021
-301,022	-59,479	0,143	0,044
-300,008	11,515	0,093	-0,051
-298,993	-200,000	0,015	-0,055
-297,978	-200,000	0,001	0,064
-296,964	49,444	-0,109	0,073
-295,949	176,156	0,105	0,109
-294,935	538,957	-0,052	-0,089
-293,920	800,000	0,058	-0,159
-292,905	10,262	0,051	0,028
-291,891	588,901	0,041	0,072
-290,876	202,448	0,052	0,057
-289,862	-174,575	0,045	0,001
-288,847	-96,541	-0,086	0,016
-287,832	356,264	-0,031	0,045
-286,818	-4,423	0,083	-0,041
-285,803	-200,000	-0,005	0,069
-284,789	-61,617	0,056	0,017
-283,774	800,000	0,056	-0,136
-282,759	-120,200	-0,109	-0,013
-281,745	102,749	-0,112	0,093
-280,730	-80,554	0,146	0,034
-279,716	-39,637	-0,089	-0,033
-278,701	800,000	-0,017	0,035
-277,686	800,000	0,056	-0,158
-276,672	-200,000	0,026	0,103
-275,657	-200,000	-0,030	-0,104
-274,643	-41,359	-0,172	-0,063
-273,628	-200,000	0,015	-0,134
-272,613	-56,372	0,119	0,037
-271,599	-77,098	-0,073	0,018
-270,584	222,116	-0,076	0,087
-269,570	89,361	0,107	0,085
-268,555	-27,774	0,071	0,029
-267,540	28,859	-0,090	-0,054
-266,526	-45,945	-0,139	0,049
-265,511	800,000	-0,035	-0,104
-264,497	-65,093	0,087	-0,025
-263,482	-30,850	0,076	-0,031
-262,467	-200,000	0,016	0,145
-261,453	-114,681	0,108	-0,015
-260,438	-200,000	0,020	-0,099
-259,424	-200,000	0,020	-0,063
-258,409	-33,929	-0,107	-0,042
-257,395	275,018	-0,091	0,116
-256,380	800,000	0,118	0,264
-255,365	67,467	0,150	0,109
-254,351	706,067	-0,031	-0,060
-253,336	-164,024	0,022	-0,001
-252,322	136,449	-0,067	-0,063
-251,307	601,468	-0,083	0,148
-250,292	-200,000	0,011	-0,081
-249,278	-200,000	0,005	0,104
-248,263	151,471	-0,136	0,132
-247,249	486,605	0,061	0,100
-246,234	44,359	0,085	-0,056
-245,219	2,585	0,049	0,025
-244,205	10,416	-0,070	-0,038
-243,190	-31,818	-0,109	0,043
-242,176	-200,000	0,007	-0,084
-241,161	-41,325	0,016	-0,006
-240,146	597,669	0,054	-0,096
-239,132	-103,187	-0,137	-0,023
-238,117	-200,000	-0,043	-0,161
-237,103	800,000	-0,050	-0,130
-236,088	-177,065	0,026	0,000
-235,073	-40,688	0,178	0,066
-234,059	800,000	0,027	-0,054
-233,044	-200,000	0,010	0,065
-232,030	-72,823	0,044	-0,011
-231,015	427,475	-0,090	-0,139
-230,000	-200,000	0,006	-0,040
-228,986	-188,333	-0,145	-0,001
-227,971	-89,229	0,128	-0,027
-226,957	800,000	-0,053	0,106
-225,942	133,575	0,080	0,074
-224,927	-200,000	0,023	-0,093
-223,913	-104,805	-0,085	0,014
-222,898	-42,272	-0,157	0,057
-221,884	800,000	-0,073	0,147
-220,869	495,729	0,096	0,158
-219,855	312,361	0,032	0,043
-218,840	-27,486	0,082	0,034
-217,825	800,000	0,014	-0,032
-216,811	195,140	-0,101	0,110
-215,796	800,000	0,031	0,074
-214,782	568,045	0,047	0,081
-213,767	74,649	0,085	0,063
-212,752	800,000	0,046	0,098
-211,738	73,278	0,131	-0,098
-210,723	105,571	0,035	0,030
-209,709	-149,962	-0,132	-0,007
-208,694	-51,023	-0,077	0,026
-207,679	-200,000	-0,005	-0,040
-206,665	-200,000	0,005	0,075
-205,650	-35,995	0,109	-0,042
-204,636	63,900	-0,050	0,036
-203,621	50,385	0,076	0,051
-202,606	-200,000	0,003	-0,046
-201,592	-200,000	0,008	-0,047
-200,577	-200,000	-0,032	0,113
-199,563	166,569	0,065	0,066
-198,548	-60,592	0,113	0,034
-197,533	126,845	-0,029	-0,026
-196,519	-200,000	-0,010	-0,033
-195,504	-200,000	-0,000	0,107
-194,490	417,667	-0,104	0,159
-193,475	-91,908	0,009	0,002
-192,460	-200,000	-0,021	0,151
-191,446	800,000	-0,034	-0,074
-190,431	-29,192	-0,047	0,019
-189,417	800,000	0,050	0,156
-188,402	-188,493	0,078	0,001
-187,387	-134,968	-0,091	-0,008
-186,373	800,000	-0,023	-0,062
-185,358	-44,154	-0,097	-0,035
-184,344	16,286	0,157	0,088
-183,329	-113,556	0,065	0,009
-182,315	66,664	0,020	0,015
-181,300	-17,308	-0,050	0,022
-180,285	83,439	0,007	-0,005
-179,271	305,247	-0,096	0,127
-178,256	38,827	-0,157	0,099
-177,242	219,506	0,106	-0,121
-176,227	-8,988	0,043	0,020
-175,212	217,285	-0,074	0,084
-174,198	-200,000	-0,034	-0,136
-173,183	151,111	-0,025	-0,024
-172,169	-37,121	-0,128	0,049
-171,154	153,669	0,098	-0,096
-170,139	-200,000	-0,002	0,022
-169,125	-9,520	0,159	0,075
-168,110	164,466	0,091	0,092
-167,096	427,338	0,089	0,137
-166,081	97,859	-0,058	-0,048
-165,066	123,078	0,118	-0,106
-164,052	155,992	0,030	0,030
-163,037	32,712	0,065	-0,040
-162,023	32,612	-0,101	-0,062
-161,008	132,324	0,100	-0,092
-159,993	-4,254	0,088	0,043
-158,979	-139,046	-0,141	0,011
-157,964	800,000	-0,082	0,195
-156,950	-200,000	-0,006	0,028
-155,935	352,268	0,072	-0,102
-154,920	800,000	0,035	-0,081
-153,906	-200,000	0,026	0,091
-152,891	800,000	-0,036	0,079
-151,877	230,929	0,019	-0,022
-150,862	33,311	0,092	-0,057
-149,847	402,135	0,025	-0,037
-148,833	-62,847	0,061	0,018
-147,818	-64,414	0,055	-0,016
-146,804	-200,000	-0,023	0,110
-145,789	-33,402	-0,091	0,036
-144,775	-130,753	0,071	-0,007
-143,760	72,758	0,082	0,060
-142,745	533,526	-0,051	-0,087
-141,731	-200,000	0,016	-0,056
-140,716	195,372	-0,076	0,082
-139,702	403,751	0,024	0,036
-138,687	-8,711	-0,060	-0,029
-137,672	-200,000	0,002	-0,171
-136,658	17,269	-0,094	-0,053
-135,643	-200,000	-0,021	-0,107
-134,629	-51,212	-0,077	-0,025
-133,614	252,436	0,073	0,089
-132,599	551,897	0,059	-0,102
-131,585	282,741	-0,014	0,018
-130,570	99,505	0,068	-0,056
-129,556	237,942	-0,130	-0,154
-128,541	59,694	0,056	-0,039
-127,526	-200,000	0,003	-0,029
-126,512	167,288	-0,010	-0,010
-125,497	769,423	0,090	0,175
-124,483	-15,860	0,091	0,041
-123,468	-52,313	-0,142	-0,046
-122,453	36,888	-0,049	-0,031
-121,439	-116,640	-0,098	0,013
-120,424	12,043	-0,125	0,068
-119,410	7,611	-0,146	0,077
-118,395	800,000	-0,022	-0,049
