DTS Sentinel unit serial number:	SN410029Multiplexer serial number:	ORYXHardware model number:	OX2-SRSoftware version number:	ORYX F/W v4,00 Oryx Data Collector v3.7.2.0data status	okinstallation	BH3 CH2differential loss correction	single-endedforward channel	channel 2reverse channel	N/Adate	2023/12/06time	06:27:28forward acquisition time	300,00reverse acquisition time	0,00gamma	499,1914k internal	0,3197k external	0,3197temperature offset calibration	1,0000default loss term (dB/km)	0,3820temperature slope calibration	1,0000multiplexer offset coefficient	1,0000multiplexer slope coefficient	1,0000fibre end	0,00T internal ref (°C)	8,89T ext. ref 1 (°C)	-5,73T ext. ref 2 (°C)	-5,85length (m)	temperature (°C)	Stokes	anti-Stokes-744,400	190,077	-0,122	-0,134
-743,385	162,347	-0,039	0,040
-742,371	224,023	0,083	-0,098
-741,356	57,808	-0,167	0,119
-740,342	-60,263	0,075	-0,023
-739,327	80,370	-0,127	0,100
-738,312	-200,000	-0,033	-0,142
-737,298	-103,129	-0,258	0,044
-736,283	369,966	-0,047	-0,070
-735,269	18,878	-0,203	0,118
-734,254	800,000	0,007	0,018
-733,239	-124,310	-0,386	0,043
-732,225	-111,689	0,071	0,010
-731,210	-200,000	-0,032	0,103
-730,196	488,950	0,025	-0,041
-729,181	200,469	-0,064	-0,072
-728,167	-6,084	0,112	-0,055
-727,152	-200,000	0,004	0,125
-726,137	-96,449	0,135	0,026
-725,123	-68,691	-0,187	-0,052
-724,108	800,000	-0,031	-0,083
-723,094	-200,000	-0,018	-0,149
-722,079	31,960	0,066	0,041
-721,064	-170,306	-0,129	0,003
-720,050	800,000	-0,052	-0,155
-719,035	-27,323	0,053	-0,022
-718,021	-111,557	-0,165	0,024
-717,006	114,507	-0,060	0,053
-715,991	-160,411	-0,123	0,005
-714,977	-85,914	-0,116	0,026
-713,962	-62,842	-0,132	0,040
-712,948	-20,551	-0,067	-0,030
-711,933	-200,000	-0,002	0,102
-710,918	-138,095	-0,092	-0,007
-709,904	93,081	-0,048	-0,040
-708,889	-188,074	-0,048	-0,000
-707,875	-200,000	0,017	-0,201
-706,860	257,407	0,104	0,130
-705,845	152,100	0,033	-0,033
-704,831	4,488	-0,134	0,071
-703,816	800,000	-0,025	-0,056
-702,802	-49,194	-0,027	-0,009
-701,787	58,305	-0,065	0,046
-700,772	343,090	0,038	-0,055
-699,758	84,124	-0,074	-0,059
-698,743	315,324	0,050	0,069
-697,729	4,807	0,108	0,058
-696,714	428,374	-0,060	-0,095
-695,699	-200,000	-0,036	-0,164
-694,685	277,922	-0,053	-0,069
-693,670	-200,000	0,020	-0,153
-692,656	-200,000	0,010	-0,092
-691,641	-33,607	-0,124	0,050
-690,627	-40,394	0,159	-0,060
-689,612	41,233	-0,034	-0,023
-688,597	-42,548	-0,065	-0,024
-687,583	333,665	0,122	0,171
-686,568	375,670	-0,051	-0,075
-685,554	246,709	0,077	-0,095
-684,539	-200,000	0,002	-0,078
-683,524	552,771	-0,040	-0,070
-682,510	115,638	0,054	0,048
-681,495	-12,799	-0,217	0,102
-680,481	800,000	0,013	0,027
-679,466	150,643	-0,096	-0,095
-678,451	800,000	0,014	0,034
-677,437	129,728	-0,064	0,059
-676,422	35,638	-0,174	0,111
-675,408	-190,848	0,124	0,001
-674,393	81,366	-0,131	-0,103
-673,378	-44,074	-0,047	0,017
-672,364	800,000	-0,026	-0,075
-671,349	800,000	-0,010	0,027
-670,335	561,184	-0,003	0,005
-669,320	439,381	-0,031	-0,050
-668,305	546,359	0,039	-0,068
-667,291	282,208	0,070	0,091
-666,276	89,953	-0,101	-0,082
-665,262	-2,757	-0,058	-0,030
-664,247	516,747	0,014	0,024
-663,232	651,906	0,035	0,066
-662,218	-149,768	0,104	-0,006
-661,203	26,798	-0,085	-0,052
-660,189	372,860	-0,104	-0,155
-659,174	189,848	-0,110	-0,120
-658,159	-200,000	0,005	-0,044
-657,145	-200,000	0,027	-0,115
-656,130	50,204	-0,134	-0,092
-655,116	-200,000	-0,004	0,247
-654,101	800,000	0,039	0,118
-653,086	-103,640	-0,162	-0,027
-652,072	66,989	-0,032	-0,023
-651,057	800,000	-0,011	-0,023
-650,043	573,227	-0,081	0,144
-649,028	-9,627	-0,151	-0,073
-648,014	-200,000	0,006	-0,088
-646,999	-37,207	-0,057	-0,022
-645,984	392,575	0,096	-0,145
-644,970	535,347	-0,029	0,050
-643,955	-29,391	-0,102	-0,042
-642,941	317,158	0,028	-0,039
-641,926	-200,000	0,031	0,119
-640,911	110,588	0,067	-0,058
-639,897	-68,103	0,057	-0,016
-638,882	1,577	-0,091	-0,047
-637,868	-97,639	-0,067	-0,013
-636,853	-200,000	0,005	-0,096
-635,838	109,779	0,012	-0,011
-634,824	-112,353	-0,057	0,008
-633,809	50,721	0,156	0,107
-632,795	-89,863	0,073	0,015
-631,780	44,235	0,034	0,023
-630,765	-200,000	0,020	0,072
-629,751	-200,000	0,002	0,083
-628,736	-200,000	-0,041	-0,136
-627,722	75,597	-0,020	0,015
-626,707	-70,582	0,102	-0,028
-625,692	96,192	-0,113	-0,093
-624,678	-200,000	0,012	0,094
-623,663	330,203	-0,006	-0,008
-622,649	800,000	-0,007	-0,022
-621,634	155,089	-0,128	-0,128
-620,619	-120,577	-0,056	-0,007
-619,605	-200,000	0,031	0,125
-618,590	-200,000	-0,013	-0,107
-617,576	60,803	-0,089	-0,064
-616,561	800,000	-0,006	-0,016
-615,546	-200,000	0,014	-0,114
-614,532	358,998	-0,112	-0,162
-613,517	495,628	-0,081	-0,136
-612,503	112,153	-0,161	-0,141
-611,488	-136,825	-0,095	-0,008
-610,474	-23,588	0,106	0,046
-609,459	23,073	-0,075	0,045
-608,444	6,846	0,047	-0,025
-607,430	800,000	-0,039	0,110
-606,415	-138,797	-0,206	0,016
-605,401	-200,000	0,006	-0,078
-604,386	309,167	-0,028	0,038
-603,371	-93,043	0,070	-0,014
-602,357	-127,360	-0,115	-0,012
-601,342	-200,000	0,001	0,010
-600,328	202,715	-0,053	0,060
-599,313	-92,538	-0,168	-0,034
-598,298	642,159	0,019	-0,035
-597,284	-65,460	0,099	-0,029
-596,269	-51,886	-0,032	0,011
-595,255	109,758	0,051	0,044
-594,240	41,453	0,046	-0,030
-593,225	-200,000	0,016	-0,083
-592,211	-181,031	-0,041	-0,001
-591,196	-200,000	-0,001	0,004
-590,182	-200,000	-0,031	-0,156
-589,167	-46,348	0,158	0,056
-588,152	263,416	0,054	-0,068
-587,138	109,925	-0,117	-0,102
-586,123	549,739	0,032	-0,055
-585,109	-37,608	-0,114	0,044
-584,094	-38,132	-0,093	0,036
-583,079	10,111	0,046	-0,025
-582,065	58,484	0,081	0,057
-581,050	800,000	0,026	0,061
-580,036	199,736	0,093	0,103
-579,021	634,715	-0,025	-0,046
-578,006	682,431	-0,030	-0,057
-576,992	417,098	0,054	-0,083
-575,977	40,851	-0,081	0,053
-574,963	-200,000	-0,030	0,146
-573,948	388,282	-0,024	-0,037
-572,934	-200,000	-0,005	0,140
-571,919	-92,880	0,094	-0,019
-570,904	196,265	0,026	-0,029
-569,890	56,448	-0,063	-0,044
-568,875	588,929	0,075	0,134
-567,861	-78,606	0,020	0,005
-566,846	4,601	0,057	0,030
-565,831	40,051	0,025	0,016
-564,817	177,817	0,093	-0,098
-563,802	-200,000	-0,012	-0,069
-562,788	-97,809	0,055	0,010
-561,773	-142,137	-0,076	0,005
-560,758	-116,491	0,067	-0,009
-559,744	-200,000	0,009	0,030
-558,729	-6,097	0,080	0,039
-557,715	30,643	-0,078	-0,048
-556,700	52,660	0,109	0,075
-555,685	24,563	-0,123	-0,074
-554,671	-68,402	0,108	0,030
-553,656	574,236	0,050	0,088
-552,642	-199,931	-0,126	-0,000
-551,627	605,103	-0,038	0,069
-550,612	274,368	-0,083	0,107
-549,598	-200,000	-0,032	-0,105
-548,583	-82,450	-0,091	-0,021
-547,569	-200,000	-0,018	0,066
-546,554	-27,507	0,133	-0,056
-545,539	123,572	-0,047	-0,043
-544,525	669,873	0,092	0,174
-543,510	29,192	-0,127	-0,078
-542,496	206,198	-0,099	-0,111
-541,481	800,000	0,058	-0,161
-540,466	-200,000	-0,003	0,103
-539,452	519,357	0,084	-0,143
-538,437	800,000	0,039	-0,091
-537,423	800,000	0,027	0,074
-536,408	-200,000	-0,011	-0,071
-535,393	167,312	0,099	-0,102
-534,379	-118,369	-0,141	-0,018
-533,364	81,740	-0,020	0,016
-532,350	800,000	-0,024	0,066
-531,335	800,000	-0,011	-0,027
-530,321	525,070	0,078	0,132
-529,306	-200,000	-0,017	0,095
-528,291	800,000	0,040	0,120
-527,277	228,897	-0,036	-0,043
-526,262	358,414	-0,015	-0,021
-525,248	265,977	0,091	0,115
-524,233	157,766	-0,108	0,108
-523,218	-200,000	0,025	-0,129
-522,204	612,555	-0,018	-0,033
-521,189	-200,000	-0,020	0,082
-520,175	-71,127	-0,062	-0,017
-519,160	-200,000	-0,009	0,044
-518,145	-200,000	0,024	0,111
-517,131	-22,891	-0,070	0,030
-516,116	116,679	0,124	0,110
-515,102	7,499	-0,107	-0,057
-514,087	-200,000	-0,020	-0,102
-513,072	-56,207	0,047	-0,015
-512,058	-200,000	0,001	-0,219
-511,043	-82,105	0,083	0,019
-510,029	30,078	-0,063	-0,039
-509,014	800,000	0,037	0,114
-507,999	363,972	-0,020	-0,029
-506,985	800,000	-0,082	0,177
-505,970	-42,018	-0,033	-0,012
-504,956	-136,247	0,106	0,009
-503,941	800,000	-0,054	0,109
-502,926	234,460	0,099	0,118
-501,912	56,521	0,075	-0,053
-500,897	-200,000	-0,020	0,064
-499,883	-48,063	0,147	0,051
-498,868	-200,000	0,032	-0,146
-497,853	-200,000	-0,010	-0,048
-496,839	59,849	0,079	-0,056
-495,824	-200,000	0,022	-0,071
-494,810	55,205	0,049	0,034
-493,795	97,416	-0,123	0,102
-492,781	189,345	-0,074	0,080
-491,766	-200,000	0,004	0,043
-490,751	494,395	-0,028	0,046
-489,737	201,144	0,074	0,082
-488,722	800,000	0,006	-0,018
-487,708	800,000	0,052	-0,144
-486,693	342,688	0,100	0,142
-485,678	800,000	0,046	-0,112
-484,664	48,726	-0,018	0,012
-483,649	-90,560	-0,111	0,023
-482,635	71,998	0,105	-0,079
-481,620	800,000	0,028	-0,075
-480,605	800,000	-0,024	-0,075
-479,591	-65,332	-0,029	-0,008
-478,576	5,273	0,032	0,017
-477,562	-200,000	-0,021	-0,099
-476,547	-104,168	0,117	-0,019
-475,532	-200,000	0,002	0,046
-474,518	-93,336	0,078	-0,015
-473,503	-47,766	0,081	0,028
-472,489	-200,000	-0,006	0,053
-471,474	38,540	0,097	-0,062
-470,459	-142,394	0,112	-0,008
-469,445	800,000	-0,099	-0,211
-468,430	18,160	-0,031	0,018
-467,416	-200,000	-0,003	0,051
-466,401	-115,023	0,259	0,035
-465,386	-200,000	0,004	0,115
-464,372	201,971	-0,073	-0,081
-463,357	-96,183	-0,022	-0,004
-462,343	85,407	-0,066	0,052
-461,328	-155,081	0,028	-0,001
-460,313	-100,712	-0,096	-0,017
-459,299	206,823	-0,051	0,057
-458,284	-53,065	0,201	-0,066
-457,270	-125,566	-0,056	0,006
-456,255	-200,000	-0,004	-0,033
-455,241	-200,000	0,004	-0,048
-454,226	-115,527	0,069	-0,009
-453,211	98,958	-0,054	-0,045
-452,197	65,407	0,175	0,128
-451,182	800,000	-0,033	-0,074
-450,168	146,361	0,115	0,112
-449,153	475,029	-0,066	-0,108
-448,138	-175,121	-0,097	0,002
-447,124	85,354	-0,041	-0,032
-446,109	-68,285	0,072	0,020
-445,095	140,338	0,140	0,133
-444,080	-73,774	-0,012	-0,003
-443,065	-200,000	-0,002	0,102
-442,051	76,432	-0,111	-0,085
-441,036	-33,095	-0,105	-0,042
-440,022	766,623	-0,061	-0,121
-439,007	-200,000	0,004	-0,014
-437,992	-200,000	-0,013	0,062
-436,978	-18,555	0,052	0,023
-435,963	800,000	-0,049	-0,124
-434,949	484,833	0,050	-0,083
-433,934	-90,520	-0,125	0,026
-432,919	541,855	0,017	-0,030
-431,905	194,833	-0,057	-0,062
-430,890	-168,023	0,039	0,001
-429,876	-200,000	-0,002	0,205
-428,861	43,554	0,116	-0,076
-427,846	-200,000	0,003	0,009
-426,832	527,168	0,057	-0,096
-425,817	-129,788	-0,120	-0,012
-424,803	188,981	-0,044	0,048
-423,788	-82,558	0,074	0,017
-422,773	-118,209	0,126	-0,016
-421,759	-28,285	-0,044	-0,018
-420,744	-200,000	0,006	-0,045
-419,730	35,330	-0,038	-0,024
-418,715	-200,000	-0,009	-0,036
-417,701	-188,059	0,115	0,001
-416,686	800,000	-0,055	-0,140
-415,671	242,861	0,029	0,035
-414,657	-24,442	-0,125	0,053
-413,642	-200,000	-0,006	0,089
-412,628	58,902	0,035	-0,025
-411,613	107,722	-0,024	0,020
-410,598	174,559	0,045	0,046
-409,584	729,480	0,024	-0,047
-408,569	13,993	0,169	-0,094
-407,555	32,078	0,077	0,048
-406,540	-158,728	-0,093	0,004
-405,525	800,000	0,017	-0,037
-404,511	-90,459	-0,113	0,023
-403,496	113,776	0,016	0,014
-402,482	-88,677	-0,072	0,015
-401,467	26,949	0,086	0,052
-400,452	373,299	-0,011	0,016
-399,438	-200,000	-0,009	0,124
-398,423	-138,187	0,073	0,006
-397,409	-200,000	0,005	-0,030
-396,394	-92,837	-0,180	-0,036
-395,379	-200,000	-0,020	0,071
-394,365	-200,000	-0,006	0,044
-393,350	-200,000	0,000	0,094
-392,336	219,676	0,087	0,101
-391,321	-200,000	0,001	0,033
-390,306	183,302	0,038	-0,040
-389,292	-200,000	-0,016	-0,067
-388,277	800,000	0,015	0,034
-387,263	800,000	0,082	0,164
-386,248	-200,000	0,028	0,155
-385,233	752,929	0,063	0,124
-384,219	-200,000	0,000	-0,090
-383,204	-131,923	-0,076	-0,007
-382,190	-200,000	-0,033	-0,114
-381,175	800,000	-0,054	-0,123
-380,160	206,488	0,077	-0,086
-379,146	-200,000	-0,008	0,143
-378,131	800,000	0,032	0,089
-377,117	-104,985	-0,075	-0,012
-376,102	38,201	0,100	-0,064
-375,088	629,934	0,013	0,023
-374,073	-44,194	-0,197	0,070
-373,058	800,000	0,046	0,094
-372,044	349,318	0,032	-0,046
-371,029	800,000	-0,040	0,083
-370,015	21,673	-0,075	-0,044
-369,000	362,472	-0,081	0,117
-367,985	800,000	-0,066	-0,171
-366,971	800,000	-0,045	-0,124
-365,956	255,916	0,047	-0,058
-364,942	-0,646	0,055	0,028
-363,927	-200,000	0,022	0,100
-362,912	383,946	-0,036	0,053
-361,898	-200,000	-0,005	0,119
-360,883	-167,716	-0,037	0,001
-359,869	-83,485	-0,065	0,015
-358,854	64,281	-0,050	-0,036
-357,839	260,773	0,124	0,155
-356,825	-138,742	0,054	0,004
-355,810	131,835	-0,021	-0,019
-354,796	230,670	0,047	0,055
-353,781	800,000	-0,018	-0,039
-352,766	224,096	-0,017	0,020
-351,752	-48,442	0,110	0,038
-350,737	232,529	0,007	0,008
-349,723	-200,000	-0,010	0,111
-348,708	-200,000	0,023	0,140
-347,693	-200,000	-0,014	0,047
-346,679	-59,906	0,026	-0,008
-345,664	-25,031	0,113	-0,048
-344,650	160,697	0,104	-0,104
-343,635	800,000	0,060	0,143
-342,620	-200,000	-0,009	-0,044
-341,606	-200,000	0,004	0,034
-340,591	110,487	0,096	-0,083
-339,577	666,984	-0,024	-0,045
-338,562	161,153	-0,048	0,049
-337,548	100,748	0,128	0,107
-336,533	317,237	0,060	0,081
-335,518	-200,000	0,003	0,052
-334,504	-116,048	0,039	0,005
-333,489	-200,000	0,015	-0,093
-332,475	-200,000	-0,052	-0,171
-331,460	-55,665	0,069	-0,022
-330,445	620,476	0,044	0,079
-329,431	-200,000	0,003	0,013
-328,416	-200,000	0,001	0,080
-327,402	146,305	-0,026	0,025
-326,387	-51,945	-0,112	0,037
-325,372	-200,000	-0,019	0,203
-324,358	-200,000	0,006	-0,153
-323,343	800,000	-0,080	-0,166
-322,329	-200,000	0,063	0,199
-321,314	-200,000	0,048	0,203
-320,299	157,180	0,103	0,102
-319,285	-77,164	-0,043	-0,011
-318,270	-200,000	0,002	-0,068
-317,256	800,000	0,056	0,169
-316,241	800,000	0,016	0,032
-315,226	800,000	0,025	-0,057
-314,212	122,064	0,065	-0,058
-313,197	-78,746	0,128	0,031
-312,183	71,918	-0,077	0,057
-311,168	-44,805	0,046	-0,016
-310,153	95,385	-0,058	-0,047
-309,139	314,068	-0,054	-0,072
-308,124	-200,000	0,013	-0,040
-307,110	-68,571	0,099	0,027
-306,095	485,153	0,062	0,101
-305,080	280,721	-0,089	0,115
-304,066	142,536	0,078	0,074
-303,051	18,681	-0,055	-0,031
-302,037	219,780	-0,042	-0,049
-301,022	-200,000	0,035	-0,131
-300,008	22,269	-0,054	0,032
-298,993	-200,000	-0,004	0,022
-297,978	-200,000	0,025	-0,110
-296,964	211,981	-0,064	-0,072
-295,949	-200,000	-0,009	0,054
-294,935	134,501	0,049	0,045
-293,920	170,370	-0,069	-0,071
-292,905	-200,000	-0,009	0,038
-291,891	225,668	0,072	-0,084
-290,876	48,348	-0,052	0,035
-289,862	-200,000	-0,013	-0,079
-288,847	800,000	0,010	-0,022
-287,832	-93,849	-0,082	-0,016
-286,818	-200,000	0,002	0,033
-285,803	-9,687	0,101	-0,048
-284,789	84,158	-0,093	0,072
-283,774	188,902	0,052	-0,056
-282,759	406,862	-0,069	0,104
-281,745	-200,000	-0,016	-0,082
-280,730	123,439	-0,108	-0,097
-279,716	688,353	0,043	0,082
-278,701	-56,191	-0,078	0,025
-277,686	9,116	0,090	0,049
-276,672	-200,000	0,030	0,141
-275,657	-106,214	-0,027	-0,004
-274,643	499,140	-0,021	-0,036
-273,628	16,215	-0,138	-0,078
-272,613	-200,000	0,019	-0,142
-271,599	0,050	0,079	0,040
-270,584	-200,000	-0,005	0,083
-269,570	629,947	-0,049	-0,090
-268,555	121,243	0,052	0,047
-267,540	320,674	-0,050	0,068
-266,526	-200,000	0,032	0,111
-265,511	-19,378	0,067	-0,030
-264,497	-50,797	0,217	0,072
-263,482	47,922	0,088	-0,059
-262,467	-200,000	0,020	0,069
-261,453	-200,000	0,003	-0,065
-260,438	576,211	0,015	-0,026
-259,424	357,840	-0,038	-0,055
-258,409	-200,000	0,040	-0,128
-257,395	-200,000	0,005	-0,031
-256,380	-159,227	-0,120	0,005
-255,365	502,363	0,088	0,145
-254,351	564,362	-0,043	0,074
-253,336	-200,000	-0,005	0,058
-252,322	800,000	-0,063	-0,156
-251,307	272,657	0,049	0,061
-250,292	32,840	-0,065	0,040
-249,278	340,770	-0,024	0,034
-248,263	751,601	-0,036	-0,070
-247,249	-200,000	-0,004	0,052
-246,234	87,072	-0,041	-0,033
-245,219	12,289	-0,171	-0,094
-244,205	-200,000	-0,003	-0,081
-243,190	-200,000	-0,006	0,173
-242,176	800,000	-0,063	-0,141
-241,161	-200,000	0,002	0,012
-240,146	125,802	0,013	0,012
-239,132	800,000	0,033	-0,091
-238,117	-14,912	0,017	0,008
-237,103	-54,186	0,115	-0,037
-236,088	-80,361	0,036	-0,009
-235,073	-200,000	0,008	0,109
-234,059	-200,000	-0,003	0,019
-233,044	-62,249	0,117	0,035
-232,030	521,115	-0,030	0,051
-231,015	550,439	-0,022	-0,037
-230,000	20,539	-0,130	0,075
-228,986	192,362	-0,064	0,069
-227,971	136,211	0,105	-0,098
-226,957	-61,061	-0,079	0,024
-225,942	231,496	-0,052	-0,060
-224,927	-44,254	-0,067	-0,024
-223,913	263,158	-0,017	0,021
-222,898	48,337	0,134	-0,090
-221,884	76,984	0,101	-0,076
-220,869	800,000	0,038	-0,080
-219,855	-200,000	0,002	-0,058
-218,840	-200,000	0,009	0,096
-217,825	601,730	-0,025	-0,045
-216,811	800,000	0,012	-0,028
-215,796	-116,522	-0,068	-0,009
-214,782	-200,000	-0,006	-0,056
-213,767	800,000	-0,058	-0,121
-212,752	800,000	0,036	-0,092
-211,738	12,179	0,076	-0,042
-210,723	-90,997	-0,071	-0,015
-209,709	-200,000	0,010	-0,108
-208,694	8,993	-0,078	0,042
-207,679	383,259	-0,108	0,158
-206,665	-69,549	-0,089	0,024
-205,650	-98,026	0,067	-0,012
-204,636	-200,000	0,014	-0,045
-203,621	-200,000	0,019	-0,186
-202,606	-200,000	-0,001	-0,020
-201,592	800,000	-0,041	-0,082
-200,577	-122,834	-0,074	0,008
-199,563	-166,336	0,048	0,001
-198,548	-200,000	-0,005	0,050
-197,533	800,000	-0,092	0,208
-196,519	800,000	-0,015	0,037
-195,504	98,999	0,075	0,061
-194,490	800,000	-0,043	0,094
-193,475	800,000	0,034	-0,096
-192,460	-29,282	0,060	0,024
-191,446	800,000	-0,045	0,109
-190,431	-117,074	0,080	-0,010
-189,417	-4,286	0,076	-0,037
-188,402	62,725	-0,142	-0,101
-187,387	-120,650	-0,054	0,006
-186,373	-62,396	0,073	-0,021
-185,358	-21,005	-0,138	0,060
-184,344	402,133	0,078	0,118
-183,329	65,464	0,109	0,078
-182,315	-54,767	-0,129	-0,041
-181,300	-177,773	-0,090	0,002
-180,285	29,797	-0,080	-0,048
-179,271	-200,000	-0,009	-0,029
-178,256	265,466	0,057	-0,071
-177,242	-200,000	-0,010	-0,039
-176,227	-42,361	0,089	0,032
-175,212	-200,000	-0,002	0,080
-174,198	-200,000	0,005	0,061
-173,183	101,969	0,077	0,064
-172,169	455,887	-0,079	-0,125
-171,154	599,749	0,024	0,043
-170,139	11,997	-0,007	0,004
-169,125	142,993	-0,051	-0,048
-168,110	-1,294	0,052	-0,026
-167,096	800,000	0,009	0,022
-166,081	-93,155	-0,085	0,017
-165,066	-106,687	0,072	-0,011
-164,052	337,480	-0,119	-0,165
-163,037	-200,000	-0,000	-0,115
-162,023	213,815	0,013	0,015
-161,008	-132,730	0,077	-0,007
-159,993	-93,131	0,087	-0,017
-158,979	800,000	-0,026	-0,055
-157,964	-28,423	-0,083	-0,034
-156,950	800,000	-0,032	0,067
-155,935	-76,042	-0,087	0,022
-154,920	-200,000	-0,018	0,090
-153,906	-200,000	0,017	0,054
-152,891	-52,274	-0,130	-0,043
-151,877	193,966	0,045	0,048
-150,862	343,427	0,052	-0,073
-149,847	-45,916	-0,056	-0,020
-148,833	747,047	0,024	0,046
-147,818	-51,187	0,056	0,019
-146,804	-33,573	-0,065	0,026
-145,789	-189,381	0,088	0,001
-144,775	10,769	-0,009	-0,005
-143,760	-200,000	0,010	-0,037
-142,745	242,093	-0,021	0,025
-141,731	416,401	0,041	0,062
-140,716	800,000	-0,031	0,062
-139,702	113,210	-0,019	0,017
-138,687	126,602	0,157	0,141
-137,672	428,054	-0,055	-0,085
-136,658	-72,399	-0,064	0,017
-135,643	75,912	-0,033	-0,024
-134,629	261,580	-0,052	0,064
-133,614	-95,137	0,043	-0,008
-132,599	282,363	-0,045	-0,058
-131,585	800,000	-0,044	0,132
-130,570	-200,000	0,012	0,103
-129,556	-23,165	-0,090	0,038
-128,541	167,567	-0,106	-0,107
-127,526	-200,000	0,007	0,081
-126,512	-42,346	0,092	0,033
-125,497	-200,000	-0,008	0,163
-124,483	-31,616	0,126	0,050
-123,468	-200,000	-0,010	-0,055
-122,453	516,700	-0,037	-0,062
-121,439	800,000	0,096	-0,222
-120,424	-115,167	-0,034	0,005
-119,410	-124,604	-0,042	-0,005
