DTS Sentinel unit serial number:	SN410029Multiplexer serial number:	ORYXHardware model number:	OX2-SRSoftware version number:	ORYX F/W v4,00 Oryx Data Collector v3.7.2.0data status	okinstallation	BH3 CH2differential loss correction	single-endedforward channel	channel 2reverse channel	N/Adate	2023/12/05time	16:52:28forward acquisition time	300,00reverse acquisition time	0,00gamma	499,1914k internal	0,3192k external	0,3192temperature offset calibration	1,0000default loss term (dB/km)	0,3820temperature slope calibration	1,0000multiplexer offset coefficient	1,0000multiplexer slope coefficient	1,0000fibre end	0,00T internal ref (°C)	10,99T ext. ref 1 (°C)	-3,76T ext. ref 2 (°C)	-3,91length (m)	temperature (°C)	Stokes	anti-Stokes-744,400	11,697	0,069	-0,039
-743,385	-108,112	-0,404	-0,063
-742,371	116,803	0,058	-0,052
-741,356	173,313	-0,141	0,148
-740,342	79,755	-0,151	-0,118
-739,327	-133,738	-0,214	0,019
-738,312	-163,035	0,069	0,002
-737,298	-3,592	-0,190	0,096
-736,283	-200,000	0,013	-0,071
-735,269	-8,354	-0,145	0,071
-734,254	-200,000	-0,030	-0,113
-733,239	-24,084	-0,442	-0,192
-732,225	4,859	0,114	-0,061
-731,210	37,378	-0,040	0,026
-730,196	-200,000	0,049	-0,161
-729,181	29,015	-0,102	0,063
-728,167	-200,000	-0,018	-0,092
-727,152	156,355	-0,107	-0,108
-726,137	-66,215	-0,095	0,027
-725,123	-200,000	-0,031	-0,103
-724,108	800,000	0,048	-0,124
-723,094	-6,390	-0,119	-0,059
-722,079	175,084	-0,066	-0,070
-721,064	258,784	0,146	-0,184
-720,050	-112,499	-0,063	-0,009
-719,035	-87,461	0,120	0,026
-718,021	116,821	-0,051	0,046
-717,006	132,689	0,048	-0,045
-715,991	-179,424	-0,160	0,003
-714,977	-200,000	-0,022	-0,083
-713,962	20,923	-0,052	0,031
-712,948	224,016	-0,055	0,065
-711,933	-200,000	0,007	0,034
-710,918	361,427	-0,069	0,102
-709,904	-116,443	-0,126	-0,017
-708,889	-200,000	0,035	-0,000
-707,875	244,741	0,154	-0,189
-706,860	800,000	0,024	-0,063
-705,845	-26,562	0,039	-0,016
-704,831	-52,041	0,165	0,055
-703,816	-48,226	0,121	0,042
-702,802	-200,000	0,017	-0,101
-701,787	-158,966	-0,079	-0,003
-700,772	507,953	-0,011	-0,019
-699,758	75,161	-0,033	-0,025
-698,743	-25,499	-0,026	-0,011
-697,729	-147,808	0,019	-0,001
-696,714	-200,000	0,004	-0,029
-695,699	-200,000	-0,018	0,068
-694,685	-37,067	-0,002	0,001
-693,670	-200,000	0,027	-0,219
-692,656	-137,650	0,164	0,013
-691,641	375,271	-0,168	-0,251
-690,627	-64,694	0,041	-0,012
-689,612	-200,000	0,002	0,129
-688,597	-64,877	-0,142	0,042
-687,583	221,491	-0,080	-0,093
-686,568	800,000	0,031	-0,086
-685,554	-200,000	0,009	-0,045
-684,539	-200,000	0,017	0,091
-683,524	263,100	0,039	-0,049
-682,510	-59,252	0,076	-0,024
-681,495	176,614	0,030	0,032
-680,481	800,000	0,072	-0,173
-679,466	800,000	-0,027	-0,056
-678,451	53,741	-0,128	-0,090
-677,437	461,013	0,026	0,042
-676,422	62,672	0,060	0,043
-675,408	330,428	0,038	0,054
-674,393	-68,122	-0,128	-0,036
-673,378	800,000	0,047	-0,114
-672,364	-39,858	-0,033	0,013
-671,349	84,431	0,063	0,050
-670,335	-200,000	-0,001	-0,077
-669,320	-136,956	-0,074	0,006
-668,305	537,372	-0,016	0,027
-667,291	26,328	-0,050	0,030
-666,276	-32,582	-0,106	-0,043
-665,262	-124,002	-0,075	-0,009
-664,247	-200,000	0,008	-0,032
-663,232	-95,565	-0,154	-0,030
-662,218	-83,853	0,143	-0,033
-661,203	-200,000	-0,001	0,095
-660,189	800,000	-0,028	0,085
-659,174	-36,974	-0,034	-0,013
-658,159	-8,738	-0,109	-0,053
-657,145	800,000	-0,071	-0,223
-656,130	-168,919	0,141	0,004
-655,116	45,358	0,134	0,090
-654,101	188,430	0,089	-0,097
-653,086	266,606	-0,045	-0,058
-652,072	-59,428	0,043	0,013
-651,057	363,537	-0,088	-0,128
-650,043	-9,552	0,064	-0,031
-649,028	18,721	0,037	0,021
-648,014	-44,801	0,158	-0,057
-646,999	587,129	0,029	-0,052
-645,984	-136,354	-0,140	-0,012
-644,970	800,000	-0,036	-0,114
-643,955	142,045	0,043	-0,041
-642,941	-58,660	-0,026	0,008
-641,926	800,000	-0,026	-0,072
-640,911	-133,586	0,155	-0,014
-639,897	-41,615	0,064	0,024
-638,882	800,000	0,028	-0,077
-637,868	-200,000	0,037	0,207
-636,853	-45,534	-0,064	0,023
-635,838	209,991	-0,082	0,094
-634,824	142,938	-0,038	0,037
-633,809	-60,726	0,035	0,011
-632,795	653,251	0,079	0,147
-631,780	390,967	0,067	-0,102
-630,765	800,000	-0,031	0,096
-629,751	181,679	-0,084	0,090
-628,736	180,724	-0,089	-0,095
-627,722	58,697	0,089	0,064
-626,707	-6,292	0,105	-0,052
-625,692	-200,000	-0,011	0,085
-624,678	-141,445	0,047	-0,003
-623,663	-81,813	-0,147	0,035
-622,649	135,173	-0,106	-0,100
-621,634	-69,264	-0,062	0,017
-620,619	-200,000	0,024	-0,129
-619,605	207,703	0,033	0,038
-618,590	-145,797	0,167	0,011
-617,576	800,000	0,017	0,051
-616,561	-200,000	-0,007	0,071
-615,546	15,044	-0,111	0,063
-614,532	-19,963	-0,126	-0,056
-613,517	86,052	0,054	-0,043
-612,503	-200,000	-0,012	0,061
-611,488	-0,336	-0,059	0,031
-610,474	323,119	0,068	-0,094
-609,459	319,633	0,054	-0,074
-608,444	-86,411	-0,060	-0,013
-607,430	-200,000	-0,020	-0,078
-606,415	492,629	-0,067	-0,112
-605,401	-200,000	-0,002	-0,112
-604,386	-67,509	-0,100	0,028
-603,371	204,893	-0,017	0,020
-602,357	88,311	-0,225	-0,181
-601,342	466,464	-0,063	-0,103
-600,328	468,827	0,044	-0,073
-599,313	-5,700	-0,164	-0,081
-598,298	-5,341	-0,118	0,059
-597,284	4,912	0,139	0,074
-596,269	22,484	-0,107	0,063
-595,255	-18,513	0,027	0,012
-594,240	217,477	-0,018	-0,020
-593,225	77,346	0,030	0,023
-592,211	-147,738	0,067	0,004
-591,196	-200,000	-0,006	-0,037
-590,182	107,683	0,024	-0,020
-589,167	28,062	0,116	-0,071
-588,152	150,887	-0,039	0,039
-587,138	48,253	-0,030	0,021
-586,123	-200,000	0,014	-0,184
-585,109	315,485	-0,101	-0,138
-584,094	-43,475	-0,095	-0,035
-583,079	131,541	0,061	0,057
-582,065	203,397	0,121	-0,136
-581,050	-109,272	0,084	-0,013
-580,036	143,117	-0,055	0,053
-579,021	231,103	0,042	-0,049
-578,006	-200,000	0,005	-0,028
-576,992	-151,722	-0,086	0,005
-575,977	800,000	-0,015	-0,042
-574,963	75,732	-0,037	-0,028
-573,948	-29,935	0,027	-0,011
-572,934	452,025	-0,055	-0,088
-571,919	-23,044	-0,205	-0,089
-570,904	-200,000	0,024	0,097
-569,890	220,927	-0,073	-0,085
-568,875	-1,728	0,133	0,068
-567,861	600,320	0,061	0,111
-566,846	208,287	-0,092	0,104
-565,831	61,516	0,055	-0,040
-564,817	97,070	-0,059	0,049
-563,802	90,097	0,041	0,033
-562,788	-112,325	0,087	0,012
-561,773	-105,885	0,095	0,015
-560,758	-200,000	-0,001	0,075
-559,744	-200,000	-0,006	-0,027
-558,729	208,448	0,043	-0,049
-557,715	-111,672	-0,085	-0,012
-556,700	-97,330	-0,095	-0,018
-555,685	526,090	-0,021	-0,036
-554,671	-85,181	0,116	-0,026
-553,656	401,941	-0,039	0,060
-552,642	-104,863	0,082	0,013
-551,627	-200,000	-0,010	0,134
-550,612	-5,221	-0,127	0,063
-549,598	-200,000	-0,019	-0,087
-548,583	30,725	-0,045	0,028
-547,569	50,499	0,065	0,044
-546,554	-117,884	-0,071	0,009
-545,539	124,276	0,174	0,159
-544,525	800,000	0,053	0,112
-543,510	-200,000	0,012	0,116
-542,496	47,716	0,068	-0,046
-541,481	522,518	-0,109	-0,186
-540,466	-200,000	-0,019	0,095
-539,452	-68,760	-0,046	0,013
-538,437	-64,941	-0,112	0,033
-537,423	800,000	0,021	0,042
-536,408	140,750	-0,029	0,027
-535,393	60,043	-0,080	-0,057
-534,379	782,201	-0,045	-0,089
-533,364	800,000	-0,044	-0,116
-532,350	17,416	0,054	-0,031
-531,335	-200,000	0,022	0,159
-530,321	-200,000	-0,002	0,019
-529,306	800,000	-0,032	-0,065
-528,291	-99,862	0,131	0,023
-527,277	148,272	0,014	-0,013
-526,262	101,628	-0,056	-0,047
-525,248	216,855	-0,040	0,046
-524,233	172,233	0,057	0,059
-523,218	-200,000	0,009	0,247
-522,204	800,000	0,007	0,021
-521,189	158,602	-0,072	0,072
-520,175	-200,000	-0,029	-0,180
-519,160	-149,198	-0,112	0,006
-518,145	143,222	0,024	-0,023
-517,131	105,273	-0,040	0,034
-516,116	-200,000	-0,000	0,009
-515,102	-200,000	0,011	-0,124
-514,087	-200,000	0,013	-0,100
-513,072	-22,337	-0,029	0,012
-512,058	129,376	-0,125	0,115
-511,043	-80,044	0,057	0,014
-510,029	570,179	0,088	0,156
-509,014	731,122	0,035	0,068
-507,999	-200,000	0,033	-0,123
-506,985	800,000	-0,028	-0,083
-505,970	-200,000	0,022	-0,091
-504,956	-104,656	-0,086	-0,014
-503,941	52,698	0,038	-0,026
-502,926	-200,000	0,004	0,083
-501,912	-117,329	-0,075	0,010
-500,897	64,386	-0,055	0,040
-499,883	192,647	-0,043	-0,047
-498,868	50,886	0,146	-0,100
-497,853	-107,938	0,074	0,012
-496,839	-24,823	0,145	-0,062
-495,824	106,650	0,024	0,021
-494,810	-138,501	0,051	0,004
-493,795	-200,000	0,016	0,089
-492,781	284,187	-0,072	0,093
-491,766	145,702	-0,032	-0,031
-490,751	6,236	0,055	0,029
-489,737	-41,674	-0,048	-0,018
-488,722	-138,967	0,112	0,009
-487,708	10,531	0,059	0,033
-486,693	-8,384	-0,046	-0,022
-485,678	150,840	-0,094	-0,092
-484,664	-200,000	0,000	-0,079
-483,649	-50,218	-0,014	-0,005
-482,635	-200,000	-0,024	-0,092
-481,620	800,000	0,061	0,132
-480,605	-200,000	-0,027	0,224
-479,591	-13,933	-0,031	0,015
-478,576	-124,357	-0,071	0,008
-477,562	177,710	-0,094	0,099
-476,547	800,000	-0,017	-0,034
-475,532	66,045	0,050	-0,036
-474,518	29,567	-0,066	0,041
-473,503	-200,000	-0,016	-0,069
-472,489	800,000	-0,052	0,120
-471,474	639,264	-0,042	0,078
-470,459	-100,528	-0,081	-0,014
-469,445	800,000	-0,022	-0,054
-468,430	-51,927	0,084	-0,028
-467,416	800,000	-0,037	0,082
-466,401	800,000	-0,027	0,082
-465,386	-29,435	0,058	0,024
-464,372	-200,000	-0,020	0,104
-463,357	-83,068	-0,024	0,006
-462,343	116,580	-0,101	-0,089
-461,328	-200,000	0,004	0,033
-460,313	-145,956	-0,104	-0,007
-459,299	-200,000	0,022	0,113
-458,284	331,547	0,059	-0,082
-457,270	-200,000	0,023	0,118
-456,255	800,000	-0,067	0,137
-455,241	91,007	0,058	-0,047
-454,226	-200,000	-0,011	-0,093
-453,211	-114,045	0,120	0,017
-452,197	-200,000	-0,007	-0,043
-451,182	-25,861	0,042	0,018
-450,168	800,000	0,033	0,089
-449,153	-70,741	-0,071	0,019
-448,138	-71,082	-0,066	-0,018
-447,124	-200,000	-0,022	-0,104
-446,109	144,401	0,019	0,018
-445,095	-200,000	-0,014	0,132
-444,080	101,721	0,062	-0,052
-443,065	-84,724	0,105	-0,024
-442,051	-200,000	0,009	0,034
-441,036	-200,000	0,044	-0,145
-440,022	800,000	0,007	0,015
-439,007	28,624	-0,039	-0,024
-437,992	98,436	-0,063	-0,052
-436,978	-114,831	-0,024	0,003
-435,963	800,000	-0,011	-0,030
-434,949	800,000	0,016	-0,050
-433,934	800,000	0,030	0,063
-432,919	800,000	0,075	-0,168
-431,905	175,945	-0,042	0,044
-430,890	421,480	0,049	0,076
-429,876	61,516	0,032	0,023
-428,861	800,000	-0,035	0,088
-427,846	-200,000	0,056	0,213
-426,832	-200,000	0,012	-0,059
-425,817	-200,000	0,016	-0,184
-424,803	-167,030	0,064	0,002
-423,788	-200,000	-0,007	0,047
-422,773	-200,000	-0,013	-0,063
-421,759	622,283	-0,065	0,119
-420,744	149,741	-0,099	-0,097
-419,730	95,413	0,031	-0,026
-418,715	-65,706	-0,031	0,009
-417,701	175,806	0,045	-0,047
-416,686	-58,943	0,196	0,061
-415,671	-200,000	-0,060	0,285
-414,657	686,333	-0,039	-0,074
-413,642	-200,000	-0,029	-0,105
-412,628	-200,000	-0,001	0,019
-411,613	-65,366	-0,009	0,003
-410,598	-93,249	-0,104	0,021
-409,584	-200,000	-0,004	-0,093
-408,569	-200,000	0,000	0,041
-407,555	800,000	0,060	0,173
-406,540	19,601	-0,136	-0,079
-405,525	87,264	-0,043	-0,034
-404,511	-121,304	0,077	-0,009
-403,496	800,000	0,030	-0,095
-402,482	114,284	-0,087	-0,076
-401,467	800,000	0,011	0,026
-400,452	-200,000	0,016	0,156
-399,438	800,000	0,049	-0,100
-398,423	89,695	-0,157	-0,126
-397,409	-200,000	0,008	-0,064
-396,394	204,216	0,048	-0,053
-395,379	-183,991	0,108	-0,001
-394,365	-40,310	-0,102	0,038
-393,350	-200,000	0,017	-0,103
-392,336	-200,000	0,000	-0,117
-391,321	-101,642	-0,049	0,009
-390,306	-59,776	0,051	0,016
-389,292	348,108	0,055	0,078
-388,277	637,948	0,044	-0,081
-387,263	800,000	0,026	0,075
-386,248	-0,513	0,119	0,061
-385,233	800,000	-0,086	0,177
-384,219	49,399	-0,110	-0,074
-383,204	800,000	-0,043	-0,113
-382,190	-158,386	0,079	0,003
-381,175	-200,000	-0,006	-0,026
-380,160	428,636	0,049	0,077
-379,146	-190,358	0,096	-0,001
-378,131	800,000	-0,042	0,094
-377,117	48,768	-0,065	-0,043
-376,102	-200,000	-0,009	-0,120
-375,088	-200,000	0,011	0,037
-374,073	227,487	-0,072	-0,085
-373,058	9,820	0,058	0,031
-372,044	750,542	0,044	0,086
-371,029	25,469	-0,141	0,084
-370,015	-74,253	-0,080	-0,021
-369,000	58,356	-0,061	-0,043
-367,985	-42,980	-0,102	0,037
-366,971	-47,106	-0,189	0,066
-365,956	800,000	0,026	0,066
-364,942	498,682	0,043	0,072
-363,927	-200,000	-0,027	0,207
-362,912	49,490	0,144	0,097
-361,898	86,336	0,016	-0,013
-360,883	125,425	-0,059	0,053
-359,869	-10,993	-0,085	0,040
-358,854	-200,000	-0,014	0,056
-357,839	-61,962	0,076	0,023
-356,825	382,024	0,101	-0,150
-355,810	123,621	0,092	0,083
-354,796	-121,451	-0,022	0,003
-353,781	52,396	-0,039	-0,026
-352,766	-200,000	-0,019	-0,103
-351,752	462,050	-0,044	-0,071
-350,737	800,000	-0,048	-0,132
-349,723	580,902	-0,030	-0,053
-348,708	294,784	0,040	-0,053
-347,693	-200,000	0,002	-0,047
-346,679	377,897	-0,042	-0,062
-345,664	208,054	0,062	0,069
-344,650	-47,996	0,101	-0,035
-343,635	-200,000	0,008	-0,042
-342,620	-200,000	-0,004	0,064
-341,606	-200,000	-0,006	-0,052
-340,591	-141,394	-0,083	0,006
-339,577	166,995	0,047	-0,048
-338,562	-90,516	0,037	0,008
-337,548	-135,929	-0,038	0,003
-336,533	46,297	-0,040	0,027
-335,518	5,571	0,120	0,063
-334,504	-2,632	0,071	-0,036
-333,489	381,668	-0,029	0,044
-332,475	38,476	0,101	-0,065
-331,460	-200,000	0,003	0,078
-330,445	-200,000	-0,003	0,095
-329,431	-200,000	0,020	-0,103
-328,416	390,514	0,086	0,129
-327,402	-144,970	0,228	-0,015
-326,387	-200,000	0,013	-0,081
-325,372	676,302	-0,018	-0,033
-324,358	800,000	-0,074	-0,190
-323,343	-200,000	-0,009	-0,061
-322,329	477,003	-0,063	0,103
-321,314	-81,688	-0,029	-0,007
-320,299	-200,000	0,000	-0,040
-319,285	800,000	-0,069	-0,149
-318,270	-200,000	0,053	-0,187
-317,256	736,329	0,070	-0,136
-316,241	-7,650	0,036	0,017
-315,226	-200,000	0,007	0,049
-314,212	-200,000	0,021	0,156
-313,197	-135,495	-0,012	0,001
-312,183	-168,683	0,032	-0,001
-311,168	63,763	-0,074	0,053
-310,153	-46,190	-0,111	0,039
-309,139	167,949	0,044	-0,045
-308,124	800,000	0,036	0,080
-307,110	800,000	0,049	-0,099
-306,095	527,998	0,054	0,091
-305,080	-55,659	0,098	-0,031
-304,066	-200,000	0,020	-0,070
-303,051	-200,000	0,001	-0,025
-302,037	-53,426	-0,157	0,051
-301,022	-11,782	0,082	0,038
-300,008	127,232	0,082	0,074
-298,993	270,394	0,068	0,085
-297,978	-133,278	0,036	-0,003
-296,964	-14,568	-0,071	-0,032
-295,949	2,809	0,032	0,016
-294,935	-125,726	-0,061	-0,006
-293,920	-148,894	0,162	0,009
-292,905	111,188	-0,050	-0,043
-291,891	-162,633	0,051	0,002
-290,876	-200,000	0,006	0,102
-289,862	800,000	0,088	0,222
-288,847	-200,000	-0,006	0,057
-287,832	-200,000	-0,009	-0,090
-286,818	8,658	-0,067	-0,036
-285,803	301,525	0,046	0,061
-284,789	-200,000	-0,030	0,138
-283,774	-200,000	0,016	-0,062
-282,759	202,651	-0,051	0,056
-281,745	338,809	-0,101	-0,141
-280,730	-47,417	0,046	-0,016
-279,716	-200,000	0,016	-0,105
-278,701	351,541	0,064	-0,091
-277,686	-30,570	0,035	-0,014
-276,672	800,000	0,007	0,022
-275,657	-120,053	-0,071	0,009
-274,643	-200,000	-0,016	0,108
-273,628	800,000	-0,021	-0,056
-272,613	-17,710	-0,042	-0,019
-271,599	800,000	0,029	-0,076
-270,584	-87,077	-0,071	0,015
-269,570	152,838	0,070	0,069
-268,555	36,396	0,164	-0,103
-267,540	-74,314	-0,043	0,011
-266,526	95,216	0,029	0,024
-265,511	-192,970	-0,073	0,000
-264,497	228,132	0,069	0,081
-263,482	154,779	0,123	-0,121
-262,467	-68,427	0,097	-0,027
-261,453	-200,000	0,003	0,029
-260,438	800,000	-0,031	-0,086
-259,424	-200,000	-0,020	-0,123
-258,409	-10,932	-0,056	-0,027
-257,395	57,657	-0,155	-0,108
-256,380	-23,617	0,002	-0,001
-255,365	793,013	0,043	-0,085
-254,351	51,363	-0,064	-0,044
-253,336	186,776	-0,088	-0,094
-252,322	-92,064	-0,093	-0,019
-251,307	82,825	0,088	0,069
-250,292	800,000	0,027	-0,084
-249,278	-200,000	-0,020	0,139
-248,263	41,472	-0,027	0,017
-247,249	-200,000	0,007	0,084
-246,234	-200,000	0,007	-0,043
-245,219	800,000	0,028	0,087
-244,205	382,113	0,038	-0,056
-243,190	384,796	-0,048	-0,072
-242,176	-117,392	-0,042	-0,005
-241,161	800,000	-0,020	0,052
-240,146	-200,000	0,004	-0,018
-239,132	39,182	-0,041	0,026
-238,117	643,976	-0,048	-0,088
-237,103	-27,440	0,094	-0,039
-236,088	275,632	0,043	0,055
-235,073	187,974	0,101	0,108
-234,059	-76,136	0,083	0,021
-233,044	13,187	0,132	-0,073
-232,030	-200,000	-0,047	0,168
-231,015	-200,000	-0,034	-0,116
-230,000	36,684	-0,094	-0,059
-228,986	-200,000	0,001	0,044
-227,971	342,055	0,046	0,065
-226,957	62,055	0,111	-0,079
-225,942	800,000	0,014	0,029
-224,927	330,319	-0,055	0,076
-223,913	-5,673	-0,016	0,008
-222,898	-200,000	-0,013	-0,158
-221,884	320,826	-0,046	-0,062
-220,869	-200,000	-0,043	0,184
-219,855	362,255	0,066	0,096
-218,840	3,557	0,075	-0,039
-217,825	-128,550	0,159	-0,016
-216,811	-200,000	-0,002	-0,031
-215,796	208,810	0,037	-0,041
-214,782	-200,000	-0,023	0,114
-213,767	112,804	0,125	0,108
-212,752	-200,000	0,008	-0,056
-211,738	-43,058	0,029	0,010
-210,723	800,000	-0,106	-0,235
-209,709	-8,371	-0,042	0,020
-208,694	-200,000	-0,010	-0,052
-207,679	194,677	-0,053	0,057
-206,665	-200,000	0,026	-0,114
-205,650	411,183	0,042	-0,064
-204,636	-99,537	-0,034	0,006
-203,621	-200,000	-0,003	-0,029
-202,606	263,025	0,021	0,026
-201,592	258,973	-0,031	-0,038
-200,577	731,229	-0,028	0,053
-199,563	284,392	0,078	-0,101
-198,548	3,032	-0,076	0,039
-197,533	800,000	0,036	0,097
-196,519	185,713	0,040	-0,043
-195,504	284,087	0,093	0,120
-194,490	-200,000	-0,021	-0,083
-193,475	-200,000	0,036	-0,133
-192,460	-116,957	0,012	-0,001
-191,446	184,787	-0,117	-0,124
-190,431	414,950	0,026	-0,040
-189,417	800,000	-0,052	-0,143
-188,402	-68,049	0,102	-0,028
-187,387	-200,000	-0,001	0,043
-186,373	156,723	0,087	-0,086
-185,358	-1,115	-0,084	0,042
-184,344	-200,000	-0,001	-0,016
-183,329	-38,901	-0,046	-0,017
-182,315	678,351	-0,054	0,101
-181,300	56,067	-0,068	-0,047
-180,285	-200,000	0,009	-0,052
-179,271	38,452	-0,136	0,086
-178,256	-88,780	0,007	0,002
-177,242	210,526	0,059	0,066
-176,227	800,000	0,071	0,196
-175,212	86,686	-0,029	-0,023
-174,198	-103,515	-0,135	0,022
-173,183	243,057	0,035	-0,042
-172,169	-75,591	0,069	0,017
-171,154	-21,403	-0,108	0,047
-170,139	-200,000	0,038	0,139
-169,125	561,186	0,050	-0,087
-168,110	106,532	0,015	-0,012
-167,096	-8,214	-0,012	0,006
-166,081	83,942	0,087	0,068
-165,066	66,048	-0,039	0,028
-164,052	-200,000	-0,006	-0,042
-163,037	223,351	-0,055	-0,063
-162,023	-46,675	0,059	0,021
-161,008	800,000	-0,040	0,119
-159,993	800,000	-0,038	0,076
-158,979	618,667	0,089	-0,160
-157,964	25,397	0,072	-0,043
-156,950	800,000	-0,052	0,119
-155,935	117,446	0,177	0,155
-154,920	-200,000	0,022	0,198
-153,906	-200,000	0,003	0,102
-152,891	-41,606	-0,069	-0,025
-151,877	54,216	-0,033	-0,023
-150,862	-110,833	0,106	0,015
-149,847	729,462	0,047	0,090
-148,833	-200,000	-0,003	-0,058
-147,818	493,425	-0,043	0,071
-146,804	-95,945	0,126	0,024
-145,789	-77,385	0,146	-0,036
-144,775	264,254	0,026	0,032
-143,760	800,000	-0,026	-0,067
-142,745	800,000	0,039	-0,084
-141,731	-70,346	0,055	0,015
-140,716	2,485	0,155	-0,080
-139,702	-200,000	-0,012	0,071
-138,687	800,000	0,030	0,065
-137,672	119,217	-0,069	0,061
-136,658	-2,739	-0,038	-0,019
-135,643	223,146	-0,092	-0,106
-134,629	-200,000	0,002	-0,017
-133,614	23,843	0,170	0,099
-132,599	800,000	-0,029	0,088
-131,585	800,000	-0,030	0,076
-130,570	303,899	-0,089	-0,118
-129,556	483,949	0,110	-0,178
-128,541	232,759	0,073	0,085
-127,526	-200,000	0,004	-0,114
-126,512	-62,519	0,076	0,022
-125,497	-114,257	0,125	0,017
-124,483	-41,482	0,083	0,030
-123,468	-200,000	0,010	0,058
-122,453	800,000	0,020	0,054
-121,439	221,437	0,047	0,054
-120,424	9,198	-0,108	-0,058
-119,410	-200,000	0,000	-0,168
-118,395	-79,768	0,074	-0,017
