DTS Sentinel unit serial number:	SN410029Multiplexer serial number:	ORYXHardware model number:	OX2-SRSoftware version number:	ORYX F/W v4,00 Oryx Data Collector v3.7.2.0data status	okinstallation	BH3 CH2differential loss correction	single-endedforward channel	channel 2reverse channel	N/Adate	2023/12/05time	20:27:28forward acquisition time	300,00reverse acquisition time	0,00gamma	499,1914k internal	0,3193k external	0,3193temperature offset calibration	1,0000default loss term (dB/km)	0,3820temperature slope calibration	1,0000multiplexer offset coefficient	1,0000multiplexer slope coefficient	1,0000fibre end	0,00T internal ref (°C)	10,50T ext. ref 1 (°C)	-4,35T ext. ref 2 (°C)	-4,43length (m)	temperature (°C)	Stokes	anti-Stokes-744,400	22,214	0,031	-0,018
-743,385	34,046	-0,378	0,239
-742,371	800,000	-0,054	-0,134
-741,356	108,664	-0,187	0,163
-740,342	-52,473	-0,030	-0,010
-739,327	453,384	-0,080	0,130
-738,312	-200,000	-0,053	-0,190
-737,298	16,397	-0,244	0,140
-736,283	-70,511	-0,126	-0,034
-735,269	-9,438	-0,100	0,049
-734,254	262,207	-0,076	0,096
-733,239	-53,256	-0,323	-0,107
-732,225	180,446	0,032	-0,035
-731,210	-200,000	-0,006	0,066
-730,196	-200,000	-0,004	-0,048
-729,181	800,000	0,068	-0,146
-728,167	442,471	-0,085	-0,136
-727,152	-200,000	-0,037	0,153
-726,137	800,000	0,040	-0,099
-725,123	-0,679	0,110	-0,056
-724,108	-69,741	-0,086	-0,024
-723,094	800,000	-0,034	-0,096
-722,079	-49,454	-0,030	0,010
-721,064	208,123	-0,043	-0,049
-720,050	255,335	0,106	-0,133
-719,035	-122,022	0,113	-0,013
-718,021	56,642	-0,062	-0,044
-717,006	-200,000	0,005	-0,075
-715,991	-200,000	0,013	-0,135
-714,977	-83,402	0,073	-0,017
-713,962	74,825	0,079	-0,061
-712,948	-119,617	-0,174	0,022
-711,933	800,000	0,028	0,060
-710,918	41,285	0,058	-0,038
-709,904	315,515	0,056	-0,077
-708,889	-125,120	-0,081	0,009
-707,875	449,599	-0,050	-0,080
-706,860	12,537	-0,029	0,016
-705,845	62,420	0,121	-0,088
-704,831	-200,000	0,001	0,206
-703,816	103,553	0,018	0,016
-702,802	-200,000	0,003	-0,130
-701,787	-195,826	0,119	0,001
-700,772	327,217	-0,114	-0,160
-699,758	88,831	-0,017	-0,013
-698,743	800,000	0,014	-0,042
-697,729	800,000	0,087	-0,176
-696,714	-146,268	-0,033	-0,002
-695,699	220,945	-0,046	-0,053
-694,685	-127,539	-0,126	-0,013
-693,670	333,665	-0,104	-0,147
-692,656	-200,000	-0,010	-0,134
-691,641	800,000	0,037	-0,090
-690,627	-62,375	0,081	0,025
-689,612	263,651	-0,017	-0,021
-688,597	190,694	-0,111	-0,121
-687,583	8,252	0,151	0,082
-686,568	152,330	-0,092	-0,091
-685,554	-200,000	-0,020	-0,070
-684,539	145,147	0,069	0,067
-683,524	231,214	0,056	-0,067
-682,510	-200,000	0,008	0,109
-681,495	-72,273	-0,161	-0,043
-680,481	-200,000	0,015	-0,126
-679,466	-200,000	-0,031	-0,109
-678,451	-66,870	-0,068	0,019
-677,437	-200,000	0,029	0,120
-676,422	-200,000	-0,009	0,057
-675,408	295,376	0,027	0,035
-674,393	230,377	-0,048	0,057
-673,378	19,469	-0,068	0,040
-672,364	120,685	-0,153	-0,138
-671,349	-12,432	-0,114	0,054
-670,335	-5,600	-0,108	-0,054
-669,320	800,000	0,029	-0,088
-668,305	31,494	0,064	0,040
-667,291	-47,090	-0,123	-0,044
-666,276	-43,277	0,125	-0,046
-665,262	-200,000	0,029	-0,104
-664,247	290,801	-0,133	-0,176
-663,232	203,714	-0,101	0,114
-662,218	222,461	-0,072	-0,084
-661,203	-200,000	0,016	-0,077
-660,189	-21,603	-0,065	0,029
-659,174	107,861	-0,191	-0,165
-658,159	800,000	-0,063	-0,138
-657,145	-200,000	-0,009	-0,093
-656,130	0,743	-0,104	-0,054
-655,116	466,130	0,026	-0,042
-654,101	245,623	-0,040	-0,048
-653,086	-62,090	-0,114	-0,034
-652,072	210,185	-0,035	0,040
-651,057	163,524	-0,142	-0,145
-650,043	800,000	-0,039	0,082
-649,028	45,255	-0,065	-0,044
-648,014	-200,000	0,000	-0,087
-646,999	800,000	-0,027	-0,075
-645,984	800,000	0,085	0,225
-644,970	86,205	-0,034	-0,027
-643,955	-200,000	-0,026	-0,156
-642,941	-200,000	-0,032	-0,104
-641,926	25,025	-0,095	0,057
-640,911	82,084	0,060	0,047
-639,897	15,774	0,075	0,043
-638,882	800,000	0,057	0,119
-637,868	-14,026	-0,010	-0,005
-636,853	-21,200	0,066	-0,029
-635,838	390,696	-0,114	-0,173
-634,824	-136,369	-0,047	0,004
-633,809	-97,498	0,046	0,009
-632,795	-200,000	-0,016	0,141
-631,780	100,136	-0,119	-0,100
-630,765	-12,019	0,027	0,013
-629,751	800,000	0,035	0,074
-628,736	800,000	0,048	-0,099
-627,722	800,000	0,027	-0,064
-626,707	326,192	0,031	-0,043
-625,692	-85,078	-0,147	0,033
-624,678	-60,254	-0,024	-0,007
-623,663	363,989	-0,054	0,079
-622,649	48,685	-0,149	0,101
-621,634	238,284	-0,059	0,071
-620,619	-115,278	-0,053	0,007
-619,605	53,860	-0,063	-0,044
-618,590	786,051	0,018	-0,035
-617,576	-42,005	-0,102	-0,038
-616,561	-53,222	0,138	-0,046
-615,546	154,544	-0,049	-0,048
-614,532	-19,643	-0,197	0,088
-613,517	-200,000	-0,026	0,134
-612,503	77,043	-0,083	0,064
-611,488	326,967	0,037	-0,052
-610,474	-15,610	0,152	0,070
-609,459	-57,077	-0,045	0,014
-608,444	-200,000	-0,004	-0,166
-607,430	40,390	0,070	-0,046
-606,415	517,208	-0,027	-0,045
-605,401	-21,698	0,222	-0,098
-604,386	-64,147	-0,113	0,033
-603,371	-36,105	0,053	-0,021
-602,357	-98,560	-0,081	0,015
-601,342	46,714	-0,066	-0,044
-600,328	3,043	-0,084	0,044
-599,313	223,005	0,065	0,076
-598,298	-200,000	0,006	0,030
-597,284	800,000	-0,013	0,027
-596,269	55,718	0,033	-0,023
-595,255	112,006	0,032	-0,028
-594,240	-115,411	0,171	0,023
-593,225	-195,052	-0,061	-0,000
-592,211	-84,934	0,017	0,004
-591,196	30,840	0,037	0,023
-590,182	-200,000	-0,020	0,111
-589,167	-72,450	0,028	-0,007
-588,152	-200,000	-0,003	-0,032
-587,138	-152,897	0,006	-0,000
-586,123	463,645	-0,069	-0,111
-585,109	800,000	0,046	0,108
-584,094	-42,866	0,051	-0,019
-583,079	-49,804	-0,063	-0,022
-582,065	800,000	0,022	0,062
-581,050	-200,000	0,007	-0,089
-580,036	47,932	-0,063	-0,042
-579,021	234,198	-0,087	-0,105
-578,006	25,598	-0,055	-0,033
-576,992	-200,000	0,009	0,033
-575,977	-200,000	0,020	-0,153
-574,963	-200,000	-0,025	-0,113
-573,948	-69,020	-0,075	-0,021
-572,934	-110,441	0,043	0,006
-571,919	5,978	-0,069	-0,037
-570,904	30,768	0,060	-0,037
-569,890	64,968	-0,022	0,016
-568,875	333,813	0,075	0,106
-567,861	800,000	-0,073	0,171
-566,846	110,622	0,128	0,112
-565,831	109,900	-0,043	0,037
-564,817	646,277	0,043	-0,079
-563,802	-200,000	0,034	-0,132
-562,788	660,518	0,003	0,005
-561,773	-101,460	0,140	0,024
-560,758	-200,000	0,008	-0,093
-559,744	574,328	0,035	0,062
-558,729	312,510	-0,078	-0,106
-557,715	-200,000	0,014	0,062
-556,700	349,880	0,060	-0,086
-555,685	-153,647	0,098	-0,005
-554,671	-5,049	-0,067	-0,033
-553,656	-200,000	-0,010	0,106
-552,642	-168,993	0,069	0,002
-551,627	55,814	-0,092	-0,065
-550,612	534,454	-0,039	0,067
-549,598	-31,606	-0,056	-0,023
-548,583	800,000	-0,040	-0,088
-547,569	800,000	-0,077	-0,172
-546,554	-21,342	-0,085	0,037
-545,539	41,152	-0,044	-0,029
-544,525	26,343	0,061	-0,037
-543,510	-200,000	-0,007	0,039
-542,496	215,296	-0,054	0,062
-541,481	-48,847	-0,153	-0,053
-540,466	80,604	-0,094	-0,074
-539,452	800,000	-0,071	0,149
-538,437	800,000	-0,062	0,158
-537,423	-51,653	-0,143	0,048
-536,408	-46,940	-0,107	0,037
-535,393	-200,000	-0,008	-0,026
-534,379	800,000	-0,032	0,090
-533,364	-200,000	-0,014	-0,072
-532,350	14,067	0,078	0,044
-531,335	-200,000	0,000	0,119
-530,321	726,234	0,052	0,101
-529,306	91,567	-0,051	-0,042
-528,291	-200,000	-0,024	-0,108
-527,277	-43,709	-0,069	0,025
-526,262	800,000	0,043	-0,102
-525,248	-13,328	0,082	-0,038
-524,233	-33,960	0,071	0,028
-523,218	119,330	0,099	0,089
-522,204	-23,384	-0,117	0,051
-521,189	-200,000	-0,018	-0,192
-520,175	247,928	-0,050	0,062
-519,160	385,715	0,034	0,051
-518,145	143,793	-0,034	-0,033
-517,131	-200,000	-0,012	-0,090
-516,116	-145,613	-0,020	0,001
-515,102	17,941	-0,098	0,057
-514,087	800,000	-0,084	-0,193
-513,072	-136,294	-0,154	-0,013
-512,058	-67,927	-0,088	-0,025
-511,043	156,188	0,033	-0,033
-510,029	-114,732	0,087	-0,012
-509,014	-75,255	0,164	-0,042
-507,999	554,352	0,044	0,077
-506,985	-200,000	-0,015	-0,089
-505,970	-200,000	-0,011	0,047
-504,956	-28,630	-0,072	-0,030
-503,941	-88,383	0,137	-0,029
-502,926	44,739	0,050	0,033
-501,912	800,000	0,045	0,108
-500,897	246,804	0,041	0,050
-499,883	-68,727	0,123	-0,034
-498,868	-69,180	-0,117	-0,032
-497,853	-29,078	-0,044	-0,018
-496,839	627,926	-0,074	0,135
-495,824	-143,347	0,149	0,010
-494,810	100,437	0,044	0,037
-493,795	-137,035	-0,082	0,007
-492,781	800,000	-0,043	0,118
-491,766	603,270	-0,029	0,052
-490,751	-9,834	0,125	0,060
-489,737	-200,000	0,023	0,097
-488,722	-143,112	-0,078	0,005
-487,708	53,862	0,085	0,059
-486,693	179,902	0,061	-0,064
-485,678	-200,000	0,003	-0,022
-484,664	-131,907	-0,106	0,010
-483,649	462,094	-0,036	0,059
-482,635	24,161	0,057	-0,034
-481,620	137,947	-0,053	0,050
-480,605	730,435	0,047	0,090
-479,591	32,938	-0,082	-0,051
-478,576	-200,000	0,019	-0,074
-477,562	95,712	-0,214	0,176
-476,547	200,403	0,034	-0,038
-475,532	154,518	0,058	-0,058
-474,518	77,314	0,060	-0,046
-473,503	800,000	0,019	-0,046
-472,489	-200,000	0,017	0,256
-471,474	-163,126	-0,177	0,006
-470,459	-200,000	-0,007	0,045
-469,445	-72,784	0,062	0,016
-468,430	205,988	-0,089	-0,100
-467,416	453,710	-0,035	-0,056
-466,401	2,784	-0,038	0,020
-465,386	33,889	0,052	-0,033
-464,372	-200,000	0,031	-0,157
-463,357	-200,000	0,028	0,092
-462,343	800,000	0,035	-0,109
-461,328	-23,973	-0,068	0,029
-460,313	183,685	0,090	0,096
-459,299	-200,000	0,120	-0,000
-458,284	241,274	-0,039	0,047
-457,270	800,000	0,041	0,109
-456,255	-46,577	-0,117	-0,041
-455,241	-32,634	-0,068	-0,027
-454,226	-200,000	-0,007	-0,100
-453,211	800,000	-0,007	-0,021
-452,197	-200,000	0,019	0,083
-451,182	-23,648	-0,067	-0,029
-450,168	279,946	-0,127	0,163
-449,153	-155,441	0,073	0,003
-448,138	-68,852	0,125	-0,035
-447,124	-70,600	0,088	-0,024
-446,109	800,000	-0,023	0,047
-445,095	36,009	0,075	0,048
-444,080	-200,000	0,036	0,230
-443,065	-192,708	0,067	-0,000
-442,051	-200,000	0,013	0,099
-441,036	-16,066	0,032	-0,014
-440,022	-82,819	-0,184	-0,043
-439,007	-25,862	-0,016	-0,007
-437,992	63,422	-0,031	-0,023
-436,978	222,882	0,025	0,029
-435,963	119,019	0,026	-0,024
-434,949	-35,333	-0,021	0,008
-433,934	31,434	0,054	0,033
-432,919	-200,000	-0,002	-0,058
-431,905	601,776	0,086	-0,155
-430,890	-9,084	0,026	0,013
-429,876	-200,000	0,025	0,103
-428,861	-200,000	-0,002	-0,055
-427,846	187,674	0,053	0,057
-426,832	374,774	0,077	-0,114
-425,817	-100,451	-0,094	-0,017
-424,803	-125,137	-0,049	-0,005
-423,788	-116,640	0,103	0,013
-422,773	-200,000	-0,022	-0,116
-421,759	80,768	0,117	-0,091
-420,744	-153,589	-0,097	0,005
-419,730	771,435	-0,018	0,036
-418,715	-174,136	-0,095	-0,002
-417,701	800,000	-0,037	-0,093
-416,686	-69,322	0,083	-0,023
-415,671	-200,000	-0,021	0,073
-414,657	244,689	0,036	0,044
-413,642	800,000	-0,037	0,087
-412,628	639,377	-0,023	-0,042
-411,613	-74,995	-0,082	-0,021
-410,598	-53,249	0,033	0,011
-409,584	352,222	-0,051	-0,072
-408,569	-32,053	0,110	0,044
-407,555	-200,000	0,014	0,124
-406,540	800,000	-0,039	0,088
-405,525	32,987	0,049	0,031
-404,511	-162,950	-0,246	-0,008
-403,496	-200,000	0,026	-0,093
-402,482	329,827	0,064	0,089
-401,467	679,459	0,085	0,160
-400,452	55,677	0,117	-0,082
-399,438	-16,391	-0,140	0,063
-398,423	581,305	0,068	-0,121
-397,409	321,137	-0,076	-0,104
-396,394	149,085	-0,112	-0,109
-395,379	406,817	0,068	-0,103
-394,365	-72,731	0,085	-0,022
-393,350	194,777	0,049	-0,054
-392,336	131,073	-0,065	-0,060
-391,321	-200,000	0,022	0,117
-390,306	148,957	0,039	0,038
-389,292	-200,000	0,012	-0,053
-388,277	-69,239	0,090	0,025
-387,263	-56,060	-0,041	0,013
-386,248	-54,104	0,055	-0,018
-385,233	800,000	0,033	-0,086
-384,219	-62,538	0,094	0,028
-383,204	-200,000	-0,010	-0,282
-382,190	-27,925	-0,183	0,076
-381,175	-80,643	0,171	0,041
-380,160	4,472	-0,031	0,016
-379,146	-200,000	0,012	0,155
-378,131	-27,101	0,057	-0,024
-377,117	800,000	-0,017	0,048
-376,102	-200,000	-0,003	-0,089
-375,088	672,776	0,023	0,042
-374,073	-181,111	-0,131	0,002
-373,058	-121,800	0,140	-0,016
-372,044	-51,767	0,105	-0,035
-371,029	800,000	-0,026	0,080
-370,015	167,588	0,085	0,087
-369,000	800,000	0,068	0,159
-367,985	-200,000	0,007	-0,217
-366,971	142,498	-0,029	-0,028
-365,956	700,664	-0,005	0,010
-364,942	800,000	0,041	0,119
-363,927	-191,204	0,075	-0,001
-362,912	-200,000	-0,016	0,084
-361,898	-200,000	-0,015	-0,143
-360,883	-127,718	0,084	-0,009
-359,869	-109,814	-0,081	0,012
-358,854	666,595	-0,072	0,133
-357,839	-200,000	-0,001	-0,054
-356,825	-138,865	0,082	0,006
-355,810	-200,000	-0,004	-0,106
-354,796	-200,000	-0,016	0,083
-353,781	99,402	-0,075	-0,062
-352,766	-142,044	-0,065	-0,005
-351,752	-200,000	-0,011	0,101
-350,737	800,000	-0,014	-0,041
-349,723	208,568	-0,084	-0,094
-348,708	-46,934	-0,173	0,061
-347,693	-200,000	-0,032	0,161
-346,679	-200,000	-0,000	-0,005
-345,664	70,873	-0,071	0,052
-344,650	-113,060	-0,097	-0,014
-343,635	-200,000	0,002	0,168
-342,620	-200,000	-0,008	0,039
-341,606	497,668	-0,012	-0,020
-340,591	322,937	0,008	0,011
-339,577	56,936	-0,045	0,031
-338,562	-200,000	-0,010	-0,162
-337,548	107,817	-0,038	-0,033
-336,533	-11,216	0,083	-0,039
-335,518	81,737	-0,019	-0,014
-334,504	-196,555	0,148	-0,001
-333,489	800,000	0,029	0,062
-332,475	540,219	-0,054	0,093
-331,460	-200,000	-0,031	-0,117
-330,445	-15,720	0,127	-0,058
-329,431	-30,319	0,122	0,049
-328,416	800,000	0,024	0,059
-327,402	257,487	0,063	-0,078
-326,387	-126,608	-0,077	-0,008
-325,372	50,712	0,094	-0,064
-324,358	-200,000	0,000	-0,071
-323,343	314,801	-0,046	-0,063
-322,329	-148,117	0,025	0,001
-321,314	800,000	-0,035	-0,079
-320,299	158,027	0,080	-0,080
-319,285	431,432	0,053	-0,083
-318,270	-82,726	-0,064	-0,015
-317,256	-89,655	-0,109	0,023
-316,241	-200,000	-0,006	-0,180
-315,226	156,711	-0,090	-0,089
-314,212	-200,000	0,015	-0,081
-313,197	-146,135	0,155	-0,010
-312,183	-200,000	-0,015	-0,079
-311,168	-64,143	-0,036	-0,011
-310,153	568,175	0,020	-0,035
-309,139	800,000	-0,034	-0,074
-308,124	-142,764	0,048	-0,003
-307,110	271,581	0,101	0,128
-306,095	254,535	-0,086	0,105
-305,080	-200,000	-0,031	0,109
-304,066	160,736	-0,062	0,062
-303,051	-167,899	-0,110	0,003
-302,037	5,789	-0,082	0,043
-301,022	390,001	-0,051	0,077
-300,008	-102,781	0,113	0,019
-298,993	-200,000	-0,030	0,097
-297,978	-200,000	0,011	-0,121
-296,964	-200,000	-0,019	-0,093
-295,949	-182,320	0,055	0,001
-294,935	505,789	0,031	0,052
-293,920	800,000	-0,011	0,025
-292,905	66,898	0,110	0,080
-291,891	-139,021	-0,047	0,004
-290,876	532,595	-0,079	0,135
-289,862	-200,000	0,032	-0,115
-288,847	800,000	0,097	-0,209
-287,832	251,220	-0,047	-0,057
-286,818	-88,810	0,144	-0,030
-285,803	723,595	-0,013	0,025
-284,789	108,023	0,075	0,064
-283,774	20,904	0,065	-0,038
-282,759	474,457	0,024	-0,039
-281,745	149,714	-0,083	0,080
-280,730	268,345	0,050	0,062
-279,716	-200,000	0,015	-0,133
-278,701	-125,245	0,019	0,002
-277,686	552,004	0,056	-0,096
-276,672	163,982	0,053	-0,053
-275,657	-37,334	-0,085	-0,032
-274,643	-185,317	0,020	0,000
-273,628	97,176	0,096	-0,079
-272,613	8,174	0,025	0,013
-271,599	127,643	0,052	-0,048
-270,584	-200,000	0,007	0,078
-269,570	211,831	-0,047	-0,053
-268,555	-121,236	0,055	0,006
-267,540	-32,074	0,120	0,048
-266,526	-57,418	-0,121	-0,038
-265,511	611,337	0,111	-0,199
-264,497	-78,066	0,062	0,015
-263,482	98,136	-0,107	0,088
-262,467	-200,000	0,015	-0,063
-261,453	427,089	-0,027	-0,042
-260,438	-89,933	-0,059	-0,012
-259,424	-26,861	-0,048	-0,020
-258,409	30,851	-0,068	0,041
-257,395	-107,558	0,220	0,034
-256,380	7,973	0,045	-0,024
-255,365	72,780	-0,047	0,035
-254,351	800,000	-0,052	0,131
-253,336	240,558	0,033	0,040
-252,322	800,000	0,043	-0,089
-251,307	-93,595	0,027	-0,005
-250,292	-200,000	-0,006	-0,133
-249,278	26,508	0,093	-0,056
-248,263	-51,311	-0,022	0,007
-247,249	-100,497	-0,155	-0,027
-246,234	-200,000	-0,017	-0,104
-245,219	-92,419	0,050	0,010
-244,205	191,889	-0,109	-0,117
-243,190	800,000	-0,028	0,073
-242,176	27,658	0,049	-0,029
-241,161	-58,232	-0,225	0,070
-240,146	-200,000	0,019	0,130
-239,132	-118,623	0,055	-0,007
-238,117	-200,000	0,052	0,168
-237,103	-40,978	-0,022	-0,008
-236,088	-200,000	-0,006	-0,052
-235,073	317,963	0,086	0,116
-234,059	-200,000	0,023	0,149
-233,044	-72,402	0,122	-0,032
-232,030	-200,000	-0,002	0,018
-231,015	-200,000	-0,012	0,103
-230,000	69,203	-0,055	-0,040
-228,986	-105,524	0,070	0,011
-227,971	169,433	0,073	-0,075
-226,957	100,380	0,100	0,083
-225,942	596,469	-0,065	0,115
-224,927	-146,739	-0,022	0,001
-223,913	0,072	-0,069	-0,035
-222,898	-200,000	-0,015	0,098
-221,884	-130,352	0,096	0,009
-220,869	-152,560	0,049	0,002
-219,855	-103,420	0,095	-0,016
-218,840	364,299	-0,029	0,041
-217,825	-117,938	0,094	0,012
-216,811	-200,000	0,009	0,104
-215,796	-200,000	-0,016	0,053
-214,782	-110,923	0,061	0,009
-213,767	-200,000	0,008	-0,054
-212,752	-200,000	-0,023	-0,157
-211,738	-200,000	-0,023	0,103
-210,723	-127,476	-0,007	-0,001
-209,709	108,964	-0,078	0,066
-208,694	452,548	0,025	-0,040
-207,679	800,000	-0,064	-0,200
-206,665	-200,000	0,002	0,027
-205,650	-4,139	0,035	-0,017
-204,636	51,205	0,008	0,006
-203,621	39,895	-0,076	-0,049
-202,606	760,355	-0,023	0,045
-201,592	800,000	-0,022	-0,052
-200,577	-200,000	-0,021	0,077
-199,563	800,000	0,043	0,111
-198,548	-200,000	-0,023	0,143
-197,533	184,425	0,095	0,100
-196,519	643,209	0,035	0,064
-195,504	-9,583	-0,099	0,047
-194,490	-35,590	0,049	0,019
-193,475	-200,000	0,003	0,048
-192,460	-200,000	-0,015	-0,046
-191,446	177,129	-0,072	-0,075
-190,431	-200,000	-0,011	0,077
-189,417	110,882	0,085	0,073
-188,402	800,000	-0,052	-0,125
-187,387	-13,043	-0,113	0,052
-186,373	-200,000	-0,004	-0,121
-185,358	276,379	0,064	-0,081
-184,344	-122,792	0,051	-0,006
-183,329	-60,843	-0,062	0,019
-182,315	30,424	-0,054	0,033
-181,300	800,000	0,051	0,111
-180,285	800,000	-0,076	-0,171
-179,271	-200,000	-0,029	-0,123
-178,256	-17,786	-0,042	-0,019
-177,242	187,038	-0,023	-0,024
-176,227	-141,832	0,157	-0,011
-175,212	200,859	0,088	-0,097
-174,198	800,000	-0,074	-0,157
-173,183	59,499	-0,056	0,040
-172,169	-60,481	0,037	-0,011
-171,154	175,222	-0,066	0,068
-170,139	495,497	0,106	-0,174
-169,125	-34,691	0,056	-0,022
-168,110	14,555	0,161	0,090
-167,096	-200,000	-0,005	0,184
-166,081	74,632	-0,112	-0,084
-165,066	82,703	-0,073	0,057
-164,052	-200,000	0,020	-0,083
-163,037	800,000	0,018	0,047
-162,023	-61,332	0,034	0,010
-161,008	-91,415	0,101	-0,020
-159,993	-22,483	-0,046	-0,020
-158,979	152,323	0,108	0,105
-157,964	-23,666	-0,026	0,011
-156,950	40,528	-0,072	-0,046
-155,935	2,822	0,073	0,038
-154,920	104,175	0,023	0,019
-153,906	800,000	0,014	0,042
-152,891	-200,000	0,012	0,123
-151,877	46,457	0,105	-0,069
-150,862	-47,677	-0,152	-0,052
-149,847	-140,889	0,068	-0,005
-148,833	-200,000	-0,025	-0,157
-147,818	88,289	0,102	-0,081
-146,804	185,780	-0,055	0,059
-145,789	-200,000	0,003	0,046
-144,775	-92,638	-0,099	-0,020
-143,760	223,390	-0,077	-0,089
-142,745	177,427	-0,047	0,048
-141,731	-45,306	0,027	0,009
-140,716	344,332	-0,058	-0,082
-139,702	-200,000	0,008	0,077
-138,687	-91,328	0,152	0,031
-137,672	-200,000	0,007	0,026
-136,658	271,325	0,075	0,094
-135,643	187,515	-0,078	0,083
-134,629	-200,000	0,009	-0,053
-133,614	-200,000	0,014	0,082
-132,599	-53,335	0,208	0,068
-131,585	71,758	-0,044	-0,033
-130,570	280,955	0,073	0,093
-129,556	30,843	0,044	0,027
-128,541	-190,007	-0,139	0,001
-127,526	22,352	0,061	0,035
-126,512	353,129	0,026	-0,037
-125,497	-200,000	-0,002	0,125
-124,483	800,000	0,041	0,117
-123,468	48,185	0,089	-0,059
-122,453	-200,000	-0,004	0,015
-121,439	-140,343	0,063	0,005
-120,424	800,000	-0,034	-0,093
-119,410	35,782	-0,136	0,085
