DTS Sentinel unit serial number:	SN410029Multiplexer serial number:	ORYXHardware model number:	OX2-SRSoftware version number:	ORYX F/W v4,00 Oryx Data Collector v3.7.2.0data status	okinstallation	BH3 CH2differential loss correction	single-endedforward channel	channel 2reverse channel	N/Adate	2023/12/05time	23:47:28forward acquisition time	300,00reverse acquisition time	0,00gamma	499,1914k internal	0,3196k external	0,3196temperature offset calibration	1,0000default loss term (dB/km)	0,3820temperature slope calibration	1,0000multiplexer offset coefficient	1,0000multiplexer slope coefficient	1,0000fibre end	0,00T internal ref (°C)	9,50T ext. ref 1 (°C)	-5,37T ext. ref 2 (°C)	-5,46length (m)	temperature (°C)	Stokes	anti-Stokes-744,400	-200,000	-0,001	-0,133
-743,385	-6,210	-0,260	0,129
-742,371	139,604	0,043	-0,041
-741,356	-48,130	-0,205	0,072
-740,342	-200,000	0,011	-0,190
-739,327	78,562	-0,151	0,118
-738,312	-200,000	-0,058	-0,191
-737,298	-45,465	-0,118	0,042
-736,283	116,974	0,027	-0,024
-735,269	54,677	-0,138	0,097
-734,254	-200,000	-0,027	-0,145
-733,239	-186,787	-0,306	-0,003
-732,225	108,905	0,107	-0,093
-731,210	-115,715	0,120	0,016
-730,196	235,243	-0,086	0,104
-729,181	-200,000	-0,048	-0,169
-728,167	200,332	-0,098	-0,110
-727,152	-161,308	0,096	0,004
-726,137	-117,867	-0,115	-0,015
-725,123	-76,179	-0,067	0,017
-724,108	672,163	0,044	0,083
-723,094	-200,000	0,011	-0,133
-722,079	253,671	-0,038	-0,047
-721,064	800,000	0,044	0,142
-720,050	-200,000	-0,002	0,040
-719,035	-200,000	0,005	-0,035
-718,021	-154,489	-0,138	-0,007
-717,006	-200,000	-0,019	-0,097
-715,991	100,767	-0,157	-0,132
-714,977	-134,803	-0,073	0,006
-713,962	-200,000	0,010	0,065
-712,948	186,793	0,009	-0,010
-711,933	42,593	-0,083	0,055
-710,918	-93,835	0,164	-0,033
-709,904	41,137	-0,065	-0,042
-708,889	-200,000	-0,046	-0,242
-707,875	800,000	-0,041	-0,104
-706,860	481,377	0,100	-0,165
-705,845	64,784	0,049	-0,036
-704,831	59,971	0,106	0,076
-703,816	-3,838	-0,120	-0,060
-702,802	638,613	-0,019	0,035
-701,787	-200,000	-0,008	-0,054
-700,772	171,977	0,059	-0,062
-699,758	-89,261	-0,077	0,016
-698,743	800,000	0,015	0,037
-697,729	-200,000	0,016	0,069
-696,714	-61,686	-0,124	-0,038
-695,699	124,706	-0,077	0,070
-694,685	-43,945	-0,026	-0,010
-693,670	800,000	-0,030	0,089
-692,656	-200,000	-0,015	-0,074
-691,641	800,000	0,018	-0,038
-690,627	800,000	-0,067	-0,167
-689,612	-200,000	-0,005	-0,046
-688,597	-77,284	0,051	0,013
-687,583	800,000	0,042	-0,112
-686,568	-99,101	-0,139	0,025
-685,554	89,438	-0,055	-0,044
-684,539	-200,000	0,019	0,111
-683,524	-200,000	-0,034	-0,135
-682,510	-200,000	0,027	-0,100
-681,495	-200,000	-0,013	-0,089
-680,481	1,945	-0,135	-0,071
-679,466	170,955	-0,096	-0,100
-678,451	123,563	0,100	-0,091
-677,437	800,000	-0,051	-0,132
-676,422	-53,422	0,116	0,039
-675,408	109,586	-0,100	0,087
-674,393	443,870	-0,021	0,033
-673,378	403,988	0,052	0,080
-672,364	-37,728	-0,160	-0,062
-671,349	-102,475	-0,140	0,024
-670,335	294,470	0,120	0,160
-669,320	800,000	0,057	-0,161
-668,305	-200,000	0,009	-0,086
-667,291	-200,000	-0,006	-0,051
-666,276	-200,000	-0,027	-0,150
-665,262	-104,580	-0,173	-0,029
-664,247	-92,888	-0,065	-0,013
-663,232	172,746	-0,088	0,092
-662,218	-200,000	-0,003	-0,043
-661,203	-152,451	-0,040	-0,002
-660,189	-53,474	0,076	0,025
-659,174	2,461	-0,032	0,017
-658,159	-200,000	0,020	-0,105
-657,145	140,384	-0,138	-0,133
-656,130	800,000	-0,027	-0,071
-655,116	31,486	0,083	-0,052
-654,101	48,480	-0,058	-0,039
-653,086	-8,647	0,060	0,029
-652,072	473,970	-0,049	-0,081
-651,057	137,059	-0,057	0,054
-650,043	-39,695	0,004	-0,001
-649,028	-125,991	-0,170	0,018
-648,014	-200,000	0,064	0,268
-646,999	-154,238	0,031	-0,002
-645,984	-120,776	-0,100	0,012
-644,970	438,652	-0,027	0,043
-643,955	89,595	0,084	-0,068
-642,941	-64,656	-0,075	0,022
-641,926	-67,537	0,103	0,029
-640,911	562,265	0,046	0,080
-639,897	289,035	0,053	0,070
-638,882	9,307	-0,068	-0,037
-637,868	-8,124	0,065	-0,032
-636,853	689,130	-0,050	0,095
-635,838	-200,000	-0,010	-0,079
-634,824	113,916	-0,063	-0,056
-633,809	-128,298	0,069	0,007
-632,795	-13,794	0,071	-0,033
-631,780	-200,000	-0,003	0,031
-630,765	56,859	-0,053	0,037
-629,751	-136,056	-0,115	-0,010
-628,736	143,213	0,019	-0,018
-627,722	785,630	0,022	-0,044
-626,707	800,000	-0,037	0,101
-625,692	-16,998	0,181	-0,083
-624,678	292,248	0,096	0,127
-623,663	-59,634	-0,205	0,063
-622,649	-52,547	0,186	-0,062
-621,634	800,000	-0,030	-0,071
-620,619	-200,000	-0,001	-0,083
-619,605	243,228	0,051	0,062
-618,590	94,132	0,066	-0,054
-617,576	-91,292	-0,027	0,006
-616,561	-124,075	0,108	-0,012
-615,546	117,260	-0,063	0,056
-614,532	-200,000	0,049	-0,222
-613,517	-92,375	-0,126	-0,025
-612,503	268,130	-0,033	-0,042
-611,488	287,125	0,088	0,116
-610,474	800,000	-0,073	0,150
-609,459	800,000	0,060	0,123
-608,444	192,394	0,074	-0,081
-607,430	143,613	-0,048	-0,046
-606,415	132,002	0,063	-0,059
-605,401	29,571	-0,094	-0,058
-604,386	32,351	0,126	-0,079
-603,371	-71,028	0,078	0,021
-602,357	-200,000	-0,003	0,139
-601,342	391,993	0,029	0,044
-600,328	-200,000	0,004	-0,058
-599,313	-54,746	0,122	0,040
-598,298	-200,000	0,013	-0,166
-597,284	800,000	0,024	-0,058
-596,269	-200,000	-0,021	0,184
-595,255	-200,000	-0,018	0,106
-594,240	4,862	-0,110	-0,058
-593,225	-200,000	-0,013	0,043
-592,211	55,403	0,091	-0,064
-591,196	-200,000	0,008	0,072
-590,182	-200,000	0,009	0,098
-589,167	315,738	0,139	0,190
-588,152	-73,372	-0,104	0,027
-587,138	-3,122	0,033	0,017
-586,123	45,232	0,051	0,034
-585,109	0,865	-0,123	-0,064
-584,094	59,129	0,083	-0,059
-583,079	546,456	-0,051	-0,088
-582,065	16,521	0,103	-0,059
-581,050	-10,511	0,076	-0,037
-580,036	498,027	-0,059	-0,098
-579,021	800,000	0,058	-0,136
-578,006	-200,000	-0,040	-0,331
-576,992	-105,071	0,053	-0,009
-575,977	-200,000	0,011	0,123
-574,963	-200,000	0,003	-0,074
-573,948	369,700	0,022	0,032
-572,934	-200,000	-0,040	-0,155
-571,919	34,895	-0,062	0,039
-570,904	227,721	-0,053	-0,063
-569,890	800,000	0,029	-0,066
-568,875	242,216	0,071	0,086
-567,861	15,668	0,106	0,060
-566,846	-33,383	0,128	0,051
-565,831	-41,076	0,014	0,005
-564,817	352,457	-0,081	-0,117
-563,802	-13,285	-0,164	-0,077
-562,788	14,501	-0,073	0,041
-561,773	-25,113	-0,026	0,011
-560,758	2,957	0,042	-0,022
-559,744	275,727	-0,050	0,065
-558,729	421,856	0,021	0,033
-557,715	-19,828	-0,046	-0,021
-556,700	19,283	-0,030	0,017
-555,685	-158,029	-0,139	0,006
-554,671	100,230	0,058	-0,049
-553,656	-106,859	-0,108	-0,017
-552,642	-200,000	-0,010	-0,032
-551,627	-90,430	-0,053	-0,011
-550,612	352,381	0,071	-0,103
-549,598	127,524	-0,034	0,032
-548,583	-200,000	-0,024	-0,149
-547,569	-200,000	-0,025	-0,121
-546,554	800,000	0,033	-0,092
-545,539	-200,000	-0,024	0,083
-544,525	-200,000	-0,013	0,129
-543,510	121,615	-0,069	-0,062
-542,496	-200,000	0,017	-0,148
-541,481	-200,000	0,014	0,049
-540,466	-143,360	0,033	-0,002
-539,452	70,733	0,104	0,078
-538,437	-90,267	0,120	0,025
-537,423	84,358	0,064	0,051
-536,408	800,000	-0,026	-0,061
-535,393	403,274	-0,105	-0,160
-534,379	336,843	0,027	-0,039
-533,364	-200,000	-0,007	-0,026
-532,350	-200,000	-0,023	-0,114
-531,335	-200,000	0,012	-0,064
-530,321	-200,000	-0,038	-0,162
-529,306	-113,764	0,051	0,007
-528,291	82,004	-0,030	-0,023
-527,277	-200,000	0,001	0,027
-526,262	448,045	-0,033	-0,053
-525,248	-200,000	-0,010	0,067
-524,233	-66,715	0,041	0,012
-523,218	37,045	0,029	-0,018
-522,204	69,101	0,122	0,090
-521,189	241,389	-0,101	0,122
-520,175	800,000	0,042	0,093
-519,160	5,518	-0,015	0,008
-518,145	295,597	-0,069	-0,091
-517,131	56,755	0,123	0,086
-516,116	-28,720	0,160	-0,066
-515,102	81,139	0,020	0,016
-514,087	-200,000	-0,016	0,101
-513,072	-26,962	-0,089	-0,037
-512,058	-57,688	-0,013	-0,004
-511,043	-7,429	0,101	0,049
-510,029	132,885	-0,066	-0,061
-509,014	-200,000	-0,019	-0,074
-507,999	-34,552	0,048	-0,019
-506,985	-200,000	-0,033	-0,105
-505,970	-200,000	-0,048	-0,163
-504,956	759,992	-0,040	0,080
-503,941	35,979	0,061	0,039
-502,926	-41,115	0,073	0,027
-501,912	37,366	-0,046	0,029
-500,897	-69,767	0,106	-0,029
-499,883	101,080	0,163	0,136
-498,868	89,233	-0,149	-0,120
-497,853	234,334	-0,025	-0,030
-496,839	150,799	-0,104	0,102
-495,824	-109,309	0,090	0,014
-494,810	-120,504	-0,061	-0,007
-493,795	-200,000	-0,001	-0,027
-492,781	-200,000	-0,001	-0,075
-491,766	-200,000	-0,027	-0,136
-490,751	3,910	-0,068	-0,036
-489,737	800,000	0,032	-0,079
-488,722	224,419	0,067	0,079
-487,708	-200,000	0,017	0,073
-486,693	-102,059	0,055	0,009
-485,678	-200,000	0,020	0,072
-484,664	800,000	-0,045	-0,129
-483,649	800,000	-0,035	-0,075
-482,635	-75,094	-0,103	-0,026
-481,620	800,000	-0,020	-0,052
-480,605	800,000	-0,049	0,101
-479,591	26,597	0,085	0,051
-478,576	-43,037	0,085	-0,031
-477,562	800,000	0,050	0,104
-476,547	45,879	-0,113	-0,075
-475,532	-200,000	-0,016	-0,083
-474,518	-117,160	-0,009	-0,001
-473,503	182,198	0,056	0,060
-472,489	50,638	0,034	0,023
-471,474	42,184	0,074	-0,049
-470,459	95,113	-0,127	-0,104
-469,445	-46,389	-0,186	-0,065
-468,430	468,354	0,014	-0,023
-467,416	465,910	-0,056	0,090
-466,401	-200,000	0,005	0,054
-465,386	-96,879	0,073	0,014
-464,372	-109,204	0,122	-0,018
-463,357	428,359	-0,056	-0,088
-462,343	-200,000	-0,020	-0,110
-461,328	709,921	-0,059	-0,113
-460,313	468,231	0,039	0,063
-459,299	-200,000	-0,007	-0,082
-458,284	145,837	-0,061	-0,059
-457,270	617,410	0,043	0,078
-456,255	-200,000	-0,041	-0,138
-455,241	-200,000	0,039	-0,127
-454,226	662,454	-0,026	-0,049
-453,211	16,857	0,128	-0,073
-452,197	-200,000	0,009	0,228
-451,182	-200,000	-0,016	0,059
-450,168	-66,266	0,038	0,011
-449,153	3,144	-0,077	0,040
-448,138	-170,532	0,172	0,004
-447,124	786,087	-0,024	-0,048
-446,109	-200,000	0,014	-0,100
-445,095	49,349	-0,106	0,071
-444,080	800,000	0,009	0,021
-443,065	800,000	0,032	-0,076
-442,051	28,511	-0,041	-0,025
-441,036	79,037	0,075	0,058
-440,022	-200,000	0,010	-0,081
-439,007	-200,000	0,026	-0,116
-437,992	-11,791	0,109	-0,051
-436,978	52,347	0,083	0,057
-435,963	-135,194	-0,009	0,001
-434,949	-18,048	0,078	-0,035
-433,934	15,845	-0,052	0,029
-432,919	-47,725	-0,061	0,021
-431,905	-15,055	0,097	0,045
-430,890	800,000	0,077	-0,157
-429,876	-200,000	0,026	0,083
-428,861	-42,113	0,124	-0,046
-427,846	56,649	-0,104	-0,073
-426,832	-130,923	-0,131	0,012
-425,817	-200,000	0,006	-0,029
-424,803	-3,586	-0,020	0,010
-423,788	-200,000	-0,002	-0,109
-422,773	800,000	0,048	0,116
-421,759	80,819	-0,123	-0,095
-420,744	-34,799	-0,032	-0,012
-419,730	-149,308	0,107	-0,006
-418,715	277,492	-0,083	0,107
-417,701	-200,000	-0,005	0,078
-416,686	45,511	-0,088	0,058
-415,671	800,000	0,043	0,116
-414,657	150,507	-0,074	0,072
-413,642	77,938	0,107	-0,082
-412,628	-200,000	-0,034	0,118
-411,613	800,000	-0,009	0,024
-410,598	268,391	-0,037	-0,047
-409,584	83,548	0,126	-0,099
-408,569	-0,919	0,135	-0,068
-407,555	-25,533	0,111	0,047
-406,540	63,765	-0,077	0,055
-405,525	337,512	0,108	-0,152
-404,511	-69,473	-0,071	0,019
-403,496	-39,247	0,160	0,060
-402,482	-54,018	-0,034	0,011
-401,467	109,240	0,075	0,065
-400,452	-200,000	0,012	0,055
-399,438	-200,000	0,018	0,082
-398,423	-18,904	-0,180	-0,080
-397,409	464,280	0,054	-0,086
-396,394	-23,441	-0,228	-0,098
-395,379	-200,000	-0,002	0,021
-394,365	82,647	0,051	-0,040
-393,350	800,000	0,025	0,056
-392,336	221,230	-0,089	-0,103
-391,321	-41,294	0,019	0,007
-390,306	-69,954	-0,145	-0,040
-389,292	292,053	-0,106	-0,139
-388,277	-200,000	-0,008	-0,025
-387,263	-66,592	-0,097	0,027
-386,248	-200,000	0,004	0,081
-385,233	318,855	0,044	-0,060
-384,219	800,000	0,004	0,010
-383,204	-200,000	-0,014	-0,096
-382,190	-200,000	-0,019	-0,067
-381,175	800,000	-0,021	-0,060
-380,160	150,599	0,103	-0,101
-379,146	-200,000	-0,007	0,048
-378,131	-200,000	-0,011	-0,038
-377,117	-200,000	-0,031	0,141
-376,102	-84,615	0,081	0,018
-375,088	800,000	-0,003	0,009
-374,073	-62,490	-0,055	0,016
-373,058	227,025	-0,086	0,101
-372,044	-78,390	0,039	0,009
-371,029	-200,000	-0,008	0,083
-370,015	-200,000	-0,009	0,169
-369,000	800,000	-0,053	-0,144
-367,985	-200,000	-0,012	-0,105
-366,971	-200,000	-0,012	0,045
-365,956	800,000	0,025	0,051
-364,942	239,211	0,027	0,032
-363,927	800,000	-0,023	-0,049
-362,912	104,379	0,055	-0,046
-361,898	800,000	0,057	-0,157
-360,883	-200,000	-0,005	-0,028
-359,869	800,000	0,037	-0,074
-358,854	658,547	0,071	-0,132
-357,839	-200,000	0,005	-0,028
-356,825	549,728	0,029	0,051
-355,810	208,824	-0,102	-0,115
-354,796	214,677	0,024	-0,027
-353,781	800,000	-0,023	0,061
-352,766	94,355	0,091	-0,074
-351,752	-200,000	-0,001	0,120
-350,737	-200,000	0,015	-0,086
-349,723	-200,000	0,018	0,070
-348,708	392,624	0,019	-0,028
-347,693	-200,000	-0,019	-0,110
-346,679	-70,125	-0,059	0,016
-345,664	24,328	-0,141	-0,083
-344,650	128,501	0,087	0,079
-343,635	115,440	-0,048	0,042
-342,620	-80,285	-0,038	0,009
-341,606	510,221	0,066	0,111
-340,591	-120,790	-0,126	-0,015
-339,577	-47,440	0,077	0,027
-338,562	103,210	0,009	0,007
-337,548	-0,423	0,057	0,029
-336,533	295,620	-0,060	0,080
-335,518	-105,945	0,053	-0,009
-334,504	-19,604	-0,116	0,051
-333,489	-200,000	0,001	0,033
-332,475	800,000	0,037	-0,089
-331,460	19,266	0,091	-0,052
-330,445	-122,122	-0,178	-0,021
-329,431	-200,000	0,019	-0,095
-328,416	-183,247	0,061	0,001
-327,402	-200,000	-0,043	0,167
-326,387	512,107	-0,107	-0,180
-325,372	456,844	-0,080	0,128
-324,358	-32,879	0,019	0,007
-323,343	-103,654	0,030	0,005
-322,329	-81,891	-0,070	0,016
-321,314	-178,936	0,171	-0,003
-320,299	800,000	0,023	0,060
-319,285	567,966	-0,063	0,110
-318,270	325,798	-0,055	-0,076
-317,256	-85,009	-0,141	-0,031
-316,241	-36,495	0,071	-0,027
-315,226	23,806	-0,038	0,022
-314,212	800,000	0,055	0,118
-313,197	456,207	0,062	0,099
-312,183	-91,316	-0,090	-0,018
-311,168	-23,113	-0,037	0,016
-310,153	-24,973	-0,133	0,056
-309,139	-14,489	0,026	0,012
-308,124	400,748	0,040	0,061
-307,110	800,000	0,048	0,125
-306,095	-158,569	-0,037	0,002
-305,080	800,000	0,029	0,066
-304,066	800,000	0,020	0,059
-303,051	411,669	-0,039	-0,060
-302,037	688,551	-0,038	0,072
-301,022	-155,986	0,142	0,006
-300,008	-200,000	0,010	0,073
-298,993	-38,395	0,085	-0,032
-297,978	-200,000	0,007	0,085
-296,964	159,844	-0,130	0,130
-295,949	-137,977	-0,128	-0,010
-294,935	-77,916	-0,076	0,019
-293,920	254,605	0,056	0,068
-292,905	23,207	0,089	0,052
-291,891	-200,000	-0,004	0,024
-290,876	107,384	0,043	-0,036
-289,862	222,928	-0,081	0,094
-288,847	-68,820	-0,134	-0,037
-287,832	800,000	-0,030	-0,089
-286,818	-200,000	-0,016	0,072
-285,803	-200,000	0,017	0,058
-284,789	141,663	-0,032	0,031
-283,774	55,774	-0,067	0,046
-282,759	20,652	-0,180	0,104
-281,745	-116,112	0,112	-0,015
-280,730	-94,133	0,046	-0,009
-279,716	800,000	-0,010	-0,026
-278,701	-200,000	-0,018	-0,145
-277,686	308,178	0,056	-0,074
-276,672	-200,000	-0,014	0,186
-275,657	299,189	-0,016	-0,021
-274,643	388,021	-0,116	-0,173
-273,628	-161,513	-0,057	0,002
-272,613	738,220	-0,059	0,114
-271,599	-200,000	0,013	0,076
-270,584	-59,327	0,122	0,037
-269,570	-8,838	0,082	0,039
-268,555	-112,222	0,130	0,018
-267,540	-200,000	0,037	-0,193
-266,526	384,213	0,018	0,026
-265,511	-200,000	-0,014	-0,049
-264,497	-90,163	-0,059	-0,012
-263,482	-70,015	-0,118	0,032
-262,467	334,718	-0,075	0,104
-261,453	370,176	0,032	0,047
-260,438	-200,000	-0,003	-0,119
-259,424	72,902	-0,079	0,059
-258,409	38,585	-0,127	-0,081
-257,395	161,852	0,055	0,055
-256,380	66,912	0,074	0,054
-255,365	-200,000	-0,009	-0,047
-254,351	211,667	0,084	0,095
-253,336	-59,693	-0,113	0,034
-252,322	70,914	0,058	0,043
-251,307	98,377	-0,120	-0,099
-250,292	-109,203	0,121	0,018
-249,278	-38,978	0,065	0,024
-248,263	80,515	-0,028	-0,021
-247,249	800,000	-0,013	-0,036
-246,234	354,466	-0,085	0,121
-245,219	-200,000	0,003	-0,118
-244,205	327,948	-0,001	0,002
-243,190	800,000	-0,028	0,083
-242,176	422,878	0,036	0,056
-241,161	64,082	0,098	0,071
-240,146	-153,921	0,045	-0,002
-239,132	271,370	-0,038	-0,048
-238,117	20,502	-0,051	-0,029
-237,103	800,000	0,055	-0,122
-236,088	-200,000	-0,018	-0,088
-235,073	62,060	0,125	0,089
-234,059	90,121	-0,039	0,031
-233,044	800,000	-0,033	0,093
-232,030	10,363	0,091	0,049
-231,015	-200,000	0,016	0,059
-230,000	734,736	0,090	-0,172
-228,986	31,317	0,055	-0,033
-227,971	29,366	-0,099	0,060
-226,957	324,015	0,031	-0,043
-225,942	-118,292	0,113	-0,014
-224,927	-11,386	0,032	-0,015
-223,913	-72,438	0,142	0,037
-222,898	22,277	-0,032	0,018
-221,884	-200,000	-0,059	0,000
-220,869	606,764	0,082	0,146
-219,855	-93,710	-0,087	-0,017
-218,840	150,392	0,136	0,132
-217,825	-13,405	-0,108	-0,050
-216,811	206,022	0,036	0,040
-215,796	-200,000	-0,006	-0,073
-214,782	800,000	-0,061	0,151
-213,767	55,364	0,152	0,105
-212,752	800,000	-0,019	-0,051
-211,738	-200,000	0,016	0,095
-210,723	408,513	0,032	0,049
-209,709	729,803	-0,067	0,128
-208,694	-109,843	-0,240	0,036
-207,679	-200,000	0,010	-0,095
-206,665	-200,000	-0,004	-0,044
-205,650	-87,073	-0,055	-0,012
-204,636	254,541	-0,032	-0,040
-203,621	454,591	0,061	0,097
-202,606	45,523	-0,067	0,044
-201,592	100,438	-0,105	-0,087
-200,577	-200,000	-0,040	-0,140
-199,563	755,966	0,043	-0,083
-198,548	-200,000	0,035	0,185
-197,533	-144,668	0,130	-0,008
-196,519	-50,740	0,094	-0,031
-195,504	19,432	-0,048	-0,028
-194,490	800,000	0,075	-0,177
-193,475	90,276	-0,185	-0,148
-192,460	32,048	0,055	-0,034
-191,446	-52,515	0,108	0,036
-190,431	-115,687	0,126	-0,017
-189,417	-166,766	-0,086	0,002
-188,402	61,171	-0,053	0,038
-187,387	-60,481	-0,022	0,007
-186,373	9,927	-0,006	-0,003
-185,358	705,579	-0,067	-0,127
-184,344	-200,000	-0,011	0,140
-183,329	-200,000	-0,004	0,105
-182,315	263,983	-0,024	0,029
-181,300	90,654	-0,100	0,079
-180,285	-87,702	-0,040	-0,008
-179,271	800,000	-0,027	-0,084
-178,256	192,844	0,048	0,052
-177,242	-200,000	0,016	0,218
-176,227	31,189	-0,051	0,031
-175,212	-118,427	0,088	0,011
-174,198	800,000	0,039	0,091
-173,183	-33,985	-0,029	-0,011
-172,169	-200,000	0,011	0,145
-171,154	159,080	-0,087	-0,086
-170,139	-175,186	0,146	0,003
-169,125	639,090	0,015	0,028
-168,110	22,972	0,057	-0,033
-167,096	-56,804	-0,101	-0,032
-166,081	800,000	-0,051	0,105
-165,066	232,028	0,055	0,065
-164,052	800,000	-0,028	0,060
-163,037	387,153	0,044	0,066
-162,023	283,966	-0,072	0,092
-161,008	175,045	-0,035	0,037
-159,993	375,924	0,046	-0,066
-158,979	71,249	-0,110	-0,081
-157,964	-200,000	-0,011	-0,055
-156,950	-43,748	0,021	-0,007
-155,935	800,000	-0,041	-0,092
-154,920	800,000	0,061	0,137
-153,906	23,024	0,115	0,067
-152,891	-94,340	-0,115	-0,022
-151,877	-20,583	-0,021	-0,009
-150,862	128,811	-0,054	0,049
-149,847	-160,229	-0,114	0,004
-148,833	-200,000	-0,022	0,093
-147,818	47,474	-0,041	0,027
-146,804	-29,896	0,064	0,026
-145,789	20,665	-0,055	-0,032
-144,775	-45,826	-0,107	0,037
-143,760	-70,496	0,143	-0,038
-142,745	102,937	-0,104	-0,087
-141,731	23,913	0,137	0,080
-140,716	14,424	0,017	0,009
-139,702	-200,000	-0,013	0,123
-138,687	315,780	0,019	0,026
-137,672	-151,427	-0,087	-0,005
-136,658	-95,221	0,084	-0,016
-135,643	-200,000	0,006	0,043
-134,629	-164,851	-0,127	0,004
-133,614	-200,000	0,010	-0,088
-132,599	-183,746	0,109	0,001
-131,585	-200,000	-0,007	0,157
-130,570	-200,000	0,024	-0,257
-129,556	800,000	-0,022	0,050
-128,541	153,081	-0,115	-0,112
-127,526	140,503	0,048	0,045
-126,512	10,273	0,066	-0,036
-125,497	-200,000	0,001	0,018
-124,483	-200,000	-0,017	-0,080
-123,468	57,702	0,115	0,080
-122,453	84,088	0,047	-0,036
-121,439	85,843	0,104	-0,082
-120,424	423,395	0,029	-0,045
-119,410	-200,000	0,013	0,083
