DTS Sentinel unit serial number:	SN410029Multiplexer serial number:	ORYXHardware model number:	OX2-SRSoftware version number:	ORYX F/W v4,00 Oryx Data Collector v3.7.2.0data status	okinstallation	BH3 CH2differential loss correction	single-endedforward channel	channel 2reverse channel	N/Adate	2023/12/05time	21:37:28forward acquisition time	300,00reverse acquisition time	0,00gamma	499,1914k internal	0,3194k external	0,3194temperature offset calibration	1,0000default loss term (dB/km)	0,3820temperature slope calibration	1,0000multiplexer offset coefficient	1,0000multiplexer slope coefficient	1,0000fibre end	0,00T internal ref (°C)	10,26T ext. ref 1 (°C)	-4,67T ext. ref 2 (°C)	-4,76length (m)	temperature (°C)	Stokes	anti-Stokes-744,400	-175,764	-0,132	-0,003
-743,385	-154,362	-0,120	0,006
-742,371	457,769	-0,053	-0,086
-741,356	80,707	-0,152	0,119
-740,342	353,567	-0,121	-0,175
-739,327	42,650	-0,185	0,123
-738,312	-138,107	-0,086	-0,007
-737,298	-106,796	-0,236	0,038
-736,283	137,027	-0,094	-0,089
-735,269	800,000	-0,088	0,184
-734,254	-94,055	-0,140	0,028
-733,239	-67,094	-0,388	-0,111
-732,225	187,421	0,074	-0,081
-731,210	676,077	-0,055	0,105
-730,196	-10,244	0,062	-0,030
-729,181	-24,753	-0,042	-0,018
-728,167	-157,284	-0,038	-0,002
-727,152	-200,000	-0,125	0,000
-726,137	284,794	-0,072	-0,094
-725,123	-66,464	-0,130	-0,037
-724,108	130,035	-0,103	0,096
-723,094	386,334	-0,047	-0,071
-722,079	172,223	-0,005	0,006
-721,064	63,688	0,120	0,088
-720,050	-21,023	-0,062	-0,028
-719,035	-125,729	-0,106	0,011
-718,021	365,465	-0,071	-0,104
-717,006	733,101	0,050	-0,098
-715,991	19,479	-0,046	-0,027
-714,977	-77,636	-0,146	0,036
-713,962	461,638	-0,017	-0,028
-712,948	800,000	0,035	-0,096
-711,933	-200,000	0,007	-0,099
-710,918	-142,686	0,114	-0,008
-709,904	800,000	-0,088	0,206
-708,889	-0,427	-0,180	-0,093
-707,875	645,566	-0,011	-0,020
-706,860	713,811	-0,042	-0,082
-705,845	553,588	-0,052	0,091
-704,831	-59,535	0,133	-0,041
-703,816	-78,205	0,053	-0,013
-702,802	-200,000	-0,002	0,018
-701,787	-200,000	-0,015	-0,054
-700,772	-93,461	-0,117	-0,023
-699,758	-132,038	0,010	0,001
-698,743	-113,583	-0,057	-0,008
-697,729	21,852	0,097	0,057
-696,714	478,539	0,015	-0,024
-695,699	800,000	0,005	0,016
-694,685	-53,424	-0,193	0,064
-693,670	-51,183	0,066	0,022
-692,656	419,553	-0,044	0,069
-691,641	-11,843	-0,050	-0,024
-690,627	-200,000	-0,002	-0,035
-689,612	-200,000	-0,007	-0,054
-688,597	-200,000	0,011	0,050
-687,583	-200,000	-0,002	0,104
-686,568	-5,740	-0,103	-0,051
-685,554	693,356	0,035	-0,067
-684,539	-127,723	-0,058	-0,006
-683,524	-8,147	-0,135	-0,066
-682,510	800,000	0,053	-0,123
-681,495	4,844	-0,033	0,017
-680,481	-200,000	-0,020	-0,134
-679,466	491,386	-0,060	-0,101
-678,451	-200,000	0,018	-0,114
-677,437	187,397	0,090	-0,098
-676,422	-154,019	0,090	0,004
-675,408	-16,814	-0,085	-0,039
-674,393	423,834	-0,036	0,057
-673,378	248,492	-0,090	-0,110
-672,364	-98,099	-0,169	-0,031
-671,349	762,681	-0,048	0,095
-670,335	126,009	0,061	0,056
-669,320	-30,806	0,026	0,011
-668,305	-7,520	0,057	0,028
-667,291	-200,000	0,003	0,057
-666,276	-2,658	0,028	0,014
-665,262	-200,000	0,008	-0,049
-664,247	-200,000	-0,045	-0,186
-663,232	-89,766	-0,104	-0,022
-662,218	-82,800	-0,038	0,009
-661,203	-200,000	0,040	0,129
-660,189	101,895	-0,137	0,116
-659,174	-200,000	0,019	-0,118
-658,159	215,113	-0,004	0,004
-657,145	-200,000	0,003	-0,022
-656,130	800,000	-0,025	-0,056
-655,116	-24,592	0,033	-0,014
-654,101	800,000	-0,025	-0,056
-653,086	45,697	-0,086	0,057
-652,072	-144,064	0,025	0,002
-651,057	569,674	0,011	-0,019
-650,043	307,760	-0,047	-0,064
-649,028	25,544	-0,026	0,016
-648,014	-80,165	0,117	-0,028
-646,999	-200,000	0,009	0,086
-645,984	469,899	0,063	-0,103
-644,970	-200,000	-0,002	-0,135
-643,955	800,000	-0,084	-0,201
-642,941	-200,000	0,024	-0,169
-641,926	123,702	0,187	0,171
-640,911	-25,581	0,113	-0,048
-639,897	-55,434	-0,100	-0,032
-638,882	527,732	-0,032	0,055
-637,868	-200,000	-0,023	0,082
-636,853	185,603	-0,122	0,132
-635,838	270,825	-0,067	-0,086
-634,824	-53,875	0,039	-0,013
-633,809	800,000	0,029	0,063
-632,795	-80,256	0,048	0,012
-631,780	551,808	-0,037	0,065
-630,765	-200,000	0,033	0,144
-629,751	800,000	-0,028	-0,085
-628,736	-70,420	-0,071	-0,019
-627,722	-44,265	-0,017	-0,006
-626,707	-200,000	-0,034	-0,204
-625,692	-124,682	-0,103	-0,011
-624,678	800,000	0,069	-0,148
-623,663	-38,328	-0,020	-0,008
-622,649	358,044	-0,020	-0,028
-621,634	27,120	-0,067	-0,041
-620,619	749,408	-0,029	-0,058
-619,605	-29,299	-0,020	0,008
-618,590	-200,000	0,018	-0,087
-617,576	13,085	-0,035	-0,019
-616,561	800,000	0,031	0,093
-615,546	-197,706	-0,144	-0,001
-614,532	561,151	0,062	-0,110
-613,517	262,705	-0,101	-0,128
-612,503	-44,686	-0,132	-0,048
-611,488	244,506	0,135	0,165
-610,474	-14,955	0,042	0,019
-609,459	-47,507	0,029	-0,010
-608,444	800,000	-0,030	0,065
-607,430	-109,423	-0,148	-0,023
-606,415	122,420	-0,054	-0,049
-605,401	10,249	-0,128	-0,070
-604,386	-200,000	-0,002	0,070
-603,371	-47,515	0,072	-0,025
-602,357	43,959	0,118	-0,078
-601,342	37,008	-0,047	-0,030
-600,328	639,697	-0,074	-0,137
-599,313	-200,000	-0,009	-0,044
-598,298	168,248	0,071	-0,073
-597,284	186,126	0,044	0,047
-596,269	-15,889	0,109	-0,050
-595,255	105,954	0,083	0,071
-594,240	-12,964	0,073	-0,034
-593,225	131,594	-0,034	-0,032
-592,211	-58,605	-0,114	0,035
-591,196	-110,502	0,109	0,016
-590,182	-38,229	0,155	0,059
-589,167	-88,612	0,150	0,032
-588,152	-200,000	-0,027	-0,100
-587,138	226,345	-0,032	0,038
-586,123	-5,518	-0,078	-0,038
-585,109	-200,000	0,018	-0,064
-584,094	758,559	-0,022	0,044
-583,079	16,278	-0,085	0,048
-582,065	-200,000	0,047	-0,202
-581,050	6,875	-0,039	0,021
-580,036	244,478	0,068	-0,083
-579,021	236,753	0,058	-0,070
-578,006	-145,027	-0,121	0,008
-576,992	-64,482	0,034	-0,010
-575,977	-200,000	0,004	-0,038
-574,963	-200,000	0,036	-0,119
-573,948	-143,601	0,033	0,002
-572,934	-125,051	-0,114	-0,012
-571,919	-200,000	0,000	-0,038
-570,904	-83,017	-0,085	-0,020
-569,890	-121,934	-0,138	0,016
-568,875	47,701	0,044	0,030
-567,861	800,000	0,051	-0,128
-566,846	-154,573	-0,109	-0,005
-565,831	-122,569	-0,083	-0,010
-564,817	716,426	-0,038	0,073
-563,802	-200,000	-0,110	0,000
-562,788	8,711	-0,089	-0,049
-561,773	100,306	0,053	0,044
-560,758	-200,000	-0,005	-0,084
-559,744	386,585	-0,057	0,086
-558,729	456,385	0,059	0,095
-557,715	800,000	-0,022	0,067
-556,700	627,693	-0,021	-0,039
-555,685	92,313	0,029	-0,024
-554,671	-200,000	0,001	0,083
-553,656	-200,000	0,012	-0,066
-552,642	-44,186	-0,122	-0,044
-551,627	108,898	0,034	0,030
-550,612	238,959	-0,066	0,080
-549,598	198,567	-0,073	-0,080
-548,583	332,149	0,076	-0,107
-547,569	284,037	-0,087	0,114
-546,554	-200,000	0,042	0,161
-545,539	530,407	0,088	0,151
-544,525	231,685	0,067	0,080
-543,510	-200,000	-0,009	0,071
-542,496	-99,155	0,049	0,009
-541,481	-183,946	-0,030	-0,000
-540,466	800,000	-0,016	0,044
-539,452	800,000	-0,021	-0,045
-538,437	-200,000	-0,034	0,134
-537,423	-45,637	-0,174	-0,062
-536,408	-30,898	-0,077	0,031
-535,393	800,000	0,047	-0,116
-534,379	109,364	0,138	-0,119
-533,364	-200,000	0,006	0,115
-532,350	8,448	0,031	0,017
-531,335	-72,756	0,041	-0,011
-530,321	32,889	0,178	0,111
-529,306	180,821	0,074	0,078
-528,291	691,501	-0,067	-0,127
-527,277	108,444	-0,049	-0,042
-526,262	800,000	0,015	0,043
-525,248	-31,751	0,060	0,024
-524,233	-200,000	-0,023	0,075
-523,218	-200,000	-0,006	0,055
-522,204	-133,503	-0,075	-0,007
-521,189	800,000	0,034	-0,091
-520,175	-83,628	-0,093	0,021
-519,160	-200,000	-0,017	-0,088
-518,145	25,859	0,101	-0,061
-517,131	-200,000	0,007	0,116
-516,116	266,540	0,059	0,074
-515,102	-200,000	-0,001	0,020
-514,087	81,064	-0,014	-0,011
-513,072	199,924	0,077	-0,085
-512,058	-126,725	0,029	-0,003
-511,043	206,085	-0,021	0,024
-510,029	-7,576	0,047	0,023
-509,014	2,463	0,105	0,055
-507,999	8,186	-0,075	-0,040
-506,985	800,000	-0,044	-0,098
-505,970	-148,298	0,019	0,001
-504,956	800,000	0,012	0,024
-503,941	-166,856	-0,055	-0,002
-502,926	-10,226	0,111	-0,053
-501,912	478,752	-0,053	0,086
-500,897	602,510	0,043	0,077
-499,883	474,834	0,091	0,149
-498,868	800,000	0,044	-0,131
-497,853	800,000	0,015	0,035
-496,839	14,365	-0,041	-0,023
-495,824	134,511	-0,017	-0,016
-494,810	343,729	-0,115	0,162
-493,795	59,420	0,062	0,044
-492,781	198,403	0,037	0,041
-491,766	376,081	0,009	0,013
-490,751	328,005	-0,021	0,029
-489,737	-135,668	0,035	-0,003
-488,722	-6,604	0,124	0,061
-487,708	-200,000	0,011	0,157
-486,693	649,278	0,031	0,058
-485,678	9,823	0,073	0,040
-484,664	361,972	-0,033	-0,048
-483,649	-71,757	0,032	0,008
-482,635	-44,654	-0,121	0,043
-481,620	-200,000	0,015	0,054
-480,605	571,719	-0,045	-0,080
-479,591	44,199	0,037	-0,024
-478,576	341,751	0,098	0,139
-477,562	74,788	-0,037	-0,028
-476,547	-200,000	-0,004	-0,124
-475,532	-71,642	-0,044	0,012
-474,518	2,653	0,134	0,070
-473,503	-200,000	-0,004	-0,024
-472,489	800,000	0,027	0,076
-471,474	71,909	-0,086	0,065
-470,459	40,182	-0,199	0,129
-469,445	-34,588	0,078	0,031
-468,430	-59,399	-0,040	-0,012
-467,416	-33,670	0,085	-0,034
-466,401	-73,413	0,075	0,020
-465,386	72,405	-0,105	0,079
-464,372	69,106	0,052	0,039
-463,357	79,422	0,058	-0,045
-462,343	-24,673	-0,102	-0,043
-461,328	371,780	-0,022	0,033
-460,313	-200,000	-0,004	-0,129
-459,299	166,339	0,050	0,051
-458,284	420,080	0,034	0,053
-457,270	333,565	-0,031	-0,044
-456,255	201,490	-0,085	-0,095
-455,241	68,181	-0,068	-0,050
-454,226	-15,035	-0,186	-0,086
-453,211	-52,459	0,038	-0,012
-452,197	-78,328	0,121	-0,030
-451,182	-151,527	0,015	0,001
-450,168	181,834	0,038	0,040
-449,153	-31,217	0,115	0,047
-448,138	383,162	-0,080	-0,119
-447,124	106,983	0,058	0,050
-446,109	23,250	-0,071	-0,042
-445,095	310,465	0,090	-0,121
-444,080	-200,000	0,037	0,138
-443,065	-17,872	-0,034	0,015
-442,051	800,000	0,061	-0,123
-441,036	-200,000	0,029	-0,095
-440,022	38,350	-0,023	-0,015
-439,007	233,248	-0,025	-0,029
-437,992	760,186	-0,015	-0,029
-436,978	800,000	-0,049	0,115
-435,963	305,735	-0,031	-0,041
-434,949	800,000	-0,030	0,080
-433,934	145,463	0,059	0,057
-432,919	-118,864	-0,091	-0,011
-431,905	76,377	0,068	-0,052
-430,890	-200,000	-0,006	-0,059
-429,876	-32,705	-0,068	-0,027
-428,861	-200,000	-0,029	0,101
-427,846	800,000	0,037	-0,082
-426,832	49,412	0,062	0,042
-425,817	-200,000	-0,017	-0,090
-424,803	-200,000	0,010	-0,034
-423,788	-200,000	0,032	-0,106
-422,773	187,641	0,101	0,109
-421,759	0,836	-0,101	0,052
-420,744	-200,000	-0,009	-0,051
-419,730	-200,000	-0,004	-0,076
-418,715	800,000	0,033	-0,080
-417,701	312,266	0,063	0,085
-416,686	92,491	0,095	0,077
-415,671	-200,000	-0,019	0,086
-414,657	-47,107	-0,180	-0,063
-413,642	800,000	0,024	-0,048
-412,628	-200,000	0,049	-0,157
-411,613	-68,342	0,032	0,009
-410,598	-200,000	-0,001	-0,073
-409,584	28,737	-0,027	-0,016
-408,569	2,021	-0,080	-0,042
-407,555	800,000	-0,044	0,133
-406,540	49,184	0,042	-0,029
-405,525	-200,000	-0,027	-0,086
-404,511	-200,000	-0,002	-0,067
-403,496	800,000	-0,065	-0,186
-402,482	-200,000	0,031	0,110
-401,467	164,188	-0,053	-0,054
-400,452	800,000	0,042	-0,086
-399,438	53,797	-0,145	-0,100
-398,423	357,066	-0,112	0,161
-397,409	-65,732	0,032	-0,009
-396,394	-99,798	0,071	-0,013
-395,379	-200,000	0,008	0,050
-394,365	-12,724	-0,048	-0,023
-393,350	172,340	0,101	0,104
-392,336	-200,000	-0,019	0,131
-391,321	-200,000	-0,003	-0,012
-390,306	369,804	-0,011	-0,017
-389,292	-119,308	0,074	-0,009
-388,277	-117,287	0,065	0,008
-387,263	96,388	-0,167	0,137
-386,248	800,000	0,071	0,195
-385,233	42,045	0,132	0,086
-384,219	-20,223	-0,054	-0,024
-383,204	80,582	0,093	-0,072
-382,190	-200,000	-0,010	-0,037
-381,175	710,603	-0,040	-0,077
-380,160	187,459	0,075	0,081
-379,146	751,627	-0,045	0,087
-378,131	800,000	-0,042	0,102
-377,117	43,607	-0,105	0,069
-376,102	800,000	0,018	-0,047
-375,088	-200,000	-0,013	0,047
-374,073	123,106	-0,065	-0,059
-373,058	-200,000	0,021	-0,111
-372,044	-197,730	0,069	-0,000
-371,029	-200,000	0,015	0,079
-370,015	5,995	0,049	0,026
-369,000	-200,000	0,006	-0,043
-367,985	-200,000	-0,003	-0,026
-366,971	-200,000	-0,002	-0,096
-365,956	-106,660	-0,052	-0,008
-364,942	162,591	0,033	-0,033
-363,927	-200,000	0,018	-0,092
-362,912	34,136	-0,055	0,035
-361,898	332,446	-0,039	0,054
-360,883	-10,922	-0,060	-0,028
-359,869	59,471	-0,065	-0,046
-358,854	-77,626	-0,042	-0,010
-357,839	800,000	0,029	0,067
-356,825	-43,990	-0,054	0,020
-355,810	-34,443	-0,053	-0,021
-354,796	-181,679	0,011	-0,000
-353,781	-200,000	0,002	-0,084
-352,766	-86,769	-0,081	-0,018
-351,752	800,000	-0,023	-0,047
-350,737	-163,630	0,160	-0,005
-349,723	800,000	-0,012	-0,035
-348,708	101,880	0,105	-0,088
-347,693	446,747	-0,091	-0,145
-346,679	-200,000	0,022	0,072
-345,664	-27,219	-0,100	-0,042
-344,650	87,288	0,118	0,093
-343,635	-200,000	0,036	0,165
-342,620	187,124	0,034	-0,037
-341,606	213,005	-0,039	0,044
-340,591	800,000	-0,010	0,028
-339,577	109,598	-0,043	-0,037
-338,562	167,745	-0,062	-0,063
-337,548	-200,000	-0,006	-0,124
-336,533	-30,292	0,092	0,037
-335,518	800,000	0,038	0,100
-334,504	-35,565	0,110	-0,043
-333,489	-200,000	0,012	-0,060
-332,475	99,209	0,107	-0,089
-331,460	-200,000	-0,001	-0,011
-330,445	-114,443	0,185	0,025
-329,431	332,643	0,076	0,106
-328,416	65,424	0,137	0,100
-327,402	21,448	-0,055	0,032
-326,387	-147,612	-0,205	0,012
-325,372	-112,746	0,080	0,011
-324,358	-200,000	-0,002	-0,027
-323,343	800,000	0,015	0,036
-322,329	-200,000	0,011	0,129
-321,314	-70,214	0,114	-0,031
-320,299	-200,000	-0,021	0,112
-319,285	255,355	-0,041	-0,051
-318,270	800,000	-0,050	-0,126
-317,256	136,361	0,048	0,045
-316,241	73,333	-0,099	0,074
-315,226	800,000	0,040	-0,121
-314,212	-188,108	0,113	-0,001
-313,197	128,641	0,083	-0,076
-312,183	-10,560	0,062	0,030
-311,168	-108,337	0,110	-0,017
-310,153	146,630	-0,026	-0,026
-309,139	394,298	-0,036	-0,054
-308,124	-71,011	0,124	-0,033
-307,110	312,957	0,115	0,155
-306,095	226,172	-0,092	0,107
-305,080	-200,000	0,015	0,111
-304,066	195,809	0,086	-0,094
-303,051	15,630	0,127	0,071
-302,037	-73,459	-0,059	0,015
-301,022	800,000	0,009	0,025
-300,008	800,000	0,065	0,147
-298,993	-200,000	0,000	0,021
-297,978	-200,000	0,009	-0,097
-296,964	119,568	-0,105	-0,093
-295,949	-82,095	-0,133	-0,031
-294,935	-69,461	-0,103	-0,028
-293,920	-159,616	-0,140	-0,005
-292,905	-48,721	0,107	0,037
-291,891	-144,194	0,081	0,005
-290,876	-187,790	0,079	-0,001
-289,862	186,005	0,090	0,096
-288,847	-200,000	0,007	0,092
-287,832	-139,850	-0,057	-0,004
-286,818	256,803	-0,059	-0,073
-285,803	-200,000	-0,001	-0,128
-284,789	683,813	-0,060	0,112
-283,774	149,448	-0,090	-0,088
-282,759	147,789	-0,086	-0,083
-281,745	47,286	-0,057	-0,038
-280,730	-200,000	0,016	-0,202
-279,716	336,642	0,023	-0,032
-278,701	138,788	-0,029	0,027
-277,686	676,095	0,100	0,186
-276,672	-41,514	0,215	0,079
-275,657	332,214	-0,071	0,098
-274,643	800,000	-0,051	-0,115
-273,628	3,348	-0,145	-0,075
-272,613	-30,201	0,125	-0,051
-271,599	653,886	-0,030	0,055
-270,584	135,822	0,066	-0,062
-269,570	-200,000	-0,045	0,171
-268,555	-200,000	0,010	0,095
-267,540	-97,494	-0,163	-0,030
-266,526	-109,810	-0,061	0,009
-265,511	435,117	-0,066	0,103
-264,497	57,406	-0,093	0,065
-263,482	731,112	-0,034	0,066
-262,467	29,984	0,048	-0,029
-261,453	573,157	-0,040	0,070
-260,438	800,000	-0,036	-0,096
-259,424	-27,258	-0,114	-0,047
-258,409	46,769	-0,086	-0,057
-257,395	800,000	0,041	0,091
-256,380	30,540	0,068	-0,041
-255,365	571,472	0,029	0,050
-254,351	353,958	-0,069	0,098
-253,336	-123,617	-0,096	-0,011
-252,322	123,520	-0,095	0,085
-251,307	1,625	-0,106	0,055
-250,292	-173,575	-0,022	0,000
-249,278	22,187	-0,019	-0,011
-248,263	9,332	-0,100	-0,054
-247,249	-200,000	-0,011	0,072
-246,234	34,864	0,091	-0,057
-245,219	106,149	0,009	-0,007
-244,205	-200,000	0,006	-0,109
-243,190	-61,830	0,024	-0,007
-242,176	-29,235	0,071	0,029
-241,161	-41,266	0,146	0,054
-240,146	165,512	0,145	0,146
-239,132	693,468	0,025	0,047
-238,117	-200,000	-0,011	0,056
-237,103	304,130	0,049	0,065
-236,088	800,000	-0,021	-0,046
-235,073	-200,000	-0,001	0,077
-234,059	5,491	0,080	-0,042
-233,044	156,044	-0,061	-0,061
-232,030	177,456	-0,048	-0,050
-231,015	281,312	0,053	0,068
-230,000	-200,000	0,001	-0,122
-228,986	-54,716	-0,120	0,039
-227,971	45,399	-0,072	0,047
-226,957	282,426	0,067	0,086
-225,942	189,642	0,156	-0,167
-224,927	-88,917	-0,054	0,011
-223,913	-6,417	-0,083	-0,040
-222,898	800,000	0,063	0,156
-221,884	-200,000	-0,003	-0,036
-220,869	-33,785	0,110	-0,043
-219,855	-200,000	-0,032	0,105
-218,840	-33,329	0,052	0,021
-217,825	272,409	-0,063	-0,080
-216,811	129,961	-0,030	-0,027
-215,796	-54,886	-0,063	0,020
-214,782	800,000	0,042	-0,084
-213,767	800,000	0,025	0,060
-212,752	-120,350	-0,090	0,011
-211,738	800,000	0,037	-0,080
-210,723	268,898	-0,026	-0,033
-209,709	-200,000	0,006	-0,135
-208,694	-200,000	-0,022	0,103
-207,679	339,152	-0,070	0,098
-206,665	133,002	0,043	0,040
-205,650	800,000	0,076	0,162
-204,636	-99,156	-0,134	0,024
-203,621	6,171	-0,063	-0,033
-202,606	152,980	0,019	0,018
-201,592	-95,275	-0,089	0,017
-200,577	236,080	-0,118	0,139
-199,563	12,803	0,046	0,025
-198,548	-165,358	0,206	0,006
-197,533	800,000	0,021	0,057
-196,519	-200,000	0,005	-0,054
-195,504	-109,691	-0,038	0,006
-194,490	615,891	-0,012	-0,022
-193,475	-200,000	-0,008	-0,035
-192,460	-200,000	-0,000	0,149
-191,446	144,280	0,084	0,080
-190,431	-200,000	-0,009	0,063
-189,417	-116,871	-0,139	-0,018
-188,402	117,532	0,059	-0,051
-187,387	-103,910	-0,144	0,024
-186,373	-200,000	0,031	-0,113
-185,358	495,312	0,105	-0,173
-184,344	-14,901	0,089	0,041
-183,329	598,505	0,065	0,115
-182,315	181,762	0,054	-0,057
-181,300	157,414	0,082	-0,081
-180,285	-112,194	0,144	-0,020
-179,271	191,681	-0,061	-0,066
-178,256	-80,532	-0,106	-0,025
-177,242	353,047	0,057	-0,081
-176,227	-200,000	0,037	-0,131
-175,212	291,908	0,026	0,034
-174,198	358,331	-0,056	-0,079
-173,183	-106,452	-0,069	0,011
-172,169	643,207	0,048	-0,088
-171,154	177,627	-0,072	-0,075
-170,139	-84,336	0,084	-0,019
-169,125	277,834	0,092	0,117
-168,110	-200,000	-0,003	-0,014
-167,096	-200,000	-0,020	-0,065
-166,081	-81,012	-0,048	-0,011
-165,066	-38,155	-0,170	-0,064
-164,052	286,977	-0,019	0,025
-163,037	800,000	-0,026	-0,064
-162,023	53,367	0,162	0,111
-161,008	-200,000	-0,006	0,056
-159,993	275,436	0,051	0,065
-158,979	559,931	-0,050	-0,086
-157,964	22,294	-0,064	0,037
-156,950	75,249	0,022	-0,017
-155,935	159,457	0,033	-0,032
-154,920	800,000	0,032	0,073
-153,906	800,000	-0,010	0,021
-152,891	-149,708	0,007	-0,000
-151,877	-106,940	-0,116	-0,018
-150,862	316,199	-0,018	-0,024
-149,847	210,202	-0,036	0,040
-148,833	-60,263	0,043	0,013
-147,818	-22,841	0,104	-0,045
-146,804	-200,000	-0,004	0,020
-145,789	351,185	-0,053	-0,074
-144,775	-123,329	-0,073	-0,008
-143,760	-134,918	-0,049	-0,004
-142,745	-200,000	-0,060	-0,247
-141,731	-90,459	-0,081	0,017
-140,716	-90,114	0,261	0,054
-139,702	-40,938	0,074	-0,027
-138,687	800,000	-0,028	-0,080
-137,672	471,392	0,019	-0,031
-136,658	-176,855	-0,121	-0,002
-135,643	800,000	0,035	0,090
-134,629	224,037	0,056	0,064
-133,614	39,868	0,057	-0,036
-132,599	137,174	0,091	-0,085
-131,585	800,000	-0,018	-0,054
-130,570	-88,236	-0,091	0,019
-129,556	800,000	-0,050	-0,104
-128,541	-58,873	-0,110	-0,034
-127,526	-200,000	-0,011	0,104
-126,512	-173,885	-0,012	0,000
-125,497	138,247	-0,100	0,094
-124,483	104,639	0,074	-0,062
-123,468	-132,338	-0,158	-0,014
-122,453	8,460	0,121	0,065
-121,439	-141,853	-0,190	0,013
-120,424	-200,000	0,006	-0,058
