DTS Sentinel unit serial number:	SN410029Multiplexer serial number:	ORYXHardware model number:	OX2-SRSoftware version number:	ORYX F/W v4,00 Oryx Data Collector v3.7.2.0data status	okinstallation	BH3 CH2differential loss correction	single-endedforward channel	channel 2reverse channel	N/Adate	2023/12/05time	17:37:28forward acquisition time	300,00reverse acquisition time	0,00gamma	499,1914k internal	0,3193k external	0,3193temperature offset calibration	1,0000default loss term (dB/km)	0,3820temperature slope calibration	1,0000multiplexer offset coefficient	1,0000multiplexer slope coefficient	1,0000fibre end	0,00T internal ref (°C)	10,83T ext. ref 1 (°C)	-3,88T ext. ref 2 (°C)	-4,02length (m)	temperature (°C)	Stokes	anti-Stokes-744,400	-200,000	-0,001	0,026
-743,385	241,099	-0,125	0,152
-742,371	-129,056	-0,062	-0,006
-741,356	154,664	-0,205	0,206
-740,342	32,655	0,115	0,072
-739,327	-51,386	-0,236	0,080
-738,312	-60,892	-0,220	-0,068
-737,298	66,355	-0,263	0,195
-736,283	-200,000	0,037	-0,189
-735,269	-108,847	0,048	-0,007
-734,254	503,720	-0,054	-0,091
-733,239	66,283	-0,186	-0,138
-732,225	-67,603	-0,069	-0,020
-731,210	800,000	-0,040	0,086
-730,196	60,114	-0,101	0,073
-729,181	187,023	0,020	0,021
-728,167	-106,389	-0,187	-0,030
-727,152	-129,187	-0,026	-0,003
-726,137	-200,000	0,016	-0,076
-725,123	-200,000	0,028	-0,140
-724,108	800,000	-0,015	-0,032
-723,094	-200,000	0,024	-0,149
-722,079	800,000	0,058	-0,127
-721,064	800,000	-0,054	-0,160
-720,050	-188,907	0,099	0,001
-719,035	800,000	0,016	-0,049
-718,021	612,402	-0,058	-0,106
-717,006	-148,872	-0,185	-0,011
-715,991	-56,247	-0,173	-0,056
-714,977	-32,268	0,132	-0,053
-713,962	418,804	-0,095	-0,149
-712,948	-36,608	0,080	-0,031
-711,933	800,000	-0,049	0,130
-710,918	800,000	-0,038	0,116
-709,904	138,587	-0,080	0,076
-708,889	295,252	0,086	-0,115
-707,875	-78,729	0,070	0,017
-706,860	-200,000	-0,019	0,081
-705,845	745,643	0,050	-0,099
-704,831	9,777	-0,067	-0,037
-703,816	-133,580	-0,035	-0,003
-702,802	151,946	-0,047	-0,046
-701,787	-11,859	-0,128	-0,061
-700,772	-200,000	-0,006	-0,115
-699,758	-37,604	-0,182	-0,070
-698,743	-59,834	0,065	0,020
-697,729	68,256	0,051	-0,038
-696,714	230,554	-0,047	0,056
-695,699	-200,000	0,015	-0,084
-694,685	383,154	0,028	-0,043
-693,670	168,722	-0,026	-0,027
-692,656	-200,000	0,006	-0,164
-691,641	23,339	0,084	0,050
-690,627	103,956	-0,036	-0,031
-689,612	32,325	0,059	0,037
-688,597	-19,681	-0,024	0,011
-687,583	-35,433	-0,149	-0,059
-686,568	-200,000	0,002	0,047
-685,554	670,968	-0,025	-0,047
-684,539	-6,763	-0,012	-0,006
-683,524	-200,000	0,000	-0,034
-682,510	-200,000	0,004	0,081
-681,495	52,993	-0,126	0,088
-680,481	800,000	0,030	-0,082
-679,466	-118,933	0,045	-0,006
-678,451	-200,000	0,009	-0,032
-677,437	7,869	-0,075	0,041
-676,422	-77,659	0,126	-0,031
-675,408	-34,713	-0,087	-0,035
-674,393	12,147	0,051	0,028
-673,378	-34,702	-0,200	-0,079
-672,364	75,258	-0,079	-0,061
-671,349	49,943	-0,078	-0,054
-670,335	44,846	-0,122	0,082
-669,320	15,859	-0,053	0,030
-668,305	-200,000	-0,006	-0,028
-667,291	674,643	-0,090	0,171
-666,276	-0,250	-0,057	0,029
-665,262	179,065	-0,073	-0,077
-664,247	-142,987	0,105	-0,007
-663,232	17,489	-0,086	-0,050
-662,218	199,019	0,010	-0,011
-661,203	0,982	0,168	0,087
-660,189	800,000	-0,027	-0,066
-659,174	86,091	-0,060	-0,048
-658,159	-200,000	-0,004	-0,134
-657,145	89,326	-0,052	-0,042
-656,130	22,370	0,113	0,067
-655,116	-114,675	-0,130	-0,018
-654,101	-200,000	0,033	-0,130
-653,086	-95,140	0,058	-0,011
-652,072	82,234	0,017	-0,013
-651,057	-117,413	-0,123	0,016
-650,043	-200,000	-0,035	-0,198
-649,028	-200,000	0,007	-0,067
-648,014	48,590	-0,068	0,046
-646,999	-200,000	-0,004	-0,070
-645,984	800,000	0,014	0,030
-644,970	549,282	-0,037	-0,064
-643,955	800,000	0,049	-0,158
-642,941	135,858	-0,106	-0,101
-641,926	-150,796	-0,084	-0,005
-640,911	-128,716	0,116	0,012
-639,897	-35,389	0,131	-0,051
-638,882	648,018	-0,034	0,064
-637,868	-35,400	-0,071	0,028
-636,853	-200,000	0,038	-0,148
-635,838	-172,864	-0,080	-0,002
-634,824	-34,892	0,089	-0,035
-633,809	-200,000	0,012	-0,087
-632,795	-111,861	-0,049	0,007
-631,780	-200,000	-0,013	0,082
-630,765	-200,000	-0,022	-0,207
-629,751	125,035	-0,071	-0,065
-628,736	-61,085	-0,090	-0,028
-627,722	-71,197	-0,066	-0,018
-626,707	2,244	0,098	-0,051
-625,692	-152,660	0,149	-0,008
-624,678	-73,058	0,133	0,035
-623,663	460,761	-0,026	0,043
-622,649	155,949	-0,108	-0,108
-621,634	800,000	-0,051	-0,127
-620,619	1,343	0,025	-0,013
-619,605	115,264	0,094	0,083
-618,590	175,718	-0,041	-0,043
-617,576	80,435	-0,007	-0,005
-616,561	-5,667	0,110	-0,054
-615,546	-132,661	0,057	0,005
-614,532	95,295	-0,079	0,065
-613,517	-107,428	0,045	-0,007
-612,503	5,009	-0,112	-0,060
-611,488	98,992	0,066	-0,055
-610,474	223,179	0,064	0,075
-609,459	-200,000	0,021	-0,176
-608,444	219,928	-0,018	0,021
-607,430	206,411	-0,048	-0,054
-606,415	-200,000	0,016	0,076
-605,401	-150,858	0,077	-0,004
-604,386	-84,069	-0,033	-0,008
-603,371	50,457	0,144	-0,099
-602,357	464,686	-0,046	0,075
-601,342	22,911	-0,075	-0,045
-600,328	-63,176	-0,078	0,023
-599,313	-123,877	-0,084	0,009
-598,298	-2,985	-0,028	-0,014
-597,284	-200,000	-0,035	0,138
-596,269	273,307	0,037	0,048
-595,255	-200,000	-0,021	-0,072
-594,240	-200,000	0,000	-0,055
-593,225	-57,764	-0,078	0,025
-592,211	45,926	-0,048	0,032
-591,196	196,495	0,018	0,020
-590,182	-7,536	-0,075	-0,036
-589,167	800,000	-0,039	-0,091
-588,152	-200,000	-0,004	-0,059
-587,138	-80,207	-0,140	-0,034
-586,123	34,259	-0,124	-0,078
-585,109	-101,438	-0,143	-0,025
-584,094	-139,416	-0,149	0,011
-583,079	-200,000	0,021	0,104
-582,065	800,000	-0,007	0,017
-581,050	-80,385	0,093	0,022
-580,036	29,315	-0,017	-0,010
-579,021	111,712	-0,014	-0,012
-578,006	248,473	0,081	0,099
-576,992	-161,975	0,101	0,004
-575,977	132,032	-0,063	0,059
-574,963	35,090	0,012	-0,007
-573,948	-47,132	-0,053	-0,019
-572,934	-200,000	-0,039	0,139
-571,919	55,402	0,098	-0,068
-570,904	215,524	-0,112	0,129
-569,890	-38,396	0,217	-0,083
-568,875	210,689	0,121	0,138
-567,861	-183,036	0,068	0,001
-566,846	149,571	0,078	0,076
-565,831	-128,818	0,131	0,013
-564,817	-200,000	-0,011	-0,068
-563,802	12,382	0,091	-0,051
-562,788	800,000	-0,040	0,087
-561,773	-161,644	-0,065	0,002
-560,758	244,488	-0,053	0,064
-559,744	165,358	0,049	-0,051
-558,729	-69,202	-0,123	0,034
-557,715	800,000	0,020	0,047
-556,700	-61,104	-0,156	0,047
-555,685	11,482	-0,241	-0,134
-554,671	800,000	0,059	0,121
-553,656	-33,004	0,088	0,035
-552,642	-200,000	-0,010	0,075
-551,627	128,348	-0,062	0,057
-550,612	-200,000	-0,001	0,070
-549,598	233,276	-0,053	-0,064
-548,583	-16,448	0,048	0,022
-547,569	800,000	-0,030	0,086
-546,554	-200,000	-0,017	0,131
-545,539	800,000	0,053	0,137
-544,525	800,000	-0,028	-0,061
-543,510	543,938	-0,049	-0,085
-542,496	-200,000	-0,010	-0,081
-541,481	-200,000	0,022	0,070
-540,466	32,575	0,057	-0,036
-539,452	156,974	0,109	0,109
-538,437	43,059	0,130	0,086
-537,423	800,000	0,041	0,101
-536,408	-29,074	-0,191	0,079
-535,393	218,341	-0,103	-0,119
-534,379	289,622	0,085	-0,112
-533,364	124,815	0,092	0,084
-532,350	22,516	-0,028	-0,017
-531,335	-140,474	0,065	0,005
-530,321	380,328	0,035	0,052
-529,306	-200,000	0,008	-0,143
-528,291	-144,845	-0,088	-0,006
-527,277	-79,785	0,091	-0,022
-526,262	36,156	0,105	-0,067
-525,248	-21,646	0,036	-0,016
-524,233	-200,000	0,011	-0,038
-523,218	-47,794	-0,073	-0,025
-522,204	-92,198	-0,003	0,001
-521,189	-200,000	0,014	-0,069
-520,175	394,535	0,034	-0,051
-519,160	-153,219	0,028	0,001
-518,145	-102,203	0,193	0,033
-517,131	-119,960	0,012	-0,002
-516,116	800,000	-0,026	0,077
-515,102	-38,575	-0,142	-0,054
-514,087	160,887	-0,023	-0,023
-513,072	45,885	-0,132	-0,088
-512,058	791,168	-0,056	-0,112
-511,043	-56,515	0,131	-0,042
-510,029	-110,924	-0,109	0,016
-509,014	401,593	-0,063	0,096
-507,999	100,052	0,067	0,056
-506,985	-174,508	-0,122	0,002
-505,970	388,811	-0,095	-0,143
-504,956	-83,463	-0,130	0,030
-503,941	800,000	0,079	0,188
-502,926	-116,709	-0,081	-0,011
-501,912	652,325	-0,036	-0,067
-500,897	140,645	-0,031	0,029
-499,883	284,526	-0,026	0,033
-498,868	317,734	-0,077	-0,106
-497,853	91,634	-0,045	-0,036
-496,839	88,269	0,070	-0,056
-495,824	-200,000	-0,024	-0,093
-494,810	800,000	0,027	0,076
-493,795	-118,504	0,113	-0,014
-492,781	-110,033	-0,012	-0,002
-491,766	-200,000	-0,004	0,088
-490,751	-200,000	-0,007	0,043
-489,737	-22,575	-0,149	0,065
-488,722	26,737	-0,056	0,034
-487,708	-200,000	0,032	0,000
-486,693	-98,708	-0,082	-0,015
-485,678	-137,435	0,053	0,004
-484,664	-200,000	-0,006	-0,078
-483,649	-1,589	0,065	0,033
-482,635	102,678	-0,044	0,037
-481,620	800,000	-0,014	-0,043
-480,605	-200,000	0,006	-0,065
-479,591	-200,000	0,007	-0,052
-478,576	-200,000	0,016	-0,065
-477,562	-117,566	-0,115	-0,015
-476,547	800,000	0,013	-0,039
-475,532	594,886	-0,059	-0,106
-474,518	463,968	0,029	-0,046
-473,503	-200,000	0,026	0,144
-472,489	800,000	-0,067	0,146
-471,474	-49,857	0,095	0,032
-470,459	771,312	-0,052	0,102
-469,445	795,462	-0,063	-0,126
-468,430	-160,109	0,012	-0,000
-467,416	-47,827	-0,124	-0,043
-466,401	-103,970	0,099	-0,017
-465,386	-43,320	-0,126	-0,046
-464,372	800,000	0,030	0,060
-463,357	17,540	-0,087	0,050
-462,343	-200,000	-0,014	-0,061
-461,328	65,046	0,056	0,040
-460,313	-69,546	0,058	0,016
-459,299	-119,399	0,051	0,006
-458,284	-200,000	0,032	0,167
-457,270	134,378	0,038	-0,035
-456,255	800,000	-0,006	0,014
-455,241	-200,000	-0,013	-0,048
-454,226	89,337	0,035	-0,028
-453,211	800,000	0,046	-0,133
-452,197	-200,000	0,003	0,079
-451,182	-200,000	-0,002	0,127
-450,168	-200,000	0,007	0,045
-449,153	325,450	0,071	-0,098
-448,138	800,000	-0,079	-0,172
-447,124	-37,498	0,014	-0,005
-446,109	73,066	-0,050	-0,037
-445,095	351,586	0,064	0,091
-444,080	179,031	-0,025	0,027
-443,065	-12,989	-0,073	0,034
-442,051	22,050	0,050	0,029
-441,036	800,000	0,018	-0,036
-440,022	-95,930	-0,118	-0,022
-439,007	126,705	0,070	-0,064
-437,992	-88,512	-0,049	-0,010
-436,978	209,709	-0,061	0,069
-435,963	53,233	-0,080	0,055
-434,949	100,624	-0,045	0,038
-433,934	-140,527	0,073	0,005
-432,919	800,000	-0,021	-0,058
-431,905	721,038	0,030	-0,059
-430,890	-10,766	0,234	0,111
-429,876	-200,000	0,044	0,178
-428,861	456,673	-0,087	0,139
-427,846	-73,019	-0,083	-0,022
-426,832	-61,236	-0,031	0,009
-425,817	120,589	0,037	0,033
-424,803	-200,000	0,002	-0,061
-423,788	122,504	0,029	-0,026
-422,773	-200,000	-0,012	-0,083
-421,759	300,330	0,054	0,072
-420,744	-8,728	-0,132	-0,063
-419,730	190,875	0,041	0,044
-418,715	666,410	-0,039	-0,072
-417,701	115,327	-0,069	0,061
-416,686	800,000	-0,022	-0,050
-415,671	117,411	0,052	-0,046
-414,657	-200,000	0,004	0,100
-413,642	800,000	-0,034	-0,090
-412,628	-27,247	-0,083	-0,035
-411,613	-125,781	-0,055	0,006
-410,598	-65,404	0,065	-0,019
-409,584	-7,776	-0,118	0,057
-408,569	-200,000	-0,036	0,115
-407,555	114,744	0,107	0,094
-406,540	18,712	0,092	0,053
-405,525	57,496	0,022	-0,016
-404,511	111,284	-0,166	-0,144
-403,496	30,899	0,024	0,015
-402,482	-200,000	0,000	0,034
-401,467	-200,000	-0,021	0,135
-400,452	382,231	-0,048	0,072
-399,438	295,153	0,018	0,024
-398,423	579,466	0,056	0,098
-397,409	129,636	0,135	-0,124
-396,394	-200,000	0,004	-0,044
-395,379	-200,000	0,001	-0,024
-394,365	800,000	-0,063	0,149
-393,350	-154,040	0,015	0,001
-392,336	40,549	0,014	0,009
-391,321	-200,000	-0,009	0,040
-390,306	-200,000	-0,024	-0,097
-389,292	-7,614	-0,132	-0,064
-388,277	-77,241	0,086	0,021
-387,263	-200,000	-0,014	-0,053
-386,248	-93,112	0,128	0,025
-385,233	-26,412	0,102	-0,043
-384,219	-77,986	-0,056	0,014
-383,204	370,602	-0,057	-0,084
-382,190	800,000	0,014	-0,036
-381,175	321,134	-0,050	0,068
-380,160	765,943	0,086	0,168
-379,146	335,050	-0,055	0,077
-378,131	-59,206	-0,027	-0,008
-377,117	-38,333	0,031	-0,012
-376,102	52,482	-0,013	0,009
-375,088	32,196	-0,042	-0,026
-374,073	-117,458	-0,073	-0,009
-373,058	253,029	0,046	0,057
-372,044	800,000	0,046	-0,138
-371,029	-200,000	-0,012	-0,044
-370,015	800,000	-0,022	0,065
-369,000	-200,000	0,014	0,090
-367,985	446,089	-0,086	0,136
-366,971	87,645	0,010	0,008
-365,956	-200,000	-0,000	0,066
-364,942	11,739	0,117	0,064
-363,927	37,961	0,152	0,097
-362,912	-35,460	-0,106	-0,041
-361,898	-52,523	0,169	-0,056
-360,883	273,588	-0,111	-0,141
-359,869	675,141	0,053	-0,100
-358,854	-200,000	0,002	0,008
-357,839	-47,081	0,128	-0,045
-356,825	-200,000	0,016	0,087
-355,810	-54,198	0,080	-0,026
-354,796	800,000	-0,032	-0,065
-353,781	-200,000	-0,025	-0,118
-352,766	-159,522	0,049	0,002
-351,752	-42,030	0,080	-0,029
-350,737	16,247	0,087	-0,049
-349,723	-200,000	0,005	-0,058
-348,708	-68,840	-0,098	0,027
-347,693	-12,969	-0,101	-0,047
-346,679	-19,811	-0,148	-0,066
-345,664	-200,000	0,011	-0,071
-344,650	23,729	-0,084	-0,049
-343,635	274,541	0,062	-0,079
-342,620	800,000	-0,057	0,132
-341,606	-87,924	0,030	0,006
-340,591	800,000	0,040	0,087
-339,577	-72,690	-0,082	0,022
-338,562	71,143	0,057	-0,043
-337,548	-200,000	0,017	-0,082
-336,533	77,367	-0,084	-0,064
-335,518	-50,547	-0,054	-0,018
-334,504	-12,361	0,100	0,047
-333,489	113,928	0,035	0,030
-332,475	-109,506	-0,029	0,004
-331,460	25,286	0,025	0,015
-330,445	116,744	0,092	0,081
-329,431	-160,346	-0,070	0,003
-328,416	-200,000	-0,005	0,043
-327,402	-43,219	0,135	-0,049
-326,387	-200,000	-0,004	0,050
-325,372	101,610	-0,054	-0,045
-324,358	-45,088	-0,129	-0,046
-323,343	151,633	0,123	0,120
-322,329	-17,864	-0,031	-0,014
-321,314	-68,273	-0,056	0,015
-320,299	379,312	0,097	0,143
-319,285	-7,182	-0,058	-0,028
-318,270	800,000	0,082	-0,167
-317,256	88,810	-0,145	-0,116
-316,241	4,959	-0,110	0,058
-315,226	800,000	-0,008	0,020
-314,212	24,906	0,186	0,110
-313,197	467,833	-0,052	0,085
-312,183	95,404	0,110	0,090
-311,168	-121,660	-0,108	0,013
-310,153	129,091	0,052	-0,048
-309,139	138,025	-0,043	-0,040
-308,124	800,000	0,021	0,065
-307,110	-147,781	-0,078	0,005
-306,095	-59,075	0,137	0,042
-305,080	-4,657	-0,020	-0,010
-304,066	-75,397	0,033	-0,008
-303,051	-200,000	0,003	-0,092
-302,037	-68,876	-0,121	-0,033
-301,022	82,173	-0,022	-0,017
-300,008	19,011	0,088	0,051
-298,993	-150,267	-0,112	0,006
-297,978	-104,171	-0,053	-0,009
-296,964	-200,000	0,019	-0,068
-295,949	252,598	-0,032	-0,040
-294,935	124,085	-0,100	-0,090
-293,920	207,339	0,039	0,043
-292,905	-0,293	0,152	-0,077
-291,891	-200,000	-0,027	-0,118
-290,876	-24,991	-0,015	-0,006
-289,862	140,365	0,128	0,121
-288,847	187,870	-0,013	0,014
-287,832	-105,123	-0,052	-0,008
-286,818	-50,653	0,120	0,040
-285,803	-101,819	-0,039	-0,007
-284,789	800,000	0,039	0,088
-283,774	-200,000	-0,015	0,056
-282,759	228,035	-0,025	-0,029
-281,745	-200,000	0,027	-0,155
-280,730	-101,583	-0,034	-0,006
-279,716	106,861	-0,051	-0,043
-278,701	244,492	0,102	0,124
-277,686	143,281	0,053	-0,051
-276,672	139,711	0,085	0,080
-275,657	800,000	-0,023	-0,060
-274,643	553,384	-0,056	-0,097
-273,628	-146,331	-0,033	-0,002
-272,613	-17,797	0,075	-0,034
-271,599	-64,001	0,097	-0,028
-270,584	334,983	0,060	0,084
-269,570	124,509	0,116	0,104
-268,555	30,495	0,085	0,052
-267,540	-119,592	-0,063	-0,008
-266,526	101,599	-0,075	-0,062
-265,511	-110,595	0,016	-0,002
-264,497	-81,345	-0,089	0,021
-263,482	451,176	-0,009	-0,014
-262,467	128,836	0,057	0,052
-261,453	-140,217	0,154	-0,011
-260,438	-43,481	-0,122	0,044
-259,424	315,690	-0,082	-0,111
-258,409	276,869	-0,114	-0,145
-257,395	151,828	-0,090	0,088
-256,380	-42,391	0,130	0,047
-255,365	99,934	0,043	-0,036
-254,351	-137,881	-0,141	-0,011
-253,336	-200,000	-0,003	0,037
-252,322	-200,000	-0,029	-0,221
-251,307	800,000	0,041	-0,105
-250,292	71,211	-0,063	0,047
-249,278	332,428	0,039	-0,054
-248,263	-84,589	0,175	0,039
-247,249	-200,000	0,034	0,250
-246,234	-200,000	0,006	0,058
-245,219	218,794	0,052	-0,059
-244,205	49,895	-0,015	0,010
-243,190	-194,648	0,121	-0,001
-242,176	140,912	0,020	0,019
-241,161	-90,641	0,095	0,019
-240,146	5,728	-0,086	0,045
-239,132	633,775	0,087	0,159
-238,117	-200,000	0,017	0,089
-237,103	-48,501	-0,043	-0,015
-236,088	-200,000	-0,014	-0,059
-235,073	67,646	0,038	0,028
-234,059	800,000	0,025	-0,053
-233,044	-2,851	0,122	-0,061
-232,030	108,610	0,123	0,105
-231,015	-127,743	-0,082	-0,008
-230,000	241,369	-0,094	-0,113
-228,986	800,000	-0,005	-0,013
-227,971	800,000	0,027	0,058
-226,957	21,996	0,016	-0,009
-225,942	-74,054	0,108	-0,028
-224,927	800,000	0,038	-0,076
-223,913	-200,000	0,001	0,097
-222,898	-200,000	0,007	0,052
-221,884	800,000	-0,003	-0,011
-220,869	-79,191	-0,084	0,020
-219,855	155,927	-0,021	-0,021
-218,840	-49,341	-0,060	-0,020
-217,825	18,234	0,026	0,015
-216,811	800,000	0,022	0,062
-215,796	-200,000	-0,010	0,036
-214,782	-200,000	0,017	0,058
-213,767	800,000	-0,014	-0,043
-212,752	-60,854	0,174	0,052
-211,738	-73,053	-0,078	0,020
-210,723	614,431	-0,031	0,056
-209,709	-200,000	0,005	0,108
-208,694	3,818	-0,085	-0,044
-207,679	-65,851	0,069	0,020
-206,665	327,890	0,033	-0,045
-205,650	-200,000	0,009	0,157
-204,636	121,025	0,060	-0,053
-203,621	-200,000	0,002	0,107
-202,606	1,504	0,084	0,043
-201,592	800,000	0,055	-0,150
-200,577	1,386	-0,093	0,047
-199,563	-15,840	0,046	0,021
-198,548	-87,440	0,082	0,017
-197,533	-200,000	-0,013	-0,043
-196,519	12,999	0,097	-0,053
-195,504	-54,617	0,060	0,019
-194,490	-56,294	-0,082	0,026
-193,475	230,183	-0,048	-0,056
-192,460	239,381	-0,018	-0,022
-191,446	51,874	0,026	0,018
-190,431	243,502	-0,061	0,073
-189,417	171,681	0,073	-0,075
-188,402	13,331	-0,123	0,068
-187,387	-123,002	-0,157	-0,018
-186,373	800,000	-0,021	-0,049
-185,358	17,639	0,074	-0,042
-184,344	-200,000	0,005	-0,065
-183,329	655,330	-0,011	-0,021
-182,315	47,792	-0,050	-0,033
-181,300	486,195	-0,022	-0,035
-180,285	332,192	-0,050	-0,069
-179,271	-67,799	-0,041	-0,011
-178,256	157,148	0,069	0,068
-177,242	14,887	0,046	0,026
-176,227	-200,000	0,004	0,175
-175,212	213,401	0,050	-0,056
-174,198	-200,000	-0,005	0,036
-173,183	-55,019	0,092	-0,030
-172,169	358,704	-0,061	0,088
-171,154	-41,334	0,084	-0,031
-170,139	540,387	0,011	0,020
-169,125	-35,935	0,109	0,042
-168,110	-200,000	-0,002	0,072
-167,096	-141,318	-0,120	-0,009
-166,081	137,965	0,074	-0,070
-165,066	-200,000	0,024	0,082
-164,052	278,673	-0,064	-0,081
-163,037	566,586	0,035	-0,060
-162,023	-174,282	0,011	-0,000
-161,008	-128,355	-0,065	-0,007
-159,993	302,345	0,018	0,024
-158,979	136,239	-0,041	0,038
-157,964	800,000	0,055	-0,144
-156,950	-135,578	0,019	0,002
-155,935	-166,412	-0,106	0,003
-154,920	-200,000	0,004	0,059
-153,906	800,000	0,033	-0,089
-152,891	324,879	0,063	-0,087
-151,877	800,000	0,033	-0,093
-150,862	179,016	-0,046	-0,048
-149,847	-139,696	-0,135	-0,010
-148,833	800,000	-0,031	-0,088
-147,818	14,317	0,093	0,051
-146,804	635,382	0,071	0,129
-145,789	-110,432	0,128	-0,019
-144,775	0,291	0,158	-0,080
-143,760	176,043	-0,081	-0,083
-142,745	-200,000	0,031	-0,104
-141,731	-10,598	0,068	-0,032
-140,716	571,480	0,004	0,007
-139,702	-94,367	0,135	-0,026
-138,687	-37,006	-0,020	-0,008
-137,672	-116,007	0,098	0,013
-136,658	159,569	-0,060	0,059
-135,643	800,000	0,050	0,100
-134,629	800,000	0,036	0,079
-133,614	-191,680	-0,077	0,001
-132,599	388,845	0,075	0,111
-131,585	-200,000	0,032	0,113
-130,570	224,497	-0,083	-0,096
-129,556	-44,441	0,093	0,033
-128,541	-200,000	-0,020	0,126
-127,526	-144,260	-0,109	0,007
-126,512	-13,161	0,054	0,025
-125,497	-200,000	0,051	0,192
-124,483	-91,170	0,138	0,028
-123,468	-151,387	0,094	-0,005
-122,453	-3,607	-0,130	-0,064
-121,439	64,811	-0,056	-0,041
-120,424	2,084	0,029	0,015
-119,410	-63,170	0,099	-0,029
