DTS Sentinel unit serial number:	SN410029Multiplexer serial number:	ORYXHardware model number:	OX2-SRSoftware version number:	ORYX F/W v4,00 Oryx Data Collector v3.7.2.0data status	okinstallation	BH3 CH2differential loss correction	single-endedforward channel	channel 2reverse channel	N/Adate	2023/12/06time	05:17:28forward acquisition time	300,00reverse acquisition time	0,00gamma	499,1914k internal	0,3197k external	0,3197temperature offset calibration	1,0000default loss term (dB/km)	0,3820temperature slope calibration	1,0000multiplexer offset coefficient	1,0000multiplexer slope coefficient	1,0000fibre end	0,00T internal ref (°C)	8,92T ext. ref 1 (°C)	-5,67T ext. ref 2 (°C)	-5,77length (m)	temperature (°C)	Stokes	anti-Stokes-744,400	-200,000	0,009	-0,032
-743,385	114,213	-0,153	0,136
-742,371	800,000	-0,046	-0,116
-741,356	163,565	-0,166	0,171
-740,342	-200,000	0,001	0,082
-739,327	31,601	-0,147	0,092
-738,312	405,199	-0,065	-0,100
-737,298	164,948	-0,112	0,115
-736,283	2,895	-0,091	0,048
-735,269	-137,024	-0,242	0,020
-734,254	51,144	-0,041	-0,028
-733,239	-52,938	-0,339	-0,113
-732,225	99,103	0,138	-0,116
-731,210	-61,582	0,075	0,023
-730,196	-101,233	-0,018	-0,003
-729,181	-200,000	0,004	0,053
-728,167	-200,000	0,007	-0,154
-727,152	-139,004	0,122	-0,010
-726,137	-200,000	-0,005	-0,034
-725,123	800,000	-0,022	0,071
-724,108	330,701	-0,005	0,008
-723,094	-200,000	0,030	0,103
-722,079	29,065	-0,075	0,046
-721,064	64,402	0,107	-0,078
-720,050	-29,983	-0,060	-0,025
-719,035	-200,000	0,002	0,088
-718,021	181,258	-0,042	0,045
-717,006	500,165	-0,013	-0,022
-715,991	-190,931	-0,031	0,000
-714,977	-150,326	0,114	-0,006
-713,962	800,000	-0,025	-0,061
-712,948	-68,393	0,024	-0,007
-711,933	117,799	0,119	0,107
-710,918	106,524	-0,047	0,041
-709,904	-73,362	-0,079	0,021
-708,889	-18,365	-0,064	-0,029
-707,875	-38,975	-0,115	-0,044
-706,860	208,935	0,070	-0,080
-705,845	216,227	-0,051	0,059
-704,831	12,096	0,096	0,054
-703,816	800,000	-0,061	0,127
-702,802	-26,108	-0,200	-0,085
-701,787	599,531	-0,075	0,136
-700,772	-192,365	-0,114	-0,001
-699,758	16,181	0,133	0,076
-698,743	-200,000	0,016	0,053
-697,729	-30,717	-0,039	0,016
-696,714	800,000	0,074	0,167
-695,699	800,000	-0,044	-0,100
-694,685	-200,000	0,033	-0,124
-693,670	-38,787	-0,054	-0,021
-692,656	-200,000	0,009	0,032
-691,641	800,000	-0,058	-0,149
-690,627	-108,739	0,032	-0,005
-689,612	800,000	0,026	-0,083
-688,597	-70,551	0,070	-0,019
-687,583	-89,038	0,060	0,013
-686,568	-110,859	-0,109	0,016
-685,554	-18,265	-0,064	0,029
-684,539	-200,000	0,017	0,070
-683,524	-200,000	0,032	0,136
-682,510	445,394	-0,005	-0,009
-681,495	-34,742	-0,078	-0,031
-680,481	-120,401	-0,110	-0,013
-679,466	-200,000	-0,002	-0,011
-678,451	21,602	-0,075	-0,044
-677,437	37,419	0,052	-0,033
-676,422	-39,793	0,083	-0,031
-675,408	60,819	-0,070	-0,050
-674,393	-61,550	-0,103	0,031
-673,378	135,160	-0,075	0,071
-672,364	323,082	-0,109	-0,151
-671,349	-200,000	0,001	-0,073
-670,335	-9,091	-0,188	-0,091
-669,320	-57,607	0,122	0,039
-668,305	-112,064	0,101	0,015
-667,291	-200,000	0,008	-0,039
-666,276	49,350	-0,084	-0,057
-665,262	30,350	-0,093	0,057
-664,247	28,443	-0,083	0,051
-663,232	800,000	0,035	0,087
-662,218	-200,000	-0,022	0,082
-661,203	-200,000	-0,009	0,034
-660,189	29,981	0,058	0,036
-659,174	417,879	-0,027	-0,042
-658,159	-200,000	0,012	-0,147
-657,145	20,436	0,066	-0,038
-656,130	395,560	0,043	-0,065
-655,116	-7,588	-0,114	-0,056
-654,101	-80,912	0,085	-0,020
-653,086	-102,643	-0,130	0,022
-652,072	-12,321	-0,077	-0,037
-651,057	664,352	-0,057	-0,107
-650,043	-116,332	-0,051	0,007
-649,028	800,000	0,086	0,227
-648,014	-200,000	0,004	0,076
-646,999	-18,661	0,093	0,042
-645,984	-186,522	-0,086	0,001
-644,970	-200,000	0,012	0,070
-643,955	-8,261	-0,037	-0,018
-642,941	473,319	0,051	0,083
-641,926	56,103	-0,057	0,040
-640,911	233,122	0,045	0,054
-639,897	146,486	0,050	0,048
-638,882	-38,733	-0,079	0,030
-637,868	-1,146	-0,057	0,029
-636,853	-200,000	0,024	-0,171
-635,838	-59,421	-0,167	-0,052
-634,824	-117,983	0,147	-0,019
-633,809	800,000	-0,033	0,067
-632,795	-200,000	-0,004	0,034
-631,780	-200,000	-0,034	0,114
-630,765	-108,259	-0,101	0,016
-629,751	-200,000	-0,024	-0,099
-628,736	189,092	-0,146	-0,159
-627,722	-1,530	-0,084	-0,043
-626,707	114,891	-0,133	-0,118
-625,692	-200,000	0,027	0,098
-624,678	-58,485	-0,057	0,018
-623,663	-155,136	-0,114	-0,005
-622,649	-200,000	0,018	-0,064
-621,634	-37,277	0,071	0,027
-620,619	241,060	-0,093	-0,113
-619,605	-54,695	0,087	0,028
-618,590	99,804	-0,018	-0,015
-617,576	-200,000	0,004	-0,065
-616,561	-200,000	-0,004	-0,159
-615,546	-133,068	-0,098	0,009
-614,532	-200,000	0,023	-0,084
-613,517	-200,000	0,004	0,158
-612,503	221,056	0,054	0,063
-611,488	-200,000	-0,010	0,115
-610,474	-110,081	-0,158	0,024
-609,459	-200,000	-0,003	-0,042
-608,444	800,000	-0,047	-0,147
-607,430	-200,000	0,019	-0,133
-606,415	-200,000	0,004	-0,135
-605,401	-200,000	-0,010	-0,123
-604,386	800,000	-0,012	-0,029
-603,371	-200,000	0,017	0,153
-602,357	73,381	-0,063	-0,048
-601,342	8,561	-0,099	0,054
-600,328	-200,000	0,014	-0,065
-599,313	251,631	0,058	0,072
-598,298	-200,000	0,035	-0,148
-597,284	58,209	0,123	0,087
-596,269	-127,203	-0,088	-0,009
-595,255	-36,279	0,033	0,013
-594,240	37,049	0,072	0,046
-593,225	277,412	0,024	-0,031
-592,211	48,834	-0,100	-0,068
-591,196	-136,597	-0,129	0,011
-590,182	800,000	0,021	-0,048
-589,167	-200,000	-0,008	0,107
-588,152	691,558	-0,088	0,168
-587,138	-200,000	-0,026	0,102
-586,123	89,015	-0,044	-0,036
-585,109	-65,217	-0,126	0,036
-584,094	-42,529	-0,113	0,042
-583,079	127,853	0,071	0,066
-582,065	-108,491	0,129	-0,020
-581,050	45,117	-0,100	-0,066
-580,036	-58,117	-0,017	0,005
-579,021	671,120	-0,068	-0,128
-578,006	-81,670	0,048	-0,011
-576,992	196,041	0,040	-0,045
-575,977	800,000	0,011	-0,025
-574,963	227,209	-0,025	-0,030
-573,948	73,290	-0,030	0,023
-572,934	-63,985	0,029	-0,008
-571,919	-200,000	0,011	-0,116
-570,904	31,438	-0,092	0,057
-569,890	800,000	-0,041	-0,095
-568,875	78,951	-0,103	0,079
-567,861	163,011	-0,032	-0,033
-566,846	-200,000	0,007	0,081
-565,831	410,717	-0,036	-0,056
-564,817	-200,000	-0,011	-0,131
-563,802	800,000	0,023	-0,059
-562,788	800,000	0,039	-0,082
-561,773	-200,000	0,014	0,088
-560,758	70,982	0,237	0,178
-559,744	-124,883	0,076	-0,008
-558,729	-0,892	-0,077	-0,039
-557,715	98,131	0,061	-0,050
-556,700	65,091	-0,048	-0,035
-555,685	800,000	-0,017	0,044
-554,671	6,849	0,065	0,035
-553,656	-200,000	-0,008	-0,036
-552,642	-200,000	0,002	-0,060
-551,627	-21,018	0,049	-0,022
-550,612	179,985	-0,040	0,043
-549,598	-103,976	-0,189	-0,032
-548,583	252,225	0,031	0,038
-547,569	48,915	0,150	0,102
-546,554	454,591	-0,064	-0,103
-545,539	63,023	-0,070	0,051
-544,525	259,792	0,119	-0,149
-543,510	59,992	-0,099	0,071
-542,496	69,441	-0,093	-0,069
-541,481	83,626	-0,083	0,065
-540,466	48,761	0,046	-0,031
-539,452	800,000	0,018	-0,058
-538,437	-37,703	0,096	-0,037
-537,423	164,829	0,027	0,027
-536,408	800,000	-0,031	-0,085
-535,393	-145,465	-0,253	-0,016
-534,379	-28,539	-0,148	0,061
-533,364	800,000	0,022	-0,053
-532,350	-200,000	-0,002	0,083
-531,335	800,000	0,068	0,208
-530,321	398,403	0,050	0,076
-529,306	607,188	0,058	0,104
-528,291	-79,122	-0,099	-0,024
-527,277	-58,716	0,063	-0,020
-526,262	800,000	-0,040	0,115
-525,248	185,605	-0,040	0,043
-524,233	-96,168	0,048	-0,009
-523,218	-137,514	-0,047	-0,004
-522,204	-60,526	-0,056	-0,017
-521,189	-127,270	-0,058	-0,006
-520,175	-200,000	-0,011	-0,050
-519,160	-123,968	0,117	0,013
-518,145	161,081	-0,075	-0,076
-517,131	54,045	-0,125	0,087
-516,116	800,000	0,086	-0,240
-515,102	261,053	0,124	0,156
-514,087	-200,000	-0,002	0,056
-513,072	45,793	-0,150	-0,100
-512,058	-71,826	0,064	-0,017
-511,043	800,000	0,074	0,150
-510,029	-133,191	0,168	-0,015
-509,014	-44,068	0,121	0,044
-507,999	492,280	-0,008	-0,014
-506,985	-21,699	0,039	0,017
-505,970	-52,489	0,015	0,005
-504,956	70,859	0,096	-0,072
-503,941	-129,301	-0,017	0,002
-502,926	419,187	-0,077	0,119
-501,912	800,000	-0,022	0,067
-500,897	-6,574	0,093	0,045
-499,883	-54,930	-0,141	0,046
-498,868	260,232	0,033	0,041
-497,853	-200,000	0,015	-0,153
-496,839	800,000	-0,030	-0,083
-495,824	-88,440	0,066	0,014
-494,810	40,191	-0,104	-0,068
-493,795	-74,359	0,116	0,030
-492,781	-72,590	-0,105	-0,028
-491,766	-200,000	0,002	0,058
-490,751	-200,000	-0,001	-0,124
-489,737	96,899	-0,077	-0,063
-488,722	-200,000	-0,009	-0,074
-487,708	215,492	0,076	0,087
-486,693	800,000	0,015	-0,030
-485,678	-80,861	-0,014	0,003
-484,664	-200,000	0,026	-0,111
-483,649	793,991	0,039	-0,078
-482,635	-200,000	0,010	-0,068
-481,620	187,773	0,042	-0,046
-480,605	216,349	-0,022	-0,025
-479,591	159,321	0,043	0,043
-478,576	-67,036	-0,046	0,013
-477,562	550,553	0,058	-0,101
-476,547	108,930	-0,090	-0,078
-475,532	-49,581	-0,099	0,034
-474,518	800,000	0,025	-0,052
-473,503	-200,000	0,020	0,124
-472,489	-200,000	-0,007	0,088
-471,474	-200,000	-0,010	0,091
-470,459	-40,207	-0,071	-0,027
-469,445	-153,426	0,147	-0,007
-468,430	-200,000	-0,017	0,069
-467,416	122,282	0,142	0,128
-466,401	800,000	0,047	0,129
-465,386	115,020	0,119	0,105
-464,372	-200,000	-0,010	0,083
-463,357	-200,000	0,003	0,039
-462,343	399,329	-0,051	-0,078
-461,328	-12,259	-0,052	-0,024
-460,313	93,089	-0,025	0,021
-459,299	-45,751	0,112	0,040
-458,284	-200,000	-0,013	0,106
-457,270	-200,000	-0,009	0,165
-456,255	-200,000	-0,025	-0,154
-455,241	-200,000	-0,019	-0,065
-454,226	-200,000	0,010	-0,043
-453,211	101,771	-0,061	0,052
-452,197	6,508	0,137	-0,073
-451,182	542,119	-0,069	0,119
-450,168	-183,239	0,080	0,001
-449,153	90,821	0,092	-0,074
-448,138	-200,000	-0,005	-0,040
-447,124	90,728	0,040	-0,033
-446,109	671,505	0,006	-0,012
-445,095	-102,515	0,040	-0,007
-444,080	-92,161	-0,054	0,011
-443,065	-68,168	0,166	-0,046
-442,051	125,911	0,048	0,043
-441,036	-61,565	0,150	-0,045
-440,022	-200,000	0,001	0,037
-439,007	-105,852	0,032	-0,005
-437,992	99,810	0,100	0,083
-436,978	-200,000	-0,019	-0,061
-435,963	99,035	0,038	-0,031
-434,949	-200,000	0,005	-0,092
-433,934	227,290	-0,037	-0,044
-432,919	-200,000	-0,019	0,091
-431,905	283,596	0,025	-0,032
-430,890	366,099	0,046	-0,067
-429,876	800,000	0,025	0,071
-428,861	800,000	0,021	0,047
-427,846	59,228	0,112	0,079
-426,832	163,027	0,042	-0,043
-425,817	800,000	0,059	-0,175
-424,803	-92,982	0,144	0,029
-423,788	235,372	-0,072	-0,085
-422,773	765,656	0,049	0,095
-421,759	800,000	-0,040	0,098
-420,744	-200,000	-0,012	0,053
-419,730	-139,508	0,104	0,008
-418,715	-33,488	-0,056	0,022
-417,701	800,000	0,041	-0,115
-416,686	-77,912	0,047	0,012
-415,671	-34,430	0,021	0,008
-414,657	153,250	-0,051	0,050
-413,642	-200,000	-0,033	0,161
-412,628	394,550	-0,056	0,085
-411,613	-50,929	-0,146	-0,049
-410,598	-200,000	0,035	-0,220
-409,584	-200,000	-0,015	0,091
-408,569	-52,070	0,062	-0,021
-407,555	7,889	-0,120	-0,065
-406,540	96,608	0,103	0,084
-405,525	-200,000	0,002	0,060
-404,511	800,000	0,047	-0,141
-403,496	800,000	-0,029	-0,086
-402,482	-200,000	-0,040	0,141
-401,467	41,923	-0,035	0,022
-400,452	5,361	0,084	0,044
-399,438	-65,972	-0,069	0,020
-398,423	334,533	0,064	0,090
-397,409	69,955	0,059	0,043
-396,394	54,738	-0,029	-0,020
-395,379	-52,730	0,032	-0,011
-394,365	800,000	-0,032	-0,074
-393,350	-200,000	-0,003	0,040
-392,336	346,406	-0,057	-0,081
-391,321	765,077	-0,032	0,063
-390,306	667,498	-0,056	0,104
-389,292	-125,890	-0,069	-0,007
-388,277	257,065	0,025	0,031
-387,263	-133,429	0,056	0,005
-386,248	800,000	-0,085	0,195
-385,233	33,653	0,079	-0,049
-384,219	-50,967	-0,070	-0,023
-383,204	-200,000	0,017	0,097
-382,190	-200,000	0,012	0,046
-381,175	-6,575	0,131	0,064
-380,160	439,536	0,021	0,032
-379,146	6,352	0,076	0,040
-378,131	-58,864	0,101	0,031
-377,117	-90,298	-0,059	-0,012
-376,102	800,000	0,034	-0,094
-375,088	156,660	-0,106	0,105
-374,073	-105,447	0,096	-0,016
-373,058	218,769	-0,042	0,048
-372,044	265,371	0,097	0,121
-371,029	60,770	-0,100	0,071
-370,015	247,452	0,038	0,047
-369,000	194,561	-0,043	-0,047
-367,985	-110,164	-0,084	-0,012
-366,971	-181,347	-0,070	-0,001
-365,956	43,013	0,079	-0,051
-364,942	139,810	0,034	-0,032
-363,927	-8,866	-0,091	0,044
-362,912	-0,775	-0,099	0,050
-361,898	-200,000	0,044	0,139
-360,883	-90,925	-0,087	0,018
-359,869	-20,617	0,079	-0,035
-358,854	-200,000	0,021	0,070
-357,839	-200,000	-0,031	0,104
-356,825	-200,000	-0,010	-0,062
-355,810	102,846	-0,070	0,059
-354,796	-162,537	0,034	-0,001
-353,781	-200,000	0,013	-0,156
-352,766	223,588	0,032	-0,038
-351,752	-200,000	0,036	-0,177
-350,737	477,531	0,051	-0,082
-349,723	-57,987	0,050	-0,015
-348,708	-39,513	-0,029	0,011
-347,693	-200,000	0,023	-0,104
-346,679	29,883	0,104	0,063
-345,664	13,998	-0,094	-0,052
-344,650	800,000	0,041	-0,091
-343,635	-103,873	-0,269	-0,045
-342,620	-107,453	0,076	-0,012
-341,606	353,149	0,053	-0,075
-340,591	20,459	0,038	0,022
-339,577	64,377	-0,077	-0,055
-338,562	-200,000	-0,007	-0,113
-337,548	-200,000	-0,004	-0,036
-336,533	70,156	0,125	0,093
-335,518	464,794	0,061	0,097
-334,504	2,405	0,102	0,053
-333,489	531,052	-0,050	0,085
-332,475	-200,000	0,008	-0,063
-331,460	-200,000	0,003	-0,057
-330,445	800,000	0,058	-0,151
-329,431	101,671	-0,100	-0,084
-328,416	99,748	0,068	0,057
-327,402	105,587	-0,092	0,078
-326,387	92,263	0,031	-0,025
-325,372	-200,000	0,012	-0,069
-324,358	44,710	-0,105	-0,069
-323,343	356,154	-0,017	0,025
-322,329	295,771	0,071	-0,094
-321,314	-200,000	0,001	-0,092
-320,299	185,978	0,090	0,096
-319,285	73,861	-0,073	0,055
-318,270	-62,197	-0,107	-0,032
-317,256	493,388	0,045	-0,074
-316,241	418,126	0,025	-0,038
-315,226	296,140	0,050	0,066
-314,212	-200,000	0,006	-0,032
-313,197	83,648	0,030	-0,024
-312,183	800,000	0,013	0,027
-311,168	78,776	-0,028	-0,022
-310,153	800,000	-0,059	-0,180
-309,139	517,363	-0,091	-0,152
-308,124	147,155	-0,060	-0,058
-307,110	207,295	0,026	-0,029
-306,095	735,645	0,033	-0,064
-305,080	800,000	0,032	-0,068
-304,066	-47,790	-0,054	0,019
-303,051	-200,000	0,028	-0,163
-302,037	-200,000	-0,009	0,114
-301,022	9,102	0,038	-0,020
-300,008	-200,000	-0,005	0,056
-298,993	-14,797	-0,087	-0,040
-297,978	-21,139	0,142	0,062
-296,964	429,409	-0,032	0,049
-295,949	8,459	-0,086	-0,046
-294,935	-32,923	-0,013	-0,005
-293,920	800,000	0,023	0,060
-292,905	590,742	0,034	0,060
-291,891	90,917	0,075	0,060
-290,876	-178,417	-0,047	-0,001
-289,862	390,999	0,019	-0,028
-288,847	800,000	-0,031	0,079
-287,832	91,653	0,055	-0,044
-286,818	187,672	-0,101	-0,108
-285,803	-104,744	0,109	0,018
-284,789	49,892	0,057	-0,038
-283,774	-27,934	-0,183	0,075
-282,759	-200,000	0,009	-0,075
-281,745	-10,024	-0,075	0,036
-280,730	-59,104	0,055	-0,017
-279,716	-133,725	-0,055	0,005
-278,701	-51,626	0,077	-0,025
-277,686	800,000	0,122	0,255
-276,672	393,654	-0,073	-0,109
-275,657	12,814	0,094	-0,052
-274,643	3,996	-0,042	-0,022
-273,628	256,092	0,031	0,038
-272,613	-22,754	-0,080	-0,034
-271,599	-27,729	0,091	-0,037
-270,584	106,891	0,040	-0,034
-269,570	800,000	0,027	0,069
-268,555	-200,000	-0,013	-0,042
-267,540	95,941	-0,040	-0,033
-266,526	303,485	-0,068	-0,090
-265,511	-49,172	0,037	-0,012
-264,497	-119,445	-0,111	0,014
-263,482	606,471	-0,029	-0,051
-262,467	-152,050	-0,004	-0,000
-261,453	-79,971	-0,085	0,020
-260,438	-200,000	-0,012	0,082
-259,424	-200,000	0,038	-0,126
-258,409	-82,488	0,100	0,023
-257,395	59,471	-0,029	0,020
-256,380	-200,000	0,075	-0,000
-255,365	-200,000	0,012	0,109
-254,351	331,801	0,055	-0,076
-253,336	-200,000	0,014	-0,063
-252,322	82,708	-0,107	-0,083
-251,307	353,834	-0,031	0,044
-250,292	48,910	0,101	0,067
-249,278	-200,000	0,037	0,127
-248,263	-200,000	0,010	0,079
-247,249	22,933	-0,033	-0,019
-246,234	-33,296	-0,102	0,040
-245,219	-41,911	-0,087	-0,032
-244,205	677,553	-0,025	-0,046
-243,190	800,000	-0,040	0,079
-242,176	-200,000	-0,033	0,166
-241,161	135,253	-0,083	-0,077
-240,146	-200,000	-0,030	-0,140
-239,132	524,073	-0,085	-0,143
-238,117	-108,446	-0,077	-0,012
-237,103	800,000	0,057	-0,119
-236,088	600,641	0,031	0,055
-235,073	417,365	0,103	0,158
-234,059	-200,000	0,027	-0,112
-233,044	36,162	0,129	-0,081
-232,030	57,077	0,112	-0,078
-231,015	141,290	-0,031	-0,030
-230,000	-5,868	0,031	0,015
-228,986	-200,000	-0,002	0,050
-227,971	-200,000	-0,003	-0,035
-226,957	-200,000	-0,012	0,089
-225,942	-174,685	0,055	-0,001
-224,927	-200,000	-0,014	0,103
-223,913	-200,000	0,000	0,065
-222,898	372,506	-0,036	-0,053
-221,884	317,804	0,034	0,046
-220,869	-88,415	-0,087	-0,018
-219,855	474,678	0,078	0,126
-218,840	17,699	0,091	-0,052
-217,825	-170,502	-0,089	-0,002
-216,811	-7,026	-0,131	-0,063
-215,796	52,066	0,062	-0,042
-214,782	800,000	-0,051	0,135
-213,767	800,000	0,019	-0,055
-212,752	551,398	0,028	0,048
-211,738	288,170	-0,044	-0,057
-210,723	800,000	0,047	-0,101
-209,709	800,000	-0,015	0,032
-208,694	621,637	0,024	0,043
-207,679	-10,116	0,086	0,041
-206,665	604,270	-0,015	0,027
-205,650	-200,000	-0,006	0,054
-204,636	-200,000	-0,018	0,079
-203,621	800,000	-0,024	0,053
-202,606	-200,000	0,021	-0,091
-201,592	65,251	-0,103	-0,074
-200,577	389,994	-0,078	-0,116
-199,563	800,000	0,014	0,031
-198,548	-200,000	0,056	0,000
-197,533	-200,000	-0,012	0,105
-196,519	784,157	0,007	-0,013
-195,504	-40,932	-0,054	-0,020
-194,490	-41,187	0,081	-0,030
-193,475	-34,003	0,036	0,014
-192,460	181,521	0,113	0,119
-191,446	-117,579	-0,131	-0,017
-190,431	194,145	0,061	0,066
-189,417	-135,896	0,163	0,013
-188,402	-121,505	0,081	-0,009
-187,387	289,450	0,011	0,014
-186,373	-164,239	-0,090	-0,003
-185,358	194,633	0,117	0,127
-184,344	-125,459	0,186	0,020
-183,329	-106,561	-0,086	0,013
-182,315	16,936	-0,124	-0,070
-181,300	631,704	-0,061	-0,111
-180,285	-155,222	-0,175	-0,008
-179,271	-88,510	0,078	0,016
-178,256	-132,144	0,102	0,009
-177,242	164,967	0,023	0,023
-176,227	-200,000	-0,010	0,163
-175,212	302,294	-0,041	-0,054
-174,198	83,636	-0,123	-0,095
-173,183	6,870	0,040	-0,021
-172,169	672,682	-0,024	0,045
-171,154	-200,000	-0,025	-0,081
-170,139	-58,714	0,084	0,026
-169,125	-200,000	0,020	0,175
-168,110	-62,703	-0,095	-0,028
-167,096	-76,294	-0,111	-0,028
-166,081	202,115	-0,015	0,017
-165,066	3,069	-0,121	0,063
-164,052	-200,000	0,006	0,113
-163,037	-148,957	-0,019	-0,001
-162,023	82,246	0,097	-0,075
-161,008	-90,270	-0,118	0,024
-159,993	80,066	0,083	0,063
-158,979	-200,000	-0,133	0,000
-157,964	-38,566	0,089	-0,033
-156,950	-128,134	0,113	-0,011
-155,935	-170,971	0,054	-0,001
-154,920	-200,000	0,048	-0,163
-153,906	800,000	0,047	0,097
-152,891	496,407	0,076	-0,125
-151,877	593,500	0,053	-0,094
-150,862	-144,370	-0,197	0,013
-149,847	66,893	0,115	0,083
-148,833	-121,283	-0,105	-0,012
-147,818	-141,635	0,035	-0,002
-146,804	800,000	0,031	-0,078
-145,789	800,000	0,025	-0,055
-144,775	800,000	-0,021	0,051
-143,760	14,013	0,101	0,056
-142,745	40,527	-0,076	-0,049
-141,731	313,371	0,106	0,142
-140,716	-200,000	0,003	0,094
-139,702	-46,221	0,072	0,025
-138,687	-140,062	0,037	0,003
-137,672	-114,038	-0,044	0,006
-136,658	95,329	0,048	0,039
-135,643	515,054	-0,064	0,107
-134,629	-84,232	-0,048	0,011
-133,614	63,263	0,088	0,063
-132,599	186,573	-0,070	0,074
-131,585	-113,195	-0,109	-0,015
-130,570	-34,039	0,058	-0,023
-129,556	-200,000	0,024	0,104
-128,541	800,000	0,009	-0,024
-127,526	400,071	0,047	0,070
-126,512	800,000	0,053	-0,125
-125,497	-3,131	0,095	-0,047
-124,483	-200,000	0,015	0,109
-123,468	-142,446	-0,164	-0,011
-122,453	195,677	0,058	-0,063
-121,439	800,000	-0,073	-0,152
-120,424	800,000	0,024	-0,056
-119,410	-86,735	0,109	0,023
-118,395	-200,000	0,006	-0,113
