DTS Sentinel unit serial number:	SN410029Multiplexer serial number:	ORYXHardware model number:	OX2-SRSoftware version number:	ORYX F/W v4,00 Oryx Data Collector v3.7.2.0data status	okinstallation	BH3 CH2differential loss correction	single-endedforward channel	channel 2reverse channel	N/Adate	2023/12/05time	13:57:28forward acquisition time	300,00reverse acquisition time	0,00gamma	499,1914k internal	0,3194k external	0,3194temperature offset calibration	1,0000default loss term (dB/km)	0,3820temperature slope calibration	1,0000multiplexer offset coefficient	1,0000multiplexer slope coefficient	1,0000fibre end	0,00T internal ref (°C)	10,69T ext. ref 1 (°C)	-3,10T ext. ref 2 (°C)	-3,26length (m)	temperature (°C)	Stokes	anti-Stokes-744,400	800,000	0,021	-0,061
-743,385	44,968	-0,266	0,178
-742,371	-133,613	-0,073	-0,007
-741,356	213,497	-0,255	0,294
-740,342	98,905	-0,101	-0,085
-739,327	117,332	-0,232	0,208
-738,312	257,891	-0,104	-0,131
-737,298	-121,491	-0,245	0,029
-736,283	297,906	-0,108	-0,145
-735,269	-14,126	-0,184	0,086
-734,254	800,000	-0,042	-0,114
-733,239	-183,419	-0,350	-0,004
-732,225	9,029	0,064	0,035
-731,210	0,905	-0,060	0,031
-730,196	312,547	-0,107	-0,147
-729,181	-200,000	0,013	-0,057
-728,167	72,219	-0,047	-0,036
-727,152	-48,285	0,094	0,033
-726,137	-114,377	-0,193	-0,027
-725,123	800,000	0,011	-0,023
-724,108	-200,000	0,001	-0,053
-723,094	-83,004	-0,205	-0,048
-722,079	166,469	-0,083	0,085
-721,064	788,381	-0,043	0,087
-720,050	82,984	-0,102	0,081
-719,035	615,693	0,085	0,156
-718,021	-200,000	0,010	0,041
-717,006	-200,000	-0,006	-0,103
-715,991	800,000	-0,048	-0,102
-714,977	-200,000	0,019	-0,064
-713,962	-200,000	0,013	-0,042
-712,948	-200,000	0,022	-0,077
-711,933	419,412	-0,065	-0,102
-710,918	-89,472	0,078	-0,017
-709,904	2,135	-0,144	-0,075
-708,889	141,817	-0,019	0,018
-707,875	252,241	-0,057	-0,071
-706,860	-200,000	0,021	0,079
-705,845	-200,000	-0,013	0,142
-704,831	124,287	-0,052	-0,048
-703,816	-34,093	0,079	0,031
-702,802	-19,954	-0,137	0,061
-701,787	41,020	-0,190	0,124
-700,772	494,190	-0,094	-0,157
-699,758	24,420	0,081	-0,048
-698,743	-200,000	0,002	-0,172
-697,729	16,448	0,136	0,078
-696,714	227,282	-0,040	0,047
-695,699	-129,472	-0,145	-0,014
-694,685	319,501	-0,044	-0,061
-693,670	551,089	0,027	-0,047
-692,656	360,505	-0,038	-0,055
-691,641	694,189	-0,001	0,003
-690,627	-194,848	0,038	0,000
-689,612	-83,000	-0,054	-0,013
-688,597	144,333	-0,035	0,034
-687,583	-200,000	0,033	-0,113
-686,568	-117,050	-0,132	-0,017
-685,554	599,070	0,033	0,059
-684,539	-200,000	0,011	0,051
-683,524	-200,000	0,004	0,032
-682,510	-38,603	-0,049	0,019
-681,495	-119,122	-0,052	-0,006
-680,481	-35,691	-0,106	-0,042
-679,466	800,000	-0,073	-0,147
-678,451	58,863	-0,101	-0,072
-677,437	184,212	0,035	0,038
-676,422	35,134	-0,053	0,034
-675,408	-114,090	-0,026	0,004
-674,393	118,054	-0,069	-0,061
-673,378	536,300	-0,027	0,048
-672,364	800,000	-0,029	-0,089
-671,349	-0,887	-0,105	0,054
-670,335	-200,000	0,010	-0,123
-669,320	-84,013	0,026	0,006
-668,305	-200,000	0,001	-0,086
-667,291	372,552	-0,057	0,084
-666,276	108,855	-0,068	-0,059
-665,262	229,338	0,014	-0,016
-664,247	800,000	0,055	0,113
-663,232	-200,000	0,011	-0,054
-662,218	294,828	-0,084	0,112
-661,203	-200,000	0,022	-0,116
-660,189	51,830	0,096	-0,066
-659,174	-200,000	0,014	0,046
-658,159	70,736	-0,107	-0,080
-657,145	-200,000	-0,021	-0,143
-656,130	800,000	0,020	-0,046
-655,116	800,000	-0,023	0,064
-654,101	2,583	-0,066	-0,034
-653,086	-200,000	-0,015	0,113
-652,072	337,770	-0,038	0,054
-651,057	-45,174	-0,074	-0,027
-650,043	800,000	0,011	-0,025
-649,028	-200,000	0,011	-0,061
-648,014	-200,000	-0,006	-0,093
-646,999	51,720	0,074	0,051
-645,984	353,058	-0,043	0,063
-644,970	-200,000	-0,011	-0,164
-643,955	800,000	-0,030	-0,074
-642,941	496,924	0,047	-0,078
-641,926	-200,000	-0,025	0,105
-640,911	-144,130	-0,050	0,003
-639,897	-1,692	0,101	0,051
-638,882	800,000	0,022	0,065
-637,868	238,737	0,040	0,049
-636,853	267,190	-0,039	0,049
-635,838	-200,000	0,016	-0,127
-634,824	800,000	0,067	0,136
-633,809	-139,169	-0,017	-0,001
-632,795	-200,000	-0,010	-0,071
-631,780	54,440	0,022	-0,015
-630,765	59,149	-0,064	-0,046
-629,751	-200,000	0,003	-0,114
-628,736	-52,667	0,016	-0,005
-627,722	125,601	-0,052	-0,047
-626,707	-200,000	-0,031	-0,135
-625,692	-145,181	0,133	0,009
-624,678	-200,000	0,000	-0,119
-623,663	800,000	-0,059	-0,182
-622,649	0,647	-0,155	-0,080
-621,634	-194,570	0,038	0,000
-620,619	800,000	0,030	-0,070
-619,605	800,000	0,045	-0,094
-618,590	-77,553	0,057	0,014
-617,576	800,000	0,037	0,075
-616,561	289,665	-0,054	0,072
-615,546	-200,000	-0,008	0,042
-614,532	-115,859	-0,113	-0,015
-613,517	554,523	0,140	-0,245
-612,503	-200,000	0,020	-0,072
-611,488	-21,482	-0,083	-0,036
-610,474	279,503	0,064	0,083
-609,459	596,050	-0,055	-0,100
-608,444	-35,915	-0,141	-0,055
-607,430	-122,041	0,041	-0,005
-606,415	215,512	-0,080	0,092
-605,401	-103,547	0,088	0,015
-604,386	-103,334	0,081	0,014
-603,371	800,000	-0,035	0,075
-602,357	-66,713	-0,061	-0,017
-601,342	80,218	-0,067	-0,052
-600,328	34,220	-0,036	-0,023
-599,313	-111,034	-0,093	-0,014
-598,298	-55,170	-0,058	0,019
-597,284	-89,062	-0,029	-0,006
-596,269	800,000	-0,055	0,118
-595,255	18,601	0,093	-0,054
-594,240	192,818	-0,046	0,051
-593,225	28,059	-0,078	0,048
-592,211	-200,000	0,028	-0,089
-591,196	1,319	0,046	-0,024
-590,182	800,000	0,022	-0,056
-589,167	674,507	-0,032	-0,061
-588,152	-200,000	-0,016	-0,099
-587,138	131,350	-0,085	0,079
-586,123	127,574	-0,070	-0,064
-585,109	-19,378	-0,094	-0,042
-584,094	175,761	0,086	-0,091
-583,079	-41,934	0,033	-0,012
-582,065	800,000	0,028	0,084
-581,050	800,000	0,066	0,135
-580,036	-154,607	-0,030	-0,001
-579,021	-162,894	-0,115	0,004
-578,006	-43,445	0,070	-0,026
-576,992	-24,118	-0,090	-0,039
-575,977	-118,827	0,067	-0,008
-574,963	426,987	0,038	0,059
-573,948	-14,838	-0,130	-0,060
-572,934	90,903	-0,060	-0,049
-571,919	-42,290	0,101	-0,037
-570,904	800,000	0,031	0,081
-569,890	184,752	0,020	-0,021
-568,875	-200,000	0,014	0,074
-567,861	151,858	0,029	-0,029
-566,846	-157,055	-0,087	-0,004
-565,831	-200,000	-0,027	0,118
-564,817	43,586	0,073	-0,048
-563,802	1,295	-0,068	0,035
-562,788	93,493	0,030	-0,025
-561,773	-116,664	-0,067	-0,009
-560,758	100,314	0,112	-0,094
-559,744	800,000	-0,049	-0,147
-558,729	800,000	-0,026	0,058
-557,715	-200,000	-0,017	-0,063
-556,700	-102,775	-0,021	0,004
-555,685	-59,032	-0,084	-0,026
-554,671	-200,000	-0,015	0,063
-553,656	117,951	0,144	0,128
-552,642	-200,000	-0,028	-0,131
-551,627	200,056	0,085	0,094
-550,612	-38,208	-0,158	0,060
-549,598	520,413	0,072	-0,122
-548,583	232,083	-0,104	-0,124
-547,569	-60,207	0,203	0,062
-546,554	11,876	0,126	0,070
-545,539	70,849	-0,094	0,070
-544,525	-28,624	-0,075	-0,031
-543,510	613,245	0,018	-0,032
-542,496	59,536	-0,074	-0,053
-541,481	91,066	0,044	0,036
-540,466	-200,000	-0,010	0,072
-539,452	800,000	-0,043	-0,122
-538,437	-200,000	0,020	0,145
-537,423	-200,000	0,040	0,130
-536,408	-200,000	0,017	0,121
-535,393	800,000	0,033	-0,100
-534,379	153,536	0,104	-0,103
-533,364	-200,000	0,013	0,064
-532,350	384,347	0,041	-0,061
-531,335	-68,421	0,169	-0,047
-530,321	66,905	-0,071	0,052
-529,306	128,248	-0,070	-0,064
-528,291	48,982	-0,039	-0,027
-527,277	800,000	0,053	-0,158
-526,262	12,671	-0,102	0,057
-525,248	-15,533	0,102	-0,047
-524,233	-43,239	-0,120	-0,044
-523,218	154,944	0,063	-0,063
-522,204	149,105	-0,040	-0,039
-521,189	800,000	-0,042	0,084
-520,175	800,000	-0,041	0,086
-519,160	103,615	0,091	0,078
-518,145	-15,152	-0,091	-0,042
-517,131	305,035	0,019	-0,025
-516,116	125,838	-0,107	-0,097
-515,102	-9,570	0,024	0,011
-514,087	523,685	-0,062	0,105
-513,072	725,251	-0,068	-0,131
-512,058	85,152	-0,048	-0,038
-511,043	-29,540	0,088	0,036
-510,029	-92,898	0,096	0,019
-509,014	-200,000	-0,002	0,219
-507,999	77,350	0,098	0,076
-506,985	354,893	-0,076	-0,110
-505,970	36,046	0,064	0,040
-504,956	-200,000	0,008	-0,103
-503,941	800,000	-0,041	-0,082
-502,926	-134,612	0,023	0,002
-501,912	59,054	-0,013	-0,010
-500,897	211,055	-0,026	0,030
-499,883	-200,000	-0,018	-0,096
-498,868	-70,504	-0,059	0,016
-497,853	197,064	-0,080	-0,088
-496,839	574,526	0,054	0,096
-495,824	800,000	-0,018	-0,041
-494,810	-15,090	-0,138	0,064
-493,795	-200,000	0,005	0,021
-492,781	-200,000	-0,005	-0,034
-491,766	376,836	0,044	-0,065
-490,751	-200,000	-0,018	-0,085
-489,737	-200,000	-0,003	-0,118
-488,722	252,582	0,040	0,049
-487,708	-150,240	0,071	-0,004
-486,693	-200,000	0,004	-0,086
-485,678	800,000	-0,015	-0,045
-484,664	-200,000	0,003	-0,043
-483,649	59,000	-0,125	-0,088
-482,635	-200,000	0,023	0,120
-481,620	112,468	0,065	0,056
-480,605	800,000	-0,027	-0,081
-479,591	33,027	0,107	0,067
-478,576	-200,000	-0,012	-0,154
-477,562	-200,000	-0,009	0,116
-476,547	-200,000	-0,029	-0,101
-475,532	-200,000	-0,024	-0,095
-474,518	800,000	0,005	-0,010
-473,503	22,984	0,112	0,066
-472,489	-1,667	0,146	0,074
-471,474	247,671	-0,076	0,092
-470,459	-200,000	-0,022	0,148
-469,445	226,325	-0,075	-0,088
-468,430	164,309	-0,009	0,009
-467,416	800,000	0,020	-0,048
-466,401	-74,161	-0,113	0,029
-465,386	448,446	-0,051	0,081
-464,372	51,435	0,031	0,021
-463,357	42,517	-0,056	0,036
-462,343	-200,000	-0,007	-0,123
-461,328	144,607	0,086	-0,082
-460,313	39,187	0,026	-0,017
-459,299	50,609	0,085	0,058
-458,284	-200,000	-0,009	0,068
-457,270	800,000	0,010	0,027
-456,255	-200,000	-0,002	-0,028
-455,241	800,000	-0,071	-0,188
-454,226	-200,000	-0,027	-0,087
-453,211	264,258	0,081	-0,101
-452,197	464,127	0,065	0,105
-451,182	98,644	-0,032	-0,027
-450,168	-200,000	-0,013	0,056
-449,153	800,000	-0,058	-0,123
-448,138	523,514	0,032	-0,054
-447,124	800,000	0,058	-0,159
-446,109	70,205	-0,012	0,009
-445,095	376,477	-0,044	-0,065
-444,080	800,000	-0,019	0,054
-443,065	-200,000	0,017	0,088
-442,051	105,855	0,058	0,050
-441,036	-48,840	-0,046	-0,016
-440,022	-200,000	-0,019	0,098
-439,007	293,154	0,075	-0,098
-437,992	800,000	0,032	0,069
-436,978	-200,000	-0,008	0,071
-435,963	-200,000	-0,012	0,048
-434,949	-200,000	-0,014	-0,087
-433,934	245,797	-0,106	-0,129
-432,919	-11,147	-0,083	0,039
-431,905	-200,000	-0,017	0,133
-430,890	481,574	0,035	-0,058
-429,876	481,523	0,053	0,086
-428,861	574,409	0,080	0,140
-427,846	496,569	-0,053	0,088
-426,832	1,608	0,149	0,077
-425,817	-200,000	-0,008	-0,088
-424,803	-200,000	0,048	-0,171
-423,788	461,374	-0,048	0,078
-422,773	151,613	0,029	0,028
-421,759	94,133	0,116	0,095
-420,744	-200,000	0,020	0,116
-419,730	200,195	-0,061	-0,068
-418,715	149,584	-0,129	-0,126
-417,701	-200,000	0,052	0,000
-416,686	67,579	-0,053	-0,039
-415,671	216,172	-0,029	0,033
-414,657	-148,133	-0,029	0,002
-413,642	-65,663	-0,134	0,039
-412,628	-78,379	-0,097	0,024
-411,613	400,921	-0,111	-0,168
-410,598	-200,000	-0,025	0,082
-409,584	-200,000	-0,003	0,093
-408,569	254,858	0,032	0,039
-407,555	29,718	0,128	0,078
-406,540	-200,000	-0,005	0,085
-405,525	-200,000	-0,003	0,020
-404,511	137,754	0,060	-0,056
-403,496	-97,226	0,089	-0,017
-402,482	119,186	0,059	0,052
-401,467	293,483	-0,057	-0,075
-400,452	-19,298	0,064	-0,028
-399,438	57,125	0,053	0,037
-398,423	-200,000	-0,012	0,040
-397,409	-200,000	-0,042	-0,161
-396,394	571,350	0,050	-0,088
-395,379	19,040	-0,099	-0,057
-394,365	728,838	-0,063	0,121
-393,350	234,027	0,079	0,094
-392,336	-200,000	-0,011	0,075
-391,321	-200,000	0,015	-0,076
-390,306	-74,769	-0,043	-0,011
-389,292	6,172	0,057	0,030
-388,277	-44,160	0,043	-0,015
-387,263	251,474	0,030	0,037
-386,248	35,824	0,021	0,013
-385,233	-200,000	-0,001	0,099
-384,219	377,067	0,043	-0,063
-383,204	-95,617	-0,163	-0,031
-382,190	20,705	0,024	-0,014
-381,175	4,058	-0,068	0,036
-380,160	68,551	0,090	0,066
-379,146	-200,000	-0,022	0,199
-378,131	377,802	0,032	0,048
-377,117	800,000	-0,021	-0,060
-376,102	12,011	-0,058	0,032
-375,088	-152,656	-0,114	-0,006
-374,073	367,108	-0,060	-0,087
-373,058	-140,604	-0,035	-0,003
-372,044	-200,000	-0,017	0,088
-371,029	-155,879	0,105	0,005
-370,015	404,872	0,089	0,135
-369,000	10,667	-0,107	-0,058
-367,985	117,550	0,150	-0,132
-366,971	-200,000	-0,013	-0,063
-365,956	800,000	-0,031	0,093
-364,942	159,981	-0,109	-0,110
-363,927	272,063	0,043	-0,055
-362,912	98,666	-0,049	0,041
-361,898	158,688	-0,112	-0,112
-360,883	-22,313	-0,089	0,039
-359,869	-103,666	-0,073	-0,012
-358,854	-101,748	0,153	0,026
-357,839	-62,710	0,160	0,047
-356,825	-37,652	-0,135	-0,052
-355,810	430,358	-0,030	0,046
-354,796	-6,262	-0,136	-0,066
-353,781	215,029	-0,059	-0,067
-352,766	-47,394	-0,024	0,008
-351,752	800,000	-0,028	-0,068
-350,737	-200,000	0,013	-0,129
-349,723	327,313	-0,043	-0,059
-348,708	-200,000	-0,011	-0,089
-347,693	-27,194	-0,028	-0,012
-346,679	-200,000	-0,027	-0,105
-345,664	152,170	-0,049	0,048
-344,650	-200,000	0,007	0,183
-343,635	800,000	-0,055	0,155
-342,620	800,000	0,035	0,073
-341,606	239,750	0,147	0,176
-340,591	-42,455	0,023	0,008
-339,577	-200,000	-0,018	0,070
-338,562	140,929	-0,067	0,063
-337,548	121,045	0,107	0,095
-336,533	279,840	-0,055	-0,071
-335,518	195,723	0,061	0,067
-334,504	800,000	0,058	0,119
-333,489	-59,060	-0,020	0,006
-332,475	540,053	0,088	-0,151
-331,460	-200,000	0,043	-0,213
-330,445	189,362	0,064	0,069
-329,431	-200,000	-0,008	-0,067
-328,416	-94,182	0,100	-0,020
-327,402	-200,000	-0,006	0,066
-326,387	236,138	0,014	-0,016
-325,372	-116,936	-0,086	0,011
-324,358	46,720	0,028	0,018
-323,343	23,558	-0,128	0,076
-322,329	-86,983	-0,007	-0,001
-321,314	102,793	0,019	0,016
-320,299	800,000	-0,021	-0,053
-319,285	153,099	0,058	0,057
-318,270	800,000	0,056	-0,113
-317,256	-134,851	0,057	-0,005
-316,241	111,970	-0,026	-0,023
-315,226	800,000	-0,031	0,088
-314,212	66,098	-0,126	0,091
-313,197	363,794	-0,094	0,136
-312,183	27,088	0,013	-0,008
-311,168	117,449	0,062	0,055
-310,153	138,672	-0,045	-0,042
-309,139	-200,000	-0,009	-0,137
-308,124	517,123	0,018	-0,030
-307,110	-103,839	0,118	0,020
-306,095	-87,187	0,060	-0,013
-305,080	800,000	0,042	0,108
-304,066	-16,593	-0,054	0,024
-303,051	-30,897	-0,070	0,028
-302,037	552,233	-0,079	0,136
-301,022	-200,000	0,017	-0,056
-300,008	800,000	0,012	0,030
-298,993	-200,000	-0,022	0,085
-297,978	-200,000	0,024	0,093
-296,964	-184,618	0,095	0,001
-295,949	-0,585	-0,088	-0,044
-294,935	133,766	-0,030	-0,028
-293,920	-146,996	0,075	-0,005
-292,905	-165,985	0,043	-0,001
-291,891	-57,756	0,079	-0,025
-290,876	800,000	-0,020	0,047
-289,862	364,632	-0,038	0,055
-288,847	62,609	-0,175	-0,125
-287,832	-110,868	-0,101	0,015
-286,818	115,922	-0,066	-0,058
-285,803	91,331	0,144	0,116
-284,789	-200,000	-0,065	0,211
-283,774	251,721	0,054	0,066
-282,759	441,180	-0,025	-0,039
-281,745	192,709	0,032	0,035
-280,730	-200,000	0,031	-0,132
-279,716	-93,187	0,056	0,011
-278,701	-200,000	0,004	0,084
-277,686	-200,000	0,004	0,090
-276,672	-200,000	-0,014	0,118
-275,657	800,000	-0,027	-0,056
-274,643	-53,375	0,102	-0,033
-273,628	347,529	0,028	-0,040
-272,613	-200,000	-0,009	0,257
-271,599	-156,620	0,195	0,009
-270,584	-200,000	-0,010	-0,077
-269,570	-200,000	-0,006	0,032
-268,555	-200,000	-0,004	0,038
-267,540	317,176	-0,048	-0,065
-266,526	668,882	0,043	-0,080
-265,511	-200,000	-0,005	0,025
-264,497	313,928	0,072	-0,097
-263,482	-186,410	0,031	0,000
-262,467	470,359	-0,023	0,037
-261,453	-98,100	-0,065	0,012
-260,438	-62,739	0,055	-0,016
-259,424	26,348	0,115	0,069
-258,409	800,000	-0,010	0,021
-257,395	-55,571	-0,125	0,040
-256,380	474,191	0,074	0,120
-255,365	177,276	0,037	-0,039
-254,351	42,559	-0,072	-0,047
-253,336	227,111	-0,114	-0,133
-252,322	47,382	-0,099	-0,066
-251,307	-99,740	0,112	-0,020
-250,292	-200,000	0,015	0,084
-249,278	-160,089	0,108	-0,004
-248,263	158,307	-0,075	0,074
-247,249	-200,000	0,012	0,076
-246,234	-134,999	0,039	-0,003
-245,219	235,749	-0,067	-0,080
-244,205	286,817	-0,043	0,055
-243,190	95,563	0,037	0,030
-242,176	131,080	-0,065	0,059
-241,161	-141,383	0,091	0,006
-240,146	158,791	0,033	0,032
-239,132	223,610	0,091	-0,105
-238,117	-169,539	-0,021	-0,001
-237,103	-36,374	0,047	0,018
-236,088	-11,670	0,080	0,037
-235,073	209,463	0,098	0,110
-234,059	-200,000	0,019	0,106
-233,044	-116,960	0,114	0,015
-232,030	800,000	0,043	0,111
-231,015	281,451	-0,051	-0,065
-230,000	752,597	0,060	-0,116
-228,986	800,000	0,026	-0,080
-227,971	8,654	0,208	0,112
-226,957	319,481	0,057	0,077
-225,942	-22,399	-0,099	0,043
-224,927	-36,359	-0,200	-0,076
-223,913	800,000	0,028	-0,072
-222,898	-200,000	-0,004	-0,122
-221,884	800,000	-0,054	-0,160
-220,869	-200,000	-0,009	0,078
-219,855	800,000	0,054	0,157
-218,840	158,065	0,007	0,007
-217,825	-34,756	0,095	0,037
-216,811	72,531	-0,090	-0,067
-215,796	109,017	-0,115	-0,098
-214,782	55,381	0,055	-0,038
-213,767	800,000	0,045	-0,112
-212,752	-76,528	0,098	0,024
-211,738	698,129	-0,043	0,080
-210,723	414,739	0,036	0,056
-209,709	445,047	-0,054	0,086
-208,694	-53,889	-0,058	0,019
-207,679	571,428	-0,040	0,069
-206,665	-114,347	-0,012	0,002
-205,650	-77,605	0,109	-0,027
-204,636	142,820	0,065	0,062
-203,621	54,310	0,094	0,065
-202,606	52,861	-0,094	0,064
-201,592	134,829	0,071	-0,066
-200,577	800,000	-0,043	-0,090
-199,563	-25,219	0,138	-0,058
-198,548	-200,000	-0,008	0,231
-197,533	36,041	-0,112	-0,070
-196,519	-159,066	-0,101	-0,004
-195,504	-200,000	-0,022	0,085
-194,490	-200,000	-0,002	-0,079
-193,475	-200,000	-0,036	-0,120
-192,460	800,000	0,038	0,077
-191,446	632,756	-0,041	0,074
-190,431	-89,801	0,128	-0,026
-189,417	731,577	-0,020	-0,037
-188,402	112,918	0,043	0,038
-187,387	800,000	-0,024	-0,065
-186,373	104,695	0,044	0,037
-185,358	471,916	0,073	0,118
-184,344	-44,585	0,120	-0,043
-183,329	-200,000	0,003	-0,110
-182,315	3,065	0,040	0,021
-181,300	-56,966	0,143	-0,045
-180,285	82,847	-0,143	-0,111
-179,271	-45,707	-0,110	-0,039
-178,256	62,850	-0,033	-0,024
-177,242	-98,111	-0,114	0,021
-176,227	158,925	0,043	-0,042
-175,212	-200,000	-0,016	0,138
-174,198	-200,000	-0,015	0,077
-173,183	-200,000	-0,036	-0,121
-172,169	-200,000	-0,010	0,173
-171,154	324,046	0,121	0,165
-170,139	-200,000	-0,019	-0,109
-169,125	-3,094	-0,051	0,025
-168,110	800,000	-0,023	0,055
-167,096	-26,395	-0,075	0,031
-166,081	219,896	-0,049	0,055
-165,066	800,000	-0,097	-0,216
-164,052	110,604	0,052	-0,044
-163,037	28,774	0,114	-0,068
-162,023	-66,296	0,041	0,012
-161,008	-136,380	0,030	-0,002
-159,993	245,819	-0,033	0,039
-158,979	14,929	0,130	0,072
-157,964	70,401	-0,079	-0,058
-156,950	-46,755	-0,054	-0,019
-155,935	192,458	-0,088	0,095
-154,920	-6,393	0,091	-0,044
-153,906	-200,000	0,006	0,050
-152,891	-1,035	0,029	-0,015
-151,877	-189,958	-0,196	-0,002
-150,862	105,449	0,081	-0,068
-149,847	86,413	-0,027	0,021
-148,833	-200,000	0,016	0,074
-147,818	-200,000	0,012	0,165
-146,804	-8,342	-0,098	0,047
-145,789	-102,898	0,025	-0,004
-144,775	111,663	0,047	0,040
-143,760	-39,842	-0,069	-0,026
-142,745	-200,000	-0,000	-0,080
-141,731	-200,000	0,023	0,100
-140,716	-104,329	-0,081	-0,013
-139,702	-34,034	0,114	-0,044
-138,687	800,000	0,045	-0,108
-137,672	10,739	0,068	-0,037
-136,658	800,000	-0,019	-0,041
-135,643	-70,638	-0,090	0,024
-134,629	131,968	-0,048	-0,044
-133,614	154,300	-0,065	0,064
-132,599	32,017	-0,063	0,039
-131,585	-200,000	-0,006	-0,083
-130,570	55,501	0,028	-0,019
-129,556	-200,000	0,026	-0,141
-128,541	477,390	-0,074	-0,119
-127,526	379,572	-0,020	-0,030
-126,512	-200,000	-0,013	0,070
-125,497	-97,514	0,101	0,019
-124,483	332,168	-0,065	0,090
-123,468	219,475	-0,023	0,027
-122,453	173,221	-0,089	-0,091
-121,439	315,409	-0,013	-0,018
-120,424	48,867	-0,099	0,066
-119,410	-14,880	0,042	0,019
