DTS Sentinel unit serial number:	SN410029Multiplexer serial number:	ORYXHardware model number:	OX2-SRSoftware version number:	ORYX F/W v4,00 Oryx Data Collector v3.7.2.0data status	okinstallation	BH3 CH2differential loss correction	single-endedforward channel	channel 2reverse channel	N/Adate	2023/12/05time	16:32:28forward acquisition time	300,00reverse acquisition time	0,00gamma	499,1914k internal	0,3192k external	0,3192temperature offset calibration	1,0000default loss term (dB/km)	0,3820temperature slope calibration	1,0000multiplexer offset coefficient	1,0000multiplexer slope coefficient	1,0000fibre end	0,00T internal ref (°C)	11,05T ext. ref 1 (°C)	-3,50T ext. ref 2 (°C)	-3,70length (m)	temperature (°C)	Stokes	anti-Stokes-744,400	167,732	0,016	-0,017
-743,385	220,533	-0,163	0,191
-742,371	92,889	0,015	-0,013
-741,356	229,614	-0,196	0,234
-740,342	-200,000	0,026	-0,206
-739,327	-38,349	-0,204	0,078
-738,312	84,114	-0,192	-0,152
-737,298	-200,000	-0,063	0,257
-736,283	-200,000	0,017	-0,116
-735,269	-103,698	-0,265	-0,045
-734,254	198,322	0,054	0,060
-733,239	-49,897	-0,311	0,107
-732,225	-56,638	-0,072	-0,023
-731,210	145,224	0,096	0,094
-730,196	-200,000	-0,003	-0,068
-729,181	277,656	-0,059	-0,076
-728,167	58,509	0,086	-0,062
-727,152	-144,138	-0,090	-0,006
-726,137	67,047	-0,026	0,019
-725,123	215,827	-0,074	-0,086
-724,108	-76,014	-0,231	-0,059
-723,094	-15,946	0,066	-0,030
-722,079	219,405	-0,061	-0,071
-721,064	342,678	-0,086	-0,124
-720,050	-200,000	-0,014	-0,104
-719,035	-74,609	-0,048	0,012
-718,021	168,243	0,087	-0,090
-717,006	-63,303	-0,155	-0,046
-715,991	-60,877	-0,150	0,046
-714,977	51,322	-0,081	0,056
-713,962	-200,000	-0,025	-0,089
-712,948	88,547	0,065	0,053
-711,933	-86,906	-0,060	-0,013
-710,918	64,051	-0,100	0,074
-709,904	-200,000	-0,002	0,046
-708,889	-71,979	-0,034	-0,009
-707,875	-21,679	-0,011	-0,005
-706,860	268,599	0,062	0,079
-705,845	-200,000	0,007	-0,077
-704,831	-3,387	0,058	-0,029
-703,816	69,407	0,121	-0,091
-702,802	162,579	-0,084	-0,086
-701,787	174,972	-0,108	-0,114
-700,772	-102,512	-0,165	-0,028
-699,758	423,750	-0,068	-0,107
-698,743	-122,699	-0,153	0,018
-697,729	-200,000	0,040	-0,140
-696,714	223,670	0,019	-0,022
-695,699	-111,831	-0,094	0,014
-694,685	24,524	-0,196	0,118
-693,670	-200,000	0,010	-0,112
-692,656	-200,000	0,015	0,129
-691,641	229,261	0,052	-0,062
-690,627	-4,899	0,111	0,055
-689,612	-5,872	-0,117	-0,058
-688,597	97,715	-0,035	0,030
-687,583	433,950	-0,019	0,031
-686,568	-200,000	-0,004	-0,154
-685,554	63,119	-0,045	-0,033
-684,539	119,755	0,011	0,010
-683,524	-16,166	-0,041	-0,019
-682,510	-182,863	-0,118	0,002
-681,495	325,319	-0,053	-0,073
-680,481	800,000	0,012	-0,038
-679,466	-45,749	-0,129	-0,046
-678,451	-20,408	0,050	-0,022
-677,437	-200,000	-0,020	0,075
-676,422	-200,000	-0,022	-0,098
-675,408	800,000	0,077	0,202
-674,393	-200,000	-0,005	0,026
-673,378	89,226	0,061	-0,049
-672,364	-107,344	0,059	-0,009
-671,349	-47,246	-0,116	-0,041
-670,335	800,000	-0,013	-0,030
-669,320	57,272	-0,011	-0,008
-668,305	-23,452	0,101	-0,044
-667,291	13,117	0,123	0,069
-666,276	657,694	-0,109	-0,204
-665,262	545,530	-0,047	-0,082
-664,247	-200,000	0,047	-0,152
-663,232	-200,000	0,024	0,082
-662,218	-66,464	-0,065	0,019
-661,203	-88,147	0,113	0,024
-660,189	-123,214	-0,181	0,021
-659,174	54,896	0,055	-0,039
-658,159	800,000	0,050	-0,128
-657,145	58,420	-0,085	0,061
-656,130	357,530	0,072	0,105
-655,116	800,000	0,028	0,071
-654,101	800,000	-0,051	0,156
-653,086	319,857	-0,099	0,137
-652,072	-124,819	-0,095	-0,010
-651,057	-200,000	-0,019	-0,094
-650,043	-200,000	0,018	-0,117
-649,028	-200,000	-0,004	0,014
-648,014	-49,451	0,164	0,056
-646,999	800,000	-0,045	0,116
-645,984	296,492	0,004	0,005
-644,970	286,382	-0,061	-0,080
-643,955	-200,000	-0,033	-0,109
-642,941	800,000	0,046	-0,146
-641,926	-169,870	-0,186	0,005
-640,911	-200,000	0,003	0,114
-639,897	95,077	0,080	-0,066
-638,882	591,569	0,072	0,129
-637,868	-200,000	0,005	0,048
-636,853	-137,043	0,053	0,004
-635,838	123,622	-0,045	0,041
-634,824	800,000	-0,025	0,054
-633,809	425,507	-0,021	-0,033
-632,795	-42,276	-0,068	0,025
-631,780	387,559	0,062	-0,094
-630,765	800,000	0,066	-0,161
-629,751	617,948	-0,035	-0,064
-628,736	800,000	-0,052	-0,131
-627,722	-38,563	0,067	0,026
-626,707	800,000	-0,041	-0,130
-625,692	-73,954	0,069	0,018
-624,678	800,000	-0,018	-0,046
-623,663	42,844	-0,126	0,083
-622,649	-151,303	0,040	-0,002
-621,634	149,432	-0,114	-0,112
-620,619	189,889	-0,052	0,056
-619,605	-16,212	0,154	0,071
-618,590	84,113	-0,117	0,093
-617,576	58,884	0,141	-0,100
-616,561	-23,773	-0,113	-0,049
-615,546	-148,510	-0,065	0,004
-614,532	-44,395	-0,170	-0,061
-613,517	800,000	0,019	0,040
-612,503	212,502	-0,032	-0,037
-611,488	-169,988	0,081	-0,002
-610,474	308,486	0,046	0,062
-609,459	208,655	-0,052	0,059
-608,444	-55,699	-0,028	0,009
-607,430	-63,855	-0,064	-0,019
-606,415	-144,083	-0,108	-0,007
-605,401	553,682	0,090	-0,158
-604,386	-85,076	-0,090	-0,020
-603,371	800,000	0,035	0,108
-602,357	39,684	0,061	0,039
-601,342	-200,000	0,000	-0,144
-600,328	-157,425	-0,131	0,006
-599,313	-133,456	-0,102	0,009
-598,298	800,000	0,034	-0,090
-597,284	65,149	0,088	0,064
-596,269	-200,000	-0,005	-0,045
-595,255	-200,000	-0,001	0,046
-594,240	800,000	-0,020	-0,055
-593,225	276,554	0,044	-0,056
-592,211	76,889	-0,174	-0,134
-591,196	800,000	-0,018	-0,040
-590,182	-31,619	0,063	-0,026
-589,167	-106,671	-0,041	-0,007
-588,152	-1,797	-0,148	-0,075
-587,138	-200,000	0,001	0,029
-586,123	-43,977	-0,154	-0,056
-585,109	-200,000	-0,025	-0,133
-584,094	-143,600	-0,211	-0,014
-583,079	-200,000	0,001	0,082
-582,065	11,717	0,081	-0,045
-581,050	800,000	-0,030	0,087
-580,036	1,241	-0,090	0,047
-579,021	-200,000	-0,008	-0,027
-578,006	491,697	-0,064	-0,107
-576,992	-75,800	0,091	-0,023
-575,977	-200,000	0,004	-0,044
-574,963	800,000	-0,040	0,098
-573,948	264,646	-0,069	0,087
-572,934	-200,000	0,033	-0,166
-571,919	167,059	-0,053	-0,054
-570,904	447,454	-0,039	-0,062
-569,890	651,132	-0,063	-0,117
-568,875	-200,000	-0,046	0,178
-567,861	800,000	0,019	0,058
-566,846	77,890	-0,072	0,056
-565,831	-189,988	0,026	-0,000
-564,817	648,214	0,011	-0,021
-563,802	-200,000	-0,002	-0,166
-562,788	-67,419	0,102	-0,029
-561,773	107,888	0,091	-0,079
-560,758	137,677	0,102	0,096
-559,744	-139,596	-0,118	-0,009
-558,729	-110,555	-0,092	-0,014
-557,715	-152,243	0,084	0,004
-556,700	-52,452	-0,125	-0,042
-555,685	650,284	0,113	0,210
-554,671	106,505	0,017	0,015
-553,656	578,893	-0,027	0,048
-552,642	-70,691	-0,010	-0,003
-551,627	-200,000	-0,041	0,132
-550,612	49,379	-0,161	0,109
-549,598	438,578	-0,021	-0,034
-548,583	-57,915	0,027	0,009
-547,569	-31,050	0,103	0,042
-546,554	800,000	0,045	-0,127
-545,539	800,000	0,016	-0,043
-544,525	38,820	-0,092	0,059
-543,510	41,403	-0,163	-0,106
-542,496	410,792	-0,016	0,025
-541,481	-200,000	-0,019	0,105
-540,466	-16,984	-0,046	0,021
-539,452	53,442	0,051	0,035
-538,437	-200,000	0,014	-0,084
-537,423	-200,000	0,010	0,117
-536,408	-200,000	-0,007	-0,060
-535,393	800,000	-0,040	-0,124
-534,379	402,798	-0,090	-0,137
-533,364	-200,000	0,008	-0,047
-532,350	6,693	0,069	0,037
-531,335	-90,905	0,073	-0,015
-530,321	-173,479	0,121	0,003
-529,306	-200,000	-0,011	0,140
-528,291	151,443	-0,100	-0,098
-527,277	-55,076	-0,070	-0,023
-526,262	-200,000	-0,005	-0,113
-525,248	334,902	0,025	0,036
-524,233	-52,648	-0,130	-0,043
-523,218	-97,069	0,089	0,017
-522,204	-200,000	-0,004	-0,016
-521,189	448,537	0,080	-0,128
-520,175	115,315	-0,090	-0,079
-519,160	-200,000	-0,022	0,081
-518,145	-35,379	-0,097	0,038
-517,131	-114,213	0,153	0,021
-516,116	-128,603	0,159	-0,016
-515,102	541,341	-0,027	0,046
-514,087	-96,261	-0,088	-0,017
-513,072	-200,000	0,002	0,095
-512,058	-200,000	0,029	-0,162
-511,043	14,736	0,117	0,066
-510,029	-200,000	0,008	0,104
-509,014	-200,000	0,035	0,135
-507,999	63,746	-0,129	0,094
-506,985	169,480	-0,050	0,052
-505,970	800,000	0,010	0,027
-504,956	232,521	-0,058	-0,070
-503,941	-29,079	0,195	0,081
-502,926	137,900	-0,030	0,028
-501,912	178,143	-0,040	-0,042
-500,897	-132,554	0,091	-0,008
-499,883	240,876	0,026	0,032
-498,868	-200,000	-0,047	-0,182
-497,853	-55,115	0,057	-0,018
-496,839	-44,557	-0,075	-0,027
-495,824	-42,035	-0,045	0,017
-494,810	-200,000	0,023	0,093
-493,795	39,775	-0,071	-0,046
-492,781	-91,085	-0,027	-0,006
-491,766	800,000	-0,053	-0,123
-490,751	59,343	-0,056	-0,040
-489,737	695,992	0,029	0,056
-488,722	-200,000	0,002	0,064
-487,708	-63,191	-0,097	-0,029
-486,693	-200,000	-0,000	0,136
-485,678	217,305	-0,063	0,072
-484,664	320,704	-0,084	0,116
-483,649	-115,699	0,170	0,023
-482,635	-200,000	0,018	-0,089
-481,620	382,561	0,091	0,135
-480,605	53,925	0,064	-0,044
-479,591	150,028	-0,056	0,055
-478,576	800,000	-0,006	0,016
-477,562	642,407	-0,088	-0,162
-476,547	275,019	-0,090	-0,116
-475,532	-200,000	0,006	0,053
-474,518	-104,861	0,068	0,011
-473,503	-98,032	0,086	0,016
-472,489	-200,000	-0,051	0,164
-471,474	-200,000	-0,006	0,063
-470,459	-119,145	-0,074	0,009
-469,445	-60,368	-0,135	-0,041
-468,430	-200,000	-0,011	-0,105
-467,416	185,212	0,080	0,086
-466,401	-27,603	0,054	0,023
-465,386	60,550	-0,114	0,081
-464,372	72,052	-0,081	0,061
-463,357	-60,878	-0,006	0,002
-462,343	266,954	-0,126	-0,159
-461,328	221,932	0,091	-0,106
-460,313	614,057	0,053	-0,095
-459,299	36,356	-0,009	-0,006
-458,284	-73,530	-0,119	0,031
-457,270	-28,654	-0,058	0,024
-456,255	666,890	-0,040	-0,075
-455,241	-77,418	-0,122	0,030
-454,226	-83,990	0,139	0,032
-453,211	-113,349	-0,136	0,019
-452,197	238,387	0,087	0,105
-451,182	451,102	-0,054	-0,087
-450,168	800,000	0,041	0,115
-449,153	166,184	-0,066	0,068
-448,138	-200,000	0,021	0,086
-447,124	-200,000	0,019	-0,157
-446,109	-177,408	0,056	-0,001
-445,095	-99,713	0,074	0,013
-444,080	800,000	0,031	0,085
-443,065	-36,942	0,029	-0,011
-442,051	209,486	-0,008	-0,009
-441,036	91,865	-0,084	-0,068
-440,022	-200,000	-0,002	-0,120
-439,007	-200,000	0,006	0,047
-437,992	32,350	0,130	0,081
-436,978	136,794	0,146	0,138
-435,963	-200,000	0,016	0,218
-434,949	800,000	-0,072	-0,205
-433,934	-200,000	0,015	-0,067
-432,919	-200,000	0,015	0,096
-431,905	360,561	-0,019	-0,027
-430,890	670,508	0,038	-0,072
-429,876	87,254	0,048	0,038
-428,861	-200,000	-0,005	-0,040
-427,846	243,661	0,067	0,081
-426,832	-74,681	0,064	-0,016
-425,817	-200,000	-0,010	-0,038
-424,803	389,324	0,023	0,034
-423,788	164,457	-0,075	0,077
-422,773	108,752	0,128	0,110
-421,759	-200,000	0,007	0,139
-420,744	-200,000	0,007	0,034
-419,730	148,495	0,041	0,040
-418,715	-176,615	-0,083	0,002
-417,701	-143,947	0,071	0,005
-416,686	800,000	0,006	0,014
-415,671	116,248	0,096	-0,085
-414,657	800,000	0,040	0,089
-413,642	-157,092	0,148	-0,006
-412,628	237,473	-0,050	0,060
-411,613	-200,000	-0,019	-0,068
-410,598	9,298	0,165	0,089
-409,584	123,302	0,026	0,023
-408,569	354,755	-0,004	0,006
-407,555	126,488	0,113	0,103
-406,540	-200,000	0,048	0,160
-405,525	800,000	-0,039	0,085
-404,511	293,689	-0,081	0,106
-403,496	800,000	0,004	0,010
-402,482	81,625	0,105	-0,082
-401,467	-107,910	0,181	-0,028
-400,452	800,000	-0,027	0,060
-399,438	-50,325	0,090	0,030
-398,423	-135,873	-0,044	0,004
-397,409	23,394	0,054	-0,032
-396,394	800,000	0,030	0,065
-395,379	57,020	0,020	-0,014
-394,365	-200,000	-0,014	-0,053
-393,350	381,542	0,114	0,168
-392,336	-200,000	0,001	0,184
-391,321	-139,318	-0,091	0,007
-390,306	595,756	0,024	-0,043
-389,292	-200,000	0,003	-0,035
-388,277	280,771	-0,033	-0,043
-387,263	800,000	0,031	-0,072
-386,248	-139,408	0,024	-0,002
-385,233	74,166	0,053	0,040
-384,219	-73,798	-0,072	-0,019
-383,204	-86,687	-0,177	-0,039
-382,190	-76,512	0,106	-0,027
-381,175	116,778	0,077	-0,068
-380,160	598,650	-0,090	0,162
-379,146	34,428	0,084	-0,053
-378,131	230,710	-0,040	-0,047
-377,117	349,111	-0,063	-0,090
-376,102	14,093	-0,139	-0,078
-375,088	-181,639	0,087	-0,001
-374,073	-200,000	-0,002	-0,054
-373,058	-118,353	-0,099	0,013
-372,044	1,235	0,139	0,072
-371,029	324,375	0,041	0,057
-370,015	9,112	0,047	-0,025
-369,000	-151,594	-0,099	-0,005
-367,985	221,909	-0,063	-0,073
-366,971	800,000	0,046	0,110
-365,956	430,347	-0,025	0,039
-364,942	-8,652	-0,027	-0,013
-363,927	21,654	0,068	-0,040
-362,912	-200,000	-0,040	-0,145
-361,898	203,346	0,065	0,072
-360,883	254,476	-0,092	-0,113
-359,869	180,241	-0,054	-0,057
-358,854	247,385	0,072	-0,087
-357,839	-151,054	0,154	0,008
-356,825	83,729	-0,087	0,068
-355,810	-200,000	-0,012	-0,039
-354,796	800,000	-0,049	-0,153
-353,781	-52,427	0,137	-0,045
-352,766	-200,000	0,003	0,045
-351,752	-61,074	0,176	0,053
-350,737	22,163	0,053	0,031
-349,723	-200,000	0,010	0,063
-348,708	160,431	-0,092	-0,093
-347,693	-12,919	0,086	0,040
-346,679	309,784	0,083	0,112
-345,664	23,687	-0,128	-0,076
-344,650	-72,348	0,062	0,016
-343,635	-200,000	0,007	0,028
-342,620	-71,800	-0,098	-0,026
-341,606	233,770	0,057	-0,067
-340,591	-200,000	0,033	-0,112
-339,577	800,000	-0,038	0,104
-338,562	626,610	-0,118	-0,215
-337,548	-200,000	-0,020	-0,079
-336,533	-66,969	0,040	0,011
-335,518	-80,238	-0,053	0,013
-334,504	-22,538	0,098	-0,042
-333,489	-200,000	0,024	0,097
-332,475	177,597	-0,070	-0,073
-331,460	-57,249	-0,158	-0,049
-330,445	69,222	0,034	-0,025
-329,431	201,958	-0,065	-0,071
-328,416	-28,549	0,097	-0,040
-327,402	800,000	-0,034	0,077
-326,387	554,101	-0,012	0,021
-325,372	-59,444	0,027	0,008
-324,358	-200,000	0,024	-0,103
-323,343	-200,000	-0,004	0,076
-322,329	-200,000	-0,001	0,003
-321,314	-23,707	0,092	-0,039
-320,299	64,771	-0,039	0,028
-319,285	-200,000	-0,023	0,092
-318,270	677,321	-0,036	-0,068
-317,256	-91,943	-0,099	-0,020
-316,241	226,298	-0,039	-0,045
-315,226	146,690	0,092	0,089
-314,212	254,089	0,106	-0,130
-313,197	21,417	-0,041	-0,024
-312,183	-200,000	-0,021	0,086
-311,168	800,000	-0,069	-0,156
-310,153	-89,614	0,137	-0,029
-309,139	176,816	0,041	-0,043
-308,124	800,000	0,039	0,101
-307,110	-200,000	-0,001	0,050
-306,095	-86,875	0,025	0,006
-305,080	-109,435	-0,043	0,006
-304,066	800,000	0,013	0,032
-303,051	800,000	0,054	-0,121
-302,037	113,610	-0,105	-0,091
-301,022	-82,805	0,145	0,033
-300,008	38,523	-0,077	0,049
-298,993	-200,000	0,011	0,101
-297,978	1,192	0,145	-0,074
-296,964	-200,000	-0,045	-0,160
-295,949	-200,000	0,014	-0,075
-294,935	60,939	0,006	-0,004
-293,920	203,592	0,015	0,017
-292,905	259,681	0,087	0,108
-291,891	800,000	-0,049	0,126
-290,876	295,977	0,053	0,070
-289,862	-81,269	0,026	0,006
-288,847	-142,552	-0,053	0,004
-287,832	18,296	0,137	0,078
-286,818	-200,000	-0,036	0,192
-285,803	21,903	0,048	-0,028
-284,789	800,000	-0,027	0,079
-283,774	-200,000	0,047	-0,185
-282,759	-189,921	0,054	0,000
-281,745	-102,228	0,068	-0,012
-280,730	800,000	-0,057	-0,162
-279,716	-2,239	0,104	-0,052
-278,701	-59,488	0,132	-0,040
-277,686	63,619	0,148	0,106
-276,672	36,014	0,115	-0,073
-275,657	443,252	-0,107	-0,169
-274,643	-78,345	-0,132	-0,032
-273,628	800,000	0,016	-0,044
-272,613	30,905	0,052	-0,032
-271,599	-200,000	0,018	0,061
-270,584	-200,000	0,016	-0,082
-269,570	800,000	-0,011	-0,027
-268,555	404,653	0,032	-0,049
-267,540	-83,256	0,106	-0,024
-266,526	800,000	-0,016	-0,035
-265,511	-7,030	-0,047	-0,023
-264,497	43,041	0,082	0,053
-263,482	800,000	0,021	0,066
-262,467	15,583	0,081	0,046
-261,453	311,147	-0,042	0,057
-260,438	84,410	-0,080	-0,063
-259,424	800,000	-0,068	-0,160
-258,409	-53,631	-0,111	-0,036
-257,395	198,448	-0,030	0,032
-256,380	-16,533	0,203	-0,092
-255,365	436,791	0,041	0,064
-254,351	80,843	0,033	0,025
-253,336	-200,000	0,005	0,039
-252,322	-122,672	-0,057	0,006
-251,307	26,843	0,063	0,038
-250,292	-12,598	0,025	-0,012
-249,278	-81,560	0,104	-0,024
-248,263	708,128	0,039	0,075
-247,249	-3,276	0,100	0,050
-246,234	670,168	-0,025	0,046
-245,219	-200,000	-0,000	-0,061
-244,205	224,637	-0,054	-0,062
-243,190	-200,000	-0,004	0,034
-242,176	45,727	0,084	0,056
-241,161	163,221	-0,044	0,044
-240,146	-85,712	0,110	0,024
-239,132	-80,015	-0,073	-0,017
-238,117	-126,651	-0,132	0,014
-237,103	-21,842	0,088	0,038
-236,088	-200,000	0,005	-0,116
-235,073	6,660	0,032	-0,017
-234,059	441,440	0,035	-0,055
-233,044	-108,292	0,066	-0,010
-232,030	72,830	-0,031	0,023
-231,015	163,290	0,033	-0,033
-230,000	-178,934	-0,143	0,002
-228,986	-146,364	-0,054	-0,003
-227,971	-200,000	0,002	0,018
-226,957	15,765	0,033	-0,019
-225,942	-79,329	-0,057	0,014
-224,927	-102,652	0,059	0,010
-223,913	-62,764	0,036	0,011
-222,898	556,953	0,042	0,073
-221,884	198,580	-0,100	0,110
-220,869	-200,000	0,004	-0,124
-219,855	115,497	0,069	0,061
-218,840	351,432	-0,056	0,080
-217,825	-105,938	-0,188	-0,030
-216,811	-187,320	0,104	0,001
-215,796	111,661	0,083	-0,072
-214,782	-38,704	0,112	0,042
-213,767	800,000	-0,057	-0,177
-212,752	800,000	0,025	0,050
-211,738	-105,261	-0,024	-0,004
-210,723	43,937	-0,068	0,044
-209,709	111,925	-0,048	-0,042
-208,694	258,676	-0,045	-0,056
-207,679	150,392	0,030	-0,029
-206,665	63,828	-0,069	-0,049
-205,650	14,408	0,103	0,057
-204,636	-200,000	-0,006	0,053
-203,621	-58,565	0,033	0,010
-202,606	-200,000	-0,023	0,138
-201,592	-42,576	-0,138	0,050
-200,577	50,884	-0,094	0,063
-199,563	-200,000	0,001	-0,047
-198,548	362,763	0,053	-0,076
-197,533	-200,000	0,008	-0,033
-196,519	134,663	0,202	0,187
-195,504	207,119	0,091	-0,101
-194,490	-150,606	-0,012	-0,001
-193,475	-84,560	-0,058	-0,013
-192,460	800,000	0,037	-0,075
-191,446	522,299	0,081	-0,136
-190,431	-115,988	0,046	0,006
-189,417	130,686	-0,102	0,093
-188,402	720,194	0,043	-0,082
-187,387	-71,254	0,092	-0,024
-186,373	-7,150	-0,161	0,078
-185,358	800,000	-0,024	-0,062
-184,344	15,193	0,018	0,010
-183,329	380,340	-0,048	0,070
-182,315	427,260	-0,070	-0,108
-181,300	101,424	0,024	0,020
-180,285	84,143	-0,024	-0,019
-179,271	-108,660	0,036	0,006
-178,256	-121,645	-0,131	0,015
-177,242	125,749	0,031	-0,028
-176,227	-200,000	0,010	0,098
-175,212	800,000	0,041	0,083
-174,198	3,603	-0,082	-0,042
-173,183	693,113	-0,014	-0,027
-172,169	-200,000	-0,036	0,172
-171,154	-27,826	-0,054	0,022
-170,139	45,408	0,099	-0,065
-169,125	800,000	-0,036	0,074
-168,110	218,792	0,145	0,166
-167,096	-200,000	-0,019	0,079
-166,081	-78,101	-0,258	-0,063
-165,066	311,164	-0,022	-0,029
-164,052	-100,205	-0,092	0,016
-163,037	120,178	0,016	0,014
-162,023	800,000	-0,057	0,148
-161,008	-200,000	-0,006	0,033
-159,993	135,990	-0,058	-0,053
-158,979	-200,000	-0,009	-0,054
-157,964	-200,000	-0,001	-0,006
-156,950	232,321	0,028	-0,033
-155,935	-90,671	-0,111	-0,023
-154,920	800,000	0,040	0,114
-153,906	-200,000	0,011	0,174
-152,891	800,000	0,037	0,107
-151,877	454,857	-0,079	-0,125
-150,862	12,848	0,063	-0,035
-149,847	800,000	0,024	-0,060
-148,833	180,563	0,036	0,037
-147,818	45,747	0,021	0,014
-146,804	-200,000	0,010	0,031
-145,789	-33,968	-0,017	-0,007
-144,775	11,727	-0,130	-0,071
-143,760	22,771	-0,135	-0,078
-142,745	-77,047	0,026	-0,006
-141,731	-200,000	-0,010	0,035
-140,716	283,826	-0,033	-0,042
-139,702	-174,155	0,069	0,001
-138,687	-200,000	-0,010	0,053
-137,672	41,465	0,039	0,025
-136,658	-200,000	-0,003	-0,028
-135,643	239,485	-0,073	-0,087
-134,629	44,825	-0,124	-0,081
-133,614	209,018	-0,043	0,048
-132,599	316,680	0,024	0,032
-131,585	211,865	-0,141	0,159
-130,570	48,516	0,033	-0,022
-129,556	800,000	0,036	-0,101
-128,541	-200,000	-0,023	-0,129
-127,526	-172,977	0,166	0,004
-126,512	174,105	-0,170	-0,175
-125,497	-72,624	0,099	-0,026
-124,483	234,159	-0,038	-0,045
-123,468	-200,000	0,035	-0,124
-122,453	-79,761	-0,113	0,027
-121,439	800,000	-0,054	-0,112
-120,424	800,000	0,054	-0,145
-119,410	-200,000	0,028	-0,102
