DTS Sentinel unit serial number:	SN410029Multiplexer serial number:	ORYXHardware model number:	OX2-SRSoftware version number:	ORYX F/W v4,00 Oryx Data Collector v3.7.2.0data status	okinstallation	BH3 CH2differential loss correction	single-endedforward channel	channel 2reverse channel	N/Adate	2023/12/05time	11:02:28forward acquisition time	300,00reverse acquisition time	0,00gamma	499,1914k internal	0,3196k external	0,3196temperature offset calibration	1,0000default loss term (dB/km)	0,3820temperature slope calibration	1,0000multiplexer offset coefficient	1,0000multiplexer slope coefficient	1,0000fibre end	0,00T internal ref (°C)	9,68T ext. ref 1 (°C)	-5,12T ext. ref 2 (°C)	-5,24length (m)	temperature (°C)	Stokes	anti-Stokes-744,400	-200,000	0,032	-0,233
-743,385	-88,552	-0,145	0,031
-742,371	800,000	0,056	0,144
-741,356	87,848	-0,095	0,077
-740,342	-200,000	-0,010	-0,043
-739,327	-53,376	-0,195	0,065
-738,312	800,000	-0,072	-0,188
-737,298	40,449	-0,147	0,096
-736,283	796,704	-0,057	-0,114
-735,269	169,083	-0,155	0,162
-734,254	131,829	-0,043	0,040
-733,239	-78,442	-0,405	-0,100
-732,225	-1,222	0,106	-0,054
-731,210	-19,046	0,074	0,033
-730,196	157,534	0,010	-0,010
-729,181	79,717	-0,089	-0,069
-728,167	-66,101	-0,125	-0,036
-727,152	-200,000	-0,001	0,098
-726,137	-200,000	-0,012	-0,047
-725,123	-101,080	-0,088	0,016
-724,108	660,976	-0,033	-0,062
-723,094	346,864	-0,133	-0,192
-722,079	-200,000	0,009	0,054
-721,064	800,000	0,011	0,027
-720,050	-200,000	0,010	-0,043
-719,035	-85,154	-0,065	0,015
-718,021	-200,000	0,002	0,052
-717,006	154,705	-0,056	-0,056
-715,991	-87,328	-0,122	-0,027
-714,977	45,730	-0,167	-0,112
-713,962	318,773	-0,128	-0,177
-712,948	73,618	0,068	-0,052
-711,933	-22,502	-0,096	-0,042
-710,918	296,268	-0,025	-0,033
-709,904	60,960	-0,056	0,040
-708,889	-200,000	-0,025	-0,082
-707,875	-15,020	-0,086	-0,040
-706,860	-200,000	-0,011	-0,098
-705,845	-200,000	-0,041	0,155
-704,831	-25,014	0,076	0,033
-703,816	214,161	-0,079	0,091
-702,802	321,827	0,088	-0,122
-701,787	299,359	-0,051	-0,069
-700,772	65,256	0,099	0,073
-699,758	69,647	0,078	-0,058
-698,743	-98,840	0,069	0,013
-697,729	800,000	0,037	0,092
-696,714	-42,095	-0,141	-0,052
-695,699	24,607	-0,057	-0,034
-694,685	800,000	-0,078	-0,196
-693,670	171,287	-0,082	-0,085
-692,656	800,000	-0,037	-0,104
-691,641	-188,248	0,036	0,000
-690,627	621,447	0,032	0,058
-689,612	326,660	-0,046	-0,065
-688,597	-61,762	0,162	0,049
-687,583	510,970	-0,085	-0,144
-686,568	-170,197	0,101	0,003
-685,554	46,036	-0,061	0,041
-684,539	-134,006	-0,020	0,002
-683,524	465,852	0,041	0,067
-682,510	40,104	-0,054	0,035
-681,495	181,974	-0,055	0,059
-680,481	-25,404	-0,029	-0,012
-679,466	-200,000	-0,045	-0,183
-678,451	253,205	0,078	0,097
-677,437	84,103	0,043	-0,034
-676,422	-137,937	0,067	-0,005
-675,408	196,724	-0,023	0,026
-674,393	3,973	-0,067	-0,036
-673,378	-112,085	-0,211	-0,030
-672,364	-200,000	-0,020	-0,141
-671,349	156,347	-0,043	0,043
-670,335	92,906	-0,072	0,059
-669,320	1,155	0,052	-0,027
-668,305	-200,000	-0,004	-0,050
-667,291	23,377	-0,015	-0,009
-666,276	205,012	-0,083	-0,094
-665,262	-109,490	-0,110	0,017
-664,247	-2,703	-0,102	0,052
-663,232	131,425	0,067	0,063
-662,218	145,368	-0,078	-0,076
-661,203	686,248	-0,029	-0,055
-660,189	665,812	-0,086	-0,163
-659,174	-200,000	0,005	-0,044
-658,159	-200,000	-0,033	-0,159
-657,145	800,000	-0,019	-0,054
-656,130	580,142	-0,082	-0,147
-655,116	687,295	0,026	0,049
-654,101	329,483	-0,048	-0,068
-653,086	144,580	0,022	-0,022
-652,072	800,000	0,031	-0,072
-651,057	800,000	0,020	0,044
-650,043	-90,481	-0,183	-0,038
-649,028	78,151	-0,015	-0,011
-648,014	82,214	-0,195	0,154
-646,999	-200,000	-0,057	0,197
-645,984	126,147	0,031	-0,028
-644,970	-74,936	-0,074	-0,019
-643,955	-200,000	-0,019	-0,124
-642,941	778,286	-0,007	-0,014
-641,926	68,321	0,084	-0,062
-640,911	-200,000	0,002	-0,135
-639,897	-103,030	-0,112	-0,019
-638,882	535,406	0,039	-0,067
-637,868	-200,000	-0,001	-0,014
-636,853	-66,219	-0,046	-0,013
-635,838	6,171	-0,172	-0,092
-634,824	212,508	0,078	-0,089
-633,809	-200,000	-0,013	0,042
-632,795	-200,000	0,006	-0,054
-631,780	-200,000	0,004	0,074
-630,765	23,135	0,079	-0,047
-629,751	-107,051	0,052	0,008
-628,736	-200,000	0,008	-0,064
-627,722	800,000	-0,044	-0,115
-626,707	615,219	0,015	0,028
-625,692	800,000	0,024	0,050
-624,678	218,862	0,103	0,119
-623,663	264,062	-0,079	0,100
-622,649	-131,340	-0,043	0,004
-621,634	-200,000	-0,035	-0,130
-620,619	40,296	-0,065	-0,042
-619,605	106,946	0,063	0,054
-618,590	-77,059	0,074	0,018
-617,576	800,000	-0,047	0,100
-616,561	250,375	-0,079	0,097
-615,546	148,746	-0,053	-0,052
-614,532	-200,000	0,000	0,078
-613,517	105,587	-0,040	0,035
-612,503	101,004	0,098	-0,083
-611,488	-200,000	-0,020	0,102
-610,474	669,582	-0,035	0,066
-609,459	298,457	-0,036	0,048
-608,444	50,540	-0,050	-0,034
-607,430	-200,000	0,004	-0,088
-606,415	40,443	-0,165	-0,108
-605,401	-11,100	0,040	0,019
-604,386	161,753	0,027	0,027
-603,371	190,665	-0,073	-0,080
-602,357	656,860	0,040	-0,075
-601,342	-125,545	-0,247	-0,027
-600,328	-200,000	0,002	-0,046
-599,313	-77,176	0,149	-0,037
-598,298	-200,000	-0,026	-0,117
-597,284	800,000	-0,034	0,087
-596,269	-141,943	-0,077	0,006
-595,255	-39,386	-0,086	0,032
-594,240	372,210	-0,013	-0,020
-593,225	-22,466	-0,171	-0,075
-592,211	522,556	-0,031	0,053
-591,196	800,000	-0,076	0,163
-590,182	-200,000	0,014	0,080
-589,167	-2,661	0,069	-0,035
-588,152	-200,000	-0,008	0,065
-587,138	656,350	-0,035	0,066
-586,123	-200,000	0,008	-0,059
-585,109	258,843	-0,024	-0,030
-584,094	800,000	-0,028	0,071
-583,079	-73,175	0,056	0,015
-582,065	-105,595	0,179	-0,029
-581,050	108,696	0,077	-0,066
-580,036	136,570	0,075	0,071
-579,021	-117,045	-0,177	-0,023
-578,006	-141,447	-0,100	0,007
-576,992	413,049	0,055	-0,085
-575,977	-14,318	-0,050	-0,023
-574,963	-37,421	0,093	-0,036
-573,948	24,261	0,050	-0,030
-572,934	-200,000	0,007	-0,140
-571,919	800,000	0,044	-0,096
-570,904	800,000	0,049	-0,146
-569,890	313,233	-0,043	0,058
-568,875	-9,085	0,103	0,050
-567,861	-196,817	-0,093	0,000
-566,846	800,000	0,016	0,039
-565,831	-200,000	-0,017	0,096
-564,817	42,340	0,108	-0,071
-563,802	-42,556	-0,151	-0,055
-562,788	12,636	0,094	0,052
-561,773	800,000	0,013	-0,038
-560,758	-31,367	0,048	0,019
-559,744	59,413	0,092	0,066
-558,729	294,419	-0,050	-0,067
-557,715	305,130	-0,095	-0,128
-556,700	-200,000	-0,006	-0,088
-555,685	-200,000	-0,014	-0,048
-554,671	-7,616	0,108	-0,053
-553,656	338,909	0,025	0,035
-552,642	-200,000	-0,021	0,096
-551,627	-84,171	0,078	-0,018
-550,612	-200,000	-0,005	0,068
-549,598	-126,797	-0,178	-0,019
-548,583	1,148	0,073	-0,038
-547,569	261,494	0,065	-0,081
-546,554	-47,565	-0,051	-0,018
-545,539	-40,457	-0,115	-0,043
-544,525	-141,195	0,136	-0,010
-543,510	-31,196	-0,051	-0,021
-542,496	-34,056	-0,052	0,021
-541,481	800,000	0,022	-0,057
-540,466	51,178	0,086	-0,059
-539,452	-200,000	0,026	0,092
-538,437	31,429	-0,042	0,026
-537,423	-66,542	0,094	0,027
-536,408	-200,000	-0,022	-0,084
-535,393	89,831	-0,076	-0,061
-534,379	-200,000	0,016	-0,080
-533,364	800,000	0,043	-0,134
-532,350	67,868	-0,114	-0,084
-531,335	654,014	0,092	0,172
-530,321	-14,968	0,121	0,056
-529,306	-200,000	-0,019	-0,123
-528,291	-200,000	-0,024	-0,082
-527,277	265,511	0,041	-0,052
-526,262	355,672	0,057	-0,082
-525,248	-200,000	0,025	-0,125
-524,233	-114,650	0,044	-0,006
-523,218	83,036	-0,106	0,083
-522,204	-200,000	-0,021	-0,145
-521,189	159,679	-0,074	0,075
-520,175	15,552	0,087	0,049
-519,160	37,966	-0,066	0,042
-518,145	-125,615	-0,046	0,005
-517,131	-56,275	0,076	-0,024
-516,116	-200,000	0,000	-0,013
-515,102	379,114	-0,032	-0,047
-514,087	204,793	0,028	0,032
-513,072	-200,000	-0,011	-0,182
-512,058	-200,000	-0,011	0,098
-511,043	800,000	-0,011	0,027
-510,029	717,915	-0,013	-0,025
-509,014	36,632	0,105	-0,067
-507,999	-154,374	0,083	0,004
-506,985	-59,655	-0,105	-0,032
-505,970	51,762	-0,118	0,081
-504,956	93,593	0,091	-0,075
-503,941	-200,000	-0,012	0,098
-502,926	49,695	-0,038	-0,025
-501,912	88,725	0,119	-0,095
-500,897	800,000	-0,043	-0,133
-499,883	89,176	0,104	-0,083
-498,868	-200,000	0,015	0,131
-497,853	800,000	-0,004	-0,011
-496,839	238,674	0,050	0,060
-495,824	245,175	0,064	-0,078
-494,810	700,426	-0,034	-0,065
-493,795	159,920	-0,023	-0,023
-492,781	23,589	-0,050	-0,030
-491,766	77,081	-0,036	-0,028
-490,751	-159,475	-0,121	-0,005
-489,737	-200,000	0,017	0,091
-488,722	296,533	-0,060	-0,080
-487,708	380,312	0,036	0,053
-486,693	-66,034	-0,063	-0,018
-485,678	768,762	-0,031	-0,061
-484,664	-151,245	-0,051	0,003
-483,649	4,788	-0,123	-0,065
-482,635	-200,000	-0,016	-0,073
-481,620	-200,000	0,037	0,129
-480,605	-28,276	0,082	-0,034
-479,591	800,000	0,037	0,102
-478,576	-163,856	0,092	-0,003
-477,562	-101,789	-0,183	0,032
-476,547	-75,002	-0,071	-0,018
-475,532	-59,183	0,050	0,015
-474,518	544,391	0,034	-0,059
-473,503	-129,504	0,133	0,013
-472,489	-137,229	-0,135	0,011
-471,474	560,460	0,031	0,055
-470,459	-200,000	0,007	0,027
-469,445	-67,293	-0,106	0,030
-468,430	99,875	-0,095	-0,079
-467,416	-121,944	0,113	0,013
-466,401	-172,028	0,095	-0,002
-465,386	78,078	-0,044	0,034
-464,372	208,816	0,037	0,042
-463,357	-59,819	0,123	0,038
-462,343	-77,355	-0,311	-0,077
-461,328	740,828	0,075	0,146
-460,313	-200,000	-0,021	0,148
-459,299	-91,674	-0,048	-0,010
-458,284	217,239	-0,010	-0,012
-457,270	-200,000	0,045	0,164
-456,255	-200,000	0,006	0,102
-455,241	69,841	-0,140	-0,104
-454,226	-200,000	0,041	-0,168
-453,211	-111,963	0,038	0,005
-452,197	-200,000	-0,011	-0,071
-451,182	191,709	0,039	0,042
-450,168	14,590	-0,098	-0,055
-449,153	-61,044	0,058	-0,018
-448,138	24,250	0,016	0,009
-447,124	-75,962	-0,082	-0,021
-446,109	800,000	-0,014	-0,041
-445,095	580,358	0,037	0,066
-444,080	-200,000	0,001	0,084
-443,065	-200,000	-0,006	-0,054
-442,051	-200,000	0,005	-0,020
-441,036	28,038	-0,098	-0,059
-440,022	196,210	0,064	0,070
-439,007	154,603	0,062	0,062
-437,992	265,180	0,034	-0,042
-436,978	-60,426	0,023	-0,007
-435,963	-200,000	0,016	0,068
-434,949	-154,915	0,066	-0,003
-433,934	-200,000	0,002	-0,078
-432,919	-22,591	-0,060	-0,026
-431,905	-200,000	0,014	-0,147
-430,890	-200,000	-0,023	-0,116
-429,876	-167,524	0,172	0,005
-428,861	800,000	0,043	0,107
-427,846	14,167	-0,100	-0,056
-426,832	800,000	0,045	-0,105
-425,817	-1,681	-0,088	0,044
-424,803	-87,623	0,121	-0,026
-423,788	-200,000	-0,001	0,029
-422,773	-125,653	0,097	0,010
-421,759	-1,731	0,019	0,010
-420,744	-200,000	-0,004	-0,063
-419,730	151,925	0,059	-0,058
-418,715	19,821	-0,082	-0,048
-417,701	290,714	-0,023	0,031
-416,686	-157,896	0,022	-0,001
-415,671	120,980	0,146	0,131
-414,657	800,000	0,048	0,127
-413,642	-200,000	-0,036	0,137
-412,628	212,969	-0,112	0,128
-411,613	-200,000	-0,004	-0,029
-410,598	235,989	0,054	-0,065
-409,584	69,006	0,100	-0,074
-408,569	773,805	0,036	0,071
-407,555	-32,123	-0,094	0,038
-406,540	800,000	-0,078	-0,159
-405,525	37,568	-0,015	0,010
-404,511	-66,059	-0,232	-0,066
-403,496	800,000	0,014	0,043
-402,482	145,424	-0,092	0,089
-401,467	-33,169	0,091	-0,036
-400,452	-200,000	-0,016	0,068
-399,438	-200,000	-0,001	0,118
-398,423	-200,000	0,001	-0,296
-397,409	800,000	-0,042	-0,131
-396,394	-19,151	-0,017	-0,008
-395,379	-33,237	0,084	-0,033
-394,365	376,438	-0,016	0,024
-393,350	38,873	0,039	-0,025
-392,336	-80,807	-0,045	0,011
-391,321	51,836	0,064	0,044
-390,306	-200,000	-0,049	-0,164
-389,292	800,000	0,056	-0,123
-388,277	800,000	-0,045	0,110
-387,263	377,259	0,031	0,045
-386,248	-200,000	-0,003	-0,174
-385,233	11,142	0,199	0,109
-384,219	-44,278	0,090	0,032
-383,204	-51,685	-0,127	-0,042
-382,190	-107,033	0,071	-0,011
-381,175	360,454	0,003	0,004
-380,160	-200,000	0,012	-0,116
-379,146	32,427	0,050	0,031
-378,131	-57,147	0,029	0,009
-377,117	118,666	-0,073	0,065
-376,102	326,266	-0,036	0,050
-375,088	116,768	-0,047	0,041
-374,073	-200,000	-0,006	-0,067
-373,058	350,331	-0,018	-0,026
-372,044	-200,000	0,012	0,046
-371,029	-200,000	-0,004	0,026
-370,015	-200,000	-0,014	-0,049
-369,000	471,905	0,028	-0,046
-367,985	45,330	-0,103	-0,068
-366,971	-67,786	0,045	-0,013
-365,956	5,531	0,153	0,081
-364,942	-102,097	-0,048	0,008
-363,927	223,382	-0,019	0,022
-362,912	800,000	-0,027	-0,073
-361,898	292,090	-0,069	-0,090
-360,883	74,929	0,050	-0,038
-359,869	-200,000	-0,007	0,070
-358,854	-147,211	-0,065	0,004
-357,839	-137,628	0,136	-0,011
-356,825	-69,602	0,069	-0,019
-355,810	-6,062	0,056	0,027
-354,796	-51,892	-0,137	0,046
-353,781	800,000	0,023	-0,056
-352,766	-200,000	0,002	-0,127
-351,752	107,952	-0,070	-0,060
-350,737	-170,643	0,147	-0,004
-349,723	-200,000	0,039	0,131
-348,708	-160,172	0,017	0,001
-347,693	351,385	-0,055	0,078
-346,679	-200,000	-0,008	-0,050
-345,664	-168,660	0,039	0,001
-344,650	463,975	0,048	0,077
-343,635	-200,000	0,001	0,100
-342,620	-200,000	-0,033	0,112
-341,606	-200,000	-0,014	0,073
-340,591	800,000	-0,005	0,013
-339,577	295,835	-0,031	-0,041
-338,562	-200,000	-0,005	0,059
-337,548	789,799	0,025	0,050
-336,533	132,943	0,056	-0,052
-335,518	-200,000	0,023	0,087
-334,504	-200,000	0,036	0,135
-333,489	714,508	-0,025	0,048
-332,475	800,000	0,041	-0,091
-331,460	11,128	0,032	-0,017
-330,445	-34,568	-0,080	-0,031
-329,431	-200,000	0,017	0,087
-328,416	-108,977	0,039	-0,006
-327,402	800,000	0,013	0,041
-326,387	109,732	0,015	-0,013
-325,372	800,000	-0,083	-0,220
-324,358	-36,167	0,008	0,003
-323,343	800,000	0,040	-0,091
-322,329	-42,994	0,164	0,059
-321,314	-59,647	0,031	0,009
-320,299	-200,000	-0,001	0,040
-319,285	-85,828	-0,174	0,038
-318,270	137,633	0,062	-0,058
-317,256	-130,507	0,022	-0,002
-316,241	-85,659	-0,133	-0,029
-315,226	-45,922	0,077	0,027
-314,212	291,916	0,083	0,108
-313,197	65,079	0,083	0,060
-312,183	-200,000	0,026	0,104
-311,168	-142,653	0,057	-0,004
-310,153	667,747	-0,065	-0,121
-309,139	800,000	0,081	0,169
-308,124	800,000	0,017	0,050
-307,110	800,000	0,057	-0,117
-306,095	-62,609	0,120	0,036
-305,080	-68,072	0,019	0,005
-304,066	245,101	0,086	-0,103
-303,051	28,416	-0,053	-0,032
-302,037	120,501	-0,093	0,082
-301,022	188,324	0,048	0,051
-300,008	-200,000	-0,002	0,189
-298,993	-200,000	-0,012	0,105
-297,978	394,440	0,038	-0,057
-296,964	-200,000	0,017	-0,113
-295,949	94,573	-0,097	0,079
-294,935	12,383	-0,022	-0,012
-293,920	-200,000	0,007	-0,050
-292,905	29,669	-0,091	-0,055
-291,891	187,879	0,199	0,212
-290,876	45,016	0,121	-0,079
-289,862	-106,079	0,039	-0,006
-288,847	-148,034	-0,162	-0,009
-287,832	-200,000	0,008	0,090
-286,818	100,654	-0,103	-0,085
-285,803	-99,186	-0,063	0,011
-284,789	-200,000	0,047	0,221
-283,774	4,709	0,074	0,039
-282,759	800,000	-0,030	0,062
-281,745	-58,391	-0,097	-0,030
-280,730	300,259	0,024	0,032
-279,716	800,000	-0,073	-0,147
-278,701	158,060	0,074	-0,073
-277,686	-39,699	-0,046	0,017
-276,672	168,710	0,073	0,075
-275,657	451,002	-0,062	0,098
-274,643	253,504	-0,056	-0,069
-273,628	355,536	-0,139	-0,198
-272,613	67,709	0,023	-0,017
-271,599	-148,983	0,082	0,005
-270,584	-149,183	0,030	-0,002
-269,570	115,104	0,094	0,082
-268,555	-97,856	-0,191	0,035
-267,540	-151,479	-0,172	-0,009
-266,526	34,139	-0,084	-0,053
-265,511	88,481	-0,038	-0,030
-264,497	269,620	-0,082	0,103
-263,482	61,038	0,100	0,071
-262,467	-200,000	-0,011	0,125
-261,453	25,658	0,057	-0,034
-260,438	-128,626	0,115	0,012
-259,424	-4,644	0,040	-0,020
-258,409	-116,806	-0,153	-0,020
-257,395	739,798	-0,032	-0,062
-256,380	268,053	0,033	0,042
-255,365	-4,739	-0,092	0,045
-254,351	800,000	-0,043	-0,085
-253,336	-200,000	-0,002	0,038
-252,322	154,280	-0,045	-0,044
-251,307	70,629	0,021	0,015
-250,292	-160,867	-0,077	0,003
-249,278	-200,000	0,003	0,034
-248,263	-200,000	0,011	0,048
-247,249	9,024	-0,032	0,017
-246,234	800,000	-0,030	-0,084
-245,219	-200,000	-0,002	-0,011
-244,205	6,719	0,096	-0,051
-243,190	412,706	0,048	-0,073
-242,176	800,000	0,039	0,116
-241,161	-200,000	-0,026	0,134
-240,146	-200,000	0,016	0,063
-239,132	24,967	0,019	0,011
-238,117	-200,000	-0,010	0,048
-237,103	800,000	-0,008	-0,024
-236,088	174,656	-0,111	-0,115
-235,073	800,000	-0,040	0,122
-234,059	-104,703	0,204	-0,033
-233,044	725,865	-0,055	0,105
-232,030	191,679	-0,012	0,012
-231,015	211,228	0,021	0,023
-230,000	800,000	-0,049	-0,135
-228,986	-200,000	0,019	-0,171
-227,971	5,747	-0,090	0,047
-226,957	404,837	-0,056	0,085
-225,942	-19,946	-0,099	0,043
-224,927	-200,000	-0,002	0,042
-223,913	275,347	0,040	-0,051
-222,898	57,593	-0,085	0,059
-221,884	-32,209	-0,061	0,024
-220,869	800,000	0,024	0,071
-219,855	155,499	0,085	0,083
-218,840	391,825	0,029	0,043
-217,825	-129,100	0,103	0,010
-216,811	-153,824	0,032	-0,002
-215,796	-200,000	-0,015	-0,146
-214,782	289,187	-0,093	-0,121
-213,767	6,809	-0,065	0,035
-212,752	15,731	0,095	0,053
-211,738	800,000	-0,029	0,087
-210,723	-200,000	0,026	0,133
-209,709	175,940	0,038	-0,039
-208,694	214,988	-0,067	0,076
-207,679	-200,000	-0,064	-0,202
-206,665	-54,604	0,113	0,036
-205,650	363,656	-0,022	0,031
-204,636	324,424	-0,071	-0,097
-203,621	102,189	0,028	-0,023
-202,606	359,404	-0,021	0,030
-201,592	-123,297	-0,054	0,006
-200,577	800,000	-0,015	0,029
-199,563	-97,755	0,122	0,022
-198,548	800,000	0,057	-0,130
-197,533	536,235	-0,075	0,127
-196,519	504,741	-0,010	-0,016
-195,504	618,751	-0,047	-0,085
-194,490	639,694	0,057	-0,103
-193,475	-63,194	-0,106	0,031
-192,460	392,761	0,054	0,081
-191,446	-200,000	-0,010	-0,038
-190,431	800,000	-0,020	0,045
-189,417	-19,117	0,064	0,028
-188,402	800,000	-0,032	0,066
-187,387	383,228	0,071	0,104
-186,373	800,000	0,040	-0,124
-185,358	-155,920	0,021	0,001
-184,344	172,097	0,109	0,112
-183,329	-200,000	0,012	0,078
-182,315	-118,776	0,107	-0,013
-181,300	-4,802	0,082	0,040
-180,285	-100,738	-0,091	-0,016
-179,271	377,928	0,031	0,045
-178,256	-200,000	0,002	-0,007
-177,242	71,536	0,166	0,123
-176,227	50,293	-0,043	0,029
-175,212	-48,357	-0,055	0,019
-174,198	61,122	0,065	-0,046
-173,183	-159,269	0,200	0,008
-172,169	55,042	0,036	-0,025
-171,154	-200,000	-0,018	-0,117
-170,139	12,011	0,101	0,055
-169,125	800,000	0,069	0,165
-168,110	-48,171	-0,059	0,020
-167,096	-31,718	0,017	0,007
-166,081	800,000	0,046	0,125
-165,066	-141,145	-0,045	0,003
-164,052	-200,000	0,006	-0,039
-163,037	152,165	0,032	0,031
-162,023	-200,000	-0,010	-0,058
-161,008	32,534	0,042	-0,026
-159,993	800,000	-0,019	0,046
-158,979	-200,000	0,024	-0,086
-157,964	133,897	-0,037	-0,034
-156,950	-111,721	-0,089	-0,013
-155,935	800,000	0,056	0,133
-154,920	15,297	-0,109	0,061
-153,906	-200,000	0,004	0,074
-152,891	-66,682	0,092	0,026
-151,877	296,712	-0,085	0,111
-150,862	-167,507	-0,033	0,001
-149,847	196,457	-0,012	-0,013
-148,833	18,095	0,096	-0,054
-147,818	-56,141	0,069	-0,022
-146,804	342,184	0,097	0,135
-145,789	38,333	-0,012	0,008
-144,775	-200,000	-0,015	0,070
-143,760	-200,000	0,036	-0,161
-142,745	92,631	0,033	0,027
-141,731	343,121	-0,052	0,073
-140,716	-11,571	0,064	0,030
-139,702	-200,000	-0,022	0,098
-138,687	-82,753	0,093	0,021
-137,672	289,897	-0,038	-0,049
-136,658	-200,000	-0,002	-0,038
-135,643	-38,296	-0,096	-0,036
-134,629	-200,000	-0,003	0,077
-133,614	37,664	0,038	0,024
-132,599	562,011	-0,011	-0,019
-131,585	-200,000	0,007	-0,131
-130,570	-200,000	-0,006	-0,026
-129,556	-113,997	-0,126	0,017
-128,541	-134,113	0,161	-0,014
-127,526	-69,923	-0,044	-0,012
-126,512	12,721	0,105	-0,057
-125,497	53,796	0,148	-0,101
-124,483	-108,462	-0,132	-0,020
-123,468	189,548	-0,126	-0,134
-122,453	87,356	0,018	-0,014
-121,439	162,809	-0,062	-0,062
-120,424	111,299	-0,076	-0,065
-119,410	-83,964	0,083	0,019
