DTS Sentinel unit serial number:	SN410029Multiplexer serial number:	ORYXHardware model number:	OX2-SRSoftware version number:	ORYX F/W v4,00 Oryx Data Collector v3.7.2.0data status	okinstallation	BH3 CH2differential loss correction	single-endedforward channel	channel 2reverse channel	N/Adate	2023/12/06time	07:12:28forward acquisition time	300,00reverse acquisition time	0,00gamma	499,1914k internal	0,3197k external	0,3197temperature offset calibration	1,0000default loss term (dB/km)	0,3820temperature slope calibration	1,0000multiplexer offset coefficient	1,0000multiplexer slope coefficient	1,0000fibre end	0,00T internal ref (°C)	8,83T ext. ref 1 (°C)	-5,86T ext. ref 2 (°C)	-5,97length (m)	temperature (°C)	Stokes	anti-Stokes-744,400	50,511	-0,097	-0,067
-743,385	-60,476	-0,200	0,062
-742,371	-24,901	0,121	-0,052
-741,356	241,189	-0,176	0,214
-740,342	-200,000	0,031	0,159
-739,327	122,183	-0,213	0,194
-738,312	-4,374	-0,140	-0,070
-737,298	-107,240	-0,189	-0,030
-736,283	678,739	-0,045	-0,086
-735,269	761,836	-0,093	0,185
-734,254	50,083	0,041	-0,028
-733,239	-150,129	-0,399	-0,022
-732,225	-46,583	0,115	-0,041
-731,210	-200,000	0,038	0,140
-730,196	-200,000	0,018	0,061
-729,181	800,000	-0,037	-0,096
-728,167	445,889	0,026	-0,042
-727,152	207,093	0,067	0,077
-726,137	-56,639	0,105	-0,034
-725,123	800,000	-0,032	-0,101
-724,108	102,664	-0,019	-0,016
-723,094	-200,000	0,002	-0,105
-722,079	-105,625	-0,127	0,021
-721,064	-200,000	-0,012	-0,072
-720,050	-42,610	0,131	-0,048
-719,035	363,682	-0,087	0,128
-718,021	-159,297	-0,093	0,004
-717,006	262,672	-0,060	-0,076
-715,991	495,372	-0,066	-0,111
-714,977	800,000	0,037	-0,078
-713,962	-196,188	-0,097	-0,000
-712,948	800,000	0,078	0,215
-711,933	26,218	-0,057	0,034
-710,918	-2,063	0,097	0,049
-709,904	233,812	-0,070	-0,084
-708,889	56,000	-0,065	-0,046
-707,875	131,050	-0,050	0,046
-706,860	-75,609	-0,115	0,030
-705,845	800,000	-0,027	0,060
-704,831	371,937	-0,039	-0,057
-703,816	-127,352	0,049	-0,005
-702,802	-95,110	-0,018	0,003
-701,787	95,139	-0,070	-0,058
-700,772	-200,000	0,004	0,084
-699,758	226,769	0,102	-0,121
-698,743	-200,000	0,008	-0,026
-697,729	70,428	0,096	-0,072
-696,714	163,787	-0,082	0,084
-695,699	17,161	-0,063	-0,036
-694,685	124,942	-0,094	0,086
-693,670	-21,754	0,123	-0,054
-692,656	-134,003	-0,070	-0,006
-691,641	110,701	0,016	0,014
-690,627	-28,684	0,092	0,038
-689,612	-64,525	0,037	-0,011
-688,597	800,000	-0,031	0,066
-687,583	-104,920	-0,082	0,014
-686,568	538,587	-0,040	0,070
-685,554	-200,000	0,040	-0,163
-684,539	-200,000	-0,000	-0,055
-683,524	-133,518	0,063	-0,006
-682,510	70,688	0,074	-0,055
-681,495	-200,000	-0,025	0,123
-680,481	107,744	0,038	0,032
-679,466	517,306	0,039	0,066
-678,451	-200,000	-0,012	0,115
-677,437	-117,150	-0,075	-0,010
-676,422	-200,000	-0,015	0,158
-675,408	561,448	0,104	0,184
-674,393	-200,000	-0,019	-0,064
-673,378	-129,705	-0,169	0,017
-672,364	369,007	-0,047	-0,069
-671,349	800,000	-0,056	-0,137
-670,335	-200,000	0,003	0,120
-669,320	-200,000	0,011	0,167
-668,305	245,124	0,143	0,175
-667,291	800,000	-0,094	0,206
-666,276	800,000	-0,040	0,087
-665,262	800,000	-0,050	-0,102
-664,247	797,127	-0,047	0,094
-663,232	800,000	0,034	-0,084
-662,218	148,146	0,125	0,122
-661,203	-83,899	-0,078	0,018
-660,189	120,041	-0,062	0,056
-659,174	80,897	-0,064	0,050
-658,159	300,031	-0,028	-0,037
-657,145	-106,844	-0,148	-0,024
-656,130	-117,252	0,085	-0,011
-655,116	57,479	0,062	-0,044
-654,101	-200,000	-0,000	0,129
-653,086	44,604	0,058	0,038
-652,072	289,531	0,054	-0,072
-651,057	-59,373	-0,146	-0,045
-650,043	-199,464	-0,041	-0,000
-649,028	-115,216	-0,105	0,014
-648,014	-193,025	0,075	-0,000
-646,999	-70,844	0,078	-0,021
-645,984	-58,052	-0,174	0,055
-644,970	-200,000	-0,050	-0,188
-643,955	-45,928	-0,115	0,041
-642,941	64,065	-0,034	0,025
-641,926	472,476	0,021	0,035
-640,911	135,882	-0,058	-0,055
-639,897	248,926	-0,050	0,061
-638,882	-200,000	0,018	0,061
-637,868	751,533	0,022	-0,043
-636,853	-23,870	0,058	-0,025
-635,838	-64,348	-0,134	-0,039
-634,824	-172,991	-0,051	-0,001
-633,809	722,546	0,070	0,136
-632,795	-200,000	-0,014	-0,063
-631,780	-200,000	-0,015	0,120
-630,765	-105,680	-0,076	-0,012
-629,751	-200,000	0,000	-0,018
-628,736	-141,285	0,035	-0,003
-627,722	800,000	0,044	-0,110
-626,707	70,243	0,105	0,078
-625,692	-200,000	-0,013	0,093
-624,678	200,530	0,067	0,075
-623,663	800,000	-0,042	-0,098
-622,649	154,817	-0,159	-0,159
-621,634	739,105	0,056	-0,109
-620,619	-200,000	-0,026	-0,190
-619,605	-200,000	-0,012	0,055
-618,590	-60,868	0,108	0,033
-617,576	-200,000	-0,007	0,123
-616,561	-73,346	0,079	0,021
-615,546	800,000	-0,045	-0,142
-614,532	14,079	-0,100	-0,056
-613,517	-122,709	-0,078	0,009
-612,503	-200,000	-0,003	0,035
-611,488	-127,495	-0,101	-0,011
-610,474	-13,700	0,141	0,066
-609,459	-29,566	0,012	0,005
-608,444	518,308	-0,022	0,037
-607,430	-99,887	0,138	-0,025
-606,415	-200,000	-0,003	-0,038
-605,401	339,563	-0,080	-0,114
-604,386	800,000	-0,006	-0,014
-603,371	155,918	0,109	0,109
-602,357	-76,689	0,076	-0,019
-601,342	385,677	0,038	-0,057
-600,328	43,259	-0,023	0,015
-599,313	-10,918	-0,077	0,036
-598,298	800,000	0,034	0,104
-597,284	-200,000	0,010	0,102
-596,269	3,595	0,098	0,052
-595,255	-9,060	-0,171	0,083
-594,240	-137,068	-0,055	0,004
-593,225	-200,000	0,005	-0,038
-592,211	223,140	-0,149	-0,174
-591,196	800,000	0,047	0,144
-590,182	216,463	0,075	0,086
-589,167	124,060	0,029	0,026
-588,152	-69,366	-0,016	-0,004
-587,138	582,875	-0,014	-0,025
-586,123	71,646	0,051	0,039
-585,109	-151,796	-0,076	0,004
-584,094	-36,520	0,143	0,055
-583,079	2,984	-0,040	0,021
-582,065	27,068	0,085	-0,051
-581,050	-200,000	-0,000	-0,039
-580,036	-122,023	0,159	-0,019
-579,021	-200,000	-0,036	-0,157
-578,006	-200,000	-0,043	-0,216
-576,992	-134,012	-0,142	0,013
-575,977	800,000	0,038	0,113
-574,963	-200,000	0,027	0,170
-573,948	-200,000	-0,010	-0,051
-572,934	93,171	0,105	-0,086
-571,919	-27,403	-0,161	-0,067
-570,904	437,009	-0,044	-0,070
-569,890	354,145	0,120	-0,173
-568,875	800,000	0,038	0,084
-567,861	202,968	0,136	0,153
-566,846	-200,000	0,060	0,000
-565,831	140,409	-0,102	-0,098
-564,817	800,000	-0,023	-0,056
-563,802	217,257	-0,040	-0,046
-562,788	116,982	0,058	-0,052
-561,773	800,000	0,021	0,057
-560,758	145,584	0,031	0,030
-559,744	184,738	0,070	0,075
-558,729	-61,298	0,036	0,011
-557,715	230,363	-0,128	-0,152
-556,700	-161,924	-0,074	0,003
-555,685	-200,000	-0,003	-0,179
-554,671	98,475	0,145	-0,121
-553,656	-200,000	-0,001	0,130
-552,642	283,140	0,043	-0,056
-551,627	105,985	-0,079	0,068
-550,612	114,018	0,058	-0,051
-549,598	-200,000	-0,023	-0,254
-548,583	-1,026	-0,119	-0,061
-547,569	-47,857	0,210	0,073
-546,554	295,829	0,024	0,032
-545,539	-3,628	0,068	-0,034
-544,525	34,793	-0,113	0,072
-543,510	16,904	0,026	-0,015
-542,496	16,015	0,092	-0,052
-541,481	-200,000	0,008	-0,130
-540,466	800,000	0,028	-0,079
-539,452	102,424	0,056	0,048
-538,437	633,046	-0,069	-0,128
-537,423	-200,000	-0,000	0,061
-536,408	-42,445	-0,058	0,021
-535,393	-136,901	-0,036	-0,003
-534,379	535,243	0,064	-0,110
-533,364	87,491	-0,110	-0,088
-532,350	-123,083	0,126	-0,014
-531,335	-200,000	0,002	0,041
-530,321	-200,000	-0,001	0,053
-529,306	118,627	-0,051	0,046
-528,291	800,000	0,014	0,035
-527,277	54,214	-0,090	-0,062
-526,262	359,569	0,055	0,080
-525,248	-200,000	-0,014	0,122
-524,233	-16,638	0,060	0,027
-523,218	-66,837	0,060	-0,017
-522,204	-57,899	0,037	-0,012
-521,189	-175,167	-0,124	-0,002
-520,175	800,000	-0,059	-0,122
-519,160	-200,000	-0,039	-0,169
-518,145	108,935	0,013	0,012
-517,131	-17,038	0,132	0,060
-516,116	225,656	0,018	-0,021
-515,102	290,274	-0,098	-0,129
-514,087	-200,000	0,011	-0,174
-513,072	0,802	-0,114	0,059
-512,058	-200,000	-0,031	-0,138
-511,043	800,000	0,026	-0,056
-510,029	195,645	0,121	0,132
-509,014	2,364	-0,097	-0,050
-507,999	480,683	0,053	-0,086
-506,985	217,285	-0,090	0,103
-505,970	2,956	0,071	0,037
-504,956	-200,000	0,007	0,074
-503,941	302,043	-0,095	0,127
-502,926	800,000	-0,033	0,090
-501,912	800,000	-0,041	0,124
-500,897	-200,000	-0,006	0,082
-499,883	-36,167	-0,055	0,021
-498,868	-200,000	-0,042	-0,188
-497,853	-71,145	0,057	-0,015
-496,839	800,000	0,029	-0,088
-495,824	-92,462	-0,054	-0,011
-494,810	-78,239	0,168	0,041
-493,795	304,700	-0,076	0,102
-492,781	-89,789	0,073	0,015
-491,766	57,244	-0,116	-0,081
-490,751	-86,687	0,071	0,016
-489,737	-156,592	0,126	-0,006
-488,722	167,867	0,072	0,074
-487,708	181,699	-0,043	-0,046
-486,693	249,829	0,056	-0,068
-485,678	549,649	-0,044	0,077
-484,664	674,284	-0,018	-0,033
-483,649	316,350	-0,051	-0,069
-482,635	139,692	0,124	0,118
-481,620	-200,000	-0,037	0,148
-480,605	-109,738	0,253	0,038
-479,591	423,980	0,030	0,047
-478,576	324,193	-0,108	0,149
-477,562	800,000	-0,026	0,064
-476,547	-13,127	-0,042	-0,020
-475,532	-103,161	-0,016	-0,003
-474,518	59,227	-0,076	0,054
-473,503	-200,000	-0,008	-0,048
-472,489	-88,137	-0,070	-0,015
-471,474	509,403	-0,018	0,031
-470,459	-200,000	-0,016	-0,075
-469,445	800,000	-0,041	-0,122
-468,430	245,891	-0,087	-0,105
-467,416	218,534	-0,058	0,067
-466,401	-200,000	-0,008	0,061
-465,386	-111,422	0,145	-0,021
-464,372	-200,000	0,017	0,064
-463,357	77,226	0,102	-0,078
-462,343	104,233	-0,068	-0,057
-461,328	-83,830	0,067	0,015
-460,313	-200,000	-0,008	-0,034
-459,299	298,523	0,033	-0,044
-458,284	788,344	0,036	0,071
-457,270	-23,129	0,060	0,026
-456,255	-200,000	0,018	-0,148
-455,241	112,312	-0,084	-0,074
-454,226	-95,148	-0,109	0,021
-453,211	53,542	-0,078	0,054
-452,197	800,000	-0,054	0,134
-451,182	-200,000	0,006	-0,044
-450,168	-72,515	0,116	0,031
-449,153	-13,042	0,074	0,035
-448,138	52,757	-0,096	0,066
-447,124	-200,000	0,026	-0,144
-446,109	133,847	0,092	-0,086
-445,095	164,224	-0,058	0,059
-444,080	114,239	0,016	-0,014
-443,065	-50,914	-0,041	0,014
-442,051	253,620	-0,020	-0,025
-441,036	-67,248	0,024	0,007
-440,022	-200,000	0,003	0,021
-439,007	-200,000	-0,017	-0,087
-437,992	-200,000	-0,009	-0,028
-436,978	190,900	0,071	-0,077
-435,963	-200,000	0,034	0,108
-434,949	-105,965	-0,031	0,005
-433,934	-200,000	0,002	-0,094
-432,919	800,000	0,025	-0,052
-431,905	-98,701	-0,152	-0,028
-430,890	613,113	0,064	-0,116
-429,876	686,229	-0,064	0,121
-428,861	-111,293	0,243	0,035
-427,846	12,478	-0,044	0,024
-426,832	532,187	-0,064	-0,109
-425,817	24,647	0,048	-0,028
-424,803	-94,070	0,109	-0,021
-423,788	800,000	0,072	-0,165
-422,773	138,831	-0,059	0,056
-421,759	-199,707	-0,171	0,001
-420,744	211,942	0,023	-0,026
-419,730	277,293	0,036	0,046
-418,715	-66,794	-0,063	0,018
-417,701	453,543	-0,025	0,040
-416,686	123,475	0,063	0,056
-415,671	-200,000	-0,011	0,040
-414,657	-200,000	-0,030	-0,114
-413,642	326,986	0,027	-0,037
-412,628	-28,792	-0,065	0,027
-411,613	800,000	0,035	-0,109
-410,598	35,620	0,093	-0,058
-409,584	30,148	0,059	-0,036
-408,569	241,118	-0,039	0,047
-407,555	147,264	0,153	0,148
-406,540	66,920	-0,045	0,033
-405,525	723,700	-0,081	-0,156
-404,511	-200,000	-0,025	-0,105
-403,496	-72,549	0,027	-0,007
-402,482	-87,560	0,087	-0,019
-401,467	-93,011	-0,030	0,006
-400,452	800,000	0,046	0,138
-399,438	149,834	0,125	0,122
-398,423	33,168	-0,115	-0,071
-397,409	315,417	-0,043	-0,059
-396,394	-133,651	-0,118	-0,010
-395,379	34,759	0,068	0,043
-394,365	43,390	0,123	-0,080
-393,350	87,820	-0,055	0,043
-392,336	-200,000	0,019	0,111
-391,321	-84,152	-0,118	-0,027
-390,306	-200,000	0,006	0,027
-389,292	519,152	0,080	-0,135
-388,277	800,000	-0,012	0,029
-387,263	99,854	0,063	-0,052
-386,248	-195,444	0,055	0,000
-385,233	-200,000	0,004	0,108
-384,219	-154,585	-0,093	-0,004
-383,204	800,000	-0,049	-0,099
-382,190	-69,892	-0,126	0,034
-381,175	-200,000	-0,025	-0,094
-380,160	51,526	0,099	-0,067
-379,146	800,000	-0,008	-0,020
-378,131	-200,000	-0,017	0,140
-377,117	-54,298	0,157	0,051
-376,102	94,911	-0,138	0,113
-375,088	-200,000	0,006	-0,038
-374,073	-112,462	-0,132	-0,019
-373,058	38,990	-0,143	-0,092
-372,044	176,410	0,030	0,031
-371,029	-200,000	-0,016	0,174
-370,015	-158,864	0,135	-0,005
-369,000	-155,021	-0,125	-0,006
-367,985	273,532	-0,034	-0,043
-366,971	-200,000	0,006	0,027
-365,956	57,104	-0,127	-0,088
-364,942	-200,000	-0,013	0,086
-363,927	79,633	-0,128	0,098
-362,912	-200,000	-0,002	0,013
-361,898	-200,000	-0,014	-0,100
-360,883	467,030	-0,071	-0,115
-359,869	-10,109	-0,104	0,049
-358,854	-89,980	0,183	-0,038
-357,839	-104,960	-0,150	-0,024
-356,825	84,463	0,075	-0,059
-355,810	-200,000	-0,107	-0,000
-354,796	211,798	-0,088	0,100
-353,781	800,000	-0,009	-0,029
-352,766	599,181	-0,033	-0,059
-351,752	122,913	0,106	0,095
-350,737	5,086	-0,097	-0,051
-349,723	84,909	0,056	0,044
-348,708	-200,000	0,036	0,175
-347,693	-139,631	0,084	-0,006
-346,679	141,725	-0,110	-0,105
-345,664	-171,062	0,111	-0,003
-344,650	-49,126	0,076	-0,026
-343,635	748,270	0,049	0,095
-342,620	-200,000	0,008	0,148
-341,606	-200,000	0,022	-0,076
-340,591	176,791	-0,073	-0,076
-339,577	-200,000	-0,019	0,063
-338,562	-200,000	-0,001	-0,037
-337,548	-200,000	-0,046	0,180
-336,533	-11,884	0,179	0,084
-335,518	48,558	0,159	-0,107
-334,504	376,785	-0,056	0,081
-333,489	-200,000	0,011	-0,050
-332,475	78,102	-0,080	-0,061
-331,460	279,975	-0,059	-0,076
-330,445	-11,294	0,063	0,030
-329,431	2,108	0,073	0,038
-328,416	213,441	-0,079	0,090
-327,402	119,457	0,058	-0,052
-326,387	21,130	-0,033	0,019
-325,372	287,953	-0,027	-0,036
-324,358	-90,069	-0,154	0,032
-323,343	161,593	-0,101	0,102
-322,329	800,000	-0,030	0,095
-321,314	60,327	0,151	0,107
-320,299	637,159	0,077	0,141
-319,285	-200,000	0,015	-0,055
-318,270	2,069	-0,042	0,022
-317,256	292,666	-0,068	0,088
-316,241	-200,000	-0,020	-0,093
-315,226	-200,000	0,007	0,032
-314,212	70,702	0,086	0,064
-313,197	-200,000	-0,015	-0,127
-312,183	211,853	-0,009	-0,010
-311,168	-145,448	-0,125	0,008
-310,153	800,000	0,044	0,095
-309,139	417,770	-0,066	0,101
-308,124	543,023	0,052	-0,089
-307,110	-200,000	-0,012	0,044
-306,095	439,797	0,058	0,091
-305,080	800,000	-0,045	-0,107
-304,066	-64,853	0,098	-0,028
-303,051	-200,000	-0,015	0,090
-302,037	574,946	-0,046	-0,080
-301,022	-200,000	-0,007	-0,095
-300,008	276,602	-0,134	0,171
-298,993	-200,000	-0,003	0,064
-297,978	94,549	-0,145	0,118
-296,964	-200,000	0,026	-0,087
-295,949	-200,000	0,007	0,053
-294,935	39,341	-0,025	0,016
-293,920	-56,715	0,153	0,048
-292,905	-37,379	-0,098	0,037
-291,891	45,970	-0,008	0,005
-290,876	-7,903	0,051	-0,024
-289,862	0,338	-0,075	-0,038
-288,847	80,935	-0,095	-0,073
-287,832	290,333	-0,012	-0,015
-286,818	193,131	-0,042	-0,045
-285,803	-41,209	-0,097	-0,036
-284,789	-50,661	0,071	0,024
-283,774	380,173	0,051	-0,074
-282,759	259,243	0,047	0,058
-281,745	-134,924	-0,097	0,008
-280,730	-130,952	0,131	0,012
-279,716	800,000	0,056	0,124
-278,701	228,612	-0,099	-0,115
-277,686	306,344	0,077	0,103
-276,672	146,065	0,153	0,147
-275,657	-11,421	-0,084	0,040
-274,643	29,520	-0,069	-0,042
-273,628	33,461	0,015	0,010
-272,613	-128,492	0,039	-0,004
-271,599	298,873	0,098	0,129
-270,584	800,000	-0,031	0,062
-269,570	-175,947	0,119	-0,002
-268,555	-138,003	-0,079	0,006
-267,540	-200,000	-0,010	-0,057
-266,526	-66,472	0,106	0,030
-265,511	335,400	-0,048	-0,067
-264,497	175,872	-0,046	0,047
-263,482	-183,207	0,164	0,002
-262,467	0,746	-0,107	0,054
-261,453	-0,368	-0,072	0,036
-260,438	-200,000	-0,024	-0,101
-259,424	-100,945	-0,051	-0,009
-258,409	510,459	-0,045	0,075
-257,395	-200,000	0,035	0,123
-256,380	46,306	-0,074	0,049
-255,365	1,869	0,084	0,043
-254,351	-200,000	0,006	-0,146
-253,336	280,685	0,035	-0,045
-252,322	137,090	-0,067	0,063
-251,307	-31,219	0,129	-0,052
-250,292	54,301	0,138	0,094
-249,278	800,000	0,025	-0,049
-248,263	163,035	0,028	0,028
-247,249	-43,227	0,081	-0,029
-246,234	-200,000	0,021	-0,108
-245,219	234,929	-0,055	-0,065
-244,205	34,232	-0,073	0,045
-243,190	349,325	0,094	-0,133
-242,176	-12,210	0,157	0,073
-241,161	-200,000	0,005	-0,064
-240,146	800,000	-0,014	0,035
-239,132	-30,191	-0,119	0,048
-238,117	158,034	0,058	-0,058
-237,103	-200,000	0,018	-0,086
-236,088	-200,000	0,015	0,211
-235,073	-200,000	-0,068	0,214
-234,059	-200,000	-0,006	-0,076
-233,044	179,240	-0,035	0,036
-232,030	11,918	0,057	0,031
-231,015	160,019	0,135	-0,135
-230,000	-200,000	-0,005	0,040
-228,986	-200,000	-0,027	0,120
-227,971	-200,000	0,023	-0,111
-226,957	115,562	-0,049	0,043
-225,942	466,332	0,029	0,047
-224,927	-76,953	-0,080	0,020
-223,913	64,284	0,033	-0,023
-222,898	-16,855	-0,177	-0,080
-221,884	454,767	0,085	-0,134
-220,869	245,891	0,057	-0,069
-219,855	57,961	0,043	-0,030
-218,840	-200,000	-0,001	-0,027
-217,825	47,292	0,036	0,024
-216,811	194,438	-0,068	0,074
-215,796	800,000	0,033	-0,094
-214,782	-87,154	0,051	-0,011
-213,767	-29,101	0,145	0,059
-212,752	800,000	0,034	-0,088
-211,738	-39,429	-0,089	-0,033
-210,723	685,093	-0,031	-0,057
-209,709	-200,000	-0,093	0,000
-208,694	-200,000	-0,002	0,029
-207,679	74,777	-0,039	0,029
-206,665	-200,000	-0,017	-0,084
-205,650	46,261	-0,042	0,028
-204,636	42,716	0,030	0,019
-203,621	800,000	0,031	0,079
-202,606	-200,000	0,017	0,058
-201,592	357,089	0,097	-0,138
-200,577	-200,000	0,010	-0,042
-199,563	278,737	-0,087	-0,110
-198,548	651,900	0,064	0,117
-197,533	-76,145	-0,099	-0,025
-196,519	451,373	0,047	-0,074
-195,504	93,347	-0,106	-0,085
-194,490	-135,235	-0,220	0,019
-193,475	-200,000	0,004	-0,033
-192,460	-200,000	-0,004	0,097
-191,446	-64,074	0,087	-0,025
-190,431	773,899	-0,043	0,084
-189,417	118,262	-0,084	0,074
-188,402	-200,000	0,017	0,125
-187,387	-200,000	0,013	-0,051
-186,373	12,312	-0,056	-0,030
-185,358	-200,000	0,015	-0,093
-184,344	-200,000	0,015	-0,173
-183,329	-10,126	0,145	0,068
-182,315	192,931	0,019	0,020
-181,300	202,163	-0,037	0,040
-180,285	-137,087	-0,108	-0,009
-179,271	643,705	-0,040	-0,073
-178,256	-200,000	-0,015	-0,060
-177,242	-53,855	0,087	-0,028
-176,227	-200,000	-0,004	0,234
-175,212	133,542	-0,033	0,030
-174,198	45,144	0,041	-0,027
-173,183	-200,000	0,006	-0,045
-172,169	11,324	-0,086	0,047
-171,154	-119,493	0,126	-0,015
-170,139	800,000	0,025	-0,051
-169,125	8,016	-0,061	0,032
-168,110	91,681	0,087	0,070
-167,096	172,562	-0,021	0,022
-166,081	-200,000	0,024	-0,099
-165,066	-149,292	-0,086	0,005
-164,052	-2,470	0,079	-0,039
-163,037	221,280	0,115	0,131
-162,023	27,892	0,049	0,029
-161,008	417,197	0,038	0,058
-159,993	-176,965	-0,107	-0,002
-158,979	-200,000	0,006	0,063
-157,964	84,009	-0,069	0,054
-156,950	724,767	0,046	0,088
-155,935	-156,929	0,155	0,007
-154,920	-64,792	0,118	0,034
-153,906	34,378	-0,026	-0,016
-152,891	94,020	-0,035	0,028
-151,877	-36,755	0,144	-0,055
-150,862	-200,000	0,003	0,025
-149,847	133,984	0,034	0,031
-148,833	50,327	0,098	0,066
-147,818	430,658	0,041	-0,064
-146,804	39,657	-0,059	-0,038
-145,789	-120,830	-0,091	-0,011
-144,775	-39,929	-0,088	-0,032
-143,760	696,929	0,045	-0,085
-142,745	87,959	0,054	-0,042
-141,731	173,807	0,041	0,042
-140,716	-52,977	0,173	-0,056
-139,702	-200,000	-0,009	0,212
-138,687	-81,886	0,032	-0,007
-137,672	298,707	-0,060	0,079
-136,658	553,123	0,013	-0,022
-135,643	-3,658	-0,064	0,031
-134,629	-12,630	-0,072	0,033
-133,614	-85,517	0,140	0,031
-132,599	676,349	-0,086	0,159
-131,585	11,558	0,078	-0,042
-130,570	-134,586	-0,086	-0,007
-129,556	167,288	0,085	-0,086
-128,541	800,000	-0,022	-0,055
-127,526	624,430	-0,041	0,074
-126,512	67,758	0,146	0,106
-125,497	-200,000	-0,032	0,110
-124,483	800,000	0,057	0,160
-123,468	211,437	-0,017	-0,019
-122,453	-105,372	-0,030	0,005
-121,439	205,617	-0,079	-0,087
-120,424	52,030	0,047	-0,032
-119,410	200,637	-0,043	-0,047
