DTS Sentinel unit serial number:	SN410029Multiplexer serial number:	ORYXHardware model number:	OX2-SRSoftware version number:	ORYX F/W v4,00 Oryx Data Collector v3.7.2.0data status	okinstallation	BH3 CH2differential loss correction	single-endedforward channel	channel 2reverse channel	N/Adate	2023/12/06time	07:37:28forward acquisition time	300,00reverse acquisition time	0,00gamma	499,1914k internal	0,3197k external	0,3197temperature offset calibration	1,0000default loss term (dB/km)	0,3820temperature slope calibration	1,0000multiplexer offset coefficient	1,0000multiplexer slope coefficient	1,0000fibre end	0,00T internal ref (°C)	8,80T ext. ref 1 (°C)	-5,84T ext. ref 2 (°C)	-5,95length (m)	temperature (°C)	Stokes	anti-Stokes-744,400	13,118	0,025	0,014
-743,385	-42,572	-0,260	0,096
-742,371	225,480	0,078	-0,092
-741,356	514,791	-0,100	0,170
-740,342	-135,016	0,112	0,010
-739,327	199,299	-0,226	0,253
-738,312	284,613	-0,074	-0,097
-737,298	-23,700	-0,244	0,106
-736,283	305,982	0,074	-0,100
-735,269	-135,085	-0,293	0,025
-734,254	264,738	-0,014	0,018
-733,239	-129,491	-0,406	-0,040
-732,225	-20,899	0,075	-0,033
-731,210	3,635	-0,018	0,009
-730,196	91,355	-0,187	0,152
-729,181	8,260	-0,183	-0,100
-728,167	268,147	0,006	-0,008
-727,152	90,109	0,023	0,018
-726,137	255,461	-0,046	-0,058
-725,123	270,758	-0,072	-0,093
-724,108	-109,404	-0,070	-0,011
-723,094	-200,000	0,012	-0,054
-722,079	-6,372	-0,170	-0,084
-721,064	800,000	-0,047	0,116
-720,050	146,498	-0,172	-0,168
-719,035	92,276	-0,065	-0,053
-718,021	14,661	-0,076	0,043
-717,006	625,610	-0,045	-0,082
-715,991	-121,370	-0,069	0,008
-714,977	-138,318	-0,029	0,002
-713,962	-126,421	0,029	0,003
-712,948	-33,751	-0,098	0,039
-711,933	-117,324	-0,106	-0,014
-710,918	-176,436	-0,196	0,004
-709,904	196,392	-0,099	0,110
-708,889	800,000	-0,033	-0,084
-707,875	-106,520	-0,029	-0,005
-706,860	-78,254	0,046	-0,011
-705,845	-200,000	0,018	-0,065
-704,831	-15,122	-0,047	0,022
-703,816	-70,947	0,024	-0,007
-702,802	-148,429	-0,058	-0,003
-701,787	150,579	0,012	0,012
-700,772	-200,000	0,005	-0,091
-699,758	-200,000	-0,014	0,128
-698,743	681,723	0,050	0,095
-697,729	-81,812	-0,039	-0,009
-696,714	-131,892	0,020	0,002
-695,699	13,559	0,048	0,027
-694,685	-200,000	-0,029	-0,100
-693,670	-60,163	-0,051	0,016
-692,656	800,000	0,028	-0,086
-691,641	800,000	0,028	0,079
-690,627	-200,000	-0,012	-0,096
-689,612	-200,000	0,028	-0,098
-688,597	796,197	-0,018	-0,037
-687,583	285,003	-0,047	-0,061
-686,568	-200,000	0,003	0,033
-685,554	-117,815	0,099	0,013
-684,539	-129,284	-0,135	-0,013
-683,524	-50,768	-0,072	-0,024
-682,510	2,183	-0,025	-0,013
-681,495	-101,391	0,027	0,005
-680,481	5,887	-0,109	-0,058
-679,466	302,298	0,037	-0,050
-678,451	37,526	-0,047	0,031
-677,437	-120,889	0,116	0,014
-676,422	555,043	-0,060	0,104
-675,408	800,000	-0,042	0,123
-674,393	-200,000	0,023	0,171
-673,378	800,000	-0,029	0,071
-672,364	-30,785	-0,123	-0,050
-671,349	-200,000	-0,004	-0,119
-670,335	-200,000	0,025	0,109
-669,320	800,000	0,076	0,156
-668,305	-200,000	-0,022	0,102
-667,291	99,807	-0,136	0,114
-666,276	299,190	-0,068	-0,091
-665,262	-200,000	-0,005	-0,123
-664,247	-200,000	0,013	-0,044
-663,232	362,978	0,052	0,076
-662,218	-200,000	0,001	-0,060
-661,203	-200,000	0,008	-0,098
-660,189	361,635	-0,068	-0,099
-659,174	95,480	-0,092	-0,076
-658,159	-3,125	-0,093	-0,047
-657,145	-30,623	0,057	-0,023
-656,130	281,744	0,075	-0,098
-655,116	800,000	0,028	0,059
-654,101	-200,000	0,018	0,079
-653,086	296,376	0,027	0,036
-652,072	-200,000	0,026	0,097
-651,057	-200,000	0,012	0,066
-650,043	800,000	0,026	-0,081
-649,028	-93,328	-0,076	0,015
-648,014	-200,000	0,014	0,054
-646,999	-200,000	-0,016	-0,105
-645,984	55,077	0,079	0,055
-644,970	800,000	-0,045	-0,117
-643,955	-200,000	-0,012	-0,086
-642,941	800,000	-0,044	-0,100
-641,926	798,521	0,045	0,090
-640,911	116,071	0,110	0,098
-639,897	71,980	-0,086	0,065
-638,882	-200,000	0,043	-0,161
-637,868	-44,431	-0,039	-0,014
-636,853	-200,000	0,002	-0,080
-635,838	-200,000	-0,015	-0,081
-634,824	-154,124	0,108	-0,005
-633,809	269,056	0,035	-0,045
-632,795	-200,000	0,013	0,065
-631,780	-200,000	-0,016	0,082
-630,765	91,593	-0,028	-0,023
-629,751	-19,965	-0,076	-0,034
-628,736	-42,043	-0,077	0,029
-627,722	424,939	-0,108	-0,169
-626,707	-137,695	0,154	0,012
-625,692	-14,428	0,021	0,010
-624,678	-200,000	0,019	0,146
-623,663	778,250	-0,012	0,025
-622,649	800,000	0,036	0,106
-621,634	-200,000	0,008	-0,179
-620,619	-12,454	0,021	-0,010
-619,605	388,328	-0,027	0,040
-618,590	618,751	0,039	-0,072
-617,576	800,000	-0,009	0,028
-616,561	374,544	0,060	-0,089
-615,546	376,665	0,027	-0,040
-614,532	-101,599	-0,151	-0,026
-613,517	238,276	0,076	0,091
-612,503	800,000	-0,044	-0,112
-611,488	800,000	0,017	0,049
-610,474	-200,000	0,006	0,078
-609,459	800,000	-0,036	0,086
-608,444	-100,358	-0,056	-0,010
-607,430	221,324	0,024	-0,028
-606,415	82,203	-0,076	0,060
-605,401	389,314	0,094	0,141
-604,386	-164,550	0,155	-0,005
-603,371	462,420	-0,018	0,029
-602,357	-200,000	0,024	0,120
-601,342	-200,000	0,000	0,050
-600,328	-42,992	-0,125	-0,045
-599,313	-125,085	-0,061	-0,007
-598,298	-195,875	-0,079	0,000
-597,284	647,430	0,025	-0,047
-596,269	80,692	0,084	0,066
-595,255	-200,000	-0,013	0,140
-594,240	800,000	-0,047	0,101
-593,225	-42,643	-0,172	-0,063
-592,211	127,266	0,139	-0,128
-591,196	-200,000	-0,012	-0,158
-590,182	39,898	-0,080	-0,052
-589,167	800,000	-0,069	0,158
-588,152	227,950	0,041	0,048
-587,138	230,282	-0,029	0,034
-586,123	239,891	-0,032	0,038
-585,109	162,713	-0,021	0,021
-584,094	67,373	0,022	0,016
-583,079	-11,007	0,051	0,024
-582,065	-97,904	-0,082	0,015
-581,050	800,000	0,007	-0,018
-580,036	-142,966	-0,051	0,004
-579,021	-200,000	0,016	-0,056
-578,006	374,570	-0,072	-0,106
-576,992	128,858	-0,042	-0,038
-575,977	-200,000	-0,006	0,022
-574,963	-200,000	-0,005	0,037
-573,948	265,209	-0,026	-0,033
-572,934	-56,077	0,119	-0,038
-571,919	-138,039	-0,053	0,004
-570,904	282,025	0,001	-0,002
-569,890	-200,000	-0,010	-0,120
-568,875	-126,302	0,089	-0,009
-567,861	698,123	0,027	0,051
-566,846	-55,793	0,104	0,034
-565,831	-94,742	-0,005	-0,001
-564,817	251,113	-0,052	0,064
-563,802	-200,000	-0,022	-0,126
-562,788	-35,561	0,070	0,027
-561,773	800,000	-0,070	0,155
-560,758	-114,020	0,123	0,017
-559,744	186,967	0,053	0,057
-558,729	-88,704	-0,147	0,031
-557,715	152,524	0,030	0,029
-556,700	-200,000	0,011	-0,235
-555,685	139,403	-0,148	0,141
-554,671	97,892	0,111	0,093
-553,656	800,000	0,013	-0,038
-552,642	-105,614	0,178	0,029
-551,627	1,130	0,056	-0,029
-550,612	113,184	0,094	-0,082
-549,598	-1,910	-0,113	-0,057
-548,583	652,659	-0,080	-0,149
-547,569	248,278	-0,044	0,054
-546,554	103,285	0,129	-0,110
-545,539	800,000	0,015	-0,034
-544,525	-105,454	0,064	-0,010
-543,510	-200,000	0,050	0,169
-542,496	26,223	-0,071	0,043
-541,481	398,195	-0,067	0,101
-540,466	98,327	0,142	0,118
-539,452	64,133	-0,023	0,017
-538,437	138,527	0,061	-0,058
-537,423	-170,546	0,054	-0,001
-536,408	104,363	-0,014	0,011
-535,393	-10,169	-0,057	-0,027
-534,379	-200,000	0,014	0,054
-533,364	137,998	-0,050	0,047
-532,350	-38,090	0,066	0,025
-531,335	-66,385	0,036	0,010
-530,321	489,464	-0,044	0,073
-529,306	-48,932	0,101	-0,035
-528,291	-41,209	0,163	0,061
-527,277	-200,000	-0,005	-0,110
-526,262	98,501	0,077	-0,064
-525,248	800,000	-0,051	-0,123
-524,233	-42,148	0,111	-0,041
-523,218	-6,673	0,118	0,058
-522,204	46,623	0,031	0,021
-521,189	346,782	-0,069	-0,098
-520,175	-96,710	-0,066	0,012
-519,160	-200,000	-0,001	-0,091
-518,145	-56,562	-0,075	0,024
-517,131	-130,633	-0,033	0,003
-516,116	-89,379	-0,100	-0,021
-515,102	164,497	-0,096	-0,097
-514,087	-14,495	-0,016	-0,008
-513,072	210,984	-0,095	-0,107
-512,058	-35,593	0,068	-0,027
-511,043	800,000	-0,044	-0,101
-510,029	126,506	0,034	-0,031
-509,014	133,096	-0,028	-0,026
-507,999	32,900	-0,127	0,079
-506,985	8,754	-0,084	-0,046
-505,970	-56,744	-0,084	-0,027
-504,956	23,293	0,105	-0,062
-503,941	222,427	0,005	0,006
-502,926	287,134	0,069	0,090
-501,912	250,803	0,086	0,106
-500,897	-160,153	-0,009	-0,000
-499,883	-65,949	-0,084	0,024
-498,868	262,477	0,004	-0,004
-497,853	-40,501	-0,032	0,012
-496,839	800,000	0,032	-0,078
-495,824	275,917	0,061	0,078
-494,810	498,466	-0,058	0,097
-493,795	-47,927	0,060	0,021
-492,781	-40,697	-0,089	-0,033
-491,766	800,000	0,020	0,055
-490,751	800,000	0,029	-0,065
-489,737	800,000	-0,003	-0,008
-488,722	375,649	0,037	-0,054
-487,708	222,900	-0,034	-0,040
-486,693	1,886	0,031	0,016
-485,678	-200,000	-0,001	-0,042
-484,664	416,637	-0,070	-0,109
-483,649	274,947	0,083	-0,107
-482,635	76,530	0,126	-0,096
-481,620	-42,054	-0,078	-0,029
-480,605	-200,000	0,018	0,168
-479,591	-200,000	0,022	-0,085
-478,576	-7,647	-0,132	0,064
-477,562	207,558	0,026	0,030
-476,547	-46,066	-0,098	0,035
-475,532	600,399	0,055	-0,099
-474,518	800,000	-0,067	-0,201
-473,503	-158,262	0,072	-0,003
-472,489	-116,440	0,187	-0,025
-471,474	-97,124	-0,195	-0,036
-470,459	800,000	-0,024	-0,063
-469,445	-200,000	-0,049	-0,194
-468,430	-74,981	-0,125	0,032
-467,416	800,000	0,025	0,067
-466,401	800,000	0,003	0,008
-465,386	379,790	-0,094	0,139
-464,372	-114,730	-0,093	-0,013
-463,357	433,261	-0,048	0,075
-462,343	6,572	-0,198	-0,106
-461,328	-200,000	-0,008	-0,074
-460,313	-130,174	-0,139	-0,013
-459,299	418,713	-0,068	0,105
-458,284	772,031	0,040	0,078
-457,270	603,481	-0,040	-0,073
-456,255	800,000	-0,055	0,159
-455,241	-110,631	-0,208	-0,031
-454,226	69,371	0,034	-0,025
-453,211	16,621	-0,027	-0,015
-452,197	93,023	0,180	0,146
-451,182	-200,000	-0,014	-0,095
-450,168	487,410	-0,066	-0,109
-449,153	324,747	0,058	-0,080
-448,138	800,000	0,023	0,056
-447,124	517,055	0,046	-0,077
-446,109	-200,000	-0,039	-0,138
-445,095	-158,094	0,035	-0,001
-444,080	5,247	0,066	0,035
-443,065	82,112	0,045	0,035
-442,051	-71,897	0,174	0,046
-441,036	157,778	-0,079	-0,079
-440,022	69,804	-0,059	0,044
-439,007	-200,000	0,003	-0,101
-437,992	-188,536	0,058	0,001
-436,978	313,688	0,015	0,020
-435,963	49,646	-0,080	-0,054
-434,949	-1,614	0,126	0,064
-433,934	800,000	-0,046	-0,114
-432,919	74,494	0,111	-0,084
-431,905	-25,616	0,054	0,023
-430,890	63,754	0,110	0,079
-429,876	-27,667	0,121	0,050
-428,861	223,298	-0,100	0,116
-427,846	-200,000	0,025	0,123
-426,832	593,477	-0,043	-0,077
-425,817	-197,727	-0,170	0,001
-424,803	22,418	0,074	-0,044
-423,788	-1,661	0,037	0,019
-422,773	-98,766	0,141	-0,026
-421,759	327,053	-0,050	0,069
-420,744	-200,000	-0,011	0,078
-419,730	-128,539	-0,066	0,007
-418,715	140,420	-0,066	-0,062
-417,701	529,088	0,029	0,050
-416,686	16,012	0,026	-0,015
-415,671	199,771	0,109	0,121
-414,657	25,761	0,064	-0,038
-413,642	800,000	-0,051	-0,102
-412,628	-22,237	-0,035	0,015
-411,613	-127,682	0,102	0,010
-410,598	-42,941	-0,037	0,013
-409,584	5,597	0,061	0,032
-408,569	190,199	0,158	0,171
-407,555	78,840	-0,154	0,118
-406,540	-131,467	0,065	-0,006
-405,525	189,722	-0,119	-0,129
-404,511	800,000	0,048	-0,108
-403,496	481,170	0,055	-0,090
-402,482	-200,000	-0,008	0,092
-401,467	-200,000	0,001	0,075
-400,452	399,328	0,076	-0,114
-399,438	67,930	0,089	-0,065
-398,423	115,711	0,064	-0,056
-397,409	35,748	0,017	0,011
-396,394	800,000	-0,041	0,101
-395,379	542,732	-0,051	-0,088
-394,365	800,000	0,062	0,130
-393,350	-38,426	0,030	-0,011
-392,336	-4,228	0,080	-0,040
-391,321	25,025	-0,095	-0,056
-390,306	479,344	0,032	-0,053
-389,292	-200,000	0,033	-0,142
-388,277	-14,003	-0,080	0,037
-387,263	175,189	0,086	0,089
-386,248	800,000	0,016	0,034
-385,233	-50,003	0,021	0,007
-384,219	-106,791	-0,051	0,008
-383,204	-200,000	0,018	0,095
-382,190	-123,043	-0,038	0,004
-381,175	28,480	-0,008	0,005
-380,160	6,333	0,159	0,085
-379,146	-84,698	0,092	0,021
-378,131	164,050	-0,066	-0,067
-377,117	254,820	0,078	-0,096
-376,102	180,665	-0,134	0,142
-375,088	745,266	-0,053	-0,102
-374,073	241,942	0,031	-0,038
-373,058	800,000	0,003	0,006
-372,044	-15,802	0,020	0,009
-371,029	-99,470	0,163	0,029
-370,015	-200,000	-0,014	-0,084
-369,000	-99,044	-0,040	0,007
-367,985	34,339	-0,091	-0,057
-366,971	800,000	0,001	-0,002
-365,956	-76,947	-0,159	-0,040
-364,942	-196,192	0,127	0,001
-363,927	429,886	-0,045	0,071
-362,912	161,363	0,071	0,072
-361,898	-180,019	-0,091	-0,001
-360,883	800,000	-0,032	0,100
-359,869	-85,626	-0,054	0,012
-358,854	39,072	0,034	-0,022
-357,839	440,672	0,053	0,084
-356,825	800,000	0,056	0,149
-355,810	94,559	0,045	0,037
-354,796	-106,971	0,114	0,018
-353,781	26,945	-0,191	-0,114
-352,766	-200,000	0,001	-0,134
-351,752	-200,000	0,003	0,023
-350,737	127,853	0,034	-0,031
-349,723	-148,055	0,075	0,004
-348,708	-200,000	0,022	0,108
-347,693	235,356	-0,018	0,021
-346,679	122,725	-0,060	-0,054
-345,664	119,303	-0,081	-0,072
-344,650	-41,303	-0,037	-0,014
-343,635	70,123	0,020	-0,015
-342,620	-200,000	-0,014	0,063
-341,606	566,544	-0,039	0,068
-340,591	363,686	-0,028	0,041
-339,577	-55,759	-0,057	-0,018
-338,562	365,406	0,092	-0,133
-337,548	-108,111	-0,109	-0,017
-336,533	-18,194	-0,054	0,024
-335,518	138,808	0,095	0,090
-334,504	134,274	0,081	0,076
-333,489	-200,000	0,006	-0,029
-332,475	162,791	0,120	-0,120
-331,460	214,823	-0,025	-0,028
-330,445	-12,678	-0,145	0,067
-329,431	38,169	-0,044	0,028
-328,416	-21,285	-0,081	0,035
-327,402	3,827	0,063	0,033
-326,387	-200,000	0,009	0,192
-325,372	138,327	-0,104	-0,098
-324,358	20,562	-0,118	-0,068
-323,343	-200,000	0,005	0,100
-322,329	-137,321	0,099	0,008
-321,314	-31,277	0,058	0,023
-320,299	-148,194	-0,113	0,007
-319,285	488,917	-0,077	-0,127
-318,270	-67,791	-0,164	0,046
-317,256	121,781	-0,009	-0,008
-316,241	307,389	0,031	0,042
-315,226	235,449	-0,006	-0,007
-314,212	-200,000	0,021	0,086
-313,197	526,857	0,021	0,036
-312,183	-200,000	-0,005	0,095
-311,168	-81,950	-0,105	-0,024
-310,153	57,188	0,112	-0,078
-309,139	264,653	-0,097	-0,121
-308,124	455,501	-0,028	0,045
-307,110	105,983	-0,080	0,068
-306,095	800,000	0,044	0,087
-305,080	-57,606	-0,043	-0,013
-304,066	-200,000	-0,001	0,034
-303,051	394,832	0,116	0,174
-302,037	126,313	0,028	-0,026
-301,022	-200,000	0,006	0,088
-300,008	-111,589	-0,088	-0,013
-298,993	70,987	0,160	-0,119
-297,978	765,468	0,038	0,074
-296,964	800,000	-0,049	-0,099
-295,949	-200,000	0,022	-0,113
-294,935	143,929	-0,047	-0,045
-293,920	-65,993	0,043	0,012
-292,905	108,155	0,096	-0,082
-291,891	152,060	0,052	0,051
-290,876	-200,000	-0,010	-0,046
-289,862	581,268	-0,056	0,098
-288,847	25,879	-0,044	0,026
-287,832	15,603	0,092	-0,051
-286,818	466,415	0,089	-0,144
-285,803	800,000	0,006	-0,017
-284,789	156,672	0,143	0,142
-283,774	-106,657	-0,063	0,010
-282,759	-131,670	-0,068	-0,006
-281,745	800,000	-0,021	-0,046
-280,730	-200,000	0,044	-0,174
-279,716	-200,000	-0,006	-0,092
-278,701	-116,022	-0,032	0,004
-277,686	-48,764	0,136	0,047
-276,672	-0,774	0,176	-0,089
-275,657	17,455	-0,017	0,010
-274,643	-24,585	-0,079	-0,034
-273,628	12,831	-0,016	0,009
-272,613	-35,867	0,021	-0,008
-271,599	800,000	0,043	0,085
-270,584	-57,606	0,058	-0,018
-269,570	18,853	-0,061	0,035
-268,555	-85,512	0,069	0,015
-267,540	32,562	-0,174	-0,107
-266,526	34,833	-0,030	-0,019
-265,511	46,109	0,036	-0,023
-264,497	766,886	0,025	0,048
-263,482	-20,773	0,112	-0,049
-262,467	2,853	0,058	0,030
-261,453	-200,000	0,028	-0,255
-260,438	684,702	-0,029	0,054
-259,424	-200,000	-0,026	-0,118
-258,409	-45,043	-0,038	-0,013
-257,395	-200,000	-0,015	-0,139
-256,380	359,662	0,072	-0,103
-255,365	800,000	0,038	-0,080
-254,351	-200,000	-0,014	0,082
-253,336	-200,000	-0,021	0,082
-252,322	-200,000	0,022	-0,098
-251,307	800,000	0,051	0,110
-250,292	-153,649	-0,068	0,003
-249,278	361,539	-0,084	0,121
-248,263	539,226	0,021	-0,036
-247,249	-200,000	0,014	0,118
-246,234	267,082	0,046	-0,058
-245,219	3,196	0,102	-0,053
-244,205	-100,457	-0,164	-0,029
-243,190	5,245	0,076	-0,040
-242,176	553,547	0,080	0,139
-241,161	128,707	-0,056	-0,051
-240,146	-92,819	-0,049	0,010
-239,132	-102,370	0,051	0,009
-238,117	47,274	-0,173	0,115
-237,103	-58,260	0,116	0,036
-236,088	257,961	-0,081	-0,100
-235,073	251,858	0,040	0,049
-234,059	144,214	-0,084	0,080
-233,044	800,000	0,009	0,021
-232,030	425,672	-0,142	0,219
-231,015	88,993	-0,052	-0,041
-230,000	301,717	-0,149	-0,196
-228,986	190,514	-0,050	-0,054
-227,971	107,397	0,074	-0,062
-226,957	354,769	0,024	0,034
-225,942	-136,329	0,148	0,012
-224,927	800,000	-0,050	0,105
-223,913	800,000	-0,032	-0,088
-222,898	-200,000	0,008	-0,107
-221,884	-200,000	0,008	-0,039
-220,869	243,573	0,037	-0,044
-219,855	11,008	0,087	0,047
-218,840	541,146	0,016	-0,027
-217,825	-200,000	0,008	0,036
-216,811	-200,000	-0,018	-0,128
-215,796	800,000	-0,040	-0,108
-214,782	-91,643	0,064	-0,013
-213,767	800,000	-0,045	0,099
-212,752	800,000	0,040	0,093
-211,738	6,491	0,090	0,048
-210,723	425,580	0,019	0,029
-209,709	189,486	0,069	-0,074
-208,694	-97,290	-0,093	-0,017
-207,679	-200,000	0,005	-0,115
-206,665	498,527	-0,072	-0,118
-205,650	17,881	-0,091	0,051
-204,636	230,980	0,092	0,108
-203,621	-200,000	0,007	0,140
-202,606	26,214	-0,086	0,051
-201,592	-51,483	-0,093	0,031
-200,577	0,697	-0,081	-0,041
-199,563	-15,014	0,039	-0,018
-198,548	157,090	0,013	-0,013
-197,533	-19,022	-0,033	-0,015
-196,519	5,677	0,095	0,050
-195,504	6,724	-0,075	-0,039
-194,490	800,000	-0,034	-0,085
-193,475	142,249	0,032	0,031
-192,460	235,037	0,058	-0,069
-191,446	110,316	-0,130	0,111
-190,431	49,684	0,061	0,041
-189,417	50,643	-0,021	0,014
-188,402	128,105	-0,218	0,198
-187,387	380,356	-0,061	0,089
-186,373	-148,936	0,066	0,004
-185,358	11,537	0,155	0,084
-184,344	18,265	0,082	-0,046
-183,329	-159,176	0,064	-0,003
-182,315	-200,000	-0,051	0,168
-181,300	136,836	0,053	-0,050
-180,285	-200,000	-0,013	-0,077
-179,271	-200,000	0,006	-0,124
-178,256	15,075	0,060	-0,033
-177,242	340,886	0,059	0,082
-176,227	-181,789	0,086	0,001
-175,212	-200,000	0,008	0,083
-174,198	-63,585	-0,147	0,043
-173,183	800,000	-0,038	-0,079
-172,169	368,583	0,090	0,129
-171,154	616,976	-0,121	0,218
-170,139	800,000	0,038	0,117
-169,125	800,000	0,029	0,062
-168,110	-200,000	0,001	0,055
-167,096	77,990	-0,010	0,007
-166,081	26,289	0,082	-0,049
-165,066	-200,000	0,002	-0,039
-164,052	-200,000	0,009	-0,099
-163,037	488,973	-0,040	0,065
-162,023	800,000	-0,045	0,102
-161,008	98,967	0,072	0,059
-159,993	73,380	-0,020	0,015
-158,979	-141,356	0,025	0,002
-157,964	-100,193	0,079	0,014
-156,950	-9,496	-0,037	-0,017
-155,935	-200,000	-0,036	0,123
-154,920	-31,593	-0,069	-0,028
-153,906	148,523	-0,044	-0,042
-152,891	103,171	-0,025	-0,021
-151,877	-20,160	-0,073	0,032
-150,862	-200,000	0,013	-0,070
-149,847	58,810	0,070	-0,049
-148,833	-200,000	-0,017	0,074
-147,818	800,000	0,041	0,097
-146,804	-200,000	0,026	0,115
-145,789	-200,000	0,015	0,084
-144,775	293,107	-0,042	-0,055
-143,760	4,968	0,061	-0,032
-142,745	-18,470	0,113	-0,050
-141,731	32,001	0,156	-0,095
-140,716	11,071	0,137	-0,074
-139,702	-200,000	0,034	-0,108
-138,687	-200,000	-0,022	-0,085
-137,672	-160,808	0,128	0,005
-136,658	1,086	0,065	0,033
-135,643	-80,838	-0,052	-0,012
-134,629	800,000	0,024	0,062
-133,614	-111,704	0,119	0,017
-132,599	-200,000	-0,007	0,023
-131,585	-116,077	-0,068	0,009
-130,570	158,393	-0,032	-0,031
-129,556	-200,000	-0,020	-0,109
-128,541	-156,135	0,114	-0,005
-127,526	-200,000	0,016	0,073
-126,512	-177,728	0,113	-0,002
-125,497	147,502	0,063	-0,060
-124,483	800,000	-0,037	0,097
-123,468	263,041	-0,052	0,065
-122,453	800,000	-0,055	-0,152
-121,439	-96,536	-0,071	-0,013
-120,424	76,707	0,084	-0,063
-119,410	516,453	0,072	-0,120
-118,395	-4,737	-0,086	0,042
-117,380	800,000	0,042	-0,111
