DTS Sentinel unit serial number:	SN410029Multiplexer serial number:	ORYXHardware model number:	OX2-SRSoftware version number:	ORYX F/W v4,00 Oryx Data Collector v3.7.2.0data status	okinstallation	BH3 CH2differential loss correction	single-endedforward channel	channel 2reverse channel	N/Adate	2023/12/05time	13:27:28forward acquisition time	300,00reverse acquisition time	0,00gamma	499,1914k internal	0,3196k external	0,3196temperature offset calibration	1,0000default loss term (dB/km)	0,3820temperature slope calibration	1,0000multiplexer offset coefficient	1,0000multiplexer slope coefficient	1,0000fibre end	0,00T internal ref (°C)	10,35T ext. ref 1 (°C)	-3,60T ext. ref 2 (°C)	-3,64length (m)	temperature (°C)	Stokes	anti-Stokes-744,400	-200,000	-0,001	-0,050
-743,385	287,755	-0,115	0,151
-742,371	-6,138	-0,085	-0,042
-741,356	800,000	-0,046	0,108
-740,342	196,322	-0,097	-0,108
-739,327	-155,933	-0,310	-0,014
-738,312	800,000	0,071	-0,170
-737,298	90,683	-0,213	0,174
-736,283	-185,014	-0,078	0,001
-735,269	153,138	-0,124	0,123
-734,254	-108,812	-0,020	-0,003
-733,239	-114,015	-0,478	-0,067
-732,225	-89,905	0,043	0,009
-731,210	143,711	0,175	0,170
-730,196	800,000	-0,015	0,046
-729,181	-60,629	-0,108	0,033
-728,167	293,721	0,066	-0,088
-727,152	-97,593	-0,035	0,007
-726,137	55,921	-0,025	-0,017
-725,123	60,135	-0,041	-0,030
-724,108	172,974	-0,112	-0,118
-723,094	357,924	-0,069	-0,100
-722,079	-200,000	0,052	-0,231
-721,064	252,388	-0,054	0,067
-720,050	800,000	0,044	0,092
-719,035	52,819	0,032	-0,022
-718,021	-54,006	-0,055	0,018
-717,006	19,831	-0,071	0,041
-715,991	-147,285	-0,055	-0,003
-714,977	417,915	-0,046	-0,072
-713,962	159,579	0,033	-0,033
-712,948	800,000	0,052	-0,123
-711,933	-148,865	-0,069	0,004
-710,918	340,059	0,042	-0,059
-709,904	-200,000	-0,014	0,069
-708,889	-200,000	0,052	-0,274
-707,875	218,419	0,052	0,061
-706,860	220,821	0,038	-0,044
-705,845	675,375	0,037	0,071
-704,831	-200,000	-0,000	-0,009
-703,816	605,295	0,024	0,043
-702,802	1,158	0,141	0,073
-701,787	146,245	-0,131	0,128
-700,772	-94,974	-0,083	-0,016
-699,758	-200,000	0,025	0,103
-698,743	219,033	0,015	0,017
-697,729	240,591	-0,094	0,114
-696,714	-149,426	0,016	-0,001
-695,699	141,875	0,084	-0,081
-694,685	288,206	-0,107	-0,141
-693,670	-200,000	0,024	-0,157
-692,656	-19,113	0,047	-0,021
-691,641	19,504	0,066	0,039
-690,627	-64,763	0,110	0,032
-689,612	-200,000	0,001	-0,098
-688,597	18,463	-0,093	0,054
-687,583	800,000	-0,022	-0,059
-686,568	-200,000	-0,010	0,064
-685,554	800,000	-0,028	-0,083
-684,539	-31,227	0,055	0,022
-683,524	213,915	0,087	0,100
-682,510	-54,156	0,109	-0,036
-681,495	410,217	0,055	-0,085
-680,481	765,518	-0,054	-0,106
-679,466	216,198	-0,092	-0,106
-678,451	800,000	0,037	-0,108
-677,437	517,264	0,064	0,109
-676,422	-200,000	0,000	0,088
-675,408	14,281	0,030	0,017
-674,393	-200,000	0,002	-0,090
-673,378	-30,600	-0,047	0,019
-672,364	-200,000	-0,030	-0,108
-671,349	255,341	-0,064	-0,079
-670,335	-200,000	-0,001	0,049
-669,320	-200,000	-0,025	0,105
-668,305	-200,000	0,005	0,020
-667,291	-200,000	0,019	-0,130
-666,276	-200,000	-0,019	-0,121
-665,262	282,228	-0,084	-0,109
-664,247	-200,000	-0,017	-0,072
-663,232	-200,000	0,011	0,071
-662,218	93,493	0,043	0,035
-661,203	747,256	-0,036	-0,072
-660,189	69,489	0,039	-0,029
-659,174	-200,000	-0,007	0,065
-658,159	51,784	0,055	-0,038
-657,145	-200,000	-0,018	-0,094
-656,130	-200,000	0,033	-0,115
-655,116	800,000	0,023	-0,067
-654,101	173,205	0,024	0,025
-653,086	123,793	0,046	0,042
-652,072	-200,000	0,008	0,028
-651,057	84,298	-0,073	-0,058
-650,043	-200,000	0,017	-0,095
-649,028	52,182	-0,064	-0,044
-648,014	137,737	0,073	0,070
-646,999	-177,574	0,082	0,001
-645,984	22,485	-0,093	0,055
-644,970	800,000	0,060	-0,133
-643,955	358,015	0,018	0,026
-642,941	-64,948	-0,076	0,022
-641,926	85,658	-0,047	-0,038
-640,911	-44,536	-0,051	0,018
-639,897	-200,000	-0,007	-0,045
-638,882	800,000	-0,047	-0,106
-637,868	-200,000	0,013	0,068
-636,853	800,000	-0,071	-0,157
-635,838	-200,000	-0,008	-0,114
-634,824	-57,402	0,127	0,040
-633,809	-10,869	-0,115	0,055
-632,795	229,166	-0,097	-0,115
-631,780	41,428	-0,047	0,031
-630,765	-200,000	-0,004	-0,098
-629,751	800,000	-0,051	-0,106
-628,736	-200,000	0,008	-0,121
-627,722	342,987	0,053	0,076
-626,707	8,868	-0,095	0,052
-625,692	-12,726	-0,033	0,016
-624,678	-43,912	-0,062	0,023
-623,663	800,000	0,000	0,001
-622,649	-5,006	-0,091	0,045
-621,634	96,507	-0,040	0,033
-620,619	143,702	-0,069	-0,067
-619,605	-200,000	0,006	-0,080
-618,590	246,230	0,035	-0,043
-617,576	590,851	-0,018	0,033
-616,561	12,116	-0,243	-0,135
-615,546	800,000	-0,038	-0,096
-614,532	78,439	-0,090	-0,070
-613,517	800,000	-0,023	0,072
-612,503	-51,009	-0,129	-0,044
-611,488	-200,000	-0,005	0,174
-610,474	-36,606	0,093	0,036
-609,459	800,000	0,062	-0,147
-608,444	-200,000	0,001	-0,059
-607,430	800,000	-0,059	-0,145
-606,415	378,693	0,041	-0,061
-605,401	-200,000	-0,008	0,051
-604,386	-42,177	-0,027	-0,010
-603,371	800,000	0,037	-0,110
-602,357	39,341	-0,091	0,059
-601,342	169,046	-0,108	0,112
-600,328	-59,221	-0,112	-0,035
-599,313	337,343	-0,037	-0,052
-598,298	800,000	0,052	0,138
-597,284	394,680	-0,037	0,057
-596,269	-87,654	0,090	-0,019
-595,255	-200,000	-0,001	-0,024
-594,240	52,493	-0,010	0,007
-593,225	-133,591	-0,061	-0,005
-592,211	159,371	0,054	-0,054
-591,196	-200,000	-0,006	-0,162
-590,182	-93,972	-0,038	0,007
-589,167	11,901	0,070	-0,039
-588,152	438,257	-0,059	-0,094
-587,138	-200,000	0,016	-0,100
-586,123	800,000	-0,014	-0,031
-585,109	116,489	0,030	0,027
-584,094	261,717	0,026	-0,033
-583,079	800,000	0,027	0,064
-582,065	800,000	-0,032	0,082
-581,050	-45,381	-0,088	0,031
-580,036	11,398	-0,083	0,046
-579,021	-88,160	0,030	0,007
-578,006	-7,883	-0,021	0,010
-576,992	-52,320	-0,178	0,059
-575,977	-200,000	-0,003	0,079
-574,963	-15,630	0,135	-0,062
-573,948	433,004	-0,063	-0,099
-572,934	25,422	0,055	-0,033
-571,919	83,822	-0,148	-0,117
-570,904	11,893	0,079	0,044
-569,890	580,171	0,028	-0,050
-568,875	-45,226	0,009	0,003
-567,861	788,553	-0,015	-0,030
-566,846	35,603	0,050	-0,032
-565,831	-200,000	-0,023	-0,081
-564,817	800,000	-0,016	0,047
-563,802	-39,937	-0,103	0,039
-562,788	44,854	0,017	0,011
-561,773	168,261	-0,052	0,054
-560,758	754,710	0,019	0,038
-559,744	120,636	-0,059	-0,053
-558,729	14,248	-0,057	0,032
-557,715	-27,144	0,019	-0,008
-556,700	-27,664	0,015	0,006
-555,685	-12,231	-0,155	-0,073
-554,671	13,607	-0,027	-0,015
-553,656	-122,491	0,169	0,020
-552,642	-200,000	-0,024	0,103
-551,627	-200,000	-0,002	0,067
-550,612	-200,000	0,032	-0,111
-549,598	63,908	-0,079	-0,057
-548,583	-88,041	0,124	0,027
-547,569	580,422	0,054	-0,096
-546,554	6,052	-0,098	-0,052
-545,539	12,714	0,036	0,020
-544,525	355,286	-0,010	0,015
-543,510	-108,820	-0,052	-0,008
-542,496	275,900	-0,131	-0,168
-541,481	-200,000	-0,025	-0,089
-540,466	-22,038	0,041	0,018
-539,452	-200,000	-0,039	0,133
-538,437	-69,921	0,036	0,010
-537,423	-200,000	0,030	0,138
-536,408	115,533	0,051	0,045
-535,393	-84,973	-0,084	-0,019
-534,379	-103,725	0,154	0,026
-533,364	-1,671	-0,080	0,041
-532,350	-200,000	0,001	0,034
-531,335	-21,225	0,084	-0,037
-530,321	119,492	-0,137	0,122
-529,306	734,393	0,057	-0,110
-528,291	203,747	-0,064	0,071
-527,277	53,085	0,065	-0,045
-526,262	12,710	-0,076	-0,042
-525,248	800,000	-0,061	0,126
-524,233	-92,156	0,104	-0,021
-523,218	0,316	0,171	-0,088
-522,204	-58,424	0,013	-0,004
-521,189	457,014	0,010	-0,016
-520,175	-7,024	0,134	-0,066
-519,160	-7,986	-0,177	0,086
-518,145	348,723	-0,074	0,106
-517,131	-200,000	0,008	-0,069
-516,116	-137,633	-0,154	-0,012
-515,102	-145,915	0,051	0,003
-514,087	179,839	0,027	0,028
-513,072	771,202	-0,048	-0,096
-512,058	396,816	0,059	0,090
-511,043	-39,112	-0,034	0,013
-510,029	443,414	0,048	0,076
-509,014	346,191	-0,161	0,229
-507,999	-171,643	0,127	-0,003
-506,985	81,350	-0,027	-0,021
-505,970	756,770	0,051	-0,100
-504,956	620,517	-0,020	-0,037
-503,941	-168,471	0,085	-0,002
-502,926	412,279	0,101	-0,155
-501,912	-200,000	-0,000	-0,097
-500,897	800,000	0,015	0,048
-499,883	-58,022	-0,059	0,018
-498,868	-200,000	-0,005	-0,038
-497,853	-79,107	-0,030	0,007
-496,839	-0,630	-0,079	0,040
-495,824	21,004	0,086	-0,050
-494,810	-62,900	0,114	0,034
-493,795	145,577	-0,113	0,109
-492,781	-200,000	0,084	-0,284
-491,766	-200,000	0,006	-0,031
-490,751	-119,170	0,036	0,004
-489,737	198,226	-0,035	-0,039
-488,722	800,000	0,014	0,034
-487,708	244,701	-0,061	0,074
-486,693	270,946	-0,019	-0,024
-485,678	-126,710	0,052	-0,005
-484,664	243,209	-0,030	-0,036
-483,649	12,975	-0,063	-0,035
-482,635	800,000	-0,026	-0,067
-481,620	52,520	-0,131	-0,090
-480,605	3,378	0,065	0,034
-479,591	384,262	0,038	-0,057
-478,576	-200,000	-0,026	-0,118
-477,562	-200,000	0,019	-0,119
-476,547	-2,379	-0,056	0,028
-475,532	-36,235	0,013	0,005
-474,518	78,420	0,017	-0,013
-473,503	89,651	0,086	-0,069
-472,489	-29,431	0,183	0,075
-471,474	-200,000	-0,009	0,070
-470,459	52,363	0,045	-0,031
-469,445	-62,108	-0,064	0,019
-468,430	-97,877	-0,094	-0,017
-467,416	528,639	-0,074	0,126
-466,401	-50,384	-0,140	0,047
-465,386	316,301	0,057	-0,078
-464,372	508,465	0,022	0,038
-463,357	489,351	0,045	-0,074
-462,343	7,446	-0,146	0,078
-461,328	-122,250	0,029	0,003
-460,313	-200,000	-0,001	0,023
-459,299	800,000	-0,043	0,092
-458,284	246,561	0,067	0,081
-457,270	477,196	0,049	0,081
-456,255	-50,922	0,050	0,017
-455,241	-39,653	-0,102	0,038
-454,226	-148,710	0,066	0,004
-453,211	-157,812	-0,133	0,006
-452,197	52,022	0,173	0,119
-451,182	104,992	0,021	-0,017
-450,168	-159,465	0,030	-0,001
-449,153	106,963	0,026	-0,022
-448,138	116,267	-0,062	-0,055
-447,124	137,573	0,090	-0,085
-446,109	-149,130	-0,101	0,006
-445,095	-200,000	-0,054	0,178
-444,080	8,079	-0,075	0,040
-443,065	666,369	0,064	-0,119
-442,051	216,713	-0,069	0,080
-441,036	439,660	-0,028	0,044
-440,022	800,000	-0,030	0,094
-439,007	138,878	0,148	-0,140
-437,992	653,610	-0,043	0,079
-436,978	169,062	0,107	0,110
-435,963	-200,000	-0,000	-0,049
-434,949	-200,000	0,019	-0,110
-433,934	286,097	0,093	-0,122
-432,919	-103,613	-0,184	-0,031
-431,905	4,101	0,208	0,109
-430,890	-37,417	-0,061	0,023
-429,876	521,875	0,043	0,074
-428,861	44,959	0,084	0,055
-427,846	-123,774	0,016	0,002
-426,832	-144,826	-0,169	0,011
-425,817	-200,000	0,002	-0,145
-424,803	-200,000	-0,016	0,102
-423,788	-200,000	0,035	0,137
-422,773	156,764	0,148	0,147
-421,759	615,492	-0,024	-0,044
-420,744	-200,000	-0,016	-0,109
-419,730	-200,000	0,033	0,115
-418,715	116,992	-0,035	0,031
-417,701	-80,197	0,207	0,049
-416,686	-121,094	0,166	0,020
-415,671	-55,010	0,115	-0,037
-414,657	-35,535	-0,072	-0,028
-413,642	366,754	-0,031	0,045
-412,628	800,000	-0,054	-0,119
-411,613	413,087	0,031	-0,048
-410,598	-200,000	-0,011	-0,127
-409,584	-2,510	-0,100	-0,050
-408,569	158,458	0,130	-0,130
-407,555	-167,951	0,129	0,004
-406,540	800,000	-0,032	-0,073
-405,525	-200,000	-0,012	-0,040
-404,511	212,264	-0,107	-0,122
-403,496	800,000	-0,042	-0,115
-402,482	-50,153	0,086	-0,029
-401,467	136,191	0,100	0,094
-400,452	-200,000	0,006	0,152
-399,438	-15,592	0,165	0,075
-398,423	-78,756	-0,092	0,022
-397,409	51,106	0,027	0,019
-396,394	-200,000	0,013	-0,155
-395,379	448,878	0,011	-0,018
-394,365	-200,000	-0,004	0,084
-393,350	-200,000	0,016	0,070
-392,336	-111,981	-0,079	-0,011
-391,321	800,000	0,028	0,084
-390,306	-129,788	-0,121	-0,012
-389,292	197,184	-0,023	-0,025
-388,277	155,367	-0,087	0,086
-387,263	491,532	-0,029	-0,048
-386,248	800,000	0,034	0,084
-385,233	-4,285	-0,028	-0,014
-384,219	253,108	-0,047	-0,058
-383,204	-26,555	0,139	0,058
-382,190	427,987	0,071	-0,110
-381,175	-200,000	0,023	-0,126
-380,160	-62,030	0,087	0,026
-379,146	-34,432	0,119	0,047
-378,131	222,221	-0,114	0,132
-377,117	460,966	-0,010	-0,016
-376,102	800,000	0,019	-0,058
-375,088	763,983	-0,073	-0,143
-374,073	632,633	-0,099	0,181
-373,058	-138,378	0,184	-0,014
-372,044	-69,658	0,094	-0,026
-371,029	-141,129	0,129	0,009
-370,015	240,300	-0,080	-0,096
-369,000	-79,728	0,078	-0,019
-367,985	50,903	-0,048	0,033
-366,971	-119,429	-0,028	-0,003
-365,956	23,194	-0,132	0,078
-364,942	20,889	-0,171	0,099
-363,927	-200,000	0,022	0,185
-362,912	-200,000	-0,007	0,032
-361,898	800,000	0,010	0,028
-360,883	800,000	0,035	-0,105
-359,869	-79,307	-0,075	0,018
-358,854	-200,000	-0,001	0,035
-357,839	800,000	0,047	0,127
-356,825	294,421	0,103	0,135
-355,810	102,705	-0,064	-0,053
-354,796	18,636	-0,051	-0,029
-353,781	262,384	-0,096	0,120
-352,766	590,221	0,041	0,073
-351,752	218,264	-0,052	0,059
-350,737	-200,000	0,001	0,037
-349,723	-16,625	0,042	-0,019
-348,708	10,743	0,046	-0,025
-347,693	224,821	-0,097	-0,112
-346,679	-200,000	-0,008	-0,063
-345,664	120,858	-0,031	0,028
-344,650	800,000	0,027	0,061
-343,635	-93,825	0,130	0,025
-342,620	800,000	-0,052	-0,121
-341,606	-3,895	-0,044	-0,022
-340,591	48,856	0,098	-0,066
-339,577	466,739	-0,032	0,052
-338,562	75,604	-0,067	0,051
-337,548	-8,745	0,110	-0,053
-336,533	130,802	-0,037	-0,034
-335,518	37,240	0,113	0,072
-334,504	-117,641	0,043	-0,006
-333,489	-18,291	-0,047	-0,021
-332,475	-200,000	0,011	0,072
-331,460	-200,000	0,024	-0,116
-330,445	43,077	0,011	0,007
-329,431	-200,000	0,062	0,201
-328,416	12,720	0,180	0,099
-327,402	609,073	0,006	-0,011
-326,387	800,000	-0,027	-0,079
-325,372	264,745	-0,109	-0,137
-324,358	212,637	-0,094	-0,106
-323,343	66,114	0,129	-0,094
-322,329	120,040	0,057	0,051
-321,314	-115,546	0,059	-0,008
-320,299	800,000	-0,030	-0,069
-319,285	-42,913	0,043	0,016
-318,270	53,002	-0,151	0,104
-317,256	800,000	0,003	-0,008
-316,241	-200,000	0,034	-0,111
-315,226	800,000	-0,021	-0,046
-314,212	-200,000	0,005	-0,037
-313,197	-82,526	-0,070	0,016
-312,183	800,000	0,096	0,193
-311,168	-161,511	0,065	0,002
-310,153	-200,000	0,001	0,023
-309,139	207,044	-0,058	-0,065
-308,124	-200,000	0,010	0,159
-307,110	480,409	0,024	-0,038
-306,095	178,056	0,036	0,038
-305,080	-115,954	0,081	0,011
-304,066	800,000	0,030	0,060
-303,051	91,006	-0,043	-0,035
-302,037	-148,506	-0,107	-0,006
-301,022	-200,000	-0,009	-0,150
-300,008	800,000	0,025	0,062
-298,993	44,151	0,087	0,057
-297,978	-18,367	-0,038	0,017
-296,964	-200,000	-0,010	0,096
-295,949	-82,436	-0,113	0,026
-294,935	59,728	-0,063	0,044
-293,920	-138,411	-0,104	0,008
-292,905	-200,000	0,008	-0,052
-291,891	-125,460	0,059	-0,006
-290,876	515,196	0,063	-0,105
-289,862	249,761	-0,094	0,115
-288,847	163,047	-0,045	0,046
-287,832	680,633	-0,049	-0,091
-286,818	-155,070	0,011	0,001
-285,803	-200,000	0,004	0,054
-284,789	800,000	0,025	0,070
-283,774	-200,000	-0,001	0,022
-282,759	145,337	0,160	-0,153
-281,745	44,965	-0,070	0,046
-280,730	52,449	0,031	-0,021
-279,716	94,422	-0,068	-0,055
-278,701	551,755	0,027	-0,046
-277,686	-6,015	0,120	-0,059
-276,672	-119,906	-0,109	0,013
-275,657	800,000	0,041	-0,085
-274,643	-200,000	0,026	-0,128
-273,628	-200,000	0,066	0,000
-272,613	-52,658	0,056	-0,018
-271,599	800,000	0,022	-0,053
-270,584	401,459	-0,001	0,002
-269,570	-200,000	0,001	-0,032
-268,555	114,815	-0,030	-0,026
-267,540	-27,342	0,048	-0,020
-266,526	800,000	0,058	0,145
-265,511	-101,697	-0,123	-0,021
-264,497	-163,385	0,053	-0,002
-263,482	-81,236	0,094	-0,022
-262,467	-200,000	-0,008	0,067
-261,453	800,000	-0,067	0,178
-260,438	205,782	-0,074	0,082
-259,424	319,552	0,074	-0,100
-258,409	384,937	0,020	-0,030
-257,395	800,000	0,049	0,101
-256,380	-119,272	0,069	0,008
-255,365	-39,690	0,150	-0,056
-254,351	-200,000	0,030	-0,125
-253,336	-10,935	0,105	-0,049
-252,322	-11,291	-0,034	-0,016
-251,307	-200,000	-0,037	-0,118
-250,292	-200,000	-0,000	-0,026
-249,278	-113,205	-0,133	-0,018
-248,263	274,646	0,081	0,102
-247,249	3,663	-0,092	-0,048
-246,234	121,054	-0,026	-0,023
-245,219	237,251	-0,095	-0,113
-244,205	571,826	-0,020	-0,034
-243,190	136,204	0,106	0,098
-242,176	-4,469	0,113	0,056
-241,161	-200,000	0,066	0,237
-240,146	7,107	-0,078	0,042
-239,132	-200,000	0,037	0,141
-238,117	495,551	-0,066	-0,108
-237,103	800,000	0,026	0,081
-236,088	-16,132	0,052	0,023
-235,073	-200,000	-0,009	0,125
-234,059	-166,530	0,147	0,004
-233,044	800,000	0,047	0,124
-232,030	365,497	-0,080	0,116
-231,015	-200,000	0,004	-0,085
-230,000	800,000	0,017	0,049
-228,986	-85,353	-0,092	-0,020
-227,971	419,206	-0,073	-0,112
-226,957	418,088	-0,039	-0,059
-225,942	411,704	0,044	-0,067
-224,927	10,739	0,160	-0,087
-223,913	-200,000	0,013	-0,080
-222,898	61,108	-0,111	0,078
-221,884	20,651	0,088	0,051
-220,869	-116,585	0,140	0,018
-219,855	-13,127	0,040	-0,019
-218,840	512,887	0,048	0,080
-217,825	-200,000	-0,000	0,124
-216,811	524,811	-0,022	-0,037
-215,796	-104,864	-0,094	0,015
-214,782	392,630	-0,074	0,110
-213,767	147,097	-0,075	0,072
-212,752	-73,824	0,146	0,038
-211,738	130,437	0,079	0,072
-210,723	-34,473	0,049	-0,019
-209,709	222,226	0,073	-0,084
-208,694	800,000	0,048	-0,104
-207,679	78,463	-0,080	-0,061
-206,665	-200,000	0,002	0,042
-205,650	-7,396	0,156	0,075
-204,636	55,613	-0,051	0,035
-203,621	516,218	0,039	0,065
-202,606	-200,000	-0,044	-0,144
-201,592	-109,642	-0,154	-0,023
-200,577	39,397	-0,014	-0,009
-199,563	-200,000	0,033	0,129
-198,548	800,000	0,028	0,079
-197,533	-200,000	-0,001	0,143
-196,519	-77,874	-0,095	0,023
-195,504	427,293	-0,024	-0,037
-194,490	-200,000	0,005	-0,056
-193,475	800,000	-0,047	-0,095
-192,460	-200,000	0,001	0,025
-191,446	415,742	0,040	-0,062
-190,431	-80,379	-0,106	0,025
-189,417	-200,000	0,008	-0,073
-188,402	-200,000	-0,041	0,133
-187,387	-200,000	-0,005	-0,101
-186,373	406,306	-0,040	-0,061
-185,358	82,135	0,098	0,076
-184,344	637,066	0,028	0,051
-183,329	-80,741	0,149	-0,035
-182,315	563,607	-0,050	-0,087
-181,300	-68,963	-0,084	0,023
-180,285	69,835	0,062	-0,046
-179,271	-52,664	-0,075	0,024
-178,256	-159,023	-0,046	0,002
-177,242	323,216	0,086	0,117
-176,227	800,000	0,060	0,184
-175,212	277,138	0,079	-0,101
-174,198	-87,282	0,085	-0,018
-173,183	-200,000	0,013	0,081
-172,169	171,214	0,057	-0,059
-171,154	256,429	0,042	0,051
-170,139	33,676	-0,090	0,056
-169,125	-200,000	-0,036	-0,117
-168,110	-200,000	0,026	0,133
-167,096	-200,000	-0,020	-0,071
-166,081	-200,000	0,004	0,159
-165,066	17,750	-0,043	-0,024
-164,052	-200,000	0,022	-0,071
-163,037	800,000	-0,010	-0,023
-162,023	-90,808	0,037	-0,007
-161,008	39,789	0,081	0,052
-159,993	119,388	-0,117	0,103
-158,979	24,602	-0,115	0,068
-157,964	279,224	-0,071	-0,090
-156,950	10,517	0,079	-0,043
-155,935	800,000	0,059	-0,123
-154,920	800,000	-0,045	0,093
-153,906	95,201	0,044	-0,036
-152,891	19,880	-0,028	0,016
-151,877	-101,847	-0,063	-0,011
-150,862	35,795	-0,071	0,044
-149,847	-200,000	0,000	-0,072
-148,833	-200,000	0,029	-0,099
-147,818	-200,000	0,016	-0,127
-146,804	69,322	-0,038	-0,028
-145,789	-200,000	0,041	0,142
-144,775	800,000	-0,052	0,127
-143,760	800,000	0,023	-0,058
-142,745	412,691	-0,085	-0,130
-141,731	270,667	0,118	0,148
-140,716	71,259	0,087	-0,064
-139,702	-83,371	0,081	-0,018
-138,687	800,000	-0,025	0,066
-137,672	60,105	-0,099	0,070
-136,658	-92,933	-0,088	0,017
-135,643	-200,000	-0,010	-0,103
-134,629	-25,276	-0,024	-0,010
-133,614	8,779	-0,051	-0,027
-132,599	-200,000	0,011	-0,072
-131,585	152,186	0,059	0,057
-130,570	25,844	0,086	-0,051
-129,556	-200,000	0,001	-0,103
-128,541	39,835	-0,124	0,079
-127,526	378,572	0,172	0,251
-126,512	304,575	-0,026	-0,034
-125,497	-46,340	0,115	0,040
-124,483	-138,850	0,047	-0,004
-123,468	215,894	-0,027	-0,030
-122,453	-64,311	-0,094	-0,027
-121,439	-200,000	0,052	-0,179
-120,424	-200,000	0,032	-0,112
-119,410	18,821	0,081	-0,046
-118,395	198,612	0,066	0,072
