DTS Sentinel unit serial number:	SN410029Multiplexer serial number:	ORYXHardware model number:	OX2-SRSoftware version number:	ORYX F/W v4,00 Oryx Data Collector v3.7.2.0data status	okinstallation	BH3 CH2differential loss correction	single-endedforward channel	channel 2reverse channel	N/Adate	2023/12/05time	22:07:28forward acquisition time	300,00reverse acquisition time	0,00gamma	499,1914k internal	0,3193k external	0,3193temperature offset calibration	1,0000default loss term (dB/km)	0,3820temperature slope calibration	1,0000multiplexer offset coefficient	1,0000multiplexer slope coefficient	1,0000fibre end	0,00T internal ref (°C)	10,09T ext. ref 1 (°C)	-5,01T ext. ref 2 (°C)	-5,12length (m)	temperature (°C)	Stokes	anti-Stokes-744,400	446,913	0,058	-0,094
-743,385	83,777	-0,194	0,154
-742,371	-134,883	-0,085	0,007
-741,356	-59,827	-0,157	0,049
-740,342	-200,000	0,003	-0,138
-739,327	17,445	-0,250	0,144
-738,312	800,000	-0,050	-0,146
-737,298	85,935	-0,276	0,221
-736,283	144,008	0,050	-0,048
-735,269	-55,546	-0,306	0,099
-734,254	-200,000	0,016	-0,104
-733,239	-36,212	-0,351	-0,137
-732,225	-200,000	-0,013	-0,109
-731,210	800,000	0,060	0,174
-730,196	-200,000	0,013	0,103
-729,181	-24,065	0,051	-0,022
-728,167	-99,010	-0,034	-0,006
-727,152	-200,000	0,009	-0,102
-726,137	311,259	-0,061	-0,084
-725,123	155,343	-0,129	0,130
-724,108	-200,000	0,007	0,066
-723,094	-200,000	0,005	0,039
-722,079	661,503	0,098	0,185
-721,064	-10,783	0,063	0,030
-720,050	52,268	-0,058	0,040
-719,035	-200,000	0,009	0,088
-718,021	-60,376	-0,205	0,063
-717,006	-116,957	-0,221	-0,029
-715,991	-87,127	-0,087	-0,019
-714,977	114,815	0,071	-0,063
-713,962	800,000	-0,013	-0,031
-712,948	-200,000	0,002	0,141
-711,933	-200,000	-0,006	0,037
-710,918	-200,000	0,016	0,088
-709,904	-65,417	0,042	-0,012
-708,889	223,174	-0,076	-0,089
-707,875	21,385	-0,036	-0,021
-706,860	-139,087	-0,135	-0,010
-705,845	85,859	-0,039	0,031
-704,831	732,234	-0,082	-0,161
-703,816	800,000	-0,044	0,138
-702,802	-200,000	-0,010	-0,142
-701,787	43,484	0,104	-0,069
-700,772	483,914	-0,114	-0,190
-699,758	-1,747	0,058	-0,030
-698,743	582,758	-0,024	0,043
-697,729	-200,000	0,056	0,192
-696,714	210,877	0,092	-0,105
-695,699	70,794	0,085	-0,064
-694,685	17,889	-0,045	0,026
-693,670	-61,651	-0,086	-0,026
-692,656	800,000	-0,024	0,052
-691,641	46,879	0,096	0,065
-690,627	-37,959	0,074	-0,028
-689,612	303,901	-0,014	-0,018
-688,597	2,986	0,086	-0,045
-687,583	-200,000	-0,015	-0,143
-686,568	-48,211	-0,115	-0,040
-685,554	494,454	-0,088	-0,148
-684,539	800,000	0,031	0,097
-683,524	-200,000	-0,009	-0,075
-682,510	-53,206	-0,186	-0,062
-681,495	234,969	-0,032	-0,039
-680,481	-200,000	0,025	-0,145
-679,466	-63,263	-0,127	0,038
-678,451	14,456	-0,093	0,052
-677,437	-200,000	0,002	0,085
-676,422	563,602	0,038	0,067
-675,408	-86,684	0,096	0,021
-674,393	-58,864	-0,187	-0,059
-673,378	-85,556	-0,130	0,029
-672,364	-89,919	-0,160	-0,034
-671,349	157,007	-0,087	0,088
-670,335	-12,964	0,028	-0,013
-669,320	800,000	0,021	0,063
-668,305	-200,000	-0,023	0,098
-667,291	585,251	0,062	-0,111
-666,276	8,904	-0,090	0,049
-665,262	-21,101	-0,034	-0,015
-664,247	249,310	0,060	-0,074
-663,232	8,461	-0,039	0,021
-662,218	-200,000	0,004	-0,082
-661,203	-6,545	0,003	0,001
-660,189	-94,663	-0,164	0,032
-659,174	-104,382	-0,151	0,025
-658,159	433,363	-0,012	0,018
-657,145	418,589	0,035	-0,054
-656,130	16,525	-0,101	0,058
-655,116	76,576	0,042	-0,032
-654,101	-69,619	0,079	-0,022
-653,086	-175,871	-0,050	0,001
-652,072	-91,896	-0,212	-0,043
-651,057	-22,162	-0,055	0,024
-650,043	-178,902	0,066	-0,001
-649,028	109,448	0,050	0,043
-648,014	800,000	0,037	0,079
-646,999	453,111	0,029	0,046
-645,984	190,030	-0,056	0,061
-644,970	138,071	-0,102	-0,097
-643,955	222,831	-0,120	-0,141
-642,941	800,000	0,048	-0,148
-641,926	-32,396	0,087	0,035
-640,911	800,000	0,021	-0,061
-639,897	761,012	-0,057	-0,112
-638,882	63,101	-0,099	-0,072
-637,868	-6,745	-0,137	0,068
-636,853	-200,000	-0,016	-0,094
-635,838	8,537	0,045	0,025
-634,824	457,269	0,019	-0,031
-633,809	-200,000	0,062	0,218
-632,795	37,514	0,118	0,076
-631,780	800,000	-0,014	0,037
-630,765	-61,289	-0,140	0,042
-629,751	-200,000	0,002	-0,060
-628,736	304,149	-0,097	-0,131
-627,722	80,507	0,063	-0,049
-626,707	-200,000	0,031	0,124
-625,692	240,053	0,117	0,141
-624,678	-98,331	-0,040	0,007
-623,663	-105,283	0,094	0,015
-622,649	-200,000	-0,053	-0,204
-621,634	-98,595	-0,053	0,010
-620,619	-200,000	-0,022	0,131
-619,605	-92,958	0,114	-0,023
-618,590	-108,949	-0,030	-0,005
-617,576	22,499	0,009	-0,005
-616,561	394,298	0,023	-0,035
-615,546	-193,412	-0,086	-0,001
-614,532	670,276	-0,064	-0,121
-613,517	47,648	-0,021	0,014
-612,503	-200,000	-0,006	-0,072
-611,488	-108,958	-0,104	-0,016
-610,474	-200,000	0,033	0,139
-609,459	-200,000	0,001	-0,023
-608,444	129,483	-0,199	-0,184
-607,430	-200,000	-0,041	-0,144
-606,415	800,000	0,065	-0,135
-605,401	800,000	0,020	-0,048
-604,386	-104,288	0,067	-0,011
-603,371	-131,032	-0,048	-0,005
-602,357	42,421	-0,097	0,064
-601,342	800,000	-0,017	-0,038
-600,328	309,104	0,058	0,079
-599,313	-200,000	0,015	0,052
-598,298	800,000	0,042	0,117
-597,284	-200,000	0,017	-0,072
-596,269	-41,618	0,051	-0,019
-595,255	223,352	0,097	-0,113
-594,240	199,881	-0,020	-0,022
-593,225	-16,743	-0,162	0,074
-592,211	-87,360	0,035	-0,008
-591,196	-200,000	-0,020	0,109
-590,182	70,338	0,077	0,058
-589,167	800,000	0,029	0,068
-588,152	-159,067	-0,148	-0,006
-587,138	288,027	-0,097	0,128
-586,123	-43,371	-0,026	-0,010
-585,109	178,184	-0,073	-0,078
-584,094	800,000	-0,025	-0,053
-583,079	310,488	0,120	0,163
-582,065	-49,065	-0,035	0,012
-581,050	88,209	0,079	-0,063
-580,036	-1,826	0,078	0,040
-579,021	83,262	-0,068	-0,054
-578,006	-53,800	-0,088	0,029
-576,992	-31,323	0,058	0,024
-575,977	-200,000	0,022	0,109
-574,963	235,208	0,087	-0,105
-573,948	542,236	0,048	-0,083
-572,934	219,730	-0,044	0,051
-571,919	-200,000	0,003	-0,012
-570,904	95,250	0,074	0,061
-569,890	800,000	0,077	-0,159
-568,875	186,110	0,035	0,038
-567,861	800,000	0,022	0,070
-566,846	-200,000	-0,017	0,075
-565,831	800,000	0,029	0,089
-564,817	-200,000	0,026	-0,113
-563,802	191,381	0,002	0,002
-562,788	-200,000	0,036	-0,158
-561,773	320,998	-0,082	0,114
-560,758	-200,000	-0,048	0,194
-559,744	-200,000	0,003	0,093
-558,729	71,036	-0,079	0,059
-557,715	259,322	-0,066	0,082
-556,700	-35,815	-0,112	-0,044
-555,685	435,609	-0,080	0,126
-554,671	-200,000	0,036	0,115
-553,656	64,774	0,112	0,081
-552,642	-8,436	-0,022	-0,011
-551,627	-55,657	0,023	-0,007
-550,612	-139,498	-0,110	-0,008
-549,598	-200,000	-0,000	-0,151
-548,583	-200,000	0,012	-0,103
-547,569	550,376	0,018	-0,032
-546,554	-200,000	-0,009	0,104
-545,539	-152,612	0,059	0,003
-544,525	-92,053	0,034	-0,007
-543,510	198,888	-0,087	0,096
-542,496	800,000	-0,006	-0,013
-541,481	-200,000	-0,003	-0,022
-540,466	150,218	0,029	0,028
-539,452	-110,514	0,101	-0,015
-538,437	800,000	-0,066	0,192
-537,423	800,000	0,031	0,090
-536,408	-200,000	0,004	0,093
-535,393	800,000	-0,039	-0,081
-534,379	106,331	0,128	-0,110
-533,364	800,000	-0,021	-0,049
-532,350	-118,527	0,219	0,028
-531,335	752,326	0,033	-0,064
-530,321	-68,032	0,183	0,051
-529,306	-200,000	-0,019	0,081
-528,291	-154,486	-0,113	-0,005
-527,277	-200,000	-0,011	-0,079
-526,262	-42,458	0,105	-0,038
-525,248	-200,000	-0,005	-0,039
-524,233	-161,168	0,190	0,007
-523,218	781,468	0,044	0,088
-522,204	5,771	-0,095	0,051
-521,189	242,396	-0,061	-0,074
-520,175	438,198	-0,034	0,053
-519,160	-94,103	0,065	0,013
-518,145	-200,000	0,016	0,054
-517,131	-86,700	-0,059	-0,013
-516,116	26,130	0,117	-0,070
-515,102	-200,000	-0,001	0,025
-514,087	464,332	-0,041	0,067
-513,072	400,487	-0,087	-0,133
-512,058	-61,848	0,051	-0,015
-511,043	723,771	0,078	0,150
-510,029	-92,179	0,201	-0,041
-509,014	434,314	0,047	0,074
-507,999	29,342	-0,084	-0,051
-506,985	-13,687	-0,056	0,026
-505,970	-200,000	-0,016	-0,072
-504,956	-41,862	-0,039	0,014
-503,941	292,824	-0,014	0,018
-502,926	-200,000	0,006	0,112
-501,912	-200,000	-0,025	0,133
-500,897	-158,384	0,077	-0,003
-499,883	-0,645	-0,037	0,019
-498,868	383,181	-0,043	0,064
-497,853	800,000	-0,030	0,067
-496,839	677,731	-0,082	0,154
-495,824	-120,048	-0,141	0,017
-494,810	-32,429	0,062	0,025
-493,795	-200,000	-0,023	0,217
-492,781	-54,944	-0,135	0,044
-491,766	328,146	-0,063	0,087
-490,751	224,767	-0,042	0,050
-489,737	587,040	-0,022	0,039
-488,722	-200,000	0,020	-0,222
-487,708	-69,710	0,131	0,036
-486,693	125,740	-0,061	-0,056
-485,678	-200,000	-0,014	-0,153
-484,664	-111,074	-0,096	0,014
-483,649	7,863	-0,048	0,026
-482,635	-124,479	0,057	-0,006
-481,620	24,641	-0,112	0,067
-480,605	402,851	0,077	0,117
-479,591	-200,000	0,001	-0,023
-478,576	170,512	0,080	-0,083
-477,562	-200,000	-0,035	-0,111
-476,547	89,212	-0,126	0,101
-475,532	-200,000	0,009	-0,143
-474,518	-130,008	0,090	-0,009
-473,503	99,992	0,096	0,080
-472,489	75,243	-0,020	-0,015
-471,474	-200,000	0,021	-0,100
-470,459	-200,000	0,003	-0,034
-469,445	-151,048	-0,061	0,003
-468,430	38,489	0,021	0,013
-467,416	180,775	-0,021	-0,022
-466,401	-200,000	0,020	0,070
-465,386	123,431	0,083	0,075
-464,372	-200,000	0,006	-0,073
-463,357	164,992	-0,153	-0,156
-462,343	-200,000	-0,031	-0,213
-461,328	-6,083	0,082	0,041
-460,313	449,781	0,053	0,085
-459,299	800,000	-0,006	-0,011
-458,284	-200,000	0,011	-0,044
-457,270	-200,000	-0,047	-0,176
-456,255	-200,000	0,001	-0,086
-455,241	-200,000	0,016	-0,120
-454,226	-36,992	0,048	0,019
-453,211	800,000	0,050	-0,132
-452,197	-35,674	-0,018	0,007
-451,182	68,649	0,055	0,041
-450,168	800,000	0,011	0,021
-449,153	425,715	0,037	0,058
-448,138	-67,354	-0,108	-0,030
-447,124	453,172	0,048	0,076
-446,109	-81,702	-0,058	-0,014
-445,095	224,087	-0,012	-0,014
-444,080	-200,000	0,002	0,145
-443,065	49,417	-0,040	-0,027
-442,051	-200,000	-0,013	0,070
-441,036	215,278	0,017	-0,020
-440,022	680,947	-0,007	0,013
-439,007	-181,488	0,072	0,001
-437,992	196,626	0,057	0,062
-436,978	-2,885	0,115	0,058
-435,963	-200,000	0,002	-0,027
-434,949	334,591	0,044	0,062
-433,934	800,000	-0,084	0,181
-432,919	289,510	-0,086	-0,113
-431,905	20,858	0,142	0,083
-430,890	27,732	0,163	0,099
-429,876	123,836	-0,078	0,071
-428,861	-25,154	0,052	0,022
-427,846	23,161	0,115	-0,068
-426,832	-200,000	-0,016	-0,070
-425,817	-62,949	-0,156	-0,046
-424,803	-200,000	0,005	0,104
-423,788	-23,132	-0,090	0,039
-422,773	2,804	0,117	-0,061
-421,759	-200,000	0,002	0,095
-420,744	-150,563	-0,060	0,003
-419,730	800,000	-0,039	-0,083
-418,715	-200,000	-0,002	-0,178
-417,701	286,943	0,096	-0,125
-416,686	115,474	0,029	-0,025
-415,671	-95,748	0,112	-0,021
-414,657	-200,000	-0,006	-0,069
-413,642	-89,539	-0,090	0,019
-412,628	-107,993	-0,124	0,019
-411,613	296,755	-0,022	0,029
-410,598	-200,000	0,016	0,091
-409,584	-8,852	0,143	-0,069
-408,569	27,877	0,046	0,028
-407,555	554,783	-0,009	0,015
-406,540	-78,107	-0,023	-0,006
-405,525	36,475	0,107	-0,068
-404,511	-188,806	-0,087	-0,001
-403,496	800,000	-0,006	-0,013
-402,482	117,597	-0,037	-0,033
-401,467	800,000	0,031	-0,090
-400,452	800,000	-0,011	-0,027
-399,438	-20,630	0,183	0,080
-398,423	800,000	0,009	-0,018
-397,409	-200,000	0,030	0,105
-396,394	-152,024	0,052	-0,003
-395,379	-200,000	-0,040	-0,186
-394,365	800,000	0,027	0,078
-393,350	-200,000	0,005	-0,044
-392,336	-200,000	0,031	0,163
-391,321	-200,000	-0,012	-0,121
-390,306	-131,087	-0,028	-0,003
-389,292	-5,098	0,089	-0,044
-388,277	-168,990	-0,135	-0,004
-387,263	-151,955	0,065	-0,003
-386,248	-200,000	-0,002	0,038
-385,233	126,035	-0,158	0,144
-384,219	-200,000	-0,011	-0,096
-383,204	147,912	0,052	-0,051
-382,190	312,084	-0,077	-0,105
-381,175	177,463	0,056	0,058
-380,160	20,007	0,075	-0,043
-379,146	81,941	0,049	-0,038
-378,131	659,381	0,070	0,131
-377,117	-79,879	-0,143	-0,034
-376,102	800,000	-0,042	-0,087
-375,088	272,168	0,026	0,033
-374,073	129,218	-0,093	0,085
-373,058	100,586	0,151	0,126
-372,044	-200,000	0,014	0,077
-371,029	-96,302	-0,044	0,008
-370,015	-65,598	-0,148	0,042
-369,000	-162,916	0,102	-0,003
-367,985	155,931	-0,087	-0,086
-366,971	800,000	0,026	-0,076
-365,956	-200,000	0,012	-0,049
-364,942	21,337	0,047	0,027
-363,927	-200,000	0,004	0,181
-362,912	-129,999	0,098	0,009
-361,898	-200,000	-0,001	0,136
-360,883	-153,386	-0,123	0,006
-359,869	533,846	0,044	-0,076
-358,854	737,906	-0,035	-0,068
-357,839	-200,000	0,017	-0,097
-356,825	169,993	0,062	0,063
-355,810	221,419	-0,065	0,075
-354,796	-58,448	0,067	-0,021
-353,781	-145,091	-0,161	0,010
-352,766	800,000	0,097	-0,246
-351,752	-168,018	-0,055	-0,001
-350,737	159,891	0,042	-0,042
-349,723	-200,000	0,012	0,089
-348,708	800,000	0,034	0,090
-347,693	-146,339	-0,149	0,009
-346,679	-59,292	0,084	0,026
-345,664	-200,000	0,022	-0,115
-344,650	-200,000	0,017	-0,118
-343,635	341,723	0,056	0,079
-342,620	-200,000	-0,001	0,033
-341,606	39,150	-0,058	-0,037
-340,591	-62,338	-0,046	0,014
-339,577	-200,000	0,003	0,086
-338,562	800,000	-0,012	0,029
-337,548	-15,125	-0,053	-0,024
-336,533	-142,732	0,037	0,003
-335,518	-160,920	0,090	-0,003
-334,504	-120,366	-0,060	0,007
-333,489	-94,625	0,046	0,009
-332,475	-200,000	-0,030	0,144
-331,460	66,977	0,055	0,041
-330,445	-104,112	-0,099	-0,016
-329,431	-159,932	-0,042	-0,002
-328,416	-200,000	0,016	-0,085
-327,402	562,371	0,028	0,048
-326,387	800,000	-0,017	0,049
-325,372	-200,000	-0,015	-0,098
-324,358	-70,158	-0,074	0,020
-323,343	-163,129	-0,098	-0,003
-322,329	-200,000	-0,025	0,104
-321,314	-172,210	0,028	-0,001
-320,299	800,000	0,035	0,071
-319,285	787,973	0,037	0,074
-318,270	-65,226	-0,039	0,011
-317,256	-200,000	-0,018	-0,178
-316,241	290,862	-0,014	-0,019
-315,226	491,508	-0,013	-0,022
-314,212	-200,000	-0,003	-0,107
-313,197	-105,196	0,018	-0,003
-312,183	233,021	-0,040	-0,047
-311,168	-200,000	-0,005	-0,115
-310,153	68,794	-0,128	-0,094
-309,139	-200,000	-0,037	-0,120
-308,124	-161,100	0,027	-0,001
-307,110	-200,000	0,021	0,156
-306,095	-115,892	0,053	-0,007
-305,080	56,589	0,016	-0,011
-304,066	2,697	-0,103	0,054
-303,051	101,113	0,086	0,072
-302,037	-75,323	0,139	-0,035
-301,022	-93,821	-0,086	-0,017
-300,008	204,396	-0,072	-0,080
-298,993	-191,443	0,121	-0,001
-297,978	-200,000	0,008	-0,042
-296,964	117,002	-0,102	0,089
-295,949	788,534	-0,021	0,041
-294,935	31,827	-0,048	0,029
-293,920	-36,507	-0,127	-0,049
-292,905	-11,308	0,065	-0,031
-291,891	-36,343	0,043	0,017
-290,876	101,967	0,047	0,039
-289,862	-128,720	-0,085	-0,008
-288,847	294,615	0,028	-0,036
-287,832	-200,000	0,002	0,026
-286,818	-200,000	-0,028	-0,099
-285,803	-7,136	0,127	0,061
-284,789	614,567	0,082	0,148
-283,774	-108,520	0,044	0,007
-282,759	-200,000	0,002	0,054
-281,745	800,000	-0,022	0,045
-280,730	-200,000	-0,043	-0,159
-279,716	19,571	0,141	0,081
-278,701	-200,000	-0,022	-0,110
-277,686	-115,339	0,148	0,020
-276,672	800,000	0,050	0,127
-275,657	-168,442	0,142	-0,004
-274,643	213,222	0,060	-0,068
-273,628	-22,515	-0,155	0,067
-272,613	-200,000	-0,016	-0,150
-271,599	-36,166	-0,098	0,038
-270,584	-55,337	0,153	-0,049
-269,570	-101,257	0,051	-0,009
-268,555	-55,196	-0,144	0,046
-267,540	514,799	-0,038	0,064
-266,526	278,389	-0,030	-0,038
-265,511	311,982	0,048	-0,065
-264,497	-73,809	0,058	0,015
-263,482	204,606	0,110	-0,122
-262,467	-200,000	0,006	0,052
-261,453	181,730	0,107	0,113
-260,438	109,458	-0,068	-0,058
-259,424	-46,880	-0,120	0,042
-258,409	65,185	0,058	-0,042
-257,395	72,747	0,090	-0,067
-256,380	-111,318	0,098	-0,014
-255,365	185,452	-0,034	-0,036
-254,351	-96,556	-0,067	0,013
-253,336	263,789	0,054	-0,067
-252,322	-105,235	-0,148	0,024
-251,307	800,000	-0,022	0,050
-250,292	125,444	0,065	-0,059
-249,278	192,878	0,114	-0,123
-248,263	-200,000	0,031	0,158
-247,249	-200,000	0,039	-0,122
-246,234	53,347	-0,045	0,031
-245,219	99,942	-0,114	-0,095
-244,205	218,857	-0,081	-0,092
-243,190	-200,000	0,003	0,012
-242,176	-38,772	0,124	-0,046
-241,161	32,346	-0,111	0,068
-240,146	272,379	-0,063	0,080
-239,132	640,504	0,056	-0,102
-238,117	-4,584	-0,169	-0,083
-237,103	27,832	-0,065	-0,039
-236,088	20,064	0,041	-0,024
-235,073	800,000	-0,028	0,086
-234,059	-133,905	0,070	-0,006
-233,044	-155,729	-0,127	0,006
-232,030	-123,941	0,035	0,004
-231,015	13,376	-0,070	0,039
-230,000	358,216	0,055	-0,079
-228,986	-200,000	0,034	-0,188
-227,971	-59,260	-0,081	0,025
-226,957	800,000	0,046	0,115
-225,942	-38,818	0,092	0,034
-224,927	800,000	-0,042	0,120
-223,913	166,726	-0,085	0,086
-222,898	-171,381	-0,119	0,003
-221,884	156,965	0,016	0,016
-220,869	40,651	-0,043	0,028
-219,855	56,289	0,068	0,047
-218,840	-200,000	0,013	0,092
-217,825	86,379	0,042	0,033
-216,811	-200,000	-0,023	0,130
-215,796	-136,076	0,107	-0,009
-214,782	800,000	-0,043	-0,127
-213,767	424,101	-0,037	-0,058
-212,752	38,520	0,139	-0,088
-211,738	135,616	0,127	0,118
-210,723	-165,135	-0,062	0,002
-209,709	76,709	0,095	-0,072
-208,694	245,430	-0,126	-0,152
-207,679	-200,000	-0,014	-0,201
-206,665	593,147	0,030	0,054
-205,650	105,157	-0,061	-0,051
-204,636	78,636	-0,102	0,078
-203,621	800,000	-0,064	-0,135
-202,606	-200,000	-0,016	-0,141
-201,592	7,510	0,088	0,047
-200,577	160,926	0,032	-0,031
-199,563	450,415	0,065	0,103
-198,548	-200,000	0,029	0,163
-197,533	204,623	-0,104	0,115
-196,519	800,000	-0,017	0,044
-195,504	19,187	-0,096	-0,055
-194,490	800,000	-0,032	-0,082
-193,475	-200,000	-0,022	-0,084
-192,460	-185,380	0,073	-0,001
-191,446	-43,883	-0,148	0,053
-190,431	-200,000	0,029	0,107
-189,417	-200,000	-0,016	0,072
-188,402	417,096	0,040	0,061
-187,387	-137,957	-0,057	0,004
-186,373	-87,976	0,078	-0,017
-185,358	-63,639	0,081	0,023
-184,344	-200,000	0,025	-0,125
-183,329	-200,000	-0,012	-0,057
-182,315	800,000	-0,031	0,087
-181,300	700,358	-0,004	-0,008
-180,285	542,507	-0,059	0,100
-179,271	239,195	-0,092	0,109
-178,256	800,000	-0,024	0,052
-177,242	-86,539	0,095	-0,021
-176,227	-200,000	0,030	0,233
-175,212	-200,000	0,035	-0,126
-174,198	194,778	0,056	-0,061
-173,183	47,946	-0,123	-0,082
-172,169	-19,525	0,034	-0,015
-171,154	800,000	-0,036	-0,088
-170,139	86,478	0,086	0,067
-169,125	-167,398	-0,050	-0,001
-168,110	-3,870	-0,128	-0,063
-167,096	30,119	-0,051	-0,031
-166,081	-200,000	0,027	-0,150
-165,066	-200,000	-0,036	-0,141
-164,052	79,996	0,058	-0,044
-163,037	-59,536	-0,048	0,014
-162,023	800,000	0,018	0,047
-161,008	511,342	0,091	-0,151
-159,993	800,000	-0,029	-0,068
-158,979	-3,645	0,043	-0,021
-157,964	-90,255	-0,113	0,023
-156,950	147,293	-0,091	0,087
-155,935	606,929	-0,075	-0,135
-154,920	-141,370	0,130	-0,009
-153,906	332,697	0,073	0,101
-152,891	161,873	0,052	0,052
-151,877	276,967	-0,052	0,066
-150,862	-50,039	-0,160	-0,054
-149,847	161,780	-0,106	-0,106
-148,833	-200,000	-0,044	-0,179
-147,818	-126,921	-0,006	-0,001
-146,804	65,635	0,068	0,049
-145,789	342,838	0,038	-0,053
-144,775	-119,119	0,096	-0,012
-143,760	7,097	-0,103	-0,054
-142,745	800,000	0,017	-0,051
-141,731	-200,000	0,011	0,049
-140,716	191,804	-0,075	-0,081
-139,702	-200,000	-0,005	0,038
-138,687	-95,564	0,070	-0,013
-137,672	-200,000	0,030	0,138
-136,658	-200,000	-0,002	0,119
-135,643	24,468	-0,165	-0,097
-134,629	203,504	0,024	0,027
-133,614	102,803	-0,071	0,059
-132,599	109,962	-0,082	0,070
-131,585	-145,858	-0,157	0,010
-130,570	497,435	-0,040	0,066
-129,556	-54,526	0,137	0,044
-128,541	-119,907	-0,110	0,013
-127,526	-200,000	-0,013	-0,064
-126,512	411,262	-0,009	-0,013
-125,497	-200,000	-0,010	0,140
-124,483	199,426	0,047	0,051
-123,468	142,402	-0,075	-0,070
-122,453	28,477	-0,129	-0,077
-121,439	-173,514	-0,068	-0,001
-120,424	-3,970	-0,094	-0,046
-119,410	800,000	0,027	0,054
