DTS Sentinel unit serial number:	SN410029Multiplexer serial number:	ORYXHardware model number:	OX2-SRSoftware version number:	ORYX F/W v4,00 Oryx Data Collector v3.7.2.0data status	okinstallation	BH3 CH2differential loss correction	single-endedforward channel	channel 2reverse channel	N/Adate	2023/12/05time	19:57:28forward acquisition time	300,00reverse acquisition time	0,00gamma	499,1914k internal	0,3193k external	0,3193temperature offset calibration	1,0000default loss term (dB/km)	0,3820temperature slope calibration	1,0000multiplexer offset coefficient	1,0000multiplexer slope coefficient	1,0000fibre end	0,00T internal ref (°C)	10,59T ext. ref 1 (°C)	-4,07T ext. ref 2 (°C)	-4,19length (m)	temperature (°C)	Stokes	anti-Stokes-744,400	143,988	-0,139	-0,135
-743,385	-77,878	-0,297	0,074
-742,371	217,108	0,105	0,122
-741,356	800,000	-0,128	0,284
-740,342	73,722	-0,067	-0,051
-739,327	-45,125	-0,327	0,118
-738,312	-200,000	-0,032	-0,253
-737,298	113,108	-0,175	0,155
-736,283	501,218	0,042	-0,072
-735,269	82,571	-0,174	0,138
-734,254	396,971	-0,016	-0,024
-733,239	-118,516	-0,316	-0,040
-732,225	800,000	-0,061	-0,156
-731,210	43,547	0,116	0,077
-730,196	44,344	-0,090	-0,060
-729,181	169,354	0,012	-0,012
-728,167	238,935	-0,073	0,089
-727,152	-80,171	0,125	-0,030
-726,137	-96,052	-0,059	0,011
-725,123	-11,702	0,094	-0,045
-724,108	-15,829	-0,046	0,021
-723,094	800,000	-0,029	-0,091
-722,079	-138,050	-0,093	0,007
-721,064	436,495	0,061	0,096
-720,050	-152,029	0,037	-0,002
-719,035	218,434	-0,046	-0,053
-718,021	79,837	-0,108	-0,085
-717,006	565,195	-0,056	-0,099
-715,991	49,561	-0,133	0,091
-714,977	142,905	0,102	-0,099
-713,962	349,432	0,040	0,058
-712,948	96,621	0,022	-0,018
-711,933	346,907	-0,095	0,136
-710,918	800,000	0,059	0,126
-709,904	800,000	0,030	0,091
-708,889	-200,000	0,014	0,058
-707,875	-200,000	-0,042	-0,184
-706,860	63,157	-0,124	0,090
-705,845	61,099	0,061	-0,044
-704,831	-81,456	-0,062	-0,015
-703,816	533,656	0,020	-0,034
-702,802	800,000	-0,017	-0,053
-701,787	800,000	-0,008	0,021
-700,772	-78,752	-0,082	0,020
-699,758	-91,482	-0,056	0,012
-698,743	-200,000	-0,014	0,109
-697,729	-200,000	-0,004	0,066
-696,714	278,422	-0,135	0,175
-695,699	737,224	0,014	0,027
-694,685	800,000	0,075	-0,231
-693,670	16,976	-0,059	0,034
-692,656	177,275	-0,044	0,046
-691,641	409,909	-0,063	-0,098
-690,627	182,171	-0,017	0,018
-689,612	-39,449	0,116	-0,044
-688,597	-144,981	-0,089	-0,006
-687,583	182,681	0,026	-0,028
-686,568	800,000	0,047	-0,144
-685,554	800,000	-0,041	-0,127
-684,539	462,046	-0,023	-0,037
-683,524	-128,177	-0,015	-0,002
-682,510	-200,000	0,011	0,059
-681,495	470,123	-0,041	0,067
-680,481	-103,611	-0,042	-0,007
-679,466	800,000	0,023	0,054
-678,451	-44,849	-0,076	-0,027
-677,437	-50,629	0,098	0,033
-676,422	-200,000	0,005	-0,103
-675,408	-35,286	-0,131	-0,051
-674,393	-117,132	-0,173	-0,023
-673,378	247,458	-0,012	0,014
-672,364	281,904	-0,077	-0,100
-671,349	-117,646	-0,124	-0,016
-670,335	87,755	0,037	0,030
-669,320	59,051	-0,020	-0,014
-668,305	-158,068	0,142	0,006
-667,291	48,443	-0,044	-0,030
-666,276	45,298	-0,102	-0,068
-665,262	-200,000	0,005	-0,045
-664,247	-172,811	0,016	0,000
-663,232	104,976	0,070	0,060
-662,218	800,000	-0,045	0,129
-661,203	-178,868	-0,061	0,001
-660,189	286,661	0,042	0,055
-659,174	800,000	-0,009	-0,025
-658,159	297,479	-0,032	-0,043
-657,145	800,000	0,008	0,026
-656,130	402,865	0,029	-0,045
-655,116	427,070	-0,106	-0,166
-654,101	-200,000	0,027	-0,189
-653,086	-200,000	0,019	-0,136
-652,072	-52,639	-0,098	-0,033
-651,057	221,700	-0,037	-0,043
-650,043	800,000	-0,021	0,050
-649,028	448,631	-0,058	-0,092
-648,014	-1,050	0,112	-0,058
-646,999	-38,813	0,088	-0,034
-645,984	-17,962	0,017	0,008
-644,970	-63,319	-0,082	-0,025
-643,955	-77,483	-0,124	0,031
-642,941	-73,421	-0,036	-0,009
-641,926	3,646	-0,063	-0,033
-640,911	91,716	-0,045	-0,037
-639,897	800,000	0,046	0,101
-638,882	57,885	-0,038	0,027
-637,868	397,438	-0,057	0,087
-636,853	-149,941	0,116	-0,006
-635,838	-55,051	-0,089	-0,029
-634,824	40,750	0,159	0,104
-633,809	800,000	0,009	-0,027
-632,795	296,121	0,067	-0,089
-631,780	-200,000	0,052	0,187
-630,765	800,000	-0,047	-0,137
-629,751	663,486	0,028	0,053
-628,736	-162,011	-0,198	-0,007
-627,722	24,338	0,100	0,060
-626,707	609,702	-0,112	-0,204
-625,692	64,966	0,166	0,122
-624,678	-200,000	0,018	0,068
-623,663	-31,444	-0,034	0,014
-622,649	-105,831	-0,047	0,008
-621,634	-200,000	0,002	-0,059
-620,619	62,831	-0,059	-0,042
-619,605	-200,000	0,004	0,031
-618,590	217,759	-0,042	0,048
-617,576	-200,000	0,002	0,013
-616,561	210,186	-0,055	-0,062
-615,546	-200,000	-0,059	-0,229
-614,532	301,268	0,035	-0,047
-613,517	-140,340	-0,065	-0,005
-612,503	-200,000	-0,009	-0,079
-611,488	-200,000	-0,003	-0,135
-610,474	-200,000	0,036	-0,132
-609,459	-0,191	0,039	-0,020
-608,444	133,405	-0,031	-0,029
-607,430	-200,000	-0,027	0,122
-606,415	-2,182	-0,102	-0,052
-605,401	-200,000	-0,002	0,051
-604,386	-87,825	0,097	0,021
-603,371	51,156	0,168	0,116
-602,357	256,814	0,053	-0,066
-601,342	800,000	0,026	0,079
-600,328	-200,000	-0,048	-0,192
-599,313	800,000	-0,023	-0,063
-598,298	800,000	-0,031	0,092
-597,284	-56,053	0,106	-0,034
-596,269	370,533	0,039	0,058
-595,255	106,318	-0,075	0,064
-594,240	800,000	-0,047	0,097
-593,225	-3,766	-0,183	-0,092
-592,211	-27,008	-0,060	-0,025
-591,196	-99,857	0,186	-0,033
-590,182	-102,551	0,113	-0,019
-589,167	-200,000	0,016	0,149
-588,152	-63,792	0,060	-0,018
-587,138	222,003	-0,025	0,029
-586,123	-200,000	-0,019	0,066
-585,109	-124,627	-0,151	0,017
-584,094	160,868	-0,119	0,121
-583,079	-111,583	-0,063	-0,009
-582,065	-28,826	-0,059	-0,024
-581,050	89,308	-0,041	-0,033
-580,036	379,507	0,029	0,043
-579,021	-87,574	-0,118	-0,026
-578,006	-117,090	-0,147	0,019
-576,992	-200,000	-0,017	-0,074
-575,977	-6,430	0,020	0,010
-574,963	-200,000	-0,005	0,062
-573,948	783,285	-0,048	0,095
-572,934	-200,000	0,009	0,060
-571,919	29,317	0,076	0,047
-570,904	-200,000	-0,021	-0,160
-569,890	-200,000	-0,001	-0,247
-568,875	704,161	-0,077	-0,147
-567,861	-4,585	0,103	-0,051
-566,846	-108,488	0,042	-0,006
-565,831	339,097	0,017	-0,024
-564,817	-169,932	0,075	-0,002
-563,802	800,000	-0,029	-0,061
-562,788	-76,278	-0,087	0,022
-561,773	-200,000	0,005	0,072
-560,758	530,722	0,056	0,097
-559,744	486,397	-0,030	0,050
-558,729	-200,000	-0,016	0,102
-557,715	-200,000	0,008	0,075
-556,700	-199,351	-0,109	-0,000
-555,685	-200,000	-0,009	-0,165
-554,671	76,329	-0,019	-0,015
-553,656	174,745	0,063	0,066
-552,642	137,894	-0,070	0,067
-551,627	303,370	0,045	-0,061
-550,612	16,368	-0,055	-0,032
-549,598	-146,559	-0,049	0,003
-548,583	482,063	-0,012	-0,020
-547,569	216,839	-0,040	0,046
-546,554	22,835	0,107	0,063
-545,539	82,222	0,188	0,147
-544,525	-200,000	0,007	-0,058
-543,510	43,057	-0,067	0,044
-542,496	292,375	-0,049	0,064
-541,481	9,272	-0,114	-0,062
-540,466	800,000	0,083	-0,181
-539,452	800,000	-0,028	-0,077
-538,437	462,819	-0,016	0,026
-537,423	-200,000	-0,002	-0,075
-536,408	274,454	0,057	-0,073
-535,393	339,434	-0,036	-0,050
-534,379	-137,078	-0,054	-0,004
-533,364	64,171	0,055	0,040
-532,350	55,768	-0,050	-0,035
-531,335	29,828	0,095	0,058
-530,321	-77,451	0,126	-0,032
-529,306	-200,000	0,001	-0,178
-528,291	265,362	0,059	0,075
-527,277	513,888	-0,035	0,059
-526,262	-148,534	-0,042	-0,002
-525,248	-89,297	0,059	-0,012
-524,233	-0,755	-0,029	0,015
-523,218	-82,858	0,163	-0,038
-522,204	800,000	-0,038	-0,117
-521,189	71,343	-0,099	0,074
-520,175	713,175	0,051	-0,097
-519,160	166,551	-0,094	-0,096
-518,145	-68,184	0,135	0,038
-517,131	-4,244	0,043	-0,021
-516,116	-4,022	0,121	0,060
-515,102	800,000	-0,046	0,136
-514,087	-60,114	-0,021	0,007
-513,072	800,000	-0,044	0,118
-512,058	-200,000	-0,027	-0,103
-511,043	-101,769	-0,066	0,011
-510,029	14,472	-0,033	0,018
-509,014	-60,667	0,094	-0,029
-507,999	-200,000	-0,013	0,091
-506,985	250,194	0,058	-0,071
-505,970	216,273	-0,078	-0,089
-504,956	204,598	0,067	-0,075
-503,941	-117,842	-0,122	0,016
-502,926	-19,956	0,113	0,050
-501,912	83,487	-0,098	0,077
-500,897	41,640	0,050	0,033
-499,883	800,000	-0,017	-0,045
-498,868	194,810	-0,141	0,155
-497,853	-200,000	0,016	-0,187
-496,839	-200,000	0,008	-0,064
-495,824	281,698	-0,049	0,064
-494,810	340,507	-0,089	0,126
-493,795	-122,377	-0,064	-0,007
-492,781	260,332	0,086	0,108
-491,766	7,242	-0,060	0,032
-490,751	30,274	-0,085	0,052
-489,737	-200,000	0,002	-0,128
-488,722	-132,129	0,096	-0,009
-487,708	-72,357	-0,028	-0,008
-486,693	-200,000	-0,010	0,121
-485,678	70,936	0,096	-0,072
-484,664	123,028	-0,053	-0,048
-483,649	122,213	0,030	-0,027
-482,635	-200,000	0,001	0,047
-481,620	-200,000	0,000	0,016
-480,605	-158,420	0,076	0,003
-479,591	-66,991	-0,064	-0,018
-478,576	696,996	-0,077	0,146
-477,562	-200,000	0,030	-0,116
-476,547	-27,055	-0,018	-0,008
-475,532	93,088	0,038	0,031
-474,518	-7,744	0,053	-0,026
-473,503	505,682	0,018	0,031
-472,489	88,639	-0,051	0,041
-471,474	-42,174	-0,067	0,024
-470,459	-200,000	-0,018	0,063
-469,445	-16,453	0,008	-0,004
-468,430	-99,001	0,058	0,011
-467,416	800,000	0,016	-0,042
-466,401	-90,431	-0,108	0,022
-465,386	141,018	-0,074	0,071
-464,372	-14,269	-0,041	0,019
-463,357	-200,000	-0,015	-0,166
-462,343	220,941	-0,080	-0,093
-461,328	-200,000	-0,024	-0,162
-460,313	-200,000	-0,001	0,086
-459,299	356,747	0,050	-0,072
-458,284	800,000	-0,080	0,171
-457,270	150,573	-0,055	-0,053
-456,255	-200,000	0,025	0,143
-455,241	-200,000	0,008	-0,095
-454,226	-200,000	-0,005	-0,133
-453,211	-43,297	0,154	0,056
-452,197	-82,055	-0,103	0,024
-451,182	387,608	-0,076	0,113
-450,168	207,196	0,093	-0,104
-449,153	-128,020	-0,115	0,012
-448,138	-200,000	-0,003	0,107
-447,124	800,000	0,024	0,049
-446,109	-200,000	-0,003	-0,064
-445,095	224,162	0,070	-0,082
-444,080	122,859	0,155	0,140
-443,065	92,224	0,103	-0,083
-442,051	-200,000	0,010	-0,100
-441,036	800,000	-0,027	0,059
-440,022	196,451	0,049	0,054
-439,007	-68,843	-0,054	0,015
-437,992	-101,897	0,046	-0,008
-436,978	-138,182	0,157	0,012
-435,963	-45,079	0,092	0,033
-434,949	0,405	-0,087	-0,044
-433,934	-37,921	0,156	-0,059
-432,919	-200,000	0,004	-0,114
-431,905	-200,000	-0,003	-0,124
-430,890	800,000	-0,012	0,029
-429,876	-200,000	-0,018	0,059
-428,861	-200,000	-0,014	0,049
-427,846	-200,000	-0,002	0,014
-426,832	-200,000	-0,030	0,107
-425,817	-111,828	-0,123	0,018
-424,803	-13,763	0,109	0,051
-423,788	-124,651	0,051	0,006
-422,773	520,938	0,032	0,055
-421,759	409,543	0,091	0,140
-420,744	524,936	0,044	-0,074
-419,730	409,896	-0,078	-0,119
-418,715	113,019	0,058	0,050
-417,701	-200,000	-0,007	0,030
-416,686	189,105	0,095	0,103
-415,671	152,551	-0,039	0,039
-414,657	-137,765	0,055	0,004
-413,642	200,175	0,067	0,074
-412,628	505,115	-0,054	0,090
-411,613	21,905	-0,098	-0,057
-410,598	26,173	0,047	-0,028
-409,584	-200,000	-0,012	0,038
-408,569	-64,905	0,072	0,021
-407,555	-200,000	0,019	0,099
-406,540	-16,037	0,104	-0,047
-405,525	37,830	-0,121	-0,077
-404,511	-13,462	-0,055	0,026
-403,496	800,000	-0,006	-0,013
-402,482	180,428	-0,038	-0,040
-401,467	34,058	-0,072	0,045
-400,452	250,185	0,120	0,147
-399,438	800,000	-0,044	0,137
-398,423	298,940	-0,059	-0,078
-397,409	45,602	-0,129	-0,086
-396,394	800,000	-0,076	-0,155
-395,379	-107,209	0,121	-0,019
-394,365	53,861	0,092	-0,064
-393,350	-200,000	-0,013	0,110
-392,336	-115,099	0,078	-0,011
-391,321	-200,000	-0,012	-0,075
-390,306	-200,000	-0,019	-0,090
-389,292	-200,000	0,002	-0,072
-388,277	-22,486	-0,106	-0,046
-387,263	-200,000	0,018	-0,060
-386,248	537,337	0,058	0,099
-385,233	800,000	0,057	-0,121
-384,219	236,362	0,030	0,036
-383,204	-102,517	-0,140	-0,024
-382,190	-200,000	-0,004	-0,039
-381,175	100,399	-0,048	-0,040
-380,160	-84,228	0,016	-0,004
-379,146	121,261	0,113	-0,102
-378,131	166,426	0,053	-0,054
-377,117	20,080	-0,077	0,045
-376,102	-200,000	-0,013	-0,105
-375,088	119,626	-0,079	-0,070
-374,073	13,677	-0,046	-0,026
-373,058	-200,000	0,006	0,111
-372,044	-25,981	0,069	0,029
-371,029	800,000	-0,053	0,125
-370,015	-200,000	0,023	0,078
-369,000	800,000	0,059	0,159
-367,985	298,336	-0,024	-0,032
-366,971	382,428	-0,095	-0,141
-365,956	-200,000	0,018	0,112
-364,942	800,000	-0,082	0,213
-363,927	306,907	0,126	0,169
-362,912	800,000	-0,035	-0,082
-361,898	560,762	0,074	0,129
-360,883	-85,273	-0,159	0,035
-359,869	498,019	-0,031	-0,052
-358,854	-200,000	0,018	0,084
-357,839	176,358	-0,035	0,037
-356,825	-200,000	0,019	0,093
-355,810	-154,015	0,113	0,005
-354,796	-112,087	0,062	0,009
-353,781	-68,267	-0,080	-0,022
-352,766	-155,666	-0,052	-0,002
-351,752	-172,032	0,115	0,003
-350,737	9,942	0,047	-0,025
-349,723	-200,000	-0,010	0,087
-348,708	-57,734	0,093	-0,029
-347,693	16,755	-0,091	-0,052
-346,679	123,024	-0,077	-0,069
-345,664	288,637	0,048	0,063
-344,650	-96,555	0,144	-0,027
-343,635	800,000	0,018	-0,038
-342,620	-200,000	-0,020	0,076
-341,606	286,042	0,073	-0,094
-340,591	33,310	0,023	-0,014
-339,577	800,000	-0,036	-0,084
-338,562	44,655	-0,072	-0,048
-337,548	-200,000	0,018	-0,134
-336,533	268,484	-0,075	0,095
-335,518	313,055	0,110	0,149
-334,504	271,477	0,046	0,058
-333,489	-29,073	0,088	0,036
-332,475	-200,000	-0,021	0,072
-331,460	-99,277	-0,118	-0,021
-330,445	451,680	-0,029	0,046
-329,431	-114,784	-0,137	-0,019
-328,416	-200,000	0,027	0,137
-327,402	800,000	0,026	-0,060
-326,387	-125,839	0,104	-0,011
-325,372	-9,089	-0,046	-0,022
-324,358	-200,000	-0,005	-0,047
-323,343	-200,000	-0,032	-0,105
-322,329	-99,595	0,120	-0,021
-321,314	-102,160	-0,111	0,019
-320,299	239,324	0,076	0,091
-319,285	-200,000	0,061	0,219
-318,270	-200,000	-0,002	0,130
-317,256	-59,884	-0,079	-0,024
-316,241	148,257	-0,027	-0,026
-315,226	800,000	0,030	0,063
-314,212	-15,458	-0,089	0,040
-313,197	-20,716	0,105	-0,046
-312,183	-17,616	0,073	0,033
-311,168	18,782	0,132	0,076
-310,153	447,365	-0,063	0,099
-309,139	352,612	0,057	-0,082
-308,124	-200,000	0,028	-0,125
-307,110	-29,047	0,130	0,053
-306,095	-133,867	0,025	-0,002
-305,080	152,134	-0,103	0,100
-304,066	222,735	0,028	0,033
-303,051	209,797	-0,114	-0,129
-302,037	-78,114	-0,057	-0,014
-301,022	-74,871	-0,047	-0,012
-300,008	178,873	0,115	-0,121
-298,993	-89,011	-0,067	-0,014
-297,978	-200,000	0,007	-0,083
-296,964	537,055	-0,053	0,091
-295,949	-32,877	-0,073	-0,029
-294,935	182,987	-0,152	-0,161
-293,920	-200,000	0,000	-0,062
-292,905	-137,590	0,086	0,007
-291,891	227,019	-0,100	-0,117
-290,876	-200,000	-0,000	0,007
-289,862	-24,166	0,005	0,002
-288,847	800,000	0,014	-0,032
-287,832	-44,358	0,070	-0,025
-286,818	-80,520	0,161	-0,038
-285,803	-67,255	0,066	0,018
-284,789	470,187	-0,053	-0,086
-283,774	226,817	0,077	0,089
-282,759	-200,000	0,052	-0,170
-281,745	-200,000	0,026	0,161
-280,730	401,293	-0,074	0,112
-279,716	13,126	-0,057	0,032
-278,701	-200,000	0,039	0,180
-277,686	800,000	0,051	0,138
-276,672	-200,000	0,019	0,094
-275,657	-36,864	-0,127	0,048
-274,643	-7,095	-0,079	0,038
-273,628	-172,959	-0,060	0,001
-272,613	50,342	-0,072	-0,049
-271,599	141,650	0,017	0,016
-270,584	7,456	0,034	0,018
-269,570	800,000	-0,062	-0,147
-268,555	-200,000	-0,007	0,106
-267,540	-165,599	-0,071	0,002
-266,526	-97,349	-0,062	-0,012
-265,511	-65,710	0,113	0,032
-264,497	-60,584	-0,083	-0,025
-263,482	800,000	0,039	0,094
-262,467	800,000	0,046	0,106
-261,453	-0,508	0,078	0,039
-260,438	-63,182	-0,068	-0,020
-259,424	87,332	-0,045	-0,036
-258,409	658,812	-0,083	-0,154
-257,395	-55,742	-0,133	0,042
-256,380	436,017	0,051	0,080
-255,365	55,729	0,121	0,084
-254,351	9,726	-0,121	0,066
-253,336	-200,000	-0,000	0,007
-252,322	-200,000	-0,010	-0,059
-251,307	21,776	-0,120	-0,070
-250,292	-26,932	0,097	0,040
-249,278	384,045	0,041	0,060
-248,263	800,000	0,027	0,065
-247,249	-97,758	0,100	0,018
-246,234	9,241	-0,050	0,027
-245,219	-125,980	-0,067	-0,007
-244,205	184,721	-0,095	-0,101
-243,190	-200,000	0,007	-0,022
-242,176	-80,953	-0,010	0,002
-241,161	-82,025	0,022	0,005
-240,146	654,811	-0,093	0,172
-239,132	215,731	-0,025	-0,029
-238,117	132,932	-0,094	0,086
-237,103	175,356	0,087	-0,090
-236,088	214,317	-0,079	0,089
-235,073	-200,000	-0,010	0,031
-234,059	136,995	0,067	0,063
-233,044	-200,000	0,027	0,099
-232,030	37,543	-0,019	-0,012
-231,015	-200,000	-0,048	-0,173
-230,000	302,094	0,042	0,056
-228,986	-200,000	-0,024	0,130
-227,971	-99,949	0,006	0,001
-226,957	49,990	0,090	0,060
-225,942	-200,000	0,006	0,044
-224,927	-4,804	0,036	0,018
-223,913	120,068	0,057	-0,050
-222,898	-119,380	0,045	-0,006
-221,884	66,008	0,071	0,051
-220,869	126,275	0,008	-0,007
-219,855	25,801	0,102	0,061
-218,840	0,049	0,037	0,019
-217,825	800,000	0,005	0,013
-216,811	-97,009	0,082	-0,015
-215,796	-94,632	0,088	0,017
-214,782	224,012	0,076	-0,087
-213,767	-200,000	0,010	-0,038
-212,752	-64,473	0,193	0,056
-211,738	-200,000	-0,007	-0,048
-210,723	-200,000	0,004	0,122
-209,709	10,034	-0,146	-0,079
-208,694	-104,202	-0,179	-0,029
-207,679	109,351	0,034	0,029
-206,665	-200,000	-0,004	-0,077
-205,650	0,873	0,089	-0,045
-204,636	-200,000	0,006	0,066
-203,621	-200,000	-0,018	0,057
-202,606	85,410	-0,167	0,131
-201,592	-25,613	0,113	-0,047
-200,577	67,952	-0,071	-0,052
-199,563	-66,537	0,167	-0,047
-198,548	464,479	0,008	0,014
-197,533	-44,277	0,106	-0,038
-196,519	800,000	0,040	-0,124
-195,504	328,688	-0,068	0,094
-194,490	800,000	0,035	-0,079
-193,475	248,916	-0,052	0,064
-192,460	-200,000	-0,002	-0,033
-191,446	-25,070	-0,097	-0,041
-190,431	800,000	-0,019	-0,061
-189,417	-183,697	-0,039	0,000
-188,402	69,911	0,070	-0,051
-187,387	98,114	-0,051	-0,042
-186,373	18,520	0,147	-0,083
-185,358	-158,921	-0,101	0,004
-184,344	-65,349	-0,173	-0,049
-183,329	-200,000	0,025	0,121
-182,315	-19,108	0,023	0,010
-181,300	-200,000	0,016	-0,111
-180,285	-200,000	-0,010	-0,098
-179,271	72,599	0,014	0,010
-178,256	699,915	-0,026	-0,049
-177,242	-76,563	-0,053	-0,013
-176,227	-166,491	0,100	0,003
-175,212	388,636	0,073	0,108
-174,198	-45,420	-0,191	-0,067
-173,183	800,000	0,063	-0,146
-172,169	296,802	0,088	-0,116
-171,154	-200,000	0,014	-0,081
-170,139	94,187	-0,032	-0,026
-169,125	344,661	0,042	0,059
-168,110	717,258	0,055	-0,105
-167,096	27,111	0,085	-0,051
-166,081	-200,000	-0,032	-0,152
-165,066	42,143	-0,106	-0,068
-164,052	81,002	0,111	-0,085
-163,037	800,000	0,033	0,090
-162,023	4,315	0,037	0,019
-161,008	-200,000	-0,006	0,108
-159,993	83,496	0,015	0,012
-158,979	-130,207	-0,094	0,009
-157,964	800,000	0,023	-0,050
-156,950	-200,000	-0,023	-0,108
-155,935	14,465	0,074	-0,041
-154,920	-49,789	-0,077	0,026
-153,906	156,002	0,115	-0,113
-152,891	547,051	-0,065	-0,111
-151,877	-61,814	0,050	-0,015
-150,862	48,671	-0,115	-0,077
-149,847	-52,916	-0,104	-0,034
-148,833	-123,118	0,077	0,009
-147,818	-102,208	0,143	0,024
-146,804	395,522	0,081	0,121
-145,789	-77,030	-0,083	-0,020
-144,775	14,153	0,089	-0,049
-143,760	453,516	-0,021	0,033
-142,745	104,205	-0,090	-0,076
-141,731	800,000	-0,036	-0,090
-140,716	110,046	0,073	-0,062
-139,702	-113,776	-0,058	0,008
-138,687	93,372	0,056	-0,045
-137,672	256,241	-0,072	0,088
-136,658	243,193	0,008	-0,010
-135,643	113,054	-0,062	-0,054
-134,629	15,088	-0,081	0,045
-133,614	57,620	0,047	0,033
-132,599	-98,916	0,103	-0,018
-131,585	546,659	-0,039	0,067
-130,570	194,313	-0,056	-0,061
-129,556	36,125	0,088	-0,055
-128,541	-22,298	0,202	0,087
-127,526	-200,000	0,057	0,212
-126,512	800,000	-0,051	0,152
-125,497	214,259	0,079	0,089
-124,483	148,372	0,022	0,021
-123,468	283,328	-0,048	0,062
-122,453	-200,000	0,003	-0,035
-121,439	-200,000	-0,010	-0,180
-120,424	-148,578	-0,111	-0,006
-119,410	-200,000	-0,009	0,038
