DTS Sentinel unit serial number:	SN410029Multiplexer serial number:	ORYXHardware model number:	OX2-SRSoftware version number:	ORYX F/W v4,00 Oryx Data Collector v3.7.2.0data status	okinstallation	BH3 CH2differential loss correction	single-endedforward channel	channel 2reverse channel	N/Adate	2023/12/06time	00:22:28forward acquisition time	300,00reverse acquisition time	0,00gamma	499,1914k internal	0,3196k external	0,3196temperature offset calibration	1,0000default loss term (dB/km)	0,3820temperature slope calibration	1,0000multiplexer offset coefficient	1,0000multiplexer slope coefficient	1,0000fibre end	0,00T internal ref (°C)	9,42T ext. ref 1 (°C)	-5,41T ext. ref 2 (°C)	-5,47length (m)	temperature (°C)	Stokes	anti-Stokes-744,400	22,171	-0,041	-0,024
-743,385	280,978	-0,176	0,229
-742,371	23,173	-0,074	0,044
-741,356	37,725	-0,146	0,095
-740,342	484,486	0,045	0,076
-739,327	178,155	-0,178	0,189
-738,312	-200,000	-0,005	-0,050
-737,298	11,855	-0,235	0,131
-736,283	164,248	-0,069	0,071
-735,269	34,249	-0,111	0,070
-734,254	-6,821	0,051	0,025
-733,239	-149,712	-0,445	-0,025
-732,225	198,473	0,091	-0,102
-731,210	127,297	-0,047	0,043
-730,196	-200,000	-0,011	-0,081
-729,181	800,000	-0,026	0,076
-728,167	-200,000	0,007	0,096
-727,152	-111,481	0,053	0,008
-726,137	-11,503	-0,037	-0,018
-725,123	232,029	-0,090	0,107
-724,108	-200,000	-0,021	-0,123
-723,094	45,524	-0,110	0,074
-722,079	783,062	0,065	-0,131
-721,064	800,000	0,028	-0,057
-720,050	156,101	0,069	-0,070
-719,035	-28,587	-0,037	0,015
-718,021	-167,478	0,109	-0,003
-717,006	-84,191	-0,183	-0,042
-715,991	-34,351	-0,106	-0,042
-714,977	55,782	-0,060	0,042
-713,962	289,015	-0,085	-0,113
-712,948	-200,000	-0,047	-0,209
-711,933	97,385	0,112	0,094
-710,918	117,385	-0,076	-0,068
-709,904	-200,000	-0,005	-0,129
-708,889	-150,913	-0,187	0,010
-707,875	-86,094	0,054	0,012
-706,860	357,767	-0,049	0,072
-705,845	800,000	0,030	-0,077
-704,831	-200,000	-0,024	-0,111
-703,816	185,266	-0,032	-0,034
-702,802	-0,972	-0,137	-0,070
-701,787	263,126	-0,083	-0,105
-700,772	-200,000	0,004	-0,073
-699,758	-200,000	-0,025	-0,081
-698,743	240,991	-0,007	0,008
-697,729	84,252	0,180	0,143
-696,714	11,503	0,196	0,109
-695,699	427,219	-0,047	0,074
-694,685	283,289	-0,066	-0,086
-693,670	243,629	-0,065	-0,079
-692,656	-90,330	0,125	0,026
-691,641	800,000	-0,041	-0,110
-690,627	-137,901	-0,034	-0,003
-689,612	800,000	-0,050	-0,118
-688,597	543,381	-0,010	-0,018
-687,583	-189,867	-0,072	0,001
-686,568	53,337	0,062	-0,043
-685,554	-76,197	-0,074	0,019
-684,539	66,737	0,070	0,051
-683,524	174,944	-0,076	0,080
-682,510	-69,445	-0,062	0,017
-681,495	800,000	-0,031	-0,078
-680,481	-161,011	-0,148	-0,006
-679,466	-200,000	0,006	-0,108
-678,451	-46,709	0,022	0,008
-677,437	442,633	0,050	-0,081
-676,422	-82,235	0,072	0,017
-675,408	-20,627	-0,087	-0,039
-674,393	-22,365	-0,144	-0,063
-673,378	368,667	-0,071	-0,105
-672,364	800,000	0,025	-0,060
-671,349	-200,000	-0,002	-0,015
-670,335	-200,000	-0,031	-0,104
-669,320	27,990	-0,016	-0,010
-668,305	-127,843	0,096	-0,010
-667,291	438,162	0,038	0,060
-666,276	719,673	0,061	-0,119
-665,262	19,888	-0,120	-0,070
-664,247	313,343	-0,084	-0,114
-663,232	31,300	-0,032	0,020
-662,218	-200,000	0,039	0,142
-661,203	46,083	-0,087	-0,059
-660,189	-200,000	0,031	0,148
-659,174	481,285	-0,032	0,054
-658,159	110,979	-0,131	-0,114
-657,145	-45,846	-0,087	-0,031
-656,130	69,847	0,026	0,020
-655,116	-68,204	0,055	0,015
-654,101	800,000	0,024	0,068
-653,086	800,000	-0,040	-0,119
-652,072	-84,063	-0,129	0,029
-651,057	-200,000	0,007	-0,061
-650,043	74,211	-0,078	0,060
-649,028	800,000	-0,058	0,159
-648,014	-56,368	0,085	-0,027
-646,999	200,509	-0,119	0,132
-645,984	179,571	-0,071	0,076
-644,970	-14,524	-0,110	0,051
-643,955	93,032	-0,023	0,019
-642,941	800,000	0,055	0,117
-641,926	-200,000	-0,011	-0,097
-640,911	31,281	-0,042	0,026
-639,897	2,388	-0,102	-0,053
-638,882	-200,000	-0,006	-0,113
-637,868	538,820	-0,023	0,040
-636,853	407,103	0,046	-0,070
-635,838	-175,803	0,141	0,003
-634,824	83,506	0,035	-0,028
-633,809	55,474	0,101	0,071
-632,795	-69,775	-0,048	0,013
-631,780	-5,569	0,073	-0,036
-630,765	-200,000	0,007	-0,068
-629,751	24,479	-0,083	0,050
-628,736	-19,147	-0,089	0,040
-627,722	-200,000	0,020	-0,080
-626,707	-200,000	-0,005	0,104
-625,692	800,000	-0,046	-0,130
-624,678	516,713	-0,075	-0,128
-623,663	-70,311	-0,108	-0,029
-622,649	-200,000	0,013	0,081
-621,634	-146,267	0,017	0,001
-620,619	509,240	-0,020	-0,034
-619,605	-56,532	0,139	-0,044
-618,590	-134,011	0,142	-0,013
-617,576	123,596	0,049	-0,045
-616,561	-200,000	-0,019	-0,114
-615,546	367,337	-0,012	0,018
-614,532	800,000	-0,031	-0,082
-613,517	-200,000	-0,017	0,099
-612,503	800,000	-0,029	-0,072
-611,488	-153,543	0,072	0,004
-610,474	-41,224	-0,054	-0,020
-609,459	-200,000	-0,013	0,092
-608,444	-7,805	0,007	-0,003
-607,430	-117,542	-0,097	0,012
-606,415	28,904	-0,152	-0,093
-605,401	-131,466	-0,021	-0,002
-604,386	-200,000	0,033	0,108
-603,371	157,503	0,103	0,104
-602,357	-102,945	0,005	-0,001
-601,342	412,625	-0,046	-0,071
-600,328	-97,267	0,043	-0,008
-599,313	-45,492	-0,012	-0,004
-598,298	788,164	-0,044	0,088
-597,284	441,299	-0,038	0,060
-596,269	800,000	-0,014	0,031
-595,255	800,000	0,046	-0,141
-594,240	-200,000	0,009	-0,142
-593,225	-155,861	-0,063	-0,003
-592,211	154,604	-0,145	-0,144
-591,196	13,936	0,111	-0,062
-590,182	175,525	0,099	0,104
-589,167	800,000	0,008	-0,017
-588,152	133,328	-0,077	0,072
-587,138	12,473	0,111	0,062
-586,123	800,000	-0,022	-0,068
-585,109	664,573	-0,063	-0,118
-584,094	144,728	-0,056	0,054
-583,079	265,616	-0,058	-0,073
-582,065	-200,000	0,017	0,129
-581,050	187,738	-0,070	0,076
-580,036	13,365	-0,010	0,006
-579,021	-71,736	-0,104	0,028
-578,006	-200,000	0,006	-0,023
-576,992	-0,232	-0,099	0,051
-575,977	-135,051	0,067	-0,006
-574,963	-7,822	0,032	-0,016
-573,948	-35,619	0,111	-0,043
-572,934	104,830	-0,146	-0,124
-571,919	800,000	0,017	0,047
-570,904	-200,000	0,047	-0,153
-569,890	-191,900	0,037	0,000
-568,875	-200,000	0,031	-0,112
-567,861	569,392	-0,031	0,055
-566,846	-200,000	0,011	0,067
-565,831	152,566	0,050	-0,049
-564,817	-200,000	0,009	-0,154
-563,802	46,905	-0,046	0,031
-562,788	800,000	0,036	0,103
-561,773	206,398	-0,155	-0,175
-560,758	50,777	0,112	0,077
-559,744	32,269	-0,030	0,019
-558,729	145,965	0,057	0,055
-557,715	-121,492	-0,162	-0,019
-556,700	-39,498	-0,120	-0,045
-555,685	-200,000	0,011	-0,051
-554,671	-200,000	-0,019	-0,078
-553,656	-200,000	-0,009	-0,129
-552,642	-200,000	-0,012	0,116
-551,627	732,809	-0,017	0,033
-550,612	-200,000	0,006	0,023
-549,598	94,807	-0,154	-0,126
-548,583	-141,541	0,030	0,002
-547,569	185,867	-0,126	0,135
-546,554	88,941	0,121	0,097
-545,539	800,000	-0,023	0,054
-544,525	57,207	0,090	0,063
-543,510	244,735	-0,090	-0,109
-542,496	173,649	0,040	0,042
-541,481	286,047	-0,116	0,151
-540,466	189,995	0,041	-0,045
-539,452	800,000	0,041	0,092
-538,437	800,000	0,012	0,027
-537,423	-200,000	0,002	0,110
-536,408	-95,730	0,074	0,014
-535,393	106,098	0,040	-0,035
-534,379	192,424	-0,029	-0,032
-533,364	511,676	0,034	-0,057
-532,350	-72,766	-0,047	-0,012
-531,335	225,295	0,102	0,119
-530,321	-5,790	-0,054	-0,027
-529,306	-73,548	-0,036	0,009
-528,291	800,000	0,062	-0,172
-527,277	193,090	-0,069	-0,076
-526,262	81,704	-0,136	-0,106
-525,248	219,119	0,049	0,057
-524,233	-94,148	0,066	-0,013
-523,218	-200,000	-0,008	-0,047
-522,204	-200,000	-0,010	0,055
-521,189	29,281	0,074	0,045
-520,175	-200,000	0,001	-0,027
-519,160	306,467	0,042	0,057
-518,145	800,000	-0,067	0,174
-517,131	-103,245	0,092	-0,016
-516,116	382,516	0,075	0,111
-515,102	-10,577	0,022	-0,010
-514,087	-72,007	-0,076	-0,020
-513,072	-169,288	-0,051	0,001
-512,058	-41,351	0,117	-0,043
-511,043	-44,216	-0,093	0,033
-510,029	75,691	0,057	0,043
-509,014	58,710	0,081	-0,057
-507,999	-75,313	-0,012	-0,003
-506,985	-89,546	0,014	-0,003
-505,970	-3,722	-0,148	-0,074
-504,956	800,000	-0,083	-0,167
-503,941	800,000	0,021	0,048
-502,926	-124,032	0,078	0,009
-501,912	-200,000	-0,031	0,169
-500,897	76,149	-0,040	0,030
-499,883	574,528	-0,068	-0,120
-498,868	-117,994	0,087	0,011
-497,853	421,526	-0,083	-0,129
-496,839	-44,071	-0,065	0,023
-495,824	-70,087	-0,057	0,015
-494,810	800,000	0,039	0,118
-493,795	-10,931	0,006	-0,003
-492,781	-58,449	-0,182	0,057
-491,766	-200,000	0,013	-0,097
-490,751	68,630	0,137	0,101
-489,737	463,924	0,045	-0,072
-488,722	-105,986	0,066	-0,011
-487,708	76,961	-0,063	-0,048
-486,693	413,999	-0,003	0,005
-485,678	800,000	-0,043	-0,127
-484,664	666,137	-0,031	-0,059
-483,649	-73,916	-0,059	-0,015
-482,635	-81,746	0,053	-0,012
-481,620	-200,000	0,001	0,062
-480,605	715,473	0,044	0,085
-479,591	-170,498	-0,058	-0,001
-478,576	800,000	0,006	-0,019
-477,562	800,000	-0,107	-0,240
-476,547	253,865	-0,103	-0,127
-475,532	-169,578	0,022	-0,001
-474,518	-23,276	0,078	0,034
-473,503	215,928	-0,108	0,124
-472,489	-96,103	0,112	0,021
-471,474	126,548	0,037	-0,034
-470,459	73,767	0,069	-0,052
-469,445	800,000	-0,037	0,081
-468,430	248,208	0,075	-0,092
-467,416	-200,000	-0,021	-0,122
-466,401	-200,000	0,001	0,102
-465,386	36,127	0,124	0,078
-464,372	-200,000	0,027	-0,154
-463,357	-88,319	-0,012	-0,003
-462,343	800,000	0,044	-0,089
-461,328	800,000	-0,011	0,027
-460,313	800,000	0,025	0,054
-459,299	1,037	-0,057	0,029
-458,284	800,000	-0,064	-0,154
-457,270	247,919	0,031	0,037
-456,255	800,000	-0,048	-0,110
-455,241	800,000	-0,010	0,023
-454,226	146,414	-0,058	-0,056
-453,211	-144,687	-0,065	-0,004
-452,197	-200,000	0,013	-0,060
-451,182	800,000	0,039	0,117
-450,168	800,000	-0,048	-0,096
-449,153	36,531	-0,067	0,042
-448,138	-200,000	0,031	-0,110
-447,124	-200,000	-0,022	-0,106
-446,109	-200,000	0,013	0,108
-445,095	-200,000	0,025	0,086
-444,080	14,746	0,055	0,031
-443,065	618,957	-0,025	0,045
-442,051	436,975	-0,016	0,026
-441,036	-30,844	-0,127	0,051
-440,022	254,691	-0,056	-0,070
-439,007	-200,000	-0,001	0,039
-437,992	-200,000	-0,009	-0,211
-436,978	9,570	0,102	0,055
-435,963	119,039	0,048	0,042
-434,949	304,156	-0,034	0,045
-433,934	508,935	-0,061	-0,102
-432,919	-87,575	-0,168	0,036
-431,905	-131,323	0,104	-0,010
-430,890	57,895	-0,023	0,016
-429,876	-22,607	-0,057	0,025
-428,861	116,214	0,058	-0,051
-427,846	210,625	0,079	0,089
-426,832	-200,000	-0,039	0,169
-425,817	-200,000	-0,007	-0,033
-424,803	800,000	-0,044	-0,095
-423,788	-143,101	-0,042	-0,003
-422,773	800,000	0,063	0,134
-421,759	-200,000	0,001	0,060
-420,744	-200,000	0,000	0,045
-419,730	800,000	-0,036	0,073
-418,715	800,000	0,019	-0,049
-417,701	-86,384	0,097	-0,021
-416,686	800,000	-0,018	-0,038
-415,671	800,000	-0,062	0,131
-414,657	-66,441	0,068	0,019
-413,642	800,000	0,013	0,037
-412,628	-42,169	0,065	-0,024
-411,613	31,637	-0,091	-0,056
-410,598	800,000	0,024	0,069
-409,584	800,000	0,012	-0,035
-408,569	547,904	-0,056	0,097
-407,555	116,777	0,112	0,098
-406,540	800,000	-0,016	-0,049
-405,525	-87,626	-0,078	-0,017
-404,511	-185,028	-0,140	-0,002
-403,496	146,720	-0,050	-0,048
-402,482	384,272	0,031	-0,046
-401,467	239,831	0,107	-0,129
-400,452	-200,000	0,017	0,064
-399,438	-50,701	-0,081	-0,027
-398,423	66,188	-0,060	0,043
-397,409	800,000	-0,032	0,075
-396,394	249,307	0,009	0,011
-395,379	-122,250	-0,056	-0,006
-394,365	-24,753	0,142	0,060
-393,350	800,000	0,045	0,101
-392,336	-200,000	0,037	-0,120
-391,321	-200,000	-0,049	-0,226
-390,306	363,337	0,053	-0,077
-389,292	678,678	-0,066	-0,123
-388,277	45,614	0,116	0,077
-387,263	-197,915	0,095	-0,000
-386,248	-200,000	-0,024	-0,090
-385,233	-200,000	0,003	0,034
-384,219	106,252	-0,064	0,055
-383,204	27,153	-0,103	0,062
-382,190	15,910	0,042	0,023
-381,175	-127,605	0,123	-0,013
-380,160	77,411	0,034	0,026
-379,146	800,000	-0,020	0,051
-378,131	-200,000	0,019	0,066
-377,117	48,999	-0,077	0,052
-376,102	-200,000	-0,015	-0,104
-375,088	168,138	-0,036	-0,037
-374,073	800,000	-0,038	0,107
-373,058	379,169	0,043	0,063
-372,044	-83,558	0,138	-0,031
-371,029	-18,075	-0,114	0,051
-370,015	-62,594	0,048	0,014
-369,000	-75,404	-0,064	0,016
-367,985	-157,867	-0,064	0,003
-366,971	-200,000	0,018	0,081
-365,956	-124,515	-0,085	-0,009
-364,942	-173,161	0,074	-0,002
-363,927	152,879	0,051	0,050
-362,912	-76,528	-0,036	0,009
-361,898	-156,648	-0,086	0,004
-360,883	-200,000	0,008	0,059
-359,869	-137,535	0,040	0,003
-358,854	-200,000	-0,004	-0,066
-357,839	340,177	-0,013	0,018
-356,825	-166,598	-0,084	-0,002
-355,810	45,685	0,059	-0,039
-354,796	-52,477	-0,042	-0,014
-353,781	45,193	0,025	0,017
-352,766	29,911	0,112	-0,068
-351,752	-147,659	0,040	0,002
-350,737	-200,000	-0,013	0,111
-349,723	98,460	-0,114	-0,094
-348,708	800,000	-0,046	0,144
-347,693	275,326	-0,012	-0,015
-346,679	-29,981	-0,051	-0,021
-345,664	130,976	0,109	-0,100
-344,650	21,997	-0,113	-0,066
-343,635	-156,959	0,118	-0,005
-342,620	207,520	0,051	0,058
-341,606	10,631	0,040	-0,022
-340,591	-54,090	-0,150	0,049
-339,577	-47,752	0,057	-0,020
-338,562	567,030	0,059	-0,104
-337,548	-38,490	0,042	0,016
-336,533	-113,880	0,059	-0,008
-335,518	313,138	0,017	-0,023
-334,504	6,280	-0,129	0,069
-333,489	1,362	0,116	0,059
-332,475	415,764	-0,058	-0,090
-331,460	28,689	-0,066	-0,040
-330,445	-155,349	0,166	0,008
-329,431	-122,995	0,122	-0,014
-328,416	800,000	-0,016	-0,046
-327,402	108,617	-0,100	0,085
-326,387	31,599	0,122	-0,075
-325,372	-200,000	0,013	0,221
-324,358	-108,986	-0,036	-0,005
-323,343	352,188	-0,051	0,072
-322,329	-200,000	-0,020	0,096
-321,314	-200,000	0,042	0,136
-320,299	-200,000	-0,020	0,072
-319,285	109,177	-0,095	-0,081
-318,270	97,501	0,048	0,039
-317,256	54,991	-0,087	-0,060
-316,241	800,000	0,009	0,026
-315,226	-200,000	0,003	0,124
-314,212	-98,091	-0,062	-0,011
-313,197	757,040	-0,026	0,051
-312,183	-200,000	-0,037	0,133
-311,168	-200,000	0,006	0,106
-310,153	-200,000	-0,001	-0,011
-309,139	313,648	-0,102	-0,137
-308,124	800,000	0,031	0,072
-307,110	-28,010	-0,117	-0,048
-306,095	-200,000	0,013	-0,072
-305,080	-80,656	-0,088	-0,021
-304,066	800,000	-0,035	0,077
-303,051	-200,000	0,008	-0,045
-302,037	-27,324	0,048	0,020
-301,022	-200,000	-0,004	0,029
-300,008	35,427	0,092	0,058
-298,993	-73,229	-0,099	-0,026
-297,978	-146,636	0,157	-0,010
-296,964	800,000	-0,016	0,041
-295,949	-200,000	0,015	-0,061
-294,935	800,000	-0,030	0,066
-293,920	400,369	0,036	0,054
-292,905	442,566	0,029	0,046
-291,891	112,070	0,075	0,065
-290,876	-200,000	0,002	0,108
-289,862	232,282	-0,047	0,056
-288,847	-79,655	0,060	0,014
-287,832	-45,561	-0,189	-0,067
-286,818	-51,611	-0,036	0,012
-285,803	76,552	0,036	0,028
-284,789	-68,046	0,039	-0,011
-283,774	-138,896	0,143	-0,011
-282,759	-181,036	-0,067	0,001
-281,745	-200,000	-0,009	0,074
-280,730	-200,000	-0,016	-0,135
-279,716	67,322	0,161	-0,118
-278,701	115,483	0,088	0,077
-277,686	11,097	0,252	-0,137
-276,672	800,000	-0,019	-0,045
-275,657	91,247	0,027	0,021
-274,643	-102,604	-0,050	0,008
-273,628	-63,504	-0,049	-0,014
-272,613	-0,248	-0,085	0,043
-271,599	-27,837	0,105	-0,043
-270,584	-56,088	0,132	0,042
-269,570	370,280	0,043	0,062
-268,555	44,082	-0,121	0,079
-267,540	235,947	0,011	-0,013
-266,526	800,000	-0,052	-0,157
-265,511	-67,006	0,091	0,026
-264,497	-125,625	0,124	0,013
-263,482	7,277	0,083	0,044
-262,467	-200,000	-0,008	-0,050
-261,453	-200,000	0,006	-0,144
-260,438	28,136	0,063	0,038
-259,424	-200,000	-0,017	-0,066
-258,409	-174,382	0,138	0,003
-257,395	-10,327	0,039	0,019
-256,380	-8,613	-0,072	-0,034
-255,365	592,913	0,029	-0,051
-254,351	160,490	-0,045	0,045
-253,336	-20,248	-0,162	0,071
-252,322	333,485	-0,160	-0,222
-251,307	-152,125	0,067	-0,003
-250,292	-52,337	-0,105	-0,035
-249,278	800,000	0,007	0,021
-248,263	257,701	-0,074	0,091
-247,249	-20,250	0,064	-0,028
-246,234	800,000	-0,064	-0,151
-245,219	-119,168	0,065	0,008
-244,205	-200,000	0,013	-0,050
-243,190	22,817	-0,024	-0,014
-242,176	535,663	0,078	-0,133
-241,161	-200,000	0,006	0,051
-240,146	86,027	0,124	0,097
-239,132	28,227	-0,140	-0,084
-238,117	64,094	0,066	-0,047
-237,103	431,915	-0,026	-0,041
-236,088	-74,851	0,067	-0,017
-235,073	69,826	0,138	-0,101
-234,059	-157,249	0,134	0,006
-233,044	165,532	-0,087	0,087
-232,030	106,979	-0,033	-0,028
-231,015	-98,870	-0,144	0,026
-230,000	-200,000	-0,012	0,114
-228,986	632,322	0,061	-0,110
-227,971	30,403	-0,049	-0,030
-226,957	35,578	0,067	0,042
-225,942	-137,523	0,136	0,011
-224,927	51,821	-0,056	-0,038
-223,913	233,059	-0,059	0,070
-222,898	800,000	0,044	-0,107
-221,884	800,000	0,047	-0,108
-220,869	469,127	0,103	0,165
-219,855	-200,000	-0,006	0,076
-218,840	-200,000	-0,034	0,161
-217,825	-200,000	-0,031	0,130
-216,811	-146,683	0,078	-0,005
-215,796	-200,000	0,003	0,014
-214,782	-200,000	0,028	-0,104
-213,767	765,578	-0,039	-0,077
-212,752	-19,870	0,049	0,021
-211,738	-38,694	0,191	0,071
-210,723	-200,000	-0,047	0,164
-209,709	-113,591	-0,133	-0,018
-208,694	140,033	0,084	-0,079
-207,679	103,725	-0,081	-0,068
-206,665	58,800	0,056	0,039
-205,650	-158,255	0,143	-0,006
-204,636	-200,000	0,007	0,045
-203,621	179,224	0,052	0,054
-202,606	-200,000	-0,054	-0,213
-201,592	576,673	-0,057	-0,100
-200,577	-165,270	0,108	-0,003
-199,563	89,385	0,112	0,089
-198,548	280,814	-0,007	0,010
-197,533	154,346	-0,041	0,040
-196,519	-151,041	-0,076	0,004
-195,504	-69,035	-0,119	-0,032
-194,490	234,251	-0,080	-0,095
-193,475	-200,000	0,009	-0,133
-192,460	-200,000	0,002	0,116
-191,446	-111,403	0,117	0,017
-190,431	-4,748	0,142	0,069
-189,417	-130,919	-0,069	0,006
-188,402	-200,000	0,038	-0,134
-187,387	774,603	0,050	-0,099
-186,373	-200,000	0,009	-0,050
-185,358	800,000	-0,025	-0,073
-184,344	516,711	0,072	0,120
-183,329	719,685	0,054	-0,103
-182,315	257,568	-0,066	0,081
-181,300	-75,997	0,136	0,034
-180,285	-3,550	0,064	0,031
-179,271	-200,000	0,030	-0,129
-178,256	-200,000	-0,017	-0,060
-177,242	146,712	-0,001	-0,001
-176,227	423,988	-0,054	-0,083
-175,212	89,652	0,079	-0,063
-174,198	-33,535	0,065	0,025
-173,183	-200,000	0,011	-0,071
-172,169	-120,403	0,078	0,009
-171,154	-86,315	-0,262	0,057
-170,139	133,485	0,065	0,060
-169,125	800,000	0,040	0,088
-168,110	800,000	-0,056	0,117
-167,096	555,945	0,035	-0,060
-166,081	-94,676	-0,047	-0,009
-165,066	7,479	-0,043	0,023
-164,052	-200,000	-0,007	-0,138
-163,037	-137,150	0,181	-0,014
-162,023	159,793	-0,067	0,067
-161,008	744,627	0,043	0,083
-159,993	800,000	-0,070	0,140
-158,979	800,000	0,023	0,055
-157,964	-152,589	-0,083	-0,004
-156,950	11,841	-0,113	0,062
-155,935	-200,000	-0,018	0,087
-154,920	-49,635	0,195	0,066
-153,906	-200,000	-0,010	-0,047
-152,891	67,631	-0,080	0,058
-151,877	800,000	0,010	-0,028
-150,862	203,162	0,008	0,009
-149,847	381,380	-0,012	-0,018
-148,833	-200,000	0,006	0,038
-147,818	-67,314	0,135	-0,038
-146,804	83,392	-0,031	0,024
-145,789	-200,000	0,000	-0,017
-144,775	-200,000	0,032	-0,111
-143,760	171,600	0,071	-0,072
-142,745	17,057	-0,119	-0,067
-141,731	387,213	-0,012	0,018
-140,716	-183,317	-0,100	-0,001
-139,702	-23,498	0,049	0,021
-138,687	-200,000	0,003	0,061
-137,672	-57,691	0,094	0,029
-136,658	-117,851	-0,040	-0,005
-135,643	-200,000	-0,027	-0,116
-134,629	-128,381	0,134	-0,013
-133,614	244,834	0,069	0,083
-132,599	350,555	0,098	0,138
-131,585	800,000	-0,066	0,171
-130,570	800,000	0,033	0,084
-129,556	-125,306	0,059	-0,006
-128,541	-14,039	0,044	-0,020
-127,526	502,481	-0,053	-0,088
-126,512	112,840	-0,064	0,055
-125,497	-200,000	0,016	0,072
-124,483	-123,906	-0,150	0,017
-123,468	-70,526	-0,090	-0,024
-122,453	-129,417	0,031	-0,003
-121,439	-200,000	-0,005	0,113
-120,424	-177,795	-0,028	-0,000
-119,410	64,659	0,054	-0,039
