DTS Sentinel unit serial number:	SN410029Multiplexer serial number:	ORYXHardware model number:	OX2-SRSoftware version number:	ORYX F/W v4,00 Oryx Data Collector v3.7.2.0data status	okinstallation	BH3 CH2differential loss correction	single-endedforward channel	channel 2reverse channel	N/Adate	2023/12/05time	19:42:28forward acquisition time	300,00reverse acquisition time	0,00gamma	499,1914k internal	0,3194k external	0,3194temperature offset calibration	1,0000default loss term (dB/km)	0,3820temperature slope calibration	1,0000multiplexer offset coefficient	1,0000multiplexer slope coefficient	1,0000fibre end	0,00T internal ref (°C)	10,62T ext. ref 1 (°C)	-3,91T ext. ref 2 (°C)	-4,06length (m)	temperature (°C)	Stokes	anti-Stokes-744,400	386,691	-0,044	-0,067
-743,385	96,275	-0,189	0,158
-742,371	296,503	0,137	-0,184
-741,356	-200,000	-0,068	0,272
-740,342	800,000	-0,005	-0,012
-739,327	177,606	-0,102	0,109
-738,312	320,163	-0,081	-0,112
-737,298	-66,764	-0,256	0,073
-736,283	-200,000	-0,020	-0,178
-735,269	195,743	-0,181	0,201
-734,254	-200,000	-0,007	0,024
-733,239	-82,049	-0,442	-0,104
-732,225	-20,098	0,070	0,031
-731,210	755,789	0,074	0,146
-730,196	-200,000	0,001	-0,074
-729,181	273,603	-0,043	0,055
-728,167	389,335	-0,045	-0,068
-727,152	134,733	0,026	-0,025
-726,137	459,179	0,015	-0,025
-725,123	-39,595	-0,063	-0,024
-724,108	73,050	-0,148	-0,112
-723,094	252,133	-0,098	-0,122
-722,079	800,000	0,022	-0,048
-721,064	-167,556	0,156	0,004
-720,050	83,358	-0,053	-0,042
-719,035	-200,000	-0,031	-0,136
-718,021	315,174	-0,085	-0,117
-717,006	412,311	0,064	-0,100
-715,991	281,379	-0,168	-0,219
-714,977	35,544	-0,073	0,046
-713,962	3,176	0,033	-0,018
-712,948	167,953	0,063	0,065
-711,933	688,278	0,040	0,076
-710,918	-175,807	0,067	-0,001
-709,904	29,114	-0,090	-0,055
-708,889	521,274	0,046	0,078
-707,875	-72,974	-0,090	0,024
-706,860	-147,386	-0,036	0,002
-705,845	-170,453	0,024	-0,001
-704,831	474,218	0,053	-0,087
-703,816	-91,153	-0,014	-0,003
-702,802	800,000	-0,042	0,098
-701,787	262,890	0,025	-0,031
-700,772	-200,000	0,021	-0,217
-699,758	248,540	0,084	-0,103
-698,743	29,661	0,105	-0,065
-697,729	-61,631	-0,077	-0,023
-696,714	84,768	0,104	0,083
-695,699	127,473	-0,045	-0,042
-694,685	103,623	0,118	-0,101
-693,670	566,716	-0,080	-0,142
-692,656	-200,000	-0,022	0,127
-691,641	-200,000	0,011	0,105
-690,627	-16,567	0,205	0,094
-689,612	18,602	-0,083	0,048
-688,597	471,110	-0,062	-0,101
-687,583	360,100	-0,053	-0,078
-686,568	64,826	-0,101	0,074
-685,554	-122,369	0,020	-0,002
-684,539	-44,428	-0,085	-0,031
-683,524	-45,523	0,047	0,017
-682,510	-50,108	-0,048	-0,016
-681,495	-165,524	-0,085	0,003
-680,481	-30,906	-0,100	-0,041
-679,466	-200,000	0,001	-0,239
-678,451	-48,580	-0,106	-0,037
-677,437	-67,339	0,142	0,040
-676,422	124,233	-0,089	0,082
-675,408	298,949	0,063	-0,084
-674,393	-37,031	-0,039	-0,015
-673,378	240,374	0,051	-0,062
-672,364	345,347	-0,010	-0,014
-671,349	-51,973	-0,169	0,057
-670,335	275,395	-0,036	-0,047
-669,320	110,688	0,062	-0,054
-668,305	-19,573	-0,049	0,022
-667,291	-90,875	-0,084	0,017
-666,276	800,000	-0,038	0,112
-665,262	103,282	-0,041	0,035
-664,247	-80,329	-0,028	0,007
-663,232	-139,260	-0,167	0,013
-662,218	800,000	-0,052	0,136
-661,203	409,581	0,050	0,078
-660,189	325,731	0,045	-0,063
-659,174	192,244	-0,030	-0,033
-658,159	-200,000	-0,014	-0,121
-657,145	-40,358	-0,052	-0,020
-656,130	800,000	-0,066	-0,176
-655,116	-12,616	0,074	0,035
-654,101	134,366	0,105	-0,099
-653,086	-90,865	-0,148	-0,031
-652,072	-41,349	-0,121	-0,045
-651,057	-200,000	0,015	-0,092
-650,043	-200,000	-0,002	0,066
-649,028	176,433	0,041	-0,044
-648,014	107,093	0,010	-0,009
-646,999	-200,000	-0,002	-0,146
-645,984	-110,498	-0,033	-0,005
-644,970	74,971	-0,058	0,044
-643,955	-200,000	-0,034	-0,141
-642,941	-200,000	-0,033	-0,159
-641,926	20,920	-0,035	-0,020
-640,911	60,233	0,045	-0,032
-639,897	-169,070	-0,111	0,003
-638,882	663,911	0,048	0,090
-637,868	800,000	-0,026	0,074
-636,853	48,840	-0,102	0,069
-635,838	-200,000	-0,000	0,047
-634,824	590,996	-0,056	-0,101
-633,809	-200,000	0,015	0,111
-632,795	479,920	-0,022	0,037
-631,780	-116,044	0,181	-0,024
-630,765	-200,000	-0,016	0,096
-629,751	-177,703	-0,127	0,002
-628,736	-200,000	-0,018	0,116
-627,722	-200,000	-0,003	0,125
-626,707	-23,897	-0,123	0,053
-625,692	-95,653	0,142	-0,027
-624,678	800,000	-0,062	0,158
-623,663	-131,219	-0,155	-0,015
-622,649	-20,122	-0,052	-0,023
-621,634	-12,800	-0,053	-0,025
-620,619	-72,160	0,116	-0,031
-619,605	-200,000	0,015	-0,110
-618,590	84,261	0,058	0,046
-617,576	41,733	0,079	0,052
-616,561	201,407	0,125	0,140
-615,546	2,426	-0,111	0,058
-614,532	193,305	-0,031	-0,034
-613,517	-200,000	-0,026	-0,150
-612,503	-200,000	0,002	0,088
-611,488	-49,435	0,077	-0,027
-610,474	-200,000	0,017	-0,125
-609,459	800,000	-0,042	-0,097
-608,444	-89,032	-0,086	0,018
-607,430	-200,000	0,018	-0,122
-606,415	-13,699	-0,062	0,029
-605,401	153,320	-0,038	-0,038
-604,386	371,183	-0,034	0,050
-603,371	-68,494	0,067	0,019
-602,357	-46,109	-0,121	0,043
-601,342	411,677	-0,033	-0,051
-600,328	800,000	-0,013	0,032
-599,313	-200,000	0,000	0,014
-598,298	-125,968	0,056	0,006
-597,284	102,794	0,085	0,072
-596,269	-119,964	-0,037	0,005
-595,255	194,112	-0,046	0,050
-594,240	48,653	-0,065	0,044
-593,225	-120,683	-0,049	-0,006
-592,211	38,065	-0,047	-0,031
-591,196	-98,290	0,016	-0,003
-590,182	-50,143	0,022	-0,008
-589,167	152,520	-0,016	-0,016
-588,152	-200,000	-0,094	-0,000
-587,138	210,002	-0,110	-0,125
-586,123	289,830	-0,049	-0,065
-585,109	-41,953	0,071	0,026
-584,094	191,482	0,044	-0,048
-583,079	59,766	-0,116	0,083
-582,065	800,000	-0,031	-0,091
-581,050	-200,000	0,070	0,000
-580,036	247,334	0,051	0,062
-579,021	-68,217	0,114	0,032
-578,006	-200,000	0,002	0,045
-576,992	103,291	0,067	0,057
-575,977	-57,129	0,089	-0,028
-574,963	800,000	-0,038	0,105
-573,948	-200,000	0,024	0,100
-572,934	148,370	-0,072	-0,070
-571,919	217,743	-0,096	-0,111
-570,904	-58,681	-0,103	0,032
-569,890	404,886	-0,064	0,097
-568,875	-200,000	-0,007	-0,045
-567,861	241,764	0,013	-0,016
-566,846	800,000	0,047	-0,102
-565,831	-129,633	-0,117	-0,012
-564,817	53,182	-0,081	-0,056
-563,802	614,515	-0,017	-0,031
-562,788	252,030	-0,078	0,096
-561,773	-8,257	-0,005	0,002
-560,758	242,848	0,070	-0,085
-559,744	-200,000	-0,017	0,057
-558,729	143,326	-0,076	-0,073
-557,715	800,000	-0,034	-0,094
-556,700	-79,678	-0,031	-0,008
-555,685	-200,000	0,015	-0,052
-554,671	-19,969	-0,194	-0,086
-553,656	-18,064	0,020	-0,009
-552,642	-200,000	-0,006	0,090
-551,627	461,227	-0,078	-0,126
-550,612	-200,000	-0,016	0,060
-549,598	800,000	0,027	-0,064
-548,583	125,088	0,050	-0,046
-547,569	-20,511	-0,063	-0,028
-546,554	18,349	0,107	0,062
-545,539	439,857	-0,080	-0,126
-544,525	304,230	0,058	-0,078
-543,510	122,324	-0,077	0,070
-542,496	-5,780	0,138	-0,068
-541,481	800,000	-0,028	-0,069
-540,466	681,109	0,019	0,037
-539,452	-59,494	0,062	0,019
-538,437	-143,238	0,123	0,008
-537,423	-100,045	-0,091	-0,016
-536,408	261,371	0,024	-0,030
-535,393	-200,000	0,007	-0,058
-534,379	46,441	0,039	0,026
-533,364	327,347	0,143	0,199
-532,350	800,000	-0,027	0,061
-531,335	-138,369	0,127	0,010
-530,321	-131,681	-0,182	0,017
-529,306	175,236	-0,088	0,092
-528,291	-32,378	-0,097	-0,039
-527,277	310,149	-0,074	-0,100
-526,262	-200,000	0,014	-0,120
-525,248	17,108	-0,036	-0,021
-524,233	-200,000	0,012	0,108
-523,218	-200,000	0,010	0,072
-522,204	-41,415	0,073	-0,027
-521,189	83,773	0,017	0,013
-520,175	476,884	-0,064	0,105
-519,160	81,615	-0,066	-0,052
-518,145	-52,184	0,137	-0,046
-517,131	-50,225	0,129	0,044
-516,116	-200,000	-0,001	0,049
-515,102	406,021	-0,052	-0,080
-514,087	-200,000	0,001	-0,056
-513,072	-200,000	-0,020	-0,091
-512,058	800,000	-0,030	0,074
-511,043	-63,222	-0,064	0,019
-510,029	800,000	0,052	0,114
-509,014	-54,362	0,153	0,050
-507,999	-200,000	0,003	0,098
-506,985	-91,616	-0,062	0,013
-505,970	337,098	-0,057	-0,080
-504,956	364,848	0,019	0,028
-503,941	-127,653	-0,055	0,006
-502,926	800,000	0,013	-0,028
-501,912	-5,076	0,060	-0,030
-500,897	-200,000	0,000	0,062
-499,883	68,194	0,022	-0,016
-498,868	-37,669	-0,168	-0,064
-497,853	-10,760	-0,110	-0,052
-496,839	-73,493	0,142	0,037
-495,824	190,401	-0,063	0,068
-494,810	394,214	-0,072	0,108
-493,795	-123,359	-0,093	0,011
-492,781	114,034	0,070	0,062
-491,766	-200,000	0,002	-0,034
-490,751	800,000	-0,025	-0,069
-489,737	-200,000	-0,011	0,049
-488,722	16,066	-0,100	0,057
-487,708	800,000	-0,020	-0,051
-486,693	-200,000	-0,005	0,253
-485,678	2,765	0,088	-0,046
-484,664	-120,872	-0,148	0,018
-483,649	353,635	-0,104	-0,150
-482,635	359,907	0,045	-0,065
-481,620	-200,000	0,034	0,161
-480,605	-116,851	0,038	0,005
-479,591	504,279	-0,057	-0,096
-478,576	57,594	-0,022	0,016
-477,562	-200,000	0,030	-0,137
-476,547	800,000	0,035	-0,104
-475,532	-200,000	0,005	0,031
-474,518	-200,000	0,011	0,045
-473,503	733,929	0,067	0,130
-472,489	29,702	-0,080	0,049
-471,474	-54,103	0,105	0,034
-470,459	32,312	-0,081	-0,051
-469,445	-200,000	0,003	-0,184
-468,430	800,000	0,029	-0,069
-467,416	-52,583	0,069	0,023
-466,401	18,947	0,007	-0,004
-465,386	100,394	-0,097	0,081
-464,372	69,780	-0,037	-0,028
-463,357	527,619	0,039	-0,066
-462,343	-200,000	-0,013	-0,046
-461,328	-120,071	0,092	0,011
-460,313	24,407	0,040	-0,024
-459,299	71,407	0,104	0,078
-458,284	800,000	0,056	-0,163
-457,270	-42,021	-0,072	0,026
-456,255	-7,942	0,077	0,037
-455,241	29,562	-0,110	-0,067
-454,226	-200,000	0,002	0,024
-453,211	-160,504	-0,091	-0,003
-452,197	800,000	0,050	-0,115
-451,182	77,111	0,108	0,083
-450,168	-200,000	-0,045	0,155
-449,153	800,000	0,023	0,051
-448,138	10,454	-0,081	-0,044
-447,124	-116,535	0,065	-0,009
-446,109	198,481	-0,044	0,049
-445,095	800,000	0,034	0,075
-444,080	-115,451	0,084	-0,011
-443,065	213,862	0,047	0,054
-442,051	-162,316	0,094	-0,003
-441,036	264,628	-0,060	-0,075
-440,022	512,102	-0,045	-0,075
-439,007	-200,000	0,013	0,072
-437,992	-200,000	-0,031	0,170
-436,978	-122,751	0,101	0,012
-435,963	-200,000	-0,009	-0,054
-434,949	800,000	0,023	0,054
-433,934	74,837	-0,046	-0,035
-432,919	168,374	-0,018	-0,019
-431,905	-200,000	-0,034	0,134
-430,890	199,327	-0,074	0,082
-429,876	268,725	-0,008	-0,010
-428,861	166,583	0,112	0,114
-427,846	-200,000	0,016	0,056
-426,832	-200,000	-0,023	-0,110
-425,817	800,000	0,062	-0,157
-424,803	-200,000	-0,015	-0,105
-423,788	-120,286	0,185	0,023
-422,773	365,861	0,077	0,112
-421,759	-200,000	0,089	-0,000
-420,744	270,380	-0,042	-0,053
-419,730	78,185	0,018	-0,014
-418,715	-10,169	-0,174	-0,083
-417,701	5,787	-0,049	0,026
-416,686	-200,000	0,000	-0,016
-415,671	800,000	0,026	0,052
-414,657	-200,000	0,010	0,054
-413,642	-200,000	0,009	0,103
-412,628	-178,839	-0,144	0,002
-411,613	-200,000	-0,017	-0,078
-410,598	-200,000	-0,026	-0,090
-409,584	105,682	0,126	-0,107
-408,569	414,179	0,034	0,052
-407,555	-57,808	0,178	0,056
-406,540	800,000	-0,058	0,133
-405,525	-120,737	0,130	0,016
-404,511	-200,000	-0,034	-0,139
-403,496	290,298	0,050	-0,065
-402,482	-200,000	0,005	0,046
-401,467	174,103	0,082	0,085
-400,452	800,000	-0,017	0,044
-399,438	-29,982	-0,140	-0,057
-398,423	-200,000	-0,037	0,124
-397,409	-91,309	0,029	0,006
-396,394	97,686	0,124	-0,103
-395,379	-200,000	-0,005	-0,040
-394,365	14,465	0,142	0,079
-393,350	800,000	-0,050	-0,144
-392,336	-103,518	-0,081	0,014
-391,321	-200,000	0,009	-0,060
-390,306	116,486	0,063	-0,055
-389,292	250,371	-0,134	-0,164
-388,277	118,065	0,129	0,115
-387,263	800,000	0,027	0,059
-386,248	-29,271	0,106	-0,043
-385,233	-200,000	0,014	0,135
-384,219	-97,799	0,079	-0,015
-383,204	-123,547	-0,111	0,013
-382,190	89,763	-0,043	-0,035
-381,175	-109,261	-0,100	0,015
-380,160	165,806	0,067	-0,068
-379,146	19,345	0,122	0,070
-378,131	-160,995	-0,110	-0,004
-377,117	800,000	-0,031	0,069
-376,102	-200,000	-0,002	-0,056
-375,088	-130,028	0,059	-0,006
-374,073	-74,273	0,153	0,039
-373,058	6,866	0,069	0,037
-372,044	-200,000	-0,045	0,150
-371,029	60,824	0,037	-0,026
-370,015	-3,258	-0,040	0,020
-369,000	474,799	-0,046	-0,074
-367,985	800,000	-0,109	-0,232
-366,971	-200,000	-0,005	0,103
-365,956	-200,000	0,001	-0,043
-364,942	305,977	-0,055	-0,073
-363,927	-79,365	0,024	0,006
-362,912	31,468	-0,030	0,018
-361,898	98,767	0,108	-0,090
-360,883	15,884	-0,130	-0,073
-359,869	164,743	0,073	0,074
-358,854	62,300	-0,078	-0,056
-357,839	-200,000	0,023	0,127
-356,825	800,000	-0,019	-0,047
-355,810	45,087	0,065	-0,043
-354,796	137,784	-0,083	-0,078
-353,781	164,838	0,046	-0,047
-352,766	-200,000	0,021	-0,127
-351,752	-55,693	-0,089	-0,028
-350,737	143,548	-0,032	0,030
-349,723	-200,000	0,008	0,128
-348,708	-10,237	0,057	0,027
-347,693	-49,355	-0,184	-0,063
-346,679	-200,000	0,007	0,095
-345,664	116,551	-0,112	-0,099
-344,650	101,284	0,008	-0,007
-343,635	63,893	-0,124	-0,089
-342,620	498,367	0,066	0,110
-341,606	132,475	-0,032	0,030
-340,591	-61,059	0,029	-0,009
-339,577	-200,000	0,042	0,142
-338,562	800,000	0,009	0,023
-337,548	-200,000	0,026	0,147
-336,533	55,765	0,048	-0,033
-335,518	-35,094	0,073	-0,028
-334,504	26,727	0,056	0,034
-333,489	159,433	-0,149	-0,149
-332,475	-200,000	0,007	-0,051
-331,460	-126,092	-0,144	0,015
-330,445	-142,075	0,174	0,012
-329,431	3,544	-0,069	-0,036
-328,416	89,049	0,048	0,039
-327,402	580,319	-0,053	0,094
-326,387	-200,000	0,024	-0,080
-325,372	800,000	0,029	0,059
-324,358	800,000	-0,054	-0,156
-323,343	-200,000	-0,000	-0,055
-322,329	418,830	-0,040	0,061
-321,314	251,139	0,041	0,050
-320,299	800,000	-0,017	-0,036
-319,285	-200,000	0,005	-0,153
-318,270	256,353	-0,049	-0,060
-317,256	-200,000	-0,006	-0,135
-316,241	-54,329	-0,067	-0,022
-315,226	-66,592	0,047	-0,013
-314,212	-200,000	-0,013	0,049
-313,197	-200,000	0,001	-0,005
-312,183	-116,415	-0,064	-0,008
-311,168	800,000	0,083	-0,181
-310,153	365,182	-0,037	-0,054
-309,139	-200,000	-0,016	0,069
-308,124	51,594	0,055	0,037
-307,110	-79,594	-0,025	-0,006
-306,095	11,724	0,192	0,106
-305,080	459,034	-0,031	-0,050
-304,066	-60,516	-0,041	0,012
-303,051	-15,301	-0,089	-0,041
-302,037	122,788	0,056	0,050
-301,022	-200,000	0,012	-0,062
-300,008	800,000	-0,006	-0,013
-298,993	466,037	0,118	0,190
-297,978	460,323	-0,032	0,051
-296,964	30,505	-0,142	-0,087
-295,949	169,349	-0,048	-0,049
-294,935	100,028	-0,047	-0,039
-293,920	-200,000	0,056	-0,248
-292,905	-102,888	-0,081	-0,014
-291,891	-200,000	0,059	0,238
-290,876	99,972	-0,089	0,074
-289,862	-59,692	-0,018	0,005
-288,847	-198,212	-0,220	0,001
-287,832	-10,878	0,037	-0,018
-286,818	79,371	0,070	0,054
-285,803	20,976	0,099	0,057
-284,789	-108,603	0,062	-0,009
-283,774	-200,000	0,024	0,105
-282,759	402,566	0,060	-0,090
-281,745	800,000	-0,034	-0,098
-280,730	-86,866	-0,060	0,013
-279,716	641,842	0,048	-0,087
-278,701	-200,000	0,027	-0,106
-277,686	-200,000	-0,006	0,034
-276,672	-156,925	0,050	-0,002
-275,657	-78,608	-0,147	-0,036
-274,643	-200,000	0,007	-0,120
-273,628	-200,000	0,019	0,118
-272,613	78,451	0,104	-0,079
-271,599	64,083	-0,091	0,066
-270,584	-101,941	0,139	0,024
-269,570	158,676	0,105	0,105
-268,555	-123,817	0,096	0,011
-267,540	67,773	-0,080	-0,058
-266,526	-200,000	-0,007	-0,088
-265,511	169,192	0,067	0,068
-264,497	-110,276	0,095	0,014
-263,482	-200,000	0,011	0,063
-262,467	30,857	0,111	0,068
-261,453	34,917	-0,077	0,048
-260,438	64,342	0,051	-0,037
-259,424	-200,000	-0,059	-0,204
-258,409	-200,000	0,003	-0,044
-257,395	200,972	-0,062	0,068
-256,380	-200,000	-0,039	0,153
-255,365	-200,000	0,000	0,128
-254,351	155,338	-0,025	-0,024
-253,336	-28,763	0,064	-0,026
-252,322	800,000	-0,010	0,030
-251,307	-200,000	-0,009	0,066
-250,292	-200,000	0,037	0,188
-249,278	1,151	0,038	-0,020
-248,263	-74,933	0,074	0,019
-247,249	-60,935	0,056	0,017
-246,234	768,391	-0,011	-0,022
-245,219	187,088	0,020	0,022
-244,205	-200,000	-0,002	-0,087
-243,190	447,155	0,061	-0,096
-242,176	-200,000	-0,015	0,082
-241,161	-77,197	-0,100	-0,025
-240,146	-99,886	0,101	-0,018
-239,132	672,838	0,042	-0,077
-238,117	33,077	-0,098	0,060
-237,103	72,767	0,066	-0,049
-236,088	-166,805	-0,091	0,003
-235,073	-200,000	0,027	0,123
-234,059	-200,000	0,004	0,099
-233,044	-200,000	-0,019	-0,137
-232,030	800,000	-0,028	0,064
-231,015	-57,474	0,036	0,011
-230,000	-200,000	-0,005	0,053
-228,986	-70,180	0,133	0,036
-227,971	-200,000	0,013	0,112
-226,957	-130,924	-0,060	-0,006
-225,942	-200,000	0,015	0,051
-224,927	233,646	0,060	-0,071
-223,913	-30,681	0,081	-0,033
-222,898	800,000	-0,015	-0,037
-221,884	-68,683	0,040	-0,011
-220,869	-167,109	-0,059	-0,002
-219,855	99,643	0,030	0,025
-218,840	-200,000	-0,003	0,082
-217,825	29,664	-0,122	0,074
-216,811	-11,548	0,045	0,021
-215,796	800,000	-0,040	-0,115
-214,782	78,010	-0,038	0,029
-213,767	34,530	0,067	0,042
-212,752	281,409	0,011	-0,014
-211,738	800,000	-0,036	0,103
-210,723	800,000	0,012	-0,034
-209,709	-78,639	0,150	-0,036
-208,694	-200,000	0,013	-0,157
-207,679	83,951	0,061	0,048
-206,665	-57,075	0,062	-0,019
-205,650	323,447	0,076	0,103
-204,636	195,982	-0,044	-0,048
-203,621	-70,606	0,110	0,029
-202,606	-128,748	-0,060	-0,006
-201,592	-106,824	-0,113	-0,018
-200,577	-26,595	0,057	0,024
-199,563	301,499	-0,086	-0,114
-198,548	-200,000	0,004	-0,045
-197,533	1,001	0,084	0,043
-196,519	-34,735	-0,112	0,043
-195,504	406,679	0,061	-0,092
-194,490	9,838	-0,099	-0,053
-193,475	121,107	0,060	0,054
-192,460	-45,463	0,115	-0,041
-191,446	-148,229	-0,129	0,007
-190,431	279,167	0,081	0,104
-189,417	611,617	0,033	0,059
-188,402	800,000	0,021	-0,058
-187,387	695,087	-0,051	0,096
-186,373	-200,000	0,030	-0,133
-185,358	-22,190	-0,054	0,023
-184,344	-64,542	0,133	-0,038
-183,329	275,263	-0,045	-0,058
-182,315	108,381	0,152	0,130
-181,300	-140,462	-0,007	-0,001
-180,285	-46,212	-0,099	0,035
-179,271	-200,000	0,021	-0,144
-178,256	-200,000	0,003	-0,137
-177,242	4,067	0,113	-0,059
-176,227	-38,623	-0,031	0,011
-175,212	-8,960	-0,026	-0,012
-174,198	800,000	0,030	0,080
-173,183	-72,866	-0,023	-0,006
-172,169	442,899	-0,041	-0,065
-171,154	226,430	-0,062	0,072
-170,139	-128,773	0,107	0,011
-169,125	624,722	-0,040	0,072
-168,110	-200,000	-0,016	0,069
-167,096	236,730	-0,066	-0,078
-166,081	-200,000	-0,004	-0,032
-165,066	122,201	0,081	-0,072
-164,052	-75,537	-0,034	-0,009
-163,037	-184,802	0,086	-0,001
-162,023	211,160	0,127	0,142
-161,008	697,759	0,040	0,076
-159,993	70,356	-0,100	0,074
-158,979	415,256	-0,057	0,087
-157,964	210,791	-0,047	0,052
-156,950	-200,000	0,001	0,015
-155,935	-200,000	0,034	-0,174
-154,920	180,805	0,018	-0,019
-153,906	-200,000	0,042	0,166
-152,891	-200,000	0,023	-0,074
-151,877	222,676	0,039	-0,045
-150,862	385,604	-0,073	-0,108
-149,847	-200,000	0,000	-0,061
-148,833	-51,846	-0,152	-0,050
-147,818	672,946	0,132	0,245
-146,804	-200,000	0,014	0,203
-145,789	-100,854	0,087	0,015
-144,775	-43,652	-0,120	0,043
-143,760	-200,000	0,003	-0,138
-142,745	420,993	0,026	-0,040
-141,731	397,462	-0,012	0,018
-140,716	52,170	-0,137	-0,093
-139,702	100,014	0,142	0,117
-138,687	-200,000	0,013	0,130
-137,672	187,601	-0,040	-0,042
-136,658	119,467	-0,056	-0,049
-135,643	-200,000	0,002	-0,119
-134,629	-200,000	0,005	-0,102
-133,614	-45,285	0,084	0,030
-132,599	45,221	0,060	-0,039
-131,585	303,985	0,018	0,024
-130,570	21,691	0,113	-0,065
-129,556	-200,000	-0,002	-0,057
-128,541	800,000	-0,056	-0,155
-127,526	76,957	0,049	0,037
-126,512	10,223	-0,098	0,053
-125,497	-200,000	-0,045	0,156
-124,483	286,049	-0,074	0,095
-123,468	39,396	-0,061	0,039
-122,453	-200,000	-0,002	0,028
-121,439	782,051	-0,042	-0,083
-120,424	-25,902	0,069	-0,029
-119,410	-169,294	0,057	0,001
