DTS Sentinel unit serial number:	SN410029Multiplexer serial number:	ORYXHardware model number:	OX2-SRSoftware version number:	ORYX F/W v4,00 Oryx Data Collector v3.7.2.0data status	okinstallation	BH3 CH2differential loss correction	single-endedforward channel	channel 2reverse channel	N/Adate	2023/12/06time	03:17:28forward acquisition time	300,00reverse acquisition time	0,00gamma	499,1914k internal	0,3197k external	0,3197temperature offset calibration	1,0000default loss term (dB/km)	0,3820temperature slope calibration	1,0000multiplexer offset coefficient	1,0000multiplexer slope coefficient	1,0000fibre end	0,00T internal ref (°C)	8,94T ext. ref 1 (°C)	-5,76T ext. ref 2 (°C)	-5,87length (m)	temperature (°C)	Stokes	anti-Stokes-744,400	3,957	0,059	-0,032
-743,385	-35,516	-0,238	0,094
-742,371	68,050	0,064	-0,047
-741,356	-2,480	-0,198	0,101
-740,342	143,207	-0,079	-0,077
-739,327	-102,423	-0,238	0,041
-738,312	800,000	-0,012	-0,034
-737,298	45,032	-0,281	0,188
-736,283	-200,000	-0,011	-0,150
-735,269	-0,753	-0,230	0,118
-734,254	-200,000	0,005	-0,055
-733,239	-89,352	-0,356	-0,076
-732,225	-110,122	0,087	0,013
-731,210	270,966	0,011	-0,015
-730,196	92,589	-0,079	-0,065
-729,181	-12,181	0,051	0,024
-728,167	800,000	0,045	-0,117
-727,152	494,134	-0,070	-0,117
-726,137	-129,693	-0,079	-0,008
-725,123	6,669	-0,098	0,053
-724,108	-200,000	-0,015	-0,079
-723,094	45,809	-0,127	-0,085
-722,079	296,026	-0,094	0,125
-721,064	-27,701	-0,060	-0,025
-720,050	800,000	-0,033	0,083
-719,035	205,573	-0,067	0,076
-718,021	-200,000	-0,014	0,065
-717,006	83,619	-0,089	-0,071
-715,991	-200,000	-0,018	-0,094
-714,977	-200,000	0,021	-0,086
-713,962	-200,000	0,001	0,044
-712,948	-107,877	-0,035	-0,005
-711,933	800,000	-0,032	0,095
-710,918	-200,000	-0,011	0,137
-709,904	-109,124	-0,145	-0,022
-708,889	318,750	-0,051	0,071
-707,875	-200,000	-0,017	-0,059
-706,860	58,514	-0,028	0,020
-705,845	-170,709	0,096	-0,002
-704,831	-200,000	0,043	0,142
-703,816	-49,678	-0,120	0,041
-702,802	-200,000	0,002	-0,088
-701,787	-200,000	0,011	-0,103
-700,772	106,831	-0,054	-0,047
-699,758	-200,000	-0,002	0,059
-698,743	14,911	-0,078	-0,044
-697,729	-200,000	0,011	-0,051
-696,714	334,513	-0,018	-0,025
-695,699	800,000	0,007	0,020
-694,685	-120,160	-0,157	-0,019
-693,670	418,506	-0,045	-0,071
-692,656	-200,000	-0,003	0,086
-691,641	-184,583	0,124	0,001
-690,627	117,354	0,015	0,014
-689,612	778,244	0,072	-0,144
-688,597	89,441	-0,057	-0,046
-687,583	-51,403	-0,131	-0,044
-686,568	-123,861	-0,096	0,011
-685,554	106,684	0,029	-0,025
-684,539	800,000	-0,017	-0,050
-683,524	-200,000	-0,003	-0,161
-682,510	-200,000	-0,030	0,119
-681,495	800,000	-0,008	0,024
-680,481	800,000	0,039	0,088
-679,466	-108,681	-0,150	-0,023
-678,451	745,659	-0,051	-0,100
-677,437	4,810	-0,116	-0,062
-676,422	800,000	0,017	-0,039
-675,408	-200,000	-0,115	0,000
-674,393	-119,935	0,097	-0,012
-673,378	364,818	-0,066	-0,097
-672,364	65,552	-0,083	-0,061
-671,349	720,474	-0,037	-0,073
-670,335	800,000	0,030	0,094
-669,320	-200,000	-0,007	-0,074
-668,305	-200,000	0,001	-0,005
-667,291	679,949	-0,037	-0,070
-666,276	285,137	-0,075	-0,098
-665,262	37,923	0,096	-0,062
-664,247	22,247	-0,118	-0,070
-663,232	232,581	0,050	-0,060
-662,218	-13,276	0,079	0,037
-661,203	16,096	0,032	0,018
-660,189	94,609	0,053	-0,044
-659,174	800,000	0,067	-0,209
-658,159	33,783	-0,077	-0,049
-657,145	-200,000	0,001	0,005
-656,130	38,333	-0,120	0,077
-655,116	63,291	0,074	0,054
-654,101	718,593	0,028	-0,054
-653,086	-200,000	0,031	-0,136
-652,072	119,618	-0,043	-0,038
-651,057	171,881	-0,162	-0,169
-650,043	-163,669	-0,041	-0,001
-649,028	12,799	-0,128	-0,072
-648,014	-200,000	0,005	-0,068
-646,999	-200,000	0,050	-0,195
-645,984	-19,243	-0,123	0,055
-644,970	-191,456	-0,124	0,001
-643,955	-58,917	-0,036	-0,011
-642,941	101,699	-0,109	-0,092
-641,926	57,278	-0,014	0,010
-640,911	291,148	0,038	-0,050
-639,897	56,027	0,063	0,044
-638,882	-200,000	0,011	-0,136
-637,868	42,270	-0,062	0,041
-636,853	739,991	0,019	-0,037
-635,838	36,407	-0,167	-0,107
-634,824	800,000	-0,015	-0,048
-633,809	7,588	0,099	0,054
-632,795	-43,106	-0,112	0,041
-631,780	-200,000	-0,029	0,166
-630,765	180,479	0,075	0,080
-629,751	800,000	0,012	-0,036
-628,736	274,265	-0,053	-0,068
-627,722	-83,387	-0,032	0,007
-626,707	-200,000	-0,008	-0,170
-625,692	66,682	-0,056	0,041
-624,678	800,000	-0,026	-0,075
-623,663	423,560	-0,056	-0,088
-622,649	87,876	-0,029	0,023
-621,634	-200,000	-0,021	-0,101
-620,619	-200,000	-0,026	0,183
-619,605	635,854	0,031	0,057
-618,590	278,850	0,128	0,166
-617,576	652,963	-0,054	0,101
-616,561	-200,000	-0,003	0,026
-615,546	96,818	0,101	0,084
-614,532	184,577	-0,149	-0,160
-613,517	-29,654	-0,096	-0,039
-612,503	691,946	0,025	0,047
-611,488	-6,148	0,104	-0,051
-610,474	250,230	0,127	-0,157
-609,459	127,416	0,057	0,052
-608,444	-200,000	0,002	-0,010
-607,430	-53,479	-0,063	-0,021
-606,415	24,751	-0,062	0,037
-605,401	-46,734	-0,030	0,011
-604,386	-200,000	0,013	0,084
-603,371	89,874	-0,046	0,038
-602,357	-200,000	-0,023	0,077
-601,342	40,763	-0,123	0,080
-600,328	-87,690	-0,011	-0,002
-599,313	-200,000	0,009	-0,113
-598,298	800,000	-0,039	0,100
-597,284	800,000	0,011	0,034
-596,269	211,760	0,051	0,058
-595,255	-82,769	-0,057	0,013
-594,240	-111,971	0,064	0,009
-593,225	-118,591	-0,109	-0,014
-592,211	132,468	-0,087	-0,081
-591,196	601,844	-0,033	-0,060
-590,182	800,000	-0,046	-0,096
-589,167	800,000	0,010	-0,021
-588,152	-99,575	0,039	-0,007
-587,138	143,303	-0,056	-0,054
-586,123	-200,000	-0,048	0,165
-585,109	-200,000	-0,003	-0,112
-584,094	-200,000	0,002	-0,110
-583,079	-200,000	0,029	0,121
-582,065	-200,000	-0,031	0,110
-581,050	2,192	-0,008	0,004
-580,036	800,000	-0,066	0,140
-579,021	-200,000	-0,005	0,035
-578,006	110,522	0,085	-0,074
-576,992	-95,324	-0,125	-0,024
-575,977	577,334	0,043	0,076
-574,963	-200,000	0,007	0,064
-573,948	598,710	-0,021	-0,037
-572,934	-200,000	0,004	-0,017
-571,919	532,461	0,021	0,037
-570,904	38,778	-0,051	-0,033
-569,890	-105,589	-0,009	0,001
-568,875	343,834	-0,044	0,062
-567,861	800,000	0,037	0,106
-566,846	30,678	-0,125	0,077
-565,831	-23,728	0,007	-0,003
-564,817	46,460	-0,116	-0,078
-563,802	11,649	0,070	0,039
-562,788	-28,158	0,035	-0,015
-561,773	800,000	0,025	0,071
-560,758	22,854	0,130	-0,077
-559,744	-200,000	-0,002	0,087
-558,729	-200,000	-0,013	0,092
-557,715	43,951	-0,116	-0,076
-556,700	-200,000	-0,009	-0,103
-555,685	106,562	0,118	-0,101
-554,671	165,385	0,090	0,092
-553,656	263,013	0,057	0,072
-552,642	-125,854	0,057	-0,006
-551,627	69,585	0,022	-0,016
-550,612	-200,000	-0,039	0,134
-549,598	216,859	-0,037	-0,043
-548,583	-200,000	-0,015	-0,063
-547,569	126,474	0,027	0,025
-546,554	-128,677	-0,091	0,009
-545,539	-200,000	0,003	0,031
-544,525	608,997	0,063	-0,114
-543,510	77,123	-0,013	0,010
-542,496	188,527	-0,077	0,084
-541,481	70,183	0,085	0,063
-540,466	-200,000	-0,164	0,000
-539,452	175,425	0,103	-0,108
-538,437	-42,054	0,049	-0,018
-537,423	191,535	-0,034	0,037
-536,408	103,613	-0,067	0,057
-535,393	-127,217	-0,058	-0,006
-534,379	-200,000	0,027	-0,107
-533,364	307,595	-0,044	-0,059
-532,350	81,634	-0,087	0,068
-531,335	-34,757	0,074	-0,029
-530,321	-79,774	-0,041	0,010
-529,306	110,983	-0,064	-0,056
-528,291	-121,135	0,052	0,006
-527,277	-165,524	-0,062	-0,002
-526,262	-200,000	-0,002	-0,028
-525,248	44,057	0,148	0,098
-524,233	-136,791	0,106	-0,009
-523,218	85,278	0,021	-0,017
-522,204	43,862	0,126	-0,083
-521,189	100,910	-0,098	-0,083
-520,175	122,820	0,030	-0,027
-519,160	93,510	-0,126	0,103
-518,145	629,109	0,054	0,099
-517,131	-200,000	0,027	0,139
-516,116	-200,000	-0,010	-0,053
-515,102	455,923	-0,065	-0,104
-514,087	44,856	0,082	0,055
-513,072	-200,000	-0,020	0,069
-512,058	-174,427	-0,068	-0,001
-511,043	800,000	0,048	0,109
-510,029	237,183	-0,043	0,051
-509,014	201,745	0,027	-0,030
-507,999	98,954	0,057	-0,048
-506,985	-48,764	0,071	0,024
-505,970	-200,000	-0,032	0,149
-504,956	-120,878	0,138	0,017
-503,941	261,488	-0,053	0,066
-502,926	-200,000	0,010	0,153
-501,912	423,677	0,053	0,083
-500,897	-106,722	-0,043	0,007
-499,883	-5,585	-0,069	0,034
-498,868	-200,000	-0,003	-0,012
-497,853	-128,413	-0,085	0,009
-496,839	186,955	0,091	-0,098
-495,824	310,330	0,032	-0,044
-494,810	5,220	0,117	-0,062
-493,795	111,959	0,148	-0,129
-492,781	-200,000	-0,042	0,171
-491,766	-200,000	0,019	-0,162
-490,751	736,789	-0,078	-0,152
-489,737	800,000	0,071	-0,144
-488,722	800,000	0,026	0,073
-487,708	434,679	-0,062	0,098
-486,693	-200,000	-0,002	0,014
-485,678	-32,451	-0,074	0,030
-484,664	-87,011	-0,093	0,020
-483,649	239,009	-0,066	-0,079
-482,635	570,663	0,032	-0,057
-481,620	-139,586	0,040	0,003
-480,605	-151,229	0,123	0,007
-479,591	-200,000	0,020	0,102
-478,576	800,000	0,038	0,086
-477,562	400,222	-0,042	-0,064
-476,547	-200,000	0,011	-0,063
-475,532	800,000	-0,028	0,065
-474,518	138,934	-0,028	-0,026
-473,503	-145,719	0,090	-0,006
-472,489	42,418	-0,012	-0,008
-471,474	-200,000	-0,007	-0,036
-470,459	800,000	0,039	-0,082
-469,445	258,937	0,067	-0,084
-468,430	800,000	0,020	-0,051
-467,416	-200,000	0,005	0,102
-466,401	-200,000	0,008	0,173
-465,386	271,792	0,111	0,141
-464,372	534,374	-0,046	-0,079
-463,357	-45,751	-0,193	-0,068
-462,343	-81,254	-0,123	-0,029
-461,328	123,862	0,019	0,018
-460,313	-200,000	0,004	-0,142
-459,299	157,530	-0,062	0,062
-458,284	180,523	0,060	0,064
-457,270	108,622	0,034	0,029
-456,255	127,235	-0,100	0,092
-455,241	800,000	0,019	0,048
-454,226	-200,000	0,003	-0,013
-453,211	379,111	-0,047	-0,069
-452,197	-200,000	0,034	0,131
-451,182	104,979	0,071	-0,060
-450,168	-125,089	0,062	0,007
-449,153	251,090	-0,141	-0,173
-448,138	0,457	0,135	-0,069
-447,124	800,000	-0,025	-0,057
-446,109	-200,000	-0,014	-0,191
-445,095	-200,000	0,011	-0,043
-444,080	117,468	-0,050	0,044
-443,065	-1,368	-0,066	-0,034
-442,051	-57,269	0,059	-0,018
-441,036	-86,567	-0,130	0,029
-440,022	21,530	-0,048	0,028
-439,007	54,483	-0,114	0,079
-437,992	-9,335	0,095	-0,046
-436,978	800,000	0,061	0,158
-435,963	314,667	-0,076	-0,104
-434,949	-200,000	-0,002	-0,085
-433,934	-131,689	-0,085	0,008
-432,919	6,823	-0,029	0,015
-431,905	337,633	-0,084	0,117
-430,890	800,000	0,091	0,262
-429,876	-147,399	-0,083	0,005
-428,861	-200,000	0,005	0,148
-427,846	46,762	0,067	-0,045
-426,832	-200,000	-0,018	-0,070
-425,817	800,000	0,017	-0,045
-424,803	208,281	0,020	0,022
-423,788	27,702	0,145	0,088
-422,773	-100,300	0,077	-0,014
-421,759	-122,675	-0,083	0,010
-420,744	-200,000	-0,017	0,097
-419,730	330,271	0,065	-0,090
-418,715	-111,123	0,119	0,017
-417,701	800,000	0,037	-0,100
-416,686	202,854	0,077	0,085
-415,671	199,492	0,065	-0,072
-414,657	647,657	0,044	-0,082
-413,642	98,093	-0,040	-0,033
-412,628	-25,057	0,071	0,030
-411,613	205,894	-0,087	-0,098
-410,598	800,000	-0,016	0,046
-409,584	145,276	0,031	0,029
-408,569	64,954	0,106	-0,077
-407,555	79,221	-0,037	0,029
-406,540	-200,000	-0,013	0,106
-405,525	184,709	-0,091	0,097
-404,511	-36,855	-0,045	-0,017
-403,496	-25,960	-0,175	-0,074
-402,482	-200,000	0,037	-0,119
-401,467	-200,000	0,009	0,045
-400,452	-8,539	0,139	-0,067
-399,438	-15,873	-0,013	-0,006
-398,423	107,525	0,078	0,067
-397,409	800,000	0,037	-0,100
-396,394	-97,703	0,022	-0,004
-395,379	581,679	0,079	-0,140
-394,365	-42,559	0,044	-0,016
-393,350	204,778	-0,016	-0,018
-392,336	254,169	0,088	0,109
-391,321	800,000	0,011	-0,023
-390,306	321,325	0,048	-0,066
-389,292	598,271	-0,038	-0,067
-388,277	-200,000	0,003	-0,107
-387,263	-117,961	0,049	0,006
-386,248	-82,967	-0,014	0,003
-385,233	-200,000	0,005	0,075
-384,219	1,964	0,072	0,037
-383,204	-200,000	0,025	-0,142
-382,190	-200,000	0,034	0,121
-381,175	-179,974	0,042	-0,001
-380,160	800,000	-0,016	-0,047
-379,146	-109,978	0,039	-0,006
-378,131	773,030	0,043	-0,085
-377,117	-200,000	0,001	-0,043
-376,102	193,526	-0,131	-0,142
-375,088	6,589	0,144	0,077
-374,073	752,033	0,013	-0,025
-373,058	-45,209	0,086	0,030
-372,044	305,702	-0,013	0,018
-371,029	217,200	-0,010	0,011
-370,015	320,433	-0,019	0,026
-369,000	-178,185	0,027	0,000
-367,985	-5,045	-0,112	0,055
-366,971	35,290	-0,019	-0,012
-365,956	-200,000	0,001	-0,043
-364,942	99,173	-0,075	0,062
-363,927	-200,000	0,005	0,073
-362,912	-39,561	0,102	0,038
-361,898	-95,883	0,064	-0,012
-360,883	800,000	-0,051	-0,129
-359,869	-80,861	0,038	0,009
-358,854	103,506	-0,086	0,072
-357,839	-15,260	0,062	-0,028
-356,825	58,322	0,167	-0,117
-355,810	-200,000	-0,030	-0,112
-354,796	-42,219	0,096	-0,035
-353,781	-200,000	-0,015	-0,056
-352,766	290,860	0,066	-0,086
-351,752	800,000	-0,055	-0,163
-350,737	-182,706	-0,036	0,000
-349,723	-114,359	-0,109	0,015
-348,708	550,893	0,036	-0,063
-347,693	373,309	-0,109	0,159
-346,679	54,823	0,100	-0,069
-345,664	-200,000	0,056	-0,227
-344,650	-200,000	-0,006	-0,025
-343,635	277,813	-0,049	-0,062
-342,620	-13,625	0,114	-0,053
-341,606	56,348	0,062	-0,043
-340,591	800,000	0,067	-0,136
-339,577	62,787	0,052	-0,038
-338,562	-42,134	-0,063	-0,023
-337,548	17,005	0,071	0,040
-336,533	-5,383	0,105	0,052
-335,518	507,645	-0,047	0,079
-334,504	119,364	-0,060	-0,053
-333,489	-66,713	0,060	0,017
-332,475	40,076	0,100	-0,064
-331,460	-200,000	-0,056	-0,186
-330,445	-200,000	-0,005	-0,038
-329,431	-148,132	-0,079	-0,005
-328,416	-51,972	0,102	0,034
-327,402	-200,000	0,004	-0,037
-326,387	27,281	0,103	0,062
-325,372	-200,000	0,005	-0,019
-324,358	800,000	0,042	-0,095
-323,343	335,866	0,050	-0,069
-322,329	476,901	0,062	-0,101
-321,314	-200,000	0,039	0,218
-320,299	800,000	-0,060	0,123
-319,285	-200,000	0,008	-0,056
-318,270	-175,577	-0,075	0,001
-317,256	-51,071	-0,177	-0,059
-316,241	236,950	0,059	0,070
-315,226	185,703	0,077	0,082
-314,212	-200,000	0,009	0,078
-313,197	-200,000	-0,000	0,228
-312,183	-200,000	-0,002	-0,080
-311,168	27,409	-0,027	-0,016
-310,153	587,905	0,031	-0,056
-309,139	-97,664	-0,107	0,020
-308,124	-200,000	0,013	0,133
-307,110	800,000	0,008	0,025
-306,095	-200,000	-0,004	0,118
-305,080	800,000	-0,042	-0,117
-304,066	-88,805	-0,060	-0,013
-303,051	57,185	0,034	-0,024
-302,037	39,631	0,090	-0,058
-301,022	-61,727	0,199	0,059
-300,008	-132,576	-0,101	-0,009
-298,993	143,839	-0,020	0,019
-297,978	-120,422	-0,022	-0,003
-296,964	266,924	0,042	0,052
-295,949	-105,697	-0,123	-0,020
-294,935	130,491	0,044	-0,040
-293,920	-200,000	0,039	0,141
-292,905	-43,037	0,109	0,039
-291,891	800,000	-0,064	-0,177
-290,876	46,651	0,031	0,021
-289,862	-34,458	0,061	-0,024
-288,847	-135,587	-0,138	0,012
-287,832	-200,000	-0,030	0,105
-286,818	92,079	0,044	0,036
-285,803	45,012	0,086	-0,056
-284,789	32,598	-0,100	-0,062
-283,774	21,509	0,144	-0,084
-282,759	214,308	0,042	0,047
-281,745	-69,078	-0,132	0,036
-280,730	-12,249	-0,124	0,058
-279,716	-200,000	0,006	0,055
-278,701	-39,208	0,079	0,029
-277,686	-82,686	-0,070	0,016
-276,672	800,000	0,039	0,081
-275,657	-86,536	0,046	0,010
-274,643	-136,681	-0,032	0,003
-273,628	224,913	-0,050	-0,058
-272,613	148,899	-0,011	0,010
-271,599	67,973	0,119	0,087
-270,584	561,597	0,034	0,059
-269,570	127,801	0,114	0,104
-268,555	172,619	0,040	-0,042
-267,540	266,337	-0,091	-0,113
-266,526	-51,001	0,079	-0,026
-265,511	-74,950	-0,076	-0,019
-264,497	-200,000	-0,042	0,183
-263,482	141,920	0,113	0,107
-262,467	-16,084	0,127	0,058
-261,453	-96,016	-0,103	0,019
-260,438	-200,000	-0,014	-0,113
-259,424	10,067	-0,105	-0,057
-258,409	-53,781	0,155	0,050
-257,395	504,352	0,057	0,095
-256,380	196,846	0,053	0,058
-255,365	800,000	0,018	-0,048
-254,351	80,762	0,080	-0,061
-253,336	-158,403	-0,077	0,003
-252,322	-113,418	-0,045	0,006
-251,307	-200,000	0,001	-0,046
-250,292	-95,642	-0,045	0,009
-249,278	-55,007	-0,066	0,021
-248,263	-200,000	0,004	0,159
-247,249	-147,926	0,035	0,002
-246,234	274,728	-0,065	-0,082
-245,219	-200,000	-0,058	-0,000
-244,205	293,938	-0,056	-0,074
-243,190	634,016	-0,034	0,062
-242,176	-79,559	0,155	-0,037
-241,161	-200,000	-0,013	0,052
-240,146	-31,208	-0,054	-0,022
-239,132	329,335	-0,014	0,019
-238,117	117,568	0,046	-0,040
-237,103	-200,000	0,036	0,114
-236,088	-117,221	0,114	0,015
-235,073	800,000	0,055	0,141
-234,059	800,000	0,049	0,149
-233,044	-187,660	0,073	0,001
-232,030	217,449	-0,078	-0,089
-231,015	393,254	0,069	-0,103
-230,000	-104,179	-0,122	-0,020
-228,986	-58,783	-0,108	-0,033
-227,971	-107,502	0,151	0,023
-226,957	800,000	-0,011	-0,028
-225,942	142,548	-0,072	0,068
-224,927	-87,215	0,232	-0,050
-223,913	-12,415	-0,110	-0,051
-222,898	40,737	-0,027	-0,017
-221,884	128,323	0,132	-0,120
-220,869	123,987	-0,019	0,017
-219,855	39,897	-0,086	0,055
-218,840	258,813	0,104	0,128
-217,825	-101,805	-0,121	0,021
-216,811	350,860	-0,044	0,062
-215,796	-200,000	-0,020	-0,066
-214,782	-8,297	-0,124	-0,059
-213,767	796,104	0,041	0,081
-212,752	211,236	0,013	0,015
-211,738	326,570	0,039	0,054
-210,723	76,262	-0,119	-0,090
-209,709	-200,000	-0,132	-0,000
-208,694	-106,107	-0,206	0,033
-207,679	650,863	0,047	-0,086
-206,665	217,212	-0,077	0,087
-205,650	-144,765	0,050	-0,003
-204,636	-200,000	0,015	0,122
-203,621	157,726	-0,086	0,085
-202,606	208,363	-0,074	-0,082
-201,592	-200,000	-0,006	-0,041
-200,577	313,216	0,030	0,040
-199,563	-16,770	0,047	-0,021
-198,548	-200,000	0,004	0,053
-197,533	-98,679	0,068	-0,012
-196,519	799,131	0,033	0,065
-195,504	-39,703	0,046	-0,017
-194,490	-111,894	0,014	0,002
-193,475	-129,380	0,111	-0,011
-192,460	-59,717	0,157	-0,048
-191,446	355,852	0,065	0,093
-190,431	-200,000	0,015	0,092
-189,417	629,984	-0,048	0,088
-188,402	470,914	0,062	0,100
-187,387	-200,000	-0,017	-0,069
-186,373	-14,326	-0,099	-0,045
-185,358	-104,091	-0,064	0,011
-184,344	-200,000	0,009	0,193
-183,329	48,996	-0,026	-0,018
-182,315	-200,000	-0,014	-0,087
-181,300	800,000	0,062	-0,154
-180,285	166,563	-0,076	-0,077
-179,271	1,499	-0,069	-0,035
-178,256	-64,398	0,089	-0,026
-177,242	800,000	0,011	0,028
-176,227	800,000	0,025	0,051
-175,212	19,100	0,057	0,032
-174,198	-200,000	-0,038	0,165
-173,183	800,000	-0,055	-0,168
-172,169	315,461	0,080	0,108
-171,154	-200,000	-0,013	-0,099
-170,139	-200,000	-0,011	0,077
-169,125	-200,000	0,029	-0,133
-168,110	645,280	-0,052	-0,095
-167,096	497,281	-0,075	0,123
-166,081	65,715	-0,039	0,028
-165,066	-200,000	0,016	-0,050
-164,052	-39,470	-0,152	0,057
-163,037	-124,043	0,116	0,013
-162,023	103,240	-0,063	0,053
-161,008	183,393	-0,094	-0,099
-159,993	37,558	-0,169	-0,106
-158,979	565,687	0,014	0,025
-157,964	179,511	-0,101	-0,106
-156,950	-99,782	0,107	0,019
-155,935	-88,515	-0,145	-0,030
-154,920	-200,000	0,029	-0,126
-153,906	63,386	-0,113	0,080
-152,891	133,586	0,043	-0,040
-151,877	-200,000	0,002	0,023
-150,862	165,526	-0,033	-0,034
-149,847	23,304	-0,084	0,049
-148,833	487,830	0,065	-0,107
-147,818	227,322	0,057	-0,066
-146,804	776,503	-0,096	-0,188
-145,789	-85,574	-0,099	0,022
-144,775	-90,970	-0,131	0,026
-143,760	108,434	-0,120	0,102
-142,745	-99,452	-0,217	0,038
-141,731	-200,000	0,002	-0,008
-140,716	-28,471	0,082	0,034
-139,702	-7,875	-0,127	0,061
-138,687	-102,148	0,169	-0,029
-137,672	252,420	0,082	-0,099
-136,658	-200,000	0,015	-0,193
-135,643	-200,000	-0,037	-0,131
-134,629	14,852	-0,100	0,055
-133,614	-200,000	0,006	0,137
-132,599	-100,061	-0,115	-0,020
-131,585	31,552	-0,041	0,025
-130,570	180,039	0,107	0,111
-129,556	122,178	-0,139	-0,124
-128,541	15,834	-0,094	0,053
-127,526	76,093	-0,088	-0,066
-126,512	-53,723	-0,033	0,011
-125,497	51,395	-0,048	0,033
-124,483	509,148	0,031	0,051
-123,468	-125,079	-0,112	-0,012
-122,453	54,493	-0,046	-0,031
-121,439	-60,739	-0,039	-0,012
-120,424	-190,063	0,046	0,000
-119,410	17,613	0,035	-0,020
