DTS Sentinel unit serial number:	SN410029Multiplexer serial number:	ORYXHardware model number:	OX2-SRSoftware version number:	ORYX F/W v4,00 Oryx Data Collector v3.7.2.0data status	okinstallation	BH3 CH2differential loss correction	single-endedforward channel	channel 2reverse channel	N/Adate	2023/12/06time	03:22:28forward acquisition time	300,00reverse acquisition time	0,00gamma	499,1914k internal	0,3197k external	0,3197temperature offset calibration	1,0000default loss term (dB/km)	0,3820temperature slope calibration	1,0000multiplexer offset coefficient	1,0000multiplexer slope coefficient	1,0000fibre end	0,00T internal ref (°C)	8,94T ext. ref 1 (°C)	-5,78T ext. ref 2 (°C)	-5,89length (m)	temperature (°C)	Stokes	anti-Stokes-744,400	3,355	-0,037	-0,020
-743,385	-105,836	-0,282	0,046
-742,371	-136,834	0,238	-0,020
-741,356	-34,438	-0,171	-0,068
-740,342	-147,928	-0,054	-0,003
-739,327	-177,186	-0,148	0,003
-738,312	339,398	-0,050	-0,071
-737,298	-99,484	-0,198	0,036
-736,283	-13,543	-0,074	-0,035
-735,269	32,722	-0,230	0,145
-734,254	-37,145	-0,125	-0,049
-733,239	-54,520	-0,339	-0,111
-732,225	24,607	-0,101	-0,061
-731,210	-200,000	-0,007	-0,085
-730,196	-200,000	0,005	0,018
-729,181	-183,479	-0,047	0,001
-728,167	-135,875	-0,107	-0,009
-727,152	-200,000	-0,008	0,153
-726,137	-118,593	-0,155	-0,020
-725,123	-109,636	-0,124	-0,019
-724,108	-117,246	-0,101	0,013
-723,094	-110,338	-0,145	-0,022
-722,079	800,000	0,025	-0,065
-721,064	160,424	-0,023	-0,023
-720,050	-175,228	0,087	0,002
-719,035	-200,000	0,010	-0,139
-718,021	76,955	-0,160	-0,124
-717,006	-123,757	0,029	0,003
-715,991	800,000	-0,031	-0,074
-714,977	80,109	0,081	-0,063
-713,962	-141,006	0,147	-0,011
-712,948	-200,000	-0,004	-0,165
-711,933	345,365	-0,059	-0,084
-710,918	-200,000	0,012	-0,100
-709,904	24,493	-0,131	-0,079
-708,889	-200,000	0,005	-0,052
-707,875	800,000	0,037	-0,098
-706,860	-34,597	-0,057	-0,022
-705,845	-100,471	-0,110	-0,020
-704,831	-200,000	0,002	-0,025
-703,816	-37,943	-0,037	0,014
-702,802	-200,000	0,045	0,172
-701,787	545,998	-0,085	-0,148
-700,772	-120,894	-0,090	0,011
-699,758	-15,662	-0,139	-0,064
-698,743	249,528	0,135	-0,167
-697,729	24,002	-0,147	0,088
-696,714	-36,765	0,093	0,036
-695,699	800,000	-0,011	0,031
-694,685	101,777	0,068	-0,058
-693,670	-200,000	-0,011	-0,097
-692,656	-5,590	0,001	0,000
-691,641	64,431	0,039	0,029
-690,627	313,955	-0,056	0,077
-689,612	19,446	-0,107	0,062
-688,597	800,000	-0,028	-0,073
-687,583	177,971	-0,052	0,055
-686,568	-89,632	0,059	0,012
-685,554	-59,791	-0,153	-0,047
-684,539	210,157	0,011	-0,012
-683,524	295,194	-0,012	0,016
-682,510	10,936	0,131	-0,073
-681,495	567,105	-0,037	0,065
-680,481	278,559	0,028	0,037
-679,466	-96,318	0,097	0,018
-678,451	55,085	0,051	-0,036
-677,437	-147,008	0,030	0,002
-676,422	723,617	0,021	0,041
-675,408	-22,218	-0,103	-0,045
-674,393	32,753	0,115	0,072
-673,378	-200,000	-0,023	-0,075
-672,364	-172,492	-0,109	-0,002
-671,349	-200,000	-0,032	0,134
-670,335	208,279	0,062	-0,071
-669,320	237,195	-0,058	0,069
-668,305	800,000	0,071	0,170
-667,291	-41,717	-0,105	-0,039
-666,276	-200,000	0,018	-0,101
-665,262	36,336	-0,055	-0,035
-664,247	301,693	-0,122	-0,164
-663,232	-14,694	-0,054	-0,025
-662,218	647,545	0,068	-0,127
-661,203	11,933	0,034	0,019
-660,189	-94,007	-0,050	0,010
-659,174	26,191	-0,060	-0,036
-658,159	39,896	-0,028	-0,018
-657,145	16,041	0,019	-0,011
-656,130	300,712	0,075	-0,100
-655,116	111,631	-0,127	-0,111
-654,101	-56,154	-0,042	-0,013
-653,086	-37,062	-0,048	0,019
-652,072	-200,000	0,011	0,085
-651,057	67,589	0,053	0,039
-650,043	18,502	-0,008	0,005
-649,028	-8,465	0,105	-0,051
-648,014	800,000	-0,041	0,110
-646,999	-117,265	0,091	0,012
-645,984	-200,000	0,001	0,113
-644,970	-200,000	0,018	-0,093
-643,955	-83,946	-0,081	-0,019
-642,941	-200,000	-0,015	0,177
-641,926	-200,000	0,022	0,085
-640,911	94,908	0,078	-0,064
-639,897	-110,858	0,101	-0,015
-638,882	26,386	0,017	-0,010
-637,868	245,126	0,087	-0,106
-636,853	-200,000	-0,013	-0,055
-635,838	280,210	-0,035	0,045
-634,824	-200,000	0,007	-0,027
-633,809	84,418	0,051	-0,040
-632,795	29,812	-0,074	0,046
-631,780	-104,582	-0,147	-0,024
-630,765	800,000	-0,032	0,071
-629,751	14,754	-0,135	-0,076
-628,736	-200,000	-0,004	-0,063
-627,722	-200,000	0,000	0,078
-626,707	-38,469	-0,219	0,083
-625,692	-167,104	0,124	0,004
-624,678	711,101	-0,116	-0,223
-623,663	-200,000	-0,007	-0,147
-622,649	87,767	0,078	-0,063
-621,634	800,000	0,035	0,074
-620,619	111,854	-0,114	-0,099
-619,605	800,000	0,054	0,109
-618,590	25,725	0,038	0,023
-617,576	-9,318	0,071	0,034
-616,561	-77,796	-0,072	-0,018
-615,546	-7,719	-0,119	0,058
-614,532	25,998	-0,073	-0,044
-613,517	-200,000	-0,023	0,074
-612,503	93,485	0,064	-0,052
-611,488	-127,775	-0,076	-0,008
-610,474	-200,000	0,011	0,044
-609,459	800,000	0,029	0,068
-608,444	1,048	-0,115	0,060
-607,430	38,908	-0,107	-0,069
-606,415	108,407	-0,101	0,087
-605,401	94,895	0,079	0,065
-604,386	155,924	-0,068	0,068
-603,371	-200,000	-0,019	0,076
-602,357	-77,736	-0,150	-0,037
-601,342	88,480	0,056	-0,045
-600,328	-200,000	-0,025	-0,183
-599,313	-200,000	-0,006	0,040
-598,298	-127,076	-0,026	-0,003
-597,284	91,601	-0,031	0,025
-596,269	-200,000	0,001	-0,060
-595,255	-20,662	0,071	-0,031
-594,240	523,020	0,030	-0,050
-593,225	34,659	-0,058	0,037
-592,211	17,190	-0,162	-0,093
-591,196	555,169	-0,028	-0,048
-590,182	-0,312	0,053	-0,027
-589,167	-200,000	0,024	-0,136
-588,152	-200,000	-0,093	-0,000
-587,138	-21,915	0,151	-0,066
-586,123	800,000	-0,077	-0,235
-585,109	8,392	0,072	0,039
-584,094	275,582	0,034	-0,043
-583,079	800,000	-0,023	0,051
-582,065	-38,212	0,097	-0,037
-581,050	125,637	0,069	-0,063
-580,036	-196,203	-0,069	-0,000
-579,021	800,000	-0,022	-0,061
-578,006	800,000	0,040	-0,116
-576,992	-152,123	-0,183	0,009
-575,977	249,557	0,093	-0,114
-574,963	45,745	0,101	-0,068
-573,948	-200,000	0,027	0,161
-572,934	69,655	-0,126	-0,094
-571,919	771,992	-0,061	-0,122
-570,904	-200,000	0,008	-0,084
-569,890	122,504	0,020	0,018
-568,875	-58,308	0,132	0,041
-567,861	-200,000	0,003	-0,092
-566,846	800,000	-0,050	0,111
-565,831	-200,000	-0,009	-0,047
-564,817	-34,302	-0,086	0,034
-563,802	142,108	0,055	0,053
-562,788	249,262	-0,071	-0,087
-561,773	800,000	-0,027	0,072
-560,758	-200,000	-0,017	0,160
-559,744	469,917	0,045	-0,074
-558,729	800,000	-0,024	-0,052
-557,715	266,327	0,080	-0,102
-556,700	531,385	-0,053	-0,091
-555,685	-200,000	0,010	-0,068
-554,671	-74,047	0,107	-0,028
-553,656	-200,000	0,036	0,134
-552,642	107,780	0,081	-0,069
-551,627	13,939	-0,152	0,085
-550,612	-49,363	-0,092	0,032
-549,598	-121,225	-0,025	-0,003
-548,583	464,342	-0,015	-0,024
-547,569	337,038	0,042	0,059
-546,554	44,437	0,082	-0,055
-545,539	800,000	0,010	0,031
-544,525	-50,784	0,049	-0,017
-543,510	572,640	-0,061	-0,109
-542,496	-168,290	-0,074	-0,002
-541,481	800,000	-0,043	-0,110
-540,466	-31,625	-0,044	-0,018
-539,452	-99,950	0,160	0,029
-538,437	-200,000	0,007	0,087
-537,423	-200,000	-0,005	0,092
-536,408	13,959	0,045	-0,025
-535,393	623,553	-0,031	-0,056
-534,379	136,694	-0,082	0,077
-533,364	743,273	-0,051	-0,099
-532,350	-76,481	0,049	0,012
-531,335	800,000	-0,044	0,127
-530,321	800,000	0,029	0,061
-529,306	-33,613	-0,243	-0,096
-528,291	800,000	0,043	-0,107
-527,277	-200,000	-0,004	-0,096
-526,262	12,173	0,057	-0,032
-525,248	93,051	0,067	0,054
-524,233	-38,238	0,022	-0,008
-523,218	-177,575	0,031	0,001
-522,204	-200,000	-0,040	-0,140
-521,189	-200,000	-0,010	0,065
-520,175	-80,653	-0,119	-0,028
-519,160	186,103	-0,028	0,030
-518,145	-137,881	-0,034	-0,003
-517,131	-105,943	0,096	0,015
-516,116	-200,000	0,019	-0,078
-515,102	49,215	-0,110	0,075
-514,087	503,001	-0,019	-0,032
-513,072	362,588	-0,050	-0,072
-512,058	-23,716	-0,109	-0,047
-511,043	-99,051	0,063	0,011
-510,029	253,366	0,077	0,095
-509,014	-167,506	-0,016	-0,000
-507,999	119,540	0,054	0,048
-506,985	11,594	0,028	0,016
-505,970	74,231	-0,124	0,094
-504,956	174,176	-0,095	0,099
-503,941	217,550	0,044	-0,051
-502,926	18,087	-0,078	-0,045
-501,912	800,000	0,006	-0,013
-500,897	-200,000	-0,022	0,089
-499,883	32,613	-0,057	-0,036
-498,868	-15,784	-0,104	-0,048
-497,853	-73,964	0,048	0,013
-496,839	-90,922	-0,135	-0,028
-495,824	-117,985	0,051	0,007
-494,810	154,018	0,099	-0,098
-493,795	169,405	0,101	0,104
-492,781	-122,241	-0,123	-0,014
-491,766	-200,000	0,000	0,017
-490,751	28,686	0,035	-0,022
-489,737	476,972	0,036	-0,059
-488,722	800,000	0,047	-0,107
-487,708	-3,107	-0,173	-0,087
-486,693	34,391	0,092	-0,058
-485,678	-114,234	-0,106	0,015
-484,664	-200,000	0,033	-0,110
-483,649	-200,000	0,016	0,067
-482,635	-200,000	0,027	0,094
-481,620	73,555	0,053	0,040
-480,605	-88,927	0,097	-0,021
-479,591	800,000	-0,055	0,150
-478,576	-24,812	0,013	-0,005
-477,562	98,570	0,046	0,038
-476,547	355,383	0,041	-0,059
-475,532	-70,751	0,081	0,022
-474,518	66,087	-0,074	0,054
-473,503	440,517	0,039	0,062
-472,489	569,510	-0,067	0,118
-471,474	52,549	0,123	0,084
-470,459	166,259	-0,028	-0,029
-469,445	210,951	0,029	0,033
-468,430	27,193	-0,109	0,066
-467,416	-200,000	-0,001	-0,073
-466,401	-200,000	0,004	0,150
-465,386	-161,832	-0,052	0,002
-464,372	196,239	-0,090	0,098
-463,357	800,000	-0,025	-0,074
-462,343	-200,000	0,006	0,038
-461,328	-200,000	-0,025	-0,154
-460,313	-110,226	0,097	0,014
-459,299	-200,000	-0,019	0,113
-458,284	-200,000	-0,000	0,092
-457,270	-117,182	-0,030	0,004
-456,255	-63,199	0,141	0,041
-455,241	-200,000	0,013	-0,062
-454,226	337,880	0,038	-0,053
-453,211	34,012	-0,014	-0,009
-452,197	7,854	-0,012	0,006
-451,182	64,945	-0,108	0,079
-450,168	150,127	0,059	-0,058
-449,153	141,869	0,022	0,021
-448,138	793,064	-0,042	-0,083
-447,124	2,001	-0,006	-0,003
-446,109	75,655	0,036	-0,027
-445,095	800,000	0,066	-0,151
-444,080	800,000	0,054	0,166
-443,065	101,999	0,051	-0,043
-442,051	579,048	0,054	0,095
-441,036	426,460	-0,048	-0,075
-440,022	276,061	0,064	-0,082
-439,007	685,893	0,051	0,097
-437,992	-72,928	-0,092	0,024
-436,978	-200,000	-0,020	-0,067
-435,963	-96,351	-0,103	-0,019
-434,949	-111,146	0,149	0,022
-433,934	-200,000	-0,008	-0,096
-432,919	-200,000	-0,006	-0,051
-431,905	458,028	0,019	-0,030
-430,890	-97,967	0,079	0,015
-429,876	-31,326	0,093	0,038
-428,861	633,773	0,060	0,109
-427,846	315,432	0,022	0,030
-426,832	-41,964	0,092	-0,034
-425,817	43,961	-0,064	-0,042
-424,803	-200,000	0,010	0,069
-423,788	37,099	-0,014	0,009
-422,773	-18,726	-0,037	-0,017
-421,759	-16,672	0,111	0,050
-420,744	-36,350	-0,089	0,034
-419,730	19,578	-0,071	0,041
-418,715	800,000	-0,024	-0,069
-417,701	800,000	-0,035	0,070
-416,686	-200,000	-0,008	-0,070
-415,671	-1,688	-0,038	0,019
-414,657	-200,000	0,017	0,150
-413,642	-18,079	0,021	0,009
-412,628	800,000	0,028	-0,062
-411,613	-38,847	0,091	-0,034
-410,598	-200,000	-0,022	-0,153
-409,584	-200,000	0,005	-0,041
-408,569	800,000	0,052	0,127
-407,555	157,220	-0,033	0,033
-406,540	800,000	0,059	-0,118
-405,525	463,241	-0,015	0,025
-404,511	800,000	0,035	-0,098
-403,496	86,120	-0,073	0,058
-402,482	-20,136	-0,161	-0,071
-401,467	39,393	0,097	0,062
-400,452	14,271	-0,075	0,042
-399,438	800,000	0,034	0,070
-398,423	-200,000	0,003	-0,174
-397,409	-59,108	0,076	0,024
-396,394	276,760	0,019	-0,024
-395,379	-37,444	0,081	0,031
-394,365	-2,695	-0,019	0,010
-393,350	-200,000	-0,002	-0,061
-392,336	-200,000	0,010	0,101
-391,321	195,518	0,072	0,079
-390,306	383,277	-0,082	-0,121
-389,292	-200,000	-0,016	0,055
-388,277	-200,000	0,002	-0,036
-387,263	-200,000	-0,009	0,030
-386,248	398,468	0,025	0,037
-385,233	-136,866	0,101	-0,008
-384,219	-57,152	-0,023	-0,007
-383,204	154,776	-0,123	-0,121
-382,190	-131,946	0,076	0,007
-381,175	800,000	0,103	0,257
-380,160	69,822	-0,101	-0,075
-379,146	-12,944	-0,057	-0,026
-378,131	189,046	0,131	0,141
-377,117	800,000	-0,035	0,070
-376,102	54,198	0,043	0,030
-375,088	215,295	0,044	-0,050
-374,073	131,317	-0,094	-0,087
-373,058	-20,452	0,158	-0,069
-372,044	800,000	-0,019	-0,049
-371,029	470,648	-0,013	-0,021
-370,015	-200,000	-0,014	0,104
-369,000	-200,000	0,002	-0,047
-367,985	-23,524	-0,054	0,023
-366,971	60,072	-0,079	-0,056
-365,956	800,000	-0,038	-0,107
-364,942	42,464	0,098	0,064
-363,927	266,794	0,091	0,114
-362,912	17,150	-0,034	0,019
-361,898	800,000	-0,042	0,114
-360,883	430,936	-0,048	-0,076
-359,869	102,491	0,172	-0,144
-358,854	-21,466	0,059	0,026
-357,839	-2,270	0,101	0,050
-356,825	575,522	0,042	-0,074
-355,810	-21,278	0,023	-0,010
-354,796	-200,000	0,006	-0,094
-353,781	-200,000	-0,004	0,017
-352,766	71,143	0,068	0,051
-351,752	-200,000	-0,007	-0,033
-350,737	-200,000	0,031	0,126
-349,723	-160,755	0,045	-0,002
-348,708	73,910	-0,121	0,091
-347,693	147,351	-0,027	-0,026
-346,679	-200,000	0,000	-0,034
-345,664	-170,758	0,104	0,003
-344,650	-200,000	-0,001	0,185
-343,635	158,207	-0,066	0,065
-342,620	800,000	0,035	0,089
-341,606	232,435	-0,075	0,089
-340,591	800,000	0,062	-0,178
-339,577	209,525	-0,052	-0,059
-338,562	800,000	0,061	-0,131
-337,548	119,636	-0,030	-0,027
-336,533	160,293	0,112	0,112
-335,518	-28,505	0,006	0,003
-334,504	-7,558	-0,093	-0,045
-333,489	800,000	-0,040	-0,081
-332,475	-200,000	0,004	-0,016
-331,460	778,229	-0,034	-0,066
-330,445	-200,000	-0,021	-0,070
-329,431	-200,000	-0,005	0,041
-328,416	-147,306	0,092	0,005
-327,402	80,916	0,110	0,085
-326,387	124,382	-0,104	-0,094
-325,372	394,160	-0,067	-0,100
-324,358	-59,930	0,054	-0,016
-323,343	-104,377	-0,131	0,022
-322,329	800,000	0,004	0,009
-321,314	-3,649	0,145	-0,072
-320,299	61,557	-0,164	0,117
-319,285	-200,000	0,005	0,149
-318,270	381,267	-0,058	-0,086
-317,256	-200,000	0,020	-0,145
-316,241	-200,000	0,007	0,072
-315,226	-13,896	0,147	-0,068
-314,212	456,175	-0,042	0,067
-313,197	59,874	0,123	0,087
-312,183	-200,000	0,046	0,178
-311,168	332,028	-0,034	0,047
-310,153	-106,305	0,061	0,010
-309,139	-189,533	-0,098	0,001
-308,124	185,374	0,155	0,165
-307,110	800,000	-0,030	0,078
-306,095	-29,916	0,066	0,027
-305,080	-137,899	0,027	-0,002
-304,066	-200,000	-0,020	-0,144
-303,051	23,643	-0,070	0,041
-302,037	6,404	-0,129	-0,069
-301,022	-89,895	0,058	-0,012
-300,008	192,666	-0,013	-0,014
-298,993	800,000	0,028	0,084
-297,978	-1,628	0,035	-0,018
-296,964	295,157	0,059	-0,077
-295,949	68,780	0,050	0,037
-294,935	800,000	-0,066	-0,153
-293,920	-200,000	0,012	0,133
-292,905	274,144	-0,058	0,073
-291,891	800,000	-0,048	0,104
-290,876	-200,000	-0,003	-0,055
-289,862	-200,000	-0,016	0,061
-288,847	613,678	-0,033	-0,060
-287,832	-200,000	-0,008	-0,050
-286,818	-46,965	-0,058	-0,020
-285,803	57,916	0,092	-0,064
-284,789	-17,076	-0,036	0,016
-283,774	800,000	0,035	0,073
-282,759	140,308	-0,066	0,062
-281,745	-200,000	-0,001	-0,089
-280,730	800,000	0,014	0,039
-279,716	-159,584	0,127	0,005
-278,701	-75,551	-0,027	-0,007
-277,686	157,834	0,097	0,096
-276,672	14,367	0,014	-0,008
-275,657	-109,980	0,206	-0,030
-274,643	800,000	0,049	-0,111
-273,628	800,000	-0,081	-0,182
-272,613	-200,000	-0,009	0,031
-271,599	-200,000	-0,019	0,070
-270,584	64,261	-0,038	-0,027
-269,570	-34,494	-0,104	-0,041
-268,555	-200,000	-0,013	0,071
-267,540	608,063	-0,043	-0,077
-266,526	-42,176	-0,066	0,024
-265,511	-57,937	-0,079	0,025
-264,497	97,640	0,061	0,050
-263,482	-28,639	0,048	-0,020
-262,467	45,615	-0,060	-0,039
-261,453	-30,541	-0,177	0,071
-260,438	0,537	0,052	0,027
-259,424	19,236	0,074	-0,042
-258,409	115,398	0,049	-0,043
-257,395	292,621	0,029	0,038
-256,380	800,000	-0,031	0,062
-255,365	-69,678	0,061	0,017
-254,351	-146,172	-0,048	0,003
-253,336	104,067	-0,065	-0,055
-252,322	-84,991	-0,105	-0,023
-251,307	-200,000	0,032	0,000
-250,292	-45,299	0,055	-0,019
-249,278	800,000	-0,044	0,135
-248,263	499,427	0,045	0,075
-247,249	-200,000	0,003	0,075
-246,234	-200,000	0,031	0,120
-245,219	-30,474	-0,059	0,024
-244,205	440,200	-0,081	-0,127
-243,190	-17,292	0,055	0,025
-242,176	-200,000	-0,023	0,076
-241,161	49,101	-0,062	-0,042
-240,146	701,386	0,062	0,118
-239,132	-200,000	-0,007	0,030
-238,117	446,528	0,047	-0,075
-237,103	-34,368	-0,037	0,014
-236,088	-28,356	-0,044	0,018
-235,073	800,000	0,074	0,161
-234,059	-200,000	-0,006	0,074
-233,044	93,707	0,099	0,080
-232,030	-64,167	-0,050	-0,014
-231,015	449,150	-0,042	-0,067
-230,000	-200,000	0,054	-0,192
-228,986	-60,149	-0,069	-0,021
-227,971	-200,000	0,009	0,052
-226,957	543,902	0,043	-0,074
-225,942	201,158	0,045	0,049
-224,927	-31,180	0,139	0,056
-223,913	-200,000	-0,010	-0,052
-222,898	-88,483	-0,088	-0,019
-221,884	-200,000	0,021	0,076
-220,869	334,391	0,041	0,057
-219,855	-200,000	0,013	-0,051
-218,840	29,720	0,089	-0,054
-217,825	800,000	-0,055	-0,154
-216,811	-171,488	-0,074	0,002
-215,796	-200,000	0,012	-0,051
-214,782	96,711	-0,020	-0,017
-213,767	800,000	0,034	0,074
-212,752	155,810	0,110	0,108
-211,738	536,448	0,033	0,056
-210,723	353,518	0,053	0,075
-209,709	226,684	-0,030	0,035
-208,694	227,404	-0,069	-0,080
-207,679	-128,995	0,111	0,011
-206,665	91,787	-0,032	0,026
-205,650	-83,469	0,089	-0,020
-204,636	-77,866	0,047	0,012
-203,621	-105,529	-0,113	0,018
-202,606	-200,000	0,012	0,116
-201,592	114,084	-0,117	-0,101
-200,577	-88,550	-0,130	-0,027
-199,563	42,173	-0,072	0,047
-198,548	-200,000	-0,009	-0,030
-197,533	-142,590	-0,052	0,004
-196,519	30,816	-0,097	-0,059
-195,504	-2,801	-0,011	0,006
-194,490	156,996	-0,065	-0,064
-193,475	-200,000	0,016	0,054
-192,460	-200,000	-0,011	0,071
-191,446	29,820	0,058	-0,035
-190,431	429,158	-0,030	0,046
-189,417	163,292	0,044	-0,044
-188,402	478,223	0,073	0,118
-187,387	80,680	-0,001	-0,001
-186,373	445,067	0,058	-0,090
-185,358	-167,031	0,105	-0,003
-184,344	-190,129	0,114	-0,001
-183,329	-96,719	0,128	0,024
-182,315	674,365	0,018	0,033
-181,300	-200,000	0,006	0,090
-180,285	167,581	-0,086	-0,087
-179,271	385,946	0,087	-0,128
-178,256	597,608	-0,046	-0,082
-177,242	82,585	-0,079	0,061
-176,227	128,886	0,112	-0,101
-175,212	631,813	0,041	0,074
-174,198	10,653	-0,084	0,045
-173,183	260,041	-0,042	0,051
-172,169	-200,000	0,020	-0,087
-171,154	111,024	-0,071	0,061
-170,139	119,514	-0,047	-0,041
-169,125	23,763	-0,065	0,038
-168,110	-20,913	-0,062	0,027
-167,096	100,371	-0,076	0,063
-166,081	11,092	0,116	0,063
-165,066	-166,292	-0,105	-0,003
-164,052	-123,123	0,102	0,012
-163,037	188,971	0,121	-0,129
-162,023	-200,000	0,002	-0,147
-161,008	-34,203	0,053	-0,021
-159,993	289,595	-0,038	-0,050
-158,979	-134,525	-0,147	-0,013
-157,964	29,373	0,124	-0,075
-156,950	-200,000	-0,024	0,126
-155,935	-200,000	0,004	0,027
-154,920	89,189	0,153	0,121
-153,906	-200,000	-0,018	0,111
-152,891	-44,331	-0,076	-0,027
-151,877	164,050	-0,095	-0,095
-150,862	-200,000	0,017	-0,174
-149,847	-150,085	-0,054	-0,003
-148,833	354,749	-0,039	0,055
-147,818	64,784	0,140	0,101
-146,804	99,096	0,052	0,042
-145,789	800,000	0,031	-0,084
-144,775	-108,648	0,070	-0,011
-143,760	56,368	0,059	-0,041
-142,745	-67,345	0,119	-0,033
-141,731	-200,000	-0,009	-0,042
-140,716	-145,145	-0,061	-0,004
-139,702	179,943	0,125	0,130
-138,687	-200,000	-0,003	0,122
-137,672	206,583	-0,010	0,011
-136,658	155,921	-0,026	-0,026
-135,643	131,345	-0,090	-0,082
-134,629	-83,722	-0,131	-0,029
-133,614	8,291	0,053	0,028
-132,599	-78,782	0,064	-0,015
-131,585	-200,000	0,019	0,165
-130,570	45,785	0,094	-0,062
-129,556	-151,256	-0,165	0,009
-128,541	-118,882	-0,111	-0,014
-127,526	94,879	-0,057	0,046
-126,512	769,398	-0,045	-0,087
-125,497	-4,945	-0,133	0,065
-124,483	-155,402	-0,049	-0,002
-123,468	-200,000	0,000	-0,055
-122,453	-200,000	-0,002	-0,091
-121,439	-200,000	-0,023	-0,089
-120,424	-163,122	-0,060	-0,002
-119,410	241,229	-0,047	-0,056
