DTS Sentinel unit serial number:	SN410029Multiplexer serial number:	ORYXHardware model number:	OX2-SRSoftware version number:	ORYX F/W v4,00 Oryx Data Collector v3.7.2.0data status	okinstallation	BH3 CH2differential loss correction	single-endedforward channel	channel 2reverse channel	N/Adate	2023/12/05time	15:47:28forward acquisition time	300,00reverse acquisition time	0,00gamma	499,1914k internal	0,3192k external	0,3192temperature offset calibration	1,0000default loss term (dB/km)	0,3820temperature slope calibration	1,0000multiplexer offset coefficient	1,0000multiplexer slope coefficient	1,0000fibre end	0,00T internal ref (°C)	11,06T ext. ref 1 (°C)	-3,30T ext. ref 2 (°C)	-3,43length (m)	temperature (°C)	Stokes	anti-Stokes-744,400	149,507	-0,120	-0,119
-743,385	-4,368	-0,207	0,104
-742,371	-16,874	-0,157	-0,072
-741,356	800,000	-0,077	0,195
-740,342	-200,000	-0,169	-0,001
-739,327	-43,007	-0,251	0,092
-738,312	-200,000	-0,039	-0,191
-737,298	86,525	-0,166	0,133
-736,283	-95,164	-0,065	-0,013
-735,269	320,494	-0,106	0,147
-734,254	800,000	-0,059	-0,127
-733,239	-2,940	-0,346	-0,175
-732,225	331,162	0,078	-0,110
-731,210	271,364	0,048	0,061
-730,196	227,289	-0,063	0,074
-729,181	125,542	-0,048	-0,044
-728,167	-63,050	-0,067	0,020
-727,152	-200,000	-0,034	0,111
-726,137	-16,379	-0,055	0,026
-725,123	800,000	0,015	-0,048
-724,108	800,000	-0,017	-0,049
-723,094	152,336	-0,079	-0,079
-722,079	-4,275	0,032	-0,016
-721,064	800,000	-0,009	-0,020
-720,050	800,000	-0,053	0,109
-719,035	695,401	-0,019	-0,036
-718,021	146,139	-0,049	-0,048
-717,006	196,809	-0,034	0,037
-715,991	-21,482	0,080	0,035
-714,977	240,000	-0,018	0,022
-713,962	273,377	-0,109	-0,141
-712,948	-77,844	0,077	0,019
-711,933	-105,927	0,023	0,004
-710,918	-200,000	0,001	-0,082
-709,904	-81,160	-0,085	0,020
-708,889	413,916	0,034	-0,052
-707,875	-144,684	-0,065	-0,004
-706,860	-200,000	0,015	-0,064
-705,845	391,892	-0,074	-0,112
-704,831	449,513	0,022	-0,036
-703,816	-200,000	0,001	0,132
-702,802	324,267	0,034	-0,047
-701,787	-200,000	-0,011	-0,157
-700,772	98,667	-0,043	-0,036
-699,758	-200,000	-0,016	-0,054
-698,743	-36,185	-0,047	0,018
-697,729	192,088	0,157	0,172
-696,714	-125,069	-0,182	0,020
-695,699	-4,206	0,035	-0,018
-694,685	-142,990	-0,125	0,009
-693,670	73,498	-0,093	0,071
-692,656	281,213	-0,024	-0,032
-691,641	-200,000	0,001	0,070
-690,627	-61,830	0,157	0,047
-689,612	-22,039	-0,062	-0,027
-688,597	-200,000	-0,005	-0,037
-687,583	-65,071	-0,175	-0,051
-686,568	800,000	-0,066	0,149
-685,554	-26,897	-0,066	0,028
-684,539	-200,000	0,006	0,049
-683,524	800,000	0,015	0,042
-682,510	-200,000	-0,002	-0,020
-681,495	-200,000	-0,039	0,188
-680,481	71,983	-0,072	-0,055
-679,466	800,000	0,035	-0,086
-678,451	-105,384	-0,092	-0,015
-677,437	87,226	0,078	0,063
-676,422	-121,305	-0,079	0,010
-675,408	-41,644	0,090	-0,034
-674,393	575,243	-0,048	-0,086
-673,378	-20,575	-0,132	-0,059
-672,364	637,000	0,053	0,099
-671,349	800,000	-0,065	-0,131
-670,335	-200,000	0,004	0,045
-669,320	134,250	-0,113	0,106
-668,305	169,127	0,045	-0,047
-667,291	-200,000	0,015	0,121
-666,276	-50,652	-0,036	-0,012
-665,262	-52,427	-0,119	0,040
-664,247	-6,638	-0,084	-0,042
-663,232	800,000	-0,018	0,058
-662,218	541,563	0,085	0,148
-661,203	182,408	0,050	-0,053
-660,189	-32,597	0,026	-0,011
-659,174	196,193	-0,075	-0,083
-658,159	57,299	0,031	0,022
-657,145	-200,000	0,018	-0,099
-656,130	92,551	0,090	0,073
-655,116	351,087	-0,052	-0,075
-654,101	800,000	-0,071	0,220
-653,086	149,907	0,026	-0,026
-652,072	757,955	-0,030	0,059
-651,057	213,015	-0,027	-0,031
-650,043	-90,050	-0,146	-0,031
-649,028	158,705	-0,056	-0,057
-648,014	-200,000	0,002	-0,010
-646,999	415,604	-0,012	0,019
-645,984	-176,446	0,142	0,003
-644,970	-200,000	-0,005	0,121
-643,955	-200,000	-0,007	-0,068
-642,941	107,723	-0,139	-0,120
-641,926	202,809	-0,045	-0,051
-640,911	800,000	0,072	0,164
-639,897	800,000	-0,037	0,114
-638,882	800,000	-0,053	0,142
-637,868	-83,657	-0,079	-0,018
-636,853	45,134	0,074	-0,049
-635,838	155,998	0,002	-0,002
-634,824	-20,445	0,074	-0,033
-633,809	800,000	-0,056	-0,117
-632,795	-48,463	0,101	0,035
-631,780	800,000	-0,048	-0,102
-630,765	-200,000	0,008	0,055
-629,751	55,723	0,065	-0,046
-628,736	-1,979	-0,087	-0,044
-627,722	-72,087	-0,048	0,013
-626,707	39,118	0,071	-0,046
-625,692	800,000	0,037	0,085
-624,678	322,035	0,047	0,066
-623,663	-10,729	0,165	0,079
-622,649	800,000	-0,028	-0,079
-621,634	-200,000	-0,074	-0,257
-620,619	380,424	-0,051	-0,076
-619,605	-20,028	-0,061	-0,027
-618,590	-200,000	-0,002	-0,089
-617,576	43,984	-0,039	-0,026
-616,561	-23,455	0,041	0,018
-615,546	-200,000	-0,066	0,000
-614,532	800,000	0,034	-0,097
-613,517	-0,814	-0,072	-0,037
-612,503	91,142	-0,064	0,052
-611,488	-200,000	0,016	0,094
-610,474	-200,000	0,008	0,038
-609,459	82,281	-0,049	0,039
-608,444	800,000	0,066	-0,174
-607,430	-123,474	-0,059	0,007
-606,415	-200,000	0,029	-0,172
-605,401	479,208	-0,028	0,047
-604,386	10,483	0,134	0,074
-603,371	-200,000	-0,015	0,122
-602,357	58,444	-0,110	-0,078
-601,342	-48,277	0,012	0,004
-600,328	203,544	-0,011	-0,012
-599,313	-126,854	-0,153	-0,016
-598,298	110,705	-0,111	0,097
-597,284	-200,000	-0,029	0,148
-596,269	-46,598	0,098	0,035
-595,255	78,370	-0,059	0,046
-594,240	-63,045	-0,158	-0,047
-593,225	679,516	-0,046	-0,087
-592,211	-148,947	-0,119	0,007
-591,196	181,729	-0,026	-0,028
-590,182	-34,902	0,062	0,024
-589,167	29,296	-0,027	0,017
-588,152	97,336	-0,110	0,092
-587,138	-45,792	0,097	0,035
-586,123	-100,237	-0,083	-0,015
-585,109	28,262	0,043	0,026
-584,094	44,558	-0,102	-0,068
-583,079	83,999	-0,049	-0,039
-582,065	-71,014	0,041	0,011
-581,050	-68,929	0,031	0,009
-580,036	-200,000	0,031	-0,104
-579,021	552,710	0,058	-0,101
-578,006	-200,000	-0,016	-0,071
-576,992	-200,000	0,019	-0,107
-575,977	-133,579	-0,105	-0,009
-574,963	76,880	-0,053	0,041
-573,948	-200,000	-0,025	0,081
-572,934	95,659	0,023	-0,019
-571,919	297,215	0,039	-0,052
-570,904	106,246	-0,095	-0,081
-569,890	379,256	-0,097	-0,145
-568,875	800,000	0,016	-0,032
-567,861	-115,240	0,118	0,016
-566,846	67,534	0,055	-0,041
-565,831	72,637	0,060	-0,045
-564,817	53,590	-0,029	-0,020
-563,802	-3,359	-0,144	-0,072
-562,788	143,336	-0,209	0,202
-561,773	-51,638	0,079	-0,026
-560,758	76,062	-0,066	-0,050
-559,744	-123,299	0,106	0,012
-558,729	-30,913	-0,138	-0,056
-557,715	-60,931	-0,045	-0,014
-556,700	75,996	0,011	-0,008
-555,685	121,126	0,068	0,061
-554,671	345,646	0,043	0,061
-553,656	33,227	0,074	0,046
-552,642	-200,000	0,030	-0,172
-551,627	-180,319	0,169	0,002
-550,612	800,000	0,061	-0,139
-549,598	448,607	-0,098	-0,156
-548,583	-200,000	-0,026	0,127
-547,569	800,000	0,032	0,095
-546,554	78,409	-0,012	-0,009
-545,539	800,000	0,053	0,109
-544,525	-71,133	-0,049	-0,013
-543,510	231,551	0,050	-0,059
-542,496	800,000	-0,015	0,038
-541,481	-46,120	-0,087	-0,031
-540,466	-6,406	-0,051	0,025
-539,452	-51,181	0,108	0,037
-538,437	-61,846	-0,093	-0,028
-537,423	82,608	-0,020	-0,016
-536,408	-34,169	-0,108	-0,043
-535,393	-44,353	0,149	-0,054
-534,379	152,011	-0,079	-0,078
-533,364	187,405	0,043	0,046
-532,350	121,910	-0,005	-0,004
-531,335	63,696	-0,054	0,039
-530,321	800,000	-0,036	0,104
-529,306	79,338	0,029	0,023
-528,291	123,614	-0,047	-0,043
-527,277	-135,688	0,123	0,010
-526,262	134,762	-0,129	0,122
-525,248	800,000	0,027	-0,055
-524,233	39,333	0,025	0,016
-523,218	245,243	-0,076	0,093
-522,204	-20,223	0,064	-0,028
-521,189	800,000	0,033	-0,101
-520,175	127,584	0,066	-0,061
-519,160	96,944	-0,033	0,027
-518,145	287,973	-0,040	0,052
-517,131	-140,401	0,121	0,009
-516,116	443,789	0,010	-0,015
-515,102	-200,000	-0,023	-0,118
-514,087	164,553	-0,062	-0,063
-513,072	-103,422	-0,160	-0,027
-512,058	102,490	-0,089	-0,075
-511,043	760,217	0,045	0,090
-510,029	800,000	-0,060	0,139
-509,014	-200,000	-0,027	0,145
-507,999	20,052	-0,104	-0,060
-506,985	800,000	-0,016	0,037
-505,970	329,176	-0,046	-0,065
-504,956	248,268	-0,119	-0,145
-503,941	800,000	0,007	0,022
-502,926	-200,000	0,034	0,115
-501,912	800,000	0,038	0,111
-500,897	651,512	-0,033	0,062
-499,883	64,757	-0,043	-0,032
-498,868	269,222	-0,055	-0,070
-497,853	800,000	0,041	-0,082
-496,839	-200,000	0,016	0,056
-495,824	-118,798	0,015	0,002
-494,810	-200,000	-0,020	0,071
-493,795	63,016	0,018	0,013
-492,781	65,672	0,048	0,035
-491,766	-200,000	0,010	-0,067
-490,751	-26,985	-0,147	-0,062
-489,737	-13,052	0,068	0,032
-488,722	-78,817	0,065	-0,016
-487,708	721,808	0,025	0,049
-486,693	41,203	-0,063	-0,041
-485,678	96,235	-0,117	0,097
-484,664	-92,756	-0,114	-0,023
-483,649	57,351	-0,080	-0,057
-482,635	782,873	0,043	0,086
-481,620	0,432	-0,039	0,020
-480,605	-119,944	0,199	0,024
-479,591	800,000	0,047	0,095
-478,576	-9,578	-0,119	-0,057
-477,562	2,033	-0,143	-0,074
-476,547	463,925	-0,042	-0,067
-475,532	-70,854	0,070	-0,019
-474,518	75,673	-0,053	-0,041
-473,503	800,000	0,056	0,153
-472,489	-200,000	0,006	0,061
-471,474	800,000	0,036	0,079
-470,459	-200,000	-0,043	-0,157
-469,445	92,908	-0,077	-0,063
-468,430	114,194	-0,052	-0,046
-467,416	-200,000	-0,025	-0,134
-466,401	-122,515	0,157	0,018
-465,386	-10,148	0,172	0,082
-464,372	-200,000	-0,038	-0,130
-463,357	117,312	-0,044	-0,039
-462,343	111,172	-0,074	0,064
-461,328	800,000	-0,042	0,094
-460,313	384,874	0,090	0,134
-459,299	13,586	0,053	-0,029
-458,284	-131,688	-0,093	0,009
-457,270	-93,255	0,117	0,023
-456,255	-200,000	0,007	-0,085
-455,241	183,134	-0,047	-0,050
-454,226	800,000	-0,002	0,005
-453,211	800,000	-0,065	0,132
-452,197	-200,000	-0,006	0,061
-451,182	-200,000	0,018	0,180
-450,168	-9,334	-0,133	0,064
-449,153	9,940	-0,049	0,026
-448,138	-52,162	-0,096	-0,032
-447,124	351,642	-0,088	-0,127
-446,109	171,184	0,067	-0,069
-445,095	-57,148	-0,022	-0,007
-444,080	255,938	0,043	-0,053
-443,065	-200,000	0,019	-0,065
-442,051	-110,988	0,033	-0,005
-441,036	800,000	0,020	0,040
-440,022	-53,241	-0,081	0,027
-439,007	800,000	0,040	-0,089
-437,992	-51,904	-0,166	0,055
-436,978	-118,777	0,160	0,020
-435,963	-200,000	0,006	0,040
-434,949	137,504	-0,103	0,097
-433,934	28,952	-0,026	0,016
-432,919	800,000	0,052	0,108
-431,905	-164,933	-0,093	0,003
-430,890	165,579	0,080	0,081
-429,876	130,839	0,024	0,023
-428,861	83,621	0,102	0,080
-427,846	251,442	0,041	-0,051
-426,832	-5,458	0,105	-0,052
-425,817	-23,092	-0,089	-0,038
-424,803	-200,000	0,004	0,024
-423,788	-200,000	-0,002	0,082
-422,773	-200,000	-0,015	0,083
-421,759	-10,051	0,044	0,021
-420,744	190,778	-0,142	-0,154
-419,730	143,889	0,050	-0,048
-418,715	-17,683	0,024	-0,011
-417,701	800,000	0,024	0,063
-416,686	-92,343	0,112	-0,022
-415,671	800,000	-0,031	0,086
-414,657	64,239	0,162	0,117
-413,642	8,899	0,129	0,070
-412,628	107,173	-0,083	0,071
-411,613	37,511	0,060	-0,038
-410,598	-38,062	0,104	0,040
-409,584	-200,000	-0,029	0,164
-408,569	-200,000	0,018	0,057
-407,555	365,796	-0,080	0,117
-406,540	-74,607	0,117	0,030
-405,525	-63,717	0,119	0,035
-404,511	541,849	-0,074	-0,128
-403,496	52,349	0,078	-0,054
-402,482	-136,278	-0,095	-0,008
-401,467	-200,000	-0,001	-0,002
-400,452	-200,000	0,008	0,155
-399,438	61,683	-0,115	0,082
-398,423	406,633	0,051	0,078
-397,409	-0,507	0,127	-0,065
-396,394	800,000	-0,026	-0,056
-395,379	-200,000	0,068	-0,296
-394,365	-200,000	0,016	0,074
-393,350	-64,656	0,123	0,036
-392,336	800,000	0,008	0,020
-391,321	-200,000	0,005	0,033
-390,306	-66,868	-0,029	0,008
-389,292	-145,634	-0,112	-0,007
-388,277	34,841	0,076	0,048
-387,263	-200,000	-0,017	0,123
-386,248	-144,879	0,056	-0,004
-385,233	-200,000	0,000	-0,026
-384,219	-20,116	0,090	-0,040
-383,204	22,965	0,141	-0,083
-382,190	-104,662	-0,042	0,007
-381,175	800,000	-0,062	0,151
-380,160	34,662	0,073	0,046
-379,146	171,123	-0,014	-0,014
-378,131	367,219	0,044	-0,063
-377,117	-200,000	-0,001	-0,036
-376,102	19,421	-0,099	-0,057
-375,088	200,473	-0,116	-0,128
-374,073	427,857	0,050	-0,078
-373,058	-200,000	0,008	0,123
-372,044	800,000	0,034	-0,091
-371,029	-200,000	-0,021	0,084
-370,015	45,976	-0,066	0,044
-369,000	-9,435	-0,044	-0,021
-367,985	-80,442	-0,067	-0,016
-366,971	298,249	0,018	0,024
-365,956	94,063	0,073	-0,059
-364,942	800,000	0,054	0,132
-363,927	402,112	0,026	0,039
-362,912	8,529	-0,086	0,046
-361,898	800,000	-0,043	0,086
-360,883	800,000	-0,041	-0,095
-359,869	10,473	-0,067	-0,036
-358,854	-107,186	0,033	0,005
-357,839	99,831	0,049	-0,041
-356,825	-116,862	0,117	0,015
-355,810	348,374	0,050	-0,071
-354,796	94,921	0,073	0,060
-353,781	-76,229	0,059	0,015
-352,766	-200,000	0,028	0,126
-351,752	-71,933	-0,151	0,040
-350,737	55,906	0,132	0,092
-349,723	-200,000	0,017	0,060
-348,708	-5,410	-0,066	0,032
-347,693	-200,000	-0,000	-0,011
-346,679	46,950	-0,040	0,026
-345,664	800,000	0,059	-0,122
-344,650	-62,710	-0,027	-0,008
-343,635	-200,000	0,007	-0,177
-342,620	-11,080	-0,119	-0,056
-341,606	100,355	0,073	0,061
-340,591	-8,799	-0,078	0,037
-339,577	-43,708	-0,015	-0,005
-338,562	-67,717	-0,094	-0,026
-337,548	800,000	-0,026	-0,067
-336,533	-64,528	0,138	0,040
-335,518	800,000	-0,011	0,023
-334,504	-75,078	0,155	-0,040
-333,489	299,726	-0,064	-0,084
-332,475	-95,343	-0,080	-0,015
-331,460	-146,734	0,052	0,003
-330,445	48,307	-0,111	0,074
-329,431	27,780	0,033	-0,020
-328,416	-200,000	0,004	-0,073
-327,402	416,126	0,054	-0,082
-326,387	-200,000	0,000	0,004
-325,372	800,000	-0,034	-0,090
-324,358	478,548	-0,056	-0,091
-323,343	-200,000	0,107	0,000
-322,329	800,000	-0,023	-0,055
-321,314	449,593	0,078	0,124
-320,299	-193,350	-0,038	0,000
-319,285	-200,000	0,021	-0,168
-318,270	-20,216	-0,084	0,037
-317,256	-6,892	-0,108	-0,052
-316,241	-184,982	0,136	-0,001
-315,226	800,000	0,012	0,030
-314,212	-116,879	0,036	-0,005
-313,197	129,516	-0,072	0,066
-312,183	-200,000	0,009	-0,092
-311,168	-72,158	-0,081	0,021
-310,153	-18,819	0,084	-0,038
-309,139	-200,000	0,001	0,024
-308,124	-113,301	-0,074	-0,010
-307,110	167,570	-0,098	0,100
-306,095	-200,000	-0,001	0,083
-305,080	-200,000	0,012	0,088
-304,066	800,000	0,052	0,109
-303,051	-200,000	-0,013	-0,129
-302,037	-71,569	-0,086	0,023
-301,022	-200,000	0,024	0,147
-300,008	800,000	-0,031	0,080
-298,993	-200,000	0,009	-0,084
-297,978	75,212	-0,033	-0,025
-296,964	-96,978	0,195	0,036
-295,949	-38,337	-0,041	0,016
-294,935	83,997	0,069	0,054
-293,920	637,136	-0,051	-0,094
-292,905	-110,633	0,118	-0,017
-291,891	800,000	0,037	0,096
-290,876	-57,588	0,045	0,014
-289,862	110,266	-0,148	-0,127
-288,847	-21,957	0,051	-0,022
-287,832	-82,295	-0,060	-0,014
-286,818	-117,135	0,152	0,020
-285,803	451,952	-0,058	-0,092
-284,789	-129,222	0,050	-0,005
-283,774	19,848	0,056	0,032
-282,759	14,398	0,179	0,100
-281,745	-200,000	-0,007	0,070
-280,730	246,163	0,034	-0,041
-279,716	800,000	-0,017	-0,049
-278,701	-30,529	-0,084	-0,034
-277,686	93,476	0,030	-0,025
-276,672	-200,000	-0,022	0,086
-275,657	-200,000	-0,007	-0,157
-274,643	-200,000	-0,006	0,037
-273,628	-200,000	-0,034	0,110
-272,613	-200,000	0,009	-0,033
-271,599	-194,357	0,036	-0,000
-270,584	342,538	-0,014	0,020
-269,570	247,471	0,147	0,178
-268,555	-58,241	0,135	0,042
-267,540	307,349	-0,090	-0,121
-266,526	-200,000	0,012	-0,136
-265,511	-200,000	0,018	-0,097
-264,497	-75,074	-0,221	0,056
-263,482	-200,000	-0,025	0,083
-262,467	-117,536	0,167	0,021
-261,453	125,655	-0,054	-0,049
-260,438	-200,000	-0,036	-0,125
-259,424	-69,574	-0,073	-0,020
-258,409	61,016	0,047	-0,033
-257,395	-200,000	-0,001	0,033
-256,380	800,000	0,015	-0,042
-255,365	625,650	-0,040	0,073
-254,351	-200,000	-0,001	-0,033
-253,336	-200,000	0,001	0,023
-252,322	-58,717	0,040	0,012
-251,307	70,190	0,079	-0,059
-250,292	200,641	-0,057	-0,063
-249,278	800,000	0,033	-0,092
-248,263	45,113	0,030	-0,020
-247,249	-200,000	-0,006	0,106
-246,234	800,000	-0,042	-0,124
-245,219	-200,000	-0,004	-0,075
-244,205	800,000	-0,046	-0,093
-243,190	800,000	0,022	-0,052
-242,176	-77,537	-0,065	0,016
-241,161	800,000	0,095	0,209
-240,146	-32,627	-0,060	0,024
-239,132	800,000	0,009	0,028
-238,117	201,511	0,024	0,026
-237,103	76,649	0,027	-0,021
-236,088	27,163	0,024	-0,014
-235,073	27,041	0,061	-0,036
-234,059	800,000	0,023	0,048
-233,044	41,277	0,020	-0,013
-232,030	-140,725	0,095	-0,007
-231,015	798,949	0,049	-0,098
-230,000	-24,015	0,061	0,026
-228,986	323,079	-0,031	0,042
-227,971	34,349	0,198	-0,124
-226,957	-122,638	-0,086	-0,010
-225,942	357,435	0,046	0,066
-224,927	-37,056	0,125	0,048
-223,913	800,000	0,048	-0,098
-222,898	-200,000	-0,067	-0,235
-221,884	-95,927	0,154	0,029
-220,869	-122,220	0,071	0,008
-219,855	403,844	-0,075	0,114
-218,840	800,000	-0,013	-0,029
-217,825	-200,000	-0,020	0,105
-216,811	606,357	-0,024	0,043
-215,796	-34,858	-0,146	-0,057
-214,782	800,000	0,043	-0,113
-213,767	-200,000	0,041	-0,224
-212,752	35,772	0,104	0,065
-211,738	-56,456	0,083	-0,026
-210,723	800,000	0,026	0,072
-209,709	800,000	-0,006	-0,016
-208,694	158,170	0,065	-0,065
-207,679	41,687	-0,104	0,067
-206,665	-200,000	-0,013	0,056
-205,650	-134,237	0,081	0,007
-204,636	115,734	0,057	-0,049
-203,621	-125,668	0,141	-0,015
-202,606	26,267	-0,113	0,067
-201,592	155,890	-0,078	0,077
-200,577	800,000	0,036	-0,100
-199,563	-156,852	0,037	-0,002
-198,548	-96,536	0,053	0,010
-197,533	-115,011	0,028	0,004
-196,519	-200,000	0,012	0,102
-195,504	800,000	-0,019	-0,042
-194,490	-95,953	0,115	-0,022
-193,475	351,195	-0,089	-0,126
-192,460	719,007	-0,086	-0,165
-191,446	324,198	0,042	0,057
-190,431	-200,000	0,033	0,113
-189,417	-52,631	0,058	0,019
-188,402	97,962	0,077	0,063
-187,387	6,573	-0,111	-0,059
-186,373	397,295	-0,082	-0,123
-185,358	318,513	-0,061	0,082
-184,344	-128,417	0,122	0,012
-183,329	48,302	0,073	0,049
-182,315	-11,449	-0,048	-0,023
-181,300	-200,000	-0,001	-0,056
-180,285	-200,000	0,003	0,082
-179,271	171,173	-0,151	-0,154
-178,256	-92,812	-0,062	-0,012
-177,242	-200,000	0,000	0,088
-176,227	-59,263	0,103	-0,032
-175,212	-38,585	-0,037	0,014
-174,198	27,982	-0,066	0,040
-173,183	-55,299	-0,113	0,036
-172,169	503,118	-0,089	-0,148
-171,154	-200,000	0,023	0,158
-170,139	-200,000	-0,017	0,170
-169,125	800,000	0,031	0,072
-168,110	81,343	0,078	0,060
-167,096	44,604	0,041	0,027
-166,081	298,221	-0,055	-0,072
-165,066	458,135	-0,029	-0,046
-164,052	96,421	0,120	0,098
-163,037	289,027	-0,041	0,053
-162,023	-200,000	0,007	0,080
-161,008	-200,000	-0,026	0,139
-159,993	-200,000	0,013	0,090
-158,979	-200,000	-0,003	0,021
-157,964	-200,000	0,029	-0,198
-156,950	9,752	0,036	-0,019
-155,935	-19,119	0,022	-0,009
-154,920	98,418	0,088	0,072
-153,906	-62,554	-0,016	-0,005
-152,891	-140,006	-0,068	-0,005
-151,877	399,960	-0,067	-0,100
-150,862	800,000	-0,037	-0,094
-149,847	518,647	-0,030	-0,050
-148,833	289,064	-0,056	0,073
-147,818	97,456	-0,076	0,062
-146,804	-17,467	-0,063	0,028
-145,789	183,745	0,068	-0,072
-144,775	-200,000	-0,009	-0,108
-143,760	-79,428	-0,152	-0,036
-142,745	161,785	0,034	0,034
-141,731	-200,000	0,005	0,023
-140,716	-200,000	-0,001	-0,052
-139,702	29,306	0,065	0,039
-138,687	800,000	-0,044	0,097
-137,672	7,470	-0,133	-0,071
-136,658	-9,348	-0,120	0,057
-135,643	33,847	-0,075	-0,046
-134,629	-158,502	0,080	-0,003
-133,614	-200,000	-0,025	0,153
-132,599	800,000	-0,042	0,106
-131,585	324,803	-0,048	0,066
-130,570	-111,359	0,090	-0,013
-129,556	288,033	-0,037	-0,048
-128,541	6,317	0,169	-0,089
-127,526	76,741	-0,070	0,053
-126,512	112,753	0,111	-0,096
-125,497	-200,000	0,013	0,055
-124,483	-200,000	-0,017	0,058
-123,468	24,022	-0,053	-0,031
-122,453	-200,000	-0,032	0,148
-121,439	-116,850	0,065	0,008
-120,424	297,825	0,060	-0,079
-119,410	-123,232	-0,086	-0,010
-118,395	-128,745	-0,082	-0,008
