DTS Sentinel unit serial number:	SN410029Multiplexer serial number:	ORYXHardware model number:	OX2-SRSoftware version number:	ORYX F/W v4,00 Oryx Data Collector v3.7.2.0data status	okinstallation	BH3 CH2differential loss correction	single-endedforward channel	channel 2reverse channel	N/Adate	2023/12/05time	22:22:28forward acquisition time	300,00reverse acquisition time	0,00gamma	499,1914k internal	0,3194k external	0,3194temperature offset calibration	1,0000default loss term (dB/km)	0,3820temperature slope calibration	1,0000multiplexer offset coefficient	1,0000multiplexer slope coefficient	1,0000fibre end	0,00T internal ref (°C)	9,99T ext. ref 1 (°C)	-5,11T ext. ref 2 (°C)	-5,20length (m)	temperature (°C)	Stokes	anti-Stokes-744,400	-200,000	-0,038	-0,233
-743,385	-29,562	-0,305	0,126
-742,371	26,588	-0,083	-0,051
-741,356	372,716	-0,102	0,151
-740,342	446,271	-0,072	-0,116
-739,327	-136,521	-0,197	0,016
-738,312	247,037	-0,058	-0,071
-737,298	-158,352	-0,236	-0,010
-736,283	-149,022	-0,102	0,006
-735,269	-39,754	-0,123	0,047
-734,254	-61,001	-0,088	0,027
-733,239	-14,004	-0,243	-0,114
-732,225	83,769	0,137	-0,109
-731,210	-51,042	-0,118	0,040
-730,196	87,300	0,046	-0,037
-729,181	800,000	0,090	-0,240
-728,167	177,627	-0,052	0,056
-727,152	-78,905	0,130	-0,032
-726,137	-81,966	-0,231	-0,054
-725,123	15,011	0,133	0,076
-724,108	402,913	-0,077	-0,118
-723,094	69,816	-0,117	-0,088
-722,079	500,151	-0,040	-0,068
-721,064	-149,185	-0,096	-0,006
-720,050	-54,306	-0,067	0,022
-719,035	9,759	-0,081	0,045
-718,021	-200,000	-0,006	-0,114
-717,006	800,000	-0,023	-0,059
-715,991	-200,000	-0,007	-0,125
-714,977	0,597	0,090	-0,047
-713,962	-200,000	-0,001	-0,074
-712,948	-161,606	-0,065	-0,002
-711,933	-81,055	-0,172	-0,041
-710,918	-67,451	-0,193	0,055
-709,904	355,240	0,052	0,076
-708,889	-104,517	-0,111	-0,018
-707,875	67,407	-0,148	-0,109
-706,860	546,508	-0,060	0,105
-705,845	-200,000	-0,003	-0,034
-704,831	-58,726	0,071	-0,022
-703,816	800,000	0,009	-0,023
-702,802	-100,900	0,080	-0,014
-701,787	167,379	0,114	-0,118
-700,772	-200,000	-0,006	-0,068
-699,758	-200,000	-0,002	0,146
-698,743	-78,943	0,071	0,017
-697,729	-200,000	-0,016	0,067
-696,714	-145,249	-0,012	0,001
-695,699	254,096	-0,034	-0,042
-694,685	-136,212	-0,112	-0,009
-693,670	-52,336	0,110	-0,037
-692,656	286,365	-0,037	0,049
-691,641	76,356	-0,058	0,044
-690,627	800,000	0,054	0,111
-689,612	-95,899	-0,168	0,032
-688,597	60,828	0,194	-0,140
-687,583	-200,000	-0,018	-0,075
-686,568	326,634	-0,024	-0,033
-685,554	476,233	0,042	-0,069
-684,539	485,459	0,066	0,110
-683,524	-106,327	-0,118	0,019
-682,510	2,303	0,073	-0,038
-681,495	-200,000	0,015	-0,086
-680,481	-53,346	-0,086	-0,029
-679,466	-200,000	0,018	-0,084
-678,451	-200,000	0,027	-0,195
-677,437	744,453	-0,018	0,035
-676,422	-200,000	0,007	-0,043
-675,408	-10,849	-0,075	-0,036
-674,393	271,827	-0,053	0,068
-673,378	800,000	-0,021	0,065
-672,364	61,079	-0,096	-0,069
-671,349	-200,000	0,043	0,149
-670,335	-37,308	0,089	-0,034
-669,320	800,000	0,049	0,134
-668,305	-200,000	-0,029	0,115
-667,291	-25,055	0,049	-0,021
-666,276	559,522	0,060	-0,105
-665,262	-123,537	-0,179	-0,020
-664,247	100,031	0,031	0,026
-663,232	-168,706	0,178	0,005
-662,218	-109,805	0,071	-0,011
-661,203	134,607	-0,041	-0,038
-660,189	6,666	0,115	-0,062
-659,174	624,778	-0,052	-0,096
-658,159	-200,000	0,012	-0,174
-657,145	-150,665	-0,110	-0,006
-656,130	-105,708	0,080	-0,013
-655,116	-108,207	-0,090	0,014
-654,101	661,728	-0,073	-0,136
-653,086	87,701	-0,149	-0,120
-652,072	226,197	-0,033	-0,039
-651,057	-200,000	0,005	0,216
-650,043	42,109	-0,086	0,057
-649,028	-98,293	-0,161	0,030
-648,014	-42,634	0,071	-0,026
-646,999	-24,937	0,042	-0,018
-645,984	-200,000	-0,004	0,050
-644,970	348,309	0,048	-0,070
-643,955	276,400	0,082	0,106
-642,941	-70,390	0,080	-0,022
-641,926	251,468	-0,061	-0,076
-640,911	-200,000	-0,007	0,058
-639,897	-90,754	-0,053	0,011
-638,882	-200,000	-0,018	-0,063
-637,868	800,000	-0,001	0,004
-636,853	92,102	-0,082	-0,067
-635,838	136,727	0,040	-0,038
-634,824	-141,130	-0,140	0,010
-633,809	-25,179	-0,108	0,046
-632,795	47,774	0,079	0,053
-631,780	-12,432	0,010	0,005
-630,765	800,000	0,012	0,027
-629,751	-69,455	-0,191	-0,053
-628,736	616,560	0,044	-0,081
-627,722	68,751	0,088	0,065
-626,707	379,568	-0,044	0,066
-625,692	-129,450	-0,096	0,010
-624,678	458,231	-0,018	-0,030
-623,663	-121,641	-0,094	0,011
-622,649	800,000	-0,054	-0,117
-621,634	-200,000	0,008	0,060
-620,619	-139,784	0,015	-0,001
-619,605	-200,000	-0,006	0,024
-618,590	-200,000	0,014	0,148
-617,576	-200,000	-0,091	-0,000
-616,561	26,713	-0,115	-0,070
-615,546	291,638	-0,055	0,073
-614,532	-200,000	0,015	-0,157
-613,517	284,327	-0,097	0,126
-612,503	-105,882	0,090	0,015
-611,488	189,151	-0,052	-0,057
-610,474	106,750	0,086	0,074
-609,459	-200,000	-0,002	0,320
-608,444	-200,000	-0,010	-0,077
-607,430	-200,000	-0,004	-0,069
-606,415	-15,222	0,074	0,034
-605,401	776,216	0,035	0,069
-604,386	706,139	0,031	0,060
-603,371	-200,000	-0,008	-0,052
-602,357	-200,000	0,006	0,111
-601,342	-200,000	0,020	-0,076
-600,328	271,592	-0,078	-0,100
-599,313	-117,032	0,061	0,008
-598,298	-96,773	0,073	-0,014
-597,284	800,000	-0,019	0,052
-596,269	48,145	-0,065	0,044
-595,255	630,960	0,069	0,127
-594,240	800,000	-0,023	-0,058
-593,225	35,749	-0,049	0,031
-592,211	186,312	0,011	0,012
-591,196	-18,416	-0,143	0,065
-590,182	800,000	0,034	-0,105
-589,167	-105,669	-0,038	-0,006
-588,152	-200,000	0,004	0,060
-587,138	432,665	0,039	-0,061
-586,123	-136,514	-0,045	0,004
-585,109	115,382	0,051	-0,045
-584,094	-110,959	-0,112	-0,016
-583,079	31,306	-0,025	0,016
-582,065	-169,535	-0,077	0,002
-581,050	626,700	0,027	0,049
-580,036	-15,792	-0,023	0,011
-579,021	-31,553	-0,038	0,015
-578,006	-50,808	-0,075	0,026
-576,992	-200,000	0,001	-0,094
-575,977	-200,000	0,018	0,129
-574,963	31,554	-0,051	0,032
-573,948	504,876	0,045	0,075
-572,934	-200,000	-0,017	0,087
-571,919	-74,201	-0,082	-0,021
-570,904	-200,000	0,002	0,036
-569,890	252,767	-0,140	0,174
-568,875	-50,469	0,096	0,033
-567,861	-58,924	0,096	0,030
-566,846	-200,000	0,004	0,049
-565,831	779,375	0,023	-0,045
-564,817	-200,000	0,002	-0,093
-563,802	76,813	-0,021	-0,016
-562,788	800,000	-0,064	-0,131
-561,773	-3,395	-0,043	0,022
-560,758	-14,890	0,071	-0,033
-559,744	116,503	-0,038	0,034
-558,729	-10,657	-0,131	0,062
-557,715	33,861	-0,054	0,034
-556,700	92,246	0,060	-0,049
-555,685	-200,000	-0,003	-0,119
-554,671	-74,728	-0,054	-0,014
-553,656	-26,359	0,057	0,024
-552,642	20,817	0,045	-0,026
-551,627	800,000	0,054	-0,162
-550,612	800,000	0,077	-0,192
-549,598	-166,895	0,020	0,001
-548,583	290,536	0,023	-0,030
-547,569	-104,066	0,063	0,011
-546,554	525,964	0,016	-0,028
-545,539	-118,927	0,120	0,015
-544,525	596,505	0,019	0,034
-543,510	800,000	-0,039	0,080
-542,496	-36,003	-0,066	0,025
-541,481	325,729	-0,057	0,079
-540,466	175,216	-0,094	-0,098
-539,452	35,709	0,102	0,065
-538,437	84,540	-0,036	0,029
-537,423	800,000	0,024	0,075
-536,408	64,351	-0,103	-0,075
-535,393	-200,000	-0,009	-0,083
-534,379	-94,683	0,099	-0,019
-533,364	85,147	0,046	0,036
-532,350	-29,871	-0,062	0,025
-531,335	-73,950	-0,149	0,039
-530,321	-200,000	0,018	0,081
-529,306	-28,687	-0,095	0,039
-528,291	17,758	-0,192	-0,110
-527,277	373,562	-0,118	0,174
-526,262	-125,683	0,150	-0,016
-525,248	212,001	0,136	0,155
-524,233	-200,000	0,001	0,029
-523,218	364,059	0,041	0,060
-522,204	-200,000	-0,004	0,045
-521,189	685,452	-0,099	-0,189
-520,175	-200,000	-0,002	-0,012
-519,160	55,370	0,058	-0,041
-518,145	291,243	0,112	-0,148
-517,131	790,433	-0,052	-0,104
-516,116	-22,185	0,125	0,055
-515,102	-41,334	-0,200	0,074
-514,087	10,519	0,052	0,028
-513,072	-200,000	-0,015	-0,052
-512,058	-200,000	0,030	-0,113
-511,043	438,621	-0,069	0,110
-510,029	58,993	-0,100	0,071
-509,014	270,044	0,026	-0,034
-507,999	496,757	0,026	-0,044
-506,985	800,000	-0,027	-0,060
-505,970	278,830	-0,106	-0,137
-504,956	-7,909	0,029	-0,014
-503,941	-200,000	0,027	0,092
-502,926	-174,010	0,149	-0,003
-501,912	66,361	-0,082	-0,060
-500,897	800,000	-0,036	0,086
-499,883	-18,841	-0,025	-0,011
-498,868	-91,430	-0,093	0,019
-497,853	-135,670	0,083	-0,007
-496,839	800,000	-0,005	0,012
-495,824	726,155	0,042	0,081
-494,810	-200,000	-0,012	0,086
-493,795	-180,403	0,162	-0,002
-492,781	119,000	0,031	0,027
-491,766	140,221	-0,056	0,053
-490,751	-16,311	0,127	0,058
-489,737	-165,417	-0,195	0,006
-488,722	130,606	0,112	-0,104
-487,708	137,005	0,094	-0,089
-486,693	-45,095	0,091	-0,033
-485,678	153,868	-0,071	-0,071
-484,664	-108,953	-0,039	-0,006
-483,649	800,000	-0,007	-0,019
-482,635	-200,000	0,032	0,111
-481,620	-78,651	-0,003	0,001
-480,605	-1,893	0,064	0,032
-479,591	346,877	-0,068	-0,096
-478,576	-142,973	-0,158	-0,011
-477,562	119,949	-0,057	-0,051
-476,547	-200,000	-0,033	-0,236
-475,532	-175,480	-0,095	-0,002
-474,518	66,214	0,113	0,083
-473,503	-200,000	0,036	-0,156
-472,489	-118,328	0,112	-0,014
-471,474	-200,000	-0,019	0,137
-470,459	-93,258	-0,058	-0,012
-469,445	-200,000	-0,014	-0,078
-468,430	473,356	0,040	-0,065
-467,416	800,000	0,049	0,098
-466,401	281,062	0,083	0,107
-465,386	733,188	0,024	0,046
-464,372	-9,706	0,103	-0,049
-463,357	-200,000	-0,008	0,037
-462,343	166,046	-0,092	0,094
-461,328	75,653	0,100	-0,076
-460,313	-200,000	-0,001	-0,059
-459,299	5,077	-0,184	0,097
-458,284	-31,983	0,055	-0,022
-457,270	-200,000	0,024	-0,108
-456,255	26,304	-0,098	0,059
-455,241	-36,474	-0,110	-0,042
-454,226	800,000	-0,043	0,099
-453,211	-200,000	-0,021	0,137
-452,197	-200,000	0,004	0,043
-451,182	190,999	-0,113	-0,123
-450,168	126,080	-0,026	-0,024
-449,153	-200,000	-0,013	-0,097
-448,138	-44,262	-0,052	-0,019
-447,124	99,957	-0,063	0,052
-446,109	-200,000	-0,002	-0,220
-445,095	-200,000	0,023	0,103
-444,080	-200,000	0,041	0,152
-443,065	-200,000	0,004	0,044
-442,051	-200,000	-0,020	-0,101
-441,036	-200,000	-0,026	-0,225
-440,022	-7,456	-0,075	-0,037
-439,007	800,000	-0,013	-0,032
-437,992	215,828	0,071	0,082
-436,978	226,639	0,075	-0,088
-435,963	281,540	0,053	-0,069
-434,949	227,868	-0,024	-0,028
-433,934	43,444	-0,100	0,066
-432,919	35,475	-0,105	0,066
-431,905	97,267	-0,040	0,033
-430,890	10,785	0,101	0,055
-429,876	800,000	-0,051	-0,146
-428,861	-200,000	0,018	0,122
-427,846	-60,711	-0,132	-0,040
-426,832	191,203	0,115	-0,125
-425,817	-172,580	-0,056	-0,001
-424,803	800,000	-0,048	-0,112
-423,788	209,361	0,083	0,094
-422,773	-38,143	0,232	-0,088
-421,759	-200,000	0,003	-0,034
-420,744	-200,000	-0,011	-0,045
-419,730	-200,000	0,122	-0,000
-418,715	800,000	-0,014	0,044
-417,701	800,000	-0,066	0,139
-416,686	-141,977	0,165	-0,012
-415,671	764,494	-0,022	-0,044
-414,657	110,158	0,048	0,041
-413,642	-200,000	-0,025	0,112
-412,628	-156,765	-0,117	0,005
-411,613	774,160	-0,052	-0,103
-410,598	-200,000	0,007	-0,072
-409,584	800,000	0,047	0,119
-408,569	-73,788	0,086	0,022
-407,555	-200,000	0,008	0,049
-406,540	-158,396	-0,066	-0,003
-405,525	603,301	0,033	0,059
-404,511	800,000	0,049	-0,117
-403,496	208,020	-0,034	0,038
-402,482	-200,000	0,018	-0,084
-401,467	527,446	-0,018	-0,031
-400,452	-75,882	-0,059	-0,015
-399,438	-24,878	0,141	0,060
-398,423	-5,204	-0,096	-0,047
-397,409	141,651	-0,038	-0,036
-396,394	-80,631	-0,087	0,021
-395,379	-200,000	-0,008	0,113
-394,365	546,976	-0,022	0,039
-393,350	380,523	0,011	0,016
-392,336	687,625	0,094	0,177
-391,321	-90,295	0,071	0,015
-390,306	-200,000	0,027	-0,163
-389,292	24,990	0,109	-0,065
-388,277	-91,691	-0,064	-0,013
-387,263	-200,000	0,008	-0,075
-386,248	-59,809	0,071	-0,022
-385,233	-107,187	0,066	-0,010
-384,219	800,000	0,027	0,065
-383,204	765,530	0,075	-0,148
-382,190	-6,672	0,100	-0,049
-381,175	-113,927	-0,044	-0,006
-380,160	-40,268	-0,096	-0,036
-379,146	-132,166	0,210	-0,019
-378,131	625,023	-0,030	0,055
-377,117	13,418	-0,094	0,052
-376,102	178,773	-0,043	-0,045
-375,088	306,996	-0,093	-0,125
-374,073	800,000	-0,031	0,098
-373,058	534,278	0,055	0,094
-372,044	-200,000	-0,005	-0,042
-371,029	733,706	0,029	0,057
-370,015	-200,000	-0,007	-0,028
-369,000	428,863	0,044	-0,068
-367,985	-130,945	-0,093	0,009
-366,971	-7,718	0,081	-0,039
-365,956	721,180	-0,039	0,076
-364,942	85,813	-0,089	0,070
-363,927	138,357	0,132	0,125
-362,912	800,000	-0,056	0,117
-361,898	72,390	-0,062	-0,047
-360,883	-91,505	-0,149	-0,030
-359,869	-200,000	-0,014	-0,084
-358,854	160,437	-0,070	-0,070
-357,839	-55,233	-0,111	-0,036
-356,825	-200,000	0,026	0,098
-355,810	-98,515	0,050	-0,009
-354,796	-63,003	-0,060	0,018
-353,781	-200,000	0,018	-0,091
-352,766	800,000	0,025	0,059
-351,752	236,511	0,116	0,138
-350,737	97,552	0,046	-0,038
-349,723	-200,000	-0,015	0,065
-348,708	-107,821	-0,120	0,019
-347,693	-4,906	-0,020	0,010
-346,679	711,702	0,027	0,051
-345,664	-200,000	0,013	-0,058
-344,650	800,000	0,045	0,114
-343,635	-11,513	-0,048	-0,023
-342,620	560,758	0,079	0,138
-341,606	-200,000	0,028	0,174
-340,591	-66,485	0,091	0,026
-339,577	800,000	-0,020	-0,048
-338,562	368,147	0,035	-0,051
-337,548	31,141	-0,094	-0,058
-336,533	-169,039	0,163	-0,004
-335,518	-68,711	0,071	-0,020
-334,504	-21,008	0,141	-0,062
-333,489	-200,000	0,015	0,107
-332,475	800,000	0,016	-0,034
-331,460	-200,000	0,008	-0,101
-330,445	-58,700	-0,022	0,007
-329,431	800,000	0,113	0,252
-328,416	354,858	0,096	0,137
-327,402	-63,801	0,160	-0,047
-326,387	-110,628	0,081	-0,012
-325,372	-200,000	0,000	-0,060
-324,358	-200,000	0,001	-0,083
-323,343	179,964	0,074	-0,078
-322,329	800,000	-0,023	-0,059
-321,314	-127,842	-0,037	0,004
-320,299	-200,000	0,006	0,065
-319,285	800,000	-0,035	0,105
-318,270	800,000	-0,048	0,116
-317,256	-15,242	-0,140	-0,064
-316,241	18,224	0,045	-0,026
-315,226	-200,000	0,022	0,135
-314,212	-102,492	0,050	-0,008
-313,197	306,597	0,048	-0,064
-312,183	-200,000	-0,005	0,043
-311,168	257,332	0,011	0,014
-310,153	800,000	-0,019	-0,054
-309,139	800,000	-0,039	-0,118
-308,124	-200,000	0,002	-0,024
-307,110	800,000	0,073	0,161
-306,095	-96,827	0,033	-0,006
-305,080	-200,000	-0,059	0,000
-304,066	171,683	-0,013	-0,013
-303,051	-200,000	0,031	-0,133
-302,037	548,383	-0,049	-0,085
-301,022	-174,191	0,085	0,002
-300,008	-200,000	-0,010	0,036
-298,993	156,372	0,143	0,142
-297,978	254,340	-0,063	-0,078
-296,964	-200,000	-0,010	0,047
-295,949	-200,000	0,008	-0,063
-294,935	-200,000	0,009	-0,052
-293,920	-71,208	-0,187	-0,050
-292,905	358,909	-0,018	0,026
-291,891	-69,377	0,047	-0,013
-290,876	112,935	-0,089	0,077
-289,862	-30,017	-0,087	-0,035
-288,847	-116,926	0,019	-0,002
-287,832	349,633	0,040	0,057
-286,818	-12,449	0,069	-0,032
-285,803	-200,000	-0,060	-0,212
-284,789	-48,880	0,063	0,021
-283,774	-4,137	-0,063	-0,031
-282,759	-200,000	0,036	0,118
-281,745	-20,112	-0,099	0,044
-280,730	-116,458	-0,014	-0,002
-279,716	180,473	0,030	0,032
-278,701	800,000	-0,042	0,098
-277,686	-4,737	0,049	0,024
-276,672	-200,000	-0,001	-0,043
-275,657	554,134	-0,084	-0,145
-274,643	-9,880	0,043	-0,020
-273,628	-61,932	0,109	0,032
-272,613	800,000	-0,025	0,068
-271,599	800,000	0,033	0,075
-270,584	124,693	-0,116	0,105
-269,570	-88,573	0,116	-0,025
-268,555	-80,242	-0,078	-0,018
-267,540	800,000	-0,031	-0,072
-266,526	274,075	-0,076	-0,096
-265,511	800,000	-0,019	0,056
-264,497	-51,652	0,031	-0,010
-263,482	-137,085	0,206	0,017
-262,467	800,000	-0,032	0,069
-261,453	235,028	0,103	-0,122
-260,438	800,000	-0,056	-0,123
-259,424	-200,000	0,021	-0,073
-258,409	-47,903	-0,077	0,027
-257,395	-56,084	-0,118	0,038
-256,380	-24,125	0,132	0,056
-255,365	303,525	0,043	0,057
-254,351	-200,000	0,030	0,095
-253,336	185,830	-0,079	-0,084
-252,322	-24,058	-0,124	-0,053
-251,307	-153,340	-0,034	-0,002
-250,292	9,122	0,147	0,079
-249,278	192,707	0,094	0,101
-248,263	298,553	0,038	0,050
-247,249	-65,662	-0,107	0,030
-246,234	-200,000	-0,002	-0,087
-245,219	-200,000	0,007	-0,081
-244,205	277,980	-0,067	0,085
-243,190	68,012	-0,029	-0,021
-242,176	-200,000	0,012	0,062
-241,161	44,426	0,075	0,049
-240,146	-200,000	0,018	0,102
-239,132	-200,000	0,000	-0,066
-238,117	143,949	0,088	0,084
-237,103	-50,675	-0,193	-0,065
-236,088	-82,943	0,052	0,012
-235,073	-200,000	0,010	0,070
-234,059	295,782	0,075	0,099
-233,044	-53,768	0,081	0,026
-232,030	166,317	0,022	-0,023
-231,015	800,000	-0,044	-0,135
-230,000	211,162	-0,061	-0,068
-228,986	-92,469	-0,048	0,010
-227,971	800,000	0,056	0,113
-226,957	800,000	-0,054	0,127
-225,942	153,289	-0,108	-0,106
-224,927	-200,000	0,021	-0,122
-223,913	-131,354	-0,086	0,008
-222,898	61,364	-0,081	0,057
-221,884	-15,497	0,104	-0,047
-220,869	79,239	-0,014	-0,010
-219,855	-200,000	0,014	-0,106
-218,840	305,580	0,024	0,031
-217,825	79,577	0,054	0,041
-216,811	-7,004	-0,099	-0,048
-215,796	-200,000	-0,019	-0,069
-214,782	-200,000	-0,005	-0,217
-213,767	-34,297	-0,066	-0,026
-212,752	72,835	0,017	0,013
-211,738	-200,000	0,015	0,158
-210,723	800,000	0,030	0,085
-209,709	-8,196	0,093	-0,045
-208,694	558,721	0,042	-0,073
-207,679	100,709	0,092	-0,077
-206,665	-200,000	0,006	-0,112
-205,650	-65,180	0,026	-0,007
-204,636	85,675	0,107	-0,084
-203,621	133,593	0,084	-0,077
-202,606	362,075	-0,067	-0,097
-201,592	43,614	-0,082	0,053
-200,577	180,881	0,027	0,029
-199,563	800,000	-0,034	0,078
-198,548	-43,392	0,129	0,046
-197,533	-200,000	0,002	0,077
-196,519	-200,000	0,003	-0,124
-195,504	97,629	0,126	-0,104
-194,490	49,345	-0,108	-0,072
-193,475	-83,258	0,147	-0,033
-192,460	-172,896	-0,171	0,004
-191,446	-200,000	-0,002	-0,029
-190,431	-59,447	0,099	-0,030
-189,417	110,749	0,057	-0,048
-188,402	-114,858	0,089	0,012
-187,387	3,108	0,060	0,031
-186,373	-41,838	-0,085	-0,031
-185,358	129,160	-0,046	-0,041
-184,344	-200,000	-0,033	0,136
-183,329	254,545	-0,060	0,074
-182,315	208,362	-0,100	0,111
-181,300	4,410	0,093	-0,049
-180,285	-200,000	-0,002	-0,074
-179,271	391,887	-0,044	-0,065
-178,256	147,404	0,061	-0,059
-177,242	-38,461	-0,114	-0,043
-176,227	-200,000	0,012	0,107
-175,212	-200,000	-0,004	0,074
-174,198	-200,000	0,031	-0,128
-173,183	252,961	-0,099	-0,121
-172,169	-80,028	0,078	-0,018
-171,154	349,789	0,032	-0,045
-170,139	270,779	0,058	0,073
-169,125	-5,918	0,105	-0,051
-168,110	281,378	0,072	-0,092
-167,096	-15,417	-0,022	-0,010
-166,081	336,588	-0,047	-0,065
-165,066	800,000	0,017	0,050
-164,052	-200,000	-0,001	-0,004
-163,037	-200,000	0,008	0,041
-162,023	189,518	-0,123	0,132
-161,008	800,000	-0,009	-0,019
-159,993	-200,000	0,012	0,042
-158,979	-23,013	-0,012	0,005
-157,964	219,146	0,108	0,123
-156,950	24,231	-0,073	0,043
-155,935	800,000	0,045	-0,090
-154,920	-32,342	0,213	-0,084
-153,906	16,947	-0,103	0,058
-152,891	256,907	0,052	0,064
-151,877	35,673	-0,091	-0,057
-150,862	171,819	-0,050	-0,052
-149,847	800,000	0,051	0,133
-148,833	761,668	0,048	0,094
-147,818	-189,730	-0,033	0,000
-146,804	742,724	0,084	0,161
-145,789	-63,411	0,109	0,032
-144,775	44,232	-0,014	-0,009
-143,760	73,887	0,076	-0,057
-142,745	-103,043	-0,025	0,004
-141,731	-200,000	-0,010	-0,133
-140,716	-96,821	0,118	-0,022
-139,702	35,619	-0,044	0,027
-138,687	-100,143	0,141	0,025
-137,672	800,000	-0,072	-0,175
-136,658	-200,000	-0,000	-0,165
-135,643	-141,039	-0,046	0,003
-134,629	800,000	0,028	-0,070
-133,614	-200,000	-0,021	0,074
-132,599	138,230	-0,027	0,025
-131,585	20,533	0,062	0,035
-130,570	800,000	0,023	0,048
-129,556	575,931	0,007	-0,013
-128,541	-200,000	-0,017	-0,138
-127,526	-200,000	-0,000	-0,117
-126,512	-200,000	0,013	0,073
-125,497	-92,230	0,040	-0,008
-124,483	-39,321	0,074	0,028
-123,468	613,006	0,090	0,160
-122,453	-200,000	-0,043	0,192
-121,439	-110,744	0,056	0,008
-120,424	-200,000	0,010	0,102
