DTS Sentinel unit serial number:	SN410029Multiplexer serial number:	ORYXHardware model number:	OX2-SRSoftware version number:	ORYX F/W v4,00 Oryx Data Collector v3.7.2.0data status	okinstallation	BH3 CH2differential loss correction	single-endedforward channel	channel 2reverse channel	N/Adate	2023/12/06time	04:37:29forward acquisition time	300,00reverse acquisition time	0,00gamma	499,1914k internal	0,3197k external	0,3197temperature offset calibration	1,0000default loss term (dB/km)	0,3820temperature slope calibration	1,0000multiplexer offset coefficient	1,0000multiplexer slope coefficient	1,0000fibre end	0,00T internal ref (°C)	8,93T ext. ref 1 (°C)	-5,70T ext. ref 2 (°C)	-5,78length (m)	temperature (°C)	Stokes	anti-Stokes-744,400	800,000	-0,036	-0,106
-743,385	14,730	-0,203	0,115
-742,371	800,000	0,024	-0,069
-741,356	359,391	-0,130	0,189
-740,342	686,958	-0,032	-0,061
-739,327	43,321	-0,063	0,042
-738,312	31,003	-0,140	-0,087
-737,298	-93,867	-0,307	0,061
-736,283	358,202	0,009	-0,014
-735,269	-29,142	-0,109	0,045
-734,254	415,429	-0,047	-0,074
-733,239	-55,647	-0,335	0,108
-732,225	-200,000	-0,003	-0,100
-731,210	-200,000	-0,030	0,163
-730,196	-77,583	0,096	0,024
-729,181	511,747	0,010	-0,017
-728,167	800,000	0,080	-0,177
-727,152	800,000	0,067	0,186
-726,137	222,243	-0,015	-0,017
-725,123	284,859	-0,088	-0,116
-724,108	-200,000	-0,026	-0,143
-723,094	800,000	0,050	-0,149
-722,079	-107,633	-0,099	-0,016
-721,064	800,000	-0,052	-0,146
-720,050	-200,000	-0,018	-0,083
-719,035	-200,000	-0,013	-0,112
-718,021	-200,000	0,001	0,012
-717,006	-200,000	0,023	0,077
-715,991	-105,772	-0,052	0,009
-714,977	10,197	0,078	0,043
-713,962	4,912	-0,167	-0,089
-712,948	-110,058	0,146	-0,022
-711,933	-125,793	-0,177	0,019
-710,918	800,000	0,063	-0,164
-709,904	-13,452	-0,150	0,071
-708,889	58,015	0,024	0,017
-707,875	-32,593	-0,088	0,036
-706,860	-161,506	-0,078	0,003
-705,845	232,815	0,023	0,028
-704,831	160,011	0,059	-0,060
-703,816	-171,137	-0,121	-0,003
-702,802	800,000	-0,043	-0,107
-701,787	-200,000	-0,027	-0,132
-700,772	162,902	0,083	0,085
-699,758	100,790	0,070	-0,059
-698,743	800,000	-0,022	0,055
-697,729	800,000	0,018	0,039
-696,714	800,000	-0,022	0,051
-695,699	349,809	-0,047	0,068
-694,685	74,937	-0,081	0,062
-693,670	-200,000	0,038	-0,174
-692,656	6,010	0,046	0,025
-691,641	-200,000	0,003	0,048
-690,627	158,437	-0,086	0,087
-689,612	-200,000	-0,009	-0,106
-688,597	-90,222	-0,131	-0,027
-687,583	413,331	-0,048	-0,074
-686,568	157,778	-0,080	-0,081
-685,554	523,063	0,018	-0,030
-684,539	-200,000	0,009	-0,069
-683,524	20,986	-0,068	0,040
-682,510	-200,000	0,018	0,066
-681,495	461,731	0,033	-0,053
-680,481	152,739	-0,042	-0,042
-679,466	-200,000	-0,006	-0,033
-678,451	-200,000	0,005	-0,104
-677,437	800,000	-0,047	-0,097
-676,422	-171,452	0,098	0,002
-675,408	-200,000	-0,006	0,028
-674,393	125,049	-0,116	-0,106
-673,378	-26,620	-0,023	0,010
-672,364	-83,725	-0,105	0,024
-671,349	360,082	0,024	0,034
-670,335	-137,730	-0,101	0,008
-669,320	2,387	0,087	-0,046
-668,305	-11,142	0,114	-0,054
-667,291	800,000	0,019	0,048
-666,276	-200,000	0,017	0,097
-665,262	567,964	-0,025	-0,044
-664,247	29,586	0,043	-0,026
-663,232	-65,251	0,107	-0,031
-662,218	-40,339	-0,091	0,034
-661,203	430,499	-0,057	-0,090
-660,189	37,747	-0,049	0,032
-659,174	84,245	0,032	0,025
-658,159	-90,292	-0,200	0,042
-657,145	70,239	0,099	-0,074
-656,130	209,201	0,040	-0,046
-655,116	-88,616	0,092	-0,020
-654,101	17,209	-0,044	0,025
-653,086	-24,060	0,082	0,035
-652,072	-115,410	0,008	-0,001
-651,057	-176,893	-0,049	-0,001
-650,043	-200,000	-0,030	-0,125
-649,028	192,469	-0,028	0,030
-648,014	65,250	0,102	-0,075
-646,999	-200,000	-0,023	-0,074
-645,984	-108,360	0,035	-0,005
-644,970	800,000	0,041	0,088
-643,955	177,019	0,026	0,027
-642,941	-200,000	-0,021	-0,125
-641,926	-135,564	0,124	0,011
-640,911	-42,683	-0,102	-0,038
-639,897	280,442	0,060	0,078
-638,882	52,358	-0,057	0,040
-637,868	376,380	-0,107	-0,159
-636,853	800,000	-0,028	-0,076
-635,838	46,003	-0,098	0,066
-634,824	71,151	-0,070	-0,052
-633,809	-136,728	0,124	0,010
-632,795	-200,000	0,025	-0,128
-631,780	-24,820	0,076	-0,032
-630,765	800,000	0,042	0,109
-629,751	-3,725	-0,142	-0,071
-628,736	80,739	-0,062	-0,048
-627,722	108,637	0,029	0,025
-626,707	266,931	-0,052	-0,066
-625,692	-101,001	0,140	-0,025
-624,678	42,301	0,098	0,064
-623,663	-200,000	-0,003	-0,019
-622,649	5,530	-0,074	-0,039
-621,634	67,362	-0,132	-0,097
-620,619	-200,000	-0,032	-0,162
-619,605	-86,828	0,056	0,012
-618,590	-88,292	0,105	0,023
-617,576	669,010	0,068	0,128
-616,561	59,115	-0,053	-0,038
-615,546	800,000	-0,030	0,090
-614,532	-59,833	-0,041	-0,013
-613,517	389,604	-0,014	-0,021
-612,503	800,000	0,019	0,054
-611,488	149,619	-0,064	0,063
-610,474	98,559	-0,081	-0,068
-609,459	-130,308	0,087	-0,008
-608,444	-76,514	-0,070	0,018
-607,430	215,879	-0,150	-0,173
-606,415	577,982	0,055	-0,099
-605,401	490,250	-0,021	-0,035
-604,386	-200,000	-0,008	-0,076
-603,371	71,562	-0,159	0,120
-602,357	-200,000	0,016	0,059
-601,342	361,749	-0,059	0,086
-600,328	433,858	0,001	0,002
-599,313	109,211	-0,067	0,058
-598,298	-200,000	0,008	-0,062
-597,284	800,000	-0,031	-0,087
-596,269	29,126	-0,045	0,028
-595,255	-126,198	0,037	0,004
-594,240	253,712	-0,057	-0,070
-593,225	33,150	-0,146	0,091
-592,211	28,245	0,037	0,023
-591,196	-200,000	-0,037	-0,163
-590,182	-200,000	-0,014	0,058
-589,167	565,100	0,032	0,057
-588,152	-200,000	-0,007	-0,099
-587,138	294,672	-0,059	-0,078
-586,123	476,386	-0,074	-0,122
-585,109	326,575	-0,076	-0,106
-584,094	800,000	-0,041	-0,089
-583,079	-75,459	0,042	0,011
-582,065	-200,000	-0,000	0,160
-581,050	-158,532	0,015	-0,001
-580,036	200,086	-0,087	0,097
-579,021	326,594	-0,058	0,081
-578,006	-200,000	-0,001	-0,103
-576,992	-39,072	0,115	-0,044
-575,977	-131,987	0,087	-0,008
-574,963	-30,263	0,016	0,007
-573,948	800,000	0,036	-0,096
-572,934	85,574	0,045	0,036
-571,919	800,000	0,008	-0,018
-570,904	329,982	-0,114	-0,159
-569,890	-11,228	0,028	0,013
-568,875	2,568	0,126	-0,066
-567,861	-118,111	0,158	-0,020
-566,846	56,905	-0,061	0,043
-565,831	-126,881	-0,113	-0,012
-564,817	800,000	0,065	-0,131
-563,802	137,343	-0,069	0,065
-562,788	125,412	-0,022	-0,020
-561,773	109,360	-0,084	-0,073
-560,758	-96,851	0,136	-0,026
-559,744	143,306	0,092	0,089
-558,729	284,656	0,099	0,129
-557,715	-29,597	-0,117	-0,048
-556,700	-200,000	0,018	-0,115
-555,685	-200,000	-0,006	-0,022
-554,671	-0,563	0,058	0,030
-553,656	-62,419	-0,048	0,014
-552,642	-75,820	0,177	0,045
-551,627	800,000	-0,024	0,061
-550,612	472,801	-0,095	-0,156
-549,598	-200,000	0,015	-0,118
-548,583	72,831	-0,054	-0,041
-547,569	130,716	-0,068	-0,063
-546,554	-58,027	0,087	0,027
-545,539	-200,000	-0,031	0,000
-544,525	324,153	0,055	-0,076
-543,510	73,713	-0,032	-0,025
-542,496	37,659	-0,031	-0,020
-541,481	190,597	-0,068	0,074
-540,466	-70,815	-0,112	-0,030
-539,452	-29,618	-0,128	0,053
-538,437	-117,443	0,108	0,014
-537,423	-185,342	-0,020	-0,000
-536,408	67,896	0,028	0,021
-535,393	800,000	-0,055	-0,158
-534,379	-122,831	-0,089	0,010
-533,364	5,977	-0,117	-0,062
-532,350	14,765	0,063	0,036
-531,335	-200,000	-0,005	0,115
-530,321	163,580	0,004	0,004
-529,306	-1,012	0,048	-0,025
-528,291	-200,000	0,001	-0,043
-527,277	800,000	0,032	0,088
-526,262	131,572	-0,120	-0,112
-525,248	-200,000	-0,030	0,146
-524,233	-53,197	0,078	0,026
-523,218	-54,931	-0,077	-0,025
-522,204	22,460	-0,062	-0,036
-521,189	800,000	-0,033	-0,102
-520,175	-200,000	-0,003	0,038
-519,160	-32,000	0,067	-0,027
-518,145	-9,434	-0,098	0,047
-517,131	177,729	0,073	0,077
-516,116	377,449	-0,035	-0,052
-515,102	101,664	0,077	0,065
-514,087	579,925	-0,044	-0,077
-513,072	-200,000	0,002	-0,067
-512,058	-102,173	-0,096	-0,017
-511,043	72,074	-0,060	-0,045
-510,029	-200,000	0,016	-0,112
-509,014	-200,000	-0,018	-0,086
-507,999	6,878	0,086	0,046
-506,985	174,358	0,025	-0,026
-505,970	-200,000	-0,004	0,017
-504,956	-75,621	-0,049	-0,012
-503,941	-200,000	0,007	0,042
-502,926	-200,000	0,002	0,038
-501,912	800,000	0,021	0,042
-500,897	-127,474	-0,110	-0,011
-499,883	-55,467	0,043	-0,014
-498,868	-200,000	-0,014	-0,062
-497,853	11,913	-0,076	-0,042
-496,839	-40,338	0,064	-0,024
-495,824	54,772	-0,018	-0,013
-494,810	-122,840	0,101	0,012
-493,795	-52,808	-0,168	0,056
-492,781	-200,000	0,014	-0,056
-491,766	47,407	0,076	0,051
-490,751	-47,204	-0,060	-0,021
-489,737	-200,000	-0,014	0,058
-488,722	-77,977	0,102	-0,025
-487,708	-42,745	-0,106	-0,039
-486,693	-200,000	-0,044	0,179
-485,678	576,032	-0,055	0,097
-484,664	394,644	-0,041	0,062
-483,649	-200,000	-0,017	-0,056
-482,635	293,987	0,049	0,065
-481,620	774,306	0,050	0,099
-480,605	-146,516	0,152	0,009
-479,591	-100,138	-0,145	0,026
-478,576	591,964	0,057	0,102
-477,562	209,745	0,074	-0,084
-476,547	-200,000	-0,012	-0,138
-475,532	22,313	0,031	0,018
-474,518	-107,195	-0,144	0,023
-473,503	-200,000	0,014	0,055
-472,489	-161,347	0,130	0,005
-471,474	66,966	-0,075	-0,055
-470,459	800,000	-0,072	-0,157
-469,445	-200,000	-0,081	-0,000
-468,430	40,528	-0,091	-0,059
-467,416	-200,000	0,016	0,075
-466,401	-109,211	0,136	0,021
-465,386	67,405	-0,078	0,057
-464,372	-35,919	-0,156	0,061
-463,357	-200,000	-0,016	-0,052
-462,343	-200,000	0,002	-0,063
-461,328	-102,408	-0,052	-0,009
-460,313	198,281	0,074	-0,081
-459,299	36,675	-0,055	0,035
-458,284	-57,561	0,062	-0,020
-457,270	62,851	-0,056	0,041
-456,255	55,837	0,043	-0,030
-455,241	-72,228	-0,086	0,023
-454,226	-200,000	-0,028	-0,097
-453,211	483,994	0,052	-0,085
-452,197	-200,000	0,017	-0,090
-451,182	-200,000	0,061	0,227
-450,168	-200,000	-0,010	-0,074
-449,153	26,134	-0,081	-0,049
-448,138	10,432	0,064	-0,035
-447,124	88,514	0,114	-0,091
-446,109	-180,357	-0,133	-0,002
-445,095	-32,737	-0,105	-0,042
-444,080	-12,116	0,124	0,058
-443,065	800,000	-0,047	-0,103
-442,051	231,361	0,061	0,073
-441,036	800,000	0,034	-0,107
-440,022	80,130	0,015	-0,011
-439,007	-200,000	-0,011	0,051
-437,992	800,000	-0,086	0,177
-436,978	-200,000	-0,005	0,112
-435,963	800,000	-0,011	0,031
-434,949	800,000	0,029	-0,078
-433,934	-200,000	-0,044	-0,143
-432,919	180,996	-0,062	-0,066
-431,905	61,645	0,063	-0,045
-430,890	213,242	0,081	0,092
-429,876	259,371	0,039	-0,049
-428,861	-57,093	0,153	0,048
-427,846	800,000	-0,022	0,052
-426,832	157,570	-0,052	0,052
-425,817	800,000	-0,061	-0,136
-424,803	-200,000	0,003	-0,036
-423,788	49,788	0,027	-0,018
-422,773	-77,392	-0,042	0,010
-421,759	150,042	0,049	0,048
-420,744	-133,762	-0,056	-0,005
-419,730	-200,000	-0,009	-0,117
-418,715	345,220	-0,033	-0,047
-417,701	-200,000	0,001	-0,122
-416,686	38,848	0,116	0,074
-415,671	52,493	0,027	0,019
-414,657	-200,000	0,001	0,004
-413,642	87,158	0,033	-0,027
-412,628	-200,000	-0,017	-0,055
-411,613	13,042	-0,150	0,083
-410,598	-50,432	-0,118	0,040
-409,584	-200,000	0,003	-0,061
-408,569	150,013	0,076	-0,074
-407,555	800,000	0,024	0,068
-406,540	16,298	-0,040	0,023
-405,525	391,723	0,031	-0,046
-404,511	-200,000	-0,023	-0,099
-403,496	90,781	0,035	-0,028
-402,482	647,508	-0,021	-0,039
-401,467	-110,185	0,242	0,036
-400,452	537,529	-0,143	0,245
-399,438	800,000	-0,057	0,120
-398,423	71,705	-0,154	0,115
-397,409	800,000	0,022	-0,064
-396,394	-200,000	-0,007	0,140
-395,379	-200,000	0,003	0,112
-394,365	-200,000	-0,004	-0,036
-393,350	296,694	0,023	-0,031
-392,336	-98,586	0,168	0,031
-391,321	264,389	-0,077	0,096
-390,306	-176,711	-0,141	0,003
-389,292	-200,000	-0,007	-0,044
-388,277	-96,627	0,113	0,021
-387,263	155,147	0,064	0,064
-386,248	66,504	0,080	0,058
-385,233	800,000	-0,053	0,122
-384,219	441,220	-0,018	0,028
-383,204	414,070	-0,066	0,101
-382,190	-67,937	-0,069	0,019
-381,175	241,753	-0,018	0,021
-380,160	122,036	0,060	0,054
-379,146	-143,458	0,046	0,003
-378,131	800,000	-0,016	0,042
-377,117	-76,327	-0,050	0,013
-376,102	370,717	-0,090	-0,131
-375,088	-184,355	-0,038	-0,000
-374,073	-59,100	-0,210	-0,065
-373,058	-200,000	0,022	0,128
-372,044	61,515	0,116	0,083
-371,029	-200,000	0,016	0,071
-370,015	800,000	-0,046	-0,125
-369,000	-200,000	-0,002	-0,132
-367,985	-200,000	-0,030	-0,114
-366,971	800,000	0,025	-0,056
-365,956	-200,000	0,021	-0,072
-364,942	-156,838	0,129	0,006
-363,927	-200,000	-0,008	0,042
-362,912	-25,530	0,063	-0,026
-361,898	271,967	-0,074	-0,094
-360,883	-40,377	0,157	-0,058
-359,869	800,000	-0,062	0,155
-358,854	193,624	-0,077	-0,084
-357,839	800,000	0,047	-0,099
-356,825	150,149	0,070	0,068
-355,810	35,810	0,118	-0,074
-354,796	-200,000	-0,001	-0,058
-353,781	-200,000	-0,030	-0,129
-352,766	-200,000	0,011	0,135
-351,752	300,930	0,091	0,121
-350,737	-16,935	0,093	0,042
-349,723	33,474	0,046	-0,029
-348,708	50,462	0,023	-0,015
-347,693	-157,242	-0,098	-0,004
-346,679	-200,000	-0,005	-0,035
-345,664	43,789	0,098	-0,064
-344,650	-172,591	0,054	-0,001
-343,635	-200,000	0,132	0,000
-342,620	-200,000	0,017	0,090
-341,606	-158,875	0,058	-0,002
-340,591	-94,368	0,097	0,019
-339,577	242,633	-0,064	-0,077
-338,562	-200,000	-0,010	-0,040
-337,548	-200,000	0,008	-0,031
-336,533	-32,019	-0,015	0,006
-335,518	800,000	0,043	0,117
-334,504	-200,000	-0,005	0,120
-333,489	-69,050	0,011	0,003
-332,475	-200,000	0,010	-0,064
-331,460	152,515	-0,004	0,004
-330,445	-200,000	0,009	-0,083
-329,431	800,000	0,020	-0,052
-328,416	-200,000	0,041	0,147
-327,402	-200,000	-0,026	0,121
-326,387	-200,000	0,062	0,000
-325,372	21,692	-0,092	0,053
-324,358	-54,428	0,043	-0,014
-323,343	-200,000	0,026	0,086
-322,329	508,072	0,037	0,062
-321,314	24,053	-0,044	0,026
-320,299	-173,903	-0,052	0,001
-319,285	9,214	-0,091	0,049
-318,270	-57,664	-0,054	0,017
-317,256	111,904	0,011	-0,010
-316,241	-163,667	0,094	0,003
-315,226	456,908	0,042	0,067
-314,212	-200,000	-0,001	-0,009
-313,197	800,000	0,052	0,104
-312,183	-200,000	0,065	0,284
-311,168	800,000	-0,031	0,067
-310,153	88,552	-0,135	-0,107
-309,139	66,048	-0,097	0,070
-308,124	-89,592	0,073	0,015
-307,110	800,000	-0,030	0,093
-306,095	765,313	-0,031	-0,061
-305,080	-200,000	0,003	-0,075
-304,066	-80,701	-0,119	-0,028
-303,051	264,807	0,015	0,018
-302,037	534,629	-0,042	-0,071
-301,022	129,720	0,012	-0,011
-300,008	715,604	0,057	0,108
-298,993	800,000	-0,040	0,090
-297,978	-200,000	0,015	-0,124
-296,964	-200,000	-0,026	-0,106
-295,949	3,664	-0,121	-0,063
-294,935	416,558	0,097	-0,149
-293,920	-200,000	-0,013	-0,046
-292,905	-63,910	0,028	-0,008
-291,891	-129,803	0,160	0,016
-290,876	-174,552	0,046	-0,001
-289,862	146,281	0,164	-0,158
-288,847	-6,352	0,086	-0,042
-287,832	614,069	-0,061	-0,110
-286,818	77,899	0,154	-0,118
-285,803	23,117	-0,091	-0,053
-284,789	-138,617	0,107	0,008
-283,774	-200,000	-0,026	0,118
-282,759	31,129	-0,044	0,027
-281,745	-200,000	0,036	0,168
-280,730	12,237	-0,033	0,018
-279,716	-200,000	-0,027	-0,100
-278,701	800,000	0,047	0,096
-277,686	192,524	0,036	0,039
-276,672	386,369	0,078	0,116
-275,657	-200,000	-0,004	0,142
-274,643	-200,000	-0,013	-0,057
-273,628	142,213	-0,121	0,115
-272,613	87,866	-0,035	-0,027
-271,599	18,903	0,105	-0,060
-270,584	268,246	-0,059	-0,074
-269,570	-23,380	-0,038	-0,016
-268,555	-200,000	-0,018	0,116
-267,540	800,000	-0,057	0,139
-266,526	147,784	-0,026	-0,025
-265,511	800,000	-0,040	-0,081
-264,497	470,595	0,042	-0,068
-263,482	668,469	-0,046	-0,086
-262,467	-200,000	0,014	0,056
-261,453	-77,217	-0,087	-0,021
-260,438	-132,407	-0,074	0,007
-259,424	135,924	0,055	-0,051
-258,409	4,829	0,076	0,040
-257,395	-200,000	0,012	0,040
-256,380	-123,562	0,150	0,017
-255,365	385,503	0,073	0,109
-254,351	-200,000	0,008	0,055
-253,336	-195,835	0,086	0,000
-252,322	800,000	-0,048	-0,116
-251,307	-79,059	0,097	-0,023
-250,292	-200,000	-0,022	-0,071
-249,278	120,057	0,079	0,070
-248,263	-10,401	0,088	0,041
-247,249	-200,000	0,012	0,078
-246,234	-70,533	0,015	-0,004
-245,219	800,000	-0,049	0,110
-244,205	-200,000	0,010	-0,085
-243,190	98,771	-0,130	-0,107
-242,176	86,774	0,045	0,036
-241,161	800,000	0,068	0,209
-240,146	800,000	-0,059	0,146
-239,132	-168,407	-0,085	-0,002
-238,117	769,537	0,028	-0,054
-237,103	365,503	-0,016	-0,024
-236,088	-46,720	0,012	-0,004
-235,073	42,888	0,071	0,046
-234,059	-91,105	0,081	0,016
-233,044	648,194	0,063	0,115
-232,030	260,512	-0,040	0,050
-231,015	531,025	-0,027	-0,046
-230,000	148,844	-0,068	0,065
-228,986	4,050	0,103	0,054
-227,971	-200,000	0,022	-0,153
-226,957	-200,000	0,018	0,150
-225,942	-200,000	-0,035	0,224
-224,927	800,000	-0,024	0,056
-223,913	800,000	-0,028	0,065
-222,898	-147,559	-0,055	0,003
-221,884	39,069	0,090	0,058
-220,869	-5,215	-0,160	-0,078
-219,855	800,000	-0,042	-0,113
-218,840	165,210	-0,087	-0,088
-217,825	-200,000	0,007	-0,077
-216,811	-200,000	-0,016	-0,076
-215,796	361,408	-0,065	-0,093
-214,782	609,277	-0,009	0,016
-213,767	124,006	0,044	-0,039
-212,752	-73,548	0,134	0,035
-211,738	149,376	0,039	-0,038
-210,723	-200,000	0,008	-0,054
-209,709	514,048	0,015	-0,025
-208,694	-200,000	-0,022	-0,142
-207,679	75,543	-0,118	-0,089
-206,665	800,000	0,056	0,140
-205,650	59,092	0,125	0,087
-204,636	-100,301	-0,045	0,008
-203,621	-3,015	-0,043	0,021
-202,606	-58,171	-0,091	-0,028
-201,592	699,397	-0,041	-0,077
-200,577	-67,968	-0,047	0,013
-199,563	509,653	0,029	-0,048
-198,548	-200,000	0,011	0,181
-197,533	117,740	0,081	-0,071
-196,519	-46,259	-0,016	-0,006
-195,504	489,800	-0,059	0,096
-194,490	-80,874	0,041	-0,010
-193,475	151,917	-0,073	0,071
-192,460	-94,019	-0,016	0,003
-191,446	-138,317	0,148	0,011
-190,431	-12,726	0,101	0,047
-189,417	478,740	0,074	0,120
-188,402	-98,755	-0,055	-0,010
-187,387	800,000	-0,022	0,047
-186,373	503,653	-0,032	0,053
-185,358	-200,000	-0,008	0,034
-184,344	-68,067	0,106	-0,029
-183,329	587,966	0,031	-0,054
-182,315	-200,000	0,038	0,189
-181,300	23,953	0,088	-0,052
-180,285	-13,341	-0,138	-0,064
-179,271	150,588	0,025	0,024
-178,256	-14,001	0,159	0,073
-177,242	688,256	0,048	-0,089
-176,227	-35,124	-0,020	0,008
-175,212	-93,273	0,046	0,009
-174,198	800,000	0,017	-0,042
-173,183	-0,084	-0,120	0,061
-172,169	-200,000	-0,019	0,066
-171,154	122,337	0,082	-0,073
-170,139	-104,250	-0,038	0,006
-169,125	-37,617	0,044	0,016
-168,110	800,000	0,068	0,201
-167,096	-17,791	0,097	0,043
-166,081	-200,000	0,009	-0,037
-165,066	-106,723	-0,045	-0,007
-164,052	101,346	-0,140	-0,116
-163,037	228,219	0,035	-0,041
-162,023	294,576	0,035	-0,046
-161,008	-87,716	0,049	0,011
-159,993	479,934	0,026	-0,042
-158,979	-200,000	-0,030	0,096
-157,964	800,000	0,018	-0,054
-156,950	800,000	0,021	0,053
-155,935	-177,219	0,087	0,002
-154,920	-200,000	0,006	0,045
-153,906	800,000	0,029	0,092
-152,891	800,000	-0,020	-0,062
-151,877	-59,957	-0,105	0,032
-150,862	-187,613	-0,147	0,001
-149,847	-200,000	0,009	0,046
-148,833	148,471	0,018	0,017
-147,818	55,910	-0,096	0,066
-146,804	800,000	-0,011	-0,029
-145,789	98,740	-0,095	-0,078
-144,775	-12,106	-0,065	0,030
-143,760	-200,000	0,013	0,053
-142,745	670,479	0,012	-0,022
-141,731	-66,340	-0,098	-0,027
-140,716	-200,000	0,009	0,075
-139,702	-200,000	0,015	0,057
-138,687	-200,000	0,000	-0,019
-137,672	-200,000	-0,009	-0,125
-136,658	-5,574	-0,194	0,094
-135,643	-200,000	0,000	-0,059
-134,629	800,000	0,044	-0,105
-133,614	45,459	0,203	-0,133
-132,599	238,073	0,086	0,102
-131,585	69,203	-0,122	0,089
-130,570	53,591	0,131	0,089
-129,556	800,000	0,013	-0,028
-128,541	118,253	0,076	-0,066
-127,526	512,052	-0,045	0,075
-126,512	70,377	0,079	-0,058
-125,497	-11,533	0,091	0,042
-124,483	67,911	0,033	-0,024
-123,468	163,220	-0,057	0,057
-122,453	-135,091	-0,138	-0,012
-121,439	800,000	-0,070	-0,144
-120,424	-145,035	0,014	-0,001
-119,410	286,912	0,032	0,041
