DTS Sentinel unit serial number:	SN410029Multiplexer serial number:	ORYXHardware model number:	OX2-SRSoftware version number:	ORYX F/W v4,00 Oryx Data Collector v3.7.2.0data status	okinstallation	BH3 CH2differential loss correction	single-endedforward channel	channel 2reverse channel	N/Adate	2023/12/05time	19:32:28forward acquisition time	300,00reverse acquisition time	0,00gamma	499,1914k internal	0,3194k external	0,3194temperature offset calibration	1,0000default loss term (dB/km)	0,3820temperature slope calibration	1,0000multiplexer offset coefficient	1,0000multiplexer slope coefficient	1,0000fibre end	0,00T internal ref (°C)	10,62T ext. ref 1 (°C)	-3,84T ext. ref 2 (°C)	-4,00length (m)	temperature (°C)	Stokes	anti-Stokes-744,400	12,072	-0,043	0,024
-743,385	-50,658	-0,142	0,049
-742,371	-200,000	0,018	-0,122
-741,356	569,943	-0,072	0,129
-740,342	126,730	-0,047	-0,043
-739,327	26,330	-0,237	0,144
-738,312	800,000	0,009	-0,021
-737,298	116,901	-0,136	0,121
-736,283	-200,000	0,011	0,088
-735,269	39,919	-0,159	0,104
-734,254	193,778	-0,141	-0,156
-733,239	-41,419	-0,325	-0,121
-732,225	431,552	-0,066	-0,104
-731,210	270,614	-0,014	-0,017
-730,196	-118,391	-0,171	0,022
-729,181	800,000	-0,044	-0,139
-728,167	141,217	-0,119	-0,115
-727,152	-72,154	-0,087	0,023
-726,137	274,627	0,015	-0,019
-725,123	-29,271	-0,100	0,041
-724,108	-200,000	-0,003	-0,176
-723,094	800,000	-0,045	-0,101
-722,079	-200,000	-0,060	-0,302
-721,064	229,469	0,119	0,142
-720,050	11,803	-0,028	-0,016
-719,035	-40,995	-0,084	0,031
-718,021	800,000	-0,033	-0,081
-717,006	-200,000	-0,007	-0,162
-715,991	-20,183	-0,113	0,051
-714,977	-28,284	-0,078	-0,033
-713,962	110,161	0,049	0,043
-712,948	-200,000	0,013	-0,077
-711,933	-46,900	-0,136	-0,048
-710,918	-121,636	0,105	-0,013
-709,904	149,148	-0,062	0,061
-708,889	616,143	-0,043	-0,079
-707,875	83,990	-0,107	-0,085
-706,860	0,683	-0,232	-0,121
-705,845	-134,327	0,151	0,013
-704,831	217,838	0,087	-0,101
-703,816	-170,082	0,058	0,001
-702,802	-27,082	0,074	-0,031
-701,787	-5,140	-0,146	-0,073
-700,772	383,401	-0,098	-0,147
-699,758	100,341	0,101	0,085
-698,743	515,815	-0,046	0,078
-697,729	-200,000	-0,025	0,088
-696,714	-200,000	0,034	0,119
-695,699	-193,558	-0,061	-0,000
-694,685	-20,266	-0,138	-0,062
-693,670	-27,228	-0,149	-0,063
-692,656	-56,346	-0,060	0,019
-691,641	-93,395	0,152	-0,030
-690,627	44,435	-0,067	0,044
-689,612	-97,466	0,151	-0,028
-688,597	800,000	0,016	0,053
-687,583	-200,000	-0,055	-0,236
-686,568	353,186	-0,066	0,096
-685,554	-200,000	-0,016	-0,162
-684,539	265,983	0,081	-0,103
-683,524	482,771	0,049	0,082
-682,510	-200,000	0,001	-0,047
-681,495	-200,000	0,013	-0,184
-680,481	96,478	-0,147	-0,123
-679,466	50,909	-0,107	0,073
-678,451	38,089	-0,060	-0,038
-677,437	-200,000	0,027	-0,105
-676,422	78,939	-0,049	-0,038
-675,408	608,112	0,047	0,086
-674,393	21,371	0,066	-0,039
-673,378	491,380	-0,102	-0,171
-672,364	135,477	-0,091	-0,086
-671,349	487,082	-0,072	-0,120
-670,335	361,758	0,037	0,054
-669,320	127,075	-0,045	0,041
-668,305	-200,000	-0,003	0,045
-667,291	-54,350	0,094	0,031
-666,276	220,318	-0,152	-0,177
-665,262	-200,000	0,029	-0,182
-664,247	-52,204	-0,117	-0,039
-663,232	-200,000	0,009	0,064
-662,218	-56,556	-0,094	-0,030
-661,203	91,435	0,119	0,097
-660,189	747,037	-0,025	-0,049
-659,174	263,078	0,061	0,078
-658,159	-40,183	-0,046	-0,017
-657,145	331,634	-0,075	-0,105
-656,130	203,389	0,125	-0,141
-655,116	67,214	0,075	-0,056
-654,101	-24,727	0,059	-0,025
-653,086	286,662	-0,027	-0,035
-652,072	-67,976	0,106	0,030
-651,057	-81,618	0,039	0,009
-650,043	-200,000	0,010	-0,089
-649,028	190,631	-0,066	-0,072
-648,014	164,446	0,071	0,073
-646,999	-200,000	0,028	0,188
-645,984	-107,482	0,085	-0,013
-644,970	687,477	-0,065	-0,124
-643,955	-106,156	-0,101	0,016
-642,941	-83,147	0,018	-0,004
-641,926	-200,000	-0,009	0,054
-640,911	-17,052	-0,043	0,020
-639,897	52,953	0,097	-0,067
-638,882	-0,532	-0,076	-0,039
-637,868	-119,812	-0,094	-0,012
-636,853	-24,950	0,106	-0,045
-635,838	343,224	-0,055	-0,078
-634,824	-157,995	-0,068	-0,003
-633,809	-200,000	-0,007	0,068
-632,795	-44,732	-0,044	0,016
-631,780	53,994	-0,065	-0,045
-630,765	342,915	-0,021	0,030
-629,751	-48,314	-0,060	-0,021
-628,736	359,338	-0,077	-0,111
-627,722	-37,198	-0,148	0,057
-626,707	29,733	-0,163	0,101
-625,692	-123,351	0,036	0,004
-624,678	800,000	0,014	-0,038
-623,663	-200,000	-0,038	0,133
-622,649	-200,000	-0,024	-0,110
-621,634	172,317	-0,096	0,101
-620,619	19,303	-0,133	0,077
-619,605	48,547	0,037	-0,025
-618,590	762,815	-0,035	0,068
-617,576	198,492	0,110	0,122
-616,561	198,824	0,030	0,034
-615,546	800,000	0,031	0,090
-614,532	-21,076	-0,079	0,035
-613,517	-7,363	-0,090	-0,044
-612,503	50,019	-0,057	0,039
-611,488	-19,769	0,128	0,057
-610,474	800,000	-0,039	0,116
-609,459	358,154	-0,042	0,062
-608,444	-100,726	0,124	0,022
-607,430	281,378	0,027	0,035
-606,415	612,568	-0,070	-0,127
-605,401	276,790	-0,040	0,051
-604,386	-4,470	0,112	-0,056
-603,371	25,111	-0,050	-0,030
-602,357	-43,028	-0,154	0,056
-601,342	-177,739	0,108	0,002
-600,328	-8,955	-0,056	-0,027
-599,313	293,717	0,098	-0,129
-598,298	-200,000	-0,029	-0,203
-597,284	565,993	0,037	0,066
-596,269	-200,000	-0,006	0,053
-595,255	23,833	-0,113	0,067
-594,240	-200,000	-0,006	-0,124
-593,225	-57,307	-0,079	-0,025
-592,211	800,000	-0,015	-0,042
-591,196	800,000	-0,034	-0,071
-590,182	-27,452	0,091	-0,038
-589,167	-200,000	0,001	0,031
-588,152	-133,131	-0,095	-0,009
-587,138	269,693	0,068	-0,087
-586,123	-200,000	-0,025	0,081
-585,109	38,425	0,033	-0,021
-584,094	485,131	0,026	-0,044
-583,079	-63,867	0,152	-0,045
-582,065	21,631	0,171	0,100
-581,050	138,360	-0,038	-0,036
-580,036	544,329	-0,087	-0,152
-579,021	81,821	0,044	-0,034
-578,006	404,625	-0,065	-0,100
-576,992	-38,976	-0,058	0,022
-575,977	-98,824	0,115	0,021
-574,963	800,000	-0,019	-0,049
-573,948	44,593	-0,063	0,042
-572,934	489,710	-0,068	0,113
-571,919	32,023	-0,142	-0,088
-570,904	64,819	-0,157	-0,115
-569,890	-95,960	0,049	0,009
-568,875	163,395	-0,108	0,110
-567,861	-168,958	-0,165	-0,004
-566,846	800,000	0,030	0,086
-565,831	-165,386	-0,238	0,007
-564,817	-79,142	-0,135	-0,033
-563,802	800,000	-0,039	-0,119
-562,788	800,000	-0,041	-0,113
-561,773	800,000	-0,031	0,068
-560,758	800,000	-0,048	0,102
-559,744	138,224	0,057	0,054
-558,729	278,690	-0,111	-0,144
-557,715	338,484	-0,014	0,020
-556,700	120,761	-0,092	-0,083
-555,685	556,808	-0,027	0,047
-554,671	-200,000	0,012	-0,075
-553,656	-175,780	0,174	0,003
-552,642	95,041	-0,047	-0,038
-551,627	142,451	-0,031	-0,030
-550,612	-50,262	-0,083	0,028
-549,598	-106,009	-0,030	-0,005
-548,583	800,000	-0,031	-0,080
-547,569	159,551	0,060	-0,060
-546,554	-200,000	0,010	-0,097
-545,539	-116,295	0,069	0,009
-544,525	-99,194	-0,061	-0,011
-543,510	-200,000	-0,054	-0,273
-542,496	-141,526	0,120	-0,009
-541,481	214,076	-0,014	-0,016
-540,466	-200,000	0,016	0,121
-539,452	143,106	0,016	0,016
-538,437	118,958	-0,157	0,140
-537,423	24,201	0,101	0,060
-536,408	76,228	-0,063	-0,048
-535,393	18,849	0,062	-0,036
-534,379	405,480	-0,067	-0,102
-533,364	-80,404	-0,144	-0,034
-532,350	-200,000	0,018	-0,107
-531,335	30,832	0,020	-0,012
-530,321	-200,000	-0,001	-0,051
-529,306	-0,832	-0,089	-0,045
-528,291	800,000	0,037	-0,095
-527,277	-162,282	-0,102	-0,004
-526,262	38,892	0,218	-0,141
-525,248	21,596	-0,112	-0,066
-524,233	800,000	0,053	-0,156
-523,218	800,000	-0,022	0,060
-522,204	800,000	0,049	-0,104
-521,189	-200,000	0,004	-0,042
-520,175	386,778	0,064	0,096
-519,160	-200,000	-0,003	-0,158
-518,145	-182,212	-0,147	-0,002
-517,131	-33,228	-0,118	-0,047
-516,116	-137,873	0,271	0,022
-515,102	82,925	-0,021	0,016
-514,087	231,458	-0,066	0,078
-513,072	-200,000	-0,009	-0,079
-512,058	10,841	-0,062	-0,034
-511,043	800,000	-0,036	-0,076
-510,029	-200,000	0,001	0,011
-509,014	238,769	0,073	0,088
-507,999	-24,876	0,007	0,003
-506,985	-200,000	-0,046	0,000
-505,970	39,449	-0,051	-0,033
-504,956	436,388	-0,033	-0,052
-503,941	7,296	-0,075	-0,040
-502,926	-47,874	0,148	-0,051
-501,912	-137,689	0,031	-0,002
-500,897	-125,634	0,209	0,023
-499,883	611,876	-0,090	0,162
-498,868	91,451	0,032	0,026
-497,853	-200,000	-0,003	-0,025
-496,839	284,568	-0,038	-0,050
-495,824	-178,526	0,159	0,003
-494,810	-200,000	-0,030	0,099
-493,795	800,000	-0,055	0,136
-492,781	800,000	-0,035	-0,090
-491,766	76,304	-0,056	-0,043
-490,751	14,832	-0,147	-0,083
-489,737	23,711	0,061	0,036
-488,722	-138,015	0,224	0,018
-487,708	-16,760	0,063	0,029
-486,693	-200,000	0,008	0,094
-485,678	800,000	-0,008	0,019
-484,664	-200,000	0,024	-0,165
-483,649	-34,297	0,106	0,042
-482,635	-53,045	0,081	-0,027
-481,620	-200,000	-0,013	-0,065
-480,605	-95,477	0,091	0,018
-479,591	800,000	0,013	0,035
-478,576	352,989	-0,099	-0,142
-477,562	-200,000	-0,007	-0,060
-476,547	-128,189	-0,060	0,006
-475,532	34,800	0,023	-0,014
-474,518	58,074	0,100	0,071
-473,503	111,763	-0,073	0,063
-472,489	-98,352	0,018	-0,003
-471,474	-200,000	-0,001	0,103
-470,459	-200,000	-0,023	-0,077
-469,445	-200,000	0,013	0,041
-468,430	800,000	0,087	-0,182
-467,416	-7,007	0,071	-0,035
-466,401	-52,365	-0,087	-0,029
-465,386	-64,824	0,107	-0,031
-464,372	592,068	0,024	0,043
-463,357	-61,746	-0,087	-0,026
-462,343	-200,000	-0,042	-0,177
-461,328	263,389	-0,071	-0,089
-460,313	114,794	-0,114	0,100
-459,299	311,399	0,150	0,203
-458,284	340,664	-0,051	-0,073
-457,270	236,195	-0,085	-0,102
-456,255	-200,000	-0,000	0,080
-455,241	348,088	0,036	-0,051
-454,226	-200,000	0,008	-0,030
-453,211	-123,934	0,113	0,013
-452,197	387,262	0,100	0,150
-451,182	-200,000	0,001	-0,040
-450,168	159,059	0,101	0,101
-449,153	-43,067	0,099	0,036
-448,138	408,413	-0,034	0,053
-447,124	-43,265	0,112	-0,040
-446,109	-200,000	0,004	-0,075
-445,095	-55,690	0,175	-0,056
-444,080	-200,000	0,010	0,099
-443,065	-15,584	0,042	-0,019
-442,051	-24,750	-0,092	-0,039
-441,036	-27,394	0,044	-0,018
-440,022	-200,000	0,025	-0,124
-439,007	-46,345	0,132	0,046
-437,992	99,482	-0,073	-0,061
-436,978	44,392	-0,070	0,046
-435,963	-106,793	-0,075	-0,012
-434,949	-200,000	-0,001	-0,037
-433,934	-78,544	-0,057	0,014
-432,919	-32,588	0,083	0,033
-431,905	614,726	-0,038	-0,069
-430,890	449,138	0,035	0,056
-429,876	-109,505	0,112	0,017
-428,861	432,106	-0,036	-0,056
-427,846	-200,000	-0,013	-0,044
-426,832	800,000	0,018	-0,047
-425,817	-95,646	-0,117	0,022
-424,803	-93,714	-0,155	0,031
-423,788	-30,220	-0,046	0,019
-422,773	158,780	0,057	0,057
-421,759	-49,288	-0,045	-0,015
-420,744	-200,000	0,011	-0,116
-419,730	-95,143	-0,023	0,004
-418,715	470,062	-0,054	0,088
-417,701	130,743	0,012	0,011
-416,686	24,547	0,137	-0,082
-415,671	283,046	0,142	0,184
-414,657	8,169	-0,092	0,049
-413,642	433,027	-0,022	0,035
-412,628	300,155	0,041	0,055
-411,613	-36,617	0,120	-0,046
-410,598	498,241	-0,049	-0,081
-409,584	-200,000	-0,029	-0,111
-408,569	-87,710	-0,099	0,021
-407,555	34,870	-0,074	0,046
-406,540	-200,000	-0,006	-0,105
-405,525	-72,618	-0,043	0,011
-404,511	76,561	0,096	-0,073
-403,496	40,883	-0,112	-0,072
-402,482	40,553	-0,134	-0,086
-401,467	800,000	0,059	0,154
-400,452	800,000	0,050	-0,105
-399,438	18,753	-0,075	0,043
-398,423	-32,302	0,125	0,050
-397,409	145,244	-0,045	-0,043
-396,394	-97,006	-0,084	0,016
-395,379	188,661	0,056	0,061
-394,365	-200,000	-0,001	0,077
-393,350	-94,264	0,070	0,014
-392,336	800,000	0,060	-0,133
-391,321	-200,000	-0,016	0,093
-390,306	-82,102	-0,050	0,012
-389,292	358,267	0,082	-0,118
-388,277	-200,000	0,005	0,106
-387,263	800,000	0,010	0,020
-386,248	-200,000	0,005	0,094
-385,233	-200,000	-0,015	0,182
-384,219	235,002	0,047	-0,056
-383,204	-200,000	0,082	-0,268
-382,190	800,000	-0,047	-0,108
-381,175	-100,411	0,082	-0,015
-380,160	800,000	0,017	0,037
-379,146	-200,000	-0,002	0,052
-378,131	610,210	0,075	0,135
-377,117	-19,296	0,086	0,038
-376,102	28,647	-0,014	0,009
-375,088	-200,000	-0,018	-0,094
-374,073	-200,000	-0,014	-0,088
-373,058	149,051	0,069	0,067
-372,044	-200,000	0,009	0,047
-371,029	-1,983	-0,051	-0,026
-370,015	-89,453	0,130	-0,027
-369,000	-123,813	-0,064	0,007
-367,985	88,096	-0,047	0,038
-366,971	-200,000	-0,002	-0,097
-365,956	46,057	0,059	-0,039
-364,942	772,902	0,077	0,151
-363,927	-200,000	-0,038	0,127
-362,912	491,059	0,018	0,031
-361,898	-2,338	0,033	-0,016
-360,883	-200,000	-0,016	-0,143
-359,869	-46,948	0,029	0,010
-358,854	264,086	0,098	0,123
-357,839	-112,340	-0,069	0,010
-356,825	698,123	0,020	0,037
-355,810	-154,882	0,053	-0,002
-354,796	-169,883	-0,118	0,003
-353,781	40,531	-0,062	0,040
-352,766	-200,000	-0,006	-0,127
-351,752	-200,000	0,000	-0,084
-350,737	98,332	-0,053	-0,043
-349,723	800,000	-0,017	0,039
-348,708	-116,834	-0,133	0,017
-347,693	266,298	0,077	0,097
-346,679	-200,000	0,017	-0,093
-345,664	439,037	0,037	-0,059
-344,650	800,000	0,030	0,075
-343,635	93,159	0,078	-0,063
-342,620	-144,356	0,101	-0,007
-341,606	127,448	0,145	-0,132
-340,591	529,696	-0,063	0,108
-339,577	-90,822	-0,101	-0,021
-338,562	800,000	-0,028	-0,070
-337,548	143,124	0,018	0,017
-336,533	42,309	-0,086	0,056
-335,518	-200,000	0,015	0,152
-334,504	-51,870	0,088	0,029
-333,489	-200,000	0,013	-0,056
-332,475	118,535	-0,095	0,084
-331,460	183,382	0,147	-0,156
-330,445	639,555	0,063	-0,115
-329,431	-200,000	-0,003	0,078
-328,416	189,508	0,063	0,067
-327,402	155,632	0,101	-0,100
-326,387	800,000	-0,042	-0,124
-325,372	193,018	-0,054	0,059
-324,358	-161,256	-0,099	0,004
-323,343	-200,000	-0,002	-0,020
-322,329	253,995	-0,097	0,119
-321,314	199,318	-0,063	0,069
-320,299	800,000	-0,017	0,050
-319,285	187,754	0,031	0,033
-318,270	-200,000	-0,026	0,100
-317,256	-119,814	0,074	0,009
-316,241	-117,866	-0,055	0,007
-315,226	-200,000	0,136	0,000
-314,212	800,000	-0,030	0,070
-313,197	673,494	-0,018	0,034
-312,183	87,060	0,132	-0,104
-311,168	-122,395	-0,087	-0,010
-310,153	-200,000	-0,002	-0,047
-309,139	63,883	-0,083	0,060
-308,124	-128,226	0,057	0,006
-307,110	-200,000	0,032	0,114
-306,095	88,278	0,036	0,028
-305,080	-200,000	-0,006	-0,030
-304,066	45,668	0,094	0,062
-303,051	-32,799	-0,084	-0,033
-302,037	4,480	0,155	-0,081
-301,022	128,364	-0,050	0,045
-300,008	800,000	0,057	0,128
-298,993	795,553	0,083	0,165
-297,978	44,568	0,080	0,052
-296,964	-200,000	-0,011	-0,039
-295,949	-90,908	-0,096	-0,020
-294,935	-57,054	-0,075	-0,024
-293,920	800,000	0,046	0,129
-292,905	54,283	-0,102	0,070
-291,891	-22,436	0,173	0,075
-290,876	-200,000	0,001	0,111
-289,862	310,349	-0,055	-0,074
-288,847	-165,477	0,078	0,002
-287,832	257,967	-0,083	0,103
-286,818	-200,000	0,025	-0,086
-285,803	442,522	0,073	0,114
-284,789	-200,000	-0,047	0,165
-283,774	-200,000	0,014	0,199
-282,759	404,684	-0,029	0,044
-281,745	649,923	0,102	-0,188
-280,730	518,792	-0,037	0,063
-279,716	-200,000	-0,004	0,026
-278,701	800,000	-0,035	-0,077
-277,686	-21,709	0,083	-0,036
-276,672	-174,503	-0,130	0,003
-275,657	-200,000	0,027	-0,086
-274,643	92,067	-0,068	-0,055
-273,628	34,695	0,098	-0,061
-272,613	-52,375	0,023	0,008
-271,599	-124,880	0,218	0,024
-270,584	-155,172	-0,056	-0,003
-269,570	104,344	-0,076	0,064
-268,555	-200,000	0,033	0,153
-267,540	-200,000	-0,007	-0,098
-266,526	800,000	-0,075	-0,156
-265,511	-200,000	-0,011	-0,061
-264,497	-200,000	-0,009	0,066
-263,482	-55,725	0,154	0,049
-262,467	-88,444	-0,048	0,010
-261,453	-87,786	0,121	-0,026
-260,438	24,473	-0,146	-0,086
-259,424	800,000	-0,019	0,045
-258,409	800,000	0,068	-0,179
-257,395	800,000	0,044	0,102
-256,380	-200,000	-0,029	0,109
-255,365	800,000	-0,032	-0,093
-254,351	54,692	0,071	-0,049
-253,336	79,473	-0,076	-0,058
-252,322	800,000	-0,040	-0,098
-251,307	2,469	-0,146	0,075
-250,292	131,488	-0,071	0,066
-249,278	-200,000	0,009	0,064
-248,263	800,000	-0,061	0,122
-247,249	517,994	0,079	-0,132
-246,234	800,000	0,035	-0,079
-245,219	252,635	-0,051	0,062
-244,205	800,000	0,025	-0,060
-243,190	-200,000	-0,012	-0,040
-242,176	46,547	-0,030	-0,020
-241,161	-200,000	0,004	0,059
-240,146	-125,506	0,023	-0,002
-239,132	518,594	0,029	0,048
-238,117	247,425	-0,050	-0,060
-237,103	79,768	-0,135	0,104
-236,088	-66,359	0,075	-0,021
-235,073	-167,333	0,055	-0,002
-234,059	208,875	-0,038	0,043
-233,044	-77,957	0,113	0,028
-232,030	-109,645	-0,186	-0,028
-231,015	-200,000	0,033	-0,201
-230,000	800,000	-0,062	-0,159
-228,986	463,777	0,018	0,029
-227,971	-59,770	-0,034	-0,010
-226,957	-106,805	0,035	0,005
-225,942	761,422	0,049	0,096
-224,927	-200,000	-0,010	0,080
-223,913	353,486	-0,084	-0,119
-222,898	222,724	-0,103	-0,119
-221,884	-200,000	-0,015	0,081
-220,869	85,715	-0,026	0,020
-219,855	-200,000	-0,022	0,084
-218,840	368,160	0,014	-0,021
-217,825	65,101	-0,053	-0,038
-216,811	-200,000	-0,001	-0,007
-215,796	114,854	0,067	-0,058
-214,782	8,869	0,025	0,013
-213,767	800,000	-0,023	0,049
-212,752	-200,000	-0,006	-0,047
-211,738	800,000	-0,019	-0,046
-210,723	-92,571	-0,142	0,028
-209,709	5,718	-0,065	-0,034
-208,694	334,258	-0,041	-0,057
-207,679	-200,000	0,031	-0,191
-206,665	800,000	0,031	0,066
-205,650	-200,000	0,017	0,078
-204,636	-193,508	0,098	-0,001
-203,621	-200,000	-0,007	-0,038
-202,606	-173,516	0,100	-0,002
-201,592	800,000	0,016	0,041
-200,577	-60,920	-0,133	0,040
-199,563	-72,620	0,108	0,028
-198,548	-59,815	-0,059	0,018
-197,533	468,457	0,078	0,125
-196,519	163,601	-0,066	0,066
-195,504	-54,044	0,070	0,023
-194,490	179,799	-0,162	-0,170
-193,475	-200,000	0,027	-0,090
-192,460	64,776	0,143	-0,103
-191,446	-43,304	0,180	-0,065
-190,431	800,000	0,036	0,110
-189,417	64,622	0,121	0,087
-188,402	157,239	0,152	0,150
-187,387	-7,649	-0,095	-0,046
-186,373	133,677	-0,041	-0,038
-185,358	-200,000	-0,025	0,145
-184,344	414,438	-0,116	0,177
-183,329	-54,406	0,154	-0,049
-182,315	-200,000	0,011	0,085
-181,300	183,693	0,080	-0,084
-180,285	-99,012	0,096	0,017
-179,271	238,659	-0,105	-0,125
-178,256	-163,409	-0,015	0,000
-177,242	174,964	-0,048	0,049
-176,227	-200,000	-0,007	0,168
-175,212	-200,000	-0,012	0,120
-174,198	-200,000	0,087	0,000
-173,183	-200,000	-0,003	-0,025
-172,169	282,147	-0,129	-0,165
-171,154	-78,284	0,038	-0,009
-170,139	-200,000	0,022	0,095
-169,125	800,000	0,063	0,156
-168,110	-200,000	0,025	0,101
-167,096	-63,776	0,118	0,034
-166,081	-6,970	0,108	-0,052
-165,066	-54,784	0,056	-0,018
-164,052	137,561	0,125	0,117
-163,037	800,000	-0,013	0,032
-162,023	800,000	0,043	0,091
-161,008	481,919	-0,054	0,088
-159,993	800,000	0,064	0,177
-158,979	-200,000	0,011	0,069
-157,964	-112,053	-0,062	0,009
-156,950	-200,000	-0,055	-0,177
-155,935	-45,609	0,109	0,038
-154,920	-200,000	-0,026	0,090
-153,906	-114,590	0,176	0,024
-152,891	-18,652	-0,175	0,078
-151,877	-111,345	-0,018	0,003
-150,862	55,512	0,082	0,056
-149,847	63,651	-0,095	0,068
-148,833	391,807	-0,030	0,045
-147,818	-200,000	0,030	0,111
-146,804	800,000	0,042	0,108
-145,789	-200,000	0,001	0,018
-144,775	15,543	-0,068	-0,038
-143,760	163,107	-0,061	-0,061
-142,745	-200,000	0,003	-0,035
-141,731	-44,527	-0,107	-0,038
-140,716	-200,000	-0,000	-0,100
-139,702	-200,000	-0,030	0,102
-138,687	-200,000	-0,027	0,146
-137,672	800,000	0,045	0,102
-136,658	314,488	-0,094	0,126
-135,643	295,566	-0,027	0,036
-134,629	307,859	-0,051	-0,068
-133,614	65,988	0,029	-0,021
-132,599	201,583	-0,074	0,081
-131,585	-128,099	0,110	-0,011
-130,570	-38,166	-0,119	-0,045
-129,556	-28,025	-0,141	0,058
-128,541	241,908	-0,020	0,024
-127,526	-93,061	0,040	0,008
-126,512	92,379	-0,038	0,030
-125,497	7,668	0,075	0,040
-124,483	630,252	-0,057	0,103
-123,468	-200,000	0,004	0,014
-122,453	-178,825	-0,035	0,001
-121,439	50,813	-0,059	0,040
-120,424	233,089	-0,058	0,068
-119,410	800,000	0,037	-0,078
