DTS Sentinel unit serial number:	SN410029Multiplexer serial number:	ORYXHardware model number:	OX2-SRSoftware version number:	ORYX F/W v4,00 Oryx Data Collector v3.7.2.0data status	okinstallation	BH3 CH2differential loss correction	single-endedforward channel	channel 2reverse channel	N/Adate	2023/12/06time	07:07:28forward acquisition time	300,00reverse acquisition time	0,00gamma	499,1914k internal	0,3197k external	0,3197temperature offset calibration	1,0000default loss term (dB/km)	0,3820temperature slope calibration	1,0000multiplexer offset coefficient	1,0000multiplexer slope coefficient	1,0000fibre end	0,00T internal ref (°C)	8,85T ext. ref 1 (°C)	-5,86T ext. ref 2 (°C)	-5,96length (m)	temperature (°C)	Stokes	anti-Stokes-744,400	-51,668	0,036	-0,012
-743,385	10,888	-0,163	0,090
-742,371	-200,000	0,001	0,093
-741,356	120,128	-0,200	0,181
-740,342	207,128	0,007	0,008
-739,327	57,278	-0,274	0,194
-738,312	800,000	-0,052	-0,155
-737,298	-84,097	-0,178	0,041
-736,283	67,348	0,062	-0,046
-735,269	-149,350	-0,197	0,011
-734,254	800,000	0,014	-0,043
-733,239	-44,352	-0,387	-0,140
-732,225	-200,000	0,030	0,110
-731,210	-144,504	0,073	0,005
-730,196	340,236	-0,050	0,072
-729,181	403,836	-0,038	0,058
-728,167	800,000	0,015	0,036
-727,152	-200,000	-0,009	-0,054
-726,137	-12,089	-0,026	-0,012
-725,123	170,008	-0,052	0,054
-724,108	46,018	-0,105	-0,070
-723,094	123,729	-0,102	-0,093
-722,079	-200,000	-0,024	0,086
-721,064	149,791	0,040	-0,039
-720,050	734,105	-0,018	0,036
-719,035	588,284	-0,023	-0,042
-718,021	-134,761	-0,007	0,001
-717,006	-124,075	-0,070	-0,008
-715,991	-200,000	0,007	-0,033
-714,977	-200,000	0,008	-0,124
-713,962	800,000	-0,053	0,111
-712,948	136,587	0,025	-0,024
-711,933	189,935	0,083	0,091
-710,918	800,000	-0,047	0,148
-709,904	-200,000	-0,028	-0,111
-708,889	-156,163	0,067	0,003
-707,875	-60,775	0,026	0,008
-706,860	-200,000	0,004	-0,058
-705,845	-183,903	0,080	0,001
-704,831	800,000	-0,044	0,126
-703,816	193,167	0,096	0,106
-702,802	-200,000	0,020	0,084
-701,787	-200,000	0,026	-0,090
-700,772	140,724	-0,024	-0,023
-699,758	532,368	0,033	-0,057
-698,743	800,000	-0,022	-0,054
-697,729	-200,000	-0,005	-0,019
-696,714	-172,286	-0,065	0,001
-695,699	-200,000	0,001	-0,070
-694,685	391,232	-0,078	-0,118
-693,670	-10,791	-0,190	-0,091
-692,656	372,179	0,027	-0,040
-691,641	-32,302	-0,119	-0,048
-690,627	222,244	0,039	0,046
-689,612	-28,397	0,112	-0,047
-688,597	64,700	-0,042	-0,031
-687,583	-27,272	-0,084	-0,036
-686,568	-200,000	-0,009	0,046
-685,554	359,855	-0,034	-0,049
-684,539	149,226	-0,157	-0,155
-683,524	-200,000	-0,005	-0,105
-682,510	154,557	-0,069	0,069
-681,495	-87,574	-0,070	-0,015
-680,481	69,909	-0,047	-0,036
-679,466	-77,635	-0,091	0,023
-678,451	14,455	-0,043	0,024
-677,437	-14,357	-0,059	0,027
-676,422	225,836	0,058	0,068
-675,408	64,259	-0,122	0,089
-674,393	398,418	0,059	-0,090
-673,378	148,424	-0,016	0,016
-672,364	-187,440	-0,128	-0,001
-671,349	-102,999	-0,050	-0,008
-670,335	800,000	0,059	0,131
-669,320	-200,000	0,019	0,086
-668,305	-200,000	-0,018	0,089
-667,291	-188,983	0,023	0,000
-666,276	-129,808	-0,230	0,023
-665,262	53,819	-0,137	-0,095
-664,247	370,857	0,032	-0,047
-663,232	133,766	0,070	-0,066
-662,218	-200,000	0,026	0,165
-661,203	-99,257	0,066	-0,012
-660,189	338,000	0,040	0,056
-659,174	-200,000	-0,030	-0,099
-658,159	-200,000	-0,018	-0,099
-657,145	288,488	-0,069	-0,091
-656,130	800,000	-0,039	-0,084
-655,116	-200,000	-0,008	0,045
-654,101	229,259	0,063	-0,075
-653,086	-72,922	-0,047	0,012
-652,072	303,733	-0,024	0,032
-651,057	-200,000	0,005	-0,089
-650,043	-200,000	0,005	-0,069
-649,028	-90,235	-0,113	-0,024
-648,014	142,581	0,076	0,073
-646,999	-65,958	0,069	-0,020
-645,984	-200,000	-0,040	0,196
-644,970	-200,000	0,004	0,103
-643,955	201,408	-0,116	0,129
-642,941	356,884	0,071	0,103
-641,926	241,940	0,096	-0,117
-640,911	800,000	-0,065	-0,152
-639,897	-200,000	0,008	0,102
-638,882	800,000	-0,078	-0,168
-637,868	31,569	-0,089	-0,055
-636,853	-200,000	-0,007	0,048
-635,838	800,000	0,061	-0,142
-634,824	43,002	-0,042	0,028
-633,809	-102,496	0,064	-0,011
-632,795	-38,481	0,044	0,017
-631,780	312,724	0,017	0,023
-630,765	73,273	-0,034	0,026
-629,751	34,808	-0,119	0,076
-628,736	-113,291	-0,146	-0,021
-627,722	642,740	0,011	0,020
-626,707	234,820	0,036	0,043
-625,692	-11,008	0,043	-0,021
-624,678	-80,838	-0,130	0,031
-623,663	115,899	0,079	-0,070
-622,649	347,088	-0,019	-0,027
-621,634	105,440	0,016	0,014
-620,619	512,846	0,022	0,037
-619,605	-25,094	0,031	0,013
-618,590	-200,000	0,005	-0,148
-617,576	-24,514	-0,027	0,012
-616,561	202,850	-0,100	-0,112
-615,546	274,817	-0,038	0,049
-614,532	138,194	-0,062	-0,059
-613,517	-200,000	-0,012	-0,044
-612,503	-18,180	-0,086	-0,039
-611,488	-77,055	-0,066	-0,016
-610,474	318,490	0,046	-0,063
-609,459	20,658	0,077	0,045
-608,444	-200,000	-0,012	-0,194
-607,430	800,000	0,041	-0,092
-606,415	-200,000	0,055	-0,197
-605,401	255,136	0,094	-0,117
-604,386	210,092	0,145	0,165
-603,371	-200,000	0,009	-0,070
-602,357	-148,515	-0,033	0,002
-601,342	-47,701	0,080	0,028
-600,328	332,913	-0,030	-0,042
-599,313	2,235	-0,103	-0,054
-598,298	-117,803	-0,079	0,010
-597,284	106,060	0,023	0,020
-596,269	-51,577	0,069	0,023
-595,255	711,814	0,030	-0,059
-594,240	306,495	-0,109	-0,148
-593,225	-200,000	0,017	-0,108
-592,211	237,478	-0,116	-0,140
-591,196	12,486	-0,104	-0,058
-590,182	6,335	0,137	0,073
-589,167	-55,466	-0,031	-0,010
-588,152	-23,828	0,086	0,037
-587,138	-53,310	-0,078	0,026
-586,123	-200,000	-0,026	-0,092
-585,109	-95,000	0,068	0,013
-584,094	-122,841	0,057	-0,007
-583,079	-133,884	-0,045	0,004
-582,065	77,746	0,117	-0,090
-581,050	39,126	0,178	-0,115
-580,036	-200,000	0,015	-0,069
-579,021	217,712	-0,087	-0,101
-578,006	106,168	-0,097	-0,083
-576,992	253,699	-0,013	-0,016
-575,977	116,368	0,012	0,011
-574,963	-109,927	0,064	-0,010
-573,948	-134,441	-0,049	0,004
-572,934	54,249	-0,177	-0,123
-571,919	2,024	-0,060	-0,031
-570,904	303,607	0,082	0,110
-569,890	800,000	-0,018	-0,042
-568,875	136,803	0,027	-0,026
-567,861	439,837	0,061	0,097
-566,846	547,857	-0,078	0,135
-565,831	-99,371	0,063	0,011
-564,817	-88,317	-0,251	0,054
-563,802	-90,755	0,120	-0,025
-562,788	227,781	0,056	-0,066
-561,773	596,341	0,068	-0,122
-560,758	-200,000	-0,031	0,199
-559,744	-148,710	0,110	0,006
-558,729	88,962	-0,039	0,031
-557,715	-200,000	-0,013	0,042
-556,700	-111,863	-0,110	-0,016
-555,685	-45,538	0,090	0,032
-554,671	-200,000	-0,009	-0,119
-553,656	800,000	0,024	0,071
-552,642	732,213	0,003	0,005
-551,627	-122,858	0,107	-0,012
-550,612	566,341	0,051	-0,091
-549,598	800,000	-0,060	-0,128
-548,583	800,000	0,023	-0,069
-547,569	-66,238	0,095	-0,027
-546,554	77,124	0,122	-0,094
-545,539	16,596	-0,031	0,018
-544,525	-200,000	-0,025	0,126
-543,510	32,193	0,135	-0,084
-542,496	-139,206	-0,093	0,007
-541,481	-200,000	0,001	-0,089
-540,466	583,167	0,035	-0,063
-539,452	-60,631	-0,121	-0,037
-538,437	465,632	0,025	0,040
-537,423	-66,292	0,035	-0,010
-536,408	23,234	0,051	-0,030
-535,393	-200,000	0,014	0,089
-534,379	153,287	-0,105	-0,104
-533,364	-66,590	0,041	0,012
-532,350	527,831	0,080	0,137
-531,335	13,721	-0,037	0,021
-530,321	-5,499	-0,081	0,040
-529,306	-200,000	-0,028	-0,140
-528,291	-46,791	0,117	-0,041
-527,277	756,049	-0,089	-0,176
-526,262	3,527	0,007	-0,004
-525,248	-1,181	0,025	-0,013
-524,233	-137,782	0,073	0,006
-523,218	800,000	0,017	0,054
-522,204	137,150	-0,073	-0,069
-521,189	-74,315	-0,232	-0,060
-520,175	-200,000	0,007	-0,083
-519,160	-200,000	-0,004	0,035
-518,145	120,305	0,069	0,062
-517,131	-153,372	0,146	0,007
-516,116	22,710	-0,155	0,091
-515,102	800,000	0,022	0,053
-514,087	-194,243	-0,110	0,001
-513,072	800,000	0,041	0,110
-512,058	32,500	-0,078	0,049
-511,043	477,675	0,018	0,029
-510,029	-64,458	-0,082	0,024
-509,014	800,000	0,033	0,068
-507,999	53,677	-0,035	-0,024
-506,985	133,798	0,143	-0,134
-505,970	-67,098	-0,082	-0,023
-504,956	-125,927	-0,180	0,019
-503,941	375,593	0,022	0,032
-502,926	-109,888	0,056	-0,008
-501,912	800,000	0,013	-0,035
-500,897	-94,653	-0,059	-0,011
-499,883	114,718	0,038	-0,034
-498,868	800,000	-0,063	-0,150
-497,853	-200,000	-0,014	-0,051
-496,839	493,387	0,071	0,117
-495,824	587,730	0,036	0,063
-494,810	-200,000	0,030	0,134
-493,795	20,223	-0,033	0,019
-492,781	-73,771	0,152	-0,040
-491,766	-139,352	-0,171	0,013
-490,751	-179,102	-0,111	-0,002
-489,737	-55,777	0,060	0,019
-488,722	-147,859	0,143	-0,008
-487,708	518,018	0,071	0,120
-486,693	800,000	-0,014	0,038
-485,678	800,000	0,028	-0,063
-484,664	-82,304	-0,159	-0,037
-483,649	-25,767	0,100	-0,042
-482,635	91,364	-0,071	-0,057
-481,620	62,805	-0,064	0,046
-480,605	-200,000	0,016	-0,085
-479,591	90,972	0,063	-0,051
-478,576	800,000	-0,069	0,142
-477,562	800,000	-0,021	0,052
-476,547	-14,946	-0,076	-0,035
-475,532	-104,384	-0,056	-0,009
-474,518	78,446	0,063	0,049
-473,503	53,716	0,042	0,029
-472,489	37,092	0,090	0,057
-471,474	800,000	-0,029	-0,064
-470,459	-9,798	-0,129	0,062
-469,445	-71,095	-0,100	-0,027
-468,430	-80,226	0,073	0,017
-467,416	62,635	0,003	0,002
-466,401	13,659	-0,114	0,063
-465,386	82,163	-0,056	0,043
-464,372	800,000	-0,033	0,091
-463,357	58,964	-0,173	0,122
-462,343	22,380	-0,101	0,059
-461,328	219,655	-0,073	0,084
-460,313	227,802	0,010	0,011
-459,299	-35,461	0,135	0,053
-458,284	168,402	0,064	-0,066
-457,270	-200,000	0,012	0,125
-456,255	118,743	0,044	0,039
-455,241	123,717	-0,075	-0,068
-454,226	61,098	-0,091	0,065
-453,211	-200,000	0,003	-0,057
-452,197	800,000	0,044	0,127
-451,182	-16,197	0,135	0,062
-450,168	452,197	0,089	-0,141
-449,153	8,989	-0,041	0,022
-448,138	-52,036	-0,038	-0,013
-447,124	62,367	-0,085	0,061
-446,109	-92,217	-0,186	0,037
-445,095	27,559	0,139	-0,084
-444,080	175,447	0,111	0,116
-443,065	-200,000	-0,005	-0,053
-442,051	800,000	-0,041	-0,120
-441,036	-77,962	0,080	-0,020
-440,022	20,989	-0,095	-0,055
-439,007	-84,862	0,164	-0,037
-437,992	-200,000	-0,008	0,029
-436,978	186,261	0,075	-0,081
-435,963	-200,000	0,018	-0,059
-434,949	704,811	0,011	0,021
-433,934	800,000	-0,017	-0,037
-432,919	-127,702	0,065	-0,007
-431,905	345,133	-0,017	-0,024
-430,890	800,000	0,036	-0,084
-429,876	-25,779	0,028	-0,012
-428,861	258,092	-0,051	0,063
-427,846	-56,038	-0,123	0,039
-426,832	156,555	-0,046	-0,045
-425,817	-44,626	-0,075	-0,027
-424,803	-200,000	-0,003	-0,164
-423,788	800,000	-0,014	0,042
-422,773	-116,519	-0,081	0,011
-421,759	693,329	-0,075	-0,143
-420,744	-200,000	0,001	-0,025
-419,730	-180,171	-0,203	0,003
-418,715	-113,006	0,058	0,008
-417,701	-5,439	0,058	0,029
-416,686	-19,915	0,083	0,037
-415,671	17,274	0,058	0,033
-414,657	-200,000	-0,003	0,054
-413,642	-200,000	0,007	0,147
-412,628	120,261	-0,122	-0,109
-411,613	136,261	0,043	0,040
-410,598	800,000	0,033	-0,098
-409,584	-12,454	0,068	-0,032
-408,569	427,737	-0,058	0,091
-407,555	54,002	0,018	-0,013
-406,540	18,789	0,125	0,072
-405,525	173,697	-0,032	0,033
-404,511	109,946	0,117	-0,101
-403,496	-129,019	-0,145	0,014
-402,482	61,677	-0,067	0,048
-401,467	-123,063	0,156	-0,018
-400,452	800,000	-0,026	0,071
-399,438	-200,000	0,015	0,067
-398,423	-86,846	-0,111	0,024
-397,409	-83,597	0,030	-0,007
-396,394	63,141	-0,079	0,057
-395,379	298,405	0,067	-0,089
-394,365	315,238	-0,037	0,050
-393,350	800,000	0,041	0,131
-392,336	-200,000	0,006	0,053
-391,321	800,000	-0,004	0,011
-390,306	190,184	-0,036	-0,039
-389,292	-97,492	-0,047	0,009
-388,277	571,768	-0,027	0,047
-387,263	533,710	0,079	0,135
-386,248	-200,000	-0,023	0,149
-385,233	3,552	-0,056	-0,029
-384,219	800,000	0,044	-0,116
-383,204	-25,764	0,071	-0,030
-382,190	3,187	0,177	-0,092
-381,175	25,126	0,104	-0,062
-380,160	-131,216	0,165	0,016
-379,146	121,677	-0,038	0,034
-378,131	242,174	0,045	0,054
-377,117	258,280	0,023	-0,028
-376,102	495,285	-0,093	0,153
-375,088	337,782	-0,077	-0,107
-374,073	-158,759	-0,110	-0,004
-373,058	800,000	0,020	-0,053
-372,044	-17,918	-0,098	0,044
-371,029	800,000	0,049	0,121
-370,015	-200,000	0,032	-0,122
-369,000	-200,000	-0,005	-0,062
-367,985	7,019	0,056	0,030
-366,971	528,422	0,044	-0,075
-365,956	-200,000	-0,001	-0,046
-364,942	-200,000	-0,007	0,059
-363,927	-200,000	0,036	-0,135
-362,912	-24,866	0,087	-0,037
-361,898	800,000	0,017	0,044
-360,883	-145,931	-0,114	-0,007
-359,869	-200,000	0,024	0,091
-358,854	-200,000	0,006	-0,062
-357,839	77,205	-0,061	0,046
-356,825	45,728	-0,101	0,067
-355,810	-136,689	-0,070	-0,006
-354,796	109,945	-0,054	-0,046
-353,781	-38,588	-0,091	-0,034
-352,766	347,849	0,057	-0,080
-351,752	-200,000	-0,026	-0,083
-350,737	324,007	0,051	0,071
-349,723	40,589	0,077	-0,050
-348,708	-125,706	0,160	-0,017
-347,693	-200,000	-0,029	-0,092
-346,679	-200,000	0,001	-0,106
-345,664	-100,341	0,052	-0,009
-344,650	320,793	-0,057	0,078
-343,635	100,910	0,111	-0,093
-342,620	11,324	-0,059	0,032
-341,606	45,493	-0,140	0,092
-340,591	288,775	0,015	0,020
-339,577	800,000	0,027	-0,062
-338,562	-200,000	-0,006	-0,080
-337,548	-200,000	-0,015	-0,062
-336,533	-8,872	-0,023	-0,011
-335,518	-42,245	-0,054	0,020
-334,504	-200,000	0,000	0,108
-333,489	-200,000	0,008	-0,088
-332,475	182,076	0,033	0,035
-331,460	29,221	-0,069	-0,042
-330,445	247,117	-0,081	-0,099
-329,431	-130,088	0,107	0,010
-328,416	800,000	0,007	-0,020
-327,402	169,299	0,067	0,069
-326,387	-110,594	-0,044	-0,006
-325,372	-200,000	-0,020	0,112
-324,358	-200,000	0,003	-0,083
-323,343	-200,000	-0,001	-0,034
-322,329	800,000	0,052	0,131
-321,314	-110,808	0,151	0,022
-320,299	-86,858	0,135	-0,029
-319,285	106,241	-0,081	0,069
-318,270	225,018	0,058	-0,067
-317,256	265,542	0,059	0,074
-316,241	-2,743	0,048	0,024
-315,226	191,345	0,018	-0,019
-314,212	-200,000	0,001	0,100
-313,197	339,506	0,092	0,129
-312,183	-200,000	-0,001	-0,069
-311,168	14,874	-0,084	-0,047
-310,153	-112,543	-0,133	0,019
-309,139	-200,000	-0,029	-0,158
-308,124	645,074	-0,087	0,159
-307,110	326,185	0,031	0,042
-306,095	-84,829	-0,082	0,018
-305,080	800,000	0,033	0,067
-304,066	-110,193	-0,048	0,007
-303,051	-200,000	-0,004	0,029
-302,037	800,000	0,011	-0,033
-301,022	-200,000	0,004	-0,032
-300,008	-96,442	0,165	0,031
-298,993	-200,000	0,016	0,103
-297,978	58,016	0,046	0,032
-296,964	486,292	0,026	-0,042
-295,949	-47,459	-0,103	-0,036
-294,935	-25,641	0,148	-0,062
-293,920	682,677	0,020	-0,038
-292,905	426,816	0,051	-0,078
-291,891	-109,132	0,219	0,033
-290,876	366,096	0,095	0,137
-289,862	124,629	-0,103	-0,093
-288,847	-61,662	-0,146	0,043
-287,832	-200,000	0,030	-0,117
-286,818	-200,000	-0,021	-0,083
-285,803	-97,196	0,105	-0,019
-284,789	624,231	0,022	0,041
-283,774	-53,624	-0,052	0,017
-282,759	541,751	0,059	-0,101
-281,745	-29,359	-0,078	0,032
-280,730	800,000	0,106	-0,263
-279,716	-114,774	-0,059	0,008
-278,701	53,556	-0,105	0,072
-277,686	143,393	0,039	-0,037
-276,672	-29,394	-0,033	0,014
-275,657	101,008	-0,046	0,038
-274,643	-28,932	-0,133	0,055
-273,628	-132,452	-0,125	0,011
-272,613	106,045	0,146	-0,123
-271,599	-200,000	0,002	-0,011
-270,584	76,449	0,065	-0,049
-269,570	-78,227	-0,027	0,007
-268,555	-200,000	-0,019	-0,129
-267,540	-200,000	-0,004	-0,120
-266,526	71,112	-0,093	-0,068
-265,511	72,205	0,110	-0,082
-264,497	128,977	0,085	0,077
-263,482	380,596	0,025	-0,037
-262,467	-91,378	-0,064	-0,013
-261,453	-111,621	-0,142	-0,020
-260,438	-200,000	0,001	0,102
-259,424	-57,904	0,083	0,026
-258,409	320,092	-0,125	-0,170
-257,395	-155,250	0,074	-0,003
-256,380	-122,560	-0,055	0,006
-255,365	108,372	0,074	0,063
-254,351	34,067	0,027	-0,017
-253,336	-107,582	0,087	-0,014
-252,322	-200,000	-0,005	-0,024
-251,307	-200,000	0,003	0,090
-250,292	-28,621	-0,074	0,030
-249,278	199,360	-0,033	-0,036
-248,263	-200,000	-0,010	-0,092
-247,249	-14,807	0,093	0,043
-246,234	800,000	0,021	-0,047
-245,219	-200,000	0,013	0,146
-244,205	-25,269	-0,068	-0,029
-243,190	-121,302	-0,030	0,004
-242,176	90,785	0,125	0,100
-241,161	-200,000	-0,010	-0,030
-240,146	-45,689	0,112	0,039
-239,132	34,362	0,081	0,051
-238,117	204,421	-0,086	0,095
-237,103	-200,000	-0,012	0,068
-236,088	32,560	-0,028	0,017
-235,073	-200,000	-0,013	0,051
-234,059	59,918	0,104	0,073
-233,044	119,953	-0,128	0,113
-232,030	10,592	-0,039	0,021
-231,015	134,191	-0,112	0,104
-230,000	-2,796	0,033	-0,016
-228,986	10,741	-0,073	0,040
-227,971	572,310	0,074	0,129
-226,957	-136,799	-0,039	-0,003
-225,942	102,067	0,090	-0,075
-224,927	800,000	-0,034	-0,092
-223,913	259,311	-0,078	-0,097
-222,898	-48,646	0,072	-0,025
-221,884	-50,284	0,115	-0,039
-220,869	-35,424	0,095	0,037
-219,855	-200,000	0,017	0,058
-218,840	109,756	0,017	-0,015
-217,825	800,000	0,065	0,133
-216,811	170,338	-0,070	0,072
-215,796	-200,000	0,029	0,101
-214,782	-168,898	-0,058	-0,002
-213,767	-200,000	-0,015	-0,127
-212,752	128,470	0,062	0,056
-211,738	98,148	0,036	0,029
-210,723	230,870	-0,096	0,113
-209,709	61,624	0,023	-0,016
-208,694	-67,887	-0,018	0,005
-207,679	800,000	0,024	-0,062
-206,665	-112,738	-0,113	0,016
-205,650	31,264	0,082	0,050
-204,636	800,000	-0,040	0,122
-203,621	355,643	0,063	0,090
-202,606	800,000	-0,031	0,062
-201,592	-86,451	-0,122	-0,027
-200,577	800,000	-0,043	-0,094
-199,563	-200,000	0,020	0,083
-198,548	93,307	-0,057	0,046
-197,533	-200,000	-0,014	0,077
-196,519	108,390	-0,051	-0,043
-195,504	-52,863	0,097	0,032
-194,490	-21,862	-0,091	0,039
-193,475	-9,740	0,051	-0,024
-192,460	290,025	-0,090	-0,117
-191,446	72,368	0,080	0,060
-190,431	-26,534	0,115	0,048
-189,417	161,647	-0,059	0,059
-188,402	255,456	0,079	0,097
-187,387	-200,000	-0,022	0,112
-186,373	316,087	0,002	-0,003
-185,358	800,000	-0,038	0,088
-184,344	-200,000	-0,004	0,027
-183,329	-77,979	0,129	-0,032
-182,315	-77,259	0,166	-0,041
-181,300	-20,569	-0,102	-0,045
-180,285	-26,469	0,032	0,013
-179,271	800,000	-0,032	-0,083
-178,256	-120,642	0,140	0,017
-177,242	800,000	0,031	-0,077
-176,227	88,922	0,103	0,081
-175,212	-27,434	0,010	-0,004
-174,198	521,211	0,021	0,036
-173,183	-45,445	-0,145	0,051
-172,169	340,820	-0,034	-0,047
-171,154	280,838	-0,071	-0,091
-170,139	425,376	0,102	0,157
-169,125	800,000	0,027	0,061
-168,110	-87,919	-0,076	0,016
-167,096	800,000	-0,020	0,047
-166,081	-165,706	0,169	-0,005
-165,066	507,595	-0,077	0,128
-164,052	114,848	0,058	0,050
-163,037	584,641	-0,069	-0,121
-162,023	800,000	0,017	-0,050
-161,008	-54,856	-0,060	0,019
-159,993	-200,000	-0,021	0,193
-158,979	800,000	0,029	-0,058
-157,964	237,785	-0,039	-0,047
-156,950	-200,000	0,005	-0,045
-155,935	-200,000	0,007	-0,055
-154,920	-200,000	0,005	0,057
-153,906	49,009	0,044	0,029
-152,891	426,018	-0,091	0,141
-151,877	85,728	0,080	-0,062
-150,862	-60,312	-0,082	0,025
-149,847	-200,000	0,018	0,103
-148,833	229,662	-0,025	-0,029
-147,818	-167,240	0,028	-0,001
-146,804	136,688	-0,040	0,037
-145,789	97,248	0,087	0,071
-144,775	79,256	-0,077	0,059
-143,760	308,161	-0,037	0,049
-142,745	-17,008	-0,104	-0,046
-141,731	107,695	0,087	-0,073
-140,716	415,360	0,050	0,076
-139,702	-13,267	-0,067	0,031
-138,687	-200,000	0,009	0,135
-137,672	-200,000	-0,037	0,157
-136,658	-200,000	-0,019	-0,138
-135,643	800,000	0,040	0,085
-134,629	660,284	0,027	0,050
-133,614	800,000	0,025	0,074
-132,599	169,378	0,072	0,073
-131,585	800,000	0,071	0,155
-130,570	-107,243	-0,075	0,012
-129,556	516,940	-0,030	0,050
-128,541	-200,000	0,013	0,057
-127,526	-78,384	0,077	0,019
-126,512	34,708	0,048	0,030
-125,497	-105,290	0,049	-0,008
-124,483	565,088	0,032	0,055
-123,468	486,117	-0,030	0,049
-122,453	111,892	-0,034	-0,029
-121,439	-200,000	0,017	-0,096
-120,424	-200,000	0,007	-0,121
-119,410	-38,923	0,076	0,028
-118,395	-200,000	0,001	0,089
