DTS Sentinel unit serial number:	SN410029Multiplexer serial number:	ORYXHardware model number:	OX2-SRSoftware version number:	ORYX F/W v4,00 Oryx Data Collector v3.7.2.0data status	okinstallation	BH3 CH2differential loss correction	single-endedforward channel	channel 2reverse channel	N/Adate	2023/12/05time	16:57:28forward acquisition time	300,00reverse acquisition time	0,00gamma	499,1914k internal	0,3193k external	0,3193temperature offset calibration	1,0000default loss term (dB/km)	0,3820temperature slope calibration	1,0000multiplexer offset coefficient	1,0000multiplexer slope coefficient	1,0000fibre end	0,00T internal ref (°C)	10,98T ext. ref 1 (°C)	-3,79T ext. ref 2 (°C)	-3,92length (m)	temperature (°C)	Stokes	anti-Stokes-744,400	200,847	-0,069	0,077
-743,385	493,564	-0,145	0,244
-742,371	-20,675	-0,096	0,043
-741,356	-24,231	-0,219	0,095
-740,342	-200,000	-0,006	-0,093
-739,327	18,989	-0,244	0,142
-738,312	-200,000	-0,013	-0,093
-737,298	24,308	-0,234	0,141
-736,283	-8,316	-0,076	-0,037
-735,269	635,942	-0,078	0,145
-734,254	-200,000	-0,010	-0,081
-733,239	-78,817	-0,322	-0,079
-732,225	730,951	0,034	-0,067
-731,210	108,679	0,145	0,126
-730,196	-200,000	-0,044	-0,148
-729,181	-37,666	-0,108	0,042
-728,167	-3,111	0,048	0,024
-727,152	-103,673	-0,143	-0,024
-726,137	-53,275	-0,054	0,018
-725,123	-200,000	-0,011	-0,044
-724,108	799,004	-0,030	-0,060
-723,094	50,533	-0,101	-0,069
-722,079	800,000	-0,051	-0,107
-721,064	-88,942	0,010	0,002
-720,050	-187,908	0,071	0,001
-719,035	-140,096	0,096	-0,007
-718,021	800,000	-0,056	0,128
-717,006	-86,960	-0,117	0,026
-715,991	-19,989	-0,134	-0,060
-714,977	31,559	0,052	-0,033
-713,962	800,000	0,017	0,041
-712,948	10,135	-0,030	0,017
-711,933	-200,000	0,008	0,029
-710,918	72,890	0,044	-0,034
-709,904	184,773	-0,067	-0,072
-708,889	800,000	-0,101	-0,217
-707,875	-131,679	-0,075	-0,007
-706,860	-102,599	0,130	-0,022
-705,845	-58,771	-0,066	0,021
-704,831	-140,953	0,072	-0,005
-703,816	-0,912	0,078	0,040
-702,802	-7,943	-0,090	0,044
-701,787	204,785	-0,086	-0,097
-700,772	788,692	-0,021	0,042
-699,758	48,528	-0,084	-0,057
-698,743	-17,390	0,084	0,038
-697,729	-45,164	0,143	0,051
-696,714	-200,000	0,003	0,125
-695,699	-41,470	-0,139	-0,052
-694,685	-164,577	-0,117	-0,004
-693,670	-154,754	-0,032	0,002
-692,656	-200,000	0,012	-0,096
-691,641	423,297	0,058	-0,091
-690,627	345,640	-0,027	-0,038
-689,612	-117,818	0,101	0,013
-688,597	-200,000	0,002	-0,115
-687,583	47,835	-0,075	-0,051
-686,568	536,274	0,084	-0,145
-685,554	-200,000	0,005	-0,021
-684,539	37,511	-0,065	0,042
-683,524	-4,472	-0,070	0,035
-682,510	-200,000	-0,010	0,091
-681,495	-200,000	-0,011	-0,057
-680,481	-53,870	0,163	0,054
-679,466	-200,000	-0,009	-0,071
-678,451	1,281	0,046	-0,024
-677,437	-43,430	0,079	-0,029
-676,422	-83,384	0,043	-0,010
-675,408	41,717	-0,129	-0,085
-674,393	372,541	-0,075	0,112
-673,378	558,197	-0,009	0,016
-672,364	27,425	-0,135	-0,083
-671,349	-114,276	-0,075	-0,010
-670,335	-113,074	-0,091	0,013
-669,320	438,939	0,077	0,122
-668,305	-58,124	0,161	-0,051
-667,291	-11,335	-0,103	-0,049
-666,276	-200,000	0,021	-0,099
-665,262	43,860	-0,192	-0,128
-664,247	195,227	0,063	-0,070
-663,232	-13,958	0,036	-0,017
-662,218	241,901	0,034	0,041
-661,203	800,000	0,055	0,120
-660,189	-128,681	-0,118	0,012
-659,174	-200,000	-0,022	-0,118
-658,159	-200,000	-0,009	-0,167
-657,145	-200,000	-0,003	-0,050
-656,130	800,000	-0,021	-0,051
-655,116	16,827	-0,024	-0,013
-654,101	15,156	-0,067	0,038
-653,086	-200,000	-0,014	0,230
-652,072	19,657	-0,030	-0,018
-651,057	800,000	0,025	-0,056
-650,043	387,214	-0,097	-0,146
-649,028	-35,717	0,074	0,029
-648,014	-95,605	-0,066	0,013
-646,999	-173,665	-0,026	0,001
-645,984	193,781	0,034	-0,037
-644,970	-81,633	0,071	0,017
-643,955	19,882	-0,070	0,041
-642,941	115,388	-0,100	0,089
-641,926	800,000	0,050	0,121
-640,911	14,928	-0,016	0,009
-639,897	276,149	-0,021	0,027
-638,882	800,000	-0,036	0,094
-637,868	57,158	0,007	-0,005
-636,853	-17,759	-0,174	-0,079
-635,838	-7,870	0,084	-0,041
-634,824	-172,841	-0,059	0,001
-633,809	-200,000	-0,016	-0,053
-632,795	255,445	-0,076	-0,095
-631,780	800,000	0,049	-0,112
-630,765	-76,198	0,184	-0,047
-629,751	209,147	-0,099	-0,112
-628,736	419,453	-0,087	-0,135
-627,722	70,699	0,067	-0,050
-626,707	-200,000	-0,016	-0,059
-625,692	800,000	0,016	0,050
-624,678	84,188	-0,089	-0,071
-623,663	-200,000	0,037	-0,152
-622,649	-44,150	-0,078	-0,028
-621,634	-90,619	0,024	-0,005
-620,619	-5,122	-0,087	-0,043
-619,605	205,414	-0,064	0,072
-618,590	133,290	0,068	0,064
-617,576	-136,184	-0,079	-0,007
-616,561	800,000	0,016	0,033
-615,546	302,839	-0,024	-0,032
-614,532	182,126	-0,079	0,085
-613,517	26,441	0,071	-0,043
-612,503	-200,000	-0,009	-0,075
-611,488	640,731	-0,046	0,086
-610,474	290,351	-0,041	-0,054
-609,459	120,560	-0,134	-0,121
-608,444	-200,000	0,015	-0,097
-607,430	800,000	0,043	-0,135
-606,415	-200,000	0,032	-0,177
-605,401	14,191	-0,026	0,014
-604,386	596,221	-0,042	0,076
-603,371	800,000	0,019	0,047
-602,357	112,703	0,052	-0,045
-601,342	101,420	0,032	0,027
-600,328	247,075	0,038	0,046
-599,313	-200,000	0,029	0,097
-598,298	156,459	-0,087	0,087
-597,284	-153,589	-0,130	-0,006
-596,269	-36,026	0,062	-0,024
-595,255	-129,454	-0,061	0,006
-594,240	-169,745	0,101	0,003
-593,225	-127,238	0,060	-0,006
-592,211	40,037	-0,063	-0,041
-591,196	89,450	-0,036	-0,029
-590,182	-76,408	0,035	0,009
-589,167	388,786	0,076	0,115
-588,152	199,549	-0,079	0,087
-587,138	243,754	-0,077	0,094
-586,123	800,000	0,023	0,052
-585,109	273,565	-0,055	0,071
-584,094	222,003	-0,090	-0,105
-583,079	-200,000	0,002	-0,055
-582,065	-200,000	-0,011	-0,040
-581,050	800,000	-0,008	0,025
-580,036	-4,676	-0,020	0,010
-579,021	-200,000	0,026	-0,100
-578,006	389,968	-0,084	-0,126
-576,992	-145,582	0,160	0,010
-575,977	-200,000	0,006	0,045
-574,963	-69,094	0,105	0,029
-573,948	-200,000	-0,017	-0,067
-572,934	800,000	-0,020	0,048
-571,919	-200,000	-0,019	-0,069
-570,904	-167,597	0,088	0,002
-569,890	800,000	-0,029	-0,062
-568,875	-138,758	-0,011	0,001
-567,861	154,125	0,058	0,057
-566,846	180,501	0,077	0,082
-565,831	-174,411	0,059	0,001
-564,817	-200,000	-0,007	0,037
-563,802	-200,000	-0,008	-0,094
-562,788	-200,000	0,020	-0,133
-561,773	71,465	-0,124	-0,093
-560,758	800,000	0,020	-0,048
-559,744	-20,107	0,079	0,035
-558,729	800,000	0,008	-0,025
-557,715	-125,459	-0,059	0,006
-556,700	470,130	-0,107	-0,175
-555,685	14,340	0,041	0,023
-554,671	77,248	-0,164	0,126
-553,656	-70,156	0,028	-0,008
-552,642	-200,000	-0,037	-0,125
-551,627	-200,000	0,049	0,218
-550,612	-59,183	0,075	0,023
-549,598	59,138	0,061	-0,043
-548,583	446,234	-0,056	-0,090
-547,569	214,144	0,058	0,066
-546,554	232,680	0,103	0,123
-545,539	-200,000	-0,006	0,139
-544,525	451,699	-0,119	-0,190
-543,510	275,580	-0,077	0,099
-542,496	227,377	-0,014	-0,017
-541,481	-16,889	0,102	0,046
-540,466	98,464	-0,027	-0,022
-539,452	-6,691	-0,067	0,033
-538,437	186,343	0,134	-0,145
-537,423	-163,893	0,101	0,003
-536,408	-200,000	-0,005	-0,060
-535,393	169,131	-0,050	-0,051
-534,379	-154,178	-0,223	-0,011
-533,364	-113,085	-0,058	0,008
-532,350	-200,000	0,037	0,174
-531,335	-61,499	0,068	0,020
-530,321	-200,000	0,003	0,057
-529,306	28,890	-0,083	-0,051
-528,291	185,048	0,080	-0,086
-527,277	-83,303	-0,100	0,023
-526,262	-0,352	-0,096	-0,049
-525,248	214,729	0,046	0,053
-524,233	642,000	0,032	0,058
-523,218	-200,000	0,024	0,120
-522,204	800,000	-0,023	0,058
-521,189	-133,612	0,072	0,006
-520,175	354,352	-0,092	-0,133
-519,160	-200,000	0,012	-0,131
-518,145	418,442	-0,066	0,103
-517,131	59,806	0,123	0,088
-516,116	388,552	0,051	0,076
-515,102	-200,000	0,000	0,053
-514,087	-200,000	-0,013	0,113
-513,072	-56,845	0,038	0,012
-512,058	127,885	-0,105	0,096
-511,043	-200,000	-0,002	0,012
-510,029	-200,000	0,014	0,085
-509,014	-133,063	0,099	-0,009
-507,999	261,422	0,054	0,068
-506,985	-58,989	-0,042	-0,013
-505,970	241,215	-0,020	0,024
-504,956	92,563	-0,039	0,032
-503,941	593,635	0,063	0,112
-502,926	-200,000	-0,012	0,091
-501,912	277,204	0,049	0,064
-500,897	150,824	-0,066	0,065
-499,883	75,320	0,030	0,023
-498,868	-107,313	-0,156	0,025
-497,853	-85,898	-0,038	-0,008
-496,839	124,572	-0,048	0,044
-495,824	200,647	-0,020	0,022
-494,810	-187,544	0,034	-0,000
-493,795	329,557	-0,085	-0,119
-492,781	-200,000	0,001	-0,095
-491,766	237,265	-0,041	0,049
-490,751	205,624	0,052	-0,059
-489,737	-200,000	0,006	-0,144
-488,722	-200,000	0,008	0,052
-487,708	-200,000	0,021	0,085
-486,693	-159,692	0,083	0,003
-485,678	-132,930	0,082	0,007
-484,664	-121,836	-0,098	-0,012
-483,649	-158,903	0,008	-0,000
-482,635	-200,000	0,018	0,103
-481,620	145,238	0,062	-0,060
-480,605	72,035	0,189	0,142
-479,591	27,320	-0,084	0,051
-478,576	-200,000	0,006	0,067
-477,562	255,694	0,053	0,066
-476,547	-200,000	-0,009	-0,105
-475,532	-200,000	-0,006	0,182
-474,518	800,000	0,017	0,040
-473,503	-200,000	-0,008	-0,106
-472,489	-200,000	-0,031	0,115
-471,474	-200,000	-0,004	-0,060
-470,459	185,410	0,071	-0,076
-469,445	-68,185	-0,105	-0,029
-468,430	37,868	-0,100	0,064
-467,416	-9,575	-0,039	0,018
-466,401	-121,381	0,114	0,014
-465,386	-22,549	0,092	-0,040
-464,372	-127,800	-0,128	0,013
-463,357	-200,000	-0,044	0,185
-462,343	292,334	0,068	0,090
-461,328	-200,000	0,017	-0,101
-460,313	800,000	0,055	-0,118
-459,299	-200,000	-0,003	0,180
-458,284	-200,000	0,026	0,093
-457,270	55,989	-0,036	-0,025
-456,255	492,150	-0,081	-0,134
-455,241	18,917	0,042	-0,024
-454,226	800,000	0,016	0,044
-453,211	-70,475	0,081	0,022
-452,197	-133,510	0,065	0,006
-451,182	-200,000	-0,054	0,197
-450,168	800,000	-0,072	-0,144
-449,153	-199,011	-0,202	-0,001
-448,138	76,234	-0,080	-0,061
-447,124	-88,509	0,053	-0,011
-446,109	29,906	0,102	-0,063
-445,095	-200,000	0,020	-0,084
-444,080	800,000	0,093	0,210
-443,065	5,557	-0,100	-0,053
-442,051	-87,435	0,062	-0,013
-441,036	518,285	-0,046	-0,078
-440,022	-200,000	0,016	-0,109
-439,007	-200,000	-0,012	-0,071
-437,992	95,919	0,083	0,069
-436,978	42,583	0,113	0,074
-435,963	-134,765	-0,114	-0,010
-434,949	-136,911	-0,127	0,010
-433,934	-200,000	-0,009	-0,074
-432,919	715,059	0,045	0,087
-431,905	-200,000	-0,025	0,088
-430,890	376,931	-0,046	-0,068
-429,876	800,000	0,081	0,164
-428,861	800,000	0,078	0,186
-427,846	-200,000	-0,010	0,054
-426,832	79,068	0,095	-0,073
-425,817	-106,510	-0,073	-0,012
-424,803	-109,528	-0,057	-0,009
-423,788	241,311	-0,057	-0,069
-422,773	-200,000	-0,011	0,085
-421,759	54,918	0,189	0,131
-420,744	750,874	-0,028	0,055
-419,730	278,057	-0,047	-0,061
-418,715	6,752	-0,058	-0,031
-417,701	230,969	0,045	0,053
-416,686	-200,000	0,019	0,098
-415,671	94,005	-0,058	0,047
-414,657	-200,000	-0,007	0,149
-413,642	800,000	0,035	0,105
-412,628	-200,000	-0,005	0,093
-411,613	112,478	0,073	-0,064
-410,598	800,000	0,029	-0,067
-409,584	-30,256	0,059	-0,024
-408,569	800,000	0,028	0,064
-407,555	800,000	-0,026	-0,054
-406,540	202,579	0,089	0,099
-405,525	129,169	-0,029	-0,027
-404,511	24,831	0,020	-0,012
-403,496	-92,136	0,100	0,020
-402,482	800,000	-0,053	-0,134
-401,467	-186,637	0,099	0,001
-400,452	-200,000	-0,058	0,189
-399,438	-75,926	-0,136	-0,034
-398,423	-200,000	-0,000	-0,052
-397,409	-61,276	-0,119	-0,036
-396,394	43,701	0,030	0,020
-395,379	231,304	-0,103	0,122
-394,365	-200,000	-0,005	0,072
-393,350	-31,295	-0,129	0,052
-392,336	154,445	-0,052	0,051
-391,321	57,718	-0,054	-0,038
-390,306	-200,000	-0,003	-0,107
-389,292	652,192	-0,012	-0,022
-388,277	766,303	0,042	0,082
-387,263	-200,000	0,003	-0,205
-386,248	139,152	0,135	0,128
-385,233	-61,122	-0,104	-0,031
-384,219	800,000	-0,055	-0,112
-383,204	-200,000	0,008	-0,075
-382,190	800,000	0,008	-0,024
-381,175	-66,790	0,024	0,007
-380,160	3,616	0,111	-0,058
-379,146	25,972	-0,162	-0,097
-378,131	306,405	0,105	0,141
-377,117	-200,000	0,032	-0,169
-376,102	800,000	-0,020	-0,064
-375,088	-200,000	-0,025	-0,096
-374,073	548,563	-0,054	-0,094
-373,058	-200,000	-0,006	-0,028
-372,044	-39,096	-0,111	0,042
-371,029	-200,000	-0,002	0,071
-370,015	286,991	-0,014	-0,018
-369,000	266,141	-0,077	-0,097
-367,985	-106,384	0,037	0,006
-366,971	107,564	-0,079	0,068
-365,956	-141,216	-0,133	0,010
-364,942	-25,353	0,100	0,042
-363,927	800,000	0,023	0,051
-362,912	-182,520	-0,100	-0,001
-361,898	-53,347	0,112	0,037
-360,883	-200,000	-0,043	-0,154
-359,869	-108,866	0,085	-0,013
-358,854	-97,993	0,076	-0,014
-357,839	235,558	0,091	0,109
-356,825	224,966	-0,014	0,016
-355,810	-80,940	-0,096	-0,023
-354,796	-100,778	-0,135	-0,024
-353,781	-200,000	0,002	-0,008
-352,766	800,000	-0,035	0,076
-351,752	-200,000	-0,017	-0,096
-350,737	312,774	-0,096	0,130
-349,723	-3,952	0,062	-0,031
-348,708	800,000	0,055	0,111
-347,693	800,000	0,015	0,031
-346,679	-200,000	0,023	-0,130
-345,664	-200,000	-0,043	-0,206
-344,650	493,185	0,035	0,058
-343,635	615,259	0,033	-0,060
-342,620	365,346	0,036	0,053
-341,606	800,000	0,015	0,038
-340,591	-200,000	-0,038	-0,127
-339,577	83,977	-0,107	-0,084
-338,562	-108,560	0,046	0,007
-337,548	75,661	-0,039	0,030
-336,533	1,893	0,083	-0,043
-335,518	105,932	0,044	0,037
-334,504	-200,000	0,022	-0,075
-333,489	-148,688	-0,194	-0,011
-332,475	-200,000	-0,006	-0,082
-331,460	-66,461	-0,133	0,038
-330,445	182,753	-0,085	-0,090
-329,431	-8,722	0,086	0,041
-328,416	-40,065	0,098	0,036
-327,402	126,172	0,046	0,042
-326,387	-200,000	-0,005	-0,025
-325,372	800,000	0,021	-0,061
-324,358	-200,000	0,010	0,109
-323,343	497,962	-0,050	0,082
-322,329	800,000	0,042	0,123
-321,314	-200,000	0,002	-0,036
-320,299	534,735	0,050	0,085
-319,285	-169,062	0,029	0,001
-318,270	317,349	-0,059	0,080
-317,256	-92,966	-0,028	-0,006
-316,241	-200,000	-0,012	0,142
-315,226	-66,931	0,043	-0,012
-314,212	194,235	0,059	0,064
-313,197	-3,339	0,100	-0,050
-312,183	25,435	0,131	0,078
-311,168	800,000	0,028	-0,058
-310,153	13,583	-0,061	-0,034
-309,139	268,565	0,093	0,117
-308,124	25,000	0,135	-0,080
-307,110	3,187	0,048	0,025
-306,095	-43,563	0,147	0,053
-305,080	68,575	0,051	0,037
-304,066	800,000	0,065	-0,153
-303,051	-139,103	0,130	0,010
-302,037	266,960	-0,030	0,038
-301,022	-200,000	-0,025	-0,108
-300,008	88,598	0,035	-0,028
-298,993	62,478	0,076	0,054
-297,978	5,736	0,067	0,035
-296,964	47,179	0,049	0,032
-295,949	313,031	-0,085	-0,115
-294,935	274,994	-0,076	0,097
-293,920	1,518	0,057	-0,029
-292,905	-0,249	-0,066	-0,033
-291,891	-200,000	-0,020	0,068
-290,876	-200,000	0,010	0,034
-289,862	-169,583	0,055	0,001
-288,847	-200,000	-0,005	-0,058
-287,832	-38,019	0,069	-0,026
-286,818	574,350	0,039	0,069
-285,803	-200,000	-0,011	0,124
-284,789	1,692	0,045	-0,023
-283,774	160,645	-0,034	-0,034
-282,759	-52,106	0,123	0,041
-281,745	118,496	-0,194	-0,172
-280,730	286,704	-0,093	-0,121
-279,716	-72,513	0,095	-0,025
-278,701	415,109	-0,025	-0,038
-277,686	107,099	0,047	0,040
-276,672	185,794	-0,031	-0,033
-275,657	104,654	-0,058	0,049
-274,643	-51,104	-0,128	-0,043
-273,628	-200,000	0,006	-0,137
-272,613	-200,000	-0,009	-0,054
-271,599	222,706	-0,040	0,046
-270,584	-81,081	0,118	0,028
-269,570	35,734	0,105	-0,066
-268,555	202,781	0,113	-0,125
-267,540	-200,000	0,029	-0,139
-266,526	800,000	-0,026	-0,062
-265,511	-16,996	-0,077	-0,035
-264,497	-89,023	0,143	0,030
-263,482	-103,685	0,083	-0,014
-262,467	-74,123	-0,070	-0,018
-261,453	578,078	-0,056	0,099
-260,438	-200,000	-0,034	-0,135
-259,424	-200,000	-0,024	0,106
-258,409	800,000	-0,046	-0,107
-257,395	800,000	0,038	-0,102
-256,380	89,700	0,214	-0,171
-255,365	-200,000	0,017	0,055
-254,351	-150,154	0,054	-0,003
-253,336	-125,080	-0,124	0,013
-252,322	-2,963	-0,134	-0,067
-251,307	490,629	0,043	-0,070
-250,292	800,000	0,070	-0,147
-249,278	-200,000	-0,027	0,110
-248,263	-200,000	0,025	0,131
-247,249	-23,929	-0,030	0,013
-246,234	75,866	-0,079	0,060
-245,219	47,722	-0,079	-0,053
-244,205	800,000	0,013	0,030
-243,190	800,000	0,059	-0,138
-242,176	745,443	0,073	-0,141
-241,161	-200,000	0,014	0,094
-240,146	59,260	0,084	0,059
-239,132	800,000	0,020	0,061
-238,117	-18,285	0,034	-0,015
-237,103	800,000	0,043	-0,111
-236,088	-200,000	0,014	-0,126
-235,073	-200,000	-0,004	0,039
-234,059	462,705	0,037	0,059
-233,044	800,000	0,038	0,080
-232,030	-73,434	0,068	-0,018
-231,015	191,320	-0,076	-0,082
-230,000	668,621	0,076	-0,141
-228,986	296,525	0,063	-0,082
-227,971	125,483	0,070	0,063
-226,957	9,950	-0,089	0,048
-225,942	800,000	0,060	0,154
-224,927	-200,000	-0,000	0,042
-223,913	318,990	-0,024	0,032
-222,898	727,973	0,020	0,038
-221,884	-148,918	-0,091	0,005
-220,869	800,000	0,043	-0,090
-219,855	25,083	0,083	0,049
-218,840	71,598	-0,016	0,012
-217,825	-200,000	0,006	0,064
-216,811	282,341	0,032	-0,041
-215,796	123,110	0,091	-0,081
-214,782	-138,535	-0,147	0,011
-213,767	-27,825	-0,062	-0,026
-212,752	258,357	0,084	-0,103
-211,738	-200,000	0,019	0,109
-210,723	-179,849	-0,073	0,001
-209,709	-48,580	-0,111	0,038
-208,694	-200,000	-0,009	-0,112
-207,679	394,781	-0,101	-0,150
-206,665	-65,808	0,057	0,016
-205,650	-114,961	0,011	-0,001
-204,636	800,000	0,028	0,072
-203,621	800,000	-0,023	0,058
-202,606	-165,983	-0,130	-0,004
-201,592	-114,276	0,121	-0,017
-200,577	-200,000	0,011	-0,099
-199,563	242,776	0,072	0,087
-198,548	491,008	0,011	-0,018
-197,533	241,511	0,033	-0,039
-196,519	-22,338	0,199	0,086
-195,504	267,818	0,066	0,082
-194,490	-79,993	-0,132	-0,031
-193,475	-200,000	-0,009	0,032
-192,460	360,539	0,070	-0,101
-191,446	85,088	-0,078	0,061
-190,431	510,434	-0,051	0,084
-189,417	-130,449	0,066	-0,006
-188,402	-200,000	-0,013	-0,049
-187,387	128,284	-0,049	-0,044
-186,373	507,763	0,036	-0,060
-185,358	-78,233	0,108	-0,026
-184,344	-200,000	0,010	0,060
-183,329	-200,000	-0,014	0,119
-182,315	207,276	0,073	0,081
-181,300	33,399	-0,121	-0,075
-180,285	-200,000	0,008	-0,034
-179,271	800,000	0,083	-0,192
-178,256	800,000	-0,030	0,082
-177,242	-165,829	-0,069	-0,002
-176,227	225,520	0,080	0,093
-175,212	-156,053	-0,168	0,007
-174,198	-30,176	0,122	0,049
-173,183	280,799	0,026	-0,033
-172,169	-29,245	-0,132	0,054
-171,154	-119,633	0,069	0,008
-170,139	-200,000	0,000	0,089
-169,125	-101,532	-0,046	-0,008
-168,110	476,982	-0,015	-0,024
-167,096	1,233	-0,008	-0,004
-166,081	800,000	0,015	-0,041
-165,066	-93,971	-0,169	0,033
-164,052	8,655	0,057	-0,031
-163,037	-144,416	-0,240	0,016
-162,023	772,564	0,069	0,135
-161,008	-200,000	0,012	-0,045
-159,993	58,335	-0,050	-0,035
-158,979	495,216	0,095	-0,156
-157,964	148,177	-0,022	-0,022
-156,950	-39,319	-0,057	-0,021
-155,935	-200,000	0,000	-0,070
-154,920	-141,779	-0,103	0,007
-153,906	165,157	0,086	0,087
-152,891	152,114	-0,042	0,041
-151,877	433,226	0,043	0,067
-150,862	-200,000	-0,004	-0,128
-149,847	-4,618	-0,119	0,058
-148,833	-200,000	0,012	-0,065
-147,818	701,678	0,010	0,018
-146,804	-135,933	-0,101	-0,008
-145,789	239,090	-0,053	-0,063
-144,775	477,764	0,073	-0,119
-143,760	135,244	-0,164	-0,152
-142,745	175,684	0,062	-0,064
-141,731	800,000	0,057	-0,170
-140,716	800,000	0,046	-0,091
-139,702	16,382	0,012	-0,007
-138,687	79,012	0,080	0,061
-137,672	-2,084	-0,034	-0,017
-136,658	-98,776	0,124	0,022
-135,643	255,578	-0,028	-0,034
-134,629	76,450	0,166	-0,125
-133,614	288,550	0,124	-0,160
-132,599	-200,000	0,002	0,007
-131,585	459,930	0,032	0,051
-130,570	386,118	-0,027	0,040
-129,556	-128,014	-0,123	-0,012
-128,541	-200,000	-0,009	-0,041
-127,526	-100,266	-0,087	-0,015
-126,512	800,000	0,042	0,119
-125,497	-200,000	-0,011	0,058
-124,483	-103,431	0,070	-0,012
-123,468	-31,758	-0,074	0,030
-122,453	225,923	-0,083	0,096
-121,439	390,474	-0,044	-0,065
-120,424	-200,000	0,002	-0,081
-119,410	605,973	0,041	0,073
