DTS Sentinel unit serial number:	SN410029Multiplexer serial number:	ORYXHardware model number:	OX2-SRSoftware version number:	ORYX F/W v4,00 Oryx Data Collector v3.7.2.0data status	okinstallation	BH3 CH2differential loss correction	single-endedforward channel	channel 2reverse channel	N/Adate	2023/12/05time	14:27:28forward acquisition time	300,00reverse acquisition time	0,00gamma	499,1914k internal	0,3193k external	0,3193temperature offset calibration	1,0000default loss term (dB/km)	0,3820temperature slope calibration	1,0000multiplexer offset coefficient	1,0000multiplexer slope coefficient	1,0000fibre end	0,00T internal ref (°C)	10,84T ext. ref 1 (°C)	-3,25T ext. ref 2 (°C)	-3,37length (m)	temperature (°C)	Stokes	anti-Stokes-744,400	-200,000	-0,043	-0,180
-743,385	454,538	-0,154	0,250
-742,371	-200,000	0,006	0,021
-741,356	113,904	-0,208	0,185
-740,342	-59,101	-0,225	-0,070
-739,327	-18,783	-0,289	0,131
-738,312	166,905	-0,167	-0,173
-737,298	-10,885	-0,204	0,098
-736,283	-200,000	-0,022	-0,197
-735,269	73,310	-0,100	0,076
-734,254	-200,000	-0,025	-0,120
-733,239	28,304	-0,309	-0,190
-732,225	-200,000	0,029	-0,118
-731,210	-200,000	0,005	0,018
-730,196	291,572	-0,089	-0,119
-729,181	23,813	-0,099	0,060
-728,167	-200,000	-0,018	-0,098
-727,152	-110,339	-0,051	-0,008
-726,137	525,445	0,062	-0,107
-725,123	48,334	-0,054	-0,037
-724,108	287,660	-0,132	-0,174
-723,094	-61,671	-0,117	0,036
-722,079	800,000	-0,051	-0,130
-721,064	-69,036	-0,177	0,049
-720,050	-200,000	-0,037	0,138
-719,035	-94,297	0,104	-0,020
-718,021	-24,023	-0,117	-0,051
-717,006	18,975	-0,052	-0,030
-715,991	-62,765	-0,050	0,015
-714,977	-82,875	-0,119	0,028
-713,962	-100,507	-0,133	-0,024
-712,948	-200,000	0,004	0,022
-711,933	-200,000	-0,021	-0,133
-710,918	800,000	-0,018	0,048
-709,904	-81,881	-0,088	-0,021
-708,889	-21,962	-0,097	-0,043
-707,875	-92,825	0,144	-0,029
-706,860	368,951	-0,038	-0,057
-705,845	800,000	0,039	0,098
-704,831	302,986	0,027	-0,036
-703,816	66,561	-0,140	-0,104
-702,802	800,000	0,018	0,042
-701,787	42,224	-0,025	-0,016
-700,772	-56,817	0,035	-0,011
-699,758	208,705	-0,067	-0,077
-698,743	494,253	0,037	0,062
-697,729	50,990	0,091	-0,062
-696,714	73,799	0,086	0,065
-695,699	4,792	0,052	-0,028
-694,685	800,000	0,040	0,084
-693,670	639,419	-0,060	-0,111
-692,656	-200,000	0,007	-0,117
-691,641	-117,387	-0,137	0,018
-690,627	-23,990	0,123	0,053
-689,612	755,969	0,005	0,010
-688,597	-200,000	-0,009	-0,078
-687,583	-44,803	-0,073	-0,026
-686,568	-79,389	0,104	-0,025
-685,554	-91,600	0,043	-0,009
-684,539	-200,000	0,043	0,171
-683,524	0,817	0,115	0,060
-682,510	-200,000	-0,028	0,094
-681,495	-200,000	0,016	-0,126
-680,481	-143,707	-0,152	0,010
-679,466	-200,000	0,033	-0,136
-678,451	800,000	-0,029	0,087
-677,437	800,000	0,053	0,131
-676,422	-178,751	0,025	0,000
-675,408	56,049	0,039	0,028
-674,393	-149,458	-0,114	0,006
-673,378	-0,583	-0,081	0,041
-672,364	61,707	-0,087	-0,063
-671,349	-103,529	-0,117	0,020
-670,335	800,000	0,049	-0,135
-669,320	-200,000	-0,003	0,018
-668,305	-0,796	-0,058	0,030
-667,291	-37,749	0,060	-0,023
-666,276	800,000	-0,055	0,127
-665,262	129,698	-0,058	0,054
-664,247	242,496	0,051	-0,062
-663,232	214,306	-0,033	-0,038
-662,218	800,000	0,010	-0,024
-661,203	527,215	-0,103	0,176
-660,189	-200,000	-0,003	0,082
-659,174	-200,000	0,045	-0,215
-658,159	800,000	-0,033	0,084
-657,145	-136,760	-0,090	-0,007
-656,130	485,274	-0,060	-0,100
-655,116	643,600	-0,052	0,096
-654,101	-86,222	0,124	-0,027
-653,086	-56,325	-0,088	0,028
-652,072	800,000	0,049	0,114
-651,057	-139,995	0,088	0,007
-650,043	240,916	-0,108	-0,131
-649,028	-152,517	-0,046	-0,002
-648,014	-125,882	0,059	0,006
-646,999	-102,111	-0,084	0,015
-645,984	13,548	0,028	-0,016
-644,970	-171,557	-0,035	-0,001
-643,955	-200,000	-0,026	-0,169
-642,941	-200,000	0,016	-0,064
-641,926	187,633	0,037	-0,040
-640,911	-38,126	-0,047	-0,018
-639,897	800,000	0,020	0,051
-638,882	-200,000	-0,001	-0,028
-637,868	-200,000	-0,011	0,079
-636,853	-200,000	-0,002	-0,177
-635,838	-200,000	-0,002	-0,063
-634,824	12,248	0,043	-0,024
-633,809	-142,863	-0,051	0,004
-632,795	-200,000	0,003	-0,015
-631,780	-23,123	-0,088	0,038
-630,765	-200,000	0,001	-0,120
-629,751	-200,000	0,010	-0,088
-628,736	-44,843	-0,057	-0,020
-627,722	-200,000	-0,128	-0,000
-626,707	187,905	-0,068	-0,073
-625,692	-200,000	-0,034	0,139
-624,678	-200,000	0,011	0,040
-623,663	48,880	-0,109	-0,074
-622,649	-200,000	-0,018	-0,083
-621,634	2,417	-0,088	0,046
-620,619	426,587	-0,041	-0,064
-619,605	-200,000	-0,004	-0,114
-618,590	-200,000	0,011	-0,071
-617,576	-200,000	-0,004	0,016
-616,561	-10,476	0,067	-0,032
-615,546	-65,519	0,094	0,027
-614,532	800,000	-0,024	-0,054
-613,517	114,344	-0,083	-0,073
-612,503	103,691	-0,041	-0,035
-611,488	101,105	-0,053	0,045
-610,474	419,384	0,018	-0,028
-609,459	268,433	-0,051	0,065
-608,444	17,173	-0,046	0,026
-607,430	-200,000	0,048	-0,159
-606,415	-45,494	-0,120	-0,043
-605,401	90,501	-0,109	-0,088
-604,386	-100,436	0,126	-0,022
-603,371	-58,897	0,103	-0,032
-602,357	-200,000	0,041	-0,226
-601,342	554,180	0,031	-0,053
-600,328	82,819	0,066	-0,052
-599,313	81,709	0,059	0,046
-598,298	533,327	-0,027	0,046
-597,284	-5,501	-0,058	0,029
-596,269	-42,568	0,057	-0,021
-595,255	-200,000	-0,012	-0,094
-594,240	-107,684	-0,095	0,015
-593,225	258,699	0,098	-0,123
-592,211	-57,078	-0,190	-0,060
-591,196	-200,000	0,013	-0,099
-590,182	196,445	-0,061	0,067
-589,167	-200,000	0,023	0,133
-588,152	186,717	0,138	-0,149
-587,138	-181,089	-0,147	-0,002
-586,123	-78,036	-0,064	-0,016
-585,109	83,596	-0,055	-0,043
-584,094	-200,000	-0,026	-0,215
-583,079	432,188	0,069	0,108
-582,065	13,986	0,077	0,043
-581,050	-200,000	0,024	-0,099
-580,036	100,222	-0,082	-0,069
-579,021	-200,000	0,004	-0,036
-578,006	-200,000	-0,008	-0,066
-576,992	-200,000	0,003	-0,055
-575,977	195,962	0,122	-0,135
-574,963	-200,000	-0,021	0,078
-573,948	800,000	0,044	0,095
-572,934	-200,000	0,003	0,082
-571,919	359,743	-0,097	-0,141
-570,904	800,000	-0,051	-0,104
-569,890	13,995	0,055	-0,031
-568,875	-99,009	0,034	0,006
-567,861	66,557	0,004	-0,003
-566,846	800,000	-0,030	0,069
-565,831	-146,604	0,206	0,013
-564,817	-200,000	0,008	0,057
-563,802	-177,751	-0,087	-0,001
-562,788	800,000	-0,058	-0,147
-561,773	349,413	0,010	0,015
-560,758	-200,000	-0,001	-0,029
-559,744	-200,000	-0,028	0,185
-558,729	774,084	0,064	-0,127
-557,715	-200,000	-0,014	-0,066
-556,700	505,476	0,045	-0,075
-555,685	-200,000	0,020	0,076
-554,671	800,000	0,024	0,063
-553,656	-47,928	0,148	-0,052
-552,642	-61,935	0,041	-0,012
-551,627	-108,363	-0,074	-0,011
-550,612	800,000	0,007	0,019
-549,598	-77,887	-0,118	-0,029
-548,583	-200,000	-0,019	-0,070
-547,569	-1,878	-0,069	0,035
-546,554	391,262	0,072	0,108
-545,539	372,463	-0,026	0,038
-544,525	-200,000	0,037	-0,142
-543,510	-134,472	0,072	0,006
-542,496	-13,877	-0,026	-0,012
-541,481	111,204	0,107	-0,093
-540,466	-45,643	-0,042	0,015
-539,452	-65,724	-0,025	-0,007
-538,437	740,353	0,037	0,073
-537,423	-111,306	-0,070	0,010
-536,408	-82,059	0,064	0,015
-535,393	-96,293	0,068	0,013
-534,379	139,206	-0,107	-0,102
-533,364	-200,000	0,015	0,048
-532,350	169,142	-0,088	0,091
-531,335	-166,956	-0,073	-0,002
-530,321	377,134	0,064	0,095
-529,306	-40,262	0,025	-0,009
-528,291	252,581	-0,082	-0,101
-527,277	-112,343	0,014	-0,002
-526,262	-200,000	-0,016	0,109
-525,248	408,823	-0,063	0,096
-524,233	251,161	0,143	0,176
-523,218	-197,726	-0,185	0,001
-522,204	-64,088	0,111	0,033
-521,189	-6,888	-0,041	-0,020
-520,175	431,276	0,090	-0,141
-519,160	-200,000	0,019	-0,170
-518,145	-200,000	0,012	-0,041
-517,131	-153,526	-0,045	-0,002
-516,116	-157,827	0,141	0,006
-515,102	36,945	-0,017	-0,011
-514,087	-138,839	-0,081	-0,006
-513,072	746,618	0,047	-0,093
-512,058	-70,530	0,069	-0,019
-511,043	111,901	-0,120	-0,105
-510,029	110,127	-0,060	-0,052
-509,014	-200,000	-0,016	-0,102
-507,999	-30,569	-0,081	0,033
-506,985	-200,000	0,034	0,135
-505,970	60,390	-0,071	0,051
-504,956	780,279	0,042	-0,084
-503,941	53,951	0,055	-0,038
-502,926	138,309	0,131	0,124
-501,912	109,668	0,122	0,106
-500,897	208,796	0,024	0,027
-499,883	74,422	0,100	0,076
-498,868	-200,000	-0,010	0,057
-497,853	124,916	-0,059	0,054
-496,839	-200,000	-0,031	0,122
-495,824	-200,000	-0,023	-0,102
-494,810	380,453	-0,075	0,111
-493,795	-200,000	0,017	0,131
-492,781	-110,535	0,100	-0,015
-491,766	693,944	0,049	-0,093
-490,751	200,082	0,099	-0,110
-489,737	59,451	-0,096	0,068
-488,722	-107,254	-0,048	-0,008
-487,708	-68,462	0,079	0,022
-486,693	707,341	-0,041	0,079
-485,678	22,274	-0,050	-0,030
-484,664	-98,711	-0,031	-0,006
-483,649	99,740	-0,130	-0,109
-482,635	254,557	0,066	0,082
-481,620	135,601	0,142	-0,133
-480,605	-71,444	0,121	0,032
-479,591	-200,000	-0,004	0,140
-478,576	182,695	-0,093	-0,099
-477,562	-200,000	0,001	-0,060
-476,547	-200,000	-0,003	-0,053
-475,532	-126,049	0,104	0,011
-474,518	-200,000	0,010	-0,100
-473,503	-58,489	-0,034	0,011
-472,489	-93,970	-0,072	0,014
-471,474	264,423	0,054	-0,068
-470,459	-84,735	0,025	-0,006
-469,445	-200,000	-0,001	-0,022
-468,430	36,421	-0,077	0,049
-467,416	-103,743	-0,063	-0,011
-466,401	148,936	-0,031	0,031
-465,386	398,449	0,038	-0,057
-464,372	89,926	0,074	0,060
-463,357	-25,167	-0,158	-0,067
-462,343	-200,000	0,018	-0,150
-461,328	-200,000	-0,010	-0,099
-460,313	-63,454	0,064	-0,019
-459,299	-54,256	-0,044	-0,014
-458,284	800,000	0,058	-0,150
-457,270	800,000	0,050	0,123
-456,255	-106,289	0,076	0,012
-455,241	92,785	0,086	0,070
-454,226	-69,407	-0,058	0,016
-453,211	-200,000	-0,022	0,105
-452,197	443,150	-0,056	0,089
-451,182	83,919	0,067	0,052
-450,168	21,114	0,061	-0,035
-449,153	-200,000	-0,007	0,040
-448,138	7,586	0,034	-0,018
-447,124	157,329	-0,070	0,070
-446,109	111,396	-0,028	0,024
-445,095	-38,253	-0,074	0,028
-444,080	7,554	0,052	-0,028
-443,065	92,463	0,033	-0,027
-442,051	13,528	-0,017	0,010
-441,036	-66,915	0,067	0,019
-440,022	-200,000	-0,004	0,054
-439,007	84,881	0,067	-0,053
-437,992	93,773	-0,014	-0,011
-436,978	74,276	-0,042	-0,031
-435,963	-200,000	0,002	-0,136
-434,949	-117,500	0,137	-0,018
-433,934	457,052	0,061	-0,098
-432,919	-63,266	-0,159	0,047
-431,905	800,000	0,039	0,107
-430,890	162,351	0,024	-0,024
-429,876	-137,944	0,214	-0,017
-428,861	-93,206	-0,029	0,006
-427,846	-200,000	-0,033	-0,188
-426,832	317,385	-0,049	-0,067
-425,817	-200,000	-0,011	-0,131
-424,803	-200,000	-0,021	-0,260
-423,788	132,869	0,077	-0,071
-422,773	-200,000	0,023	0,090
-421,759	-200,000	0,000	0,059
-420,744	90,782	0,067	-0,054
-419,730	800,000	-0,012	-0,036
-418,715	82,405	-0,101	-0,079
-417,701	-200,000	-0,001	0,051
-416,686	66,420	-0,074	-0,054
-415,671	-200,000	0,004	-0,085
-414,657	-110,139	0,031	-0,005
-413,642	216,917	0,099	-0,113
-412,628	-200,000	0,022	0,097
-411,613	-105,822	-0,110	0,018
-410,598	-12,628	0,046	-0,021
-409,584	9,175	0,162	0,088
-408,569	342,224	-0,048	0,067
-407,555	-200,000	-0,013	0,103
-406,540	800,000	0,043	0,090
-405,525	139,290	-0,092	0,087
-404,511	67,339	-0,068	0,050
-403,496	-23,654	-0,127	0,055
-402,482	81,534	-0,042	0,033
-401,467	800,000	0,028	0,076
-400,452	107,600	-0,063	0,054
-399,438	578,196	0,021	0,038
-398,423	-49,507	-0,161	0,055
-397,409	-200,000	0,035	-0,125
-396,394	617,684	0,011	0,020
-395,379	29,130	0,078	-0,048
-394,365	-113,564	0,145	-0,020
-393,350	444,806	0,078	0,123
-392,336	179,777	0,045	0,048
-391,321	213,091	0,054	0,061
-390,306	134,103	-0,040	-0,037
-389,292	280,675	-0,090	0,116
-388,277	198,496	-0,039	-0,043
-387,263	800,000	0,040	0,084
-386,248	45,429	0,104	0,069
-385,233	-200,000	-0,024	0,112
-384,219	-200,000	0,007	0,023
-383,204	-37,928	-0,117	0,044
-382,190	87,150	-0,101	0,081
-381,175	-85,195	-0,105	0,023
-380,160	178,480	0,081	0,085
-379,146	90,823	0,124	0,100
-378,131	184,316	-0,090	0,096
-377,117	89,693	0,075	-0,060
-376,102	182,001	-0,045	-0,048
-375,088	360,515	-0,067	-0,097
-374,073	-49,594	-0,043	0,015
-373,058	74,188	0,022	0,017
-372,044	-200,000	0,005	-0,035
-371,029	800,000	0,057	0,118
-370,015	-200,000	-0,034	0,117
-369,000	24,594	0,088	-0,052
-367,985	800,000	-0,014	0,031
-366,971	183,647	0,015	0,016
-365,956	211,854	-0,015	-0,017
-364,942	165,948	0,102	0,104
-363,927	800,000	0,043	0,126
-362,912	470,555	0,070	0,114
-361,898	545,510	-0,067	-0,115
-360,883	-200,000	0,004	-0,030
-359,869	230,460	-0,076	-0,089
-358,854	192,696	-0,008	-0,009
-357,839	-18,760	-0,103	-0,046
-356,825	-200,000	-0,004	0,040
-355,810	800,000	0,044	0,107
-354,796	71,010	0,085	0,063
-353,781	-200,000	-0,001	-0,030
-352,766	-109,649	0,062	-0,009
-351,752	185,833	-0,047	0,050
-350,737	489,090	0,023	0,037
-349,723	442,852	0,041	0,064
-348,708	210,611	0,101	0,114
-347,693	-75,712	0,074	-0,019
-346,679	-130,948	-0,076	-0,007
-345,664	800,000	-0,024	-0,052
-344,650	-200,000	0,011	0,146
-343,635	-200,000	-0,016	0,051
-342,620	-200,000	-0,014	0,242
-341,606	223,219	-0,075	0,087
-340,591	96,689	-0,063	0,052
-339,577	540,550	0,074	-0,127
-338,562	-200,000	-0,002	0,010
-337,548	339,487	-0,071	0,100
-336,533	371,503	-0,053	0,077
-335,518	357,979	0,101	0,145
-334,504	-15,580	-0,076	-0,035
-333,489	-98,583	-0,038	-0,007
-332,475	-200,000	-0,017	-0,218
-331,460	85,328	-0,033	0,026
-330,445	800,000	-0,038	0,095
-329,431	115,487	0,038	-0,033
-328,416	-112,749	0,135	0,019
-327,402	-78,975	0,068	0,016
-326,387	-36,214	-0,140	0,054
-325,372	468,283	0,065	-0,104
-324,358	-145,537	-0,122	0,008
-323,343	149,962	-0,030	0,029
-322,329	-49,565	-0,101	0,034
-321,314	58,705	0,087	-0,061
-320,299	152,134	-0,034	-0,033
-319,285	494,895	-0,048	-0,079
-318,270	107,755	0,101	0,086
-317,256	-85,629	0,067	-0,015
-316,241	222,182	0,069	-0,079
-315,226	393,302	-0,053	-0,079
-314,212	106,620	0,068	-0,058
-313,197	-28,260	0,091	-0,037
-312,183	114,925	0,080	-0,070
-311,168	562,910	0,043	0,074
-310,153	29,324	0,104	-0,063
-309,139	-200,000	-0,005	0,065
-308,124	800,000	-0,022	-0,047
-307,110	-200,000	-0,042	0,158
-306,095	-200,000	-0,016	0,076
-305,080	47,139	0,056	0,037
-304,066	152,735	-0,079	-0,077
-303,051	-160,592	0,113	-0,004
-302,037	-78,472	-0,080	0,020
-301,022	118,193	-0,024	-0,021
-300,008	-107,895	0,210	-0,032
-298,993	-200,000	-0,019	0,099
-297,978	16,897	-0,048	0,027
-296,964	-109,489	-0,186	0,028
-295,949	118,851	-0,123	-0,109
-294,935	800,000	0,031	-0,088
-293,920	190,291	-0,023	-0,025
-292,905	-200,000	0,043	-0,159
-291,891	800,000	0,036	0,094
-290,876	22,690	0,108	0,063
-289,862	592,597	0,045	0,080
-288,847	-198,655	-0,078	0,000
-287,832	72,415	-0,063	0,047
-286,818	-65,038	-0,122	-0,035
-285,803	-41,992	-0,041	0,015
-284,789	136,506	-0,062	0,058
-283,774	-200,000	0,003	0,076
-282,759	39,443	-0,054	0,035
-281,745	-200,000	0,008	0,067
-280,730	255,232	-0,016	0,020
-279,716	-200,000	-0,036	0,136
-278,701	-141,839	0,132	-0,009
-277,686	-85,878	-0,017	-0,004
-276,672	282,820	0,113	0,145
-275,657	38,620	-0,086	0,055
-274,643	800,000	0,022	0,046
-273,628	207,174	0,032	0,035
-272,613	-200,000	0,009	-0,071
-271,599	341,427	0,039	-0,055
-270,584	3,469	0,029	0,015
-269,570	-200,000	0,028	-0,101
-268,555	180,798	-0,074	0,078
-267,540	-200,000	0,002	0,019
-266,526	-41,942	-0,076	-0,028
-265,511	800,000	0,019	-0,040
-264,497	37,641	-0,172	-0,109
-263,482	-47,584	-0,085	-0,029
-262,467	16,334	0,106	-0,060
-261,453	636,947	-0,055	0,101
-260,438	-200,000	-0,028	-0,194
-259,424	778,447	-0,095	-0,187
-258,409	-100,720	-0,099	-0,017
-257,395	12,765	-0,124	-0,068
-256,380	67,260	0,083	-0,061
-255,365	4,485	0,100	0,053
-254,351	52,998	0,036	-0,025
-253,336	-7,608	0,087	-0,042
-252,322	146,893	0,037	0,036
-251,307	-200,000	-0,009	-0,131
-250,292	-83,184	0,031	-0,007
-249,278	-200,000	-0,003	0,091
-248,263	725,340	-0,031	0,060
-247,249	301,822	-0,063	0,083
-246,234	266,795	-0,026	0,032
-245,219	359,645	-0,047	-0,068
-244,205	101,180	-0,035	-0,029
-243,190	-200,000	0,016	0,089
-242,176	800,000	0,038	-0,092
-241,161	800,000	0,095	0,194
-240,146	800,000	0,029	0,078
-239,132	-200,000	0,012	-0,101
-238,117	-99,745	-0,085	0,015
-237,103	221,790	-0,055	-0,064
-236,088	-200,000	0,010	0,084
-235,073	-24,655	0,132	0,056
-234,059	-200,000	-0,010	0,097
-233,044	-39,969	0,069	0,026
-232,030	-63,854	-0,055	0,016
-231,015	-178,436	-0,088	0,001
-230,000	-200,000	0,016	0,142
-228,986	145,274	0,085	-0,081
-227,971	-8,201	-0,051	0,025
-226,957	162,882	0,070	0,070
-225,942	208,311	0,060	0,067
-224,927	-81,719	-0,187	0,043
-223,913	-200,000	0,003	-0,047
-222,898	-200,000	-0,003	0,054
-221,884	800,000	-0,005	-0,014
-220,869	800,000	0,075	0,154
-219,855	577,162	0,061	0,107
-218,840	-6,003	-0,084	0,041
-217,825	317,642	-0,037	-0,050
-216,811	-200,000	-0,007	-0,024
-215,796	-82,673	0,042	-0,010
-214,782	66,858	0,037	-0,027
-213,767	189,891	-0,087	0,093
-212,752	-200,000	-0,000	0,137
-211,738	800,000	0,040	0,111
-210,723	185,133	-0,100	-0,106
-209,709	149,173	0,026	0,025
-208,694	573,223	-0,013	0,023
-207,679	31,799	-0,020	-0,012
-206,665	13,684	0,129	0,071
-205,650	515,796	0,074	0,124
-204,636	800,000	0,020	-0,061
-203,621	-174,639	0,021	0,000
-202,606	177,964	-0,074	0,077
-201,592	800,000	0,055	-0,146
-200,577	-200,000	0,006	0,052
-199,563	-56,832	0,099	-0,031
-198,548	34,304	0,093	0,057
-197,533	586,164	0,042	0,074
-196,519	435,889	0,056	0,087
-195,504	414,481	-0,059	-0,090
-194,490	800,000	-0,004	0,008
-193,475	519,417	0,101	-0,170
-192,460	-130,564	0,137	0,013
-191,446	-11,989	0,092	-0,043
-190,431	800,000	-0,080	0,191
-189,417	273,928	-0,100	-0,126
-188,402	-200,000	0,002	-0,192
-187,387	-200,000	0,030	-0,112
-186,373	373,892	-0,050	0,072
-185,358	31,484	-0,041	-0,025
-184,344	581,107	0,034	-0,059
-183,329	-200,000	-0,001	-0,135
-182,315	800,000	-0,035	0,105
-181,300	-170,725	0,041	-0,001
-180,285	-142,669	-0,062	0,004
-179,271	17,372	-0,079	0,045
-178,256	-98,841	-0,060	0,011
-177,242	493,418	-0,058	0,096
-176,227	19,826	0,095	0,055
-175,212	111,817	0,128	-0,110
-174,198	12,529	-0,049	0,027
-173,183	-200,000	-0,003	-0,029
-172,169	-70,693	-0,167	-0,045
-171,154	233,207	0,052	-0,061
-170,139	-39,529	-0,057	0,021
-169,125	-200,000	0,003	0,045
-168,110	800,000	0,063	-0,131
-167,096	800,000	-0,005	-0,010
-166,081	280,615	-0,034	-0,044
-165,066	-73,528	0,068	0,017
-164,052	96,835	0,058	-0,047
-163,037	-200,000	-0,035	0,172
-162,023	77,878	-0,073	0,055
-161,008	165,978	0,045	0,046
-159,993	-200,000	0,001	0,038
-158,979	43,910	-0,031	-0,020
-157,964	287,408	-0,047	-0,061
-156,950	800,000	-0,049	-0,104
-155,935	800,000	0,008	-0,027
-154,920	800,000	0,049	0,101
-153,906	-200,000	-0,004	0,069
-152,891	-200,000	-0,004	0,013
-151,877	-76,205	-0,065	-0,016
-150,862	585,213	0,043	-0,075
-149,847	-200,000	-0,005	-0,155
-148,833	100,056	-0,071	0,059
-147,818	-200,000	0,008	-0,089
-146,804	-200,000	-0,015	0,173
-145,789	232,027	-0,066	0,077
-144,775	-200,000	0,017	-0,097
-143,760	474,131	-0,035	-0,057
-142,745	108,722	0,075	0,064
-141,731	24,919	0,062	0,037
-140,716	158,881	0,029	-0,028
-139,702	-89,158	0,083	-0,017
-138,687	223,406	-0,054	0,062
-137,672	-200,000	-0,030	-0,101
-136,658	15,922	0,106	-0,059
-135,643	-7,507	-0,100	-0,048
-134,629	150,046	-0,067	-0,065
-133,614	-200,000	0,007	0,079
-132,599	-42,661	0,052	-0,019
-131,585	-4,510	0,023	-0,011
-130,570	-37,948	0,052	-0,019
-129,556	-189,012	0,100	-0,001
-128,541	-61,868	0,057	-0,017
-127,526	800,000	0,050	0,117
-126,512	-96,522	-0,067	0,013
-125,497	-200,000	-0,002	0,067
-124,483	85,641	0,113	0,088
-123,468	405,544	0,033	0,050
-122,453	29,850	0,011	-0,007
-121,439	800,000	-0,043	-0,090
-120,424	18,194	0,053	-0,030
-119,410	135,822	-0,119	-0,110
