DTS Sentinel unit serial number:	SN410029Multiplexer serial number:	ORYXHardware model number:	OX2-SRSoftware version number:	ORYX F/W v4,00 Oryx Data Collector v3.7.2.0data status	okinstallation	BH3 CH2differential loss correction	single-endedforward channel	channel 2reverse channel	N/Adate	2023/12/05time	14:47:28forward acquisition time	300,00reverse acquisition time	0,00gamma	499,1914k internal	0,3193k external	0,3193temperature offset calibration	1,0000default loss term (dB/km)	0,3820temperature slope calibration	1,0000multiplexer offset coefficient	1,0000multiplexer slope coefficient	1,0000fibre end	0,00T internal ref (°C)	10,92T ext. ref 1 (°C)	-3,25T ext. ref 2 (°C)	-3,35length (m)	temperature (°C)	Stokes	anti-Stokes-744,400	800,000	-0,028	-0,066
-743,385	36,025	-0,272	0,174
-742,371	502,707	0,081	-0,137
-741,356	88,909	-0,170	0,138
-740,342	416,300	-0,088	-0,138
-739,327	800,000	-0,081	0,168
-738,312	436,540	-0,057	-0,092
-737,298	-136,890	-0,267	0,022
-736,283	-99,419	0,084	-0,015
-735,269	-142,042	-0,230	0,016
-734,254	646,224	-0,032	-0,060
-733,239	-56,524	-0,445	-0,143
-732,225	-200,000	0,034	-0,118
-731,210	221,081	0,019	0,022
-730,196	-200,000	0,008	-0,120
-729,181	800,000	0,010	-0,025
-728,167	-81,604	-0,056	-0,013
-727,152	86,975	-0,129	-0,104
-726,137	-200,000	0,018	-0,108
-725,123	18,083	-0,102	0,059
-724,108	800,000	-0,051	-0,139
-723,094	800,000	-0,044	-0,129
-722,079	-13,468	0,057	-0,027
-721,064	-200,000	-0,018	-0,078
-720,050	-117,961	0,074	-0,010
-719,035	800,000	0,014	-0,041
-718,021	156,988	-0,150	-0,151
-717,006	-39,662	-0,127	-0,048
-715,991	45,943	-0,177	-0,119
-714,977	-200,000	-0,072	-0,236
-713,962	43,884	-0,053	-0,035
-712,948	800,000	0,030	0,065
-711,933	110,846	0,137	-0,120
-710,918	-200,000	-0,036	0,119
-709,904	-73,391	-0,095	-0,025
-708,889	-200,000	0,056	-0,211
-707,875	-200,000	0,005	-0,037
-706,860	364,783	0,007	-0,010
-705,845	28,921	0,143	0,088
-704,831	800,000	0,034	-0,091
-703,816	-200,000	-0,048	0,161
-702,802	17,011	-0,065	-0,037
-701,787	112,029	0,069	-0,061
-700,772	-50,747	-0,059	-0,020
-699,758	-107,314	0,079	0,013
-698,743	-21,451	-0,052	-0,023
-697,729	87,774	-0,051	-0,041
-696,714	-200,000	0,009	-0,085
-695,699	-88,644	-0,104	0,022
-694,685	-22,866	-0,155	-0,068
-693,670	-200,000	-0,001	-0,116
-692,656	37,261	0,068	-0,044
-691,641	800,000	0,010	0,023
-690,627	800,000	0,031	-0,066
-689,612	-2,855	-0,082	0,041
-688,597	800,000	0,008	-0,018
-687,583	-54,904	-0,095	-0,031
-686,568	-173,873	0,017	0,000
-685,554	219,644	0,158	-0,185
-684,539	439,045	0,042	0,067
-683,524	455,533	-0,019	0,031
-682,510	9,563	-0,026	-0,015
-681,495	216,553	0,118	-0,136
-680,481	356,103	-0,134	-0,195
-679,466	-37,878	-0,066	-0,025
-678,451	186,433	-0,077	0,083
-677,437	-72,504	-0,078	0,021
-676,422	-200,000	0,017	0,196
-675,408	19,920	0,120	0,070
-674,393	58,318	-0,040	-0,029
-673,378	118,638	-0,086	0,077
-672,364	378,126	0,039	0,059
-671,349	800,000	-0,004	0,012
-670,335	16,543	-0,069	0,040
-669,320	258,343	0,094	-0,118
-668,305	-186,028	-0,130	-0,001
-667,291	800,000	0,053	-0,113
-666,276	419,333	-0,053	-0,083
-665,262	283,258	-0,040	-0,052
-664,247	-200,000	-0,016	0,124
-663,232	-177,042	0,129	0,002
-662,218	800,000	-0,041	-0,084
-661,203	800,000	0,013	0,028
-660,189	-200,000	-0,019	0,089
-659,174	-151,995	-0,163	-0,009
-658,159	-29,421	0,085	0,035
-657,145	-200,000	0,021	-0,234
-656,130	-150,600	-0,090	-0,005
-655,116	-47,795	0,092	-0,032
-654,101	-200,000	-0,005	-0,122
-653,086	-200,000	0,034	-0,151
-652,072	800,000	0,017	-0,050
-651,057	-161,075	-0,182	-0,007
-650,043	800,000	0,037	-0,098
-649,028	800,000	-0,018	0,043
-648,014	223,440	-0,092	-0,108
-646,999	-200,000	0,008	0,085
-645,984	-200,000	0,028	0,106
-644,970	762,106	0,012	0,024
-643,955	28,002	-0,112	-0,069
-642,941	800,000	-0,082	-0,188
-641,926	800,000	-0,053	-0,160
-640,911	638,042	-0,014	0,026
-639,897	87,864	0,090	0,072
-638,882	246,490	-0,051	-0,063
-637,868	27,932	-0,110	-0,067
-636,853	-200,000	-0,032	-0,124
-635,838	39,045	-0,007	0,005
-634,824	800,000	-0,036	-0,091
-633,809	-6,331	0,094	0,046
-632,795	160,421	-0,092	-0,093
-631,780	289,390	-0,056	-0,073
-630,765	673,252	-0,048	0,091
-629,751	30,896	0,082	-0,051
-628,736	-5,102	-0,063	-0,032
-627,722	-200,000	0,005	0,152
-626,707	235,878	-0,076	0,091
-625,692	800,000	0,021	0,068
-624,678	-200,000	0,001	0,113
-623,663	-136,338	-0,019	-0,002
-622,649	-200,000	0,036	0,125
-621,634	-195,325	-0,094	-0,000
-620,619	-74,099	-0,006	0,002
-619,605	-166,963	0,050	-0,001
-618,590	-144,704	0,144	-0,009
-617,576	117,789	0,071	0,064
-616,561	-32,523	-0,142	-0,057
-615,546	-200,000	-0,001	0,003
-614,532	91,639	0,057	-0,047
-613,517	-200,000	0,011	0,090
-612,503	-91,892	0,118	0,024
-611,488	-130,259	0,089	-0,009
-610,474	-129,903	-0,109	-0,011
-609,459	328,359	-0,012	0,017
-608,444	448,328	0,037	-0,059
-607,430	154,611	0,053	0,053
-606,415	-49,505	-0,123	-0,042
-605,401	112,438	-0,070	-0,061
-604,386	-139,110	-0,034	0,003
-603,371	344,147	-0,038	0,054
-602,357	-157,538	0,136	-0,006
-601,342	-111,173	-0,105	-0,015
-600,328	63,362	0,032	0,023
-599,313	460,237	-0,113	-0,184
-598,298	-200,000	-0,016	-0,060
-597,284	-200,000	-0,001	0,087
-596,269	-200,000	0,006	0,099
-595,255	-112,604	0,098	0,014
-594,240	800,000	-0,027	-0,062
-593,225	-200,000	0,036	-0,152
-592,211	-124,522	0,152	-0,017
-591,196	800,000	-0,031	0,082
-590,182	126,308	0,058	0,053
-589,167	158,613	0,038	0,038
-588,152	-159,670	-0,116	0,005
-587,138	197,540	-0,120	-0,133
-586,123	352,857	-0,039	-0,056
-585,109	-11,469	-0,133	-0,063
-584,094	-67,335	-0,121	-0,034
-583,079	-93,335	0,084	-0,017
-582,065	-37,442	0,101	0,039
-581,050	-200,000	0,014	0,064
-580,036	38,454	-0,080	-0,051
-579,021	-199,523	-0,047	-0,000
-578,006	84,546	-0,017	-0,013
-576,992	-4,672	0,084	-0,042
-575,977	281,977	0,078	0,101
-574,963	-200,000	-0,035	0,115
-573,948	298,845	0,049	0,065
-572,934	140,989	-0,045	-0,043
-571,919	800,000	-0,026	0,078
-570,904	-200,000	-0,003	-0,015
-569,890	-58,637	0,044	0,014
-568,875	112,152	0,062	-0,054
-567,861	20,098	-0,062	-0,036
-566,846	6,785	0,055	-0,030
-565,831	52,912	-0,094	0,065
-564,817	331,495	0,057	0,080
-563,802	-42,812	-0,132	-0,048
-562,788	-31,241	-0,055	0,022
-561,773	-200,000	0,012	-0,093
-560,758	-87,927	0,041	-0,009
-559,744	159,451	0,074	0,075
-558,729	-200,000	-0,012	0,067
-557,715	36,057	-0,016	0,010
-556,700	482,560	0,040	0,066
-555,685	757,488	0,018	0,036
-554,671	679,758	-0,029	-0,054
-553,656	-24,814	0,108	-0,046
-552,642	-151,100	-0,102	-0,005
-551,627	-200,000	0,019	0,094
-550,612	-98,971	-0,085	0,015
-549,598	-98,679	-0,145	0,027
-548,583	22,236	-0,096	0,057
-547,569	800,000	0,038	0,113
-546,554	-200,000	-0,008	0,038
-545,539	117,231	0,141	0,125
-544,525	448,164	-0,035	0,056
-543,510	-79,467	-0,079	0,019
-542,496	-67,903	-0,105	-0,029
-541,481	571,507	-0,088	-0,155
-540,466	800,000	-0,065	-0,163
-539,452	371,200	-0,035	-0,051
-538,437	-24,147	0,029	0,012
-537,423	178,894	-0,074	0,078
-536,408	-30,995	0,031	0,012
-535,393	299,159	0,019	0,025
-534,379	299,698	-0,033	0,044
-533,364	-58,050	0,136	0,043
-532,350	225,316	0,043	0,050
-531,335	-200,000	0,016	-0,124
-530,321	54,768	-0,098	0,068
-529,306	112,614	0,022	-0,020
-528,291	800,000	-0,009	0,018
-527,277	-42,031	-0,058	-0,021
-526,262	-140,885	0,114	-0,008
-525,248	-108,689	-0,107	0,016
-524,233	800,000	-0,032	0,095
-523,218	-200,000	0,037	0,124
-522,204	-80,148	-0,104	0,025
-521,189	111,628	0,115	-0,101
-520,175	87,663	-0,040	-0,032
-519,160	-179,546	-0,064	0,001
-518,145	-156,706	-0,142	-0,006
-517,131	-200,000	-0,001	-0,095
-516,116	58,371	0,096	0,068
-515,102	346,580	0,046	-0,066
-514,087	-200,000	-0,011	-0,053
-513,072	-200,000	-0,010	0,180
-512,058	200,182	-0,111	-0,124
-511,043	800,000	-0,054	-0,141
-510,029	800,000	0,053	-0,106
-509,014	800,000	0,084	0,204
-507,999	34,720	0,091	-0,058
-506,985	-90,359	-0,063	-0,013
-505,970	-200,000	0,011	0,043
-504,956	800,000	-0,017	-0,051
-503,941	-112,822	-0,135	-0,019
-502,926	-200,000	-0,029	0,132
-501,912	-200,000	-0,005	0,101
-500,897	-200,000	0,005	0,087
-499,883	135,115	0,055	-0,052
-498,868	342,730	-0,056	-0,080
-497,853	6,190	0,041	0,022
-496,839	209,060	0,049	0,055
-495,824	8,309	0,044	-0,024
-494,810	-200,000	-0,010	0,047
-493,795	800,000	0,079	0,160
-492,781	-136,594	-0,026	-0,002
-491,766	81,563	0,035	-0,027
-490,751	-200,000	-0,026	-0,113
-489,737	-63,694	-0,187	0,055
-488,722	209,218	0,063	0,072
-487,708	157,329	0,115	0,115
-486,693	-49,062	-0,093	0,032
-485,678	-60,186	0,022	-0,007
-484,664	42,758	-0,076	-0,050
-483,649	81,601	0,074	0,058
-482,635	279,517	0,041	0,053
-481,620	8,877	-0,048	-0,026
-480,605	-33,897	-0,031	-0,012
-479,591	45,142	0,029	-0,019
-478,576	28,093	0,074	-0,045
-477,562	296,657	-0,039	-0,051
-476,547	-200,000	-0,004	0,050
-475,532	-76,093	0,080	0,020
-474,518	713,892	-0,005	0,009
-473,503	-112,772	0,064	-0,009
-472,489	800,000	0,007	0,022
-471,474	-25,349	0,053	-0,023
-470,459	-200,000	0,005	-0,016
-469,445	-200,000	0,001	-0,034
-468,430	72,396	0,044	0,033
-467,416	321,071	0,084	-0,116
-466,401	-173,807	0,107	-0,002
-465,386	-10,277	-0,060	-0,029
-464,372	65,745	0,115	-0,084
-463,357	-200,000	-0,027	-0,159
-462,343	220,671	-0,092	-0,106
-461,328	-4,852	-0,125	-0,062
-460,313	-200,000	0,006	-0,053
-459,299	37,701	0,070	-0,045
-458,284	800,000	0,041	0,106
-457,270	272,664	-0,074	0,094
-456,255	-200,000	0,009	-0,074
-455,241	-31,979	0,052	0,021
-454,226	-19,588	0,060	0,026
-453,211	119,506	-0,040	-0,035
-452,197	-101,056	-0,027	-0,005
-451,182	184,866	0,093	0,100
-450,168	-81,276	0,063	-0,015
-449,153	-34,641	-0,040	-0,016
-448,138	-128,657	0,065	-0,007
-447,124	-178,624	-0,111	-0,002
-446,109	-84,288	-0,057	-0,013
-445,095	-200,000	-0,011	0,107
-444,080	-200,000	-0,019	-0,064
-443,065	0,408	-0,045	0,023
-442,051	-155,987	0,126	0,006
-441,036	-45,772	0,011	0,004
-440,022	-47,964	0,086	-0,030
-439,007	800,000	-0,061	-0,192
-437,992	285,884	0,067	-0,087
-436,978	-200,000	-0,017	0,108
-435,963	-200,000	0,015	-0,080
-434,949	-111,381	0,093	0,014
-433,934	800,000	-0,054	-0,169
-432,919	274,060	-0,130	-0,166
-431,905	-5,245	0,017	-0,009
-430,890	-200,000	-0,005	0,087
-429,876	51,929	0,116	-0,079
-428,861	-144,878	0,105	0,007
-427,846	172,769	-0,047	-0,049
-426,832	305,757	0,025	0,034
-425,817	-200,000	0,009	-0,115
-424,803	800,000	0,027	-0,070
-423,788	-22,594	0,147	-0,064
-422,773	305,286	0,087	-0,116
-421,759	-200,000	-0,008	0,074
-420,744	71,966	0,072	-0,054
-419,730	-161,790	-0,208	0,007
-418,715	230,527	-0,035	-0,042
-417,701	800,000	-0,055	-0,133
-416,686	-48,150	-0,046	-0,016
-415,671	-200,000	0,006	0,092
-414,657	-200,000	0,039	0,126
-413,642	-200,000	0,001	-0,051
-412,628	3,558	-0,065	0,034
-411,613	-200,000	-0,015	-0,064
-410,598	800,000	-0,005	-0,016
-409,584	-150,138	-0,064	-0,004
-408,569	344,498	0,093	0,131
-407,555	-5,824	-0,101	0,049
-406,540	-200,000	-0,003	0,067
-405,525	800,000	0,019	0,047
-404,511	203,225	-0,069	-0,077
-403,496	-166,848	0,045	0,001
-402,482	98,913	-0,057	0,047
-401,467	-126,694	-0,061	0,006
-400,452	-200,000	0,009	-0,116
-399,438	800,000	0,052	-0,118
-398,423	800,000	0,031	-0,076
-397,409	-68,861	-0,089	-0,024
-396,394	-200,000	-0,003	0,078
-395,379	-200,000	-0,034	-0,114
-394,365	275,685	-0,027	0,034
-393,350	-41,199	0,018	-0,007
-392,336	69,451	0,086	0,064
-391,321	47,641	0,046	-0,031
-390,306	172,583	0,025	0,026
-389,292	-44,431	0,031	0,011
-388,277	164,865	0,059	-0,060
-387,263	-157,746	0,229	0,010
-386,248	390,973	-0,092	0,138
-385,233	800,000	0,027	-0,065
-384,219	12,058	0,100	0,055
-383,204	206,678	-0,057	-0,064
-382,190	-200,000	0,033	-0,107
-381,175	6,827	-0,174	0,093
-380,160	-80,259	0,093	0,022
-379,146	-65,487	-0,056	0,016
-378,131	-134,325	0,017	0,001
-377,117	642,812	0,039	0,071
-376,102	-187,730	-0,181	0,002
-375,088	-200,000	0,030	0,144
-374,073	727,451	-0,037	-0,072
-373,058	618,811	0,046	-0,083
-372,044	-48,530	-0,108	0,037
-371,029	315,392	0,091	0,124
-370,015	-200,000	0,006	-0,079
-369,000	800,000	0,056	-0,166
-367,985	-200,000	-0,010	-0,083
-366,971	-67,437	-0,212	0,060
-365,956	-46,250	0,075	-0,026
-364,942	-200,000	-0,022	0,101
-363,927	-200,000	0,014	-0,071
-362,912	-17,376	-0,067	0,030
-361,898	-200,000	-0,025	0,088
-360,883	-200,000	0,063	-0,246
-359,869	16,960	-0,128	0,073
-358,854	-200,000	-0,070	0,297
-357,839	-38,386	0,016	-0,006
-356,825	74,629	-0,023	0,017
-355,810	214,691	-0,048	0,054
-354,796	800,000	-0,007	0,018
-353,781	228,353	0,074	-0,087
-352,766	294,360	0,053	0,070
-351,752	11,106	-0,065	0,035
-350,737	-83,233	0,214	-0,049
-349,723	-200,000	-0,000	0,118
-348,708	-17,652	0,041	-0,018
-347,693	-200,000	-0,003	-0,052
-346,679	-117,891	-0,044	0,006
-345,664	-76,223	-0,096	-0,024
-344,650	308,867	-0,054	-0,073
-343,635	71,291	0,055	0,041
-342,620	673,859	-0,011	-0,021
-341,606	-132,656	0,087	0,008
-340,591	61,945	-0,056	-0,040
-339,577	196,253	0,143	-0,157
-338,562	-200,000	-0,033	-0,169
-337,548	321,375	-0,067	-0,091
-336,533	221,627	-0,035	0,041
-335,518	711,026	0,010	-0,019
-334,504	-65,819	-0,061	0,017
-333,489	418,244	0,076	0,117
-332,475	-46,108	-0,116	0,041
-331,460	78,447	-0,093	-0,071
-330,445	-155,948	-0,155	0,007
-329,431	12,565	0,048	0,026
-328,416	83,221	-0,050	0,039
-327,402	-200,000	0,011	0,115
-326,387	239,179	0,075	-0,090
-325,372	-8,528	0,067	-0,032
-324,358	82,384	0,051	0,040
-323,343	-196,772	-0,084	-0,000
-322,329	560,165	0,059	0,103
-321,314	798,927	0,030	-0,059
-320,299	-200,000	0,024	0,118
-319,285	362,438	-0,086	-0,124
-318,270	36,220	0,078	0,049
-317,256	6,750	-0,087	0,046
-316,241	512,717	0,057	-0,096
-315,226	-200,000	-0,016	0,056
-314,212	268,807	0,057	0,071
-313,197	800,000	0,027	0,057
-312,183	574,093	-0,033	-0,058
-311,168	-135,158	0,143	-0,012
-310,153	298,185	-0,025	-0,034
-309,139	583,605	0,028	0,049
-308,124	162,951	-0,051	-0,052
-307,110	60,521	-0,140	-0,099
-306,095	-129,988	0,097	0,009
-305,080	-200,000	0,018	-0,100
-304,066	-103,523	0,149	-0,025
-303,051	80,643	-0,108	0,083
-302,037	35,472	0,079	-0,049
-301,022	800,000	0,057	0,138
-300,008	120,466	0,063	0,056
-298,993	-200,000	-0,002	0,106
-297,978	-200,000	-0,021	0,210
-296,964	172,460	-0,039	0,040
-295,949	800,000	0,064	-0,133
-294,935	-19,174	-0,056	0,025
-293,920	197,938	0,104	-0,115
-292,905	265,119	0,136	0,170
-291,891	800,000	0,023	0,048
-290,876	-167,684	0,044	0,001
-289,862	-28,905	-0,055	-0,022
-288,847	5,561	0,085	-0,045
-287,832	-96,269	0,048	0,009
-286,818	800,000	-0,022	0,065
-285,803	127,404	-0,074	0,067
-284,789	91,467	-0,072	-0,058
-283,774	-95,027	0,031	-0,006
-282,759	-91,003	0,032	0,007
-281,745	-200,000	-0,000	-0,075
-280,730	-138,359	0,178	-0,014
-279,716	-17,185	-0,053	-0,024
-278,701	-200,000	0,003	-0,064
-277,686	-58,035	0,120	0,037
-276,672	65,008	-0,124	0,089
-275,657	-200,000	-0,001	0,095
-274,643	-200,000	0,010	-0,064
-273,628	116,522	-0,062	0,054
-272,613	800,000	0,039	-0,114
-271,599	-44,802	0,088	0,031
-270,584	56,474	-0,067	-0,047
-269,570	632,828	-0,076	0,138
-268,555	-200,000	-0,009	-0,047
-267,540	114,643	0,035	0,031
-266,526	800,000	-0,023	0,059
-265,511	-155,142	-0,059	0,003
-264,497	-200,000	0,018	-0,139
-263,482	40,378	0,089	-0,057
-262,467	172,656	-0,085	0,088
-261,453	54,040	0,071	0,049
-260,438	634,845	-0,039	0,071
-259,424	-61,715	-0,146	0,044
-258,409	-1,700	0,055	-0,028
-257,395	-16,903	0,061	-0,027
-256,380	134,955	0,039	-0,036
-255,365	-75,188	0,052	0,013
-254,351	-200,000	-0,011	-0,132
-253,336	126,499	-0,032	0,029
-252,322	-121,235	-0,165	-0,019
-251,307	303,264	-0,066	0,087
-250,292	-180,579	-0,011	0,000
-249,278	264,832	0,113	0,141
-248,263	200,342	0,103	0,113
-247,249	-137,736	0,090	0,007
-246,234	78,350	-0,036	-0,028
-245,219	800,000	-0,021	-0,047
-244,205	-200,000	-0,048	0,165
-243,190	800,000	0,016	-0,049
-242,176	332,320	-0,024	0,034
-241,161	-200,000	-0,001	-0,026
-240,146	800,000	0,032	0,093
-239,132	504,529	-0,037	0,061
-238,117	-21,205	-0,071	-0,031
-237,103	-24,085	-0,146	-0,062
-236,088	175,188	-0,061	-0,063
-235,073	265,522	0,058	0,073
-234,059	-200,000	-0,006	0,135
-233,044	-67,205	0,119	-0,033
-232,030	50,607	-0,056	0,038
-231,015	310,051	-0,046	-0,062
-230,000	62,506	0,051	0,036
-228,986	340,644	0,077	-0,108
-227,971	-144,983	-0,078	0,005
-226,957	-34,396	0,014	-0,005
-225,942	82,790	0,048	0,038
-224,927	36,709	-0,184	0,116
-223,913	-200,000	0,006	0,048
-222,898	171,895	-0,071	0,073
-221,884	57,963	-0,094	0,066
-220,869	18,909	0,180	0,102
-219,855	39,803	0,092	-0,059
-218,840	-200,000	-0,005	0,038
-217,825	800,000	0,021	-0,051
-216,811	-54,171	-0,091	-0,029
-215,796	182,582	0,086	-0,091
-214,782	-200,000	0,009	-0,043
-213,767	800,000	0,034	0,105
-212,752	-200,000	0,014	0,057
-211,738	-200,000	-0,006	-0,063
-210,723	-31,320	-0,087	0,035
-209,709	800,000	-0,019	0,042
-208,694	800,000	0,029	0,072
-207,679	60,398	-0,045	-0,032
-206,665	-61,747	-0,023	-0,007
-205,650	-93,803	0,211	0,041
-204,636	-15,235	0,036	0,017
-203,621	-69,986	-0,083	-0,022
-202,606	211,300	0,046	-0,052
-201,592	-30,716	0,011	0,004
-200,577	-37,859	0,063	0,024
-199,563	29,594	0,107	0,065
-198,548	507,257	-0,085	0,141
-197,533	88,043	0,116	0,092
-196,519	707,005	0,013	-0,024
-195,504	251,270	-0,027	0,032
-194,490	-78,429	-0,118	-0,029
-193,475	266,903	0,125	-0,156
-192,460	45,367	0,080	-0,053
-191,446	-200,000	0,006	-0,055
-190,431	-154,687	0,095	-0,004
-189,417	31,933	0,047	0,029
-188,402	71,505	0,035	-0,026
-187,387	-200,000	-0,011	-0,042
-186,373	211,956	0,075	-0,084
-185,358	-129,541	-0,129	0,013
-184,344	-200,000	-0,015	0,083
-183,329	-200,000	0,012	0,099
-182,315	-46,710	0,051	0,018
-181,300	216,102	0,036	-0,040
-180,285	-89,653	-0,037	-0,008
-179,271	140,268	0,047	0,044
-178,256	800,000	0,013	0,037
-177,242	242,369	0,121	-0,144
-176,227	-200,000	0,004	-0,023
-175,212	800,000	0,034	0,072
-174,198	-60,280	-0,221	-0,067
-173,183	-14,922	-0,026	0,012
-172,169	-200,000	0,001	-0,064
-171,154	-200,000	0,013	-0,140
-170,139	13,702	0,081	0,045
-169,125	455,744	-0,072	-0,115
-168,110	-200,000	-0,010	0,048
-167,096	495,321	0,071	-0,116
-166,081	347,258	-0,080	-0,113
-165,066	-200,000	-0,006	-0,078
-164,052	-200,000	-0,034	-0,186
-163,037	41,148	0,097	-0,062
-162,023	-40,670	0,034	0,012
-161,008	427,007	-0,024	0,037
-159,993	241,745	0,069	0,082
-158,979	255,181	-0,023	0,029
-157,964	-155,047	-0,064	0,003
-156,950	-26,530	-0,018	0,007
-155,935	-58,324	-0,041	0,013
-154,920	-11,690	0,157	0,073
-153,906	-73,143	-0,157	-0,041
-152,891	-79,632	0,123	-0,029
-151,877	-29,355	-0,057	0,023
-150,862	220,813	-0,077	-0,088
-149,847	-123,214	0,063	0,007
-148,833	565,160	-0,059	0,102
-147,818	-17,475	0,057	0,025
-146,804	-200,000	-0,006	0,047
-145,789	-200,000	-0,008	-0,034
-144,775	258,620	-0,068	-0,084
-143,760	-117,863	-0,084	-0,011
-142,745	-200,000	-0,004	-0,065
-141,731	568,135	0,034	0,059
-140,716	23,043	-0,108	0,063
-139,702	-87,444	0,088	0,019
-138,687	275,528	0,149	0,189
-137,672	-200,000	-0,006	-0,081
-136,658	-105,398	-0,053	0,008
-135,643	-199,330	-0,202	-0,001
-134,629	-133,547	0,143	0,013
-133,614	26,086	-0,062	0,037
-132,599	-84,143	-0,077	0,017
-131,585	-200,000	-0,005	-0,024
-130,570	-200,000	-0,004	0,126
-129,556	-66,876	-0,052	0,014
-128,541	-200,000	-0,043	-0,176
-127,526	-141,047	0,044	0,003
-126,512	122,763	0,054	-0,048
-125,497	-200,000	0,023	-0,140
-124,483	93,412	-0,074	-0,059
-123,468	-141,987	0,014	0,001
-122,453	427,105	0,023	-0,036
-121,439	-200,000	0,009	-0,172
-120,424	715,278	0,010	0,019
-119,410	-123,715	-0,045	0,005
