DTS Sentinel unit serial number:	SN410029Multiplexer serial number:	ORYXHardware model number:	OX2-SRSoftware version number:	ORYX F/W v4,00 Oryx Data Collector v3.7.2.0data status	okinstallation	BH3 CH2differential loss correction	single-endedforward channel	channel 2reverse channel	N/Adate	2023/12/06time	03:57:28forward acquisition time	300,00reverse acquisition time	0,00gamma	499,1914k internal	0,3197k external	0,3197temperature offset calibration	1,0000default loss term (dB/km)	0,3820temperature slope calibration	1,0000multiplexer offset coefficient	1,0000multiplexer slope coefficient	1,0000fibre end	0,00T internal ref (°C)	8,94T ext. ref 1 (°C)	-5,72T ext. ref 2 (°C)	-5,82length (m)	temperature (°C)	Stokes	anti-Stokes-744,400	18,651	-0,119	-0,069
-743,385	260,724	-0,260	0,329
-742,371	-110,049	0,058	-0,009
-741,356	800,000	-0,057	0,148
-740,342	-160,222	-0,085	-0,003
-739,327	-107,437	-0,275	0,043
-738,312	-119,612	0,188	-0,023
-737,298	-175,950	-0,177	-0,003
-736,283	800,000	-0,025	-0,061
-735,269	-48,056	-0,185	0,065
-734,254	-128,354	-0,113	0,012
-733,239	-7,614	-0,394	-0,193
-732,225	-49,279	-0,067	-0,023
-731,210	-200,000	-0,031	0,213
-730,196	31,286	-0,039	-0,024
-729,181	380,624	-0,058	0,087
-728,167	60,516	-0,135	-0,097
-727,152	-93,996	-0,090	0,018
-726,137	-156,088	-0,252	-0,011
-725,123	636,700	-0,055	-0,101
-724,108	-32,472	0,114	-0,046
-723,094	-158,531	0,037	-0,002
-722,079	800,000	0,053	-0,164
-721,064	11,858	0,136	-0,076
-720,050	-35,147	-0,049	0,019
-719,035	-45,192	0,115	-0,041
-718,021	45,425	-0,191	-0,128
-717,006	52,621	-0,093	-0,065
-715,991	72,337	-0,082	-0,062
-714,977	288,773	-0,011	0,014
-713,962	350,317	0,066	-0,096
-712,948	-200,000	-0,022	-0,179
-711,933	-200,000	-0,004	-0,050
-710,918	29,494	-0,041	-0,025
-709,904	800,000	0,035	-0,071
-708,889	800,000	0,066	-0,177
-707,875	-200,000	0,033	-0,182
-706,860	24,712	-0,065	-0,039
-705,845	-200,000	-0,017	-0,104
-704,831	50,866	-0,062	0,042
-703,816	330,409	-0,044	0,062
-702,802	68,236	-0,121	0,090
-701,787	592,172	-0,040	0,072
-700,772	49,956	0,141	0,097
-699,758	800,000	-0,019	0,050
-698,743	-83,870	-0,045	0,010
-697,729	-200,000	0,010	0,110
-696,714	246,144	-0,073	-0,089
-695,699	-45,038	0,065	-0,023
-694,685	800,000	-0,022	-0,065
-693,670	-49,617	-0,163	-0,056
-692,656	155,748	-0,112	0,112
-691,641	-200,000	-0,020	-0,148
-690,627	60,348	0,072	0,052
-689,612	15,340	-0,015	0,008
-688,597	-110,532	-0,022	0,003
-687,583	153,024	-0,081	-0,081
-686,568	800,000	-0,100	-0,226
-685,554	-200,000	0,005	-0,048
-684,539	-200,000	-0,008	0,040
-683,524	-200,000	-0,016	0,076
-682,510	-53,641	0,098	-0,032
-681,495	-7,677	-0,173	-0,085
-680,481	95,390	-0,071	-0,059
-679,466	102,595	-0,057	0,048
-678,451	-200,000	0,015	-0,128
-677,437	8,792	-0,063	0,035
-676,422	136,148	0,004	-0,004
-675,408	259,401	0,095	0,119
-674,393	-64,308	-0,210	0,062
-673,378	28,041	-0,084	-0,051
-672,364	216,660	0,071	-0,082
-671,349	11,305	-0,112	-0,062
-670,335	246,326	0,040	0,048
-669,320	-200,000	-0,010	0,135
-668,305	97,584	-0,151	0,126
-667,291	523,893	-0,034	0,058
-666,276	-200,000	-0,011	0,106
-665,262	294,017	-0,094	-0,125
-664,247	-3,302	-0,054	0,027
-663,232	182,946	0,086	0,093
-662,218	325,877	0,068	-0,095
-661,203	40,490	-0,029	0,019
-660,189	-135,951	0,109	-0,009
-659,174	573,475	-0,097	-0,173
-658,159	781,240	-0,022	0,044
-657,145	16,025	-0,164	-0,094
-656,130	-200,000	-0,003	-0,094
-655,116	-200,000	0,010	-0,050
-654,101	-200,000	-0,024	-0,193
-653,086	-49,679	-0,033	-0,011
-652,072	-80,003	0,046	0,011
-651,057	-58,985	-0,071	-0,022
-650,043	-164,930	-0,150	-0,005
-649,028	319,456	-0,084	-0,115
-648,014	-200,000	-0,021	-0,158
-646,999	381,387	0,029	-0,043
-645,984	142,747	-0,039	-0,038
-644,970	-200,000	0,020	-0,078
-643,955	-200,000	0,007	-0,047
-642,941	723,098	0,065	-0,125
-641,926	-200,000	0,003	-0,025
-640,911	236,108	0,027	0,033
-639,897	184,711	0,093	0,100
-638,882	80,438	-0,109	0,085
-637,868	-1,549	0,152	-0,078
-636,853	134,524	-0,047	0,044
-635,838	218,422	0,130	-0,151
-634,824	-150,370	-0,025	-0,001
-633,809	46,308	-0,111	-0,075
-632,795	-158,451	0,054	-0,002
-631,780	-19,702	0,069	0,031
-630,765	90,023	-0,068	-0,055
-629,751	-25,814	-0,108	-0,046
-628,736	-200,000	0,018	-0,109
-627,722	120,020	-0,098	-0,088
-626,707	4,550	-0,062	0,033
-625,692	191,792	0,119	-0,130
-624,678	-200,000	0,007	0,026
-623,663	-139,652	-0,236	0,018
-622,649	800,000	-0,052	-0,110
-621,634	312,740	-0,032	0,044
-620,619	-15,449	-0,193	-0,089
-619,605	-200,000	0,008	0,071
-618,590	468,592	-0,083	-0,136
-617,576	167,957	-0,021	-0,021
-616,561	-151,083	0,064	-0,003
-615,546	382,397	0,021	0,031
-614,532	-124,891	-0,069	0,008
-613,517	103,628	0,043	0,036
-612,503	213,671	0,062	0,071
-611,488	343,387	-0,059	-0,084
-610,474	800,000	-0,027	0,055
-609,459	-200,000	-0,003	-0,033
-608,444	175,002	-0,070	0,074
-607,430	-68,426	-0,092	0,026
-606,415	800,000	-0,026	0,066
-605,401	800,000	0,019	0,044
-604,386	195,416	0,059	-0,065
-603,371	265,961	-0,035	-0,044
-602,357	800,000	-0,047	0,112
-601,342	-60,954	-0,228	0,069
-600,328	800,000	0,073	-0,198
-599,313	-165,034	0,109	0,003
-598,298	26,044	-0,105	0,063
-597,284	-24,764	0,060	0,026
-596,269	-200,000	0,017	0,086
-595,255	800,000	0,029	-0,072
-594,240	-200,000	-0,009	-0,039
-593,225	97,154	-0,054	-0,045
-592,211	-157,552	-0,189	0,008
-591,196	800,000	-0,026	0,064
-590,182	-200,000	-0,021	-0,126
-589,167	-109,901	0,037	0,006
-588,152	-65,455	-0,019	0,006
-587,138	606,467	-0,077	0,140
-586,123	-59,361	-0,172	0,053
-585,109	209,707	-0,026	-0,030
-584,094	29,468	-0,027	0,017
-583,079	-200,000	-0,001	0,084
-582,065	320,865	0,055	-0,076
-581,050	305,840	-0,056	-0,076
-580,036	12,661	-0,122	0,068
-579,021	57,204	0,085	0,060
-578,006	-15,362	-0,214	-0,098
-576,992	611,270	0,040	-0,072
-575,977	-141,460	0,123	0,009
-574,963	-200,000	-0,013	0,082
-573,948	284,497	0,027	-0,036
-572,934	45,683	-0,016	-0,010
-571,919	800,000	-0,019	0,051
-570,904	-81,398	-0,125	-0,029
-569,890	-200,000	0,003	-0,112
-568,875	593,555	-0,041	0,074
-567,861	-200,000	0,008	0,041
-566,846	-88,145	-0,042	-0,009
-565,831	-128,905	-0,091	-0,009
-564,817	-117,409	-0,092	-0,012
-563,802	-200,000	0,014	-0,124
-562,788	256,284	0,018	-0,023
-561,773	208,517	-0,066	-0,075
-560,758	84,797	0,077	0,061
-559,744	736,091	0,020	-0,038
-558,729	369,650	0,043	-0,063
-557,715	-85,773	0,121	-0,027
-556,700	-200,000	-0,050	-0,234
-555,685	-200,000	-0,003	0,014
-554,671	-34,043	0,096	0,038
-553,656	71,839	0,096	0,072
-552,642	-200,000	0,025	0,178
-551,627	21,180	0,127	0,074
-550,612	-66,432	0,031	-0,009
-549,598	366,544	-0,078	-0,113
-548,583	349,797	-0,025	-0,036
-547,569	152,543	0,040	-0,039
-546,554	-134,889	0,038	-0,003
-545,539	555,373	0,012	0,021
-544,525	800,000	0,032	-0,064
-543,510	-200,000	-0,015	-0,128
-542,496	462,378	-0,019	-0,031
-541,481	380,860	0,077	0,114
-540,466	18,214	0,127	0,073
-539,452	-200,000	0,006	0,126
-538,437	800,000	-0,039	0,112
-537,423	800,000	0,046	0,120
-536,408	800,000	-0,043	0,104
-535,393	236,629	0,010	0,012
-534,379	-200,000	-0,016	-0,050
-533,364	-179,517	0,088	-0,001
-532,350	523,319	0,034	0,059
-531,335	67,348	-0,046	0,034
-530,321	291,958	-0,037	0,049
-529,306	-192,887	0,075	0,000
-528,291	29,099	-0,075	0,046
-527,277	-200,000	-0,021	-0,112
-526,262	65,832	0,040	-0,029
-525,248	-27,187	-0,148	-0,062
-524,233	-34,299	0,072	-0,028
-523,218	800,000	-0,057	-0,124
-522,204	301,621	-0,013	-0,018
-521,189	163,375	-0,053	-0,054
-520,175	800,000	-0,034	-0,072
-519,160	-85,833	-0,069	0,015
-518,145	632,997	-0,038	0,070
-517,131	-83,425	0,103	0,024
-516,116	295,373	-0,075	0,099
-515,102	-200,000	-0,018	-0,083
-514,087	38,092	-0,007	-0,004
-513,072	-47,936	-0,109	0,038
-512,058	284,853	-0,040	0,053
-511,043	-72,458	0,075	0,020
-510,029	340,832	0,090	0,127
-509,014	-72,063	-0,117	0,031
-507,999	25,303	-0,102	0,061
-506,985	30,882	0,121	-0,074
-505,970	-200,000	-0,010	-0,117
-504,956	-200,000	0,022	0,116
-503,941	-91,967	0,143	-0,029
-502,926	-200,000	-0,003	-0,069
-501,912	107,068	-0,011	-0,010
-500,897	297,782	-0,041	-0,054
-499,883	297,372	-0,078	-0,104
-498,868	-200,000	0,004	-0,072
-497,853	570,705	0,046	0,081
-496,839	-200,000	-0,015	-0,159
-495,824	800,000	-0,025	-0,060
-494,810	298,218	-0,086	0,114
-493,795	124,731	0,047	0,043
-492,781	-200,000	-0,002	0,023
-491,766	-53,364	-0,111	0,037
-490,751	800,000	0,010	0,028
-489,737	-57,259	-0,121	-0,038
-488,722	-60,969	0,077	-0,023
-487,708	554,241	-0,025	-0,043
-486,693	-12,823	0,072	-0,034
-485,678	-200,000	-0,002	-0,073
-484,664	78,326	-0,037	0,028
-483,649	-200,000	0,001	0,043
-482,635	-49,332	0,103	0,035
-481,620	-200,000	0,008	-0,047
-480,605	-200,000	0,012	-0,046
-479,591	-200,000	0,008	0,052
-478,576	85,612	-0,130	0,103
-477,562	-200,000	-0,016	-0,175
-476,547	-200,000	-0,023	-0,104
-475,532	-200,000	-0,009	0,114
-474,518	-95,030	0,052	-0,010
-473,503	181,503	0,125	-0,133
-472,489	-110,981	0,117	0,017
-471,474	-200,000	-0,004	0,037
-470,459	-115,275	0,032	-0,004
-469,445	650,336	-0,056	-0,104
-468,430	-44,078	-0,060	0,022
-467,416	163,484	-0,070	0,071
-466,401	800,000	0,025	0,057
-465,386	800,000	-0,048	0,102
-464,372	228,759	-0,053	0,062
-463,357	-88,005	0,067	-0,014
-462,343	800,000	0,024	-0,050
-461,328	800,000	-0,067	-0,149
-460,313	-111,879	0,135	-0,019
-459,299	-112,540	0,078	-0,011
-458,284	417,523	0,090	0,139
-457,270	53,849	-0,097	-0,067
-456,255	84,998	-0,032	0,025
-455,241	798,348	0,005	0,010
-454,226	-120,892	0,081	0,010
-453,211	-19,806	0,051	0,023
-452,197	-200,000	0,034	0,144
-451,182	-200,000	0,025	0,135
-450,168	-200,000	-0,008	-0,138
-449,153	57,011	-0,072	-0,051
-448,138	-59,229	-0,067	0,021
-447,124	-101,354	0,078	-0,013
-446,109	91,604	0,078	0,063
-445,095	-106,710	-0,151	0,024
-444,080	-98,870	0,050	0,009
-443,065	32,797	-0,093	0,058
-442,051	-200,000	-0,007	-0,066
-441,036	136,100	0,054	0,051
-440,022	-200,000	-0,052	0,000
-439,007	192,718	0,124	0,135
-437,992	62,323	0,067	-0,048
-436,978	10,161	0,078	0,043
-435,963	105,983	-0,061	0,052
-434,949	299,119	-0,055	-0,073
-433,934	217,668	-0,057	0,065
-432,919	-26,914	0,077	-0,032
-431,905	-200,000	0,015	0,059
-430,890	20,635	0,083	-0,048
-429,876	203,049	-0,027	0,030
-428,861	-200,000	0,018	-0,110
-427,846	-200,000	0,013	-0,057
-426,832	-142,926	0,079	-0,005
-425,817	800,000	0,037	0,100
-424,803	35,563	-0,162	0,102
-423,788	800,000	-0,030	0,083
-422,773	-141,912	-0,073	0,005
-421,759	-200,000	-0,004	-0,028
-420,744	-36,823	-0,044	-0,017
-419,730	-36,101	-0,137	-0,053
-418,715	-200,000	0,001	-0,028
-417,701	36,088	-0,093	0,058
-416,686	534,190	-0,081	0,138
-415,671	40,009	-0,088	0,057
-414,657	-200,000	0,003	0,012
-413,642	800,000	0,041	0,118
-412,628	-67,311	-0,148	-0,042
-411,613	800,000	-0,053	-0,119
-410,598	156,848	0,020	0,020
-409,584	0,357	0,043	-0,022
-408,569	-200,000	0,002	0,100
-407,555	-2,973	0,042	-0,021
-406,540	-200,000	-0,032	0,102
-405,525	-200,000	-0,008	0,096
-404,511	-200,000	-0,001	-0,069
-403,496	-58,358	0,077	0,024
-402,482	-200,000	0,006	-0,107
-401,467	6,814	0,036	-0,019
-400,452	56,528	-0,089	0,062
-399,438	186,100	0,109	-0,117
-398,423	-200,000	0,121	0,000
-397,409	-200,000	-0,005	-0,062
-396,394	-200,000	-0,001	0,013
-395,379	-137,106	-0,150	-0,012
-394,365	-127,054	0,051	-0,005
-393,350	-9,116	-0,060	-0,029
-392,336	-200,000	0,002	0,068
-391,321	800,000	0,028	0,058
-390,306	109,622	-0,110	-0,095
-389,292	152,895	-0,162	-0,159
-388,277	-11,871	0,063	0,030
-387,263	-102,497	-0,023	0,004
-386,248	94,407	0,098	0,080
-385,233	180,275	-0,081	0,085
-384,219	-86,453	0,056	0,012
-383,204	721,700	-0,063	-0,121
-382,190	75,050	0,031	-0,024
-381,175	638,453	-0,014	0,026
-380,160	-200,000	-0,008	0,091
-379,146	176,656	0,075	0,079
-378,131	800,000	0,037	0,115
-377,117	-200,000	0,016	-0,076
-376,102	-200,000	0,001	-0,026
-375,088	415,011	-0,040	0,061
-374,073	800,000	0,035	0,106
-373,058	-200,000	-0,026	0,102
-372,044	181,670	0,062	0,065
-371,029	-88,524	0,072	0,015
-370,015	-200,000	-0,018	0,067
-369,000	96,223	-0,027	0,022
-367,985	-200,000	0,033	-0,116
-366,971	93,378	0,128	-0,104
-365,956	67,645	-0,048	-0,035
-364,942	-12,988	-0,029	-0,013
-363,927	157,588	0,093	-0,092
-362,912	-59,712	0,108	-0,033
-361,898	-50,993	-0,076	-0,025
-360,883	-200,000	0,031	-0,129
-359,869	159,102	0,112	-0,111
-358,854	510,295	-0,039	-0,065
-357,839	279,738	0,060	0,077
-356,825	-155,351	-0,084	-0,004
-355,810	87,754	0,101	-0,080
-354,796	-33,690	-0,010	0,004
-353,781	222,226	0,072	0,083
-352,766	-91,694	-0,100	-0,020
-351,752	51,831	0,039	-0,026
-350,737	-200,000	-0,029	0,208
-349,723	-127,795	-0,081	0,008
-348,708	411,486	-0,053	-0,082
-347,693	-54,495	-0,068	-0,022
-346,679	800,000	0,038	-0,115
-345,664	-200,000	0,026	0,093
-344,650	312,381	0,059	-0,079
-343,635	-200,000	-0,003	-0,092
-342,620	800,000	0,063	0,129
-341,606	414,301	0,071	-0,108
-340,591	-200,000	-0,003	0,108
-339,577	338,598	0,057	-0,080
-338,562	149,315	0,062	0,060
-337,548	120,162	-0,084	0,075
-336,533	-200,000	-0,001	0,074
-335,518	-200,000	-0,002	0,039
-334,504	371,605	0,033	-0,048
-333,489	-200,000	-0,010	-0,035
-332,475	-200,000	-0,005	-0,052
-331,460	239,297	0,044	-0,052
-330,445	-200,000	0,014	0,075
-329,431	-156,966	0,063	-0,003
-328,416	-75,717	0,139	-0,035
-327,402	54,641	0,166	-0,115
-326,387	28,382	0,035	-0,021
-325,372	255,193	0,030	-0,036
-324,358	800,000	-0,035	-0,100
-323,343	383,276	-0,057	0,084
-322,329	-112,913	0,035	-0,005
-321,314	173,615	-0,075	0,078
-320,299	800,000	0,048	-0,148
-319,285	800,000	-0,073	0,166
-318,270	262,851	0,022	0,027
-317,256	-200,000	0,019	-0,133
-316,241	288,363	-0,009	0,011
-315,226	179,433	0,050	-0,053
-314,212	107,335	0,067	0,057
-313,197	-200,000	-0,004	0,079
-312,183	90,565	-0,060	-0,048
-311,168	97,080	0,036	0,029
-310,153	31,268	-0,090	-0,055
-309,139	349,572	0,034	0,048
-308,124	183,341	0,037	-0,040
-307,110	-102,598	-0,105	-0,018
-306,095	-200,000	0,005	0,092
-305,080	25,738	-0,150	0,089
-304,066	-200,000	0,004	-0,033
-303,051	-200,000	0,014	-0,058
-302,037	-200,000	-0,016	-0,093
-301,022	30,736	0,070	0,043
-300,008	-107,354	-0,039	-0,006
-298,993	-118,180	0,125	-0,016
-297,978	417,925	-0,056	-0,086
-296,964	-51,258	-0,152	0,051
-295,949	800,000	-0,046	-0,116
-294,935	-200,000	-0,008	-0,052
-293,920	580,766	-0,047	0,083
-292,905	307,981	0,020	-0,027
-291,891	176,350	-0,111	0,115
-290,876	-200,000	-0,011	0,045
-289,862	-107,029	0,107	-0,017
-288,847	-26,039	-0,082	-0,035
-287,832	762,959	-0,029	-0,056
-286,818	542,069	0,063	0,108
-285,803	166,501	0,061	0,062
-284,789	547,798	-0,035	0,059
-283,774	71,145	-0,076	0,057
-282,759	541,254	-0,028	-0,048
-281,745	-112,322	0,033	0,005
-280,730	-200,000	-0,000	0,175
-279,716	-123,464	0,022	-0,002
-278,701	-200,000	0,015	0,063
-277,686	-32,690	-0,042	0,017
-276,672	800,000	-0,007	-0,019
-275,657	-134,605	-0,121	0,010
-274,643	-10,577	-0,021	-0,010
-273,628	-43,926	0,009	0,003
-272,613	54,390	0,181	-0,124
-271,599	-155,683	0,136	-0,006
-270,584	-42,501	0,049	-0,018
-269,570	-60,142	0,075	0,023
-268,555	-69,116	-0,202	0,055
-267,540	-94,559	-0,099	0,019
-266,526	401,884	-0,037	-0,056
-265,511	-180,655	0,042	-0,001
-264,497	800,000	0,078	0,195
-263,482	73,266	0,084	0,063
-262,467	800,000	-0,038	0,089
-261,453	800,000	0,028	0,059
-260,438	1,847	-0,092	-0,047
-259,424	258,816	0,104	-0,128
-258,409	-200,000	-0,029	-0,140
-257,395	-123,839	0,205	0,023
-256,380	-8,726	-0,031	0,015
-255,365	800,000	0,028	0,076
-254,351	-200,000	-0,006	0,112
-253,336	-93,750	0,073	0,014
-252,322	-149,983	0,051	-0,003
-251,307	-200,000	0,011	0,075
-250,292	-34,468	0,076	-0,030
-249,278	-200,000	0,029	0,102
-248,263	222,364	-0,082	-0,094
-247,249	162,897	0,036	0,037
-246,234	800,000	-0,067	-0,181
-245,219	-200,000	-0,023	-0,084
-244,205	47,876	-0,078	-0,052
-243,190	-200,000	0,035	-0,129
-242,176	186,550	0,062	-0,066
-241,161	148,666	0,065	0,063
-240,146	-109,118	0,144	0,022
-239,132	-200,000	-0,003	-0,024
-238,117	-200,000	0,006	-0,034
-237,103	-200,000	-0,008	0,174
-236,088	-5,587	-0,039	-0,019
-235,073	-29,426	0,075	0,031
-234,059	152,694	0,090	0,088
-233,044	545,861	0,047	0,080
-232,030	101,965	0,121	-0,101
-231,015	-57,077	-0,054	-0,017
-230,000	-200,000	0,012	-0,075
-228,986	800,000	-0,041	-0,104
-227,971	800,000	0,073	0,147
-226,957	-142,043	0,130	0,009
-225,942	782,433	-0,067	0,132
-224,927	94,503	-0,078	0,063
-223,913	346,547	-0,057	0,081
-222,898	800,000	-0,064	-0,174
-221,884	-200,000	0,033	-0,130
-220,869	171,696	0,166	0,170
-219,855	664,982	0,030	0,055
-218,840	87,324	-0,006	-0,005
-217,825	154,528	-0,049	0,048
-216,811	-200,000	-0,033	0,000
-215,796	-200,000	-0,032	-0,252
-214,782	418,104	-0,043	-0,066
-213,767	-97,680	0,127	0,023
-212,752	-58,100	0,045	-0,014
-211,738	800,000	-0,011	0,030
-210,723	142,191	0,060	-0,057
-209,709	128,399	0,132	-0,120
-208,694	-66,276	-0,050	-0,014
-207,679	-103,975	0,062	-0,010
-206,665	-200,000	0,032	0,106
-205,650	49,248	0,079	0,053
-204,636	800,000	0,015	0,036
-203,621	800,000	0,007	0,015
-202,606	35,051	-0,124	0,078
-201,592	372,019	0,024	-0,035
-200,577	158,794	0,054	-0,054
-199,563	-74,302	0,080	0,020
-198,548	72,268	0,056	0,042
-197,533	22,789	0,071	0,041
-196,519	-102,055	-0,028	0,005
-195,504	-200,000	0,005	0,056
-194,490	800,000	0,043	-0,084
-193,475	208,974	-0,113	0,127
-192,460	-200,000	0,040	-0,135
-191,446	-177,015	0,154	0,003
-190,431	-126,641	0,059	-0,006
-189,417	-112,819	-0,024	-0,003
-188,402	108,159	0,013	0,011
-187,387	800,000	-0,043	-0,108
-186,373	-200,000	0,008	0,042
-185,358	800,000	0,035	-0,088
-184,344	800,000	-0,102	0,210
-183,329	215,784	-0,062	-0,070
-182,315	-89,364	0,170	-0,035
-181,300	-71,250	-0,051	-0,014
-180,285	800,000	0,048	0,126
-179,271	628,335	-0,053	0,095
-178,256	-78,664	-0,261	0,063
-177,242	193,422	0,110	-0,118
-176,227	-25,429	0,139	0,058
-175,212	26,150	-0,092	0,054
-174,198	144,798	0,047	0,045
-173,183	800,000	-0,017	-0,045
-172,169	479,600	-0,069	-0,111
-171,154	-200,000	0,032	-0,114
-170,139	-200,000	-0,007	-0,063
-169,125	-102,046	-0,078	-0,013
-168,110	-200,000	-0,042	0,161
-167,096	800,000	0,012	-0,026
-166,081	-44,034	0,101	-0,036
-165,066	463,320	-0,038	0,061
-164,052	-173,503	0,152	-0,003
-163,037	-200,000	-0,012	0,046
-162,023	-200,000	0,020	0,154
-161,008	800,000	0,012	0,037
-159,993	226,217	-0,082	0,095
-158,979	-84,203	-0,053	0,012
-157,964	-200,000	-0,005	-0,071
-156,950	800,000	-0,020	0,049
-155,935	800,000	-0,058	0,138
-154,920	-200,000	0,017	0,083
-153,906	172,529	-0,077	-0,079
-152,891	-200,000	0,000	-0,085
-151,877	-100,990	-0,056	0,010
-150,862	-13,955	-0,128	-0,059
-149,847	-110,651	-0,097	0,014
-148,833	21,918	0,025	0,014
-147,818	-200,000	0,022	-0,072
-146,804	411,237	-0,131	0,198
-145,789	-37,494	0,110	-0,042
-144,775	800,000	0,049	0,100
-143,760	144,504	-0,042	0,040
-142,745	-200,000	-0,006	-0,078
-141,731	800,000	0,014	0,034
-140,716	-200,000	0,022	-0,076
-139,702	36,111	0,060	0,037
-138,687	800,000	-0,039	0,117
-137,672	-200,000	-0,018	-0,065
-136,658	461,593	-0,031	-0,049
-135,643	800,000	-0,021	0,056
-134,629	-97,061	-0,084	0,016
-133,614	101,538	-0,078	-0,065
-132,599	-200,000	0,011	0,109
-131,585	-96,622	0,035	-0,006
-130,570	-145,206	-0,012	0,001
-129,556	-147,447	-0,178	-0,011
-128,541	-18,259	-0,101	0,045
-127,526	132,097	-0,140	-0,128
-126,512	294,713	-0,053	-0,069
-125,497	-2,500	0,106	0,052
-124,483	65,793	0,042	0,030
-123,468	417,478	0,064	0,097
-122,453	800,000	0,021	-0,050
-121,439	-200,000	0,003	-0,082
-120,424	129,830	-0,070	-0,064
