DTS Sentinel unit serial number:	SN410029Multiplexer serial number:	ORYXHardware model number:	OX2-SRSoftware version number:	ORYX F/W v4,00 Oryx Data Collector v3.7.2.0data status	okinstallation	BH3 CH2differential loss correction	single-endedforward channel	channel 2reverse channel	N/Adate	2023/12/06time	06:02:28forward acquisition time	300,00reverse acquisition time	0,00gamma	499,1914k internal	0,3197k external	0,3197temperature offset calibration	1,0000default loss term (dB/km)	0,3820temperature slope calibration	1,0000multiplexer offset coefficient	1,0000multiplexer slope coefficient	1,0000fibre end	0,00T internal ref (°C)	8,91T ext. ref 1 (°C)	-5,67T ext. ref 2 (°C)	-5,78length (m)	temperature (°C)	Stokes	anti-Stokes-744,400	800,000	-0,055	-0,169
-743,385	-43,701	-0,121	0,044
-742,371	800,000	-0,086	0,206
-741,356	14,693	-0,175	0,100
-740,342	-200,000	0,013	0,051
-739,327	-159,264	-0,279	0,011
-738,312	-200,000	-0,022	-0,106
-737,298	-90,292	-0,277	0,058
-736,283	-200,000	-0,016	-0,086
-735,269	649,873	-0,073	0,136
-734,254	-200,000	0,017	-0,130
-733,239	-117,191	-0,422	-0,055
-732,225	550,879	0,088	-0,155
-731,210	92,141	0,104	0,085
-730,196	25,077	-0,114	0,068
-729,181	308,666	0,065	0,088
-728,167	13,768	-0,047	-0,026
-727,152	-70,691	-0,107	0,029
-726,137	-200,000	-0,028	-0,114
-725,123	46,524	-0,045	0,030
-724,108	-66,375	-0,158	-0,045
-723,094	-7,407	-0,167	-0,082
-722,079	6,964	-0,056	0,030
-721,064	517,921	0,019	0,032
-720,050	-71,368	-0,037	-0,010
-719,035	271,966	0,020	-0,025
-718,021	4,129	-0,115	-0,061
-717,006	113,970	-0,072	-0,064
-715,991	-71,658	-0,092	-0,025
-714,977	-200,000	0,043	-0,147
-713,962	35,545	0,069	-0,044
-712,948	170,369	0,061	0,064
-711,933	-135,383	-0,112	-0,010
-710,918	-200,000	-0,017	0,087
-709,904	800,000	0,028	-0,077
-708,889	-200,000	-0,010	0,057
-707,875	395,336	-0,110	-0,168
-706,860	304,673	0,075	-0,101
-705,845	-90,979	0,204	-0,042
-704,831	357,373	-0,060	0,088
-703,816	-85,707	-0,138	0,031
-702,802	-42,222	-0,068	-0,025
-701,787	-200,000	0,002	0,053
-700,772	-200,000	-0,000	0,034
-699,758	150,154	0,021	0,021
-698,743	800,000	0,016	0,046
-697,729	-200,000	-0,002	0,059
-696,714	231,441	0,029	-0,034
-695,699	-200,000	0,003	-0,014
-694,685	299,906	0,048	0,064
-693,670	-147,253	-0,062	0,004
-692,656	-42,777	-0,116	-0,043
-691,641	-21,680	0,153	0,067
-690,627	-65,438	0,185	-0,054
-689,612	800,000	-0,083	0,171
-688,597	-200,000	0,005	-0,044
-687,583	-200,000	0,013	-0,101
-686,568	-136,003	-0,218	0,018
-685,554	800,000	0,021	-0,044
-684,539	800,000	0,058	-0,148
-683,524	595,711	-0,030	-0,053
-682,510	-0,246	-0,076	-0,039
-681,495	-200,000	0,005	-0,016
-680,481	34,520	0,126	-0,080
-679,466	-127,412	0,076	-0,008
-678,451	-165,399	-0,132	-0,004
-677,437	-200,000	0,027	0,090
-676,422	257,840	0,070	0,087
-675,408	111,004	-0,082	0,072
-674,393	-137,514	-0,080	0,006
-673,378	-45,938	0,139	-0,050
-672,364	490,848	-0,065	-0,109
-671,349	-93,959	-0,084	-0,017
-670,335	800,000	-0,024	0,076
-669,320	-70,007	0,021	-0,006
-668,305	85,125	0,082	0,065
-667,291	125,531	-0,067	0,062
-666,276	-200,000	0,002	0,076
-665,262	-200,000	0,006	0,082
-664,247	163,170	-0,045	0,046
-663,232	800,000	-0,027	-0,087
-662,218	358,422	-0,031	0,046
-661,203	699,025	0,035	0,068
-660,189	-200,000	0,007	-0,112
-659,174	-48,978	-0,107	0,037
-658,159	765,259	-0,073	0,144
-657,145	656,875	-0,039	-0,074
-656,130	-16,613	-0,019	-0,009
-655,116	425,596	-0,077	0,121
-654,101	800,000	0,021	-0,066
-653,086	800,000	-0,022	0,045
-652,072	800,000	0,032	-0,099
-651,057	111,163	-0,075	-0,066
-650,043	310,428	0,053	-0,072
-649,028	-194,331	-0,099	-0,001
-648,014	487,726	-0,041	-0,068
-646,999	-200,000	0,030	0,151
-645,984	-75,236	-0,144	0,037
-644,970	320,442	-0,065	0,090
-643,955	-66,039	-0,032	-0,009
-642,941	327,881	-0,065	-0,091
-641,926	18,328	0,052	-0,030
-640,911	13,054	-0,003	0,001
-639,897	-200,000	0,002	-0,022
-638,882	124,289	-0,040	-0,036
-637,868	134,795	-0,040	0,037
-636,853	-200,000	0,026	-0,116
-635,838	-94,397	0,169	-0,033
-634,824	-120,217	-0,111	0,014
-633,809	-17,495	0,039	-0,018
-632,795	55,254	-0,024	0,017
-631,780	-25,403	0,014	-0,006
-630,765	98,348	0,168	0,140
-629,751	-200,000	0,004	-0,052
-628,736	-139,468	-0,057	-0,004
-627,722	-81,009	-0,093	0,022
-626,707	-24,460	0,025	-0,011
-625,692	-8,609	0,132	-0,064
-624,678	800,000	-0,010	-0,030
-623,663	357,743	0,093	0,135
-622,649	800,000	0,025	-0,060
-621,634	800,000	-0,081	-0,199
-620,619	-200,000	-0,014	-0,116
-619,605	-200,000	-0,004	-0,023
-618,590	800,000	0,031	0,096
-617,576	489,074	0,041	0,067
-616,561	155,628	-0,040	-0,040
-615,546	241,812	-0,122	-0,148
-614,532	-200,000	-0,040	0,138
-613,517	-200,000	0,015	-0,050
-612,503	-200,000	-0,002	-0,189
-611,488	249,699	-0,022	0,027
-610,474	366,938	-0,078	0,114
-609,459	-1,865	-0,137	-0,070
-608,444	34,167	-0,055	-0,035
-607,430	-200,000	-0,008	-0,097
-606,415	800,000	-0,025	0,053
-605,401	-58,351	-0,074	0,023
-604,386	65,589	0,080	-0,058
-603,371	800,000	-0,031	0,067
-602,357	-37,294	-0,075	0,029
-601,342	-200,000	-0,003	-0,022
-600,328	800,000	0,047	0,097
-599,313	116,410	0,040	-0,036
-598,298	16,458	0,137	0,078
-597,284	-200,000	-0,024	0,080
-596,269	-123,796	-0,070	-0,008
-595,255	56,982	0,091	-0,064
-594,240	-200,000	0,012	0,109
-593,225	-114,044	-0,097	-0,013
-592,211	-200,000	0,001	-0,096
-591,196	800,000	0,031	0,074
-590,182	-65,406	-0,119	0,034
-589,167	-200,000	-0,020	-0,089
-588,152	146,016	-0,030	0,029
-587,138	800,000	-0,064	0,135
-586,123	-160,712	-0,035	-0,001
-585,109	-200,000	-0,006	-0,036
-584,094	-40,426	0,036	-0,014
-583,079	-144,319	0,098	-0,006
-582,065	66,969	0,059	0,044
-581,050	44,064	0,019	0,013
-580,036	35,522	-0,088	0,056
-579,021	517,287	-0,033	0,057
-578,006	-72,298	-0,084	-0,022
-576,992	-48,552	0,112	0,039
-575,977	172,778	0,074	0,077
-574,963	33,554	0,123	-0,077
-573,948	-200,000	-0,003	0,070
-572,934	-14,320	0,151	0,070
-571,919	-200,000	-0,006	0,123
-570,904	158,220	0,034	-0,034
-569,890	306,934	-0,070	-0,095
-568,875	-84,963	0,093	0,021
-567,861	573,751	-0,016	-0,028
-566,846	290,870	-0,119	-0,156
-565,831	-200,000	0,014	-0,126
-564,817	633,533	-0,048	0,088
-563,802	240,258	0,053	-0,065
-562,788	-135,857	-0,150	-0,013
-561,773	-200,000	0,018	-0,085
-560,758	800,000	-0,020	-0,054
-559,744	369,295	-0,018	-0,026
-558,729	-82,652	0,083	-0,019
-557,715	701,932	0,020	0,038
-556,700	376,050	0,057	-0,084
-555,685	800,000	-0,057	-0,141
-554,671	-46,214	0,200	-0,071
-553,656	-78,145	-0,065	-0,016
-552,642	-173,620	0,077	-0,002
-551,627	800,000	-0,028	-0,058
-550,612	581,355	-0,008	0,014
-549,598	379,926	0,052	-0,078
-548,583	-200,000	-0,050	-0,169
-547,569	-1,452	-0,059	0,030
-546,554	-158,466	-0,113	0,005
-545,539	800,000	0,053	0,119
-544,525	130,869	-0,040	-0,037
-543,510	248,596	0,040	0,050
-542,496	44,949	-0,039	0,026
-541,481	305,556	-0,099	-0,133
-540,466	-128,060	-0,055	0,006
-539,452	59,761	0,095	0,068
-538,437	131,166	0,066	-0,061
-537,423	17,693	-0,127	0,073
-536,408	110,589	-0,114	0,099
-535,393	-200,000	0,007	-0,055
-534,379	-200,000	0,008	-0,043
-533,364	-129,346	0,100	-0,010
-532,350	314,814	0,053	-0,072
-531,335	151,104	0,065	-0,064
-530,321	-172,416	0,092	-0,002
-529,306	-75,977	-0,095	0,024
-528,291	21,759	-0,066	-0,039
-527,277	-30,409	0,045	-0,018
-526,262	45,117	-0,057	-0,038
-525,248	2,066	0,072	0,037
-524,233	130,309	0,054	-0,050
-523,218	114,687	-0,037	0,032
-522,204	164,063	-0,114	0,116
-521,189	196,069	-0,084	-0,092
-520,175	-188,488	-0,158	0,001
-519,160	-200,000	-0,020	-0,091
-518,145	94,881	-0,045	-0,037
-517,131	241,400	0,061	0,074
-516,116	-143,462	0,134	-0,009
-515,102	-47,529	0,096	0,033
-514,087	658,980	0,062	0,115
-513,072	791,358	0,016	0,032
-512,058	306,296	-0,094	-0,126
-511,043	386,181	0,046	-0,068
-510,029	-200,000	-0,001	-0,053
-509,014	-81,632	-0,144	0,034
-507,999	-200,000	-0,011	-0,067
-506,985	253,349	-0,096	-0,119
-505,970	412,198	0,061	0,094
-504,956	-200,000	-0,008	0,133
-503,941	152,681	-0,095	-0,094
-502,926	168,382	0,114	-0,117
-501,912	-200,000	-0,010	-0,036
-500,897	-200,000	0,008	-0,063
-499,883	-200,000	0,006	-0,025
-498,868	-85,079	-0,036	-0,008
-497,853	-200,000	0,001	0,021
-496,839	800,000	-0,022	-0,060
-495,824	101,936	-0,052	-0,044
-494,810	52,531	0,090	0,062
-493,795	748,425	-0,024	0,047
-492,781	-153,482	-0,085	0,004
-491,766	-144,383	0,137	0,009
-490,751	-200,000	-0,016	-0,116
-489,737	425,166	0,038	0,060
-488,722	-200,000	-0,001	0,098
-487,708	-148,876	0,075	0,004
-486,693	-200,000	-0,023	-0,145
-485,678	-90,058	0,085	-0,018
-484,664	800,000	0,010	-0,028
-483,649	800,000	-0,051	-0,133
-482,635	43,346	0,091	0,060
-481,620	-47,509	0,083	0,029
-480,605	-167,678	0,116	-0,003
-479,591	-4,063	-0,060	0,030
-478,576	197,794	-0,054	-0,060
-477,562	-200,000	0,024	-0,088
-476,547	-200,000	-0,025	0,000
-475,532	800,000	-0,006	-0,017
-474,518	-30,474	0,094	0,038
-473,503	89,516	0,056	0,045
-472,489	36,754	-0,101	-0,064
-471,474	-72,317	-0,078	0,021
-470,459	800,000	0,041	-0,092
-469,445	-200,000	-0,107	0,000
-468,430	-200,000	0,022	0,132
-467,416	-61,195	-0,026	-0,008
-466,401	-142,873	0,075	0,005
-465,386	-200,000	0,008	-0,096
-464,372	123,407	-0,139	0,126
-463,357	-200,000	-0,027	-0,091
-462,343	25,630	-0,121	-0,073
-461,328	333,815	-0,015	-0,021
-460,313	-41,681	0,057	0,021
-459,299	167,629	-0,025	0,026
-458,284	-200,000	0,045	0,174
-457,270	350,567	0,056	0,080
-456,255	382,682	0,060	0,090
-455,241	-53,835	-0,098	-0,032
-454,226	-175,387	-0,119	-0,002
-453,211	800,000	-0,063	0,163
-452,197	190,035	0,121	-0,131
-451,182	531,386	0,046	0,079
-450,168	-25,348	-0,141	-0,060
-449,153	-200,000	0,033	-0,141
-448,138	16,941	-0,091	0,052
-447,124	-200,000	-0,000	-0,101
-446,109	-101,879	-0,068	-0,012
-445,095	-104,803	-0,045	0,007
-444,080	-95,026	0,040	-0,008
-443,065	-200,000	-0,016	0,055
-442,051	-135,351	0,053	0,005
-441,036	-200,000	0,030	-0,162
-440,022	272,836	-0,049	-0,062
-439,007	-200,000	0,002	0,050
-437,992	201,793	-0,037	0,041
-436,978	40,406	0,051	0,033
-435,963	-200,000	0,014	0,193
-434,949	18,609	-0,097	0,056
-433,934	-92,301	-0,156	0,031
-432,919	-129,624	0,074	-0,007
-431,905	540,151	-0,079	-0,136
-430,890	112,880	-0,090	-0,078
-429,876	800,000	0,031	0,077
-428,861	-96,761	0,113	0,021
-427,846	-200,000	0,040	0,135
-426,832	-47,187	-0,090	0,031
-425,817	-72,388	0,129	0,034
-424,803	-38,320	-0,103	0,039
-423,788	-42,227	-0,061	0,022
-422,773	-118,667	-0,097	-0,012
-421,759	800,000	0,022	-0,047
-420,744	-200,000	-0,002	-0,115
-419,730	491,003	-0,022	0,036
-418,715	113,749	-0,075	0,066
-417,701	-19,552	0,123	0,055
-416,686	28,923	0,105	0,064
-415,671	-200,000	-0,044	0,141
-414,657	296,046	-0,053	0,071
-413,642	-14,165	0,096	0,044
-412,628	-200,000	-0,026	-0,174
-411,613	327,994	0,015	0,021
-410,598	108,433	0,033	-0,029
-409,584	-200,000	-0,046	0,000
-408,569	-200,000	0,024	0,096
-407,555	245,948	0,052	0,064
-406,540	-148,089	0,067	-0,004
-405,525	-200,000	-0,010	-0,042
-404,511	153,293	-0,041	-0,040
-403,496	121,608	0,115	-0,103
-402,482	-66,044	-0,132	-0,038
-401,467	800,000	0,054	0,123
-400,452	158,968	0,125	-0,125
-399,438	-10,543	0,081	-0,038
-398,423	-105,340	-0,077	-0,013
-397,409	800,000	0,022	-0,049
-396,394	-200,000	-0,058	0,198
-395,379	-16,860	0,123	0,056
-394,365	-200,000	-0,008	0,139
-393,350	-123,270	0,065	0,007
-392,336	-200,000	-0,000	-0,041
-391,321	644,546	-0,055	-0,101
-390,306	-19,496	-0,036	0,016
-389,292	-200,000	0,032	-0,130
-388,277	113,986	-0,008	0,007
-387,263	-4,710	0,033	0,016
-386,248	63,786	0,073	0,053
-385,233	87,231	0,015	0,012
-384,219	-200,000	-0,018	0,173
-383,204	35,600	-0,074	-0,047
-382,190	-123,755	0,052	0,006
-381,175	-200,000	0,007	0,116
-380,160	267,343	0,110	-0,139
-379,146	800,000	-0,030	0,086
-378,131	-200,000	0,039	0,000
-377,117	-200,000	-0,028	-0,108
-376,102	259,414	0,089	0,110
-375,088	800,000	-0,042	-0,094
-374,073	-200,000	-0,005	0,089
-373,058	-71,889	0,055	-0,015
-372,044	361,829	0,047	-0,067
-371,029	108,827	-0,065	-0,056
-370,015	20,380	0,108	-0,062
-369,000	45,723	-0,096	0,064
-367,985	-109,044	-0,117	-0,018
-366,971	-27,830	0,019	-0,008
-365,956	-200,000	0,020	-0,079
-364,942	-66,273	-0,052	0,015
-363,927	204,942	0,087	0,097
-362,912	47,283	-0,102	-0,068
-361,898	-161,681	-0,192	0,007
-360,883	-200,000	-0,003	-0,084
-359,869	38,532	-0,051	-0,032
-358,854	-200,000	-0,001	-0,011
-357,839	32,279	0,050	-0,031
-356,825	-98,664	-0,180	-0,033
-355,810	-161,961	0,009	0,000
-354,796	296,127	0,030	-0,039
-353,781	-200,000	0,024	-0,117
-352,766	800,000	-0,024	-0,067
-351,752	800,000	-0,035	-0,070
-350,737	461,144	0,049	0,078
-349,723	-100,863	-0,148	0,026
-348,708	436,066	0,084	0,132
-347,693	549,380	-0,070	0,121
-346,679	107,365	0,068	-0,058
-345,664	-66,204	-0,018	0,005
-344,650	286,338	0,029	0,037
-343,635	328,617	0,044	0,061
-342,620	-131,468	0,107	-0,010
-341,606	-200,000	0,037	0,140
-340,591	-167,175	-0,030	0,001
-339,577	-200,000	0,002	0,011
-338,562	-200,000	-0,012	-0,051
-337,548	-64,668	0,150	-0,043
-336,533	-200,000	-0,017	0,117
-335,518	-64,486	0,096	-0,028
-334,504	402,566	0,081	0,122
-333,489	190,813	-0,088	-0,094
-332,475	-200,000	-0,020	-0,130
-331,460	-80,067	0,015	0,004
-330,445	43,944	-0,063	-0,041
-329,431	-155,508	0,090	0,004
-328,416	-0,859	-0,137	-0,069
-327,402	48,754	0,090	0,060
-326,387	-9,870	0,097	0,046
-325,372	800,000	-0,041	0,100
-324,358	728,311	0,039	-0,075
-323,343	-200,000	-0,014	-0,060
-322,329	-13,628	0,183	0,085
-321,314	14,548	-0,156	-0,087
-320,299	-156,746	-0,068	-0,003
-319,285	-11,481	0,072	-0,034
-318,270	-63,705	-0,096	0,028
-317,256	2,240	0,086	0,044
-316,241	-103,775	-0,048	0,008
-315,226	-200,000	-0,006	0,163
-314,212	800,000	0,030	0,067
-313,197	-200,000	-0,002	0,085
-312,183	-200,000	-0,009	0,054
-311,168	226,997	-0,061	0,071
-310,153	65,618	-0,086	-0,063
-309,139	800,000	-0,068	-0,137
-308,124	800,000	0,036	-0,112
-307,110	151,483	0,124	0,121
-306,095	-200,000	-0,016	0,181
-305,080	-115,533	0,126	0,017
-304,066	-170,082	-0,044	-0,001
-303,051	-77,735	-0,059	-0,014
-302,037	-200,000	-0,021	-0,093
-301,022	227,825	0,121	0,141
-300,008	-200,000	0,015	0,064
-298,993	4,656	0,051	0,027
-297,978	253,915	-0,071	0,087
-296,964	-200,000	-0,004	0,042
-295,949	-97,491	0,058	-0,011
-294,935	-200,000	-0,010	0,070
-293,920	-39,457	-0,152	0,057
-292,905	-200,000	0,015	0,162
-291,891	-86,983	0,058	0,013
-290,876	62,170	-0,006	0,005
-289,862	-62,010	-0,064	-0,019
-288,847	52,142	-0,077	-0,052
-287,832	800,000	0,007	0,020
-286,818	-200,000	0,064	0,000
-285,803	798,293	0,027	-0,054
-284,789	145,260	0,061	-0,058
-283,774	-168,316	-0,013	-0,000
-282,759	800,000	-0,010	0,029
-281,745	546,734	-0,059	-0,102
-280,730	-73,488	-0,099	-0,026
-279,716	-155,951	0,194	-0,009
-278,701	-22,849	-0,103	-0,044
-277,686	117,931	0,157	0,138
-276,672	392,979	-0,053	0,080
-275,657	-200,000	0,005	0,042
-274,643	-200,000	-0,010	-0,036
-273,628	598,401	-0,025	-0,045
-272,613	254,825	0,051	0,062
-271,599	-200,000	0,067	0,257
-270,584	-200,000	0,004	0,020
-269,570	800,000	-0,027	-0,054
-268,555	-104,383	0,143	-0,023
-267,540	-200,000	0,024	-0,157
-266,526	225,056	0,046	-0,054
-265,511	800,000	0,052	-0,108
-264,497	-66,651	-0,068	0,019
-263,482	-106,747	0,076	-0,012
-262,467	247,311	-0,014	-0,018
-261,453	126,005	0,049	0,044
-260,438	-133,689	0,016	0,001
-259,424	-200,000	-0,013	-0,156
-258,409	-39,403	-0,081	-0,030
-257,395	-200,000	-0,020	0,135
-256,380	330,288	0,030	0,041
-255,365	20,983	-0,104	-0,060
-254,351	-128,011	0,042	-0,004
-253,336	552,196	-0,050	0,086
-252,322	-200,000	-0,007	-0,041
-251,307	800,000	0,048	-0,121
-250,292	65,591	0,038	-0,028
-249,278	60,142	0,098	0,069
-248,263	632,134	0,024	0,044
-247,249	492,913	-0,003	0,005
-246,234	-200,000	0,014	-0,109
-245,219	-200,000	0,009	-0,140
-244,205	-99,390	-0,116	0,021
-243,190	-200,000	0,027	-0,098
-242,176	-200,000	0,010	-0,076
-241,161	800,000	-0,030	0,063
-240,146	269,800	-0,063	0,080
-239,132	-200,000	-0,022	0,083
-238,117	162,211	-0,117	0,118
-237,103	501,660	-0,030	-0,050
-236,088	-23,394	0,029	-0,012
-235,073	-51,304	-0,032	-0,011
-234,059	121,953	0,137	0,122
-233,044	-56,626	0,125	0,039
-232,030	470,303	0,079	-0,128
-231,015	-200,000	0,010	-0,095
-230,000	-200,000	0,000	-0,169
-228,986	800,000	-0,060	-0,154
-227,971	375,183	-0,087	0,127
-226,957	249,336	0,175	-0,212
-225,942	-200,000	-0,010	0,043
-224,927	-200,000	-0,005	0,041
-223,913	229,067	-0,057	-0,066
-222,898	-200,000	0,037	-0,167
-221,884	-119,888	-0,092	0,011
-220,869	-80,561	0,077	-0,018
-219,855	-200,000	0,010	0,081
-218,840	-130,417	-0,053	0,005
-217,825	800,000	-0,052	0,129
-216,811	-200,000	0,022	-0,080
-215,796	268,212	-0,061	0,076
-214,782	-133,489	-0,145	-0,013
-213,767	800,000	0,073	0,174
-212,752	800,000	0,037	0,098
-211,738	-200,000	-0,004	0,096
-210,723	45,882	0,024	0,016
-209,709	514,300	0,027	-0,045
-208,694	379,466	0,034	-0,050
-207,679	143,473	-0,085	0,081
-206,665	-132,032	0,099	-0,009
-205,650	-68,496	0,051	-0,014
-204,636	172,310	0,075	0,077
-203,621	126,935	0,056	0,051
-202,606	799,227	-0,042	-0,083
-201,592	-200,000	-0,003	0,033
-200,577	45,613	-0,106	0,070
-199,563	489,193	-0,015	0,024
-198,548	-200,000	-0,008	0,093
-197,533	140,012	-0,013	-0,012
-196,519	571,710	-0,073	0,127
-195,504	98,320	0,020	-0,016
-194,490	24,593	0,019	0,011
-193,475	-109,165	-0,007	-0,001
-192,460	-69,278	0,010	-0,003
-191,446	71,711	0,095	-0,070
-190,431	303,443	0,041	-0,055
-189,417	-76,825	-0,083	0,021
-188,402	106,539	0,039	0,033
-187,387	83,447	0,112	-0,087
-186,373	-170,140	-0,084	-0,002
-185,358	235,976	0,042	-0,050
-184,344	-136,755	0,064	0,005
-183,329	159,294	-0,056	0,055
-182,315	670,453	0,012	0,023
-181,300	175,370	0,010	-0,011
-180,285	-80,951	-0,148	0,035
-179,271	-123,927	-0,084	-0,009
-178,256	800,000	-0,057	-0,116
-177,242	-14,609	0,143	-0,065
-176,227	-46,963	0,057	0,020
-175,212	179,021	-0,045	0,047
-174,198	-200,000	-0,003	0,123
-173,183	-181,366	-0,144	-0,002
-172,169	237,683	0,034	-0,040
-171,154	257,649	0,023	0,028
-170,139	233,150	0,112	-0,132
-169,125	800,000	-0,027	0,058
-168,110	800,000	-0,069	0,194
-167,096	-140,630	0,151	0,011
-166,081	257,394	0,067	0,083
-165,066	-65,773	-0,152	0,043
-164,052	-119,346	0,155	-0,019
-163,037	550,252	0,078	-0,135
-162,023	66,889	0,066	0,047
-161,008	-200,000	-0,026	0,128
-159,993	175,513	-0,085	0,088
-158,979	-200,000	-0,002	-0,144
-157,964	125,511	-0,103	-0,092
-156,950	101,702	0,068	-0,056
-155,935	36,279	0,085	-0,053
-154,920	-56,397	0,119	0,037
-153,906	-26,284	-0,084	0,035
-152,891	-200,000	-0,005	0,015
-151,877	211,148	0,077	-0,086
-150,862	800,000	-0,051	-0,125
-149,847	-97,053	0,098	0,018
-148,833	800,000	-0,058	-0,154
-147,818	-65,933	0,179	0,051
-146,804	231,052	-0,047	-0,054
-145,789	23,291	0,046	-0,027
-144,775	-13,964	-0,107	0,049
-143,760	-97,812	-0,143	-0,026
-142,745	-200,000	-0,012	-0,099
-141,731	185,766	-0,027	-0,029
-140,716	-29,672	0,028	0,011
-139,702	0,019	-0,063	0,032
-138,687	-200,000	-0,003	-0,113
-137,672	-91,454	0,079	0,016
-136,658	-200,000	-0,003	-0,079
-135,643	-200,000	-0,018	-0,129
-134,629	-200,000	0,004	0,121
-133,614	-112,237	-0,125	0,018
-132,599	228,209	0,101	0,117
-131,585	-200,000	-0,005	-0,065
-130,570	800,000	-0,027	-0,078
-129,556	201,080	-0,037	0,041
-128,541	-55,234	-0,029	0,009
-127,526	-56,833	-0,099	-0,031
-126,512	-37,992	0,057	0,022
-125,497	800,000	-0,011	0,026
-124,483	-7,079	-0,016	-0,008
-123,468	212,466	-0,049	-0,055
-122,453	-106,271	-0,125	0,020
-121,439	555,133	0,028	-0,048
