DTS Sentinel unit serial number:	SN410029Multiplexer serial number:	ORYXHardware model number:	OX2-SRSoftware version number:	ORYX F/W v4,00 Oryx Data Collector v3.7.2.0data status	okinstallation	BH3 CH2differential loss correction	single-endedforward channel	channel 2reverse channel	N/Adate	2023/12/05time	12:02:28forward acquisition time	300,00reverse acquisition time	0,00gamma	499,1914k internal	0,3196k external	0,3196temperature offset calibration	1,0000default loss term (dB/km)	0,3820temperature slope calibration	1,0000multiplexer offset coefficient	1,0000multiplexer slope coefficient	1,0000fibre end	0,00T internal ref (°C)	9,72T ext. ref 1 (°C)	-4,93T ext. ref 2 (°C)	-4,97length (m)	temperature (°C)	Stokes	anti-Stokes-744,400	351,331	0,039	0,057
-743,385	-130,138	-0,243	-0,024
-742,371	59,169	-0,061	-0,044
-741,356	305,653	-0,110	0,150
-740,342	-200,000	-0,011	0,059
-739,327	40,525	-0,162	0,106
-738,312	22,484	-0,089	-0,053
-737,298	273,140	-0,134	0,172
-736,283	30,297	-0,065	-0,041
-735,269	191,526	-0,129	0,141
-734,254	-200,000	0,024	-0,181
-733,239	-49,336	-0,295	-0,102
-732,225	-98,251	0,080	0,015
-731,210	-200,000	-0,003	0,105
-730,196	800,000	-0,051	-0,124
-729,181	-104,991	-0,088	-0,014
-728,167	-77,094	-0,064	-0,016
-727,152	105,331	-0,059	0,050
-726,137	-200,000	-0,011	-0,153
-725,123	-75,220	-0,117	-0,030
-724,108	-89,905	-0,092	0,019
-723,094	8,994	-0,072	-0,039
-722,079	526,053	-0,068	-0,117
-721,064	800,000	0,027	-0,074
-720,050	13,207	-0,032	0,018
-719,035	800,000	0,002	-0,006
-718,021	-200,000	0,022	-0,087
-717,006	748,271	-0,037	-0,072
-715,991	-100,044	-0,106	0,019
-714,977	-100,881	-0,073	-0,013
-713,962	229,389	-0,016	0,019
-712,948	25,888	0,081	-0,049
-711,933	-29,552	-0,089	-0,037
-710,918	-200,000	-0,001	0,052
-709,904	-5,170	0,091	-0,045
-708,889	-200,000	-0,003	-0,026
-707,875	-200,000	-0,006	-0,104
-706,860	91,211	0,064	-0,052
-705,845	7,296	0,036	-0,019
-704,831	-75,942	0,043	-0,011
-703,816	223,284	-0,099	-0,116
-702,802	-0,610	-0,069	-0,036
-701,787	-200,000	-0,013	-0,129
-700,772	27,835	-0,061	-0,037
-699,758	-200,000	0,000	-0,086
-698,743	553,054	0,082	0,144
-697,729	-101,218	-0,067	0,012
-696,714	546,300	-0,075	0,132
-695,699	317,372	0,032	-0,044
-694,685	-71,741	-0,146	0,039
-693,670	-200,000	0,014	0,057
-692,656	800,000	-0,018	-0,039
-691,641	53,019	0,070	0,049
-690,627	-200,000	0,002	-0,041
-689,612	800,000	0,024	0,068
-688,597	-62,316	0,051	-0,015
-687,583	800,000	-0,025	0,060
-686,568	162,168	-0,091	-0,093
-685,554	76,340	-0,056	-0,043
-684,539	-138,848	0,128	0,010
-683,524	137,979	0,054	-0,052
-682,510	26,194	0,084	-0,051
-681,495	-85,081	0,025	0,006
-680,481	308,489	0,086	-0,117
-679,466	0,305	-0,127	-0,066
-678,451	135,166	0,043	-0,040
-677,437	-20,088	-0,115	-0,051
-676,422	-200,000	-0,009	0,178
-675,408	800,000	-0,030	-0,071
-674,393	-14,207	-0,091	0,042
-673,378	157,757	-0,099	-0,100
-672,364	281,401	-0,069	0,090
-671,349	491,959	-0,056	-0,094
-670,335	383,494	0,034	-0,050
-669,320	-130,593	0,075	-0,007
-668,305	-78,882	0,175	0,043
-667,291	89,378	0,068	0,055
-666,276	800,000	0,062	0,144
-665,262	12,834	-0,072	-0,040
-664,247	319,771	0,058	0,080
-663,232	187,624	-0,047	0,050
-662,218	-200,000	0,023	-0,092
-661,203	-200,000	0,025	0,096
-660,189	-200,000	0,000	-0,032
-659,174	488,282	-0,078	-0,130
-658,159	81,815	0,095	-0,074
-657,145	-200,000	-0,011	-0,079
-656,130	-200,000	-0,028	-0,091
-655,116	110,639	0,054	-0,047
-654,101	53,202	0,073	0,051
-653,086	-48,930	-0,221	0,076
-652,072	-1,131	-0,044	-0,022
-651,057	-35,770	-0,079	0,031
-650,043	31,455	-0,038	0,023
-649,028	0,325	0,071	-0,037
-648,014	800,000	0,064	0,183
-646,999	80,606	0,152	0,119
-645,984	288,599	0,044	-0,057
-644,970	-200,000	-0,033	-0,142
-643,955	800,000	-0,057	-0,123
-642,941	-200,000	-0,022	-0,111
-641,926	552,168	-0,052	0,092
-640,911	800,000	-0,037	-0,077
-639,897	-43,750	0,063	0,023
-638,882	261,589	-0,083	0,105
-637,868	-77,359	-0,137	-0,034
-636,853	-82,917	0,096	-0,022
-635,838	170,756	0,081	-0,084
-634,824	335,230	-0,056	-0,079
-633,809	-14,551	-0,064	0,030
-632,795	29,813	-0,141	-0,087
-631,780	58,018	-0,077	-0,054
-630,765	-200,000	-0,000	-0,060
-629,751	83,584	-0,075	-0,059
-628,736	113,095	-0,123	-0,108
-627,722	378,732	-0,051	0,076
-626,707	800,000	0,036	0,098
-625,692	273,760	0,097	0,125
-624,678	264,445	-0,030	0,039
-623,663	271,112	0,092	-0,118
-622,649	340,512	0,046	-0,065
-621,634	-111,482	-0,131	-0,019
-620,619	230,758	0,098	-0,116
-619,605	145,915	0,054	-0,053
-618,590	-200,000	-0,007	0,024
-617,576	121,724	0,112	0,101
-616,561	-71,710	-0,009	0,003
-615,546	103,201	-0,051	-0,043
-614,532	-153,562	-0,041	0,002
-613,517	800,000	-0,066	-0,152
-612,503	-200,000	-0,036	-0,127
-611,488	-64,417	0,153	-0,045
-610,474	219,707	-0,065	0,076
-609,459	16,386	-0,057	0,032
-608,444	14,305	-0,136	0,077
-607,430	64,444	-0,067	-0,049
-606,415	-200,000	-0,007	-0,148
-605,401	-200,000	-0,002	-0,010
-604,386	800,000	0,022	0,069
-603,371	800,000	0,030	-0,079
-602,357	188,558	0,032	-0,035
-601,342	452,591	-0,110	-0,177
-600,328	-200,000	-0,027	-0,206
-599,313	5,514	-0,166	-0,089
-598,298	-35,925	-0,129	-0,050
-597,284	91,266	0,106	-0,086
-596,269	0,169	-0,153	-0,079
-595,255	800,000	0,071	0,159
-594,240	-200,000	-0,012	-0,092
-593,225	35,051	0,060	0,038
-592,211	215,894	-0,018	0,021
-591,196	-200,000	-0,005	-0,042
-590,182	-200,000	0,003	0,032
-589,167	-97,798	-0,105	-0,019
-588,152	-200,000	-0,024	0,087
-587,138	-44,588	-0,193	0,069
-586,123	248,181	-0,064	-0,079
-585,109	-200,000	0,032	-0,119
-584,094	4,595	-0,019	0,010
-583,079	-45,410	-0,008	-0,003
-582,065	203,120	0,023	-0,025
-581,050	800,000	-0,028	0,077
-580,036	211,700	-0,017	-0,020
-579,021	572,765	-0,134	-0,236
-578,006	-96,813	0,037	-0,007
-576,992	51,821	-0,186	-0,128
-575,977	-200,000	0,005	0,020
-574,963	-31,727	-0,053	0,022
-573,948	-200,000	0,006	-0,027
-572,934	-200,000	-0,006	-0,033
-571,919	-38,013	0,085	-0,032
-570,904	-185,487	-0,079	-0,001
-569,890	-200,000	0,007	-0,037
-568,875	-200,000	0,006	-0,069
-567,861	57,423	0,090	-0,063
-566,846	-35,708	0,116	0,045
-565,831	-19,854	0,138	-0,061
-564,817	20,381	-0,018	-0,010
-563,802	417,066	-0,043	-0,066
-562,788	-200,000	-0,005	-0,185
-561,773	-21,839	-0,052	-0,023
-560,758	233,484	0,047	0,056
-559,744	-71,512	-0,104	0,028
-558,729	-200,000	-0,001	0,019
-557,715	-89,418	-0,047	-0,010
-556,700	-200,000	0,031	-0,175
-555,685	-9,456	-0,041	0,020
-554,671	-38,314	-0,104	-0,040
-553,656	77,627	0,027	0,021
-552,642	-200,000	-0,009	-0,040
-551,627	-152,503	-0,126	0,006
-550,612	66,876	-0,089	0,065
-549,598	-200,000	0,019	0,063
-548,583	413,293	-0,029	-0,044
-547,569	-1,999	-0,079	0,040
-546,554	221,964	-0,045	-0,052
-545,539	-200,000	-0,002	-0,010
-544,525	-200,000	-0,030	0,114
-543,510	654,818	-0,041	-0,076
-542,496	-200,000	-0,014	-0,129
-541,481	-200,000	-0,003	0,016
-540,466	-2,906	-0,052	0,026
-539,452	173,302	0,117	0,122
-538,437	13,085	0,201	-0,112
-537,423	9,733	-0,189	0,103
-536,408	-124,999	0,091	-0,010
-535,393	-49,059	-0,181	0,062
-534,379	411,012	-0,052	0,080
-533,364	19,427	-0,064	-0,037
-532,350	-162,313	0,097	-0,003
-531,335	-36,069	0,045	-0,018
-530,321	21,859	-0,004	0,002
-529,306	32,646	0,029	0,018
-528,291	395,372	0,068	0,102
-527,277	-109,208	0,042	0,006
-526,262	-163,015	-0,084	-0,003
-525,248	-200,000	-0,009	-0,147
-524,233	-19,226	-0,058	-0,026
-523,218	200,386	-0,046	0,051
-522,204	-11,007	-0,113	-0,054
-521,189	349,318	-0,018	-0,026
-520,175	-43,388	-0,009	0,003
-519,160	-115,481	0,143	0,019
-518,145	-7,647	0,065	0,031
-517,131	-36,578	0,066	0,025
-516,116	145,782	0,134	0,130
-515,102	-27,294	-0,110	-0,046
-514,087	165,772	0,035	-0,036
-513,072	-35,686	-0,078	0,030
-512,058	800,000	-0,037	0,104
-511,043	-200,000	0,014	-0,123
-510,029	-2,346	-0,133	0,067
-509,014	200,522	-0,042	0,046
-507,999	-66,665	0,135	-0,038
-506,985	285,913	0,058	-0,076
-505,970	87,329	0,057	0,045
-504,956	-87,098	-0,074	-0,016
-503,941	-200,000	-0,007	0,067
-502,926	-200,000	0,013	0,149
-501,912	665,035	-0,018	0,034
-500,897	-200,000	0,009	0,132
-499,883	-200,000	0,009	0,059
-498,868	800,000	-0,032	0,080
-497,853	87,263	-0,067	-0,054
-496,839	221,770	-0,059	-0,069
-495,824	-200,000	-0,003	-0,100
-494,810	800,000	0,020	-0,053
-493,795	-107,441	-0,054	-0,009
-492,781	-116,109	-0,147	0,020
-491,766	-200,000	-0,003	-0,133
-490,751	800,000	0,064	-0,180
-489,737	-62,549	-0,098	-0,029
-488,722	800,000	0,052	-0,133
-487,708	278,128	-0,041	-0,052
-486,693	-169,059	0,085	0,002
-485,678	-68,197	-0,108	-0,030
-484,664	-200,000	0,016	-0,116
-483,649	800,000	-0,031	0,066
-482,635	800,000	-0,032	-0,095
-481,620	-200,000	-0,018	0,079
-480,605	-200,000	-0,010	0,097
-479,591	-200,000	0,015	0,118
-478,576	146,839	-0,034	-0,033
-477,562	800,000	-0,038	-0,082
-476,547	71,988	0,107	-0,080
-475,532	-5,838	0,101	0,049
-474,518	800,000	0,041	0,095
-473,503	-18,051	0,023	-0,010
-472,489	-200,000	0,060	0,204
-471,474	53,159	-0,040	0,027
-470,459	25,473	-0,041	0,024
-469,445	800,000	-0,019	0,042
-468,430	514,845	-0,072	0,122
-467,416	-134,321	-0,072	-0,006
-466,401	-47,654	0,112	0,039
-465,386	-53,287	-0,104	-0,034
-464,372	615,754	-0,055	0,100
-463,357	149,259	-0,126	0,123
-462,343	276,387	-0,068	0,087
-461,328	121,826	-0,081	-0,072
-460,313	-146,418	-0,055	-0,003
-459,299	90,904	0,040	-0,032
-458,284	58,471	-0,043	0,030
-457,270	32,537	-0,095	0,059
-456,255	6,768	-0,071	0,038
-455,241	-200,000	-0,004	0,021
-454,226	-123,287	-0,054	-0,006
-453,211	800,000	0,045	0,112
-452,197	248,174	0,150	0,183
-451,182	-75,824	0,094	-0,024
-450,168	-200,000	0,010	0,050
-449,153	-200,000	0,020	-0,067
-448,138	106,623	-0,133	-0,113
-447,124	-120,744	0,067	-0,008
-446,109	-200,000	0,002	-0,077
-445,095	-76,645	0,088	0,022
-444,080	323,295	0,092	-0,126
-443,065	800,000	0,024	0,071
-442,051	-106,908	-0,219	-0,034
-441,036	314,344	-0,048	-0,065
-440,022	800,000	0,026	-0,058
-439,007	85,047	0,143	0,113
-437,992	-83,739	0,091	0,021
-436,978	375,174	-0,018	-0,026
-435,963	-57,525	0,098	0,031
-434,949	-200,000	0,044	-0,155
-433,934	-111,123	0,021	0,003
-432,919	304,377	-0,061	0,082
-431,905	356,197	0,069	0,099
-430,890	-163,494	0,116	-0,004
-429,876	-200,000	0,004	-0,194
-428,861	800,000	0,015	0,044
-427,846	-200,000	0,033	-0,122
-426,832	-200,000	0,010	-0,044
-425,817	-200,000	0,006	0,062
-424,803	-17,936	-0,158	0,071
-423,788	105,097	0,056	-0,048
-422,773	800,000	0,016	0,047
-421,759	-200,000	0,000	-0,031
-420,744	-200,000	-0,002	-0,065
-419,730	-112,467	0,028	-0,004
-418,715	-52,728	0,094	0,031
-417,701	-34,782	-0,034	0,013
-416,686	-34,031	0,079	-0,031
-415,671	12,795	-0,068	-0,038
-414,657	84,233	-0,048	0,038
-413,642	800,000	-0,024	0,047
-412,628	108,048	-0,141	0,121
-411,613	101,462	0,034	-0,029
-410,598	800,000	-0,026	-0,070
-409,584	800,000	0,030	0,067
-408,569	-200,000	0,003	-0,026
-407,555	-8,214	-0,063	0,031
-406,540	-200,000	-0,018	0,060
-405,525	17,037	-0,045	0,026
-404,511	-167,648	0,034	-0,001
-403,496	350,318	-0,055	-0,079
-402,482	78,850	0,068	-0,052
-401,467	-95,484	0,117	0,022
-400,452	800,000	0,012	-0,037
-399,438	-200,000	0,014	0,131
-398,423	-116,926	-0,087	0,011
-397,409	501,993	-0,062	-0,104
-396,394	149,750	0,020	-0,020
-395,379	-200,000	-0,003	0,125
-394,365	-77,104	0,066	-0,017
-393,350	-45,940	0,030	-0,011
-392,336	-200,000	0,012	0,043
-391,321	286,415	0,021	-0,027
-390,306	-200,000	0,001	-0,079
-389,292	148,668	-0,062	-0,061
-388,277	-138,374	0,067	0,005
-387,263	800,000	0,078	0,184
-386,248	-200,000	-0,017	0,110
-385,233	85,908	0,030	-0,024
-384,219	-37,728	0,090	-0,034
-383,204	368,977	0,034	-0,049
-382,190	266,171	0,081	-0,102
-381,175	36,535	-0,079	-0,050
-380,160	-25,152	-0,148	-0,063
-379,146	-200,000	0,015	-0,112
-378,131	135,298	-0,028	0,026
-377,117	-200,000	-0,021	0,068
-376,102	216,708	-0,026	0,030
-375,088	-131,749	0,053	0,005
-374,073	503,019	0,079	-0,131
-373,058	800,000	0,046	0,127
-372,044	82,539	-0,070	-0,055
-371,029	-200,000	-0,004	-0,038
-370,015	451,338	-0,065	0,103
-369,000	-100,132	0,050	0,009
-367,985	-113,801	0,064	0,009
-366,971	291,020	0,058	0,076
-365,956	82,198	0,046	-0,036
-364,942	-200,000	-0,001	-0,019
-363,927	-69,699	0,077	0,021
-362,912	374,854	-0,094	-0,138
-361,898	101,267	0,025	-0,021
-360,883	800,000	-0,011	-0,026
-359,869	800,000	0,030	-0,068
-358,854	695,885	0,035	-0,066
-357,839	403,669	0,040	0,061
-356,825	33,308	-0,091	-0,057
-355,810	119,779	-0,026	0,024
-354,796	-200,000	0,034	0,179
-353,781	-110,035	-0,100	-0,015
-352,766	-200,000	-0,005	-0,030
-351,752	-200,000	0,004	-0,016
-350,737	-187,426	0,088	0,001
-349,723	290,068	0,057	0,074
-348,708	248,125	-0,071	0,086
-347,693	692,257	-0,044	0,083
-346,679	-25,878	0,025	0,011
-345,664	-200,000	-0,024	0,097
-344,650	-200,000	-0,018	-0,086
-343,635	-106,243	-0,091	0,014
-342,620	800,000	-0,032	0,070
-341,606	90,649	-0,084	-0,067
-340,591	175,557	0,086	-0,089
-339,577	-125,624	0,045	0,005
-338,562	255,292	-0,093	0,115
-337,548	-200,000	-0,002	-0,033
-336,533	369,197	0,060	-0,087
-335,518	-200,000	0,037	0,140
-334,504	-200,000	-0,022	0,114
-333,489	-200,000	-0,026	-0,113
-332,475	201,666	0,114	-0,126
-331,460	276,965	-0,040	0,051
-330,445	-81,548	0,068	0,016
-329,431	22,099	0,081	-0,047
-328,416	161,155	-0,071	0,071
-327,402	-147,691	0,250	-0,015
-326,387	137,597	0,059	-0,056
-325,372	89,443	0,059	0,047
-324,358	-200,000	-0,012	0,136
-323,343	197,341	0,034	0,037
-322,329	316,321	-0,035	-0,047
-321,314	199,566	-0,049	0,054
-320,299	4,758	0,139	0,073
-319,285	-200,000	-0,019	-0,205
-318,270	-60,079	0,042	0,013
-317,256	65,962	0,053	-0,039
-316,241	568,180	-0,041	-0,072
-315,226	232,101	-0,012	-0,015
-314,212	-66,444	0,130	0,037
-313,197	-78,751	-0,021	0,005
-312,183	-200,000	-0,029	-0,100
-311,168	800,000	0,066	-0,154
-310,153	800,000	0,023	-0,047
-309,139	184,635	0,028	0,030
-308,124	453,934	0,069	-0,111
-307,110	-200,000	0,003	0,176
-306,095	-200,000	-0,032	0,150
-305,080	-200,000	-0,018	0,079
-304,066	-36,363	0,069	-0,026
-303,051	-135,393	-0,059	0,005
-302,037	580,901	-0,040	0,071
-301,022	-139,589	0,128	0,010
-300,008	-200,000	0,033	0,118
-298,993	-200,000	-0,002	0,066
-297,978	63,326	0,090	-0,065
-296,964	691,468	0,039	-0,073
-295,949	-5,015	-0,080	-0,039
-294,935	-200,000	0,007	-0,110
-293,920	800,000	-0,020	0,049
-292,905	89,912	0,061	0,049
-291,891	-181,368	0,068	0,001
-290,876	-200,000	0,003	-0,018
-289,862	368,750	-0,079	-0,115
-288,847	-174,953	-0,133	0,003
-287,832	665,873	-0,008	-0,015
-286,818	415,054	-0,041	-0,063
-285,803	262,226	-0,070	-0,087
-284,789	-52,954	0,145	0,047
-283,774	-200,000	-0,027	0,153
-282,759	-60,609	0,012	0,003
-281,745	29,520	0,012	0,007
-280,730	800,000	-0,048	-0,117
-279,716	93,336	-0,052	0,042
-278,701	140,485	-0,111	-0,104
-277,686	368,179	0,135	0,196
-276,672	-59,271	0,062	0,019
-275,657	-200,000	0,016	0,056
-274,643	225,677	-0,014	-0,016
-273,628	580,237	-0,094	-0,165
-272,613	294,018	0,061	0,079
-271,599	-200,000	-0,019	-0,097
-270,584	321,125	0,111	0,152
-269,570	-200,000	0,004	0,165
-268,555	67,215	0,090	0,066
-267,540	138,938	-0,026	0,024
-266,526	12,465	-0,184	-0,101
-265,511	-97,017	0,152	-0,028
-264,497	-200,000	0,004	0,032
-263,482	-66,160	0,114	0,032
-262,467	12,789	-0,101	-0,056
-261,453	-8,901	0,027	-0,013
-260,438	113,807	0,056	0,049
-259,424	2,702	-0,053	0,027
-258,409	-122,172	0,100	0,012
-257,395	-70,738	0,151	-0,041
-256,380	568,936	0,056	0,098
-255,365	-200,000	0,010	0,044
-254,351	223,983	-0,016	0,018
-253,336	793,716	-0,065	-0,129
-252,322	-27,572	0,100	0,041
-251,307	800,000	0,051	0,144
-250,292	-200,000	0,006	-0,107
-249,278	157,144	-0,015	-0,015
-248,263	39,652	-0,029	0,019
-247,249	3,234	0,063	0,032
-246,234	-200,000	-0,016	0,135
-245,219	233,031	0,106	-0,125
-244,205	-200,000	-0,007	-0,052
-243,190	-200,000	0,010	-0,142
-242,176	800,000	0,034	0,068
-241,161	7,984	0,207	0,111
-240,146	59,570	-0,067	0,047
-239,132	205,596	-0,087	-0,096
-238,117	-0,443	0,097	-0,049
-237,103	136,657	0,056	-0,052
-236,088	-141,792	0,119	-0,008
-235,073	-39,268	0,139	-0,052
-234,059	356,119	0,037	-0,052
-233,044	800,000	0,011	-0,031
-232,030	800,000	-0,050	-0,109
-231,015	25,843	0,045	-0,027
-230,000	719,251	0,020	0,038
-228,986	114,049	-0,056	0,049
-227,971	-138,145	0,050	-0,004
-226,957	249,745	0,076	0,092
-225,942	168,281	-0,143	0,145
-224,927	800,000	-0,017	-0,052
-223,913	60,455	0,105	0,074
-222,898	464,727	-0,048	0,077
-221,884	-200,000	0,018	0,111
-220,869	-106,581	0,072	0,011
-219,855	-200,000	0,004	-0,028
-218,840	-21,186	0,084	-0,037
-217,825	17,222	0,083	0,047
-216,811	-31,632	-0,051	0,020
-215,796	71,706	0,063	0,046
-214,782	-200,000	-0,042	0,153
-213,767	226,483	-0,057	0,066
-212,752	-40,902	0,086	-0,032
-211,738	-200,000	0,010	0,053
-210,723	-200,000	-0,022	0,113
-209,709	705,883	-0,077	-0,145
-208,694	16,210	-0,019	-0,011
-207,679	-84,543	0,085	0,019
-206,665	-200,000	-0,018	0,173
-205,650	-28,645	-0,089	-0,036
-204,636	-11,002	0,066	0,031
-203,621	119,961	0,133	-0,117
-202,606	-200,000	0,005	-0,067
-201,592	-200,000	-0,001	-0,028
-200,577	310,569	-0,069	-0,092
-199,563	757,490	0,030	-0,057
-198,548	-57,661	-0,061	-0,019
-197,533	285,444	-0,090	0,116
-196,519	800,000	0,089	0,235
-195,504	86,413	0,064	-0,051
-194,490	-7,264	-0,078	0,038
-193,475	-200,000	-0,025	0,108
-192,460	800,000	-0,047	0,131
-191,446	3,243	0,114	-0,059
-190,431	76,069	-0,117	0,088
-189,417	369,697	0,051	0,074
-188,402	635,463	0,067	-0,122
-187,387	-55,716	-0,213	0,068
-186,373	-69,775	-0,066	0,018
-185,358	-200,000	0,029	-0,101
-184,344	45,213	0,047	-0,031
-183,329	63,239	-0,099	0,071
-182,315	-160,926	-0,095	-0,003
-181,300	-154,036	0,041	0,002
-180,285	-200,000	-0,008	-0,056
-179,271	74,563	-0,046	0,035
-178,256	301,517	-0,037	0,048
-177,242	80,940	0,105	0,081
-176,227	-119,110	-0,049	-0,006
-175,212	151,582	-0,072	0,070
-174,198	-200,000	-0,010	0,079
-173,183	-70,309	0,048	0,013
-172,169	-200,000	-0,009	0,086
-171,154	-8,745	-0,051	-0,024
-170,139	-43,539	0,051	-0,018
-169,125	-200,000	-0,010	0,049
-168,110	-144,728	-0,095	0,006
-167,096	401,665	0,056	-0,084
-166,081	-200,000	0,001	-0,076
-165,066	139,079	0,078	0,073
-164,052	-200,000	0,022	-0,088
-163,037	540,283	0,006	-0,011
-162,023	-109,683	0,068	0,010
-161,008	-200,000	-0,013	-0,076
-159,993	484,670	-0,042	0,069
-158,979	98,338	-0,031	0,025
-157,964	340,276	-0,067	0,093
-156,950	-200,000	0,002	0,032
-155,935	800,000	0,037	0,097
-154,920	160,452	-0,074	0,074
-153,906	-73,114	0,105	-0,027
-152,891	229,919	0,121	0,141
-151,877	-200,000	0,026	0,150
-150,862	-24,681	-0,085	-0,036
-149,847	800,000	-0,042	-0,096
-148,833	-148,948	-0,098	0,006
-147,818	-200,000	0,024	-0,166
-146,804	800,000	-0,038	0,101
-145,789	-55,379	-0,113	0,036
-144,775	-73,005	-0,116	0,030
-143,760	-200,000	-0,020	-0,071
-142,745	-200,000	0,002	-0,098
-141,731	598,637	0,016	0,028
-140,716	24,009	0,125	0,073
-139,702	-29,877	0,054	0,022
-138,687	137,911	0,068	0,063
-137,672	-128,385	0,104	-0,010
-136,658	-200,000	-0,028	-0,091
-135,643	-43,807	0,058	0,021
-134,629	105,819	-0,053	-0,044
-133,614	-143,227	0,029	-0,002
-132,599	800,000	-0,069	0,164
-131,585	46,773	0,140	0,092
-130,570	-120,966	-0,163	-0,019
-129,556	-81,214	0,055	-0,013
-128,541	-169,160	0,054	-0,001
-127,526	-200,000	-0,019	0,112
-126,512	800,000	0,033	0,099
-125,497	-200,000	0,005	-0,131
-124,483	122,610	-0,088	0,078
-123,468	-200,000	-0,016	-0,094
-122,453	-13,384	-0,095	-0,044
-121,439	-200,000	0,012	-0,120
-120,424	-200,000	0,013	-0,056
-119,410	800,000	0,073	0,149
