DTS Sentinel unit serial number:	SN410029Multiplexer serial number:	ORYXHardware model number:	OX2-SRSoftware version number:	ORYX F/W v4,00 Oryx Data Collector v3.7.2.0data status	okinstallation	BH3 CH2differential loss correction	single-endedforward channel	channel 2reverse channel	N/Adate	2023/12/06time	00:32:28forward acquisition time	300,00reverse acquisition time	0,00gamma	499,1914k internal	0,3196k external	0,3196temperature offset calibration	1,0000default loss term (dB/km)	0,3820temperature slope calibration	1,0000multiplexer offset coefficient	1,0000multiplexer slope coefficient	1,0000fibre end	0,00T internal ref (°C)	9,39T ext. ref 1 (°C)	-5,47T ext. ref 2 (°C)	-5,54length (m)	temperature (°C)	Stokes	anti-Stokes-744,400	-200,000	-0,001	-0,239
-743,385	-144,554	-0,368	0,024
-742,371	-200,000	0,042	-0,149
-741,356	274,804	-0,138	0,179
-740,342	-200,000	-0,001	-0,145
-739,327	-37,988	-0,285	0,110
-738,312	359,366	0,040	-0,058
-737,298	-7,285	-0,138	0,068
-736,283	-200,000	-0,016	-0,107
-735,269	394,508	-0,133	0,202
-734,254	401,371	-0,126	-0,193
-733,239	-147,453	-0,478	-0,029
-732,225	227,585	0,066	0,078
-731,210	800,000	-0,044	0,090
-730,196	-200,000	-0,023	0,108
-729,181	800,000	0,011	-0,033
-728,167	362,570	-0,010	-0,015
-727,152	0,296	0,068	-0,035
-726,137	-200,000	0,003	0,053
-725,123	474,852	-0,041	0,068
-724,108	-200,000	0,009	-0,127
-723,094	800,000	-0,018	-0,040
-722,079	-18,907	-0,148	0,067
-721,064	168,498	0,050	0,052
-720,050	99,617	-0,064	-0,054
-719,035	102,719	-0,019	0,016
-718,021	-31,463	-0,111	0,045
-717,006	-123,233	-0,058	-0,007
-715,991	-189,575	-0,077	0,001
-714,977	-200,000	-0,010	0,116
-713,962	176,948	-0,065	-0,069
-712,948	67,828	-0,004	0,003
-711,933	-200,000	0,013	0,090
-710,918	-47,425	-0,251	0,088
-709,904	800,000	-0,029	-0,091
-708,889	154,368	-0,078	-0,078
-707,875	288,627	-0,069	-0,091
-706,860	40,383	-0,099	-0,065
-705,845	161,450	0,024	0,025
-704,831	-4,165	0,089	0,044
-703,816	800,000	-0,026	0,061
-702,802	200,610	0,029	-0,033
-701,787	7,365	-0,095	0,051
-700,772	661,227	0,011	-0,020
-699,758	-62,502	-0,112	-0,034
-698,743	-111,569	0,028	0,004
-697,729	-200,000	-0,005	-0,056
-696,714	-156,969	-0,082	-0,004
-695,699	153,567	0,019	-0,019
-694,685	-80,894	-0,102	-0,024
-693,670	178,295	-0,046	0,049
-692,656	88,997	0,043	0,035
-691,641	352,474	0,108	-0,156
-690,627	800,000	0,066	0,155
-689,612	-95,858	0,201	-0,039
-688,597	222,889	-0,067	0,078
-687,583	-44,349	-0,139	-0,050
-686,568	-200,000	-0,024	-0,107
-685,554	-62,664	-0,056	-0,017
-684,539	118,302	0,137	0,123
-683,524	24,248	-0,074	0,045
-682,510	203,741	-0,123	0,139
-681,495	454,668	0,072	-0,117
-680,481	-200,000	-0,010	-0,146
-679,466	-200,000	-0,001	-0,038
-678,451	268,325	-0,074	-0,094
-677,437	107,837	0,079	-0,068
-676,422	-48,715	0,150	-0,052
-675,408	235,087	-0,088	0,105
-674,393	800,000	-0,059	0,153
-673,378	75,335	-0,111	-0,085
-672,364	84,319	-0,122	-0,097
-671,349	594,814	-0,091	0,164
-670,335	-200,000	0,009	0,175
-669,320	469,928	0,063	0,104
-668,305	318,215	0,044	-0,060
-667,291	272,914	-0,056	-0,071
-666,276	255,173	-0,040	0,050
-665,262	78,661	-0,108	0,084
-664,247	-200,000	0,005	-0,035
-663,232	501,307	-0,018	0,030
-662,218	-200,000	0,051	0,167
-661,203	-200,000	0,035	0,181
-660,189	3,011	-0,035	-0,018
-659,174	5,393	-0,142	-0,076
-658,159	800,000	0,016	-0,036
-657,145	9,972	-0,076	0,042
-656,130	800,000	-0,061	0,190
-655,116	38,350	0,119	0,077
-654,101	73,057	-0,044	0,033
-653,086	28,556	-0,016	0,010
-652,072	-118,000	0,052	-0,007
-651,057	157,678	-0,069	-0,069
-650,043	-145,269	-0,048	0,003
-649,028	665,461	0,050	-0,094
-648,014	170,182	-0,065	-0,067
-646,999	696,080	0,041	0,079
-645,984	-200,000	-0,008	-0,075
-644,970	-133,689	-0,063	0,006
-643,955	-200,000	-0,033	-0,156
-642,941	-200,000	-0,016	-0,064
-641,926	800,000	-0,027	-0,064
-640,911	358,098	-0,023	0,033
-639,897	26,464	0,105	0,063
-638,882	-200,000	-0,014	0,091
-637,868	-110,499	-0,075	0,011
-636,853	187,701	0,074	-0,080
-635,838	73,955	0,015	-0,012
-634,824	-191,551	0,094	-0,001
-633,809	800,000	0,032	-0,072
-632,795	800,000	-0,037	-0,075
-631,780	-143,510	-0,122	-0,008
-630,765	258,648	-0,094	-0,118
-629,751	79,928	0,013	0,010
-628,736	-132,034	0,043	-0,004
-627,722	26,233	-0,088	-0,053
-626,707	202,094	0,083	-0,093
-625,692	-22,890	-0,006	-0,003
-624,678	800,000	-0,031	0,068
-623,663	-70,386	-0,021	0,006
-622,649	-200,000	-0,022	0,086
-621,634	683,748	0,011	-0,020
-620,619	56,129	0,013	0,009
-619,605	533,292	-0,077	-0,132
-618,590	163,169	0,023	0,023
-617,576	410,513	-0,026	-0,040
-616,561	155,868	-0,079	-0,079
-615,546	146,003	0,054	0,052
-614,532	-69,307	-0,083	-0,023
-613,517	-97,841	0,036	-0,007
-612,503	5,430	0,138	0,074
-611,488	225,001	-0,084	0,098
-610,474	141,459	-0,019	-0,018
-609,459	-113,532	-0,125	-0,018
-608,444	-133,342	-0,144	-0,013
-607,430	-200,000	0,031	-0,110
-606,415	-33,477	-0,075	-0,030
-605,401	-56,219	0,079	-0,025
-604,386	800,000	0,063	0,150
-603,371	75,154	0,052	0,040
-602,357	61,180	-0,099	-0,071
-601,342	211,736	0,059	0,068
-600,328	-195,892	-0,219	-0,001
-599,313	800,000	-0,040	-0,114
-598,298	-200,000	-0,003	0,060
-597,284	800,000	-0,023	0,050
-596,269	-1,327	0,111	0,057
-595,255	-18,773	-0,100	0,045
-594,240	800,000	-0,024	-0,054
-593,225	632,743	-0,105	-0,193
-592,211	2,724	-0,022	0,011
-591,196	173,251	0,100	-0,104
-590,182	-18,129	-0,026	-0,012
-589,167	51,165	-0,076	0,052
-588,152	800,000	-0,059	0,144
-587,138	20,202	-0,089	0,052
-586,123	-200,000	0,000	0,096
-585,109	-200,000	0,002	-0,036
-584,094	800,000	-0,018	0,043
-583,079	-114,082	0,101	0,014
-582,065	800,000	-0,040	-0,088
-581,050	-110,102	0,082	0,012
-580,036	15,281	-0,077	-0,044
-579,021	-186,750	-0,088	-0,001
-578,006	800,000	-0,061	-0,134
-576,992	309,602	0,055	0,075
-575,977	103,392	0,088	-0,074
-574,963	800,000	0,048	-0,132
-573,948	-200,000	-0,006	-0,055
-572,934	800,000	-0,019	-0,049
-571,919	209,146	-0,077	-0,087
-570,904	800,000	0,048	0,099
-569,890	525,833	-0,038	-0,065
-568,875	-200,000	-0,030	0,118
-567,861	-137,561	0,011	0,001
-566,846	-200,000	-0,022	0,103
-565,831	-200,000	-0,035	-0,112
-564,817	-7,515	-0,130	-0,063
-563,802	-200,000	-0,009	-0,048
-562,788	-145,320	-0,017	-0,001
-561,773	137,407	-0,126	-0,119
-560,758	-0,901	0,040	-0,020
-559,744	-200,000	0,007	0,074
-558,729	-200,000	-0,001	0,029
-557,715	1,728	-0,048	0,025
-556,700	-56,128	-0,043	0,014
-555,685	549,650	-0,048	-0,083
-554,671	204,586	0,031	-0,035
-553,656	-200,000	-0,011	0,000
-552,642	-67,292	0,084	-0,024
-551,627	366,771	0,097	0,141
-550,612	800,000	-0,019	-0,055
-549,598	538,976	-0,046	-0,080
-548,583	316,629	-0,092	0,125
-547,569	191,358	-0,061	-0,067
-546,554	6,803	0,153	0,082
-545,539	-200,000	-0,007	0,174
-544,525	0,272	-0,014	-0,007
-543,510	800,000	-0,032	0,076
-542,496	143,682	0,120	0,116
-541,481	800,000	-0,034	-0,084
-540,466	121,246	-0,092	0,083
-539,452	327,314	-0,055	0,077
-538,437	718,666	0,049	0,094
-537,423	149,583	0,036	0,036
-536,408	-140,374	0,065	-0,005
-535,393	129,757	-0,067	-0,062
-534,379	614,709	0,046	-0,084
-533,364	-93,617	-0,020	0,004
-532,350	575,561	-0,054	0,095
-531,335	134,883	-0,049	-0,046
-530,321	800,000	-0,026	-0,058
-529,306	-85,147	-0,087	0,019
-528,291	-153,258	-0,137	-0,007
-527,277	38,147	-0,099	0,064
-526,262	-200,000	0,015	-0,096
-525,248	800,000	0,073	-0,176
-524,233	-75,992	-0,173	-0,044
-523,218	327,442	0,035	0,048
-522,204	124,427	-0,068	-0,062
-521,189	369,973	-0,054	-0,079
-520,175	-39,326	-0,122	0,046
-519,160	676,032	0,052	-0,097
-518,145	800,000	-0,079	-0,247
-517,131	-25,396	0,050	-0,021
-516,116	418,996	0,047	0,073
-515,102	-200,000	-0,015	-0,052
-514,087	207,126	-0,047	-0,053
-513,072	-200,000	0,010	-0,112
-512,058	800,000	0,045	0,090
-511,043	-200,000	0,025	0,129
-510,029	-122,101	0,104	-0,012
-509,014	16,255	0,066	0,037
-507,999	-60,822	-0,023	0,007
-506,985	575,114	-0,034	-0,061
-505,970	-200,000	-0,016	0,118
-504,956	-180,858	-0,130	-0,002
-503,941	54,562	0,164	-0,114
-502,926	-200,000	-0,008	-0,048
-501,912	-200,000	0,007	0,055
-500,897	88,460	0,113	0,091
-499,883	-142,260	-0,058	-0,004
-498,868	800,000	-0,040	-0,090
-497,853	355,280	0,024	0,034
-496,839	61,312	0,076	-0,055
-495,824	174,219	0,080	0,084
-494,810	800,000	-0,046	0,130
-493,795	421,881	-0,038	0,059
-492,781	800,000	0,030	-0,075
-491,766	-106,168	-0,137	0,022
-490,751	158,251	-0,048	0,048
-489,737	54,135	-0,111	0,077
-488,722	-5,058	0,124	0,061
-487,708	-200,000	0,035	0,176
-486,693	-200,000	-0,001	-0,026
-485,678	-22,667	0,043	-0,019
-484,664	-171,856	-0,102	0,002
-483,649	100,180	-0,114	0,096
-482,635	-200,000	-0,029	0,125
-481,620	-200,000	-0,032	0,130
-480,605	-96,644	-0,069	-0,013
-479,591	94,393	0,075	0,062
-478,576	-64,821	-0,149	0,043
-477,562	62,062	-0,114	-0,082
-476,547	201,244	-0,019	-0,021
-475,532	-121,893	0,048	0,006
-474,518	425,607	0,052	0,081
-473,503	800,000	0,088	0,175
-472,489	-200,000	0,004	0,215
-471,474	195,287	-0,065	0,072
-470,459	-113,913	-0,078	0,011
-469,445	224,855	0,063	0,073
-468,430	-20,583	0,106	0,047
-467,416	65,964	-0,109	0,079
-466,401	-154,830	-0,028	-0,001
-465,386	800,000	0,021	0,056
-464,372	301,652	0,011	-0,015
-463,357	8,915	-0,088	-0,048
-462,343	-104,673	-0,056	0,009
-461,328	41,090	-0,060	0,039
-460,313	598,572	-0,042	0,076
-459,299	59,886	0,140	0,100
-458,284	360,266	-0,037	0,054
-457,270	-200,000	0,012	0,121
-456,255	-20,089	-0,076	-0,034
-455,241	-200,000	-0,027	-0,290
-454,226	-200,000	-0,033	-0,113
-453,211	116,324	0,039	-0,034
-452,197	346,208	0,063	-0,090
-451,182	-200,000	-0,038	0,194
-450,168	237,074	-0,016	0,019
-449,153	127,151	0,033	0,030
-448,138	171,115	0,065	-0,068
-447,124	-111,601	-0,051	0,007
-446,109	800,000	0,032	0,099
-445,095	119,461	-0,014	0,012
-444,080	-55,516	-0,036	0,012
-443,065	195,088	0,047	-0,052
-442,051	342,126	-0,068	-0,096
-441,036	-200,000	-0,007	0,022
-440,022	294,745	-0,065	-0,086
-439,007	28,883	-0,078	-0,048
-437,992	-143,368	0,115	-0,008
-436,978	-200,000	-0,020	0,158
-435,963	247,571	-0,071	-0,087
-434,949	-52,572	-0,057	-0,019
-433,934	-106,201	-0,056	-0,009
-432,919	-200,000	-0,029	-0,099
-431,905	-200,000	0,022	-0,216
-430,890	-35,890	-0,032	0,012
-429,876	-37,666	-0,080	-0,031
-428,861	-105,516	0,142	-0,023
-427,846	111,959	-0,083	-0,072
-426,832	800,000	-0,036	0,085
-425,817	-58,695	-0,087	0,027
-424,803	-200,000	-0,016	0,138
-423,788	-101,057	-0,125	-0,022
-422,773	354,266	-0,025	-0,036
-421,759	-92,680	0,052	0,010
-420,744	-29,656	-0,069	-0,028
-419,730	-200,000	-0,015	-0,057
-418,715	-200,000	-0,041	-0,145
-417,701	800,000	-0,030	0,071
-416,686	-200,000	0,010	-0,032
-415,671	800,000	-0,040	-0,093
-414,657	102,994	0,037	-0,031
-413,642	800,000	0,066	-0,136
-412,628	244,122	0,078	0,094
-411,613	170,129	0,045	-0,047
-410,598	-90,006	0,074	0,015
-409,584	-200,000	0,029	0,134
-408,569	-132,851	0,049	0,004
-407,555	214,576	0,123	0,140
-406,540	-166,538	-0,026	-0,001
-405,525	800,000	0,007	0,017
-404,511	301,407	0,095	0,126
-403,496	800,000	-0,010	-0,030
-402,482	75,002	0,036	-0,027
-401,467	94,768	-0,102	-0,084
-400,452	-89,312	0,099	-0,021
-399,438	99,095	0,059	0,049
-398,423	-200,000	0,026	0,123
-397,409	-200,000	0,009	-0,049
-396,394	799,313	-0,042	-0,085
-395,379	214,671	-0,046	0,052
-394,365	-6,979	-0,090	0,044
-393,350	800,000	0,039	-0,113
-392,336	-200,000	-0,023	-0,172
-391,321	-37,824	-0,102	-0,039
-390,306	800,000	-0,065	-0,149
-389,292	800,000	0,071	-0,143
-388,277	272,050	0,085	-0,108
-387,263	185,688	0,051	0,054
-386,248	800,000	0,037	0,101
-385,233	610,929	0,014	-0,025
-384,219	-9,021	-0,094	-0,045
-383,204	-200,000	0,002	-0,027
-382,190	18,389	-0,057	-0,033
-381,175	-200,000	0,001	-0,022
-380,160	-45,871	0,080	-0,028
-379,146	-21,162	0,140	0,061
-378,131	-200,000	0,012	0,115
-377,117	-200,000	-0,031	-0,102
-376,102	-29,630	0,151	-0,062
-375,088	800,000	-0,036	-0,078
-374,073	221,021	0,047	-0,055
-373,058	420,870	0,032	0,050
-372,044	-200,000	0,006	0,024
-371,029	-94,410	-0,063	0,012
-370,015	800,000	0,019	-0,051
-369,000	94,738	-0,057	0,046
-367,985	800,000	0,035	-0,075
-366,971	591,799	-0,041	-0,074
-365,956	-20,266	0,058	0,026
-364,942	-84,072	0,059	0,013
-363,927	-169,984	0,081	0,002
-362,912	47,506	0,079	0,053
-361,898	-200,000	-0,007	0,078
-360,883	130,207	-0,033	0,030
-359,869	800,000	0,050	-0,107
-358,854	-200,000	-0,007	0,098
-357,839	31,342	-0,030	-0,018
-356,825	-200,000	-0,000	0,076
-355,810	800,000	-0,042	0,126
-354,796	-200,000	-0,028	0,184
-353,781	-78,857	-0,051	0,012
-352,766	-34,082	0,149	0,058
-351,752	279,631	-0,048	-0,062
-350,737	62,169	-0,017	-0,012
-349,723	-73,956	0,166	-0,043
-348,708	-48,999	0,073	-0,025
-347,693	265,811	-0,031	0,039
-346,679	395,368	-0,082	-0,123
-345,664	-200,000	0,003	0,133
-344,650	11,139	0,080	0,044
-343,635	-41,704	0,106	0,039
-342,620	226,656	-0,064	-0,075
-341,606	7,122	-0,170	0,091
-340,591	-200,000	-0,013	0,048
-339,577	97,804	-0,086	0,071
-338,562	-200,000	-0,003	-0,122
-337,548	800,000	-0,037	-0,099
-336,533	-126,715	0,132	-0,014
-335,518	43,321	0,052	-0,034
-334,504	431,173	0,064	0,100
-333,489	-200,000	0,004	0,035
-332,475	217,284	0,050	0,058
-331,460	800,000	-0,080	0,176
-330,445	-200,000	0,003	-0,028
-329,431	-103,963	0,128	0,021
-328,416	800,000	0,028	0,059
-327,402	279,489	0,088	0,113
-326,387	800,000	-0,025	0,056
-325,372	-200,000	-0,031	-0,129
-324,358	800,000	0,052	-0,114
-323,343	145,736	-0,123	-0,118
-322,329	-200,000	0,030	0,180
-321,314	-24,678	0,116	0,049
-320,299	-12,684	0,042	0,020
-319,285	800,000	-0,047	-0,121
-318,270	0,045	-0,115	-0,059
-317,256	-200,000	-0,015	-0,105
-316,241	78,117	-0,076	-0,058
-315,226	-20,730	0,071	-0,031
-314,212	24,178	0,164	0,097
-313,197	800,000	-0,004	-0,012
-312,183	712,996	0,036	0,070
-311,168	-200,000	0,005	-0,026
-310,153	-77,772	-0,105	-0,026
-309,139	-135,757	-0,059	0,005
-308,124	-0,351	-0,103	-0,052
-307,110	-87,131	0,104	0,022
-306,095	24,724	0,043	-0,026
-305,080	-123,766	-0,205	0,023
-304,066	-31,977	0,017	-0,007
-303,051	800,000	-0,052	-0,141
-302,037	-2,807	0,162	-0,081
-301,022	-39,884	-0,067	0,025
-300,008	800,000	0,049	0,103
-298,993	29,864	-0,052	0,032
-297,978	800,000	-0,026	0,060
-296,964	110,393	0,091	-0,079
-295,949	480,722	-0,024	0,040
-294,935	-144,677	0,047	-0,003
-293,920	74,311	0,047	0,035
-292,905	-79,150	0,119	-0,029
-291,891	-68,577	-0,101	0,028
-290,876	7,732	0,050	-0,027
-289,862	-200,000	-0,007	-0,058
-288,847	428,464	0,050	0,078
-287,832	800,000	-0,039	0,099
-286,818	-200,000	0,011	0,049
-285,803	132,709	0,073	-0,067
-284,789	-150,361	0,070	0,004
-283,774	458,734	0,082	0,132
-282,759	800,000	0,008	0,018
-281,745	-120,369	-0,120	-0,014
-280,730	210,094	-0,138	-0,156
-279,716	-74,882	0,028	-0,007
-278,701	44,696	0,148	-0,097
-277,686	18,602	0,062	-0,035
-276,672	-28,371	0,078	-0,032
-275,657	-200,000	0,022	-0,097
-274,643	-158,772	0,164	0,007
-273,628	-200,000	-0,011	-0,092
-272,613	-54,124	0,008	-0,003
-271,599	459,520	-0,055	0,087
-270,584	45,986	-0,075	0,050
-269,570	-154,294	0,130	-0,006
-268,555	800,000	-0,030	-0,070
-267,540	-200,000	0,008	0,079
-266,526	11,887	-0,118	-0,065
-265,511	-200,000	-0,016	0,052
-264,497	800,000	-0,017	-0,035
-263,482	-87,049	0,098	-0,021
-262,467	560,110	0,045	0,077
-261,453	700,899	-0,003	-0,006
-260,438	212,352	-0,085	0,096
-259,424	-72,134	0,062	-0,016
-258,409	113,718	-0,055	-0,047
-257,395	-18,025	-0,076	-0,034
-256,380	31,047	-0,016	-0,010
-255,365	389,745	0,093	-0,138
-254,351	800,000	0,036	-0,102
-253,336	163,506	0,093	0,094
-252,322	8,683	0,026	0,014
-251,307	602,595	0,051	0,092
-250,292	76,274	-0,049	0,037
-249,278	218,856	-0,028	0,032
-248,263	87,782	0,011	-0,009
-247,249	139,964	-0,109	0,103
-246,234	-200,000	0,026	-0,163
-245,219	-26,542	0,015	-0,006
-244,205	-37,843	0,067	-0,025
-243,190	-18,612	0,131	0,058
-242,176	241,857	0,027	-0,033
-241,161	36,296	0,173	0,109
-240,146	111,635	0,055	0,048
-239,132	13,729	-0,089	-0,049
-238,117	121,658	-0,105	-0,094
-237,103	-110,020	0,029	-0,004
-236,088	203,768	-0,030	-0,033
-235,073	233,487	0,025	-0,030
-234,059	268,067	0,070	0,088
-233,044	-29,948	0,075	0,030
-232,030	-80,261	-0,129	-0,031
-231,015	215,856	0,013	0,015
-230,000	800,000	0,031	-0,080
-228,986	-200,000	-0,013	-0,069
-227,971	97,562	-0,065	0,053
-226,957	450,710	-0,083	0,131
-225,942	-6,167	0,106	0,051
-224,927	-200,000	0,008	0,122
-223,913	-200,000	0,002	-0,007
-222,898	-55,290	-0,071	-0,023
-221,884	657,793	0,038	0,070
-220,869	-118,940	0,087	0,011
-219,855	455,759	0,091	0,144
-218,840	-67,647	0,064	0,018
-217,825	-120,679	-0,078	-0,009
-216,811	397,420	0,048	-0,072
-215,796	612,727	-0,022	-0,039
-214,782	-148,477	0,052	0,003
-213,767	800,000	-0,023	0,056
-212,752	319,756	-0,063	0,086
-211,738	800,000	-0,014	0,032
-210,723	-81,855	-0,245	0,057
-209,709	600,498	-0,047	-0,083
-208,694	-65,979	0,043	-0,012
-207,679	-83,079	0,075	0,017
-206,665	800,000	-0,015	-0,034
-205,650	196,583	0,112	0,122
-204,636	466,543	0,039	-0,063
-203,621	15,097	-0,081	-0,045
-202,606	549,886	0,023	-0,040
-201,592	643,687	-0,055	0,101
-200,577	29,356	0,075	0,045
-199,563	-124,297	-0,014	0,002
-198,548	195,319	0,037	-0,041
-197,533	800,000	-0,014	-0,043
-196,519	-64,176	0,106	0,031
-195,504	-79,482	0,025	-0,006
-194,490	-200,000	0,001	-0,070
-193,475	800,000	-0,023	0,051
-192,460	-200,000	-0,025	-0,106
-191,446	124,387	0,078	-0,070
-190,431	-85,768	0,107	-0,024
-189,417	220,684	0,058	-0,067
-188,402	184,566	0,035	-0,037
-187,387	-200,000	0,014	-0,085
-186,373	193,567	-0,043	-0,046
-185,358	-114,442	-0,023	-0,003
-184,344	-200,000	-0,007	-0,067
-183,329	-200,000	-0,048	-0,159
-182,315	347,956	-0,033	0,047
-181,300	-200,000	0,007	0,040
-180,285	800,000	-0,052	-0,143
-179,271	-91,467	0,069	0,014
-178,256	251,266	-0,052	0,063
-177,242	-200,000	0,007	0,106
-176,227	-200,000	0,037	0,152
-175,212	197,330	-0,025	0,027
-174,198	-200,000	-0,001	0,016
-173,183	94,287	0,022	-0,018
-172,169	-71,928	0,085	0,022
-171,154	-81,016	0,143	0,034
-170,139	-83,316	0,129	0,029
-169,125	116,714	-0,036	0,031
-168,110	256,911	0,030	-0,037
-167,096	-200,000	0,010	-0,121
-166,081	-132,649	0,037	-0,003
-165,066	40,228	0,125	-0,080
-164,052	149,569	0,109	0,105
-163,037	269,873	0,027	-0,034
-162,023	-200,000	0,010	0,104
-161,008	-97,850	0,078	-0,014
-159,993	113,865	0,023	0,020
-158,979	34,271	-0,016	0,010
-157,964	-4,418	-0,043	0,021
-156,950	142,410	0,015	0,014
-155,935	-102,812	-0,015	0,002
-154,920	288,783	-0,103	0,133
-153,906	50,114	0,150	0,101
-152,891	-200,000	0,006	-0,025
-151,877	-14,087	0,108	0,050
-150,862	-114,389	0,048	0,006
-149,847	-82,603	-0,120	0,027
-148,833	-73,695	0,072	0,018
-147,818	490,704	0,041	0,067
-146,804	-200,000	0,026	0,183
-145,789	714,965	-0,051	0,096
-144,775	800,000	0,033	-0,070
-143,760	800,000	-0,045	-0,134
-142,745	183,067	-0,084	0,088
-141,731	-200,000	-0,001	-0,060
-140,716	-26,632	0,064	0,027
-139,702	-200,000	-0,010	0,054
-138,687	170,228	-0,036	0,037
-137,672	64,191	0,055	-0,039
-136,658	149,618	0,077	-0,074
-135,643	-74,026	-0,032	0,008
-134,629	-138,619	0,052	-0,004
-133,614	157,175	0,097	0,095
-132,599	-28,695	0,188	0,077
-131,585	10,417	0,102	0,055
-130,570	-130,188	0,050	0,005
-129,556	-116,049	-0,189	-0,025
-128,541	-200,000	-0,018	-0,069
-127,526	-200,000	0,005	-0,108
-126,512	800,000	-0,033	0,084
-125,497	-86,000	0,072	-0,016
-124,483	-78,183	0,096	-0,023
-123,468	113,200	0,081	-0,069
-122,453	63,490	-0,094	0,067
-121,439	111,799	-0,069	-0,060
-120,424	695,995	-0,010	-0,018
-119,410	-200,000	0,008	0,061
