DTS Sentinel unit serial number:	SN410029Multiplexer serial number:	ORYXHardware model number:	OX2-SRSoftware version number:	ORYX F/W v4,00 Oryx Data Collector v3.7.2.0data status	okinstallation	BH3 CH2differential loss correction	single-endedforward channel	channel 2reverse channel	N/Adate	2023/12/05time	14:32:28forward acquisition time	300,00reverse acquisition time	0,00gamma	499,1914k internal	0,3194k external	0,3194temperature offset calibration	1,0000default loss term (dB/km)	0,3820temperature slope calibration	1,0000multiplexer offset coefficient	1,0000multiplexer slope coefficient	1,0000fibre end	0,00T internal ref (°C)	10,86T ext. ref 1 (°C)	-3,34T ext. ref 2 (°C)	-3,45length (m)	temperature (°C)	Stokes	anti-Stokes-744,400	-200,000	-0,034	-0,233
-743,385	-81,846	-0,179	0,043
-742,371	172,925	-0,029	-0,030
-741,356	78,484	-0,212	0,165
-740,342	553,123	0,040	0,071
-739,327	190,891	-0,200	0,219
-738,312	800,000	-0,022	-0,062
-737,298	-90,794	-0,278	0,058
-736,283	145,328	-0,092	-0,090
-735,269	-200,000	-0,005	0,153
-734,254	250,476	-0,117	-0,145
-733,239	-84,099	-0,321	-0,074
-732,225	-31,677	0,094	-0,038
-731,210	4,968	0,176	0,094
-730,196	-200,000	-0,008	0,110
-729,181	54,469	-0,070	-0,049
-728,167	-76,838	-0,135	0,034
-727,152	-200,000	0,010	0,042
-726,137	115,523	-0,027	0,024
-725,123	800,000	0,075	-0,212
-724,108	29,012	-0,125	-0,077
-723,094	106,088	-0,106	-0,091
-722,079	447,283	-0,027	-0,043
-721,064	-200,000	0,018	-0,085
-720,050	98,183	-0,114	-0,096
-719,035	-200,000	0,013	-0,142
-718,021	-200,000	-0,008	0,039
-717,006	-200,000	0,007	-0,183
-715,991	48,155	0,080	-0,054
-714,977	-120,492	-0,075	-0,009
-713,962	-114,880	0,047	0,007
-712,948	-200,000	0,003	0,013
-711,933	45,926	-0,016	0,011
-710,918	72,868	-0,157	0,119
-709,904	-200,000	-0,047	-0,155
-708,889	-200,000	0,008	-0,028
-707,875	800,000	-0,025	-0,077
-706,860	221,489	-0,030	-0,035
-705,845	-38,926	-0,027	-0,010
-704,831	12,541	0,098	-0,055
-703,816	-150,572	-0,052	0,003
-702,802	22,175	-0,058	0,035
-701,787	237,196	-0,059	0,072
-700,772	-95,035	0,061	0,012
-699,758	800,000	-0,050	-0,102
-698,743	-42,646	-0,112	0,041
-697,729	800,000	0,067	0,155
-696,714	-30,849	0,055	-0,023
-695,699	-0,156	-0,115	0,060
-694,685	-200,000	0,020	-0,200
-693,670	72,863	-0,122	-0,092
-692,656	-200,000	-0,007	-0,102
-691,641	9,740	0,063	0,035
-690,627	800,000	-0,045	-0,139
-689,612	105,575	0,121	0,104
-688,597	-21,367	-0,023	-0,010
-687,583	264,939	-0,076	-0,097
-686,568	800,000	0,039	-0,109
-685,554	-85,414	0,050	-0,011
-684,539	130,540	0,029	-0,027
-683,524	-200,000	0,026	-0,112
-682,510	208,640	0,052	-0,059
-681,495	121,293	-0,021	-0,019
-680,481	-118,554	0,163	-0,021
-679,466	169,006	-0,126	-0,131
-678,451	800,000	-0,047	-0,112
-677,437	-200,000	-0,027	0,148
-676,422	187,157	-0,056	-0,061
-675,408	48,778	0,078	0,053
-674,393	-200,000	0,003	-0,133
-673,378	590,780	-0,006	-0,010
-672,364	-118,730	-0,086	-0,011
-671,349	453,919	0,075	-0,121
-670,335	-159,681	0,141	-0,006
-669,320	-132,624	-0,031	-0,003
-668,305	-200,000	0,027	-0,136
-667,291	41,805	0,126	0,083
-666,276	800,000	0,077	-0,156
-665,262	63,917	-0,115	-0,084
-664,247	-142,438	0,026	0,002
-663,232	-161,022	0,187	-0,007
-662,218	-8,331	0,044	0,021
-661,203	299,010	0,022	-0,029
-660,189	800,000	-0,026	0,060
-659,174	1,973	-0,184	-0,096
-658,159	273,124	-0,097	0,125
-657,145	99,782	0,029	0,024
-656,130	48,517	-0,105	0,071
-655,116	-106,509	-0,134	0,022
-654,101	214,236	0,033	0,038
-653,086	-200,000	-0,012	-0,043
-652,072	-38,075	-0,158	-0,061
-651,057	-141,645	0,080	0,006
-650,043	211,096	-0,031	-0,035
-649,028	-87,108	0,090	-0,020
-648,014	-200,000	0,006	0,024
-646,999	367,637	0,044	0,065
-645,984	356,431	-0,061	-0,088
-644,970	-200,000	0,013	-0,083
-643,955	1,968	-0,083	-0,043
-642,941	-7,158	-0,133	-0,065
-641,926	-120,109	-0,156	0,019
-640,911	-160,260	-0,095	-0,004
-639,897	335,846	-0,024	-0,034
-638,882	592,638	0,059	0,107
-637,868	367,482	-0,052	0,077
-636,853	-67,146	-0,074	-0,021
-635,838	-147,254	-0,075	-0,005
-634,824	9,843	0,049	-0,027
-633,809	131,554	-0,075	-0,070
-632,795	-102,950	0,094	-0,016
-631,780	-12,997	-0,080	-0,037
-630,765	10,114	-0,126	-0,069
-629,751	18,302	0,093	-0,054
-628,736	-200,000	0,019	-0,066
-627,722	-156,507	-0,170	0,008
-626,707	-64,429	0,085	-0,025
-625,692	532,126	-0,052	0,089
-624,678	-86,080	-0,071	0,016
-623,663	-84,590	0,169	-0,038
-622,649	81,511	-0,108	-0,084
-621,634	-200,000	-0,000	0,030
-620,619	-139,088	-0,076	0,006
-619,605	-32,983	-0,052	0,021
-618,590	656,402	0,058	0,109
-617,576	299,616	0,073	0,097
-616,561	50,202	-0,063	-0,043
-615,546	-200,000	0,009	0,074
-614,532	-101,717	0,011	0,002
-613,517	-200,000	-0,027	0,094
-612,503	-89,846	0,107	-0,023
-611,488	-200,000	0,007	0,094
-610,474	66,804	-0,106	0,078
-609,459	-200,000	0,002	0,081
-608,444	2,473	0,031	0,016
-607,430	-55,749	0,070	-0,023
-606,415	-200,000	0,001	-0,064
-605,401	-74,320	-0,098	0,026
-604,386	-67,818	-0,054	-0,015
-603,371	-23,539	0,056	-0,024
-602,357	-200,000	-0,012	-0,063
-601,342	-107,293	-0,041	-0,007
-600,328	800,000	0,018	-0,038
-599,313	-115,422	-0,090	-0,012
-598,298	406,435	-0,022	-0,034
-597,284	800,000	0,032	0,082
-596,269	800,000	0,062	-0,137
-595,255	20,598	-0,121	-0,071
-594,240	14,454	-0,101	-0,057
-593,225	83,284	-0,108	0,085
-592,211	-200,000	-0,014	-0,049
-591,196	-174,640	0,154	0,003
-590,182	-124,988	0,071	0,008
-589,167	800,000	0,027	-0,083
-588,152	-124,328	-0,181	-0,020
-587,138	139,575	-0,089	0,085
-586,123	-141,333	-0,163	-0,012
-585,109	-200,000	-0,006	-0,048
-584,094	27,599	-0,075	-0,045
-583,079	-200,000	0,015	-0,177
-582,065	215,872	-0,124	0,143
-581,050	-52,738	0,113	0,038
-580,036	93,453	-0,082	0,067
-579,021	-120,925	-0,146	-0,018
-578,006	-108,894	0,055	-0,008
-576,992	-200,000	-0,004	-0,059
-575,977	-200,000	-0,011	0,081
-574,963	-200,000	-0,001	-0,043
-573,948	287,905	-0,045	-0,059
-572,934	-200,000	0,001	-0,007
-571,919	-53,742	-0,193	0,064
-570,904	322,802	0,007	-0,010
-569,890	-200,000	-0,017	-0,056
-568,875	211,535	0,095	0,109
-567,861	-49,506	0,088	0,030
-566,846	-200,000	0,010	0,040
-565,831	-88,414	-0,122	0,026
-564,817	424,863	-0,043	-0,068
-563,802	-31,995	0,073	0,030
-562,788	317,332	-0,032	-0,044
-561,773	436,454	0,053	-0,085
-560,758	290,372	0,067	0,089
-559,744	-62,324	-0,187	-0,056
-558,729	465,031	0,037	-0,060
-557,715	29,138	-0,116	0,071
-556,700	-148,987	-0,093	-0,005
-555,685	89,307	-0,095	-0,076
-554,671	-36,841	-0,150	0,058
-553,656	383,888	0,032	-0,048
-552,642	206,839	0,060	0,068
-551,627	77,925	0,064	-0,049
-550,612	191,326	0,071	0,078
-549,598	-34,574	-0,108	-0,043
-548,583	-1,763	0,021	-0,011
-547,569	682,344	0,002	-0,004
-546,554	14,113	0,031	0,017
-545,539	170,754	0,125	0,130
-544,525	-61,589	0,077	-0,023
-543,510	-200,000	0,010	0,061
-542,496	-200,000	-0,005	-0,223
-541,481	708,194	-0,036	-0,068
-540,466	228,217	0,045	-0,053
-539,452	-200,000	0,010	0,098
-538,437	-200,000	0,005	0,132
-537,423	236,836	0,040	0,048
-536,408	118,579	-0,102	-0,091
-535,393	800,000	-0,055	-0,124
-534,379	-47,268	-0,108	-0,038
-533,364	-89,180	-0,104	0,022
-532,350	94,115	-0,149	-0,122
-531,335	333,818	0,046	-0,064
-530,321	-40,873	-0,082	0,031
-529,306	721,814	-0,034	-0,066
-528,291	375,157	0,073	0,108
-527,277	-179,877	-0,070	-0,001
-526,262	-200,000	-0,007	0,034
-525,248	28,195	0,047	0,029
-524,233	259,696	0,051	0,064
-523,218	-200,000	0,010	0,047
-522,204	800,000	-0,020	-0,056
-521,189	-61,993	-0,201	0,060
-520,175	698,894	-0,052	0,100
-519,160	-41,333	0,058	-0,021
-518,145	-200,000	0,023	-0,079
-517,131	-113,574	-0,092	-0,013
-516,116	-20,609	-0,029	0,013
-515,102	23,681	-0,087	0,052
-514,087	27,874	0,024	-0,015
-513,072	-31,142	-0,137	-0,056
-512,058	6,337	0,062	0,033
-511,043	78,958	0,075	0,058
-510,029	-137,487	-0,042	-0,003
-509,014	-94,869	0,100	-0,019
-507,999	-69,481	-0,043	0,012
-506,985	-120,256	-0,033	-0,004
-505,970	-200,000	-0,017	0,055
-504,956	-78,298	-0,062	0,015
-503,941	69,632	-0,082	-0,061
-502,926	-200,000	-0,012	0,050
-501,912	142,545	0,022	-0,022
-500,897	800,000	0,037	-0,092
-499,883	-106,201	0,067	0,011
-498,868	131,404	0,042	0,039
-497,853	3,011	-0,142	-0,074
-496,839	223,470	0,058	-0,068
-495,824	-172,172	0,170	0,004
-494,810	-185,545	0,063	0,001
-493,795	38,054	-0,124	0,079
-492,781	800,000	-0,020	-0,049
-491,766	-200,000	-0,017	-0,104
-490,751	-104,989	-0,035	0,006
-489,737	-131,568	0,023	-0,002
-488,722	75,253	-0,082	0,062
-487,708	-107,169	0,072	0,011
-486,693	784,794	-0,089	0,176
-485,678	224,076	-0,079	-0,092
-484,664	-39,318	-0,214	-0,081
-483,649	-97,943	-0,133	0,025
-482,635	124,762	0,123	0,111
-481,620	800,000	0,011	-0,027
-480,605	402,267	-0,039	0,059
-479,591	387,496	0,038	-0,057
-478,576	243,295	0,105	-0,128
-477,562	-38,589	-0,114	0,043
-476,547	191,924	0,048	-0,053
-475,532	80,689	0,065	0,051
-474,518	610,156	-0,009	-0,017
-473,503	-141,119	-0,118	-0,009
-472,489	-43,399	0,169	0,061
-471,474	-76,738	-0,036	-0,009
-470,459	-200,000	0,003	0,057
-469,445	-200,000	-0,007	-0,148
-468,430	800,000	-0,024	0,060
-467,416	-200,000	-0,012	0,211
-466,401	-200,000	0,020	0,064
-465,386	60,058	0,067	0,047
-464,372	148,358	0,063	-0,062
-463,357	-200,000	-0,009	-0,103
-462,343	35,488	-0,067	-0,042
-461,328	172,791	-0,121	-0,126
-460,313	-164,423	0,024	0,001
-459,299	15,306	0,055	0,031
-458,284	-200,000	-0,002	0,022
-457,270	-21,259	-0,017	0,007
-456,255	46,711	-0,151	-0,101
-455,241	207,021	0,066	0,075
-454,226	19,486	0,034	-0,020
-453,211	-200,000	-0,037	0,133
-452,197	107,386	0,064	-0,055
-451,182	-200,000	-0,012	0,099
-450,168	800,000	0,040	0,127
-449,153	800,000	0,004	0,012
-448,138	800,000	0,032	-0,076
-447,124	-200,000	0,008	-0,029
-446,109	164,442	0,147	-0,150
-445,095	-37,656	0,093	0,036
-444,080	-200,000	-0,005	0,050
-443,065	130,840	0,176	0,163
-442,051	287,782	-0,032	-0,042
-441,036	33,084	0,009	0,006
-440,022	-200,000	-0,007	-0,143
-439,007	-200,000	-0,011	0,093
-437,992	-200,000	0,041	-0,178
-436,978	-137,090	-0,026	-0,002
-435,963	-200,000	0,025	0,089
-434,949	-88,557	-0,054	0,012
-433,934	242,389	0,084	0,102
-432,919	-112,737	0,119	0,017
-431,905	628,009	0,050	-0,092
-430,890	36,885	0,108	-0,069
-429,876	-101,591	0,053	0,009
-428,861	-200,000	-0,011	0,090
-427,846	-102,322	0,107	0,018
-426,832	-200,000	-0,004	-0,070
-425,817	12,908	0,052	-0,029
-424,803	800,000	0,052	-0,131
-423,788	-82,413	0,116	-0,027
-422,773	92,304	0,048	0,039
-421,759	162,894	-0,066	0,067
-420,744	49,050	-0,036	0,025
-419,730	645,188	0,044	0,082
-418,715	142,775	0,112	-0,107
-417,701	-91,940	-0,175	-0,035
-416,686	66,003	0,128	0,094
-415,671	-200,000	0,014	-0,083
-414,657	-122,011	-0,041	0,005
-413,642	388,533	0,070	0,104
-412,628	-49,282	0,066	-0,022
-411,613	-200,000	-0,015	-0,092
-410,598	-200,000	-0,010	0,049
-409,584	-30,110	-0,067	0,027
-408,569	800,000	0,060	0,158
-407,555	0,339	0,074	0,038
-406,540	-47,651	0,032	-0,011
-405,525	-200,000	0,038	0,128
-404,511	372,645	0,025	-0,037
-403,496	73,711	-0,067	-0,051
-402,482	-200,000	-0,026	-0,118
-401,467	-89,494	-0,029	-0,006
-400,452	341,039	0,049	0,069
-399,438	800,000	0,042	-0,094
-398,423	-29,291	0,093	-0,038
-397,409	-75,249	0,044	0,011
-396,394	-200,000	-0,038	-0,125
-395,379	313,843	0,022	0,029
-394,365	-116,136	0,075	-0,010
-393,350	-80,417	0,244	-0,058
-392,336	15,023	0,043	0,024
-391,321	301,024	0,030	0,040
-390,306	50,566	0,019	0,013
-389,292	192,109	-0,106	-0,115
-388,277	800,000	-0,016	0,045
-387,263	34,825	-0,108	-0,068
-386,248	800,000	-0,050	0,142
-385,233	63,767	0,101	0,073
-384,219	-124,981	-0,079	-0,009
-383,204	-200,000	-0,006	-0,032
-382,190	124,793	-0,079	0,072
-381,175	66,678	-0,025	-0,018
-380,160	80,095	-0,061	-0,047
-379,146	181,154	0,034	0,036
-378,131	369,082	0,051	-0,075
-377,117	-50,418	-0,074	-0,025
-376,102	-200,000	-0,008	-0,076
-375,088	123,842	-0,096	-0,087
-374,073	338,282	0,052	-0,072
-373,058	260,547	-0,062	0,077
-372,044	-200,000	0,016	0,057
-371,029	-38,152	0,092	-0,035
-370,015	-36,107	0,136	0,052
-369,000	157,049	0,085	0,084
-367,985	142,435	-0,011	0,010
-366,971	27,321	-0,122	-0,074
-365,956	-150,362	0,103	0,006
-364,942	-144,587	-0,062	0,004
-363,927	-74,484	0,107	0,028
-362,912	-200,000	0,016	0,056
-361,898	-58,265	-0,046	0,014
-360,883	-200,000	-0,011	0,043
-359,869	584,277	-0,069	-0,122
-358,854	-103,571	0,023	0,004
-357,839	1,947	0,136	0,070
-356,825	-200,000	-0,071	0,234
-355,810	-200,000	0,008	-0,133
-354,796	-44,601	0,098	0,035
-353,781	62,269	-0,033	-0,023
-352,766	-200,000	0,019	-0,087
-351,752	-51,236	-0,028	-0,009
-350,737	-115,174	-0,053	-0,007
-349,723	800,000	0,025	0,060
-348,708	-200,000	0,001	-0,008
-347,693	59,329	0,083	0,059
-346,679	-4,987	-0,121	-0,059
-345,664	197,000	0,061	-0,067
-344,650	232,127	-0,048	0,056
-343,635	124,615	0,036	0,032
-342,620	800,000	-0,039	0,103
-341,606	-28,485	0,076	0,031
-340,591	-200,000	-0,005	-0,036
-339,577	87,925	0,098	-0,078
-338,562	-200,000	0,005	-0,078
-337,548	245,829	-0,070	0,085
-336,533	-31,490	-0,132	0,053
-335,518	537,563	0,027	0,046
-334,504	63,260	0,038	0,027
-333,489	-200,000	0,003	-0,078
-332,475	-200,000	0,058	-0,210
-331,460	0,965	-0,062	-0,032
-330,445	133,389	0,047	-0,043
-329,431	-9,920	0,117	0,056
-328,416	43,823	0,167	0,110
-327,402	-200,000	-0,000	-0,054
-326,387	120,989	0,081	0,072
-325,372	-51,068	-0,116	-0,039
-324,358	13,336	-0,138	-0,077
-323,343	-63,108	-0,057	-0,017
-322,329	12,699	0,020	0,011
-321,314	-140,613	0,122	0,009
-320,299	451,271	-0,036	-0,057
-319,285	-41,429	-0,120	0,044
-318,270	-200,000	0,000	-0,005
-317,256	-200,000	-0,007	0,050
-316,241	800,000	0,020	-0,051
-315,226	58,873	0,047	0,033
-314,212	535,784	0,050	0,086
-313,197	12,651	-0,069	0,038
-312,183	-134,313	0,108	-0,009
-311,168	48,259	-0,042	-0,028
-310,153	77,411	0,182	0,138
-309,139	-72,805	0,018	0,005
-308,124	-200,000	0,014	-0,061
-307,110	-200,000	0,007	0,066
-306,095	-200,000	-0,000	0,014
-305,080	-200,000	-0,045	-0,153
-304,066	603,162	-0,046	0,082
-303,051	-200,000	-0,014	-0,183
-302,037	145,303	-0,113	-0,108
-301,022	652,903	0,065	0,119
-300,008	-144,805	-0,050	-0,003
-298,993	-83,927	0,096	0,022
-297,978	63,884	0,071	-0,051
-296,964	-200,000	0,010	-0,172
-295,949	239,712	-0,091	0,109
-294,935	-180,910	0,117	-0,002
-293,920	59,364	0,072	0,050
-292,905	-156,523	-0,036	0,002
-291,891	800,000	0,054	-0,140
-290,876	90,081	-0,070	0,056
-289,862	-3,913	0,027	-0,013
-288,847	76,710	-0,076	-0,057
-287,832	14,041	-0,106	0,059
-286,818	140,773	0,059	-0,056
-285,803	173,912	0,109	0,112
-284,789	800,000	-0,042	0,098
-283,774	289,749	0,039	-0,051
-282,759	301,739	-0,065	-0,086
-281,745	244,983	-0,100	0,121
-280,730	800,000	0,011	0,024
-279,716	94,569	-0,060	0,049
-278,701	-200,000	-0,009	0,112
-277,686	-200,000	0,033	0,169
-276,672	691,018	0,073	0,137
-275,657	-68,614	-0,124	0,034
-274,643	-200,000	0,002	-0,005
-273,628	-200,000	-0,017	0,126
-272,613	114,943	-0,059	-0,051
-271,599	480,242	-0,029	-0,047
-270,584	-185,261	-0,133	-0,001
-269,570	435,724	0,084	0,131
-268,555	-13,072	-0,088	-0,041
-267,540	159,699	-0,011	-0,011
-266,526	217,740	-0,099	-0,113
-265,511	-145,665	0,096	-0,006
-264,497	243,452	-0,056	-0,067
-263,482	-159,824	0,131	-0,005
-262,467	622,315	0,046	0,083
-261,453	-108,977	0,096	-0,014
-260,438	-187,834	-0,075	-0,001
-259,424	-31,019	0,138	-0,055
-258,409	800,000	0,020	0,057
-257,395	-28,872	-0,114	-0,047
-256,380	-10,467	0,175	0,083
-255,365	575,838	0,096	0,169
-254,351	128,531	0,045	0,041
-253,336	45,495	-0,081	-0,053
-252,322	-125,570	-0,057	-0,006
-251,307	-88,101	-0,097	0,021
-250,292	105,966	-0,131	-0,111
-249,278	-200,000	-0,001	0,020
-248,263	25,145	0,050	0,029
-247,249	132,196	0,015	-0,014
-246,234	547,938	-0,011	-0,019
-245,219	-41,573	-0,099	-0,036
-244,205	-98,467	0,078	0,014
-243,190	492,784	0,077	-0,126
-242,176	66,840	0,142	0,104
-241,161	-101,625	0,113	-0,019
-240,146	-200,000	0,003	0,048
-239,132	76,523	-0,049	-0,037
-238,117	591,405	0,045	-0,080
-237,103	800,000	0,056	0,150
-236,088	178,798	0,039	-0,041
-235,073	126,216	-0,010	0,009
-234,059	800,000	0,028	0,060
-233,044	52,484	0,111	0,076
-232,030	-81,385	-0,114	0,027
-231,015	782,389	-0,014	-0,027
-230,000	-67,999	-0,091	-0,025
-228,986	669,176	0,021	-0,039
-227,971	187,993	0,012	-0,013
-226,957	-185,146	-0,187	-0,002
-225,942	222,190	0,092	0,106
-224,927	33,463	0,069	0,043
-223,913	-200,000	0,041	-0,156
-222,898	-113,493	-0,019	-0,003
-221,884	46,869	-0,052	-0,034
-220,869	256,760	0,132	0,162
-219,855	67,615	-0,109	-0,079
-218,840	306,268	0,051	-0,068
-217,825	-200,000	-0,051	-0,188
-216,811	-112,375	-0,168	0,024
-215,796	109,464	0,050	-0,043
-214,782	800,000	-0,067	0,170
-213,767	-88,241	-0,051	0,011
-212,752	800,000	0,049	0,129
-211,738	-200,000	0,006	-0,035
-210,723	255,773	0,095	-0,116
-209,709	-200,000	0,005	-0,148
-208,694	-45,338	0,120	-0,042
-207,679	230,431	-0,054	-0,063
-206,665	-9,472	0,065	0,031
-205,650	126,136	-0,028	0,026
-204,636	800,000	0,049	0,110
-203,621	-133,815	-0,035	0,003
-202,606	-200,000	0,001	-0,067
-201,592	359,800	-0,109	-0,156
-200,577	-28,936	0,112	-0,046
-199,563	37,754	0,088	0,056
-198,548	800,000	0,050	-0,140
-197,533	-200,000	-0,007	0,069
-196,519	800,000	-0,032	-0,079
-195,504	57,805	0,069	0,048
-194,490	800,000	0,029	-0,079
-193,475	-136,591	-0,087	-0,007
-192,460	9,517	-0,084	0,045
-191,446	28,513	0,131	-0,079
-190,431	155,369	0,082	-0,080
-189,417	-87,268	0,068	0,015
-188,402	-105,412	0,081	-0,013
-187,387	13,506	0,023	-0,013
-186,373	-200,000	-0,005	0,068
-185,358	-154,101	0,064	-0,003
-184,344	219,359	0,095	0,109
-183,329	119,499	0,052	0,046
-182,315	800,000	-0,041	-0,116
-181,300	37,212	0,205	0,129
-180,285	50,506	-0,147	0,099
-179,271	95,651	-0,048	-0,039
-178,256	139,124	-0,140	-0,131
-177,242	800,000	0,038	0,079
-176,227	-63,987	0,123	0,036
-175,212	38,262	0,042	-0,027
-174,198	115,455	-0,058	-0,051
-173,183	-101,559	-0,064	-0,011
-172,169	71,068	0,052	0,039
-171,154	208,363	-0,108	-0,120
-170,139	8,030	0,157	0,084
-169,125	-200,000	0,020	0,064
-168,110	-200,000	-0,024	0,090
-167,096	-3,903	-0,030	0,015
-166,081	343,259	0,051	-0,071
-165,066	-200,000	-0,005	-0,115
-164,052	529,903	-0,005	-0,008
-163,037	-157,772	-0,150	0,006
-162,023	340,131	-0,082	0,114
-161,008	436,621	0,123	0,191
-159,993	23,067	0,072	-0,042
-158,979	-200,000	0,006	-0,072
-157,964	800,000	-0,045	-0,098
-156,950	489,611	0,032	0,053
-155,935	-193,059	0,144	0,001
-154,920	-200,000	0,011	0,053
-153,906	800,000	0,020	-0,061
-152,891	-200,000	0,004	0,082
-151,877	800,000	-0,016	-0,042
-150,862	800,000	-0,063	-0,150
-149,847	-50,068	-0,117	-0,039
-148,833	-13,570	0,116	0,053
-147,818	-6,425	-0,019	0,009
-146,804	-200,000	-0,010	0,059
-145,789	-61,847	0,041	0,012
-144,775	20,609	-0,038	-0,022
-143,760	-200,000	-0,035	-0,115
-142,745	-200,000	-0,004	-0,161
-141,731	416,414	0,013	-0,019
-140,716	-200,000	-0,012	0,060
-139,702	164,105	-0,063	0,063
-138,687	22,864	0,128	0,074
-137,672	-102,515	-0,089	-0,015
-136,658	-123,680	0,008	-0,001
-135,643	-109,908	-0,143	0,021
-134,629	208,944	-0,021	0,023
-133,614	800,000	0,055	0,119
-132,599	-200,000	0,003	0,125
-131,585	-6,307	0,143	0,069
-130,570	-21,109	0,108	0,047
-129,556	-61,096	-0,130	-0,039
-128,541	551,417	-0,052	-0,090
-127,526	-14,339	0,089	0,041
-126,512	-200,000	-0,011	-0,275
-125,497	266,076	0,126	0,157
-124,483	-200,000	0,009	-0,048
-123,468	163,016	-0,078	0,078
-122,453	-200,000	0,011	0,056
-121,439	204,136	0,089	-0,099
-120,424	274,168	0,132	-0,166
-119,410	29,047	-0,040	0,024
-118,395	-74,576	0,189	0,048
