DTS Sentinel unit serial number:	SN410029Multiplexer serial number:	ORYXHardware model number:	OX2-SRSoftware version number:	ORYX F/W v4,00 Oryx Data Collector v3.7.2.0data status	okinstallation	BH3 CH2differential loss correction	single-endedforward channel	channel 2reverse channel	N/Adate	2023/12/05time	11:32:28forward acquisition time	300,00reverse acquisition time	0,00gamma	499,1914k internal	0,3195k external	0,3195temperature offset calibration	1,0000default loss term (dB/km)	0,3820temperature slope calibration	1,0000multiplexer offset coefficient	1,0000multiplexer slope coefficient	1,0000fibre end	0,00T internal ref (°C)	9,69T ext. ref 1 (°C)	-5,05T ext. ref 2 (°C)	-5,13length (m)	temperature (°C)	Stokes	anti-Stokes-744,400	229,545	-0,180	-0,214
-743,385	-116,316	-0,203	-0,027
-742,371	138,935	-0,043	0,041
-741,356	-184,505	-0,229	-0,003
-740,342	-3,753	-0,017	0,009
-739,327	22,286	-0,090	0,053
-738,312	-200,000	-0,023	-0,100
-737,298	-126,542	-0,284	0,030
-736,283	800,000	0,014	-0,038
-735,269	-89,574	-0,245	0,052
-734,254	776,202	-0,030	-0,061
-733,239	-153,624	-0,451	-0,022
-732,225	-200,000	-0,001	-0,230
-731,210	490,232	0,078	0,131
-730,196	106,016	0,125	0,107
-729,181	-77,767	-0,114	-0,028
-728,167	218,644	-0,044	0,051
-727,152	800,000	-0,048	0,133
-726,137	6,904	-0,143	0,078
-725,123	216,401	-0,055	-0,063
-724,108	46,363	0,041	-0,028
-723,094	151,145	0,048	-0,048
-722,079	-200,000	-0,005	-0,139
-721,064	49,314	0,053	-0,036
-720,050	-56,316	-0,149	-0,048
-719,035	-164,407	-0,032	0,001
-718,021	-24,199	-0,055	-0,024
-717,006	217,532	-0,021	-0,025
-715,991	-177,724	-0,145	0,002
-714,977	-200,000	0,001	-0,101
-713,962	-6,349	-0,161	-0,080
-712,948	-200,000	0,009	-0,048
-711,933	656,766	0,043	0,081
-710,918	216,353	0,012	0,014
-709,904	62,743	-0,091	-0,066
-708,889	184,055	-0,055	-0,059
-707,875	-156,053	0,038	-0,002
-706,860	-200,000	-0,001	0,019
-705,845	286,397	-0,031	-0,041
-704,831	171,790	0,129	-0,135
-703,816	-49,059	-0,093	-0,032
-702,802	800,000	-0,027	0,064
-701,787	8,721	-0,087	-0,048
-700,772	309,531	0,057	0,078
-699,758	-193,057	0,017	-0,000
-698,743	301,643	-0,023	-0,030
-697,729	-159,749	-0,140	0,006
-696,714	-200,000	0,025	0,195
-695,699	-153,137	0,004	0,000
-694,685	-200,000	0,000	-0,046
-693,670	-200,000	0,009	-0,037
-692,656	167,943	-0,052	0,054
-691,641	224,728	0,070	0,083
-690,627	-200,000	-0,017	-0,124
-689,612	65,479	0,027	-0,020
-688,597	254,886	-0,097	0,121
-687,583	50,320	0,045	-0,031
-686,568	166,529	-0,072	-0,074
-685,554	-122,346	-0,052	-0,006
-684,539	-200,000	0,030	0,134
-683,524	184,624	0,112	0,121
-682,510	-115,365	-0,068	0,009
-681,495	800,000	0,036	-0,098
-680,481	-7,553	-0,084	-0,041
-679,466	300,088	-0,073	-0,098
-678,451	-200,000	-0,005	-0,164
-677,437	122,635	-0,097	0,088
-676,422	-111,453	0,124	0,018
-675,408	800,000	-0,029	0,089
-674,393	328,010	-0,023	0,032
-673,378	-6,208	-0,172	-0,085
-672,364	732,655	-0,027	-0,053
-671,349	-200,000	0,003	0,023
-670,335	295,800	-0,151	-0,202
-669,320	-53,444	-0,024	-0,008
-668,305	-29,917	-0,122	0,050
-667,291	800,000	-0,011	0,032
-666,276	288,267	-0,019	-0,025
-665,262	-87,733	-0,186	-0,040
-664,247	-15,853	-0,031	-0,014
-663,232	35,910	-0,116	-0,074
-662,218	377,800	0,026	0,038
-661,203	-91,769	0,094	0,019
-660,189	76,111	-0,070	0,054
-659,174	362,052	0,035	0,051
-658,159	283,808	-0,062	0,081
-657,145	-200,000	0,010	-0,116
-656,130	-55,507	0,124	-0,040
-655,116	-200,000	0,012	0,067
-654,101	49,685	-0,072	0,049
-653,086	114,513	-0,100	-0,088
-652,072	131,623	0,062	0,058
-651,057	199,006	-0,057	-0,064
-650,043	400,472	0,086	0,131
-649,028	-79,275	-0,067	0,016
-648,014	-58,208	-0,201	0,063
-646,999	26,911	-0,078	-0,047
-645,984	-200,000	0,015	-0,077
-644,970	120,749	0,087	-0,078
-643,955	-3,222	-0,107	-0,054
-642,941	-200,000	0,024	-0,105
-641,926	-200,000	0,017	-0,142
-640,911	776,151	-0,078	-0,156
-639,897	670,859	-0,043	0,081
-638,882	198,846	0,030	-0,034
-637,868	-131,051	-0,086	-0,008
-636,853	-68,755	-0,060	-0,017
-635,838	319,560	-0,071	-0,098
-634,824	-200,000	0,014	-0,127
-633,809	83,651	0,023	0,018
-632,795	-200,000	0,017	0,117
-631,780	440,567	-0,047	-0,075
-630,765	800,000	-0,047	-0,116
-629,751	-4,632	-0,153	-0,076
-628,736	-32,740	-0,010	0,004
-627,722	176,173	-0,083	-0,088
-626,707	800,000	0,035	-0,082
-625,692	-24,525	0,115	0,050
-624,678	-200,000	0,022	0,216
-623,663	55,212	0,062	0,044
-622,649	-200,000	0,012	0,107
-621,634	-82,878	0,055	0,013
-620,619	-77,074	-0,144	0,036
-619,605	800,000	0,014	-0,039
-618,590	-200,000	0,003	0,025
-617,576	207,548	0,074	0,084
-616,561	-200,000	0,000	0,034
-615,546	800,000	-0,025	0,057
-614,532	800,000	-0,018	-0,040
-613,517	-200,000	-0,001	-0,047
-612,503	800,000	0,009	-0,018
-611,488	-21,011	0,089	-0,039
-610,474	79,598	0,153	0,119
-609,459	-200,000	-0,035	-0,137
-608,444	-200,000	0,015	-0,068
-607,430	-52,759	-0,074	-0,025
-606,415	130,500	-0,101	0,094
-605,401	800,000	0,013	-0,033
-604,386	-200,000	-0,001	-0,015
-603,371	-200,000	0,003	0,136
-602,357	-126,742	0,129	-0,014
-601,342	771,446	0,021	0,042
-600,328	306,487	-0,041	-0,055
-599,313	-200,000	-0,043	-0,159
-598,298	800,000	-0,008	0,020
-597,284	121,625	0,130	-0,118
-596,269	-200,000	-0,013	-0,101
-595,255	-67,874	-0,098	0,027
-594,240	800,000	-0,065	-0,157
-593,225	15,133	-0,035	-0,020
-592,211	-154,551	-0,068	0,003
-591,196	17,650	0,047	-0,027
-590,182	-200,000	0,004	-0,082
-589,167	800,000	-0,048	-0,112
-588,152	120,346	-0,118	-0,106
-587,138	301,491	-0,073	0,098
-586,123	225,281	-0,089	0,104
-585,109	800,000	0,025	0,058
-584,094	-73,099	0,091	0,024
-583,079	595,841	-0,057	-0,102
-582,065	125,721	0,062	0,057
-581,050	-200,000	0,006	-0,105
-580,036	378,583	-0,039	0,058
-579,021	125,434	-0,094	-0,086
-578,006	800,000	-0,006	0,018
-576,992	800,000	0,044	0,120
-575,977	800,000	0,034	0,083
-574,963	393,874	-0,041	0,062
-573,948	660,611	-0,043	0,081
-572,934	24,003	0,022	0,013
-571,919	1,688	0,106	0,055
-570,904	-200,000	-0,026	0,140
-569,890	199,306	-0,069	0,077
-568,875	-17,631	-0,122	0,055
-567,861	68,967	-0,100	-0,074
-566,846	-168,392	-0,153	-0,004
-565,831	606,910	0,024	-0,044
-564,817	148,962	0,072	-0,070
-563,802	800,000	-0,066	-0,170
-562,788	159,198	-0,077	-0,077
-561,773	-76,618	0,079	-0,020
-560,758	72,949	-0,029	0,022
-559,744	-9,902	-0,060	0,029
-558,729	800,000	-0,004	-0,011
-557,715	-200,000	-0,011	0,059
-556,700	218,253	0,070	-0,081
-555,685	800,000	-0,016	-0,048
-554,671	-80,908	0,180	0,043
-553,656	569,082	-0,026	-0,047
-552,642	113,039	-0,011	-0,009
-551,627	-103,702	-0,071	0,012
-550,612	346,352	0,032	-0,045
-549,598	-200,000	0,020	0,087
-548,583	459,109	-0,044	0,071
-547,569	-200,000	0,018	-0,134
-546,554	-200,000	0,030	0,177
-545,539	759,616	-0,029	0,057
-544,525	39,338	0,072	0,046
-543,510	-34,142	-0,077	-0,030
-542,496	-153,229	-0,064	0,003
-541,481	357,986	0,033	0,047
-540,466	569,168	0,049	-0,086
-539,452	-200,000	-0,021	0,091
-538,437	-58,134	0,076	0,024
-537,423	73,521	-0,070	-0,053
-536,408	-200,000	0,012	-0,126
-535,393	800,000	-0,050	-0,102
-534,379	-200,000	0,003	-0,025
-533,364	24,457	-0,138	0,082
-532,350	55,766	-0,014	-0,010
-531,335	-200,000	-0,008	-0,092
-530,321	281,543	-0,052	0,067
-529,306	-108,697	-0,092	0,014
-528,291	-200,000	-0,002	-0,049
-527,277	-53,133	-0,093	-0,031
-526,262	64,786	-0,055	0,040
-525,248	119,409	0,084	0,075
-524,233	94,644	0,101	0,083
-523,218	136,717	0,085	0,080
-522,204	98,143	-0,035	0,029
-521,189	-44,515	-0,054	-0,020
-520,175	-11,868	-0,073	-0,034
-519,160	89,691	0,007	0,006
-518,145	252,141	0,056	0,069
-517,131	76,113	0,032	0,025
-516,116	319,360	-0,017	0,024
-515,102	-200,000	-0,001	0,062
-514,087	-35,805	0,079	-0,031
-513,072	800,000	-0,026	-0,070
-512,058	-200,000	0,002	-0,018
-511,043	353,013	0,061	-0,088
-510,029	9,791	-0,066	0,036
-509,014	113,548	0,098	0,086
-507,999	99,211	-0,083	-0,070
-506,985	-200,000	0,001	0,106
-505,970	87,547	0,045	0,036
-504,956	-34,205	0,046	-0,018
-503,941	370,950	-0,061	-0,090
-502,926	233,318	0,063	-0,074
-501,912	-71,976	-0,057	0,015
-500,897	-200,000	0,018	0,162
-499,883	46,341	0,045	-0,030
-498,868	-137,047	-0,096	-0,008
-497,853	84,980	-0,099	-0,078
-496,839	-41,860	0,103	-0,038
-495,824	-200,000	0,003	-0,084
-494,810	181,735	-0,070	-0,075
-493,795	-200,000	0,014	-0,065
-492,781	-99,681	-0,052	-0,009
-491,766	800,000	-0,054	0,126
-490,751	713,108	0,036	-0,069
-489,737	107,436	0,079	0,068
-488,722	-30,288	0,054	0,022
-487,708	-36,189	0,068	-0,026
-486,693	-163,456	-0,045	-0,002
-485,678	-126,186	0,060	0,006
-484,664	114,558	-0,050	-0,044
-483,649	-200,000	-0,004	-0,076
-482,635	-200,000	-0,019	-0,068
-481,620	109,055	-0,030	-0,026
-480,605	219,403	0,054	0,062
-479,591	178,466	0,068	0,072
-478,576	-200,000	0,004	-0,055
-477,562	494,420	-0,060	-0,100
-476,547	-200,000	0,029	-0,106
-475,532	-83,899	-0,161	0,037
-474,518	485,425	0,094	0,155
-473,503	-6,079	0,026	0,013
-472,489	-200,000	0,049	0,182
-471,474	-200,000	-0,023	0,088
-470,459	-200,000	0,004	-0,097
-469,445	40,951	-0,089	0,058
-468,430	143,879	-0,005	0,005
-467,416	604,806	-0,020	0,036
-466,401	-155,872	0,067	0,003
-465,386	-200,000	-0,004	0,089
-464,372	-121,161	0,090	-0,011
-463,357	87,829	0,051	-0,041
-462,343	-83,005	0,074	-0,017
-461,328	-33,629	-0,034	0,013
-460,313	-200,000	-0,008	0,080
-459,299	299,005	0,085	0,113
-458,284	-200,000	0,017	-0,107
-457,270	800,000	-0,035	-0,093
-456,255	-107,487	0,093	-0,014
-455,241	344,719	-0,013	-0,019
-454,226	697,896	-0,037	0,070
-453,211	-9,431	0,133	0,064
-452,197	267,456	0,036	0,045
-451,182	340,568	-0,056	-0,079
-450,168	569,838	0,059	0,105
-449,153	281,696	0,038	-0,049
-448,138	-54,027	-0,139	-0,045
-447,124	-200,000	-0,008	-0,028
-446,109	-92,487	0,096	0,019
-445,095	251,694	0,078	0,096
-444,080	471,113	-0,044	-0,071
-443,065	62,046	-0,042	0,030
-442,051	69,759	0,057	-0,042
-441,036	-200,000	0,027	-0,146
-440,022	800,000	-0,010	0,025
-439,007	-200,000	-0,011	-0,061
-437,992	-200,000	-0,040	0,187
-436,978	800,000	0,036	-0,084
-435,963	-151,036	-0,032	-0,002
-434,949	800,000	-0,039	0,112
-433,934	-15,088	-0,059	0,027
-432,919	127,571	-0,042	0,038
-431,905	-200,000	0,007	-0,115
-430,890	800,000	0,035	-0,089
-429,876	316,393	-0,024	0,032
-428,861	-43,788	0,055	0,020
-427,846	-99,398	0,100	0,018
-426,832	-14,960	-0,120	-0,055
-425,817	610,416	-0,017	0,032
-424,803	-200,000	-0,014	0,128
-423,788	-200,000	-0,020	0,139
-422,773	278,443	0,075	0,097
-421,759	1,681	0,022	0,011
-420,744	-84,714	-0,028	0,006
-419,730	800,000	0,047	0,105
-418,715	162,439	-0,042	-0,043
-417,701	800,000	-0,076	-0,172
-416,686	212,499	0,103	-0,117
-415,671	28,680	0,066	0,040
-414,657	-158,791	-0,103	0,004
-413,642	162,548	-0,102	0,103
-412,628	1,260	0,244	0,126
-411,613	703,120	-0,034	0,065
-410,598	-200,000	-0,008	0,123
-409,584	52,096	0,107	-0,073
-408,569	104,172	0,168	0,142
-407,555	692,445	-0,087	0,166
-406,540	-11,465	0,153	0,072
-405,525	8,476	-0,114	-0,062
-404,511	211,736	-0,065	-0,074
-403,496	-200,000	-0,031	-0,148
-402,482	-200,000	0,004	0,017
-401,467	-200,000	0,014	-0,074
-400,452	-30,123	0,049	0,020
-399,438	-51,320	-0,078	0,026
-398,423	-1,763	-0,041	-0,021
-397,409	143,384	0,059	0,056
-396,394	-68,377	0,154	0,043
-395,379	800,000	0,061	0,182
-394,365	-200,000	0,024	0,087
-393,350	800,000	-0,045	0,097
-392,336	-80,869	0,097	0,023
-391,321	-200,000	-0,005	-0,038
-390,306	323,434	0,014	0,019
-389,292	419,501	0,090	-0,139
-388,277	-156,349	0,087	0,004
-387,263	85,041	-0,090	0,071
-386,248	-85,952	-0,123	0,027
-385,233	32,055	0,096	0,059
-384,219	-200,000	-0,001	0,136
-383,204	-33,395	-0,107	-0,042
-382,190	800,000	-0,027	-0,073
-381,175	-200,000	0,009	-0,109
-380,160	130,545	0,057	0,053
-379,146	800,000	0,012	0,027
-378,131	800,000	-0,015	0,039
-377,117	-200,000	-0,001	0,084
-376,102	-148,285	0,027	-0,002
-375,088	-200,000	-0,005	-0,020
-374,073	729,799	-0,065	-0,126
-373,058	-200,000	0,024	-0,108
-372,044	800,000	0,037	0,118
-371,029	24,235	-0,081	-0,048
-370,015	-5,729	0,101	0,050
-369,000	345,538	-0,034	-0,048
-367,985	-124,027	-0,140	-0,016
-366,971	374,750	-0,103	-0,152
-365,956	-200,000	0,055	-0,178
-364,942	-59,436	0,146	0,045
-363,927	-170,714	0,074	0,002
-362,912	-108,190	0,091	0,014
-361,898	-47,739	-0,169	-0,058
-360,883	36,120	0,084	0,053
-359,869	94,758	-0,055	-0,045
-358,854	16,175	-0,033	-0,019
-357,839	105,195	0,125	-0,106
-356,825	-99,774	-0,034	0,006
-355,810	118,041	0,043	-0,038
-354,796	51,929	-0,068	-0,047
-353,781	-18,214	0,104	0,047
-352,766	135,172	-0,070	0,066
-351,752	-35,306	0,086	0,033
-350,737	800,000	0,036	0,073
-349,723	-75,048	-0,045	-0,011
-348,708	-200,000	-0,013	-0,087
-347,693	-200,000	-0,008	-0,056
-346,679	414,408	-0,021	-0,033
-345,664	455,663	0,048	0,077
-344,650	249,046	0,026	0,032
-343,635	0,773	0,070	-0,036
-342,620	196,082	0,060	0,066
-341,606	-200,000	0,036	0,118
-340,591	-123,998	-0,145	-0,016
-339,577	89,048	-0,075	0,060
-338,562	288,492	-0,062	-0,080
-337,548	-76,265	0,120	0,030
-336,533	276,744	0,049	-0,063
-335,518	403,211	0,048	0,072
-334,504	-41,922	0,066	-0,024
-333,489	-137,870	-0,103	0,008
-332,475	800,000	0,034	-0,101
-331,460	-167,333	-0,139	0,004
-330,445	60,582	0,078	0,055
-329,431	442,478	-0,014	0,023
-328,416	-3,079	-0,024	0,012
-327,402	-183,930	0,097	0,001
-326,387	-200,000	-0,019	-0,071
-325,372	29,463	-0,016	0,010
-324,358	323,082	0,025	-0,035
-323,343	-200,000	0,014	-0,106
-322,329	228,700	0,020	0,024
-321,314	-108,755	-0,044	-0,007
-320,299	-200,000	0,003	-0,099
-319,285	-5,861	-0,109	0,053
-318,270	46,213	-0,050	0,033
-317,256	258,994	-0,017	-0,021
-316,241	109,057	-0,035	-0,030
-315,226	-113,317	-0,087	-0,012
-314,212	-200,000	-0,016	0,083
-313,197	556,053	0,046	-0,080
-312,183	106,045	0,077	0,065
-311,168	800,000	0,061	-0,143
-310,153	334,165	-0,024	0,034
-309,139	800,000	0,009	-0,021
-308,124	-200,000	0,006	0,111
-307,110	-200,000	0,056	0,198
-306,095	-189,590	0,121	0,001
-305,080	228,833	-0,057	0,066
-304,066	166,912	0,036	0,037
-303,051	800,000	-0,041	-0,097
-302,037	-196,204	0,044	-0,000
-301,022	50,044	0,168	-0,113
-300,008	-200,000	0,014	-0,078
-298,993	-138,734	-0,167	0,013
-297,978	-200,000	0,003	0,143
-296,964	-17,093	-0,110	-0,049
-295,949	406,143	-0,091	-0,137
-294,935	49,745	0,117	-0,079
-293,920	81,867	-0,055	-0,043
-292,905	-51,682	-0,077	-0,025
-291,891	800,000	-0,039	0,090
-290,876	-33,515	0,159	0,063
-289,862	-10,816	-0,094	-0,044
-288,847	80,581	0,043	-0,033
-287,832	95,644	0,099	-0,081
-286,818	-88,953	0,102	0,021
-285,803	161,049	0,092	0,092
-284,789	27,901	0,086	0,052
-283,774	27,669	0,039	-0,024
-282,759	-63,372	-0,155	0,045
-281,745	647,497	-0,010	-0,019
-280,730	326,440	-0,032	-0,044
-279,716	-200,000	0,004	0,040
-278,701	-142,925	0,070	-0,005
-277,686	-200,000	0,013	0,073
-276,672	296,610	0,030	-0,040
-275,657	800,000	-0,019	0,041
-274,643	299,697	-0,012	-0,016
-273,628	95,233	0,103	0,084
-272,613	189,219	-0,068	-0,073
-271,599	-9,768	-0,040	-0,019
-270,584	-69,919	0,088	0,024
-269,570	-47,883	-0,089	0,031
-268,555	128,676	-0,033	-0,030
-267,540	-123,159	0,099	-0,011
-266,526	-200,000	-0,001	0,018
-265,511	232,205	-0,014	-0,016
-264,497	0,658	0,035	-0,018
-263,482	218,710	0,042	0,048
-262,467	-200,000	0,035	0,124
-261,453	489,072	-0,040	0,065
-260,438	214,912	-0,029	-0,033
-259,424	-38,221	-0,136	-0,051
-258,409	-11,470	0,122	0,057
-257,395	244,879	0,043	0,052
-256,380	-131,577	-0,168	-0,016
-255,365	-108,223	0,080	0,012
-254,351	-127,712	0,050	-0,005
-253,336	95,008	-0,119	0,097
-252,322	-60,567	0,153	0,046
-251,307	800,000	-0,037	-0,108
-250,292	-44,688	-0,085	0,030
-249,278	15,246	0,091	-0,051
-248,263	-5,916	0,104	-0,051
-247,249	-200,000	-0,003	0,028
-246,234	299,316	0,041	-0,054
-245,219	310,032	-0,041	-0,055
-244,205	395,336	0,090	-0,134
-243,190	289,643	0,028	0,036
-242,176	-200,000	0,030	0,100
-241,161	89,623	0,125	0,100
-240,146	-200,000	0,025	-0,095
-239,132	468,179	0,077	-0,124
-238,117	800,000	0,032	0,095
-237,103	-153,305	-0,121	0,006
-236,088	68,046	-0,074	0,054
-235,073	-126,011	0,060	-0,006
-234,059	-200,000	0,012	-0,095
-233,044	518,617	0,028	-0,048
-232,030	-153,162	-0,025	0,001
-231,015	-197,123	-0,097	-0,000
-230,000	217,146	0,032	-0,036
-228,986	800,000	-0,081	-0,227
-227,971	-33,072	0,079	-0,031
-226,957	-136,425	0,058	-0,005
-225,942	-148,785	0,073	-0,004
-224,927	800,000	0,048	0,129
-223,913	315,980	-0,080	-0,108
-222,898	337,497	-0,019	-0,026
-221,884	-110,302	-0,028	-0,004
-220,869	-200,000	0,010	0,089
-219,855	800,000	-0,028	0,057
-218,840	-200,000	0,025	0,104
-217,825	-109,697	-0,047	-0,007
-216,811	800,000	-0,059	-0,161
-215,796	179,901	0,060	0,063
-214,782	386,212	-0,042	0,062
-213,767	263,350	-0,048	0,059
-212,752	313,534	0,123	0,166
-211,738	-200,000	0,003	0,036
-210,723	193,720	0,070	-0,075
-209,709	-93,333	-0,127	-0,025
-208,694	61,891	-0,130	-0,092
-207,679	468,686	0,083	-0,134
-206,665	588,128	0,056	-0,098
-205,650	800,000	0,033	0,097
-204,636	-154,222	0,075	0,004
-203,621	-45,291	-0,013	0,005
-202,606	-41,393	-0,068	0,025
-201,592	71,867	0,045	0,034
-200,577	231,219	-0,065	-0,076
-199,563	800,000	0,026	0,073
-198,548	31,104	-0,110	0,067
-197,533	-200,000	0,025	-0,101
-196,519	117,034	0,023	-0,020
-195,504	222,610	-0,087	-0,100
-194,490	-200,000	-0,010	-0,096
-193,475	153,772	-0,088	0,086
-192,460	800,000	0,064	0,127
-191,446	37,028	-0,139	0,087
-190,431	0,269	-0,040	0,020
-189,417	-77,166	0,102	0,025
-188,402	82,441	-0,094	-0,072
-187,387	113,274	-0,082	-0,071
-186,373	32,913	0,087	-0,054
-185,358	47,725	-0,028	-0,018
-184,344	-197,211	0,049	-0,000
-183,329	-200,000	0,012	-0,068
-182,315	-17,652	0,116	-0,052
-181,300	399,376	0,062	-0,094
-180,285	94,849	-0,019	-0,015
-179,271	87,648	-0,076	-0,060
-178,256	92,256	-0,073	-0,059
-177,242	800,000	-0,031	0,081
-176,227	-188,602	0,163	-0,001
-175,212	-200,000	0,015	0,130
-174,198	-174,493	-0,108	0,002
-173,183	-9,866	0,062	-0,029
-172,169	-68,334	-0,078	-0,021
-171,154	-38,822	-0,163	0,061
-170,139	48,095	0,146	-0,097
-169,125	406,765	-0,041	0,062
-168,110	391,576	0,079	0,117
-167,096	-90,538	-0,023	-0,005
-166,081	20,730	0,023	0,013
-165,066	131,572	0,060	0,055
-164,052	54,393	-0,097	0,067
-163,037	-200,000	0,007	0,038
-162,023	-55,942	0,072	0,023
-161,008	136,688	0,099	0,092
-159,993	800,000	0,049	0,098
-158,979	-51,889	-0,009	0,003
-157,964	-200,000	0,013	-0,150
-156,950	-200,000	0,000	-0,053
-155,935	234,468	0,029	0,034
-154,920	800,000	-0,063	0,162
-153,906	-200,000	0,009	0,058
-152,891	-100,076	-0,217	-0,038
-151,877	198,085	0,080	0,087
-150,862	306,895	-0,161	-0,214
-149,847	89,353	0,122	-0,097
-148,833	-40,034	0,173	-0,064
-147,818	-127,559	0,008	-0,001
-146,804	629,127	0,019	0,034
-145,789	134,566	0,051	-0,048
-144,775	15,154	0,081	0,045
-143,760	595,145	0,039	-0,070
-142,745	800,000	-0,045	0,138
-141,731	-19,344	0,111	0,049
-140,716	-49,826	0,056	0,019
-139,702	741,984	-0,032	0,062
-138,687	-200,000	0,016	-0,096
-137,672	89,586	-0,071	0,056
-136,658	65,723	-0,076	0,055
-135,643	-200,000	0,017	0,104
-134,629	-200,000	0,024	0,173
-133,614	-122,166	0,170	0,020
-132,599	-200,000	0,002	0,180
-131,585	138,362	0,022	0,020
-130,570	-26,417	0,102	0,042
-129,556	-200,000	0,012	0,119
-128,541	-200,000	-0,035	-0,195
-127,526	141,302	0,093	-0,088
-126,512	-55,922	-0,095	0,030
-125,497	-11,028	0,072	0,034
-124,483	327,814	0,074	0,102
-123,468	116,556	-0,056	0,049
-122,453	2,180	0,112	-0,058
-121,439	800,000	-0,013	-0,039
-120,424	800,000	-0,031	-0,085
-119,410	-40,022	0,125	0,046
-118,395	2,778	0,029	-0,015
