DTS Sentinel unit serial number:	SN410029Multiplexer serial number:	ORYXHardware model number:	OX2-SRSoftware version number:	ORYX F/W v4,00 Oryx Data Collector v3.7.2.0data status	okinstallation	BH3 CH2differential loss correction	single-endedforward channel	channel 2reverse channel	N/Adate	2023/12/06time	03:12:28forward acquisition time	300,00reverse acquisition time	0,00gamma	499,1914k internal	0,3197k external	0,3197temperature offset calibration	1,0000default loss term (dB/km)	0,3820temperature slope calibration	1,0000multiplexer offset coefficient	1,0000multiplexer slope coefficient	1,0000fibre end	0,00T internal ref (°C)	8,94T ext. ref 1 (°C)	-5,81T ext. ref 2 (°C)	-5,91length (m)	temperature (°C)	Stokes	anti-Stokes-744,400	237,116	-0,064	-0,077
-743,385	-28,657	-0,194	0,081
-742,371	-200,000	-0,000	-0,008
-741,356	-132,360	-0,225	0,021
-740,342	-24,596	-0,117	-0,050
-739,327	-59,343	-0,155	0,048
-738,312	-200,000	-0,039	-0,202
-737,298	-139,614	-0,238	-0,018
-736,283	-200,000	-0,015	-0,197
-735,269	800,000	-0,051	0,135
-734,254	169,722	-0,045	-0,047
-733,239	-20,277	-0,388	-0,173
-732,225	140,716	0,135	-0,130
-731,210	-200,000	0,053	0,196
-730,196	800,000	-0,071	0,198
-729,181	158,048	-0,047	0,047
-728,167	570,984	0,029	0,052
-727,152	187,574	-0,133	-0,144
-726,137	-72,400	-0,179	-0,048
-725,123	-135,514	-0,163	0,014
-724,108	89,360	-0,040	-0,032
-723,094	152,823	-0,101	-0,101
-722,079	-95,795	0,117	0,023
-721,064	800,000	-0,025	-0,054
-720,050	-200,000	-0,011	0,049
-719,035	663,907	-0,032	-0,060
-718,021	-44,596	-0,185	0,067
-717,006	-200,000	-0,028	-0,117
-715,991	-116,344	-0,079	0,011
-714,977	800,000	0,018	-0,036
-713,962	-91,216	0,064	0,013
-712,948	-200,000	-0,001	0,036
-711,933	762,418	-0,038	0,076
-710,918	-103,920	-0,035	0,006
-709,904	-200,000	-0,001	0,034
-708,889	28,740	-0,046	-0,028
-707,875	34,569	-0,075	-0,047
-706,860	408,076	0,057	-0,088
-705,845	-200,000	-0,006	-0,109
-704,831	391,197	-0,116	-0,176
-703,816	800,000	-0,056	0,169
-702,802	368,118	0,033	0,049
-701,787	0,732	-0,134	0,070
-700,772	484,794	0,066	-0,109
-699,758	772,488	-0,050	-0,099
-698,743	-139,050	0,186	-0,014
-697,729	373,139	0,038	0,057
-696,714	-41,673	0,062	-0,023
-695,699	-75,602	-0,199	0,051
-694,685	-88,112	-0,030	-0,006
-693,670	-48,509	-0,081	-0,028
-692,656	-42,259	-0,076	-0,028
-691,641	-200,000	-0,027	0,125
-690,627	-200,000	-0,005	0,045
-689,612	-108,193	-0,016	-0,003
-688,597	92,054	0,085	-0,070
-687,583	40,283	0,039	0,025
-686,568	-149,199	-0,145	-0,008
-685,554	588,526	-0,023	0,042
-684,539	256,899	0,005	-0,006
-683,524	83,470	-0,112	-0,088
-682,510	209,744	-0,072	-0,082
-681,495	-143,045	-0,057	0,004
-680,481	-33,909	0,059	0,024
-679,466	-57,568	0,057	0,018
-678,451	-200,000	-0,020	0,078
-677,437	570,153	0,041	-0,072
-676,422	800,000	0,066	-0,183
-675,408	-27,556	0,125	-0,052
-674,393	-200,000	0,025	-0,125
-673,378	-46,780	0,015	0,005
-672,364	-200,000	-0,014	0,091
-671,349	800,000	-0,027	0,057
-670,335	422,753	0,044	0,069
-669,320	271,874	0,066	0,084
-668,305	-110,595	-0,251	0,037
-667,291	-200,000	-0,021	-0,068
-666,276	651,705	-0,046	-0,087
-665,262	152,812	-0,104	-0,103
-664,247	-63,347	-0,095	-0,028
-663,232	-200,000	0,016	-0,085
-662,218	45,621	-0,112	-0,075
-661,203	2,139	0,029	0,015
-660,189	-200,000	0,018	0,082
-659,174	222,185	-0,080	0,093
-658,159	-20,724	-0,061	0,027
-657,145	221,639	0,077	-0,090
-656,130	-99,583	-0,078	-0,014
-655,116	62,297	-0,020	0,015
-654,101	-55,032	0,059	-0,019
-653,086	60,876	-0,062	-0,045
-652,072	-186,486	-0,125	-0,001
-651,057	-200,000	-0,017	-0,163
-650,043	-200,000	-0,009	-0,034
-649,028	712,805	-0,034	-0,066
-648,014	78,796	-0,032	0,025
-646,999	-200,000	0,009	0,032
-645,984	-101,702	0,062	-0,011
-644,970	114,408	0,107	-0,094
-643,955	15,962	-0,070	-0,040
-642,941	-124,245	0,029	0,003
-641,926	616,618	-0,044	0,080
-640,911	-200,000	-0,010	0,058
-639,897	379,449	-0,061	-0,091
-638,882	-200,000	0,011	-0,104
-637,868	634,248	-0,057	-0,105
-636,853	160,182	-0,048	0,048
-635,838	462,609	0,015	-0,024
-634,824	-200,000	-0,018	-0,133
-633,809	-117,129	0,067	-0,009
-632,795	-103,081	0,127	0,022
-631,780	90,606	-0,048	-0,039
-630,765	159,076	-0,103	-0,104
-629,751	800,000	-0,033	-0,074
-628,736	-200,000	0,014	-0,081
-627,722	176,915	0,036	0,038
-626,707	800,000	0,013	-0,040
-625,692	800,000	-0,038	0,103
-624,678	-164,646	0,136	-0,004
-623,663	-141,453	-0,030	0,002
-622,649	135,772	-0,137	-0,129
-621,634	800,000	-0,037	-0,088
-620,619	759,618	-0,008	0,016
-619,605	50,238	0,122	0,083
-618,590	69,086	-0,073	0,054
-617,576	57,675	-0,097	0,069
-616,561	283,815	-0,020	0,026
-615,546	27,752	-0,116	-0,071
-614,532	800,000	-0,028	-0,063
-613,517	182,579	0,094	-0,100
-612,503	800,000	-0,024	0,057
-611,488	-76,195	0,021	-0,005
-610,474	-26,335	-0,013	0,005
-609,459	-200,000	-0,002	0,043
-608,444	-77,764	-0,098	0,024
-607,430	-200,000	-0,006	-0,036
-606,415	305,784	-0,018	0,024
-605,401	4,461	0,067	0,035
-604,386	82,569	-0,106	0,083
-603,371	521,040	0,022	-0,037
-602,357	800,000	0,013	0,027
-601,342	185,583	-0,109	-0,117
-600,328	43,516	0,095	-0,063
-599,313	-200,000	0,011	-0,057
-598,298	-75,018	-0,175	-0,045
-597,284	-200,000	-0,016	-0,053
-596,269	54,401	0,026	0,018
-595,255	-200,000	-0,005	0,034
-594,240	-137,884	0,087	-0,007
-593,225	-175,747	-0,117	-0,002
-592,211	729,723	-0,025	-0,048
-591,196	-109,256	-0,119	-0,018
-590,182	112,037	-0,097	0,085
-589,167	-35,231	0,042	0,016
-588,152	-54,691	0,113	0,037
-587,138	-111,312	-0,097	0,014
-586,123	-27,427	-0,106	-0,044
-585,109	85,207	-0,113	0,090
-584,094	687,084	-0,069	0,131
-583,079	208,623	0,104	0,118
-582,065	-200,000	0,019	0,097
-581,050	23,270	0,141	-0,084
-580,036	-117,996	-0,145	-0,019
-579,021	-101,159	0,185	-0,032
-578,006	-141,855	-0,054	-0,004
-576,992	349,424	-0,037	0,054
-575,977	-200,000	0,002	0,032
-574,963	400,923	0,030	0,046
-573,948	-118,205	-0,056	-0,007
-572,934	-200,000	-0,013	-0,050
-571,919	-200,000	-0,001	-0,125
-570,904	-151,198	-0,043	0,002
-569,890	-200,000	0,008	-0,083
-568,875	242,219	0,067	0,081
-567,861	-181,171	0,089	-0,001
-566,846	-200,000	-0,054	0,179
-565,831	-200,000	0,027	0,125
-564,817	-17,136	-0,102	0,046
-563,802	-25,137	-0,179	0,076
-562,788	-69,905	0,051	-0,014
-561,773	324,565	0,046	0,064
-560,758	167,670	-0,032	-0,033
-559,744	-200,000	0,012	0,210
-558,729	-200,000	0,014	0,087
-557,715	0,444	-0,014	-0,007
-556,700	-78,637	-0,120	-0,029
-555,685	-110,428	0,071	-0,011
-554,671	103,158	0,079	-0,067
-553,656	9,688	0,015	0,008
-552,642	-200,000	0,005	-0,062
-551,627	123,927	0,020	0,018
-550,612	-51,428	-0,070	-0,024
-549,598	64,643	-0,026	-0,019
-548,583	-200,000	0,021	-0,125
-547,569	235,405	-0,114	-0,136
-546,554	-108,870	-0,050	0,008
-545,539	52,068	0,024	0,016
-544,525	70,854	-0,089	0,066
-543,510	800,000	-0,044	-0,093
-542,496	5,801	-0,125	-0,067
-541,481	-154,368	-0,191	0,009
-540,466	800,000	-0,019	0,060
-539,452	-200,000	0,012	0,048
-538,437	-28,003	0,143	0,059
-537,423	-132,812	0,050	0,005
-536,408	-90,003	-0,098	-0,020
-535,393	-200,000	-0,007	-0,083
-534,379	-200,000	0,007	-0,039
-533,364	603,641	-0,056	0,101
-532,350	-179,831	0,152	0,002
-531,335	753,551	0,092	0,180
-530,321	-26,270	0,106	-0,045
-529,306	800,000	-0,042	-0,101
-528,291	707,077	0,028	-0,055
-527,277	589,707	-0,077	-0,137
-526,262	-200,000	-0,010	-0,099
-525,248	-47,345	0,075	0,026
-524,233	123,801	0,105	0,095
-523,218	-63,527	-0,046	0,014
-522,204	-30,873	-0,036	-0,015
-521,189	499,586	-0,046	0,077
-520,175	-100,597	-0,054	-0,010
-519,160	-111,480	-0,092	0,013
-518,145	-138,831	0,027	-0,002
-517,131	318,628	-0,030	0,041
-516,116	800,000	0,054	0,121
-515,102	-10,613	-0,102	-0,048
-514,087	800,000	0,045	0,115
-513,072	502,509	-0,029	0,049
-512,058	-8,741	-0,127	0,061
-511,043	-8,627	0,162	-0,078
-510,029	-142,872	-0,174	0,012
-509,014	53,692	0,076	-0,053
-507,999	-200,000	-0,014	-0,045
-506,985	-200,000	-0,051	0,193
-505,970	615,658	0,046	0,083
-504,956	-200,000	-0,049	-0,198
-503,941	800,000	-0,062	0,152
-502,926	-12,962	0,120	0,056
-501,912	487,435	0,019	0,032
-500,897	-200,000	-0,028	-0,127
-499,883	-156,561	-0,089	0,004
-498,868	-89,590	-0,037	0,008
-497,853	-61,212	-0,061	0,018
-496,839	101,628	0,080	-0,067
-495,824	-200,000	0,018	-0,167
-494,810	110,949	-0,044	-0,038
-493,795	-112,296	0,126	-0,018
-492,781	-200,000	-0,020	-0,104
-491,766	664,775	0,046	-0,086
-490,751	-200,000	-0,010	-0,089
-489,737	37,075	0,002	-0,001
-488,722	-200,000	0,013	-0,073
-487,708	-200,000	0,012	0,116
-486,693	800,000	0,013	0,026
-485,678	-35,118	-0,066	0,026
-484,664	69,325	-0,059	-0,043
-483,649	-125,710	0,110	-0,012
-482,635	-200,000	-0,006	-0,095
-481,620	-13,416	0,087	0,041
-480,605	204,637	-0,060	0,067
-479,591	197,117	0,033	-0,036
-478,576	-86,573	0,060	0,013
-477,562	-2,009	0,016	-0,008
-476,547	-178,438	-0,030	-0,000
-475,532	-117,115	0,055	0,007
-474,518	63,577	0,091	0,066
-473,503	-14,597	0,054	0,025
-472,489	-200,000	0,012	-0,136
-471,474	-200,000	-0,007	-0,149
-470,459	-200,000	-0,020	-0,130
-469,445	220,845	0,034	-0,039
-468,430	-200,000	-0,009	0,048
-467,416	-200,000	0,005	0,139
-466,401	531,191	-0,042	0,071
-465,386	76,210	0,076	-0,058
-464,372	689,255	0,045	-0,084
-463,357	-89,759	0,141	-0,030
-462,343	231,673	-0,055	0,065
-461,328	108,315	0,053	-0,046
-460,313	134,731	-0,030	0,028
-459,299	-200,000	0,009	0,099
-458,284	-200,000	0,020	0,173
-457,270	-200,000	-0,038	0,197
-456,255	-200,000	0,003	-0,104
-455,241	450,401	-0,056	-0,089
-454,226	-71,690	-0,102	0,027
-453,211	6,916	-0,081	0,044
-452,197	317,484	0,113	0,154
-451,182	87,216	0,065	-0,051
-450,168	-200,000	0,003	-0,012
-449,153	-200,000	0,021	-0,132
-448,138	-200,000	0,022	0,078
-447,124	643,237	0,064	0,118
-446,109	800,000	0,020	0,054
-445,095	454,649	0,037	-0,060
-444,080	-200,000	0,002	0,026
-443,065	6,060	-0,106	0,057
-442,051	-200,000	0,026	0,139
-441,036	-154,896	-0,078	-0,004
-440,022	-79,223	-0,064	0,015
-439,007	475,717	-0,032	0,053
-437,992	61,797	0,110	-0,079
-436,978	-99,868	0,047	-0,008
-435,963	-200,000	0,010	-0,079
-434,949	800,000	-0,033	0,095
-433,934	-200,000	0,025	0,107
-432,919	-156,156	0,103	-0,005
-431,905	412,574	-0,048	-0,074
-430,890	70,604	0,068	0,051
-429,876	256,982	0,081	0,101
-428,861	110,688	0,038	0,033
-427,846	742,377	-0,032	-0,062
-426,832	94,140	-0,060	-0,049
-425,817	-200,000	-0,017	0,127
-424,803	242,736	-0,074	-0,089
-423,788	272,345	0,114	-0,144
-422,773	-186,711	0,113	0,001
-421,759	159,744	-0,060	0,060
-420,744	-200,000	0,005	0,094
-419,730	-200,000	0,000	-0,033
-418,715	330,146	-0,025	-0,035
-417,701	228,620	-0,077	0,091
-416,686	-200,000	-0,007	-0,064
-415,671	84,511	0,016	-0,013
-414,657	682,601	0,053	-0,099
-413,642	-19,049	0,106	-0,047
-412,628	-200,000	-0,033	-0,154
-411,613	711,685	-0,018	0,035
-410,598	65,739	-0,028	0,020
-409,584	-96,219	0,192	0,036
-408,569	671,685	-0,062	0,116
-407,555	20,915	0,057	0,033
-406,540	588,192	-0,017	-0,030
-405,525	-152,938	0,055	-0,003
-404,511	743,284	0,017	-0,033
-403,496	-200,000	-0,006	-0,021
-402,482	266,160	0,028	0,036
-401,467	88,848	-0,034	0,027
-400,452	15,983	0,074	0,041
-399,438	-62,705	0,042	0,012
-398,423	-81,354	-0,137	-0,032
-397,409	229,674	0,072	0,085
-396,394	386,680	-0,066	-0,098
-395,379	619,097	-0,039	0,071
-394,365	-30,442	-0,032	-0,013
-393,350	-12,632	0,035	-0,016
-392,336	180,715	0,065	0,068
-391,321	137,182	-0,076	-0,072
-390,306	-82,177	-0,076	0,018
-389,292	800,000	-0,037	-0,088
-388,277	800,000	0,029	0,060
-387,263	-21,514	0,050	-0,022
-386,248	176,361	0,033	-0,035
-385,233	58,996	-0,052	0,037
-384,219	800,000	0,020	-0,061
-383,204	-200,000	-0,024	-0,135
-382,190	-5,926	0,022	0,011
-381,175	-200,000	-0,007	-0,111
-380,160	61,293	0,067	0,048
-379,146	-134,993	0,079	0,007
-378,131	-58,881	0,088	0,027
-377,117	-42,133	-0,037	-0,013
-376,102	27,841	0,101	-0,061
-375,088	143,446	0,085	0,081
-374,073	-200,000	-0,004	-0,092
-373,058	58,743	-0,050	-0,035
-372,044	-88,226	0,138	-0,029
-371,029	141,162	0,132	-0,125
-370,015	-56,019	-0,075	-0,024
-369,000	-56,193	-0,139	-0,044
-367,985	204,505	-0,100	-0,111
-366,971	-200,000	0,002	0,060
-365,956	-200,000	-0,017	-0,081
-364,942	-200,000	0,009	0,138
-363,927	157,916	0,079	0,079
-362,912	-106,981	0,070	-0,011
-361,898	-106,099	0,048	0,008
-360,883	-146,943	-0,168	-0,010
-359,869	800,000	-0,019	0,041
-358,854	-200,000	0,017	-0,079
-357,839	294,447	-0,064	0,084
-356,825	-200,000	-0,015	0,069
-355,810	17,908	-0,072	0,041
-354,796	-200,000	-0,002	-0,028
-353,781	77,337	0,049	-0,037
-352,766	336,075	0,020	0,028
-351,752	325,165	0,107	0,147
-350,737	29,769	0,111	0,067
-349,723	141,285	0,140	0,133
-348,708	-14,986	0,161	0,074
-347,693	-200,000	0,017	-0,077
-346,679	-14,584	0,067	0,031
-345,664	-200,000	0,002	-0,124
-344,650	534,553	0,068	0,115
-343,635	130,053	0,060	0,055
-342,620	-149,677	0,164	0,009
-341,606	-200,000	0,051	0,246
-340,591	-200,000	-0,030	-0,137
-339,577	800,000	0,059	-0,122
-338,562	68,619	-0,155	-0,114
-337,548	-90,129	0,048	-0,010
-336,533	328,271	0,046	-0,063
-335,518	-11,347	-0,075	0,035
-334,504	-55,805	-0,076	0,024
-333,489	191,196	0,089	-0,096
-332,475	-200,000	0,007	-0,063
-331,460	-54,404	-0,018	0,006
-330,445	72,052	0,094	-0,070
-329,431	-42,318	-0,039	0,014
-328,416	-56,733	0,072	0,023
-327,402	-39,438	0,130	-0,049
-326,387	34,991	-0,067	-0,042
-325,372	-200,000	-0,016	-0,082
-324,358	-44,751	0,119	-0,042
-323,343	-200,000	0,003	0,023
-322,329	-200,000	-0,008	0,058
-321,314	-200,000	0,002	0,128
-320,299	-137,507	-0,037	-0,003
-319,285	41,797	0,095	0,062
-318,270	-12,545	-0,164	-0,076
-317,256	-5,479	-0,158	-0,077
-316,241	-108,316	0,167	-0,026
-315,226	16,569	0,023	0,013
-314,212	37,253	-0,072	0,046
-313,197	-142,564	0,082	-0,006
-312,183	-48,755	-0,044	-0,015
-311,168	251,852	-0,041	-0,050
-310,153	-7,865	-0,065	-0,031
-309,139	-11,544	-0,056	0,026
-308,124	800,000	0,002	0,003
-307,110	774,770	0,034	0,066
-306,095	-28,420	0,138	-0,057
-305,080	-200,000	0,025	0,121
-304,066	-200,000	0,004	0,047
-303,051	616,324	-0,075	0,134
-302,037	-200,000	0,017	-0,116
-301,022	-8,106	0,068	-0,033
-300,008	-38,861	-0,184	0,069
-298,993	68,978	0,037	-0,027
-297,978	-200,000	0,015	0,063
-296,964	770,947	0,042	-0,083
-295,949	287,198	-0,047	-0,061
-294,935	117,406	0,096	-0,084
-293,920	171,588	-0,039	0,040
-292,905	101,370	-0,036	-0,030
-291,891	-200,000	-0,004	-0,013
-290,876	-39,440	0,062	-0,023
-289,862	182,365	0,015	0,016
-288,847	800,000	-0,019	-0,041
-287,832	-200,000	0,020	-0,100
-286,818	13,794	-0,031	0,017
-285,803	800,000	0,023	-0,062
-284,789	800,000	0,006	0,017
-283,774	454,584	0,020	0,032
-282,759	-200,000	0,015	0,073
-281,745	800,000	0,051	-0,108
-280,730	-147,651	0,030	0,002
-279,716	-163,777	-0,093	0,003
-278,701	800,000	0,043	0,111
-277,686	199,823	0,048	0,052
-276,672	800,000	0,032	0,066
-275,657	-169,204	-0,069	0,002
-274,643	485,011	-0,019	0,032
-273,628	-46,796	-0,134	0,046
-272,613	-200,000	-0,014	0,180
-271,599	-135,804	0,160	0,013
-270,584	800,000	-0,026	-0,058
-269,570	-60,119	0,090	0,027
-268,555	-44,774	0,061	0,022
-267,540	91,464	0,097	0,078
-266,526	800,000	-0,028	-0,071
-265,511	124,654	0,133	-0,119
-264,497	-200,000	0,008	-0,073
-263,482	321,660	0,085	0,117
-262,467	-69,405	0,049	0,013
-261,453	-14,547	-0,071	-0,032
-260,438	-200,000	0,003	-0,104
-259,424	262,949	-0,095	-0,118
-258,409	-200,000	0,006	-0,083
-257,395	-128,262	0,114	-0,012
-256,380	-200,000	-0,015	0,094
-255,365	119,868	-0,066	-0,058
-254,351	800,000	-0,002	0,004
-253,336	-200,000	0,017	0,104
-252,322	-200,000	0,020	-0,064
-251,307	88,523	0,028	0,023
-250,292	-13,207	-0,052	-0,024
-249,278	379,184	0,048	0,071
-248,263	-200,000	0,023	0,112
-247,249	-200,000	-0,007	0,053
-246,234	800,000	-0,027	-0,081
-245,219	270,907	0,100	-0,126
-244,205	-28,469	-0,070	-0,029
-243,190	70,969	0,025	-0,019
-242,176	58,362	0,044	0,031
-241,161	-25,899	0,070	-0,029
-240,146	-11,907	-0,090	-0,042
-239,132	334,954	0,063	0,087
-238,117	800,000	-0,084	-0,188
-237,103	-200,000	-0,006	0,021
-236,088	-99,555	-0,052	-0,009
-235,073	-200,000	0,036	0,179
-234,059	231,531	-0,050	-0,058
-233,044	800,000	0,059	-0,148
-232,030	-200,000	-0,019	-0,063
-231,015	524,729	0,026	-0,043
-230,000	86,574	-0,217	-0,171
-228,986	-200,000	0,025	-0,083
-227,971	172,813	0,069	0,071
-226,957	-67,022	-0,064	-0,018
-225,942	176,208	0,111	0,115
-224,927	-128,927	-0,055	0,005
-223,913	-53,955	-0,032	0,010
-222,898	-61,596	-0,082	-0,024
-221,884	-200,000	-0,037	0,146
-220,869	-156,401	0,186	-0,008
-219,855	-200,000	0,002	0,041
-218,840	-200,000	-0,041	0,149
-217,825	764,861	0,050	-0,096
-216,811	79,410	0,089	-0,068
-215,796	442,489	-0,048	0,075
-214,782	83,246	0,032	0,024
-213,767	-200,000	-0,032	0,104
-212,752	652,503	-0,042	-0,078
-211,738	-200,000	-0,015	-0,095
-210,723	10,648	0,106	0,057
-209,709	162,653	-0,105	-0,105
-208,694	-200,000	-0,010	-0,088
-207,679	66,314	-0,035	-0,026
-206,665	800,000	-0,027	-0,058
-205,650	32,971	0,107	0,066
-204,636	800,000	0,056	0,151
-203,621	800,000	0,077	-0,182
-202,606	-200,000	0,010	0,123
-201,592	-109,921	-0,255	-0,038
-200,577	49,318	-0,080	-0,053
-199,563	-200,000	-0,008	-0,056
-198,548	466,406	-0,031	-0,050
-197,533	273,774	0,084	-0,107
-196,519	-200,000	-0,036	-0,154
-195,504	-100,373	0,189	0,033
-194,490	413,093	-0,077	-0,117
-193,475	-11,745	0,017	-0,008
-192,460	-189,719	-0,115	0,001
-191,446	313,710	-0,045	0,061
-190,431	-34,582	-0,123	0,048
-189,417	-38,183	-0,044	-0,016
-188,402	-21,720	0,037	-0,016
-187,387	-200,000	0,045	-0,157
-186,373	-12,864	-0,055	-0,025
-185,358	-200,000	0,011	0,079
-184,344	-200,000	0,014	-0,066
-183,329	-113,127	0,100	-0,014
-182,315	-200,000	0,004	0,014
-181,300	-200,000	-0,028	0,105
-180,285	-200,000	0,031	0,118
-179,271	60,299	0,026	-0,019
-178,256	-200,000	-0,005	0,045
-177,242	591,035	0,059	0,104
-176,227	338,115	-0,053	0,074
-175,212	-200,000	0,032	0,112
-174,198	-200,000	-0,035	0,205
-173,183	-200,000	0,006	-0,105
-172,169	-200,000	0,012	-0,178
-171,154	-44,088	-0,053	0,019
-170,139	-200,000	0,016	0,262
-169,125	58,238	-0,046	0,032
-168,110	-97,664	-0,023	-0,004
-167,096	350,699	-0,005	-0,007
-166,081	-200,000	-0,006	0,041
-165,066	-107,750	-0,117	0,018
-164,052	0,017	-0,125	-0,063
-163,037	135,035	-0,081	0,075
-162,023	-200,000	-0,015	0,162
-161,008	-200,000	0,016	-0,051
-159,993	24,365	0,030	0,018
-158,979	1,934	-0,152	0,078
-157,964	-200,000	-0,014	0,115
-156,950	-102,765	-0,074	0,012
-155,935	57,790	-0,044	-0,031
-154,920	-104,592	-0,093	0,015
-153,906	192,513	0,075	0,081
-152,891	-44,151	-0,120	-0,043
-151,877	800,000	0,044	0,088
-150,862	462,698	0,081	0,130
-149,847	-80,042	-0,110	0,026
-148,833	22,912	0,074	0,043
-147,818	-48,794	0,121	0,041
-146,804	270,894	-0,070	0,088
-145,789	-120,546	-0,109	0,013
-144,775	82,355	-0,044	0,034
-143,760	-137,127	0,014	0,001
-142,745	361,264	-0,061	0,088
-141,731	36,210	-0,111	-0,069
-140,716	251,257	0,056	-0,068
-139,702	-200,000	0,000	-0,096
-138,687	115,106	-0,028	0,024
-137,672	512,993	0,006	0,011
-136,658	792,758	0,043	0,084
-135,643	109,301	-0,084	0,072
-134,629	-20,693	0,070	0,030
-133,614	-82,110	0,116	0,027
-132,599	-200,000	-0,005	0,044
-131,585	-200,000	0,023	0,100
-130,570	39,870	-0,150	0,096
-129,556	-30,800	0,096	0,038
-128,541	-200,000	-0,005	0,036
-127,526	-52,385	-0,079	-0,026
-126,512	-200,000	0,022	0,094
-125,497	62,157	0,150	0,106
-124,483	-117,149	0,021	-0,003
-123,468	44,511	0,054	-0,035
-122,453	-132,760	-0,058	0,005
-121,439	-41,982	-0,089	0,032
-120,424	-10,869	0,121	0,057
