DTS Sentinel unit serial number:	SN410029Multiplexer serial number:	ORYXHardware model number:	OX2-SRSoftware version number:	ORYX F/W v4,00 Oryx Data Collector v3.7.2.0data status	okinstallation	BH3 CH2differential loss correction	single-endedforward channel	channel 2reverse channel	N/Adate	2023/12/05time	11:07:28forward acquisition time	300,00reverse acquisition time	0,00gamma	499,1914k internal	0,3196k external	0,3196temperature offset calibration	1,0000default loss term (dB/km)	0,3820temperature slope calibration	1,0000multiplexer offset coefficient	1,0000multiplexer slope coefficient	1,0000fibre end	0,00T internal ref (°C)	9,68T ext. ref 1 (°C)	-5,13T ext. ref 2 (°C)	-5,23length (m)	temperature (°C)	Stokes	anti-Stokes-744,400	76,187	-0,148	-0,114
-743,385	131,566	-0,182	0,171
-742,371	148,938	-0,096	-0,095
-741,356	-58,398	-0,157	0,049
-740,342	26,294	0,132	0,080
-739,327	-18,005	-0,182	0,083
-738,312	-47,628	-0,216	-0,076
-737,298	-0,653	-0,239	0,123
-736,283	800,000	-0,006	0,015
-735,269	486,060	-0,091	0,152
-734,254	496,840	-0,151	-0,255
-733,239	1,081	-0,217	-0,113
-732,225	11,055	0,068	0,038
-731,210	32,231	0,075	0,047
-730,196	98,330	0,013	0,011
-729,181	-11,735	-0,112	-0,053
-728,167	296,332	0,062	-0,083
-727,152	-200,000	-0,004	-0,075
-726,137	80,445	-0,152	-0,119
-725,123	19,588	0,046	-0,027
-724,108	6,989	-0,240	-0,130
-723,094	91,257	-0,073	-0,059
-722,079	126,523	0,101	-0,093
-721,064	-200,000	-0,007	-0,127
-720,050	-200,000	-0,006	-0,024
-719,035	583,333	-0,025	0,045
-718,021	201,175	0,062	-0,070
-717,006	378,762	-0,147	-0,219
-715,991	-94,504	-0,132	0,026
-714,977	-159,583	-0,150	-0,006
-713,962	100,750	0,083	0,070
-712,948	-200,000	-0,021	-0,110
-711,933	-200,000	0,008	0,143
-710,918	-40,039	-0,001	0,001
-709,904	-200,000	-0,017	0,090
-708,889	-200,000	0,017	-0,158
-707,875	336,569	-0,082	-0,116
-706,860	-200,000	0,023	0,212
-705,845	155,645	0,113	0,114
-704,831	44,739	-0,063	-0,042
-703,816	281,253	-0,058	-0,075
-702,802	-5,870	0,093	-0,046
-701,787	32,513	-0,132	-0,083
-700,772	-98,490	-0,173	-0,032
-699,758	348,186	0,012	0,017
-698,743	55,206	0,116	-0,081
-697,729	800,000	-0,049	-0,125
-696,714	25,859	0,120	0,073
-695,699	-200,000	-0,009	-0,091
-694,685	-200,000	-0,006	-0,240
-693,670	611,182	-0,008	0,015
-692,656	268,762	0,061	-0,078
-691,641	78,328	-0,082	0,063
-690,627	-39,113	-0,101	-0,038
-689,612	-200,000	0,014	-0,094
-688,597	800,000	0,024	-0,049
-687,583	70,487	-0,058	-0,044
-686,568	800,000	0,071	-0,166
-685,554	77,532	-0,094	0,072
-684,539	536,364	-0,041	-0,072
-683,524	16,858	0,021	-0,012
-682,510	-52,740	-0,079	0,026
-681,495	800,000	-0,060	-0,149
-680,481	109,830	0,090	-0,079
-679,466	286,361	-0,128	-0,168
-678,451	-200,000	0,029	0,112
-677,437	-200,000	0,001	-0,056
-676,422	-4,382	-0,117	-0,058
-675,408	-47,004	-0,075	0,027
-674,393	-156,652	-0,066	-0,003
-673,378	-77,945	-0,128	-0,032
-672,364	34,341	0,081	-0,051
-671,349	800,000	-0,011	0,029
-670,335	-200,000	0,047	-0,171
-669,320	-63,990	0,039	0,011
-668,305	7,735	0,124	-0,067
-667,291	47,844	0,038	-0,026
-666,276	361,041	0,127	0,185
-665,262	-134,615	0,015	0,001
-664,247	-81,297	0,142	-0,034
-663,232	142,175	-0,056	-0,054
-662,218	-44,770	0,135	0,049
-661,203	-154,106	0,101	-0,005
-660,189	199,103	-0,038	-0,043
-659,174	-139,022	-0,100	0,008
-658,159	800,000	-0,053	-0,145
-657,145	333,293	-0,024	0,034
-656,130	-150,485	-0,091	-0,005
-655,116	-81,919	0,071	-0,017
-654,101	-46,515	-0,117	0,041
-653,086	-200,000	-0,007	0,081
-652,072	-200,000	0,028	-0,099
-651,057	800,000	-0,026	-0,069
-650,043	800,000	-0,046	-0,117
-649,028	-138,304	-0,037	-0,003
-648,014	377,215	0,051	-0,077
-646,999	-114,787	0,031	0,004
-645,984	-7,019	-0,020	-0,010
-644,970	251,089	-0,053	0,066
-643,955	800,000	-0,058	-0,145
-642,941	800,000	0,029	-0,088
-641,926	220,313	-0,012	0,014
-640,911	800,000	-0,039	0,101
-639,897	-200,000	-0,002	0,073
-638,882	-200,000	0,004	0,090
-637,868	-118,984	-0,114	0,014
-636,853	800,000	0,035	-0,073
-635,838	152,583	-0,094	-0,094
-634,824	800,000	0,024	-0,070
-633,809	262,604	0,106	0,134
-632,795	49,694	-0,062	0,042
-631,780	143,989	0,056	-0,054
-630,765	24,813	0,098	-0,059
-629,751	-190,670	-0,115	0,001
-628,736	299,553	0,090	-0,120
-627,722	-200,000	-0,003	-0,012
-626,707	788,874	-0,011	0,022
-625,692	800,000	0,022	0,068
-624,678	-200,000	0,030	-0,106
-623,663	-200,000	-0,009	-0,078
-622,649	-114,128	-0,224	0,031
-621,634	4,387	0,020	-0,011
-620,619	45,172	-0,041	-0,027
-619,605	-200,000	-0,016	0,126
-618,590	287,754	0,072	0,095
-617,576	-65,322	0,053	0,015
-616,561	230,623	-0,080	-0,095
-615,546	347,499	0,031	0,044
-614,532	-122,124	-0,126	0,015
-613,517	181,782	-0,060	-0,064
-612,503	-65,735	0,088	0,025
-611,488	188,265	-0,062	0,067
-610,474	-200,000	0,010	0,047
-609,459	-116,931	-0,050	-0,007
-608,444	50,716	-0,070	-0,048
-607,430	-200,000	-0,021	-0,073
-606,415	208,976	0,004	0,004
-605,401	57,542	-0,063	0,044
-604,386	279,263	-0,031	0,040
-603,371	-200,000	0,009	0,099
-602,357	579,028	0,026	-0,047
-601,342	225,640	-0,037	0,044
-600,328	627,967	0,009	-0,017
-599,313	800,000	0,082	-0,214
-598,298	-200,000	-0,016	-0,133
-597,284	-19,968	0,060	-0,027
-596,269	438,114	0,037	0,059
-595,255	800,000	-0,041	0,108
-594,240	756,375	0,077	-0,152
-593,225	800,000	-0,039	0,100
-592,211	-200,000	0,012	-0,085
-591,196	-200,000	0,022	0,115
-590,182	-30,711	0,105	0,043
-589,167	40,006	-0,014	0,009
-588,152	-200,000	0,045	0,189
-587,138	-200,000	-0,012	-0,081
-586,123	266,577	-0,012	-0,015
-585,109	66,321	-0,072	-0,053
-584,094	-137,681	0,074	0,006
-583,079	-200,000	0,002	0,128
-582,065	282,413	0,011	0,014
-581,050	800,000	0,029	0,065
-580,036	179,424	-0,150	0,159
-579,021	74,396	-0,065	0,050
-578,006	-56,308	-0,068	-0,022
-576,992	44,384	0,025	0,017
-575,977	63,968	0,027	0,019
-574,963	164,627	-0,118	0,121
-573,948	-71,850	0,108	-0,029
-572,934	-82,600	-0,051	-0,012
-571,919	-87,523	-0,201	-0,044
-570,904	213,382	0,058	-0,066
-569,890	-200,000	0,032	0,114
-568,875	257,711	0,069	-0,086
-567,861	800,000	-0,011	-0,031
-566,846	248,507	-0,082	0,101
-565,831	142,049	0,049	0,047
-564,817	-131,369	0,066	-0,006
-563,802	-200,000	-0,007	0,082
-562,788	162,932	-0,069	-0,070
-561,773	800,000	-0,067	0,147
-560,758	330,673	0,014	-0,019
-559,744	-52,050	-0,098	0,033
-558,729	4,387	-0,018	0,010
-557,715	800,000	0,062	-0,174
-556,700	-200,000	0,014	0,073
-555,685	-19,067	0,096	-0,043
-554,671	-50,197	0,138	0,047
-553,656	38,985	-0,075	0,048
-552,642	-200,000	-0,009	0,128
-551,627	-94,960	0,220	-0,043
-550,612	113,657	-0,105	-0,092
-549,598	746,658	-0,041	-0,081
-548,583	104,102	-0,041	-0,035
-547,569	677,474	-0,054	0,102
-546,554	-200,000	0,031	0,133
-545,539	-200,000	-0,017	-0,083
-544,525	76,176	-0,060	0,046
-543,510	238,556	-0,043	-0,052
-542,496	86,308	-0,081	-0,065
-541,481	51,933	-0,096	-0,066
-540,466	-37,928	-0,045	-0,017
-539,452	800,000	0,043	0,136
-538,437	-9,239	-0,073	-0,035
-537,423	493,296	0,036	-0,060
-536,408	-75,324	-0,090	-0,023
-535,393	83,236	0,072	-0,056
-534,379	-178,161	0,097	0,002
-533,364	-200,000	-0,014	-0,193
-532,350	123,327	0,064	-0,058
-531,335	71,729	0,020	-0,015
-530,321	-120,525	-0,118	-0,014
-529,306	-137,811	-0,037	-0,003
-528,291	800,000	-0,041	-0,083
-527,277	-200,000	0,029	-0,118
-526,262	-200,000	0,007	-0,058
-525,248	-101,908	-0,150	0,026
-524,233	-200,000	0,052	0,202
-523,218	233,405	0,118	0,141
-522,204	-200,000	0,044	0,144
-521,189	-23,142	0,125	-0,054
-520,175	-124,620	0,010	0,001
-519,160	-44,747	0,084	0,030
-518,145	760,534	0,034	0,066
-517,131	800,000	-0,073	0,181
-516,116	389,078	-0,019	0,028
-515,102	-200,000	-0,005	-0,146
-514,087	151,363	-0,140	-0,138
-513,072	-200,000	0,022	-0,109
-512,058	-66,994	-0,118	0,033
-511,043	24,940	-0,064	0,038
-510,029	81,471	0,111	-0,086
-509,014	311,499	0,093	0,126
-507,999	74,327	-0,036	0,027
-506,985	306,504	0,032	0,044
-505,970	346,674	0,031	-0,045
-504,956	-114,856	-0,167	0,023
-503,941	-45,436	-0,060	0,021
-502,926	51,401	0,055	-0,038
-501,912	-43,870	0,157	0,057
-500,897	-200,000	0,004	0,051
-499,883	-200,000	-0,031	-0,248
-498,868	98,262	-0,135	-0,112
-497,853	-200,000	-0,004	-0,056
-496,839	190,420	0,033	-0,036
-495,824	324,741	0,043	0,060
-494,810	-162,186	-0,092	-0,003
-493,795	160,183	-0,060	-0,060
-492,781	-118,721	0,076	-0,010
-491,766	-26,901	-0,047	0,020
-490,751	-57,962	-0,017	-0,005
-489,737	-200,000	0,021	0,119
-488,722	-72,640	0,072	0,019
-487,708	-136,256	0,073	0,006
-486,693	284,420	0,035	0,046
-485,678	-170,647	-0,062	0,002
-484,664	800,000	0,043	-0,114
-483,649	-192,223	0,129	-0,001
-482,635	41,636	-0,043	-0,028
-481,620	556,587	0,041	0,072
-480,605	107,513	-0,104	-0,089
-479,591	25,116	0,090	-0,054
-478,576	536,687	-0,072	-0,124
-477,562	-200,000	0,022	-0,095
-476,547	-139,559	-0,050	-0,004
-475,532	-200,000	0,011	-0,087
-474,518	-200,000	0,025	0,124
-473,503	636,031	-0,010	0,018
-472,489	60,380	0,071	0,051
-471,474	118,247	-0,031	-0,028
-470,459	167,841	-0,105	-0,108
-469,445	-109,742	-0,120	-0,018
-468,430	800,000	-0,040	-0,085
-467,416	-86,422	0,095	-0,021
-466,401	-200,000	0,032	0,131
-465,386	119,575	0,079	0,071
-464,372	470,266	-0,034	0,055
-463,357	113,556	-0,043	0,038
-462,343	-48,557	-0,059	-0,020
-461,328	800,000	-0,053	0,108
-460,313	104,447	0,089	0,075
-459,299	326,454	0,027	0,037
-458,284	5,831	-0,032	-0,017
-457,270	-200,000	-0,015	0,060
-456,255	-146,001	-0,088	-0,006
-455,241	225,580	-0,039	0,045
-454,226	156,103	-0,036	0,036
-453,211	800,000	0,054	-0,138
-452,197	-200,000	0,009	-0,061
-451,182	-105,456	0,139	-0,023
-450,168	-200,000	0,002	0,034
-449,153	800,000	-0,044	-0,117
-448,138	-200,000	0,005	-0,109
-447,124	800,000	-0,078	-0,160
-446,109	267,233	-0,038	-0,047
-445,095	-134,162	0,065	-0,006
-444,080	-132,215	0,053	-0,005
-443,065	134,723	-0,065	-0,061
-442,051	800,000	-0,033	-0,091
-441,036	279,465	-0,085	-0,109
-440,022	-200,000	0,024	-0,177
-439,007	286,216	-0,115	0,150
-437,992	-114,929	0,172	0,023
-436,978	-168,080	-0,079	0,002
-435,963	-200,000	0,023	0,123
-434,949	-133,078	-0,064	-0,006
-433,934	-200,000	-0,026	-0,145
-432,919	38,499	-0,093	-0,059
-431,905	-198,960	0,054	0,000
-430,890	250,377	0,076	-0,093
-429,876	-200,000	0,008	0,232
-428,861	-171,806	0,140	-0,003
-427,846	291,473	-0,083	-0,109
-426,832	-200,000	-0,001	0,010
-425,817	330,444	-0,052	-0,072
-424,803	395,894	0,102	-0,153
-423,788	-84,318	-0,073	-0,017
-422,773	106,926	-0,086	0,074
-421,759	53,646	0,010	0,007
-420,744	212,226	0,023	-0,026
-419,730	-77,219	-0,045	-0,011
-418,715	800,000	-0,076	-0,184
-417,701	-52,688	-0,120	0,040
-416,686	-31,381	-0,050	0,020
-415,671	-200,000	-0,029	0,108
-414,657	-200,000	-0,016	0,080
-413,642	-68,024	0,091	-0,025
-412,628	43,723	0,091	-0,060
-411,613	108,724	0,061	0,052
-410,598	-19,171	-0,152	0,067
-409,584	-100,913	0,057	0,010
-408,569	-200,000	-0,000	0,035
-407,555	800,000	0,042	0,088
-406,540	-102,658	-0,039	0,007
-405,525	-77,648	0,069	-0,017
-404,511	152,277	-0,120	0,118
-403,496	288,025	-0,058	0,075
-402,482	-27,758	0,061	0,025
-401,467	-123,124	0,098	0,011
-400,452	240,696	-0,048	-0,058
-399,438	270,158	0,043	0,055
-398,423	32,862	0,015	-0,009
-397,409	-183,900	-0,163	0,002
-396,394	327,076	0,059	-0,081
-395,379	-200,000	0,016	-0,076
-394,365	-91,966	0,111	-0,022
-393,350	-27,046	-0,105	0,044
-392,336	-200,000	-0,015	0,099
-391,321	-41,811	-0,066	0,024
-390,306	90,135	0,032	-0,026
-389,292	800,000	-0,025	0,068
-388,277	83,510	-0,063	0,049
-387,263	-19,458	0,139	0,061
-386,248	-200,000	-0,031	0,000
-385,233	800,000	0,028	0,089
-384,219	-200,000	-0,009	0,082
-383,204	202,254	-0,061	-0,068
-382,190	-41,439	-0,052	0,019
-381,175	-24,701	-0,062	0,026
-380,160	328,947	0,061	0,085
-379,146	-22,634	0,157	0,068
-378,131	-82,565	-0,188	-0,044
-377,117	-200,000	-0,001	-0,022
-376,102	62,544	-0,162	-0,116
-375,088	409,435	-0,043	-0,066
-374,073	-200,000	-0,002	-0,129
-373,058	-73,147	0,135	-0,035
-372,044	52,908	0,100	0,068
-371,029	184,649	0,084	0,089
-370,015	-200,000	0,003	-0,074
-369,000	-200,000	0,012	-0,049
-367,985	-200,000	0,002	0,094
-366,971	-45,198	0,064	-0,023
-365,956	41,069	0,015	0,010
-364,942	-200,000	0,020	0,093
-363,927	785,037	0,058	0,115
-362,912	438,423	-0,046	0,072
-361,898	-200,000	0,007	-0,049
-360,883	-3,990	-0,187	0,093
-359,869	-200,000	0,007	-0,033
-358,854	255,002	0,107	0,132
-357,839	79,994	0,102	0,078
-356,825	134,418	0,047	0,044
-355,810	495,769	-0,006	-0,009
-354,796	73,545	0,089	0,067
-353,781	426,592	0,070	0,109
-352,766	8,099	0,082	-0,044
-351,752	60,513	-0,009	-0,007
-350,737	328,593	0,048	-0,066
-349,723	-200,000	0,023	0,089
-348,708	141,077	0,140	0,133
-347,693	-200,000	0,002	-0,141
-346,679	-200,000	-0,001	0,010
-345,664	-117,207	-0,126	0,016
-344,650	-94,957	0,145	0,028
-343,635	800,000	0,013	0,037
-342,620	482,856	0,041	0,067
-341,606	800,000	0,041	-0,093
-340,591	-18,749	-0,053	0,024
-339,577	132,470	-0,067	-0,062
-338,562	-200,000	-0,017	-0,141
-337,548	800,000	0,040	0,103
-336,533	258,708	-0,030	0,037
-335,518	-63,855	0,081	-0,024
-334,504	800,000	0,022	0,067
-333,489	-61,157	-0,082	0,025
-332,475	-96,761	0,094	0,018
-331,460	800,000	0,011	-0,034
-330,445	-58,867	-0,067	0,021
-329,431	800,000	-0,005	0,014
-328,416	800,000	0,020	-0,061
-327,402	153,430	-0,032	-0,032
-326,387	800,000	0,028	-0,069
-325,372	-200,000	-0,033	0,126
-324,358	-200,000	0,000	-0,027
-323,343	-161,353	0,092	0,003
-322,329	-0,708	0,052	-0,026
-321,314	800,000	-0,016	-0,034
-320,299	87,107	-0,101	0,080
-319,285	-29,416	0,061	0,025
-318,270	62,151	-0,085	-0,061
-317,256	699,824	0,048	-0,091
-316,241	43,985	-0,125	0,082
-315,226	109,202	-0,043	0,037
-314,212	94,516	0,062	-0,050
-313,197	-200,000	0,039	0,130
-312,183	195,126	0,056	-0,061
-311,168	70,775	-0,067	0,049
-310,153	223,605	-0,091	-0,106
-309,139	329,073	0,015	0,021
-308,124	127,708	-0,051	0,046
-307,110	186,095	0,067	-0,072
-306,095	100,199	-0,023	-0,019
-305,080	-200,000	0,015	-0,078
-304,066	-59,576	-0,079	0,024
-303,051	215,635	0,049	-0,055
-302,037	-200,000	0,009	0,097
-301,022	800,000	-0,053	0,107
-300,008	-200,000	0,007	-0,110
-298,993	-200,000	0,006	0,081
-297,978	-75,511	-0,044	0,011
-296,964	534,859	-0,032	-0,055
-295,949	-71,967	0,069	0,018
-294,935	-200,000	0,005	-0,137
-293,920	-101,575	-0,122	-0,021
-292,905	40,790	0,203	-0,131
-291,891	-200,000	0,006	-0,040
-290,876	-102,259	0,098	0,017
-289,862	155,461	-0,029	-0,029
-288,847	197,530	0,078	0,086
-287,832	627,571	-0,037	0,068
-286,818	142,951	0,044	-0,042
-285,803	1,499	0,146	0,075
-284,789	-2,793	0,096	0,048
-283,774	-200,000	0,038	0,137
-282,759	-200,000	-0,016	0,074
-281,745	254,773	-0,013	-0,016
-280,730	465,612	-0,028	-0,044
-279,716	-200,000	-0,018	-0,097
-278,701	136,044	0,089	0,083
-277,686	131,000	0,121	0,111
-276,672	-199,402	-0,118	-0,000
-275,657	-4,888	-0,109	-0,053
-274,643	31,931	-0,103	0,064
-273,628	181,346	-0,111	-0,117
-272,613	55,873	0,014	0,009
-271,599	800,000	0,029	0,078
-270,584	-62,619	0,108	0,032
-269,570	-78,826	-0,055	-0,013
-268,555	-200,000	-0,020	0,093
-267,540	-135,045	-0,100	0,009
-266,526	94,876	-0,040	-0,033
-265,511	338,613	-0,014	-0,020
-264,497	352,895	-0,029	0,041
-263,482	74,492	-0,054	0,041
-262,467	-67,561	0,067	-0,019
-261,453	431,493	0,069	-0,107
-260,438	-44,112	-0,051	0,018
-259,424	-63,254	-0,065	-0,019
-258,409	-200,000	-0,041	-0,223
-257,395	-200,000	0,019	0,071
-256,380	-142,052	0,147	0,010
-255,365	-200,000	0,002	-0,087
-254,351	-45,242	-0,028	-0,010
-253,336	800,000	-0,023	-0,066
-252,322	-200,000	-0,025	-0,171
-251,307	-92,698	0,076	-0,015
-250,292	-200,000	-0,010	-0,088
-249,278	-200,000	0,015	-0,100
-248,263	263,256	-0,048	-0,060
-247,249	65,482	-0,087	-0,063
-246,234	-91,011	-0,011	0,002
-245,219	555,089	-0,116	-0,199
-244,205	133,411	0,014	0,013
-243,190	800,000	-0,033	0,096
-242,176	492,116	-0,009	-0,014
-241,161	-66,903	0,092	0,026
-240,146	130,678	0,034	0,031
-239,132	-130,387	0,019	-0,002
-238,117	-200,000	-0,038	-0,124
-237,103	-200,000	-0,015	-0,187
-236,088	-200,000	-0,004	-0,053
-235,073	-200,000	-0,014	0,092
-234,059	145,017	0,048	-0,046
-233,044	-159,567	-0,086	0,003
-232,030	77,468	0,041	-0,031
-231,015	-200,000	-0,006	0,084
-230,000	116,097	0,050	0,044
-228,986	800,000	-0,035	0,078
-227,971	-200,000	-0,006	0,145
-226,957	-39,921	-0,047	-0,017
-225,942	-28,895	0,116	0,048
-224,927	47,101	-0,073	0,048
-223,913	-28,467	-0,050	0,020
-222,898	93,868	0,101	-0,082
-221,884	-68,650	-0,178	0,049
-220,869	0,145	0,035	0,018
-219,855	5,962	0,101	-0,053
-218,840	676,533	-0,031	0,059
-217,825	-200,000	0,041	0,130
-216,811	-125,374	0,116	0,013
-215,796	128,180	-0,080	-0,073
-214,782	238,516	-0,043	-0,051
-213,767	-87,429	0,120	0,026
-212,752	-83,917	0,125	0,028
-211,738	800,000	0,033	-0,069
-210,723	142,143	-0,071	0,067
-209,709	-88,623	0,089	0,019
-208,694	200,871	-0,083	0,091
-207,679	-50,847	0,067	-0,022
-206,665	-29,544	0,075	0,031
-205,650	58,065	0,102	0,071
-204,636	71,413	0,112	0,083
-203,621	-20,994	-0,129	0,056
-202,606	-200,000	0,005	-0,052
-201,592	-85,463	-0,063	-0,014
-200,577	-200,000	-0,001	-0,089
-199,563	159,799	-0,025	-0,025
-198,548	-157,890	0,097	-0,004
-197,533	-77,260	0,025	0,006
-196,519	216,612	-0,057	0,065
-195,504	-200,000	0,006	-0,046
-194,490	2,043	-0,096	-0,049
-193,475	-200,000	0,016	0,054
-192,460	96,181	-0,025	-0,020
-191,446	800,000	0,021	-0,054
-190,431	-128,888	0,100	0,010
-189,417	800,000	0,023	0,048
-188,402	-157,169	0,063	0,003
-187,387	328,193	0,005	0,007
-186,373	-65,900	-0,069	-0,020
-185,358	-93,219	0,032	0,006
-184,344	-184,481	-0,068	-0,001
-183,329	-200,000	-0,003	0,038
-182,315	-200,000	-0,008	0,036
-181,300	-67,147	0,033	-0,009
-180,285	197,431	-0,066	-0,072
-179,271	-53,444	-0,130	-0,042
-178,256	800,000	0,025	0,069
-177,242	-35,012	-0,123	0,047
-176,227	325,609	0,086	-0,118
-175,212	-167,041	0,121	0,003
-174,198	258,316	0,046	0,057
-173,183	800,000	0,056	-0,134
-172,169	-200,000	-0,009	-0,071
-171,154	-68,491	-0,022	-0,006
-170,139	79,741	0,115	-0,088
-169,125	90,194	0,037	-0,030
-168,110	36,965	0,086	-0,054
-167,096	-95,847	0,089	0,017
-166,081	-200,000	-0,008	0,026
-165,066	800,000	0,030	-0,080
-164,052	-143,212	-0,098	-0,007
-163,037	-54,652	0,111	-0,036
-162,023	116,088	0,089	0,077
-161,008	-56,450	-0,042	-0,013
-159,993	351,264	-0,054	0,076
-158,979	84,681	0,024	0,019
-157,964	468,149	-0,037	-0,060
-156,950	239,263	-0,022	0,027
-155,935	255,049	0,153	0,187
-154,920	767,967	0,083	0,161
-153,906	144,110	-0,054	-0,051
-152,891	744,357	-0,041	0,079
-151,877	-200,000	0,001	0,122
-150,862	-29,555	-0,197	0,080
-149,847	-24,972	0,144	-0,060
-148,833	349,958	0,067	0,095
-147,818	-39,455	-0,065	0,024
-146,804	-200,000	0,011	0,047
-145,789	-13,659	-0,201	-0,092
-144,775	800,000	0,045	-0,116
-143,760	97,671	-0,117	-0,095
-142,745	-74,817	0,057	0,014
-141,731	-81,575	-0,059	-0,014
-140,716	-95,136	0,103	0,020
-139,702	-35,175	0,172	0,066
-138,687	-7,651	-0,105	-0,050
-137,672	-200,000	0,003	0,105
-136,658	176,481	-0,141	-0,146
-135,643	-200,000	0,016	0,065
-134,629	800,000	-0,093	0,207
-133,614	37,699	0,178	0,112
-132,599	317,700	0,055	0,075
-131,585	660,185	-0,066	0,121
-130,570	-97,796	-0,094	-0,017
-129,556	-61,498	-0,108	0,032
-128,541	-90,100	-0,022	-0,005
-127,526	-130,651	0,004	0,000
-126,512	-200,000	0,005	-0,068
-125,497	-23,842	0,034	0,014
-124,483	-200,000	0,005	0,101
-123,468	150,323	-0,073	0,070
-122,453	420,561	-0,019	-0,029
-121,439	800,000	-0,007	0,014
-120,424	58,467	-0,054	-0,038
-119,410	800,000	-0,021	-0,052
-118,395	382,839	-0,029	0,042
