DTS Sentinel unit serial number:	SN410029Multiplexer serial number:	ORYXHardware model number:	OX2-SRSoftware version number:	ORYX F/W v4,00 Oryx Data Collector v3.7.2.0data status	okinstallation	BH3 CH2differential loss correction	single-endedforward channel	channel 2reverse channel	N/Adate	2023/12/05time	20:32:28forward acquisition time	300,00reverse acquisition time	0,00gamma	499,1914k internal	0,3193k external	0,3193temperature offset calibration	1,0000default loss term (dB/km)	0,3820temperature slope calibration	1,0000multiplexer offset coefficient	1,0000multiplexer slope coefficient	1,0000fibre end	0,00T internal ref (°C)	10,47T ext. ref 1 (°C)	-4,37T ext. ref 2 (°C)	-4,45length (m)	temperature (°C)	Stokes	anti-Stokes-744,400	52,226	0,037	-0,026
-743,385	800,000	-0,128	0,273
-742,371	-146,797	-0,033	0,002
-741,356	204,117	-0,184	0,208
-740,342	-71,118	0,083	-0,023
-739,327	192,988	-0,154	0,170
-738,312	137,478	-0,127	-0,121
-737,298	-136,501	-0,179	-0,015
-736,283	761,389	0,026	-0,052
-735,269	68,786	-0,193	0,144
-734,254	236,138	0,031	-0,038
-733,239	-108,619	-0,426	-0,066
-732,225	209,371	0,184	-0,211
-731,210	-200,000	0,014	0,136
-730,196	333,698	-0,057	-0,081
-729,181	338,142	0,043	-0,061
-728,167	214,807	0,044	-0,051
-727,152	119,943	0,057	-0,052
-726,137	231,659	-0,093	-0,111
-725,123	14,246	-0,108	-0,061
-724,108	-200,000	-0,024	-0,209
-723,094	800,000	-0,057	-0,134
-722,079	-19,593	-0,098	-0,044
-721,064	-200,000	-0,021	0,109
-720,050	35,478	-0,100	-0,064
-719,035	53,735	-0,018	0,012
-718,021	-200,000	-0,016	0,101
-717,006	499,890	-0,057	-0,097
-715,991	800,000	-0,023	0,059
-714,977	363,577	-0,092	-0,136
-713,962	-86,569	0,083	0,018
-712,948	800,000	-0,022	0,061
-711,933	-200,000	0,023	0,132
-710,918	50,864	0,053	0,036
-709,904	627,942	0,041	-0,075
-708,889	255,427	-0,039	-0,048
-707,875	-200,000	-0,011	0,050
-706,860	-136,994	0,041	0,003
-705,845	239,664	0,051	-0,062
-704,831	-200,000	-0,010	0,033
-703,816	260,181	-0,070	-0,088
-702,802	-35,776	-0,178	-0,070
-701,787	52,881	-0,098	-0,068
-700,772	-148,559	-0,049	0,003
-699,758	702,867	-0,025	0,048
-698,743	286,577	0,025	0,033
-697,729	144,784	0,039	-0,038
-696,714	-146,465	0,141	0,009
-695,699	335,810	0,009	-0,013
-694,685	800,000	0,042	-0,111
-693,670	225,063	-0,039	-0,046
-692,656	-50,996	-0,186	-0,063
-691,641	81,717	0,137	-0,108
-690,627	-102,980	0,149	0,026
-689,612	-148,887	-0,065	-0,004
-688,597	209,479	0,075	0,086
-687,583	26,658	0,041	0,025
-686,568	-128,955	-0,080	0,008
-685,554	31,803	-0,116	0,073
-684,539	127,446	0,040	0,037
-683,524	-76,860	-0,075	0,019
-682,510	800,000	0,056	0,149
-681,495	-200,000	-0,043	-0,168
-680,481	266,322	-0,055	0,070
-679,466	-22,335	-0,053	-0,023
-678,451	64,617	-0,051	-0,037
-677,437	-200,000	-0,013	0,070
-676,422	800,000	-0,019	-0,054
-675,408	763,212	0,059	0,117
-674,393	298,538	-0,019	-0,026
-673,378	27,695	-0,154	-0,094
-672,364	-200,000	-0,003	-0,068
-671,349	178,494	0,052	-0,055
-670,335	37,188	0,130	-0,083
-669,320	292,124	-0,090	-0,119
-668,305	-200,000	-0,001	0,048
-667,291	74,468	-0,128	0,098
-666,276	395,075	-0,066	0,100
-665,262	-32,667	-0,193	0,078
-664,247	30,112	0,080	0,049
-663,232	403,897	0,041	-0,064
-662,218	423,098	0,051	-0,080
-661,203	68,635	0,063	-0,047
-660,189	763,597	-0,062	0,123
-659,174	49,194	-0,065	0,044
-658,159	-200,000	-0,001	-0,021
-657,145	-166,567	-0,026	0,001
-656,130	17,680	0,175	-0,101
-655,116	648,462	-0,043	0,081
-654,101	354,585	0,068	-0,099
-653,086	18,010	-0,058	0,033
-652,072	143,447	-0,136	-0,132
-651,057	-200,000	0,006	-0,025
-650,043	800,000	-0,035	0,103
-649,028	-134,014	0,051	0,005
-648,014	-84,038	0,107	-0,024
-646,999	479,196	0,108	0,178
-645,984	-200,000	-0,030	-0,152
-644,970	-24,389	0,122	0,052
-643,955	610,678	-0,020	-0,036
-642,941	-104,706	-0,046	0,008
-641,926	800,000	0,068	0,143
-640,911	-200,000	0,018	-0,067
-639,897	488,742	0,043	0,071
-638,882	466,132	-0,090	-0,147
-637,868	215,370	0,104	-0,120
-636,853	-24,393	-0,035	0,015
-635,838	-45,466	0,079	-0,028
-634,824	202,220	0,032	-0,036
-633,809	229,544	0,068	-0,081
-632,795	800,000	0,022	0,045
-631,780	800,000	0,010	0,024
-630,765	-45,025	-0,184	0,066
-629,751	-39,736	-0,085	-0,032
-628,736	-56,245	-0,071	-0,023
-627,722	-1,900	-0,117	-0,059
-626,707	800,000	-0,026	0,059
-625,692	203,595	0,115	0,129
-624,678	652,301	-0,068	-0,127
-623,663	90,501	0,182	-0,147
-622,649	21,087	-0,104	0,061
-621,634	129,498	-0,098	-0,090
-620,619	482,185	0,019	0,032
-619,605	-49,959	0,077	-0,026
-618,590	232,771	0,049	0,059
-617,576	207,139	-0,124	0,140
-616,561	-200,000	-0,042	-0,160
-615,546	276,062	-0,081	-0,105
-614,532	-156,383	0,070	-0,003
-613,517	500,528	-0,040	-0,067
-612,503	95,725	-0,055	0,045
-611,488	800,000	0,015	0,040
-610,474	66,218	-0,071	-0,052
-609,459	-33,422	-0,089	0,035
-608,444	-140,563	-0,118	-0,009
-607,430	-7,450	0,130	0,064
-606,415	-200,000	0,007	-0,044
-605,401	103,433	0,119	-0,101
-604,386	-136,970	0,088	-0,007
-603,371	800,000	0,081	0,166
-602,357	-200,000	0,031	0,140
-601,342	-200,000	-0,008	-0,052
-600,328	57,575	-0,132	-0,093
-599,313	2,906	-0,047	0,025
-598,298	-58,014	-0,135	-0,042
-597,284	-50,811	0,078	0,027
-596,269	-155,470	0,040	0,002
-595,255	100,414	0,102	0,085
-594,240	800,000	-0,031	0,073
-593,225	498,854	0,073	-0,123
-592,211	164,358	0,069	-0,070
-591,196	-97,634	-0,179	0,033
-590,182	-137,422	0,172	-0,014
-589,167	175,096	-0,054	-0,057
-588,152	1,812	0,065	-0,034
-587,138	-200,000	-0,015	0,059
-586,123	20,039	-0,173	-0,101
-585,109	-38,835	-0,116	0,044
-584,094	800,000	-0,045	-0,091
-583,079	-26,521	0,047	-0,020
-582,065	22,090	-0,105	-0,062
-581,050	-200,000	0,023	-0,118
-580,036	72,355	-0,155	-0,117
-579,021	284,688	0,008	0,011
-578,006	-123,867	-0,118	-0,013
-576,992	-200,000	-0,007	0,155
-575,977	263,397	-0,091	0,114
-574,963	-200,000	-0,030	0,097
-573,948	-200,000	0,035	0,119
-572,934	282,470	-0,016	0,021
-571,919	-0,927	-0,033	0,017
-570,904	-12,096	0,113	-0,053
-569,890	385,430	-0,082	-0,122
-568,875	-200,000	-0,034	-0,128
-567,861	146,356	0,106	-0,103
-566,846	-25,414	-0,085	0,036
-565,831	-55,024	-0,102	-0,033
-564,817	-200,000	0,051	-0,173
-563,802	-41,813	0,065	0,024
-562,788	-41,716	-0,205	0,076
-561,773	141,532	0,094	0,090
-560,758	330,487	0,082	0,114
-559,744	212,353	0,037	-0,043
-558,729	195,049	0,073	0,080
-557,715	800,000	-0,052	0,127
-556,700	774,368	0,062	-0,123
-555,685	260,424	-0,087	-0,109
-554,671	-200,000	0,010	-0,070
-553,656	150,770	0,058	0,057
-552,642	-200,000	0,010	0,038
-551,627	-200,000	-0,002	-0,116
-550,612	122,172	-0,075	-0,068
-549,598	-36,646	-0,129	0,050
-548,583	800,000	0,028	-0,089
-547,569	800,000	0,032	0,100
-546,554	-103,452	0,055	-0,009
-545,539	167,220	0,039	-0,041
-544,525	346,410	0,045	0,064
-543,510	800,000	-0,040	-0,109
-542,496	420,587	0,040	-0,062
-541,481	-200,000	-0,004	-0,084
-540,466	-129,442	-0,081	0,008
-539,452	606,406	0,042	0,075
-538,437	81,956	-0,030	-0,024
-537,423	-200,000	-0,015	-0,100
-536,408	-7,365	-0,043	0,021
-535,393	-200,000	0,018	-0,091
-534,379	-178,725	-0,043	0,001
-533,364	-200,000	-0,101	0,000
-532,350	728,103	-0,045	0,086
-531,335	47,347	0,179	0,120
-530,321	-25,258	-0,149	-0,064
-529,306	51,348	-0,024	0,016
-528,291	-18,480	0,024	-0,011
-527,277	-134,460	-0,056	-0,005
-526,262	-200,000	-0,012	-0,138
-525,248	-51,482	0,130	0,044
-524,233	-25,230	0,107	0,045
-523,218	-200,000	-0,005	0,092
-522,204	-93,655	-0,030	-0,006
-521,189	-200,000	0,012	-0,141
-520,175	106,057	0,034	-0,029
-519,160	134,145	-0,009	-0,009
-518,145	-145,596	-0,098	-0,006
-517,131	-92,331	0,107	0,021
-516,116	613,576	0,021	-0,039
-515,102	-200,000	-0,017	0,071
-514,087	-200,000	0,000	-0,012
-513,072	502,336	0,067	0,112
-512,058	-13,367	-0,065	-0,031
-511,043	549,338	0,037	-0,064
-510,029	800,000	-0,040	-0,085
-509,014	800,000	-0,034	-0,080
-507,999	187,488	0,072	0,077
-506,985	580,480	0,036	0,064
-505,970	113,311	-0,152	0,133
-504,956	0,398	0,073	-0,037
-503,941	-200,000	-0,005	0,054
-502,926	800,000	-0,033	0,090
-501,912	-200,000	0,028	0,122
-500,897	175,452	-0,075	-0,079
-499,883	6,803	0,081	-0,044
-498,868	800,000	0,066	-0,155
-497,853	-200,000	0,001	-0,016
-496,839	84,933	0,171	0,135
-495,824	-50,185	0,028	-0,010
-494,810	36,631	-0,035	-0,022
-493,795	-200,000	-0,012	0,135
-492,781	-200,000	-0,012	0,124
-491,766	50,098	0,020	0,013
-490,751	-91,087	0,155	0,032
-489,737	-30,646	-0,153	-0,062
-488,722	-162,818	-0,028	0,001
-487,708	95,167	0,139	0,114
-486,693	-93,025	-0,113	-0,022
-485,678	800,000	-0,016	0,034
-484,664	-99,734	0,074	0,013
-483,649	-26,091	-0,067	-0,028
-482,635	800,000	-0,036	0,095
-481,620	-38,229	0,033	0,013
-480,605	-174,475	0,021	-0,000
-479,591	77,961	0,076	0,059
-478,576	-200,000	-0,011	-0,079
-477,562	282,316	0,020	0,026
-476,547	211,527	-0,071	-0,081
-475,532	-200,000	0,001	0,031
-474,518	36,622	-0,121	0,077
-473,503	531,153	-0,091	0,156
-472,489	-200,000	-0,027	0,100
-471,474	-45,511	-0,166	0,059
-470,459	151,585	-0,047	0,047
-469,445	348,340	-0,054	0,077
-468,430	-200,000	0,009	-0,030
-467,416	-48,918	0,112	0,038
-466,401	-20,204	0,034	0,015
-465,386	291,183	0,126	0,166
-464,372	207,701	-0,038	-0,043
-463,357	-147,208	0,006	-0,000
-462,343	311,253	-0,030	-0,040
-461,328	800,000	-0,032	0,082
-460,313	50,075	0,088	-0,060
-459,299	-20,108	-0,116	0,052
-458,284	800,000	-0,012	0,038
-457,270	-79,752	0,105	0,025
-456,255	-200,000	0,020	-0,068
-455,241	-42,816	0,098	0,036
-454,226	800,000	-0,022	0,067
-453,211	800,000	0,010	0,025
-452,197	203,989	0,023	-0,026
-451,182	-200,000	0,038	0,000
-450,168	-200,000	0,006	0,068
-449,153	50,649	-0,031	-0,021
-448,138	800,000	-0,039	-0,086
-447,124	800,000	0,040	0,083
-446,109	-91,292	0,121	0,025
-445,095	18,381	0,080	-0,046
-444,080	214,304	-0,050	0,057
-443,065	281,231	-0,044	0,057
-442,051	300,844	0,041	0,055
-441,036	-150,472	-0,067	-0,004
-440,022	109,103	-0,029	-0,025
-439,007	-9,987	0,076	0,036
-437,992	38,283	0,105	0,067
-436,978	-200,000	-0,000	0,069
-435,963	-200,000	-0,016	0,137
-434,949	-200,000	-0,003	-0,089
-433,934	549,579	-0,079	-0,136
-432,919	72,120	-0,101	-0,076
-431,905	573,688	0,048	0,084
-430,890	-37,928	0,091	-0,035
-429,876	-200,000	0,007	0,131
-428,861	-83,730	-0,073	0,017
-427,846	-200,000	0,018	-0,075
-426,832	-117,231	-0,067	0,009
-425,817	-21,750	0,085	0,037
-424,803	121,686	-0,062	-0,056
-423,788	111,414	-0,035	-0,030
-422,773	-200,000	-0,003	0,011
-421,759	92,513	-0,033	0,027
-420,744	-16,227	-0,024	0,011
-419,730	337,969	-0,071	-0,100
-418,715	68,527	0,090	-0,066
-417,701	463,034	0,024	0,039
-416,686	57,380	-0,093	-0,065
-415,671	19,297	-0,182	0,105
-414,657	-66,240	-0,093	-0,026
-413,642	33,725	0,101	0,063
-412,628	-93,053	-0,073	-0,014
-411,613	89,293	0,096	-0,077
-410,598	-38,674	-0,087	-0,033
-409,584	412,746	0,068	0,104
-408,569	-65,813	-0,134	-0,038
-407,555	-200,000	-0,001	0,085
-406,540	-200,000	-0,004	-0,065
-405,525	-88,203	0,096	0,021
-404,511	110,662	-0,020	0,017
-403,496	5,946	-0,065	-0,034
-402,482	158,177	0,100	0,099
-401,467	41,917	0,110	-0,071
-400,452	-30,874	0,011	0,004
-399,438	185,343	0,077	-0,082
-398,423	-200,000	0,026	-0,083
-397,409	800,000	0,030	-0,072
-396,394	-30,511	-0,113	0,046
-395,379	-133,651	-0,077	-0,007
-394,365	-131,839	-0,090	-0,008
-393,350	-200,000	-0,007	0,129
-392,336	-200,000	0,008	0,035
-391,321	-4,751	0,055	-0,027
-390,306	-18,465	-0,055	0,024
-389,292	276,796	-0,056	-0,072
-388,277	-200,000	0,002	-0,044
-387,263	-96,403	0,095	0,018
-386,248	429,870	-0,084	0,131
-385,233	184,087	-0,030	-0,032
-384,219	134,562	0,117	0,109
-383,204	63,127	-0,066	0,047
-382,190	-200,000	-0,010	-0,156
-381,175	3,120	-0,058	0,030
-380,160	-142,003	0,116	-0,008
-379,146	16,186	-0,071	-0,040
-378,131	-68,806	-0,055	-0,015
-377,117	-96,661	0,068	-0,013
-376,102	-200,000	0,016	-0,083
-375,088	-200,000	-0,009	-0,096
-374,073	-97,771	0,035	0,007
-373,058	270,609	0,063	0,080
-372,044	-128,555	0,075	-0,008
-371,029	-154,138	0,106	0,005
-370,015	-109,817	0,083	0,012
-369,000	195,711	-0,080	-0,087
-367,985	800,000	-0,068	-0,160
-366,971	800,000	-0,029	0,059
-365,956	16,293	0,122	-0,069
-364,942	466,723	0,012	0,020
-363,927	-200,000	0,147	-0,000
-362,912	225,333	-0,051	0,059
-361,898	267,685	0,044	-0,055
-360,883	-157,796	-0,114	0,005
-359,869	18,479	-0,065	0,037
-358,854	420,085	-0,107	0,165
-357,839	-124,538	0,101	-0,011
-356,825	226,502	-0,091	0,107
-355,810	800,000	0,019	-0,042
-354,796	27,697	0,051	-0,031
-353,781	193,191	-0,063	-0,068
-352,766	17,688	0,065	-0,037
-351,752	184,841	0,080	0,085
-350,737	-138,639	-0,245	-0,019
-349,723	-0,344	0,132	0,067
-348,708	606,701	-0,036	-0,064
-347,693	-102,585	0,077	0,013
-346,679	37,073	-0,074	0,047
-345,664	-200,000	0,090	0,000
-344,650	-121,981	0,129	0,015
-343,635	51,988	0,145	-0,099
-342,620	275,491	-0,061	0,078
-341,606	-9,864	0,132	0,063
-340,591	-144,204	-0,043	0,003
-339,577	-4,583	0,058	-0,029
-338,562	-124,815	-0,041	0,004
-337,548	309,577	0,048	0,065
-336,533	169,574	0,014	-0,014
-335,518	-200,000	-0,048	-0,168
-334,504	800,000	-0,041	0,098
-333,489	-107,650	-0,178	-0,028
-332,475	97,613	-0,054	0,045
-331,460	-98,642	-0,062	0,011
-330,445	-53,106	-0,030	-0,010
-329,431	299,898	-0,012	0,016
-328,416	-200,000	0,035	-0,216
-327,402	1,186	0,026	-0,013
-326,387	-79,913	-0,102	-0,024
-325,372	800,000	0,035	0,092
-324,358	-200,000	-0,001	-0,108
-323,343	70,673	-0,114	-0,084
-322,329	-79,309	-0,064	0,015
-321,314	483,858	0,065	0,107
-320,299	-200,000	0,004	-0,069
-319,285	800,000	-0,020	0,056
-318,270	104,127	-0,096	-0,081
-317,256	-144,397	-0,072	-0,005
-316,241	-200,000	0,091	0,000
-315,226	-113,836	-0,150	-0,021
-314,212	5,165	0,134	-0,071
-313,197	-168,076	-0,017	0,000
-312,183	-112,803	-0,012	0,002
-311,168	800,000	0,035	-0,090
-310,153	32,887	-0,126	-0,078
-309,139	117,697	-0,093	-0,082
-308,124	800,000	0,032	0,072
-307,110	-93,037	0,116	-0,023
-306,095	-101,762	0,054	-0,009
-305,080	352,260	0,067	-0,095
-304,066	-200,000	-0,033	-0,156
-303,051	-200,000	-0,003	0,080
-302,037	-200,000	-0,007	0,061
-301,022	413,518	0,028	0,043
-300,008	-63,839	0,101	-0,029
-298,993	38,581	0,088	0,056
-297,978	312,669	0,020	0,027
-296,964	452,732	-0,071	0,113
-295,949	-200,000	0,023	0,074
-294,935	-200,000	0,010	-0,031
-293,920	164,061	-0,093	-0,094
-292,905	139,363	-0,068	-0,064
-291,891	-42,333	0,136	0,049
-290,876	296,556	0,027	-0,035
-289,862	109,434	-0,123	0,106
-288,847	-200,000	0,009	0,049
-287,832	42,753	-0,095	0,062
-286,818	800,000	0,039	0,107
-285,803	118,190	0,125	0,110
-284,789	800,000	0,050	-0,106
-283,774	204,897	-0,094	0,105
-282,759	91,754	0,055	-0,045
-281,745	22,876	-0,089	-0,052
-280,730	-144,813	-0,209	0,014
-279,716	666,667	0,033	0,061
-278,701	-200,000	0,011	0,098
-277,686	-18,972	0,057	0,025
-276,672	9,679	0,133	0,072
-275,657	800,000	0,017	0,051
-274,643	1,901	-0,103	-0,053
-273,628	800,000	0,006	-0,016
-272,613	-200,000	-0,004	-0,047
-271,599	-108,735	-0,048	-0,007
-270,584	-63,234	0,181	0,053
-269,570	-56,761	0,062	0,020
-268,555	667,949	-0,038	0,071
-267,540	-34,247	-0,085	-0,033
-266,526	3,866	-0,090	0,047
-265,511	-200,000	0,019	0,074
-264,497	313,341	0,053	-0,071
-263,482	-137,374	-0,044	-0,004
-262,467	-92,971	0,120	0,024
-261,453	800,000	-0,007	0,015
-260,438	-200,000	0,006	-0,100
-259,424	343,114	-0,065	-0,091
-258,409	577,860	0,062	-0,108
-257,395	567,197	0,006	-0,011
-256,380	-8,286	0,082	0,040
-255,365	-142,117	0,143	-0,010
-254,351	-200,000	0,007	-0,050
-253,336	699,507	0,052	-0,099
-252,322	163,838	0,083	-0,083
-251,307	16,235	-0,029	-0,016
-250,292	-118,054	-0,039	0,005
-249,278	17,322	0,082	0,046
-248,263	718,505	-0,010	-0,020
-247,249	-200,000	0,009	0,032
-246,234	405,707	0,040	-0,060
-245,219	49,345	-0,103	-0,069
-244,205	-7,678	-0,076	-0,037
-243,190	-52,667	-0,046	-0,015
-242,176	618,871	0,038	0,069
-241,161	304,707	-0,044	0,059
-240,146	-119,152	-0,096	0,012
-239,132	769,263	0,039	-0,077
-238,117	516,556	-0,127	-0,213
-237,103	800,000	-0,037	-0,100
-236,088	-200,000	0,034	-0,135
-235,073	746,162	0,051	0,098
-234,059	-63,694	0,071	-0,021
-233,044	800,000	-0,038	0,084
-232,030	-87,890	-0,191	0,041
-231,015	800,000	0,036	-0,083
-230,000	476,394	0,052	0,084
-228,986	800,000	0,042	-0,098
-227,971	-5,608	-0,076	0,037
-226,957	-156,946	0,037	-0,002
-225,942	800,000	0,028	0,066
-224,927	-130,200	0,039	0,004
-223,913	366,399	-0,073	-0,106
-222,898	109,567	0,105	-0,090
-221,884	-67,528	-0,211	-0,059
-220,869	-200,000	0,005	-0,027
-219,855	176,087	0,078	0,081
-218,840	-200,000	0,018	0,151
-217,825	-200,000	0,012	-0,069
-216,811	30,128	-0,132	-0,080
-215,796	800,000	0,051	0,130
-214,782	115,225	-0,027	-0,023
-213,767	-200,000	0,024	-0,116
-212,752	61,395	0,134	0,095
-211,738	322,540	0,092	0,125
-210,723	800,000	0,021	0,060
-209,709	-200,000	-0,006	0,106
-208,694	-200,000	-0,047	-0,187
-207,679	333,497	0,126	0,174
-206,665	-117,008	-0,057	0,007
-205,650	10,073	-0,015	0,008
-204,636	-111,582	0,118	-0,017
-203,621	-106,003	0,044	0,007
-202,606	253,598	-0,045	0,055
-201,592	448,884	-0,066	-0,105
-200,577	-200,000	0,003	-0,064
-199,563	661,566	0,025	0,046
-198,548	-200,000	-0,148	-0,000
-197,533	565,406	0,035	-0,061
-196,519	389,008	-0,006	0,010
-195,504	-176,952	-0,065	-0,001
-194,490	-156,095	-0,070	-0,003
-193,475	-12,009	0,109	0,051
-192,460	800,000	0,043	0,093
-191,446	617,194	-0,025	0,045
-190,431	398,783	0,063	0,094
-189,417	800,000	0,022	0,063
-188,402	2,199	0,099	0,051
-187,387	466,644	0,040	-0,064
-186,373	-92,448	0,191	-0,038
-185,358	375,415	0,098	0,143
-184,344	176,186	0,107	0,111
-183,329	50,634	-0,107	0,072
-182,315	270,782	0,016	-0,020
-181,300	-94,362	-0,029	0,006
-180,285	357,554	-0,040	-0,058
-179,271	188,762	-0,026	-0,028
-178,256	-37,159	0,084	-0,032
-177,242	-200,000	0,025	0,081
-176,227	-76,756	0,116	0,029
-175,212	102,501	-0,077	0,064
-174,198	45,365	-0,046	0,030
-173,183	4,146	-0,088	-0,046
-172,169	-200,000	-0,018	-0,060
-171,154	25,379	-0,059	0,035
-170,139	-152,815	0,121	-0,006
-169,125	-150,229	-0,119	-0,006
-168,110	800,000	-0,009	-0,025
-167,096	265,743	-0,101	0,126
-166,081	457,458	0,069	-0,110
-165,066	-32,521	-0,191	-0,076
-164,052	-45,878	0,106	-0,037
-163,037	-200,000	-0,007	0,041
-162,023	-18,091	0,101	0,045
-161,008	-200,000	0,030	-0,189
-159,993	-61,679	0,133	0,039
-158,979	-200,000	-0,037	-0,203
-157,964	800,000	-0,053	-0,117
-156,950	759,000	-0,041	-0,079
-155,935	437,366	0,048	0,074
-154,920	59,413	0,064	0,045
-153,906	800,000	-0,023	0,058
-152,891	-200,000	-0,020	0,000
-151,877	-200,000	-0,031	-0,113
-150,862	-200,000	0,002	0,084
-149,847	219,254	-0,039	-0,045
-148,833	-200,000	-0,003	0,048
-147,818	98,761	-0,018	0,015
-146,804	-6,246	0,116	0,056
-145,789	193,547	-0,053	-0,057
-144,775	251,048	-0,085	-0,103
-143,760	-200,000	0,013	-0,069
-142,745	-62,005	0,147	-0,043
-141,731	-90,750	-0,012	-0,002
-140,716	-40,174	0,023	-0,009
-139,702	149,395	0,115	0,111
-138,687	227,666	-0,031	-0,035
-137,672	-23,591	0,072	0,031
-136,658	435,546	0,044	-0,068
-135,643	-200,000	-0,009	-0,041
-134,629	112,146	-0,065	-0,056
-133,614	-200,000	0,005	0,102
-132,599	-200,000	-0,013	-0,045
-131,585	-187,831	-0,109	0,001
-130,570	104,373	-0,065	-0,054
-129,556	27,465	-0,076	-0,046
-128,541	-200,000	0,021	0,103
-127,526	-55,806	-0,046	0,015
-126,512	-151,889	0,070	0,004
-125,497	-133,362	-0,114	0,010
-124,483	105,817	-0,029	0,024
-123,468	-200,000	0,008	-0,046
-122,453	-151,442	-0,159	0,008
-121,439	19,522	0,013	0,008
-120,424	21,348	-0,059	-0,034
-119,410	20,280	-0,122	0,070
-118,395	-200,000	0,027	-0,094
