DTS Sentinel unit serial number:	SN410029Multiplexer serial number:	ORYXHardware model number:	OX2-SRSoftware version number:	ORYX F/W v4,00 Oryx Data Collector v3.7.2.0data status	okinstallation	BH3 CH2differential loss correction	single-endedforward channel	channel 2reverse channel	N/Adate	2023/12/05time	23:02:28forward acquisition time	300,00reverse acquisition time	0,00gamma	499,1914k internal	0,3194k external	0,3194temperature offset calibration	1,0000default loss term (dB/km)	0,3820temperature slope calibration	1,0000multiplexer offset coefficient	1,0000multiplexer slope coefficient	1,0000fibre end	0,00T internal ref (°C)	9,75T ext. ref 1 (°C)	-5,39T ext. ref 2 (°C)	-5,49length (m)	temperature (°C)	Stokes	anti-Stokes-744,400	800,000	-0,073	-0,149
-743,385	-120,996	-0,154	-0,019
-742,371	647,772	0,074	-0,139
-741,356	169,844	-0,082	0,085
-740,342	800,000	-0,035	-0,102
-739,327	-29,806	-0,181	0,075
-738,312	-200,000	0,015	-0,295
-737,298	-39,713	-0,312	0,118
-736,283	-200,000	-0,021	-0,136
-735,269	800,000	-0,069	0,213
-734,254	21,904	0,077	-0,046
-733,239	-104,953	-0,294	-0,049
-732,225	-187,071	0,113	-0,001
-731,210	243,030	0,131	0,160
-730,196	800,000	-0,027	-0,069
-729,181	761,290	0,055	-0,109
-728,167	-200,000	0,035	-0,129
-727,152	105,427	0,124	-0,106
-726,137	-110,153	-0,082	0,012
-725,123	-66,926	-0,155	0,044
-724,108	-87,589	-0,094	0,021
-723,094	77,817	-0,124	-0,096
-722,079	-55,012	-0,122	-0,040
-721,064	-79,402	-0,100	0,024
-720,050	-45,594	0,088	0,032
-719,035	369,079	-0,071	-0,104
-718,021	194,799	-0,065	0,071
-717,006	-10,493	-0,147	-0,071
-715,991	23,063	-0,115	-0,068
-714,977	800,000	-0,106	-0,220
-713,962	11,299	-0,100	0,056
-712,948	38,468	0,010	-0,006
-711,933	-200,000	0,012	0,087
-710,918	156,747	-0,073	0,073
-709,904	59,535	-0,060	-0,043
-708,889	-200,000	-0,000	-0,088
-707,875	554,290	-0,032	-0,057
-706,860	-200,000	0,050	0,180
-705,845	198,566	-0,046	0,052
-704,831	-200,000	0,001	-0,007
-703,816	800,000	0,042	0,099
-702,802	-31,896	-0,094	-0,038
-701,787	800,000	-0,009	-0,023
-700,772	-64,452	0,124	-0,036
-699,758	58,111	0,089	-0,063
-698,743	187,866	0,062	0,067
-697,729	-200,000	-0,022	0,089
-696,714	40,791	-0,020	-0,013
-695,699	9,479	0,056	-0,031
-694,685	800,000	0,015	-0,042
-693,670	-200,000	-0,013	-0,042
-692,656	-133,571	-0,185	-0,017
-691,641	-17,364	-0,044	-0,020
-690,627	137,224	-0,003	-0,003
-689,612	114,992	0,079	0,070
-688,597	69,531	0,017	0,013
-687,583	-174,238	0,038	-0,001
-686,568	378,562	-0,074	-0,111
-685,554	400,637	-0,083	-0,127
-684,539	32,592	0,076	0,048
-683,524	526,657	0,049	-0,084
-682,510	641,849	-0,074	0,137
-681,495	627,374	-0,077	-0,142
-680,481	-200,000	-0,002	-0,099
-679,466	-200,000	0,010	0,047
-678,451	199,276	0,061	-0,068
-677,437	197,036	-0,062	0,069
-676,422	-53,199	0,136	0,045
-675,408	302,191	-0,018	0,025
-674,393	-153,784	0,074	0,004
-673,378	-200,000	-0,009	-0,076
-672,364	800,000	-0,080	-0,205
-671,349	201,928	-0,040	0,045
-670,335	-200,000	0,007	-0,097
-669,320	5,870	0,037	0,020
-668,305	-33,260	-0,094	-0,038
-667,291	-86,522	-0,113	0,025
-666,276	621,865	0,010	0,018
-665,262	-143,833	-0,048	-0,003
-664,247	36,811	-0,032	0,020
-663,232	203,411	-0,044	0,050
-662,218	-70,470	0,180	0,049
-661,203	-200,000	0,015	0,161
-660,189	-200,000	0,000	0,146
-659,174	-4,506	-0,096	0,048
-658,159	-200,000	-0,046	-0,193
-657,145	35,964	-0,050	-0,032
-656,130	-105,156	0,129	-0,021
-655,116	-37,428	-0,104	-0,040
-654,101	428,505	0,065	-0,102
-653,086	-113,283	-0,045	-0,006
-652,072	-200,000	-0,025	-0,097
-651,057	800,000	-0,028	-0,090
-650,043	-200,000	-0,019	-0,132
-649,028	355,910	-0,053	-0,077
-648,014	800,000	0,055	0,129
-646,999	694,594	0,072	-0,137
-645,984	-200,000	-0,014	-0,070
-644,970	-116,931	-0,110	0,014
-643,955	-200,000	-0,014	-0,152
-642,941	800,000	-0,033	0,068
-641,926	-34,883	-0,070	-0,027
-640,911	-200,000	0,005	-0,150
-639,897	-77,952	0,073	0,018
-638,882	-131,731	-0,024	0,002
-637,868	800,000	0,052	0,156
-636,853	800,000	-0,064	-0,133
-635,838	482,415	-0,031	-0,052
-634,824	87,118	-0,040	0,032
-633,809	-0,029	0,057	-0,029
-632,795	-200,000	0,007	-0,028
-631,780	68,854	0,097	-0,072
-630,765	33,905	-0,102	-0,064
-629,751	-200,000	0,029	0,111
-628,736	201,509	-0,092	-0,103
-627,722	-153,770	0,020	-0,001
-626,707	174,705	-0,017	-0,018
-625,692	300,734	-0,066	0,089
-624,678	39,900	-0,090	0,058
-623,663	-68,900	-0,122	0,034
-622,649	-200,000	-0,008	-0,031
-621,634	-56,638	-0,084	-0,027
-620,619	20,276	-0,053	0,031
-619,605	800,000	0,060	-0,139
-618,590	58,063	-0,090	-0,064
-617,576	-90,827	0,053	0,011
-616,561	-200,000	0,001	-0,040
-615,546	-153,235	-0,068	-0,003
-614,532	639,745	0,020	0,038
-613,517	30,573	-0,040	0,025
-612,503	32,663	-0,053	0,033
-611,488	581,296	-0,058	-0,104
-610,474	83,058	0,062	-0,049
-609,459	-67,189	0,233	-0,066
-608,444	-200,000	-0,022	0,114
-607,430	433,824	-0,058	-0,092
-606,415	32,968	-0,046	-0,029
-605,401	65,653	0,082	-0,060
-604,386	-200,000	0,010	0,097
-603,371	352,227	0,057	0,082
-602,357	-26,213	-0,014	0,006
-601,342	-200,000	0,023	0,129
-600,328	-163,636	-0,113	-0,004
-599,313	18,012	-0,103	-0,059
-598,298	262,372	-0,008	0,010
-597,284	205,189	0,118	-0,133
-596,269	-64,854	-0,137	0,040
-595,255	-200,000	-0,002	0,068
-594,240	387,074	-0,048	-0,071
-593,225	-200,000	0,002	-0,068
-592,211	411,691	0,059	-0,091
-591,196	293,084	-0,081	-0,107
-590,182	236,420	0,105	0,126
-589,167	800,000	0,041	0,094
-588,152	379,765	0,053	-0,079
-587,138	206,068	0,011	-0,012
-586,123	27,064	0,026	0,016
-585,109	337,753	-0,050	0,071
-584,094	-60,993	0,074	-0,022
-583,079	-8,877	0,095	0,046
-582,065	648,560	0,046	-0,085
-581,050	800,000	0,003	-0,009
-580,036	194,286	-0,092	0,101
-579,021	-111,824	-0,131	-0,019
-578,006	224,906	-0,004	-0,005
-576,992	190,293	-0,130	-0,141
-575,977	-11,062	0,059	0,028
-574,963	639,782	0,052	-0,096
-573,948	60,785	0,069	0,049
-572,934	-200,000	0,022	0,162
-571,919	47,506	-0,107	-0,072
-570,904	416,121	0,021	-0,033
-569,890	-13,962	-0,088	0,041
-568,875	371,631	0,020	0,029
-567,861	288,171	-0,110	0,145
-566,846	45,298	0,037	-0,025
-565,831	70,972	-0,086	-0,064
-564,817	317,246	0,104	-0,143
-563,802	295,223	-0,128	-0,170
-562,788	-200,000	0,000	0,154
-561,773	34,404	0,115	0,073
-560,758	-136,743	0,147	-0,012
-559,744	800,000	0,045	0,139
-558,729	93,453	0,041	0,033
-557,715	267,399	0,019	0,024
-556,700	312,433	0,065	-0,089
-555,685	-200,000	-0,022	0,072
-554,671	-134,912	-0,096	0,008
-553,656	800,000	0,104	0,245
-552,642	548,308	0,092	0,159
-551,627	236,454	-0,035	-0,042
-550,612	725,046	0,022	0,043
-549,598	-200,000	-0,029	-0,104
-548,583	-20,454	-0,064	0,028
-547,569	197,133	0,100	0,111
-546,554	-61,094	0,054	0,016
-545,539	99,950	0,018	-0,015
-544,525	-3,521	-0,122	0,061
-543,510	48,547	-0,067	-0,045
-542,496	306,398	0,068	-0,092
-541,481	9,536	-0,155	-0,085
-540,466	126,438	-0,038	0,035
-539,452	-200,000	0,019	0,146
-538,437	120,193	0,103	0,092
-537,423	-47,335	-0,104	0,036
-536,408	800,000	0,031	0,079
-535,393	-83,157	-0,041	0,009
-534,379	-200,000	-0,016	-0,088
-533,364	0,175	0,046	-0,023
-532,350	-85,336	-0,194	0,043
-531,335	24,130	0,124	0,074
-530,321	396,241	-0,093	-0,141
-529,306	-112,216	-0,106	-0,015
-528,291	-200,000	0,006	-0,096
-527,277	-145,112	0,077	-0,005
-526,262	393,463	-0,011	-0,016
-525,248	235,018	0,094	-0,112
-524,233	-200,000	-0,008	0,087
-523,218	52,735	0,122	0,084
-522,204	166,087	-0,044	-0,045
-521,189	-200,000	0,004	-0,145
-520,175	-200,000	0,008	-0,090
-519,160	800,000	0,032	-0,071
-518,145	120,767	0,055	0,049
-517,131	800,000	-0,056	0,123
-516,116	110,368	0,058	0,050
-515,102	-200,000	-0,004	-0,017
-514,087	800,000	0,045	-0,110
-513,072	-200,000	-0,034	-0,151
-512,058	151,021	0,052	-0,051
-511,043	800,000	0,024	-0,052
-510,029	455,484	0,016	0,026
-509,014	800,000	0,023	0,048
-507,999	31,209	-0,051	-0,032
-506,985	330,113	0,049	-0,068
-505,970	459,884	-0,057	-0,092
-504,956	87,221	-0,108	-0,087
-503,941	-200,000	0,017	-0,073
-502,926	19,990	-0,098	0,057
-501,912	19,609	-0,075	-0,043
-500,897	-108,094	0,176	0,027
-499,883	171,626	-0,036	-0,038
-498,868	115,018	-0,095	-0,084
-497,853	-102,146	-0,110	-0,019
-496,839	-34,523	-0,015	0,006
-495,824	-200,000	0,002	0,095
-494,810	800,000	-0,048	0,100
-493,795	-200,000	0,009	0,065
-492,781	61,213	-0,030	-0,022
-491,766	-200,000	0,026	-0,134
-490,751	92,771	-0,035	0,028
-489,737	-25,333	0,104	-0,044
-488,722	193,189	0,032	0,035
-487,708	570,318	0,046	-0,082
-486,693	156,899	0,129	-0,129
-485,678	-200,000	-0,026	-0,129
-484,664	229,119	0,089	0,105
-483,649	-179,536	0,055	0,001
-482,635	-200,000	0,017	-0,076
-481,620	-57,083	0,050	0,016
-480,605	120,302	0,099	0,089
-479,591	155,849	0,096	0,096
-478,576	-200,000	-0,011	0,065
-477,562	329,819	-0,064	0,089
-476,547	317,735	0,029	-0,039
-475,532	357,305	0,087	0,126
-474,518	-200,000	0,035	0,200
-473,503	-200,000	0,007	-0,104
-472,489	800,000	-0,007	0,022
-471,474	-121,012	0,074	0,009
-470,459	-103,916	-0,159	-0,026
-469,445	-50,445	-0,057	-0,019
-468,430	112,708	0,134	-0,117
-467,416	-79,380	-0,139	0,034
-466,401	-200,000	0,055	0,271
-465,386	-7,629	-0,053	-0,026
-464,372	-43,798	-0,055	-0,020
-463,357	-172,350	0,085	0,002
-462,343	63,534	-0,016	-0,011
-461,328	38,824	-0,080	0,051
-460,313	-189,650	0,024	0,000
-459,299	-74,009	-0,121	0,032
-458,284	-151,320	0,058	-0,003
-457,270	-200,000	0,020	0,080
-456,255	-149,059	-0,003	0,000
-455,241	800,000	-0,031	-0,075
-454,226	-22,077	-0,082	-0,036
-453,211	155,815	-0,047	0,047
-452,197	-96,451	0,117	-0,022
-451,182	99,354	0,064	0,053
-450,168	388,755	-0,077	0,115
-449,153	194,296	-0,059	0,065
-448,138	220,859	-0,056	0,065
-447,124	800,000	0,045	-0,109
-446,109	-200,000	0,028	-0,165
-445,095	-200,000	-0,030	-0,119
-444,080	-200,000	-0,035	0,188
-443,065	800,000	-0,050	0,144
-442,051	132,356	-0,078	0,072
-441,036	-22,735	-0,093	0,040
-440,022	24,602	-0,145	-0,086
-439,007	12,044	0,057	0,031
-437,992	-174,947	0,081	0,002
-436,978	243,163	0,063	-0,076
-435,963	-200,000	-0,024	-0,084
-434,949	800,000	0,055	0,122
-433,934	-45,997	-0,075	0,026
-432,919	-200,000	-0,007	-0,153
-431,905	753,589	-0,072	-0,141
-430,890	-200,000	-0,010	0,044
-429,876	158,494	-0,034	-0,034
-428,861	-34,355	-0,114	0,045
-427,846	-200,000	0,007	-0,061
-426,832	-200,000	0,006	0,089
-425,817	-200,000	-0,029	-0,094
-424,803	-200,000	0,006	0,022
-423,788	-200,000	0,027	-0,229
-422,773	331,028	-0,070	-0,098
-421,759	-200,000	0,010	-0,045
-420,744	202,807	-0,105	0,117
-419,730	800,000	-0,031	-0,083
-418,715	393,752	-0,032	-0,048
-417,701	160,814	0,066	-0,066
-416,686	722,989	0,066	0,127
-415,671	254,618	0,062	0,077
-414,657	800,000	0,018	0,037
-413,642	-200,000	-0,013	-0,064
-412,628	-200,000	0,018	0,115
-411,613	226,727	0,026	-0,031
-410,598	-200,000	-0,026	-0,091
-409,584	-25,325	0,070	0,029
-408,569	-41,048	0,060	-0,022
-407,555	800,000	-0,008	0,020
-406,540	800,000	-0,037	0,110
-405,525	3,855	-0,078	-0,041
-404,511	-38,201	-0,030	0,011
-403,496	59,621	-0,031	0,022
-402,482	-200,000	0,032	-0,125
-401,467	800,000	0,038	0,109
-400,452	-200,000	0,006	0,093
-399,438	-69,492	-0,050	-0,014
-398,423	-11,115	-0,151	0,071
-397,409	-200,000	-0,015	-0,153
-396,394	-200,000	0,012	0,051
-395,379	-139,406	-0,062	0,005
-394,365	-25,818	0,068	-0,029
-393,350	800,000	0,020	0,050
-392,336	145,405	0,057	0,055
-391,321	800,000	-0,026	0,064
-390,306	-76,065	0,022	0,005
-389,292	21,088	-0,104	0,060
-388,277	-200,000	0,023	-0,078
-387,263	-116,082	0,113	0,015
-386,248	-200,000	-0,001	0,125
-385,233	-200,000	0,003	0,043
-384,219	-200,000	0,011	0,078
-383,204	99,794	0,088	-0,073
-382,190	37,163	0,136	-0,086
-381,175	-64,726	-0,049	-0,014
-380,160	-108,279	0,027	0,004
-379,146	-122,156	-0,161	0,019
-378,131	800,000	0,035	-0,072
-377,117	-127,251	-0,108	-0,011
-376,102	221,918	0,031	0,036
-375,088	59,350	-0,188	0,133
-374,073	800,000	0,060	0,128
-373,058	657,577	-0,032	-0,060
-372,044	-200,000	0,026	-0,096
-371,029	85,036	0,035	-0,027
-370,015	-162,340	-0,031	-0,001
-369,000	800,000	-0,074	-0,154
-367,985	160,463	-0,009	0,009
-366,971	460,670	0,083	0,134
-365,956	631,424	0,011	-0,020
-364,942	-200,000	-0,001	0,024
-363,927	-58,092	0,117	0,036
-362,912	112,405	0,057	0,049
-361,898	335,591	-0,021	-0,030
-360,883	214,052	-0,053	-0,061
-359,869	800,000	0,042	-0,087
-358,854	-200,000	0,000	-0,041
-357,839	-40,612	0,040	-0,015
-356,825	202,560	0,071	0,079
-355,810	-200,000	0,033	0,127
-354,796	129,321	-0,038	0,035
-353,781	93,488	-0,106	0,086
-352,766	-6,087	0,049	0,024
-351,752	-200,000	-0,006	0,040
-350,737	210,912	0,085	0,096
-349,723	-39,751	0,248	0,093
-348,708	-200,000	-0,002	0,016
-347,693	-99,594	-0,076	0,014
-346,679	-200,000	-0,014	-0,068
-345,664	115,043	0,036	-0,031
-344,650	-52,352	0,029	0,009
-343,635	800,000	0,020	-0,048
-342,620	-200,000	-0,025	-0,080
-341,606	-200,000	0,013	0,099
-340,591	-200,000	0,003	-0,084
-339,577	132,657	-0,080	-0,074
-338,562	139,147	-0,069	-0,065
-337,548	800,000	-0,085	0,185
-336,533	800,000	-0,056	0,177
-335,518	-152,794	0,123	-0,006
-334,504	-155,748	0,100	0,005
-333,489	800,000	0,030	0,085
-332,475	-105,234	0,192	0,031
-331,460	14,521	-0,115	-0,064
-330,445	-200,000	0,003	0,017
-329,431	-36,193	0,080	0,031
-328,416	254,166	0,095	0,117
-327,402	-196,676	-0,052	-0,000
-326,387	54,356	-0,065	-0,045
-325,372	800,000	-0,008	-0,016
-324,358	175,871	-0,121	0,126
-323,343	-200,000	0,008	-0,136
-322,329	-27,783	-0,168	-0,069
-321,314	-35,566	0,055	0,021
-320,299	-200,000	-0,005	0,047
-319,285	-200,000	-0,019	0,089
-318,270	-110,238	-0,189	-0,028
-317,256	-200,000	-0,029	-0,143
-316,241	180,393	0,094	0,099
-315,226	800,000	-0,010	0,025
-314,212	280,702	0,054	-0,070
-313,197	138,415	0,076	0,071
-312,183	-168,065	0,157	0,004
-311,168	112,946	-0,055	-0,048
-310,153	537,435	-0,068	0,116
-309,139	30,921	-0,023	-0,014
-308,124	63,375	0,053	0,038
-307,110	800,000	0,013	0,034
-306,095	-200,000	0,004	0,046
-305,080	84,601	0,055	0,043
-304,066	3,875	0,064	0,033
-303,051	-200,000	0,034	-0,120
-302,037	674,536	0,055	0,103
-301,022	-16,707	-0,081	-0,037
-300,008	338,833	0,064	0,089
-298,993	-200,000	-0,023	0,099
-297,978	15,746	0,068	0,038
-296,964	-200,000	-0,009	-0,059
-295,949	-200,000	0,008	-0,043
-294,935	149,243	-0,083	-0,081
-293,920	-200,000	0,019	-0,062
-292,905	-7,042	-0,042	-0,020
-291,891	-200,000	-0,000	-0,008
-290,876	-128,255	-0,054	0,005
-289,862	800,000	-0,024	0,053
-288,847	-200,000	0,010	-0,091
-287,832	-200,000	0,029	-0,093
-286,818	40,861	-0,061	-0,040
-285,803	-124,163	0,075	-0,008
-284,789	-34,964	0,106	-0,041
-283,774	-200,000	-0,012	0,066
-282,759	-151,074	-0,121	-0,006
-281,745	12,291	0,077	-0,042
-280,730	-36,624	0,100	-0,038
-279,716	189,256	-0,048	0,051
-278,701	23,609	0,044	0,026
-277,686	376,730	0,045	0,066
-276,672	-155,665	0,019	0,001
-275,657	-17,377	0,070	0,031
-274,643	64,566	-0,096	-0,069
-273,628	438,508	0,053	-0,083
-272,613	14,530	-0,109	0,061
-271,599	-36,133	0,105	-0,040
-270,584	353,590	-0,091	0,130
-269,570	75,722	-0,069	0,052
-268,555	28,146	0,031	0,019
-267,540	-75,753	-0,056	0,014
-266,526	157,850	-0,044	-0,044
-265,511	-97,192	0,066	-0,012
-264,497	-200,000	-0,016	0,053
-263,482	-200,000	0,020	0,083
-262,467	-137,447	-0,066	0,005
-261,453	0,044	0,080	0,041
-260,438	105,387	-0,059	-0,049
-259,424	147,255	0,015	0,014
-258,409	-20,270	-0,049	0,022
-257,395	554,518	-0,001	0,001
-256,380	-200,000	-0,007	0,121
-255,365	-77,011	0,102	0,025
-254,351	-90,439	-0,061	0,013
-253,336	58,994	-0,021	-0,015
-252,322	177,390	-0,069	0,072
-251,307	123,865	0,022	-0,019
-250,292	-200,000	-0,064	-0,208
-249,278	599,570	0,074	-0,131
-248,263	408,996	-0,035	0,054
-247,249	-200,000	0,016	-0,056
-246,234	-61,290	0,114	0,034
-245,219	224,377	-0,066	-0,076
-244,205	-53,395	-0,064	-0,021
-243,190	-99,198	-0,154	0,028
-242,176	562,856	0,073	-0,127
-241,161	-23,741	-0,106	-0,045
-240,146	54,663	-0,070	-0,048
-239,132	-2,778	0,034	-0,017
-238,117	-200,000	-0,001	0,050
-237,103	-88,438	-0,068	-0,014
-236,088	-200,000	-0,018	0,058
-235,073	-39,426	0,129	0,048
-234,059	-200,000	-0,012	-0,164
-233,044	-200,000	0,009	-0,031
-232,030	440,018	-0,056	-0,088
-231,015	800,000	-0,052	-0,163
-230,000	-145,565	0,176	0,011
-228,986	-121,612	-0,159	0,019
-227,971	800,000	0,042	0,117
-226,957	-95,988	0,176	-0,033
-225,942	-200,000	-0,028	0,111
-224,927	-73,801	0,022	0,006
-223,913	14,605	0,123	-0,068
-222,898	-106,506	0,140	0,022
-221,884	-60,193	-0,042	-0,013
-220,869	800,000	0,019	0,057
-219,855	377,483	0,080	0,117
-218,840	-200,000	-0,005	0,094
-217,825	-41,648	0,093	0,034
-216,811	529,978	-0,055	0,093
-215,796	-136,485	-0,029	0,002
-214,782	-6,372	-0,035	0,017
-213,767	-200,000	-0,008	0,040
-212,752	800,000	0,024	-0,069
-211,738	-19,447	-0,050	0,022
-210,723	648,940	-0,058	0,107
-209,709	111,948	-0,057	-0,049
-208,694	-200,000	-0,001	-0,085
-207,679	45,451	0,041	-0,027
-206,665	16,589	0,050	0,028
-205,650	-200,000	0,045	0,145
-204,636	-105,056	0,027	-0,004
-203,621	33,095	0,104	-0,064
-202,606	-5,821	-0,085	0,041
-201,592	-145,688	-0,116	-0,007
-200,577	104,842	-0,029	-0,024
-199,563	-200,000	-0,008	-0,075
-198,548	-200,000	-0,020	0,110
-197,533	-200,000	-0,006	-0,038
-196,519	211,871	0,058	0,065
-195,504	35,747	-0,071	-0,044
-194,490	-200,000	0,024	-0,099
-193,475	-200,000	-0,015	-0,112
-192,460	-161,336	-0,057	-0,002
-191,446	-200,000	0,033	0,115
-190,431	603,995	0,060	-0,106
-189,417	-200,000	-0,014	0,086
-188,402	414,383	0,021	0,033
-187,387	-200,000	-0,019	-0,075
-186,373	113,197	0,094	-0,081
-185,358	-200,000	0,031	-0,137
-184,344	-38,622	0,107	-0,040
-183,329	175,805	-0,007	0,007
-182,315	26,816	0,083	-0,049
-181,300	517,820	-0,067	-0,113
-180,285	-122,039	-0,136	-0,016
-179,271	66,370	-0,155	0,112
-178,256	-200,000	0,025	-0,093
-177,242	57,155	-0,102	0,071
-176,227	-69,931	-0,099	0,027
-175,212	187,009	0,051	-0,054
-174,198	-53,090	0,052	-0,017
-173,183	104,400	-0,065	-0,054
-172,169	-135,043	-0,054	-0,005
-171,154	121,320	0,092	-0,082
-170,139	-44,433	0,067	-0,024
-169,125	-200,000	0,010	0,037
-168,110	31,599	-0,070	0,043
-167,096	-200,000	0,009	0,050
-166,081	-142,289	0,144	-0,010
-165,066	800,000	0,034	-0,079
-164,052	241,444	0,069	-0,083
-163,037	-157,878	0,145	0,006
-162,023	155,279	-0,014	0,014
-161,008	74,681	-0,013	0,010
-159,993	-137,393	0,177	0,014
-158,979	-200,000	0,013	-0,059
-157,964	266,430	0,051	-0,064
-156,950	-200,000	-0,001	0,040
-155,935	-200,000	-0,001	0,197
-154,920	441,982	0,014	0,023
-153,906	118,502	0,062	-0,055
-152,891	-200,000	-0,000	0,070
-151,877	-200,000	0,011	0,078
-150,862	68,547	-0,035	-0,026
-149,847	-91,207	0,068	0,014
-148,833	800,000	-0,025	0,061
-147,818	192,876	0,086	-0,093
-146,804	184,108	-0,101	-0,107
-145,789	-200,000	-0,013	-0,087
-144,775	-77,052	-0,222	-0,055
-143,760	-1,682	0,071	-0,036
-142,745	464,257	0,049	-0,078
-141,731	-90,798	0,064	0,013
-140,716	-106,967	-0,086	0,013
-139,702	-200,000	0,018	0,112
-138,687	-69,238	-0,231	0,063
-137,672	800,000	-0,017	-0,047
-136,658	-154,073	-0,047	0,002
-135,643	-11,081	0,021	-0,010
-134,629	800,000	-0,041	-0,095
-133,614	-96,183	0,050	0,009
-132,599	-200,000	-0,001	-0,033
-131,585	14,573	-0,135	0,075
-130,570	-21,893	0,166	-0,072
-129,556	-102,626	-0,108	-0,018
-128,541	106,952	-0,105	-0,088
-127,526	34,530	0,028	-0,017
-126,512	183,146	0,062	-0,065
-125,497	50,517	0,041	0,027
-124,483	37,099	0,118	0,074
-123,468	157,705	0,031	0,030
-122,453	-200,000	0,009	-0,154
-121,439	176,328	-0,091	-0,094
-120,424	164,538	0,079	-0,079
-119,410	-77,096	-0,030	-0,007
