DTS Sentinel unit serial number:	SN410029Multiplexer serial number:	ORYXHardware model number:	OX2-SRSoftware version number:	ORYX F/W v4,00 Oryx Data Collector v3.7.2.0data status	okinstallation	BH3 CH2differential loss correction	single-endedforward channel	channel 2reverse channel	N/Adate	2023/12/05time	11:22:28forward acquisition time	300,00reverse acquisition time	0,00gamma	499,1914k internal	0,3195k external	0,3195temperature offset calibration	1,0000default loss term (dB/km)	0,3820temperature slope calibration	1,0000multiplexer offset coefficient	1,0000multiplexer slope coefficient	1,0000fibre end	0,00T internal ref (°C)	9,69T ext. ref 1 (°C)	-5,10T ext. ref 2 (°C)	-5,18length (m)	temperature (°C)	Stokes	anti-Stokes-744,400	-200,000	-0,068	-0,242
-743,385	91,015	-0,212	0,173
-742,371	530,766	-0,039	-0,067
-741,356	-87,910	-0,347	0,075
-740,342	163,879	-0,138	-0,141
-739,327	2,662	-0,233	0,123
-738,312	228,599	0,037	-0,043
-737,298	-122,623	-0,145	-0,017
-736,283	49,620	-0,118	-0,081
-735,269	-69,267	-0,240	0,067
-734,254	686,656	-0,067	-0,129
-733,239	-141,342	-0,266	-0,019
-732,225	-41,607	0,061	0,023
-731,210	800,000	-0,036	0,110
-730,196	-135,649	0,073	0,006
-729,181	116,281	-0,085	-0,076
-728,167	-10,161	-0,105	0,050
-727,152	-200,000	0,001	0,041
-726,137	235,033	-0,079	-0,095
-725,123	800,000	-0,070	-0,142
-724,108	-65,886	-0,068	-0,020
-723,094	-200,000	-0,053	-0,188
-722,079	57,073	-0,068	-0,048
-721,064	-115,903	-0,027	-0,004
-720,050	48,860	-0,072	-0,049
-719,035	-74,080	-0,100	0,026
-718,021	-200,000	0,010	0,126
-717,006	-200,000	-0,012	0,064
-715,991	-50,304	-0,117	-0,040
-714,977	102,744	0,061	0,052
-713,962	308,829	0,081	0,111
-712,948	171,323	0,091	-0,095
-711,933	327,804	-0,094	0,131
-710,918	489,305	0,091	0,151
-709,904	51,387	-0,141	0,097
-708,889	351,214	-0,061	-0,088
-707,875	293,778	0,029	-0,038
-706,860	40,381	-0,025	-0,017
-705,845	-164,099	-0,064	0,002
-704,831	-81,004	-0,111	-0,027
-703,816	12,228	0,081	-0,045
-702,802	57,197	0,035	-0,025
-701,787	-200,000	-0,018	-0,126
-700,772	170,333	0,039	-0,040
-699,758	-200,000	-0,012	0,065
-698,743	800,000	0,008	0,023
-697,729	-82,340	-0,134	0,031
-696,714	-34,673	0,075	0,030
-695,699	77,876	0,020	0,016
-694,685	210,622	-0,078	-0,089
-693,670	-200,000	0,003	-0,077
-692,656	167,172	-0,024	-0,025
-691,641	-200,000	0,007	0,100
-690,627	417,565	-0,046	0,072
-689,612	543,101	0,044	0,076
-688,597	-81,592	0,170	-0,040
-687,583	-54,117	-0,073	-0,024
-686,568	-52,746	0,114	0,038
-685,554	-200,000	-0,007	0,032
-684,539	800,000	0,029	0,075
-683,524	800,000	0,057	0,131
-682,510	-20,989	-0,089	0,040
-681,495	-200,000	0,013	0,047
-680,481	-138,947	-0,083	-0,006
-679,466	389,956	-0,069	-0,104
-678,451	-200,000	0,020	-0,078
-677,437	27,829	-0,039	-0,024
-676,422	800,000	-0,018	-0,056
-675,408	-200,000	0,021	-0,072
-674,393	-112,065	0,041	0,006
-673,378	17,838	-0,098	-0,057
-672,364	-200,000	-0,019	0,081
-671,349	3,918	-0,134	-0,071
-670,335	4,220	0,065	-0,035
-669,320	-116,949	-0,138	-0,018
-668,305	-122,400	0,099	-0,012
-667,291	195,717	-0,020	-0,022
-666,276	800,000	-0,026	0,069
-665,262	-200,000	-0,201	-0,000
-664,247	-200,000	-0,002	-0,041
-663,232	277,054	-0,085	-0,110
-662,218	-129,052	0,078	0,008
-661,203	12,941	-0,071	-0,040
-660,189	-41,974	-0,031	-0,012
-659,174	-53,618	0,047	0,016
-658,159	800,000	-0,039	0,081
-657,145	-200,000	0,017	-0,118
-656,130	459,307	-0,075	0,121
-655,116	-25,476	0,016	-0,007
-654,101	-104,156	-0,084	0,014
-653,086	117,421	-0,076	-0,068
-652,072	504,244	0,016	0,027
-651,057	-4,610	-0,110	-0,055
-650,043	91,419	0,071	-0,058
-649,028	800,000	-0,111	-0,235
-648,014	-46,325	-0,052	-0,018
-646,999	800,000	0,034	0,092
-645,984	-200,000	0,025	0,095
-644,970	-21,359	-0,161	0,071
-643,955	157,965	-0,041	-0,041
-642,941	-68,834	-0,040	0,011
-641,926	800,000	0,030	0,068
-640,911	-3,242	-0,128	0,064
-639,897	-108,725	-0,115	-0,018
-638,882	-200,000	0,025	-0,102
-637,868	340,826	-0,051	0,073
-636,853	-200,000	0,020	-0,121
-635,838	-200,000	-0,009	0,098
-634,824	-64,930	-0,014	-0,004
-633,809	800,000	0,019	0,054
-632,795	-200,000	0,010	-0,056
-631,780	800,000	-0,025	-0,057
-630,765	-200,000	0,002	-0,095
-629,751	242,141	-0,003	0,003
-628,736	586,881	-0,105	-0,188
-627,722	-92,016	0,039	0,008
-626,707	-149,772	0,146	0,008
-625,692	-54,947	0,108	0,035
-624,678	800,000	0,042	0,116
-623,663	410,437	0,082	0,127
-622,649	21,130	0,017	-0,010
-621,634	-200,000	0,032	-0,190
-620,619	-200,000	-0,029	-0,141
-619,605	86,281	0,081	-0,065
-618,590	70,994	0,079	0,059
-617,576	8,795	-0,099	0,054
-616,561	288,943	-0,101	0,133
-615,546	-200,000	-0,028	-0,140
-614,532	800,000	-0,063	-0,149
-613,517	-34,860	0,053	-0,021
-612,503	-200,000	-0,012	0,076
-611,488	-200,000	0,016	-0,058
-610,474	92,659	-0,085	0,070
-609,459	-200,000	0,009	-0,054
-608,444	-200,000	-0,008	-0,075
-607,430	295,016	-0,031	-0,041
-606,415	-200,000	0,011	-0,058
-605,401	800,000	-0,040	-0,088
-604,386	79,709	-0,057	-0,045
-603,371	800,000	-0,032	0,092
-602,357	54,950	0,107	0,075
-601,342	120,600	-0,094	-0,084
-600,328	-47,702	-0,124	-0,043
-599,313	21,624	-0,084	-0,049
-598,298	464,021	0,064	-0,104
-597,284	-90,923	0,071	-0,015
-596,269	4,836	0,095	-0,050
-595,255	-200,000	0,012	0,081
-594,240	-132,624	0,088	-0,008
-593,225	-117,729	0,058	-0,007
-592,211	-73,636	-0,142	-0,037
-591,196	15,215	-0,097	0,055
-590,182	19,054	0,086	0,050
-589,167	158,507	-0,036	0,037
-588,152	53,103	-0,150	0,104
-587,138	800,000	0,042	-0,101
-586,123	-200,000	0,005	-0,059
-585,109	-116,853	-0,169	-0,022
-584,094	-200,000	-0,018	0,068
-583,079	-38,586	0,151	0,057
-582,065	-27,959	-0,090	-0,038
-581,050	35,351	-0,115	0,073
-580,036	-200,000	0,032	-0,157
-579,021	39,277	-0,161	-0,104
-578,006	-200,000	-0,010	-0,056
-576,992	-41,560	-0,059	-0,022
-575,977	219,932	0,050	-0,058
-574,963	34,336	0,133	0,084
-573,948	800,000	-0,022	0,071
-572,934	-200,000	0,049	0,276
-571,919	-200,000	-0,021	-0,136
-570,904	-200,000	-0,014	0,114
-569,890	-200,000	0,010	-0,106
-568,875	800,000	-0,017	0,039
-567,861	159,898	0,065	0,065
-566,846	-200,000	0,001	0,032
-565,831	-200,000	0,009	-0,036
-564,817	684,672	0,052	0,098
-563,802	800,000	-0,048	-0,118
-562,788	-200,000	-0,003	-0,102
-561,773	86,327	-0,068	0,054
-560,758	800,000	0,054	0,159
-559,744	52,947	0,037	0,026
-558,729	523,882	-0,056	-0,096
-557,715	-200,000	0,017	0,094
-556,700	761,799	-0,033	-0,065
-555,685	-56,163	-0,182	-0,058
-554,671	-200,000	0,010	-0,105
-553,656	800,000	0,052	0,119
-552,642	800,000	0,058	0,127
-551,627	-56,723	-0,200	0,063
-550,612	800,000	0,034	-0,079
-549,598	-36,414	-0,043	-0,017
-548,583	800,000	0,052	-0,122
-547,569	128,409	-0,116	0,107
-546,554	-171,710	0,124	-0,003
-545,539	-200,000	-0,021	0,072
-544,525	-200,000	-0,017	0,065
-543,510	-101,409	0,120	-0,021
-542,496	800,000	-0,013	0,028
-541,481	800,000	0,033	-0,104
-540,466	-78,220	0,067	-0,017
-539,452	-50,522	0,126	-0,043
-538,437	800,000	0,014	0,041
-537,423	112,808	0,169	0,148
-536,408	-25,126	-0,174	-0,074
-535,393	-59,759	-0,072	-0,022
-534,379	-78,516	-0,115	0,028
-533,364	-118,472	-0,106	-0,013
-532,350	706,323	0,075	0,145
-531,335	-68,336	0,045	-0,013
-530,321	428,941	-0,068	0,106
-529,306	-200,000	0,010	0,061
-528,291	736,438	-0,045	-0,088
-527,277	-200,000	-0,010	-0,038
-526,262	787,258	-0,030	0,060
-525,248	-200,000	0,001	0,065
-524,233	800,000	0,054	0,141
-523,218	74,756	-0,126	0,096
-522,204	217,006	-0,084	0,097
-521,189	-188,243	-0,210	-0,002
-520,175	262,995	-0,062	-0,078
-519,160	760,108	0,016	0,032
-518,145	-54,416	-0,075	0,025
-517,131	-5,047	0,118	0,059
-516,116	-48,524	0,064	-0,022
-515,102	384,785	0,048	-0,072
-514,087	167,003	-0,013	0,013
-513,072	205,051	0,021	0,023
-512,058	-119,762	0,097	0,012
-511,043	540,682	-0,027	0,047
-510,029	-42,529	-0,058	0,021
-509,014	-41,869	0,032	0,012
-507,999	800,000	0,045	0,098
-506,985	-117,162	-0,155	-0,020
-505,970	-81,119	-0,037	-0,009
-504,956	800,000	-0,076	0,209
-503,941	-71,507	0,121	0,033
-502,926	-137,606	0,008	0,001
-501,912	-14,070	0,087	-0,041
-500,897	10,622	-0,030	-0,016
-499,883	744,305	0,016	0,031
-498,868	-200,000	0,002	-0,041
-497,853	-200,000	-0,023	0,074
-496,839	-35,971	-0,023	-0,009
-495,824	73,838	0,095	0,072
-494,810	-200,000	0,039	0,171
-493,795	735,016	0,008	0,015
-492,781	-200,000	-0,032	0,189
-491,766	-200,000	-0,015	-0,120
-490,751	168,841	-0,062	0,064
-489,737	155,417	-0,025	-0,025
-488,722	-33,468	-0,017	-0,007
-487,708	774,136	0,028	-0,055
-486,693	-116,793	0,091	0,012
-485,678	-200,000	-0,009	-0,064
-484,664	-85,537	-0,096	-0,021
-483,649	735,248	0,028	0,054
-482,635	-27,029	0,083	0,035
-481,620	-200,000	0,011	-0,104
-480,605	-47,070	0,170	0,059
-479,591	235,321	-0,037	0,044
-478,576	-80,234	-0,156	-0,037
-477,562	-125,317	-0,124	-0,013
-476,547	-200,000	-0,035	-0,115
-475,532	-200,000	0,030	0,118
-474,518	214,265	-0,063	0,072
-473,503	-0,103	0,074	0,038
-472,489	-88,704	-0,017	-0,004
-471,474	236,852	-0,036	-0,043
-470,459	121,468	0,061	0,055
-469,445	-15,247	0,080	-0,037
-468,430	-85,292	0,037	0,008
-467,416	-200,000	-0,017	0,078
-466,401	292,919	0,121	-0,160
-465,386	67,129	-0,083	0,061
-464,372	-53,479	-0,117	-0,038
-463,357	314,272	-0,085	-0,115
-462,343	41,811	-0,080	0,052
-461,328	-132,409	0,164	0,015
-460,313	-200,000	-0,006	0,047
-459,299	-131,084	-0,100	-0,009
-458,284	-12,404	0,051	0,024
-457,270	-16,248	0,080	-0,036
-456,255	761,263	-0,038	-0,075
-455,241	704,543	-0,024	0,046
-454,226	-67,701	-0,109	-0,031
-453,211	201,268	0,062	-0,069
-452,197	50,868	0,084	-0,057
-451,182	405,403	-0,047	-0,071
-450,168	-73,538	-0,067	0,017
-449,153	339,717	0,066	-0,093
-448,138	82,834	0,099	-0,077
-447,124	45,802	-0,042	-0,028
-446,109	-17,747	0,027	0,012
-445,095	-159,886	0,034	0,001
-444,080	800,000	0,067	0,173
-443,065	731,304	-0,023	0,045
-442,051	300,262	0,074	0,099
-441,036	-111,325	0,114	0,017
-440,022	-100,269	-0,099	-0,018
-439,007	524,374	-0,066	-0,112
-437,992	-74,699	-0,034	-0,009
-436,978	-32,436	0,018	0,007
-435,963	107,250	0,078	-0,067
-434,949	143,157	-0,055	-0,053
-433,934	-55,742	-0,130	-0,042
-432,919	-163,301	-0,081	0,003
-431,905	-170,593	0,116	-0,003
-430,890	26,636	-0,041	-0,024
-429,876	718,685	0,043	-0,082
-428,861	-7,610	-0,074	-0,036
-427,846	44,693	0,148	-0,098
-426,832	-200,000	0,014	-0,095
-425,817	-200,000	0,028	-0,130
-424,803	-63,892	0,157	0,046
-423,788	79,375	-0,110	-0,085
-422,773	612,704	-0,024	0,043
-421,759	-153,821	0,052	-0,003
-420,744	32,605	-0,070	-0,043
-419,730	476,573	0,042	-0,069
-418,715	-150,873	-0,092	-0,005
-417,701	10,939	0,035	0,019
-416,686	35,192	0,043	-0,027
-415,671	-119,932	-0,060	0,007
-414,657	-159,228	0,115	0,005
-413,642	151,116	-0,053	-0,052
-412,628	800,000	0,052	-0,110
-411,613	-200,000	0,036	-0,118
-410,598	-66,809	-0,117	0,033
-409,584	223,615	-0,053	-0,062
-408,569	800,000	-0,009	-0,018
-407,555	259,345	0,070	0,087
-406,540	83,497	0,057	-0,044
-405,525	589,143	-0,028	0,050
-404,511	126,815	-0,086	-0,078
-403,496	396,058	0,055	-0,083
-402,482	308,757	0,102	-0,137
-401,467	605,317	0,058	0,105
-400,452	222,110	-0,035	0,041
-399,438	561,866	-0,058	0,101
-398,423	-116,700	0,070	0,009
-397,409	50,360	-0,119	0,081
-396,394	370,017	-0,017	0,024
-395,379	686,051	-0,005	-0,009
-394,365	-21,664	0,102	-0,045
-393,350	-156,622	0,073	0,003
-392,336	-35,152	0,116	0,045
-391,321	244,130	0,012	-0,014
-390,306	6,511	0,028	0,015
-389,292	-43,415	-0,039	0,014
-388,277	-200,000	0,009	0,033
-387,263	-200,000	0,031	0,117
-386,248	800,000	-0,018	0,040
-385,233	-19,472	0,110	-0,049
-384,219	421,187	-0,038	0,058
-383,204	-46,260	-0,082	-0,029
-382,190	-18,966	0,101	0,045
-381,175	112,605	0,028	-0,024
-380,160	-8,529	0,066	-0,032
-379,146	263,893	-0,045	0,056
-378,131	-32,131	0,053	-0,021
-377,117	74,279	-0,025	0,019
-376,102	800,000	-0,055	-0,129
-375,088	181,602	-0,098	-0,104
-374,073	-95,988	0,065	0,012
-373,058	778,812	-0,031	0,060
-372,044	684,898	0,033	-0,062
-371,029	800,000	0,029	0,085
-370,015	122,634	-0,085	0,076
-369,000	632,258	0,092	-0,168
-367,985	-187,193	-0,252	0,002
-366,971	-200,000	0,013	0,072
-365,956	800,000	0,036	0,112
-364,942	128,130	0,032	0,029
-363,927	800,000	-0,017	-0,040
-362,912	-8,037	0,088	0,043
-361,898	88,230	-0,050	0,040
-360,883	-200,000	-0,013	-0,154
-359,869	-184,297	-0,017	-0,000
-358,854	-80,243	0,138	0,033
-357,839	-105,526	0,078	0,013
-356,825	88,966	0,144	0,115
-355,810	-55,500	-0,046	0,015
-354,796	-177,332	0,073	0,001
-353,781	432,783	-0,103	-0,161
-352,766	-76,104	0,039	0,010
-351,752	800,000	0,059	-0,140
-350,737	-200,000	0,014	-0,062
-349,723	10,287	-0,095	0,052
-348,708	-36,353	0,058	-0,022
-347,693	-200,000	-0,016	-0,073
-346,679	-200,000	0,004	-0,032
-345,664	4,389	0,006	-0,003
-344,650	23,808	0,069	0,040
-343,635	9,655	0,047	-0,026
-342,620	-147,121	-0,049	-0,003
-341,606	-200,000	-0,005	-0,085
-340,591	800,000	-0,048	0,097
-339,577	655,345	0,077	0,143
-338,562	-65,939	-0,156	-0,045
-337,548	267,963	-0,059	-0,074
-336,533	-33,630	0,038	-0,015
-335,518	-18,968	-0,056	-0,025
-334,504	2,816	0,084	0,043
-333,489	-200,000	-0,022	-0,078
-332,475	-102,311	0,183	-0,031
-331,460	745,464	-0,033	-0,064
-330,445	493,353	0,013	0,021
-329,431	-63,115	0,028	-0,008
-328,416	26,356	-0,047	0,028
-327,402	-27,158	0,022	-0,009
-326,387	-129,528	0,107	-0,011
-325,372	-110,858	0,072	0,010
-324,358	76,634	0,035	-0,027
-323,343	-167,508	-0,066	0,002
-322,329	18,499	-0,110	-0,063
-321,314	-200,000	0,050	0,161
-320,299	3,447	-0,088	0,046
-319,285	281,829	0,073	-0,094
-318,270	-25,682	0,093	-0,039
-317,256	576,291	-0,077	0,135
-316,241	800,000	0,021	0,043
-315,226	448,627	0,097	0,154
-314,212	598,813	0,047	0,084
-313,197	800,000	0,031	0,077
-312,183	-47,503	0,036	-0,012
-311,168	-133,316	-0,105	0,009
-310,153	144,908	0,043	0,041
-309,139	11,858	-0,128	0,070
-308,124	-200,000	0,002	0,126
-307,110	103,391	0,091	-0,077
-306,095	161,696	0,138	0,139
-305,080	-8,084	-0,164	0,079
-304,066	308,016	0,016	-0,022
-303,051	-200,000	-0,002	-0,143
-302,037	-55,806	0,104	0,033
-301,022	155,174	0,080	0,079
-300,008	392,306	0,018	-0,027
-298,993	-200,000	0,007	0,102
-297,978	787,139	-0,070	0,138
-296,964	-177,276	-0,117	-0,002
-295,949	-132,429	0,051	0,005
-294,935	798,191	-0,071	-0,140
-293,920	-200,000	0,012	0,079
-292,905	-17,406	0,066	0,030
-291,891	-84,977	0,070	-0,016
-290,876	-128,143	-0,004	-0,000
-289,862	-21,905	0,079	-0,034
-288,847	495,464	-0,038	-0,063
-287,832	466,226	0,125	0,201
-286,818	-200,000	0,012	0,054
-285,803	85,936	0,079	0,062
-284,789	-200,000	0,006	0,077
-283,774	66,401	0,104	0,076
-282,759	-143,518	-0,074	-0,005
-281,745	63,756	-0,135	-0,097
-280,730	608,289	-0,052	-0,092
-279,716	800,000	0,028	0,061
-278,701	30,927	0,117	0,072
-277,686	-143,032	0,162	-0,011
-276,672	284,848	-0,089	0,115
-275,657	-15,702	-0,073	-0,033
-274,643	-200,000	-0,009	0,082
-273,628	800,000	-0,055	-0,123
-272,613	206,986	-0,047	-0,052
-271,599	-161,795	0,078	0,003
-270,584	-200,000	0,008	0,036
-269,570	-10,141	0,108	-0,051
-268,555	-200,000	0,002	0,043
-267,540	-200,000	0,000	0,026
-266,526	800,000	-0,091	-0,241
-265,511	-52,003	0,051	-0,017
-264,497	95,945	0,093	0,076
-263,482	188,388	0,023	0,025
-262,467	800,000	0,022	-0,058
-261,453	-200,000	-0,013	-0,176
-260,438	-64,824	-0,043	-0,012
-259,424	-8,459	-0,135	-0,065
-258,409	34,058	0,099	0,061
-257,395	48,076	-0,035	0,023
-256,380	-82,894	0,055	0,013
-255,365	-200,000	0,007	0,033
-254,351	45,904	-0,153	0,101
-253,336	99,520	-0,053	-0,043
-252,322	-56,755	0,099	-0,031
-251,307	51,340	-0,022	-0,015
-250,292	-200,000	0,001	0,059
-249,278	-200,000	-0,009	0,055
-248,263	26,723	0,124	-0,074
-247,249	-118,129	-0,044	0,006
-246,234	-200,000	0,002	-0,074
-245,219	-37,476	-0,102	0,039
-244,205	-10,938	0,051	0,024
-243,190	328,856	0,076	-0,105
-242,176	-146,854	0,051	-0,003
-241,161	294,347	0,077	0,101
-240,146	-107,659	0,096	-0,015
-239,132	653,890	0,061	-0,113
-238,117	31,441	-0,177	0,109
-237,103	-200,000	0,006	-0,082
-236,088	-85,156	-0,112	-0,025
-235,073	573,850	-0,077	0,135
-234,059	-155,371	-0,091	0,004
-233,044	582,620	0,079	0,138
-232,030	-67,514	-0,132	0,037
-231,015	-39,706	-0,060	-0,022
-230,000	171,375	0,046	-0,047
-228,986	-200,000	-0,054	0,214
-227,971	639,919	0,041	-0,074
-226,957	-97,689	-0,045	-0,008
-225,942	-71,735	0,143	-0,038
-224,927	-65,750	-0,089	-0,025
-223,913	-76,218	-0,043	-0,011
-222,898	-65,821	-0,109	-0,031
-221,884	464,654	0,062	-0,100
-220,869	246,981	-0,093	-0,112
-219,855	-105,605	0,145	0,023
-218,840	-200,000	0,010	-0,162
-217,825	-23,137	0,040	0,017
-216,811	-200,000	-0,022	0,078
-215,796	153,286	0,124	-0,122
-214,782	217,412	0,137	-0,156
-213,767	800,000	0,066	-0,181
-212,752	10,127	0,131	-0,071
-211,738	-200,000	0,015	0,137
-210,723	45,013	-0,045	-0,030
-209,709	-93,762	-0,133	-0,026
-208,694	-102,334	-0,121	0,021
-207,679	104,253	0,054	-0,045
-206,665	309,772	0,030	-0,040
-205,650	-200,000	0,011	-0,056
-204,636	50,895	0,053	0,036
-203,621	140,496	0,069	-0,065
-202,606	31,323	-0,178	-0,109
-201,592	8,092	-0,024	-0,013
-200,577	-111,618	0,044	0,006
-199,563	-200,000	-0,007	0,076
-198,548	190,945	-0,029	-0,031
-197,533	-67,128	-0,035	0,010
-196,519	88,401	0,068	-0,054
-195,504	-199,452	0,097	0,000
-194,490	21,865	-0,031	-0,018
-193,475	587,118	-0,053	-0,094
-192,460	-122,974	0,023	0,003
-191,446	92,085	-0,078	0,062
-190,431	82,591	0,075	-0,058
-189,417	-200,000	0,003	0,049
-188,402	121,140	0,077	0,069
-187,387	800,000	0,058	-0,161
-186,373	214,640	-0,030	-0,034
-185,358	196,160	0,066	0,071
-184,344	213,199	-0,041	0,046
-183,329	-200,000	0,008	-0,041
-182,315	-200,000	-0,016	0,057
-181,300	-129,617	0,076	-0,007
-180,285	-8,733	-0,046	-0,022
-179,271	-102,110	0,021	-0,004
-178,256	88,050	0,064	-0,050
-177,242	-47,111	0,048	-0,017
-176,227	166,308	-0,031	0,031
-175,212	-129,164	-0,143	0,014
-174,198	88,038	-0,027	-0,022
-173,183	-200,000	0,025	0,174
-172,169	24,038	-0,211	-0,124
-171,154	73,783	0,038	0,028
-170,139	-200,000	-0,003	0,074
-169,125	800,000	0,052	0,146
-168,110	-200,000	-0,028	0,121
-167,096	-11,150	-0,091	0,042
-166,081	-134,750	0,036	-0,003
-165,066	-200,000	-0,008	-0,118
-164,052	-2,350	0,063	-0,031
-163,037	-73,954	-0,024	-0,006
-162,023	207,946	0,069	0,077
-161,008	-200,000	-0,034	0,139
-159,993	-41,520	-0,134	0,049
-158,979	800,000	-0,055	-0,169
-157,964	74,010	0,103	-0,077
-156,950	69,560	-0,104	-0,076
-155,935	-55,032	-0,073	-0,023
-154,920	800,000	0,095	0,209
-153,906	396,132	-0,083	0,124
-152,891	-35,026	0,077	-0,030
-151,877	514,010	0,020	0,034
-150,862	196,445	0,007	0,007
-149,847	536,480	0,041	-0,070
-148,833	-104,377	0,096	0,016
-147,818	-52,888	-0,124	0,041
-146,804	21,163	-0,136	-0,078
-145,789	-200,000	0,009	-0,124
-144,775	228,757	0,090	-0,105
-143,760	-200,000	-0,038	0,135
-142,745	-33,378	-0,032	0,013
-141,731	324,754	-0,093	-0,126
-140,716	97,024	0,041	0,034
-139,702	-138,780	0,165	0,013
-138,687	-200,000	-0,018	0,085
-137,672	-200,000	-0,007	0,063
-136,658	211,333	-0,091	-0,101
-135,643	-100,223	0,020	0,004
-134,629	171,669	0,059	0,061
-133,614	186,874	-0,033	0,035
-132,599	800,000	-0,032	0,086
-131,585	81,471	0,060	-0,046
-130,570	-143,065	0,047	-0,003
-129,556	-5,440	-0,169	-0,082
-128,541	139,499	-0,055	-0,052
-127,526	-44,917	-0,037	-0,013
-126,512	589,658	-0,029	0,050
-125,497	-67,456	0,182	-0,050
-124,483	-79,815	0,103	-0,024
-123,468	237,823	0,080	0,095
-122,453	616,971	0,030	-0,054
-121,439	-159,710	-0,049	-0,002
-120,424	420,235	0,082	0,126
-119,410	85,330	0,038	-0,030
-118,395	263,120	0,065	-0,080
