DTS Sentinel unit serial number:	SN410029Multiplexer serial number:	ORYXHardware model number:	OX2-SRSoftware version number:	ORYX F/W v4,00 Oryx Data Collector v3.7.2.0data status	okinstallation	BH3 CH2differential loss correction	single-endedforward channel	channel 2reverse channel	N/Adate	2023/12/05time	21:47:28forward acquisition time	300,00reverse acquisition time	0,00gamma	499,1914k internal	0,3193k external	0,3193temperature offset calibration	1,0000default loss term (dB/km)	0,3820temperature slope calibration	1,0000multiplexer offset coefficient	1,0000multiplexer slope coefficient	1,0000fibre end	0,00T internal ref (°C)	10,19T ext. ref 1 (°C)	-4,82T ext. ref 2 (°C)	-4,93length (m)	temperature (°C)	Stokes	anti-Stokes-744,400	-135,930	-0,054	0,005
-743,385	-53,601	-0,197	0,065
-742,371	-21,647	-0,051	0,022
-741,356	386,331	-0,129	0,195
-740,342	800,000	0,013	-0,028
-739,327	-71,551	-0,197	0,053
-738,312	69,239	-0,032	-0,024
-737,298	31,033	-0,267	0,166
-736,283	227,861	0,096	-0,115
-735,269	24,972	-0,202	0,122
-734,254	597,236	0,057	-0,103
-733,239	-68,777	-0,324	-0,091
-732,225	-97,110	0,033	0,006
-731,210	33,759	0,115	0,073
-730,196	208,108	-0,061	-0,070
-729,181	800,000	-0,040	-0,113
-728,167	231,402	-0,051	0,061
-727,152	198,453	-0,065	-0,073
-726,137	344,504	-0,047	-0,068
-725,123	327,606	-0,043	-0,060
-724,108	-49,152	-0,177	-0,061
-723,094	-200,000	-0,024	-0,103
-722,079	109,279	0,060	0,053
-721,064	-94,787	0,061	-0,012
-720,050	-138,305	-0,079	0,006
-719,035	58,287	0,071	-0,051
-718,021	13,639	0,038	-0,021
-717,006	255,461	-0,132	-0,165
-715,991	800,000	-0,080	-0,181
-714,977	800,000	-0,065	-0,184
-713,962	-200,000	-0,030	0,125
-712,948	595,026	-0,063	0,114
-711,933	-139,156	0,068	0,005
-710,918	-200,000	-0,006	-0,122
-709,904	413,845	0,036	-0,056
-708,889	172,572	-0,101	-0,106
-707,875	-50,164	0,025	0,009
-706,860	263,704	-0,038	-0,048
-705,845	183,041	-0,068	-0,073
-704,831	-200,000	0,010	0,136
-703,816	57,344	-0,048	-0,034
-702,802	425,347	-0,007	-0,012
-701,787	800,000	-0,069	-0,191
-700,772	800,000	-0,008	-0,020
-699,758	107,865	-0,126	-0,109
-698,743	140,879	0,052	0,050
-697,729	-200,000	0,014	-0,171
-696,714	47,157	0,062	0,042
-695,699	587,752	0,093	-0,167
-694,685	-119,450	-0,145	-0,018
-693,670	48,601	-0,086	-0,059
-692,656	517,265	0,055	-0,095
-691,641	741,457	-0,037	0,073
-690,627	499,782	-0,020	-0,034
-689,612	-200,000	0,016	-0,112
-688,597	5,848	-0,058	0,031
-687,583	395,157	0,040	-0,061
-686,568	-199,705	0,084	0,000
-685,554	800,000	-0,058	-0,140
-684,539	296,206	0,047	-0,063
-683,524	800,000	-0,018	-0,049
-682,510	162,845	-0,054	-0,055
-681,495	800,000	0,037	-0,075
-680,481	593,315	0,019	-0,034
-679,466	162,287	-0,098	-0,100
-678,451	-13,216	0,076	0,036
-677,437	232,429	0,042	-0,050
-676,422	-200,000	-0,015	0,090
-675,408	64,016	0,069	-0,050
-674,393	-56,308	-0,106	-0,034
-673,378	-114,985	-0,077	0,010
-672,364	-124,070	-0,092	0,010
-671,349	-200,000	0,027	-0,142
-670,335	-36,298	0,152	0,059
-669,320	8,804	0,172	0,094
-668,305	-21,921	-0,046	0,020
-667,291	-10,917	0,064	0,030
-666,276	-36,962	-0,082	-0,032
-665,262	800,000	0,039	-0,101
-664,247	97,453	-0,090	0,075
-663,232	-200,000	-0,008	-0,036
-662,218	-200,000	0,003	0,012
-661,203	800,000	0,036	0,091
-660,189	15,645	-0,046	0,026
-659,174	54,417	0,140	-0,098
-658,159	-132,381	-0,113	0,010
-657,145	800,000	-0,013	-0,030
-656,130	800,000	0,019	0,040
-655,116	646,718	-0,020	0,038
-654,101	-9,363	0,047	0,023
-653,086	-137,699	-0,150	-0,012
-652,072	800,000	-0,068	-0,143
-651,057	800,000	-0,064	-0,201
-650,043	-19,261	0,069	-0,031
-649,028	199,777	-0,056	0,062
-648,014	-148,919	0,069	0,004
-646,999	75,730	-0,056	-0,043
-645,984	800,000	0,061	-0,155
-644,970	-200,000	0,008	0,109
-643,955	214,477	0,051	-0,059
-642,941	-112,741	-0,187	0,027
-641,926	-144,412	0,024	0,002
-640,911	-76,140	0,059	-0,015
-639,897	-53,296	-0,215	-0,071
-638,882	-134,867	-0,067	-0,006
-637,868	751,105	0,114	-0,225
-636,853	-48,807	-0,141	-0,049
-635,838	239,972	0,104	-0,126
-634,824	-107,380	-0,053	-0,008
-633,809	99,977	-0,022	-0,018
-632,795	-83,205	0,072	-0,017
-631,780	19,924	-0,133	0,077
-630,765	-10,768	-0,011	-0,005
-629,751	-193,647	-0,129	-0,001
-628,736	166,529	0,027	0,027
-627,722	15,307	0,059	0,034
-626,707	800,000	-0,083	-0,169
-625,692	-69,554	0,080	-0,022
-624,678	-200,000	0,005	-0,087
-623,663	-200,000	-0,017	-0,068
-622,649	-200,000	0,031	-0,161
-621,634	-200,000	-0,004	-0,054
-620,619	-60,250	-0,055	0,017
-619,605	800,000	0,012	0,030
-618,590	-75,456	-0,122	-0,031
-617,576	800,000	0,008	-0,018
-616,561	347,375	-0,024	-0,035
-615,546	613,265	-0,080	-0,146
-614,532	-200,000	-0,010	-0,143
-613,517	524,577	-0,101	-0,172
-612,503	-200,000	0,007	0,048
-611,488	-131,062	-0,102	-0,010
-610,474	197,379	-0,063	0,069
-609,459	800,000	-0,061	0,129
-608,444	800,000	0,051	0,118
-607,430	-200,000	-0,001	-0,072
-606,415	-55,704	0,050	-0,016
-605,401	800,000	0,044	0,135
-604,386	-200,000	-0,011	0,088
-603,371	-92,902	-0,026	-0,005
-602,357	288,864	-0,052	-0,068
-601,342	-200,000	0,026	0,163
-600,328	800,000	-0,040	-0,099
-599,313	369,737	-0,008	0,011
-598,298	-122,838	0,067	0,008
-597,284	800,000	0,024	0,056
-596,269	747,495	-0,004	0,008
-595,255	800,000	-0,043	0,097
-594,240	-200,000	0,006	0,038
-593,225	-200,000	0,005	-0,053
-592,211	800,000	-0,007	0,016
-591,196	138,588	-0,081	-0,077
-590,182	-200,000	0,143	-0,000
-589,167	19,483	-0,111	-0,064
-588,152	-117,294	0,012	-0,001
-587,138	306,334	-0,051	0,070
-586,123	-162,039	-0,111	-0,004
-585,109	-153,247	0,087	-0,004
-584,094	-113,141	-0,183	0,026
-583,079	-79,255	0,047	-0,012
-582,065	634,195	0,065	-0,121
-581,050	424,749	-0,100	-0,157
-580,036	442,894	0,092	-0,147
-579,021	83,925	-0,042	-0,033
-578,006	-112,898	-0,075	0,011
-576,992	424,261	-0,053	-0,082
-575,977	-47,477	0,068	0,024
-574,963	-200,000	-0,016	0,121
-573,948	800,000	-0,007	0,019
-572,934	602,739	0,021	-0,038
-571,919	514,845	-0,026	0,044
-570,904	-73,319	-0,028	-0,007
-569,890	800,000	-0,004	0,011
-568,875	-9,950	0,009	0,004
-567,861	585,780	0,089	-0,160
-566,846	-108,586	0,169	-0,026
-565,831	-200,000	0,039	-0,140
-564,817	247,836	-0,123	-0,151
-563,802	-200,000	0,001	-0,047
-562,788	-46,771	0,145	-0,051
-561,773	-52,003	-0,130	0,044
-560,758	-200,000	-0,008	-0,039
-559,744	481,529	0,021	-0,035
-558,729	-163,307	-0,185	-0,006
-557,715	304,915	-0,047	-0,063
-556,700	122,737	-0,047	-0,042
-555,685	-81,284	0,154	0,036
-554,671	-23,081	0,058	0,025
-553,656	-146,136	-0,103	-0,006
-552,642	800,000	-0,038	0,094
-551,627	800,000	0,065	0,164
-550,612	-200,000	0,012	-0,143
-549,598	3,498	0,075	-0,040
-548,583	24,943	0,137	-0,082
-547,569	-200,000	0,021	0,111
-546,554	759,764	-0,029	-0,058
-545,539	-200,000	0,030	0,109
-544,525	65,720	-0,145	0,106
-543,510	-120,501	-0,045	-0,005
-542,496	-88,887	-0,081	-0,017
-541,481	-200,000	-0,031	-0,135
-540,466	45,723	0,086	-0,058
-539,452	44,944	-0,064	0,042
-538,437	261,989	0,021	0,026
-537,423	-200,000	-0,003	-0,046
-536,408	-150,208	-0,114	-0,006
-535,393	-200,000	-0,019	-0,065
-534,379	800,000	0,031	0,087
-533,364	-69,365	0,101	0,028
-532,350	-200,000	-0,018	0,080
-531,335	188,485	-0,059	0,063
-530,321	217,697	-0,061	-0,071
-529,306	90,747	0,047	0,038
-528,291	-82,195	-0,059	-0,014
-527,277	419,655	0,074	-0,115
-526,262	-84,764	-0,095	-0,022
-525,248	527,004	-0,045	0,076
-524,233	-200,000	0,028	0,107
-523,218	260,740	-0,075	-0,094
-522,204	-200,000	-0,010	-0,075
-521,189	-42,065	-0,088	-0,032
-520,175	800,000	-0,016	0,046
-519,160	109,534	0,029	0,025
-518,145	-196,786	0,065	0,000
-517,131	84,446	-0,003	-0,003
-516,116	205,149	0,084	0,094
-515,102	337,896	0,007	-0,010
-514,087	240,264	-0,032	-0,039
-513,072	67,486	-0,056	-0,041
-512,058	-88,265	-0,039	0,008
-511,043	-38,721	0,095	0,036
-510,029	168,677	0,032	0,032
-509,014	61,332	0,090	0,065
-507,999	-58,221	-0,076	0,024
-506,985	-200,000	0,005	-0,055
-505,970	-22,347	-0,206	-0,090
-504,956	800,000	-0,046	0,101
-503,941	69,516	0,165	0,122
-502,926	-200,000	0,008	0,123
-501,912	238,347	-0,111	0,133
-500,897	102,232	-0,067	-0,057
-499,883	130,801	0,029	-0,027
-498,868	276,047	0,057	0,073
-497,853	142,293	-0,064	0,061
-496,839	64,455	-0,044	-0,032
-495,824	800,000	0,033	0,073
-494,810	-55,384	-0,115	0,037
-493,795	-200,000	0,013	0,144
-492,781	-37,770	0,067	0,026
-491,766	13,649	0,033	0,018
-490,751	350,267	0,055	-0,078
-489,737	-93,939	0,044	-0,009
-488,722	-200,000	0,016	0,094
-487,708	-50,758	0,039	-0,013
-486,693	74,108	0,093	0,071
-485,678	-53,504	-0,076	-0,025
-484,664	800,000	-0,007	-0,020
-483,649	-36,472	-0,080	-0,031
-482,635	233,931	0,053	0,064
-481,620	-200,000	0,001	0,089
-480,605	-87,335	0,087	0,019
-479,591	800,000	-0,056	0,120
-478,576	800,000	-0,065	0,141
-477,562	-200,000	0,004	-0,031
-476,547	437,942	-0,018	-0,028
-475,532	218,370	-0,051	0,059
-474,518	-26,458	-0,037	0,016
-473,503	49,106	0,181	0,122
-472,489	800,000	0,023	-0,065
-471,474	33,667	0,156	0,098
-470,459	-68,565	-0,114	0,032
-469,445	33,159	-0,078	0,049
-468,430	56,653	0,080	0,056
-467,416	-200,000	-0,020	-0,146
-466,401	-200,000	0,001	0,062
-465,386	-198,862	-0,006	0,000
-464,372	242,456	-0,081	-0,098
-463,357	-61,339	-0,083	-0,025
-462,343	88,907	-0,132	-0,106
-461,328	19,425	0,072	0,042
-460,313	117,339	-0,015	0,014
-459,299	-200,000	-0,002	-0,083
-458,284	53,772	0,014	0,010
-457,270	97,007	-0,118	0,097
-456,255	-112,975	0,031	-0,004
-455,241	800,000	0,015	-0,034
-454,226	43,000	-0,039	0,025
-453,211	-2,374	0,154	-0,077
-452,197	-132,589	0,025	-0,002
-451,182	-200,000	0,032	0,133
-450,168	800,000	-0,012	0,025
-449,153	314,875	0,042	-0,057
-448,138	800,000	-0,071	-0,162
-447,124	-200,000	-0,005	-0,039
-446,109	64,321	0,029	0,021
-445,095	-200,000	0,007	0,023
-444,080	27,079	0,111	0,067
-443,065	151,662	0,056	0,055
-442,051	-200,000	-0,016	-0,061
-441,036	44,723	0,029	-0,019
-440,022	4,153	-0,102	-0,053
-439,007	-200,000	-0,023	-0,107
-437,992	-13,892	0,083	0,038
-436,978	800,000	0,010	-0,031
-435,963	38,593	0,090	0,058
-434,949	282,561	-0,115	-0,149
-433,934	276,256	0,059	0,076
-432,919	-200,000	-0,008	0,077
-431,905	25,591	-0,058	0,035
-430,890	-54,307	0,062	0,020
-429,876	-135,607	-0,124	-0,010
-428,861	-31,725	0,042	0,017
-427,846	-200,000	0,001	-0,030
-426,832	800,000	-0,023	-0,057
-425,817	304,504	0,013	0,017
-424,803	596,533	-0,022	0,040
-423,788	-46,700	0,085	-0,030
-422,773	-108,487	-0,086	0,013
-421,759	1,878	0,026	0,013
-420,744	-81,849	-0,069	0,016
-419,730	150,384	-0,020	0,020
-418,715	-132,201	0,088	-0,008
-417,701	-1,509	-0,068	-0,034
-416,686	-200,000	0,001	-0,012
-415,671	749,708	0,036	0,071
-414,657	-25,626	0,036	-0,015
-413,642	53,318	0,048	0,033
-412,628	700,810	0,024	0,047
-411,613	54,333	-0,076	0,053
-410,598	536,558	0,033	-0,056
-409,584	-12,265	-0,045	0,021
-408,569	800,000	0,065	0,142
-407,555	365,231	-0,048	0,070
-406,540	-138,660	-0,053	-0,004
-405,525	800,000	-0,044	-0,123
-404,511	305,779	-0,108	-0,145
-403,496	-130,085	-0,178	0,017
-402,482	-200,000	0,003	-0,039
-401,467	-124,540	0,103	0,011
-400,452	800,000	-0,011	-0,036
-399,438	-51,361	-0,184	0,062
-398,423	-200,000	0,002	0,010
-397,409	62,174	-0,124	0,089
-396,394	-200,000	-0,003	0,055
-395,379	-200,000	-0,009	-0,035
-394,365	-200,000	-0,017	-0,056
-393,350	-114,634	-0,035	-0,005
-392,336	-192,956	-0,065	0,000
-391,321	314,276	-0,025	-0,034
-390,306	110,493	0,085	-0,073
-389,292	-86,941	-0,085	-0,019
-388,277	-200,000	-0,008	-0,065
-387,263	74,856	0,123	0,093
-386,248	678,184	-0,042	0,079
-385,233	19,181	0,040	0,023
-384,219	-82,129	0,084	-0,020
-383,204	-0,334	-0,090	-0,046
-382,190	-129,767	0,141	-0,014
-381,175	-200,000	0,008	-0,151
-380,160	56,282	-0,030	-0,021
-379,146	-126,378	0,024	-0,003
-378,131	-108,627	0,061	0,009
-377,117	10,010	-0,047	0,026
-376,102	-200,000	-0,012	0,206
-375,088	-200,000	-0,025	-0,093
-374,073	-117,670	0,144	-0,018
-373,058	223,020	0,061	-0,071
-372,044	-133,628	0,028	-0,003
-371,029	69,077	0,217	0,160
-370,015	-21,045	-0,150	-0,066
-369,000	282,120	0,046	-0,060
-367,985	164,857	-0,080	-0,081
-366,971	85,751	0,089	-0,070
-365,956	99,473	-0,114	-0,095
-364,942	-200,000	-0,009	0,089
-363,927	26,105	0,128	0,077
-362,912	71,482	0,038	0,028
-361,898	-86,161	0,099	0,022
-360,883	-200,000	-0,007	0,035
-359,869	14,010	0,018	0,010
-358,854	-200,000	-0,040	0,150
-357,839	-79,762	0,167	-0,040
-356,825	-200,000	0,003	-0,022
-355,810	-64,203	0,063	-0,018
-354,796	800,000	-0,007	-0,017
-353,781	237,299	-0,100	0,119
-352,766	195,254	0,161	-0,175
-351,752	275,057	0,025	0,032
-350,737	63,599	-0,029	0,021
-349,723	425,284	0,043	0,067
-348,708	-200,000	0,011	-0,089
-347,693	186,725	0,023	0,024
-346,679	-55,891	0,183	0,058
-345,664	353,856	-0,027	0,038
-344,650	66,237	-0,051	0,037
-343,635	-200,000	-0,006	0,112
-342,620	800,000	-0,039	0,091
-341,606	-61,775	0,099	0,030
-340,591	523,514	-0,023	0,039
-339,577	-200,000	-0,002	0,008
-338,562	-200,000	-0,034	-0,135
-337,548	800,000	-0,013	-0,027
-336,533	800,000	-0,045	0,109
-335,518	-33,668	0,159	-0,063
-334,504	800,000	-0,064	0,137
-333,489	-200,000	-0,011	0,055
-332,475	-12,548	0,110	-0,051
-331,460	800,000	0,016	0,033
-330,445	-85,020	-0,156	0,035
-329,431	162,041	0,061	-0,062
-328,416	104,225	0,066	-0,056
-327,402	800,000	0,054	-0,112
-326,387	-74,780	-0,016	-0,004
-325,372	-65,590	-0,014	-0,004
-324,358	-200,000	0,007	0,099
-323,343	800,000	-0,033	0,080
-322,329	322,834	0,060	-0,082
-321,314	800,000	-0,043	0,097
-320,299	-154,970	0,156	0,007
-319,285	-114,162	-0,077	-0,010
-318,270	163,288	0,078	0,079
-317,256	-20,972	0,114	-0,050
-316,241	55,476	0,047	0,033
-315,226	800,000	0,056	0,145
-314,212	-200,000	0,027	-0,117
-313,197	374,805	-0,034	-0,050
-312,183	-41,212	0,088	0,032
-311,168	-200,000	0,013	-0,061
-310,153	-200,000	-0,009	-0,145
-309,139	156,974	0,112	-0,111
-308,124	311,298	0,009	0,011
-307,110	-200,000	-0,011	-0,071
-306,095	45,818	-0,114	-0,076
-305,080	194,951	0,050	-0,054
-304,066	800,000	-0,029	-0,079
-303,051	-50,602	-0,093	-0,031
-302,037	800,000	0,034	-0,092
-301,022	101,714	0,052	-0,043
-300,008	-128,739	0,121	0,012
-298,993	7,068	0,021	-0,011
-297,978	196,547	-0,092	-0,101
-296,964	19,086	-0,153	-0,088
-295,949	800,000	-0,037	-0,100
-294,935	800,000	0,023	0,061
-293,920	-200,000	-0,006	0,050
-292,905	-109,673	-0,078	0,012
-291,891	115,860	0,064	0,056
-290,876	622,500	0,061	0,111
-289,862	-97,931	0,087	0,016
-288,847	-163,630	0,042	0,001
-287,832	800,000	-0,045	-0,119
-286,818	800,000	-0,038	-0,107
-285,803	-92,514	0,090	-0,018
-284,789	800,000	-0,026	0,073
-283,774	-72,831	0,122	0,032
-282,759	53,112	-0,068	0,047
-281,745	-8,647	-0,109	-0,052
-280,730	-200,000	0,004	0,167
-279,716	-200,000	0,005	0,054
-278,701	-93,270	0,125	0,025
-277,686	358,424	0,070	0,100
-276,672	353,980	-0,123	0,176
-275,657	-72,164	0,110	-0,029
-274,643	-200,000	0,024	-0,090
-273,628	-36,417	0,040	0,015
-272,613	-41,472	0,126	-0,046
-271,599	-200,000	-0,011	0,096
-270,584	462,441	-0,018	-0,029
-269,570	-18,423	-0,073	-0,033
-268,555	336,311	-0,016	0,022
-267,540	-48,657	0,048	0,017
-266,526	-200,000	0,002	-0,164
-265,511	-53,128	0,041	0,013
-264,497	-56,735	0,118	-0,037
-263,482	237,440	0,089	-0,106
-262,467	122,008	-0,123	-0,110
-261,453	75,978	0,084	0,064
-260,438	-200,000	-0,003	0,041
-259,424	-200,000	-0,002	-0,090
-258,409	-45,005	0,127	0,045
-257,395	-52,024	-0,123	0,041
-256,380	168,157	0,036	-0,037
-255,365	386,503	-0,006	-0,009
-254,351	-200,000	0,016	-0,056
-253,336	0,479	-0,097	0,049
-252,322	726,284	0,038	-0,073
-251,307	185,916	-0,050	0,053
-250,292	148,235	0,065	-0,063
-249,278	800,000	0,088	-0,208
-248,263	-39,888	-0,035	0,013
-247,249	-200,000	0,003	0,031
-246,234	111,884	-0,021	0,018
-245,219	800,000	-0,030	-0,065
-244,205	-200,000	0,004	0,012
-243,190	-61,742	0,162	-0,048
-242,176	-200,000	0,024	0,132
-241,161	800,000	0,106	0,227
-240,146	-200,000	0,005	0,095
-239,132	279,292	-0,124	0,158
-238,117	50,263	0,080	-0,054
-237,103	350,969	-0,087	-0,123
-236,088	86,770	0,108	0,085
-235,073	-200,000	-0,022	0,088
-234,059	-200,000	-0,001	0,047
-233,044	734,041	-0,053	0,103
-232,030	800,000	-0,083	0,217
-231,015	-125,979	-0,112	0,012
-230,000	-163,842	-0,055	0,002
-228,986	-140,394	-0,085	0,006
-227,971	-71,992	-0,065	0,017
-226,957	-195,085	0,039	-0,000
-225,942	800,000	-0,045	-0,140
-224,927	37,109	0,136	0,086
-223,913	-115,313	-0,029	0,004
-222,898	-200,000	-0,019	0,122
-221,884	5,575	0,014	-0,007
-220,869	-200,000	0,016	-0,073
-219,855	216,359	0,018	-0,021
-218,840	661,531	-0,009	-0,017
-217,825	66,634	0,065	0,047
-216,811	115,918	-0,041	-0,036
-215,796	-63,662	-0,111	0,032
-214,782	-131,387	-0,015	-0,001
-213,767	-59,496	0,139	0,043
-212,752	-125,795	0,172	0,018
-211,738	184,132	-0,129	0,136
-210,723	-200,000	0,022	0,081
-209,709	-200,000	-0,022	-0,144
-208,694	-200,000	0,008	-0,073
-207,679	10,030	-0,051	-0,027
-206,665	-95,250	0,023	0,004
-205,650	-90,060	-0,147	-0,030
-204,636	-49,771	0,053	-0,018
-203,621	64,113	-0,018	-0,013
-202,606	-200,000	-0,000	-0,043
-201,592	-200,000	0,000	-0,134
-200,577	76,284	-0,086	-0,065
-199,563	-165,614	0,013	0,000
-198,548	590,458	-0,051	-0,090
-197,533	124,812	0,057	0,051
-196,519	-200,000	0,057	0,000
-195,504	684,132	0,032	0,059
-194,490	152,101	0,065	0,064
-193,475	-65,185	-0,144	-0,041
-192,460	-200,000	0,034	0,122
-191,446	196,514	-0,059	0,065
-190,431	-37,660	0,086	0,033
-189,417	-48,402	0,109	0,037
-188,402	109,997	-0,122	0,105
-187,387	87,071	-0,085	-0,067
-186,373	-200,000	0,006	-0,088
-185,358	-135,707	-0,153	0,013
-184,344	-200,000	0,004	0,057
-183,329	-76,367	0,191	0,048
-182,315	406,366	0,083	-0,125
-181,300	800,000	0,025	0,059
-180,285	-31,948	-0,183	0,073
-179,271	-12,523	0,048	0,022
-178,256	140,300	-0,097	-0,091
-177,242	109,382	0,079	-0,067
-176,227	-56,473	-0,109	0,034
-175,212	270,107	0,079	0,099
-174,198	-42,066	0,029	0,010
-173,183	-150,680	0,107	0,006
-172,169	-130,189	0,060	-0,006
-171,154	247,480	-0,051	-0,062
-170,139	-149,735	0,082	-0,005
-169,125	440,220	0,044	0,069
-168,110	188,967	0,034	0,036
-167,096	127,911	-0,074	0,067
-166,081	338,956	-0,021	-0,029
-165,066	800,000	-0,028	-0,066
-164,052	-158,232	0,045	0,002
-163,037	800,000	0,060	-0,119
-162,023	-117,435	-0,073	0,009
-161,008	178,541	-0,184	0,192
-159,993	-53,289	-0,098	0,032
-158,979	-200,000	-0,005	0,032
-157,964	84,782	0,093	-0,072
-156,950	800,000	0,018	0,038
-155,935	-177,509	0,063	-0,001
-154,920	23,470	0,109	-0,064
-153,906	800,000	0,011	0,033
-152,891	-14,589	-0,031	-0,014
-151,877	-200,000	0,005	0,076
-150,862	-200,000	0,010	0,110
-149,847	120,102	0,098	0,087
-148,833	34,263	0,012	-0,008
-147,818	-96,682	0,200	0,037
-146,804	-200,000	0,012	0,120
-145,789	42,961	0,063	0,041
-144,775	-60,761	-0,144	0,043
-143,760	-56,018	-0,063	0,020
-142,745	-35,058	-0,083	0,032
-141,731	-122,313	-0,130	0,015
-140,716	-62,946	0,142	-0,042
-139,702	329,820	0,069	0,094
-138,687	355,493	-0,089	0,126
-137,672	-200,000	-0,002	-0,093
-136,658	284,152	0,075	0,096
-135,643	39,287	0,005	0,003
-134,629	-200,000	-0,112	0,000
-133,614	800,000	-0,043	-0,128
-132,599	-200,000	-0,003	0,051
-131,585	-200,000	0,021	0,087
-130,570	-80,924	-0,097	0,023
-129,556	396,095	-0,052	-0,077
-128,541	-200,000	0,001	0,075
-127,526	108,321	-0,033	-0,028
-126,512	-59,211	-0,085	0,026
-125,497	-79,126	0,043	0,010
-124,483	530,837	0,062	-0,105
-123,468	-99,192	-0,027	-0,005
-122,453	103,131	-0,057	-0,048
-121,439	284,393	0,034	0,043
-120,424	26,211	0,041	-0,024
-119,410	-79,072	0,105	-0,025
-118,395	534,695	-0,072	-0,122
