DTS Sentinel unit serial number:	SN410029Multiplexer serial number:	ORYXHardware model number:	OX2-SRSoftware version number:	ORYX F/W v4,00 Oryx Data Collector v3.7.2.0data status	okinstallation	BH3 CH2differential loss correction	single-endedforward channel	channel 2reverse channel	N/Adate	2023/12/05time	10:52:29forward acquisition time	300,00reverse acquisition time	0,00gamma	499,1914k internal	0,3197k external	0,3197temperature offset calibration	1,0000default loss term (dB/km)	0,3820temperature slope calibration	1,0000multiplexer offset coefficient	1,0000multiplexer slope coefficient	1,0000fibre end	0,00T internal ref (°C)	9,67T ext. ref 1 (°C)	-5,13T ext. ref 2 (°C)	-5,28length (m)	temperature (°C)	Stokes	anti-Stokes-744,400	121,426	-0,074	-0,067
-743,385	-167,517	-0,214	0,006
-742,371	-200,000	-0,019	-0,086
-741,356	-200,000	-0,047	0,184
-740,342	115,897	-0,168	-0,150
-739,327	323,863	-0,082	0,114
-738,312	102,973	-0,090	-0,077
-737,298	-2,761	-0,255	0,129
-736,283	61,411	0,010	0,007
-735,269	800,000	-0,075	0,232
-734,254	169,530	-0,099	-0,103
-733,239	-136,935	-0,579	-0,048
-732,225	-200,000	0,025	-0,137
-731,210	-166,894	0,079	0,002
-730,196	31,524	0,049	-0,031
-729,181	-77,090	-0,191	-0,048
-728,167	208,223	-0,027	-0,030
-727,152	-7,336	-0,037	-0,018
-726,137	500,633	-0,060	-0,102
-725,123	-111,598	0,134	0,020
-724,108	332,599	-0,104	-0,147
-723,094	-200,000	-0,006	-0,108
-722,079	6,172	-0,082	0,044
-721,064	-200,000	0,013	-0,055
-720,050	80,828	0,130	-0,102
-719,035	-122,174	0,116	0,014
-718,021	-163,415	-0,128	0,004
-717,006	-200,000	-0,009	-0,098
-715,991	-147,241	-0,121	0,007
-714,977	367,652	0,062	-0,092
-713,962	87,827	0,126	0,102
-712,948	-157,434	0,084	-0,004
-711,933	-200,000	0,014	-0,106
-710,918	-200,000	0,014	-0,067
-709,904	-16,443	-0,028	-0,013
-708,889	366,879	-0,114	-0,168
-707,875	168,539	-0,101	-0,104
-706,860	150,144	0,046	0,045
-705,845	-82,999	0,060	-0,014
-704,831	-51,271	0,116	0,039
-703,816	428,853	0,026	0,041
-702,802	-48,865	0,082	0,028
-701,787	-70,019	-0,085	-0,023
-700,772	16,314	0,080	-0,046
-699,758	609,587	-0,014	0,026
-698,743	35,373	0,105	-0,067
-697,729	-200,000	-0,043	0,178
-696,714	-89,439	-0,137	0,029
-695,699	800,000	-0,063	-0,154
-694,685	-200,000	0,014	-0,156
-693,670	25,647	-0,168	0,101
-692,656	242,945	0,037	0,045
-691,641	154,767	0,059	0,059
-690,627	-200,000	0,018	0,061
-689,612	620,071	0,095	0,174
-688,597	-200,000	-0,004	0,019
-687,583	-200,000	-0,009	-0,146
-686,568	800,000	0,011	-0,031
-685,554	6,613	-0,171	-0,092
-684,539	-34,844	0,146	-0,058
-683,524	331,322	-0,058	0,081
-682,510	-200,000	0,019	-0,123
-681,495	105,899	0,102	0,087
-680,481	86,424	0,062	-0,049
-679,466	-200,000	-0,014	-0,177
-678,451	-200,000	-0,002	-0,138
-677,437	77,680	0,104	0,080
-676,422	-96,832	-0,032	-0,006
-675,408	800,000	-0,034	0,082
-674,393	285,595	-0,041	-0,053
-673,378	-162,424	-0,086	0,003
-672,364	-200,000	-0,018	-0,134
-671,349	-42,769	0,061	-0,022
-670,335	341,162	-0,047	0,067
-669,320	-60,552	-0,096	-0,029
-668,305	-199,397	0,105	-0,000
-667,291	316,642	-0,070	-0,096
-666,276	800,000	-0,038	-0,091
-665,262	-99,105	-0,213	-0,039
-664,247	-81,122	-0,063	0,015
-663,232	-200,000	0,003	0,082
-662,218	17,079	0,036	-0,021
-661,203	-200,000	-0,036	0,120
-660,189	800,000	-0,037	-0,093
-659,174	-87,973	-0,117	-0,025
-658,159	281,139	0,085	-0,110
-657,145	486,786	0,028	-0,046
-656,130	662,280	-0,056	0,106
-655,116	-125,463	-0,029	0,003
-654,101	-28,472	0,066	-0,027
-653,086	-28,335	-0,093	-0,039
-652,072	115,206	-0,076	-0,068
-651,057	109,846	-0,134	-0,116
-650,043	571,349	0,003	0,005
-649,028	-29,572	0,209	0,086
-648,014	68,814	-0,141	-0,105
-646,999	158,039	-0,050	0,050
-645,984	-59,961	-0,202	0,062
-644,970	800,000	-0,024	0,071
-643,955	2,374	-0,083	0,043
-642,941	336,547	-0,077	-0,108
-641,926	31,567	0,118	-0,073
-640,911	-200,000	-0,004	0,139
-639,897	94,293	0,127	-0,105
-638,882	-200,000	-0,014	-0,080
-637,868	6,357	-0,107	-0,058
-636,853	136,079	-0,040	0,037
-635,838	-71,205	-0,116	-0,031
-634,824	-175,428	-0,060	-0,001
-633,809	-66,221	-0,062	0,018
-632,795	43,417	0,134	0,089
-631,780	-25,642	-0,063	0,027
-630,765	209,836	-0,084	-0,095
-629,751	-34,005	0,068	0,027
-628,736	745,417	-0,082	-0,161
-627,722	-200,000	-0,028	-0,110
-626,707	-200,000	-0,020	-0,079
-625,692	260,003	0,030	0,038
-624,678	800,000	0,040	0,113
-623,663	395,997	0,063	-0,096
-622,649	800,000	0,006	-0,020
-621,634	115,327	0,074	-0,065
-620,619	-200,000	0,022	0,000
-619,605	-105,254	-0,062	-0,010
-618,590	740,784	-0,020	0,040
-617,576	255,404	-0,047	0,058
-616,561	-13,236	-0,083	0,039
-615,546	800,000	-0,051	-0,127
-614,532	518,457	-0,076	-0,129
-613,517	707,368	-0,007	0,013
-612,503	160,297	-0,033	-0,033
-611,488	251,311	0,021	-0,026
-610,474	-166,940	0,064	0,002
-609,459	-52,500	-0,034	-0,011
-608,444	800,000	-0,068	-0,178
-607,430	-200,000	0,013	0,068
-606,415	-30,468	0,072	-0,029
-605,401	511,947	0,028	-0,047
-604,386	169,536	0,070	-0,073
-603,371	800,000	-0,020	-0,062
-602,357	25,063	-0,107	-0,064
-601,342	20,577	-0,122	-0,071
-600,328	-200,000	0,024	0,134
-599,313	301,893	-0,074	0,099
-598,298	-200,000	0,020	-0,077
-597,284	66,125	0,122	0,089
-596,269	-148,880	0,112	-0,006
-595,255	366,123	-0,038	0,056
-594,240	343,513	-0,048	0,068
-593,225	418,196	0,039	-0,060
-592,211	-62,668	0,052	0,016
-591,196	753,072	-0,039	-0,077
-590,182	17,779	0,040	-0,023
-589,167	15,141	0,187	0,106
-588,152	-104,888	-0,098	-0,016
-587,138	800,000	0,011	0,031
-586,123	-193,481	-0,013	0,000
-585,109	-49,118	0,058	0,020
-584,094	-77,565	-0,084	-0,021
-583,079	553,347	0,010	0,018
-582,065	-200,000	-0,008	0,146
-581,050	-55,334	0,089	0,029
-580,036	457,091	-0,049	0,079
-579,021	643,876	0,018	0,033
-578,006	105,052	-0,107	-0,091
-576,992	-200,000	-0,012	0,104
-575,977	408,419	-0,034	0,053
-574,963	-78,139	-0,042	-0,010
-573,948	-200,000	-0,019	0,125
-572,934	800,000	0,068	-0,187
-571,919	138,072	-0,140	-0,133
-570,904	-43,339	0,111	-0,040
-569,890	-123,628	-0,207	-0,024
-568,875	244,033	0,061	-0,074
-567,861	80,086	0,074	0,057
-566,846	-33,743	-0,043	-0,017
-565,831	-9,353	0,047	-0,022
-564,817	399,959	-0,012	-0,019
-563,802	-23,736	-0,150	0,065
-562,788	512,613	-0,053	-0,089
-561,773	14,189	0,044	-0,025
-560,758	708,275	0,042	0,081
-559,744	16,377	0,046	-0,026
-558,729	189,841	-0,018	-0,020
-557,715	110,100	0,031	0,026
-556,700	301,407	-0,081	-0,109
-555,685	-151,286	-0,144	-0,008
-554,671	80,331	0,012	0,009
-553,656	800,000	-0,046	-0,101
-552,642	-51,693	0,043	-0,014
-551,627	448,418	0,074	0,118
-550,612	-102,980	-0,083	-0,014
-549,598	224,425	0,079	-0,092
-548,583	-109,886	-0,058	0,009
-547,569	370,303	0,120	-0,176
-546,554	-200,000	0,010	-0,033
-545,539	46,095	0,165	-0,110
-544,525	-200,000	-0,006	0,042
-543,510	800,000	-0,040	-0,082
-542,496	800,000	-0,058	-0,138
-541,481	220,579	0,041	0,048
-540,466	-50,207	-0,072	0,024
-539,452	37,224	-0,043	-0,027
-538,437	-200,000	0,009	-0,061
-537,423	220,175	0,020	0,023
-536,408	-76,509	0,069	0,017
-535,393	220,213	-0,034	0,039
-534,379	-21,977	-0,120	-0,052
-533,364	52,323	0,133	0,091
-532,350	562,236	0,093	0,164
-531,335	87,917	-0,061	-0,049
-530,321	136,444	0,061	-0,057
-529,306	285,506	-0,041	0,053
-528,291	121,583	-0,121	-0,109
-527,277	185,820	-0,109	0,117
-526,262	-200,000	0,013	-0,056
-525,248	-4,032	-0,126	-0,063
-524,233	124,062	-0,030	-0,027
-523,218	-200,000	0,016	0,082
-522,204	0,732	0,033	-0,017
-521,189	800,000	-0,026	0,056
-520,175	-200,000	0,007	0,028
-519,160	111,552	0,051	0,045
-518,145	-200,000	-0,008	0,122
-517,131	-200,000	-0,017	-0,100
-516,116	800,000	0,062	0,194
-515,102	173,247	-0,142	-0,147
-514,087	6,171	-0,037	0,019
-513,072	-200,000	-0,038	-0,136
-512,058	-148,055	-0,122	0,007
-511,043	800,000	0,014	0,035
-510,029	800,000	0,035	0,072
-509,014	524,625	-0,069	0,117
-507,999	800,000	-0,048	-0,101
-506,985	102,737	0,099	0,083
-505,970	15,697	-0,101	-0,057
-504,956	-32,029	0,107	0,043
-503,941	-156,309	0,071	0,003
-502,926	-200,000	0,001	0,030
-501,912	-109,225	0,134	-0,020
-500,897	-115,425	0,108	0,014
-499,883	-200,000	-0,020	0,087
-498,868	-200,000	-0,005	0,077
-497,853	-138,541	-0,110	0,009
-496,839	-36,636	0,126	0,049
-495,824	800,000	-0,022	0,056
-494,810	-200,000	0,042	-0,146
-493,795	47,879	-0,137	0,092
-492,781	800,000	0,016	0,043
-491,766	800,000	0,037	0,092
-490,751	318,518	0,051	-0,069
-489,737	15,658	0,098	0,056
-488,722	-200,000	-0,009	0,065
-487,708	-200,000	0,010	0,164
-486,693	128,636	-0,146	0,135
-485,678	195,830	-0,073	-0,081
-484,664	-78,395	-0,075	0,018
-483,649	568,961	-0,033	-0,058
-482,635	-200,000	0,036	-0,140
-481,620	29,217	0,058	0,035
-480,605	-86,367	0,133	-0,029
-479,591	-101,450	-0,039	-0,007
-478,576	-200,000	0,015	0,076
-477,562	119,330	-0,081	-0,073
-476,547	98,987	0,128	-0,106
-475,532	-200,000	-0,002	-0,060
-474,518	123,928	0,043	0,038
-473,503	-112,394	0,106	0,015
-472,489	-160,370	-0,073	-0,003
-471,474	-200,000	-0,003	-0,100
-470,459	-200,000	0,018	0,079
-469,445	290,048	0,086	-0,113
-468,430	-200,000	-0,018	-0,059
-467,416	-17,660	0,051	-0,023
-466,401	-115,134	-0,089	-0,012
-465,386	-10,806	0,119	-0,057
-464,372	246,970	0,028	0,034
-463,357	-81,404	0,095	0,022
-462,343	94,424	-0,064	-0,052
-461,328	-200,000	-0,013	0,050
-460,313	-120,204	0,165	0,020
-459,299	-148,538	-0,090	0,005
-458,284	-108,467	-0,122	-0,019
-457,270	-200,000	-0,010	0,191
-456,255	-98,193	0,209	0,038
-455,241	101,285	0,038	0,032
-454,226	47,784	0,037	0,025
-453,211	-200,000	0,019	-0,109
-452,197	133,173	0,081	-0,075
-451,182	-114,334	-0,100	-0,014
-450,168	-76,678	0,071	-0,018
-449,153	-200,000	-0,016	-0,063
-448,138	-200,000	0,015	-0,050
-447,124	617,575	-0,004	0,007
-446,109	-200,000	-0,010	-0,048
-445,095	-160,987	0,171	-0,006
-444,080	-57,999	-0,079	0,025
-443,065	12,993	0,117	0,065
-442,051	279,616	-0,109	-0,141
-441,036	-200,000	0,016	-0,076
-440,022	-200,000	-0,016	0,065
-439,007	182,353	-0,074	-0,079
-437,992	-126,201	-0,098	0,010
-436,978	800,000	-0,073	0,156
-435,963	-3,950	0,105	-0,052
-434,949	-200,000	-0,032	-0,217
-433,934	100,829	-0,020	0,017
-432,919	18,116	0,101	0,058
-431,905	-200,000	0,006	0,055
-430,890	-8,509	-0,194	0,094
-429,876	401,725	0,074	0,112
-428,861	-200,000	0,007	0,065
-427,846	800,000	-0,021	-0,061
-426,832	-12,543	-0,139	0,065
-425,817	240,581	-0,047	-0,057
-424,803	800,000	0,034	0,074
-423,788	-13,037	0,090	0,042
-422,773	-83,021	0,109	-0,025
-421,759	99,886	-0,109	0,090
-420,744	78,224	0,144	0,111
-419,730	800,000	0,017	-0,042
-418,715	-158,235	-0,109	-0,004
-417,701	228,129	-0,073	0,086
-416,686	-129,289	0,113	0,011
-415,671	-200,000	0,002	0,026
-414,657	-200,000	0,002	-0,139
-413,642	379,361	0,076	0,112
-412,628	-23,939	-0,148	0,063
-411,613	-55,465	0,016	0,005
-410,598	17,864	0,047	0,027
-409,584	-34,388	-0,090	0,035
-408,569	57,598	-0,036	0,025
-407,555	12,670	-0,033	-0,018
-406,540	65,655	-0,087	0,063
-405,525	522,369	-0,059	-0,099
-404,511	38,858	0,145	-0,093
-403,496	-200,000	0,002	-0,012
-402,482	-104,258	0,040	0,007
-401,467	799,781	0,022	-0,044
-400,452	-200,000	0,002	0,056
-399,438	90,648	0,084	0,067
-398,423	64,713	0,099	0,072
-397,409	157,202	-0,107	-0,107
-396,394	-46,314	-0,036	-0,012
-395,379	800,000	0,031	0,084
-394,365	-200,000	-0,034	0,216
-393,350	182,158	0,062	-0,066
-392,336	249,794	-0,034	0,042
-391,321	-75,533	0,055	0,014
-390,306	756,666	-0,027	-0,052
-389,292	-28,802	0,049	-0,020
-388,277	-200,000	0,007	0,100
-387,263	167,604	0,068	0,070
-386,248	83,167	0,043	0,033
-385,233	739,411	0,020	-0,038
-384,219	-166,162	-0,136	-0,004
-383,204	-200,000	-0,004	0,048
-382,190	-82,010	-0,129	-0,030
-381,175	356,784	0,055	-0,079
-380,160	-4,317	0,054	0,027
-379,146	101,623	0,084	0,070
-378,131	54,983	0,178	0,123
-377,117	36,190	-0,014	-0,009
-376,102	521,283	0,050	-0,085
-375,088	800,000	-0,074	-0,156
-374,073	-100,780	0,137	-0,024
-373,058	126,507	-0,037	0,033
-372,044	287,307	-0,095	-0,123
-371,029	-96,806	0,140	0,026
-370,015	800,000	-0,020	0,061
-369,000	-200,000	-0,008	-0,109
-367,985	682,326	0,017	-0,032
-366,971	-200,000	0,005	-0,143
-365,956	-200,000	0,022	-0,111
-364,942	-77,928	0,077	0,019
-363,927	-200,000	-0,004	0,043
-362,912	800,000	0,010	-0,022
-361,898	800,000	-0,035	-0,073
-360,883	-200,000	0,025	0,094
-359,869	410,057	0,039	0,059
-358,854	-104,288	0,068	-0,011
-357,839	196,614	0,116	0,127
-356,825	260,349	-0,037	0,046
-355,810	-26,920	-0,136	0,057
-354,796	-200,000	0,018	0,077
-353,781	146,727	-0,041	-0,040
-352,766	-200,000	0,029	-0,115
-351,752	150,170	0,096	0,094
-350,737	800,000	-0,055	0,115
-349,723	-200,000	0,006	0,028
-348,708	320,808	-0,052	0,071
-347,693	409,199	0,085	-0,130
-346,679	119,328	-0,046	-0,040
-345,664	330,754	-0,026	-0,036
-344,650	634,077	-0,029	-0,053
-343,635	-113,874	0,152	-0,021
-342,620	-200,000	0,005	0,019
-341,606	-200,000	-0,002	0,006
-340,591	800,000	0,055	0,112
-339,577	78,141	0,061	0,047
-338,562	588,526	-0,057	-0,101
-337,548	169,292	0,048	-0,050
-336,533	800,000	-0,023	0,063
-335,518	-3,781	0,035	-0,018
-334,504	400,471	-0,091	0,138
-333,489	-0,208	-0,094	-0,048
-332,475	-44,882	-0,027	0,010
-331,460	-200,000	-0,026	-0,083
-330,445	-200,000	0,009	-0,053
-329,431	-44,226	0,271	0,097
-328,416	-200,000	-0,043	0,165
-327,402	-200,000	-0,005	-0,027
-326,387	-64,160	0,029	0,008
-325,372	-7,382	0,069	0,033
-324,358	58,748	0,064	0,045
-323,343	-200,000	0,043	-0,154
-322,329	170,674	0,098	0,101
-321,314	184,715	-0,028	0,030
-320,299	389,277	-0,039	0,059
-319,285	105,159	0,049	0,042
-318,270	574,197	0,026	-0,046
-317,256	-200,000	-0,049	0,171
-316,241	800,000	-0,071	-0,152
-315,226	32,353	0,051	-0,032
-314,212	800,000	0,070	0,156
-313,197	-200,000	0,021	0,071
-312,183	-151,517	-0,018	-0,001
-311,168	-172,030	0,046	-0,001
-310,153	797,328	-0,059	0,118
-309,139	31,923	0,090	0,056
-308,124	115,450	-0,072	0,063
-307,110	-13,532	0,086	-0,040
-306,095	347,534	-0,084	0,119
-305,080	-9,516	-0,024	-0,012
-304,066	800,000	0,036	-0,089
-303,051	-137,087	-0,162	-0,013
-302,037	71,047	-0,054	0,040
-301,022	-159,242	0,100	-0,004
-300,008	800,000	0,070	0,190
-298,993	59,883	0,021	0,015
-297,978	-188,044	0,069	-0,001
-296,964	-148,377	-0,221	-0,013
-295,949	652,677	-0,031	-0,057
-294,935	-46,752	0,132	-0,046
-293,920	105,254	-0,099	0,084
-292,905	62,159	-0,072	0,052
-291,891	360,719	0,040	0,057
-290,876	-101,657	-0,083	0,014
-289,862	92,636	-0,114	0,092
-288,847	-155,790	-0,090	0,004
-287,832	44,560	0,080	-0,053
-286,818	800,000	-0,013	-0,033
-285,803	-200,000	0,020	0,071
-284,789	378,176	-0,069	0,101
-283,774	26,401	0,017	0,010
-282,759	-181,272	-0,081	0,001
-281,745	-59,220	-0,053	-0,016
-280,730	107,805	0,176	-0,150
-279,716	272,904	0,025	-0,032
-278,701	321,846	0,064	0,087
-277,686	93,727	-0,063	-0,051
-276,672	-5,197	-0,081	-0,039
-275,657	-13,921	0,095	0,044
-274,643	84,917	-0,109	-0,085
-273,628	167,966	0,064	0,065
-272,613	-103,917	0,067	-0,011
-271,599	21,051	-0,043	-0,025
-270,584	548,904	0,075	-0,129
-269,570	800,000	0,045	0,092
-268,555	54,843	-0,147	-0,101
-267,540	800,000	-0,029	-0,091
-266,526	-200,000	-0,011	0,034
-265,511	14,566	0,092	-0,051
-264,497	800,000	0,012	0,033
-263,482	-72,028	0,196	-0,052
-262,467	557,304	-0,053	-0,091
-261,453	-195,837	-0,060	-0,000
-260,438	111,206	0,082	0,070
-259,424	798,751	0,009	-0,017
-258,409	-43,942	0,087	0,031
-257,395	-200,000	0,009	-0,081
-256,380	89,807	-0,052	0,042
-255,365	22,679	0,052	-0,030
-254,351	800,000	0,026	0,068
-253,336	49,176	0,018	-0,012
-252,322	-42,501	0,032	-0,012
-251,307	37,331	-0,054	-0,034
-250,292	-200,000	-0,007	0,030
-249,278	293,894	0,066	-0,087
-248,263	687,684	-0,045	0,084
-247,249	221,525	-0,073	0,084
-246,234	-87,983	-0,113	-0,024
-245,219	-200,000	0,032	-0,102
-244,205	-200,000	-0,023	-0,107
-243,190	-200,000	-0,010	-0,121
-242,176	322,953	0,062	0,085
-241,161	800,000	0,065	0,136
-240,146	236,527	0,041	0,049
-239,132	331,645	-0,010	-0,013
-238,117	-60,158	-0,131	-0,040
-237,103	-120,031	-0,034	0,004
-236,088	33,578	-0,137	-0,085
-235,073	249,963	-0,072	-0,087
-234,059	-159,081	0,020	0,001
-233,044	638,607	-0,031	0,056
-232,030	129,040	0,060	0,055
-231,015	454,405	0,037	-0,059
-230,000	-60,499	-0,114	0,034
-228,986	-10,255	-0,071	0,033
-227,971	-95,363	0,098	-0,019
-226,957	-200,000	0,008	0,131
-225,942	-97,817	-0,167	-0,031
-224,927	-200,000	-0,004	-0,149
-223,913	356,233	0,039	-0,056
-222,898	624,504	-0,015	0,027
-221,884	-99,952	-0,069	-0,012
-220,869	800,000	0,021	0,051
-219,855	-95,220	0,070	-0,013
-218,840	111,935	0,083	0,072
-217,825	-30,534	0,020	-0,008
-216,811	-60,444	0,060	-0,018
-215,796	68,937	-0,045	-0,033
-214,782	-200,000	0,026	0,084
-213,767	-200,000	0,005	-0,029
-212,752	96,066	0,017	0,014
-211,738	166,616	0,025	-0,025
-210,723	28,153	-0,047	0,028
-209,709	-200,000	0,017	0,136
-208,694	-200,000	-0,006	-0,067
-207,679	-97,538	-0,067	-0,012
-206,665	345,907	-0,044	-0,062
-205,650	168,414	0,036	0,037
-204,636	800,000	0,011	0,029
-203,621	-27,999	-0,117	-0,048
-202,606	281,237	0,024	-0,030
-201,592	-200,000	-0,009	-0,075
-200,577	-200,000	0,000	0,033
-199,563	-41,102	0,039	-0,014
-198,548	12,479	0,083	0,045
-197,533	-200,000	-0,023	0,154
-196,519	-200,000	-0,001	-0,027
-195,504	-130,349	0,047	-0,004
-194,490	530,983	-0,036	-0,060
-193,475	800,000	-0,039	-0,077
-192,460	135,515	-0,085	0,079
-191,446	346,490	0,045	0,063
-190,431	-17,847	0,054	0,024
-189,417	-83,257	0,066	-0,015
-188,402	-106,869	-0,064	0,010
-187,387	145,198	-0,065	-0,062
-186,373	6,460	-0,182	-0,096
-185,358	800,000	-0,007	-0,020
-184,344	58,954	0,099	0,069
-183,329	800,000	0,018	-0,051
-182,315	-11,209	-0,078	-0,037
-181,300	96,115	0,134	0,109
-180,285	99,724	-0,031	-0,026
-179,271	-7,731	-0,113	-0,054
-178,256	108,895	-0,176	-0,150
-177,242	800,000	-0,033	0,076
-176,227	-200,000	0,007	0,059
-175,212	-19,708	0,079	-0,035
-174,198	-33,114	-0,041	0,016
-173,183	-200,000	-0,013	-0,173
-172,169	25,800	-0,069	0,041
-171,154	-93,268	-0,028	-0,005
-170,139	-152,006	-0,058	0,003
-169,125	-200,000	0,019	0,096
-168,110	158,759	0,035	0,035
-167,096	-200,000	0,069	0,239
-166,081	-200,000	0,008	-0,085
-165,066	-23,883	-0,081	0,034
-164,052	-17,550	0,095	-0,042
-163,037	440,115	-0,039	-0,061
-162,023	-42,876	0,121	-0,044
-161,008	800,000	-0,058	0,125
-159,993	333,323	0,109	-0,150
-158,979	800,000	0,029	-0,069
-157,964	-200,000	-0,060	-0,202
-156,950	800,000	0,019	-0,055
-155,935	-200,000	0,004	0,038
-154,920	-100,080	0,084	-0,015
-153,906	501,100	0,043	-0,070
-152,891	-9,239	0,072	-0,034
-151,877	800,000	-0,048	-0,100
-150,862	-200,000	-0,015	-0,092
-149,847	-53,980	0,162	0,052
-148,833	589,418	0,044	0,077
-147,818	259,196	-0,055	0,068
-146,804	72,098	0,059	-0,043
-145,789	-104,339	0,132	-0,022
-144,775	-98,473	-0,075	0,013
-143,760	514,553	-0,055	-0,091
-142,745	28,815	0,096	-0,058
-141,731	359,922	0,080	-0,114
-140,716	-200,000	0,013	-0,186
-139,702	36,432	-0,105	0,065
-138,687	-74,596	0,135	-0,034
-137,672	-41,719	-0,051	0,019
-136,658	800,000	-0,031	-0,079
-135,643	26,011	-0,048	-0,029
-134,629	412,197	0,061	0,092
-133,614	-200,000	-0,027	0,102
-132,599	-200,000	-0,003	-0,105
-131,585	800,000	-0,009	0,017
-130,570	-114,108	0,201	0,027
-129,556	28,199	-0,064	-0,038
-128,541	795,214	-0,048	-0,095
-127,526	-200,000	-0,022	-0,086
-126,512	186,842	0,101	0,107
-125,497	229,367	0,008	0,010
-124,483	-200,000	0,009	0,100
-123,468	205,292	0,066	-0,073
-122,453	800,000	-0,028	-0,080
-121,439	-200,000	-0,025	-0,117
-120,424	293,392	0,070	-0,091
-119,410	-55,360	-0,080	-0,025
