DTS Sentinel unit serial number:	SN410029Multiplexer serial number:	ORYXHardware model number:	OX2-SRSoftware version number:	ORYX F/W v4,00 Oryx Data Collector v3.7.2.0data status	okinstallation	BH3 CH2differential loss correction	single-endedforward channel	channel 2reverse channel	N/Adate	2023/12/06time	06:52:28forward acquisition time	300,00reverse acquisition time	0,00gamma	499,1914k internal	0,3197k external	0,3197temperature offset calibration	1,0000default loss term (dB/km)	0,3820temperature slope calibration	1,0000multiplexer offset coefficient	1,0000multiplexer slope coefficient	1,0000fibre end	0,00T internal ref (°C)	8,87T ext. ref 1 (°C)	-5,81T ext. ref 2 (°C)	-5,93length (m)	temperature (°C)	Stokes	anti-Stokes-744,400	-200,000	-0,006	-0,080
-743,385	256,717	-0,219	0,274
-742,371	-200,000	-0,012	-0,083
-741,356	27,073	-0,172	0,105
-740,342	267,745	0,069	-0,088
-739,327	-44,829	-0,280	0,101
-738,312	800,000	-0,063	-0,157
-737,298	-97,608	-0,252	0,047
-736,283	-27,639	-0,147	-0,062
-735,269	657,409	-0,129	0,242
-734,254	-161,051	-0,098	-0,004
-733,239	-110,833	-0,467	-0,069
-732,225	7,620	0,031	-0,017
-731,210	-200,000	0,000	0,089
-730,196	-200,000	0,004	0,048
-729,181	-30,358	-0,068	-0,028
-728,167	130,102	0,054	-0,050
-727,152	800,000	-0,058	0,131
-726,137	-145,847	-0,053	-0,003
-725,123	800,000	-0,016	0,043
-724,108	800,000	-0,023	-0,062
-723,094	-200,000	0,037	-0,215
-722,079	124,463	-0,065	-0,059
-721,064	501,346	0,038	-0,064
-720,050	-200,000	0,007	0,076
-719,035	-200,000	0,002	0,075
-718,021	341,011	-0,088	-0,126
-717,006	97,831	0,017	-0,015
-715,991	-27,748	-0,127	-0,053
-714,977	800,000	-0,022	-0,056
-713,962	207,635	0,028	-0,032
-712,948	-200,000	0,032	-0,111
-711,933	70,034	0,050	0,038
-710,918	800,000	-0,059	-0,130
-709,904	-95,600	-0,050	-0,010
-708,889	-200,000	-0,005	0,089
-707,875	-200,000	0,016	0,068
-706,860	-200,000	-0,013	-0,045
-705,845	-120,264	-0,043	0,005
-704,831	116,754	-0,050	0,044
-703,816	-114,563	-0,073	0,010
-702,802	-200,000	-0,036	-0,172
-701,787	114,143	-0,132	-0,116
-700,772	-200,000	-0,030	0,179
-699,758	-200,000	-0,025	-0,110
-698,743	402,986	-0,021	0,031
-697,729	-104,440	0,105	0,017
-696,714	314,438	-0,063	0,087
-695,699	85,625	0,022	0,017
-694,685	-52,449	-0,134	-0,045
-693,670	800,000	-0,028	-0,073
-692,656	216,416	0,059	-0,069
-691,641	800,000	-0,055	-0,118
-690,627	8,396	0,051	0,028
-689,612	-36,566	-0,011	-0,004
-688,597	8,688	-0,056	-0,031
-687,583	643,980	-0,105	-0,195
-686,568	-78,287	-0,208	-0,052
-685,554	53,968	-0,025	0,017
-684,539	22,375	-0,087	-0,052
-683,524	181,325	-0,016	0,017
-682,510	83,553	0,091	0,072
-681,495	4,255	-0,048	0,025
-680,481	775,340	-0,028	-0,056
-679,466	-73,293	-0,079	-0,021
-678,451	800,000	-0,040	-0,127
-677,437	51,110	0,036	0,025
-676,422	735,122	-0,008	0,016
-675,408	304,312	0,083	0,112
-674,393	360,484	-0,090	-0,131
-673,378	105,486	0,100	-0,086
-672,364	-200,000	0,024	-0,164
-671,349	800,000	-0,042	-0,106
-670,335	155,774	0,147	-0,147
-669,320	-87,733	-0,173	-0,037
-668,305	329,544	-0,054	-0,075
-667,291	149,117	0,066	0,065
-666,276	-70,442	-0,072	0,020
-665,262	-48,657	-0,068	-0,024
-664,247	203,294	-0,030	0,034
-663,232	800,000	0,032	0,065
-662,218	-111,489	0,142	-0,021
-661,203	22,202	0,008	-0,005
-660,189	-50,983	-0,065	0,022
-659,174	151,198	-0,097	-0,096
-658,159	697,284	-0,031	-0,059
-657,145	-111,351	-0,070	0,010
-656,130	-133,717	0,060	-0,005
-655,116	-200,000	0,010	0,155
-654,101	377,886	-0,028	0,042
-653,086	-30,580	-0,012	-0,005
-652,072	-36,765	-0,095	-0,037
-651,057	174,151	-0,086	0,090
-650,043	800,000	-0,070	-0,200
-649,028	800,000	-0,039	-0,097
-648,014	800,000	0,017	-0,048
-646,999	172,585	-0,060	0,063
-645,984	-16,998	0,151	0,069
-644,970	-69,207	-0,178	0,049
-643,955	479,448	0,048	-0,079
-642,941	367,275	-0,067	-0,099
-641,926	204,675	-0,061	0,069
-640,911	332,051	0,009	-0,012
-639,897	32,172	0,070	0,044
-638,882	-145,778	-0,202	0,013
-637,868	-164,688	0,040	-0,001
-636,853	-35,352	-0,093	-0,037
-635,838	7,867	-0,184	-0,100
-634,824	40,980	0,125	0,082
-633,809	-188,477	-0,181	-0,002
-632,795	-200,000	0,045	0,153
-631,780	91,666	0,036	0,029
-630,765	195,527	-0,085	-0,094
-629,751	-186,392	-0,077	0,001
-628,736	140,270	0,066	-0,063
-627,722	-133,870	-0,108	-0,010
-626,707	-94,676	0,161	-0,031
-625,692	508,564	-0,035	0,059
-624,678	-20,663	0,168	0,074
-623,663	66,819	-0,107	-0,079
-622,649	-55,115	0,063	-0,020
-621,634	-200,000	-0,008	0,053
-620,619	63,942	-0,087	0,063
-619,605	-150,436	0,161	-0,009
-618,590	-200,000	-0,017	-0,066
-617,576	800,000	-0,029	0,066
-616,561	-51,597	0,129	-0,043
-615,546	418,333	-0,105	0,164
-614,532	-53,409	0,049	0,016
-613,517	800,000	-0,099	-0,238
-612,503	39,574	-0,062	0,040
-611,488	-200,000	0,014	0,095
-610,474	-200,000	0,016	0,079
-609,459	800,000	0,054	-0,110
-608,444	322,346	-0,044	-0,061
-607,430	72,997	-0,033	-0,025
-606,415	-61,018	-0,021	0,006
-605,401	-90,291	0,078	0,016
-604,386	-200,000	-0,030	-0,151
-603,371	800,000	0,040	-0,082
-602,357	-200,000	0,013	0,062
-601,342	344,988	-0,075	-0,107
-600,328	271,822	0,057	-0,073
-599,313	157,621	0,115	-0,115
-598,298	-164,232	-0,040	-0,001
-597,284	134,704	0,139	0,130
-596,269	-200,000	-0,005	0,022
-595,255	-82,889	-0,094	-0,022
-594,240	529,627	0,031	-0,053
-593,225	107,253	-0,104	0,090
-592,211	-27,823	-0,097	-0,041
-591,196	800,000	0,114	-0,237
-590,182	800,000	-0,018	0,046
-589,167	-32,151	-0,044	0,018
-588,152	-23,853	0,085	-0,037
-587,138	312,080	-0,035	-0,048
-586,123	678,988	-0,044	0,084
-585,109	139,919	0,020	-0,019
-584,094	-162,778	-0,053	0,002
-583,079	271,842	0,051	-0,065
-582,065	800,000	-0,037	0,081
-581,050	328,870	-0,074	0,103
-580,036	102,399	0,040	-0,034
-579,021	39,739	-0,100	0,065
-578,006	112,451	-0,089	-0,078
-576,992	-77,372	0,059	0,015
-575,977	-55,077	0,022	-0,007
-574,963	-68,375	0,100	0,028
-573,948	35,801	-0,089	-0,057
-572,934	-23,088	0,035	-0,015
-571,919	-8,479	-0,155	0,075
-570,904	731,024	0,045	0,088
-569,890	-30,760	-0,036	-0,015
-568,875	-200,000	0,041	0,154
-567,861	40,146	-0,140	0,091
-566,846	-200,000	-0,005	0,104
-565,831	-200,000	-0,015	-0,143
-564,817	55,419	0,085	0,059
-563,802	626,771	-0,017	-0,031
-562,788	-41,536	-0,063	0,023
-561,773	-200,000	-0,005	-0,041
-560,758	337,980	0,020	-0,029
-559,744	259,417	0,104	0,130
-558,729	-54,180	-0,091	0,030
-557,715	-114,870	0,062	-0,008
-556,700	-79,193	-0,138	0,034
-555,685	-200,000	0,004	-0,029
-554,671	95,002	0,111	0,091
-553,656	-10,140	0,057	-0,027
-552,642	-200,000	-0,033	0,129
-551,627	408,203	0,080	-0,123
-550,612	448,152	-0,094	-0,151
-549,598	-1,358	0,031	-0,016
-548,583	24,163	-0,113	-0,067
-547,569	-98,825	0,044	0,008
-546,554	101,358	-0,012	-0,010
-545,539	-29,571	0,157	0,065
-544,525	-59,052	-0,048	0,015
-543,510	800,000	-0,019	-0,054
-542,496	-200,000	0,020	0,120
-541,481	-40,255	-0,071	-0,027
-540,466	-12,317	0,091	0,043
-539,452	-200,000	0,007	0,032
-538,437	-200,000	-0,014	0,077
-537,423	-200,000	0,006	-0,070
-536,408	498,734	0,049	0,082
-535,393	43,450	-0,085	-0,056
-534,379	-83,785	0,041	-0,009
-533,364	-17,414	-0,085	-0,039
-532,350	582,833	0,057	0,102
-531,335	-200,000	-0,024	0,087
-530,321	-104,502	-0,117	-0,019
-529,306	-2,841	0,027	0,013
-528,291	44,329	-0,102	0,068
-527,277	578,076	-0,026	-0,046
-526,262	800,000	0,065	-0,160
-525,248	-200,000	-0,006	-0,025
-524,233	800,000	0,085	0,185
-523,218	-100,227	0,056	-0,010
-522,204	433,398	-0,030	0,047
-521,189	54,993	-0,111	-0,077
-520,175	219,838	-0,081	-0,093
-519,160	-67,209	-0,131	0,037
-518,145	-200,000	0,008	0,103
-517,131	-200,000	0,002	-0,096
-516,116	107,945	0,099	0,085
-515,102	476,689	-0,075	0,123
-514,087	-15,773	-0,071	-0,033
-513,072	378,866	0,052	-0,078
-512,058	-127,653	-0,079	0,008
-511,043	-61,440	-0,168	0,051
-510,029	-200,000	0,024	0,082
-509,014	72,125	0,038	0,028
-507,999	369,941	-0,093	-0,137
-506,985	800,000	0,060	0,139
-505,970	429,555	0,029	-0,045
-504,956	-116,168	-0,093	0,012
-503,941	-200,000	-0,002	-0,070
-502,926	-70,650	0,086	-0,023
-501,912	800,000	0,009	0,024
-500,897	800,000	-0,021	-0,049
-499,883	265,709	-0,075	-0,094
-498,868	85,595	0,134	-0,106
-497,853	518,482	0,032	0,054
-496,839	-200,000	0,001	-0,043
-495,824	11,110	-0,053	-0,029
-494,810	-91,466	0,023	-0,005
-493,795	32,395	0,114	0,071
-492,781	800,000	-0,020	-0,050
-491,766	-36,383	-0,094	-0,036
-490,751	800,000	-0,025	-0,075
-489,737	-200,000	-0,018	-0,120
-488,722	284,383	-0,035	0,045
-487,708	800,000	0,060	0,178
-486,693	48,066	0,193	0,130
-485,678	-10,386	0,040	0,019
-484,664	509,117	0,008	0,013
-483,649	22,824	-0,026	-0,015
-482,635	32,357	-0,060	0,037
-481,620	-189,918	0,147	-0,001
-480,605	454,529	0,035	-0,057
-479,591	-16,564	-0,103	0,047
-478,576	19,045	-0,071	-0,041
-477,562	-200,000	-0,026	0,090
-476,547	-53,849	-0,076	0,025
-475,532	84,020	-0,043	-0,033
-474,518	-81,080	-0,083	-0,020
-473,503	239,272	0,143	0,172
-472,489	800,000	-0,047	-0,130
-471,474	40,002	0,142	0,092
-470,459	-200,000	-0,017	0,065
-469,445	-143,350	0,169	0,011
-468,430	800,000	0,063	-0,140
-467,416	118,353	-0,114	0,101
-466,401	800,000	0,023	-0,054
-465,386	274,571	-0,063	0,081
-464,372	39,372	-0,099	-0,064
-463,357	100,929	-0,046	-0,038
-462,343	181,541	-0,063	-0,067
-461,328	800,000	0,043	-0,101
-460,313	-149,073	-0,081	0,005
-459,299	177,552	0,125	0,131
-458,284	77,396	0,097	-0,074
-457,270	193,306	0,050	0,055
-456,255	-131,134	-0,083	0,008
-455,241	-99,913	0,018	0,003
-454,226	800,000	-0,028	0,074
-453,211	88,185	0,025	-0,020
-452,197	-200,000	0,019	0,092
-451,182	-140,172	-0,162	-0,012
-450,168	289,224	-0,035	0,045
-449,153	226,276	-0,106	-0,124
-448,138	-17,062	-0,066	0,030
-447,124	517,101	0,082	-0,139
-446,109	15,855	0,026	0,015
-445,095	-6,310	0,024	0,012
-444,080	100,216	-0,143	0,120
-443,065	685,201	0,012	-0,023
-442,051	-85,860	-0,025	0,006
-441,036	63,869	0,090	-0,065
-440,022	189,950	-0,099	0,107
-439,007	800,000	-0,047	-0,105
-437,992	717,709	0,026	0,051
-436,978	-162,111	0,248	0,009
-435,963	800,000	-0,025	-0,068
-434,949	-200,000	-0,020	-0,079
-433,934	570,238	0,023	-0,040
-432,919	-41,367	-0,035	-0,013
-431,905	800,000	-0,001	0,003
-430,890	-200,000	-0,011	-0,099
-429,876	48,311	0,079	0,053
-428,861	8,520	-0,073	0,039
-427,846	50,040	0,064	-0,044
-426,832	498,245	-0,023	0,038
-425,817	44,022	0,033	0,022
-424,803	-200,000	0,014	-0,085
-423,788	-200,000	-0,008	0,063
-422,773	-167,582	0,070	0,002
-421,759	-146,652	0,072	0,004
-420,744	-200,000	-0,001	0,126
-419,730	-77,231	-0,103	0,026
-418,715	111,796	-0,067	-0,058
-417,701	-200,000	0,002	0,012
-416,686	800,000	-0,066	-0,134
-415,671	300,530	0,044	0,059
-414,657	-126,377	0,077	0,008
-413,642	-58,194	0,100	0,031
-412,628	4,737	0,082	-0,043
-411,613	-200,000	-0,027	-0,142
-410,598	395,828	-0,044	-0,066
-409,584	-200,000	0,002	0,161
-408,569	648,367	0,035	-0,065
-407,555	800,000	-0,035	0,085
-406,540	-56,586	-0,097	0,031
-405,525	-62,727	-0,132	-0,039
-404,511	-200,000	0,012	-0,067
-403,496	225,389	0,042	-0,049
-402,482	266,495	0,052	0,065
-401,467	237,084	0,123	-0,147
-400,452	800,000	0,016	-0,035
-399,438	283,790	-0,047	-0,060
-398,423	590,803	-0,050	-0,088
-397,409	800,000	0,030	-0,088
-396,394	-24,706	-0,028	0,012
-395,379	-25,167	0,107	0,045
-394,365	83,125	0,007	-0,005
-393,350	800,000	0,045	-0,138
-392,336	-200,000	0,058	0,234
-391,321	70,005	-0,116	0,086
-390,306	47,055	0,099	-0,066
-389,292	74,990	-0,066	0,050
-388,277	-26,571	-0,068	-0,028
-387,263	223,626	0,042	0,049
-386,248	10,604	0,066	0,036
-385,233	162,134	-0,033	0,034
-384,219	87,724	0,046	-0,037
-383,204	800,000	-0,094	-0,274
-382,190	583,587	-0,037	0,066
-381,175	800,000	-0,035	-0,107
-380,160	100,618	0,150	-0,125
-379,146	659,954	0,003	-0,005
-378,131	-78,947	-0,082	0,020
-377,117	10,186	-0,049	-0,027
-376,102	-200,000	-0,041	-0,170
-375,088	-52,695	-0,074	-0,024
-374,073	-200,000	-0,012	0,044
-373,058	-44,221	0,098	-0,035
-372,044	26,505	0,066	0,040
-371,029	-33,074	0,179	-0,071
-370,015	56,973	0,031	-0,021
-369,000	309,512	0,098	-0,132
-367,985	-200,000	-0,003	0,019
-366,971	800,000	-0,025	0,077
-365,956	-200,000	-0,000	0,126
-364,942	800,000	0,043	-0,115
-363,927	-200,000	0,022	0,093
-362,912	-200,000	-0,007	-0,030
-361,898	330,868	0,066	0,092
-360,883	-200,000	0,002	-0,017
-359,869	-90,097	-0,142	0,030
-358,854	800,000	0,066	0,156
-357,839	-200,000	-0,003	0,157
-356,825	-14,636	0,108	0,050
-355,810	-200,000	0,002	0,078
-354,796	800,000	0,076	0,164
-353,781	-29,862	-0,101	-0,041
-352,766	141,191	-0,050	-0,048
-351,752	-200,000	-0,009	0,067
-350,737	-25,349	0,073	0,031
-349,723	18,270	0,117	0,067
-348,708	-29,631	-0,094	-0,038
-347,693	108,551	0,072	0,062
-346,679	534,927	-0,020	-0,033
-345,664	-200,000	0,004	-0,019
-344,650	229,938	0,058	0,068
-343,635	-120,312	0,032	0,004
-342,620	31,533	0,095	0,058
-341,606	-200,000	0,001	-0,024
-340,591	-200,000	-0,003	0,094
-339,577	-200,000	-0,013	-0,074
-338,562	-200,000	0,004	-0,113
-337,548	101,553	-0,022	0,018
-336,533	310,979	0,011	-0,015
-335,518	204,552	0,061	0,068
-334,504	-200,000	-0,075	0,258
-333,489	-200,000	-0,006	0,169
-332,475	-53,144	-0,071	0,023
-331,460	800,000	0,024	-0,048
-330,445	10,110	-0,141	-0,077
-329,431	-122,452	0,124	-0,014
-328,416	150,147	-0,027	0,026
-327,402	412,235	-0,076	-0,116
-326,387	-200,000	0,002	0,079
-325,372	-46,739	-0,135	0,047
-324,358	87,847	0,065	-0,052
-323,343	185,919	-0,088	-0,094
-322,329	248,119	-0,101	0,122
-321,314	262,571	0,058	0,072
-320,299	63,017	0,096	0,069
-319,285	-12,196	-0,053	0,025
-318,270	-200,000	0,007	-0,032
-317,256	-55,982	-0,103	-0,033
-316,241	82,443	-0,089	-0,069
-315,226	-111,316	0,074	0,011
-314,212	-200,000	-0,032	0,111
-313,197	-200,000	-0,004	-0,013
-312,183	-200,000	0,014	0,087
-311,168	-200,000	0,004	-0,063
-310,153	-139,501	0,022	-0,002
-309,139	117,265	-0,053	0,046
-308,124	800,000	0,029	0,090
-307,110	-133,599	-0,052	-0,005
-306,095	800,000	-0,046	0,100
-305,080	60,614	-0,068	0,048
-304,066	226,716	-0,023	-0,027
-303,051	800,000	-0,070	-0,164
-302,037	800,000	0,013	-0,040
-301,022	107,710	0,143	-0,122
-300,008	-113,698	0,098	-0,014
-298,993	200,744	-0,060	-0,066
-297,978	-200,000	-0,000	0,056
-296,964	800,000	-0,022	-0,065
-295,949	-200,000	-0,031	-0,116
-294,935	90,495	0,084	-0,067
-293,920	-30,541	-0,180	0,073
-292,905	44,927	0,091	-0,060
-291,891	-88,679	0,130	-0,027
-290,876	316,081	0,033	-0,044
-289,862	6,298	0,090	-0,048
-288,847	348,807	0,033	0,046
-287,832	389,897	0,090	-0,134
-286,818	-200,000	0,006	0,052
-285,803	-96,461	0,157	0,029
-284,789	57,287	-0,082	0,057
-283,774	277,911	0,034	0,043
-282,759	-85,327	-0,022	0,005
-281,745	56,541	0,073	-0,051
-280,730	800,000	-0,085	-0,194
-279,716	-85,521	-0,052	0,011
-278,701	126,391	0,086	-0,078
-277,686	-36,421	-0,049	-0,019
-276,672	2,025	0,076	0,039
-275,657	-200,000	-0,002	-0,076
-274,643	58,721	0,058	-0,041
-273,628	-112,262	-0,102	-0,014
-272,613	119,500	-0,055	0,049
-271,599	360,071	0,022	0,032
-270,584	800,000	-0,041	-0,094
-269,570	-200,000	-0,002	-0,118
-268,555	315,382	-0,067	0,090
-267,540	395,639	0,043	0,064
-266,526	-200,000	0,027	-0,136
-265,511	-8,691	0,044	-0,021
-264,497	250,826	-0,027	-0,033
-263,482	24,968	-0,029	-0,017
-262,467	-89,003	-0,080	0,017
-261,453	800,000	0,034	-0,099
-260,438	-143,323	0,068	0,005
-259,424	419,502	0,014	0,021
-258,409	-105,034	0,010	0,002
-257,395	-200,000	-0,007	-0,069
-256,380	207,422	-0,026	0,029
-255,365	-200,000	0,038	0,154
-254,351	800,000	-0,034	0,093
-253,336	800,000	-0,083	-0,170
-252,322	65,416	0,030	0,022
-251,307	-57,472	0,217	-0,068
-250,292	-66,385	-0,193	0,054
-249,278	4,575	0,091	-0,047
-248,263	189,581	-0,065	0,070
-247,249	91,566	0,058	0,047
-246,234	-200,000	-0,019	-0,125
-245,219	-18,601	-0,103	-0,046
-244,205	24,053	-0,014	-0,008
-243,190	89,528	0,107	-0,085
-242,176	-200,000	-0,014	0,092
-241,161	245,677	-0,050	-0,060
-240,146	-200,000	0,013	0,052
-239,132	-9,117	-0,103	0,049
-238,117	292,393	-0,060	-0,079
-237,103	521,063	-0,028	0,046
-236,088	773,159	-0,007	-0,014
-235,073	-200,000	-0,003	0,116
-234,059	316,994	0,060	0,081
-233,044	395,314	-0,061	0,091
-232,030	-200,000	0,008	0,057
-231,015	559,953	-0,067	0,116
-230,000	-81,371	-0,078	-0,018
-228,986	-128,663	-0,084	-0,008
-227,971	800,000	-0,032	0,074
-226,957	800,000	0,042	-0,113
-225,942	-42,427	0,141	0,051
-224,927	-200,000	0,004	0,121
-223,913	800,000	0,027	0,062
-222,898	78,419	0,050	-0,038
-221,884	494,416	-0,046	-0,076
-220,869	148,053	0,033	0,032
-219,855	800,000	-0,022	-0,070
-218,840	-200,000	0,001	0,151
-217,825	266,156	0,039	-0,049
-216,811	800,000	0,027	-0,058
-215,796	-99,682	-0,124	-0,022
-214,782	319,177	0,048	-0,065
-213,767	-63,989	0,109	-0,032
-212,752	-36,471	0,090	0,034
-211,738	800,000	0,055	-0,140
-210,723	0,723	0,040	0,020
-209,709	-15,951	0,041	-0,019
-208,694	3,781	-0,103	-0,054
-207,679	-122,081	0,076	-0,009
-206,665	-200,000	0,013	-0,072
-205,650	800,000	-0,034	-0,081
-204,636	-142,261	0,104	-0,007
-203,621	-200,000	-0,019	0,072
-202,606	-200,000	-0,023	0,186
-201,592	603,766	-0,092	-0,164
-200,577	197,539	0,109	-0,119
-199,563	-96,267	-0,084	0,016
-198,548	139,718	0,038	0,036
-197,533	223,235	0,026	-0,030
-196,519	180,267	-0,068	-0,071
-195,504	515,950	0,062	-0,104
-194,490	-136,815	0,022	-0,002
-193,475	-77,351	-0,109	-0,027
-192,460	251,257	0,060	0,073
-191,446	52,458	0,034	-0,023
-190,431	800,000	0,024	0,048
-189,417	519,022	0,029	0,049
-188,402	-200,000	0,006	0,042
-187,387	-200,000	0,003	-0,060
-186,373	-14,749	-0,095	-0,043
-185,358	-200,000	0,022	-0,098
-184,344	-200,000	0,043	0,200
-183,329	23,767	0,079	0,046
-182,315	-15,486	0,085	0,038
-181,300	489,033	0,031	-0,051
-180,285	-41,799	-0,050	-0,018
-179,271	176,716	-0,070	-0,073
-178,256	-200,000	-0,018	0,122
-177,242	594,336	0,065	0,115
-176,227	-112,440	0,143	0,020
-175,212	-67,006	-0,126	-0,035
-174,198	-45,186	-0,040	0,014
-173,183	8,386	-0,093	-0,050
-172,169	-200,000	-0,012	-0,149
-171,154	135,663	0,052	0,048
-170,139	34,908	0,128	-0,080
-169,125	800,000	0,015	0,048
-168,110	0,351	0,125	0,063
-167,096	190,117	0,067	-0,072
-166,081	-1,161	0,032	-0,016
-165,066	13,396	-0,066	-0,036
-164,052	-149,485	-0,076	0,004
-163,037	-147,186	0,227	-0,014
-162,023	-200,000	-0,027	0,171
-161,008	129,016	0,082	0,075
-159,993	800,000	-0,018	0,041
-158,979	-132,048	0,067	-0,006
-157,964	800,000	-0,010	0,020
-156,950	-200,000	0,003	0,044
-155,935	-15,851	-0,055	-0,025
-154,920	-200,000	-0,000	-0,012
-153,906	-200,000	-0,007	0,075
-152,891	558,772	-0,071	0,122
-151,877	800,000	0,046	0,119
-150,862	58,535	-0,146	0,102
-149,847	-66,566	-0,154	-0,043
-148,833	-77,833	0,018	-0,004
-147,818	-111,753	0,224	0,032
-146,804	800,000	0,025	0,063
-145,789	800,000	-0,066	0,146
-144,775	184,031	-0,030	-0,031
-143,760	327,270	0,030	-0,041
-142,745	464,105	-0,055	-0,088
-141,731	-43,434	0,078	-0,028
-140,716	800,000	0,053	-0,140
-139,702	-200,000	0,019	-0,113
-138,687	3,764	0,182	0,094
-137,672	-143,102	-0,157	-0,011
-136,658	-152,750	-0,169	-0,008
-135,643	800,000	0,028	-0,084
-134,629	243,774	0,057	0,068
-133,614	19,091	0,120	0,068
-132,599	221,459	0,060	-0,069
-131,585	365,820	0,016	0,024
-130,570	520,420	-0,077	0,129
-129,556	125,635	-0,099	-0,089
-128,541	-103,349	-0,135	-0,022
-127,526	-136,080	0,107	-0,009
-126,512	202,902	-0,053	-0,058
-125,497	175,994	0,005	0,005
-124,483	582,964	0,017	0,030
-123,468	800,000	-0,054	-0,120
-122,453	29,904	0,156	-0,095
-121,439	800,000	-0,033	0,071
-120,424	29,089	0,072	-0,044
-119,410	800,000	-0,017	-0,040
-118,395	-89,852	0,112	0,023
