DTS Sentinel unit serial number:	SN410029Multiplexer serial number:	ORYXHardware model number:	OX2-SRSoftware version number:	ORYX F/W v4,00 Oryx Data Collector v3.7.2.0data status	okinstallation	BH3 CH2differential loss correction	single-endedforward channel	channel 2reverse channel	N/Adate	2023/12/06time	07:22:28forward acquisition time	300,00reverse acquisition time	0,00gamma	499,1914k internal	0,3197k external	0,3197temperature offset calibration	1,0000default loss term (dB/km)	0,3820temperature slope calibration	1,0000multiplexer offset coefficient	1,0000multiplexer slope coefficient	1,0000fibre end	0,00T internal ref (°C)	8,81T ext. ref 1 (°C)	-5,86T ext. ref 2 (°C)	-5,97length (m)	temperature (°C)	Stokes	anti-Stokes-744,400	-200,000	-0,005	-0,076
-743,385	-33,048	-0,219	0,088
-742,371	800,000	0,008	-0,018
-741,356	102,429	-0,103	0,088
-740,342	-200,000	-0,008	0,086
-739,327	156,580	-0,236	0,238
-738,312	-200,000	-0,009	-0,042
-737,298	4,464	-0,272	0,145
-736,283	-200,000	0,037	-0,206
-735,269	37,507	-0,326	0,210
-734,254	-200,000	0,026	-0,156
-733,239	30,826	-0,339	-0,211
-732,225	618,074	0,041	-0,075
-731,210	-200,000	0,027	0,126
-730,196	-64,513	-0,051	-0,015
-729,181	-200,000	0,047	0,150
-728,167	-149,349	-0,083	0,005
-727,152	-122,773	0,084	-0,010
-726,137	289,984	-0,049	-0,065
-725,123	-137,500	0,123	0,010
-724,108	800,000	-0,039	-0,095
-723,094	36,347	-0,098	-0,063
-722,079	-69,018	0,047	-0,013
-721,064	-89,215	-0,145	0,031
-720,050	-10,459	-0,058	0,028
-719,035	-60,892	-0,022	0,007
-718,021	-200,000	-0,035	-0,142
-717,006	165,314	-0,074	-0,077
-715,991	-200,000	0,006	-0,066
-714,977	800,000	0,061	0,134
-713,962	196,793	-0,060	-0,067
-712,948	-165,293	-0,147	-0,005
-711,933	164,204	0,054	0,055
-710,918	167,035	-0,022	-0,023
-709,904	42,896	-0,093	-0,061
-708,889	-200,000	0,014	-0,164
-707,875	109,821	-0,031	0,027
-706,860	-200,000	0,001	-0,012
-705,845	-21,516	0,059	0,026
-704,831	-200,000	0,000	0,028
-703,816	-200,000	0,012	-0,053
-702,802	-200,000	-0,007	0,126
-701,787	-30,906	0,054	-0,022
-700,772	-13,118	-0,083	0,039
-699,758	800,000	-0,045	-0,098
-698,743	-161,693	0,156	-0,006
-697,729	21,864	-0,091	0,054
-696,714	-78,564	0,130	-0,032
-695,699	276,173	-0,110	-0,142
-694,685	165,150	-0,088	0,091
-693,670	652,473	0,008	0,015
-692,656	48,927	-0,160	0,109
-691,641	-119,741	0,033	0,004
-690,627	800,000	-0,055	0,111
-689,612	-82,214	-0,089	-0,021
-688,597	130,465	-0,064	0,059
-687,583	800,000	-0,018	0,054
-686,568	105,274	-0,092	-0,079
-685,554	81,012	-0,134	-0,105
-684,539	-200,000	0,005	0,041
-683,524	17,158	0,071	0,041
-682,510	-200,000	0,001	-0,089
-681,495	-200,000	-0,020	0,069
-680,481	800,000	0,045	-0,101
-679,466	304,362	-0,033	-0,045
-678,451	115,947	-0,030	-0,027
-677,437	800,000	-0,017	-0,049
-676,422	-95,465	0,139	-0,027
-675,408	-122,159	0,023	0,003
-674,393	-112,277	-0,006	0,001
-673,378	800,000	-0,039	0,092
-672,364	-200,000	-0,021	-0,134
-671,349	-123,761	-0,069	0,008
-670,335	257,760	-0,067	0,083
-669,320	36,583	-0,060	0,039
-668,305	800,000	-0,031	0,081
-667,291	268,393	-0,041	0,052
-666,276	243,634	-0,110	-0,134
-665,262	417,428	0,043	-0,067
-664,247	-30,937	-0,095	0,039
-663,232	-200,000	-0,001	-0,027
-662,218	63,993	0,041	-0,030
-661,203	112,889	-0,004	0,003
-660,189	-79,928	0,145	0,035
-659,174	-200,000	0,005	-0,129
-658,159	800,000	0,010	0,023
-657,145	113,992	-0,015	-0,013
-656,130	-71,572	0,057	0,015
-655,116	-24,075	0,095	0,041
-654,101	-59,969	-0,127	0,039
-653,086	569,177	-0,024	0,043
-652,072	800,000	-0,039	-0,095
-651,057	-76,135	-0,047	-0,012
-650,043	-200,000	0,006	-0,082
-649,028	-65,484	-0,112	-0,033
-648,014	371,519	0,019	-0,028
-646,999	800,000	0,010	-0,023
-645,984	205,503	-0,038	-0,043
-644,970	248,965	-0,154	-0,190
-643,955	-137,448	0,060	-0,005
-642,941	-25,782	-0,039	-0,017
-641,926	211,983	0,071	0,081
-640,911	45,924	-0,121	0,081
-639,897	52,529	0,057	0,040
-638,882	-122,364	-0,160	-0,019
-637,868	239,614	0,059	-0,071
-636,853	-129,070	-0,112	-0,011
-635,838	-81,395	-0,074	0,018
-634,824	126,099	-0,108	0,099
-633,809	524,667	0,061	0,105
-632,795	38,715	-0,040	0,026
-631,780	800,000	0,043	0,111
-630,765	130,375	-0,061	-0,056
-629,751	-200,000	0,001	-0,021
-628,736	12,447	0,051	0,028
-627,722	-200,000	0,000	-0,054
-626,707	727,794	-0,077	0,149
-625,692	800,000	0,046	0,140
-624,678	800,000	0,011	0,026
-623,663	25,853	-0,054	-0,033
-622,649	-200,000	-0,001	-0,221
-621,634	615,805	-0,085	-0,155
-620,619	-200,000	-0,002	0,052
-619,605	-29,687	0,103	0,042
-618,590	-56,304	-0,073	-0,023
-617,576	-200,000	-0,001	0,035
-616,561	-200,000	-0,019	-0,106
-615,546	-200,000	-0,000	-0,083
-614,532	-200,000	-0,001	-0,153
-613,517	68,386	-0,074	-0,055
-612,503	4,098	0,083	-0,044
-611,488	231,205	0,022	0,027
-610,474	-200,000	0,014	-0,047
-609,459	20,297	-0,059	0,035
-608,444	72,800	-0,066	-0,050
-607,430	-18,256	-0,076	-0,034
-606,415	-11,543	-0,052	-0,025
-605,401	429,391	0,108	0,170
-604,386	-200,000	0,007	-0,033
-603,371	318,105	0,053	0,073
-602,357	800,000	-0,031	0,079
-601,342	-200,000	0,019	0,069
-600,328	-86,508	-0,155	0,034
-599,313	800,000	-0,058	-0,157
-598,298	-200,000	-0,006	0,135
-597,284	-200,000	-0,040	0,150
-596,269	-54,273	-0,026	-0,008
-595,255	800,000	0,014	0,039
-594,240	-200,000	-0,005	-0,078
-593,225	-200,000	0,000	-0,147
-592,211	-116,212	0,101	-0,013
-591,196	-122,567	-0,135	-0,016
-590,182	276,122	0,063	0,082
-589,167	-200,000	-0,041	0,165
-588,152	306,954	0,013	0,017
-587,138	-200,000	-0,025	-0,154
-586,123	49,961	-0,137	-0,094
-585,109	-85,709	0,116	-0,026
-584,094	800,000	-0,023	-0,068
-583,079	164,828	-0,027	0,027
-582,065	-200,000	0,020	0,081
-581,050	796,391	-0,053	0,107
-580,036	800,000	-0,030	0,060
-579,021	-133,403	-0,140	-0,013
-578,006	-200,000	0,001	-0,099
-576,992	800,000	0,012	-0,025
-575,977	-200,000	0,019	-0,115
-574,963	-200,000	0,008	0,029
-573,948	-125,138	-0,042	0,005
-572,934	-200,000	0,017	0,133
-571,919	-53,607	0,062	-0,020
-570,904	-88,865	-0,136	-0,029
-569,890	76,511	0,105	0,080
-568,875	-95,602	-0,151	0,029
-567,861	-95,109	0,095	-0,018
-566,846	-200,000	0,002	0,169
-565,831	-19,317	-0,024	0,011
-564,817	800,000	0,059	0,128
-563,802	490,876	-0,042	-0,069
-562,788	395,738	-0,043	-0,065
-561,773	-200,000	0,028	0,117
-560,758	531,848	-0,051	0,087
-559,744	57,776	0,054	0,038
-558,729	279,076	0,114	-0,148
-557,715	795,122	-0,057	-0,114
-556,700	-200,000	-0,015	-0,153
-555,685	-200,000	-0,006	-0,132
-554,671	-43,441	0,037	-0,013
-553,656	158,759	0,044	-0,045
-552,642	-113,455	-0,081	0,011
-551,627	-200,000	0,015	0,145
-550,612	-200,000	-0,017	0,056
-549,598	-85,132	-0,123	0,028
-548,583	78,947	-0,070	0,054
-547,569	263,516	-0,066	0,082
-546,554	98,172	0,048	0,040
-545,539	160,342	0,086	-0,087
-544,525	185,908	-0,160	0,172
-543,510	611,800	-0,028	-0,051
-542,496	-200,000	-0,046	-0,157
-541,481	215,304	0,106	-0,121
-540,466	-96,517	-0,052	-0,010
-539,452	187,529	-0,025	-0,027
-538,437	-107,491	-0,131	-0,021
-537,423	18,974	-0,060	-0,035
-536,408	-25,460	-0,106	0,045
-535,393	800,000	0,016	0,044
-534,379	-145,028	-0,064	-0,004
-533,364	-200,000	-0,003	0,052
-532,350	-200,000	-0,003	0,055
-531,335	-200,000	-0,001	-0,079
-530,321	-200,000	0,004	0,042
-529,306	800,000	-0,022	0,063
-528,291	-200,000	0,028	-0,127
-527,277	47,521	0,052	-0,035
-526,262	62,503	0,093	-0,067
-525,248	138,696	0,036	-0,034
-524,233	203,714	0,026	0,029
-523,218	-74,737	0,018	-0,005
-522,204	-200,000	0,017	-0,066
-521,189	800,000	-0,018	-0,042
-520,175	35,999	-0,071	-0,045
-519,160	-52,500	-0,017	-0,006
-518,145	610,509	0,044	-0,080
-517,131	-200,000	-0,019	-0,082
-516,116	10,971	0,086	-0,047
-515,102	-138,060	0,055	-0,004
-514,087	99,659	-0,047	-0,039
-513,072	800,000	-0,022	0,055
-512,058	193,843	-0,045	0,050
-511,043	8,306	0,055	0,030
-510,029	800,000	0,048	-0,140
-509,014	-61,282	-0,021	-0,006
-507,999	-58,343	0,163	-0,051
-506,985	-43,179	-0,097	0,035
-505,970	-21,013	-0,104	-0,046
-504,956	179,404	-0,102	-0,108
-503,941	-146,845	0,196	0,012
-502,926	20,307	-0,048	0,028
-501,912	800,000	0,056	0,122
-500,897	-100,319	0,210	-0,037
-499,883	-76,085	-0,110	-0,028
-498,868	800,000	-0,009	-0,027
-497,853	26,763	-0,108	0,065
-496,839	-4,957	-0,063	-0,031
-495,824	-200,000	0,008	0,085
-494,810	80,283	0,104	0,081
-493,795	-200,000	-0,010	0,149
-492,781	743,946	-0,042	0,082
-491,766	-105,933	-0,114	0,018
-490,751	-23,092	-0,015	0,007
-489,737	-200,000	0,013	0,056
-488,722	171,436	0,093	-0,097
-487,708	8,651	-0,119	-0,065
-486,693	-200,000	0,010	0,173
-485,678	11,933	0,076	0,042
-484,664	244,830	0,100	-0,121
-483,649	278,004	0,064	-0,082
-482,635	800,000	0,033	0,085
-481,620	-200,000	0,003	0,129
-480,605	20,858	0,037	-0,022
-479,591	800,000	-0,077	-0,199
-478,576	-100,994	-0,086	0,015
-477,562	106,859	-0,114	-0,097
-476,547	-200,000	0,011	-0,087
-475,532	800,000	0,067	-0,157
-474,518	-125,788	0,129	-0,014
-473,503	-200,000	-0,018	-0,152
-472,489	89,428	0,082	0,066
-471,474	-200,000	0,000	0,070
-470,459	125,246	-0,044	0,040
-469,445	-101,403	0,062	-0,011
-468,430	-114,361	-0,072	-0,010
-467,416	-3,318	0,059	-0,029
-466,401	800,000	-0,016	0,046
-465,386	-200,000	-0,002	0,084
-464,372	3,015	0,060	-0,031
-463,357	-132,156	-0,252	0,023
-462,343	-135,259	-0,063	-0,005
-461,328	128,128	0,019	0,018
-460,313	152,512	-0,109	-0,107
-459,299	-200,000	0,003	-0,084
-458,284	59,585	0,077	0,055
-457,270	-74,423	0,077	-0,020
-456,255	311,832	-0,031	0,042
-455,241	-200,000	-0,010	-0,117
-454,226	800,000	-0,050	-0,101
-453,211	527,660	0,062	-0,106
-452,197	80,441	-0,091	0,070
-451,182	-80,528	-0,039	-0,009
-450,168	-32,161	0,045	-0,018
-449,153	800,000	0,022	-0,060
-448,138	-200,000	0,004	0,076
-447,124	-30,597	0,125	-0,051
-446,109	-174,279	-0,096	-0,002
-445,095	800,000	0,061	0,151
-444,080	-109,846	0,052	-0,008
-443,065	-200,000	-0,043	0,165
-442,051	256,733	0,022	-0,027
-441,036	196,211	-0,004	-0,005
-440,022	-194,449	-0,076	0,000
-439,007	-127,063	0,051	0,005
-437,992	122,333	-0,079	0,071
-436,978	513,205	-0,027	-0,045
-435,963	-128,339	0,081	-0,008
-434,949	419,112	0,114	0,176
-433,934	766,253	-0,065	0,127
-432,919	-158,938	-0,082	-0,003
-431,905	-78,112	-0,054	-0,013
-430,890	-69,961	-0,058	0,016
-429,876	-116,408	-0,068	-0,009
-428,861	-103,057	-0,045	-0,008
-427,846	800,000	0,046	-0,112
-426,832	-46,066	-0,105	0,037
-425,817	85,012	0,173	-0,136
-424,803	800,000	-0,054	-0,132
-423,788	153,789	-0,022	-0,022
-422,773	-132,517	0,070	0,006
-421,759	800,000	0,060	0,152
-420,744	4,330	0,039	0,021
-419,730	155,249	0,077	-0,076
-418,715	13,254	0,035	-0,020
-417,701	-37,223	-0,062	-0,024
-416,686	800,000	0,043	0,106
-415,671	40,699	0,121	0,079
-414,657	451,612	0,062	0,099
-413,642	-35,203	-0,143	-0,056
-412,628	-11,577	0,147	-0,069
-411,613	-200,000	-0,020	-0,121
-410,598	64,485	-0,010	0,007
-409,584	-200,000	-0,010	0,119
-408,569	800,000	0,049	0,113
-407,555	-200,000	0,016	-0,148
-406,540	17,559	-0,049	0,028
-405,525	-93,818	-0,132	-0,026
-404,511	-200,000	-0,018	-0,085
-403,496	-133,410	-0,023	-0,002
-402,482	-10,541	-0,063	0,030
-401,467	-200,000	-0,007	0,145
-400,452	800,000	0,021	-0,052
-399,438	215,420	0,041	-0,047
-398,423	644,656	0,042	-0,077
-397,409	-55,775	-0,056	0,018
-396,394	-171,099	0,124	0,003
-395,379	150,307	0,019	0,018
-394,365	127,248	0,037	0,033
-393,350	-200,000	0,041	0,162
-392,336	221,851	0,074	0,086
-391,321	-81,779	-0,028	0,007
-390,306	108,744	-0,076	-0,065
-389,292	800,000	-0,042	0,120
-388,277	-90,446	0,092	-0,019
-387,263	21,345	-0,060	0,035
-386,248	-17,560	0,044	-0,020
-385,233	-99,574	0,147	-0,026
-384,219	-200,000	-0,015	0,063
-383,204	138,640	-0,063	-0,059
-382,190	124,208	-0,097	-0,087
-381,175	361,713	0,094	-0,136
-380,160	624,123	-0,020	0,037
-379,146	108,552	-0,060	0,052
-378,131	205,471	0,063	0,070
-377,117	-78,212	-0,189	0,046
-376,102	510,149	-0,063	-0,105
-375,088	166,295	-0,105	-0,106
-374,073	115,944	0,095	-0,083
-373,058	-44,167	-0,060	-0,021
-372,044	417,639	-0,076	0,117
-371,029	800,000	0,101	0,242
-370,015	-200,000	0,003	-0,016
-369,000	-55,648	-0,117	-0,037
-367,985	800,000	-0,029	0,059
-366,971	-173,860	-0,094	-0,002
-365,956	-38,697	0,119	0,045
-364,942	288,658	0,097	0,126
-363,927	-200,000	-0,002	0,045
-362,912	-28,490	0,115	0,047
-361,898	800,000	-0,065	0,138
-360,883	184,582	-0,049	0,052
-359,869	-131,257	0,127	-0,012
-358,854	-113,636	0,016	0,002
-357,839	425,470	0,035	0,054
-356,825	-200,000	0,031	0,193
-355,810	614,144	-0,045	-0,082
-354,796	525,802	0,010	0,018
-353,781	-24,008	0,023	0,010
-352,766	-61,681	-0,113	0,034
-351,752	-168,335	0,198	-0,005
-350,737	746,169	0,019	0,036
-349,723	-200,000	-0,013	0,066
-348,708	-200,000	0,003	0,017
-347,693	-200,000	0,001	0,069
-346,679	105,312	-0,162	-0,137
-345,664	144,744	-0,025	0,024
-344,650	-61,851	0,052	0,016
-343,635	800,000	0,029	0,068
-342,620	-114,867	0,055	-0,007
-341,606	116,796	0,069	-0,061
-340,591	5,408	0,077	-0,041
-339,577	328,121	-0,111	-0,154
-338,562	-200,000	-0,024	-0,115
-337,548	311,309	-0,018	-0,024
-336,533	184,794	0,049	-0,052
-335,518	613,769	-0,009	-0,017
-334,504	60,589	-0,056	0,040
-333,489	-200,000	0,001	-0,029
-332,475	-200,000	0,026	-0,105
-331,460	287,570	0,049	-0,064
-330,445	-23,296	0,036	-0,015
-329,431	112,158	0,030	0,026
-328,416	-200,000	0,006	-0,091
-327,402	-1,637	-0,049	0,025
-326,387	632,011	-0,038	0,070
-325,372	-11,280	0,016	-0,008
-324,358	-165,369	0,175	-0,005
-323,343	60,905	-0,050	0,036
-322,329	98,368	0,139	-0,115
-321,314	800,000	-0,027	0,056
-320,299	-200,000	0,017	0,146
-319,285	126,578	0,111	0,101
-318,270	-93,615	-0,200	0,039
-317,256	-200,000	0,014	-0,049
-316,241	-102,210	-0,078	0,013
-315,226	153,196	-0,047	0,046
-314,212	177,775	-0,017	-0,018
-313,197	-200,000	-0,022	0,160
-312,183	800,000	0,072	0,216
-311,168	800,000	-0,025	-0,072
-310,153	-200,000	0,004	-0,055
-309,139	345,188	0,064	-0,091
-308,124	229,325	0,054	-0,064
-307,110	-4,749	-0,141	-0,069
-306,095	-37,341	0,083	0,032
-305,080	11,314	0,106	-0,058
-304,066	-92,395	0,031	0,006
-303,051	25,876	-0,139	-0,082
-302,037	141,620	0,017	-0,016
-301,022	153,912	0,125	0,122
-300,008	-140,981	0,092	0,007
-298,993	272,891	0,099	-0,125
-297,978	-82,693	0,097	0,022
-296,964	-78,515	0,100	-0,024
-295,949	-90,623	0,015	0,003
-294,935	-120,678	-0,133	0,016
-293,920	-70,529	0,110	-0,030
-292,905	-62,622	0,062	-0,018
-291,891	-41,637	0,109	0,040
-290,876	94,559	-0,112	-0,091
-289,862	-200,000	-0,026	0,154
-288,847	285,855	0,072	-0,093
-287,832	88,732	0,030	0,024
-286,818	-80,463	0,118	0,028
-285,803	163,880	-0,016	-0,016
-284,789	139,581	-0,074	0,070
-283,774	335,771	0,084	0,116
-282,759	800,000	0,018	-0,045
-281,745	800,000	0,019	0,049
-280,730	-200,000	-0,002	0,026
-279,716	-200,000	0,004	0,023
-278,701	282,127	0,031	0,040
-277,686	-145,857	0,129	0,008
-276,672	800,000	-0,091	0,231
-275,657	-86,978	-0,111	-0,024
-274,643	355,009	-0,030	0,042
-273,628	592,518	-0,052	-0,092
-272,613	-200,000	-0,025	0,128
-271,599	-4,595	0,109	0,054
-270,584	53,310	0,063	0,043
-269,570	-5,383	0,031	0,015
-268,555	800,000	0,095	0,189
-267,540	800,000	0,042	-0,122
-266,526	-200,000	0,016	-0,143
-265,511	800,000	0,087	-0,211
-264,497	800,000	-0,019	0,044
-263,482	-97,737	0,063	-0,012
-262,467	99,164	-0,019	-0,015
-261,453	-200,000	-0,035	-0,110
-260,438	-200,000	-0,015	-0,114
-259,424	8,493	-0,062	-0,033
-258,409	66,043	-0,054	-0,039
-257,395	800,000	-0,015	0,042
-256,380	398,287	-0,086	-0,129
-255,365	577,526	0,026	0,045
-254,351	-200,000	-0,017	-0,058
-253,336	82,256	-0,044	0,034
-252,322	75,191	0,098	-0,073
-251,307	15,158	-0,026	-0,015
-250,292	96,372	-0,089	0,072
-249,278	-51,140	0,077	-0,025
-248,263	800,000	0,075	0,150
-247,249	800,000	-0,051	0,143
-246,234	800,000	0,043	-0,099
-245,219	-200,000	-0,008	-0,060
-244,205	-101,665	-0,099	0,017
-243,190	-173,066	-0,151	-0,003
-242,176	523,046	-0,010	0,017
-241,161	500,139	0,058	0,096
-240,146	-102,127	0,019	-0,003
-239,132	-62,883	0,107	-0,032
-238,117	424,750	-0,058	0,090
-237,103	-200,000	0,030	-0,126
-236,088	-200,000	-0,019	-0,101
-235,073	-41,530	0,054	0,020
-234,059	-164,652	0,129	-0,004
-233,044	670,939	-0,039	0,072
-232,030	-87,093	-0,127	-0,027
-231,015	689,778	-0,033	-0,062
-230,000	276,496	-0,025	-0,032
-228,986	9,126	0,132	0,071
-227,971	-200,000	0,015	0,144
-226,957	-69,410	0,070	0,019
-225,942	-42,380	-0,055	-0,020
-224,927	-125,509	-0,117	0,013
-223,913	266,128	-0,050	0,063
-222,898	800,000	-0,047	-0,129
-221,884	16,327	-0,012	-0,007
-220,869	71,580	-0,056	0,042
-219,855	696,933	-0,014	-0,026
-218,840	-61,856	0,162	0,048
-217,825	326,440	0,037	0,050
-216,811	432,551	-0,037	-0,058
-215,796	39,415	-0,047	-0,030
-214,782	800,000	0,018	0,049
-213,767	-40,431	0,075	-0,028
-212,752	800,000	0,066	0,181
-211,738	14,827	0,060	-0,033
-210,723	800,000	-0,016	0,048
-209,709	370,546	-0,088	-0,127
-208,694	218,807	-0,018	0,021
-207,679	208,097	0,015	-0,017
-206,665	-31,306	-0,092	-0,037
-205,650	671,192	0,046	0,086
-204,636	245,568	0,082	0,099
-203,621	-7,517	-0,024	-0,011
-202,606	143,794	-0,133	-0,127
-201,592	153,288	-0,088	-0,086
-200,577	584,574	0,065	-0,114
-199,563	-200,000	-0,006	-0,053
-198,548	-200,000	0,014	0,162
-197,533	645,324	0,078	-0,142
-196,519	-200,000	-0,010	0,069
-195,504	-200,000	0,003	-0,040
-194,490	30,841	-0,107	-0,065
-193,475	800,000	0,009	0,026
-192,460	189,804	0,078	0,083
-191,446	-45,616	0,070	0,024
-190,431	368,024	0,072	-0,104
-189,417	-200,000	0,009	0,071
-188,402	-146,107	0,126	0,008
-187,387	763,843	-0,010	0,020
-186,373	510,781	0,079	-0,132
-185,358	-112,982	0,164	0,023
-184,344	-107,129	0,198	0,031
-183,329	188,420	0,063	0,068
-182,315	800,000	-0,012	-0,036
-181,300	208,135	-0,025	-0,028
-180,285	-19,875	-0,110	-0,048
-179,271	146,961	0,036	0,035
-178,256	-124,054	0,058	0,006
-177,242	-80,648	0,077	-0,018
-176,227	-69,404	0,144	0,039
-175,212	8,159	0,106	0,057
-174,198	-200,000	-0,026	0,106
-173,183	800,000	-0,027	-0,080
-172,169	-200,000	-0,005	0,042
-171,154	-66,807	-0,011	0,003
-170,139	41,682	0,069	0,044
-169,125	-200,000	0,010	0,180
-168,110	3,243	0,048	0,025
-167,096	800,000	0,089	-0,187
-166,081	-200,000	-0,020	0,062
-165,066	-200,000	0,026	-0,145
-164,052	-160,376	-0,138	-0,005
-163,037	89,526	-0,110	0,087
-162,023	226,264	0,038	0,044
-161,008	30,093	-0,091	-0,055
-159,993	79,372	-0,101	-0,077
-158,979	-99,609	-0,181	-0,032
-157,964	-200,000	-0,035	-0,131
-156,950	-200,000	-0,031	-0,188
-155,935	3,209	-0,087	0,045
-154,920	13,699	0,049	0,027
-153,906	-7,348	0,069	0,033
-152,891	-200,000	0,013	-0,072
-151,877	-4,907	0,057	-0,028
-150,862	-148,403	-0,140	0,008
-149,847	-54,101	-0,101	-0,033
-148,833	79,693	-0,037	-0,028
-147,818	-98,594	-0,118	0,021
-146,804	-200,000	-0,004	0,037
-145,789	-17,653	-0,064	-0,028
-144,775	-200,000	0,029	-0,134
-143,760	-200,000	0,003	-0,259
-142,745	258,747	-0,080	-0,099
-141,731	-200,000	-0,014	-0,107
-140,716	9,026	0,116	-0,062
-139,702	247,296	0,057	0,069
-138,687	361,086	-0,052	-0,074
-137,672	-200,000	-0,013	0,054
-136,658	-50,032	-0,063	-0,021
-135,643	22,322	0,127	-0,074
-134,629	-200,000	0,000	0,030
-133,614	-200,000	-0,032	0,120
-132,599	-22,241	0,074	0,032
-131,585	540,382	-0,081	0,138
-130,570	0,067	-0,127	0,064
-129,556	-200,000	0,020	0,101
-128,541	-200,000	0,012	-0,082
-127,526	201,344	0,069	0,076
-126,512	-126,864	-0,065	-0,007
-125,497	53,204	0,165	0,112
-124,483	-31,104	0,069	-0,027
-123,468	790,206	-0,094	-0,185
-122,453	-2,116	0,120	0,060
-121,439	114,407	-0,116	0,101
-120,424	91,126	-0,108	0,086
-119,410	52,475	0,029	0,020
