DTS Sentinel unit serial number:	SN410029Multiplexer serial number:	ORYXHardware model number:	OX2-SRSoftware version number:	ORYX F/W v4,00 Oryx Data Collector v3.7.2.0data status	okinstallation	BH3 CH2differential loss correction	single-endedforward channel	channel 2reverse channel	N/Adate	2023/12/05time	13:07:28forward acquisition time	300,00reverse acquisition time	0,00gamma	499,1914k internal	0,3195k external	0,3195temperature offset calibration	1,0000default loss term (dB/km)	0,3820temperature slope calibration	1,0000multiplexer offset coefficient	1,0000multiplexer slope coefficient	1,0000fibre end	0,00T internal ref (°C)	10,10T ext. ref 1 (°C)	-4,13T ext. ref 2 (°C)	-4,19length (m)	temperature (°C)	Stokes	anti-Stokes-744,400	237,053	-0,148	-0,178
-743,385	85,919	-0,209	0,168
-742,371	736,909	-0,048	-0,093
-741,356	293,084	-0,185	0,247
-740,342	13,239	0,028	0,016
-739,327	71,141	-0,217	0,164
-738,312	11,303	-0,095	0,053
-737,298	314,554	-0,062	0,086
-736,283	-200,000	-0,013	-0,071
-735,269	44,524	-0,148	0,099
-734,254	-2,190	0,123	0,063
-733,239	-129,513	-0,430	-0,043
-732,225	800,000	0,072	-0,170
-731,210	75,764	0,047	-0,036
-730,196	-200,000	0,012	-0,075
-729,181	800,000	0,011	0,033
-728,167	-200,000	0,003	0,073
-727,152	64,564	-0,144	-0,105
-726,137	395,431	-0,072	-0,110
-725,123	351,042	-0,044	-0,064
-724,108	800,000	0,040	-0,127
-723,094	61,380	-0,055	-0,040
-722,079	-137,661	-0,141	0,011
-721,064	345,608	-0,023	-0,034
-720,050	-160,789	-0,088	-0,003
-719,035	800,000	-0,046	-0,093
-718,021	24,027	-0,068	0,041
-717,006	240,914	-0,098	-0,119
-715,991	-200,000	0,020	-0,103
-714,977	323,277	-0,114	-0,159
-713,962	751,524	-0,044	-0,087
-712,948	41,393	0,129	0,085
-711,933	759,530	-0,044	-0,087
-710,918	800,000	-0,021	-0,059
-709,904	25,275	-0,078	-0,047
-708,889	-119,164	-0,152	0,019
-707,875	-37,483	0,163	-0,063
-706,860	-72,106	0,092	-0,025
-705,845	-94,587	-0,092	-0,018
-704,831	-42,154	-0,056	0,021
-703,816	-200,000	0,003	0,043
-702,802	-1,529	-0,104	-0,053
-701,787	-114,229	-0,063	-0,009
-700,772	180,828	-0,084	-0,090
-699,758	-200,000	-0,020	-0,102
-698,743	-41,417	0,131	-0,049
-697,729	-187,443	0,113	-0,001
-696,714	1,015	0,037	-0,019
-695,699	-200,000	0,027	-0,088
-694,685	-8,412	-0,147	0,072
-693,670	800,000	-0,003	0,006
-692,656	-2,483	0,088	-0,045
-691,641	306,469	-0,055	0,075
-690,627	-200,000	-0,003	-0,029
-689,612	-80,118	0,032	-0,008
-688,597	-63,163	-0,134	-0,040
-687,583	300,766	-0,042	-0,057
-686,568	-34,102	-0,125	-0,050
-685,554	62,764	0,084	0,061
-684,539	303,401	-0,046	-0,062
-683,524	122,424	0,067	-0,061
-682,510	800,000	-0,021	-0,051
-681,495	313,251	-0,108	0,148
-680,481	315,546	-0,076	-0,104
-679,466	800,000	-0,066	-0,159
-678,451	55,712	-0,086	-0,061
-677,437	273,769	-0,039	0,051
-676,422	-200,000	-0,012	0,183
-675,408	21,609	0,091	-0,054
-674,393	-107,217	-0,207	-0,033
-673,378	-200,000	0,025	-0,090
-672,364	-24,873	0,065	0,028
-671,349	800,000	0,013	0,039
-670,335	-200,000	-0,006	0,111
-669,320	-91,905	-0,194	0,040
-668,305	800,000	0,053	-0,129
-667,291	-58,245	0,064	-0,020
-666,276	-200,000	-0,021	-0,190
-665,262	82,156	0,104	-0,082
-664,247	263,121	-0,077	-0,097
-663,232	11,450	-0,032	-0,018
-662,218	-200,000	0,011	0,081
-661,203	-200,000	0,010	0,055
-660,189	588,689	0,066	-0,118
-659,174	-28,042	0,029	0,012
-658,159	236,311	-0,018	-0,021
-657,145	800,000	0,036	-0,074
-656,130	157,722	-0,034	-0,035
-655,116	-200,000	0,010	-0,049
-654,101	-200,000	0,026	0,142
-653,086	82,199	-0,032	0,025
-652,072	260,002	-0,090	-0,113
-651,057	-200,000	-0,022	-0,106
-650,043	-200,000	0,012	-0,222
-649,028	-12,098	-0,057	-0,027
-648,014	-143,088	0,054	0,004
-646,999	800,000	0,016	0,045
-645,984	-200,000	-0,020	0,085
-644,970	-130,826	-0,120	0,012
-643,955	800,000	0,048	-0,111
-642,941	-165,676	-0,197	0,006
-641,926	-37,154	0,037	-0,014
-640,911	-83,373	-0,068	-0,016
-639,897	800,000	-0,034	0,070
-638,882	391,092	-0,044	0,066
-637,868	97,457	0,091	0,076
-636,853	0,998	0,022	-0,011
-635,838	-4,011	-0,068	-0,034
-634,824	-200,000	0,023	-0,106
-633,809	442,306	0,023	-0,037
-632,795	-77,786	0,037	-0,009
-631,780	-200,000	0,011	0,079
-630,765	123,118	-0,144	0,131
-629,751	124,255	-0,061	-0,056
-628,736	7,646	0,127	-0,069
-627,722	-135,789	0,048	-0,004
-626,707	112,499	-0,027	-0,024
-625,692	-31,442	-0,097	-0,039
-624,678	132,826	-0,020	0,018
-623,663	800,000	-0,020	0,056
-622,649	-63,739	-0,086	-0,025
-621,634	-200,000	0,013	-0,196
-620,619	107,717	-0,163	-0,140
-619,605	-200,000	-0,004	-0,123
-618,590	62,432	0,102	-0,074
-617,576	-200,000	0,009	0,102
-616,561	315,722	0,066	0,091
-615,546	800,000	-0,034	-0,095
-614,532	169,189	-0,122	-0,126
-613,517	-200,000	0,009	-0,085
-612,503	-200,000	-0,037	-0,203
-611,488	-200,000	-0,004	-0,047
-610,474	256,055	-0,036	0,045
-609,459	-200,000	0,039	0,139
-608,444	728,551	0,063	-0,123
-607,430	-42,777	-0,097	-0,035
-606,415	-84,202	-0,082	-0,019
-605,401	75,621	0,053	-0,040
-604,386	-11,276	-0,092	0,044
-603,371	800,000	0,067	0,165
-602,357	-200,000	-0,040	0,138
-601,342	-99,699	-0,108	0,019
-600,328	-200,000	-0,011	-0,062
-599,313	365,848	-0,053	-0,077
-598,298	-200,000	0,031	-0,107
-597,284	-125,836	-0,110	0,012
-596,269	-141,124	0,178	-0,013
-595,255	800,000	0,022	0,064
-594,240	-29,799	0,077	0,032
-593,225	-73,873	-0,058	0,015
-592,211	525,944	-0,049	0,083
-591,196	148,106	0,044	0,043
-590,182	1,596	0,049	0,025
-589,167	42,836	-0,077	0,051
-588,152	167,467	-0,048	0,050
-587,138	-200,000	0,136	-0,000
-586,123	800,000	0,045	-0,091
-585,109	16,582	-0,004	0,002
-584,094	186,785	-0,003	0,003
-583,079	-31,617	0,150	-0,061
-582,065	-57,075	-0,138	0,044
-581,050	-129,631	-0,206	-0,020
-580,036	800,000	-0,100	-0,211
-579,021	800,000	-0,033	0,080
-578,006	449,814	-0,077	-0,124
-576,992	800,000	-0,040	-0,099
-575,977	-96,385	0,179	0,034
-574,963	-18,288	-0,105	-0,047
-573,948	-200,000	-0,060	-0,000
-572,934	12,534	-0,087	0,048
-571,919	-176,167	-0,111	0,002
-570,904	-89,332	0,097	-0,021
-569,890	800,000	0,032	0,065
-568,875	188,331	0,043	-0,046
-567,861	800,000	0,016	0,035
-566,846	247,960	0,030	0,037
-565,831	225,089	0,093	0,110
-564,817	648,819	-0,029	-0,053
-563,802	-200,000	0,010	-0,185
-562,788	-105,910	-0,042	0,007
-561,773	90,845	-0,087	0,071
-560,758	-63,156	0,069	0,020
-559,744	-200,000	-0,020	0,113
-558,729	-200,000	0,020	0,250
-557,715	45,385	-0,081	-0,054
-556,700	611,504	0,092	0,167
-555,685	-92,998	-0,093	0,019
-554,671	-200,000	0,018	-0,165
-553,656	525,549	0,111	0,190
-552,642	153,446	0,072	0,072
-551,627	-43,814	-0,039	0,014
-550,612	632,161	-0,063	-0,116
-549,598	-68,720	0,037	0,010
-548,583	-74,691	-0,043	-0,011
-547,569	800,000	0,014	0,044
-546,554	800,000	0,092	0,205
-545,539	746,410	0,024	-0,047
-544,525	19,407	-0,088	-0,051
-543,510	47,246	-0,148	-0,100
-542,496	-88,593	-0,115	0,024
-541,481	-200,000	-0,041	-0,253
-540,466	800,000	-0,030	-0,063
-539,452	396,338	0,035	0,053
-538,437	-103,511	0,123	0,021
-537,423	-200,000	0,015	-0,051
-536,408	288,698	0,088	-0,116
-535,393	345,617	0,069	-0,098
-534,379	800,000	-0,037	-0,081
-533,364	-106,500	0,190	0,030
-532,350	-15,350	0,045	-0,021
-531,335	-153,799	-0,191	-0,009
-530,321	19,069	0,077	-0,045
-529,306	800,000	-0,038	0,096
-528,291	-90,615	0,142	0,029
-527,277	-52,985	0,063	0,021
-526,262	-160,719	-0,084	0,003
-525,248	659,223	0,041	-0,077
-524,233	107,453	-0,058	-0,050
-523,218	-200,000	0,023	0,094
-522,204	-149,727	-0,130	0,007
-521,189	-38,737	-0,126	-0,048
-520,175	-200,000	-0,022	-0,118
-519,160	63,804	0,042	-0,031
-518,145	366,169	-0,049	0,072
-517,131	-200,000	-0,016	0,061
-516,116	314,068	0,046	0,062
-515,102	87,778	0,059	0,047
-514,087	67,688	-0,042	0,031
-513,072	800,000	-0,033	-0,090
-512,058	564,272	0,037	-0,064
-511,043	-9,618	0,059	0,028
-510,029	396,176	-0,030	-0,045
-509,014	-200,000	-0,030	0,168
-507,999	177,513	-0,028	0,030
-506,985	40,115	-0,097	0,063
-505,970	800,000	-0,049	-0,113
-504,956	-200,000	-0,004	-0,038
-503,941	39,718	0,123	-0,079
-502,926	52,067	0,102	0,070
-501,912	-100,835	-0,115	0,020
-500,897	325,829	0,084	0,116
-499,883	410,096	-0,049	0,075
-498,868	-89,081	-0,109	0,023
-497,853	383,545	0,063	0,094
-496,839	-21,211	-0,107	-0,047
-495,824	195,691	0,092	0,101
-494,810	800,000	-0,028	0,068
-493,795	-200,000	-0,021	0,123
-492,781	-128,719	0,097	0,010
-491,766	127,945	-0,076	-0,070
-490,751	-55,438	-0,134	0,043
-489,737	-48,563	-0,125	0,043
-488,722	525,141	-0,030	-0,051
-487,708	800,000	0,052	0,105
-486,693	-90,117	0,136	0,028
-485,678	-200,000	0,011	0,078
-484,664	-200,000	0,017	-0,089
-483,649	-167,321	0,059	-0,002
-482,635	90,115	0,079	-0,064
-481,620	64,297	0,055	0,040
-480,605	376,064	0,056	0,082
-479,591	163,806	0,108	0,110
-478,576	89,084	-0,183	-0,147
-477,562	228,891	0,038	0,045
-476,547	-200,000	-0,003	-0,017
-475,532	268,621	0,040	0,051
-474,518	-200,000	-0,040	0,165
-473,503	-200,000	0,002	0,084
-472,489	-200,000	-0,011	0,138
-471,474	-159,516	-0,042	0,002
-470,459	277,179	-0,017	0,022
-469,445	543,681	0,050	-0,087
-468,430	-106,326	0,110	0,018
-467,416	-116,160	-0,092	-0,012
-466,401	-200,000	0,011	0,043
-465,386	100,332	0,084	-0,070
-464,372	-200,000	-0,004	0,028
-463,357	-105,484	0,059	0,010
-462,343	552,723	0,058	-0,100
-461,328	-200,000	-0,009	-0,046
-460,313	-200,000	-0,002	-0,112
-459,299	-170,408	0,107	0,003
-458,284	-73,920	-0,044	-0,012
-457,270	800,000	-0,036	0,072
-456,255	-200,000	0,015	-0,090
-455,241	183,801	0,076	-0,081
-454,226	-160,082	-0,138	0,005
-453,211	-200,000	0,002	-0,174
-452,197	157,271	0,097	-0,096
-451,182	173,867	0,015	0,016
-450,168	-7,583	-0,022	-0,011
-449,153	-78,207	-0,087	0,021
-448,138	62,579	-0,062	-0,045
-447,124	49,198	0,020	0,014
-446,109	-8,199	-0,103	-0,050
-445,095	800,000	0,016	0,043
-444,080	67,516	0,109	0,080
-443,065	-86,482	0,120	-0,026
-442,051	-179,692	-0,100	0,002
-441,036	21,724	0,037	-0,021
-440,022	172,624	-0,078	-0,081
-439,007	-93,593	-0,159	-0,031
-437,992	375,445	0,035	0,051
-436,978	81,087	0,070	-0,054
-435,963	-200,000	0,019	0,062
-434,949	-11,501	-0,098	-0,046
-433,934	800,000	-0,006	0,014
-432,919	800,000	-0,019	-0,051
-431,905	59,288	0,057	-0,040
-430,890	63,255	-0,113	-0,082
-429,876	49,151	-0,028	0,019
-428,861	127,742	0,117	0,107
-427,846	102,561	-0,072	-0,061
-426,832	6,648	-0,062	-0,033
-425,817	228,048	-0,157	-0,184
-424,803	-200,000	-0,005	-0,017
-423,788	-139,484	0,162	-0,012
-422,773	-20,204	0,182	0,080
-421,759	-53,220	0,050	0,017
-420,744	225,485	-0,073	0,085
-419,730	-200,000	0,000	-0,040
-418,715	-110,676	-0,122	-0,018
-417,701	-200,000	0,007	-0,125
-416,686	-43,714	0,024	-0,009
-415,671	124,702	-0,050	0,045
-414,657	366,853	0,080	-0,117
-413,642	47,132	-0,073	-0,049
-412,628	146,751	0,043	-0,041
-411,613	201,724	-0,164	-0,182
-410,598	366,125	-0,048	-0,069
-409,584	-200,000	0,014	-0,060
-408,569	800,000	0,042	0,088
-407,555	-56,466	-0,055	-0,018
-406,540	192,833	-0,038	-0,042
-405,525	-8,387	0,137	0,066
-404,511	5,029	0,131	0,069
-403,496	800,000	-0,021	0,046
-402,482	20,246	0,110	0,064
-401,467	63,034	0,083	0,060
-400,452	252,629	-0,043	0,053
-399,438	-46,677	-0,055	-0,019
-398,423	-91,542	-0,099	0,020
-397,409	104,582	-0,086	-0,073
-396,394	-12,729	-0,045	0,021
-395,379	-185,879	-0,217	-0,002
-394,365	-144,153	0,120	-0,008
-393,350	536,862	-0,077	0,131
-392,336	800,000	0,014	0,035
-391,321	800,000	-0,036	0,113
-390,306	152,055	-0,022	-0,022
-389,292	-131,913	0,082	-0,008
-388,277	-200,000	0,002	0,023
-387,263	800,000	-0,074	0,156
-386,248	72,439	-0,030	0,023
-385,233	-88,602	0,064	0,014
-384,219	329,728	0,069	-0,095
-383,204	-26,807	-0,084	-0,035
-382,190	89,806	0,074	-0,059
-381,175	800,000	-0,055	-0,120
-380,160	-153,489	-0,059	-0,003
-379,146	-21,552	0,171	0,075
-378,131	-103,769	0,097	0,016
-377,117	-200,000	0,008	0,065
-376,102	156,964	-0,032	-0,032
-375,088	91,107	-0,047	-0,037
-374,073	-115,922	-0,071	0,009
-373,058	-12,350	-0,091	0,043
-372,044	-58,666	-0,063	0,020
-371,029	-138,166	0,096	-0,008
-370,015	800,000	0,031	0,096
-369,000	67,169	-0,045	-0,033
-367,985	263,376	-0,070	-0,087
-366,971	-57,333	-0,093	0,029
-365,956	23,568	0,162	0,095
-364,942	-117,296	-0,094	-0,012
-363,927	-33,573	-0,099	0,039
-362,912	-200,000	-0,027	0,140
-361,898	-200,000	0,016	-0,162
-360,883	51,748	0,071	-0,049
-359,869	800,000	0,027	-0,081
-358,854	-28,047	0,144	-0,060
-357,839	-20,649	0,104	0,046
-356,825	-22,537	0,109	0,047
-355,810	-200,000	-0,004	0,089
-354,796	-161,763	0,027	0,001
-353,781	800,000	0,036	-0,091
-352,766	-8,768	0,043	-0,021
-351,752	191,095	-0,053	0,057
-350,737	-200,000	-0,011	0,097
-349,723	-200,000	0,012	0,113
-348,708	-200,000	-0,024	-0,082
-347,693	-119,156	-0,116	-0,014
-346,679	-2,920	0,107	0,053
-345,664	800,000	-0,042	0,129
-344,650	207,994	-0,101	-0,113
-343,635	61,614	0,039	-0,028
-342,620	-200,000	0,013	0,139
-341,606	-74,667	0,093	-0,024
-340,591	142,827	0,075	0,072
-339,577	106,344	-0,059	-0,050
-338,562	-200,000	-0,009	-0,082
-337,548	-200,000	0,010	0,045
-336,533	-146,069	0,095	-0,006
-335,518	37,553	0,066	0,042
-334,504	265,619	0,052	0,066
-333,489	-135,070	0,119	-0,010
-332,475	-183,884	-0,156	0,002
-331,460	274,734	0,040	-0,051
-330,445	-161,388	0,157	-0,006
-329,431	324,365	0,008	0,010
-328,416	-137,238	0,047	0,004
-327,402	-200,000	-0,006	0,037
-326,387	-165,321	-0,067	0,002
-325,372	235,224	-0,031	0,037
-324,358	-200,000	0,014	0,045
-323,343	-200,000	-0,004	0,100
-322,329	-6,541	0,195	-0,095
-321,314	-159,044	0,091	0,004
-320,299	139,864	-0,021	-0,020
-319,285	73,554	0,021	-0,016
-318,270	-17,782	-0,052	-0,023
-317,256	-24,396	-0,096	-0,041
-316,241	-200,000	-0,001	-0,081
-315,226	27,635	-0,165	0,099
-314,212	-37,289	0,175	0,067
-313,197	-92,652	0,059	0,012
-312,183	-0,462	-0,069	-0,035
-311,168	-200,000	-0,005	-0,061
-310,153	62,240	-0,186	-0,133
-309,139	800,000	0,010	0,027
-308,124	39,189	0,053	0,034
-307,110	-125,303	0,084	-0,009
-306,095	133,158	-0,097	0,090
-305,080	296,618	0,023	0,031
-304,066	451,852	0,062	0,098
-303,051	68,558	-0,058	-0,043
-302,037	-88,615	-0,100	0,021
-301,022	-200,000	-0,000	0,057
-300,008	800,000	0,027	0,071
-298,993	-141,900	-0,031	0,002
-297,978	-90,780	0,056	-0,012
-296,964	-105,121	0,078	0,013
-295,949	-200,000	0,014	-0,049
-294,935	-200,000	0,011	-0,091
-293,920	-103,188	-0,054	0,009
-292,905	-128,075	0,115	-0,012
-291,891	104,381	0,059	0,050
-290,876	31,839	0,082	0,051
-289,862	-31,271	0,116	-0,047
-288,847	-89,460	0,021	-0,004
-287,832	-105,037	0,048	-0,008
-286,818	-200,000	-0,003	0,052
-285,803	-200,000	-0,028	0,170
-284,789	-55,871	-0,083	0,026
-283,774	17,647	0,032	-0,018
-282,759	430,354	-0,048	-0,074
-281,745	312,459	0,024	0,032
-280,730	800,000	-0,031	-0,064
-279,716	114,006	-0,072	-0,063
-278,701	68,421	-0,027	-0,019
-277,686	800,000	0,041	0,089
-276,672	5,678	0,108	0,057
-275,657	-83,551	0,115	0,026
-274,643	35,520	0,035	0,022
-273,628	-77,645	0,064	0,016
-272,613	-126,093	-0,163	0,017
-271,599	141,228	0,061	0,058
-270,584	-200,000	0,011	0,085
-269,570	-125,875	0,119	0,013
-268,555	653,286	0,046	-0,084
-267,540	-200,000	0,003	-0,123
-266,526	110,697	-0,057	-0,049
-265,511	130,690	0,066	0,060
-264,497	-200,000	0,003	-0,032
-263,482	-94,225	-0,136	0,026
-262,467	800,000	0,034	0,078
-261,453	-9,566	-0,032	-0,015
-260,438	-16,801	-0,049	-0,022
-259,424	103,606	0,075	-0,063
-258,409	-131,017	-0,060	0,006
-257,395	-55,980	0,069	-0,022
-256,380	800,000	0,064	0,135
-255,365	-158,767	0,097	-0,004
-254,351	59,963	0,050	-0,035
-253,336	-200,000	0,027	-0,151
-252,322	800,000	-0,026	-0,083
-251,307	-176,397	0,030	0,001
-250,292	201,462	-0,030	-0,033
-249,278	521,106	0,102	0,172
-248,263	647,276	-0,059	0,108
-247,249	-38,639	-0,147	-0,055
-246,234	800,000	0,055	-0,139
-245,219	72,761	-0,042	-0,031
-244,205	800,000	-0,037	-0,087
-243,190	-200,000	0,020	0,156
-242,176	-170,807	0,056	0,001
-241,161	-200,000	-0,002	-0,028
-240,146	800,000	0,035	-0,077
-239,132	-51,356	-0,129	-0,043
-238,117	63,410	-0,072	-0,051
-237,103	-91,194	0,125	0,025
-236,088	70,795	0,135	0,100
-235,073	-200,000	0,051	-0,162
-234,059	-200,000	0,014	0,068
-233,044	-95,437	0,189	0,036
-232,030	-200,000	-0,022	-0,194
-231,015	521,845	0,013	0,021
-230,000	-200,000	-0,006	0,041
-228,986	-200,000	0,014	-0,066
-227,971	378,340	0,039	-0,058
-226,957	595,383	-0,036	0,063
-225,942	-200,000	-0,001	-0,015
-224,927	672,069	0,037	0,069
-223,913	-200,000	0,003	-0,150
-222,898	-108,483	-0,077	0,012
-221,884	-200,000	0,034	-0,189
-220,869	-18,184	0,110	0,049
-219,855	26,007	0,109	0,065
-218,840	-200,000	-0,026	0,126
-217,825	33,897	-0,120	0,074
-216,811	-113,165	-0,104	0,014
-215,796	-200,000	-0,023	-0,165
-214,782	289,903	0,037	0,048
-213,767	51,279	0,115	0,078
-212,752	63,444	-0,076	0,054
-211,738	692,603	-0,022	0,041
-210,723	-62,507	0,083	-0,025
-209,709	-200,000	0,009	-0,061
-208,694	-30,569	0,142	-0,057
-207,679	173,048	-0,070	0,072
-206,665	-135,313	0,117	-0,010
-205,650	-24,360	0,067	0,028
-204,636	-200,000	0,011	0,042
-203,621	93,373	-0,047	-0,038
-202,606	2,327	-0,084	0,043
-201,592	-200,000	-0,007	0,033
-200,577	263,611	0,043	-0,054
-199,563	-200,000	-0,011	0,076
-198,548	677,593	0,026	-0,048
-197,533	-200,000	0,006	0,048
-196,519	-200,000	0,001	0,071
-195,504	234,710	-0,063	0,074
-194,490	-200,000	-0,002	-0,014
-193,475	101,041	-0,132	-0,110
-192,460	54,693	0,155	0,106
-191,446	-200,000	0,014	-0,164
-190,431	-69,434	0,093	0,025
-189,417	151,135	0,040	-0,039
-188,402	89,252	-0,055	-0,044
-187,387	-69,270	-0,075	0,020
-186,373	-200,000	-0,007	-0,132
-185,358	-137,376	-0,036	0,003
-184,344	179,809	0,042	0,044
-183,329	-44,114	0,044	0,016
-182,315	299,901	-0,081	0,107
-181,300	483,898	-0,006	-0,010
-180,285	-28,057	-0,043	-0,018
-179,271	293,887	-0,050	0,066
-178,256	-200,000	-0,015	-0,055
-177,242	-6,171	-0,088	-0,043
-176,227	15,630	0,056	0,031
-175,212	14,511	-0,014	0,008
-174,198	125,538	-0,054	-0,048
-173,183	5,506	-0,119	0,063
-172,169	-200,000	0,002	0,024
-171,154	-200,000	0,001	-0,027
-170,139	800,000	0,027	0,084
-169,125	-77,295	-0,054	-0,013
-168,110	600,695	-0,054	-0,097
-167,096	-28,624	-0,018	0,007
-166,081	168,621	0,072	0,074
-165,066	-200,000	-0,036	-0,128
-164,052	-200,000	0,017	0,137
-163,037	-200,000	0,006	0,104
-162,023	-200,000	-0,009	-0,029
-161,008	-200,000	-0,032	0,216
-159,993	362,520	0,039	-0,056
-158,979	149,804	-0,057	-0,055
-157,964	-88,422	-0,012	-0,002
-156,950	-33,206	-0,117	-0,046
-155,935	217,944	0,111	-0,126
-154,920	25,393	0,104	0,062
-153,906	-93,588	-0,057	-0,011
-152,891	800,000	-0,020	-0,061
-151,877	-200,000	0,017	-0,087
-150,862	-130,162	-0,198	-0,019
-149,847	-51,047	0,075	-0,025
-148,833	-40,661	-0,129	-0,047
-147,818	568,733	0,067	0,116
-146,804	-100,300	-0,099	0,017
-145,789	-132,856	-0,106	0,010
-144,775	-200,000	-0,006	-0,031
-143,760	-36,009	-0,123	-0,047
-142,745	-200,000	0,026	0,086
-141,731	432,568	0,008	0,012
-140,716	-200,000	0,056	0,273
-139,702	800,000	-0,040	-0,089
-138,687	-35,499	-0,027	0,010
-137,672	-28,224	0,184	-0,075
-136,658	58,498	-0,110	-0,077
-135,643	-26,400	-0,087	-0,036
-134,629	800,000	-0,042	-0,114
-133,614	-22,780	0,102	0,044
-132,599	-200,000	-0,006	-0,043
-131,585	191,686	0,101	-0,109
-130,570	-135,776	-0,089	0,007
-129,556	-141,851	-0,045	0,003
-128,541	-168,842	-0,175	0,005
-127,526	121,061	-0,072	0,064
-126,512	-66,246	-0,088	0,025
-125,497	-200,000	0,019	0,066
-124,483	-158,303	-0,105	-0,004
-123,468	94,670	-0,057	0,046
-122,453	608,145	-0,018	-0,031
-121,439	-18,499	0,125	-0,055
-120,424	-10,733	-0,009	-0,004
-119,410	11,098	0,084	-0,045
