DTS Sentinel unit serial number:	SN410029Multiplexer serial number:	ORYXHardware model number:	OX2-SRSoftware version number:	ORYX F/W v4,00 Oryx Data Collector v3.7.2.0data status	okinstallation	BH3 CH2differential loss correction	single-endedforward channel	channel 2reverse channel	N/Adate	2023/12/05time	18:47:29forward acquisition time	300,00reverse acquisition time	0,00gamma	499,1914k internal	0,3193k external	0,3193temperature offset calibration	1,0000default loss term (dB/km)	0,3820temperature slope calibration	1,0000multiplexer offset coefficient	1,0000multiplexer slope coefficient	1,0000fibre end	0,00T internal ref (°C)	10,62T ext. ref 1 (°C)	-3,96T ext. ref 2 (°C)	-4,09length (m)	temperature (°C)	Stokes	anti-Stokes-744,400	800,000	0,037	-0,108
-743,385	2,686	-0,224	0,118
-742,371	199,401	0,083	-0,093
-741,356	434,396	-0,096	0,153
-740,342	266,556	0,066	-0,085
-739,327	-55,584	-0,169	-0,055
-738,312	-200,000	0,016	-0,267
-737,298	-8,396	-0,181	0,088
-736,283	252,524	-0,069	-0,086
-735,269	185,839	-0,188	0,203
-734,254	191,805	0,022	-0,025
-733,239	-133,025	-0,266	0,024
-732,225	27,362	0,033	0,020
-731,210	-200,000	-0,000	0,121
-730,196	-139,523	0,084	-0,006
-729,181	-162,155	-0,069	-0,002
-728,167	-171,849	-0,176	0,004
-727,152	-200,000	0,009	0,145
-726,137	-162,042	-0,081	0,003
-725,123	800,000	-0,028	-0,078
-724,108	-115,106	-0,086	0,012
-723,094	800,000	-0,034	-0,083
-722,079	105,757	-0,100	-0,086
-721,064	58,553	-0,019	-0,014
-720,050	-200,000	0,002	-0,119
-719,035	-200,000	0,009	-0,095
-718,021	229,043	-0,055	-0,066
-717,006	-129,378	-0,055	0,006
-715,991	-59,664	-0,039	-0,012
-714,977	-19,057	-0,018	-0,008
-713,962	-200,000	-0,015	-0,080
-712,948	-200,000	-0,030	-0,117
-711,933	0,663	0,124	-0,065
-710,918	-46,051	0,100	-0,036
-709,904	-197,666	-0,050	-0,000
-708,889	-3,959	0,094	-0,047
-707,875	173,258	0,031	0,033
-706,860	-52,786	0,064	-0,021
-705,845	683,734	-0,013	-0,025
-704,831	800,000	0,041	-0,092
-703,816	-200,000	-0,001	0,048
-702,802	-200,000	-0,014	-0,078
-701,787	-200,000	-0,014	-0,110
-700,772	77,031	0,088	-0,068
-699,758	-200,000	-0,018	-0,069
-698,743	523,425	0,013	-0,022
-697,729	-200,000	0,001	0,027
-696,714	-12,314	0,108	0,051
-695,699	502,634	-0,015	0,025
-694,685	-103,477	-0,045	-0,008
-693,670	-93,932	-0,019	0,004
-692,656	800,000	-0,018	0,054
-691,641	136,815	0,108	-0,103
-690,627	-54,494	-0,130	0,043
-689,612	74,957	0,053	0,041
-688,597	800,000	-0,077	-0,155
-687,583	-200,000	-0,024	-0,135
-686,568	-200,000	-0,007	0,034
-685,554	-200,000	0,035	-0,119
-684,539	651,599	0,016	0,030
-683,524	-200,000	-0,006	-0,050
-682,510	70,334	-0,105	0,079
-681,495	800,000	-0,009	-0,020
-680,481	800,000	-0,075	-0,203
-679,466	800,000	-0,032	-0,088
-678,451	-103,513	-0,053	0,009
-677,437	-182,439	-0,041	-0,001
-676,422	800,000	0,066	-0,149
-675,408	14,676	-0,062	-0,035
-674,393	-200,000	-0,063	0,228
-673,378	-30,413	-0,057	0,023
-672,364	224,847	-0,068	-0,081
-671,349	800,000	-0,015	0,048
-670,335	-200,000	0,036	0,116
-669,320	286,951	0,074	-0,098
-668,305	9,014	0,082	0,045
-667,291	800,000	-0,007	0,017
-666,276	129,080	-0,049	0,046
-665,262	-200,000	0,000	-0,103
-664,247	-200,000	0,008	0,072
-663,232	468,018	-0,038	-0,063
-662,218	-200,000	0,013	-0,062
-661,203	-200,000	-0,004	-0,111
-660,189	-183,321	-0,069	-0,001
-659,174	210,679	-0,039	-0,045
-658,159	-200,000	0,026	-0,145
-657,145	60,050	-0,056	-0,040
-656,130	-73,740	0,096	-0,025
-655,116	-200,000	-0,004	0,091
-654,101	-85,252	0,108	0,024
-653,086	47,316	-0,083	0,056
-652,072	-66,686	0,012	-0,004
-651,057	-151,012	-0,036	0,002
-650,043	61,754	-0,059	0,043
-649,028	800,000	-0,049	-0,103
-648,014	-69,196	0,059	-0,017
-646,999	-2,046	0,085	0,043
-645,984	-139,795	-0,190	-0,014
-644,970	800,000	0,026	0,079
-643,955	-184,531	-0,046	-0,001
-642,941	197,160	-0,075	-0,084
-641,926	-200,000	-0,011	-0,052
-640,911	145,057	-0,068	0,066
-639,897	-197,158	0,099	0,000
-638,882	172,900	0,059	0,062
-637,868	800,000	-0,030	-0,066
-636,853	22,978	-0,051	-0,030
-635,838	800,000	0,020	-0,055
-634,824	57,021	-0,054	-0,038
-633,809	800,000	0,025	-0,052
-632,795	-200,000	0,013	0,068
-631,780	-52,166	0,111	-0,037
-630,765	-200,000	-0,046	0,157
-629,751	65,660	0,067	0,049
-628,736	-174,398	-0,095	0,002
-627,722	314,815	-0,061	-0,084
-626,707	244,851	0,065	-0,079
-625,692	172,716	-0,045	0,047
-624,678	-200,000	0,013	0,119
-623,663	-19,078	-0,101	0,045
-622,649	-57,858	-0,049	-0,016
-621,634	800,000	0,031	-0,079
-620,619	-200,000	-0,002	-0,082
-619,605	-29,205	-0,098	0,041
-618,590	-200,000	-0,003	-0,035
-617,576	-200,000	0,061	0,000
-616,561	-200,000	-0,010	-0,115
-615,546	296,013	-0,027	-0,036
-614,532	-127,977	-0,127	0,013
-613,517	-200,000	-0,004	-0,111
-612,503	800,000	0,044	0,117
-611,488	105,163	-0,058	0,049
-610,474	-41,094	0,053	-0,020
-609,459	-200,000	-0,001	0,058
-608,444	146,323	0,039	0,038
-607,430	-33,466	-0,030	0,012
-606,415	-23,896	-0,039	0,017
-605,401	114,503	0,140	0,123
-604,386	102,161	-0,077	-0,065
-603,371	60,692	0,142	-0,102
-602,357	800,000	0,047	-0,118
-601,342	800,000	-0,052	-0,116
-600,328	107,056	-0,061	0,053
-599,313	-146,645	0,086	0,005
-598,298	4,217	-0,050	-0,027
-597,284	-200,000	-0,000	0,044
-596,269	-81,867	-0,046	-0,011
-595,255	-200,000	-0,001	0,006
-594,240	-156,229	-0,166	-0,007
-593,225	325,339	0,056	-0,078
-592,211	13,480	0,135	0,075
-591,196	800,000	-0,012	-0,028
-590,182	800,000	-0,024	0,063
-589,167	-200,000	0,028	0,115
-588,152	-200,000	-0,003	0,062
-587,138	-98,268	0,070	0,013
-586,123	-180,993	-0,046	0,001
-585,109	56,488	-0,114	-0,080
-584,094	118,717	-0,101	-0,091
-583,079	-200,000	0,010	-0,109
-582,065	-200,000	-0,000	0,032
-581,050	800,000	-0,017	0,051
-580,036	583,321	-0,047	0,084
-579,021	62,131	-0,083	-0,060
-578,006	800,000	-0,064	0,145
-576,992	50,058	-0,057	0,039
-575,977	-134,449	0,116	-0,010
-574,963	-39,851	0,060	0,022
-573,948	121,543	-0,152	-0,137
-572,934	-200,000	-0,012	0,132
-571,919	-42,835	-0,104	0,038
-570,904	-200,000	-0,018	0,125
-569,890	-125,882	0,150	0,016
-568,875	-200,000	0,017	-0,072
-567,861	-200,000	0,002	-0,037
-566,846	23,861	0,183	-0,109
-565,831	12,881	-0,115	-0,064
-564,817	36,418	-0,124	0,079
-563,802	-200,000	-0,003	-0,078
-562,788	-200,000	-0,040	0,176
-561,773	474,973	0,049	-0,080
-560,758	349,878	0,079	-0,114
-559,744	-48,087	0,160	-0,056
-558,729	-200,000	0,013	0,050
-557,715	-64,638	-0,230	0,067
-556,700	400,764	0,036	-0,055
-555,685	-96,872	-0,058	0,011
-554,671	152,416	-0,057	0,057
-553,656	26,386	0,101	0,061
-552,642	265,271	0,020	-0,025
-551,627	-200,000	0,021	-0,142
-550,612	-69,349	-0,113	-0,031
-549,598	430,646	-0,055	-0,086
-548,583	473,460	-0,035	0,057
-547,569	-71,709	0,043	-0,011
-546,554	-32,437	0,032	-0,013
-545,539	-200,000	0,030	-0,109
-544,525	-101,345	0,054	-0,009
-543,510	-71,491	-0,066	0,018
-542,496	275,969	0,030	-0,039
-541,481	-200,000	-0,005	-0,145
-540,466	60,559	0,085	-0,061
-539,452	-187,241	0,091	0,001
-538,437	-67,903	-0,078	0,022
-537,423	-200,000	0,002	0,032
-536,408	-60,860	-0,125	-0,038
-535,393	-200,000	-0,006	-0,042
-534,379	141,039	0,118	-0,112
-533,364	-21,846	0,063	-0,028
-532,350	239,601	-0,144	0,173
-531,335	-200,000	0,015	0,081
-530,321	223,502	0,098	0,114
-529,306	92,455	-0,014	0,011
-528,291	39,978	-0,015	0,010
-527,277	93,834	0,062	0,051
-526,262	-200,000	-0,000	-0,034
-525,248	61,399	-0,095	0,068
-524,233	-178,501	0,113	0,002
-523,218	-200,000	0,012	-0,040
-522,204	297,151	-0,063	0,084
-521,189	-39,311	-0,114	-0,043
-520,175	-78,394	-0,103	0,025
-519,160	-109,217	-0,131	0,020
-518,145	-200,000	0,019	-0,129
-517,131	361,556	0,041	-0,059
-516,116	197,324	0,042	0,046
-515,102	173,198	-0,089	0,093
-514,087	-184,379	-0,104	0,001
-513,072	221,272	-0,095	0,111
-512,058	155,490	-0,046	0,046
-511,043	-27,291	0,062	-0,026
-510,029	-128,834	0,110	-0,011
-509,014	160,777	-0,038	0,038
-507,999	-52,796	-0,058	0,019
-506,985	300,084	-0,067	0,089
-505,970	-200,000	0,002	-0,186
-504,956	-200,000	-0,031	-0,156
-503,941	473,908	0,075	-0,123
-502,926	-84,902	-0,122	-0,028
-501,912	-53,637	0,121	0,040
-500,897	-110,303	-0,174	-0,026
-499,883	-200,000	0,038	0,209
-498,868	-200,000	0,006	-0,062
-497,853	191,896	-0,084	0,092
-496,839	-200,000	0,022	-0,175
-495,824	53,723	0,124	-0,086
-494,810	-200,000	-0,014	0,093
-493,795	-200,000	0,022	-0,097
-492,781	43,793	-0,108	-0,072
-491,766	0,776	-0,066	-0,034
-490,751	-95,509	-0,047	0,009
-489,737	-200,000	-0,001	0,138
-488,722	82,250	0,102	0,080
-487,708	-45,804	-0,070	0,025
-486,693	12,055	-0,067	-0,037
-485,678	29,388	-0,006	0,004
-484,664	20,153	-0,052	0,030
-483,649	-200,000	-0,002	-0,013
-482,635	312,946	0,043	0,059
-481,620	217,182	0,074	0,085
-480,605	800,000	-0,030	0,076
-479,591	0,724	-0,024	-0,013
-478,576	141,547	-0,046	-0,044
-477,562	-60,923	0,057	-0,017
-476,547	-38,122	-0,048	-0,018
-475,532	-93,824	-0,096	-0,019
-474,518	405,270	0,080	-0,122
-473,503	-170,182	0,117	0,003
-472,489	800,000	-0,039	0,108
-471,474	29,421	-0,058	0,035
-470,459	800,000	0,049	-0,118
-469,445	-13,403	-0,104	-0,048
-468,430	-47,008	0,072	0,025
-467,416	-200,000	0,005	-0,126
-466,401	411,422	-0,071	0,109
-465,386	44,834	0,136	-0,090
-464,372	-89,143	-0,085	-0,018
-463,357	-129,985	-0,196	0,019
-462,343	-200,000	-0,017	-0,165
-461,328	-115,936	0,047	0,006
-460,313	-200,000	-0,006	-0,060
-459,299	120,098	0,049	0,044
-458,284	181,870	-0,074	-0,079
-457,270	278,731	0,040	0,052
-456,255	-181,534	-0,039	-0,001
-455,241	-200,000	-0,012	-0,050
-454,226	-1,105	-0,069	-0,035
-453,211	59,240	-0,023	-0,017
-452,197	237,610	-0,074	0,089
-451,182	534,091	-0,037	0,063
-450,168	-200,000	-0,010	0,053
-449,153	800,000	0,037	0,104
-448,138	800,000	0,030	0,078
-447,124	-200,000	0,006	-0,125
-446,109	147,871	0,072	-0,070
-445,095	800,000	0,012	-0,038
-444,080	32,869	-0,008	-0,005
-443,065	-200,000	-0,005	0,065
-442,051	695,833	0,094	0,179
-441,036	226,707	-0,044	-0,051
-440,022	112,641	-0,108	-0,094
-439,007	-7,023	-0,027	-0,013
-437,992	150,239	0,007	-0,007
-436,978	-114,674	-0,123	-0,017
-435,963	-52,571	0,167	0,055
-434,949	-200,000	-0,017	0,063
-433,934	12,488	-0,104	-0,058
-432,919	205,201	-0,121	-0,136
-431,905	150,105	-0,081	0,079
-430,890	49,202	-0,063	0,043
-429,876	66,763	0,115	0,085
-428,861	-200,000	0,004	0,087
-427,846	98,466	0,036	-0,030
-426,832	-5,057	-0,106	0,052
-425,817	-20,930	-0,058	0,025
-424,803	-98,722	-0,074	-0,013
-423,788	-200,000	-0,013	0,091
-422,773	-90,913	0,102	0,021
-421,759	139,952	0,016	-0,015
-420,744	18,332	-0,104	0,060
-419,730	-200,000	-0,006	-0,034
-418,715	99,010	-0,046	0,038
-417,701	18,098	-0,034	0,019
-416,686	-33,169	0,155	0,062
-415,671	800,000	0,057	0,125
-414,657	-200,000	-0,001	0,052
-413,642	38,024	0,043	-0,027
-412,628	-98,377	0,086	-0,016
-411,613	29,276	-0,067	-0,041
-410,598	105,335	0,083	-0,071
-409,584	-58,955	0,088	0,027
-408,569	-136,111	-0,041	-0,003
-407,555	35,528	-0,106	-0,067
-406,540	-200,000	-0,012	-0,086
-405,525	55,223	0,053	-0,037
-404,511	-200,000	0,051	-0,190
-403,496	800,000	0,030	-0,067
-402,482	3,629	0,177	0,093
-401,467	679,004	-0,033	-0,062
-400,452	-200,000	0,001	-0,062
-399,438	275,382	0,067	0,085
-398,423	-200,000	0,000	0,135
-397,409	131,851	-0,064	-0,059
-396,394	-90,762	-0,149	-0,031
-395,379	-200,000	-0,007	0,116
-394,365	267,357	-0,023	0,029
-393,350	400,445	0,060	0,091
-392,336	-26,025	0,025	0,011
-391,321	-56,914	-0,046	-0,015
-390,306	-200,000	-0,005	-0,152
-389,292	666,625	-0,037	-0,068
-388,277	-200,000	0,024	0,165
-387,263	-112,319	0,009	0,001
-386,248	-39,220	0,156	0,059
-385,233	-71,953	-0,096	-0,025
-384,219	-200,000	-0,002	-0,029
-383,204	-200,000	-0,024	-0,098
-382,190	24,120	-0,120	0,071
-381,175	-200,000	0,002	-0,046
-380,160	-200,000	-0,001	-0,012
-379,146	-153,894	-0,054	0,003
-378,131	50,296	0,046	0,031
-377,117	464,981	0,020	-0,033
-376,102	307,157	0,034	-0,046
-375,088	-52,637	-0,039	-0,013
-374,073	-200,000	0,008	-0,061
-373,058	-55,150	0,109	0,035
-372,044	-200,000	-0,005	-0,035
-371,029	-200,000	0,016	0,134
-370,015	-200,000	0,008	0,039
-369,000	143,011	0,089	-0,085
-367,985	607,463	-0,078	-0,140
-366,971	-200,000	0,018	-0,209
-365,956	94,324	-0,060	-0,049
-364,942	800,000	0,072	0,152
-363,927	800,000	-0,049	0,133
-362,912	-200,000	-0,039	0,123
-361,898	-74,946	-0,041	-0,010
-360,883	-200,000	-0,013	0,086
-359,869	494,594	0,089	-0,148
-358,854	-200,000	-0,034	-0,134
-357,839	-200,000	-0,151	0,000
-356,825	173,834	-0,047	0,048
-355,810	-121,124	0,084	0,010
-354,796	-73,862	-0,046	0,012
-353,781	800,000	0,002	-0,007
-352,766	-200,000	-0,002	-0,013
-351,752	-105,896	-0,022	-0,004
-350,737	-119,836	0,044	0,005
-349,723	-127,326	0,091	0,009
-348,708	-16,809	-0,027	-0,012
-347,693	352,057	-0,011	0,016
-346,679	-114,820	-0,151	-0,021
-345,664	181,957	0,085	-0,090
-344,650	713,949	0,017	-0,032
-343,635	-62,219	0,148	-0,044
-342,620	94,672	-0,028	-0,023
-341,606	800,000	0,034	0,094
-340,591	-200,000	0,011	-0,081
-339,577	800,000	-0,035	-0,081
-338,562	-80,060	0,059	0,014
-337,548	-98,946	0,111	-0,020
-336,533	-200,000	-0,001	0,133
-335,518	19,148	-0,095	0,055
-334,504	-200,000	-0,009	0,076
-333,489	483,518	0,052	-0,085
-332,475	-200,000	-0,006	0,052
-331,460	88,012	-0,038	0,031
-330,445	317,139	0,050	0,068
-329,431	-127,976	0,124	-0,013
-328,416	199,359	0,102	0,112
-327,402	-200,000	0,026	0,115
-326,387	-200,000	0,011	-0,073
-325,372	-200,000	-0,016	-0,153
-324,358	46,983	0,034	0,023
-323,343	-200,000	-0,019	-0,080
-322,329	675,587	0,047	0,087
-321,314	-200,000	-0,001	-0,011
-320,299	-36,875	-0,042	0,016
-319,285	-200,000	-0,045	0,158
-318,270	106,387	0,028	0,023
-317,256	156,537	-0,108	-0,107
-316,241	800,000	0,045	-0,134
-315,226	689,289	-0,041	0,078
-314,212	-74,039	0,110	0,028
-313,197	261,196	-0,046	0,057
-312,183	-34,327	-0,059	-0,023
-311,168	-30,083	0,028	0,011
-310,153	800,000	0,021	-0,050
-309,139	-200,000	0,004	-0,072
-308,124	-200,000	-0,002	-0,142
-307,110	-40,708	0,074	-0,027
-306,095	-200,000	-0,010	-0,063
-305,080	-34,179	-0,100	-0,039
-304,066	-12,722	0,080	-0,037
-303,051	-52,217	-0,152	-0,050
-302,037	40,133	0,087	-0,056
-301,022	469,878	-0,016	-0,026
-300,008	29,601	0,049	0,030
-298,993	369,691	-0,082	0,119
-297,978	-200,000	-0,007	-0,095
-296,964	343,171	-0,039	0,055
-295,949	-93,779	-0,033	0,006
-294,935	64,926	-0,035	-0,025
-293,920	-129,802	0,090	0,009
-292,905	-52,209	-0,005	-0,002
-291,891	-166,391	0,125	0,004
-290,876	-200,000	0,024	0,106
-289,862	-200,000	0,013	0,070
-288,847	-200,000	-0,009	-0,169
-287,832	445,645	0,018	-0,028
-286,818	-33,438	0,021	-0,008
-285,803	289,846	0,068	0,089
-284,789	-25,799	0,009	-0,004
-283,774	-166,082	-0,015	0,000
-282,759	336,918	-0,072	0,100
-281,745	164,893	0,145	-0,147
-280,730	-71,153	0,055	0,015
-279,716	119,364	-0,045	0,040
-278,701	-84,519	0,101	0,023
-277,686	-53,401	0,046	0,015
-276,672	425,037	0,021	0,033
-275,657	800,000	-0,053	-0,111
-274,643	-200,000	-0,023	0,156
-273,628	621,775	-0,077	0,139
-272,613	110,118	0,090	-0,077
-271,599	410,826	-0,081	0,124
-270,584	800,000	0,051	0,117
-269,570	26,082	0,096	0,057
-268,555	800,000	0,065	-0,134
-267,540	-141,524	0,153	0,011
-266,526	36,939	-0,080	-0,050
-265,511	744,078	-0,022	0,042
-264,497	241,903	-0,065	-0,078
-263,482	-82,528	0,079	-0,018
-262,467	382,328	-0,054	0,080
-261,453	-132,343	0,031	0,003
-260,438	800,000	-0,024	-0,064
-259,424	-151,848	0,184	-0,009
-258,409	-200,000	-0,013	-0,048
-257,395	800,000	0,033	-0,078
-256,380	-0,184	0,039	0,020
-255,365	-53,303	0,061	0,020
-254,351	-153,868	0,137	-0,007
-253,336	125,913	-0,094	-0,085
-252,322	78,733	0,039	-0,029
-251,307	-56,027	0,172	-0,054
-250,292	-200,000	0,004	0,017
-249,278	44,475	0,129	-0,085
-248,263	-200,000	0,009	-0,042
-247,249	312,223	-0,056	0,076
-246,234	800,000	-0,045	-0,105
-245,219	-200,000	0,003	-0,084
-244,205	618,216	0,043	-0,078
-243,190	-19,781	0,012	0,005
-242,176	358,099	0,068	0,098
-241,161	-200,000	0,005	0,090
-240,146	-8,293	-0,070	0,034
-239,132	-64,917	0,176	-0,050
-238,117	-84,352	-0,055	-0,012
-237,103	97,606	-0,102	-0,084
-236,088	-200,000	-0,001	-0,138
-235,073	88,097	0,062	-0,049
-234,059	-114,072	0,118	0,016
-233,044	6,341	-0,170	0,090
-232,030	737,646	-0,077	0,148
-231,015	-96,426	0,146	-0,027
-230,000	248,700	0,055	-0,067
-228,986	-101,970	0,045	-0,008
-227,971	203,268	-0,058	0,064
-226,957	323,881	0,063	0,086
-225,942	-200,000	0,008	0,135
-224,927	406,925	0,053	0,080
-223,913	-200,000	-0,033	0,140
-222,898	-200,000	0,015	-0,139
-221,884	-154,294	-0,101	0,005
-220,869	-146,467	-0,051	-0,003
-219,855	-175,224	0,094	-0,002
-218,840	284,223	0,011	-0,014
-217,825	35,206	0,062	0,039
-216,811	800,000	-0,023	-0,055
-215,796	-74,613	-0,060	-0,015
-214,782	330,993	0,109	-0,150
-213,767	71,167	0,086	0,064
-212,752	-200,000	-0,004	0,018
-211,738	800,000	0,056	0,139
-210,723	2,099	-0,066	-0,034
-209,709	52,384	-0,109	0,074
-208,694	-115,697	-0,086	-0,011
-207,679	347,665	-0,023	0,032
-206,665	-200,000	-0,028	-0,116
-205,650	800,000	0,057	0,132
-204,636	93,676	0,066	0,053
-203,621	-64,075	0,159	-0,046
-202,606	-104,958	-0,081	-0,013
-201,592	-200,000	0,013	-0,139
-200,577	446,943	0,078	-0,123
-199,563	140,256	0,052	0,049
-198,548	-200,000	0,068	0,241
-197,533	-20,051	0,130	0,057
-196,519	800,000	0,013	-0,039
-195,504	-191,951	-0,082	0,001
-194,490	-131,286	-0,032	-0,003
-193,475	-200,000	0,010	-0,040
-192,460	126,737	0,051	0,046
-191,446	800,000	-0,033	-0,093
-190,431	740,332	0,049	0,094
-189,417	15,822	-0,116	0,065
-188,402	11,572	-0,074	0,040
-187,387	327,714	-0,079	-0,108
-186,373	-200,000	-0,003	0,110
-185,358	-60,295	-0,142	0,043
-184,344	-200,000	-0,022	0,192
-183,329	121,972	0,057	-0,051
-182,315	133,550	-0,020	0,019
-181,300	-151,826	-0,170	-0,009
-180,285	-200,000	-0,020	0,141
-179,271	800,000	-0,025	0,064
-178,256	104,186	-0,027	0,022
-177,242	-200,000	0,005	-0,042
-176,227	-93,493	0,091	-0,018
-175,212	-200,000	-0,016	-0,077
-174,198	-200,000	-0,009	-0,044
-173,183	1,888	-0,037	-0,019
-172,169	12,113	-0,124	-0,068
-171,154	-88,595	0,146	-0,031
-170,139	401,999	-0,059	0,089
-169,125	-200,000	0,022	0,080
-168,110	55,305	0,071	0,049
-167,096	-200,000	0,004	0,125
-166,081	334,034	0,039	0,054
-165,066	800,000	0,055	-0,118
-164,052	-51,991	0,040	-0,013
-163,037	-61,227	-0,041	0,012
-162,023	-63,669	0,119	-0,035
-161,008	800,000	0,014	0,040
-159,993	321,726	0,057	0,077
-158,979	800,000	0,033	0,078
-157,964	53,534	0,095	-0,065
-156,950	800,000	0,020	-0,042
-155,935	-141,093	-0,065	-0,005
-154,920	800,000	0,034	0,071
-153,906	-118,542	0,052	-0,006
-152,891	-200,000	-0,017	-0,079
-151,877	-200,000	-0,011	0,097
-150,862	43,799	-0,110	-0,072
-149,847	151,591	0,087	-0,085
-148,833	800,000	-0,014	-0,036
-147,818	69,480	0,095	0,070
-146,804	47,110	0,068	-0,045
-145,789	-200,000	0,020	-0,106
-144,775	-195,168	-0,106	0,001
-143,760	-200,000	-0,044	-0,206
-142,745	-200,000	-0,000	-0,231
-141,731	349,509	-0,024	0,034
-140,716	99,500	0,155	0,128
-139,702	20,224	0,064	0,037
-138,687	800,000	0,045	-0,116
-137,672	-200,000	-0,001	0,025
-136,658	205,394	-0,048	-0,053
-135,643	-163,958	-0,070	0,002
-134,629	529,224	-0,023	-0,039
-133,614	226,419	-0,033	0,038
-132,599	90,443	-0,033	0,026
-131,585	25,947	-0,075	0,044
-130,570	-64,523	-0,031	-0,009
-129,556	167,032	-0,071	-0,072
-128,541	-109,556	0,147	0,022
-127,526	-60,683	-0,219	0,066
-126,512	800,000	0,017	0,038
-125,497	-200,000	0,003	0,070
-124,483	252,861	-0,117	0,143
-123,468	-175,076	-0,128	0,002
-122,453	307,421	-0,037	-0,049
-121,439	33,638	0,071	-0,044
-120,424	800,000	-0,031	0,069
