DTS Sentinel unit serial number:	SN410029Multiplexer serial number:	ORYXHardware model number:	OX2-SRSoftware version number:	ORYX F/W v4,00 Oryx Data Collector v3.7.2.0data status	okinstallation	BH3 CH2differential loss correction	single-endedforward channel	channel 2reverse channel	N/Adate	2023/12/05time	10:57:28forward acquisition time	300,00reverse acquisition time	0,00gamma	499,1914k internal	0,3197k external	0,3197temperature offset calibration	1,0000default loss term (dB/km)	0,3820temperature slope calibration	1,0000multiplexer offset coefficient	1,0000multiplexer slope coefficient	1,0000fibre end	0,00T internal ref (°C)	9,68T ext. ref 1 (°C)	-5,12T ext. ref 2 (°C)	-5,24length (m)	temperature (°C)	Stokes	anti-Stokes-744,400	-200,000	0,009	-0,125
-743,385	800,000	-0,070	0,167
-742,371	595,362	-0,069	-0,124
-741,356	38,521	-0,138	0,089
-740,342	-0,151	-0,121	-0,062
-739,327	124,433	-0,072	0,066
-738,312	-200,000	0,041	-0,152
-737,298	-31,947	-0,173	0,070
-736,283	504,189	-0,011	-0,019
-735,269	-200,000	-0,083	0,268
-734,254	149,916	-0,112	-0,110
-733,239	-76,744	-0,469	-0,119
-732,225	72,728	0,077	-0,059
-731,210	43,281	-0,083	0,055
-730,196	-22,451	0,075	-0,033
-729,181	151,437	-0,074	-0,074
-728,167	-181,450	0,059	-0,001
-727,152	309,438	-0,043	-0,058
-726,137	800,000	-0,028	-0,088
-725,123	457,317	-0,012	-0,020
-724,108	800,000	-0,050	-0,132
-723,094	800,000	-0,021	-0,065
-722,079	-200,000	-0,048	-0,266
-721,064	16,119	-0,058	0,033
-720,050	190,996	-0,054	-0,060
-719,035	14,810	-0,053	-0,030
-718,021	-200,000	0,002	0,051
-717,006	275,961	-0,085	-0,110
-715,991	-200,000	0,002	-0,024
-714,977	105,299	0,102	0,088
-713,962	800,000	0,026	-0,055
-712,948	251,225	-0,073	0,090
-711,933	272,790	-0,079	-0,101
-710,918	12,209	0,068	0,038
-709,904	-5,041	-0,161	-0,081
-708,889	-200,000	-0,013	-0,133
-707,875	-104,278	-0,161	0,027
-706,860	22,419	0,027	0,016
-705,845	-30,833	0,047	-0,019
-704,831	26,682	-0,072	0,044
-703,816	-64,640	0,041	0,012
-702,802	108,024	-0,013	-0,011
-701,787	-0,121	0,069	0,035
-700,772	-61,264	0,074	-0,022
-699,758	-86,533	-0,217	0,048
-698,743	99,195	-0,135	0,113
-697,729	-164,694	0,025	-0,001
-696,714	-151,422	0,038	-0,002
-695,699	134,363	-0,077	0,073
-694,685	800,000	0,022	-0,050
-693,670	29,335	-0,092	-0,057
-692,656	-12,726	-0,015	-0,007
-691,641	-200,000	0,004	-0,023
-690,627	-200,000	-0,002	0,044
-689,612	-130,546	0,042	-0,004
-688,597	117,150	-0,062	-0,056
-687,583	-200,000	-0,024	-0,126
-686,568	67,959	-0,033	0,025
-685,554	-75,786	0,148	-0,038
-684,539	-104,538	-0,098	0,016
-683,524	157,483	0,044	0,045
-682,510	-200,000	0,003	0,116
-681,495	724,209	-0,074	0,144
-680,481	64,363	-0,166	-0,121
-679,466	780,019	-0,061	-0,121
-678,451	647,697	0,032	-0,059
-677,437	477,711	0,003	-0,005
-676,422	800,000	0,049	0,103
-675,408	800,000	-0,060	0,130
-674,393	-200,000	-0,016	-0,056
-673,378	254,609	-0,091	-0,113
-672,364	116,199	-0,048	0,043
-671,349	-200,000	0,079	0,000
-670,335	-200,000	-0,010	0,167
-669,320	-78,422	0,081	0,020
-668,305	-200,000	0,001	0,083
-667,291	101,229	-0,078	0,066
-666,276	723,343	0,039	0,076
-665,262	103,137	-0,128	-0,109
-664,247	-200,000	-0,024	-0,082
-663,232	184,952	0,130	0,140
-662,218	202,215	0,079	0,088
-661,203	16,545	-0,046	-0,026
-660,189	-106,553	-0,146	0,023
-659,174	-200,000	-0,004	-0,083
-658,159	800,000	-0,043	-0,115
-657,145	306,474	-0,088	-0,120
-656,130	800,000	0,010	-0,028
-655,116	364,849	-0,054	0,079
-654,101	-3,059	-0,081	-0,041
-653,086	-191,544	-0,054	-0,000
-652,072	-66,395	-0,007	-0,002
-651,057	-200,000	-0,038	-0,158
-650,043	-152,279	-0,023	-0,001
-649,028	-20,899	0,110	0,049
-648,014	-8,626	-0,077	-0,037
-646,999	-69,693	0,095	0,026
-645,984	-131,661	0,089	-0,008
-644,970	159,354	-0,090	-0,091
-643,955	-200,000	0,008	-0,033
-642,941	-63,253	-0,188	0,056
-641,926	-200,000	-0,002	-0,012
-640,911	-131,846	-0,128	-0,012
-639,897	-164,324	0,183	0,006
-638,882	249,332	-0,056	-0,069
-637,868	-200,000	-0,004	0,023
-636,853	-200,000	-0,003	-0,092
-635,838	249,979	0,046	-0,057
-634,824	800,000	-0,045	-0,105
-633,809	46,841	0,009	0,006
-632,795	-6,084	-0,168	-0,083
-631,780	697,063	0,041	-0,078
-630,765	-172,503	-0,132	0,003
-629,751	-171,771	-0,054	-0,001
-628,736	-105,873	-0,066	0,011
-627,722	-37,475	-0,066	-0,025
-626,707	65,597	-0,087	0,064
-625,692	435,231	0,030	-0,048
-624,678	255,950	0,045	-0,056
-623,663	330,568	-0,067	-0,093
-622,649	-158,288	-0,058	0,002
-621,634	-200,000	-0,000	-0,037
-620,619	-151,592	-0,036	-0,002
-619,605	15,112	0,056	0,032
-618,590	-200,000	0,026	0,088
-617,576	79,757	0,061	-0,047
-616,561	800,000	-0,035	0,100
-615,546	-200,000	0,007	-0,030
-614,532	-200,000	-0,008	-0,097
-613,517	645,546	-0,026	0,049
-612,503	-79,051	0,085	-0,021
-611,488	773,469	-0,071	0,141
-610,474	-42,983	-0,054	0,020
-609,459	-72,332	-0,032	-0,009
-608,444	145,230	-0,060	-0,058
-607,430	-28,061	-0,128	0,054
-606,415	15,426	0,064	0,037
-605,401	210,714	-0,098	-0,112
-604,386	800,000	-0,030	0,093
-603,371	109,851	0,123	0,107
-602,357	-111,412	0,093	-0,014
-601,342	76,237	0,094	-0,072
-600,328	740,947	-0,071	-0,139
-599,313	-77,573	-0,071	-0,018
-598,298	-200,000	-0,009	0,090
-597,284	61,249	0,066	-0,047
-596,269	-177,771	0,035	-0,001
-595,255	800,000	-0,011	-0,026
-594,240	-146,292	-0,032	0,002
-593,225	46,446	-0,100	-0,067
-592,211	-200,000	0,002	0,018
-591,196	-53,248	-0,191	0,063
-590,182	-57,595	0,051	0,016
-589,167	-56,580	0,144	0,046
-588,152	-7,327	-0,020	-0,010
-587,138	601,153	-0,041	0,074
-586,123	-200,000	-0,009	0,040
-585,109	177,672	-0,060	-0,064
-584,094	-200,000	-0,035	-0,153
-583,079	-200,000	0,010	0,043
-582,065	-39,598	0,114	0,043
-581,050	-84,526	0,115	0,026
-580,036	-48,755	-0,064	-0,022
-579,021	800,000	-0,041	-0,126
-578,006	19,352	-0,070	-0,041
-576,992	-60,757	-0,149	-0,045
-575,977	800,000	0,014	0,043
-574,963	-200,000	0,014	0,102
-573,948	800,000	-0,017	0,035
-572,934	-35,003	-0,071	-0,028
-571,919	143,054	0,108	0,104
-570,904	500,830	-0,040	-0,068
-569,890	105,011	0,084	-0,072
-568,875	126,251	0,139	-0,127
-567,861	-200,000	-0,002	-0,165
-566,846	315,807	0,037	-0,051
-565,831	800,000	-0,030	-0,077
-564,817	-200,000	0,003	-0,085
-563,802	87,282	-0,063	-0,050
-562,788	261,023	-0,052	-0,066
-561,773	-31,318	0,085	0,035
-560,758	800,000	-0,020	-0,045
-559,744	-200,000	-0,004	-0,092
-558,729	482,858	0,067	0,111
-557,715	85,650	-0,269	0,214
-556,700	257,971	-0,111	0,138
-555,685	-164,060	-0,107	0,004
-554,671	-56,813	-0,076	-0,024
-553,656	73,311	0,089	0,067
-552,642	-200,000	-0,005	0,136
-551,627	-200,000	0,014	-0,078
-550,612	-139,953	-0,102	-0,008
-549,598	90,129	0,044	-0,036
-548,583	-200,000	0,008	-0,061
-547,569	-200,000	-0,017	0,067
-546,554	-171,773	-0,090	0,002
-545,539	-40,875	-0,099	0,037
-544,525	34,997	0,044	0,028
-543,510	-200,000	-0,019	-0,144
-542,496	298,328	-0,072	0,096
-541,481	788,925	0,018	-0,036
-540,466	-117,115	0,091	0,012
-539,452	-200,000	-0,006	0,036
-538,437	216,598	0,031	-0,036
-537,423	-112,799	-0,094	-0,013
-536,408	67,116	0,083	0,061
-535,393	233,872	0,077	-0,092
-534,379	141,237	-0,125	-0,119
-533,364	346,298	0,011	0,016
-532,350	115,557	0,071	0,063
-531,335	-50,982	-0,105	0,035
-530,321	800,000	-0,050	0,116
-529,306	-200,000	0,006	-0,022
-528,291	40,547	-0,121	0,078
-527,277	-84,614	-0,214	0,048
-526,262	-200,000	0,004	-0,094
-525,248	-200,000	-0,029	-0,125
-524,233	-200,000	0,018	0,059
-523,218	382,409	0,064	0,096
-522,204	95,426	0,068	-0,056
-521,189	-200,000	-0,007	-0,052
-520,175	401,357	0,117	-0,177
-519,160	-177,400	-0,115	0,002
-518,145	-67,750	-0,100	-0,028
-517,131	31,884	-0,034	-0,021
-516,116	4,540	0,023	0,012
-515,102	-200,000	-0,002	-0,033
-514,087	-200,000	0,011	0,038
-513,072	154,017	-0,087	0,087
-512,058	219,929	-0,064	-0,074
-511,043	-58,903	0,107	-0,033
-510,029	-200,000	-0,007	-0,028
-509,014	-184,372	-0,089	0,001
-507,999	266,140	0,050	0,063
-506,985	-2,362	-0,037	-0,019
-505,970	299,275	-0,047	0,063
-504,956	800,000	0,062	-0,147
-503,941	567,293	0,051	-0,090
-502,926	-179,323	-0,065	0,001
-501,912	334,665	-0,029	0,041
-500,897	-200,000	-0,001	0,033
-499,883	526,775	0,083	-0,141
-498,868	72,312	-0,020	-0,015
-497,853	-1,330	-0,214	-0,109
-496,839	109,486	-0,040	-0,035
-495,824	-74,145	0,092	-0,024
-494,810	-9,683	0,114	0,055
-493,795	147,097	0,022	-0,021
-492,781	699,135	0,046	-0,087
-491,766	800,000	-0,013	-0,035
-490,751	-16,574	-0,113	-0,051
-489,737	48,849	-0,057	0,038
-488,722	-200,000	0,011	-0,068
-487,708	-47,736	0,046	0,016
-486,693	-48,554	0,040	-0,014
-485,678	304,370	-0,076	-0,102
-484,664	-105,023	-0,076	0,012
-483,649	253,846	-0,028	-0,034
-482,635	-15,807	-0,056	0,026
-481,620	8,320	0,067	0,036
-480,605	-200,000	0,009	-0,029
-479,591	41,618	0,099	0,065
-478,576	66,231	0,134	-0,098
-477,562	-122,929	-0,115	-0,013
-476,547	-42,633	0,058	0,021
-475,532	-95,500	0,024	0,005
-474,518	-16,156	0,056	-0,026
-473,503	70,443	0,115	0,086
-472,489	-200,000	-0,007	0,060
-471,474	-42,437	0,090	0,033
-470,459	26,226	0,124	-0,075
-469,445	-200,000	-0,008	-0,047
-468,430	-200,000	-0,010	0,054
-467,416	3,355	-0,101	0,053
-466,401	-103,671	0,110	-0,018
-465,386	-159,002	-0,044	0,002
-464,372	0,532	0,034	-0,017
-463,357	369,259	0,039	-0,057
-462,343	800,000	-0,020	-0,043
-461,328	800,000	-0,092	-0,211
-460,313	-62,924	-0,072	0,021
-459,299	-63,692	0,278	0,082
-458,284	800,000	0,024	0,072
-457,270	-155,647	-0,033	-0,001
-456,255	31,304	-0,121	-0,075
-455,241	42,018	-0,080	0,053
-454,226	-62,824	-0,100	0,030
-453,211	51,277	0,152	0,104
-452,197	800,000	-0,037	0,078
-451,182	-63,906	0,111	-0,032
-450,168	-200,000	-0,041	0,139
-449,153	-190,660	-0,061	0,000
-448,138	-200,000	0,012	-0,110
-447,124	-138,988	-0,040	-0,003
-446,109	779,699	0,085	-0,167
-445,095	-33,969	0,093	0,037
-444,080	800,000	-0,038	0,076
-443,065	-69,099	0,071	0,020
-442,051	464,873	0,068	0,110
-441,036	-6,353	-0,030	-0,015
-440,022	-200,000	-0,007	0,074
-439,007	-134,065	0,080	-0,007
-437,992	800,000	-0,029	-0,068
-436,978	-92,804	0,140	0,028
-435,963	800,000	0,054	0,111
-434,949	107,174	-0,026	0,022
-433,934	176,642	-0,019	-0,020
-432,919	467,577	-0,030	0,049
-431,905	282,447	0,048	0,062
-430,890	59,547	-0,056	0,040
-429,876	-200,000	-0,030	0,108
-428,861	800,000	-0,036	-0,103
-427,846	800,000	-0,037	0,102
-426,832	-174,446	-0,028	0,001
-425,817	307,003	-0,036	-0,048
-424,803	-31,107	0,092	0,037
-423,788	74,346	-0,063	-0,047
-422,773	-78,857	0,090	-0,022
-421,759	-65,311	-0,030	-0,008
-420,744	603,995	0,047	0,085
-419,730	-200,000	-0,012	-0,087
-418,715	-200,000	0,004	-0,069
-417,701	-200,000	0,003	-0,041
-416,686	-49,815	-0,016	-0,005
-415,671	-57,162	0,178	-0,056
-414,657	-113,377	-0,034	-0,005
-413,642	-3,804	0,099	-0,049
-412,628	-145,081	-0,080	-0,005
-411,613	800,000	0,066	0,164
-410,598	-200,000	-0,005	-0,016
-409,584	96,119	-0,029	0,024
-408,569	83,955	0,074	0,058
-407,555	-93,316	-0,037	0,007
-406,540	-200,000	0,002	-0,016
-405,525	46,519	0,037	-0,025
-404,511	427,782	0,036	-0,056
-403,496	70,012	0,003	-0,003
-402,482	-200,000	-0,004	-0,100
-401,467	-110,255	0,092	-0,014
-400,452	800,000	-0,018	0,037
-399,438	58,969	-0,042	-0,029
-398,423	-83,536	-0,036	0,008
-397,409	27,642	-0,064	-0,039
-396,394	-58,188	-0,032	0,010
-395,379	17,707	0,074	-0,042
-394,365	800,000	0,061	0,150
-393,350	240,742	0,063	-0,075
-392,336	161,476	0,031	0,032
-391,321	-200,000	0,052	0,258
-390,306	57,487	-0,168	-0,118
-389,292	-200,000	0,002	0,089
-388,277	-200,000	0,020	0,071
-387,263	446,511	0,086	0,137
-386,248	98,210	0,120	-0,099
-385,233	261,768	-0,016	-0,020
-384,219	-200,000	0,050	-0,223
-383,204	-172,497	-0,080	-0,002
-382,190	392,391	-0,145	0,216
-381,175	-200,000	0,006	-0,099
-380,160	-200,000	0,011	-0,049
-379,146	-200,000	0,004	0,108
-378,131	154,015	0,145	-0,143
-377,117	-43,898	-0,077	-0,028
-376,102	615,688	-0,008	0,014
-375,088	-200,000	-0,016	-0,076
-374,073	-200,000	0,002	-0,031
-373,058	-110,461	0,118	0,017
-372,044	473,029	-0,011	-0,017
-371,029	-110,757	0,072	-0,011
-370,015	-200,000	-0,015	0,126
-369,000	800,000	-0,008	0,017
-367,985	65,697	-0,068	0,050
-366,971	-16,856	0,062	0,028
-365,956	-56,219	-0,066	0,021
-364,942	202,877	0,114	0,127
-363,927	14,240	0,084	0,047
-362,912	-200,000	0,002	0,098
-361,898	-200,000	-0,020	-0,093
-360,883	-1,639	-0,052	0,026
-359,869	62,210	0,090	0,064
-358,854	-92,610	0,106	0,021
-357,839	597,169	-0,039	0,069
-356,825	117,346	0,096	0,084
-355,810	-82,056	-0,054	-0,013
-354,796	800,000	-0,044	-0,110
-353,781	-29,787	0,027	0,011
-352,766	48,084	-0,106	-0,071
-351,752	123,424	-0,134	-0,120
-350,737	76,386	-0,072	-0,055
-349,723	-121,865	0,121	0,014
-348,708	-99,434	0,159	0,028
-347,693	-200,000	-0,026	0,088
-346,679	-200,000	-0,007	0,086
-345,664	33,222	0,091	-0,056
-344,650	62,681	-0,034	-0,025
-343,635	-163,417	0,152	0,005
-342,620	329,161	0,052	0,072
-341,606	-56,016	-0,116	0,037
-340,591	636,607	-0,040	0,073
-339,577	-200,000	0,002	-0,049
-338,562	275,293	-0,069	0,088
-337,548	-200,000	0,007	-0,110
-336,533	53,526	0,019	0,013
-335,518	-200,000	-0,022	0,111
-334,504	-150,661	-0,124	-0,007
-333,489	-51,006	0,069	0,023
-332,475	-200,000	-0,007	-0,139
-331,460	406,763	-0,139	-0,210
-330,445	-200,000	-0,005	0,017
-329,431	-38,921	0,054	-0,020
-328,416	155,959	0,105	-0,104
-327,402	-200,000	-0,041	-0,138
-326,387	-31,440	-0,116	0,046
-325,372	361,452	-0,032	-0,047
-324,358	184,964	-0,090	-0,096
-323,343	116,635	0,055	-0,048
-322,329	800,000	0,030	0,073
-321,314	326,744	0,062	0,085
-320,299	-108,184	0,247	0,038
-319,285	800,000	-0,018	-0,046
-318,270	92,887	-0,024	0,019
-317,256	-170,959	-0,148	-0,004
-316,241	-31,693	0,066	-0,026
-315,226	274,029	0,064	0,081
-314,212	-200,000	0,017	0,056
-313,197	21,427	0,160	0,093
-312,183	179,599	0,036	0,038
-311,168	-156,503	-0,253	-0,011
-310,153	-200,000	-0,002	0,042
-309,139	-28,933	-0,057	-0,023
-308,124	43,661	-0,039	-0,025
-307,110	488,305	0,074	-0,122
-306,095	800,000	0,036	0,084
-305,080	-200,000	0,033	-0,105
-304,066	-200,000	0,012	0,070
-303,051	459,910	-0,033	-0,053
-302,037	-71,504	-0,079	0,021
-301,022	-200,000	-0,028	0,094
-300,008	-200,000	0,010	-0,035
-298,993	800,000	-0,033	-0,077
-297,978	-155,770	0,054	-0,002
-296,964	-200,000	-0,022	0,081
-295,949	27,745	0,101	-0,061
-294,935	441,808	-0,111	-0,175
-293,920	-101,409	0,028	-0,005
-292,905	-200,000	-0,013	0,094
-291,891	-200,000	-0,009	0,085
-290,876	800,000	0,048	0,097
-289,862	-62,864	-0,061	-0,018
-288,847	93,528	0,075	-0,061
-287,832	187,736	-0,025	0,027
-286,818	628,217	-0,057	0,104
-285,803	-5,480	0,069	-0,034
-284,789	800,000	0,041	0,099
-283,774	-200,000	-0,003	0,011
-282,759	-200,000	-0,032	-0,125
-281,745	800,000	0,054	-0,122
-280,730	282,516	0,088	0,113
-279,716	245,920	-0,065	0,078
-278,701	-200,000	-0,006	0,159
-277,686	-129,823	0,102	0,010
-276,672	41,631	0,038	0,025
-275,657	-200,000	0,029	0,095
-274,643	83,004	0,082	-0,064
-273,628	-200,000	-0,010	-0,065
-272,613	116,816	0,087	0,076
-271,599	800,000	0,017	0,040
-270,584	293,785	-0,041	0,053
-269,570	209,870	-0,094	0,106
-268,555	-200,000	-0,005	0,156
-267,540	568,254	0,054	-0,094
-266,526	384,611	0,056	0,083
-265,511	8,580	-0,094	0,050
-264,497	800,000	-0,009	-0,018
-263,482	448,578	0,085	0,135
-262,467	724,839	-0,038	0,073
-261,453	-85,629	-0,143	-0,032
-260,438	161,630	0,131	-0,132
-259,424	-76,254	-0,061	-0,015
-258,409	-200,000	-0,012	0,090
-257,395	12,845	0,125	0,069
-256,380	67,555	-0,083	0,061
-255,365	-129,093	-0,108	-0,011
-254,351	-200,000	-0,004	-0,031
-253,336	249,879	0,090	-0,110
-252,322	328,568	0,049	0,068
-251,307	-200,000	-0,010	-0,045
-250,292	-160,047	0,070	-0,003
-249,278	800,000	0,012	-0,035
-248,263	-200,000	0,031	-0,133
-247,249	289,919	-0,076	0,099
-246,234	-200,000	-0,003	-0,087
-245,219	106,668	-0,094	-0,079
-244,205	800,000	-0,022	-0,052
-243,190	-17,557	0,145	0,065
-242,176	-130,984	0,125	0,012
-241,161	-137,206	0,120	0,010
-240,146	-9,825	-0,037	0,017
-239,132	10,828	-0,089	-0,048
-238,117	800,000	0,032	0,081
-237,103	-31,887	0,075	0,030
-236,088	44,972	-0,154	0,101
-235,073	58,956	-0,121	0,085
-234,059	282,990	0,049	0,063
-233,044	-200,000	-0,004	0,101
-232,030	780,669	0,019	-0,037
-231,015	293,030	-0,077	-0,100
-230,000	-96,736	0,028	-0,005
-228,986	-200,000	-0,012	-0,148
-227,971	800,000	-0,063	0,158
-226,957	-200,000	0,007	0,045
-225,942	98,790	0,094	0,078
-224,927	-27,599	0,112	0,046
-223,913	636,542	0,062	-0,112
-222,898	-26,133	-0,159	0,067
-221,884	10,414	-0,096	0,052
-220,869	24,691	-0,022	-0,013
-219,855	-200,000	0,020	0,161
-218,840	800,000	0,052	0,121
-217,825	235,998	-0,039	0,046
-216,811	4,275	0,050	-0,026
-215,796	-162,483	-0,140	-0,005
-214,782	124,737	0,115	-0,103
-213,767	582,727	-0,057	0,100
-212,752	-62,789	0,155	-0,045
-211,738	-200,000	-0,027	0,163
-210,723	369,744	-0,083	0,120
-209,709	-40,802	-0,064	-0,024
-208,694	-200,000	0,011	0,116
-207,679	800,000	-0,054	-0,115
-206,665	800,000	0,034	-0,089
-205,650	-200,000	-0,008	0,113
-204,636	726,314	0,064	0,123
-203,621	205,422	-0,030	-0,033
-202,606	30,753	-0,069	-0,042
-201,592	81,561	0,134	-0,103
-200,577	800,000	0,053	-0,145
-199,563	42,333	-0,030	-0,020
-198,548	-200,000	0,044	0,141
-197,533	80,460	0,106	0,081
-196,519	800,000	0,026	0,056
-195,504	694,607	-0,048	0,090
-194,490	-200,000	0,015	-0,090
-193,475	276,108	0,027	-0,034
-192,460	-173,719	0,054	0,001
-191,446	57,133	-0,145	0,101
-190,431	-108,217	0,050	0,008
-189,417	-66,732	-0,130	0,036
-188,402	318,134	0,104	-0,140
-187,387	84,931	-0,199	-0,155
-186,373	-200,000	0,007	-0,158
-185,358	159,475	0,054	-0,054
-184,344	88,289	0,129	-0,102
-183,329	-200,000	-0,001	-0,036
-182,315	-200,000	-0,006	0,162
-181,300	-200,000	-0,010	0,041
-180,285	-146,087	-0,161	0,010
-179,271	109,407	-0,136	-0,116
-178,256	-116,639	0,073	-0,009
-177,242	-51,836	0,086	0,028
-176,227	121,347	0,152	0,135
-175,212	800,000	0,013	-0,026
-174,198	311,116	-0,048	0,065
-173,183	38,005	0,029	0,018
-172,169	47,790	-0,085	-0,056
-171,154	42,291	-0,085	-0,055
-170,139	-200,000	-0,007	0,084
-169,125	149,398	0,075	0,072
-168,110	-46,385	-0,095	-0,033
-167,096	800,000	0,013	0,037
-166,081	-200,000	0,005	-0,085
-165,066	-169,711	-0,053	0,001
-164,052	-200,000	-0,005	-0,065
-163,037	16,083	0,092	-0,052
-162,023	-46,665	-0,033	-0,012
-161,008	-200,000	-0,028	0,135
-159,993	-20,151	0,143	-0,062
-158,979	-200,000	0,018	-0,128
-157,964	-200,000	0,008	-0,042
-156,950	615,978	0,062	-0,111
-155,935	-200,000	0,030	-0,160
-154,920	340,904	0,034	0,048
-153,906	15,537	-0,024	-0,014
-152,891	30,501	0,117	0,071
-151,877	-38,845	-0,224	-0,084
-150,862	-200,000	0,032	-0,119
-149,847	153,112	0,076	-0,074
-148,833	-88,742	-0,089	0,019
-147,818	546,994	-0,028	0,048
-146,804	32,705	0,139	0,086
-145,789	23,805	0,061	-0,035
-144,775	-92,254	-0,100	0,020
-143,760	550,812	-0,016	-0,027
-142,745	381,421	-0,069	0,101
-141,731	785,907	0,049	0,097
-140,716	56,804	0,075	0,052
-139,702	105,683	0,033	0,028
-138,687	-200,000	-0,063	0,214
-137,672	128,260	0,078	-0,071
-136,658	-10,315	-0,149	0,070
-135,643	131,136	-0,054	-0,050
-134,629	297,769	-0,085	0,111
-133,614	40,222	0,008	-0,005
-132,599	-200,000	0,005	-0,112
-131,585	-200,000	-0,001	-0,092
-130,570	800,000	0,023	0,052
-129,556	-29,435	-0,048	0,020
-128,541	-57,464	0,162	-0,050
-127,526	-200,000	-0,027	0,118
-126,512	14,229	0,089	-0,049
-125,497	136,306	-0,056	0,052
-124,483	-60,586	-0,146	-0,044
-123,468	306,416	0,081	0,108
-122,453	149,544	-0,033	0,032
-121,439	-27,498	-0,051	0,021
-120,424	800,000	0,041	-0,099
-119,410	13,455	0,192	-0,106
