DTS Sentinel unit serial number:	SN410029Multiplexer serial number:	ORYXHardware model number:	OX2-SRSoftware version number:	ORYX F/W v4,00 Oryx Data Collector v3.7.2.0data status	okinstallation	BH3 CH2differential loss correction	single-endedforward channel	channel 2reverse channel	N/Adate	2023/12/05time	12:52:28forward acquisition time	300,00reverse acquisition time	0,00gamma	499,1914k internal	0,3196k external	0,3196temperature offset calibration	1,0000default loss term (dB/km)	0,3820temperature slope calibration	1,0000multiplexer offset coefficient	1,0000multiplexer slope coefficient	1,0000fibre end	0,00T internal ref (°C)	9,97T ext. ref 1 (°C)	-4,46T ext. ref 2 (°C)	-4,55length (m)	temperature (°C)	Stokes	anti-Stokes-744,400	-47,705	0,074	0,026
-743,385	310,636	-0,150	0,205
-742,371	2,236	0,029	0,015
-741,356	9,301	-0,122	0,067
-740,342	-0,496	-0,109	-0,056
-739,327	69,038	-0,210	0,157
-738,312	278,731	-0,054	-0,070
-737,298	-111,753	-0,196	-0,029
-736,283	120,059	-0,021	0,019
-735,269	73,155	-0,203	0,154
-734,254	-199,333	-0,191	-0,001
-733,239	6,150	-0,206	0,111
-732,225	-71,208	-0,068	0,018
-731,210	-80,952	0,045	0,011
-730,196	-200,000	-0,015	0,056
-729,181	-200,000	-0,001	0,012
-728,167	-10,865	-0,049	-0,023
-727,152	346,099	0,083	0,119
-726,137	-19,305	-0,162	-0,073
-725,123	327,464	-0,067	0,094
-724,108	710,282	-0,075	-0,144
-723,094	-76,201	-0,149	-0,038
-722,079	-200,000	0,002	0,059
-721,064	-12,974	-0,072	-0,034
-720,050	-38,354	-0,114	-0,044
-719,035	23,083	0,096	0,057
-718,021	-59,037	-0,151	0,047
-717,006	-200,000	-0,004	0,014
-715,991	526,009	-0,035	-0,061
-714,977	-38,442	-0,064	-0,025
-713,962	800,000	-0,024	0,059
-712,948	-200,000	-0,023	-0,126
-711,933	-183,697	-0,157	-0,002
-710,918	152,198	0,089	-0,088
-709,904	278,875	-0,031	0,040
-708,889	-200,000	-0,006	-0,030
-707,875	128,115	-0,127	-0,118
-706,860	266,199	0,040	-0,051
-705,845	450,915	0,053	-0,086
-704,831	-16,657	0,135	-0,062
-703,816	-34,738	-0,120	-0,047
-702,802	224,637	-0,116	-0,137
-701,787	800,000	-0,022	0,045
-700,772	-200,000	0,004	-0,215
-699,758	-145,009	-0,125	-0,008
-698,743	-200,000	-0,009	0,049
-697,729	97,949	0,108	0,090
-696,714	32,357	-0,021	-0,013
-695,699	-10,083	-0,147	-0,071
-694,685	75,476	-0,091	-0,070
-693,670	80,255	0,172	-0,134
-692,656	79,633	-0,046	-0,036
-691,641	-32,205	0,078	0,032
-690,627	-200,000	-0,020	-0,101
-689,612	13,040	0,091	-0,051
-688,597	-64,484	-0,033	0,010
-687,583	-51,988	-0,154	-0,052
-686,568	-140,569	-0,041	-0,003
-685,554	800,000	-0,040	0,089
-684,539	222,348	-0,014	-0,017
-683,524	17,206	-0,049	0,028
-682,510	-115,933	0,071	0,010
-681,495	-200,000	-0,038	-0,164
-680,481	209,621	-0,055	0,063
-679,466	-200,000	0,001	-0,138
-678,451	196,070	0,056	0,062
-677,437	-113,314	-0,101	-0,014
-676,422	116,854	-0,056	0,050
-675,408	-200,000	-0,011	-0,180
-674,393	133,842	-0,026	-0,024
-673,378	-80,796	-0,049	0,012
-672,364	20,283	-0,008	-0,005
-671,349	-5,699	-0,111	0,055
-670,335	105,322	0,033	0,028
-669,320	408,435	-0,038	0,058
-668,305	140,064	0,094	-0,090
-667,291	-200,000	-0,012	0,047
-666,276	-177,908	-0,087	0,001
-665,262	545,314	-0,067	-0,117
-664,247	800,000	-0,077	-0,192
-663,232	98,674	-0,088	0,074
-662,218	-200,000	0,022	-0,083
-661,203	-105,553	-0,098	0,016
-660,189	800,000	-0,018	0,045
-659,174	131,448	-0,103	-0,096
-658,159	-200,000	0,014	-0,108
-657,145	-124,540	-0,065	0,007
-656,130	131,346	-0,120	-0,112
-655,116	-200,000	0,009	0,048
-654,101	-200,000	0,017	0,066
-653,086	225,563	0,075	-0,088
-652,072	556,954	-0,031	-0,054
-651,057	-124,383	0,136	-0,015
-650,043	-80,977	-0,050	-0,012
-649,028	800,000	-0,008	-0,027
-648,014	800,000	-0,029	-0,061
-646,999	-200,000	-0,006	0,018
-645,984	-200,000	-0,013	0,046
-644,970	22,896	-0,035	0,021
-643,955	27,704	-0,144	0,088
-642,941	800,000	-0,036	-0,074
-641,926	800,000	-0,026	0,078
-640,911	-200,000	0,001	-0,072
-639,897	537,742	-0,072	0,124
-638,882	-86,068	-0,129	0,029
-637,868	18,076	-0,084	-0,049
-636,853	-200,000	-0,000	-0,101
-635,838	65,227	-0,062	0,046
-634,824	-123,057	0,066	-0,008
-633,809	158,971	0,093	-0,094
-632,795	14,157	0,051	0,029
-631,780	-200,000	0,014	0,116
-630,765	-89,958	-0,076	-0,016
-629,751	-88,882	0,092	-0,020
-628,736	-200,000	-0,008	-0,028
-627,722	-116,173	0,142	0,019
-626,707	90,109	-0,141	0,114
-625,692	-200,000	0,019	0,086
-624,678	201,469	0,111	-0,124
-623,663	171,675	0,051	0,053
-622,649	-89,516	0,065	0,014
-621,634	334,378	0,076	-0,107
-620,619	365,990	0,061	-0,089
-619,605	487,718	0,040	-0,067
-618,590	148,039	-0,077	0,076
-617,576	-200,000	0,023	0,194
-616,561	-99,183	-0,045	0,008
-615,546	800,000	-0,044	0,127
-614,532	274,585	-0,053	-0,068
-613,517	197,228	-0,033	0,036
-612,503	-3,453	0,072	0,036
-611,488	-34,904	-0,070	-0,028
-610,474	-0,855	-0,025	-0,013
-609,459	392,566	0,039	0,059
-608,444	405,151	0,090	-0,138
-607,430	316,335	-0,042	-0,058
-606,415	-200,000	-0,039	-0,227
-605,401	-87,289	0,098	0,021
-604,386	-104,763	-0,025	-0,004
-603,371	-200,000	0,024	0,093
-602,357	800,000	0,029	-0,066
-601,342	-200,000	-0,004	-0,087
-600,328	800,000	-0,017	-0,049
-599,313	-35,504	-0,122	-0,048
-598,298	217,885	0,051	-0,059
-597,284	800,000	0,035	0,082
-596,269	161,019	0,069	0,070
-595,255	556,115	0,010	-0,018
-594,240	-200,000	-0,038	-0,142
-593,225	-200,000	0,008	0,036
-592,211	-200,000	-0,019	-0,062
-591,196	-200,000	-0,004	0,087
-590,182	38,523	-0,096	0,062
-589,167	-75,400	-0,024	0,006
-588,152	116,389	-0,018	0,016
-587,138	560,136	0,068	-0,119
-586,123	-86,577	0,099	-0,022
-585,109	-160,666	-0,192	-0,007
-584,094	173,829	0,038	-0,040
-583,079	-130,984	-0,088	0,008
-582,065	211,161	0,050	-0,057
-581,050	55,818	-0,097	0,068
-580,036	-200,000	-0,021	0,096
-579,021	493,363	0,049	-0,081
-578,006	161,697	0,034	-0,035
-576,992	348,532	-0,071	-0,101
-575,977	41,503	-0,123	0,080
-574,963	62,181	0,047	0,034
-573,948	-153,461	0,073	0,004
-572,934	501,285	0,057	-0,096
-571,919	-7,683	-0,126	-0,062
-570,904	-200,000	0,008	0,040
-569,890	-200,000	0,022	0,159
-568,875	-58,126	-0,075	0,023
-567,861	106,033	0,082	-0,070
-566,846	238,380	-0,018	-0,022
-565,831	-29,058	0,097	0,040
-564,817	459,678	-0,069	-0,112
-563,802	-200,000	0,005	-0,155
-562,788	-104,747	-0,068	0,011
-561,773	-94,892	0,174	0,034
-560,758	-200,000	-0,007	0,096
-559,744	56,671	-0,058	-0,040
-558,729	800,000	-0,028	0,083
-557,715	-85,238	-0,060	-0,013
-556,700	-56,427	-0,135	-0,043
-555,685	81,587	0,026	0,020
-554,671	3,999	0,061	0,032
-553,656	800,000	-0,035	0,100
-552,642	353,114	0,052	0,075
-551,627	800,000	-0,033	0,077
-550,612	-200,000	-0,033	-0,128
-549,598	247,867	-0,090	-0,111
-548,583	-27,149	0,063	0,027
-547,569	401,263	-0,017	0,027
-546,554	-140,730	0,083	-0,006
-545,539	800,000	0,038	0,094
-544,525	79,329	-0,082	0,063
-543,510	94,257	-0,082	0,067
-542,496	-101,961	0,128	0,022
-541,481	-121,992	-0,184	0,022
-540,466	-83,619	-0,130	-0,030
-539,452	229,261	-0,064	0,076
-538,437	-32,958	0,182	0,073
-537,423	-63,690	-0,127	0,037
-536,408	-45,817	-0,071	0,025
-535,393	211,618	-0,113	0,129
-534,379	-34,777	-0,040	0,016
-533,364	-118,004	-0,106	-0,014
-532,350	-34,034	0,109	0,043
-531,335	-200,000	0,001	0,165
-530,321	-83,373	0,136	-0,031
-529,306	-71,992	0,095	0,025
-528,291	225,167	-0,050	-0,059
-527,277	-200,000	-0,008	-0,038
-526,262	-53,284	-0,041	-0,014
-525,248	-200,000	-0,006	0,085
-524,233	-12,188	0,065	0,031
-523,218	-37,619	-0,045	0,017
-522,204	-164,438	0,106	0,003
-521,189	-200,000	-0,033	-0,122
-520,175	355,454	-0,086	-0,124
-519,160	421,020	0,085	-0,131
-518,145	79,713	0,036	-0,028
-517,131	381,917	0,053	0,078
-516,116	800,000	-0,037	0,081
-515,102	-18,366	0,216	0,097
-514,087	800,000	0,020	0,045
-513,072	222,617	0,105	-0,122
-512,058	109,927	-0,064	-0,055
-511,043	-200,000	0,019	0,071
-510,029	-84,713	0,077	0,017
-509,014	191,743	0,092	0,101
-507,999	-91,074	-0,096	0,020
-506,985	493,273	0,057	-0,095
-505,970	488,089	-0,037	-0,062
-504,956	800,000	-0,052	0,119
-503,941	21,170	0,132	0,077
-502,926	-200,000	0,006	-0,055
-501,912	-200,000	0,007	0,026
-500,897	-200,000	-0,029	-0,163
-499,883	800,000	0,032	0,077
-498,868	800,000	-0,060	-0,154
-497,853	219,510	-0,016	-0,018
-496,839	44,848	0,034	-0,023
-495,824	99,349	-0,047	-0,039
-494,810	-194,103	0,195	0,001
-493,795	-200,000	0,016	0,053
-492,781	-34,002	0,028	-0,011
-491,766	93,908	-0,076	-0,062
-490,751	211,482	-0,173	-0,197
-489,737	-200,000	0,000	-0,079
-488,722	800,000	0,017	-0,048
-487,708	-200,000	-0,007	0,082
-486,693	218,934	-0,098	-0,113
-485,678	800,000	-0,015	0,047
-484,664	132,135	-0,020	-0,019
-483,649	74,855	0,041	-0,031
-482,635	-110,085	0,145	0,022
-481,620	59,832	0,105	-0,075
-480,605	-152,777	-0,078	-0,004
-479,591	800,000	-0,046	0,110
-478,576	-200,000	0,014	-0,082
-477,562	-200,000	-0,030	-0,101
-476,547	-200,000	0,013	-0,068
-475,532	123,420	-0,007	-0,006
-474,518	-42,954	-0,038	0,014
-473,503	93,886	0,020	-0,017
-472,489	800,000	0,059	0,125
-471,474	800,000	0,012	-0,038
-470,459	-147,412	-0,042	0,003
-469,445	-200,000	0,005	-0,046
-468,430	-15,961	0,071	0,032
-467,416	-200,000	-0,030	-0,115
-466,401	-106,890	0,097	0,015
-465,386	-75,858	0,202	-0,051
-464,372	-29,009	-0,081	-0,033
-463,357	683,181	0,015	0,028
-462,343	288,197	-0,054	0,071
-461,328	-200,000	0,001	-0,050
-460,313	-200,000	0,000	-0,073
-459,299	-200,000	0,010	-0,085
-458,284	800,000	0,038	0,091
-457,270	-111,988	-0,088	-0,013
-456,255	-27,322	-0,156	-0,065
-455,241	-146,334	-0,078	0,005
-454,226	-88,606	0,030	-0,006
-453,211	204,504	-0,084	-0,094
-452,197	-19,592	-0,049	0,022
-451,182	-200,000	-0,009	0,112
-450,168	257,620	-0,027	0,034
-449,153	124,198	-0,038	-0,034
-448,138	761,889	-0,059	-0,115
-447,124	-101,774	0,070	0,012
-446,109	501,725	0,037	-0,063
-445,095	-90,913	0,131	0,027
-444,080	-18,730	0,027	-0,012
-443,065	-84,594	0,139	-0,031
-442,051	-200,000	-0,058	-0,205
-441,036	9,744	-0,066	-0,036
-440,022	190,455	0,084	0,091
-439,007	-30,667	0,104	0,042
-437,992	-200,000	0,035	0,126
-436,978	294,508	-0,023	0,031
-435,963	-175,110	-0,024	0,000
-434,949	-189,619	-0,271	-0,002
-433,934	-90,065	-0,038	-0,008
-432,919	-200,000	0,027	0,114
-431,905	142,255	-0,088	0,084
-430,890	800,000	0,058	-0,125
-429,876	337,419	-0,062	-0,088
-428,861	178,029	0,074	0,078
-427,846	800,000	-0,027	0,082
-426,832	435,258	-0,056	-0,089
-425,817	110,381	-0,133	-0,115
-424,803	67,705	0,031	0,023
-423,788	-61,738	-0,041	-0,012
-422,773	188,600	0,059	-0,064
-421,759	-200,000	-0,028	-0,229
-420,744	48,518	-0,047	-0,032
-419,730	53,421	-0,167	-0,115
-418,715	-75,829	-0,067	0,017
-417,701	-65,440	-0,056	0,016
-416,686	-200,000	0,003	0,111
-415,671	800,000	0,032	-0,069
-414,657	289,995	0,087	-0,114
-413,642	243,383	-0,016	0,020
-412,628	41,896	-0,074	-0,048
-411,613	212,658	-0,122	-0,138
-410,598	-56,098	0,037	0,012
-409,584	28,753	-0,101	0,061
-408,569	800,000	0,066	0,143
-407,555	-200,000	-0,019	0,066
-406,540	35,301	-0,049	-0,031
-405,525	2,040	0,065	-0,034
-404,511	291,717	-0,036	-0,047
-403,496	800,000	-0,041	-0,085
-402,482	-101,940	-0,182	-0,031
-401,467	-122,132	0,131	-0,015
-400,452	-200,000	-0,011	0,090
-399,438	369,357	0,043	-0,063
-398,423	65,019	-0,136	-0,099
-397,409	640,849	-0,068	0,125
-396,394	-169,884	-0,084	0,002
-395,379	-187,066	-0,130	-0,001
-394,365	800,000	-0,039	0,100
-393,350	-100,519	0,112	-0,020
-392,336	-200,000	0,014	0,052
-391,321	-51,374	-0,114	0,038
-390,306	761,902	-0,039	0,077
-389,292	-200,000	0,016	-0,071
-388,277	800,000	0,061	0,153
-387,263	-3,870	0,035	-0,017
-386,248	184,416	0,050	0,053
-385,233	800,000	0,027	-0,075
-384,219	-200,000	0,018	0,097
-383,204	-33,388	0,040	-0,016
-382,190	-58,750	-0,114	-0,035
-381,175	-200,000	-0,008	0,066
-380,160	-200,000	-0,013	-0,107
-379,146	196,129	0,130	0,143
-378,131	-200,000	0,020	0,129
-377,117	-200,000	-0,012	0,098
-376,102	800,000	0,027	0,071
-375,088	-60,301	0,137	-0,042
-374,073	3,393	-0,038	0,020
-373,058	-200,000	-0,010	0,142
-372,044	-200,000	0,037	0,265
-371,029	216,507	-0,076	0,086
-370,015	-200,000	0,029	-0,097
-369,000	-105,205	-0,172	-0,028
-367,985	-20,875	-0,128	0,056
-366,971	-200,000	0,007	-0,052
-365,956	424,816	0,083	0,129
-364,942	-200,000	-0,001	0,096
-363,927	800,000	-0,040	0,085
-362,912	-200,000	0,055	0,208
-361,898	-40,983	-0,019	0,007
-360,883	-200,000	-0,012	0,091
-359,869	-200,000	0,019	-0,072
-358,854	-83,549	0,085	-0,019
-357,839	-200,000	-0,013	0,079
-356,825	800,000	0,037	0,110
-355,810	-200,000	-0,005	-0,058
-354,796	-57,049	0,176	-0,055
-353,781	601,719	0,090	-0,161
-352,766	259,456	-0,067	-0,083
-351,752	11,931	0,025	-0,014
-350,737	108,754	0,086	-0,074
-349,723	-200,000	0,020	0,077
-348,708	-18,039	0,084	0,038
-347,693	69,134	0,055	0,040
-346,679	-7,020	-0,116	-0,057
-345,664	101,431	0,110	-0,092
-344,650	519,229	0,033	0,056
-343,635	-6,858	0,123	0,060
-342,620	127,123	0,036	0,032
-341,606	-66,847	0,062	0,017
-340,591	-191,921	-0,054	0,000
-339,577	-25,749	0,124	-0,052
-338,562	43,704	-0,034	-0,022
-337,548	-200,000	-0,003	-0,167
-336,533	-102,552	0,103	-0,017
-335,518	401,211	0,040	0,061
-334,504	264,993	0,079	0,099
-333,489	-95,960	0,078	0,015
-332,475	22,034	-0,147	-0,085
-331,460	307,422	0,059	-0,079
-330,445	-165,649	-0,122	0,004
-329,431	-200,000	-0,004	-0,100
-328,416	333,414	-0,069	0,096
-327,402	-75,128	-0,101	0,026
-326,387	274,486	0,080	-0,101
-325,372	455,134	-0,049	-0,078
-324,358	-12,833	-0,205	-0,095
-323,343	-129,610	-0,036	-0,003
-322,329	-200,000	0,009	0,031
-321,314	-110,667	0,060	-0,009
-320,299	-200,000	-0,020	-0,078
-319,285	-83,665	-0,037	0,008
-318,270	401,320	-0,016	-0,024
-317,256	60,099	-0,011	-0,008
-316,241	73,537	-0,069	-0,052
-315,226	-200,000	0,013	-0,052
-314,212	423,958	0,025	0,039
-313,197	428,783	-0,039	0,060
-312,183	-42,563	-0,011	0,004
-311,168	406,468	-0,039	-0,059
-310,153	-162,673	-0,076	0,003
-309,139	-200,000	-0,003	-0,055
-308,124	-200,000	0,002	-0,071
-307,110	87,194	-0,067	-0,053
-306,095	666,706	0,052	0,097
-305,080	-10,574	-0,051	0,024
-304,066	72,291	-0,109	0,081
-303,051	-200,000	-0,024	-0,080
-302,037	-0,057	0,063	0,032
-301,022	58,721	-0,047	0,033
-300,008	-200,000	-0,021	0,071
-298,993	86,430	0,171	0,135
-297,978	241,653	0,050	0,059
-296,964	-200,000	-0,007	-0,069
-295,949	-98,701	0,163	-0,029
-294,935	156,736	0,045	-0,045
-293,920	-200,000	0,013	-0,124
-292,905	220,042	0,067	0,077
-291,891	15,813	0,058	-0,032
-290,876	100,700	0,045	0,038
-289,862	609,104	-0,018	-0,032
-288,847	190,933	-0,132	-0,142
-287,832	67,106	0,110	0,080
-286,818	-200,000	-0,018	-0,160
-285,803	-200,000	-0,023	0,089
-284,789	800,000	-0,033	0,078
-283,774	479,797	0,009	0,015
-282,759	-72,550	0,051	0,013
-281,745	-200,000	-0,009	0,104
-280,730	-97,800	-0,041	0,008
-279,716	130,840	0,101	0,093
-278,701	17,574	-0,084	-0,047
-277,686	344,365	-0,027	0,038
-276,672	204,349	-0,047	-0,052
-275,657	165,929	0,043	0,043
-274,643	171,894	0,023	0,024
-273,628	-152,665	-0,040	-0,002
-272,613	-25,379	-0,100	-0,042
-271,599	-185,869	0,161	0,002
-270,584	-200,000	0,027	-0,133
-269,570	-15,942	0,105	0,047
-268,555	121,985	0,072	-0,064
-267,540	286,628	-0,075	0,097
-266,526	314,539	-0,071	-0,096
-265,511	-38,047	0,079	0,030
-264,497	155,096	0,088	0,086
-263,482	285,389	0,075	0,097
-262,467	244,165	0,037	-0,044
-261,453	-132,031	0,090	0,008
-260,438	800,000	-0,057	-0,114
-259,424	537,662	-0,031	0,053
-258,409	120,499	-0,089	-0,079
-257,395	-185,700	0,169	0,002
-256,380	-160,358	0,121	-0,005
-255,365	-131,995	0,044	0,004
-254,351	185,711	-0,049	-0,053
-253,336	-200,000	0,011	0,037
-252,322	766,012	-0,068	-0,133
-251,307	333,079	-0,014	0,019
-250,292	-153,472	0,029	-0,001
-249,278	800,000	0,087	0,173
-248,263	28,079	0,023	0,014
-247,249	800,000	0,079	-0,162
-246,234	-68,224	-0,123	0,034
-245,219	800,000	0,033	-0,080
-244,205	-200,000	0,010	-0,079
-243,190	-16,106	-0,155	0,070
-242,176	104,133	0,178	-0,149
-241,161	-11,626	-0,078	0,037
-240,146	-103,094	0,044	-0,007
-239,132	-165,977	-0,207	0,006
-238,117	-121,434	-0,032	-0,004
-237,103	-94,488	0,092	-0,018
-236,088	800,000	0,035	0,081
-235,073	658,560	-0,053	-0,098
-234,059	132,638	-0,052	0,048
-233,044	-44,482	0,071	-0,025
-232,030	375,838	-0,090	0,131
-231,015	328,154	-0,039	-0,053
-230,000	-53,378	0,159	-0,052
-228,986	155,763	-0,043	-0,043
-227,971	369,213	0,023	0,033
-226,957	800,000	0,028	0,062
-225,942	133,636	-0,093	0,086
-224,927	24,609	-0,024	0,014
-223,913	-38,726	-0,078	0,029
-222,898	417,716	-0,091	-0,139
-221,884	744,143	0,079	0,152
-220,869	-200,000	0,014	0,112
-219,855	-32,414	0,091	-0,036
-218,840	-27,219	0,133	0,055
-217,825	28,998	-0,086	0,052
-216,811	-93,623	0,122	0,024
-215,796	134,238	-0,091	0,084
-214,782	127,733	-0,161	0,146
-213,767	79,569	0,032	-0,025
-212,752	-200,000	0,009	0,106
-211,738	8,327	-0,065	0,035
-210,723	-200,000	0,019	0,061
-209,709	-200,000	-0,001	-0,033
-208,694	-18,301	-0,064	-0,028
-207,679	-200,000	-0,023	0,100
-206,665	-73,744	-0,070	0,018
-205,650	-91,884	0,105	-0,021
-204,636	-200,000	-0,001	0,019
-203,621	-69,613	0,107	0,029
-202,606	800,000	-0,093	-0,184
-201,592	800,000	0,024	-0,054
-200,577	800,000	0,066	0,138
-199,563	108,261	-0,110	-0,094
-198,548	-200,000	0,007	0,095
-197,533	800,000	-0,071	-0,152
-196,519	226,834	-0,028	-0,033
-195,504	800,000	-0,054	-0,108
-194,490	-48,790	0,128	-0,044
-193,475	568,847	0,075	-0,130
-192,460	-77,458	0,058	0,014
-191,446	92,418	0,087	0,070
-190,431	-200,000	0,184	-0,001
-189,417	-200,000	-0,048	0,182
-188,402	-200,000	0,047	-0,190
-187,387	-200,000	-0,022	-0,072
-186,373	-92,290	-0,128	-0,026
-185,358	-131,895	0,066	-0,006
-184,344	-75,883	-0,137	0,034
-183,329	-57,228	-0,013	-0,004
-182,315	-39,524	0,130	0,048
-181,300	-2,435	0,123	-0,061
-180,285	-60,712	0,028	-0,008
-179,271	80,880	-0,085	-0,065
-178,256	224,907	0,100	0,115
-177,242	800,000	0,019	0,048
-176,227	-66,917	0,163	0,046
-175,212	-86,276	0,227	0,049
-174,198	-69,232	-0,109	-0,030
-173,183	6,013	-0,085	-0,045
-172,169	-200,000	-0,020	0,130
-171,154	-200,000	0,050	-0,179
-170,139	-200,000	0,032	-0,179
-169,125	-175,862	0,039	0,001
-168,110	800,000	0,032	0,082
-167,096	-104,489	-0,097	-0,016
-166,081	-200,000	-0,017	0,058
-165,066	16,417	-0,096	-0,054
-164,052	686,275	0,067	-0,124
-163,037	1,299	-0,022	0,011
-162,023	800,000	0,057	0,117
-161,008	785,896	0,111	0,218
-159,993	-39,459	-0,084	-0,031
-158,979	-200,000	0,025	0,153
-157,964	41,869	-0,013	-0,008
-156,950	-200,000	-0,006	0,120
-155,935	-44,641	-0,032	0,011
-154,920	35,269	-0,077	-0,048
-153,906	800,000	-0,013	-0,033
-152,891	25,633	0,011	-0,007
-151,877	-32,262	0,052	-0,021
-150,862	-178,729	-0,012	0,000
-149,847	267,897	-0,080	0,099
-148,833	-62,625	-0,061	0,018
-147,818	-200,000	0,015	0,075
-146,804	83,832	0,120	-0,093
-145,789	-200,000	0,001	0,088
-144,775	138,311	0,010	0,009
-143,760	-45,896	0,016	0,006
-142,745	-200,000	-0,019	-0,117
-141,731	-90,421	0,152	0,031
-140,716	-76,906	0,135	0,033
-139,702	418,498	-0,062	0,094
-138,687	401,244	0,089	0,134
-137,672	-81,189	-0,086	-0,020
-136,658	-200,000	0,016	0,159
-135,643	234,004	-0,035	-0,041
-134,629	800,000	0,016	0,036
-133,614	-9,952	-0,062	0,029
-132,599	520,777	0,035	0,059
-131,585	549,438	-0,025	0,042
-130,570	126,528	0,066	-0,059
-129,556	800,000	0,038	0,109
-128,541	-200,000	-0,003	-0,139
-127,526	-53,243	0,062	-0,020
-126,512	-200,000	0,009	-0,125
-125,497	-100,192	0,105	-0,018
-124,483	160,072	-0,054	-0,054
-123,468	-200,000	0,013	0,104
-122,453	89,909	0,028	0,022
-121,439	-150,151	-0,092	0,005
-120,424	-38,681	0,078	0,029
-119,410	800,000	0,067	0,189
