DTS Sentinel unit serial number:	SN410029Multiplexer serial number:	ORYXHardware model number:	OX2-SRSoftware version number:	ORYX F/W v4,00 Oryx Data Collector v3.7.2.0data status	okinstallation	BH3 CH2differential loss correction	single-endedforward channel	channel 2reverse channel	N/Adate	2023/12/05time	17:52:28forward acquisition time	300,00reverse acquisition time	0,00gamma	499,1914k internal	0,3193k external	0,3193temperature offset calibration	1,0000default loss term (dB/km)	0,3820temperature slope calibration	1,0000multiplexer offset coefficient	1,0000multiplexer slope coefficient	1,0000fibre end	0,00T internal ref (°C)	10,78T ext. ref 1 (°C)	-3,93T ext. ref 2 (°C)	-4,13length (m)	temperature (°C)	Stokes	anti-Stokes-744,400	-148,813	-0,100	0,006
-743,385	800,000	-0,053	0,118
-742,371	778,326	-0,013	0,026
-741,356	-67,414	-0,232	0,066
-740,342	703,310	0,008	0,016
-739,327	183,571	-0,119	0,129
-738,312	513,402	-0,073	-0,125
-737,298	-25,682	-0,112	0,048
-736,283	-200,000	0,004	-0,218
-735,269	1,742	-0,204	0,107
-734,254	398,093	-0,065	-0,099
-733,239	-100,010	-0,453	-0,082
-732,225	345,958	0,034	-0,048
-731,210	51,784	0,159	0,110
-730,196	-200,000	-0,017	-0,175
-729,181	24,151	0,137	0,082
-728,167	104,949	-0,129	-0,111
-727,152	-200,000	-0,013	-0,058
-726,137	-143,900	-0,261	-0,018
-725,123	216,941	0,071	0,082
-724,108	43,330	-0,144	-0,096
-723,094	281,197	-0,056	-0,073
-722,079	0,398	-0,165	-0,086
-721,064	-200,000	-0,047	-0,155
-720,050	-200,000	-0,023	-0,108
-719,035	93,611	0,095	-0,078
-718,021	683,485	-0,065	-0,124
-717,006	800,000	-0,021	-0,057
-715,991	-91,340	-0,118	-0,024
-714,977	-200,000	0,003	-0,054
-713,962	-33,398	0,175	-0,070
-712,948	379,299	0,065	0,097
-711,933	29,664	0,146	-0,090
-710,918	-27,546	-0,069	0,029
-709,904	-200,000	-0,005	-0,048
-708,889	709,248	0,075	0,144
-707,875	661,421	-0,038	-0,072
-706,860	420,397	0,060	0,094
-705,845	1,026	-0,038	0,020
-704,831	277,178	0,044	-0,057
-703,816	800,000	0,028	-0,066
-702,802	-200,000	0,007	-0,061
-701,787	69,578	-0,153	-0,115
-700,772	-200,000	0,016	-0,075
-699,758	-39,240	0,034	-0,013
-698,743	250,387	0,030	-0,037
-697,729	-36,498	0,085	0,033
-696,714	42,841	0,124	-0,082
-695,699	-20,098	-0,117	-0,052
-694,685	-60,084	-0,161	-0,050
-693,670	-200,000	0,025	-0,082
-692,656	800,000	-0,010	-0,020
-691,641	-68,617	0,126	-0,035
-690,627	5,619	0,057	0,030
-689,612	21,140	0,075	-0,044
-688,597	28,851	-0,110	-0,067
-687,583	474,699	-0,054	-0,088
-686,568	244,874	-0,026	0,032
-685,554	800,000	0,050	-0,131
-684,539	800,000	0,063	0,131
-683,524	-66,852	-0,090	-0,026
-682,510	-49,303	0,129	0,044
-681,495	-71,187	-0,103	0,028
-680,481	-3,904	-0,037	-0,019
-679,466	49,175	-0,059	-0,040
-678,451	259,676	-0,043	0,054
-677,437	290,854	0,057	0,076
-676,422	-200,000	-0,001	0,040
-675,408	243,317	-0,045	-0,055
-674,393	40,532	0,072	-0,047
-673,378	-104,198	-0,061	-0,010
-672,364	-200,000	0,001	-0,200
-671,349	72,715	-0,054	0,041
-670,335	97,087	0,016	-0,014
-669,320	-176,152	0,107	-0,002
-668,305	85,450	-0,164	0,131
-667,291	91,163	-0,002	0,001
-666,276	800,000	-0,038	-0,096
-665,262	129,343	-0,129	-0,120
-664,247	-200,000	0,006	0,123
-663,232	786,900	0,072	0,144
-662,218	130,350	-0,085	0,079
-661,203	52,898	0,084	-0,059
-660,189	800,000	0,041	0,129
-659,174	421,523	-0,046	-0,072
-658,159	17,681	-0,101	-0,058
-657,145	-200,000	0,003	-0,163
-656,130	-123,115	0,064	0,007
-655,116	-22,358	0,019	-0,008
-654,101	-200,000	-0,026	0,088
-653,086	-28,365	0,064	0,027
-652,072	-200,000	-0,018	-0,067
-651,057	52,063	-0,097	-0,067
-650,043	-200,000	0,015	0,067
-649,028	421,286	0,025	-0,038
-648,014	800,000	0,023	-0,070
-646,999	-39,219	-0,043	-0,016
-645,984	531,589	-0,012	-0,020
-644,970	49,474	0,058	-0,039
-643,955	194,142	-0,035	-0,039
-642,941	253,647	-0,021	-0,026
-641,926	-200,000	-0,008	-0,095
-640,911	800,000	-0,034	0,104
-639,897	-50,400	0,061	0,021
-638,882	94,501	-0,107	0,088
-637,868	-102,736	-0,111	0,019
-636,853	178,515	0,063	-0,067
-635,838	3,891	0,050	0,027
-634,824	300,372	0,066	0,089
-633,809	-114,815	-0,035	-0,005
-632,795	85,239	0,067	0,053
-631,780	-200,000	-0,001	0,157
-630,765	800,000	-0,022	-0,069
-629,751	-46,818	-0,168	-0,059
-628,736	-59,108	-0,209	0,065
-627,722	-78,622	0,163	-0,040
-626,707	-200,000	0,009	0,145
-625,692	-200,000	0,018	0,083
-624,678	-94,330	0,110	0,022
-623,663	-146,325	-0,069	-0,004
-622,649	-152,882	-0,027	0,001
-621,634	-141,014	-0,153	-0,011
-620,619	800,000	-0,017	-0,053
-619,605	-57,622	0,053	-0,017
-618,590	126,426	0,141	-0,129
-617,576	800,000	-0,035	0,111
-616,561	-200,000	0,008	-0,041
-615,546	-200,000	-0,011	0,037
-614,532	-54,039	-0,073	-0,024
-613,517	-2,417	0,087	0,044
-612,503	-8,735	-0,160	-0,078
-611,488	15,453	0,024	0,014
-610,474	-109,921	0,071	-0,011
-609,459	13,682	-0,207	-0,116
-608,444	-200,000	0,005	0,016
-607,430	-40,038	0,086	0,033
-606,415	-173,234	-0,152	-0,003
-605,401	-78,332	-0,171	-0,042
-604,386	348,100	0,048	-0,069
-603,371	2,773	0,106	0,056
-602,357	117,319	-0,048	0,043
-601,342	-103,558	-0,185	-0,031
-600,328	-70,152	0,083	0,023
-599,313	-200,000	-0,002	0,014
-598,298	-200,000	-0,003	0,064
-597,284	71,462	0,170	0,128
-596,269	-200,000	-0,032	0,120
-595,255	115,958	-0,052	0,047
-594,240	-57,115	-0,142	-0,045
-593,225	-200,000	-0,025	-0,124
-592,211	-200,000	-0,037	-0,162
-591,196	-70,270	0,057	-0,016
-590,182	-108,054	-0,073	-0,011
-589,167	-152,272	0,181	0,009
-588,152	-62,052	-0,054	0,016
-587,138	800,000	0,009	-0,029
-586,123	43,945	-0,101	0,067
-585,109	39,727	-0,067	-0,043
-584,094	125,085	-0,095	-0,087
-583,079	-127,075	0,100	0,010
-582,065	-200,000	-0,005	0,051
-581,050	666,642	0,020	-0,038
-580,036	-200,000	0,008	-0,100
-579,021	-200,000	-0,004	0,053
-578,006	699,946	-0,084	-0,160
-576,992	-98,987	-0,101	-0,018
-575,977	800,000	0,027	-0,062
-574,963	-4,115	-0,127	0,064
-573,948	471,522	-0,035	0,057
-572,934	11,303	-0,075	-0,042
-571,919	48,321	0,097	-0,066
-570,904	54,289	-0,152	-0,106
-569,890	-200,000	-0,015	-0,092
-568,875	-200,000	-0,017	-0,090
-567,861	-86,905	0,180	-0,039
-566,846	-118,851	0,025	0,003
-565,831	650,102	-0,057	0,106
-564,817	169,838	-0,054	-0,056
-563,802	800,000	0,030	-0,072
-562,788	-59,774	0,124	0,038
-561,773	-200,000	0,033	0,180
-560,758	800,000	-0,045	0,108
-559,744	-200,000	-0,030	0,109
-558,729	-200,000	-0,046	0,174
-557,715	-62,898	-0,120	0,036
-556,700	-97,804	-0,125	-0,023
-555,685	117,649	-0,029	0,026
-554,671	183,503	0,018	-0,019
-553,656	45,801	0,143	0,096
-552,642	-200,000	0,032	0,123
-551,627	-200,000	-0,011	0,073
-550,612	-200,000	-0,008	-0,061
-549,598	-13,240	0,019	-0,009
-548,583	-67,955	-0,148	0,042
-547,569	-200,000	-0,012	0,101
-546,554	800,000	-0,013	-0,034
-545,539	-174,698	-0,132	-0,003
-544,525	-200,000	0,027	0,123
-543,510	22,770	-0,119	0,070
-542,496	800,000	-0,058	-0,157
-541,481	68,882	0,028	0,020
-540,466	508,881	-0,043	0,072
-539,452	-18,495	-0,145	-0,065
-538,437	64,014	-0,004	-0,003
-537,423	-164,551	0,035	-0,001
-536,408	53,678	-0,081	0,056
-535,393	-169,766	-0,032	0,001
-534,379	636,462	0,051	0,094
-533,364	257,539	0,080	-0,100
-532,350	-5,848	0,109	-0,054
-531,335	-26,852	0,044	0,018
-530,321	-200,000	0,037	0,155
-529,306	710,972	-0,036	0,069
-528,291	143,271	0,007	-0,006
-527,277	307,464	-0,144	-0,195
-526,262	158,599	-0,074	-0,074
-525,248	32,621	0,158	-0,099
-524,233	-200,000	-0,001	0,068
-523,218	500,208	0,012	-0,020
-522,204	-91,405	-0,127	-0,026
-521,189	-58,394	-0,117	-0,036
-520,175	-200,000	0,023	-0,122
-519,160	-134,046	0,139	0,012
-518,145	800,000	0,029	0,058
-517,131	83,598	0,085	-0,067
-516,116	800,000	0,027	-0,058
-515,102	800,000	0,039	0,083
-514,087	-200,000	0,004	0,040
-513,072	800,000	-0,077	-0,173
-512,058	-34,498	0,140	0,055
-511,043	800,000	-0,037	-0,087
-510,029	-192,370	0,100	0,001
-509,014	800,000	0,039	0,098
-507,999	66,296	0,026	0,019
-506,985	394,572	0,086	-0,130
-505,970	800,000	-0,040	-0,105
-504,956	-200,000	0,007	-0,110
-503,941	2,601	-0,022	-0,012
-502,926	-200,000	0,009	0,113
-501,912	-87,149	0,136	0,030
-500,897	-92,933	-0,128	0,026
-499,883	117,403	-0,066	-0,058
-498,868	-200,000	-0,038	-0,135
-497,853	800,000	-0,032	-0,091
-496,839	-105,986	-0,075	-0,012
-495,824	64,185	-0,086	-0,063
-494,810	506,242	-0,028	0,046
-493,795	197,602	-0,050	0,055
-492,781	-22,973	0,103	0,044
-491,766	21,751	-0,082	-0,048
-490,751	-35,475	-0,169	-0,066
-489,737	3,613	0,190	0,100
-488,722	800,000	-0,046	-0,120
-487,708	26,405	0,087	0,052
-486,693	800,000	0,032	0,082
-485,678	195,382	-0,130	-0,143
-484,664	-200,000	0,008	-0,110
-483,649	-200,000	0,011	-0,113
-482,635	-4,364	-0,211	-0,105
-481,620	-144,680	0,127	-0,008
-480,605	666,449	0,075	0,141
-479,591	-32,807	-0,065	0,026
-478,576	-86,349	-0,117	-0,026
-477,562	93,758	0,048	0,039
-476,547	129,324	-0,046	0,042
-475,532	403,168	0,026	-0,040
-474,518	510,119	0,052	0,088
-473,503	466,898	-0,031	-0,050
-472,489	-200,000	0,002	0,166
-471,474	-2,592	0,041	-0,021
-470,459	-58,930	-0,086	-0,027
-469,445	-200,000	-0,001	0,009
-468,430	112,139	-0,159	-0,138
-467,416	248,949	0,113	0,138
-466,401	15,386	0,123	0,070
-465,386	66,396	-0,128	0,094
-464,372	781,861	-0,032	0,063
-463,357	40,683	0,091	-0,059
-462,343	-200,000	-0,008	0,030
-461,328	215,765	0,084	0,096
-460,313	-102,426	-0,074	-0,013
-459,299	416,419	0,087	0,134
-458,284	253,313	-0,039	0,048
-457,270	-111,036	0,187	0,027
-456,255	-82,960	-0,114	-0,026
-455,241	499,008	0,019	-0,032
-454,226	508,214	-0,077	0,129
-453,211	103,090	0,093	0,079
-452,197	50,938	0,064	-0,044
-451,182	428,204	-0,022	0,034
-450,168	-6,525	0,054	-0,026
-449,153	-112,746	0,072	0,010
-448,138	-138,409	-0,195	0,015
-447,124	437,181	0,051	0,080
-446,109	-86,140	0,133	-0,029
-445,095	800,000	-0,041	0,097
-444,080	-145,527	0,203	0,013
-443,065	-76,553	-0,066	-0,017
-442,051	-134,397	0,116	-0,010
-441,036	-200,000	-0,005	-0,117
-440,022	-65,235	0,136	-0,039
-439,007	800,000	-0,022	-0,048
-437,992	46,789	0,126	0,084
-436,978	-200,000	-0,019	-0,073
-435,963	683,572	0,081	0,153
-434,949	105,383	0,092	0,078
-433,934	300,324	-0,050	0,066
-432,919	-200,000	0,002	-0,009
-431,905	80,173	0,096	-0,074
-430,890	-149,019	0,076	0,004
-429,876	-200,000	0,002	0,009
-428,861	-200,000	0,013	-0,051
-427,846	194,409	0,037	-0,041
-426,832	214,178	-0,063	0,072
-425,817	474,253	0,054	-0,089
-424,803	333,479	-0,024	-0,033
-423,788	660,928	0,067	0,125
-422,773	260,607	0,101	0,126
-421,759	800,000	-0,056	0,119
-420,744	800,000	0,019	0,051
-419,730	34,240	-0,053	-0,033
-418,715	-200,000	-0,005	-0,084
-417,701	800,000	-0,049	-0,133
-416,686	110,655	0,115	0,100
-415,671	-200,000	0,014	0,048
-414,657	280,006	0,078	-0,101
-413,642	-37,606	-0,067	0,026
-412,628	-95,705	0,062	0,012
-411,613	289,424	0,076	-0,099
-410,598	-38,017	-0,114	-0,043
-409,584	175,617	-0,024	0,025
-408,569	-200,000	0,008	-0,035
-407,555	-11,342	-0,176	-0,083
-406,540	-11,161	0,111	0,052
-405,525	30,125	-0,083	-0,051
-404,511	-148,705	0,077	0,004
-403,496	-200,000	-0,011	0,053
-402,482	-102,115	0,070	-0,012
-401,467	295,366	0,066	0,087
-400,452	800,000	-0,033	0,093
-399,438	-104,856	-0,134	-0,022
-398,423	-59,564	0,138	-0,042
-397,409	-200,000	0,013	-0,056
-396,394	800,000	-0,073	-0,152
-395,379	23,273	-0,097	0,057
-394,365	-200,000	0,013	0,097
-393,350	358,591	-0,032	-0,046
-392,336	-200,000	0,052	0,171
-391,321	-98,457	0,125	0,023
-390,306	-200,000	0,003	0,030
-389,292	-200,000	0,024	-0,086
-388,277	800,000	0,006	-0,015
-387,263	-69,680	0,172	0,047
-386,248	-79,760	0,193	-0,046
-385,233	184,734	-0,098	0,104
-384,219	-51,383	-0,111	-0,037
-383,204	800,000	-0,039	-0,099
-382,190	111,870	-0,056	-0,048
-381,175	-86,652	0,090	0,020
-380,160	79,624	-0,006	0,005
-379,146	800,000	0,061	0,123
-378,131	385,867	-0,075	-0,112
-377,117	800,000	-0,030	-0,064
-376,102	188,871	-0,087	-0,094
-375,088	-200,000	0,004	-0,030
-374,073	358,261	0,048	0,069
-373,058	43,190	0,049	0,032
-372,044	73,143	-0,092	-0,069
-371,029	-72,436	0,112	-0,030
-370,015	467,980	0,024	-0,039
-369,000	-200,000	0,031	-0,148
-367,985	-200,000	0,001	-0,007
-366,971	-127,964	0,143	0,015
-365,956	518,722	0,035	-0,059
-364,942	437,284	0,020	0,032
-363,927	101,141	0,066	-0,055
-362,912	10,420	0,098	0,054
-361,898	-155,797	0,108	-0,005
-360,883	302,675	0,018	-0,023
-359,869	-200,000	-0,012	0,073
-358,854	53,999	-0,078	0,054
-357,839	-52,716	0,152	-0,050
-356,825	60,956	0,044	0,031
-355,810	440,791	-0,044	0,069
-354,796	-200,000	-0,007	-0,052
-353,781	800,000	-0,004	0,010
-352,766	-16,147	0,035	0,016
-351,752	194,520	-0,105	-0,115
-350,737	-200,000	0,003	0,059
-349,723	-200,000	-0,003	-0,065
-348,708	382,663	0,017	0,025
-347,693	539,383	-0,083	-0,143
-346,679	-110,836	0,021	-0,003
-345,664	-65,808	-0,109	-0,031
-344,650	-200,000	-0,000	-0,001
-343,635	800,000	-0,021	0,052
-342,620	-147,973	0,074	-0,004
-341,606	-200,000	-0,003	0,029
-340,591	800,000	-0,068	-0,142
-339,577	123,943	-0,112	-0,101
-338,562	-56,887	0,166	-0,052
-337,548	258,971	-0,046	0,056
-336,533	-200,000	-0,014	0,086
-335,518	-14,367	-0,035	-0,016
-334,504	179,350	-0,139	0,146
-333,489	-155,398	0,125	-0,006
-332,475	-151,719	0,016	0,001
-331,460	-77,351	-0,077	-0,019
-330,445	731,700	-0,044	0,085
-329,431	-200,000	-0,008	0,080
-328,416	20,592	0,141	0,081
-327,402	-58,629	-0,105	0,032
-326,387	90,003	-0,050	-0,040
-325,372	-200,000	-0,027	0,090
-324,358	-200,000	-0,009	-0,038
-323,343	482,151	-0,076	0,124
-322,329	800,000	-0,056	0,144
-321,314	-173,587	0,056	-0,001
-320,299	18,346	0,059	-0,034
-319,285	-129,921	-0,098	0,010
-318,270	47,339	0,061	-0,041
-317,256	-166,361	-0,059	0,002
-316,241	-31,962	0,033	-0,013
-315,226	800,000	0,052	0,110
-314,212	75,645	-0,069	0,052
-313,197	800,000	-0,026	-0,063
-312,183	555,917	0,039	0,068
-311,168	-200,000	-0,010	-0,105
-310,153	-9,813	-0,067	0,032
-309,139	261,504	-0,121	-0,150
-308,124	-69,745	0,126	-0,034
-307,110	-200,000	0,018	0,114
-306,095	302,512	0,042	-0,056
-305,080	-200,000	0,010	0,062
-304,066	-125,304	-0,111	-0,012
-303,051	-13,179	0,078	0,036
-302,037	-87,200	-0,045	0,010
-301,022	800,000	0,042	-0,101
-300,008	-87,493	0,031	-0,007
-298,993	-200,000	0,004	0,037
-297,978	-118,057	-0,059	-0,007
-296,964	42,223	0,030	0,020
-295,949	227,750	-0,051	-0,059
-294,935	800,000	-0,070	-0,189
-293,920	454,951	0,041	-0,065
-292,905	-8,530	0,043	-0,021
-291,891	-200,000	0,029	0,129
-290,876	800,000	0,065	0,135
-289,862	307,471	0,139	0,186
-288,847	78,756	-0,104	-0,080
-287,832	44,456	-0,109	0,071
-286,818	-187,541	0,083	0,001
-285,803	567,126	0,043	0,075
-284,789	69,383	0,076	0,056
-283,774	800,000	-0,035	0,086
-282,759	-69,287	0,083	-0,023
-281,745	88,880	-0,133	-0,106
-280,730	-98,947	-0,110	0,020
-279,716	800,000	-0,025	-0,074
-278,701	184,194	-0,060	-0,064
-277,686	-200,000	-0,011	-0,052
-276,672	414,207	0,046	-0,071
-275,657	21,100	0,041	0,023
-274,643	800,000	0,031	0,080
-273,628	15,490	-0,065	-0,037
-272,613	332,987	-0,051	-0,070
-271,599	81,334	-0,069	0,054
-270,584	-90,598	0,105	0,021
-269,570	-45,161	0,055	0,019
-268,555	-126,353	-0,046	0,005
-267,540	800,000	0,036	-0,076
-266,526	-140,395	-0,180	-0,013
-265,511	-200,000	0,008	-0,061
-264,497	800,000	-0,029	-0,063
-263,482	195,188	0,051	-0,056
-262,467	-200,000	-0,019	0,167
-261,453	-99,318	-0,050	-0,009
-260,438	121,511	-0,056	0,050
-259,424	-200,000	0,009	-0,066
-258,409	-200,000	-0,010	-0,048
-257,395	800,000	0,046	-0,099
-256,380	181,174	-0,136	0,143
-255,365	-68,377	0,103	-0,029
-254,351	-165,709	-0,075	0,002
-253,336	-200,000	-0,020	0,075
-252,322	144,962	0,124	-0,119
-251,307	-200,000	-0,016	-0,187
-250,292	-42,634	0,040	0,014
-249,278	-30,653	-0,007	-0,003
-248,263	-27,408	0,055	-0,023
-247,249	800,000	0,008	-0,022
-246,234	-200,000	-0,023	-0,076
-245,219	-156,464	-0,041	-0,002
-244,205	79,194	-0,130	-0,099
-243,190	-74,648	-0,089	0,023
-242,176	-69,767	-0,081	-0,022
-241,161	20,618	0,161	-0,093
-240,146	-95,803	0,167	-0,032
-239,132	-20,654	-0,060	-0,026
-238,117	-200,000	0,007	-0,034
-237,103	659,354	0,056	0,104
-236,088	800,000	-0,023	0,055
-235,073	343,547	0,049	0,069
-234,059	-130,637	0,116	-0,011
-233,044	800,000	-0,017	-0,039
-232,030	243,171	0,032	-0,038
-231,015	-200,000	0,008	-0,055
-230,000	622,994	-0,023	-0,042
-228,986	-200,000	0,027	-0,184
-227,971	-111,815	0,053	0,008
-226,957	-200,000	-0,017	0,136
-225,942	-80,547	-0,087	-0,021
-224,927	432,006	0,045	0,069
-223,913	377,985	-0,046	-0,068
-222,898	27,880	0,027	-0,016
-221,884	-174,303	0,021	-0,000
-220,869	800,000	-0,026	0,056
-219,855	-200,000	-0,030	-0,132
-218,840	223,241	0,088	-0,102
-217,825	66,504	0,063	-0,045
-216,811	-37,618	-0,042	-0,016
-215,796	76,886	0,070	-0,053
-214,782	55,415	-0,030	0,020
-213,767	800,000	-0,014	-0,040
-212,752	-112,549	0,065	-0,009
-211,738	-151,928	0,113	-0,006
-210,723	264,231	-0,154	0,191
-209,709	479,417	-0,007	0,012
-208,694	-60,167	-0,091	0,028
-207,679	177,389	0,089	0,093
-206,665	800,000	0,019	0,049
-205,650	176,691	0,038	0,040
-204,636	-129,353	0,047	-0,005
-203,621	470,288	-0,015	0,023
-202,606	169,846	-0,080	0,082
-201,592	-27,688	-0,009	-0,004
-200,577	-200,000	-0,002	-0,051
-199,563	63,010	0,145	0,103
-198,548	-145,995	0,086	-0,005
-197,533	732,838	0,094	0,179
-196,519	717,627	0,032	0,061
-195,504	-200,000	0,023	0,111
-194,490	-200,000	-0,064	-0,237
-193,475	-118,887	-0,050	0,006
-192,460	54,781	0,036	0,025
-191,446	-200,000	0,013	0,055
-190,431	800,000	-0,053	0,107
-189,417	267,878	0,043	-0,053
-188,402	-96,227	0,056	-0,010
-187,387	-182,804	-0,120	-0,002
-186,373	-200,000	-0,004	0,030
-185,358	800,000	-0,031	-0,088
-184,344	142,313	0,041	0,039
-183,329	760,613	-0,052	0,102
-182,315	-13,571	-0,020	-0,009
-181,300	-77,260	-0,031	-0,008
-180,285	218,220	-0,054	-0,061
-179,271	-41,617	-0,134	-0,049
-178,256	-200,000	0,012	-0,085
-177,242	165,569	0,089	-0,090
-176,227	498,321	0,059	0,097
-175,212	49,987	-0,012	0,008
-174,198	-39,971	0,214	0,079
-173,183	-65,841	-0,054	-0,015
-172,169	25,337	0,067	-0,039
-171,154	-62,190	0,091	0,027
-170,139	211,931	-0,057	0,064
-169,125	220,060	-0,072	-0,082
-168,110	800,000	0,073	0,153
-167,096	151,840	0,041	-0,039
-166,081	-200,000	0,038	-0,157
-165,066	287,756	-0,019	0,025
-164,052	579,094	0,051	-0,089
-163,037	-10,588	-0,115	0,054
-162,023	0,661	0,153	0,078
-161,008	-200,000	0,017	-0,105
-159,993	212,730	-0,046	0,052
-158,979	-200,000	0,010	0,113
-157,964	69,311	-0,069	-0,051
-156,950	14,754	-0,024	-0,013
-155,935	800,000	0,018	-0,047
-154,920	-74,362	0,057	-0,015
-153,906	636,679	-0,025	-0,046
-152,891	800,000	-0,038	0,096
-151,877	-200,000	-0,008	-0,028
-150,862	-200,000	0,016	-0,069
-149,847	-77,774	0,063	0,016
-148,833	81,294	-0,027	-0,021
-147,818	-200,000	-0,020	0,108
-146,804	800,000	0,024	0,070
-145,789	800,000	0,054	0,148
-144,775	-17,991	-0,072	-0,032
-143,760	-200,000	-0,032	-0,121
-142,745	-200,000	0,024	-0,092
-141,731	-73,001	0,131	0,034
-140,716	800,000	0,028	-0,086
-139,702	88,226	-0,056	0,044
-138,687	385,030	-0,043	-0,063
-137,672	58,828	0,023	0,016
-136,658	145,530	0,095	0,090
-135,643	-87,513	-0,133	-0,028
-134,629	800,000	0,061	0,140
-133,614	159,691	-0,044	-0,043
-132,599	63,555	0,102	0,072
-131,585	800,000	-0,050	-0,111
-130,570	-58,918	-0,089	-0,027
-129,556	-80,854	-0,078	-0,018
-128,541	-7,704	-0,130	0,062
-127,526	800,000	-0,035	-0,104
-126,512	-132,485	0,080	-0,007
-125,497	-31,641	0,107	0,042
-124,483	26,981	0,040	-0,024
-123,468	248,149	-0,037	-0,045
-122,453	677,705	-0,049	0,090
-121,439	-163,504	-0,165	0,005
-120,424	103,029	0,047	0,039
-119,410	416,492	-0,053	0,081
