DTS Sentinel unit serial number:	SN410029Multiplexer serial number:	ORYXHardware model number:	OX2-SRSoftware version number:	ORYX F/W v4,00 Oryx Data Collector v3.7.2.0data status	okinstallation	BH3 CH2differential loss correction	single-endedforward channel	channel 2reverse channel	N/Adate	2023/12/05time	11:57:28forward acquisition time	300,00reverse acquisition time	0,00gamma	499,1914k internal	0,3195k external	0,3195temperature offset calibration	1,0000default loss term (dB/km)	0,3820temperature slope calibration	1,0000multiplexer offset coefficient	1,0000multiplexer slope coefficient	1,0000fibre end	0,00T internal ref (°C)	9,69T ext. ref 1 (°C)	-4,94T ext. ref 2 (°C)	-4,99length (m)	temperature (°C)	Stokes	anti-Stokes-744,400	-9,092	-0,078	0,038
-743,385	800,000	-0,057	0,147
-742,371	517,791	-0,084	-0,144
-741,356	800,000	-0,083	0,196
-740,342	154,531	-0,171	-0,171
-739,327	-0,600	-0,266	0,137
-738,312	53,313	-0,091	-0,064
-737,298	76,012	-0,252	0,194
-736,283	-12,628	-0,110	-0,052
-735,269	24,867	-0,159	0,096
-734,254	-180,668	-0,239	0,003
-733,239	-92,532	-0,421	-0,085
-732,225	492,464	0,079	-0,132
-731,210	-31,495	0,119	0,049
-730,196	-196,544	-0,051	0,000
-729,181	125,223	-0,017	-0,016
-728,167	-77,097	0,069	0,017
-727,152	517,365	0,018	-0,031
-726,137	-150,258	-0,068	-0,004
-725,123	33,612	0,032	-0,020
-724,108	-153,732	-0,150	0,007
-723,094	-200,000	-0,032	-0,150
-722,079	800,000	-0,040	-0,081
-721,064	800,000	-0,020	-0,055
-720,050	395,377	-0,064	0,097
-719,035	-166,609	-0,049	-0,001
-718,021	4,263	-0,052	-0,028
-717,006	49,303	-0,112	-0,077
-715,991	348,399	-0,019	-0,028
-714,977	-200,000	-0,005	-0,041
-713,962	-139,724	-0,070	0,005
-712,948	-91,379	-0,046	0,010
-711,933	-200,000	0,003	0,164
-710,918	73,033	0,059	0,045
-709,904	351,973	-0,049	-0,071
-708,889	20,649	-0,034	0,020
-707,875	465,794	0,042	-0,069
-706,860	-12,814	-0,028	0,013
-705,845	326,633	0,014	-0,019
-704,831	46,289	0,061	0,041
-703,816	-200,000	-0,001	-0,034
-702,802	-29,576	0,072	-0,030
-701,787	150,510	0,053	0,053
-700,772	800,000	0,024	0,071
-699,758	800,000	-0,006	0,016
-698,743	269,406	-0,032	0,041
-697,729	116,605	0,041	0,036
-696,714	-133,469	-0,081	-0,007
-695,699	-200,000	-0,026	0,102
-694,685	267,551	0,080	-0,102
-693,670	-200,000	-0,010	-0,040
-692,656	-200,000	0,011	0,063
-691,641	68,785	0,060	-0,045
-690,627	-200,000	0,009	0,094
-689,612	122,233	-0,147	0,133
-688,597	-110,666	0,153	-0,023
-687,583	-200,000	-0,029	-0,177
-686,568	-200,000	0,013	-0,092
-685,554	312,012	-0,025	-0,034
-684,539	-200,000	-0,001	0,057
-683,524	-72,177	0,110	0,029
-682,510	146,990	0,068	0,066
-681,495	-200,000	-0,014	0,058
-680,481	-200,000	0,016	0,137
-679,466	-174,925	-0,085	-0,002
-678,451	71,345	0,005	-0,004
-677,437	42,625	-0,087	0,058
-676,422	-200,000	-0,006	0,069
-675,408	800,000	-0,016	-0,049
-674,393	19,602	0,078	-0,045
-673,378	-200,000	-0,099	0,000
-672,364	-108,209	-0,041	-0,006
-671,349	29,079	-0,125	-0,077
-670,335	776,158	0,037	-0,074
-669,320	562,976	0,064	-0,112
-668,305	800,000	0,044	-0,093
-667,291	97,834	0,050	-0,042
-666,276	184,214	-0,091	-0,098
-665,262	254,644	0,069	-0,086
-664,247	417,920	-0,056	-0,087
-663,232	545,177	0,009	0,015
-662,218	-52,495	0,098	0,033
-661,203	800,000	-0,030	-0,072
-660,189	180,741	-0,073	0,078
-659,174	171,819	-0,070	-0,073
-658,159	-83,708	-0,043	-0,010
-657,145	724,591	-0,024	-0,046
-656,130	14,399	0,065	-0,037
-655,116	-38,409	-0,100	0,038
-654,101	-18,831	0,049	0,022
-653,086	-200,000	-0,015	-0,078
-652,072	59,297	-0,085	0,060
-651,057	461,715	-0,004	-0,007
-650,043	-200,000	0,030	-0,234
-649,028	303,875	-0,033	0,044
-648,014	672,575	0,077	0,146
-646,999	800,000	0,023	-0,059
-645,984	285,194	-0,073	0,095
-644,970	240,281	-0,054	0,065
-643,955	-34,041	-0,142	-0,056
-642,941	-200,000	0,016	-0,122
-641,926	122,505	-0,039	0,035
-640,911	201,520	0,041	0,046
-639,897	-200,000	-0,039	0,133
-638,882	-200,000	0,025	0,133
-637,868	-107,244	0,029	-0,005
-636,853	349,465	-0,100	-0,143
-635,838	800,000	0,015	0,042
-634,824	800,000	-0,021	-0,045
-633,809	-200,000	0,015	0,066
-632,795	-200,000	-0,008	-0,044
-631,780	330,251	0,035	-0,049
-630,765	-74,907	0,093	-0,024
-629,751	-84,729	-0,050	-0,011
-628,736	710,376	-0,025	0,049
-627,722	373,905	-0,035	0,052
-626,707	-76,976	0,198	0,050
-625,692	394,243	0,020	-0,030
-624,678	641,979	-0,035	0,065
-623,663	191,218	-0,094	0,103
-622,649	-200,000	0,005	-0,116
-621,634	202,263	-0,084	-0,094
-620,619	-200,000	-0,009	-0,029
-619,605	283,258	0,053	-0,069
-618,590	-48,408	0,133	-0,046
-617,576	800,000	-0,031	-0,068
-616,561	-200,000	0,005	-0,138
-615,546	800,000	-0,018	0,046
-614,532	800,000	0,015	-0,037
-613,517	356,208	0,062	-0,090
-612,503	-200,000	-0,022	-0,134
-611,488	-122,667	0,039	0,004
-610,474	16,395	-0,056	0,032
-609,459	-54,419	-0,119	-0,039
-608,444	-200,000	-0,009	-0,039
-607,430	-9,850	-0,062	0,030
-606,415	800,000	-0,020	-0,042
-605,401	800,000	0,031	0,062
-604,386	800,000	0,021	0,054
-603,371	478,755	-0,039	0,065
-602,357	-93,860	-0,008	0,002
-601,342	135,175	-0,067	-0,064
-600,328	-93,771	0,027	0,005
-599,313	800,000	0,010	0,030
-598,298	117,994	-0,132	0,118
-597,284	10,243	0,115	0,063
-596,269	632,434	-0,057	0,105
-595,255	-151,109	0,152	-0,008
-594,240	84,345	-0,126	-0,100
-593,225	-200,000	0,003	0,032
-592,211	-72,823	-0,059	0,016
-591,196	800,000	-0,033	0,082
-590,182	155,218	-0,031	0,031
-589,167	-139,659	0,079	-0,006
-588,152	165,602	-0,066	0,068
-587,138	255,171	-0,032	-0,040
-586,123	-170,793	0,081	0,002
-585,109	138,185	0,077	-0,074
-584,094	-101,420	-0,048	-0,008
-583,079	110,431	-0,070	-0,061
-582,065	138,382	0,092	-0,087
-581,050	157,186	-0,050	0,050
-580,036	174,319	-0,066	0,069
-579,021	247,121	-0,005	-0,006
-578,006	71,439	0,125	0,094
-576,992	-93,286	0,112	-0,022
-575,977	150,902	0,026	0,026
-574,963	800,000	0,013	-0,030
-573,948	-43,030	0,017	-0,006
-572,934	800,000	-0,026	-0,075
-571,919	40,063	-0,125	-0,081
-570,904	-200,000	0,029	-0,113
-569,890	800,000	0,030	0,088
-568,875	28,720	0,144	0,088
-567,861	100,096	-0,088	-0,074
-566,846	-30,523	0,117	-0,048
-565,831	-80,874	-0,105	-0,025
-564,817	95,472	-0,167	0,138
-563,802	-200,000	0,006	-0,083
-562,788	320,262	0,044	-0,061
-561,773	82,200	0,015	0,012
-560,758	71,702	0,111	0,083
-559,744	-77,637	0,093	0,023
-558,729	30,094	-0,040	-0,025
-557,715	-8,481	-0,033	0,016
-556,700	23,238	-0,132	0,078
-555,685	800,000	-0,023	0,053
-554,671	-88,461	-0,024	-0,005
-553,656	572,370	0,022	0,039
-552,642	-102,268	-0,111	-0,019
-551,627	-89,914	0,114	-0,024
-550,612	800,000	-0,083	-0,191
-549,598	106,285	-0,059	-0,051
-548,583	121,070	-0,109	-0,098
-547,569	542,413	0,116	-0,201
-546,554	-93,431	0,108	0,021
-545,539	-87,536	0,103	0,022
-544,525	-200,000	0,012	0,051
-543,510	-200,000	-0,005	-0,122
-542,496	-51,495	-0,078	0,026
-541,481	514,523	-0,117	-0,198
-540,466	-200,000	-0,003	-0,012
-539,452	-52,258	-0,043	0,014
-538,437	-200,000	-0,022	0,174
-537,423	-200,000	0,004	-0,100
-536,408	132,797	-0,045	-0,042
-535,393	-169,110	-0,171	-0,005
-534,379	228,044	0,067	-0,079
-533,364	27,584	-0,044	-0,027
-532,350	-105,302	0,122	-0,020
-531,335	-58,791	0,128	0,040
-530,321	-157,269	0,037	0,002
-529,306	102,164	-0,058	0,049
-528,291	22,556	-0,087	-0,052
-527,277	195,192	-0,121	0,133
-526,262	331,064	0,053	-0,073
-525,248	-200,000	0,001	0,062
-524,233	40,158	0,111	0,072
-523,218	800,000	-0,029	-0,060
-522,204	800,000	0,022	0,046
-521,189	425,669	0,055	-0,085
-520,175	521,736	-0,009	-0,016
-519,160	-97,788	-0,095	0,018
-518,145	419,852	-0,014	0,022
-517,131	-200,000	-0,004	-0,067
-516,116	-31,584	-0,119	0,048
-515,102	-56,221	-0,122	-0,039
-514,087	133,765	0,091	-0,085
-513,072	206,272	-0,080	-0,090
-512,058	616,704	-0,085	-0,155
-511,043	51,961	-0,066	-0,045
-510,029	-108,911	0,066	-0,010
-509,014	-200,000	0,031	0,122
-507,999	-200,000	-0,032	0,115
-506,985	440,143	0,055	-0,087
-505,970	-68,410	-0,111	-0,031
-504,956	-200,000	0,007	-0,078
-503,941	-200,000	0,030	0,112
-502,926	-26,168	-0,116	0,049
-501,912	542,971	0,034	0,059
-500,897	781,320	-0,091	0,181
-499,883	385,723	0,025	0,037
-498,868	82,001	0,099	-0,078
-497,853	-200,000	0,002	-0,145
-496,839	-200,000	-0,021	-0,074
-495,824	-67,070	-0,041	-0,012
-494,810	203,993	-0,036	0,040
-493,795	59,942	0,035	0,025
-492,781	5,933	0,069	0,037
-491,766	-53,465	-0,096	-0,031
-490,751	-183,192	0,168	0,002
-489,737	-164,208	-0,128	0,004
-488,722	-200,000	0,007	0,037
-487,708	645,239	0,057	0,105
-486,693	800,000	0,061	0,128
-485,678	-109,839	-0,207	0,031
-484,664	800,000	0,017	-0,041
-483,649	-200,000	-0,005	-0,074
-482,635	185,521	0,033	-0,035
-481,620	347,992	0,033	0,046
-480,605	-57,029	-0,106	-0,034
-479,591	-39,837	0,089	-0,033
-478,576	-66,025	-0,089	-0,026
-477,562	127,541	0,060	0,055
-476,547	800,000	-0,087	-0,175
-475,532	-91,373	0,024	-0,005
-474,518	-200,000	0,032	0,102
-473,503	-200,000	-0,020	-0,065
-472,489	800,000	0,090	0,219
-471,474	142,319	-0,021	-0,020
-470,459	304,768	-0,019	0,026
-469,445	-18,432	-0,017	0,008
-468,430	-200,000	0,007	-0,171
-467,416	-109,845	0,078	0,012
-466,401	-200,000	0,001	0,056
-465,386	800,000	0,036	-0,112
-464,372	5,779	0,066	0,035
-463,357	-43,782	-0,096	0,035
-462,343	144,069	-0,054	-0,052
-461,328	-97,136	-0,111	0,021
-460,313	-200,000	0,009	0,059
-459,299	-97,344	-0,089	-0,016
-458,284	379,445	0,025	0,038
-457,270	-65,453	-0,064	-0,018
-456,255	-36,665	-0,090	-0,035
-455,241	-87,769	-0,077	0,016
-454,226	138,574	0,063	0,060
-453,211	6,783	-0,043	0,023
-452,197	-88,560	0,117	0,025
-451,182	8,560	0,131	0,071
-450,168	-74,790	0,028	0,007
-449,153	800,000	-0,084	-0,209
-448,138	290,858	-0,099	-0,130
-447,124	800,000	-0,022	0,056
-446,109	-145,863	-0,085	-0,005
-445,095	-99,137	0,070	0,013
-444,080	141,424	-0,102	0,097
-443,065	-149,521	0,094	0,005
-442,051	800,000	0,018	0,052
-441,036	59,709	0,178	-0,126
-440,022	800,000	-0,063	-0,175
-439,007	-65,578	0,053	-0,015
-437,992	-200,000	0,010	-0,054
-436,978	340,645	-0,039	-0,055
-435,963	234,394	0,081	-0,097
-434,949	800,000	-0,036	-0,082
-433,934	352,162	-0,100	0,143
-432,919	-200,000	-0,001	0,020
-431,905	-200,000	0,032	0,111
-430,890	-200,000	-0,014	0,172
-429,876	-61,804	0,042	-0,013
-428,861	88,662	-0,023	-0,018
-427,846	206,103	0,194	0,218
-426,832	617,134	0,030	0,054
-425,817	-88,622	-0,065	0,014
-424,803	97,843	-0,043	-0,036
-423,788	-200,000	0,009	0,074
-422,773	-200,000	-0,007	-0,048
-421,759	164,644	0,061	-0,062
-420,744	800,000	-0,032	0,075
-419,730	-200,000	-0,003	-0,019
-418,715	757,502	-0,020	-0,038
-417,701	185,206	0,124	0,133
-416,686	407,832	0,105	0,160
-415,671	702,605	0,024	0,046
-414,657	-155,370	0,096	0,004
-413,642	-57,749	-0,147	-0,046
-412,628	-33,933	-0,105	-0,042
-411,613	285,940	0,076	0,099
-410,598	429,048	0,035	0,055
-409,584	-200,000	-0,015	0,125
-408,569	12,153	0,041	0,023
-407,555	-200,000	-0,014	0,088
-406,540	-6,878	0,034	0,017
-405,525	-200,000	0,015	-0,076
-404,511	-83,991	0,043	-0,010
-403,496	-54,511	-0,048	-0,015
-402,482	428,063	0,075	-0,116
-401,467	16,696	-0,151	0,086
-400,452	-50,957	0,076	-0,026
-399,438	800,000	-0,039	-0,101
-398,423	-200,000	-0,012	-0,110
-397,409	77,243	0,032	-0,025
-396,394	-85,475	-0,078	-0,017
-395,379	800,000	0,056	-0,120
-394,365	25,161	-0,120	0,071
-393,350	-200,000	0,008	0,066
-392,336	-138,657	0,083	0,006
-391,321	-200,000	0,024	-0,250
-390,306	800,000	0,059	-0,185
-389,292	-117,995	-0,044	0,006
-388,277	-49,456	0,121	0,041
-387,263	-79,873	-0,079	0,019
-386,248	35,235	0,055	-0,035
-385,233	-35,001	-0,029	-0,011
-384,219	33,001	0,119	0,074
-383,204	-200,000	-0,027	-0,106
-382,190	17,292	0,086	-0,049
-381,175	64,642	0,075	0,054
-380,160	-200,000	-0,013	0,124
-379,146	-69,284	0,082	0,022
-378,131	166,303	-0,075	-0,077
-377,117	602,121	0,024	0,043
-376,102	-159,956	0,088	-0,003
-375,088	800,000	-0,044	-0,103
-374,073	566,091	0,008	0,014
-373,058	-200,000	0,011	0,045
-372,044	61,777	-0,032	-0,023
-371,029	204,312	0,026	0,029
-370,015	800,000	0,050	0,126
-369,000	-104,310	-0,064	-0,011
-367,985	-4,363	-0,165	-0,082
-366,971	403,841	-0,031	-0,047
-365,956	-136,325	-0,061	-0,005
-364,942	2,623	0,071	0,037
-363,927	800,000	0,022	-0,063
-362,912	171,460	-0,110	-0,113
-361,898	800,000	0,027	-0,063
-360,883	345,882	-0,075	-0,106
-359,869	332,494	-0,053	-0,074
-358,854	-117,984	0,083	-0,011
-357,839	-58,973	0,045	0,014
-356,825	-136,518	-0,029	0,002
-355,810	-24,870	0,112	-0,047
-354,796	647,137	-0,082	-0,151
-353,781	135,790	0,066	-0,062
-352,766	-183,084	-0,080	0,001
-351,752	30,256	0,025	-0,015
-350,737	-200,000	0,033	-0,119
-349,723	307,622	-0,027	-0,036
-348,708	-100,877	0,066	0,012
-347,693	-200,000	-0,009	0,036
-346,679	273,936	-0,069	-0,088
-345,664	-200,000	-0,000	-0,143
-344,650	-200,000	0,009	-0,064
-343,635	800,000	-0,032	0,072
-342,620	7,815	0,054	0,029
-341,606	10,350	0,023	-0,012
-340,591	300,839	-0,040	-0,053
-339,577	-36,821	-0,127	-0,049
-338,562	800,000	-0,033	0,102
-337,548	274,016	0,022	0,028
-336,533	215,367	-0,069	0,079
-335,518	91,625	0,067	-0,054
-334,504	-75,050	0,058	-0,015
-333,489	137,623	-0,059	-0,055
-332,475	-137,073	-0,039	0,003
-331,460	417,273	-0,039	-0,060
-330,445	-198,368	-0,020	0,000
-329,431	398,442	-0,010	-0,015
-328,416	36,907	-0,068	0,043
-327,402	-145,781	0,068	-0,004
-326,387	245,129	-0,079	0,095
-325,372	-27,083	-0,041	0,017
-324,358	69,404	-0,097	-0,072
-323,343	800,000	0,027	-0,069
-322,329	-54,342	0,070	-0,023
-321,314	-3,631	0,185	0,092
-320,299	112,454	-0,014	0,013
-319,285	800,000	-0,042	0,110
-318,270	135,098	-0,036	0,034
-317,256	344,267	-0,098	-0,138
-316,241	-9,267	-0,065	0,031
-315,226	-200,000	0,039	0,147
-314,212	-200,000	0,010	0,050
-313,197	800,000	0,077	0,158
-312,183	-27,041	0,042	0,018
-311,168	-122,829	-0,058	-0,007
-310,153	42,125	-0,043	-0,028
-309,139	577,797	-0,033	0,057
-308,124	-101,347	0,200	-0,035
-307,110	800,000	-0,016	-0,032
-306,095	800,000	-0,054	0,130
-305,080	69,204	-0,020	0,015
-304,066	800,000	0,037	0,081
-303,051	-182,814	-0,287	-0,004
-302,037	334,329	0,037	0,052
-301,022	-138,421	0,110	-0,009
-300,008	-187,414	0,066	-0,001
-298,993	-5,560	-0,050	-0,024
-297,978	19,347	0,052	-0,030
-296,964	-170,856	-0,057	0,001
-295,949	-42,383	-0,039	-0,014
-294,935	3,096	0,116	-0,060
-293,920	-200,000	0,019	-0,088
-292,905	800,000	-0,012	-0,024
-291,891	-24,149	0,112	0,048
-290,876	-191,883	0,070	-0,000
-289,862	10,894	0,128	0,070
-288,847	-200,000	-0,072	-0,242
-287,832	314,931	0,008	0,011
-286,818	800,000	-0,026	0,062
-285,803	800,000	0,032	0,091
-284,789	179,726	0,018	0,019
-283,774	800,000	-0,047	0,112
-282,759	-200,000	-0,005	-0,077
-281,745	-95,941	-0,042	0,008
-280,730	-52,885	-0,152	-0,050
-279,716	-200,000	-0,009	-0,075
-278,701	-29,216	-0,055	0,022
-277,686	272,131	0,079	0,100
-276,672	797,186	0,035	0,070
-275,657	-200,000	0,011	-0,103
-274,643	-200,000	-0,001	-0,062
-273,628	-200,000	0,011	-0,153
-272,613	163,206	0,022	0,022
-271,599	-200,000	-0,021	0,119
-270,584	-23,737	0,051	0,022
-269,570	263,583	-0,002	-0,003
-268,555	800,000	-0,071	0,173
-267,540	-98,514	0,062	-0,011
-266,526	119,077	-0,125	-0,111
-265,511	800,000	-0,058	-0,147
-264,497	-200,000	-0,003	-0,088
-263,482	-200,000	0,121	0,000
-262,467	320,518	0,105	0,142
-261,453	415,940	0,045	0,069
-260,438	745,759	-0,065	0,125
-259,424	-77,922	0,102	0,025
-258,409	-200,000	-0,002	-0,027
-257,395	266,125	-0,104	-0,130
-256,380	120,762	0,091	-0,081
-255,365	-69,170	0,026	0,007
-254,351	123,481	0,083	0,075
-253,336	800,000	0,034	-0,095
-252,322	-141,159	-0,094	0,007
-251,307	177,450	-0,048	-0,050
-250,292	-137,796	0,185	-0,015
-249,278	318,548	0,074	0,101
-248,263	219,599	0,062	0,072
-247,249	-200,000	-0,001	0,096
-246,234	440,392	-0,018	-0,029
-245,219	403,517	0,074	0,112
-244,205	138,600	-0,033	0,031
-243,190	-200,000	0,002	-0,186
-242,176	354,638	-0,043	-0,062
-241,161	-62,349	0,090	0,027
-240,146	-85,954	0,049	0,011
-239,132	57,970	0,034	0,024
-238,117	-130,504	0,040	0,004
-237,103	4,163	0,164	0,086
-236,088	-141,391	0,031	0,002
-235,073	800,000	-0,005	0,017
-234,059	384,346	0,087	0,128
-233,044	469,157	-0,033	0,053
-232,030	393,956	-0,105	0,157
-231,015	43,966	-0,087	0,057
-230,000	406,088	0,062	-0,094
-228,986	-200,000	0,005	-0,080
-227,971	-38,938	0,085	0,032
-226,957	-26,791	-0,126	-0,052
-225,942	-71,152	0,192	0,051
-224,927	249,767	0,038	0,046
-223,913	285,107	0,070	0,090
-222,898	-200,000	-0,005	-0,032
-221,884	-105,460	-0,030	-0,005
-220,869	25,584	0,074	-0,044
-219,855	2,734	0,097	0,050
-218,840	128,498	0,090	0,082
-217,825	-16,912	-0,067	-0,030
-216,811	-92,206	0,047	0,009
-215,796	92,758	-0,131	0,106
-214,782	217,054	0,018	0,021
-213,767	-200,000	-0,024	0,161
-212,752	325,087	0,062	0,084
-211,738	43,268	-0,153	-0,100
-210,723	38,906	0,066	0,042
-209,709	181,344	-0,148	0,155
-208,694	315,982	0,094	-0,127
-207,679	800,000	0,048	-0,116
-206,665	-195,945	-0,017	0,000
-205,650	414,246	0,070	-0,107
-204,636	-200,000	0,005	0,084
-203,621	-200,000	-0,002	-0,025
-202,606	471,044	0,040	0,064
-201,592	-69,324	-0,062	0,017
-200,577	12,216	0,087	0,048
-199,563	408,869	0,069	-0,105
-198,548	7,732	-0,069	0,037
-197,533	-96,806	0,096	0,018
-196,519	578,916	-0,056	-0,098
-195,504	111,744	-0,049	0,042
-194,490	-200,000	-0,026	-0,087
-193,475	-27,794	-0,124	-0,051
-192,460	-63,146	0,103	-0,030
-191,446	-157,277	-0,103	0,004
-190,431	-200,000	0,026	0,117
-189,417	-200,000	0,027	0,096
-188,402	80,541	-0,028	-0,021
-187,387	276,052	0,099	-0,125
-186,373	-141,528	-0,150	0,011
-185,358	-17,806	0,047	-0,021
-184,344	470,479	0,139	0,224
-183,329	-9,435	0,028	-0,013
-182,315	-9,909	-0,072	0,034
-181,300	800,000	-0,030	0,092
-180,285	-138,879	-0,048	0,004
-179,271	-200,000	0,026	-0,101
-178,256	-191,083	-0,117	-0,001
-177,242	339,038	0,100	0,139
-176,227	-200,000	0,035	0,155
-175,212	800,000	0,081	0,214
-174,198	12,681	0,027	-0,015
-173,183	277,176	0,045	0,058
-172,169	-131,194	-0,185	0,017
-171,154	-200,000	0,008	-0,065
-170,139	190,148	0,030	-0,032
-169,125	-148,327	-0,054	0,003
-168,110	19,305	0,056	0,032
-167,096	-103,594	-0,119	0,020
-166,081	518,977	-0,031	-0,052
-165,066	-200,000	-0,030	-0,124
-164,052	-200,000	-0,017	0,082
-163,037	222,569	-0,115	-0,132
-162,023	116,146	0,061	-0,053
-161,008	49,793	-0,086	0,058
-159,993	-200,000	0,030	-0,104
-158,979	-112,779	0,094	0,013
-157,964	-23,715	-0,023	0,010
-156,950	-200,000	0,008	-0,096
-155,935	298,574	-0,084	0,110
-154,920	-194,556	0,031	0,000
-153,906	16,186	0,086	-0,048
-152,891	-200,000	-0,002	0,064
-151,877	-8,940	-0,140	0,067
-150,862	-75,864	0,085	0,021
-149,847	-200,000	0,011	0,130
-148,833	-44,499	0,107	-0,038
-147,818	-106,269	0,035	-0,006
-146,804	106,050	-0,058	0,049
-145,789	77,327	-0,089	0,067
-144,775	-200,000	-0,020	-0,149
-143,760	40,215	0,021	0,013
-142,745	-28,916	0,113	-0,046
-141,731	-36,527	-0,113	-0,043
-140,716	67,548	0,046	0,033
-139,702	41,779	-0,078	0,050
-138,687	18,877	0,115	-0,065
-137,672	435,011	-0,033	0,052
-136,658	3,695	-0,037	-0,019
-135,643	270,759	-0,086	0,108
-134,629	130,838	-0,154	0,140
-133,614	-200,000	0,000	-0,055
-132,599	800,000	0,046	0,106
-131,585	-66,387	0,027	-0,008
-130,570	-95,171	-0,106	0,020
-129,556	-200,000	-0,010	0,088
-128,541	-4,565	-0,056	-0,027
-127,526	-200,000	-0,013	0,134
-126,512	397,448	-0,045	-0,067
-125,497	-79,422	0,088	-0,021
-124,483	-200,000	0,007	0,022
-123,468	800,000	0,049	0,148
-122,453	-98,071	-0,170	-0,031
-121,439	229,444	-0,079	-0,092
-120,424	166,097	0,029	-0,030
-119,410	-22,028	-0,032	-0,014
-118,395	789,823	0,064	0,126
