DTS Sentinel unit serial number:	SN410029Multiplexer serial number:	ORYXHardware model number:	OX2-SRSoftware version number:	ORYX F/W v4,00 Oryx Data Collector v3.7.2.0data status	okinstallation	BH3 CH2differential loss correction	single-endedforward channel	channel 2reverse channel	N/Adate	2023/12/05time	21:27:28forward acquisition time	300,00reverse acquisition time	0,00gamma	499,1914k internal	0,3193k external	0,3193temperature offset calibration	1,0000default loss term (dB/km)	0,3820temperature slope calibration	1,0000multiplexer offset coefficient	1,0000multiplexer slope coefficient	1,0000fibre end	0,00T internal ref (°C)	10,28T ext. ref 1 (°C)	-4,60T ext. ref 2 (°C)	-4,67length (m)	temperature (°C)	Stokes	anti-Stokes-744,400	22,375	-0,148	-0,088
-743,385	-200,000	-0,050	0,277
-742,371	300,969	-0,034	-0,046
-741,356	6,271	-0,225	0,121
-740,342	18,041	0,073	-0,042
-739,327	-118,089	-0,196	0,025
-738,312	201,397	-0,135	-0,152
-737,298	-58,568	-0,048	0,015
-736,283	800,000	0,041	0,098
-735,269	-113,458	-0,220	0,031
-734,254	187,147	0,018	-0,019
-733,239	-59,187	-0,416	-0,130
-732,225	-200,000	0,020	-0,203
-731,210	800,000	0,029	0,074
-730,196	800,000	-0,017	0,055
-729,181	-200,000	0,004	0,025
-728,167	800,000	-0,006	-0,020
-727,152	396,388	-0,095	-0,144
-726,137	-80,253	-0,085	0,020
-725,123	137,252	-0,108	-0,103
-724,108	-200,000	0,018	-0,204
-723,094	-148,564	-0,152	0,009
-722,079	288,059	-0,105	-0,139
-721,064	-1,592	0,077	-0,040
-720,050	62,403	-0,107	-0,078
-719,035	-7,348	0,118	-0,058
-718,021	-81,222	-0,160	-0,038
-717,006	564,790	-0,041	0,072
-715,991	202,477	-0,014	0,016
-714,977	-200,000	0,006	-0,057
-713,962	-148,774	-0,068	0,004
-712,948	241,667	0,126	-0,153
-711,933	-4,156	-0,087	0,044
-710,918	-100,027	-0,098	-0,018
-709,904	-200,000	0,015	-0,147
-708,889	-200,000	-0,015	-0,093
-707,875	800,000	0,006	-0,018
-706,860	-45,824	-0,084	-0,030
-705,845	800,000	0,007	0,022
-704,831	-200,000	-0,014	-0,208
-703,816	314,192	0,091	0,126
-702,802	65,269	-0,105	-0,077
-701,787	-200,000	-0,036	-0,128
-700,772	54,243	0,101	-0,070
-699,758	800,000	-0,026	-0,072
-698,743	135,569	0,070	0,067
-697,729	-200,000	-0,030	0,111
-696,714	270,336	-0,056	-0,072
-695,699	38,586	0,086	0,056
-694,685	453,245	-0,026	0,042
-693,670	649,586	-0,063	-0,118
-692,656	-136,002	0,137	0,012
-691,641	800,000	0,052	0,159
-690,627	-200,000	0,038	-0,139
-689,612	373,128	0,022	0,033
-688,597	-200,000	0,008	-0,124
-687,583	-80,016	-0,102	-0,025
-686,568	-91,057	-0,103	-0,021
-685,554	800,000	0,051	-0,127
-684,539	-200,000	-0,024	-0,120
-683,524	-200,000	0,012	-0,105
-682,510	-149,515	-0,118	-0,007
-681,495	800,000	0,049	-0,124
-680,481	-200,000	-0,013	-0,134
-679,466	202,817	0,051	0,058
-678,451	-68,512	0,050	-0,014
-677,437	-79,757	0,013	-0,003
-676,422	-200,000	0,022	0,092
-675,408	-113,529	0,078	0,011
-674,393	800,000	0,041	-0,124
-673,378	356,794	-0,111	-0,162
-672,364	-200,000	0,009	-0,078
-671,349	800,000	0,034	-0,083
-670,335	800,000	-0,006	-0,016
-669,320	326,266	0,039	-0,055
-668,305	105,428	0,109	-0,094
-667,291	-130,916	-0,051	-0,005
-666,276	800,000	-0,036	-0,111
-665,262	92,085	-0,067	-0,055
-664,247	216,507	-0,103	-0,119
-663,232	49,987	-0,111	-0,076
-662,218	-200,000	-0,008	0,069
-661,203	-200,000	0,013	0,172
-660,189	75,886	-0,051	-0,039
-659,174	-89,324	-0,195	0,041
-658,159	-200,000	0,022	-0,217
-657,145	95,718	-0,035	-0,029
-656,130	800,000	0,068	-0,180
-655,116	800,000	0,003	0,006
-654,101	81,379	0,085	0,067
-653,086	-32,235	0,028	-0,011
-652,072	28,347	-0,071	-0,043
-651,057	-200,000	0,014	-0,090
-650,043	-1,904	-0,135	-0,069
-649,028	-50,187	0,116	-0,040
-648,014	-200,000	-0,006	0,101
-646,999	-200,000	0,005	0,030
-645,984	-99,322	-0,061	0,011
-644,970	-200,000	-0,001	0,030
-643,955	252,721	-0,026	0,032
-642,941	-19,020	0,120	-0,054
-641,926	-200,000	0,008	0,107
-640,911	40,003	-0,167	0,109
-639,897	709,168	-0,070	0,136
-638,882	-68,524	-0,048	-0,013
-637,868	438,171	-0,037	0,058
-636,853	172,965	-0,061	-0,064
-635,838	-200,000	0,017	-0,083
-634,824	-135,412	0,175	-0,015
-633,809	800,000	-0,016	0,041
-632,795	293,628	0,110	0,147
-631,780	-87,245	0,066	0,015
-630,765	111,535	0,025	0,022
-629,751	-125,661	-0,083	0,009
-628,736	84,928	-0,195	-0,155
-627,722	-104,486	0,048	0,008
-626,707	164,588	0,095	-0,097
-625,692	423,034	-0,024	0,037
-624,678	-74,193	0,055	-0,014
-623,663	800,000	0,005	0,012
-622,649	158,571	-0,112	-0,113
-621,634	-200,000	-0,011	-0,089
-620,619	-12,753	-0,109	-0,051
-619,605	212,516	0,032	0,037
-618,590	-200,000	-0,006	-0,097
-617,576	-200,000	-0,002	0,107
-616,561	800,000	-0,038	-0,077
-615,546	800,000	0,043	-0,098
-614,532	128,387	-0,062	0,057
-613,517	207,659	0,044	-0,049
-612,503	180,422	0,079	0,084
-611,488	-16,314	0,124	-0,057
-610,474	800,000	-0,018	-0,038
-609,459	5,869	0,051	0,027
-608,444	-86,075	-0,135	-0,030
-607,430	-200,000	0,013	-0,090
-606,415	-41,175	0,016	0,006
-605,401	742,841	-0,041	0,079
-604,386	-200,000	0,025	-0,092
-603,371	-7,524	-0,061	0,030
-602,357	-147,759	0,026	-0,002
-601,342	800,000	-0,039	-0,103
-600,328	-149,822	-0,136	0,008
-599,313	-200,000	-0,055	-0,176
-598,298	-152,365	0,098	-0,005
-597,284	148,710	-0,064	-0,063
-596,269	-200,000	-0,000	0,126
-595,255	70,526	-0,151	-0,113
-594,240	31,762	-0,061	0,038
-593,225	800,000	0,013	0,032
-592,211	-48,114	-0,145	0,051
-591,196	249,217	0,030	0,037
-590,182	203,855	0,017	-0,019
-589,167	-107,454	0,095	0,015
-588,152	480,385	0,034	0,056
-587,138	127,291	0,128	-0,117
-586,123	-138,333	0,116	-0,009
-585,109	-200,000	0,000	-0,133
-584,094	601,874	-0,079	-0,143
-583,079	26,601	0,072	-0,043
-582,065	-200,000	0,026	0,101
-581,050	-200,000	0,025	0,163
-580,036	-200,000	-0,010	0,046
-579,021	-142,869	-0,097	0,007
-578,006	-200,000	0,010	-0,055
-576,992	-200,000	0,002	-0,060
-575,977	410,247	0,030	0,046
-574,963	-200,000	-0,002	0,221
-573,948	-200,000	-0,006	0,080
-572,934	-133,436	-0,071	-0,006
-571,919	-200,000	0,003	-0,091
-570,904	-12,076	0,139	0,066
-569,890	-71,487	0,072	0,019
-568,875	186,492	0,076	0,082
-567,861	165,484	0,104	-0,106
-566,846	-55,000	0,070	0,023
-565,831	-200,000	-0,030	0,101
-564,817	-92,236	-0,099	0,020
-563,802	-200,000	-0,004	-0,138
-562,788	800,000	-0,039	-0,110
-561,773	-91,699	-0,069	0,014
-560,758	-191,767	0,130	0,001
-559,744	-129,259	-0,090	-0,009
-558,729	322,901	-0,114	0,157
-557,715	-60,354	0,145	0,044
-556,700	142,900	-0,106	-0,102
-555,685	800,000	-0,023	-0,048
-554,671	616,737	-0,036	-0,065
-553,656	-60,975	0,028	-0,008
-552,642	-70,925	-0,100	-0,027
-551,627	-200,000	-0,013	0,049
-550,612	-200,000	-0,002	-0,092
-549,598	411,555	-0,036	0,055
-548,583	118,439	0,034	-0,031
-547,569	800,000	-0,057	-0,158
-546,554	-200,000	0,010	0,170
-545,539	-200,000	-0,023	-0,134
-544,525	374,629	0,054	0,080
-543,510	380,731	-0,056	0,083
-542,496	800,000	0,032	-0,098
-541,481	800,000	-0,021	0,063
-540,466	-38,720	-0,110	0,042
-539,452	-200,000	0,013	0,081
-538,437	-200,000	-0,004	0,028
-537,423	-46,113	0,135	-0,048
-536,408	-40,884	0,056	-0,021
-535,393	-18,528	-0,163	-0,073
-534,379	-200,000	0,029	0,094
-533,364	-43,313	-0,145	0,053
-532,350	-52,555	0,078	0,026
-531,335	71,914	0,029	0,022
-530,321	255,640	-0,113	0,140
-529,306	800,000	0,054	0,118
-528,291	511,238	0,032	0,054
-527,277	-200,000	-0,003	-0,015
-526,262	800,000	0,030	0,079
-525,248	-200,000	0,008	0,165
-524,233	800,000	-0,016	-0,037
-523,218	-200,000	0,030	0,105
-522,204	-50,003	0,075	0,026
-521,189	381,572	-0,015	-0,023
-520,175	-32,998	-0,094	-0,037
-519,160	800,000	-0,019	-0,042
-518,145	-200,000	0,037	0,141
-517,131	-200,000	-0,029	-0,107
-516,116	173,498	-0,084	0,088
-515,102	-200,000	-0,021	-0,076
-514,087	-200,000	-0,058	-0,000
-513,072	-200,000	0,006	-0,082
-512,058	404,110	-0,023	-0,035
-511,043	113,205	0,024	-0,021
-510,029	137,308	0,027	-0,026
-509,014	181,232	0,055	-0,059
-507,999	96,403	-0,070	0,058
-506,985	800,000	0,025	0,064
-505,970	48,471	0,077	0,052
-504,956	253,880	-0,030	0,037
-503,941	800,000	-0,022	0,067
-502,926	-158,843	0,028	0,001
-501,912	-65,567	0,003	-0,001
-500,897	655,616	-0,011	0,021
-499,883	149,367	-0,039	-0,038
-498,868	122,652	-0,030	-0,027
-497,853	-9,767	0,077	0,037
-496,839	-3,646	-0,076	0,038
-495,824	108,011	0,074	0,064
-494,810	800,000	0,019	0,046
-493,795	-152,596	-0,148	-0,008
-492,781	155,402	0,085	0,084
-491,766	800,000	0,007	-0,016
-490,751	243,282	-0,033	-0,040
-489,737	266,495	0,062	-0,079
-488,722	-27,676	0,072	0,030
-487,708	800,000	-0,024	-0,050
-486,693	-86,157	-0,055	0,012
-485,678	152,230	-0,080	-0,079
-484,664	73,852	0,061	-0,046
-483,649	110,663	0,040	0,035
-482,635	98,279	-0,097	-0,080
-481,620	179,612	0,024	0,025
-480,605	92,142	0,225	0,183
-479,591	-27,973	0,032	0,013
-478,576	-200,000	0,031	-0,194
-477,562	-31,304	-0,074	0,030
-476,547	295,032	-0,013	-0,018
-475,532	-200,000	0,025	-0,121
-474,518	-200,000	0,021	0,105
-473,503	13,888	0,102	-0,057
-472,489	-200,000	-0,028	0,092
-471,474	-78,152	-0,029	0,007
-470,459	418,827	-0,041	0,063
-469,445	-200,000	-0,009	0,114
-468,430	22,973	0,061	-0,036
-467,416	800,000	-0,024	-0,065
-466,401	378,889	0,067	0,099
-465,386	800,000	0,068	0,146
-464,372	-200,000	-0,002	-0,034
-463,357	-131,145	-0,162	0,015
-462,343	67,370	0,044	0,032
-461,328	13,317	-0,066	-0,037
-460,313	-200,000	0,031	-0,141
-459,299	-106,968	0,044	0,007
-458,284	-144,390	-0,089	-0,006
-457,270	15,828	-0,136	-0,077
-456,255	72,291	-0,053	-0,039
-455,241	113,899	-0,018	0,016
-454,226	737,140	0,020	-0,038
-453,211	-200,000	-0,011	-0,117
-452,197	-73,866	0,080	-0,021
-451,182	98,458	0,056	0,047
-450,168	-140,799	-0,063	-0,005
-449,153	-102,048	-0,123	0,021
-448,138	-64,179	-0,161	-0,047
-447,124	800,000	0,019	-0,049
-446,109	-24,481	0,186	-0,080
-445,095	-50,826	0,065	0,022
-444,080	222,611	0,040	-0,046
-443,065	800,000	-0,077	0,182
-442,051	-127,944	-0,102	-0,010
-441,036	-13,264	-0,086	-0,040
-440,022	800,000	-0,056	-0,172
-439,007	-73,215	0,152	-0,040
-437,992	783,658	0,028	0,056
-436,978	88,853	0,021	-0,016
-435,963	800,000	-0,007	-0,018
-434,949	-200,000	0,024	-0,080
-433,934	590,923	-0,067	-0,120
-432,919	268,565	-0,052	-0,065
-431,905	800,000	0,017	0,039
-430,890	-48,722	-0,094	0,032
-429,876	-136,898	0,048	0,004
-428,861	-60,257	0,020	-0,006
-427,846	-70,619	0,051	0,014
-426,832	80,817	-0,141	-0,109
-425,817	-200,000	-0,028	0,098
-424,803	-200,000	-0,002	0,152
-423,788	-90,049	-0,085	0,018
-422,773	319,718	0,061	0,084
-421,759	800,000	0,043	0,106
-420,744	-200,000	-0,048	0,199
-419,730	-34,849	0,059	-0,023
-418,715	76,417	-0,030	-0,023
-417,701	-200,000	0,014	-0,101
-416,686	-74,206	0,060	0,015
-415,671	800,000	0,025	0,058
-414,657	408,417	0,089	-0,136
-413,642	126,919	-0,081	0,074
-412,628	248,582	0,040	-0,048
-411,613	716,851	0,053	-0,101
-410,598	337,489	0,076	-0,107
-409,584	800,000	0,044	0,103
-408,569	249,286	-0,059	0,072
-407,555	-200,000	0,006	-0,087
-406,540	77,587	-0,113	-0,087
-405,525	-109,468	0,034	-0,005
-404,511	233,370	-0,069	0,081
-403,496	-200,000	0,034	0,107
-402,482	800,000	-0,038	-0,099
-401,467	-31,162	0,018	0,007
-400,452	-200,000	-0,041	0,132
-399,438	800,000	0,023	0,058
-398,423	800,000	-0,036	-0,083
-397,409	12,397	-0,099	-0,055
-396,394	800,000	0,029	-0,064
-395,379	160,521	0,065	0,065
-394,365	292,806	0,143	0,188
-393,350	800,000	0,014	-0,042
-392,336	106,747	0,095	0,081
-391,321	284,945	-0,080	-0,104
-390,306	168,010	-0,127	-0,130
-389,292	600,360	-0,065	-0,116
-388,277	-200,000	0,031	-0,143
-387,263	-126,940	-0,087	0,009
-386,248	-198,499	0,091	0,000
-385,233	-148,980	0,018	-0,001
-384,219	800,000	0,007	-0,017
-383,204	800,000	-0,014	0,040
-382,190	-111,557	-0,083	0,012
-381,175	736,727	0,026	0,050
-380,160	-200,000	-0,012	-0,045
-379,146	390,879	-0,003	-0,005
-378,131	243,524	-0,049	0,060
-377,117	3,440	-0,095	-0,050
-376,102	103,996	-0,032	-0,027
-375,088	18,640	-0,162	-0,093
-374,073	104,736	-0,077	-0,065
-373,058	-200,000	-0,016	0,101
-372,044	-200,000	0,001	-0,012
-371,029	-200,000	-0,010	0,069
-370,015	-200,000	-0,000	0,049
-369,000	-94,349	0,090	0,017
-367,985	12,506	0,064	-0,036
-366,971	467,596	0,012	0,019
-365,956	800,000	-0,043	-0,105
-364,942	-200,000	0,012	-0,043
-363,927	217,650	0,090	-0,104
-362,912	800,000	0,043	0,131
-361,898	-200,000	-0,043	-0,146
-360,883	646,470	-0,030	0,055
-359,869	-200,000	-0,036	0,168
-358,854	-47,092	0,122	-0,042
-357,839	800,000	0,010	0,022
-356,825	52,992	0,082	-0,056
-355,810	800,000	0,028	0,067
-354,796	800,000	0,052	0,122
-353,781	800,000	-0,012	-0,026
-352,766	-200,000	-0,007	-0,052
-351,752	699,360	0,010	0,020
-350,737	-168,159	0,153	0,004
-349,723	172,869	0,018	0,018
-348,708	-200,000	-0,032	0,131
-347,693	335,651	0,056	0,078
-346,679	-19,765	0,040	-0,018
-345,664	-142,715	0,098	0,007
-344,650	-200,000	0,009	0,049
-343,635	800,000	0,036	0,104
-342,620	-200,000	0,002	0,009
-341,606	106,983	-0,101	0,086
-340,591	8,179	0,023	0,013
-339,577	85,379	0,059	0,046
-338,562	-200,000	-0,013	0,091
-337,548	-200,000	-0,014	-0,063
-336,533	-200,000	-0,018	0,092
-335,518	298,145	0,059	-0,078
-334,504	-200,000	-0,014	0,059
-333,489	800,000	-0,028	0,071
-332,475	60,962	0,015	-0,011
-331,460	-200,000	-0,003	0,019
-330,445	-13,193	0,062	0,029
-329,431	-200,000	0,020	-0,089
-328,416	-200,000	0,014	0,050
-327,402	53,813	0,113	-0,078
-326,387	-18,047	-0,041	0,018
-325,372	-200,000	-0,011	-0,076
-324,358	-69,686	-0,033	0,009
-323,343	283,680	0,063	0,081
-322,329	-200,000	-0,001	-0,080
-321,314	-72,082	0,074	0,020
-320,299	-200,000	-0,011	0,040
-319,285	-154,510	-0,109	-0,005
-318,270	298,438	-0,059	-0,078
-317,256	-114,232	0,036	-0,005
-316,241	-200,000	-0,040	-0,166
-315,226	-74,874	0,178	0,045
-314,212	-0,128	0,159	0,081
-313,197	800,000	-0,076	0,167
-312,183	-200,000	0,017	-0,062
-311,168	109,208	-0,052	-0,045
-310,153	800,000	0,054	-0,126
-309,139	615,586	-0,086	-0,156
-308,124	-13,409	0,126	-0,058
-307,110	538,640	0,034	-0,058
-306,095	70,457	0,064	-0,048
-305,080	68,913	0,054	0,040
-304,066	-98,843	-0,116	-0,021
-303,051	800,000	0,030	-0,069
-302,037	-200,000	-0,016	-0,087
-301,022	-200,000	0,032	0,133
-300,008	-54,611	0,137	0,044
-298,993	180,041	-0,088	0,093
-297,978	61,270	-0,041	0,029
-296,964	163,889	-0,080	0,080
-295,949	54,784	-0,060	-0,041
-294,935	197,088	-0,044	-0,048
-293,920	-127,772	0,116	0,012
-292,905	-89,469	-0,030	0,006
-291,891	-200,000	0,007	-0,039
-290,876	42,094	-0,038	0,025
-289,862	-200,000	-0,021	-0,140
-288,847	141,805	-0,147	-0,140
-287,832	29,730	0,211	-0,128
-286,818	-200,000	-0,004	0,026
-285,803	-200,000	0,044	0,140
-284,789	306,362	-0,045	0,060
-283,774	170,777	-0,079	0,081
-282,759	87,513	0,045	0,036
-281,745	446,162	0,040	0,063
-280,730	34,634	0,038	-0,024
-279,716	800,000	-0,029	0,068
-278,701	110,862	0,120	0,104
-277,686	800,000	-0,018	0,041
-276,672	417,536	-0,021	0,033
-275,657	-90,203	-0,141	-0,029
-274,643	176,156	-0,026	0,028
-273,628	-103,041	0,047	-0,008
-272,613	16,963	-0,149	0,084
-271,599	118,293	-0,062	0,055
-270,584	88,823	-0,050	0,040
-269,570	170,903	0,055	0,057
-268,555	-113,895	0,064	0,009
-267,540	-25,204	0,093	0,039
-266,526	-17,417	-0,157	-0,070
-265,511	-79,910	-0,124	-0,030
-264,497	800,000	0,049	-0,129
-263,482	510,040	0,034	-0,057
-262,467	-4,541	0,129	0,064
-261,453	-200,000	0,008	-0,057
-260,438	377,702	0,028	-0,042
-259,424	117,214	-0,093	-0,081
-258,409	800,000	0,028	0,073
-257,395	49,713	0,160	0,108
-256,380	-103,587	-0,113	0,019
-255,365	-200,000	-0,011	0,102
-254,351	52,583	-0,085	0,058
-253,336	-200,000	-0,005	-0,044
-252,322	-100,235	0,041	0,007
-251,307	77,952	0,051	-0,039
-250,292	-200,000	0,025	-0,091
-249,278	132,238	-0,116	0,107
-248,263	70,930	-0,061	-0,045
-247,249	-200,000	-0,002	0,046
-246,234	800,000	-0,038	-0,094
-245,219	-131,949	0,057	-0,005
-244,205	54,256	-0,142	-0,098
-243,190	-200,000	-0,011	0,137
-242,176	-147,579	0,094	0,006
-241,161	-20,350	0,050	0,022
-240,146	39,160	-0,088	0,056
-239,132	-124,160	0,119	-0,013
-238,117	68,777	-0,091	-0,067
-237,103	-200,000	-0,004	-0,150
-236,088	23,916	0,104	-0,061
-235,073	750,261	0,037	0,072
-234,059	206,560	0,063	0,070
-233,044	9,516	0,094	0,051
-232,030	-57,119	0,070	0,022
-231,015	-200,000	-0,022	-0,071
-230,000	-200,000	-0,005	-0,046
-228,986	-200,000	0,023	-0,098
-227,971	-200,000	0,018	-0,077
-226,957	800,000	-0,031	-0,081
-225,942	116,649	0,157	-0,138
-224,927	332,674	0,007	-0,009
-223,913	800,000	0,018	-0,056
-222,898	-200,000	-0,015	0,084
-221,884	-106,042	0,039	0,006
-220,869	-164,500	0,215	-0,007
-219,855	76,283	0,078	0,059
-218,840	-107,462	-0,073	-0,011
-217,825	-32,284	0,059	0,023
-216,811	-122,678	-0,021	-0,002
-215,796	-59,806	-0,132	0,040
-214,782	-73,155	-0,169	-0,044
-213,767	111,974	0,083	0,071
-212,752	418,936	0,040	0,061
-211,738	358,281	0,008	-0,012
-210,723	14,793	-0,070	-0,039
-209,709	-38,415	0,083	-0,031
-208,694	-93,102	-0,225	-0,044
-207,679	-200,000	0,017	-0,069
-206,665	-42,555	0,071	-0,026
-205,650	649,827	0,006	0,012
-204,636	163,326	-0,091	0,091
-203,621	-200,000	-0,025	0,124
-202,606	264,332	-0,121	0,151
-201,592	125,591	0,087	0,078
-200,577	55,388	-0,110	-0,076
-199,563	800,000	0,022	-0,057
-198,548	-104,796	0,023	0,004
-197,533	-158,859	0,085	0,003
-196,519	88,764	-0,092	-0,073
-195,504	-200,000	-0,003	0,014
-194,490	107,452	0,046	-0,039
-193,475	-200,000	-0,002	-0,032
-192,460	117,617	0,082	0,072
-191,446	36,589	0,109	-0,069
-190,431	-200,000	-0,017	0,199
-189,417	800,000	0,036	-0,096
-188,402	49,144	-0,044	-0,029
-187,387	-200,000	-0,026	-0,141
-186,373	-36,976	-0,087	-0,033
-185,358	222,739	-0,075	-0,087
-184,344	-200,000	0,003	-0,036
-183,329	672,231	-0,027	-0,051
-182,315	543,311	-0,021	0,036
-181,300	602,286	0,096	0,171
-180,285	163,368	-0,138	-0,139
-179,271	-132,922	0,133	-0,012
-178,256	-31,296	0,133	0,053
-177,242	-200,000	0,008	-0,033
-176,227	403,316	0,050	-0,076
-175,212	239,140	0,048	-0,057
-174,198	294,332	0,037	-0,048
-173,183	-200,000	0,004	-0,133
-172,169	-72,336	-0,066	0,017
-171,154	-200,000	0,006	0,044
-170,139	-8,949	-0,017	0,008
-169,125	273,394	-0,026	0,033
-168,110	644,616	0,054	0,098
-167,096	-58,661	0,144	0,044
-166,081	-174,145	-0,124	-0,003
-165,066	63,444	-0,058	-0,041
-164,052	-200,000	-0,001	0,033
-163,037	160,682	-0,077	0,076
-162,023	800,000	0,020	0,049
-161,008	-105,970	-0,072	0,011
-159,993	-200,000	0,009	-0,039
-158,979	471,125	0,036	-0,058
-157,964	417,899	0,006	0,010
-156,950	-200,000	0,019	-0,109
-155,935	-87,117	-0,016	0,003
-154,920	-135,175	-0,053	-0,004
-153,906	-156,667	-0,059	0,003
-152,891	-200,000	0,004	-0,105
-151,877	231,926	-0,020	-0,023
-150,862	-200,000	-0,007	-0,093
-149,847	75,201	-0,029	0,022
-148,833	109,986	0,085	0,072
-147,818	-75,673	-0,036	0,009
-146,804	-146,588	-0,096	0,006
-145,789	-64,806	0,049	0,014
-144,775	-45,514	-0,130	-0,046
-143,760	268,624	0,009	0,011
-142,745	456,428	0,063	-0,100
-141,731	487,355	0,010	-0,016
-140,716	357,121	0,084	-0,120
-139,702	800,000	0,016	0,039
-138,687	307,513	0,071	0,095
-137,672	18,629	-0,093	-0,053
-136,658	800,000	-0,024	-0,051
-135,643	-128,423	-0,159	-0,016
-134,629	800,000	-0,015	-0,035
-133,614	800,000	-0,019	0,049
-132,599	-109,581	0,116	0,017
-131,585	-200,000	0,002	0,034
-130,570	-153,409	-0,095	-0,005
-129,556	-200,000	0,011	-0,042
-128,541	-200,000	-0,020	0,104
-127,526	-56,089	-0,064	0,020
-126,512	-140,701	-0,096	0,007
-125,497	800,000	0,035	-0,079
-124,483	-4,512	0,129	0,063
-123,468	11,651	-0,084	-0,045
-122,453	-200,000	0,015	-0,104
-121,439	33,008	0,190	0,117
-120,424	-118,621	-0,114	0,014
