DTS Sentinel unit serial number:	SN410029Multiplexer serial number:	ORYXHardware model number:	OX2-SRSoftware version number:	ORYX F/W v4,00 Oryx Data Collector v3.7.2.0data status	okinstallation	BH3 CH2differential loss correction	single-endedforward channel	channel 2reverse channel	N/Adate	2023/12/05time	15:57:28forward acquisition time	300,00reverse acquisition time	0,00gamma	499,1914k internal	0,3192k external	0,3192temperature offset calibration	1,0000default loss term (dB/km)	0,3820temperature slope calibration	1,0000multiplexer offset coefficient	1,0000multiplexer slope coefficient	1,0000fibre end	0,00T internal ref (°C)	11,07T ext. ref 1 (°C)	-3,31T ext. ref 2 (°C)	-3,50length (m)	temperature (°C)	Stokes	anti-Stokes-744,400	800,000	-0,024	-0,071
-743,385	-16,085	-0,170	0,079
-742,371	-200,000	-0,000	-0,192
-741,356	-153,090	-0,237	-0,012
-740,342	-200,000	0,034	-0,111
-739,327	60,958	-0,301	0,218
-738,312	181,725	-0,116	-0,125
-737,298	-31,250	-0,206	0,084
-736,283	119,327	-0,126	-0,114
-735,269	249,786	-0,101	0,125
-734,254	72,301	-0,159	-0,121
-733,239	-115,295	-0,450	-0,061
-732,225	358,204	0,149	-0,218
-731,210	800,000	0,022	0,062
-730,196	198,917	0,017	0,019
-729,181	-91,152	-0,051	-0,011
-728,167	800,000	-0,030	-0,064
-727,152	-118,824	0,023	-0,003
-726,137	783,741	0,018	-0,037
-725,123	217,849	-0,130	-0,152
-724,108	-200,000	0,030	-0,114
-723,094	676,495	0,031	-0,058
-722,079	95,526	0,084	-0,070
-721,064	800,000	-0,021	-0,046
-720,050	327,584	-0,086	0,121
-719,035	-200,000	0,010	-0,043
-718,021	-200,000	0,022	-0,150
-717,006	-100,341	-0,117	-0,021
-715,991	49,752	-0,124	-0,085
-714,977	-200,000	0,009	-0,110
-713,962	-200,000	-0,007	-0,103
-712,948	47,351	0,041	0,028
-711,933	116,246	-0,052	0,046
-710,918	800,000	0,055	-0,115
-709,904	800,000	0,013	-0,040
-708,889	57,004	-0,160	-0,113
-707,875	-132,025	-0,058	0,005
-706,860	800,000	0,064	0,167
-705,845	-200,000	-0,008	-0,057
-704,831	-136,424	-0,140	0,012
-703,816	-200,000	0,017	0,092
-702,802	-84,886	-0,125	0,028
-701,787	242,508	0,083	0,101
-700,772	190,578	-0,079	0,087
-699,758	-71,563	0,060	0,016
-698,743	800,000	0,019	-0,058
-697,729	357,572	-0,053	0,077
-696,714	-101,202	-0,079	-0,014
-695,699	-200,000	-0,010	-0,095
-694,685	800,000	-0,031	-0,064
-693,670	-200,000	-0,094	0,000
-692,656	267,665	-0,079	-0,101
-691,641	638,870	0,046	0,086
-690,627	-200,000	0,013	0,062
-689,612	-200,000	-0,014	-0,122
-688,597	800,000	-0,022	0,050
-687,583	3,685	-0,113	-0,060
-686,568	-200,000	-0,031	-0,115
-685,554	-152,037	-0,037	-0,002
-684,539	800,000	0,049	0,118
-683,524	-162,241	-0,138	-0,005
-682,510	-134,414	-0,090	-0,008
-681,495	193,072	0,105	-0,116
-680,481	39,725	-0,083	-0,054
-679,466	-85,787	0,074	0,017
-678,451	-200,000	0,003	-0,022
-677,437	-146,789	0,034	0,002
-676,422	-33,373	0,066	0,026
-675,408	234,086	0,055	-0,066
-674,393	-26,238	0,050	-0,021
-673,378	302,956	-0,020	0,026
-672,364	-93,634	0,135	0,027
-671,349	-200,000	0,001	-0,037
-670,335	-97,069	-0,084	0,016
-669,320	54,001	0,068	0,047
-668,305	-74,447	0,064	0,017
-667,291	534,803	0,036	0,063
-666,276	-200,000	-0,009	0,070
-665,262	116,170	-0,015	0,014
-664,247	-65,001	0,012	-0,004
-663,232	-19,866	-0,077	0,034
-662,218	-200,000	0,004	-0,166
-661,203	-200,000	0,014	0,053
-660,189	-63,405	0,104	0,031
-659,174	-200,000	-0,005	0,034
-658,159	-70,643	-0,157	0,043
-657,145	-200,000	0,004	-0,060
-656,130	62,580	-0,063	-0,046
-655,116	-200,000	0,007	0,076
-654,101	92,770	0,067	0,055
-653,086	22,552	-0,071	-0,042
-652,072	177,629	-0,171	-0,181
-651,057	356,731	0,106	-0,154
-650,043	75,275	0,032	-0,025
-649,028	-200,000	-0,023	0,088
-648,014	800,000	0,023	0,073
-646,999	-73,678	0,035	-0,009
-645,984	-36,733	-0,046	0,018
-644,970	496,664	0,057	-0,096
-643,955	475,395	-0,116	-0,191
-642,941	-103,250	-0,093	-0,016
-641,926	340,038	-0,049	0,070
-640,911	-200,000	0,033	0,122
-639,897	-103,537	-0,007	0,001
-638,882	-138,344	-0,131	-0,010
-637,868	309,629	0,034	0,047
-636,853	-51,387	-0,035	0,012
-635,838	800,000	-0,054	-0,158
-634,824	442,938	-0,082	-0,130
-633,809	446,127	0,056	0,089
-632,795	-91,690	0,078	0,016
-631,780	449,582	-0,081	-0,130
-630,765	44,855	-0,140	-0,093
-629,751	-200,000	-0,007	0,037
-628,736	115,865	-0,079	-0,070
-627,722	-200,000	0,038	-0,138
-626,707	356,312	-0,033	-0,048
-625,692	-93,770	0,005	-0,001
-624,678	543,679	0,043	0,075
-623,663	328,967	-0,053	-0,075
-622,649	-26,092	-0,076	-0,032
-621,634	-200,000	-0,033	-0,117
-620,619	-120,739	-0,039	-0,005
-619,605	800,000	0,032	0,075
-618,590	689,392	-0,029	0,056
-617,576	-143,628	0,096	0,007
-616,561	-200,000	-0,012	-0,051
-615,546	181,254	-0,138	-0,148
-614,532	-45,590	-0,022	-0,008
-613,517	16,481	-0,069	-0,039
-612,503	-200,000	-0,002	0,019
-611,488	23,459	-0,012	-0,007
-610,474	372,274	0,023	-0,035
-609,459	-200,000	0,002	-0,026
-608,444	-200,000	-0,009	-0,034
-607,430	-116,562	-0,120	-0,016
-606,415	7,111	-0,134	-0,072
-605,401	547,479	0,068	0,119
-604,386	-151,007	-0,095	0,005
-603,371	800,000	0,030	0,080
-602,357	-159,564	0,096	0,004
-601,342	-144,734	-0,128	0,008
-600,328	-3,506	-0,109	-0,055
-599,313	-12,083	0,027	0,013
-598,298	-163,982	0,184	0,006
-597,284	-58,432	-0,136	0,043
-596,269	800,000	0,071	0,170
-595,255	-200,000	0,035	0,115
-594,240	-157,942	-0,051	-0,002
-593,225	-200,000	-0,044	-0,149
-592,211	-36,631	0,073	0,028
-591,196	-200,000	-0,007	0,075
-590,182	-153,250	0,134	-0,007
-589,167	800,000	-0,058	0,121
-588,152	212,677	-0,044	-0,050
-587,138	-47,689	0,070	-0,024
-586,123	-129,935	-0,130	0,013
-585,109	82,007	-0,039	0,031
-584,094	223,414	-0,056	-0,065
-583,079	167,126	-0,070	0,072
-582,065	19,114	0,053	0,031
-581,050	-69,427	0,126	-0,035
-580,036	-186,054	-0,122	-0,001
-579,021	384,072	0,054	-0,081
-578,006	4,281	-0,192	-0,102
-576,992	800,000	0,014	-0,036
-575,977	-200,000	-0,019	0,092
-574,963	114,038	0,085	0,075
-573,948	91,310	0,052	-0,042
-572,934	-200,000	0,019	-0,094
-571,919	-200,000	-0,008	0,048
-570,904	-200,000	-0,003	0,026
-569,890	-200,000	-0,028	-0,126
-568,875	800,000	-0,021	-0,053
-567,861	-200,000	0,002	0,062
-566,846	800,000	0,071	0,147
-565,831	-199,411	-0,038	0,000
-564,817	-124,009	-0,067	-0,008
-563,802	510,871	-0,057	0,097
-562,788	71,823	0,022	-0,016
-561,773	-111,516	-0,132	0,019
-560,758	-75,768	0,149	-0,038
-559,744	-200,000	-0,005	0,045
-558,729	-200,000	0,011	-0,044
-557,715	699,065	-0,035	0,067
-556,700	800,000	-0,032	-0,081
-555,685	254,324	-0,073	0,091
-554,671	20,858	0,098	-0,058
-553,656	-200,000	0,021	0,149
-552,642	145,814	0,027	-0,026
-551,627	513,723	0,088	0,149
-550,612	-43,113	-0,086	0,031
-549,598	-200,000	0,029	-0,103
-548,583	12,593	-0,115	-0,064
-547,569	226,257	-0,016	-0,019
-546,554	-42,350	0,109	-0,040
-545,539	53,287	0,024	0,017
-544,525	800,000	-0,016	0,047
-543,510	40,896	-0,045	0,029
-542,496	37,733	0,032	0,021
-541,481	-22,376	0,043	-0,019
-540,466	800,000	-0,072	-0,146
-539,452	636,552	0,077	-0,142
-538,437	636,274	0,060	0,112
-537,423	-62,460	0,106	0,032
-536,408	141,895	-0,050	-0,048
-535,393	267,985	-0,073	-0,093
-534,379	-200,000	0,011	-0,064
-533,364	800,000	-0,061	-0,161
-532,350	-200,000	-0,012	-0,044
-531,335	117,058	-0,027	0,024
-530,321	376,529	0,037	0,054
-529,306	58,171	0,032	-0,023
-528,291	-44,624	-0,088	0,031
-527,277	264,734	-0,021	-0,026
-526,262	800,000	-0,043	-0,124
-525,248	800,000	0,033	-0,105
-524,233	800,000	-0,056	0,113
-523,218	-40,952	0,024	0,009
-522,204	-11,200	-0,003	0,001
-521,189	87,003	-0,148	-0,118
-520,175	-54,805	0,086	-0,028
-519,160	-125,428	0,026	-0,003
-518,145	-68,570	0,146	0,041
-517,131	-200,000	-0,001	0,127
-516,116	730,882	0,009	0,017
-515,102	-35,605	-0,097	0,038
-514,087	-89,025	-0,103	0,022
-513,072	800,000	0,016	-0,042
-512,058	89,837	-0,072	-0,058
-511,043	-50,213	-0,061	0,021
-510,029	-200,000	0,010	0,054
-509,014	1,302	-0,061	-0,031
-507,999	-79,783	-0,138	0,033
-506,985	-181,875	0,131	0,002
-505,970	-21,342	-0,091	0,040
-504,956	608,184	-0,070	0,127
-503,941	-3,290	-0,052	-0,026
-502,926	477,436	0,020	0,033
-501,912	-27,797	-0,053	0,022
-500,897	93,087	0,074	0,060
-499,883	66,710	0,062	-0,045
-498,868	90,306	-0,132	-0,107
-497,853	-49,112	-0,035	-0,012
-496,839	95,537	-0,068	-0,056
-495,824	1,331	0,181	-0,094
-494,810	70,862	-0,047	0,035
-493,795	-17,210	-0,133	-0,060
-492,781	-1,154	0,050	-0,025
-491,766	-115,283	-0,046	0,006
-490,751	800,000	-0,041	-0,088
-489,737	-14,327	0,060	0,028
-488,722	-200,000	-0,014	0,122
-487,708	194,255	-0,065	0,071
-486,693	470,777	0,070	0,115
-485,678	800,000	0,043	-0,127
-484,664	36,519	-0,050	0,032
-483,649	-173,642	-0,105	-0,002
-482,635	-200,000	-0,003	-0,051
-481,620	-200,000	0,006	-0,034
-480,605	141,406	-0,111	0,106
-479,591	669,786	0,031	-0,059
-478,576	-200,000	-0,000	-0,132
-477,562	198,494	-0,088	-0,097
-476,547	467,654	0,045	0,074
-475,532	-148,955	0,026	0,001
-474,518	190,657	0,048	-0,052
-473,503	-154,595	0,106	-0,005
-472,489	-200,000	-0,011	0,133
-471,474	-200,000	0,021	-0,074
-470,459	-17,065	-0,051	0,023
-469,445	-135,650	-0,034	-0,003
-468,430	-131,190	-0,082	-0,008
-467,416	-200,000	-0,006	-0,099
-466,401	-105,082	-0,060	0,010
-465,386	53,763	-0,103	0,071
-464,372	800,000	-0,057	-0,134
-463,357	104,391	0,080	-0,068
-462,343	605,523	-0,069	-0,125
-461,328	556,480	0,039	0,068
-460,313	448,466	-0,074	-0,118
-459,299	233,799	0,055	-0,066
-458,284	-200,000	-0,032	0,156
-457,270	-200,000	0,014	0,096
-456,255	164,025	0,046	0,047
-455,241	800,000	-0,013	-0,042
-454,226	-200,000	-0,034	-0,116
-453,211	-167,996	-0,069	0,002
-452,197	85,080	-0,086	0,068
-451,182	-52,505	0,024	-0,008
-450,168	300,427	0,022	-0,030
-449,153	-58,344	0,071	0,022
-448,138	-200,000	0,045	-0,157
-447,124	55,251	-0,060	-0,042
-446,109	-166,261	0,165	-0,005
-445,095	740,449	0,021	-0,042
-444,080	69,329	0,108	0,080
-443,065	-38,265	0,042	0,016
-442,051	-103,087	-0,165	-0,028
-441,036	-166,607	-0,068	-0,002
-440,022	-92,002	-0,075	-0,015
-439,007	-40,709	-0,033	0,012
-437,992	-113,881	-0,042	-0,006
-436,978	800,000	-0,028	0,068
-435,963	9,871	-0,048	0,026
-434,949	57,102	0,152	-0,107
-433,934	96,617	-0,140	-0,115
-432,919	159,280	-0,005	-0,005
-431,905	-44,582	-0,025	-0,009
-430,890	2,467	0,139	0,072
-429,876	288,735	0,062	0,081
-428,861	552,213	-0,036	0,062
-427,846	-163,677	0,083	-0,003
-426,832	-78,775	0,100	-0,024
-425,817	-200,000	0,007	-0,071
-424,803	-200,000	-0,001	-0,096
-423,788	345,007	0,085	-0,121
-422,773	438,220	0,030	0,047
-421,759	531,507	0,064	0,109
-420,744	800,000	-0,004	-0,013
-419,730	-85,042	-0,056	0,013
-418,715	186,674	-0,049	0,052
-417,701	33,404	-0,011	-0,007
-416,686	-18,523	-0,129	0,058
-415,671	662,037	0,027	-0,050
-414,657	119,571	0,079	0,070
-413,642	-200,000	0,001	0,074
-412,628	800,000	0,024	-0,057
-411,613	-105,766	0,013	-0,002
-410,598	-31,056	-0,051	0,021
-409,584	48,837	0,040	-0,027
-408,569	-37,174	0,096	0,037
-407,555	35,525	0,067	0,042
-406,540	800,000	-0,076	-0,239
-405,525	-71,172	-0,155	0,042
-404,511	-200,000	0,015	0,088
-403,496	-94,847	-0,136	-0,026
-402,482	-118,641	0,232	-0,029
-401,467	-187,376	0,072	0,001
-400,452	-42,708	0,110	-0,040
-399,438	-200,000	-0,018	0,135
-398,423	-200,000	-0,000	-0,262
-397,409	-20,157	-0,112	-0,050
-396,394	-7,227	-0,129	-0,063
-395,379	-200,000	0,023	0,133
-394,365	-152,011	0,085	-0,004
-393,350	-74,686	0,050	-0,013
-392,336	-86,267	0,078	0,017
-391,321	-100,041	-0,122	0,022
-390,306	17,139	0,118	-0,067
-389,292	45,480	-0,069	-0,046
-388,277	-200,000	0,002	0,048
-387,263	-70,169	0,051	0,014
-386,248	352,993	-0,019	0,028
-385,233	-200,000	-0,014	0,160
-384,219	800,000	-0,065	0,150
-383,204	800,000	0,011	0,027
-382,190	75,423	0,047	0,036
-381,175	76,297	0,098	0,075
-380,160	-82,520	0,102	0,024
-379,146	179,618	-0,113	0,119
-378,131	134,252	0,045	0,042
-377,117	-6,022	0,062	0,030
-376,102	-155,047	0,013	-0,001
-375,088	78,694	0,094	-0,072
-374,073	-6,328	-0,174	-0,085
-373,058	41,844	0,048	-0,031
-372,044	522,552	-0,068	0,116
-371,029	-102,495	0,112	0,019
-370,015	-17,225	0,057	-0,026
-369,000	-29,658	0,089	0,037
-367,985	-109,290	-0,209	-0,032
-366,971	277,944	-0,030	0,038
-365,956	90,997	-0,053	0,042
-364,942	-200,000	-0,033	-0,124
-363,927	354,196	-0,036	-0,051
-362,912	-200,000	0,022	-0,112
-361,898	112,021	0,041	0,036
-360,883	152,166	0,051	0,050
-359,869	-106,550	-0,072	-0,011
-358,854	-51,494	0,081	0,027
-357,839	800,000	0,117	0,239
-356,825	76,168	-0,102	-0,078
-355,810	-200,000	-0,019	0,125
-354,796	-184,518	-0,045	-0,001
-353,781	176,296	-0,066	-0,069
-352,766	-200,000	0,029	-0,111
-351,752	800,000	-0,017	0,053
-350,737	800,000	0,024	0,059
-349,723	580,915	-0,092	0,162
-348,708	800,000	0,029	-0,067
-347,693	63,667	-0,074	-0,054
-346,679	-119,550	-0,139	0,017
-345,664	-95,851	-0,075	0,014
-344,650	-88,179	0,151	-0,032
-343,635	-200,000	-0,011	-0,148
-342,620	-71,686	0,143	0,038
-341,606	-26,266	0,121	0,051
-340,591	-200,000	0,057	-0,201
-339,577	193,469	-0,066	0,072
-338,562	-81,944	0,055	0,013
-337,548	-48,621	-0,115	-0,039
-336,533	800,000	0,053	0,118
-335,518	-200,000	-0,004	0,126
-334,504	710,256	-0,064	-0,122
-333,489	111,796	-0,076	-0,066
-332,475	351,463	0,053	0,076
-331,460	-83,962	-0,072	0,016
-330,445	-106,003	0,022	0,004
-329,431	800,000	0,014	-0,029
-328,416	-200,000	0,006	0,069
-327,402	14,135	0,157	0,087
-326,387	-149,035	-0,039	0,002
-325,372	-53,522	0,186	-0,061
-324,358	-153,371	-0,056	0,003
-323,343	-138,465	-0,176	0,014
-322,329	-91,366	0,087	-0,018
-321,314	800,000	0,043	0,113
-320,299	554,022	0,035	-0,061
-319,285	-200,000	0,010	-0,065
-318,270	332,775	-0,072	-0,100
-317,256	319,676	-0,064	-0,087
-316,241	-200,000	0,001	-0,010
-315,226	-174,046	0,008	-0,000
-314,212	-183,361	0,162	0,002
-313,197	-133,581	0,024	-0,002
-312,183	-200,000	-0,020	0,092
-311,168	50,050	-0,027	-0,018
-310,153	-67,890	-0,047	0,013
-309,139	-200,000	0,035	-0,204
-308,124	218,900	-0,029	-0,034
-307,110	36,251	0,150	0,095
-306,095	-159,315	0,168	0,007
-305,080	-200,000	-0,022	0,099
-304,066	32,572	0,055	-0,034
-303,051	-29,967	-0,221	-0,090
-302,037	305,614	0,099	-0,132
-301,022	74,017	0,082	0,062
-300,008	656,322	0,012	-0,022
-298,993	-200,000	0,015	0,106
-297,978	365,704	0,100	0,145
-296,964	-200,000	0,016	0,060
-295,949	800,000	-0,037	-0,093
-294,935	-186,817	0,139	0,001
-293,920	-52,629	0,028	0,009
-292,905	75,048	0,070	0,052
-291,891	-72,650	-0,034	0,009
-290,876	800,000	0,039	-0,100
-289,862	-200,000	0,003	0,104
-288,847	-148,391	0,006	-0,000
-287,832	-17,405	-0,060	-0,027
-286,818	-2,091	0,080	-0,040
-285,803	-68,838	0,060	0,016
-284,789	241,526	0,050	0,060
-283,774	-129,466	-0,085	-0,008
-282,759	-200,000	-0,013	-0,087
-281,745	-200,000	-0,001	0,019
-280,730	289,118	-0,049	-0,064
-279,716	208,574	0,077	-0,086
-278,701	81,870	0,088	-0,069
-277,686	-200,000	-0,007	0,089
-276,672	4,719	0,049	-0,026
-275,657	800,000	-0,052	-0,110
-274,643	-200,000	0,020	0,131
-273,628	-51,278	0,066	-0,022
-272,613	594,132	-0,030	-0,053
-271,599	-131,025	0,195	0,018
-270,584	-200,000	0,004	0,101
-269,570	-200,000	0,017	0,082
-268,555	-53,794	-0,058	-0,019
-267,540	800,000	-0,027	-0,062
-266,526	800,000	-0,046	0,139
-265,511	68,142	0,110	0,081
-264,497	-200,000	-0,016	0,125
-263,482	141,774	0,091	0,086
-262,467	129,272	-0,064	0,058
-261,453	38,405	-0,029	0,019
-260,438	297,647	-0,045	0,060
-259,424	-200,000	-0,011	0,069
-258,409	767,078	0,045	0,089
-257,395	-45,580	-0,122	0,043
-256,380	362,292	0,102	0,147
-255,365	559,179	0,062	-0,107
-254,351	35,584	0,060	-0,038
-253,336	-174,771	0,056	0,001
-252,322	11,420	-0,113	-0,062
-251,307	32,869	0,045	0,028
-250,292	-200,000	-0,050	0,165
-249,278	-200,000	-0,030	0,138
-248,263	274,839	0,045	-0,057
-247,249	-200,000	0,016	0,061
-246,234	-39,880	0,061	0,023
-245,219	15,019	-0,140	-0,078
-244,205	582,944	-0,042	-0,075
-243,190	-200,000	0,011	0,092
-242,176	11,785	0,078	0,042
-241,161	303,534	-0,088	-0,117
-240,146	45,880	-0,007	-0,005
-239,132	253,201	0,080	0,098
-238,117	610,050	-0,074	0,134
-237,103	77,566	0,144	-0,110
-236,088	-100,501	0,128	0,022
-235,073	-200,000	-0,021	-0,068
-234,059	-200,000	-0,034	0,111
-233,044	-20,695	0,122	0,053
-232,030	81,337	-0,095	-0,073
-231,015	-152,641	-0,051	-0,003
-230,000	13,824	-0,181	-0,100
-228,986	-200,000	0,011	-0,124
-227,971	800,000	-0,004	-0,012
-226,957	114,407	0,088	0,077
-225,942	133,139	0,033	-0,030
-224,927	-53,058	0,109	0,036
-223,913	477,169	0,019	-0,031
-222,898	-49,964	-0,120	0,040
-221,884	-200,000	0,003	0,081
-220,869	367,641	-0,089	-0,129
-219,855	745,168	0,043	-0,083
-218,840	114,071	0,056	0,049
-217,825	187,134	0,048	-0,052
-216,811	495,077	-0,067	-0,110
-215,796	-200,000	-0,003	0,023
-214,782	-83,371	-0,028	-0,006
-213,767	150,265	0,066	0,064
-212,752	-200,000	0,027	0,110
-211,738	-200,000	-0,019	-0,074
-210,723	31,161	-0,065	-0,040
-209,709	9,820	-0,049	0,027
-208,694	136,354	-0,089	-0,083
-207,679	549,716	-0,053	-0,092
-206,665	-200,000	-0,003	0,023
-205,650	800,000	0,061	0,186
-204,636	800,000	0,065	0,130
-203,621	800,000	-0,045	0,104
-202,606	800,000	0,015	-0,048
-201,592	-200,000	-0,018	0,096
-200,577	-200,000	0,039	0,164
-199,563	41,526	0,062	-0,040
-198,548	-200,000	0,016	0,101
-197,533	52,927	0,076	0,052
-196,519	-200,000	0,004	-0,048
-195,504	167,948	0,045	-0,046
-194,490	-200,000	-0,002	-0,078
-193,475	428,558	-0,105	-0,163
-192,460	168,339	0,019	0,019
-191,446	240,209	0,072	-0,086
-190,431	-137,909	0,117	0,009
-189,417	-10,858	-0,095	0,045
-188,402	-137,266	0,184	0,015
-187,387	800,000	0,033	0,077
-186,373	-116,826	-0,053	-0,007
-185,358	-103,146	0,149	-0,025
-184,344	153,126	0,079	0,077
-183,329	303,649	0,072	0,095
-182,315	800,000	-0,076	0,159
-181,300	-200,000	-0,001	0,146
-180,285	-200,000	-0,060	-0,000
-179,271	-200,000	-0,025	-0,104
-178,256	130,545	0,034	-0,031
-177,242	-157,286	0,090	-0,004
-176,227	37,534	0,046	-0,029
-175,212	214,574	0,075	0,084
-174,198	-89,938	0,044	0,009
-173,183	231,486	-0,140	-0,164
-172,169	631,442	0,052	0,094
-171,154	113,853	-0,080	-0,069
-170,139	-200,000	0,011	-0,055
-169,125	-200,000	-0,017	0,144
-168,110	-200,000	-0,011	0,111
-167,096	344,422	-0,038	-0,054
-166,081	-200,000	0,016	-0,205
-165,066	-200,000	-0,006	-0,116
-164,052	516,212	0,060	-0,100
-163,037	-200,000	-0,013	0,116
-162,023	800,000	0,038	0,102
-161,008	-76,543	0,050	-0,012
-159,993	31,608	-0,067	-0,041
-158,979	800,000	-0,022	-0,054
-157,964	-30,101	-0,061	-0,025
-156,950	800,000	-0,029	-0,069
-155,935	194,976	0,093	-0,100
-154,920	12,033	0,053	0,029
-153,906	-130,979	0,056	-0,005
-152,891	-164,949	0,150	-0,005
-151,877	-200,000	-0,006	-0,183
-150,862	800,000	0,026	0,078
-149,847	-200,000	0,001	-0,022
-148,833	67,090	-0,095	0,069
-147,818	800,000	0,051	0,107
-146,804	-200,000	0,017	0,072
-145,789	-200,000	-0,005	0,119
-144,775	800,000	0,029	-0,085
-143,760	-142,096	-0,131	-0,009
-142,745	-200,000	-0,001	-0,117
-141,731	-200,000	-0,007	-0,102
-140,716	800,000	-0,025	-0,061
-139,702	56,804	0,072	0,050
-138,687	43,843	0,065	-0,042
-137,672	-65,125	-0,184	0,052
-136,658	72,033	-0,103	0,077
-135,643	-200,000	-0,003	-0,041
-134,629	-149,938	-0,064	-0,004
-133,614	-200,000	-0,003	0,060
-132,599	-178,242	0,096	-0,002
-131,585	44,367	-0,175	-0,114
-130,570	-200,000	0,000	-0,149
-129,556	265,349	0,075	-0,093
-128,541	-24,685	-0,092	-0,039
-127,526	229,933	0,078	-0,091
-126,512	-43,810	-0,011	0,004
-125,497	-200,000	-0,003	0,045
-124,483	800,000	-0,020	-0,042
-123,468	-14,576	-0,114	0,052
-122,453	-200,000	-0,022	-0,075
-121,439	-25,018	0,035	0,015
-120,424	451,659	0,055	-0,086
