DTS Sentinel unit serial number:	SN410029Multiplexer serial number:	ORYXHardware model number:	OX2-SRSoftware version number:	ORYX F/W v4,00 Oryx Data Collector v3.7.2.0data status	okinstallation	BH3 CH2differential loss correction	single-endedforward channel	channel 2reverse channel	N/Adate	2023/12/05time	18:32:28forward acquisition time	300,00reverse acquisition time	0,00gamma	499,1914k internal	0,3192k external	0,3192temperature offset calibration	1,0000default loss term (dB/km)	0,3820temperature slope calibration	1,0000multiplexer offset coefficient	1,0000multiplexer slope coefficient	1,0000fibre end	0,00T internal ref (°C)	10,65T ext. ref 1 (°C)	-4,01T ext. ref 2 (°C)	-4,14length (m)	temperature (°C)	Stokes	anti-Stokes-744,400	460,551	-0,041	-0,067
-743,385	-17,828	-0,279	0,127
-742,371	800,000	0,039	-0,105
-741,356	-66,714	-0,250	0,072
-740,342	217,712	0,024	-0,028
-739,327	-21,011	-0,220	0,098
-738,312	570,960	0,066	-0,118
-737,298	-71,895	-0,312	0,084
-736,283	-200,000	-0,022	-0,114
-735,269	-50,418	-0,151	0,052
-734,254	-200,000	-0,022	0,078
-733,239	-111,190	-0,195	-0,029
-732,225	-7,927	-0,083	-0,040
-731,210	65,468	0,055	0,040
-730,196	237,496	-0,062	-0,075
-729,181	290,282	0,023	0,031
-728,167	-94,012	-0,087	-0,017
-727,152	335,829	0,057	-0,080
-726,137	-113,726	-0,161	0,023
-725,123	-116,407	0,067	0,009
-724,108	800,000	0,045	-0,118
-723,094	-36,277	-0,039	-0,015
-722,079	-105,850	-0,087	0,014
-721,064	-106,417	-0,071	0,011
-720,050	50,925	0,124	-0,085
-719,035	-200,000	0,026	0,143
-718,021	118,134	0,046	-0,041
-717,006	-200,000	-0,009	-0,138
-715,991	656,444	-0,075	-0,140
-714,977	-200,000	-0,029	-0,104
-713,962	145,997	0,006	-0,006
-712,948	-174,138	-0,035	-0,001
-711,933	1,108	-0,071	-0,037
-710,918	-57,335	0,032	0,010
-709,904	-200,000	-0,030	-0,214
-708,889	-200,000	-0,028	-0,111
-707,875	-200,000	-0,028	-0,144
-706,860	721,227	0,002	-0,004
-705,845	374,285	0,105	0,156
-704,831	110,102	-0,100	-0,088
-703,816	36,535	-0,131	-0,084
-702,802	109,808	-0,043	0,037
-701,787	46,379	0,071	0,048
-700,772	272,045	0,049	-0,064
-699,758	37,835	-0,142	-0,092
-698,743	54,732	-0,056	0,039
-697,729	-116,600	-0,060	0,008
-696,714	-64,481	-0,092	-0,027
-695,699	800,000	-0,024	0,057
-694,685	-57,923	-0,053	0,017
-693,670	800,000	-0,030	-0,062
-692,656	87,351	0,012	0,009
-691,641	-76,909	0,100	-0,025
-690,627	49,184	-0,028	-0,019
-689,612	400,647	0,014	0,021
-688,597	-200,000	-0,037	0,155
-687,583	-164,694	-0,107	-0,003
-686,568	-200,000	0,012	-0,165
-685,554	-159,114	-0,211	-0,009
-684,539	13,377	-0,023	-0,013
-683,524	-60,617	-0,061	0,019
-682,510	175,142	-0,037	0,039
-681,495	402,726	0,053	0,081
-680,481	-200,000	-0,020	0,136
-679,466	-134,927	0,024	0,002
-678,451	-200,000	-0,018	-0,071
-677,437	-130,529	0,107	-0,010
-676,422	-32,173	0,036	-0,015
-675,408	-200,000	-0,006	0,124
-674,393	273,968	0,053	-0,069
-673,378	-46,324	-0,042	0,015
-672,364	-147,251	-0,128	0,008
-671,349	306,827	-0,066	-0,090
-670,335	-200,000	0,000	-0,055
-669,320	-44,411	0,078	-0,028
-668,305	-108,789	0,093	0,014
-667,291	162,430	0,077	-0,079
-666,276	-200,000	0,007	0,046
-665,262	-36,254	-0,137	0,053
-664,247	-200,000	0,013	-0,125
-663,232	-90,055	0,092	0,019
-662,218	36,993	-0,066	0,042
-661,203	14,055	-0,121	0,068
-660,189	45,209	0,083	-0,055
-659,174	-200,000	0,002	-0,132
-658,159	-200,000	0,009	-0,078
-657,145	-200,000	0,007	-0,092
-656,130	-200,000	0,025	0,080
-655,116	-91,462	-0,081	-0,017
-654,101	-132,878	0,030	0,003
-653,086	-200,000	0,011	-0,107
-652,072	-93,782	-0,060	-0,012
-651,057	-200,000	0,017	-0,209
-650,043	-175,393	-0,141	0,003
-649,028	-81,632	0,051	-0,012
-648,014	-200,000	-0,007	0,097
-646,999	36,695	0,060	0,038
-645,984	800,000	-0,024	-0,065
-644,970	800,000	-0,064	-0,166
-643,955	-200,000	-0,001	-0,084
-642,941	33,988	-0,166	-0,105
-641,926	-183,740	0,155	0,002
-640,911	-200,000	0,010	-0,070
-639,897	-176,449	-0,131	0,002
-638,882	-48,783	0,056	0,019
-637,868	-200,000	0,003	0,093
-636,853	-158,522	-0,097	0,004
-635,838	-124,096	-0,027	-0,003
-634,824	15,417	-0,126	0,072
-633,809	800,000	-0,053	-0,148
-632,795	800,000	0,009	0,022
-631,780	-200,000	0,012	0,075
-630,765	-37,198	0,072	-0,028
-629,751	-69,057	-0,131	-0,036
-628,736	248,669	-0,044	-0,054
-627,722	800,000	-0,042	-0,103
-626,707	-2,679	0,057	-0,029
-625,692	800,000	-0,009	-0,019
-624,678	-200,000	-0,003	-0,078
-623,663	10,358	-0,069	0,038
-622,649	-116,622	-0,076	-0,010
-621,634	314,351	0,112	-0,154
-620,619	800,000	-0,009	0,025
-619,605	30,688	-0,059	-0,037
-618,590	353,415	0,036	0,052
-617,576	126,377	-0,072	-0,066
-616,561	399,614	-0,059	0,089
-615,546	-200,000	-0,016	-0,069
-614,532	-54,559	0,082	0,027
-613,517	154,262	-0,098	0,098
-612,503	796,938	0,018	-0,037
-611,488	800,000	-0,044	-0,126
-610,474	142,620	0,040	-0,039
-609,459	-20,173	0,075	0,033
-608,444	-40,454	0,081	-0,030
-607,430	-200,000	0,006	0,089
-606,415	-190,955	-0,164	0,001
-605,401	44,845	0,077	-0,051
-604,386	33,606	-0,069	0,044
-603,371	-20,519	0,072	0,032
-602,357	-70,714	-0,033	0,009
-601,342	-92,158	-0,120	0,024
-600,328	-62,279	-0,136	-0,041
-599,313	65,913	0,054	-0,040
-598,298	-200,000	0,014	-0,063
-597,284	-26,461	0,059	0,025
-596,269	-200,000	0,011	0,063
-595,255	329,783	0,083	-0,116
-594,240	-200,000	-0,030	-0,117
-593,225	-200,000	-0,006	0,154
-592,211	-73,853	-0,027	-0,007
-591,196	-48,843	-0,074	0,025
-590,182	42,223	-0,051	-0,034
-589,167	-25,264	-0,110	0,047
-588,152	377,580	0,008	0,012
-587,138	800,000	0,037	-0,077
-586,123	-40,760	-0,054	0,020
-585,109	800,000	-0,085	-0,200
-584,094	800,000	-0,049	-0,109
-583,079	529,856	-0,018	0,032
-582,065	54,709	-0,016	-0,011
-581,050	17,506	-0,015	-0,009
-580,036	-42,902	-0,119	0,043
-579,021	-200,000	0,014	-0,072
-578,006	-200,000	0,002	0,025
-576,992	267,293	0,061	-0,077
-575,977	474,950	0,037	-0,061
-574,963	-37,830	-0,090	-0,035
-573,948	-200,000	0,047	0,166
-572,934	-126,423	-0,106	-0,011
-571,919	-200,000	0,010	-0,183
-570,904	49,410	-0,054	0,037
-569,890	800,000	-0,049	0,116
-568,875	-200,000	-0,021	0,102
-567,861	-63,255	0,074	-0,022
-566,846	59,331	-0,059	-0,042
-565,831	800,000	0,041	0,098
-564,817	-100,318	-0,154	-0,028
-563,802	43,467	0,035	-0,023
-562,788	-200,000	0,025	0,086
-561,773	-200,000	0,001	-0,020
-560,758	-200,000	0,034	-0,114
-559,744	-35,182	0,012	-0,005
-558,729	152,791	0,051	-0,050
-557,715	-200,000	-0,010	-0,064
-556,700	34,438	-0,044	-0,028
-555,685	-63,641	-0,060	-0,018
-554,671	800,000	0,026	-0,082
-553,656	123,976	-0,124	-0,113
-552,642	426,199	-0,034	0,053
-551,627	800,000	0,019	-0,041
-550,612	-46,440	-0,069	-0,024
-549,598	-200,000	-0,013	-0,079
-548,583	6,075	0,104	-0,056
-547,569	-91,752	-0,156	0,032
-546,554	249,420	0,044	0,054
-545,539	-140,076	0,131	-0,010
-544,525	705,145	0,015	0,028
-543,510	-200,000	-0,081	-0,264
-542,496	242,406	-0,084	-0,102
-541,481	42,261	-0,032	-0,021
-540,466	-200,000	-0,036	0,115
-539,452	31,010	0,042	-0,026
-538,437	-119,063	0,102	-0,013
-537,423	-200,000	0,020	0,119
-536,408	-68,487	0,081	0,023
-535,393	128,952	-0,043	0,040
-534,379	-9,766	0,046	-0,022
-533,364	108,724	-0,051	0,044
-532,350	215,742	0,069	-0,080
-531,335	-127,161	0,052	0,005
-530,321	-11,721	-0,084	0,040
-529,306	800,000	-0,051	0,161
-528,291	163,263	-0,037	-0,038
-527,277	-97,659	-0,013	-0,002
-526,262	-80,246	-0,046	-0,011
-525,248	800,000	-0,012	0,036
-524,233	207,267	0,040	0,045
-523,218	-200,000	-0,018	0,058
-522,204	48,091	0,024	-0,016
-521,189	218,318	0,146	-0,169
-520,175	-120,773	-0,056	-0,007
-519,160	123,800	-0,017	0,016
-518,145	69,476	0,093	0,069
-517,131	-200,000	-0,017	0,115
-516,116	-106,471	0,135	-0,022
-515,102	34,463	-0,034	-0,022
-514,087	800,000	-0,019	0,044
-513,072	-200,000	-0,012	-0,049
-512,058	56,815	-0,007	-0,005
-511,043	800,000	-0,033	0,072
-510,029	2,986	0,137	-0,072
-509,014	-4,087	-0,081	0,041
-507,999	159,075	0,049	-0,050
-506,985	756,474	-0,067	-0,131
-505,970	311,496	-0,023	0,032
-504,956	-104,430	-0,093	-0,015
-503,941	-132,653	-0,014	-0,001
-502,926	34,087	0,188	0,118
-501,912	800,000	-0,011	-0,022
-500,897	-105,074	0,130	0,021
-499,883	-87,005	-0,111	0,024
-498,868	-89,928	-0,102	-0,021
-497,853	227,239	0,035	-0,041
-496,839	-200,000	0,030	0,101
-495,824	-200,000	-0,000	0,029
-494,810	592,103	-0,115	0,206
-493,795	-100,181	0,116	-0,021
-492,781	800,000	0,039	0,101
-491,766	-131,589	-0,026	-0,002
-490,751	80,882	-0,089	-0,069
-489,737	-200,000	0,019	0,137
-488,722	178,011	0,047	-0,050
-487,708	-200,000	0,027	0,144
-486,693	800,000	0,029	0,083
-485,678	-200,000	-0,008	-0,055
-484,664	-200,000	-0,025	-0,115
-483,649	-15,994	0,090	-0,041
-482,635	800,000	-0,047	-0,121
-481,620	-200,000	-0,018	0,092
-480,605	-200,000	0,025	0,088
-479,591	-200,000	0,003	-0,118
-478,576	-12,746	0,099	-0,046
-477,562	-200,000	-0,021	-0,144
-476,547	479,742	-0,077	-0,126
-475,532	770,751	-0,060	-0,118
-474,518	-148,319	-0,106	0,006
-473,503	-200,000	0,006	0,053
-472,489	735,397	0,012	-0,023
-471,474	672,237	-0,031	-0,058
-470,459	295,603	-0,073	-0,096
-469,445	-137,661	-0,050	0,004
-468,430	800,000	0,059	-0,171
-467,416	800,000	0,037	-0,083
-466,401	-0,200	0,039	0,020
-465,386	800,000	-0,033	-0,087
-464,372	-200,000	0,023	0,184
-463,357	-91,079	-0,187	-0,038
-462,343	800,000	0,025	0,069
-461,328	261,820	-0,073	0,091
-460,313	165,585	-0,101	0,103
-459,299	60,680	0,134	0,096
-458,284	800,000	0,021	0,060
-457,270	-200,000	0,005	-0,025
-456,255	-200,000	0,025	0,103
-455,241	-123,273	-0,144	0,016
-454,226	352,067	-0,036	0,051
-453,211	272,037	0,096	0,122
-452,197	237,748	0,022	0,027
-451,182	-14,821	-0,063	-0,029
-450,168	47,636	-0,058	-0,039
-449,153	-39,966	0,038	0,014
-448,138	-200,000	-0,000	-0,078
-447,124	-15,146	-0,049	-0,022
-446,109	-29,261	0,043	-0,018
-445,095	-37,792	-0,042	0,016
-444,080	352,621	0,084	0,120
-443,065	34,727	0,101	-0,063
-442,051	51,072	0,026	-0,017
-441,036	-12,544	-0,071	-0,033
-440,022	800,000	0,013	-0,039
-439,007	-57,003	-0,157	0,050
-437,992	-45,730	0,106	0,037
-436,978	-176,471	0,111	-0,002
-435,963	153,138	-0,180	0,177
-434,949	-148,357	-0,072	-0,004
-433,934	-98,028	-0,123	0,023
-432,919	-200,000	0,032	-0,164
-431,905	57,468	0,048	-0,034
-430,890	-131,771	0,177	-0,016
-429,876	-70,938	-0,096	0,026
-428,861	-119,782	0,047	-0,006
-427,846	-200,000	-0,011	0,065
-426,832	-200,000	0,008	0,036
-425,817	20,614	-0,097	-0,056
-424,803	-117,821	0,043	-0,005
-423,788	56,570	0,064	0,045
-422,773	-79,418	-0,083	0,020
-421,759	-108,151	0,089	0,014
-420,744	90,796	0,092	-0,074
-419,730	-94,826	-0,151	-0,029
-418,715	800,000	-0,052	0,139
-417,701	-200,000	-0,028	0,091
-416,686	-200,000	-0,002	-0,013
-415,671	-29,219	0,058	-0,024
-414,657	80,630	0,076	0,059
-413,642	255,344	-0,033	-0,041
-412,628	-57,194	0,103	-0,032
-411,613	800,000	-0,046	-0,125
-410,598	800,000	0,050	-0,110
-409,584	-192,517	-0,020	0,000
-408,569	-82,261	0,194	0,045
-407,555	731,184	0,032	0,063
-406,540	-146,881	0,038	-0,002
-405,525	-168,518	0,136	-0,004
-404,511	17,650	0,044	-0,025
-403,496	-162,352	-0,082	-0,003
-402,482	-8,149	-0,087	-0,042
-401,467	-200,000	-0,016	-0,059
-400,452	544,226	-0,032	0,055
-399,438	-200,000	-0,013	-0,094
-398,423	552,278	0,059	-0,102
-397,409	-1,702	-0,027	0,014
-396,394	47,225	0,007	-0,005
-395,379	79,622	0,055	-0,042
-394,365	-10,979	0,064	0,030
-393,350	53,544	0,172	0,119
-392,336	-72,326	0,123	0,033
-391,321	222,611	-0,057	-0,066
-390,306	800,000	0,014	0,040
-389,292	47,644	-0,075	-0,050
-388,277	26,216	0,103	-0,062
-387,263	-200,000	-0,017	0,100
-386,248	-200,000	0,003	0,176
-385,233	601,629	-0,018	-0,033
-384,219	-122,989	-0,039	0,004
-383,204	46,388	-0,046	-0,030
-382,190	-162,060	-0,054	-0,002
-381,175	-157,610	-0,072	0,003
-380,160	119,475	-0,022	0,020
-379,146	703,258	0,085	0,162
-378,131	800,000	0,042	0,131
-377,117	-146,861	0,066	0,004
-376,102	-168,954	-0,067	0,002
-375,088	746,732	-0,053	-0,104
-374,073	-70,984	-0,059	0,016
-373,058	552,491	0,072	-0,125
-372,044	-200,000	0,009	0,090
-371,029	800,000	0,030	0,096
-370,015	-116,346	-0,025	0,003
-369,000	-200,000	0,001	0,070
-367,985	193,625	0,031	-0,034
-366,971	-171,456	0,091	-0,002
-365,956	800,000	-0,011	-0,027
-364,942	-111,148	0,133	-0,019
-363,927	-200,000	-0,003	0,011
-362,912	-180,534	-0,043	-0,001
-361,898	785,014	0,038	0,074
-360,883	73,185	-0,087	-0,065
-359,869	326,189	-0,135	-0,186
-358,854	208,338	0,029	0,032
-357,839	-59,850	0,027	-0,008
-356,825	371,595	0,037	0,054
-355,810	-73,243	-0,011	0,003
-354,796	164,911	-0,081	-0,082
-353,781	-200,000	0,010	-0,193
-352,766	-46,256	0,113	-0,040
-351,752	800,000	-0,014	-0,039
-350,737	-23,784	-0,082	0,035
-349,723	-135,538	0,007	0,001
-348,708	-84,322	0,159	0,036
-347,693	800,000	-0,077	0,156
-346,679	-200,000	0,019	-0,125
-345,664	774,493	-0,051	-0,099
-344,650	-71,440	-0,070	-0,019
-343,635	-48,272	-0,017	0,006
-342,620	75,861	-0,018	-0,014
-341,606	-64,029	-0,148	-0,043
-340,591	-200,000	0,006	0,129
-339,577	69,479	-0,153	-0,113
-338,562	-45,816	-0,061	0,022
-337,548	37,171	0,110	-0,070
-336,533	104,131	-0,037	-0,031
-335,518	-85,519	0,099	-0,022
-334,504	-200,000	-0,000	-0,014
-333,489	9,676	0,037	-0,020
-332,475	-112,203	0,240	-0,034
-331,460	-90,807	-0,102	0,021
-330,445	-200,000	0,024	0,099
-329,431	-200,000	-0,004	0,142
-328,416	-96,973	0,087	0,016
-327,402	-200,000	-0,003	-0,067
-326,387	90,798	0,027	-0,022
-325,372	30,673	0,036	0,022
-324,358	-139,514	-0,088	-0,007
-323,343	28,650	-0,056	-0,034
-322,329	293,854	0,045	-0,059
-321,314	-200,000	0,035	0,126
-320,299	-66,546	-0,120	0,034
-319,285	254,307	0,046	-0,057
-318,270	373,549	-0,074	0,109
-317,256	146,580	-0,073	0,070
-316,241	111,019	0,041	-0,036
-315,226	55,066	0,101	0,070
-314,212	800,000	0,047	0,121
-313,197	248,412	0,038	-0,046
-312,183	800,000	0,057	-0,141
-311,168	800,000	0,031	-0,085
-310,153	-87,769	0,060	-0,013
-309,139	-21,144	0,169	-0,074
-308,124	800,000	0,044	0,098
-307,110	-104,022	0,091	-0,015
-306,095	-200,000	-0,018	-0,209
-305,080	-19,411	0,046	0,020
-304,066	77,931	-0,052	0,040
-303,051	401,486	0,051	-0,077
-302,037	473,132	0,022	-0,035
-301,022	43,404	0,035	0,023
-300,008	-65,188	0,050	0,014
-298,993	-36,489	0,106	0,041
-297,978	800,000	0,029	0,069
-296,964	-96,175	-0,079	0,015
-295,949	96,947	-0,128	0,105
-294,935	-81,629	-0,078	-0,018
-293,920	-200,000	-0,017	0,159
-292,905	-200,000	0,006	0,112
-291,891	328,027	0,032	-0,043
-290,876	-71,407	-0,047	0,013
-289,862	-137,268	0,093	-0,007
-288,847	-91,992	0,107	0,022
-287,832	-200,000	-0,038	-0,139
-286,818	800,000	0,031	0,063
-285,803	-63,219	-0,074	0,022
-284,789	-88,302	-0,056	0,012
-283,774	536,677	0,065	0,110
-282,759	316,418	-0,072	-0,097
-281,745	78,796	0,074	-0,057
-280,730	800,000	0,009	-0,027
-279,716	-200,000	0,029	-0,191
-278,701	-42,615	-0,135	0,049
-277,686	-83,021	0,022	0,005
-276,672	-200,000	0,020	0,091
-275,657	-200,000	0,009	0,051
-274,643	331,156	-0,024	-0,033
-273,628	-83,616	-0,075	0,017
-272,613	-54,935	0,064	0,021
-271,599	-83,999	0,132	-0,030
-270,584	-200,000	0,031	0,119
-269,570	96,248	0,129	0,106
-268,555	638,964	-0,061	0,112
-267,540	800,000	-0,011	0,022
-266,526	57,360	-0,093	-0,065
-265,511	800,000	0,040	-0,082
-264,497	-200,000	0,003	-0,035
-263,482	223,828	0,078	0,091
-262,467	-200,000	-0,015	0,136
-261,453	-200,000	0,018	0,079
-260,438	176,145	-0,090	0,094
-259,424	122,215	-0,141	-0,126
-258,409	10,760	-0,059	-0,032
-257,395	-200,000	0,005	-0,097
-256,380	144,236	-0,056	0,054
-255,365	130,177	0,026	0,024
-254,351	151,342	-0,051	-0,050
-253,336	-15,064	-0,101	0,046
-252,322	523,971	-0,035	0,060
-251,307	230,653	-0,063	-0,074
-250,292	587,763	0,041	-0,073
-249,278	800,000	-0,063	-0,125
-248,263	81,910	0,040	-0,031
-247,249	800,000	0,072	0,145
-246,234	-8,779	-0,142	0,068
-245,219	-200,000	-0,017	-0,083
-244,205	-200,000	-0,004	0,021
-243,190	-91,964	0,021	0,004
-242,176	153,199	0,072	0,071
-241,161	800,000	0,007	-0,018
-240,146	800,000	0,037	0,079
-239,132	4,982	0,096	-0,050
-238,117	800,000	-0,032	-0,081
-237,103	800,000	0,035	-0,107
-236,088	-91,944	0,054	-0,011
-235,073	800,000	-0,040	-0,081
-234,059	-57,254	0,115	0,036
-233,044	310,734	0,048	-0,064
-232,030	-19,818	0,030	-0,013
-231,015	192,531	-0,044	-0,048
-230,000	35,736	-0,123	-0,077
-228,986	-65,114	-0,101	0,029
-227,971	-48,161	0,135	-0,046
-226,957	-77,935	0,158	0,039
-225,942	-200,000	0,017	0,071
-224,927	-136,673	0,048	-0,004
-223,913	800,000	-0,063	-0,163
-222,898	268,881	0,041	0,051
-221,884	-200,000	0,002	0,080
-220,869	679,075	-0,027	0,050
-219,855	800,000	0,059	0,133
-218,840	654,717	-0,028	0,052
-217,825	-200,000	0,009	-0,070
-216,811	-184,838	-0,090	0,001
-215,796	-200,000	-0,029	-0,098
-214,782	-105,840	0,113	-0,018
-213,767	-200,000	0,006	0,075
-212,752	122,270	0,047	0,042
-211,738	-23,724	0,075	0,032
-210,723	35,491	-0,063	-0,039
-209,709	8,335	0,077	-0,041
-208,694	800,000	-0,036	-0,101
-207,679	800,000	0,051	0,103
-206,665	-69,671	0,091	0,025
-205,650	43,495	0,057	-0,037
-204,636	552,012	-0,045	-0,077
-203,621	29,315	-0,072	-0,043
-202,606	800,000	-0,034	-0,086
-201,592	-200,000	-0,037	0,165
-200,577	-30,469	-0,068	-0,027
-199,563	-200,000	0,025	0,174
-198,548	-52,029	0,017	-0,005
-197,533	224,024	0,053	0,061
-196,519	800,000	0,048	0,096
-195,504	-85,506	-0,139	0,031
-194,490	22,106	-0,117	-0,068
-193,475	-103,367	0,051	0,008
-192,460	-168,969	0,125	0,003
-191,446	-107,996	0,057	0,009
-190,431	18,436	0,197	0,112
-189,417	-176,668	-0,052	-0,001
-188,402	800,000	0,017	-0,036
-187,387	-71,018	-0,158	-0,042
-186,373	-200,000	0,012	-0,096
-185,358	-109,641	0,113	0,017
-184,344	800,000	0,059	0,134
-183,329	-200,000	0,013	-0,069
-182,315	-7,896	0,029	0,014
-181,300	-41,906	-0,115	0,042
-180,285	424,992	0,025	0,039
-179,271	-115,608	0,080	0,011
-178,256	309,808	0,101	0,135
-177,242	800,000	0,072	0,154
-176,227	-98,334	0,078	-0,014
-175,212	-200,000	-0,007	0,177
-174,198	800,000	0,033	0,073
-173,183	-200,000	-0,020	-0,079
-172,169	-200,000	0,001	-0,026
-171,154	-109,437	0,103	-0,015
-170,139	396,184	0,049	0,074
-169,125	-200,000	-0,008	0,033
-168,110	800,000	-0,047	-0,116
-167,096	-74,249	-0,027	-0,007
-166,081	-162,499	-0,156	-0,005
-165,066	-58,986	0,115	-0,035
-164,052	-74,811	-0,049	-0,013
-163,037	14,615	-0,099	0,055
-162,023	-200,000	-0,002	0,113
-161,008	-120,740	0,061	-0,007
-159,993	39,292	0,164	0,104
-158,979	-109,937	-0,201	-0,030
-157,964	49,618	0,044	0,029
-156,950	207,758	0,083	0,093
-155,935	-200,000	-0,013	0,042
-154,920	573,608	-0,012	-0,021
-153,906	5,002	-0,086	0,045
-152,891	-200,000	-0,007	-0,055
-151,877	-200,000	0,001	-0,080
-150,862	50,358	0,072	0,048
-149,847	408,721	-0,049	0,075
-148,833	-200,000	-0,019	-0,145
-147,818	-200,000	0,005	0,036
-146,804	-72,962	0,168	-0,044
-145,789	299,963	0,057	0,076
-144,775	-75,449	-0,099	0,025
-143,760	88,519	-0,081	-0,064
-142,745	107,294	0,058	-0,049
-141,731	-68,503	0,159	-0,044
-140,716	72,354	0,122	0,091
-139,702	-200,000	0,004	0,031
-138,687	572,013	0,053	0,092
-137,672	-33,697	-0,038	0,015
-136,658	-200,000	-0,045	-0,166
-135,643	-200,000	-0,045	-0,157
-134,629	-200,000	-0,007	-0,094
-133,614	800,000	0,056	0,145
-132,599	115,705	0,031	-0,027
-131,585	-127,854	0,067	0,007
-130,570	800,000	0,026	-0,063
-129,556	7,466	-0,128	0,068
-128,541	-200,000	-0,006	-0,130
-127,526	800,000	-0,016	-0,051
-126,512	-32,983	-0,047	0,019
-125,497	301,920	0,100	-0,132
-124,483	118,422	-0,101	0,088
-123,468	-0,618	0,025	-0,013
-122,453	73,632	0,109	0,081
-121,439	-200,000	-0,023	-0,143
-120,424	-200,000	0,018	-0,122
-119,410	-200,000	-0,008	0,108
