DTS Sentinel unit serial number:	SN410029Multiplexer serial number:	ORYXHardware model number:	OX2-SRSoftware version number:	ORYX F/W v4,00 Oryx Data Collector v3.7.2.0data status	okinstallation	BH3 CH2differential loss correction	single-endedforward channel	channel 2reverse channel	N/Adate	2023/12/05time	14:37:28forward acquisition time	300,00reverse acquisition time	0,00gamma	499,1914k internal	0,3194k external	0,3194temperature offset calibration	1,0000default loss term (dB/km)	0,3820temperature slope calibration	1,0000multiplexer offset coefficient	1,0000multiplexer slope coefficient	1,0000fibre end	0,00T internal ref (°C)	10,87T ext. ref 1 (°C)	-3,34T ext. ref 2 (°C)	-3,44length (m)	temperature (°C)	Stokes	anti-Stokes-744,400	142,303	-0,074	-0,072
-743,385	-46,635	-0,173	0,061
-742,371	800,000	-0,022	-0,059
-741,356	-42,640	-0,295	0,109
-740,342	-200,000	-0,021	-0,080
-739,327	38,434	-0,227	0,147
-738,312	-51,300	-0,246	-0,083
-737,298	11,399	-0,193	0,108
-736,283	-200,000	-0,002	-0,074
-735,269	17,760	-0,169	0,098
-734,254	56,035	0,097	-0,068
-733,239	-135,115	-0,335	0,029
-732,225	-200,000	0,026	0,000
-731,210	179,230	0,035	0,037
-730,196	-200,000	-0,020	-0,219
-729,181	800,000	0,026	-0,077
-728,167	-79,222	-0,028	-0,007
-727,152	800,000	0,052	-0,123
-726,137	-165,768	-0,092	-0,003
-725,123	800,000	0,045	-0,113
-724,108	-72,798	-0,198	-0,053
-723,094	-200,000	-0,005	-0,123
-722,079	-200,000	-0,002	-0,080
-721,064	-200,000	0,005	-0,086
-720,050	-17,653	0,187	-0,085
-719,035	52,232	-0,117	0,081
-718,021	-200,000	-0,015	0,097
-717,006	800,000	-0,052	-0,122
-715,991	52,329	-0,097	-0,067
-714,977	-200,000	-0,012	-0,078
-713,962	117,520	-0,090	-0,081
-712,948	800,000	0,015	0,033
-711,933	63,817	0,069	-0,050
-710,918	-85,749	-0,031	0,007
-709,904	-200,000	0,007	-0,071
-708,889	450,071	-0,077	-0,125
-707,875	-37,075	0,116	-0,045
-706,860	800,000	0,023	-0,049
-705,845	555,449	0,079	-0,139
-704,831	-126,845	-0,083	-0,009
-703,816	-200,000	0,015	0,090
-702,802	-200,000	-0,092	0,000
-701,787	-140,359	-0,160	0,012
-700,772	-200,000	0,010	-0,075
-699,758	800,000	0,012	-0,025
-698,743	145,856	-0,034	0,034
-697,729	3,378	0,116	-0,061
-696,714	375,507	-0,053	-0,079
-695,699	-60,298	-0,149	0,046
-694,685	412,146	-0,053	-0,082
-693,670	-200,000	-0,018	-0,066
-692,656	-200,000	0,008	-0,042
-691,641	-140,427	0,037	-0,003
-690,627	-200,000	-0,017	0,060
-689,612	181,689	0,032	0,034
-688,597	91,378	-0,049	-0,040
-687,583	-47,589	-0,128	-0,045
-686,568	800,000	-0,063	-0,128
-685,554	650,983	-0,055	-0,102
-684,539	800,000	-0,040	0,098
-683,524	800,000	-0,044	0,112
-682,510	178,527	0,040	-0,043
-681,495	-135,961	0,106	0,009
-680,481	800,000	0,058	-0,127
-679,466	159,192	-0,136	-0,138
-678,451	-82,809	0,021	-0,005
-677,437	-172,004	0,097	0,002
-676,422	-63,816	-0,073	0,022
-675,408	-200,000	0,004	-0,026
-674,393	607,897	-0,026	-0,048
-673,378	-105,822	-0,026	0,004
-672,364	22,950	-0,088	-0,052
-671,349	97,812	-0,095	-0,080
-670,335	-25,361	-0,015	-0,007
-669,320	-200,000	0,005	-0,071
-668,305	300,470	0,096	0,130
-667,291	-110,226	-0,074	-0,011
-666,276	497,143	-0,089	-0,149
-665,262	-200,000	0,027	-0,092
-664,247	108,961	-0,077	-0,067
-663,232	-34,647	-0,120	-0,047
-662,218	-156,365	0,148	-0,007
-661,203	-200,000	-0,005	-0,078
-660,189	-200,000	0,019	-0,064
-659,174	-167,106	-0,118	0,003
-658,159	-198,701	-0,192	0,001
-657,145	-137,963	0,121	-0,010
-656,130	800,000	0,048	0,110
-655,116	-200,000	0,015	0,106
-654,101	11,942	-0,055	0,031
-653,086	-34,971	-0,097	0,038
-652,072	-134,270	0,039	-0,003
-651,057	-200,000	0,008	-0,047
-650,043	393,358	-0,057	-0,086
-649,028	-112,923	-0,086	0,012
-648,014	-200,000	-0,016	0,115
-646,999	800,000	0,032	0,065
-645,984	-200,000	0,019	0,076
-644,970	800,000	0,013	0,033
-643,955	70,535	-0,048	-0,036
-642,941	70,205	-0,051	-0,038
-641,926	48,951	-0,098	0,066
-640,911	124,565	0,118	0,108
-639,897	-200,000	-0,005	0,123
-638,882	-6,030	0,082	-0,041
-637,868	800,000	-0,020	-0,043
-636,853	520,220	0,013	0,023
-635,838	207,552	0,044	-0,050
-634,824	800,000	-0,041	-0,115
-633,809	0,300	0,107	0,055
-632,795	-13,601	-0,029	0,013
-631,780	-145,213	0,048	0,003
-630,765	-200,000	0,009	-0,101
-629,751	-96,686	-0,088	0,017
-628,736	456,213	-0,114	-0,184
-627,722	-200,000	-0,035	-0,169
-626,707	800,000	-0,052	-0,112
-625,692	-102,704	0,110	0,019
-624,678	-200,000	-0,022	-0,102
-623,663	290,293	-0,088	-0,116
-622,649	800,000	-0,088	-0,185
-621,634	-112,087	-0,122	0,018
-620,619	-2,244	-0,054	-0,027
-619,605	-45,641	0,044	-0,016
-618,590	356,213	-0,039	-0,057
-617,576	30,264	-0,071	-0,044
-616,561	59,967	-0,163	-0,117
-615,546	232,018	-0,063	0,075
-614,532	247,975	-0,043	-0,053
-613,517	251,309	0,081	-0,100
-612,503	-133,422	0,111	0,010
-611,488	800,000	0,026	0,061
-610,474	800,000	-0,031	0,089
-609,459	800,000	-0,024	0,072
-608,444	90,471	-0,142	0,115
-607,430	336,722	0,028	-0,040
-606,415	444,071	-0,037	-0,060
-605,401	-200,000	-0,001	-0,065
-604,386	-91,752	0,045	-0,009
-603,371	796,142	0,078	0,156
-602,357	800,000	0,023	0,050
-601,342	89,284	-0,098	-0,079
-600,328	-75,357	-0,140	-0,036
-599,313	-88,394	-0,089	-0,019
-598,298	-163,960	-0,180	-0,006
-597,284	476,979	0,136	0,223
-596,269	500,137	-0,018	-0,029
-595,255	372,138	0,021	0,032
-594,240	51,278	-0,081	0,056
-593,225	222,642	0,035	0,041
-592,211	-200,000	-0,016	0,059
-591,196	84,021	0,012	0,009
-590,182	800,000	-0,056	0,148
-589,167	-132,426	-0,141	-0,013
-588,152	151,694	0,067	-0,066
-587,138	10,388	-0,098	-0,054
-586,123	800,000	0,047	-0,134
-585,109	-138,918	-0,131	-0,010
-584,094	-62,166	-0,063	-0,019
-583,079	308,003	0,062	0,084
-582,065	-200,000	-0,036	0,124
-581,050	-200,000	-0,001	0,128
-580,036	267,763	-0,060	0,076
-579,021	429,121	0,024	-0,038
-578,006	73,788	-0,064	-0,049
-576,992	50,773	0,064	-0,044
-575,977	-200,000	-0,022	-0,072
-574,963	497,142	-0,014	-0,023
-573,948	118,295	-0,047	0,042
-572,934	-55,406	-0,023	0,007
-571,919	-200,000	-0,029	-0,151
-570,904	-57,735	-0,037	0,012
-569,890	114,174	-0,070	0,062
-568,875	-200,000	-0,015	-0,087
-567,861	-17,565	-0,025	-0,011
-566,846	86,178	-0,036	0,029
-565,831	800,000	-0,066	-0,196
-564,817	62,233	0,018	0,013
-563,802	-103,126	0,115	-0,020
-562,788	-200,000	0,006	-0,184
-561,773	-20,204	-0,051	-0,023
-560,758	83,367	0,092	-0,073
-559,744	203,344	-0,086	0,096
-558,729	-83,765	-0,070	0,016
-557,715	-151,906	-0,102	-0,005
-556,700	-111,847	-0,160	0,023
-555,685	-67,422	0,114	-0,032
-554,671	59,499	0,101	-0,072
-553,656	800,000	0,030	0,069
-552,642	-109,625	0,128	-0,019
-551,627	516,789	0,021	0,036
-550,612	-200,000	-0,027	0,171
-549,598	-152,980	-0,100	-0,005
-548,583	71,222	-0,056	0,042
-547,569	12,993	0,111	0,062
-546,554	-119,425	-0,121	-0,015
-545,539	108,926	-0,031	0,027
-544,525	11,021	-0,099	0,055
-543,510	204,269	0,055	-0,062
-542,496	486,088	-0,042	0,069
-541,481	18,578	-0,014	-0,008
-540,466	-36,504	-0,096	0,037
-539,452	109,601	-0,082	0,071
-538,437	87,007	0,037	-0,029
-537,423	-84,557	0,113	-0,026
-536,408	183,298	-0,033	-0,036
-535,393	219,542	-0,076	0,088
-534,379	-200,000	0,085	0,000
-533,364	-200,000	0,003	-0,104
-532,350	-67,505	-0,039	-0,011
-531,335	294,211	0,055	0,073
-530,321	284,191	-0,150	0,195
-529,306	800,000	-0,024	-0,062
-528,291	800,000	-0,042	-0,089
-527,277	138,695	-0,115	0,109
-526,262	800,000	0,022	-0,061
-525,248	-200,000	0,018	0,071
-524,233	-65,326	-0,058	-0,017
-523,218	-200,000	0,018	-0,068
-522,204	147,289	-0,019	0,018
-521,189	-200,000	-0,020	-0,124
-520,175	800,000	0,033	0,068
-519,160	-200,000	-0,001	0,216
-518,145	800,000	-0,061	-0,125
-517,131	67,753	-0,029	0,021
-516,116	128,359	-0,018	-0,017
-515,102	179,258	0,100	0,106
-514,087	-60,186	-0,065	-0,020
-513,072	120,317	-0,105	0,095
-512,058	196,277	-0,076	0,084
-511,043	74,954	0,062	0,047
-510,029	-100,299	0,078	-0,014
-509,014	800,000	0,012	-0,035
-507,999	-200,000	0,026	-0,088
-506,985	-200,000	-0,012	-0,109
-505,970	19,180	-0,105	0,060
-504,956	161,723	-0,059	0,059
-503,941	800,000	0,078	-0,209
-502,926	420,313	0,033	0,052
-501,912	800,000	0,044	-0,097
-500,897	-150,168	0,097	0,005
-499,883	-200,000	-0,023	0,085
-498,868	103,583	-0,042	-0,035
-497,853	108,773	0,064	0,055
-496,839	150,813	0,135	-0,133
-495,824	-28,258	-0,039	-0,016
-494,810	7,048	0,072	-0,039
-493,795	159,690	-0,026	0,026
-492,781	200,069	-0,035	0,039
-491,766	-200,000	-0,012	-0,082
-490,751	-200,000	-0,019	-0,075
-489,737	800,000	-0,063	-0,191
-488,722	221,086	-0,068	0,079
-487,708	-54,524	0,180	-0,059
-486,693	-173,955	-0,045	0,001
-485,678	17,753	-0,091	0,052
-484,664	-97,048	-0,171	0,032
-483,649	-200,000	-0,004	0,067
-482,635	718,571	-0,038	-0,074
-481,620	-177,511	-0,075	0,001
-480,605	-42,523	0,206	-0,075
-479,591	-200,000	-0,029	0,100
-478,576	800,000	-0,050	0,107
-477,562	-200,000	0,014	-0,077
-476,547	794,400	-0,055	-0,109
-475,532	121,861	0,032	-0,029
-474,518	100,261	-0,019	-0,016
-473,503	88,481	0,032	-0,025
-472,489	-200,000	-0,003	0,013
-471,474	69,932	-0,088	0,065
-470,459	-75,022	-0,119	-0,030
-469,445	16,189	0,068	-0,039
-468,430	381,374	-0,037	-0,055
-467,416	-51,208	0,134	0,045
-466,401	-73,479	0,114	0,030
-465,386	-80,185	-0,165	-0,039
-464,372	-7,315	-0,082	0,040
-463,357	114,901	-0,034	-0,030
-462,343	-7,936	0,019	0,009
-461,328	-200,000	-0,003	0,031
-460,313	205,415	0,021	-0,023
-459,299	800,000	0,026	0,070
-458,284	-147,088	-0,024	-0,001
-457,270	-200,000	0,038	0,157
-456,255	454,469	-0,035	-0,056
-455,241	-200,000	0,014	-0,116
-454,226	-176,289	-0,119	-0,002
-453,211	-52,990	-0,084	0,028
-452,197	-79,505	0,097	0,023
-451,182	-120,260	-0,185	-0,022
-450,168	258,166	0,077	-0,096
-449,153	-77,785	0,003	-0,001
-448,138	800,000	-0,051	-0,110
-447,124	176,724	-0,027	0,029
-446,109	-200,000	0,011	0,063
-445,095	709,097	0,009	-0,016
-444,080	-200,000	-0,003	-0,028
-443,065	-84,535	0,142	0,032
-442,051	370,002	-0,058	-0,086
-441,036	-109,474	0,116	-0,017
-440,022	800,000	-0,076	-0,175
-439,007	-200,000	0,000	0,123
-437,992	-200,000	-0,030	0,094
-436,978	-131,439	-0,056	0,005
-435,963	-200,000	0,043	0,140
-434,949	93,198	-0,116	0,094
-433,934	560,968	-0,034	-0,059
-432,919	-200,000	0,000	0,115
-431,905	800,000	-0,033	-0,104
-430,890	56,831	-0,113	0,079
-429,876	-155,715	0,108	-0,005
-428,861	7,558	-0,098	-0,053
-427,846	81,132	0,057	0,044
-426,832	224,379	-0,083	-0,097
-425,817	53,379	0,098	-0,068
-424,803	340,181	0,034	0,049
-423,788	8,691	0,095	-0,051
-422,773	-89,295	0,060	-0,013
-421,759	164,454	0,007	0,007
-420,744	-200,000	0,001	0,019
-419,730	14,466	0,063	-0,036
-418,715	71,953	-0,068	0,051
-417,701	-200,000	-0,007	-0,067
-416,686	159,448	0,076	-0,076
-415,671	-180,028	-0,103	-0,002
-414,657	800,000	0,049	0,098
-413,642	-200,000	0,006	0,119
-412,628	800,000	-0,007	-0,020
-411,613	356,146	0,032	-0,045
-410,598	138,628	0,113	-0,107
-409,584	177,257	0,042	0,044
-408,569	231,592	0,018	-0,021
-407,555	-200,000	-0,015	0,122
-406,540	-76,513	-0,048	-0,012
-405,525	-5,773	-0,029	0,014
-404,511	541,186	-0,016	-0,027
-403,496	498,501	-0,057	-0,095
-402,482	800,000	0,059	-0,151
-401,467	77,208	-0,060	0,046
-400,452	800,000	0,040	0,098
-399,438	-52,474	-0,073	-0,024
-398,423	-174,380	-0,080	0,002
-397,409	169,875	0,041	0,042
-396,394	158,275	0,030	0,030
-395,379	48,093	-0,065	-0,044
-394,365	-38,061	-0,049	-0,019
-393,350	-200,000	0,040	0,161
-392,336	174,297	-0,060	0,062
-391,321	-82,174	0,088	0,020
-390,306	116,233	-0,060	-0,053
-389,292	-111,559	-0,096	0,014
-388,277	-200,000	0,003	-0,014
-387,263	-181,540	-0,058	-0,001
-386,248	-11,836	-0,071	0,033
-385,233	-200,000	-0,019	0,084
-384,219	-52,610	0,168	-0,055
-383,204	725,331	-0,052	-0,100
-382,190	513,323	0,027	-0,046
-381,175	192,235	-0,063	-0,068
-380,160	103,728	-0,056	0,048
-379,146	-200,000	0,018	0,071
-378,131	137,673	0,106	0,100
-377,117	144,869	-0,081	-0,078
-376,102	-200,000	-0,003	-0,073
-375,088	111,445	0,028	-0,024
-374,073	798,511	-0,013	-0,027
-373,058	800,000	0,008	-0,015
-372,044	-200,000	0,022	-0,099
-371,029	-200,000	0,035	-0,129
-370,015	-100,447	-0,078	-0,014
-369,000	-200,000	0,016	-0,104
-367,985	-200,000	0,018	-0,185
-366,971	-188,675	-0,129	-0,001
-365,956	-86,540	0,109	-0,024
-364,942	7,867	-0,053	-0,029
-363,927	800,000	0,044	0,096
-362,912	78,570	0,143	0,110
-361,898	-200,000	0,019	0,069
-360,883	-200,000	0,017	-0,085
-359,869	71,217	0,065	-0,048
-358,854	-195,600	-0,049	-0,000
-357,839	-200,000	-0,019	0,136
-356,825	80,216	-0,041	0,031
-355,810	-200,000	0,014	0,053
-354,796	-200,000	-0,012	-0,092
-353,781	210,465	-0,055	-0,062
-352,766	483,054	0,035	0,057
-351,752	-9,266	0,100	0,048
-350,737	134,619	0,146	0,136
-349,723	97,788	-0,084	0,069
-348,708	7,899	0,091	0,049
-347,693	228,459	0,078	-0,091
-346,679	800,000	-0,040	-0,125
-345,664	223,367	-0,065	-0,076
-344,650	-56,882	0,106	-0,034
-343,635	-109,997	0,050	-0,007
-342,620	-200,000	-0,022	0,088
-341,606	30,792	0,034	-0,021
-340,591	800,000	0,006	-0,013
-339,577	-81,004	-0,041	0,010
-338,562	30,104	-0,069	0,042
-337,548	-17,122	-0,067	0,030
-336,533	30,352	-0,020	0,012
-335,518	32,923	0,124	0,077
-334,504	-107,749	-0,179	-0,028
-333,489	-200,000	-0,004	-0,013
-332,475	-200,000	-0,004	-0,080
-331,460	800,000	0,020	0,048
-330,445	800,000	0,022	0,061
-329,431	506,796	0,008	0,014
-328,416	342,145	0,106	0,149
-327,402	-168,350	0,148	0,004
-326,387	-81,831	-0,070	-0,016
-325,372	-116,008	-0,074	0,010
-324,358	-200,000	0,059	-0,252
-323,343	800,000	0,028	0,071
-322,329	-200,000	-0,013	0,114
-321,314	-200,000	0,040	0,146
-320,299	121,512	0,081	0,073
-319,285	-36,829	0,076	0,029
-318,270	-140,663	-0,093	0,007
-317,256	-200,000	0,032	-0,102
-316,241	800,000	-0,024	-0,075
-315,226	48,921	-0,130	0,087
-314,212	800,000	0,026	0,066
-313,197	398,340	0,018	0,027
-312,183	107,214	-0,052	0,044
-311,168	-200,000	-0,008	-0,149
-310,153	274,797	-0,058	0,074
-309,139	336,677	0,065	-0,091
-308,124	10,335	0,024	0,013
-307,110	274,514	-0,038	-0,048
-306,095	204,644	0,130	0,145
-305,080	-200,000	0,012	0,049
-304,066	-200,000	-0,024	-0,090
-303,051	120,412	0,161	-0,144
-302,037	355,374	-0,082	0,117
-301,022	9,715	0,003	-0,002
-300,008	31,735	0,071	0,044
-298,993	-200,000	-0,000	-0,023
-297,978	519,104	-0,090	0,152
-296,964	273,680	0,033	-0,042
-295,949	590,569	0,044	-0,078
-294,935	456,778	0,052	-0,082
-293,920	25,562	0,043	-0,026
-292,905	-43,472	0,146	-0,053
-291,891	568,638	-0,048	0,084
-290,876	252,624	0,092	0,112
-289,862	800,000	-0,024	-0,068
-288,847	727,739	-0,029	-0,055
-287,832	-200,000	-0,018	-0,069
-286,818	168,936	-0,056	-0,057
-285,803	-37,016	0,142	0,054
-284,789	206,490	0,126	0,140
-283,774	-105,288	0,257	-0,042
-282,759	-200,000	-0,001	-0,015
-281,745	49,680	-0,099	0,066
-280,730	800,000	-0,029	-0,093
-279,716	800,000	-0,017	-0,042
-278,701	800,000	0,059	0,140
-277,686	800,000	0,098	0,239
-276,672	-200,000	0,015	0,145
-275,657	800,000	-0,014	-0,035
-274,643	272,350	-0,096	-0,121
-273,628	-165,536	-0,036	-0,001
-272,613	-80,506	-0,036	-0,008
-271,599	144,727	-0,052	0,049
-270,584	-200,000	-0,013	0,121
-269,570	475,224	0,072	0,116
-268,555	83,066	-0,035	0,027
-267,540	-36,437	0,144	-0,055
-266,526	643,010	-0,044	-0,080
-265,511	800,000	-0,063	-0,139
-264,497	-128,231	-0,023	-0,002
-263,482	-0,522	0,086	-0,044
-262,467	457,217	0,108	-0,172
-261,453	800,000	0,025	-0,059
-260,438	-200,000	-0,005	0,082
-259,424	327,502	-0,010	-0,014
-258,409	48,177	0,061	-0,041
-257,395	543,995	0,036	-0,062
-256,380	-47,294	0,068	0,023
-255,365	363,131	0,148	0,213
-254,351	-200,000	-0,011	0,055
-253,336	800,000	-0,045	0,137
-252,322	646,907	0,040	-0,073
-251,307	84,172	0,114	-0,089
-250,292	-0,051	0,047	0,024
-249,278	-15,391	0,085	-0,038
-248,263	102,506	0,011	0,010
-247,249	-200,000	0,006	0,127
-246,234	295,787	-0,070	-0,092
-245,219	-93,240	-0,082	0,016
-244,205	379,632	-0,017	-0,025
-243,190	-6,941	0,145	-0,070
-242,176	-200,000	0,017	-0,104
-241,161	-200,000	0,005	0,061
-240,146	-14,757	0,046	0,021
-239,132	-73,270	-0,124	0,032
-238,117	-200,000	-0,030	-0,143
-237,103	-200,000	0,042	-0,163
-236,088	-200,000	-0,005	-0,071
-235,073	-116,774	-0,068	-0,009
-234,059	-104,579	0,115	0,019
-233,044	-200,000	-0,003	-0,101
-232,030	-200,000	0,001	0,129
-231,015	-141,522	0,060	-0,004
-230,000	400,691	-0,046	-0,069
-228,986	77,408	-0,145	0,110
-227,971	17,929	0,058	0,033
-226,957	-23,538	0,013	0,005
-225,942	-200,000	-0,002	-0,005
-224,927	-34,681	0,066	0,026
-223,913	217,516	0,026	-0,029
-222,898	263,940	0,123	-0,153
-221,884	-200,000	-0,010	-0,039
-220,869	18,238	-0,054	-0,031
-219,855	-8,251	-0,025	0,012
-218,840	69,448	0,072	0,053
-217,825	315,549	-0,024	0,033
-216,811	-160,314	0,048	0,002
-215,796	800,000	-0,029	-0,078
-214,782	-200,000	-0,014	-0,127
-213,767	-120,979	-0,071	0,008
-212,752	-61,423	0,053	-0,016
-211,738	-87,315	0,049	0,010
-210,723	58,371	0,069	0,048
-209,709	272,744	-0,103	-0,130
-208,694	38,297	0,105	-0,067
-207,679	800,000	0,015	-0,040
-206,665	-98,480	0,053	-0,010
-205,650	-71,704	0,111	0,029
-204,636	800,000	0,079	0,196
-203,621	-48,135	-0,039	0,013
-202,606	33,162	-0,066	-0,041
-201,592	-200,000	-0,024	-0,080
-200,577	55,798	0,050	0,035
-199,563	65,225	0,141	0,102
-198,548	519,992	0,013	0,021
-197,533	316,311	0,064	0,086
-196,519	-200,000	0,022	0,173
-195,504	40,954	0,044	-0,028
-194,490	-89,730	-0,028	-0,006
-193,475	-200,000	0,001	-0,028
-192,460	13,862	-0,091	0,051
-191,446	-158,939	0,090	-0,004
-190,431	-200,000	0,014	0,062
-189,417	298,119	0,011	0,015
-188,402	76,547	-0,069	-0,052
-187,387	-91,249	-0,133	0,027
-186,373	23,889	0,164	0,096
-185,358	179,223	-0,069	0,072
-184,344	219,960	0,032	0,037
-183,329	-200,000	0,015	-0,052
-182,315	102,387	0,126	0,105
-181,300	-200,000	0,020	-0,121
-180,285	106,459	0,030	-0,026
-179,271	-7,987	0,040	-0,019
-178,256	334,767	-0,064	0,089
-177,242	656,801	-0,012	0,021
-176,227	304,519	0,107	0,142
-175,212	-200,000	0,013	0,109
-174,198	800,000	0,061	-0,122
-173,183	-62,427	0,091	0,027
-172,169	581,660	0,046	-0,081
-171,154	-200,000	0,023	0,138
-170,139	293,562	-0,061	0,079
-169,125	35,758	0,083	-0,052
-168,110	60,864	0,082	-0,058
-167,096	-72,373	-0,157	0,041
-166,081	-131,240	-0,057	0,005
-165,066	-83,520	0,022	-0,005
-164,052	100,139	0,062	-0,052
-163,037	-91,971	-0,066	0,013
-162,023	46,923	-0,073	-0,048
-161,008	-200,000	0,004	0,200
-159,993	-106,523	0,158	0,025
-158,979	665,262	-0,039	0,071
-157,964	-47,927	-0,051	-0,018
-156,950	-200,000	0,014	-0,169
-155,935	-36,404	0,014	0,005
-154,920	211,643	0,041	0,046
-153,906	-73,414	0,129	0,033
-152,891	800,000	0,013	-0,029
-151,877	-200,000	0,010	-0,101
-150,862	-200,000	-0,001	-0,064
-149,847	44,114	-0,031	-0,020
-148,833	-200,000	-0,001	0,040
-147,818	20,179	0,023	0,013
-146,804	800,000	-0,057	0,135
-145,789	-200,000	-0,016	-0,058
-144,775	-4,884	0,061	-0,030
-143,760	-200,000	-0,017	-0,058
-142,745	800,000	0,017	0,046
-141,731	-200,000	0,004	-0,214
-140,716	91,582	-0,029	-0,024
-139,702	-108,010	0,052	0,008
-138,687	800,000	-0,034	0,080
-137,672	91,203	0,139	0,111
-136,658	-28,868	0,018	0,007
-135,643	-200,000	0,038	-0,145
-134,629	-200,000	0,020	-0,170
-133,614	11,244	0,103	-0,056
-132,599	762,430	0,025	0,049
-131,585	29,854	-0,110	0,066
-130,570	-50,990	-0,047	-0,016
-129,556	-200,000	0,018	-0,077
-128,541	-200,000	-0,005	-0,021
-127,526	571,940	-0,014	0,025
-126,512	41,614	-0,071	0,046
-125,497	93,266	0,113	0,091
-124,483	24,328	0,112	0,066
-123,468	-158,187	-0,065	0,003
-122,453	-200,000	0,020	-0,076
-121,439	-47,378	0,106	-0,037
-120,424	-82,764	-0,105	0,024
