DTS Sentinel unit serial number:	SN410029Multiplexer serial number:	ORYXHardware model number:	OX2-SRSoftware version number:	ORYX F/W v4,00 Oryx Data Collector v3.7.2.0data status	okinstallation	BH3 CH2differential loss correction	single-endedforward channel	channel 2reverse channel	N/Adate	2023/12/06time	02:12:28forward acquisition time	300,00reverse acquisition time	0,00gamma	499,1914k internal	0,3197k external	0,3197temperature offset calibration	1,0000default loss term (dB/km)	0,3820temperature slope calibration	1,0000multiplexer offset coefficient	1,0000multiplexer slope coefficient	1,0000fibre end	0,00T internal ref (°C)	9,06T ext. ref 1 (°C)	-5,80T ext. ref 2 (°C)	-5,88length (m)	temperature (°C)	Stokes	anti-Stokes-744,400	-200,000	-0,002	-0,116
-743,385	-129,578	-0,175	-0,017
-742,371	16,521	0,116	-0,067
-741,356	189,785	-0,198	0,217
-740,342	-200,000	-0,030	-0,254
-739,327	-141,990	-0,202	0,014
-738,312	-200,000	0,048	-0,194
-737,298	98,222	-0,148	0,124
-736,283	-95,125	-0,066	-0,013
-735,269	29,376	-0,201	0,124
-734,254	235,429	-0,087	-0,104
-733,239	-128,791	-0,323	-0,033
-732,225	250,856	0,027	0,033
-731,210	172,264	0,040	0,042
-730,196	452,078	-0,021	0,034
-729,181	-200,000	-0,001	-0,111
-728,167	171,834	0,018	-0,019
-727,152	392,430	0,069	0,105
-726,137	-113,049	-0,123	0,017
-725,123	129,859	-0,076	-0,071
-724,108	-54,299	-0,072	-0,024
-723,094	13,127	-0,109	0,061
-722,079	-84,600	0,058	-0,013
-721,064	-133,475	-0,070	0,006
-720,050	800,000	0,027	-0,067
-719,035	-200,000	0,002	-0,142
-718,021	24,862	-0,133	-0,080
-717,006	-102,559	0,076	-0,013
-715,991	-200,000	0,018	-0,074
-714,977	129,067	-0,137	-0,127
-713,962	-200,000	-0,022	0,110
-712,948	36,610	-0,077	-0,050
-711,933	-67,952	0,109	0,031
-710,918	382,741	-0,022	-0,033
-709,904	-73,869	-0,118	0,031
-708,889	-200,000	-0,017	-0,093
-707,875	-200,000	-0,020	-0,065
-706,860	-24,023	0,115	-0,050
-705,845	-124,367	0,104	-0,012
-704,831	199,538	0,103	0,115
-703,816	-18,617	-0,084	0,038
-702,802	-200,000	-0,032	-0,133
-701,787	-200,000	-0,006	-0,028
-700,772	-200,000	0,003	0,111
-699,758	596,399	-0,025	-0,045
-698,743	-200,000	0,008	0,041
-697,729	-107,737	-0,048	-0,007
-696,714	67,762	-0,083	-0,061
-695,699	-42,758	0,052	0,019
-694,685	-91,207	0,076	0,016
-693,670	-200,000	0,004	-0,123
-692,656	-136,149	0,095	0,008
-691,641	52,145	0,090	0,062
-690,627	-200,000	0,014	0,138
-689,612	-11,448	0,047	-0,023
-688,597	244,454	-0,056	0,068
-687,583	800,000	-0,008	-0,023
-686,568	-32,345	-0,112	-0,045
-685,554	-79,239	-0,062	-0,015
-684,539	416,988	-0,048	-0,075
-683,524	-100,045	0,055	-0,010
-682,510	800,000	-0,045	0,123
-681,495	-161,658	-0,144	0,005
-680,481	-200,000	0,031	0,133
-679,466	-87,259	-0,068	-0,015
-678,451	-200,000	-0,020	0,081
-677,437	-106,098	0,153	0,025
-676,422	120,932	0,026	0,023
-675,408	9,345	-0,118	-0,065
-674,393	-105,769	-0,040	-0,007
-673,378	24,305	-0,098	-0,059
-672,364	800,000	-0,085	-0,226
-671,349	-200,000	0,022	0,201
-670,335	41,670	0,104	0,069
-669,320	-87,829	0,046	-0,010
-668,305	388,548	0,069	0,103
-667,291	-86,840	-0,067	0,015
-666,276	-200,000	-0,020	-0,103
-665,262	121,917	-0,033	0,030
-664,247	-200,000	-0,020	-0,134
-663,232	-141,706	-0,237	0,017
-662,218	41,755	0,091	0,060
-661,203	333,046	-0,059	0,083
-660,189	-200,000	0,001	0,049
-659,174	52,960	-0,112	-0,078
-658,159	-44,391	-0,081	0,029
-657,145	38,052	-0,055	0,035
-656,130	-137,217	0,089	-0,007
-655,116	-200,000	-0,039	0,182
-654,101	-82,122	0,096	0,023
-653,086	800,000	-0,011	-0,024
-652,072	-200,000	-0,015	0,120
-651,057	800,000	-0,022	-0,054
-650,043	-200,000	-0,026	-0,214
-649,028	8,996	-0,126	0,069
-648,014	26,043	0,116	0,070
-646,999	800,000	-0,029	0,065
-645,984	-2,957	0,113	-0,057
-644,970	51,467	-0,078	-0,054
-643,955	800,000	0,060	-0,121
-642,941	-41,340	0,179	-0,067
-641,926	800,000	-0,032	-0,066
-640,911	-200,000	-0,012	0,097
-639,897	6,427	-0,052	0,028
-638,882	-83,027	-0,106	-0,025
-637,868	-163,652	0,092	-0,003
-636,853	-154,712	-0,154	-0,007
-635,838	-27,541	-0,154	-0,065
-634,824	11,350	0,051	0,028
-633,809	162,931	0,038	-0,039
-632,795	800,000	-0,049	0,147
-631,780	200,129	0,026	0,029
-630,765	-69,226	0,096	0,027
-629,751	-200,000	-0,004	-0,024
-628,736	76,803	-0,197	-0,151
-627,722	600,616	-0,021	-0,039
-626,707	386,672	-0,074	-0,111
-625,692	-74,570	-0,171	0,044
-624,678	-137,617	0,124	-0,010
-623,663	-200,000	-0,005	0,044
-622,649	-113,816	-0,208	-0,029
-621,634	-55,489	-0,069	0,022
-620,619	-112,721	-0,103	0,015
-619,605	-67,521	0,106	-0,030
-618,590	-200,000	-0,007	-0,024
-617,576	-200,000	0,011	0,127
-616,561	-40,639	-0,076	-0,028
-615,546	559,929	-0,044	-0,077
-614,532	391,005	0,067	-0,100
-613,517	-148,600	-0,109	-0,006
-612,503	74,636	0,048	0,036
-611,488	-200,000	0,009	0,114
-610,474	-200,000	-0,018	0,062
-609,459	-46,178	-0,110	0,039
-608,444	-143,872	-0,243	-0,016
-607,430	800,000	-0,034	-0,088
-606,415	400,380	0,038	-0,057
-605,401	-200,000	-0,001	-0,023
-604,386	6,543	-0,029	0,016
-603,371	-200,000	-0,017	0,083
-602,357	-145,922	-0,100	-0,006
-601,342	-116,327	-0,132	-0,017
-600,328	73,811	-0,119	-0,091
-599,313	-200,000	0,018	-0,156
-598,298	-200,000	-0,010	-0,100
-597,284	800,000	0,034	-0,077
-596,269	-3,526	0,067	0,034
-595,255	-200,000	0,008	0,095
-594,240	140,440	-0,086	0,082
-593,225	237,461	-0,098	-0,117
-592,211	800,000	-0,048	-0,152
-591,196	50,972	0,074	0,051
-590,182	118,217	-0,083	0,074
-589,167	128,631	0,098	0,090
-588,152	54,862	0,094	0,066
-587,138	-55,378	0,059	0,019
-586,123	-200,000	-0,017	-0,286
-585,109	-59,452	-0,086	-0,027
-584,094	-111,253	0,010	0,001
-583,079	-27,519	0,064	-0,027
-582,065	-20,123	0,059	0,026
-581,050	389,186	0,056	0,085
-580,036	59,565	-0,045	0,032
-579,021	445,805	-0,063	-0,100
-578,006	-87,930	-0,079	-0,017
-576,992	363,592	-0,055	0,080
-575,977	800,000	-0,049	0,143
-574,963	469,297	0,056	0,092
-573,948	-27,340	-0,079	0,033
-572,934	-59,725	0,044	-0,014
-571,919	480,804	-0,083	-0,136
-570,904	40,433	-0,011	0,007
-569,890	119,888	-0,026	-0,023
-568,875	-200,000	-0,001	0,037
-567,861	76,083	0,072	0,055
-566,846	-200,000	0,021	0,078
-565,831	497,829	-0,037	-0,061
-564,817	65,466	-0,118	-0,087
-563,802	-200,000	-0,002	-0,070
-562,788	29,570	-0,093	-0,057
-561,773	474,969	0,027	0,045
-560,758	-200,000	0,009	-0,071
-559,744	30,539	0,166	-0,102
-558,729	-200,000	-0,008	0,045
-557,715	225,787	-0,033	0,039
-556,700	800,000	0,044	-0,126
-555,685	576,801	-0,081	-0,144
-554,671	-36,939	0,069	-0,027
-553,656	-109,983	0,036	0,005
-552,642	800,000	0,015	0,037
-551,627	-22,482	0,013	-0,006
-550,612	-200,000	0,002	-0,035
-549,598	155,680	0,066	-0,065
-548,583	109,307	-0,125	0,108
-547,569	698,329	0,061	0,117
-546,554	237,498	0,059	0,070
-545,539	8,875	0,202	0,110
-544,525	163,133	-0,048	0,049
-543,510	172,398	0,074	0,077
-542,496	-200,000	0,009	-0,043
-541,481	104,000	-0,116	-0,098
-540,466	800,000	0,041	0,089
-539,452	114,743	0,055	-0,049
-538,437	-151,966	0,111	-0,006
-537,423	54,691	-0,063	0,044
-536,408	-94,995	-0,110	-0,021
-535,393	157,972	0,097	-0,098
-534,379	800,000	0,072	-0,173
-533,364	93,436	0,193	0,158
-532,350	7,447	0,081	0,043
-531,335	3,355	-0,084	0,044
-530,321	-136,695	0,045	-0,004
-529,306	-28,483	-0,112	0,046
-528,291	319,838	-0,018	-0,025
-527,277	-52,759	-0,016	-0,005
-526,262	-33,667	0,074	-0,030
-525,248	-200,000	0,026	0,164
-524,233	-115,751	0,137	0,018
-523,218	-1,728	-0,095	0,048
-522,204	-200,000	0,030	-0,112
-521,189	-200,000	0,015	0,079
-520,175	76,865	-0,048	0,037
-519,160	103,209	0,061	-0,052
-518,145	92,748	-0,182	0,148
-517,131	83,271	0,052	0,041
-516,116	541,391	0,053	0,092
-515,102	-34,007	-0,083	-0,033
-514,087	230,052	0,073	0,086
-513,072	-92,708	-0,104	-0,021
-512,058	-200,000	-0,015	0,145
-511,043	-64,954	-0,032	-0,009
-510,029	-200,000	-0,010	0,182
-509,014	56,156	0,156	0,109
-507,999	-200,000	-0,009	-0,051
-506,985	-121,643	-0,135	0,016
-505,970	497,351	0,043	-0,071
-504,956	-124,687	-0,054	0,006
-503,941	800,000	-0,024	0,055
-502,926	-38,927	0,042	0,016
-501,912	238,057	-0,082	0,099
-500,897	800,000	0,017	0,035
-499,883	300,573	-0,052	0,069
-498,868	-159,796	-0,112	0,004
-497,853	31,665	-0,174	-0,108
-496,839	-161,835	0,020	0,001
-495,824	-200,000	0,012	-0,054
-494,810	-200,000	0,009	-0,084
-493,795	187,508	-0,023	0,024
-492,781	-122,635	0,044	-0,005
-491,766	-114,848	-0,049	0,007
-490,751	-200,000	-0,003	-0,123
-489,737	800,000	-0,043	0,106
-488,722	-73,210	0,039	0,010
-487,708	800,000	-0,033	0,087
-486,693	800,000	0,021	-0,063
-485,678	-16,255	-0,149	-0,068
-484,664	152,626	-0,111	-0,110
-483,649	800,000	-0,028	0,081
-482,635	575,774	0,033	-0,059
-481,620	-176,619	0,140	0,003
-480,605	-91,420	-0,055	0,011
-479,591	-67,092	0,116	0,033
-478,576	-167,092	-0,111	0,003
-477,562	509,637	0,036	-0,060
-476,547	67,014	-0,143	-0,105
-475,532	800,000	-0,016	-0,035
-474,518	-200,000	-0,003	-0,044
-473,503	357,871	0,112	0,161
-472,489	191,905	0,089	0,096
-471,474	-61,082	0,121	-0,036
-470,459	74,375	-0,101	0,077
-469,445	-200,000	-0,009	0,187
-468,430	800,000	-0,033	-0,097
-467,416	800,000	0,064	0,132
-466,401	-200,000	-0,010	0,096
-465,386	-200,000	0,011	0,088
-464,372	-200,000	-0,011	0,078
-463,357	115,954	-0,058	0,051
-462,343	68,544	0,040	0,029
-461,328	-48,084	0,107	-0,037
-460,313	-18,980	-0,132	0,059
-459,299	-166,562	-0,182	0,005
-458,284	-200,000	0,041	0,155
-457,270	-200,000	-0,009	-0,033
-456,255	3,950	-0,047	0,025
-455,241	800,000	-0,040	-0,086
-454,226	29,325	-0,096	-0,059
-453,211	800,000	0,057	-0,130
-452,197	217,135	0,065	-0,075
-451,182	-200,000	-0,003	0,050
-450,168	-200,000	0,020	0,193
-449,153	64,467	0,052	0,038
-448,138	-120,605	-0,075	-0,009
-447,124	0,777	0,068	0,035
-446,109	-200,000	0,023	-0,092
-445,095	271,163	0,069	-0,087
-444,080	-167,134	0,074	0,002
-443,065	-200,000	-0,018	0,103
-442,051	800,000	-0,048	-0,105
-441,036	-87,795	-0,168	-0,036
-440,022	800,000	-0,024	0,066
-439,007	-70,944	0,029	0,008
-437,992	108,865	0,104	-0,090
-436,978	-200,000	0,000	-0,093
-435,963	-33,635	-0,068	0,027
-434,949	78,566	-0,026	-0,020
-433,934	-135,797	0,119	0,010
-432,919	-149,851	-0,237	0,013
-431,905	-18,307	0,123	-0,055
-430,890	67,097	0,049	0,036
-429,876	109,718	0,110	-0,095
-428,861	800,000	-0,017	-0,041
-427,846	-40,790	0,151	0,056
-426,832	-96,458	-0,157	-0,030
-425,817	-135,633	-0,051	-0,004
-424,803	-200,000	0,012	0,076
-423,788	-174,686	0,214	0,004
-422,773	-200,000	0,026	0,090
-421,759	800,000	0,038	-0,114
-420,744	-200,000	0,006	-0,148
-419,730	-200,000	0,013	-0,074
-418,715	128,045	-0,016	0,015
-417,701	-109,853	0,029	0,004
-416,686	40,665	0,058	0,038
-415,671	477,685	-0,061	0,099
-414,657	800,000	0,021	0,066
-413,642	-110,206	0,080	-0,012
-412,628	422,399	-0,036	-0,055
-411,613	-45,948	-0,092	0,032
-410,598	-20,255	-0,107	0,047
-409,584	800,000	0,056	0,136
-408,569	-200,000	0,045	0,161
-407,555	153,917	-0,006	0,006
-406,540	459,580	-0,065	0,105
-405,525	800,000	0,052	0,129
-404,511	-111,369	-0,023	-0,003
-403,496	70,208	0,132	0,098
-402,482	-200,000	0,023	-0,124
-401,467	-200,000	-0,010	-0,051
-400,452	-200,000	0,009	0,085
-399,438	96,447	0,121	0,100
-398,423	228,317	-0,053	-0,063
-397,409	539,242	0,065	-0,111
-396,394	32,483	-0,033	0,020
-395,379	-200,000	-0,007	-0,035
-394,365	15,492	0,036	0,020
-393,350	-117,703	-0,101	-0,013
-392,336	-200,000	-0,035	0,150
-391,321	0,385	-0,075	0,038
-390,306	292,869	0,055	-0,072
-389,292	-200,000	-0,013	0,105
-388,277	-200,000	-0,005	-0,050
-387,263	-16,679	0,051	0,023
-386,248	46,254	0,062	0,041
-385,233	800,000	0,029	0,087
-384,219	99,278	0,060	0,050
-383,204	344,201	-0,064	-0,091
-382,190	800,000	-0,005	-0,014
-381,175	-200,000	0,023	0,146
-380,160	241,226	0,024	0,029
-379,146	-90,969	-0,083	-0,017
-378,131	-158,924	0,085	0,003
-377,117	800,000	-0,064	0,150
-376,102	46,855	-0,131	-0,087
-375,088	-30,430	0,060	-0,024
-374,073	800,000	-0,007	0,021
-373,058	33,075	0,052	0,032
-372,044	45,825	0,079	0,053
-371,029	358,214	-0,054	0,078
-370,015	48,660	0,036	0,024
-369,000	-71,709	-0,115	-0,030
-367,985	-200,000	-0,016	-0,066
-366,971	362,833	-0,035	-0,050
-365,956	-145,964	0,032	-0,002
-364,942	-200,000	0,041	0,148
-363,927	115,113	0,130	0,114
-362,912	334,225	-0,063	0,088
-361,898	800,000	-0,053	0,118
-360,883	86,466	-0,038	0,030
-359,869	2,014	0,041	0,021
-358,854	355,002	0,065	-0,093
-357,839	800,000	0,051	0,137
-356,825	95,634	-0,030	-0,024
-355,810	-200,000	-0,011	0,079
-354,796	-200,000	0,001	-0,050
-353,781	800,000	0,060	-0,121
-352,766	-200,000	-0,004	-0,038
-351,752	620,226	0,047	-0,086
-350,737	-32,075	0,076	0,031
-349,723	-104,618	0,128	0,021
-348,708	542,665	-0,065	0,111
-347,693	22,122	-0,069	0,040
-346,679	215,279	-0,099	-0,112
-345,664	-160,576	-0,079	0,003
-344,650	178,828	0,114	-0,119
-343,635	61,383	-0,064	0,045
-342,620	-54,818	0,017	-0,005
-341,606	9,836	0,060	-0,033
-340,591	-98,559	-0,060	0,011
-339,577	-200,000	-0,003	-0,025
-338,562	-200,000	-0,022	-0,109
-337,548	235,084	-0,081	-0,096
-336,533	800,000	0,021	0,065
-335,518	618,318	0,017	0,031
-334,504	105,886	-0,085	0,072
-333,489	62,514	-0,156	-0,112
-332,475	-200,000	-0,002	-0,081
-331,460	596,385	-0,033	-0,058
-330,445	-66,407	0,062	0,018
-329,431	155,679	-0,016	-0,016
-328,416	-200,000	0,001	0,071
-327,402	-182,678	0,081	-0,001
-326,387	800,000	0,047	-0,107
-325,372	-200,000	0,003	-0,016
-324,358	-115,512	-0,060	0,008
-323,343	-200,000	0,013	-0,126
-322,329	-120,277	0,214	0,026
-321,314	-15,374	0,064	0,029
-320,299	-200,000	0,005	0,073
-319,285	-200,000	-0,004	0,113
-318,270	-200,000	-0,005	0,019
-317,256	-61,277	0,048	0,015
-316,241	-97,403	0,120	0,022
-315,226	800,000	-0,057	0,129
-314,212	357,845	0,010	0,015
-313,197	-200,000	0,005	-0,031
-312,183	-200,000	-0,074	0,245
-311,168	54,820	0,051	-0,035
-310,153	37,749	-0,068	-0,043
-309,139	346,054	0,054	-0,077
-308,124	-200,000	0,005	-0,045
-307,110	-158,315	0,131	0,005
-306,095	144,367	-0,022	-0,021
-305,080	226,658	0,081	0,094
-304,066	-75,012	0,167	0,042
-303,051	-5,123	0,157	-0,077
-302,037	66,784	-0,163	-0,119
-301,022	124,687	0,072	-0,065
-300,008	24,873	0,077	-0,046
-298,993	-14,745	0,098	0,045
-297,978	338,532	-0,063	-0,087
-296,964	-21,011	-0,118	-0,052
-295,949	-200,000	-0,018	-0,215
-294,935	-26,350	-0,043	-0,018
-293,920	-200,000	-0,014	0,049
-292,905	800,000	0,016	-0,035
-291,891	10,134	0,091	0,049
-290,876	-89,833	-0,038	0,008
-289,862	800,000	0,012	0,028
-288,847	-135,640	-0,060	0,005
-287,832	-1,030	0,063	-0,032
-286,818	658,109	0,063	0,117
-285,803	157,829	0,054	0,054
-284,789	-165,037	0,116	0,004
-283,774	-150,196	-0,029	0,002
-282,759	257,214	-0,035	0,044
-281,745	-200,000	0,008	-0,248
-280,730	24,622	-0,017	-0,010
-279,716	666,606	0,034	-0,063
-278,701	106,874	0,035	-0,030
-277,686	-200,000	0,037	0,148
-276,672	-200,000	-0,022	-0,078
-275,657	-136,749	-0,142	0,012
-274,643	800,000	-0,020	-0,044
-273,628	-200,000	0,024	-0,095
-272,613	-200,000	-0,016	-0,107
-271,599	-66,317	-0,042	0,012
-270,584	800,000	0,021	-0,043
-269,570	-200,000	-0,060	0,216
-268,555	-200,000	0,027	-0,137
-267,540	201,389	0,084	-0,093
-266,526	-200,000	-0,000	-0,092
-265,511	-30,346	0,061	-0,024
-264,497	263,756	0,027	-0,033
-263,482	-151,999	0,087	-0,004
-262,467	328,569	-0,104	0,144
-261,453	-200,000	-0,017	-0,128
-260,438	800,000	-0,033	-0,078
-259,424	-22,732	-0,112	-0,048
-258,409	270,538	0,093	-0,118
-257,395	-120,481	0,072	-0,009
-256,380	9,939	-0,062	-0,033
-255,365	-3,859	0,110	-0,054
-254,351	611,201	0,063	-0,113
-253,336	-52,270	0,034	0,011
-252,322	152,351	-0,075	0,073
-251,307	-200,000	-0,003	0,047
-250,292	-9,482	0,150	-0,071
-249,278	-65,307	0,210	0,060
-248,263	104,304	0,068	0,057
-247,249	-200,000	-0,021	0,129
-246,234	135,439	0,017	-0,016
-245,219	800,000	-0,046	-0,105
-244,205	521,554	0,027	-0,046
-243,190	104,695	0,025	-0,021
-242,176	-38,478	-0,073	-0,027
-241,161	34,527	-0,127	0,079
-240,146	-9,623	0,060	0,029
-239,132	-160,180	0,064	-0,002
-238,117	-83,312	-0,124	-0,028
-237,103	188,907	0,049	0,053
-236,088	671,973	-0,069	-0,128
-235,073	-20,024	-0,096	-0,042
-234,059	-144,118	0,199	0,013
-233,044	-62,723	0,127	-0,037
-232,030	800,000	0,037	-0,112
-231,015	-27,936	0,007	-0,003
-230,000	-122,926	-0,213	0,024
-228,986	-17,333	-0,108	0,048
-227,971	419,928	-0,065	-0,099
-226,957	-26,468	0,032	0,013
-225,942	-151,727	-0,045	-0,002
-224,927	-112,050	-0,051	0,007
-223,913	-104,886	0,063	0,010
-222,898	566,791	0,049	-0,085
-221,884	70,105	-0,149	0,109
-220,869	-200,000	0,005	0,040
-219,855	363,019	0,057	0,082
-218,840	548,368	-0,065	0,112
-217,825	120,817	-0,042	0,037
-216,811	-198,177	-0,015	0,000
-215,796	-200,000	0,014	-0,063
-214,782	-67,879	0,037	0,010
-213,767	49,694	0,117	0,078
-212,752	69,873	0,080	0,059
-211,738	222,545	-0,041	0,047
-210,723	426,649	-0,031	0,049
-209,709	-7,634	-0,081	-0,039
-208,694	557,694	-0,047	-0,081
-207,679	-120,668	0,020	-0,002
-206,665	-121,435	0,012	0,001
-205,650	-118,515	0,043	-0,005
-204,636	483,815	0,073	0,118
-203,621	43,074	0,062	-0,040
-202,606	77,626	-0,109	-0,083
-201,592	186,096	0,061	0,065
-200,577	-200,000	0,006	-0,032
-199,563	800,000	-0,007	0,020
-198,548	248,786	0,023	-0,028
-197,533	91,466	0,027	-0,022
-196,519	110,168	-0,070	0,060
-195,504	800,000	-0,043	-0,108
-194,490	-200,000	0,036	-0,125
-193,475	453,787	-0,009	0,014
-192,460	43,723	0,086	-0,056
-191,446	-200,000	0,000	0,033
-190,431	-0,768	0,102	0,051
-189,417	800,000	0,012	0,031
-188,402	-200,000	-0,010	-0,084
-187,387	157,260	0,034	-0,033
-186,373	47,799	-0,107	-0,071
-185,358	484,903	0,011	0,018
-184,344	165,371	0,082	0,082
-183,329	-65,522	0,179	-0,051
-182,315	-200,000	-0,021	0,108
-181,300	800,000	0,015	-0,033
-180,285	-200,000	0,006	-0,037
-179,271	-107,578	-0,096	0,015
-178,256	42,776	-0,044	0,028
-177,242	276,566	-0,029	-0,036
-176,227	-105,108	0,203	0,033
-175,212	42,834	-0,063	-0,041
-174,198	257,064	0,093	-0,114
-173,183	111,846	-0,122	-0,105
-172,169	-200,000	0,034	-0,135
-171,154	800,000	-0,031	-0,096
-170,139	141,446	0,097	-0,092
-169,125	229,549	0,046	-0,053
-168,110	239,881	-0,034	-0,041
-167,096	800,000	-0,040	-0,100
-166,081	-162,561	-0,058	-0,002
-165,066	60,217	-0,043	0,030
-164,052	254,316	-0,038	-0,046
-163,037	619,409	0,059	0,106
-162,023	-200,000	0,046	0,232
-161,008	27,122	-0,030	0,018
-159,993	-23,135	0,052	0,022
-158,979	0,204	-0,113	-0,057
-157,964	-200,000	0,006	-0,116
-156,950	800,000	-0,031	0,066
-155,935	-90,756	0,058	-0,012
-154,920	301,100	-0,011	-0,014
-153,906	171,837	-0,075	0,077
-152,891	-200,000	0,008	-0,111
-151,877	657,561	-0,028	0,051
-150,862	-22,729	-0,038	-0,016
-149,847	192,614	-0,023	0,025
-148,833	-118,270	-0,069	-0,009
-147,818	213,705	0,035	-0,039
-146,804	166,796	0,062	0,063
-145,789	-200,000	-0,006	0,042
-144,775	-200,000	-0,021	-0,076
-143,760	156,300	0,055	0,054
-142,745	-22,281	0,045	0,019
-141,731	800,000	-0,018	-0,046
-140,716	800,000	0,065	0,147
-139,702	-104,573	0,118	-0,019
-138,687	115,502	0,056	0,049
-137,672	-200,000	0,040	-0,152
-136,658	136,902	-0,148	0,138
-135,643	112,967	-0,088	-0,076
-134,629	-200,000	-0,016	0,072
-133,614	-152,380	0,085	-0,004
-132,599	26,946	-0,095	0,056
-131,585	-200,000	0,025	0,091
-130,570	-200,000	0,056	0,185
-129,556	208,034	0,039	-0,044
-128,541	800,000	-0,046	-0,096
-127,526	36,217	0,085	-0,053
-126,512	-5,708	0,073	-0,035
-125,497	-121,755	-0,081	0,009
-124,483	-31,174	-0,186	0,074
-123,468	-9,963	0,109	0,051
-122,453	93,197	-0,162	-0,130
-121,439	64,843	0,025	-0,018
-120,424	44,780	0,039	-0,025
-119,410	800,000	0,047	0,123
