DTS Sentinel unit serial number:	SN410029Multiplexer serial number:	ORYXHardware model number:	OX2-SRSoftware version number:	ORYX F/W v4,00 Oryx Data Collector v3.7.2.0data status	okinstallation	BH3 CH2differential loss correction	single-endedforward channel	channel 2reverse channel	N/Adate	2023/12/06time	03:32:28forward acquisition time	300,00reverse acquisition time	0,00gamma	499,1914k internal	0,3197k external	0,3197temperature offset calibration	1,0000default loss term (dB/km)	0,3820temperature slope calibration	1,0000multiplexer offset coefficient	1,0000multiplexer slope coefficient	1,0000fibre end	0,00T internal ref (°C)	8,94T ext. ref 1 (°C)	-5,73T ext. ref 2 (°C)	-5,82length (m)	temperature (°C)	Stokes	anti-Stokes-744,400	-200,000	-0,058	-0,248
-743,385	8,402	-0,245	0,134
-742,371	-200,000	0,007	-0,103
-741,356	39,539	-0,260	0,169
-740,342	-8,014	0,065	-0,032
-739,327	52,765	-0,170	0,118
-738,312	220,850	-0,063	-0,074
-737,298	-19,117	-0,274	0,123
-736,283	-166,435	0,078	0,002
-735,269	93,457	-0,261	0,215
-734,254	800,000	-0,047	0,106
-733,239	-99,807	-0,379	-0,068
-732,225	-55,609	0,211	0,068
-731,210	800,000	0,015	0,043
-730,196	-148,753	-0,105	0,006
-729,181	-200,000	-0,026	-0,093
-728,167	-7,972	-0,105	0,051
-727,152	408,754	-0,108	-0,167
-726,137	-83,230	-0,072	-0,017
-725,123	-73,820	-0,117	0,031
-724,108	-200,000	-0,010	-0,113
-723,094	89,230	0,041	0,033
-722,079	-200,000	-0,135	0,000
-721,064	31,156	0,080	-0,050
-720,050	800,000	-0,024	-0,059
-719,035	800,000	-0,023	0,066
-718,021	240,589	0,022	0,027
-717,006	-65,318	-0,075	-0,022
-715,991	148,380	-0,161	-0,158
-714,977	-152,448	-0,120	-0,006
-713,962	5,688	0,048	-0,026
-712,948	604,314	0,031	-0,056
-711,933	-200,000	-0,020	0,085
-710,918	107,944	-0,040	0,035
-709,904	-12,249	-0,050	-0,024
-708,889	50,071	-0,076	-0,052
-707,875	-200,000	-0,009	-0,161
-706,860	800,000	0,059	0,156
-705,845	-200,000	-0,047	0,171
-704,831	80,593	0,107	-0,084
-703,816	227,359	-0,024	-0,029
-702,802	-200,000	-0,002	0,033
-701,787	354,028	-0,129	-0,187
-700,772	17,824	-0,085	0,049
-699,758	-29,604	0,080	-0,033
-698,743	96,382	-0,057	0,047
-697,729	-68,955	0,224	0,062
-696,714	72,005	0,049	-0,037
-695,699	-96,289	-0,119	0,023
-694,685	34,604	-0,139	-0,088
-693,670	-10,802	0,070	0,034
-692,656	191,139	0,006	-0,006
-691,641	800,000	0,013	-0,040
-690,627	-53,059	-0,096	0,032
-689,612	-49,142	0,035	0,012
-688,597	800,000	-0,017	0,040
-687,583	-158,760	-0,104	-0,004
-686,568	-200,000	-0,002	-0,044
-685,554	90,205	-0,091	-0,074
-684,539	82,237	-0,052	0,041
-683,524	-63,000	0,141	-0,042
-682,510	800,000	0,061	-0,189
-681,495	-8,502	-0,056	0,027
-680,481	-200,000	0,006	-0,045
-679,466	613,143	0,016	-0,029
-678,451	800,000	0,081	0,170
-677,437	-54,776	-0,198	-0,064
-676,422	-200,000	-0,014	0,125
-675,408	-122,249	-0,150	-0,018
-674,393	-143,628	-0,092	0,006
-673,378	39,733	-0,097	-0,063
-672,364	-200,000	0,001	-0,052
-671,349	800,000	0,013	0,026
-670,335	332,209	0,031	-0,044
-669,320	65,581	0,032	-0,024
-668,305	800,000	-0,030	0,095
-667,291	242,549	-0,023	-0,029
-666,276	-59,098	-0,053	-0,017
-665,262	7,604	-0,044	-0,024
-664,247	180,055	0,064	-0,069
-663,232	-118,508	-0,069	-0,009
-662,218	800,000	-0,052	0,117
-661,203	-44,003	0,016	0,006
-660,189	-24,457	0,081	-0,035
-659,174	67,847	-0,099	-0,073
-658,159	-200,000	-0,024	-0,114
-657,145	103,960	-0,160	-0,137
-656,130	-200,000	-0,024	0,101
-655,116	261,893	0,013	0,017
-654,101	61,732	0,091	-0,066
-653,086	-133,328	-0,071	-0,006
-652,072	-58,940	-0,055	0,017
-651,057	720,422	0,069	0,133
-650,043	478,563	0,039	-0,064
-649,028	188,214	0,064	-0,069
-648,014	-200,000	0,002	0,118
-646,999	-200,000	-0,006	0,058
-645,984	293,879	-0,058	-0,077
-644,970	-153,484	-0,121	-0,006
-643,955	-154,603	-0,078	-0,004
-642,941	39,202	-0,076	-0,049
-641,926	-75,019	-0,168	0,043
-640,911	-65,892	0,127	0,037
-639,897	-52,082	0,163	0,055
-638,882	18,520	-0,126	0,073
-637,868	-200,000	-0,042	-0,184
-636,853	-151,492	-0,097	-0,005
-635,838	800,000	-0,051	-0,154
-634,824	-200,000	0,008	-0,108
-633,809	236,393	0,068	0,082
-632,795	800,000	-0,036	0,096
-631,780	800,000	-0,009	0,023
-630,765	239,967	-0,084	-0,102
-629,751	800,000	0,065	-0,141
-628,736	5,128	-0,056	-0,030
-627,722	-200,000	-0,010	-0,084
-626,707	-200,000	0,005	-0,046
-625,692	800,000	-0,016	-0,040
-624,678	87,427	-0,021	-0,017
-623,663	-90,575	-0,057	-0,012
-622,649	-200,000	0,017	0,066
-621,634	48,783	-0,099	-0,068
-620,619	38,346	-0,150	-0,097
-619,605	238,342	-0,071	-0,086
-618,590	-200,000	-0,005	-0,026
-617,576	-200,000	-0,026	-0,100
-616,561	-200,000	0,012	0,042
-615,546	-23,645	-0,123	0,053
-614,532	-37,960	-0,067	0,026
-613,517	-135,004	0,056	-0,005
-612,503	-200,000	0,002	0,052
-611,488	-3,827	0,123	0,062
-610,474	256,165	-0,066	0,082
-609,459	800,000	0,011	0,030
-608,444	-200,000	-0,015	-0,082
-607,430	361,038	0,025	0,036
-606,415	-200,000	-0,007	0,157
-605,401	-133,678	-0,047	0,004
-604,386	-186,722	0,147	0,001
-603,371	-200,000	-0,018	-0,063
-602,357	56,965	-0,030	0,021
-601,342	-60,036	0,092	0,028
-600,328	-200,000	-0,037	-0,178
-599,313	-200,000	-0,035	-0,124
-598,298	-200,000	0,028	-0,127
-597,284	800,000	0,019	0,047
-596,269	-125,132	-0,117	-0,013
-595,255	-152,238	0,159	0,008
-594,240	10,392	-0,119	-0,066
-593,225	36,066	-0,016	-0,010
-592,211	-94,876	-0,101	0,020
-591,196	-200,000	-0,003	-0,108
-590,182	338,466	0,013	0,019
-589,167	48,236	-0,056	0,038
-588,152	31,604	0,041	0,026
-587,138	-160,855	-0,069	-0,003
-586,123	-200,000	-0,002	-0,237
-585,109	-200,000	0,005	-0,185
-584,094	-200,000	0,011	0,057
-583,079	-34,055	-0,073	0,029
-582,065	156,812	-0,068	0,068
-581,050	-13,306	0,037	-0,017
-580,036	13,354	0,089	0,050
-579,021	482,283	0,064	-0,106
-578,006	-172,058	-0,097	0,002
-576,992	42,362	0,117	-0,077
-575,977	557,580	-0,073	0,128
-574,963	800,000	0,020	0,040
-573,948	-4,416	0,094	0,047
-572,934	-123,412	0,078	0,009
-571,919	713,795	-0,033	-0,064
-570,904	8,059	-0,079	-0,043
-569,890	-26,195	0,108	0,046
-568,875	138,136	0,110	0,104
-567,861	753,371	-0,059	0,115
-566,846	222,179	-0,068	0,079
-565,831	-58,189	0,100	0,031
-564,817	49,347	-0,132	-0,089
-563,802	-18,401	-0,053	0,024
-562,788	49,220	-0,071	-0,048
-561,773	-107,402	-0,091	-0,014
-560,758	-200,000	-0,033	0,138
-559,744	-53,542	-0,131	0,043
-558,729	-200,000	-0,018	-0,171
-557,715	800,000	-0,031	-0,096
-556,700	800,000	0,002	-0,003
-555,685	515,845	0,036	-0,060
-554,671	311,196	0,107	-0,145
-553,656	62,215	-0,030	0,022
-552,642	586,590	0,059	0,105
-551,627	-200,000	-0,004	0,105
-550,612	450,731	0,054	-0,086
-549,598	529,979	-0,077	-0,131
-548,583	69,728	0,039	0,029
-547,569	-200,000	-0,011	0,041
-546,554	66,579	-0,084	-0,061
-545,539	-200,000	0,005	-0,193
-544,525	800,000	0,028	0,067
-543,510	556,789	0,045	-0,078
-542,496	-0,647	-0,062	-0,031
-541,481	800,000	-0,033	0,088
-540,466	-105,243	-0,152	0,025
-539,452	282,175	0,099	0,129
-538,437	-200,000	-0,013	0,118
-537,423	-58,717	-0,044	0,014
-536,408	-200,000	0,044	-0,141
-535,393	22,819	0,017	0,010
-534,379	-16,093	-0,085	-0,039
-533,364	117,892	-0,055	-0,049
-532,350	-88,964	-0,058	0,012
-531,335	29,886	0,145	0,089
-530,321	-24,413	-0,052	-0,022
-529,306	-86,097	0,082	0,018
-528,291	31,519	0,027	0,017
-527,277	-98,294	-0,113	0,021
-526,262	108,567	-0,099	-0,086
-525,248	47,335	0,060	0,040
-524,233	-40,761	-0,064	-0,024
-523,218	800,000	0,019	-0,050
-522,204	13,521	-0,047	0,026
-521,189	800,000	0,054	-0,155
-520,175	50,776	0,127	-0,087
-519,160	-200,000	-0,031	-0,108
-518,145	-200,000	0,003	0,034
-517,131	-200,000	0,002	0,104
-516,116	800,000	-0,049	0,100
-515,102	800,000	0,028	0,077
-514,087	1,718	0,077	-0,040
-513,072	-156,558	-0,119	-0,005
-512,058	-44,250	0,046	0,016
-511,043	-165,691	-0,160	-0,005
-510,029	-148,107	0,151	-0,009
-509,014	579,029	-0,019	0,035
-507,999	-52,084	-0,082	-0,027
-506,985	800,000	-0,047	-0,149
-505,970	-136,217	-0,090	-0,007
-504,956	-200,000	0,018	0,093
-503,941	29,728	0,142	-0,087
-502,926	200,089	0,078	0,086
-501,912	-8,849	0,148	-0,071
-500,897	-200,000	-0,015	0,057
-499,883	-47,321	0,038	0,013
-498,868	800,000	-0,020	-0,052
-497,853	60,738	0,108	-0,077
-496,839	-36,445	-0,041	0,016
-495,824	-98,570	-0,060	0,011
-494,810	-176,757	0,130	0,002
-493,795	56,579	-0,060	0,042
-492,781	627,680	-0,039	0,072
-491,766	-200,000	-0,042	-0,144
-490,751	-200,000	0,007	-0,034
-489,737	-200,000	-0,001	0,018
-488,722	-200,000	0,001	-0,051
-487,708	-99,456	-0,114	-0,020
-486,693	800,000	0,017	-0,046
-485,678	-200,000	0,014	0,056
-484,664	-200,000	-0,033	-0,208
-483,649	-109,264	-0,041	0,006
-482,635	124,515	-0,131	-0,119
-481,620	-162,275	-0,052	0,002
-480,605	59,144	0,131	0,093
-479,591	800,000	0,042	0,100
-478,576	234,940	0,099	-0,117
-477,562	-200,000	-0,007	-0,062
-476,547	403,345	0,065	-0,098
-475,532	172,393	-0,066	0,068
-474,518	770,676	0,078	0,154
-473,503	-200,000	-0,001	0,129
-472,489	148,271	-0,071	0,069
-471,474	226,276	0,027	-0,031
-470,459	297,129	-0,090	-0,120
-469,445	-57,098	0,038	-0,012
-468,430	-36,047	-0,168	-0,065
-467,416	257,735	-0,049	-0,060
-466,401	-121,305	0,157	-0,019
-465,386	47,041	0,087	0,058
-464,372	265,558	0,054	0,068
-463,357	93,274	-0,072	-0,059
-462,343	788,508	-0,033	-0,065
-461,328	51,858	0,043	-0,029
-460,313	-200,000	-0,030	-0,106
-459,299	393,902	0,056	0,084
-458,284	800,000	0,065	0,203
-457,270	-200,000	-0,022	0,084
-456,255	126,377	0,076	-0,069
-455,241	396,162	-0,057	-0,085
-454,226	-200,000	-0,011	-0,046
-453,211	2,464	0,025	-0,013
-452,197	770,020	-0,006	0,013
-451,182	227,003	-0,047	0,055
-450,168	65,530	0,134	0,097
-449,153	800,000	0,004	-0,013
-448,138	-200,000	0,013	0,086
-447,124	48,029	-0,132	-0,089
-446,109	-82,830	0,070	-0,016
-445,095	31,071	0,045	-0,028
-444,080	759,219	0,064	0,126
-443,065	3,138	0,047	0,024
-442,051	800,000	0,036	0,104
-441,036	-26,521	-0,138	0,058
-440,022	-94,338	-0,131	0,026
-439,007	-200,000	-0,016	0,074
-437,992	800,000	-0,025	-0,074
-436,978	-179,406	0,062	0,001
-435,963	-200,000	-0,010	0,123
-434,949	-84,049	0,018	-0,004
-433,934	-200,000	-0,036	0,150
-432,919	144,721	-0,099	-0,095
-431,905	-200,000	0,004	-0,023
-430,890	-200,000	-0,051	0,178
-429,876	140,499	-0,023	0,022
-428,861	-169,563	0,080	-0,002
-427,846	-49,500	-0,079	0,027
-426,832	800,000	0,016	0,041
-425,817	662,876	0,041	-0,077
-424,803	8,250	0,057	-0,031
-423,788	-200,000	-0,013	0,053
-422,773	-55,673	0,097	0,031
-421,759	303,841	-0,021	0,028
-420,744	800,000	0,048	-0,113
-419,730	30,283	-0,100	-0,061
-418,715	162,824	0,074	-0,075
-417,701	-25,707	0,074	-0,031
-416,686	91,208	0,066	-0,054
-415,671	800,000	0,016	-0,034
-414,657	-200,000	-0,018	0,078
-413,642	67,548	0,048	-0,035
-412,628	-132,173	0,007	0,001
-411,613	6,058	-0,022	0,012
-410,598	155,638	-0,059	0,058
-409,584	-129,989	0,027	0,003
-408,569	122,099	0,050	0,045
-407,555	800,000	0,072	0,189
-406,540	-200,000	-0,028	0,150
-405,525	156,218	0,073	-0,073
-404,511	-137,912	0,012	-0,001
-403,496	-200,000	0,002	-0,099
-402,482	-66,446	-0,079	-0,022
-401,467	121,795	0,094	-0,084
-400,452	-200,000	0,033	0,118
-399,438	-123,044	-0,085	0,010
-398,423	800,000	-0,073	-0,196
-397,409	38,439	0,098	-0,063
-396,394	51,087	-0,039	0,027
-395,379	-6,575	0,143	-0,070
-394,365	313,153	0,037	-0,050
-393,350	-200,000	0,015	0,059
-392,336	163,286	0,073	-0,074
-391,321	-200,000	-0,028	-0,097
-390,306	800,000	0,059	-0,175
-389,292	-200,000	-0,004	0,047
-388,277	46,346	0,081	0,054
-387,263	800,000	-0,038	0,090
-386,248	-95,665	-0,062	0,012
-385,233	41,962	-0,112	-0,073
-384,219	-200,000	-0,005	0,034
-383,204	361,290	0,031	0,045
-382,190	189,709	-0,042	-0,045
-381,175	800,000	-0,031	-0,068
-380,160	800,000	-0,021	-0,051
-379,146	-103,638	0,094	0,016
-378,131	800,000	0,033	0,076
-377,117	-7,438	-0,055	0,027
-376,102	368,348	-0,032	-0,047
-375,088	-110,276	-0,057	0,008
-374,073	-200,000	-0,017	-0,157
-373,058	-141,743	0,179	-0,013
-372,044	102,485	-0,111	-0,093
-371,029	14,209	0,060	-0,033
-370,015	-21,578	0,078	-0,034
-369,000	-200,000	-0,011	0,062
-367,985	636,227	0,090	-0,165
-366,971	463,740	0,056	-0,089
-365,956	8,937	0,133	-0,072
-364,942	-76,249	0,104	-0,026
-363,927	632,378	-0,011	0,020
-362,912	66,767	0,146	-0,107
-361,898	799,382	0,022	0,043
-360,883	-200,000	0,002	-0,106
-359,869	-200,000	-0,024	0,128
-358,854	-79,206	-0,158	0,038
-357,839	35,983	-0,023	0,014
-356,825	-200,000	-0,008	0,042
-355,810	264,783	0,108	-0,136
-354,796	86,503	-0,097	-0,077
-353,781	-200,000	0,004	-0,223
-352,766	617,649	-0,056	-0,101
-351,752	-200,000	-0,011	-0,053
-350,737	61,369	0,108	0,077
-349,723	-158,388	-0,132	-0,005
-348,708	209,944	0,029	-0,032
-347,693	198,611	0,025	-0,028
-346,679	-92,787	0,047	-0,009
-345,664	-200,000	-0,004	0,138
-344,650	124,389	-0,098	-0,088
-343,635	220,647	-0,022	0,025
-342,620	-200,000	0,002	0,066
-341,606	333,826	-0,009	0,013
-340,591	521,915	-0,033	-0,055
-339,577	136,521	-0,070	-0,066
-338,562	341,243	-0,052	0,073
-337,548	736,065	-0,068	0,130
-336,533	-200,000	0,011	0,084
-335,518	-200,000	0,010	0,064
-334,504	-57,126	-0,106	0,033
-333,489	800,000	0,049	0,098
-332,475	-200,000	0,000	-0,070
-331,460	242,560	0,025	0,030
-330,445	-28,807	0,092	0,038
-329,431	93,762	-0,020	0,016
-328,416	565,014	0,086	0,149
-327,402	-150,661	0,119	-0,006
-326,387	142,822	0,088	-0,083
-325,372	208,858	-0,061	-0,068
-324,358	-200,000	0,001	-0,110
-323,343	800,000	-0,037	-0,090
-322,329	-92,198	0,072	-0,014
-321,314	-93,353	-0,108	0,021
-320,299	448,415	0,032	0,051
-319,285	-3,993	-0,161	0,080
-318,270	-95,785	-0,082	-0,016
-317,256	25,549	0,058	0,035
-316,241	-200,000	-0,028	-0,107
-315,226	-200,000	-0,031	0,206
-314,212	-200,000	-0,005	0,027
-313,197	232,321	-0,064	0,075
-312,183	140,632	0,125	0,118
-311,168	-200,000	-0,024	-0,085
-310,153	17,545	0,025	-0,014
-309,139	-200,000	0,020	0,065
-308,124	-54,830	-0,089	-0,028
-307,110	-111,619	0,088	0,013
-306,095	-9,033	0,170	-0,081
-305,080	508,249	0,107	0,178
-304,066	-18,195	-0,155	0,069
-303,051	-60,059	0,136	0,041
-302,037	328,493	0,085	0,117
-301,022	-200,000	0,008	0,116
-300,008	11,901	0,076	-0,042
-298,993	566,395	0,029	0,050
-297,978	-9,071	-0,081	0,039
-296,964	-73,558	0,073	0,019
-295,949	-139,457	-0,172	-0,013
-294,935	187,321	-0,081	-0,086
-293,920	21,255	0,028	-0,016
-292,905	783,705	0,037	0,072
-291,891	-200,000	0,024	0,149
-290,876	-200,000	-0,002	-0,036
-289,862	-88,990	-0,116	-0,024
-288,847	800,000	0,012	-0,029
-287,832	26,033	-0,068	-0,040
-286,818	664,537	0,052	0,097
-285,803	589,430	-0,051	0,091
-284,789	17,365	0,165	0,093
-283,774	-29,385	-0,157	-0,064
-282,759	800,000	-0,041	0,086
-281,745	276,955	0,060	-0,076
-280,730	180,475	0,051	0,053
-279,716	800,000	0,040	0,111
-278,701	-46,444	0,144	-0,050
-277,686	-200,000	-0,004	-0,027
-276,672	173,607	0,069	0,071
-275,657	123,620	-0,110	-0,099
-274,643	-37,559	-0,109	-0,041
-273,628	66,299	-0,080	-0,058
-272,613	308,156	0,039	0,052
-271,599	372,074	0,056	0,081
-270,584	-13,140	0,128	0,059
-269,570	51,847	0,030	-0,021
-268,555	7,151	0,009	-0,005
-267,540	800,000	-0,064	-0,191
-266,526	170,830	-0,108	-0,111
-265,511	-125,911	-0,081	-0,009
-264,497	382,690	-0,044	0,064
-263,482	162,157	-0,017	0,017
-262,467	-200,000	-0,006	0,122
-261,453	-99,906	0,078	0,014
-260,438	60,530	-0,039	-0,028
-259,424	169,689	0,082	-0,084
-258,409	-50,541	-0,143	0,048
-257,395	245,272	0,090	-0,109
-256,380	-69,976	0,022	0,006
-255,365	67,193	0,114	0,083
-254,351	-200,000	0,001	0,092
-253,336	400,627	-0,112	-0,168
-252,322	-195,364	-0,061	0,000
-251,307	-200,000	-0,009	0,069
-250,292	175,930	0,020	0,020
-249,278	356,722	0,068	-0,098
-248,263	12,959	0,111	0,061
-247,249	-200,000	-0,008	0,032
-246,234	65,680	-0,112	0,081
-245,219	-115,020	-0,078	-0,011
-244,205	306,424	0,068	0,091
-243,190	-91,415	-0,138	-0,028
-242,176	139,301	0,045	-0,042
-241,161	196,850	0,019	0,021
-240,146	800,000	-0,045	0,112
-239,132	26,523	0,075	-0,045
-238,117	800,000	0,021	-0,043
-237,103	137,658	0,069	-0,064
-236,088	-178,903	0,008	-0,000
-235,073	-0,753	0,114	-0,058
-234,059	98,582	-0,095	-0,078
-233,044	-200,000	-0,005	-0,028
-232,030	21,092	-0,029	-0,017
-231,015	548,427	0,029	0,049
-230,000	216,644	-0,060	-0,068
-228,986	-71,589	0,044	-0,012
-227,971	187,305	-0,068	-0,072
-226,957	-200,000	-0,008	0,100
-225,942	13,740	0,077	0,043
-224,927	11,137	0,065	0,035
-223,913	417,286	-0,032	-0,050
-222,898	145,334	-0,121	-0,116
-221,884	800,000	0,015	0,034
-220,869	425,531	0,013	-0,021
-219,855	541,613	-0,046	0,079
-218,840	43,708	0,089	0,058
-217,825	262,505	-0,098	0,122
-216,811	645,141	0,063	0,116
-215,796	123,394	-0,049	0,044
-214,782	-139,090	0,141	-0,011
-213,767	-200,000	0,024	-0,122
-212,752	-200,000	0,005	0,053
-211,738	195,506	0,046	-0,049
-210,723	-126,409	-0,089	-0,009
-209,709	377,137	-0,065	-0,095
-208,694	382,557	0,069	-0,101
-207,679	-25,223	-0,111	0,047
-206,665	149,397	0,020	-0,020
-205,650	-200,000	0,008	0,060
-204,636	800,000	0,031	0,072
-203,621	-48,254	-0,040	0,014
-202,606	800,000	0,018	0,046
-201,592	800,000	-0,031	-0,078
-200,577	-200,000	0,003	0,032
-199,563	-108,675	0,234	0,035
-198,548	-200,000	-0,011	0,101
-197,533	800,000	-0,062	0,153
-196,519	-100,162	-0,085	-0,015
-195,504	440,699	0,010	-0,016
-194,490	208,779	0,012	0,013
-193,475	-22,243	0,109	-0,047
-192,460	73,836	-0,091	-0,068
-191,446	173,167	-0,008	-0,009
-190,431	-53,709	0,129	0,042
-189,417	-101,461	0,046	0,008
-188,402	38,653	-0,018	-0,011
-187,387	-143,942	-0,051	-0,003
-186,373	182,501	0,049	-0,052
-185,358	-137,070	0,149	-0,012
-184,344	7,116	-0,028	-0,015
-183,329	321,328	0,034	0,046
-182,315	4,643	-0,070	0,037
-181,300	-175,436	0,165	-0,003
-180,285	-29,001	-0,058	-0,023
-179,271	83,393	-0,076	0,059
-178,256	-92,082	0,195	0,039
-177,242	-159,150	-0,104	0,004
-176,227	800,000	-0,015	0,035
-175,212	760,688	0,047	0,092
-174,198	-125,074	0,031	0,003
-173,183	-200,000	-0,008	0,137
-172,169	76,892	-0,102	-0,077
-171,154	-200,000	-0,052	-0,175
-170,139	38,246	0,162	0,102
-169,125	742,176	0,035	-0,067
-168,110	-200,000	-0,005	0,247
-167,096	-200,000	0,006	0,103
-166,081	5,608	-0,097	0,051
-165,066	-200,000	-0,009	0,045
-164,052	800,000	-0,035	0,081
-163,037	-43,432	-0,059	-0,021
-162,023	-24,885	0,099	0,042
-161,008	-57,258	0,115	0,036
-159,993	-17,225	0,082	0,037
-158,979	481,264	-0,080	0,130
-157,964	-200,000	-0,018	0,085
-156,950	693,815	-0,061	-0,115
-155,935	-25,571	-0,008	-0,003
-154,920	-158,783	0,073	0,003
-153,906	-200,000	-0,003	0,119
-152,891	23,231	0,023	0,013
-151,877	-73,860	0,026	0,007
-150,862	319,499	-0,048	-0,065
-149,847	-200,000	-0,032	0,131
-148,833	-117,349	0,079	-0,010
-147,818	2,018	0,123	0,063
-146,804	556,391	0,063	0,108
-145,789	309,352	-0,014	0,019
-144,775	-200,000	0,008	-0,052
-143,760	116,544	-0,085	-0,074
-142,745	-200,000	-0,035	-0,114
-141,731	659,147	0,034	-0,063
-140,716	-200,000	-0,009	-0,054
-139,702	55,131	0,168	0,115
-138,687	800,000	0,041	0,100
-137,672	-112,311	-0,139	0,020
-136,658	800,000	-0,027	0,067
-135,643	343,771	0,010	0,014
-134,629	777,359	-0,009	0,017
-133,614	5,486	0,116	0,061
-132,599	84,571	0,143	-0,111
-131,585	133,858	0,104	0,096
-130,570	224,451	-0,096	-0,110
-129,556	81,355	-0,125	-0,096
-128,541	-23,672	-0,120	0,051
-127,526	123,906	0,159	-0,142
-126,512	-40,437	0,135	0,050
-125,497	-200,000	0,025	-0,083
-124,483	-200,000	0,032	0,178
-123,468	140,102	-0,067	0,063
-122,453	800,000	-0,016	0,047
-121,439	79,182	-0,083	0,063
-120,424	-69,940	-0,119	0,032
-119,410	85,436	-0,044	0,034
-118,395	283,188	-0,011	-0,014
-117,380	-200,000	-0,003	0,063
