DTS Sentinel unit serial number:	SN410029Multiplexer serial number:	ORYXHardware model number:	OX2-SRSoftware version number:	ORYX F/W v4,00 Oryx Data Collector v3.7.2.0data status	okinstallation	BH3 CH2differential loss correction	single-endedforward channel	channel 2reverse channel	N/Adate	2023/12/06time	01:32:28forward acquisition time	300,00reverse acquisition time	0,00gamma	499,1914k internal	0,3196k external	0,3196temperature offset calibration	1,0000default loss term (dB/km)	0,3820temperature slope calibration	1,0000multiplexer offset coefficient	1,0000multiplexer slope coefficient	1,0000fibre end	0,00T internal ref (°C)	9,19T ext. ref 1 (°C)	-5,78T ext. ref 2 (°C)	-5,86length (m)	temperature (°C)	Stokes	anti-Stokes-744,400	98,998	0,065	-0,055
-743,385	80,135	-0,289	0,226
-742,371	800,000	-0,033	0,087
-741,356	184,164	-0,238	0,257
-740,342	638,427	-0,094	-0,176
-739,327	80,646	-0,152	0,119
-738,312	560,874	-0,039	-0,069
-737,298	-74,099	-0,204	0,054
-736,283	277,409	-0,076	-0,098
-735,269	177,884	-0,138	0,147
-734,254	44,987	-0,034	-0,023
-733,239	-47,506	-0,403	-0,142
-732,225	-117,062	0,098	-0,013
-731,210	-95,122	0,194	0,038
-730,196	49,080	0,052	0,036
-729,181	800,000	-0,029	0,069
-728,167	54,370	-0,121	-0,085
-727,152	-40,584	-0,026	0,010
-726,137	-37,744	-0,061	-0,024
-725,123	-200,000	-0,004	-0,088
-724,108	-118,845	-0,053	-0,007
-723,094	0,886	-0,038	-0,020
-722,079	800,000	-0,110	-0,233
-721,064	-200,000	-0,008	-0,107
-720,050	-116,480	0,105	-0,014
-719,035	356,147	-0,068	-0,099
-718,021	-49,697	-0,084	0,029
-717,006	-73,727	-0,094	0,025
-715,991	-0,947	-0,038	0,019
-714,977	451,451	-0,060	-0,097
-713,962	800,000	0,032	-0,069
-712,948	-200,000	0,032	-0,144
-711,933	800,000	-0,042	-0,122
-710,918	99,997	-0,068	0,057
-709,904	84,433	0,035	-0,027
-708,889	-88,034	-0,129	0,028
-707,875	-29,135	-0,106	-0,044
-706,860	-200,000	0,010	-0,077
-705,845	8,323	-0,110	0,060
-704,831	800,000	0,030	0,093
-703,816	15,464	0,036	0,020
-702,802	-134,734	0,006	-0,001
-701,787	-107,140	-0,065	-0,010
-700,772	239,834	-0,100	-0,121
-699,758	495,727	-0,045	-0,076
-698,743	-200,000	0,002	-0,035
-697,729	-11,860	0,161	0,076
-696,714	18,695	0,093	0,054
-695,699	57,228	-0,135	0,096
-694,685	332,038	-0,005	0,007
-693,670	-200,000	0,003	-0,146
-692,656	485,167	0,036	0,060
-691,641	-38,430	-0,131	0,050
-690,627	-200,000	0,041	0,151
-689,612	85,513	0,085	0,068
-688,597	427,147	-0,053	-0,084
-687,583	-200,000	0,006	-0,031
-686,568	-97,147	-0,090	-0,017
-685,554	-200,000	0,031	-0,113
-684,539	438,437	-0,019	-0,030
-683,524	800,000	0,010	0,029
-682,510	-200,000	0,053	0,208
-681,495	75,632	-0,100	-0,077
-680,481	-200,000	-0,015	-0,190
-679,466	-109,800	-0,020	0,003
-678,451	261,162	0,013	0,016
-677,437	800,000	0,022	-0,045
-676,422	800,000	0,052	0,165
-675,408	659,384	-0,031	0,058
-674,393	292,169	-0,051	-0,067
-673,378	-200,000	-0,010	-0,096
-672,364	-4,939	-0,120	-0,060
-671,349	71,844	-0,067	-0,051
-670,335	-193,361	-0,091	-0,001
-669,320	227,239	0,088	0,104
-668,305	306,391	-0,043	0,058
-667,291	-45,973	-0,083	-0,030
-666,276	13,883	-0,149	-0,084
-665,262	800,000	-0,033	0,095
-664,247	482,884	0,049	-0,081
-663,232	3,078	0,119	-0,063
-662,218	15,335	0,112	0,064
-661,203	-39,086	-0,097	0,037
-660,189	-26,561	0,022	0,009
-659,174	4,355	0,037	-0,019
-658,159	-102,401	-0,165	0,028
-657,145	-76,610	-0,117	-0,030
-656,130	800,000	0,058	-0,142
-655,116	800,000	0,024	-0,060
-654,101	77,314	-0,008	0,006
-653,086	37,396	-0,162	-0,104
-652,072	-197,263	-0,068	0,000
-651,057	1,941	-0,050	0,026
-650,043	181,393	0,056	-0,060
-649,028	-5,877	-0,065	-0,032
-648,014	471,204	0,023	0,037
-646,999	-200,000	-0,001	0,033
-645,984	-74,010	-0,126	-0,033
-644,970	-200,000	0,006	-0,095
-643,955	-125,781	-0,193	-0,021
-642,941	800,000	0,021	0,043
-641,926	174,572	0,140	-0,147
-640,911	-200,000	-0,000	0,040
-639,897	276,606	0,042	0,054
-638,882	-145,584	-0,132	-0,008
-637,868	31,077	-0,029	-0,018
-636,853	-58,620	-0,038	-0,012
-635,838	716,325	-0,051	-0,099
-634,824	-200,000	-0,004	-0,124
-633,809	358,592	-0,030	-0,043
-632,795	-180,528	0,023	-0,000
-631,780	-200,000	-0,001	-0,056
-630,765	337,500	-0,038	-0,053
-629,751	-200,000	0,011	-0,045
-628,736	-200,000	0,010	-0,042
-627,722	-123,974	0,097	-0,011
-626,707	172,880	-0,056	0,058
-625,692	-53,777	0,092	0,030
-624,678	-200,000	-0,013	0,162
-623,663	501,111	-0,034	0,058
-622,649	-45,118	-0,120	0,043
-621,634	800,000	0,025	0,058
-620,619	2,726	0,023	0,012
-619,605	-164,888	-0,089	-0,003
-618,590	-200,000	-0,010	0,065
-617,576	-79,008	-0,121	0,030
-616,561	-106,319	-0,042	0,007
-615,546	100,078	-0,165	-0,139
-614,532	265,755	-0,089	-0,113
-613,517	-200,000	0,027	0,120
-612,503	44,218	0,071	-0,047
-611,488	-69,283	0,063	-0,018
-610,474	-50,808	0,084	0,029
-609,459	-200,000	0,018	0,081
-608,444	99,534	-0,078	-0,066
-607,430	68,726	-0,080	-0,059
-606,415	-121,046	-0,032	0,004
-605,401	-200,000	0,004	-0,088
-604,386	-200,000	-0,012	-0,055
-603,371	800,000	0,053	0,126
-602,357	145,926	0,032	-0,032
-601,342	-54,167	-0,083	0,027
-600,328	82,881	-0,131	-0,103
-599,313	-98,173	-0,073	-0,013
-598,298	-35,394	0,103	-0,041
-597,284	-135,424	0,061	0,005
-596,269	-126,224	0,116	0,012
-595,255	54,618	0,069	-0,048
-594,240	-124,110	-0,147	-0,017
-593,225	169,435	-0,157	-0,162
-592,211	92,359	-0,046	-0,038
-591,196	-130,853	-0,103	-0,010
-590,182	567,090	0,057	0,100
-589,167	-153,387	0,134	-0,007
-588,152	800,000	-0,059	0,131
-587,138	80,311	-0,169	0,132
-586,123	-200,000	0,011	-0,113
-585,109	-123,273	0,030	-0,003
-584,094	-45,812	-0,086	-0,030
-583,079	-78,072	0,096	0,024
-582,065	545,021	-0,018	0,032
-581,050	48,100	0,069	0,046
-580,036	-68,510	-0,134	-0,037
-579,021	129,485	-0,176	-0,162
-578,006	68,702	0,111	0,082
-576,992	-40,121	0,053	0,020
-575,977	-72,408	-0,011	-0,003
-574,963	-200,000	0,009	-0,094
-573,948	-200,000	0,023	-0,094
-572,934	55,292	-0,031	0,022
-571,919	138,849	0,063	0,060
-570,904	194,809	-0,059	0,065
-569,890	-74,475	-0,091	-0,024
-568,875	100,492	0,059	-0,049
-567,861	-33,856	-0,099	0,039
-566,846	-93,282	-0,242	-0,048
-565,831	-19,984	0,148	-0,066
-564,817	-29,564	-0,105	0,043
-563,802	8,024	0,060	-0,033
-562,788	-200,000	0,014	0,046
-561,773	800,000	0,037	0,080
-560,758	800,000	-0,031	0,078
-559,744	-71,162	-0,081	0,022
-558,729	-200,000	0,014	0,099
-557,715	-120,414	-0,159	0,019
-556,700	-50,417	0,058	-0,020
-555,685	-154,673	-0,061	0,003
-554,671	579,879	0,011	-0,019
-553,656	93,066	0,086	0,070
-552,642	9,295	-0,139	0,076
-551,627	-200,000	0,013	0,109
-550,612	599,491	-0,089	0,161
-549,598	298,840	0,006	-0,008
-548,583	-4,055	-0,058	0,029
-547,569	-83,981	-0,091	0,021
-546,554	291,103	-0,036	-0,047
-545,539	580,813	0,027	0,047
-544,525	156,161	0,084	0,084
-543,510	457,711	-0,035	0,056
-542,496	66,688	0,043	0,032
-541,481	-61,710	-0,111	0,033
-540,466	668,443	0,013	0,024
-539,452	258,669	0,059	-0,074
-538,437	-200,000	-0,005	0,018
-537,423	-83,296	-0,065	-0,015
-536,408	-200,000	0,008	-0,095
-535,393	-151,771	-0,033	-0,002
-534,379	-37,355	0,092	-0,035
-533,364	491,253	-0,042	-0,069
-532,350	800,000	0,034	0,087
-531,335	99,995	0,113	0,095
-530,321	33,340	-0,092	0,057
-529,306	-97,504	-0,046	0,009
-528,291	-200,000	0,016	-0,063
-527,277	-60,355	-0,053	-0,016
-526,262	-123,417	-0,138	0,016
-525,248	800,000	0,025	-0,065
-524,233	63,744	0,045	0,033
-523,218	-200,000	0,011	0,064
-522,204	-100,307	0,022	0,004
-521,189	41,458	-0,018	-0,012
-520,175	-143,252	0,188	-0,013
-519,160	-97,596	-0,152	-0,028
-518,145	-124,056	0,270	-0,030
-517,131	306,085	-0,063	-0,084
-516,116	668,774	0,039	-0,074
-515,102	75,451	0,078	-0,060
-514,087	-161,933	-0,118	-0,004
-513,072	-50,837	-0,071	0,024
-512,058	590,967	0,064	0,115
-511,043	-200,000	0,005	-0,033
-510,029	-23,435	0,125	-0,054
-509,014	1,307	0,042	0,022
-507,999	-124,918	-0,096	0,011
-506,985	800,000	-0,017	0,043
-505,970	541,117	-0,058	-0,100
-504,956	-39,097	-0,047	-0,018
-503,941	-82,489	0,204	0,047
-502,926	-200,000	-0,012	-0,041
-501,912	800,000	0,050	0,143
-500,897	-62,750	-0,145	0,043
-499,883	-135,900	0,179	-0,015
-498,868	306,385	0,037	-0,049
-497,853	128,856	-0,050	-0,046
-496,839	160,501	0,052	-0,052
-495,824	80,704	-0,077	-0,060
-494,810	-65,397	0,050	-0,014
-493,795	639,059	-0,049	0,090
-492,781	-141,061	0,126	-0,009
-491,766	-13,081	-0,070	0,033
-490,751	114,359	0,034	-0,030
-489,737	800,000	-0,051	0,113
-488,722	-133,437	0,221	0,020
-487,708	-200,000	0,026	0,103
-486,693	-200,000	0,004	0,091
-485,678	369,233	-0,053	-0,078
-484,664	102,730	-0,154	0,130
-483,649	-200,000	-0,016	-0,078
-482,635	-82,341	0,094	0,022
-481,620	-85,997	0,199	-0,044
-480,605	5,452	-0,023	-0,012
-479,591	-69,099	0,076	0,021
-478,576	-152,336	-0,102	-0,005
-477,562	-69,249	-0,113	0,031
-476,547	-41,834	-0,034	-0,012
-475,532	100,508	-0,045	-0,038
-474,518	-30,115	-0,071	0,029
-473,503	800,000	-0,034	0,076
-472,489	67,631	0,043	-0,032
-471,474	-200,000	0,023	0,109
-470,459	-200,000	0,002	-0,014
-469,445	292,122	-0,071	0,094
-468,430	12,935	0,100	-0,055
-467,416	-200,000	-0,017	-0,099
-466,401	-63,157	0,129	0,038
-465,386	-200,000	0,016	-0,175
-464,372	22,572	0,222	-0,131
-463,357	-68,616	-0,088	-0,024
-462,343	800,000	0,045	-0,100
-461,328	87,878	-0,094	-0,075
-460,313	165,329	-0,106	0,108
-459,299	800,000	0,033	0,084
-458,284	800,000	-0,026	-0,054
-457,270	-200,000	-0,013	-0,135
-456,255	-200,000	-0,006	-0,052
-455,241	193,137	-0,136	0,148
-454,226	-200,000	-0,018	-0,169
-453,211	177,959	-0,049	0,052
-452,197	131,507	0,036	-0,033
-451,182	70,840	-0,055	-0,041
-450,168	-200,000	-0,090	-0,000
-449,153	-200,000	0,034	0,184
-448,138	-75,846	-0,102	-0,026
-447,124	-200,000	-0,020	-0,078
-446,109	607,307	-0,018	0,033
-445,095	800,000	-0,011	0,033
-444,080	46,168	0,065	0,043
-443,065	134,082	0,097	-0,091
-442,051	-90,224	-0,086	0,018
-441,036	-200,000	-0,022	-0,109
-440,022	-127,283	0,167	0,017
-439,007	64,301	0,150	-0,109
-437,992	39,898	-0,082	-0,053
-436,978	-63,576	0,083	0,024
-435,963	-41,218	0,129	-0,048
-434,949	-200,000	-0,008	0,042
-433,934	-167,959	-0,105	0,003
-432,919	230,528	0,079	-0,093
-431,905	152,762	0,093	0,092
-430,890	125,935	-0,061	0,056
-429,876	321,845	0,114	0,156
-428,861	51,868	-0,066	0,045
-427,846	-115,756	0,091	0,012
-426,832	44,834	-0,045	-0,029
-425,817	12,782	-0,146	-0,081
-424,803	28,252	0,052	0,032
-423,788	524,316	0,026	0,043
-422,773	64,339	0,083	-0,060
-421,759	-200,000	0,007	0,114
-420,744	484,280	-0,023	0,038
-419,730	-200,000	0,016	-0,070
-418,715	437,100	-0,040	-0,063
-417,701	459,408	-0,021	0,033
-416,686	-175,201	0,010	0,000
-415,671	287,665	0,042	-0,055
-414,657	-65,292	0,019	0,005
-413,642	110,315	-0,088	0,076
-412,628	771,065	0,065	-0,128
-411,613	699,790	-0,022	0,041
-410,598	212,259	0,080	-0,090
-409,584	71,521	-0,064	0,048
-408,569	47,752	0,058	-0,039
-407,555	800,000	0,020	0,048
-406,540	365,537	0,081	0,118
-405,525	649,334	-0,016	0,030
-404,511	-99,463	-0,077	-0,014
-403,496	245,619	0,021	-0,026
-402,482	-200,000	0,004	-0,034
-401,467	135,675	-0,053	-0,049
-400,452	-20,523	0,112	-0,049
-399,438	-200,000	0,012	-0,069
-398,423	-84,875	0,175	0,039
-397,409	-88,088	0,057	-0,012
-396,394	1,008	-0,092	0,047
-395,379	-137,983	0,086	-0,007
-394,365	800,000	0,058	0,128
-393,350	517,624	-0,089	0,151
-392,336	49,480	-0,068	-0,046
-391,321	800,000	0,056	-0,148
-390,306	-200,000	-0,053	-0,198
-389,292	59,867	-0,121	-0,086
-388,277	42,116	-0,063	-0,041
-387,263	-94,782	0,133	0,026
-386,248	268,391	0,053	0,067
-385,233	-125,209	-0,048	-0,005
-384,219	-99,815	0,084	0,015
-383,204	-140,883	0,132	-0,010
-382,190	-63,401	-0,003	-0,001
-381,175	-200,000	-0,014	0,074
-380,160	-200,000	0,021	0,106
-379,146	-115,468	0,055	-0,007
-378,131	224,763	0,040	-0,047
-377,117	321,694	-0,038	0,051
-376,102	-123,013	-0,018	-0,002
-375,088	17,853	0,137	-0,078
-374,073	-200,000	-0,027	0,104
-373,058	-119,975	-0,079	0,010
-372,044	-200,000	-0,006	0,042
-371,029	223,387	0,050	0,058
-370,015	800,000	0,015	-0,037
-369,000	-200,000	0,003	-0,050
-367,985	-200,000	-0,002	-0,073
-366,971	80,705	0,083	-0,064
-365,956	-62,490	0,018	-0,005
-364,942	61,097	-0,017	-0,012
-363,927	-139,983	-0,101	0,008
-362,912	159,311	0,079	0,079
-361,898	172,464	-0,117	0,121
-360,883	8,581	-0,053	0,029
-359,869	160,801	0,136	-0,136
-358,854	-200,000	-0,016	0,073
-357,839	-118,573	0,136	-0,017
-356,825	-34,165	0,101	0,039
-355,810	-109,712	0,025	-0,004
-354,796	-108,486	-0,165	-0,025
-353,781	-200,000	0,011	-0,075
-352,766	800,000	-0,041	0,095
-351,752	-200,000	0,003	0,065
-350,737	-75,010	-0,045	-0,011
-349,723	800,000	0,054	0,128
-348,708	-5,289	0,110	0,054
-347,693	160,634	-0,083	0,083
-346,679	61,848	-0,062	-0,044
-345,664	-200,000	-0,025	-0,083
-344,650	201,617	0,071	-0,078
-343,635	-104,275	-0,066	-0,011
-342,620	181,361	0,063	-0,067
-341,606	-200,000	0,017	0,127
-340,591	371,228	0,104	0,152
-339,577	-200,000	-0,025	-0,137
-338,562	-200,000	0,029	-0,177
-337,548	-200,000	-0,011	-0,045
-336,533	-53,061	0,038	0,013
-335,518	-12,633	0,090	0,042
-334,504	-31,981	0,036	0,015
-333,489	-124,043	-0,062	0,007
-332,475	-43,030	-0,074	0,027
-331,460	-200,000	0,020	0,070
-330,445	-17,956	-0,063	0,028
-329,431	-13,073	0,043	-0,020
-328,416	-200,000	-0,000	-0,133
-327,402	-200,000	0,030	-0,106
-326,387	800,000	-0,065	-0,137
-325,372	426,696	-0,030	0,046
-324,358	-200,000	0,016	0,139
-323,343	800,000	0,060	0,121
-322,329	254,389	-0,025	0,031
-321,314	-200,000	0,000	0,024
-320,299	-200,000	-0,023	0,151
-319,285	-200,000	-0,015	-0,178
-318,270	-200,000	-0,002	-0,070
-317,256	69,690	-0,093	-0,069
-316,241	-74,922	-0,022	0,006
-315,226	381,002	0,130	0,191
-314,212	-200,000	0,012	0,142
-313,197	-161,294	-0,026	0,001
-312,183	800,000	0,035	-0,103
-311,168	-75,538	-0,036	0,009
-310,153	-121,799	-0,025	-0,003
-309,139	800,000	-0,011	0,023
-308,124	-54,691	-0,093	0,030
-307,110	5,317	0,059	0,031
-306,095	211,932	0,047	0,053
-305,080	114,390	0,074	-0,064
-304,066	-200,000	-0,007	-0,052
-303,051	107,861	-0,143	0,122
-302,037	-200,000	0,038	0,198
-301,022	-94,699	-0,025	-0,005
-300,008	179,740	-0,081	0,085
-298,993	800,000	0,061	0,129
-297,978	800,000	0,037	0,095
-296,964	800,000	-0,053	-0,143
-295,949	-2,307	-0,140	-0,070
-294,935	-200,000	-0,003	0,025
-293,920	-132,741	-0,028	-0,002
-292,905	800,000	0,025	0,073
-291,891	525,111	-0,025	-0,042
-290,876	237,361	0,119	0,142
-289,862	99,489	-0,104	0,086
-288,847	-49,164	-0,075	-0,026
-287,832	-16,799	-0,081	0,036
-286,818	382,532	0,056	-0,083
-285,803	-200,000	-0,008	-0,042
-284,789	288,701	0,047	0,061
-283,774	-36,346	-0,009	0,003
-282,759	-81,372	0,096	0,023
-281,745	-18,862	0,066	-0,029
-280,730	-128,865	-0,066	0,007
-279,716	-63,655	0,037	-0,011
-278,701	757,981	0,061	0,119
-277,686	-151,656	0,185	0,010
-276,672	12,516	0,065	-0,036
-275,657	800,000	0,046	0,117
-274,643	20,771	0,068	0,039
-273,628	83,452	-0,144	-0,112
-272,613	382,085	-0,125	-0,185
-271,599	-140,923	0,163	-0,012
-270,584	-200,000	0,014	0,056
-269,570	213,773	0,013	0,015
-268,555	219,679	0,082	-0,094
-267,540	-200,000	0,034	-0,111
-266,526	-145,485	-0,232	-0,015
-265,511	52,342	0,069	0,047
-264,497	-32,435	-0,052	0,020
-263,482	739,112	-0,028	0,054
-262,467	-200,000	0,026	0,177
-261,453	177,630	0,042	-0,044
-260,438	37,664	-0,167	-0,106
-259,424	-200,000	-0,008	0,044
-258,409	-200,000	-0,008	-0,061
-257,395	-69,340	0,048	-0,013
-256,380	-200,000	0,012	-0,050
-255,365	-88,186	0,092	-0,019
-254,351	-65,585	-0,018	0,005
-253,336	49,798	-0,127	-0,086
-252,322	-200,000	-0,000	0,059
-251,307	341,048	-0,049	-0,069
-250,292	800,000	0,035	0,089
-249,278	-200,000	-0,002	-0,027
-248,263	-124,875	0,187	0,020
-247,249	376,338	0,022	0,032
-246,234	721,396	0,036	0,069
-245,219	327,278	-0,055	0,075
-244,205	-200,000	0,003	0,017
-243,190	-200,000	-0,009	-0,171
-242,176	-101,077	0,084	0,015
-241,161	800,000	0,036	0,097
-240,146	359,969	-0,039	0,056
-239,132	-200,000	-0,003	0,010
-238,117	-200,000	-0,021	-0,147
-237,103	196,257	-0,019	0,020
-236,088	-200,000	-0,008	0,121
-235,073	-104,599	-0,087	0,014
-234,059	-140,769	0,145	-0,010
-233,044	-200,000	0,001	0,022
-232,030	-92,917	-0,138	0,027
-231,015	-130,680	0,050	-0,005
-230,000	788,069	0,032	-0,063
-228,986	-86,491	-0,121	0,026
-227,971	72,963	-0,061	-0,046
-226,957	17,542	-0,016	0,009
-225,942	800,000	0,055	0,124
-224,927	-200,000	-0,045	0,196
-223,913	800,000	-0,077	-0,166
-222,898	800,000	0,036	0,091
-221,884	-149,710	-0,054	0,003
-220,869	-200,000	0,039	-0,158
-219,855	725,032	0,013	-0,026
-218,840	800,000	-0,016	0,038
-217,825	63,811	0,085	0,061
-216,811	137,223	-0,047	-0,044
-215,796	-200,000	0,001	0,017
-214,782	461,301	-0,052	-0,082
-213,767	-60,631	0,073	-0,022
-212,752	312,915	-0,047	0,063
-211,738	-8,026	0,099	0,047
-210,723	-200,000	0,013	0,082
-209,709	-34,329	-0,071	0,028
-208,694	240,217	-0,132	-0,157
-207,679	800,000	-0,019	-0,045
-206,665	-200,000	-0,002	-0,072
-205,650	-143,144	0,162	0,011
-204,636	-200,000	-0,010	-0,034
-203,621	-152,063	-0,125	-0,006
-202,606	-200,000	-0,000	-0,047
-201,592	-200,000	-0,036	-0,183
-200,577	130,277	-0,022	-0,020
-199,563	73,335	0,054	-0,040
-198,548	-147,373	0,144	-0,009
-197,533	605,524	0,016	0,028
-196,519	95,285	0,092	-0,074
-195,504	29,090	-0,042	-0,026
-194,490	141,025	0,043	-0,040
-193,475	800,000	0,037	-0,113
-192,460	14,486	-0,090	-0,050
-191,446	-200,000	-0,016	-0,105
-190,431	235,106	0,048	0,056
-189,417	120,714	0,047	0,042
-188,402	261,878	0,043	-0,054
-187,387	-82,710	0,099	-0,023
-186,373	800,000	-0,022	-0,064
-185,358	-200,000	-0,003	0,028
-184,344	-200,000	-0,009	0,142
-183,329	-64,917	-0,022	-0,006
-182,315	-78,602	0,195	0,047
-181,300	93,760	0,114	-0,092
-180,285	106,601	-0,061	-0,052
-179,271	-116,523	-0,127	0,016
-178,256	114,016	-0,017	0,015
-177,242	11,542	-0,040	-0,022
-176,227	-200,000	0,049	0,181
-175,212	311,386	0,013	-0,017
-174,198	-70,450	0,021	-0,006
-173,183	-56,494	-0,048	0,015
-172,169	-34,010	0,046	-0,018
-171,154	-37,823	-0,071	-0,027
-170,139	-200,000	-0,002	-0,026
-169,125	-73,132	-0,139	-0,036
-168,110	75,086	0,049	-0,036
-167,096	4,383	0,140	0,073
-166,081	800,000	-0,021	0,050
-165,066	250,125	0,045	-0,054
-164,052	298,791	0,080	-0,105
-163,037	-100,439	-0,076	-0,013
-162,023	250,962	0,082	0,099
-161,008	800,000	-0,048	0,105
-159,993	445,803	0,026	-0,041
-158,979	-14,543	-0,109	-0,050
-157,964	9,347	0,079	0,042
-156,950	25,329	0,117	-0,069
-155,935	800,000	0,055	-0,121
-154,920	-200,000	-0,005	-0,105
-153,906	-75,299	0,103	-0,026
-152,891	704,106	-0,079	0,149
-151,877	-50,107	-0,118	-0,040
-150,862	-152,842	-0,080	0,004
-149,847	-200,000	-0,009	0,095
-148,833	-200,000	-0,014	0,175
-147,818	-200,000	0,000	0,072
-146,804	54,068	0,022	0,015
-145,789	-149,347	-0,068	0,004
-144,775	221,845	0,026	-0,029
-143,760	800,000	-0,033	0,091
-142,745	-71,283	0,070	0,018
-141,731	-200,000	0,008	0,083
-140,716	88,658	0,020	0,015
-139,702	800,000	-0,043	-0,102
-138,687	800,000	-0,061	0,178
-137,672	15,962	0,120	-0,067
-136,658	-88,339	-0,099	-0,021
-135,643	-200,000	-0,024	-0,118
-134,629	-18,871	-0,028	0,012
-133,614	112,599	0,059	-0,051
-132,599	215,661	-0,104	-0,117
-131,585	353,955	0,142	-0,201
-130,570	-200,000	0,003	-0,031
-129,556	656,568	-0,005	-0,009
-128,541	702,758	-0,026	0,048
-127,526	-200,000	-0,001	0,123
-126,512	-35,976	0,033	0,013
-125,497	-99,466	0,046	-0,008
-124,483	-31,438	0,101	-0,040
-123,468	62,060	-0,163	0,115
-122,453	10,416	0,074	-0,040
-121,439	-200,000	-0,011	-0,038
-120,424	-35,297	-0,065	0,025
-119,410	-75,862	0,100	0,025
