DTS Sentinel unit serial number:	SN410029Multiplexer serial number:	ORYXHardware model number:	OX2-SRSoftware version number:	ORYX F/W v4,00 Oryx Data Collector v3.7.2.0data status	okinstallation	BH3 CH2differential loss correction	single-endedforward channel	channel 2reverse channel	N/Adate	2023/12/05time	18:02:28forward acquisition time	300,00reverse acquisition time	0,00gamma	499,1914k internal	0,3193k external	0,3193temperature offset calibration	1,0000default loss term (dB/km)	0,3820temperature slope calibration	1,0000multiplexer offset coefficient	1,0000multiplexer slope coefficient	1,0000fibre end	0,00T internal ref (°C)	10,75T ext. ref 1 (°C)	-3,97T ext. ref 2 (°C)	-4,13length (m)	temperature (°C)	Stokes	anti-Stokes-744,400	370,604	-0,083	-0,124
-743,385	-37,972	-0,170	0,065
-742,371	800,000	-0,074	-0,183
-741,356	14,801	-0,265	0,151
-740,342	-124,782	0,037	-0,004
-739,327	-58,876	-0,263	0,082
-738,312	241,159	-0,067	-0,082
-737,298	-21,348	-0,226	0,100
-736,283	800,000	0,023	-0,067
-735,269	800,000	-0,118	0,273
-734,254	-200,000	-0,036	-0,120
-733,239	-173,650	-0,398	-0,008
-732,225	-200,000	0,026	-0,124
-731,210	-200,000	0,039	0,140
-730,196	-53,565	-0,033	0,011
-729,181	800,000	-0,036	-0,087
-728,167	-124,239	0,036	-0,004
-727,152	18,218	-0,024	-0,014
-726,137	586,975	-0,032	0,058
-725,123	301,404	-0,070	0,094
-724,108	537,820	-0,019	-0,034
-723,094	156,927	0,031	0,031
-722,079	82,908	-0,079	0,063
-721,064	-200,000	0,003	-0,024
-720,050	-131,338	-0,177	0,017
-719,035	137,656	-0,038	-0,037
-718,021	14,591	0,131	-0,074
-717,006	-200,000	-0,014	-0,070
-715,991	800,000	0,038	-0,109
-714,977	-94,695	0,108	-0,021
-713,962	800,000	-0,027	-0,088
-712,948	-120,393	0,078	0,010
-711,933	-200,000	-0,023	0,131
-710,918	793,175	-0,024	-0,048
-709,904	95,506	-0,053	0,044
-708,889	-93,804	-0,098	0,019
-707,875	-167,396	0,143	-0,004
-706,860	-154,154	0,077	0,004
-705,845	549,700	-0,020	0,034
-704,831	-200,000	-0,002	0,078
-703,816	116,304	-0,044	0,039
-702,802	-200,000	-0,004	-0,036
-701,787	-148,665	-0,181	-0,011
-700,772	-51,523	0,065	-0,022
-699,758	-34,607	0,076	-0,030
-698,743	-58,523	0,139	0,044
-697,729	-65,327	0,138	0,040
-696,714	650,767	0,063	0,119
-695,699	-200,000	-0,002	-0,073
-694,685	-48,029	0,118	-0,041
-693,670	114,342	-0,070	-0,062
-692,656	113,729	-0,111	0,098
-691,641	800,000	0,020	0,056
-690,627	-200,000	-0,008	0,066
-689,612	63,476	0,007	0,005
-688,597	-9,133	-0,133	0,064
-687,583	-92,133	-0,057	-0,012
-686,568	71,442	-0,064	-0,048
-685,554	386,585	-0,032	-0,048
-684,539	-200,000	-0,008	-0,124
-683,524	499,536	0,035	0,059
-682,510	-200,000	0,033	0,114
-681,495	-10,539	-0,048	-0,023
-680,481	480,707	-0,015	-0,024
-679,466	176,358	0,024	0,025
-678,451	58,347	-0,070	0,050
-677,437	-76,638	-0,162	0,041
-676,422	-200,000	-0,035	0,154
-675,408	129,620	-0,012	0,011
-674,393	161,995	-0,037	-0,038
-673,378	-84,283	-0,085	-0,019
-672,364	28,232	-0,209	-0,128
-671,349	-200,000	-0,001	-0,011
-670,335	-200,000	-0,023	-0,113
-669,320	-77,348	0,059	-0,015
-668,305	34,887	0,109	-0,069
-667,291	800,000	-0,023	-0,048
-666,276	-72,855	-0,045	0,012
-665,262	149,777	0,032	-0,032
-664,247	247,067	0,057	-0,070
-663,232	592,401	-0,059	-0,105
-662,218	-200,000	-0,029	-0,114
-661,203	178,251	0,082	0,087
-660,189	-200,000	0,007	-0,023
-659,174	-187,507	-0,171	-0,002
-658,159	-200,000	-0,002	0,158
-657,145	42,199	-0,037	-0,024
-656,130	800,000	-0,020	0,061
-655,116	800,000	0,023	0,064
-654,101	103,419	-0,017	0,015
-653,086	-100,807	-0,045	0,008
-652,072	72,247	-0,048	-0,036
-651,057	289,226	-0,044	-0,058
-650,043	-43,967	0,178	-0,065
-649,028	566,917	-0,060	-0,106
-648,014	-145,482	0,070	-0,004
-646,999	-117,423	0,125	-0,016
-645,984	800,000	0,017	-0,052
-644,970	437,027	-0,085	-0,136
-643,955	12,264	-0,145	-0,081
-642,941	49,233	-0,060	-0,041
-641,926	-114,313	-0,111	-0,015
-640,911	-80,031	0,021	-0,005
-639,897	-200,000	0,043	0,165
-638,882	673,531	0,054	0,103
-637,868	-200,000	-0,001	-0,044
-636,853	-200,000	0,019	-0,136
-635,838	-200,000	0,001	-0,076
-634,824	-200,000	-0,021	-0,071
-633,809	-93,948	0,048	0,009
-632,795	-197,690	-0,075	-0,000
-631,780	132,848	-0,147	-0,138
-630,765	-13,769	0,136	-0,064
-629,751	505,046	-0,068	-0,115
-628,736	-32,736	-0,142	0,057
-627,722	318,231	0,039	-0,054
-626,707	-13,021	-0,040	0,019
-625,692	123,240	-0,074	0,068
-624,678	-113,907	0,101	-0,014
-623,663	75,287	-0,121	0,092
-622,649	2,708	0,070	0,037
-621,634	800,000	-0,089	-0,215
-620,619	800,000	0,020	-0,057
-619,605	-162,897	0,064	-0,002
-618,590	-200,000	-0,005	-0,043
-617,576	86,249	0,104	0,083
-616,561	770,897	0,002	-0,004
-615,546	71,253	0,073	0,055
-614,532	-86,927	-0,053	-0,012
-613,517	285,150	-0,007	-0,009
-612,503	31,292	0,074	-0,046
-611,488	-28,893	0,051	-0,021
-610,474	165,778	-0,064	0,066
-609,459	25,462	0,091	-0,055
-608,444	-200,000	-0,022	0,075
-607,430	-53,855	-0,214	-0,070
-606,415	-200,000	0,029	-0,133
-605,401	-200,000	-0,017	0,068
-604,386	-200,000	0,006	0,118
-603,371	-200,000	0,003	0,043
-602,357	-2,939	-0,159	-0,080
-601,342	-200,000	0,007	-0,115
-600,328	800,000	-0,058	-0,173
-599,313	56,370	-0,080	0,057
-598,298	87,906	-0,099	-0,080
-597,284	-94,529	0,090	0,018
-596,269	290,553	0,018	0,024
-595,255	-76,349	-0,025	0,006
-594,240	360,058	-0,072	0,104
-593,225	-200,000	-0,036	-0,123
-592,211	-2,477	0,078	0,040
-591,196	-24,010	0,137	0,059
-590,182	606,286	-0,023	0,042
-589,167	-185,291	-0,153	0,002
-588,152	-200,000	0,002	0,157
-587,138	147,474	-0,038	0,038
-586,123	800,000	0,076	-0,181
-585,109	592,005	-0,030	-0,054
-584,094	-76,093	-0,173	-0,044
-583,079	-177,984	0,163	-0,003
-582,065	800,000	0,074	0,151
-581,050	-140,657	-0,002	0,000
-580,036	-162,690	0,108	-0,004
-579,021	-200,000	-0,004	-0,066
-578,006	-200,000	-0,005	-0,140
-576,992	-123,601	-0,054	-0,006
-575,977	36,156	-0,099	0,063
-574,963	800,000	-0,067	0,153
-573,948	-200,000	-0,012	-0,069
-572,934	29,867	-0,149	0,092
-571,919	-200,000	-0,004	0,183
-570,904	288,197	0,112	-0,147
-569,890	151,067	-0,091	-0,090
-568,875	346,661	0,082	0,117
-567,861	-200,000	0,004	0,183
-566,846	-136,110	-0,112	0,009
-565,831	800,000	0,043	0,089
-564,817	-200,000	-0,048	0,162
-563,802	-200,000	-0,008	-0,083
-562,788	27,715	-0,059	0,036
-561,773	156,663	0,130	0,130
-560,758	800,000	-0,068	0,182
-559,744	-200,000	-0,008	0,061
-558,729	104,005	-0,036	-0,031
-557,715	-43,549	0,087	-0,032
-556,700	800,000	0,074	-0,231
-555,685	-200,000	0,010	-0,034
-554,671	193,068	-0,112	-0,122
-553,656	-74,898	0,208	0,054
-552,642	-19,292	0,095	0,042
-551,627	460,519	-0,017	-0,028
-550,612	55,422	-0,067	0,047
-549,598	9,777	-0,096	-0,052
-548,583	24,318	0,102	-0,061
-547,569	397,035	-0,029	-0,045
-546,554	207,885	0,052	-0,059
-545,539	-170,814	0,111	0,003
-544,525	0,563	-0,076	0,039
-543,510	-200,000	0,003	-0,013
-542,496	-29,858	-0,056	-0,023
-541,481	68,084	-0,064	0,048
-540,466	745,793	-0,045	-0,088
-539,452	-11,287	-0,036	0,017
-538,437	157,296	0,016	0,016
-537,423	142,775	0,023	-0,022
-536,408	-78,941	0,040	0,010
-535,393	-200,000	-0,026	-0,097
-534,379	-200,000	0,007	-0,034
-533,364	-200,000	-0,017	-0,091
-532,350	592,613	-0,072	-0,130
-531,335	-105,031	-0,070	0,012
-530,321	471,542	0,077	0,126
-529,306	-102,487	0,127	0,022
-528,291	633,532	-0,023	-0,042
-527,277	282,839	-0,079	0,103
-526,262	-200,000	-0,006	-0,081
-525,248	-200,000	-0,016	0,110
-524,233	800,000	-0,035	0,107
-523,218	-42,338	0,062	0,023
-522,204	315,153	0,073	0,099
-521,189	-16,261	-0,212	-0,097
-520,175	-112,221	0,061	-0,009
-519,160	-137,329	0,104	-0,008
-518,145	-200,000	0,029	-0,100
-517,131	49,396	-0,112	-0,076
-516,116	-91,774	-0,082	0,017
-515,102	-200,000	-0,009	0,041
-514,087	-200,000	-0,017	-0,144
-513,072	-200,000	0,033	-0,105
-512,058	630,183	0,018	-0,033
-511,043	-0,857	-0,123	-0,063
-510,029	-89,641	0,002	0,000
-509,014	404,082	-0,025	0,039
-507,999	-200,000	-0,012	0,041
-506,985	148,844	0,005	0,005
-505,970	-75,407	-0,070	-0,018
-504,956	-36,741	-0,073	-0,028
-503,941	94,147	0,016	0,013
-502,926	112,711	0,103	-0,090
-501,912	-70,334	0,161	-0,044
-500,897	-200,000	0,024	0,077
-499,883	613,704	-0,029	0,053
-498,868	-200,000	-0,006	-0,044
-497,853	-132,212	0,080	-0,007
-496,839	-21,856	0,114	-0,050
-495,824	800,000	-0,035	0,081
-494,810	-126,617	0,159	0,017
-493,795	51,334	-0,161	-0,110
-492,781	127,759	-0,130	0,119
-491,766	56,837	-0,056	0,040
-490,751	800,000	0,038	-0,112
-489,737	160,731	0,089	-0,090
-488,722	-187,903	0,130	-0,001
-487,708	473,066	-0,082	0,134
-486,693	800,000	0,050	0,105
-485,678	-127,232	-0,233	-0,024
-484,664	-123,697	-0,154	0,017
-483,649	280,975	0,082	-0,106
-482,635	428,435	0,012	-0,019
-481,620	418,843	-0,040	-0,063
-480,605	-151,948	0,033	-0,002
-479,591	99,779	-0,027	-0,023
-478,576	-200,000	-0,006	-0,100
-477,562	800,000	0,041	-0,106
-476,547	88,807	-0,051	-0,041
-475,532	-200,000	-0,014	-0,066
-474,518	19,614	-0,085	-0,049
-473,503	139,018	0,018	-0,017
-472,489	742,251	-0,060	0,117
-471,474	-50,955	0,065	-0,022
-470,459	-200,000	0,010	-0,055
-469,445	67,497	-0,050	-0,036
-468,430	160,852	0,076	0,077
-467,416	-95,225	0,026	0,005
-466,401	671,460	0,092	0,173
-465,386	-200,000	0,023	0,094
-464,372	-200,000	-0,031	0,159
-463,357	800,000	-0,030	-0,067
-462,343	-200,000	-0,001	-0,050
-461,328	306,163	-0,034	0,046
-460,313	-200,000	-0,005	0,106
-459,299	491,641	0,068	0,112
-458,284	-200,000	-0,008	0,063
-457,270	-4,586	-0,053	-0,026
-456,255	146,348	-0,024	-0,023
-455,241	-83,567	-0,117	0,027
-454,226	64,784	-0,188	0,137
-453,211	-84,189	0,039	0,009
-452,197	98,955	0,104	0,087
-451,182	255,109	-0,033	-0,041
-450,168	-200,000	-0,010	0,177
-449,153	800,000	0,020	0,055
-448,138	85,694	-0,089	-0,071
-447,124	34,443	0,023	-0,015
-446,109	15,087	-0,070	-0,040
-445,095	117,304	0,095	0,084
-444,080	-200,000	-0,011	0,195
-443,065	-200,000	0,003	0,056
-442,051	158,810	-0,067	0,067
-441,036	-113,483	-0,024	-0,003
-440,022	43,585	0,009	0,006
-439,007	-85,390	0,013	0,003
-437,992	-105,952	0,043	-0,007
-436,978	-33,341	0,149	0,059
-435,963	200,253	0,069	-0,076
-434,949	-15,719	-0,119	0,055
-433,934	-200,000	-0,001	0,012
-432,919	112,941	-0,055	-0,048
-431,905	25,794	-0,047	0,028
-430,890	-6,892	0,028	0,014
-429,876	-4,868	0,156	-0,077
-428,861	-200,000	0,020	0,134
-427,846	571,721	-0,093	0,163
-426,832	-168,618	0,046	-0,001
-425,817	283,373	0,057	0,075
-424,803	-200,000	0,001	-0,068
-423,788	-168,485	0,128	0,003
-422,773	-0,055	0,058	-0,029
-421,759	551,124	0,110	0,191
-420,744	-166,113	-0,103	-0,003
-419,730	-48,470	-0,108	-0,037
-418,715	-24,525	-0,046	0,020
-417,701	800,000	0,010	-0,022
-416,686	60,166	-0,026	0,018
-415,671	800,000	0,059	0,123
-414,657	-200,000	-0,033	-0,106
-413,642	-29,576	-0,055	-0,023
-412,628	-104,874	-0,107	0,017
-411,613	144,707	-0,048	0,047
-410,598	-130,955	0,184	-0,017
-409,584	-60,529	0,143	-0,043
-408,569	-82,931	0,135	-0,031
-407,555	-200,000	0,048	-0,207
-406,540	-200,000	0,000	0,022
-405,525	800,000	-0,052	0,126
-404,511	-107,348	-0,055	0,009
-403,496	800,000	0,023	-0,061
-402,482	800,000	0,018	-0,053
-401,467	109,850	-0,118	0,102
-400,452	409,499	0,047	0,072
-399,438	-86,438	0,069	-0,015
-398,423	52,281	-0,070	-0,048
-397,409	560,945	-0,008	-0,015
-396,394	-200,000	-0,010	-0,106
-395,379	423,109	0,061	-0,095
-394,365	-128,166	0,088	0,009
-393,350	241,310	0,025	-0,031
-392,336	550,114	0,049	0,084
-391,321	-85,456	-0,051	-0,011
-390,306	-190,001	-0,228	-0,002
-389,292	19,258	-0,042	-0,024
-388,277	55,230	-0,086	-0,060
-387,263	-200,000	0,014	0,068
-386,248	-200,000	0,011	0,056
-385,233	-113,755	-0,074	0,010
-384,219	0,418	0,075	0,039
-383,204	89,779	-0,116	-0,093
-382,190	-22,979	-0,211	-0,091
-381,175	-154,702	0,136	0,006
-380,160	24,509	0,042	-0,025
-379,146	-124,012	-0,093	0,010
-378,131	800,000	0,046	0,100
-377,117	-77,546	-0,100	-0,025
-376,102	-200,000	-0,011	0,089
-375,088	-200,000	-0,009	0,068
-374,073	438,636	-0,093	-0,146
-373,058	-51,232	0,135	0,045
-372,044	127,696	-0,090	0,082
-371,029	-12,557	0,071	-0,033
-370,015	281,220	0,057	-0,073
-369,000	306,618	0,034	-0,045
-367,985	800,000	-0,056	-0,176
-366,971	361,316	-0,075	-0,108
-365,956	800,000	0,046	0,140
-364,942	-24,321	0,128	-0,054
-363,927	-94,237	0,144	-0,028
-362,912	-63,896	-0,099	-0,029
-361,898	-200,000	-0,014	-0,086
-360,883	-200,000	-0,002	-0,076
-359,869	124,810	-0,063	-0,057
-358,854	800,000	-0,058	0,124
-357,839	17,728	0,105	-0,060
-356,825	800,000	-0,033	0,093
-355,810	800,000	0,008	0,026
-354,796	-200,000	-0,029	-0,124
-353,781	800,000	0,033	0,067
-352,766	-200,000	0,033	-0,157
-351,752	-1,277	0,065	0,033
-350,737	10,941	0,060	0,033
-349,723	-35,008	0,044	-0,017
-348,708	585,412	-0,066	0,117
-347,693	184,750	0,012	-0,013
-346,679	-40,139	-0,067	0,025
-345,664	230,383	-0,064	-0,075
-344,650	103,704	0,043	0,036
-343,635	800,000	0,070	-0,217
-342,620	18,206	-0,067	0,038
-341,606	113,123	0,147	0,128
-340,591	-200,000	-0,015	-0,064
-339,577	282,616	-0,036	-0,046
-338,562	-101,358	-0,062	-0,011
-337,548	389,403	0,056	-0,084
-336,533	245,342	0,031	0,038
-335,518	-200,000	-0,014	-0,084
-334,504	356,402	-0,022	0,031
-333,489	142,325	0,047	-0,045
-332,475	50,647	0,040	-0,027
-331,460	272,528	0,034	-0,043
-330,445	335,164	-0,048	-0,067
-329,431	-200,000	-0,009	0,041
-328,416	800,000	-0,017	0,048
-327,402	-131,503	0,123	0,011
-326,387	67,570	0,053	-0,039
-325,372	-111,044	-0,041	0,006
-324,358	169,710	-0,059	0,060
-323,343	203,231	0,039	-0,044
-322,329	-85,719	-0,101	-0,022
-321,314	240,219	0,047	0,056
-320,299	-77,199	-0,064	-0,016
-319,285	800,000	0,045	-0,108
-318,270	-200,000	-0,024	-0,213
-317,256	-66,683	0,029	-0,008
-316,241	800,000	0,069	-0,164
-315,226	-200,000	0,000	-0,111
-314,212	800,000	0,045	0,131
-313,197	-200,000	0,012	0,059
-312,183	-139,561	-0,149	0,011
-311,168	800,000	0,010	-0,029
-310,153	-200,000	-0,004	-0,060
-309,139	-200,000	-0,016	-0,080
-308,124	-200,000	0,009	-0,077
-307,110	-200,000	-0,029	0,094
-306,095	-16,162	0,092	-0,042
-305,080	506,346	-0,086	0,143
-304,066	-30,471	-0,085	-0,035
-303,051	703,920	-0,065	-0,123
-302,037	-132,218	-0,107	-0,010
-301,022	-9,876	0,092	0,044
-300,008	231,113	-0,022	0,025
-298,993	24,898	-0,030	0,018
-297,978	-172,808	0,158	0,003
-296,964	-200,000	0,002	-0,058
-295,949	-200,000	0,005	0,135
-294,935	-200,000	-0,013	0,121
-293,920	200,689	0,065	0,071
-292,905	393,113	0,068	0,102
-291,891	-200,000	0,002	-0,058
-290,876	800,000	-0,036	-0,096
-289,862	-62,642	-0,066	-0,020
-288,847	13,015	0,174	-0,096
-287,832	-129,435	0,117	0,011
-286,818	800,000	-0,085	0,174
-285,803	-0,208	0,144	0,073
-284,789	359,520	0,086	0,123
-283,774	96,519	0,085	0,070
-282,759	418,932	0,083	0,128
-281,745	-200,000	-0,043	0,000
-280,730	800,000	0,071	-0,157
-279,716	273,172	0,086	-0,109
-278,701	-108,281	0,060	0,009
-277,686	-200,000	-0,005	-0,105
-276,672	40,702	0,049	0,031
-275,657	354,936	0,089	0,126
-274,643	424,004	-0,044	0,068
-273,628	267,958	0,047	-0,059
-272,613	470,635	-0,035	-0,057
-271,599	-200,000	0,007	0,086
-270,584	21,183	0,050	-0,029
-269,570	461,214	0,044	0,071
-268,555	46,709	0,094	-0,063
-267,540	-200,000	-0,033	-0,116
-266,526	-86,867	-0,023	0,005
-265,511	-200,000	-0,012	0,067
-264,497	-200,000	-0,007	0,130
-263,482	-5,544	0,045	0,022
-262,467	233,714	0,102	0,120
-261,453	-47,276	0,103	0,036
-260,438	-200,000	0,015	0,052
-259,424	68,617	-0,096	0,070
-258,409	-200,000	0,015	0,177
-257,395	247,155	0,068	0,083
-256,380	-95,129	0,030	0,006
-255,365	284,415	0,080	-0,103
-254,351	398,409	-0,097	0,146
-253,336	587,897	0,056	0,099
-252,322	38,515	-0,112	-0,072
-251,307	-200,000	0,016	-0,115
-250,292	100,264	-0,034	0,028
-249,278	-31,698	-0,071	0,029
-248,263	13,399	-0,020	-0,011
-247,249	-200,000	-0,004	-0,035
-246,234	32,763	-0,049	0,030
-245,219	119,767	-0,045	0,040
-244,205	-4,624	0,096	-0,047
-243,190	75,756	-0,023	-0,017
-242,176	-123,437	0,068	0,008
-241,161	28,235	-0,083	0,050
-240,146	-200,000	-0,023	-0,081
-239,132	20,506	-0,054	0,031
-238,117	-200,000	0,009	-0,036
-237,103	74,831	-0,006	0,005
-236,088	57,790	-0,045	0,032
-235,073	88,968	0,084	-0,067
-234,059	618,396	-0,061	0,111
-233,044	-8,795	0,075	-0,036
-232,030	800,000	0,029	0,073
-231,015	-128,068	-0,043	0,004
-230,000	800,000	0,025	-0,075
-228,986	45,321	-0,109	-0,072
-227,971	22,863	0,034	-0,020
-226,957	11,928	0,068	0,037
-225,942	767,502	-0,048	0,094
-224,927	-200,000	0,006	0,051
-223,913	800,000	0,006	-0,017
-222,898	77,780	-0,056	-0,043
-221,884	-116,615	-0,118	0,015
-220,869	-200,000	0,023	0,083
-219,855	218,456	-0,071	0,081
-218,840	-42,439	0,082	0,030
-217,825	-200,000	0,007	0,042
-216,811	132,717	0,044	0,041
-215,796	-200,000	0,009	-0,065
-214,782	-91,530	-0,136	-0,027
-213,767	-181,927	-0,126	0,002
-212,752	-155,789	0,082	0,004
-211,738	451,464	0,022	0,034
-210,723	-200,000	0,013	0,072
-209,709	112,484	0,084	0,073
-208,694	84,766	0,168	-0,131
-207,679	471,487	0,059	-0,095
-206,665	-200,000	-0,016	-0,125
-205,650	-117,792	-0,100	-0,013
-204,636	-159,508	0,194	0,008
-203,621	-11,420	-0,044	0,020
-202,606	47,029	0,091	-0,061
-201,592	-200,000	-0,017	-0,062
-200,577	-172,004	-0,091	0,002
-199,563	18,274	0,136	0,077
-198,548	-112,944	-0,104	-0,015
-197,533	765,297	0,015	-0,028
-196,519	-47,911	-0,134	-0,046
-195,504	800,000	0,036	-0,085
-194,490	-200,000	-0,025	-0,102
-193,475	700,455	-0,034	-0,065
-192,460	433,994	-0,105	-0,164
-191,446	288,656	0,086	0,111
-190,431	-45,874	0,158	0,056
-189,417	-70,562	0,082	0,022
-188,402	1,156	-0,036	-0,018
-187,387	-76,508	-0,150	-0,037
-186,373	-200,000	0,036	-0,172
-185,358	-200,000	0,019	0,113
-184,344	-113,855	-0,022	-0,003
-183,329	-17,576	0,091	0,041
-182,315	20,642	-0,163	-0,094
-181,300	-200,000	0,008	0,095
-180,285	-154,081	0,111	-0,005
-179,271	-79,205	0,047	0,011
-178,256	182,619	-0,071	-0,075
-177,242	-200,000	0,011	0,037
-176,227	-200,000	0,028	0,146
-175,212	-200,000	0,017	0,101
-174,198	46,863	0,046	-0,030
-173,183	-94,129	-0,115	0,022
-172,169	-80,795	0,040	-0,009
-171,154	-61,538	0,112	-0,033
-170,139	277,640	0,024	-0,030
-169,125	105,259	0,069	-0,058
-168,110	262,642	-0,004	-0,005
-167,096	-200,000	0,002	0,074
-166,081	346,922	-0,077	-0,108
-165,066	20,311	0,041	-0,023
-164,052	-200,000	-0,001	0,029
-163,037	800,000	0,025	0,061
-162,023	-200,000	-0,026	0,165
-161,008	231,695	-0,045	0,053
-159,993	-78,529	-0,067	0,016
-158,979	-23,395	-0,090	-0,038
-157,964	-200,000	-0,011	0,041
-156,950	413,633	-0,020	-0,030
-155,935	407,010	0,077	0,116
-154,920	-200,000	0,007	0,041
-153,906	-200,000	-0,009	0,032
-152,891	-57,848	0,060	0,019
-151,877	-108,884	-0,073	-0,011
-150,862	43,497	-0,083	-0,054
-149,847	73,789	-0,053	0,040
-148,833	5,486	0,101	0,053
-147,818	151,114	0,054	0,052
-146,804	319,744	0,121	0,164
-145,789	-200,000	-0,023	-0,075
-144,775	-200,000	-0,021	-0,086
-143,760	800,000	-0,017	0,036
-142,745	92,969	-0,048	-0,038
-141,731	-1,358	0,040	-0,020
-140,716	40,663	-0,088	-0,056
-139,702	120,150	-0,029	-0,025
-138,687	85,150	-0,066	0,051
-137,672	-200,000	0,021	0,079
-136,658	-89,737	-0,146	-0,030
-135,643	40,145	-0,051	-0,032
-134,629	65,617	-0,070	0,051
-133,614	718,183	0,118	0,224
-132,599	-200,000	-0,043	0,237
-131,585	59,466	-0,045	-0,032
-130,570	-200,000	0,007	-0,046
-129,556	82,327	-0,102	0,079
-128,541	-200,000	-0,010	-0,047
-127,526	-150,665	0,140	-0,007
-126,512	267,506	-0,077	-0,096
-125,497	48,290	0,093	0,062
-124,483	-200,000	0,015	0,074
-123,468	-170,971	0,114	0,003
-122,453	205,259	0,044	-0,048
-121,439	271,469	-0,048	0,061
-120,424	-130,329	-0,142	-0,014
-119,410	255,387	0,069	0,084
