DTS Sentinel unit serial number:	SN410029Multiplexer serial number:	ORYXHardware model number:	OX2-SRSoftware version number:	ORYX F/W v4,00 Oryx Data Collector v3.7.2.0data status	okinstallation	BH3 CH2differential loss correction	single-endedforward channel	channel 2reverse channel	N/Adate	2023/12/05time	22:27:28forward acquisition time	300,00reverse acquisition time	0,00gamma	499,1914k internal	0,3194k external	0,3194temperature offset calibration	1,0000default loss term (dB/km)	0,3820temperature slope calibration	1,0000multiplexer offset coefficient	1,0000multiplexer slope coefficient	1,0000fibre end	0,00T internal ref (°C)	9,96T ext. ref 1 (°C)	-5,11T ext. ref 2 (°C)	-5,20length (m)	temperature (°C)	Stokes	anti-Stokes-744,400	-145,395	0,051	-0,003
-743,385	-121,970	-0,227	0,027
-742,371	287,013	0,045	-0,060
-741,356	-134,041	-0,157	-0,014
-740,342	320,417	-0,035	0,048
-739,327	-113,004	-0,143	0,020
-738,312	-200,000	-0,002	-0,092
-737,298	-72,850	-0,208	0,055
-736,283	800,000	-0,041	-0,088
-735,269	110,312	-0,209	0,183
-734,254	-98,237	-0,051	0,009
-733,239	-134,365	-0,429	-0,038
-732,225	111,778	-0,026	-0,023
-731,210	800,000	0,032	0,068
-730,196	-200,000	-0,034	0,123
-729,181	-200,000	0,015	0,152
-728,167	106,180	-0,045	-0,039
-727,152	46,349	-0,079	0,053
-726,137	283,411	-0,103	0,135
-725,123	800,000	-0,063	0,166
-724,108	-96,949	-0,167	0,032
-723,094	139,832	0,076	-0,073
-722,079	800,000	-0,045	-0,135
-721,064	151,531	-0,032	-0,032
-720,050	-62,068	-0,052	-0,016
-719,035	382,689	0,045	-0,067
-718,021	140,011	-0,070	-0,067
-717,006	-121,603	-0,063	-0,007
-715,991	800,000	-0,031	0,065
-714,977	-200,000	-0,018	-0,090
-713,962	590,048	-0,116	0,210
-712,948	98,532	0,117	0,098
-711,933	132,729	0,097	-0,091
-710,918	593,267	-0,047	-0,086
-709,904	332,742	0,065	0,092
-708,889	-200,000	-0,002	0,019
-707,875	732,168	-0,081	-0,159
-706,860	151,119	-0,059	0,059
-705,845	-200,000	-0,020	0,153
-704,831	72,520	0,050	-0,038
-703,816	-105,991	0,048	-0,008
-702,802	-200,000	-0,028	-0,091
-701,787	-200,000	0,020	-0,091
-700,772	-83,847	-0,092	0,021
-699,758	-64,510	-0,123	0,036
-698,743	-49,701	0,069	0,024
-697,729	696,696	0,023	0,044
-696,714	465,237	-0,047	-0,077
-695,699	-68,064	-0,066	-0,019
-694,685	-19,999	-0,172	0,077
-693,670	102,279	-0,042	-0,035
-692,656	800,000	-0,083	-0,170
-691,641	800,000	0,051	0,113
-690,627	-200,000	-0,003	-0,117
-689,612	-15,385	-0,074	0,034
-688,597	-36,377	0,071	-0,028
-687,583	-200,000	0,019	-0,086
-686,568	87,724	0,035	0,028
-685,554	12,489	0,118	0,066
-684,539	800,000	-0,033	0,080
-683,524	800,000	0,040	-0,086
-682,510	-52,716	-0,051	0,017
-681,495	800,000	-0,044	0,088
-680,481	-200,000	-0,006	0,040
-679,466	-87,467	-0,127	-0,028
-678,451	151,936	-0,054	0,054
-677,437	441,012	0,051	0,082
-676,422	-200,000	0,009	-0,067
-675,408	10,547	0,115	0,064
-674,393	32,925	-0,021	-0,013
-673,378	-200,000	0,012	-0,071
-672,364	379,270	-0,064	-0,096
-671,349	-200,000	-0,018	-0,136
-670,335	-86,103	0,118	0,026
-669,320	800,000	0,054	0,111
-668,305	316,889	0,046	0,063
-667,291	800,000	-0,083	-0,178
-666,276	-200,000	-0,006	0,073
-665,262	14,767	0,033	-0,019
-664,247	800,000	-0,027	-0,056
-663,232	-91,044	-0,040	-0,008
-662,218	800,000	-0,053	0,159
-661,203	205,334	0,021	0,024
-660,189	86,346	-0,080	-0,064
-659,174	800,000	0,049	-0,143
-658,159	-98,665	-0,136	0,025
-657,145	-12,245	-0,083	-0,039
-656,130	-57,670	0,102	0,032
-655,116	235,503	0,075	0,090
-654,101	-122,228	-0,191	-0,022
-653,086	612,851	-0,041	0,075
-652,072	-194,390	-0,145	0,001
-651,057	-135,614	-0,120	0,010
-650,043	-3,266	-0,126	-0,063
-649,028	-200,000	0,007	0,044
-648,014	-200,000	-0,041	0,143
-646,999	30,548	0,074	0,046
-645,984	336,020	-0,035	0,050
-644,970	-94,883	-0,098	-0,019
-643,955	97,491	-0,078	0,065
-642,941	-92,523	-0,148	-0,030
-641,926	52,289	0,051	0,035
-640,911	335,027	0,086	0,121
-639,897	-200,000	0,006	0,084
-638,882	454,236	0,040	-0,064
-637,868	-66,082	-0,044	-0,013
-636,853	316,044	0,098	-0,134
-635,838	-160,846	0,041	-0,002
-634,824	68,007	0,011	0,008
-633,809	502,826	0,011	-0,018
-632,795	-131,561	-0,094	0,009
-631,780	-54,563	0,119	0,039
-630,765	-200,000	-0,007	-0,067
-629,751	-80,654	-0,107	0,026
-628,736	-200,000	-0,022	-0,075
-627,722	-88,304	0,096	-0,021
-626,707	3,948	0,080	-0,042
-625,692	489,067	-0,028	-0,046
-624,678	800,000	0,011	0,030
-623,663	218,009	-0,045	0,053
-622,649	-200,000	-0,013	-0,065
-621,634	-200,000	0,026	-0,086
-620,619	-200,000	0,017	0,081
-619,605	18,296	-0,039	0,023
-618,590	225,840	0,048	0,057
-617,576	-200,000	-0,024	0,137
-616,561	77,488	-0,101	0,078
-615,546	-112,724	-0,110	-0,016
-614,532	264,076	0,070	-0,088
-613,517	-200,000	-0,009	0,064
-612,503	191,687	0,033	0,036
-611,488	680,955	0,072	0,136
-610,474	-86,854	0,026	-0,006
-609,459	542,388	0,044	-0,077
-608,444	42,421	0,112	-0,074
-607,430	-200,000	-0,013	-0,217
-606,415	21,545	-0,061	-0,036
-605,401	103,179	-0,035	-0,029
-604,386	176,797	-0,084	-0,089
-603,371	263,443	-0,079	-0,100
-602,357	81,616	-0,053	-0,042
-601,342	129,521	-0,085	-0,079
-600,328	-57,310	-0,159	0,050
-599,313	-200,000	-0,001	0,093
-598,298	442,138	0,026	-0,041
-597,284	117,071	-0,069	-0,062
-596,269	-73,611	-0,124	-0,033
-595,255	-8,809	0,055	0,027
-594,240	-4,901	-0,093	-0,046
-593,225	-47,886	-0,022	-0,008
-592,211	190,777	-0,142	-0,155
-591,196	-23,806	-0,074	-0,032
-590,182	429,142	0,042	-0,066
-589,167	175,310	0,058	0,061
-588,152	276,430	-0,043	-0,055
-587,138	-22,132	-0,038	-0,017
-586,123	102,448	-0,125	0,106
-585,109	-200,000	0,014	-0,185
-584,094	3,991	0,048	0,026
-583,079	170,495	-0,094	0,097
-582,065	800,000	-0,024	0,062
-581,050	119,743	0,007	-0,007
-580,036	-200,000	0,003	-0,049
-579,021	59,601	-0,089	-0,064
-578,006	151,257	0,071	-0,070
-576,992	301,854	-0,122	0,163
-575,977	-200,000	-0,021	-0,102
-574,963	800,000	0,020	-0,044
-573,948	800,000	-0,023	-0,048
-572,934	-80,183	-0,043	0,010
-571,919	-37,074	-0,051	-0,020
-570,904	-200,000	0,013	0,156
-569,890	71,484	0,101	-0,076
-568,875	-148,685	0,063	0,004
-567,861	-1,718	0,081	0,041
-566,846	800,000	-0,059	0,146
-565,831	800,000	0,026	-0,069
-564,817	0,050	-0,075	0,039
-563,802	-200,000	-0,000	0,013
-562,788	-39,940	0,050	-0,019
-561,773	340,093	0,038	-0,053
-560,758	-200,000	-0,026	0,213
-559,744	800,000	0,034	0,078
-558,729	-200,000	0,009	0,085
-557,715	233,046	0,012	-0,015
-556,700	-200,000	-0,000	-0,199
-555,685	-200,000	-0,006	-0,082
-554,671	-184,851	0,083	0,001
-553,656	800,000	0,055	-0,141
-552,642	800,000	-0,018	-0,041
-551,627	-200,000	0,016	0,105
-550,612	-159,481	-0,067	-0,003
-549,598	19,543	-0,047	-0,027
-548,583	-200,000	-0,014	-0,064
-547,569	120,269	0,044	-0,040
-546,554	459,709	0,059	-0,095
-545,539	100,701	0,071	0,060
-544,525	-200,000	0,018	-0,073
-543,510	-200,000	-0,016	-0,174
-542,496	44,874	0,066	0,044
-541,481	-14,236	-0,044	-0,020
-540,466	-200,000	-0,019	-0,108
-539,452	145,428	-0,090	0,087
-538,437	-174,394	0,129	-0,003
-537,423	72,504	0,089	0,067
-536,408	-200,000	0,011	-0,067
-535,393	-200,000	-0,037	0,138
-534,379	222,653	0,120	-0,140
-533,364	800,000	0,015	0,036
-532,350	-200,000	0,001	0,008
-531,335	-124,334	0,033	-0,004
-530,321	-200,000	0,000	0,016
-529,306	-200,000	0,002	0,127
-528,291	-200,000	-0,021	0,077
-527,277	282,002	-0,145	-0,189
-526,262	93,074	0,057	0,047
-525,248	-200,000	0,019	-0,078
-524,233	546,441	-0,060	-0,105
-523,218	59,560	-0,019	0,013
-522,204	-124,855	0,072	0,008
-521,189	-72,518	-0,184	0,049
-520,175	800,000	-0,022	-0,049
-519,160	614,710	0,044	-0,081
-518,145	-30,577	-0,110	0,045
-517,131	136,292	0,066	0,062
-516,116	-31,636	0,047	-0,019
-515,102	-123,681	-0,162	-0,018
-514,087	7,873	-0,130	0,070
-513,072	-200,000	-0,011	-0,041
-512,058	800,000	0,026	-0,078
-511,043	590,226	-0,028	0,050
-510,029	297,731	-0,060	-0,080
-509,014	800,000	0,012	0,036
-507,999	-200,000	0,016	-0,061
-506,985	-73,358	-0,080	0,021
-505,970	-200,000	0,026	-0,084
-504,956	636,188	0,050	-0,092
-503,941	141,427	0,071	0,068
-502,926	-200,000	0,034	0,160
-501,912	-33,074	-0,110	-0,044
-500,897	-89,819	-0,078	-0,016
-499,883	-200,000	-0,025	0,091
-498,868	281,386	-0,062	-0,080
-497,853	295,752	-0,066	-0,087
-496,839	-200,000	0,031	-0,119
-495,824	441,473	0,026	0,041
-494,810	423,174	0,103	0,160
-493,795	247,637	0,060	0,074
-492,781	-200,000	-0,014	-0,082
-491,766	631,096	-0,047	0,087
-490,751	800,000	-0,009	0,020
-489,737	-79,526	0,053	-0,013
-488,722	-200,000	-0,011	0,061
-487,708	5,849	0,121	0,065
-486,693	32,930	0,002	-0,001
-485,678	-80,754	-0,061	0,014
-484,664	1,071	-0,104	-0,054
-483,649	-200,000	0,013	-0,069
-482,635	537,388	-0,036	-0,062
-481,620	-200,000	-0,035	0,112
-480,605	330,881	0,044	-0,062
-479,591	230,683	0,014	-0,017
-478,576	-29,708	-0,199	0,081
-477,562	-200,000	0,018	0,137
-476,547	348,314	-0,073	-0,103
-475,532	-138,967	-0,013	-0,001
-474,518	-200,000	-0,014	0,090
-473,503	188,752	-0,066	0,071
-472,489	-45,174	0,290	0,103
-471,474	122,074	-0,015	0,014
-470,459	-200,000	-0,038	-0,125
-469,445	-40,871	-0,081	-0,030
-468,430	-110,998	-0,198	0,029
-467,416	-99,995	0,126	-0,023
-466,401	800,000	0,032	-0,073
-465,386	93,219	-0,046	0,037
-464,372	-200,000	0,001	0,188
-463,357	-145,473	-0,084	0,005
-462,343	-200,000	-0,005	-0,070
-461,328	-147,394	-0,049	-0,003
-460,313	3,983	0,055	0,029
-459,299	465,603	-0,038	0,062
-458,284	-77,547	-0,038	-0,009
-457,270	178,620	-0,020	-0,021
-456,255	41,298	-0,179	-0,116
-455,241	-16,925	0,046	-0,021
-454,226	-200,000	0,023	0,150
-453,211	120,225	0,067	0,060
-452,197	252,859	0,091	-0,112
-451,182	371,135	0,030	0,044
-450,168	-104,301	0,162	-0,027
-449,153	762,447	-0,067	-0,131
-448,138	212,900	-0,089	-0,101
-447,124	-9,053	0,068	-0,033
-446,109	108,934	0,050	-0,043
-445,095	71,264	0,037	0,028
-444,080	405,318	0,065	0,099
-443,065	-74,820	-0,076	-0,020
-442,051	260,501	-0,061	-0,076
-441,036	800,000	-0,061	-0,149
-440,022	-200,000	-0,004	-0,063
-439,007	-78,125	-0,120	-0,030
-437,992	-200,000	-0,015	-0,110
-436,978	12,062	0,044	0,024
-435,963	307,322	-0,090	0,121
-434,949	333,156	-0,063	-0,088
-433,934	517,333	-0,029	0,049
-432,919	425,135	-0,088	-0,138
-431,905	311,634	0,062	-0,083
-430,890	-122,316	0,234	0,027
-429,876	18,821	0,045	-0,026
-428,861	443,869	-0,012	0,020
-427,846	-105,112	0,133	0,022
-426,832	132,285	0,030	0,027
-425,817	-200,000	0,012	0,067
-424,803	187,113	0,079	0,085
-423,788	400,401	0,021	0,032
-422,773	-138,176	0,054	0,004
-421,759	-12,476	0,045	-0,021
-420,744	352,790	-0,080	0,115
-419,730	49,070	-0,166	0,112
-418,715	172,322	-0,012	0,012
-417,701	800,000	-0,013	-0,038
-416,686	-200,000	0,007	0,057
-415,671	-139,161	0,081	-0,006
-414,657	-200,000	-0,009	0,107
-413,642	-200,000	0,006	0,061
-412,628	39,597	0,089	-0,058
-411,613	294,512	-0,040	-0,053
-410,598	-60,405	0,029	-0,009
-409,584	566,941	0,031	-0,055
-408,569	-200,000	0,020	0,103
-407,555	800,000	0,060	0,141
-406,540	568,964	0,041	0,072
-405,525	104,771	0,066	-0,056
-404,511	-200,000	0,000	-0,052
-403,496	-160,049	-0,035	-0,001
-402,482	-135,325	-0,068	0,006
-401,467	-47,931	0,043	-0,015
-400,452	-4,136	0,071	-0,035
-399,438	81,056	0,072	0,056
-398,423	-66,725	-0,094	-0,026
-397,409	125,456	0,040	0,036
-396,394	83,183	0,119	-0,093
-395,379	-3,826	-0,087	-0,043
-394,365	-69,808	0,109	0,030
-393,350	-63,037	0,070	0,021
-392,336	463,706	-0,043	0,069
-391,321	-78,662	0,199	-0,049
-390,306	-200,000	-0,030	-0,167
-389,292	-123,333	-0,042	0,005
-388,277	298,983	0,014	0,019
-387,263	-200,000	-0,015	0,111
-386,248	92,255	0,040	0,032
-385,233	-26,828	-0,062	0,026
-384,219	-200,000	-0,023	0,090
-383,204	65,283	0,130	-0,094
-382,190	-2,329	-0,097	-0,049
-381,175	-200,000	0,009	-0,061
-380,160	-200,000	-0,009	0,145
-379,146	800,000	-0,057	0,117
-378,131	-119,817	0,082	-0,010
-377,117	-8,589	-0,106	0,051
-376,102	-9,546	0,033	-0,016
-375,088	-131,441	-0,099	-0,009
-374,073	-200,000	0,009	-0,074
-373,058	-19,979	0,110	0,049
-372,044	-125,421	-0,044	-0,005
-371,029	-200,000	0,004	0,169
-370,015	426,384	0,012	0,019
-369,000	93,613	-0,059	-0,048
-367,985	31,008	-0,156	-0,096
-366,971	128,317	0,089	0,081
-365,956	-111,386	-0,021	0,003
-364,942	-200,000	-0,019	-0,072
-363,927	-200,000	0,012	0,107
-362,912	524,976	0,034	0,057
-361,898	-38,612	-0,143	-0,054
-360,883	237,887	-0,051	-0,061
-359,869	762,220	-0,047	0,093
-358,854	91,248	-0,041	-0,033
-357,839	-130,673	0,043	0,004
-356,825	-200,000	-0,015	0,062
-355,810	-200,000	0,011	0,120
-354,796	800,000	0,025	0,074
-353,781	-200,000	0,002	0,023
-352,766	-200,000	0,029	-0,155
-351,752	10,609	0,058	0,031
-350,737	-109,541	0,105	0,016
-349,723	612,273	0,055	0,099
-348,708	119,017	-0,009	-0,008
-347,693	38,751	0,007	0,004
-346,679	-200,000	-0,011	-0,048
-345,664	127,422	-0,052	0,048
-344,650	175,069	0,054	-0,056
-343,635	-200,000	-0,031	0,130
-342,620	-200,000	0,034	0,161
-341,606	-200,000	0,052	-0,212
-340,591	-200,000	-0,005	-0,132
-339,577	-7,599	0,025	-0,012
-338,562	800,000	-0,058	-0,123
-337,548	567,218	0,098	-0,171
-336,533	257,848	0,117	0,145
-335,518	126,522	-0,039	-0,036
-334,504	800,000	-0,028	0,068
-333,489	-194,700	0,072	0,000
-332,475	-200,000	-0,006	0,025
-331,460	-200,000	0,008	-0,079
-330,445	-200,000	-0,013	0,103
-329,431	479,584	0,016	0,027
-328,416	-25,310	0,097	0,041
-327,402	-200,000	0,013	0,075
-326,387	217,508	0,071	0,081
-325,372	-111,862	-0,130	-0,019
-324,358	-200,000	0,001	0,094
-323,343	-119,318	-0,088	0,011
-322,329	507,123	0,023	0,038
-321,314	49,617	0,111	0,075
-320,299	-162,063	-0,032	-0,001
-319,285	800,000	0,089	-0,200
-318,270	89,134	-0,027	0,022
-317,256	-81,030	-0,108	-0,025
-316,241	59,705	-0,026	0,018
-315,226	174,867	0,107	0,111
-314,212	-108,214	0,089	0,014
-313,197	-84,596	0,042	-0,009
-312,183	800,000	-0,056	0,120
-311,168	547,772	-0,028	-0,049
-310,153	-200,000	-0,001	-0,041
-309,139	560,326	-0,044	0,076
-308,124	409,582	0,023	0,035
-307,110	127,376	-0,081	0,074
-306,095	-27,704	0,127	-0,053
-305,080	-200,000	-0,005	0,051
-304,066	800,000	0,013	-0,038
-303,051	800,000	-0,074	-0,194
-302,037	-1,570	-0,096	-0,048
-301,022	18,404	-0,030	0,017
-300,008	74,973	-0,072	0,054
-298,993	235,020	-0,045	-0,053
-297,978	80,376	0,089	0,068
-296,964	-78,301	-0,090	-0,022
-295,949	-200,000	-0,023	-0,174
-294,935	-200,000	-0,028	-0,151
-293,920	-200,000	0,010	-0,092
-292,905	-126,865	0,139	-0,015
-291,891	538,179	-0,017	-0,029
-290,876	-200,000	0,007	0,156
-289,862	-102,137	0,045	-0,008
-288,847	248,696	-0,078	-0,095
-287,832	67,396	0,077	-0,056
-286,818	53,602	0,135	0,093
-285,803	230,773	-0,063	-0,074
-284,789	40,595	0,109	0,070
-283,774	800,000	-0,044	-0,087
-282,759	-200,000	0,001	0,057
-281,745	17,097	0,132	-0,075
-280,730	-200,000	0,024	-0,099
-279,716	-175,680	-0,009	-0,000
-278,701	221,010	0,055	0,063
-277,686	800,000	0,030	0,073
-276,672	388,502	0,031	0,046
-275,657	-103,172	0,051	0,008
-274,643	202,059	-0,069	-0,076
-273,628	200,889	0,090	-0,099
-272,613	219,045	0,006	0,007
-271,599	70,866	0,102	0,075
-270,584	26,481	0,127	0,076
-269,570	800,000	-0,024	0,062
-268,555	-200,000	0,025	0,135
-267,540	-200,000	-0,017	-0,166
-266,526	200,441	0,034	0,038
-265,511	-11,919	-0,057	0,027
-264,497	800,000	0,079	-0,182
-263,482	289,210	-0,023	0,030
-262,467	-200,000	-0,034	-0,117
-261,453	328,024	-0,026	0,035
-260,438	391,338	0,101	0,151
-259,424	130,388	-0,039	0,036
-258,409	75,913	0,040	-0,030
-257,395	-142,393	0,150	0,010
-256,380	-147,657	0,085	0,005
-255,365	-50,109	0,149	-0,050
-254,351	-200,000	-0,003	0,104
-253,336	87,636	-0,028	-0,022
-252,322	239,102	0,096	-0,115
-251,307	85,125	0,016	-0,013
-250,292	615,782	-0,033	0,060
-249,278	-200,000	-0,001	0,090
-248,263	-106,525	0,053	-0,008
-247,249	-7,696	0,101	0,049
-246,234	497,570	0,007	-0,011
-245,219	-124,268	-0,120	0,013
-244,205	565,518	0,020	-0,035
-243,190	-157,934	-0,131	0,005
-242,176	22,788	0,061	0,036
-241,161	-200,000	-0,001	0,109
-240,146	800,000	0,037	-0,112
-239,132	17,322	0,039	0,022
-238,117	118,008	-0,047	0,041
-237,103	-150,199	-0,072	0,004
-236,088	-200,000	0,002	0,040
-235,073	800,000	-0,011	-0,027
-234,059	-65,010	-0,040	-0,011
-233,044	-48,684	-0,026	0,009
-232,030	800,000	-0,037	0,087
-231,015	-103,935	-0,110	-0,018
-230,000	-119,645	-0,131	-0,016
-228,986	-122,453	0,038	-0,004
-227,971	181,856	0,088	-0,092
-226,957	-200,000	0,027	0,114
-225,942	-200,000	0,044	-0,187
-224,927	800,000	-0,005	0,017
-223,913	212,976	-0,113	-0,128
-222,898	-200,000	-0,027	-0,159
-221,884	105,826	-0,124	0,105
-220,869	18,994	0,116	0,066
-219,855	216,043	0,041	0,046
-218,840	-20,160	-0,013	-0,006
-217,825	-200,000	-0,008	-0,149
-216,811	490,965	-0,111	0,181
-215,796	303,594	0,105	-0,139
-214,782	414,541	-0,046	0,070
-213,767	-171,869	0,168	-0,004
-212,752	498,040	0,046	0,075
-211,738	800,000	-0,027	0,084
-210,723	192,055	0,093	-0,100
-209,709	335,465	-0,049	-0,068
-208,694	-76,153	-0,066	0,016
-207,679	291,497	0,029	0,038
-206,665	552,237	-0,076	0,131
-205,650	435,106	0,021	0,032
-204,636	-25,244	-0,154	-0,065
-203,621	660,947	0,036	0,066
-202,606	184,109	-0,111	-0,118
-201,592	-169,236	-0,095	0,002
-200,577	-16,309	0,041	0,018
-199,563	266,216	-0,030	-0,038
-198,548	248,087	0,129	0,156
-197,533	-200,000	0,028	0,101
-196,519	-109,959	0,021	0,003
-195,504	-25,627	0,054	0,023
-194,490	214,715	0,098	-0,111
-193,475	527,634	-0,100	-0,169
-192,460	289,692	-0,016	0,021
-191,446	717,703	0,037	-0,071
-190,431	-108,581	-0,057	0,009
-189,417	-200,000	0,011	0,051
-188,402	58,261	-0,108	-0,076
-187,387	165,066	-0,051	-0,051
-186,373	-83,987	-0,101	-0,023
-185,358	-200,000	0,031	-0,107
-184,344	-200,000	0,011	-0,039
-183,329	-2,919	0,123	0,061
-182,315	414,599	-0,057	0,086
-181,300	99,436	-0,089	0,073
-180,285	-157,456	-0,135	-0,006
-179,271	-23,386	-0,146	0,062
-178,256	-137,331	0,074	0,006
-177,242	-200,000	0,012	-0,055
-176,227	800,000	0,034	0,087
-175,212	555,661	-0,030	0,052
-174,198	-4,388	0,154	0,076
-173,183	-102,070	-0,103	-0,018
-172,169	172,481	-0,077	0,079
-171,154	-97,555	0,132	-0,024
-170,139	165,705	-0,051	-0,052
-169,125	-200,000	0,000	0,095
-168,110	-7,142	0,115	0,056
-167,096	412,112	-0,089	-0,136
-166,081	-38,887	0,169	-0,063
-165,066	88,785	-0,020	0,016
-164,052	-0,764	0,002	0,001
-163,037	265,127	0,061	0,077
-162,023	800,000	0,021	0,048
-161,008	-200,000	0,005	-0,028
-159,993	317,240	0,063	-0,086
-158,979	-200,000	-0,010	-0,112
-157,964	800,000	-0,018	0,050
-156,950	524,841	0,020	0,034
-155,935	-49,154	-0,126	0,043
-154,920	-141,545	0,106	-0,007
-153,906	141,633	0,049	0,046
-152,891	-173,261	-0,044	0,001
-151,877	-39,345	-0,076	-0,028
-150,862	-176,496	0,104	-0,002
-149,847	95,422	0,062	0,050
-148,833	122,870	0,035	-0,031
-147,818	-200,000	0,024	-0,086
-146,804	87,489	0,083	-0,066
-145,789	285,845	0,040	0,052
-144,775	-60,898	0,029	0,009
-143,760	800,000	-0,023	-0,046
-142,745	-200,000	0,020	0,095
-141,731	-200,000	0,012	0,107
-140,716	-79,451	0,128	0,031
-139,702	-74,822	-0,156	0,040
-138,687	136,476	-0,073	0,068
-137,672	84,605	0,057	-0,044
-136,658	-200,000	0,000	-0,060
-135,643	311,577	-0,057	0,076
-134,629	58,149	0,023	0,016
-133,614	-65,309	0,066	-0,019
-132,599	307,781	-0,035	0,046
-131,585	255,449	0,109	-0,133
-130,570	44,938	-0,010	0,006
-129,556	-77,689	-0,066	0,016
-128,541	-107,860	-0,096	-0,015
-127,526	24,147	-0,149	0,087
-126,512	800,000	-0,026	0,062
-125,497	-74,538	0,145	0,037
-124,483	90,242	-0,034	-0,027
-123,468	-145,445	0,213	0,013
-122,453	-60,327	0,170	0,051
-121,439	-200,000	-0,014	-0,063
-120,424	800,000	-0,035	0,085
-119,410	-109,220	0,044	-0,007
