DTS Sentinel unit serial number:	SN410029Multiplexer serial number:	ORYXHardware model number:	OX2-SRSoftware version number:	ORYX F/W v4,00 Oryx Data Collector v3.7.2.0data status	okinstallation	BH3 CH2differential loss correction	single-endedforward channel	channel 2reverse channel	N/Adate	2023/12/05time	22:02:28forward acquisition time	300,00reverse acquisition time	0,00gamma	499,1914k internal	0,3193k external	0,3193temperature offset calibration	1,0000default loss term (dB/km)	0,3820temperature slope calibration	1,0000multiplexer offset coefficient	1,0000multiplexer slope coefficient	1,0000fibre end	0,00T internal ref (°C)	10,12T ext. ref 1 (°C)	-4,98T ext. ref 2 (°C)	-5,09length (m)	temperature (°C)	Stokes	anti-Stokes-744,400	170,296	-0,158	-0,165
-743,385	800,000	-0,042	0,094
-742,371	284,297	-0,109	-0,144
-741,356	260,071	-0,246	0,310
-740,342	-22,222	-0,133	0,058
-739,327	-200,000	0,026	0,112
-738,312	-200,000	-0,011	-0,178
-737,298	48,650	-0,107	0,073
-736,283	258,608	0,099	-0,125
-735,269	-125,839	-0,179	-0,019
-734,254	-200,000	0,031	-0,135
-733,239	-83,731	-0,399	-0,092
-732,225	-34,991	-0,066	-0,026
-731,210	-200,000	-0,018	0,254
-730,196	-44,986	-0,079	0,029
-729,181	171,178	0,015	0,016
-728,167	-200,000	0,043	0,148
-727,152	-200,000	-0,040	-0,191
-726,137	12,255	-0,157	0,088
-725,123	-115,755	-0,085	0,011
-724,108	9,031	0,041	0,022
-723,094	-63,604	-0,146	0,043
-722,079	381,763	-0,060	0,090
-721,064	0,265	-0,029	0,015
-720,050	-65,548	0,094	0,027
-719,035	-200,000	0,027	0,088
-718,021	-84,197	-0,154	-0,035
-717,006	279,377	0,027	0,035
-715,991	27,360	-0,230	-0,140
-714,977	800,000	-0,055	-0,136
-713,962	-200,000	-0,004	-0,162
-712,948	44,621	0,060	-0,040
-711,933	145,464	-0,032	0,031
-710,918	107,167	-0,070	-0,061
-709,904	189,329	-0,079	-0,087
-708,889	-91,784	0,038	0,008
-707,875	-200,000	0,059	-0,190
-706,860	-200,000	0,018	0,089
-705,845	-166,732	-0,100	0,003
-704,831	78,319	0,051	0,040
-703,816	163,396	0,063	0,065
-702,802	-112,801	-0,088	0,013
-701,787	-4,707	-0,157	-0,078
-700,772	249,880	-0,059	-0,073
-699,758	-104,313	-0,091	0,015
-698,743	492,395	-0,027	-0,044
-697,729	18,850	-0,011	-0,006
-696,714	71,810	0,183	0,139
-695,699	-200,000	-0,007	0,102
-694,685	-16,727	-0,075	0,034
-693,670	-200,000	-0,003	0,014
-692,656	-108,313	-0,006	0,001
-691,641	-82,098	-0,127	0,030
-690,627	-200,000	-0,016	0,148
-689,612	-200,000	0,011	0,110
-688,597	800,000	-0,047	0,110
-687,583	-200,000	-0,017	-0,090
-686,568	-200,000	0,006	-0,123
-685,554	-200,000	0,007	0,146
-684,539	224,045	-0,121	0,142
-683,524	-200,000	-0,016	0,170
-682,510	-71,486	-0,067	0,018
-681,495	-105,960	-0,223	0,036
-680,481	182,858	-0,064	-0,069
-679,466	-45,452	-0,103	-0,037
-678,451	-200,000	-0,003	-0,090
-677,437	-53,648	-0,122	0,040
-676,422	800,000	0,030	0,090
-675,408	132,522	-0,037	0,035
-674,393	134,095	0,023	0,022
-673,378	800,000	-0,035	-0,110
-672,364	800,000	-0,066	0,169
-671,349	39,242	-0,050	0,032
-670,335	518,908	0,073	-0,125
-669,320	419,912	0,053	0,083
-668,305	249,162	-0,034	0,042
-667,291	800,000	-0,093	-0,194
-666,276	800,000	0,015	0,037
-665,262	-200,000	-0,058	-0,254
-664,247	69,371	-0,026	-0,020
-663,232	-200,000	-0,029	-0,140
-662,218	338,774	0,021	-0,030
-661,203	800,000	-0,050	0,146
-660,189	16,674	-0,059	-0,034
-659,174	-200,000	-0,002	-0,137
-658,159	-70,502	-0,079	-0,022
-657,145	-35,672	-0,072	-0,028
-656,130	27,206	-0,065	-0,039
-655,116	-200,000	0,026	0,083
-654,101	320,852	0,015	-0,021
-653,086	-200,000	-0,024	0,113
-652,072	800,000	0,013	-0,038
-651,057	-200,000	-0,017	0,083
-650,043	800,000	-0,065	0,137
-649,028	454,113	0,059	-0,095
-648,014	800,000	0,042	-0,108
-646,999	-200,000	0,016	-0,071
-645,984	-97,436	-0,059	-0,011
-644,970	-200,000	0,008	-0,075
-643,955	768,996	-0,023	-0,046
-642,941	-200,000	-0,004	-0,034
-641,926	14,320	-0,111	0,063
-640,911	-163,686	0,073	-0,002
-639,897	-32,635	-0,099	-0,040
-638,882	0,185	-0,014	0,007
-637,868	-146,869	-0,035	0,002
-636,853	757,192	0,043	-0,084
-635,838	-46,534	-0,180	-0,064
-634,824	278,080	-0,027	0,035
-633,809	-200,000	-0,001	0,084
-632,795	-79,177	-0,188	0,046
-631,780	517,026	-0,023	-0,039
-630,765	416,375	-0,056	0,087
-629,751	-47,735	-0,156	0,054
-628,736	-200,000	-0,028	0,164
-627,722	216,800	-0,049	0,056
-626,707	583,119	-0,037	-0,067
-625,692	-118,863	0,125	-0,016
-624,678	316,156	-0,017	0,023
-623,663	-200,000	0,020	0,083
-622,649	-39,834	-0,156	-0,059
-621,634	800,000	0,020	0,061
-620,619	108,880	0,041	-0,036
-619,605	-41,378	0,110	0,041
-618,590	191,479	0,037	-0,041
-617,576	-127,922	-0,150	0,015
-616,561	800,000	0,025	-0,065
-615,546	-58,046	0,029	0,009
-614,532	800,000	0,069	-0,166
-613,517	-200,000	0,005	-0,050
-612,503	-200,000	0,027	0,190
-611,488	-200,000	-0,013	0,069
-610,474	-200,000	-0,001	0,015
-609,459	-145,886	-0,124	-0,008
-608,444	-181,963	-0,213	0,003
-607,430	-163,168	-0,098	-0,003
-606,415	800,000	0,034	0,103
-605,401	800,000	-0,034	-0,088
-604,386	-139,786	0,107	0,008
-603,371	407,233	0,037	0,057
-602,357	800,000	-0,031	-0,093
-601,342	800,000	-0,011	0,024
-600,328	-200,000	-0,020	0,072
-599,313	-200,000	-0,001	0,036
-598,298	800,000	-0,022	-0,062
-597,284	469,339	-0,090	0,147
-596,269	112,750	0,026	0,023
-595,255	234,185	0,039	-0,047
-594,240	313,375	-0,047	-0,064
-593,225	-128,691	0,091	-0,009
-592,211	-21,979	-0,131	-0,058
-591,196	-93,322	0,097	0,019
-590,182	75,709	-0,051	-0,039
-589,167	208,876	-0,035	0,040
-588,152	-72,000	0,116	-0,031
-587,138	800,000	0,068	0,166
-586,123	775,390	0,009	-0,018
-585,109	73,213	-0,104	0,079
-584,094	-200,000	-0,005	-0,032
-583,079	245,625	0,058	0,071
-582,065	-200,000	-0,019	-0,089
-581,050	800,000	-0,020	-0,061
-580,036	72,476	-0,120	-0,091
-579,021	-83,219	0,143	0,033
-578,006	-110,128	-0,236	0,035
-576,992	-200,000	0,001	-0,019
-575,977	370,964	0,080	-0,118
-574,963	86,394	0,072	-0,058
-573,948	-76,839	0,127	-0,032
-572,934	95,851	-0,021	0,017
-571,919	800,000	-0,059	0,141
-570,904	27,750	0,010	0,006
-569,890	-35,171	-0,089	0,035
-568,875	-200,000	-0,010	0,076
-567,861	157,538	0,040	0,040
-566,846	-200,000	-0,004	-0,089
-565,831	-172,206	0,060	-0,001
-564,817	-200,000	-0,003	-0,059
-563,802	-200,000	0,003	0,082
-562,788	141,881	-0,017	0,017
-561,773	800,000	0,030	-0,086
-560,758	-129,508	0,095	-0,009
-559,744	565,701	0,017	-0,031
-558,729	-200,000	0,022	0,108
-557,715	16,542	-0,119	-0,068
-556,700	-200,000	-0,018	-0,130
-555,685	800,000	-0,014	-0,041
-554,671	348,285	0,033	-0,047
-553,656	800,000	-0,036	0,105
-552,642	-200,000	-0,004	-0,023
-551,627	800,000	-0,034	-0,077
-550,612	47,637	0,118	-0,079
-549,598	24,437	-0,030	-0,018
-548,583	9,336	0,083	-0,045
-547,569	-82,216	-0,024	-0,006
-546,554	800,000	0,040	0,097
-545,539	-0,395	0,030	-0,015
-544,525	-200,000	0,000	-0,051
-543,510	381,763	-0,034	0,051
-542,496	-200,000	0,010	0,063
-541,481	-200,000	-0,054	-0,227
-540,466	800,000	-0,045	0,114
-539,452	-110,241	0,094	0,014
-538,437	-200,000	0,030	0,151
-537,423	49,383	0,068	0,046
-536,408	-200,000	-0,029	0,100
-535,393	-85,714	-0,214	0,048
-534,379	-200,000	0,013	-0,148
-533,364	142,618	0,047	0,045
-532,350	-122,800	0,047	-0,005
-531,335	-200,000	0,024	0,078
-530,321	-200,000	0,002	0,032
-529,306	-42,168	-0,233	0,086
-528,291	-134,699	0,062	0,005
-527,277	139,102	-0,104	-0,099
-526,262	-56,153	-0,082	-0,026
-525,248	-68,836	0,145	0,040
-524,233	98,785	-0,076	0,064
-523,218	-200,000	-0,018	0,123
-522,204	-200,000	-0,011	0,056
-521,189	-68,225	-0,129	0,036
-520,175	800,000	-0,009	0,020
-519,160	-66,600	-0,094	-0,027
-518,145	800,000	0,041	-0,091
-517,131	500,162	0,023	-0,039
-516,116	-200,000	-0,018	0,105
-515,102	-36,262	0,112	0,044
-514,087	-111,770	-0,101	-0,015
-513,072	-200,000	-0,012	-0,075
-512,058	177,480	-0,031	0,033
-511,043	34,841	0,040	0,025
-510,029	185,907	-0,152	0,163
-509,014	-28,235	0,134	-0,056
-507,999	153,136	0,033	0,033
-506,985	217,048	0,029	0,033
-505,970	-126,487	-0,108	0,011
-504,956	-142,316	-0,085	-0,006
-503,941	182,167	0,022	0,024
-502,926	0,781	0,142	0,073
-501,912	800,000	0,044	0,118
-500,897	226,121	-0,057	-0,066
-499,883	167,720	-0,084	-0,086
-498,868	-200,000	-0,018	-0,167
-497,853	31,404	0,140	-0,087
-496,839	190,911	0,042	-0,046
-495,824	-142,463	0,076	-0,005
-494,810	616,558	0,069	0,126
-493,795	-136,482	0,122	0,010
-492,781	800,000	-0,063	0,192
-491,766	30,763	-0,070	-0,043
-490,751	-200,000	0,013	-0,047
-489,737	800,000	-0,057	-0,143
-488,722	-70,085	0,035	-0,010
-487,708	97,176	0,059	-0,049
-486,693	-102,574	0,068	0,012
-485,678	800,000	0,049	-0,121
-484,664	66,601	-0,032	0,024
-483,649	336,613	0,045	-0,063
-482,635	800,000	0,037	-0,079
-481,620	243,140	-0,055	0,067
-480,605	-200,000	-0,011	0,109
-479,591	446,181	0,017	0,028
-478,576	-118,668	-0,043	-0,005
-477,562	350,873	-0,063	-0,091
-476,547	800,000	0,035	-0,108
-475,532	-102,651	-0,157	0,027
-474,518	728,827	0,060	0,117
-473,503	297,394	0,012	0,016
-472,489	-171,279	-0,180	-0,004
-471,474	110,041	0,075	-0,065
-470,459	73,504	-0,112	0,085
-469,445	-184,837	-0,105	-0,001
-468,430	383,002	0,032	0,047
-467,416	288,310	0,045	0,059
-466,401	-131,204	0,120	0,011
-465,386	800,000	0,059	-0,122
-464,372	800,000	0,029	-0,064
-463,357	341,826	-0,016	0,022
-462,343	99,398	-0,121	0,101
-461,328	348,748	0,093	-0,133
-460,313	-7,714	-0,143	-0,069
-459,299	-200,000	-0,001	-0,043
-458,284	151,858	-0,053	-0,052
-457,270	800,000	0,010	-0,026
-456,255	800,000	0,033	-0,097
-455,241	206,717	-0,020	0,022
-454,226	203,956	0,073	-0,081
-453,211	-200,000	-0,001	0,057
-452,197	-6,281	-0,058	-0,029
-451,182	-200,000	-0,009	0,167
-450,168	98,284	0,057	0,047
-449,153	-14,032	-0,099	-0,046
-448,138	800,000	-0,046	-0,099
-447,124	356,549	-0,028	0,041
-446,109	187,373	0,070	-0,075
-445,095	-200,000	-0,026	0,150
-444,080	726,452	0,095	0,184
-443,065	-66,048	-0,092	-0,026
-442,051	297,329	-0,091	0,120
-441,036	-200,000	-0,026	-0,123
-440,022	-127,646	0,034	0,004
-439,007	-46,491	0,017	0,006
-437,992	-93,977	-0,119	0,023
-436,978	49,126	0,116	0,078
-435,963	-200,000	0,022	0,081
-434,949	354,734	0,012	-0,018
-433,934	5,590	-0,027	0,014
-432,919	800,000	-0,092	-0,201
-431,905	-22,047	-0,214	-0,093
-430,890	-200,000	0,005	0,028
-429,876	800,000	0,049	0,117
-428,861	-13,652	0,135	-0,063
-427,846	37,173	-0,073	0,046
-426,832	-82,174	-0,185	0,043
-425,817	137,732	0,051	-0,048
-424,803	-200,000	-0,024	-0,194
-423,788	347,574	0,058	-0,082
-422,773	-70,267	0,150	0,041
-421,759	-200,000	-0,004	0,039
-420,744	-120,348	0,098	0,012
-419,730	194,601	-0,045	-0,049
-418,715	-76,903	-0,182	-0,045
-417,701	121,781	0,078	-0,070
-416,686	116,832	-0,071	-0,063
-415,671	462,221	0,087	0,141
-414,657	278,013	-0,067	-0,086
-413,642	413,576	0,062	-0,095
-412,628	-34,036	-0,030	0,012
-411,613	663,478	-0,037	-0,068
-410,598	-200,000	-0,002	-0,056
-409,584	-155,134	0,073	0,003
-408,569	67,140	0,094	0,069
-407,555	800,000	0,041	0,083
-406,540	374,243	-0,020	-0,030
-405,525	-79,639	-0,013	-0,003
-404,511	259,169	-0,053	-0,066
-403,496	726,268	0,021	0,041
-402,482	-36,176	0,052	-0,020
-401,467	800,000	0,014	0,036
-400,452	181,202	0,073	0,077
-399,438	104,254	-0,079	0,067
-398,423	-200,000	0,009	-0,101
-397,409	800,000	0,042	-0,125
-396,394	236,284	-0,110	-0,131
-395,379	319,506	0,055	0,075
-394,365	-200,000	0,028	0,116
-393,350	-200,000	-0,007	0,059
-392,336	151,949	0,129	0,126
-391,321	40,306	0,023	0,015
-390,306	-200,000	-0,015	-0,069
-389,292	-64,055	-0,149	-0,044
-388,277	355,297	0,100	-0,143
-387,263	74,386	0,134	0,101
-386,248	-200,000	-0,013	-0,135
-385,233	-146,319	-0,149	0,009
-384,219	-200,000	0,013	-0,063
-383,204	800,000	0,031	-0,069
-382,190	-200,000	-0,008	0,155
-381,175	-102,054	-0,063	0,011
-380,160	-181,532	0,064	0,001
-379,146	52,097	0,064	0,044
-378,131	71,061	-0,009	0,007
-377,117	-200,000	-0,007	0,047
-376,102	-143,343	0,064	-0,004
-375,088	-200,000	0,007	-0,069
-374,073	-79,282	0,054	-0,013
-373,058	-34,613	-0,043	0,017
-372,044	461,153	0,018	-0,029
-371,029	213,358	-0,069	0,079
-370,015	-49,757	-0,109	0,037
-369,000	113,259	0,128	-0,111
-367,985	246,548	-0,090	-0,109
-366,971	70,782	-0,034	-0,025
-365,956	124,175	0,034	0,031
-364,942	303,573	-0,073	0,097
-363,927	15,370	-0,031	-0,017
-362,912	800,000	0,022	-0,055
-361,898	746,905	0,035	0,067
-360,883	800,000	-0,018	0,054
-359,869	50,665	-0,080	-0,054
-358,854	110,753	-0,018	0,016
-357,839	-134,326	0,114	-0,010
-356,825	800,000	0,052	0,124
-355,810	720,609	0,034	0,066
-354,796	-200,000	-0,007	-0,064
-353,781	800,000	0,004	0,011
-352,766	-200,000	-0,002	0,015
-351,752	123,356	0,019	0,017
-350,737	-131,395	0,112	0,011
-349,723	376,924	-0,067	0,098
-348,708	-200,000	0,010	0,032
-347,693	-200,000	0,010	0,129
-346,679	800,000	0,066	-0,136
-345,664	-200,000	0,032	0,103
-344,650	730,366	0,079	0,152
-343,635	-21,233	0,125	0,055
-342,620	-200,000	-0,010	0,048
-341,606	48,870	-0,130	-0,088
-340,591	-41,302	0,123	0,045
-339,577	-53,634	0,109	0,036
-338,562	-200,000	-0,017	-0,096
-337,548	800,000	-0,039	-0,088
-336,533	374,710	0,092	0,135
-335,518	-200,000	-0,014	0,138
-334,504	161,625	0,050	-0,050
-333,489	195,895	-0,145	0,159
-332,475	569,344	-0,006	-0,011
-331,460	-200,000	0,020	-0,128
-330,445	-178,279	0,088	0,001
-329,431	-125,613	-0,038	0,004
-328,416	-200,000	0,028	-0,114
-327,402	-171,539	0,055	-0,001
-326,387	-200,000	-0,208	0,000
-325,372	97,118	-0,023	0,019
-324,358	800,000	0,017	-0,037
-323,343	120,355	-0,046	0,041
-322,329	-0,687	-0,146	-0,074
-321,314	75,017	0,066	0,050
-320,299	14,019	0,018	0,010
-319,285	-27,002	0,127	-0,053
-318,270	-200,000	0,001	-0,194
-317,256	-200,000	-0,004	-0,027
-316,241	411,344	0,065	0,099
-315,226	301,358	0,059	-0,078
-314,212	427,186	0,052	0,081
-313,197	-200,000	0,035	-0,164
-312,183	800,000	-0,020	0,049
-311,168	288,267	-0,043	-0,056
-310,153	-200,000	0,002	-0,125
-309,139	96,403	0,027	0,022
-308,124	-200,000	0,006	-0,084
-307,110	115,791	0,043	-0,037
-306,095	-75,830	0,136	0,034
-305,080	-200,000	-0,008	0,127
-304,066	-103,461	-0,095	-0,016
-303,051	-100,137	0,061	-0,011
-302,037	301,612	0,022	-0,029
-301,022	-19,817	0,029	0,013
-300,008	800,000	-0,032	0,092
-298,993	800,000	0,033	0,089
-297,978	-200,000	0,005	0,127
-296,964	-29,572	0,077	0,031
-295,949	98,352	0,061	0,050
-294,935	-38,517	-0,070	0,026
-293,920	113,416	-0,013	-0,012
-292,905	4,389	0,217	-0,113
-291,891	147,511	0,052	0,051
-290,876	-200,000	0,011	0,083
-289,862	-50,365	0,141	0,047
-288,847	207,800	-0,056	-0,063
-287,832	-200,000	-0,015	0,102
-286,818	-200,000	0,013	-0,084
-285,803	484,992	-0,077	-0,125
-284,789	258,295	-0,008	0,009
-283,774	-64,801	0,111	-0,032
-282,759	71,517	-0,160	-0,119
-281,745	131,714	-0,110	-0,101
-280,730	-43,112	-0,043	0,015
-279,716	-115,926	0,139	0,018
-278,701	-200,000	0,010	0,095
-277,686	-32,105	0,201	0,080
-276,672	74,467	0,121	-0,091
-275,657	340,720	0,090	0,126
-274,643	55,531	-0,162	0,112
-273,628	94,352	-0,045	-0,037
-272,613	-74,827	-0,172	0,044
-271,599	509,379	0,022	0,037
-270,584	-113,502	0,145	-0,020
-269,570	800,000	0,023	0,072
-268,555	195,533	0,023	-0,026
-267,540	59,073	-0,064	0,045
-266,526	-200,000	0,006	0,033
-265,511	800,000	0,018	0,054
-264,497	-200,000	-0,037	0,147
-263,482	-112,946	0,080	-0,011
-262,467	206,909	-0,022	0,024
-261,453	-200,000	-0,020	-0,183
-260,438	-28,606	0,060	0,025
-259,424	682,773	0,032	-0,059
-258,409	-200,000	0,017	-0,163
-257,395	-37,343	-0,044	-0,017
-256,380	800,000	0,012	0,024
-255,365	5,322	0,083	0,043
-254,351	800,000	0,053	-0,150
-253,336	-200,000	0,005	0,160
-252,322	-200,000	-0,035	-0,128
-251,307	170,014	0,051	0,052
-250,292	438,738	-0,058	0,091
-249,278	-200,000	-0,005	0,073
-248,263	100,334	0,015	-0,012
-247,249	-200,000	-0,024	-0,185
-246,234	-130,825	-0,017	0,002
-245,219	-123,734	0,048	-0,005
-244,205	-52,282	0,143	-0,047
-243,190	800,000	-0,032	0,073
-242,176	238,099	-0,038	0,045
-241,161	25,757	-0,098	0,058
-240,146	-179,077	-0,110	-0,002
-239,132	-200,000	0,022	-0,082
-238,117	-72,247	0,130	0,034
-237,103	41,811	-0,034	-0,022
-236,088	-46,284	-0,078	-0,027
-235,073	462,410	0,065	-0,105
-234,059	-65,127	0,033	-0,009
-233,044	27,896	0,051	0,030
-232,030	800,000	-0,085	-0,186
-231,015	-200,000	-0,069	-0,232
-230,000	-200,000	0,017	0,079
-228,986	204,095	-0,048	0,053
-227,971	58,238	0,033	0,023
-226,957	-166,197	0,100	0,003
-225,942	67,298	-0,032	0,023
-224,927	800,000	-0,039	0,105
-223,913	-6,270	-0,052	-0,025
-222,898	-200,000	-0,014	-0,183
-221,884	-101,427	-0,041	-0,007
-220,869	151,404	-0,089	0,087
-219,855	800,000	0,023	0,069
-218,840	-17,714	0,030	-0,013
-217,825	194,550	-0,107	-0,116
-216,811	-160,758	-0,065	0,002
-215,796	115,569	-0,040	-0,035
-214,782	800,000	-0,025	0,050
-213,767	-95,100	0,120	0,023
-212,752	-73,525	0,134	-0,035
-211,738	-70,567	-0,178	0,048
-210,723	372,869	0,010	-0,014
-209,709	800,000	-0,048	0,099
-208,694	96,865	-0,078	-0,064
-207,679	632,336	0,033	-0,060
-206,665	51,356	-0,054	-0,036
-205,650	536,633	-0,028	0,047
-204,636	-66,626	0,115	-0,032
-203,621	800,000	0,076	0,170
-202,606	-200,000	0,053	0,188
-201,592	33,313	-0,101	0,063
-200,577	-64,920	-0,090	-0,026
-199,563	62,314	0,191	0,136
-198,548	-200,000	-0,008	0,112
-197,533	211,687	-0,048	-0,054
-196,519	-180,480	0,123	0,002
-195,504	-65,094	0,030	0,009
-194,490	800,000	0,028	-0,073
-193,475	-83,105	-0,123	-0,028
-192,460	-96,100	0,137	0,026
-191,446	9,412	0,118	0,063
-190,431	800,000	0,032	-0,086
-189,417	9,019	0,059	0,032
-188,402	36,645	-0,055	0,035
-187,387	159,341	-0,164	-0,163
-186,373	-67,808	-0,062	0,017
-185,358	272,905	0,073	0,093
-184,344	44,985	0,126	0,083
-183,329	-44,532	0,108	-0,038
-182,315	-200,000	-0,009	-0,106
-181,300	800,000	0,079	0,176
-180,285	-200,000	-0,012	-0,052
-179,271	-200,000	-0,034	-0,115
-178,256	175,242	0,054	-0,056
-177,242	213,464	0,039	-0,044
-176,227	-104,931	0,082	0,013
-175,212	-200,000	0,004	0,104
-174,198	800,000	0,010	0,028
-173,183	-31,408	-0,095	0,038
-172,169	-60,748	-0,128	0,038
-171,154	64,070	-0,062	-0,045
-170,139	-14,519	0,059	-0,027
-169,125	12,048	-0,063	-0,034
-168,110	-200,000	0,034	0,171
-167,096	163,249	0,058	-0,058
-166,081	-45,698	-0,161	-0,056
-165,066	57,409	-0,147	-0,102
-164,052	-181,138	0,113	0,002
-163,037	-43,070	0,100	-0,036
-162,023	-84,520	-0,089	-0,020
-161,008	-7,036	0,149	0,072
-159,993	-200,000	-0,011	-0,036
-158,979	-200,000	-0,007	0,053
-157,964	194,305	-0,057	-0,061
-156,950	800,000	0,061	-0,125
-155,935	591,372	-0,017	0,030
-154,920	-200,000	-0,010	-0,077
-153,906	-105,517	-0,075	-0,012
-152,891	-109,972	0,120	-0,018
-151,877	306,138	0,020	-0,026
-150,862	800,000	-0,062	-0,144
-149,847	750,729	-0,057	0,109
-148,833	-200,000	0,000	-0,016
-147,818	91,985	0,064	0,051
-146,804	-61,617	0,087	0,026
-145,789	-200,000	0,001	0,132
-144,775	-200,000	-0,010	0,113
-143,760	93,301	0,027	-0,022
-142,745	-34,494	-0,162	-0,063
-141,731	-59,027	0,034	-0,011
-140,716	800,000	0,088	0,232
-139,702	-200,000	-0,014	0,116
-138,687	-200,000	0,009	-0,056
-137,672	509,755	-0,103	-0,171
-136,658	-200,000	0,043	-0,190
-135,643	-59,200	-0,189	0,057
-134,629	40,266	0,129	0,083
-133,614	-200,000	0,002	-0,043
-132,599	-200,000	0,015	0,051
-131,585	-98,558	0,166	-0,030
-130,570	-36,976	-0,079	-0,030
-129,556	83,896	-0,066	0,051
-128,541	800,000	0,030	-0,064
-127,526	-151,010	-0,140	0,007
-126,512	-23,704	0,120	0,051
-125,497	292,588	0,038	-0,049
-124,483	-74,184	0,068	-0,017
-123,468	81,333	-0,069	0,053
-122,453	-41,389	-0,079	0,029
-121,439	292,264	0,023	-0,030
-120,424	79,239	-0,139	-0,106
-119,410	-200,000	-0,003	0,088
