DTS Sentinel unit serial number:	SN410029Multiplexer serial number:	ORYXHardware model number:	OX2-SRSoftware version number:	ORYX F/W v4,00 Oryx Data Collector v3.7.2.0data status	okinstallation	BH3 CH2differential loss correction	single-endedforward channel	channel 2reverse channel	N/Adate	2023/12/05time	23:52:28forward acquisition time	300,00reverse acquisition time	0,00gamma	499,1914k internal	0,3196k external	0,3196temperature offset calibration	1,0000default loss term (dB/km)	0,3820temperature slope calibration	1,0000multiplexer offset coefficient	1,0000multiplexer slope coefficient	1,0000fibre end	0,00T internal ref (°C)	9,48T ext. ref 1 (°C)	-5,33T ext. ref 2 (°C)	-5,43length (m)	temperature (°C)	Stokes	anti-Stokes-744,400	98,132	0,061	-0,051
-743,385	-10,825	-0,221	-0,106
-742,371	-200,000	0,010	-0,041
-741,356	-70,091	-0,216	0,059
-740,342	-19,839	0,095	-0,042
-739,327	-129,280	-0,274	0,027
-738,312	240,579	-0,105	-0,128
-737,298	79,694	-0,110	0,086
-736,283	-200,000	-0,007	-0,105
-735,269	-62,977	-0,164	0,049
-734,254	463,652	-0,093	-0,152
-733,239	-82,860	-0,381	-0,089
-732,225	-22,829	0,138	-0,061
-731,210	291,453	0,076	0,101
-730,196	-200,000	0,038	-0,144
-729,181	-135,442	-0,153	0,013
-728,167	40,806	-0,101	0,066
-727,152	411,185	0,063	-0,098
-726,137	-71,651	-0,017	-0,005
-725,123	-105,214	-0,083	0,014
-724,108	31,047	-0,140	-0,087
-723,094	-51,036	-0,132	-0,045
-722,079	-200,000	-0,014	-0,082
-721,064	-200,000	-0,025	-0,094
-720,050	-53,157	0,040	-0,013
-719,035	-200,000	-0,019	-0,131
-718,021	31,941	-0,084	0,052
-717,006	-174,574	0,067	0,001
-715,991	-200,000	-0,028	-0,095
-714,977	-100,174	0,056	-0,010
-713,962	708,798	-0,042	0,081
-712,948	422,642	0,107	0,167
-711,933	106,480	0,038	-0,033
-710,918	329,721	0,048	0,067
-709,904	-119,286	-0,078	0,010
-708,889	-200,000	0,005	0,016
-707,875	149,687	-0,118	-0,116
-706,860	-58,403	0,075	0,024
-705,845	-200,000	-0,023	0,149
-704,831	103,007	0,097	0,082
-703,816	-170,129	-0,092	0,002
-702,802	-60,454	-0,092	-0,028
-701,787	-200,000	0,005	-0,028
-700,772	29,690	-0,074	0,045
-699,758	332,604	0,079	0,112
-698,743	-200,000	-0,003	0,066
-697,729	-14,209	-0,071	-0,033
-696,714	77,748	0,029	-0,023
-695,699	151,977	-0,024	-0,024
-694,685	465,916	-0,067	-0,109
-693,670	661,734	-0,028	-0,054
-692,656	-200,000	-0,050	0,171
-691,641	-200,000	-0,010	0,085
-690,627	-200,000	0,019	0,121
-689,612	29,742	0,049	0,030
-688,597	162,696	0,027	-0,028
-687,583	572,520	-0,032	-0,057
-686,568	224,493	-0,099	0,117
-685,554	124,686	-0,080	-0,073
-684,539	-87,847	-0,092	0,020
-683,524	-138,199	0,054	-0,004
-682,510	89,692	0,065	0,052
-681,495	-200,000	0,011	0,091
-680,481	-156,541	0,125	-0,006
-679,466	-200,000	0,002	0,032
-678,451	-59,497	0,008	0,002
-677,437	750,502	0,011	0,021
-676,422	800,000	-0,025	0,063
-675,408	112,460	-0,127	-0,111
-674,393	800,000	-0,053	-0,124
-673,378	350,076	-0,072	-0,103
-672,364	800,000	-0,026	-0,064
-671,349	-22,720	0,020	0,009
-670,335	520,096	-0,036	-0,061
-669,320	-200,000	-0,025	-0,098
-668,305	549,444	0,070	-0,123
-667,291	80,809	-0,077	-0,060
-666,276	177,471	-0,109	0,115
-665,262	298,501	-0,028	-0,037
-664,247	54,310	0,017	-0,012
-663,232	-42,272	-0,050	0,018
-662,218	14,775	0,126	-0,071
-661,203	153,098	-0,049	-0,049
-660,189	-62,775	-0,165	-0,049
-659,174	-200,000	-0,008	0,050
-658,159	589,978	0,032	0,058
-657,145	800,000	0,004	-0,012
-656,130	346,712	0,067	0,096
-655,116	-32,983	0,161	0,065
-654,101	800,000	0,021	-0,044
-653,086	800,000	0,039	-0,115
-652,072	468,916	-0,079	-0,129
-651,057	72,404	0,035	0,027
-650,043	-200,000	-0,020	-0,220
-649,028	-200,000	0,031	-0,143
-648,014	800,000	0,008	-0,025
-646,999	208,158	-0,075	0,085
-645,984	118,432	-0,027	0,024
-644,970	150,289	-0,119	-0,117
-643,955	-200,000	-0,015	-0,090
-642,941	-200,000	-0,004	-0,103
-641,926	800,000	0,059	-0,121
-640,911	430,316	0,028	-0,044
-639,897	179,259	0,049	-0,052
-638,882	-69,176	0,172	0,048
-637,868	-93,530	-0,171	0,034
-636,853	79,572	-0,093	0,072
-635,838	-200,000	0,010	-0,073
-634,824	302,382	-0,111	-0,150
-633,809	213,757	0,064	-0,074
-632,795	35,337	0,111	0,071
-631,780	-200,000	0,013	0,102
-630,765	252,748	-0,124	-0,154
-629,751	633,458	-0,091	-0,168
-628,736	505,736	-0,052	-0,087
-627,722	-53,235	-0,101	0,033
-626,707	605,805	-0,052	0,094
-625,692	54,494	0,047	0,033
-624,678	368,919	0,038	0,056
-623,663	-132,724	0,099	0,009
-622,649	-76,634	0,049	-0,012
-621,634	-200,000	0,007	-0,167
-620,619	-138,316	-0,181	-0,014
-619,605	-200,000	-0,003	-0,141
-618,590	-200,000	0,008	0,067
-617,576	-200,000	0,001	0,012
-616,561	228,965	-0,014	0,017
-615,546	800,000	-0,052	-0,142
-614,532	-59,423	-0,030	0,009
-613,517	174,233	-0,059	-0,061
-612,503	800,000	-0,053	-0,138
-611,488	800,000	0,040	0,082
-610,474	-35,171	-0,093	0,037
-609,459	-200,000	0,021	0,080
-608,444	-200,000	0,012	-0,064
-607,430	-200,000	-0,020	-0,110
-606,415	193,829	-0,073	-0,080
-605,401	-53,965	-0,027	-0,009
-604,386	25,728	0,043	0,026
-603,371	-61,908	0,101	-0,030
-602,357	199,905	-0,052	0,057
-601,342	-95,736	-0,169	0,032
-600,328	800,000	-0,028	-0,085
-599,313	800,000	-0,043	-0,116
-598,298	-25,727	-0,187	0,080
-597,284	379,557	-0,029	-0,044
-596,269	-45,911	-0,038	-0,013
-595,255	-38,754	0,134	0,051
-594,240	-31,201	0,082	0,033
-593,225	331,941	-0,031	-0,043
-592,211	800,000	-0,013	-0,036
-591,196	-18,655	0,027	-0,012
-590,182	-31,049	0,113	-0,046
-589,167	800,000	-0,031	0,083
-588,152	-74,282	0,127	0,033
-587,138	-3,224	-0,096	0,048
-586,123	-87,254	0,083	0,018
-585,109	368,086	-0,071	0,104
-584,094	116,980	-0,063	-0,056
-583,079	-20,581	0,111	0,049
-582,065	-200,000	0,014	-0,077
-581,050	800,000	0,091	-0,202
-580,036	680,521	-0,051	-0,096
-579,021	149,399	0,064	0,062
-578,006	511,001	0,113	-0,191
-576,992	-60,837	0,057	0,017
-575,977	-200,000	0,011	0,040
-574,963	365,069	-0,139	0,203
-573,948	800,000	-0,025	-0,072
-572,934	4,268	-0,031	0,016
-571,919	725,416	0,023	0,044
-570,904	472,842	-0,054	-0,089
-569,890	800,000	0,048	-0,111
-568,875	247,343	-0,091	0,111
-567,861	-5,593	-0,012	-0,006
-566,846	-200,000	0,006	0,091
-565,831	-112,974	-0,101	-0,014
-564,817	78,715	-0,017	-0,013
-563,802	1,938	0,054	-0,028
-562,788	800,000	0,009	-0,024
-561,773	-66,980	-0,029	-0,008
-560,758	800,000	0,025	-0,069
-559,744	28,847	0,068	0,042
-558,729	187,163	0,021	0,023
-557,715	234,347	-0,089	-0,106
-556,700	-0,631	-0,137	-0,070
-555,685	-27,491	-0,083	-0,035
-554,671	33,366	0,101	0,063
-553,656	35,685	0,142	0,090
-552,642	800,000	0,034	0,072
-551,627	-200,000	-0,021	0,112
-550,612	-128,558	0,122	0,012
-549,598	-49,025	-0,077	0,026
-548,583	190,024	0,039	-0,042
-547,569	800,000	0,081	0,199
-546,554	-69,763	0,111	0,030
-545,539	-200,000	0,030	0,118
-544,525	-152,336	0,035	0,002
-543,510	-125,304	-0,137	-0,015
-542,496	-106,635	-0,053	0,008
-541,481	-14,774	-0,070	-0,033
-540,466	173,545	0,030	-0,032
-539,452	-200,000	0,005	-0,029
-538,437	349,120	-0,075	0,107
-537,423	312,009	0,027	-0,037
-536,408	16,195	-0,017	-0,010
-535,393	-200,000	0,026	-0,104
-534,379	711,728	0,065	-0,124
-533,364	-200,000	-0,036	-0,119
-532,350	652,513	-0,047	-0,087
-531,335	-77,913	-0,107	0,027
-530,321	800,000	-0,027	0,055
-529,306	25,157	0,062	-0,037
-528,291	186,149	-0,022	-0,024
-527,277	373,291	0,049	0,073
-526,262	-200,000	0,017	0,111
-525,248	-79,176	0,159	0,039
-524,233	-100,531	0,055	-0,010
-523,218	800,000	0,014	-0,040
-522,204	97,771	-0,050	0,042
-521,189	-161,200	-0,092	-0,003
-520,175	262,487	-0,084	-0,106
-519,160	-200,000	-0,002	-0,104
-518,145	-200,000	0,017	-0,077
-517,131	-200,000	0,005	-0,088
-516,116	595,053	0,040	0,072
-515,102	404,149	-0,030	0,046
-514,087	142,774	-0,110	-0,105
-513,072	-200,000	0,017	-0,143
-512,058	-86,832	-0,075	-0,016
-511,043	52,669	0,057	0,039
-510,029	800,000	-0,011	0,032
-509,014	528,460	0,054	0,092
-507,999	-200,000	0,059	0,241
-506,985	76,299	-0,147	-0,112
-505,970	-200,000	-0,015	0,118
-504,956	39,672	-0,014	-0,009
-503,941	-29,836	0,108	-0,044
-502,926	800,000	-0,052	0,121
-501,912	-200,000	-0,008	0,263
-500,897	-49,830	0,109	0,037
-499,883	800,000	-0,009	-0,019
-498,868	-200,000	0,009	-0,078
-497,853	87,630	-0,039	0,031
-496,839	45,856	0,148	-0,099
-495,824	-82,029	0,039	-0,009
-494,810	60,846	0,048	-0,034
-493,795	-200,000	-0,019	0,118
-492,781	536,504	0,015	-0,026
-491,766	800,000	0,089	-0,204
-490,751	-77,337	-0,098	-0,024
-489,737	218,766	0,055	0,063
-488,722	-200,000	0,035	0,173
-487,708	800,000	0,030	0,062
-486,693	88,493	-0,131	0,105
-485,678	490,909	0,081	0,135
-484,664	-102,753	-0,151	-0,026
-483,649	800,000	-0,031	-0,094
-482,635	392,879	0,066	0,099
-481,620	-200,000	0,017	0,100
-480,605	30,156	-0,095	0,058
-479,591	800,000	0,053	0,165
-478,576	106,549	-0,016	0,014
-477,562	-200,000	-0,005	-0,022
-476,547	162,440	0,043	-0,044
-475,532	-51,030	-0,096	-0,032
-474,518	119,024	0,007	0,006
-473,503	-200,000	-0,005	0,030
-472,489	-200,000	0,025	0,092
-471,474	-58,542	-0,143	0,044
-470,459	-89,595	-0,065	-0,014
-469,445	-200,000	-0,007	0,061
-468,430	-109,445	0,043	-0,006
-467,416	784,406	0,017	0,034
-466,401	397,745	0,031	-0,047
-465,386	27,301	0,109	-0,066
-464,372	800,000	0,059	-0,167
-463,357	29,172	0,063	0,039
-462,343	-145,433	-0,231	-0,015
-461,328	800,000	0,035	-0,075
-460,313	-200,000	0,032	0,176
-459,299	800,000	-0,059	0,122
-458,284	800,000	-0,060	0,179
-457,270	-85,685	0,031	-0,007
-456,255	-200,000	0,017	-0,067
-455,241	753,124	-0,006	-0,012
-454,226	246,118	0,043	0,052
-453,211	-200,000	0,022	-0,094
-452,197	-12,191	0,060	0,028
-451,182	-200,000	-0,049	0,163
-450,168	-23,433	0,120	0,052
-449,153	-200,000	-0,032	-0,155
-448,138	190,377	0,085	-0,093
-447,124	313,554	-0,028	-0,038
-446,109	49,713	0,014	-0,009
-445,095	52,667	-0,052	-0,035
-444,080	800,000	0,045	0,112
-443,065	800,000	-0,057	0,148
-442,051	381,193	0,010	-0,014
-441,036	-83,401	0,089	0,020
-440,022	-117,190	-0,180	0,023
-439,007	762,242	0,095	-0,186
-437,992	93,092	0,098	-0,080
-436,978	192,384	0,086	0,093
-435,963	341,519	-0,017	0,024
-434,949	36,049	0,048	-0,031
-433,934	-33,465	0,068	-0,027
-432,919	-106,382	-0,102	-0,016
-431,905	32,201	-0,078	-0,048
-430,890	-200,000	-0,021	0,074
-429,876	800,000	0,018	0,050
-428,861	800,000	0,042	-0,088
-427,846	-200,000	0,019	0,197
-426,832	29,191	-0,081	0,049
-425,817	-8,661	0,088	-0,042
-424,803	202,752	-0,100	-0,111
-423,788	-120,177	-0,110	-0,013
-422,773	-144,666	0,057	0,004
-421,759	-3,079	0,067	-0,034
-420,744	389,593	-0,063	-0,094
-419,730	95,233	-0,051	-0,042
-418,715	302,687	0,075	-0,100
-417,701	-28,778	-0,117	-0,048
-416,686	-188,285	0,163	-0,001
-415,671	-78,548	-0,072	0,018
-414,657	263,204	-0,034	-0,043
-413,642	30,451	0,004	-0,002
-412,628	-95,459	0,095	-0,018
-411,613	-152,570	-0,089	0,004
-410,598	-76,536	0,055	-0,014
-409,584	796,663	-0,048	-0,096
-408,569	331,554	0,078	0,108
-407,555	-123,459	0,070	0,008
-406,540	-200,000	0,014	0,069
-405,525	-200,000	0,014	0,052
-404,511	-200,000	0,004	0,016
-403,496	267,755	0,084	0,106
-402,482	800,000	0,040	0,085
-401,467	-200,000	0,039	0,165
-400,452	-171,914	0,162	-0,004
-399,438	-53,059	-0,087	-0,029
-398,423	-3,945	-0,063	0,031
-397,409	3,219	-0,012	-0,006
-396,394	-200,000	-0,018	-0,124
-395,379	25,829	-0,083	0,049
-394,365	323,745	0,121	0,167
-393,350	65,966	-0,098	-0,071
-392,336	-200,000	-0,003	0,061
-391,321	-200,000	0,010	0,107
-390,306	521,621	-0,080	-0,135
-389,292	-200,000	-0,007	-0,088
-388,277	-200,000	-0,007	0,039
-387,263	75,985	-0,059	-0,045
-386,248	172,371	0,010	-0,011
-385,233	219,273	0,033	0,038
-384,219	135,644	-0,016	0,015
-383,204	-8,578	-0,056	-0,027
-382,190	516,456	-0,072	-0,121
-381,175	108,925	0,084	-0,072
-380,160	-200,000	0,016	0,056
-379,146	-170,047	0,101	0,003
-378,131	800,000	-0,023	0,054
-377,117	353,444	-0,060	0,085
-376,102	-157,955	-0,048	-0,002
-375,088	-87,338	-0,114	0,025
-374,073	470,829	0,015	-0,024
-373,058	-200,000	-0,012	0,148
-372,044	-200,000	0,006	0,019
-371,029	-37,427	0,037	0,014
-370,015	-200,000	-0,012	0,093
-369,000	31,782	0,045	-0,027
-367,985	-56,780	-0,210	0,066
-366,971	-200,000	-0,016	-0,061
-365,956	7,658	-0,113	-0,060
-364,942	-138,498	-0,181	0,014
-363,927	675,217	0,040	0,075
-362,912	-172,913	-0,082	0,002
-361,898	-79,545	-0,135	-0,033
-360,883	-200,000	0,006	-0,055
-359,869	96,390	-0,086	0,070
-358,854	-200,000	-0,012	0,053
-357,839	12,052	0,085	0,047
-356,825	-103,677	-0,021	-0,004
-355,810	1,490	-0,087	0,045
-354,796	-200,000	-0,008	0,031
-353,781	-89,187	-0,120	-0,025
-352,766	280,894	-0,063	0,081
-351,752	800,000	0,057	0,161
-350,737	148,470	0,022	0,021
-349,723	-200,000	0,019	-0,086
-348,708	-66,263	0,106	0,030
-347,693	44,671	-0,083	-0,055
-346,679	38,741	-0,106	0,068
-345,664	271,806	0,065	0,083
-344,650	-200,000	-0,010	0,054
-343,635	800,000	-0,040	0,104
-342,620	11,996	0,147	0,081
-341,606	-154,260	-0,083	0,004
-340,591	40,404	0,026	0,017
-339,577	718,772	-0,037	0,070
-338,562	277,115	0,046	-0,058
-337,548	800,000	0,040	0,091
-336,533	161,360	0,115	-0,116
-335,518	-152,179	-0,050	0,003
-334,504	-200,000	0,027	0,108
-333,489	800,000	0,021	-0,044
-332,475	800,000	-0,056	-0,125
-331,460	241,329	0,067	-0,081
-330,445	800,000	0,044	-0,112
-329,431	43,662	0,040	0,026
-328,416	103,351	0,121	0,102
-327,402	-134,517	0,026	0,002
-326,387	800,000	0,025	-0,053
-325,372	-16,499	-0,071	-0,032
-324,358	-55,406	0,097	-0,031
-323,343	800,000	-0,071	-0,148
-322,329	-137,208	0,085	-0,007
-321,314	180,270	-0,061	0,065
-320,299	88,822	0,028	-0,022
-319,285	761,022	0,045	-0,087
-318,270	-11,675	0,095	0,045
-317,256	131,321	-0,091	-0,084
-316,241	-200,000	-0,024	0,084
-315,226	-141,910	0,102	-0,007
-314,212	-200,000	0,001	0,055
-313,197	612,942	-0,055	0,100
-312,183	363,758	-0,057	0,083
-311,168	800,000	-0,007	0,019
-310,153	115,834	0,060	-0,052
-309,139	94,539	0,057	-0,046
-308,124	-200,000	-0,002	0,063
-307,110	-110,156	-0,033	0,005
-306,095	800,000	0,034	-0,104
-305,080	350,491	0,021	0,031
-304,066	800,000	-0,038	-0,108
-303,051	-200,000	0,017	-0,057
-302,037	-65,881	-0,034	-0,010
-301,022	-134,019	0,108	-0,009
-300,008	-200,000	0,016	0,078
-298,993	418,559	0,054	0,083
-297,978	800,000	0,076	0,162
-296,964	-200,000	0,011	0,078
-295,949	91,078	0,035	0,028
-294,935	-33,269	-0,130	-0,051
-293,920	-200,000	0,029	0,162
-292,905	347,391	-0,070	0,099
-291,891	5,761	-0,029	-0,015
-290,876	112,213	0,104	0,090
-289,862	-117,711	0,026	-0,003
-288,847	-200,000	0,008	-0,158
-287,832	70,514	-0,091	0,067
-286,818	4,907	0,054	-0,028
-285,803	-200,000	0,007	0,129
-284,789	47,194	-0,087	0,058
-283,774	-200,000	0,014	0,070
-282,759	149,007	0,018	0,018
-281,745	69,089	-0,151	-0,111
-280,730	800,000	0,032	-0,093
-279,716	132,351	0,086	-0,080
-278,701	122,635	0,060	-0,054
-277,686	234,813	0,124	0,146
-276,672	-200,000	-0,003	0,121
-275,657	14,954	0,038	-0,021
-274,643	631,381	-0,051	-0,093
-273,628	305,019	0,083	0,110
-272,613	250,017	0,119	0,144
-271,599	-200,000	0,026	-0,106
-270,584	128,455	0,039	0,036
-269,570	800,000	0,069	0,205
-268,555	9,157	0,094	0,050
-267,540	800,000	0,027	0,063
-266,526	-200,000	-0,009	-0,068
-265,511	-200,000	0,001	-0,151
-264,497	800,000	-0,014	-0,034
-263,482	484,993	0,039	0,064
-262,467	-39,352	0,078	-0,029
-261,453	83,637	0,090	-0,070
-260,438	17,265	-0,042	0,024
-259,424	-154,915	0,127	-0,006
-258,409	216,283	-0,053	-0,061
-257,395	19,566	0,059	-0,034
-256,380	535,895	0,078	0,132
-255,365	-124,821	0,066	0,007
-254,351	-147,047	-0,112	-0,007
-253,336	-200,000	-0,004	-0,050
-252,322	-13,487	-0,148	0,068
-251,307	179,497	-0,037	0,039
-250,292	800,000	0,061	0,140
-249,278	-200,000	-0,010	-0,103
-248,263	-3,347	-0,049	0,024
-247,249	199,642	0,050	0,054
-246,234	-61,961	-0,078	0,023
-245,219	167,745	-0,085	-0,087
-244,205	-116,570	-0,088	0,011
-243,190	800,000	-0,048	-0,127
-242,176	-108,896	0,236	0,036
-241,161	87,353	0,123	0,097
-240,146	800,000	0,031	-0,067
-239,132	47,421	-0,123	0,082
-238,117	66,403	-0,094	-0,068
-237,103	-200,000	0,000	-0,008
-236,088	53,642	0,063	-0,043
-235,073	256,129	-0,049	0,061
-234,059	378,157	-0,024	-0,034
-233,044	-200,000	0,015	-0,120
-232,030	800,000	-0,082	-0,226
-231,015	800,000	-0,052	-0,104
-230,000	358,182	-0,035	-0,050
-228,986	800,000	-0,033	-0,079
-227,971	56,760	0,061	-0,043
-226,957	51,009	0,028	-0,019
-225,942	800,000	0,011	-0,032
-224,927	10,630	-0,077	-0,042
-223,913	-134,669	-0,060	0,005
-222,898	87,165	-0,054	-0,043
-221,884	191,585	0,047	0,051
-220,869	75,067	0,085	0,064
-219,855	-200,000	-0,004	-0,079
-218,840	-200,000	-0,024	-0,090
-217,825	-200,000	0,001	0,066
-216,811	800,000	-0,022	-0,053
-215,796	-88,281	-0,018	-0,004
-214,782	236,573	-0,088	-0,104
-213,767	15,045	0,019	-0,011
-212,752	800,000	0,044	-0,089
-211,738	13,766	0,154	0,085
-210,723	276,633	-0,105	0,134
-209,709	-124,365	-0,032	0,004
-208,694	83,703	-0,018	-0,014
-207,679	-200,000	0,020	-0,140
-206,665	381,331	0,021	-0,031
-205,650	415,508	0,062	-0,095
-204,636	70,789	0,055	-0,041
-203,621	-76,989	-0,080	0,020
-202,606	-200,000	0,006	-0,079
-201,592	-200,000	-0,004	0,095
-200,577	-162,299	0,039	0,001
-199,563	-51,459	0,142	-0,047
-198,548	241,391	0,007	0,008
-197,533	-200,000	-0,009	0,039
-196,519	-200,000	0,001	-0,032
-195,504	-200,000	0,009	0,097
-194,490	-89,601	-0,093	0,019
-193,475	115,747	0,050	-0,043
-192,460	-200,000	-0,018	0,075
-191,446	442,141	0,025	0,038
-190,431	45,326	0,032	0,021
-189,417	-79,535	-0,053	-0,013
-188,402	7,435	-0,125	0,067
-187,387	540,395	0,094	-0,161
-186,373	800,000	0,057	-0,132
-185,358	176,993	-0,094	-0,098
-184,344	800,000	0,012	0,029
-183,329	0,754	-0,052	0,027
-182,315	800,000	0,072	0,152
-181,300	-200,000	0,020	0,162
-180,285	338,823	-0,082	-0,114
-179,271	-53,885	0,107	0,035
-178,256	-172,185	0,248	-0,006
-177,242	-200,000	-0,003	-0,047
-176,227	-200,000	-0,011	-0,074
-175,212	800,000	0,010	0,020
-174,198	800,000	-0,016	-0,049
-173,183	-119,937	-0,131	-0,016
-172,169	-46,464	-0,011	-0,004
-171,154	800,000	-0,055	-0,110
-170,139	800,000	-0,005	0,014
-169,125	-19,749	0,151	0,066
-168,110	607,724	0,059	0,105
-167,096	221,071	0,025	-0,029
-166,081	-133,719	-0,111	0,010
-165,066	-200,000	-0,035	-0,115
-164,052	112,773	0,061	-0,052
-163,037	36,013	-0,044	-0,027
-162,023	-200,000	0,030	0,095
-161,008	-107,418	-0,087	0,013
-159,993	800,000	-0,075	0,153
-158,979	-200,000	-0,002	-0,077
-157,964	-100,480	0,076	-0,013
-156,950	-200,000	-0,006	-0,095
-155,935	-200,000	-0,010	-0,062
-154,920	-168,241	0,113	-0,003
-153,906	684,445	0,045	0,084
-152,891	-200,000	-0,031	-0,115
-151,877	-86,416	0,082	0,018
-150,862	-200,000	-0,017	-0,062
-149,847	-54,934	0,020	-0,007
-148,833	84,398	0,060	-0,047
-147,818	259,782	0,102	0,126
-146,804	84,231	-0,026	0,020
-145,789	-61,179	0,157	0,047
-144,775	100,254	-0,083	0,069
-143,760	-200,000	0,011	-0,042
-142,745	-200,000	-0,009	-0,059
-141,731	53,233	0,113	0,077
-140,716	-200,000	0,038	-0,149
-139,702	-71,076	0,159	0,042
-138,687	118,213	-0,058	-0,051
-137,672	800,000	0,081	0,205
-136,658	-16,102	-0,147	-0,066
-135,643	-168,228	0,010	0,000
-134,629	-35,354	-0,103	-0,040
-133,614	45,560	0,063	-0,041
-132,599	-200,000	-0,004	0,140
-131,585	38,354	0,188	0,119
-130,570	149,778	-0,105	0,101
-129,556	-63,112	0,032	-0,009
-128,541	-200,000	0,054	-0,190
-127,526	28,073	0,064	0,038
-126,512	206,570	-0,066	0,073
-125,497	105,104	0,090	0,076
-124,483	800,000	-0,036	-0,091
-123,468	-200,000	0,006	-0,034
-122,453	293,090	-0,106	-0,138
-121,439	331,474	-0,090	-0,123
-120,424	-1,087	-0,130	-0,065
-119,410	78,406	0,052	-0,039
-118,395	-82,886	-0,162	0,037
