DTS Sentinel unit serial number:	SN410029Multiplexer serial number:	ORYXHardware model number:	OX2-SRSoftware version number:	ORYX F/W v4,00 Oryx Data Collector v3.7.2.0data status	okinstallation	BH3 CH2differential loss correction	single-endedforward channel	channel 2reverse channel	N/Adate	2023/12/05time	18:12:28forward acquisition time	300,00reverse acquisition time	0,00gamma	499,1914k internal	0,3193k external	0,3193temperature offset calibration	1,0000default loss term (dB/km)	0,3820temperature slope calibration	1,0000multiplexer offset coefficient	1,0000multiplexer slope coefficient	1,0000fibre end	0,00T internal ref (°C)	10,72T ext. ref 1 (°C)	-3,97T ext. ref 2 (°C)	-4,17length (m)	temperature (°C)	Stokes	anti-Stokes-744,400	337,722	-0,096	-0,136
-743,385	40,758	-0,103	0,068
-742,371	-200,000	-0,006	-0,022
-741,356	-200,000	-0,050	0,198
-740,342	-127,506	-0,132	-0,014
-739,327	-45,500	-0,197	0,071
-738,312	-200,000	-0,024	-0,187
-737,298	-21,327	-0,051	0,023
-736,283	-200,000	-0,020	-0,177
-735,269	89,395	-0,178	0,145
-734,254	-134,585	0,105	0,009
-733,239	-29,642	-0,489	-0,202
-732,225	-200,000	-0,017	-0,067
-731,210	-200,000	-0,008	0,137
-730,196	-1,415	0,111	0,057
-729,181	736,311	-0,064	0,125
-728,167	71,645	0,022	-0,017
-727,152	-36,025	-0,024	0,009
-726,137	299,485	-0,039	0,052
-725,123	469,769	-0,014	0,024
-724,108	145,620	-0,059	-0,057
-723,094	-91,035	0,065	-0,013
-722,079	7,329	0,092	0,050
-721,064	-143,612	0,084	-0,006
-720,050	-106,848	-0,089	-0,014
-719,035	251,066	-0,083	0,102
-718,021	-67,199	-0,119	-0,034
-717,006	-200,000	-0,002	-0,072
-715,991	-93,951	0,070	-0,014
-714,977	79,809	-0,154	-0,120
-713,962	535,159	0,053	-0,093
-712,948	-41,471	0,167	0,062
-711,933	-56,546	-0,040	-0,013
-710,918	233,757	-0,040	0,048
-709,904	800,000	-0,023	-0,058
-708,889	795,813	0,038	-0,076
-707,875	-200,000	-0,023	0,078
-706,860	-200,000	-0,005	-0,172
-705,845	-52,189	0,072	-0,024
-704,831	800,000	0,042	0,131
-703,816	427,456	0,026	0,042
-702,802	297,933	0,051	0,069
-701,787	-128,026	-0,064	-0,007
-700,772	353,167	0,034	-0,050
-699,758	128,349	-0,059	-0,054
-698,743	-133,045	0,059	-0,005
-697,729	-200,000	0,018	0,076
-696,714	44,761	-0,093	0,062
-695,699	-52,899	-0,131	0,044
-694,685	343,135	0,042	-0,060
-693,670	29,056	-0,142	-0,088
-692,656	800,000	0,027	-0,072
-691,641	-200,000	0,017	-0,069
-690,627	-49,417	-0,064	-0,022
-689,612	-159,610	-0,087	0,003
-688,597	367,551	-0,074	0,110
-687,583	-200,000	-0,009	-0,127
-686,568	-200,000	0,021	0,097
-685,554	91,522	-0,157	-0,128
-684,539	-200,000	0,019	0,079
-683,524	113,522	-0,099	0,087
-682,510	3,787	0,196	0,104
-681,495	276,304	-0,152	-0,197
-680,481	-69,695	-0,037	-0,010
-679,466	2,870	-0,087	-0,046
-678,451	80,927	0,137	-0,107
-677,437	420,204	0,025	-0,039
-676,422	-128,181	0,104	-0,011
-675,408	259,724	0,032	-0,040
-674,393	195,094	-0,115	-0,127
-673,378	665,445	-0,012	-0,022
-672,364	-49,274	-0,096	-0,033
-671,349	-200,000	-0,000	-0,096
-670,335	-200,000	0,013	0,154
-669,320	303,861	0,042	0,057
-668,305	237,732	0,060	-0,072
-667,291	335,630	0,030	-0,043
-666,276	-200,000	-0,011	-0,125
-665,262	-14,319	-0,114	-0,053
-664,247	-200,000	0,016	-0,064
-663,232	52,146	-0,065	-0,045
-662,218	87,705	-0,027	0,022
-661,203	-121,212	-0,156	0,019
-660,189	59,076	-0,096	0,068
-659,174	451,496	-0,062	-0,100
-658,159	57,177	-0,039	-0,027
-657,145	-200,000	-0,031	-0,184
-656,130	241,791	0,079	-0,096
-655,116	-200,000	0,004	0,039
-654,101	-171,902	-0,094	-0,002
-653,086	-161,286	-0,088	-0,003
-652,072	-200,000	-0,011	0,042
-651,057	-200,000	0,006	-0,215
-650,043	203,347	0,155	-0,175
-649,028	-157,955	0,082	-0,003
-648,014	261,874	0,087	0,110
-646,999	36,089	-0,049	-0,031
-645,984	-200,000	-0,000	-0,029
-644,970	115,014	-0,063	-0,056
-643,955	-22,554	-0,101	-0,044
-642,941	237,986	0,039	0,047
-641,926	800,000	-0,051	-0,116
-640,911	55,036	0,047	-0,033
-639,897	800,000	0,042	0,122
-638,882	-49,694	-0,137	-0,047
-637,868	-67,810	0,057	0,016
-636,853	-109,013	-0,018	-0,003
-635,838	-0,273	0,048	-0,025
-634,824	800,000	0,009	0,018
-633,809	152,624	-0,092	-0,091
-632,795	234,126	0,017	-0,021
-631,780	800,000	-0,045	0,100
-630,765	-16,024	0,049	-0,022
-629,751	-85,012	0,065	0,015
-628,736	-200,000	-0,019	0,083
-627,722	94,357	-0,076	-0,063
-626,707	386,321	-0,030	-0,045
-625,692	198,099	0,118	-0,131
-624,678	-168,446	-0,127	-0,003
-623,663	800,000	-0,020	0,061
-622,649	800,000	-0,090	-0,244
-621,634	-200,000	-0,008	-0,079
-620,619	800,000	0,030	0,064
-619,605	156,161	0,032	0,032
-618,590	-200,000	-0,002	0,186
-617,576	219,567	0,043	0,050
-616,561	36,145	-0,098	-0,062
-615,546	-18,671	-0,068	-0,031
-614,532	-76,769	0,074	0,019
-613,517	21,518	-0,104	-0,061
-612,503	479,826	0,007	-0,012
-611,488	-136,948	0,084	-0,007
-610,474	-3,095	0,160	0,081
-609,459	-79,517	-0,103	0,025
-608,444	90,801	0,085	0,069
-607,430	136,746	-0,042	-0,040
-606,415	-200,000	-0,026	-0,158
-605,401	425,129	0,023	-0,036
-604,386	-102,438	-0,130	-0,022
-603,371	4,374	-0,054	0,029
-602,357	488,989	-0,046	0,076
-601,342	-44,820	-0,041	-0,015
-600,328	800,000	-0,031	-0,073
-599,313	46,007	-0,048	0,032
-598,298	-200,000	0,031	0,108
-597,284	106,457	0,068	0,058
-596,269	-200,000	-0,004	0,043
-595,255	443,259	0,072	-0,114
-594,240	800,000	-0,035	-0,077
-593,225	800,000	-0,086	-0,181
-592,211	10,459	-0,151	-0,083
-591,196	64,913	-0,046	-0,033
-590,182	296,813	0,068	0,090
-589,167	-200,000	-0,002	-0,046
-588,152	234,805	0,075	0,090
-587,138	-102,898	-0,059	0,010
-586,123	800,000	0,031	0,082
-585,109	-21,891	-0,034	-0,015
-584,094	800,000	-0,052	0,116
-583,079	800,000	-0,030	-0,091
-582,065	-34,586	0,217	0,086
-581,050	192,063	0,148	0,162
-580,036	-89,530	-0,085	0,018
-579,021	172,996	-0,085	0,089
-578,006	800,000	-0,023	-0,048
-576,992	276,743	0,039	-0,051
-575,977	603,705	-0,053	0,096
-574,963	-84,838	0,063	-0,014
-573,948	-200,000	0,007	-0,042
-572,934	800,000	0,003	0,009
-571,919	-200,000	-0,027	-0,134
-570,904	-200,000	0,014	-0,178
-569,890	-200,000	-0,006	-0,112
-568,875	-17,915	0,152	0,069
-567,861	-200,000	0,012	0,057
-566,846	143,432	0,075	0,072
-565,831	353,244	0,061	0,088
-564,817	800,000	0,038	0,097
-563,802	-121,637	-0,054	-0,006
-562,788	15,460	-0,086	0,049
-561,773	413,989	-0,039	-0,060
-560,758	790,534	-0,039	0,078
-559,744	-66,216	0,193	-0,055
-558,729	800,000	0,041	0,085
-557,715	23,405	-0,178	0,105
-556,700	472,834	0,044	0,071
-555,685	-200,000	-0,001	-0,011
-554,671	737,396	0,051	-0,099
-553,656	800,000	0,016	0,038
-552,642	156,715	0,131	0,131
-551,627	800,000	0,033	-0,080
-550,612	328,940	-0,073	0,102
-549,598	800,000	0,028	-0,077
-548,583	65,312	-0,036	0,026
-547,569	-200,000	-0,023	-0,121
-546,554	-105,321	0,099	0,016
-545,539	107,760	-0,034	-0,029
-544,525	628,234	-0,038	-0,069
-543,510	122,616	-0,100	-0,090
-542,496	-200,000	-0,011	-0,097
-541,481	-200,000	0,006	-0,067
-540,466	-63,026	-0,073	0,022
-539,452	-200,000	-0,002	0,015
-538,437	800,000	0,043	-0,132
-537,423	800,000	0,044	-0,093
-536,408	800,000	-0,004	-0,012
-535,393	-200,000	-0,013	0,060
-534,379	-200,000	-0,020	-0,076
-533,364	203,504	0,055	0,062
-532,350	-72,342	0,093	-0,025
-531,335	-200,000	0,022	0,073
-530,321	-20,071	-0,072	-0,032
-529,306	-200,000	0,016	0,057
-528,291	800,000	-0,025	-0,079
-527,277	354,865	-0,024	0,035
-526,262	287,658	0,032	-0,042
-525,248	-11,480	0,101	-0,048
-524,233	-200,000	-0,019	-0,069
-523,218	-80,678	0,126	-0,030
-522,204	76,150	-0,067	-0,051
-521,189	-200,000	-0,008	0,036
-520,175	-200,000	-0,056	-0,200
-519,160	434,042	0,025	-0,039
-518,145	-50,121	0,027	0,009
-517,131	626,309	0,054	-0,099
-516,116	298,032	0,078	-0,104
-515,102	-87,520	-0,093	0,020
-514,087	-200,000	-0,034	0,122
-513,072	11,874	-0,060	0,033
-512,058	160,523	0,081	-0,082
-511,043	277,970	-0,079	-0,102
-510,029	800,000	0,046	0,120
-509,014	-127,916	-0,089	0,009
-507,999	-57,457	0,063	0,020
-506,985	17,121	-0,204	-0,116
-505,970	573,383	0,048	-0,085
-504,956	-89,714	-0,080	-0,017
-503,941	110,646	-0,076	0,066
-502,926	181,575	-0,051	0,054
-501,912	91,979	-0,048	0,039
-500,897	-65,421	-0,089	-0,026
-499,883	282,756	-0,112	-0,146
-498,868	800,000	0,041	0,092
-497,853	-200,000	-0,010	0,100
-496,839	39,248	-0,069	0,044
-495,824	-200,000	-0,008	-0,068
-494,810	800,000	-0,025	-0,062
-493,795	159,568	0,071	-0,071
-492,781	-187,665	-0,151	0,001
-491,766	45,395	-0,063	-0,042
-490,751	-17,807	0,090	-0,041
-489,737	242,106	-0,067	-0,081
-488,722	-45,929	0,086	-0,030
-487,708	800,000	0,018	0,036
-486,693	293,561	0,032	-0,042
-485,678	-125,619	-0,040	0,004
-484,664	67,977	-0,057	-0,042
-483,649	-56,393	-0,073	-0,023
-482,635	-200,000	0,002	-0,120
-481,620	-200,000	-0,004	-0,034
-480,605	-105,965	-0,077	-0,012
-479,591	-200,000	0,005	0,051
-478,576	-48,602	-0,072	-0,025
-477,562	-200,000	-0,049	-0,169
-476,547	-37,461	-0,038	0,014
-475,532	388,655	-0,067	0,101
-474,518	-200,000	0,001	0,081
-473,503	800,000	0,046	0,146
-472,489	800,000	0,033	0,067
-471,474	-122,810	0,046	0,005
-470,459	-5,342	-0,103	0,051
-469,445	800,000	-0,014	-0,030
-468,430	62,518	0,092	-0,066
-467,416	415,090	-0,049	0,075
-466,401	769,917	-0,026	0,052
-465,386	-58,530	-0,016	0,005
-464,372	-200,000	0,005	0,048
-463,357	-53,790	-0,150	0,049
-462,343	-143,167	-0,051	-0,003
-461,328	62,657	-0,080	0,058
-460,313	85,561	0,078	0,062
-459,299	-200,000	0,001	0,091
-458,284	-200,000	-0,003	0,079
-457,270	800,000	0,033	0,071
-456,255	155,795	-0,050	0,050
-455,241	-88,138	-0,098	-0,021
-454,226	148,607	-0,092	-0,090
-453,211	219,343	0,034	-0,039
-452,197	-200,000	0,028	0,140
-451,182	-40,839	0,096	0,036
-450,168	22,868	0,144	-0,085
-449,153	-108,319	0,192	-0,030
-448,138	-200,000	0,016	0,062
-447,124	99,563	-0,128	-0,106
-446,109	-22,468	0,030	-0,013
-445,095	74,948	0,043	0,032
-444,080	25,531	0,020	0,012
-443,065	-200,000	0,003	-0,065
-442,051	122,635	0,048	-0,044
-441,036	49,408	0,172	-0,117
-440,022	-167,612	0,115	-0,003
-439,007	800,000	0,031	0,070
-437,992	300,979	-0,062	-0,083
-436,978	-104,743	0,087	0,014
-435,963	-200,000	-0,003	0,035
-434,949	-200,000	-0,029	0,104
-433,934	-200,000	-0,011	-0,079
-432,919	58,534	0,060	0,042
-431,905	-82,013	-0,142	-0,033
-430,890	12,994	0,118	0,065
-429,876	359,145	0,094	0,136
-428,861	-141,702	-0,091	-0,006
-427,846	179,085	-0,036	-0,038
-426,832	800,000	-0,027	-0,056
-425,817	800,000	-0,054	-0,161
-424,803	-200,000	0,019	0,112
-423,788	60,723	-0,018	-0,013
-422,773	-200,000	0,014	0,048
-421,759	800,000	0,021	0,045
-420,744	-95,441	0,117	-0,022
-419,730	-200,000	0,017	-0,078
-418,715	-200,000	-0,006	-0,065
-417,701	-105,695	-0,092	0,015
-416,686	-40,608	-0,078	-0,029
-415,671	-108,313	-0,077	0,012
-414,657	-65,801	0,076	0,022
-413,642	457,369	-0,028	-0,045
-412,628	441,118	0,047	-0,075
-411,613	-134,482	-0,165	0,014
-410,598	-0,202	-0,137	0,070
-409,584	800,000	0,049	0,123
-408,569	800,000	0,085	0,192
-407,555	268,625	0,037	-0,047
-406,540	18,255	0,080	0,046
-405,525	-4,914	0,120	-0,059
-404,511	97,247	-0,034	-0,028
-403,496	-200,000	-0,016	-0,101
-402,482	-170,373	-0,040	-0,001
-401,467	208,708	-0,081	0,091
-400,452	307,696	0,091	0,122
-399,438	1,650	0,029	0,015
-398,423	104,573	0,042	0,036
-397,409	514,478	-0,063	-0,107
-396,394	-148,060	-0,114	-0,007
-395,379	213,492	-0,028	-0,032
-394,365	-63,654	0,070	0,020
-393,350	89,029	-0,106	-0,085
-392,336	-62,970	0,108	0,032
-391,321	203,148	0,076	-0,085
-390,306	83,163	0,070	-0,055
-389,292	-200,000	0,015	-0,073
-388,277	-47,132	-0,065	0,023
-387,263	-200,000	0,027	0,120
-386,248	-200,000	0,025	0,107
-385,233	211,320	-0,064	0,073
-384,219	-104,704	0,145	0,024
-383,204	-200,000	0,004	-0,117
-382,190	272,652	-0,095	-0,121
-381,175	418,352	0,045	0,070
-380,160	358,125	0,059	0,085
-379,146	800,000	0,036	-0,097
-378,131	-200,000	-0,018	-0,064
-377,117	-6,456	0,152	-0,074
-376,102	800,000	-0,038	0,081
-375,088	-38,542	0,043	-0,016
-374,073	86,008	0,088	0,070
-373,058	68,115	-0,038	-0,028
-372,044	212,812	0,123	-0,140
-371,029	85,680	0,113	0,089
-370,015	-200,000	0,005	-0,027
-369,000	376,831	-0,067	-0,099
-367,985	-30,658	0,057	-0,023
-366,971	15,325	0,055	0,031
-365,956	-40,872	-0,085	-0,031
-364,942	627,611	-0,048	0,087
-363,927	-200,000	0,031	0,110
-362,912	-200,000	-0,007	0,191
-361,898	-200,000	-0,002	0,087
-360,883	-2,236	-0,144	-0,072
-359,869	114,955	-0,154	-0,135
-358,854	4,664	0,154	0,081
-357,839	-21,101	-0,036	0,016
-356,825	39,647	-0,096	0,062
-355,810	-200,000	-0,000	0,001
-354,796	272,024	-0,094	-0,119
-353,781	17,002	0,103	-0,059
-352,766	244,687	0,042	-0,050
-351,752	347,255	0,089	-0,127
-350,737	102,753	0,079	0,067
-349,723	461,887	0,062	0,100
-348,708	100,298	-0,142	-0,118
-347,693	-88,325	-0,004	-0,001
-346,679	-7,593	-0,089	-0,043
-345,664	-129,084	-0,038	0,004
-344,650	800,000	-0,027	0,062
-343,635	-200,000	-0,014	0,114
-342,620	-200,000	0,036	0,160
-341,606	-200,000	0,004	0,178
-340,591	-17,298	0,029	0,013
-339,577	-200,000	0,004	-0,030
-338,562	183,659	-0,035	-0,037
-337,548	187,339	-0,043	-0,046
-336,533	457,975	0,066	0,105
-335,518	800,000	-0,042	0,087
-334,504	-27,897	0,115	0,048
-333,489	109,706	-0,163	-0,140
-332,475	-200,000	0,003	0,017
-331,460	-133,640	0,111	-0,010
-330,445	800,000	-0,024	0,051
-329,431	-200,000	0,021	0,088
-328,416	-200,000	-0,002	-0,056
-327,402	-78,274	-0,126	-0,031
-326,387	-38,510	0,054	-0,020
-325,372	272,062	-0,073	-0,092
-324,358	800,000	0,030	-0,062
-323,343	320,275	-0,079	0,107
-322,329	800,000	-0,076	0,193
-321,314	15,297	0,054	0,030
-320,299	-158,106	0,068	-0,003
-319,285	-38,190	-0,037	0,014
-318,270	313,644	-0,055	0,075
-317,256	245,951	-0,051	-0,062
-316,241	73,733	0,082	0,061
-315,226	229,864	0,014	-0,016
-314,212	634,651	0,055	-0,101
-313,197	800,000	-0,003	-0,007
-312,183	37,020	0,107	-0,067
-311,168	-200,000	-0,012	0,125
-310,153	-187,273	0,091	-0,001
-309,139	-53,709	-0,119	-0,039
-308,124	-159,730	0,095	0,004
-307,110	487,744	-0,048	-0,078
-306,095	565,286	-0,053	-0,092
-305,080	-40,481	0,034	-0,013
-304,066	-200,000	0,005	0,068
-303,051	-71,061	-0,100	-0,027
-302,037	800,000	-0,018	0,054
-301,022	-200,000	-0,007	0,072
-300,008	-200,000	0,011	0,124
-298,993	213,596	0,009	-0,011
-297,978	98,145	0,025	0,021
-296,964	626,569	0,028	-0,051
-295,949	-14,443	-0,093	-0,043
-294,935	13,626	-0,149	0,083
-293,920	633,792	0,011	-0,021
-292,905	-60,577	0,107	-0,032
-291,891	12,950	-0,041	0,023
-290,876	3,066	0,078	0,040
-289,862	366,770	-0,061	-0,089
-288,847	-107,540	0,049	-0,008
-287,832	-172,337	0,010	-0,000
-286,818	359,856	0,011	0,015
-285,803	-79,486	0,061	-0,015
-284,789	800,000	0,057	0,145
-283,774	800,000	-0,061	0,126
-282,759	-85,132	-0,063	-0,014
-281,745	-76,450	-0,161	0,040
-280,730	-1,064	0,078	-0,040
-279,716	-123,544	0,063	0,007
-278,701	62,245	-0,043	-0,031
-277,686	-200,000	-0,016	0,063
-276,672	0,884	0,033	-0,017
-275,657	-13,127	-0,066	-0,031
-274,643	435,553	-0,059	-0,092
-273,628	467,638	-0,033	0,054
-272,613	800,000	0,069	0,140
-271,599	642,830	-0,025	0,045
-270,584	-200,000	0,082	-0,000
-269,570	-200,000	0,015	0,062
-268,555	-200,000	0,015	0,082
-267,540	70,978	0,122	-0,090
-266,526	592,064	-0,037	-0,065
-265,511	-105,202	0,110	-0,018
-264,497	-31,820	-0,116	0,046
-263,482	800,000	0,042	0,088
-262,467	-27,027	-0,010	-0,004
-261,453	-200,000	-0,003	0,030
-260,438	-136,783	-0,209	-0,017
-259,424	-200,000	0,018	-0,090
-258,409	-23,291	-0,135	-0,058
-257,395	-200,000	0,032	0,107
-256,380	-78,034	0,113	-0,028
-255,365	800,000	0,056	0,169
-254,351	-31,369	0,081	0,033
-253,336	-200,000	0,027	0,088
-252,322	-200,000	-0,037	0,136
-251,307	-200,000	-0,024	-0,076
-250,292	-98,463	0,096	0,017
-249,278	-87,417	0,116	-0,025
-248,263	-87,735	0,090	0,019
-247,249	-200,000	-0,001	-0,040
-246,234	-43,032	0,108	-0,039
-245,219	-56,396	-0,111	-0,035
-244,205	342,781	-0,120	-0,169
-243,190	-104,346	0,022	-0,004
-242,176	-81,200	0,040	0,009
-241,161	-152,969	0,107	-0,005
-240,146	-200,000	0,002	-0,105
-239,132	-200,000	-0,003	0,069
-238,117	-200,000	0,013	-0,104
-237,103	-200,000	-0,015	-0,124
-236,088	158,459	0,023	0,023
-235,073	25,210	-0,123	0,073
-234,059	-190,238	0,101	-0,001
-233,044	56,802	0,139	-0,097
-232,030	-43,634	-0,076	-0,027
-231,015	-17,646	-0,030	0,014
-230,000	203,826	0,084	-0,093
-228,986	-35,974	-0,150	0,058
-227,971	-111,602	-0,075	0,011
-226,957	66,751	0,147	0,107
-225,942	-200,000	-0,039	0,149
-224,927	800,000	0,037	-0,097
-223,913	86,536	-0,148	-0,117
-222,898	-74,482	0,099	0,025
-221,884	-200,000	0,003	0,052
-220,869	-200,000	0,012	0,068
-219,855	-107,235	0,056	0,009
-218,840	147,661	0,109	0,105
-217,825	93,848	-0,007	0,005
-216,811	-61,656	0,114	-0,034
-215,796	168,227	0,027	0,028
-214,782	-45,424	-0,111	-0,039
-213,767	231,355	-0,064	-0,075
-212,752	-200,000	-0,039	0,146
-211,738	138,089	0,059	0,055
-210,723	115,882	-0,013	0,012
-209,709	359,385	-0,138	-0,197
-208,694	-112,507	-0,161	-0,023
-207,679	-13,712	-0,075	-0,035
-206,665	-200,000	0,021	-0,077
-205,650	8,422	-0,025	0,013
-204,636	-89,932	0,135	-0,028
-203,621	-48,108	-0,089	-0,031
-202,606	800,000	-0,038	-0,081
-201,592	128,917	0,096	-0,087
-200,577	-118,976	0,024	-0,003
-199,563	-54,881	0,100	-0,032
-198,548	-173,498	-0,072	0,002
-197,533	800,000	-0,024	0,066
-196,519	-200,000	0,025	-0,084
-195,504	-200,000	-0,004	-0,067
-194,490	212,629	-0,028	-0,032
-193,475	-200,000	0,014	-0,083
-192,460	-156,772	0,125	-0,005
-191,446	-121,415	0,102	0,012
-190,431	-200,000	0,005	0,067
-189,417	-200,000	0,032	0,193
-188,402	-56,939	0,098	0,031
-187,387	156,256	-0,034	0,034
-186,373	178,554	0,085	-0,088
-185,358	170,138	0,058	0,059
-184,344	800,000	-0,023	-0,063
-183,329	285,137	0,058	0,075
-182,315	453,883	-0,062	0,097
-181,300	30,047	0,059	0,036
-180,285	-200,000	0,004	-0,119
-179,271	14,470	-0,122	0,067
-178,256	-61,123	0,113	0,034
-177,242	-24,990	-0,155	0,065
-176,227	-109,337	0,139	0,021
-175,212	800,000	0,043	-0,089
-174,198	100,123	-0,081	0,067
-173,183	-200,000	0,019	-0,109
-172,169	251,791	-0,128	-0,156
-171,154	442,211	-0,072	0,113
-170,139	24,156	0,121	-0,071
-169,125	38,634	0,076	-0,048
-168,110	48,989	0,055	-0,037
-167,096	-54,729	0,052	0,017
-166,081	306,895	-0,030	-0,040
-165,066	55,909	-0,168	-0,116
-164,052	-36,490	0,177	-0,068
-163,037	724,834	0,036	0,070
-162,023	800,000	-0,061	0,172
-161,008	-200,000	-0,008	-0,048
-159,993	396,910	-0,045	0,067
-158,979	-47,154	-0,106	0,037
-157,964	64,768	-0,077	-0,055
-156,950	-39,412	-0,037	0,014
-155,935	800,000	-0,047	-0,112
-154,920	-152,382	0,175	0,009
-153,906	800,000	0,081	0,166
-152,891	-200,000	-0,029	0,115
-151,877	476,973	-0,047	0,077
-150,862	800,000	-0,019	-0,043
-149,847	-200,000	0,031	0,178
-148,833	431,727	-0,060	0,094
-147,818	-200,000	-0,013	0,275
-146,804	180,647	0,068	0,071
-145,789	-54,801	0,140	0,045
-144,775	267,860	-0,079	0,098
-143,760	800,000	0,028	-0,083
-142,745	315,594	-0,094	-0,126
-141,731	46,740	0,043	-0,028
-140,716	400,867	-0,032	-0,048
-139,702	-200,000	0,018	0,120
-138,687	-13,838	-0,055	-0,025
-137,672	-15,642	0,093	0,042
-136,658	275,039	-0,051	0,064
-135,643	-200,000	-0,027	0,140
-134,629	-86,611	-0,071	0,015
-133,614	-25,331	0,063	-0,026
-132,599	-200,000	-0,021	0,156
-131,585	-78,673	-0,111	0,027
-130,570	-200,000	-0,027	0,117
-129,556	-200,000	-0,003	0,024
-128,541	-124,257	-0,096	-0,011
-127,526	492,852	-0,032	-0,052
-126,512	528,328	0,026	0,043
-125,497	-200,000	-0,017	0,072
-124,483	-120,804	-0,107	-0,013
-123,468	23,170	0,113	-0,066
-122,453	-169,218	-0,092	0,002
-121,439	69,023	-0,100	0,073
-120,424	287,952	0,036	0,047
-119,410	-8,687	0,085	0,040
