DTS Sentinel unit serial number:	SN410029Multiplexer serial number:	ORYXHardware model number:	OX2-SRSoftware version number:	ORYX F/W v4,00 Oryx Data Collector v3.7.2.0data status	okinstallation	BH3 CH2differential loss correction	single-endedforward channel	channel 2reverse channel	N/Adate	2023/12/05time	21:57:28forward acquisition time	300,00reverse acquisition time	0,00gamma	499,1914k internal	0,3193k external	0,3193temperature offset calibration	1,0000default loss term (dB/km)	0,3820temperature slope calibration	1,0000multiplexer offset coefficient	1,0000multiplexer slope coefficient	1,0000fibre end	0,00T internal ref (°C)	10,14T ext. ref 1 (°C)	-4,91T ext. ref 2 (°C)	-5,03length (m)	temperature (°C)	Stokes	anti-Stokes-744,400	57,975	0,028	0,020
-743,385	147,559	-0,214	0,211
-742,371	-200,000	0,017	-0,106
-741,356	-110,433	-0,175	0,026
-740,342	-200,000	0,007	-0,023
-739,327	-58,372	-0,306	0,096
-738,312	160,215	0,097	-0,099
-737,298	96,195	-0,129	0,108
-736,283	-200,000	0,012	-0,167
-735,269	-24,750	-0,296	0,128
-734,254	85,597	-0,115	-0,092
-733,239	-66,732	-0,302	-0,086
-732,225	800,000	0,021	-0,044
-731,210	86,151	0,103	0,083
-730,196	0,009	-0,066	-0,034
-729,181	-200,000	-0,002	-0,064
-728,167	58,894	-0,105	0,075
-727,152	-200,000	-0,004	-0,023
-726,137	-119,057	-0,069	-0,009
-725,123	-200,000	-0,006	-0,082
-724,108	115,780	-0,093	-0,083
-723,094	70,523	-0,069	-0,052
-722,079	-200,000	0,004	-0,193
-721,064	29,995	-0,038	0,023
-720,050	-114,941	-0,071	0,010
-719,035	-76,778	0,014	0,004
-718,021	35,479	0,031	-0,020
-717,006	-200,000	-0,004	-0,082
-715,991	800,000	0,036	-0,091
-714,977	800,000	-0,035	0,089
-713,962	18,980	0,054	-0,031
-712,948	180,813	0,051	0,055
-711,933	514,276	-0,097	0,166
-710,918	159,309	0,080	-0,082
-709,904	-8,052	0,012	0,006
-708,889	253,440	-0,071	-0,088
-707,875	44,188	0,070	-0,047
-706,860	800,000	-0,050	-0,147
-705,845	-200,000	0,003	-0,025
-704,831	27,614	-0,058	-0,036
-703,816	-32,364	0,114	0,046
-702,802	-200,000	-0,015	-0,072
-701,787	800,000	0,020	0,042
-700,772	-27,343	0,040	0,017
-699,758	27,438	-0,091	0,056
-698,743	800,000	-0,016	0,046
-697,729	800,000	-0,001	0,003
-696,714	206,799	0,015	0,018
-695,699	448,585	-0,063	-0,101
-694,685	6,661	0,062	0,033
-693,670	-200,000	-0,028	-0,207
-692,656	-200,000	-0,069	-0,241
-691,641	-115,355	-0,058	0,008
-690,627	14,820	0,069	0,039
-689,612	209,154	-0,094	0,108
-688,597	-48,386	0,027	0,010
-687,583	800,000	0,004	0,011
-686,568	-200,000	0,027	-0,095
-685,554	3,785	-0,084	0,045
-684,539	410,722	-0,057	0,088
-683,524	169,673	-0,084	0,088
-682,510	800,000	0,037	-0,109
-681,495	-138,433	-0,077	-0,006
-680,481	-110,912	-0,063	-0,009
-679,466	-200,000	-0,014	-0,166
-678,451	12,100	-0,028	-0,016
-677,437	35,012	0,111	-0,070
-676,422	2,160	0,024	0,012
-675,408	78,547	-0,088	0,068
-674,393	-100,737	-0,035	-0,006
-673,378	-200,000	-0,006	-0,027
-672,364	395,743	-0,069	0,105
-671,349	-174,214	-0,192	0,004
-670,335	-200,000	0,008	-0,045
-669,320	0,659	0,040	-0,021
-668,305	-200,000	0,010	-0,063
-667,291	-200,000	-0,007	-0,045
-666,276	-19,647	-0,051	-0,023
-665,262	94,018	-0,073	0,060
-664,247	53,225	-0,069	0,048
-663,232	98,214	-0,167	-0,140
-662,218	-200,000	-0,007	0,082
-661,203	-112,669	-0,142	0,020
-660,189	-200,000	0,005	0,152
-659,174	3,012	-0,044	-0,023
-658,159	-200,000	0,024	-0,080
-657,145	-8,040	-0,121	-0,059
-656,130	-200,000	0,016	-0,063
-655,116	50,688	-0,069	0,048
-654,101	800,000	0,041	0,098
-653,086	175,547	0,116	0,123
-652,072	4,759	-0,085	0,045
-651,057	-122,854	-0,102	0,012
-650,043	144,834	0,121	-0,118
-649,028	313,244	-0,049	-0,067
-648,014	-4,018	-0,026	0,013
-646,999	-200,000	0,005	0,085
-645,984	-200,000	0,024	0,149
-644,970	47,642	0,056	0,038
-643,955	-200,000	0,012	-0,058
-642,941	190,011	-0,077	-0,084
-641,926	800,000	0,000	0,000
-640,911	177,949	0,026	-0,027
-639,897	-194,600	-0,056	-0,000
-638,882	-200,000	-0,028	0,206
-637,868	-200,000	0,017	-0,094
-636,853	8,381	0,032	0,018
-635,838	502,693	0,030	-0,051
-634,824	-149,625	0,095	0,005
-633,809	800,000	0,010	0,029
-632,795	-146,194	-0,056	0,004
-631,780	311,004	-0,066	0,091
-630,765	800,000	-0,018	-0,056
-629,751	-65,053	0,015	0,004
-628,736	800,000	0,021	-0,049
-627,722	-95,187	0,135	-0,026
-626,707	10,492	-0,046	-0,025
-625,692	-144,417	-0,041	0,003
-624,678	-10,053	-0,057	-0,027
-623,663	99,729	0,096	-0,080
-622,649	244,410	-0,050	-0,061
-621,634	-10,417	-0,039	0,019
-620,619	146,140	0,090	-0,088
-619,605	373,754	-0,033	0,049
-618,590	-137,079	0,113	-0,009
-617,576	-56,480	0,056	-0,018
-616,561	374,779	-0,021	-0,031
-615,546	-82,871	0,203	-0,047
-614,532	-200,000	-0,004	0,023
-613,517	-43,172	0,032	-0,012
-612,503	-20,200	0,044	-0,019
-611,488	-145,927	-0,044	-0,003
-610,474	-139,684	-0,087	-0,007
-609,459	64,847	-0,012	-0,009
-608,444	-200,000	-0,037	0,122
-607,430	96,607	-0,127	0,106
-606,415	588,324	-0,048	0,087
-605,401	-200,000	0,003	0,013
-604,386	316,796	-0,056	0,078
-603,371	-26,693	-0,036	0,015
-602,357	88,323	-0,093	-0,075
-601,342	296,151	0,034	-0,045
-600,328	34,157	-0,053	0,034
-599,313	-200,000	0,010	-0,042
-598,298	221,402	-0,051	-0,059
-597,284	61,247	-0,079	-0,057
-596,269	-20,020	-0,158	-0,070
-595,255	-23,613	0,127	-0,055
-594,240	-200,000	-0,003	-0,105
-593,225	-179,755	-0,170	0,003
-592,211	-125,456	-0,142	-0,015
-591,196	143,569	0,031	-0,030
-590,182	71,297	-0,086	-0,064
-589,167	698,512	-0,025	0,047
-588,152	59,442	0,081	-0,058
-587,138	800,000	-0,012	-0,028
-586,123	329,259	-0,092	0,128
-585,109	389,052	0,046	-0,069
-584,094	800,000	0,033	-0,073
-583,079	-200,000	-0,061	0,216
-582,065	800,000	-0,027	0,062
-581,050	-175,233	0,165	-0,003
-580,036	800,000	-0,054	0,117
-579,021	-5,469	-0,066	-0,033
-578,006	223,982	-0,024	-0,028
-576,992	397,583	-0,059	0,090
-575,977	231,300	0,075	0,090
-574,963	169,654	0,067	0,070
-573,948	63,411	-0,071	-0,052
-572,934	182,990	0,017	-0,018
-571,919	-200,000	0,011	-0,082
-570,904	-200,000	-0,005	-0,152
-569,890	-82,955	-0,119	0,028
-568,875	260,773	-0,091	0,115
-567,861	382,295	0,069	0,104
-566,846	38,322	0,126	0,081
-565,831	-65,299	-0,056	-0,016
-564,817	-65,710	0,145	-0,042
-563,802	800,000	-0,010	0,024
-562,788	156,854	-0,147	-0,147
-561,773	89,059	0,062	-0,050
-560,758	-200,000	0,003	0,139
-559,744	-99,539	0,134	-0,024
-558,729	-200,000	0,032	-0,145
-557,715	-200,000	-0,040	-0,195
-556,700	538,575	-0,063	-0,108
-555,685	-7,443	-0,058	-0,028
-554,671	76,000	-0,023	-0,018
-553,656	108,507	0,113	-0,098
-552,642	-89,092	0,094	0,020
-551,627	109,072	0,058	0,050
-550,612	388,966	-0,064	-0,097
-549,598	716,489	-0,056	-0,109
-548,583	275,744	-0,044	-0,057
-547,569	-194,806	-0,085	-0,000
-546,554	615,597	-0,018	0,033
-545,539	-95,263	0,020	0,004
-544,525	-200,000	0,029	0,124
-543,510	-127,406	-0,115	-0,012
-542,496	-200,000	-0,012	-0,142
-541,481	-59,676	0,084	-0,026
-540,466	704,760	0,009	-0,016
-539,452	-131,947	0,070	-0,007
-538,437	7,666	0,013	0,007
-537,423	-41,848	0,170	-0,063
-536,408	-200,000	-0,021	0,081
-535,393	-166,461	0,125	-0,004
-534,379	800,000	-0,093	-0,231
-533,364	283,671	-0,101	-0,131
-532,350	403,071	-0,041	-0,063
-531,335	235,532	0,108	0,129
-530,321	106,877	0,039	-0,033
-529,306	-200,000	-0,005	0,073
-528,291	-136,391	-0,077	0,006
-527,277	548,524	-0,048	-0,083
-526,262	75,861	-0,025	0,019
-525,248	-73,716	0,232	-0,061
-524,233	-200,000	-0,002	-0,100
-523,218	404,825	0,089	0,136
-522,204	800,000	-0,048	-0,112
-521,189	800,000	-0,022	0,055
-520,175	-166,609	0,018	-0,001
-519,160	-200,000	0,030	-0,099
-518,145	518,671	0,073	-0,124
-517,131	99,979	0,080	0,067
-516,116	800,000	-0,048	-0,100
-515,102	-110,379	-0,054	-0,008
-514,087	-135,453	-0,107	0,009
-513,072	102,603	-0,117	-0,099
-512,058	277,321	-0,044	0,056
-511,043	800,000	0,027	0,071
-510,029	-200,000	-0,040	0,141
-509,014	-64,182	0,156	0,046
-507,999	-200,000	-0,001	-0,012
-506,985	-200,000	0,048	-0,153
-505,970	-200,000	-0,038	-0,216
-504,956	-200,000	-0,004	0,155
-503,941	800,000	0,013	0,038
-502,926	-4,761	-0,058	0,029
-501,912	500,126	0,082	0,137
-500,897	800,000	-0,040	0,089
-499,883	-200,000	-0,012	0,065
-498,868	124,368	-0,138	-0,125
-497,853	197,796	-0,067	-0,074
-496,839	-82,032	-0,127	0,030
-495,824	-200,000	0,052	0,000
-494,810	715,404	-0,018	0,035
-493,795	156,454	0,068	0,068
-492,781	-30,625	-0,127	0,052
-491,766	84,883	-0,040	-0,032
-490,751	-162,557	-0,075	-0,003
-489,737	-57,329	0,034	-0,011
-488,722	-200,000	0,007	-0,209
-487,708	233,872	0,049	0,058
-486,693	-83,769	0,013	0,003
-485,678	459,704	0,006	0,010
-484,664	161,573	-0,082	-0,083
-483,649	-200,000	-0,001	-0,064
-482,635	309,644	-0,010	0,013
-481,620	-200,000	-0,054	-0,222
-480,605	115,516	-0,041	-0,036
-479,591	800,000	0,031	0,094
-478,576	-61,375	-0,126	-0,038
-477,562	-200,000	-0,005	0,048
-476,547	-116,300	-0,133	0,018
-475,532	-200,000	-0,050	-0,180
-474,518	96,455	-0,078	-0,065
-473,503	102,479	0,066	-0,056
-472,489	-200,000	0,019	0,073
-471,474	17,735	0,130	0,074
-470,459	305,078	-0,105	-0,142
-469,445	-200,000	-0,018	-0,098
-468,430	800,000	-0,015	0,035
-467,416	39,616	0,122	-0,079
-466,401	-64,776	-0,023	0,007
-465,386	456,412	-0,094	-0,151
-464,372	-200,000	-0,002	0,067
-463,357	-200,000	-0,004	0,076
-462,343	91,552	-0,126	-0,102
-461,328	-9,367	-0,095	-0,046
-460,313	36,802	0,112	0,072
-459,299	141,139	0,016	-0,015
-458,284	219,557	0,066	0,077
-457,270	168,672	0,051	0,052
-456,255	-200,000	0,013	-0,109
-455,241	260,294	0,082	-0,103
-454,226	-74,967	-0,106	-0,027
-453,211	35,432	-0,041	0,026
-452,197	-116,532	0,158	0,021
-451,182	-200,000	0,009	0,073
-450,168	-110,925	-0,069	-0,010
-449,153	800,000	0,017	-0,035
-448,138	-28,223	0,099	0,041
-447,124	423,163	-0,044	-0,069
-446,109	34,731	-0,104	-0,065
-445,095	639,327	0,029	0,053
-444,080	31,002	0,143	0,088
-443,065	-200,000	0,009	0,113
-442,051	-23,039	-0,222	0,096
-441,036	554,925	-0,055	-0,096
-440,022	22,483	0,123	-0,072
-439,007	-155,116	-0,116	-0,005
-437,992	19,863	0,058	0,033
-436,978	-200,000	0,005	-0,025
-435,963	-200,000	-0,002	-0,024
-434,949	-73,947	0,121	-0,032
-433,934	486,242	-0,052	0,086
-432,919	-200,000	0,028	-0,121
-431,905	800,000	0,044	-0,116
-430,890	-59,172	0,063	0,019
-429,876	-200,000	0,022	0,104
-428,861	484,671	-0,064	-0,106
-427,846	24,107	0,090	0,054
-426,832	69,781	-0,079	0,059
-425,817	70,225	-0,043	-0,032
-424,803	78,064	-0,093	0,072
-423,788	116,393	0,033	-0,029
-422,773	800,000	0,053	0,139
-421,759	-200,000	0,001	-0,055
-420,744	215,204	0,043	-0,049
-419,730	-90,355	-0,113	-0,023
-418,715	-200,000	-0,013	0,081
-417,701	-102,668	-0,229	0,039
-416,686	-31,045	0,149	0,060
-415,671	800,000	-0,093	0,213
-414,657	-92,557	-0,081	0,016
-413,642	221,537	0,100	-0,116
-412,628	-200,000	-0,004	-0,022
-411,613	800,000	-0,012	-0,028
-410,598	18,362	-0,099	-0,057
-409,584	-200,000	0,006	-0,112
-408,569	-200,000	-0,021	0,131
-407,555	-123,470	0,053	-0,006
-406,540	-16,374	-0,094	0,043
-405,525	135,562	0,095	-0,089
-404,511	523,796	-0,078	-0,133
-403,496	-200,000	-0,003	-0,185
-402,482	-200,000	-0,004	0,057
-401,467	800,000	0,064	0,201
-400,452	-136,945	0,147	-0,012
-399,438	252,878	0,070	-0,086
-398,423	61,543	-0,133	-0,095
-397,409	800,000	-0,007	-0,019
-396,394	550,032	0,035	0,061
-395,379	79,700	0,063	-0,049
-394,365	-145,204	0,116	-0,007
-393,350	604,206	0,038	-0,068
-392,336	66,035	-0,036	0,026
-391,321	452,379	-0,039	0,063
-390,306	401,988	-0,020	-0,031
-389,292	800,000	0,068	-0,151
-388,277	-200,000	0,011	0,096
-387,263	-25,765	0,018	0,008
-386,248	-200,000	-0,000	0,110
-385,233	-47,451	0,111	-0,039
-384,219	800,000	-0,040	-0,110
-383,204	800,000	0,025	-0,076
-382,190	655,016	0,082	-0,151
-381,175	457,441	0,029	-0,047
-380,160	66,908	0,164	0,120
-379,146	-92,642	-0,055	-0,011
-378,131	52,589	-0,076	0,052
-377,117	-137,292	0,056	0,005
-376,102	326,265	-0,063	0,087
-375,088	23,769	0,021	0,012
-374,073	-200,000	0,006	0,044
-373,058	800,000	0,063	0,162
-372,044	601,773	0,097	0,175
-371,029	-200,000	-0,027	0,099
-370,015	-200,000	-0,005	0,038
-369,000	-83,181	0,107	-0,025
-367,985	333,913	0,052	0,073
-366,971	506,795	-0,025	-0,042
-365,956	-16,222	-0,106	-0,048
-364,942	-9,428	0,082	0,039
-363,927	-200,000	0,011	-0,066
-362,912	-42,127	0,048	0,018
-361,898	-200,000	-0,028	-0,090
-360,883	800,000	-0,021	-0,051
-359,869	-90,455	-0,062	-0,013
-358,854	518,684	0,081	-0,137
-357,839	-55,838	0,066	0,021
-356,825	-2,145	-0,031	-0,015
-355,810	281,108	-0,052	-0,067
-354,796	308,171	0,041	0,056
-353,781	35,551	-0,110	-0,069
-352,766	113,849	0,071	-0,062
-351,752	800,000	0,046	-0,119
-350,737	10,512	0,061	0,033
-349,723	241,319	0,129	0,155
-348,708	800,000	0,025	0,059
-347,693	-200,000	0,000	0,042
-346,679	-20,890	-0,064	-0,028
-345,664	-141,193	0,117	0,008
-344,650	-200,000	-0,034	0,108
-343,635	-9,814	-0,052	0,025
-342,620	41,071	0,093	0,060
-341,606	334,345	0,064	0,089
-340,591	-183,644	-0,114	0,001
-339,577	-157,582	-0,062	0,003
-338,562	-200,000	-0,027	0,115
-337,548	169,571	0,076	0,078
-336,533	-200,000	-0,019	-0,097
-335,518	-200,000	-0,012	-0,051
-334,504	-200,000	0,022	0,120
-333,489	800,000	-0,078	0,212
-332,475	-41,212	-0,047	0,017
-331,460	800,000	-0,063	0,143
-330,445	33,561	0,151	0,094
-329,431	398,307	0,024	-0,035
-328,416	-200,000	-0,028	0,096
-327,402	-91,642	0,086	0,018
-326,387	-56,838	0,091	-0,029
-325,372	800,000	-0,016	0,047
-324,358	-200,000	0,027	-0,119
-323,343	-200,000	0,108	0,000
-322,329	-148,494	0,085	-0,005
-321,314	-54,600	0,075	0,024
-320,299	-200,000	0,029	0,157
-319,285	-200,000	0,010	-0,127
-318,270	447,413	-0,052	-0,083
-317,256	-200,000	-0,003	-0,172
-316,241	1,855	0,094	-0,048
-315,226	-200,000	0,016	0,066
-314,212	800,000	-0,021	0,049
-313,197	567,459	0,064	0,112
-312,183	-113,372	-0,010	0,001
-311,168	405,550	-0,029	-0,043
-310,153	-200,000	-0,018	0,068
-309,139	657,013	-0,042	0,078
-308,124	800,000	-0,029	0,065
-307,110	396,765	0,025	0,037
-306,095	-200,000	0,005	0,051
-305,080	-200,000	-0,008	0,050
-304,066	778,792	0,019	-0,037
-303,051	800,000	-0,042	-0,101
-302,037	78,201	0,046	0,035
-301,022	733,260	0,052	0,100
-300,008	800,000	-0,027	-0,084
-298,993	139,251	0,107	0,101
-297,978	-13,658	-0,166	0,077
-296,964	-98,848	0,090	-0,016
-295,949	800,000	-0,021	-0,043
-294,935	-200,000	0,002	0,011
-293,920	-200,000	-0,012	-0,096
-292,905	213,506	0,042	0,048
-291,891	-200,000	0,010	0,103
-290,876	-200,000	-0,002	-0,108
-289,862	800,000	0,045	0,142
-288,847	40,235	0,048	-0,031
-287,832	800,000	-0,032	-0,096
-286,818	220,950	-0,049	-0,056
-285,803	-200,000	0,026	0,153
-284,789	800,000	0,038	0,080
-283,774	-200,000	0,008	0,087
-282,759	-200,000	0,013	0,128
-281,745	-200,000	-0,015	-0,053
-280,730	-55,021	0,034	-0,011
-279,716	435,549	0,057	-0,090
-278,701	-53,881	0,135	0,044
-277,686	738,155	-0,078	0,150
-276,672	-47,166	0,025	0,009
-275,657	152,087	-0,045	0,044
-274,643	213,989	-0,034	-0,039
-273,628	-200,000	-0,080	0,000
-272,613	-200,000	0,005	0,041
-271,599	412,811	-0,024	0,037
-270,584	-24,233	0,075	0,032
-269,570	798,588	-0,024	0,047
-268,555	175,751	-0,093	0,097
-267,540	118,994	-0,079	-0,070
-266,526	423,152	-0,043	-0,066
-265,511	-110,809	-0,040	-0,006
-264,497	-200,000	0,033	-0,177
-263,482	551,866	0,031	-0,054
-262,467	-200,000	0,003	0,014
-261,453	-94,726	0,175	0,034
-260,438	76,592	-0,060	-0,045
-259,424	365,039	-0,081	-0,117
-258,409	800,000	0,032	0,091
-257,395	143,732	0,060	-0,057
-256,380	542,525	-0,048	0,081
-255,365	-99,314	0,159	0,028
-254,351	800,000	-0,030	0,065
-253,336	-177,743	-0,062	0,001
-252,322	-101,035	-0,024	0,004
-251,307	-200,000	0,011	0,041
-250,292	800,000	0,047	0,095
-249,278	-200,000	-0,008	0,143
-248,263	800,000	0,032	-0,068
-247,249	800,000	-0,053	0,110
-246,234	364,931	0,100	-0,144
-245,219	-1,943	-0,060	0,030
-244,205	63,767	-0,048	-0,035
-243,190	-200,000	-0,009	-0,034
-242,176	-200,000	0,012	0,051
-241,161	-51,648	0,055	0,018
-240,146	800,000	0,031	0,095
-239,132	43,976	0,104	0,068
-238,117	275,231	-0,126	0,160
-237,103	-200,000	-0,018	-0,149
-236,088	115,787	-0,089	-0,078
-235,073	349,088	-0,070	0,100
-234,059	-9,399	0,089	0,042
-233,044	-130,150	-0,085	-0,008
-232,030	-200,000	0,015	-0,172
-231,015	3,579	0,060	-0,031
-230,000	-200,000	-0,015	-0,160
-228,986	-25,884	0,030	0,013
-227,971	800,000	-0,014	0,036
-226,957	-70,082	0,181	0,049
-225,942	65,999	0,044	-0,032
-224,927	9,887	0,109	0,059
-223,913	391,960	0,010	0,015
-222,898	800,000	-0,030	0,065
-221,884	157,488	-0,106	0,105
-220,869	249,039	0,018	0,021
-219,855	-200,000	0,003	0,025
-218,840	449,613	-0,035	0,055
-217,825	653,711	0,019	0,035
-216,811	-200,000	-0,020	-0,112
-215,796	749,640	-0,092	-0,178
-214,782	-93,455	0,213	-0,042
-213,767	-73,473	0,043	-0,011
-212,752	217,663	-0,070	0,079
-211,738	-49,595	0,012	0,004
-210,723	-43,550	-0,096	-0,034
-209,709	340,505	0,061	0,086
-208,694	84,162	-0,069	0,054
-207,679	-171,474	-0,065	-0,002
-206,665	114,331	0,104	0,091
-205,650	400,716	-0,019	-0,029
-204,636	434,611	-0,059	0,091
-203,621	-200,000	-0,002	-0,033
-202,606	-127,602	-0,132	0,013
-201,592	650,944	0,087	-0,161
-200,577	-200,000	0,005	-0,048
-199,563	-87,380	-0,058	-0,013
-198,548	78,487	0,087	-0,066
-197,533	-200,000	-0,004	0,047
-196,519	143,826	0,119	0,113
-195,504	-200,000	-0,002	0,108
-194,490	655,153	-0,029	-0,053
-193,475	-200,000	-0,024	-0,087
-192,460	97,912	-0,097	-0,080
-191,446	-137,300	-0,056	0,004
-190,431	-200,000	0,002	0,066
-189,417	-96,753	0,109	-0,020
-188,402	800,000	-0,006	-0,019
-187,387	-200,000	-0,018	-0,065
-186,373	800,000	-0,040	-0,102
-185,358	800,000	-0,018	0,053
-184,344	-3,801	0,038	0,019
-183,329	125,671	-0,031	0,028
-182,315	-57,901	-0,197	0,061
-181,300	-200,000	0,032	0,123
-180,285	-200,000	-0,130	0,000
-179,271	55,453	-0,046	-0,032
-178,256	-88,260	0,070	0,015
-177,242	-55,365	-0,050	0,016
-176,227	-58,567	0,057	0,017
-175,212	800,000	-0,119	0,277
-174,198	489,217	0,077	-0,126
-173,183	-200,000	-0,009	0,114
-172,169	-114,325	0,092	-0,012
-171,154	-3,107	-0,131	-0,065
-170,139	25,955	0,117	-0,070
-169,125	-34,601	0,120	0,047
-168,110	-124,643	0,069	-0,007
-167,096	-57,232	-0,156	-0,049
-166,081	-200,000	0,005	-0,076
-165,066	-3,787	-0,057	0,028
-164,052	-200,000	0,007	-0,042
-163,037	-131,028	0,084	0,008
-162,023	621,922	0,102	0,183
-161,008	-14,150	-0,114	0,052
-159,993	14,494	-0,064	-0,035
-158,979	-119,232	-0,068	-0,008
-157,964	266,451	-0,070	-0,087
-156,950	800,000	0,049	-0,134
-155,935	-109,887	-0,174	0,026
-154,920	800,000	-0,028	-0,075
-153,906	-105,425	0,108	0,017
-152,891	-200,000	0,019	0,084
-151,877	-80,676	0,033	0,008
-150,862	358,712	0,042	-0,060
-149,847	52,980	0,112	0,076
-148,833	-200,000	-0,023	0,105
-147,818	89,205	-0,088	0,070
-146,804	551,057	-0,031	-0,054
-145,789	282,269	0,064	0,082
-144,775	16,171	0,168	-0,094
-143,760	541,118	0,039	0,066
-142,745	183,713	0,070	0,074
-141,731	-200,000	-0,006	0,099
-140,716	67,967	0,069	0,050
-139,702	-200,000	-0,008	0,061
-138,687	219,319	0,049	0,056
-137,672	-56,466	-0,064	-0,020
-136,658	-110,905	0,124	0,018
-135,643	3,854	-0,071	0,037
-134,629	499,701	-0,112	-0,184
-133,614	296,199	0,035	0,045
-132,599	15,397	0,158	0,088
-131,585	179,686	0,066	0,069
-130,570	689,914	0,033	0,062
-129,556	800,000	-0,036	0,093
-128,541	-36,152	0,070	0,027
-127,526	-200,000	-0,002	0,063
-126,512	2,637	0,106	-0,055
-125,497	725,549	0,036	-0,069
-124,483	122,806	-0,112	0,100
-123,468	18,720	-0,118	-0,067
-122,453	-60,249	0,094	0,028
-121,439	-160,853	-0,133	-0,005
-120,424	77,834	-0,058	0,044
-119,410	492,191	0,032	-0,053
-118,395	32,267	0,082	0,050
