DTS Sentinel unit serial number:	SN410029Multiplexer serial number:	ORYXHardware model number:	OX2-SRSoftware version number:	ORYX F/W v4,00 Oryx Data Collector v3.7.2.0data status	okinstallation	BH3 CH2differential loss correction	single-endedforward channel	channel 2reverse channel	N/Adate	2023/12/05time	10:47:28forward acquisition time	300,00reverse acquisition time	0,00gamma	499,1914k internal	0,3198k external	0,3198temperature offset calibration	1,0000default loss term (dB/km)	0,3820temperature slope calibration	1,0000multiplexer offset coefficient	1,0000multiplexer slope coefficient	1,0000fibre end	0,00T internal ref (°C)	9,67T ext. ref 1 (°C)	-5,17T ext. ref 2 (°C)	-5,31length (m)	temperature (°C)	Stokes	anti-Stokes-744,400	237,042	0,093	-0,113
-743,385	-127,251	-0,270	0,028
-742,371	-66,660	0,089	0,026
-741,356	369,496	-0,058	0,085
-740,342	-109,877	-0,128	0,019
-739,327	29,567	-0,162	0,100
-738,312	800,000	-0,038	-0,113
-737,298	-91,655	-0,317	0,065
-736,283	-200,000	0,040	-0,220
-735,269	-157,915	-0,238	0,010
-734,254	-200,000	0,019	-0,221
-733,239	-128,035	-0,420	-0,043
-732,225	800,000	0,042	-0,132
-731,210	69,310	-0,046	0,034
-730,196	213,710	-0,037	0,043
-729,181	800,000	-0,023	-0,055
-728,167	151,894	0,018	-0,018
-727,152	-33,211	-0,142	-0,057
-726,137	-86,356	-0,078	0,017
-725,123	0,227	-0,085	-0,044
-724,108	-200,000	0,003	-0,062
-723,094	800,000	0,028	-0,073
-722,079	-155,651	-0,082	-0,004
-721,064	44,989	-0,054	-0,036
-720,050	41,509	-0,008	0,005
-719,035	151,004	-0,042	-0,042
-718,021	-136,006	-0,140	0,012
-717,006	800,000	-0,116	-0,235
-715,991	-200,000	-0,002	0,085
-714,977	-200,000	0,011	-0,046
-713,962	-78,317	-0,075	-0,019
-712,948	102,977	0,085	0,072
-711,933	637,856	0,017	0,031
-710,918	18,316	-0,146	-0,085
-709,904	-91,528	0,091	-0,019
-708,889	28,227	-0,119	-0,073
-707,875	-17,402	-0,096	0,044
-706,860	-200,000	0,013	0,043
-705,845	-8,738	0,020	0,010
-704,831	-95,294	-0,051	0,010
-703,816	250,794	0,093	-0,115
-702,802	-14,917	-0,073	-0,034
-701,787	-116,178	-0,106	-0,014
-700,772	-200,000	-0,000	-0,128
-699,758	-200,000	0,021	-0,122
-698,743	-133,833	0,062	0,005
-697,729	156,970	0,050	0,051
-696,714	292,021	0,058	0,076
-695,699	-30,775	-0,044	0,018
-694,685	116,917	-0,080	-0,072
-693,670	-83,803	-0,121	0,028
-692,656	-200,000	0,030	0,099
-691,641	99,965	-0,070	0,059
-690,627	162,969	0,097	0,099
-689,612	-181,091	-0,127	-0,002
-688,597	-200,000	0,009	-0,070
-687,583	-200,000	-0,034	-0,119
-686,568	-200,000	-0,030	-0,238
-685,554	-200,000	-0,025	-0,110
-684,539	73,194	0,069	-0,053
-683,524	-3,777	-0,086	-0,043
-682,510	267,070	0,083	-0,105
-681,495	-130,617	0,078	-0,008
-680,481	-200,000	0,009	-0,061
-679,466	321,977	-0,098	-0,136
-678,451	-44,020	-0,087	-0,031
-677,437	212,099	0,075	-0,085
-676,422	271,641	0,044	-0,056
-675,408	391,659	0,073	-0,111
-674,393	21,289	-0,135	-0,079
-673,378	-200,000	0,009	-0,075
-672,364	184,984	0,072	-0,078
-671,349	800,000	0,045	-0,103
-670,335	-123,653	0,088	-0,010
-669,320	-200,000	-0,016	0,130
-668,305	800,000	0,065	-0,132
-667,291	43,943	-0,107	-0,071
-666,276	391,739	0,071	-0,107
-665,262	40,107	-0,063	-0,041
-664,247	-54,195	-0,178	0,058
-663,232	-200,000	-0,007	-0,131
-662,218	636,305	-0,049	0,091
-661,203	-200,000	-0,021	-0,123
-660,189	60,628	-0,067	-0,048
-659,174	800,000	0,004	0,012
-658,159	-18,058	-0,080	-0,036
-657,145	-125,186	0,033	0,004
-656,130	740,989	0,008	0,015
-655,116	647,939	0,055	-0,102
-654,101	311,842	0,059	0,080
-653,086	-30,478	0,039	0,016
-652,072	3,242	-0,084	0,044
-651,057	-65,157	-0,068	-0,020
-650,043	39,105	-0,104	0,067
-649,028	-200,000	0,012	-0,055
-648,014	228,514	-0,109	-0,129
-646,999	-0,079	0,121	0,062
-645,984	-200,000	-0,020	-0,088
-644,970	-189,798	0,086	0,001
-643,955	-122,040	-0,044	0,005
-642,941	-200,000	0,000	0,026
-641,926	-3,264	-0,086	0,043
-640,911	77,469	0,114	0,088
-639,897	-200,000	-0,012	-0,052
-638,882	-200,000	0,014	-0,067
-637,868	168,294	-0,078	-0,081
-636,853	-14,131	-0,103	-0,048
-635,838	90,707	-0,079	-0,064
-634,824	134,742	-0,060	-0,056
-633,809	442,393	0,093	0,149
-632,795	-200,000	0,022	-0,090
-631,780	-143,780	0,047	-0,003
-630,765	-82,676	-0,108	0,025
-629,751	203,164	-0,109	-0,122
-628,736	-200,000	0,029	-0,102
-627,722	68,427	0,031	0,023
-626,707	3,011	0,069	0,036
-625,692	-68,372	0,148	0,041
-624,678	15,203	-0,110	0,062
-623,663	319,298	0,079	0,109
-622,649	-200,000	0,008	-0,101
-621,634	-132,315	-0,198	-0,018
-620,619	-200,000	-0,003	-0,130
-619,605	-200,000	-0,007	0,089
-618,590	123,152	-0,069	0,062
-617,576	66,056	0,176	0,129
-616,561	317,228	-0,029	-0,039
-615,546	78,316	-0,028	0,021
-614,532	-200,000	-0,036	-0,190
-613,517	800,000	-0,051	-0,131
-612,503	230,848	-0,015	-0,017
-611,488	-42,675	0,130	-0,048
-610,474	431,429	0,049	0,077
-609,459	468,853	0,018	-0,029
-608,444	-200,000	-0,032	-0,112
-607,430	107,568	0,006	0,005
-606,415	800,000	0,030	-0,088
-605,401	232,060	0,075	0,089
-604,386	52,149	0,110	0,076
-603,371	-200,000	-0,045	0,161
-602,357	-200,000	0,009	-0,124
-601,342	-52,358	-0,157	0,052
-600,328	239,766	0,029	0,035
-599,313	-96,095	0,010	-0,002
-598,298	-31,511	-0,098	0,040
-597,284	-110,005	-0,063	-0,009
-596,269	-200,000	-0,012	0,066
-595,255	24,930	0,057	0,034
-594,240	22,649	-0,215	-0,127
-593,225	301,590	0,057	-0,076
-592,211	251,664	-0,105	-0,129
-591,196	-144,824	-0,111	-0,007
-590,182	559,154	-0,020	-0,035
-589,167	-105,589	-0,092	0,015
-588,152	203,353	0,019	-0,021
-587,138	-200,000	0,002	-0,038
-586,123	17,267	-0,075	-0,043
-585,109	107,108	0,115	0,098
-584,094	-124,427	-0,109	0,012
-583,079	-200,000	0,021	0,096
-582,065	140,858	0,075	-0,072
-581,050	-68,435	0,108	0,030
-580,036	-200,000	0,001	-0,059
-579,021	-17,464	-0,106	-0,048
-578,006	170,826	-0,186	-0,193
-576,992	-200,000	-0,009	-0,045
-575,977	140,955	0,039	0,037
-574,963	-46,676	-0,072	-0,025
-573,948	800,000	0,057	0,121
-572,934	232,969	-0,047	0,056
-571,919	-162,565	-0,172	-0,006
-570,904	-56,371	0,069	0,022
-569,890	109,222	0,068	-0,059
-568,875	-200,000	-0,007	0,138
-567,861	200,888	0,061	0,068
-566,846	800,000	-0,051	0,144
-565,831	-129,749	-0,114	-0,011
-564,817	-200,000	0,006	-0,131
-563,802	104,662	-0,136	-0,116
-562,788	-63,092	-0,104	0,031
-561,773	-200,000	0,020	0,111
-560,758	528,415	0,074	0,126
-559,744	-200,000	-0,005	0,068
-558,729	800,000	-0,059	0,122
-557,715	-56,396	-0,095	0,030
-556,700	112,286	0,091	-0,080
-555,685	-40,173	-0,164	-0,061
-554,671	-200,000	0,047	-0,152
-553,656	234,831	0,040	0,047
-552,642	800,000	0,022	0,050
-551,627	452,545	-0,024	0,039
-550,612	-200,000	0,017	-0,104
-549,598	-14,141	-0,069	-0,032
-548,583	747,156	-0,085	-0,167
-547,569	800,000	0,008	-0,022
-546,554	-34,975	0,103	0,040
-545,539	26,771	-0,011	-0,007
-544,525	-200,000	0,009	-0,045
-543,510	180,847	0,017	-0,018
-542,496	800,000	0,031	0,074
-541,481	-121,737	0,079	0,009
-540,466	800,000	0,018	-0,047
-539,452	-89,706	-0,135	-0,028
-538,437	-200,000	0,020	0,080
-537,423	40,703	0,027	0,018
-536,408	-200,000	-0,026	-0,111
-535,393	-29,055	-0,121	0,050
-534,379	-200,000	-0,001	-0,141
-533,364	-200,000	0,024	0,107
-532,350	-200,000	-0,006	0,073
-531,335	17,907	0,063	-0,036
-530,321	-200,000	-0,010	0,160
-529,306	-200,000	-0,024	0,130
-528,291	-180,554	0,029	0,000
-527,277	63,511	-0,130	-0,094
-526,262	388,944	0,066	-0,099
-525,248	-200,000	-0,019	0,085
-524,233	134,822	0,102	0,096
-523,218	128,673	0,089	0,081
-522,204	130,622	-0,038	-0,035
-521,189	-200,000	-0,011	-0,080
-520,175	-200,000	-0,004	0,104
-519,160	-200,000	-0,016	0,124
-518,145	704,019	0,108	-0,207
-517,131	402,610	-0,060	0,091
-516,116	457,512	0,093	0,150
-515,102	-200,000	0,002	0,013
-514,087	75,434	-0,116	-0,088
-513,072	121,842	0,025	-0,023
-512,058	384,352	-0,065	-0,097
-511,043	102,959	-0,044	0,037
-510,029	800,000	-0,029	0,091
-509,014	-35,878	0,074	-0,029
-507,999	237,649	-0,045	0,053
-506,985	-200,000	0,003	-0,083
-505,970	-56,322	-0,134	-0,043
-504,956	800,000	-0,087	-0,201
-503,941	34,905	0,125	-0,079
-502,926	703,570	0,076	-0,145
-501,912	102,045	0,021	0,018
-500,897	800,000	-0,060	-0,124
-499,883	-14,648	0,071	-0,033
-498,868	-200,000	-0,014	-0,078
-497,853	-200,000	-0,000	-0,052
-496,839	-130,260	-0,055	-0,005
-495,824	-121,801	0,078	0,009
-494,810	81,332	-0,066	-0,051
-493,795	-200,000	0,015	-0,094
-492,781	-200,000	0,015	0,074
-491,766	-3,389	0,070	-0,035
-490,751	106,494	0,017	0,015
-489,737	800,000	0,039	0,097
-488,722	-200,000	-0,016	-0,077
-487,708	800,000	0,046	-0,097
-486,693	-200,000	0,005	-0,043
-485,678	-200,000	-0,023	0,162
-484,664	-200,000	-0,007	-0,077
-483,649	44,330	0,075	0,050
-482,635	688,068	-0,041	0,078
-481,620	258,750	0,087	-0,108
-480,605	-70,320	0,180	-0,049
-479,591	-18,786	0,106	0,047
-478,576	-25,860	-0,097	0,041
-477,562	36,238	-0,038	-0,024
-476,547	-200,000	0,008	-0,034
-475,532	800,000	0,014	-0,042
-474,518	800,000	0,026	0,058
-473,503	-115,592	-0,033	-0,004
-472,489	120,711	0,058	0,052
-471,474	-189,607	0,095	-0,001
-470,459	46,330	-0,121	-0,080
-469,445	-200,000	0,060	-0,191
-468,430	-200,000	-0,015	0,081
-467,416	-75,716	0,122	0,031
-466,401	528,273	0,022	0,037
-465,386	584,808	0,041	-0,073
-464,372	264,243	-0,009	0,011
-463,357	23,113	-0,049	0,029
-462,343	119,554	-0,054	-0,048
-461,328	-92,623	-0,051	-0,010
-460,313	-200,000	0,019	0,067
-459,299	-190,055	0,112	-0,001
-458,284	-83,192	0,122	-0,028
-457,270	-200,000	-0,016	0,130
-456,255	47,974	-0,094	-0,063
-455,241	-200,000	-0,009	0,054
-454,226	213,628	0,058	-0,066
-453,211	-99,178	-0,143	-0,026
-452,197	354,720	0,076	0,108
-451,182	-200,000	-0,030	-0,104
-450,168	125,070	-0,057	0,051
-449,153	83,907	0,029	0,023
-448,138	-60,229	-0,047	0,014
-447,124	-108,551	-0,026	0,004
-446,109	-79,132	-0,052	-0,013
-445,095	-200,000	-0,001	-0,074
-444,080	-107,119	0,062	-0,010
-443,065	-118,573	0,061	0,008
-442,051	66,630	0,137	-0,100
-441,036	-200,000	-0,029	-0,122
-440,022	37,856	-0,078	-0,050
-439,007	800,000	-0,050	0,101
-437,992	214,661	0,064	0,074
-436,978	800,000	0,071	0,142
-435,963	-200,000	0,014	0,208
-434,949	-200,000	0,027	0,119
-433,934	-200,000	-0,026	-0,088
-432,919	9,890	-0,073	-0,040
-431,905	800,000	0,006	0,017
-430,890	-184,953	-0,060	-0,001
-429,876	-200,000	-0,010	-0,065
-428,861	-126,505	0,116	0,012
-427,846	800,000	-0,029	0,061
-426,832	23,650	-0,127	0,075
-425,817	33,004	-0,091	-0,056
-424,803	269,116	-0,032	-0,040
-423,788	224,390	0,120	-0,140
-422,773	-200,000	-0,019	0,114
-421,759	219,113	0,044	-0,051
-420,744	798,788	-0,057	-0,114
-419,730	85,872	0,057	0,045
-418,715	104,647	-0,097	-0,082
-417,701	-107,645	0,009	0,001
-416,686	-200,000	-0,041	-0,143
-415,671	-135,938	0,160	0,013
-414,657	800,000	-0,004	0,010
-413,642	-166,729	-0,058	-0,002
-412,628	523,844	-0,054	-0,091
-411,613	230,770	0,065	0,077
-410,598	-121,698	-0,062	-0,007
-409,584	285,195	-0,123	0,160
-408,569	-149,902	-0,096	0,005
-407,555	-200,000	-0,015	0,069
-406,540	172,705	-0,061	-0,063
-405,525	-200,000	-0,004	-0,074
-404,511	800,000	-0,067	-0,213
-403,496	85,958	-0,080	-0,063
-402,482	-200,000	-0,018	0,072
-401,467	10,380	-0,034	-0,018
-400,452	98,390	0,056	0,046
-399,438	-200,000	-0,020	0,085
-398,423	42,109	0,092	0,060
-397,409	-200,000	-0,028	-0,150
-396,394	315,755	0,062	-0,085
-395,379	-165,072	-0,146	0,005
-394,365	399,550	0,042	-0,063
-393,350	800,000	-0,028	0,076
-392,336	800,000	0,035	0,075
-391,321	-123,391	-0,073	0,008
-390,306	800,000	0,036	0,098
-389,292	-42,239	0,025	0,009
-388,277	236,431	0,051	0,060
-387,263	89,987	0,177	0,142
-386,248	-9,318	0,095	0,046
-385,233	-96,707	-0,169	0,032
-384,219	458,884	-0,016	0,025
-383,204	191,999	0,044	0,048
-382,190	-132,645	-0,082	0,007
-381,175	-200,000	-0,002	0,043
-380,160	168,142	-0,067	0,068
-379,146	-48,548	-0,090	-0,031
-378,131	524,458	-0,029	0,049
-377,117	195,057	0,027	-0,029
-376,102	318,089	-0,083	-0,113
-375,088	47,943	0,044	0,029
-374,073	-43,484	-0,057	0,020
-373,058	800,000	-0,029	-0,071
-372,044	-166,287	-0,036	0,001
-371,029	39,116	-0,003	0,002
-370,015	-200,000	-0,015	-0,052
-369,000	-200,000	0,027	0,091
-367,985	-128,250	0,062	-0,006
-366,971	58,635	-0,049	-0,034
-365,956	-200,000	0,006	0,082
-364,942	800,000	0,039	0,110
-363,927	-200,000	0,017	0,075
-362,912	-70,430	-0,098	0,026
-361,898	-200,000	-0,013	-0,042
-360,883	-200,000	0,009	-0,079
-359,869	-200,000	-0,048	-0,173
-358,854	800,000	0,031	-0,074
-357,839	-200,000	0,005	0,061
-356,825	49,804	0,058	-0,039
-355,810	146,941	0,028	0,027
-354,796	-200,000	-0,004	-0,151
-353,781	-163,265	0,109	-0,004
-352,766	-200,000	0,016	-0,087
-351,752	29,426	0,069	-0,042
-350,737	-200,000	0,011	0,094
-349,723	310,601	0,106	0,143
-348,708	800,000	0,043	-0,092
-347,693	800,000	-0,013	-0,040
-346,679	-73,702	0,085	0,022
-345,664	168,956	0,052	-0,053
-344,650	-200,000	-0,009	0,156
-343,635	-57,013	0,148	-0,047
-342,620	-80,643	0,082	0,019
-341,606	341,096	0,074	0,104
-340,591	-41,537	-0,055	-0,020
-339,577	-152,625	-0,114	0,006
-338,562	-200,000	0,017	-0,067
-337,548	493,567	-0,022	-0,036
-336,533	382,738	-0,029	-0,043
-335,518	8,881	0,074	0,040
-334,504	94,168	0,070	0,057
-333,489	29,186	-0,023	0,014
-332,475	-141,157	-0,049	-0,004
-331,460	404,747	-0,074	-0,112
-330,445	411,610	-0,028	0,043
-329,431	125,838	0,091	0,082
-328,416	274,390	-0,048	-0,061
-327,402	-200,000	0,000	0,003
-326,387	433,908	-0,043	-0,068
-325,372	43,841	-0,117	-0,077
-324,358	143,962	-0,053	0,050
-323,343	23,373	-0,066	-0,039
-322,329	220,512	0,059	-0,068
-321,314	-200,000	-0,013	-0,080
-320,299	33,790	0,052	0,032
-319,285	800,000	0,027	-0,068
-318,270	-200,000	0,013	-0,118
-317,256	-182,692	-0,084	0,001
-316,241	-200,000	-0,002	0,032
-315,226	142,224	0,074	0,070
-314,212	-187,953	0,052	0,000
-313,197	-200,000	-0,006	-0,055
-312,183	-200,000	-0,018	0,083
-311,168	1,029	0,080	-0,041
-310,153	-56,935	0,022	0,007
-309,139	128,146	0,048	-0,044
-308,124	-30,928	-0,045	-0,018
-307,110	800,000	-0,096	0,241
-306,095	-200,000	-0,013	0,224
-305,080	299,736	0,057	0,075
-304,066	-200,000	-0,010	0,103
-303,051	-124,382	0,083	-0,009
-302,037	338,403	-0,077	0,107
-301,022	209,840	-0,111	0,124
-300,008	-133,825	0,107	0,009
-298,993	196,214	-0,078	-0,085
-297,978	-200,000	-0,003	-0,080
-296,964	13,110	-0,027	0,015
-295,949	201,064	0,067	-0,074
-294,935	137,126	0,035	-0,033
-293,920	800,000	-0,033	0,093
-292,905	-200,000	0,007	0,035
-291,891	-121,379	0,253	0,030
-290,876	-140,471	-0,043	0,003
-289,862	474,675	-0,033	0,053
-288,847	-200,000	-0,010	0,034
-287,832	800,000	-0,064	-0,133
-286,818	85,306	0,039	-0,031
-285,803	800,000	0,008	0,018
-284,789	29,536	0,129	0,079
-283,774	800,000	0,023	0,070
-282,759	800,000	0,031	0,099
-281,745	268,239	0,084	0,105
-280,730	800,000	0,048	0,140
-279,716	-200,000	-0,018	0,152
-278,701	-200,000	0,085	0,000
-277,686	-51,362	0,072	0,024
-276,672	-119,174	-0,073	0,009
-275,657	-90,277	-0,088	-0,018
-274,643	47,356	-0,056	-0,037
-273,628	-200,000	-0,041	-0,139
-272,613	-155,252	0,003	-0,000
-271,599	516,469	0,034	0,056
-270,584	303,700	0,037	-0,049
-269,570	800,000	0,028	0,066
-268,555	-200,000	0,010	-0,091
-267,540	-50,163	0,012	-0,004
-266,526	800,000	0,072	-0,166
-265,511	-200,000	0,011	-0,213
-264,497	23,719	0,121	-0,071
-263,482	115,542	0,044	0,038
-262,467	181,333	-0,067	-0,070
-261,453	-152,530	-0,051	-0,003
-260,438	800,000	-0,007	0,017
-259,424	-200,000	0,003	-0,031
-258,409	5,332	0,086	-0,045
-257,395	-200,000	0,021	0,072
-256,380	-102,112	0,043	-0,007
-255,365	291,320	0,087	-0,113
-254,351	-131,454	0,092	-0,009
-253,336	-37,878	-0,018	-0,007
-252,322	84,767	-0,103	0,081
-251,307	14,332	-0,052	-0,029
-250,292	-200,000	0,026	-0,099
-249,278	151,179	0,037	0,036
-248,263	12,001	0,112	0,062
-247,249	77,244	-0,010	-0,008
-246,234	-13,267	0,096	-0,044
-245,219	-83,406	-0,125	0,028
-244,205	800,000	0,069	0,146
-243,190	-200,000	-0,006	0,049
-242,176	-200,000	0,007	0,150
-241,161	-84,836	0,091	-0,020
-240,146	-200,000	-0,010	0,128
-239,132	800,000	0,011	-0,031
-238,117	-41,814	-0,081	-0,029
-237,103	-200,000	-0,000	-0,084
-236,088	800,000	-0,040	-0,105
-235,073	3,527	0,053	-0,028
-234,059	317,357	-0,068	0,093
-233,044	-200,000	0,001	0,118
-232,030	42,485	-0,077	-0,050
-231,015	-200,000	0,015	-0,107
-230,000	-3,613	-0,152	-0,075
-228,986	-200,000	0,003	0,044
-227,971	-92,915	-0,031	-0,006
-226,957	-142,426	0,177	0,012
-225,942	219,471	-0,047	0,053
-224,927	271,711	0,124	0,156
-223,913	274,271	-0,114	-0,144
-222,898	-162,056	-0,102	0,004
-221,884	-142,748	0,041	-0,003
-220,869	50,883	-0,106	0,072
-219,855	-200,000	0,016	0,068
-218,840	458,462	0,055	0,088
-217,825	-143,700	-0,230	0,015
-216,811	-81,984	-0,059	0,014
-215,796	643,950	-0,029	0,054
-214,782	-200,000	-0,011	-0,091
-213,767	-21,194	0,112	0,049
-212,752	96,268	0,121	-0,099
-211,738	104,628	0,102	0,086
-210,723	800,000	0,042	-0,126
-209,709	-19,609	0,082	-0,036
-208,694	-26,433	-0,032	-0,013
-207,679	-200,000	0,009	0,095
-206,665	-200,000	0,026	0,151
-205,650	-200,000	-0,002	0,134
-204,636	38,185	0,131	0,083
-203,621	-8,825	0,017	-0,008
-202,606	-173,032	-0,094	-0,002
-201,592	52,536	-0,123	-0,084
-200,577	-121,126	0,138	-0,016
-199,563	606,068	0,028	0,051
-198,548	52,136	-0,059	0,040
-197,533	249,357	0,048	0,058
-196,519	169,672	0,065	0,066
-195,504	-87,620	-0,026	-0,006
-194,490	800,000	0,027	0,081
-193,475	-9,637	-0,051	0,024
-192,460	-100,578	0,141	0,025
-191,446	-71,294	-0,098	-0,026
-190,431	-165,578	0,187	-0,006
-189,417	-200,000	-0,031	-0,159
-188,402	-96,292	0,152	-0,028
-187,387	421,864	-0,045	-0,069
-186,373	72,844	0,016	-0,012
-185,358	403,064	0,053	0,079
-184,344	800,000	-0,033	0,065
-183,329	100,376	-0,059	0,049
-182,315	-112,054	-0,100	0,014
-181,300	-200,000	0,012	0,073
-180,285	800,000	0,023	0,045
-179,271	397,576	-0,018	-0,026
-178,256	800,000	-0,017	0,043
-177,242	800,000	0,016	-0,037
-176,227	-200,000	0,009	0,035
-175,212	107,530	0,068	0,057
-174,198	800,000	-0,015	-0,037
-173,183	265,447	-0,028	-0,035
-172,169	41,405	0,094	0,060
-171,154	179,028	-0,079	0,082
-170,139	800,000	-0,083	0,205
-169,125	-121,081	0,097	0,011
-168,110	-122,023	-0,086	-0,010
-167,096	57,421	0,018	-0,012
-166,081	49,113	0,042	-0,028
-165,066	-200,000	-0,018	-0,084
-164,052	-41,080	-0,062	-0,023
-163,037	-200,000	-0,022	-0,131
-162,023	41,049	0,110	-0,071
-161,008	-125,682	-0,059	0,006
-159,993	103,388	0,121	0,101
-158,979	-115,652	-0,263	-0,035
-157,964	-200,000	-0,000	-0,075
-156,950	-200,000	-0,011	-0,067
-155,935	-200,000	0,023	0,094
-154,920	-200,000	-0,020	-0,113
-153,906	800,000	-0,013	-0,039
-152,891	81,019	0,039	0,030
-151,877	-39,818	-0,118	-0,044
-150,862	-89,809	0,115	-0,024
-149,847	180,164	0,033	0,034
-148,833	-1,375	-0,016	-0,008
-147,818	-88,580	0,054	-0,011
-146,804	800,000	0,020	0,050
-145,789	235,494	-0,020	0,024
-144,775	-200,000	-0,018	-0,105
-143,760	48,568	-0,140	-0,093
-142,745	800,000	-0,033	0,094
-141,731	-6,694	0,110	0,053
-140,716	19,256	0,107	-0,061
-139,702	45,377	-0,068	-0,045
-138,687	-200,000	0,027	0,089
-137,672	747,420	0,025	-0,047
-136,658	-75,785	-0,036	-0,009
-135,643	-85,519	0,059	0,013
-134,629	-173,261	-0,051	-0,001
-133,614	-200,000	-0,001	-0,005
-132,599	185,455	0,074	0,078
-131,585	-200,000	0,002	-0,058
-130,570	38,039	0,090	0,057
-129,556	-96,541	-0,181	-0,034
-128,541	-200,000	0,024	0,140
-127,526	800,000	0,006	-0,018
-126,512	-200,000	-0,006	-0,029
-125,497	-71,568	0,149	0,039
-124,483	-67,416	0,097	0,027
-123,468	125,352	-0,029	-0,026
-122,453	108,342	0,084	0,071
-121,439	2,907	-0,164	-0,084
-120,424	-191,050	-0,089	0,001
