DTS Sentinel unit serial number:	SN410029Multiplexer serial number:	ORYXHardware model number:	OX2-SRSoftware version number:	ORYX F/W v4,00 Oryx Data Collector v3.7.2.0data status	okinstallation	BH3 CH2differential loss correction	single-endedforward channel	channel 2reverse channel	N/Adate	2023/12/05time	17:17:28forward acquisition time	300,00reverse acquisition time	0,00gamma	499,1914k internal	0,3192k external	0,3192temperature offset calibration	1,0000default loss term (dB/km)	0,3820temperature slope calibration	1,0000multiplexer offset coefficient	1,0000multiplexer slope coefficient	1,0000fibre end	0,00T internal ref (°C)	10,90T ext. ref 1 (°C)	-3,84T ext. ref 2 (°C)	-3,98length (m)	temperature (°C)	Stokes	anti-Stokes-744,400	-200,000	-0,054	-0,230
-743,385	122,524	-0,141	0,128
-742,371	800,000	-0,043	-0,099
-741,356	154,942	-0,143	0,144
-740,342	88,397	-0,076	-0,062
-739,327	-67,650	-0,275	0,078
-738,312	-19,802	-0,166	-0,075
-737,298	-30,134	-0,230	0,095
-736,283	800,000	0,060	-0,154
-735,269	24,884	-0,176	0,106
-734,254	-200,000	0,011	-0,328
-733,239	-32,274	-0,373	-0,151
-732,225	-200,000	-0,034	-0,119
-731,210	800,000	-0,029	0,061
-730,196	-99,183	-0,179	-0,033
-729,181	-49,593	-0,051	0,018
-728,167	-78,196	-0,270	-0,067
-727,152	-129,420	0,127	0,013
-726,137	-200,000	0,004	-0,050
-725,123	-120,317	-0,075	0,009
-724,108	-200,000	-0,046	-0,259
-723,094	-130,437	-0,175	-0,017
-722,079	800,000	0,023	-0,060
-721,064	-116,484	-0,067	-0,009
-720,050	216,909	-0,084	-0,098
-719,035	-200,000	0,007	0,124
-718,021	-138,159	0,150	-0,012
-717,006	35,247	-0,106	-0,068
-715,991	328,405	-0,125	-0,176
-714,977	-200,000	-0,020	-0,170
-713,962	-200,000	-0,003	0,043
-712,948	-200,000	-0,001	0,156
-711,933	-200,000	0,007	-0,030
-710,918	-46,842	-0,068	-0,024
-709,904	173,896	0,100	-0,105
-708,889	-200,000	-0,030	-0,130
-707,875	189,542	0,045	-0,049
-706,860	-200,000	-0,024	-0,090
-705,845	-200,000	-0,012	-0,068
-704,831	800,000	-0,018	-0,054
-703,816	800,000	0,049	-0,142
-702,802	120,396	0,048	0,044
-701,787	800,000	0,066	-0,145
-700,772	-200,000	-0,004	0,060
-699,758	800,000	-0,072	-0,159
-698,743	81,412	0,063	-0,050
-697,729	-200,000	0,038	0,140
-696,714	53,423	-0,105	0,073
-695,699	-86,418	0,042	-0,009
-694,685	-183,148	0,096	0,001
-693,670	85,606	-0,111	-0,089
-692,656	-67,296	0,163	0,046
-691,641	-117,095	-0,089	0,012
-690,627	723,246	0,038	0,075
-689,612	1,183	0,028	0,014
-688,597	-200,000	-0,003	0,022
-687,583	-114,775	-0,097	0,013
-686,568	543,130	0,068	-0,118
-685,554	550,408	0,044	0,077
-684,539	-200,000	0,027	-0,095
-683,524	-108,230	0,088	0,014
-682,510	44,918	-0,100	-0,067
-681,495	74,754	-0,130	-0,100
-680,481	33,659	0,078	0,049
-679,466	-34,137	-0,119	0,047
-678,451	315,916	-0,073	-0,101
-677,437	488,516	0,006	0,010
-676,422	800,000	0,062	0,145
-675,408	-135,839	-0,131	0,011
-674,393	96,901	0,078	-0,065
-673,378	332,290	-0,054	-0,076
-672,364	800,000	-0,034	-0,086
-671,349	-179,091	0,079	0,001
-670,335	383,402	0,032	-0,048
-669,320	-136,769	0,078	0,006
-668,305	201,635	-0,096	-0,107
-667,291	-3,726	-0,070	-0,035
-666,276	-184,760	-0,113	-0,001
-665,262	109,343	-0,093	-0,081
-664,247	-160,118	0,065	0,003
-663,232	-37,730	-0,119	-0,046
-662,218	107,476	0,123	0,106
-661,203	-200,000	0,032	0,181
-660,189	-200,000	0,049	0,183
-659,174	-37,524	-0,073	-0,028
-658,159	-24,890	0,118	0,051
-657,145	-37,847	-0,042	-0,016
-656,130	-67,861	0,139	-0,039
-655,116	-32,935	-0,068	-0,027
-654,101	-102,832	0,136	-0,023
-653,086	-65,407	-0,028	0,008
-652,072	-100,231	0,067	0,012
-651,057	-200,000	0,005	-0,082
-650,043	71,486	0,053	-0,040
-649,028	-85,733	-0,099	0,022
-648,014	410,052	0,082	0,127
-646,999	141,885	0,059	0,057
-645,984	-200,000	-0,003	0,024
-644,970	219,329	-0,072	-0,084
-643,955	-200,000	0,042	-0,181
-642,941	-200,000	-0,039	0,167
-641,926	-200,000	-0,018	-0,145
-640,911	-200,000	0,001	-0,065
-639,897	-200,000	0,003	0,009
-638,882	494,411	-0,031	-0,052
-637,868	-200,000	0,010	-0,043
-636,853	-200,000	-0,007	-0,060
-635,838	206,282	-0,078	-0,088
-634,824	-78,832	0,055	-0,014
-633,809	-121,637	0,109	0,013
-632,795	2,353	-0,051	-0,027
-631,780	-134,608	-0,082	0,007
-630,765	305,675	-0,027	0,036
-629,751	-81,959	-0,226	-0,053
-628,736	-200,000	-0,048	-0,275
-627,722	-200,000	-0,070	-0,265
-626,707	-54,715	0,088	0,029
-625,692	215,416	-0,022	0,025
-624,678	46,851	0,149	-0,100
-623,663	-200,000	-0,028	-0,175
-622,649	58,908	0,091	0,065
-621,634	-200,000	-0,017	0,121
-620,619	-15,345	-0,071	-0,033
-619,605	-200,000	-0,011	-0,056
-618,590	736,215	0,032	-0,063
-617,576	800,000	0,013	-0,034
-616,561	608,260	-0,035	-0,063
-615,546	-200,000	0,030	0,101
-614,532	498,505	0,065	-0,108
-613,517	72,530	-0,079	-0,060
-612,503	78,684	-0,036	-0,028
-611,488	-200,000	0,004	0,058
-610,474	-200,000	-0,018	-0,098
-609,459	-200,000	-0,024	-0,110
-608,444	-200,000	0,001	-0,026
-607,430	-121,566	-0,152	-0,018
-606,415	-14,021	0,074	-0,034
-605,401	83,131	-0,056	-0,044
-604,386	800,000	-0,018	0,047
-603,371	23,880	0,145	-0,087
-602,357	-200,000	-0,001	-0,017
-601,342	-50,224	-0,127	-0,043
-600,328	55,443	0,069	-0,048
-599,313	800,000	-0,036	0,111
-598,298	-51,004	-0,062	-0,021
-597,284	682,299	-0,020	-0,039
-596,269	289,237	-0,020	-0,026
-595,255	51,219	-0,104	0,071
-594,240	186,357	0,067	0,073
-593,225	49,713	0,046	0,031
-592,211	83,201	-0,173	-0,136
-591,196	-165,425	0,176	-0,005
-590,182	-200,000	0,023	0,092
-589,167	368,422	0,068	0,099
-588,152	800,000	-0,053	0,115
-587,138	-6,399	-0,046	-0,023
-586,123	771,092	-0,091	-0,181
-585,109	69,270	-0,109	0,081
-584,094	-142,100	-0,089	-0,006
-583,079	68,221	0,070	0,052
-582,065	-79,004	0,051	0,012
-581,050	-200,000	-0,010	0,119
-580,036	-200,000	-0,032	-0,125
-579,021	800,000	-0,043	-0,125
-578,006	-200,000	-0,025	0,184
-576,992	143,284	0,095	-0,092
-575,977	20,071	-0,032	-0,019
-574,963	800,000	0,039	0,116
-573,948	-200,000	0,023	0,178
-572,934	234,531	0,031	0,038
-571,919	-145,017	-0,024	0,002
-570,904	557,449	-0,082	-0,144
-569,890	-200,000	-0,006	-0,028
-568,875	-77,101	0,074	0,018
-567,861	-43,989	0,060	0,022
-566,846	-126,471	0,168	0,018
-565,831	-35,025	0,077	-0,030
-564,817	-200,000	-0,010	-0,036
-563,802	135,385	0,118	-0,111
-562,788	800,000	0,012	-0,028
-561,773	-200,000	-0,040	0,149
-560,758	-83,518	0,077	-0,018
-559,744	60,110	-0,086	0,061
-558,729	-74,964	0,071	0,018
-557,715	-129,471	-0,095	0,009
-556,700	-144,602	-0,109	0,007
-555,685	-200,000	0,026	0,106
-554,671	465,914	-0,048	-0,078
-553,656	-200,000	-0,006	0,042
-552,642	101,755	-0,021	0,017
-551,627	68,965	0,079	-0,058
-550,612	508,695	-0,025	0,042
-549,598	-192,532	-0,109	0,001
-548,583	800,000	0,064	-0,159
-547,569	385,386	-0,051	-0,076
-546,554	-58,767	-0,069	0,022
-545,539	180,630	-0,090	0,096
-544,525	800,000	-0,024	0,065
-543,510	-17,235	0,102	0,046
-542,496	800,000	-0,058	-0,165
-541,481	539,869	-0,062	-0,107
-540,466	346,683	-0,026	0,037
-539,452	584,008	0,069	0,124
-538,437	-141,187	-0,119	-0,009
-537,423	-22,232	0,205	0,089
-536,408	63,505	-0,103	-0,075
-535,393	-71,329	-0,153	-0,041
-534,379	-70,942	0,114	-0,031
-533,364	-200,000	0,009	-0,177
-532,350	-200,000	0,038	-0,166
-531,335	-200,000	0,009	0,040
-530,321	-200,000	0,019	0,072
-529,306	-200,000	0,001	-0,023
-528,291	103,987	-0,043	-0,036
-527,277	25,150	-0,089	-0,053
-526,262	223,766	0,050	-0,059
-525,248	-180,438	0,047	-0,001
-524,233	-200,000	0,001	0,098
-523,218	-59,074	-0,046	0,014
-522,204	-114,261	-0,073	-0,010
-521,189	-87,634	-0,099	-0,021
-520,175	259,971	-0,027	-0,033
-519,160	-139,756	0,096	0,007
-518,145	-99,056	0,078	-0,014
-517,131	800,000	0,016	-0,046
-516,116	-125,600	0,040	0,004
-515,102	-200,000	-0,004	-0,136
-514,087	-51,544	-0,042	-0,014
-513,072	246,019	-0,086	-0,105
-512,058	-200,000	0,011	0,135
-511,043	-131,196	-0,059	-0,006
-510,029	35,421	0,089	0,056
-509,014	-117,615	0,119	-0,015
-507,999	-57,764	-0,042	0,013
-506,985	-200,000	-0,009	-0,068
-505,970	625,695	-0,071	0,130
-504,956	234,623	-0,073	0,087
-503,941	-73,727	0,151	0,040
-502,926	800,000	0,041	-0,087
-501,912	800,000	-0,039	0,086
-500,897	-200,000	0,010	0,087
-499,883	-78,443	-0,075	0,018
-498,868	107,149	0,071	0,061
-497,853	800,000	-0,006	-0,012
-496,839	-3,686	-0,133	-0,067
-495,824	747,640	-0,020	-0,039
-494,810	800,000	-0,022	0,056
-493,795	800,000	-0,071	0,204
-492,781	-200,000	-0,025	0,134
-491,766	251,909	0,009	-0,011
-490,751	-74,295	0,105	-0,027
-489,737	-11,370	0,101	-0,048
-488,722	-7,415	-0,007	-0,003
-487,708	184,433	0,089	0,095
-486,693	56,052	0,058	-0,041
-485,678	-200,000	0,005	-0,080
-484,664	-52,437	0,036	-0,012
-483,649	333,407	0,049	-0,069
-482,635	44,909	-0,079	0,052
-481,620	505,429	0,053	-0,089
-480,605	558,560	0,085	0,148
-479,591	384,026	-0,051	0,076
-478,576	-56,834	-0,061	0,019
-477,562	-130,893	0,172	0,016
-476,547	18,502	0,047	0,027
-475,532	58,819	0,068	-0,048
-474,518	-152,785	-0,190	-0,010
-473,503	-59,271	0,216	0,067
-472,489	184,678	0,014	-0,015
-471,474	99,442	-0,017	-0,014
-470,459	-200,000	-0,019	-0,152
-469,445	800,000	-0,035	-0,093
-468,430	733,846	0,073	-0,143
-467,416	-99,263	0,036	-0,007
-466,401	-22,443	0,050	-0,022
-465,386	411,784	0,054	-0,083
-464,372	-200,000	-0,012	-0,039
-463,357	-123,876	-0,181	-0,020
-462,343	549,831	0,032	0,056
-461,328	800,000	-0,035	-0,106
-460,313	-200,000	0,006	0,056
-459,299	800,000	0,018	0,051
-458,284	156,740	0,111	-0,110
-457,270	-75,640	0,143	0,036
-456,255	800,000	0,049	-0,102
-455,241	12,291	0,075	0,041
-454,226	-200,000	-0,013	-0,064
-453,211	216,413	-0,083	0,095
-452,197	274,055	0,081	-0,103
-451,182	348,750	-0,113	0,162
-450,168	80,968	0,040	0,031
-449,153	-3,723	0,022	-0,011
-448,138	321,794	0,077	0,106
-447,124	-6,792	-0,105	-0,051
-446,109	315,584	0,064	0,087
-445,095	501,345	0,052	0,087
-444,080	-3,994	0,176	0,088
-443,065	800,000	0,010	-0,030
-442,051	393,019	-0,050	0,075
-441,036	800,000	0,017	0,052
-440,022	-200,000	-0,021	0,147
-439,007	236,442	0,041	0,048
-437,992	37,577	-0,034	-0,022
-436,978	800,000	-0,034	0,083
-435,963	800,000	0,036	0,101
-434,949	-112,704	-0,057	-0,008
-433,934	67,112	-0,139	-0,102
-432,919	32,852	0,039	0,025
-431,905	-200,000	-0,009	-0,034
-430,890	-75,095	0,122	-0,031
-429,876	-157,791	-0,032	-0,001
-428,861	319,732	0,085	0,117
-427,846	-200,000	-0,002	0,007
-426,832	-65,788	0,062	-0,018
-425,817	-149,329	-0,049	0,003
-424,803	-109,084	-0,154	0,023
-423,788	168,649	0,048	0,049
-422,773	60,879	0,156	0,111
-421,759	182,894	0,062	-0,066
-420,744	800,000	-0,019	0,045
-419,730	73,006	0,033	-0,025
-418,715	-200,000	-0,046	-0,150
-417,701	474,673	-0,061	-0,100
-416,686	-200,000	0,003	-0,051
-415,671	448,070	0,056	0,088
-414,657	-2,698	-0,095	0,048
-413,642	-148,107	-0,018	0,001
-412,628	6,598	0,078	-0,042
-411,613	-195,078	0,069	-0,000
-410,598	-93,542	-0,056	0,011
-409,584	-35,758	-0,049	0,019
-408,569	290,012	-0,077	0,101
-407,555	-6,591	0,148	-0,072
-406,540	108,831	-0,065	0,056
-405,525	325,237	0,056	-0,077
-404,511	126,271	0,034	0,031
-403,496	176,915	0,058	-0,061
-402,482	-49,963	-0,135	0,046
-401,467	79,115	0,036	-0,028
-400,452	-200,000	-0,004	-0,031
-399,438	20,008	0,025	-0,014
-398,423	114,079	0,104	0,091
-397,409	114,224	-0,105	0,092
-396,394	-75,165	-0,097	0,025
-395,379	-100,085	0,143	-0,025
-394,365	-1,577	-0,074	0,038
-393,350	-200,000	-0,001	0,127
-392,336	-200,000	0,022	0,158
-391,321	64,398	0,035	0,025
-390,306	450,783	0,011	0,017
-389,292	-200,000	-0,002	-0,053
-388,277	-34,088	0,139	-0,055
-387,263	2,405	0,130	-0,067
-386,248	7,235	-0,030	0,016
-385,233	86,585	0,035	-0,028
-384,219	-131,787	-0,098	0,009
-383,204	79,601	-0,088	0,068
-382,190	800,000	-0,065	-0,178
-381,175	800,000	0,034	0,093
-380,160	476,053	0,046	0,075
-379,146	800,000	-0,052	0,121
-378,131	-29,319	-0,040	0,016
-377,117	-142,365	0,052	-0,004
-376,102	800,000	-0,075	0,176
-375,088	-144,796	-0,053	0,003
-374,073	72,339	0,058	-0,043
-373,058	800,000	0,040	0,107
-372,044	116,680	-0,033	0,029
-371,029	268,687	-0,056	0,071
-370,015	-135,628	0,131	-0,011
-369,000	129,925	0,055	-0,051
-367,985	312,022	-0,096	-0,129
-366,971	317,905	-0,077	-0,105
-365,956	470,365	0,016	-0,026
-364,942	154,057	-0,032	-0,031
-363,927	-200,000	0,004	-0,088
-362,912	-30,371	-0,114	-0,046
-361,898	85,718	0,078	-0,062
-360,883	-200,000	-0,010	-0,046
-359,869	800,000	-0,038	0,080
-358,854	-200,000	0,003	0,067
-357,839	182,900	0,096	-0,102
-356,825	-200,000	0,025	0,085
-355,810	-200,000	-0,019	0,090
-354,796	159,342	-0,060	-0,060
-353,781	-200,000	0,005	-0,069
-352,766	123,167	-0,085	0,077
-351,752	397,902	-0,013	-0,020
-350,737	800,000	-0,044	0,118
-349,723	-200,000	0,020	0,141
-348,708	231,597	0,036	0,042
-347,693	57,112	-0,058	-0,040
-346,679	341,809	-0,030	-0,042
-345,664	-200,000	-0,020	0,069
-344,650	-200,000	0,017	-0,100
-343,635	-200,000	0,007	-0,068
-342,620	-200,000	0,012	0,075
-341,606	226,808	0,064	0,075
-340,591	800,000	-0,035	-0,087
-339,577	-200,000	-0,019	-0,100
-338,562	800,000	0,036	-0,095
-337,548	-200,000	0,004	-0,059
-336,533	-155,346	-0,148	0,007
-335,518	303,361	-0,050	0,067
-334,504	199,335	-0,072	-0,080
-333,489	625,653	0,105	-0,191
-332,475	-200,000	-0,013	0,061
-331,460	-63,459	-0,106	0,031
-330,445	-36,241	-0,013	-0,005
-329,431	-147,302	-0,059	-0,004
-328,416	139,857	0,142	0,134
-327,402	0,494	0,071	-0,036
-326,387	12,671	-0,138	-0,076
-325,372	800,000	-0,015	-0,031
-324,358	616,904	-0,117	-0,212
-323,343	800,000	0,016	-0,043
-322,329	147,929	0,047	0,045
-321,314	30,708	0,086	0,052
-320,299	394,178	-0,011	0,017
-319,285	-200,000	-0,001	-0,021
-318,270	61,289	-0,064	0,045
-317,256	150,627	0,068	0,067
-316,241	82,132	-0,067	0,052
-315,226	-200,000	0,006	0,026
-314,212	27,143	0,159	0,095
-313,197	-200,000	0,028	0,134
-312,183	-200,000	0,004	0,056
-311,168	138,089	0,032	0,030
-310,153	25,079	0,141	-0,084
-309,139	88,325	-0,078	-0,062
-308,124	245,273	0,083	0,101
-307,110	187,606	0,150	0,161
-306,095	30,928	-0,083	0,051
-305,080	-2,925	0,088	0,044
-304,066	-16,675	-0,089	-0,040
-303,051	253,452	0,069	-0,084
-302,037	-200,000	-0,019	-0,103
-301,022	-16,514	0,061	-0,027
-300,008	800,000	0,035	0,072
-298,993	433,912	-0,032	0,050
-297,978	800,000	0,057	0,162
-296,964	36,232	-0,141	0,089
-295,949	357,929	-0,076	-0,109
-294,935	-33,161	-0,059	0,023
-293,920	800,000	0,043	-0,107
-292,905	-103,963	-0,029	0,005
-291,891	127,461	0,040	-0,036
-290,876	-44,830	-0,191	0,068
-289,862	-200,000	-0,002	0,045
-288,847	800,000	-0,032	-0,070
-287,832	191,570	-0,144	-0,155
-286,818	109,831	0,064	-0,055
-285,803	26,857	0,055	0,033
-284,789	-87,922	0,084	0,018
-283,774	120,748	0,099	0,088
-282,759	800,000	-0,047	-0,101
-281,745	-123,547	-0,081	0,009
-280,730	662,108	-0,069	-0,128
-279,716	-200,000	0,020	-0,126
-278,701	-43,768	0,113	0,040
-277,686	800,000	-0,009	0,024
-276,672	-200,000	-0,006	0,063
-275,657	-200,000	0,000	-0,073
-274,643	459,914	0,092	-0,146
-273,628	-200,000	0,021	-0,092
-272,613	-200,000	0,001	-0,109
-271,599	-200,000	0,002	0,143
-270,584	478,862	0,057	0,093
-269,570	286,618	0,061	0,080
-268,555	800,000	0,041	-0,127
-267,540	-94,119	-0,095	0,019
-266,526	-200,000	-0,008	-0,114
-265,511	175,733	0,057	-0,060
-264,497	334,563	0,040	0,056
-263,482	-200,000	0,020	0,087
-262,467	-200,000	0,047	0,210
-261,453	-200,000	0,015	-0,075
-260,438	-39,347	-0,126	-0,047
-259,424	531,681	-0,063	-0,107
-258,409	109,759	0,027	0,023
-257,395	-133,419	0,094	0,008
-256,380	800,000	-0,010	0,021
-255,365	-200,000	0,008	0,069
-254,351	-137,383	-0,081	0,006
-253,336	-80,437	-0,093	0,022
-252,322	-200,000	-0,023	-0,076
-251,307	248,947	0,074	0,089
-250,292	54,268	-0,149	-0,102
-249,278	147,364	-0,038	0,037
-248,263	13,154	0,083	0,046
-247,249	-200,000	0,008	-0,097
-246,234	-38,975	0,091	0,034
-245,219	-36,742	-0,031	-0,012
-244,205	630,118	0,070	-0,128
-243,190	-109,906	0,221	0,033
-242,176	-200,000	-0,029	-0,096
-241,161	-200,000	0,029	0,117
-240,146	56,511	0,076	-0,053
-239,132	-96,910	-0,089	0,017
-238,117	-25,614	-0,092	-0,039
-237,103	-122,560	-0,158	-0,018
-236,088	-200,000	0,005	-0,047
-235,073	-172,742	0,071	-0,002
-234,059	800,000	0,036	-0,078
-233,044	-200,000	0,004	0,043
-232,030	-200,000	-0,013	-0,097
-231,015	-200,000	-0,020	-0,077
-230,000	-79,778	-0,053	0,013
-228,986	-35,461	-0,002	0,001
-227,971	-200,000	-0,005	0,056
-226,957	-79,631	-0,052	-0,012
-225,942	800,000	-0,033	-0,094
-224,927	401,180	-0,052	0,079
-223,913	-20,705	0,123	0,054
-222,898	-200,000	0,001	-0,114
-221,884	-200,000	-0,037	0,136
-220,869	420,512	0,113	0,174
-219,855	223,259	-0,160	0,185
-218,840	441,908	0,035	0,054
-217,825	800,000	0,027	-0,056
-216,811	298,118	-0,059	-0,077
-215,796	-200,000	0,026	0,102
-214,782	-200,000	0,016	0,108
-213,767	-200,000	0,000	0,024
-212,752	-121,775	-0,143	-0,017
-211,738	502,731	0,059	0,098
-210,723	800,000	-0,055	0,160
-209,709	800,000	0,010	0,029
-208,694	-76,217	-0,080	0,020
-207,679	-190,923	0,077	0,001
-206,665	-200,000	-0,022	-0,087
-205,650	44,487	0,099	0,065
-204,636	-19,451	0,050	0,022
-203,621	-200,000	0,004	0,029
-202,606	198,856	0,028	-0,031
-201,592	800,000	-0,037	-0,097
-200,577	-200,000	0,016	0,102
-199,563	-92,558	0,066	0,013
-198,548	211,405	0,064	0,072
-197,533	665,254	0,052	0,095
-196,519	-200,000	-0,009	-0,063
-195,504	800,000	0,041	0,085
-194,490	56,722	0,109	-0,075
-193,475	-22,284	-0,095	-0,041
-192,460	-26,376	-0,157	-0,065
-191,446	800,000	0,013	0,029
-190,431	-200,000	-0,018	0,067
-189,417	-98,797	-0,030	0,005
-188,402	-116,400	0,044	-0,006
-187,387	6,425	-0,096	-0,051
-186,373	43,770	0,052	0,034
-185,358	-82,231	-0,097	-0,022
-184,344	205,443	0,022	0,024
-183,329	-2,530	0,070	0,035
-182,315	-108,772	0,081	0,012
-181,300	184,467	-0,016	-0,017
-180,285	-74,888	-0,088	0,022
-179,271	-12,279	-0,036	-0,017
-178,256	-200,000	-0,020	-0,139
-177,242	-200,000	-0,004	-0,116
-176,227	-24,951	0,158	0,067
-175,212	647,399	-0,022	-0,040
-174,198	-42,194	-0,072	-0,026
-173,183	-111,522	-0,057	0,008
-172,169	-19,405	-0,061	-0,027
-171,154	50,711	-0,105	0,071
-170,139	800,000	0,018	0,050
-169,125	-190,501	0,103	0,001
-168,110	800,000	0,043	0,112
-167,096	-69,924	-0,088	0,024
-166,081	286,302	-0,048	-0,062
-165,066	32,244	-0,109	-0,067
-164,052	368,525	0,047	0,068
-163,037	-200,000	-0,002	-0,119
-162,023	518,014	0,073	0,122
-161,008	-172,102	0,047	-0,001
-159,993	226,447	-0,038	-0,044
-158,979	-200,000	-0,001	0,062
-157,964	800,000	-0,052	-0,150
-156,950	800,000	0,032	-0,083
-155,935	-30,220	0,056	-0,022
-154,920	-200,000	-0,017	0,172
-153,906	800,000	-0,073	0,148
-152,891	689,916	0,055	0,104
-151,877	-18,893	0,006	-0,003
-150,862	-200,000	0,010	-0,039
-149,847	800,000	0,030	-0,079
-148,833	-200,000	0,017	0,056
-147,818	17,111	0,082	0,046
-146,804	7,081	0,036	-0,019
-145,789	-106,429	0,087	-0,014
-144,775	-11,808	-0,105	0,049
-143,760	-200,000	0,009	-0,033
-142,745	18,046	-0,056	-0,032
-141,731	654,689	0,077	-0,141
-140,716	-200,000	0,007	0,141
-139,702	21,133	0,045	0,026
-138,687	-91,857	0,005	-0,001
-137,672	-44,317	0,080	-0,028
-136,658	-200,000	-0,030	0,143
-135,643	97,728	0,041	0,034
-134,629	41,320	0,073	0,047
-133,614	-200,000	-0,011	0,051
-132,599	-200,000	-0,001	0,086
-131,585	800,000	0,067	0,169
-130,570	-200,000	0,000	-0,029
-129,556	800,000	-0,056	-0,111
-128,541	62,107	-0,102	-0,072
-127,526	-29,413	-0,052	-0,021
-126,512	-71,637	0,127	0,034
-125,497	800,000	-0,034	-0,104
-124,483	-15,414	-0,118	0,053
-123,468	104,611	0,025	-0,021
-122,453	-200,000	-0,029	-0,122
-121,439	800,000	-0,053	-0,108
-120,424	-111,479	0,044	0,006
-119,410	607,804	0,033	0,058
