DTS Sentinel unit serial number:	SN410029Multiplexer serial number:	ORYXHardware model number:	OX2-SRSoftware version number:	ORYX F/W v4,00 Oryx Data Collector v3.7.2.0data status	okinstallation	BH3 CH2differential loss correction	single-endedforward channel	channel 2reverse channel	N/Adate	2023/12/06time	06:07:28forward acquisition time	300,00reverse acquisition time	0,00gamma	499,1914k internal	0,3197k external	0,3197temperature offset calibration	1,0000default loss term (dB/km)	0,3820temperature slope calibration	1,0000multiplexer offset coefficient	1,0000multiplexer slope coefficient	1,0000fibre end	0,00T internal ref (°C)	8,91T ext. ref 1 (°C)	-5,69T ext. ref 2 (°C)	-5,80length (m)	temperature (°C)	Stokes	anti-Stokes-744,400	-21,202	-0,143	-0,064
-743,385	800,000	-0,039	0,085
-742,371	-200,000	-0,003	-0,102
-741,356	-121,281	-0,104	0,012
-740,342	-101,854	-0,110	-0,019
-739,327	-79,233	-0,202	0,049
-738,312	368,769	-0,078	-0,116
-737,298	-67,696	-0,153	-0,043
-736,283	604,310	-0,081	-0,147
-735,269	326,525	-0,188	0,264
-734,254	-186,384	0,030	0,000
-733,239	-47,520	-0,483	-0,170
-732,225	-55,714	0,085	0,028
-731,210	800,000	-0,038	0,079
-730,196	-200,000	0,006	-0,031
-729,181	-136,736	-0,122	-0,010
-728,167	-125,635	-0,078	0,009
-727,152	-116,258	-0,130	-0,017
-726,137	-128,000	-0,263	-0,027
-725,123	800,000	0,037	-0,097
-724,108	-200,000	-0,028	-0,133
-723,094	-42,284	-0,118	-0,044
-722,079	241,715	-0,072	0,088
-721,064	-200,000	0,012	0,155
-720,050	25,079	-0,157	0,095
-719,035	130,657	0,068	-0,064
-718,021	419,851	-0,091	-0,142
-717,006	-175,277	-0,222	0,004
-715,991	-200,000	-0,014	0,073
-714,977	263,701	-0,089	-0,112
-713,962	265,711	-0,108	-0,137
-712,948	37,571	0,074	0,048
-711,933	800,000	-0,060	0,165
-710,918	-126,209	0,066	-0,007
-709,904	-200,000	-0,019	-0,212
-708,889	-95,374	-0,004	-0,001
-707,875	90,554	0,047	-0,038
-706,860	93,192	-0,092	-0,075
-705,845	22,828	-0,008	0,005
-704,831	800,000	0,046	-0,121
-703,816	44,162	-0,104	-0,069
-702,802	-95,356	0,080	-0,015
-701,787	714,502	-0,031	0,059
-700,772	6,111	-0,056	-0,030
-699,758	221,695	0,059	0,069
-698,743	-40,160	0,111	0,042
-697,729	-4,751	-0,024	-0,012
-696,714	-200,000	-0,015	0,113
-695,699	157,372	0,058	-0,058
-694,685	800,000	0,013	-0,031
-693,670	-67,467	-0,092	-0,026
-692,656	-99,375	-0,019	0,003
-691,641	365,557	-0,062	0,090
-690,627	800,000	-0,023	0,053
-689,612	-200,000	0,007	0,102
-688,597	-118,793	-0,029	-0,004
-687,583	-114,659	0,190	-0,026
-686,568	-45,568	-0,107	0,038
-685,554	24,065	0,023	-0,014
-684,539	171,008	0,120	0,125
-683,524	-200,000	-0,024	0,154
-682,510	-9,493	-0,069	-0,033
-681,495	68,441	-0,040	0,030
-680,481	15,656	-0,083	-0,047
-679,466	800,000	-0,016	-0,049
-678,451	6,789	-0,086	0,046
-677,437	129,436	0,036	0,033
-676,422	-1,111	0,112	-0,057
-675,408	-155,730	-0,192	-0,009
-674,393	189,219	-0,032	-0,035
-673,378	322,643	0,047	-0,065
-672,364	800,000	0,067	-0,146
-671,349	275,558	-0,061	-0,079
-670,335	-129,899	-0,056	0,006
-669,320	444,620	-0,047	0,076
-668,305	-58,175	-0,109	0,034
-667,291	-200,000	0,013	0,063
-666,276	77,496	-0,144	-0,111
-665,262	272,658	-0,048	-0,062
-664,247	-12,354	-0,021	0,010
-663,232	-73,776	-0,107	0,028
-662,218	334,569	0,047	-0,067
-661,203	-200,000	0,018	0,148
-660,189	800,000	0,057	-0,170
-659,174	48,088	-0,084	-0,057
-658,159	-55,680	0,052	0,017
-657,145	688,992	-0,085	-0,162
-656,130	-200,000	-0,005	-0,084
-655,116	458,103	-0,041	0,067
-654,101	485,703	-0,033	-0,054
-653,086	-200,000	-0,005	-0,037
-652,072	58,972	-0,042	-0,030
-651,057	-74,658	0,145	0,037
-650,043	482,037	0,009	-0,016
-649,028	800,000	-0,067	-0,145
-648,014	217,266	0,116	0,134
-646,999	-200,000	-0,017	-0,077
-645,984	800,000	-0,077	0,162
-644,970	-115,811	-0,074	0,010
-643,955	-29,691	-0,184	-0,076
-642,941	800,000	-0,037	-0,114
-641,926	-200,000	-0,011	0,042
-640,911	-26,758	0,029	-0,012
-639,897	40,315	0,029	0,019
-638,882	321,799	-0,043	0,059
-637,868	-98,598	-0,136	-0,025
-636,853	-144,677	-0,174	0,011
-635,838	-25,151	-0,143	-0,061
-634,824	341,297	0,069	0,098
-633,809	-67,387	-0,009	0,003
-632,795	-129,655	0,104	-0,010
-631,780	-200,000	0,010	0,098
-630,765	109,134	0,035	-0,031
-629,751	-200,000	-0,002	0,038
-628,736	55,029	0,150	-0,105
-627,722	-200,000	-0,012	0,095
-626,707	800,000	0,042	0,101
-625,692	542,573	-0,058	0,101
-624,678	-200,000	0,032	0,137
-623,663	101,048	0,087	-0,073
-622,649	-200,000	-0,054	-0,183
-621,634	800,000	-0,049	-0,147
-620,619	395,345	0,047	-0,072
-619,605	59,528	0,148	0,106
-618,590	217,727	0,047	0,054
-617,576	24,263	-0,105	0,063
-616,561	513,182	-0,029	0,049
-615,546	-200,000	-0,002	0,049
-614,532	-200,000	-0,030	0,102
-613,517	-200,000	0,018	-0,081
-612,503	800,000	-0,019	0,053
-611,488	170,655	0,041	-0,043
-610,474	430,571	0,023	0,037
-609,459	-65,180	-0,113	-0,033
-608,444	-83,005	-0,121	0,028
-607,430	-200,000	0,009	-0,143
-606,415	190,804	-0,138	-0,150
-605,401	-200,000	-0,022	-0,092
-604,386	236,942	0,107	0,128
-603,371	-200,000	0,001	0,018
-602,357	-77,543	-0,094	-0,023
-601,342	-71,338	-0,061	0,016
-600,328	-147,667	-0,066	0,004
-599,313	-200,000	0,027	-0,108
-598,298	800,000	0,043	0,121
-597,284	-22,600	-0,055	0,024
-596,269	-85,446	0,174	-0,039
-595,255	-135,709	0,099	0,008
-594,240	-6,438	-0,105	0,052
-593,225	-51,938	-0,161	-0,054
-592,211	213,870	-0,044	-0,050
-591,196	130,188	-0,068	0,063
-590,182	-22,398	0,041	-0,018
-589,167	-104,657	0,043	0,007
-588,152	-135,838	0,089	0,008
-587,138	-42,845	-0,077	0,028
-586,123	307,849	-0,080	-0,108
-585,109	113,342	-0,140	-0,123
-584,094	-200,000	0,002	-0,048
-583,079	140,937	-0,037	0,036
-582,065	47,790	0,106	0,072
-581,050	800,000	-0,030	0,072
-580,036	687,119	-0,049	-0,094
-579,021	-31,047	-0,039	-0,016
-578,006	-15,444	-0,051	-0,023
-576,992	513,571	0,049	-0,082
-575,977	59,666	0,064	-0,046
-574,963	-200,000	-0,006	-0,063
-573,948	800,000	-0,045	0,132
-572,934	-123,275	-0,115	0,013
-571,919	800,000	-0,060	-0,127
-570,904	-29,487	-0,101	0,042
-569,890	-72,012	-0,044	0,012
-568,875	800,000	0,046	0,120
-567,861	800,000	0,062	0,184
-566,846	376,249	-0,055	0,082
-565,831	-200,000	-0,066	-0,000
-564,817	442,397	-0,053	-0,085
-563,802	108,923	-0,076	-0,066
-562,788	-179,457	0,134	0,002
-561,773	477,868	0,024	-0,040
-560,758	-40,974	-0,067	0,025
-559,744	-73,122	-0,075	0,020
-558,729	-105,720	-0,094	0,015
-557,715	385,962	-0,069	-0,103
-556,700	-67,489	0,081	-0,023
-555,685	-200,000	0,007	-0,058
-554,671	-74,424	-0,060	0,016
-553,656	-200,000	-0,020	0,101
-552,642	186,956	0,022	-0,024
-551,627	800,000	-0,023	-0,051
-550,612	180,893	-0,083	-0,089
-549,598	364,390	-0,082	0,119
-548,583	800,000	0,021	-0,056
-547,569	163,449	-0,105	-0,107
-546,554	-178,519	0,074	0,001
-545,539	-200,000	0,019	0,088
-544,525	357,805	-0,072	0,105
-543,510	416,866	0,044	-0,068
-542,496	142,557	0,080	0,077
-541,481	-81,534	-0,051	0,012
-540,466	-200,000	0,014	-0,133
-539,452	77,613	0,056	0,043
-538,437	100,633	0,076	-0,064
-537,423	-200,000	0,002	0,085
-536,408	274,205	-0,048	-0,061
-535,393	391,785	-0,088	-0,132
-534,379	25,526	-0,060	0,036
-533,364	126,866	-0,016	-0,014
-532,350	62,846	0,076	0,055
-531,335	458,443	0,081	0,131
-530,321	-200,000	-0,017	0,183
-529,306	179,730	-0,041	0,043
-528,291	800,000	-0,041	-0,109
-527,277	-200,000	0,006	0,098
-526,262	557,229	-0,032	-0,056
-525,248	88,646	0,191	-0,154
-524,233	-200,000	0,017	0,072
-523,218	93,645	0,096	0,079
-522,204	-200,000	-0,003	0,039
-521,189	94,880	-0,087	0,072
-520,175	-167,430	-0,064	-0,002
-519,160	-200,000	-0,001	0,072
-518,145	-60,264	0,107	-0,033
-517,131	95,142	0,042	-0,035
-516,116	-33,635	0,078	0,031
-515,102	323,701	-0,053	0,073
-514,087	800,000	-0,052	-0,122
-513,072	161,135	-0,042	-0,042
-512,058	-143,871	0,068	0,005
-511,043	-69,406	-0,081	-0,022
-510,029	146,258	0,053	-0,051
-509,014	48,263	0,059	0,040
-507,999	-80,728	0,040	0,010
-506,985	791,164	-0,059	-0,117
-505,970	172,835	0,086	-0,089
-504,956	62,684	0,028	-0,020
-503,941	800,000	0,032	0,096
-502,926	-48,700	-0,160	0,055
-501,912	53,057	-0,081	0,056
-500,897	545,531	0,065	-0,113
-499,883	-200,000	-0,021	0,156
-498,868	133,807	0,024	0,023
-497,853	-200,000	0,020	-0,102
-496,839	226,626	0,045	-0,053
-495,824	236,889	-0,045	-0,054
-494,810	-200,000	0,007	0,048
-493,795	386,109	0,101	0,150
-492,781	-8,116	0,102	0,049
-491,766	748,410	-0,060	0,117
-490,751	-200,000	-0,143	-0,000
-489,737	89,921	0,094	-0,076
-488,722	29,158	0,043	0,027
-487,708	-19,533	-0,029	0,013
-486,693	-200,000	0,040	0,139
-485,678	347,550	-0,093	-0,133
-484,664	-88,752	-0,082	-0,018
-483,649	105,739	0,053	-0,045
-482,635	-152,394	0,099	0,005
-481,620	-151,011	0,124	0,007
-480,605	99,660	-0,079	0,066
-479,591	27,105	-0,027	-0,016
-478,576	-182,474	-0,049	0,001
-477,562	5,667	-0,082	-0,044
-476,547	-16,843	0,138	-0,063
-475,532	-200,000	-0,015	-0,147
-474,518	173,508	0,043	0,045
-473,503	-200,000	0,009	0,074
-472,489	-200,000	0,005	-0,108
-471,474	800,000	-0,032	0,073
-470,459	722,791	-0,032	-0,062
-469,445	-200,000	0,014	-0,122
-468,430	-26,671	-0,029	0,012
-467,416	-16,345	0,069	-0,032
-466,401	177,149	0,027	-0,029
-465,386	-83,577	-0,045	0,010
-464,372	-33,733	-0,136	-0,054
-463,357	430,515	-0,072	-0,113
-462,343	-200,000	-0,000	-0,109
-461,328	163,496	0,038	-0,038
-460,313	-200,000	-0,017	0,057
-459,299	22,923	-0,072	0,042
-458,284	166,612	-0,082	-0,084
-457,270	800,000	-0,019	-0,042
-456,255	-29,971	-0,063	-0,026
-455,241	800,000	-0,046	0,096
-454,226	14,104	-0,036	-0,020
-453,211	-100,945	-0,049	0,009
-452,197	291,082	-0,118	0,154
-451,182	-105,208	0,130	0,021
-450,168	-200,000	0,037	-0,125
-449,153	393,275	-0,077	-0,115
-448,138	671,918	-0,088	-0,165
-447,124	-58,057	-0,268	-0,084
-446,109	-21,027	-0,037	0,016
-445,095	269,828	0,058	0,073
-444,080	-90,906	0,095	0,019
-443,065	-200,000	0,014	0,078
-442,051	-136,541	-0,071	-0,006
-441,036	36,453	0,074	-0,047
-440,022	-14,787	0,140	0,064
-439,007	17,491	0,059	0,034
-437,992	53,418	0,109	0,075
-436,978	713,027	0,052	0,099
-435,963	25,861	0,075	0,045
-434,949	159,910	0,028	-0,029
-433,934	99,172	0,016	0,013
-432,919	366,879	-0,022	0,032
-431,905	-76,117	-0,037	0,009
-430,890	261,322	-0,074	0,092
-429,876	800,000	0,028	-0,085
-428,861	-200,000	0,024	0,128
-427,846	800,000	-0,016	-0,046
-426,832	-200,000	-0,006	-0,150
-425,817	-100,565	-0,064	0,011
-424,803	-43,409	-0,028	-0,010
-423,788	-90,943	0,140	-0,029
-422,773	-112,649	0,019	-0,003
-421,759	18,557	0,040	0,023
-420,744	312,170	-0,047	0,064
-419,730	167,449	-0,031	0,031
-418,715	409,324	-0,060	0,092
-417,701	-57,540	0,153	0,048
-416,686	-87,247	0,111	0,024
-415,671	138,607	0,093	0,088
-414,657	-58,863	0,141	0,044
-413,642	-35,902	-0,134	-0,052
-412,628	352,016	0,097	-0,138
-411,613	-155,304	-0,011	0,001
-410,598	-9,325	-0,074	-0,036
-409,584	800,000	0,039	0,092
-408,569	-51,135	0,059	0,020
-407,555	-200,000	0,025	-0,103
-406,540	-28,503	-0,094	0,039
-405,525	-200,000	0,006	0,020
-404,511	-200,000	0,016	0,128
-403,496	230,101	0,023	-0,027
-402,482	209,620	-0,091	0,103
-401,467	550,112	-0,020	0,035
-400,452	404,535	0,051	0,077
-399,438	-3,003	-0,092	-0,046
-398,423	191,526	0,017	-0,018
-397,409	762,894	-0,063	-0,124
-396,394	800,000	-0,065	-0,150
-395,379	800,000	0,019	-0,041
-394,365	343,547	-0,041	0,058
-393,350	-2,127	-0,043	0,022
-392,336	800,000	0,080	0,238
-391,321	-200,000	-0,002	-0,127
-390,306	-177,128	-0,063	0,001
-389,292	41,057	0,082	-0,053
-388,277	165,229	0,034	-0,034
-387,263	17,032	0,158	-0,090
-386,248	-3,514	0,090	0,045
-385,233	244,848	-0,037	0,045
-384,219	-200,000	0,005	-0,050
-383,204	22,070	0,075	-0,044
-382,190	357,605	0,040	-0,057
-381,175	-200,000	0,012	0,067
-380,160	576,902	0,039	0,068
-379,146	10,013	0,104	0,056
-378,131	-97,155	0,110	-0,020
-377,117	800,000	0,055	-0,129
-376,102	260,592	-0,071	0,088
-375,088	263,733	-0,111	-0,139
-374,073	743,780	0,038	-0,074
-373,058	-200,000	-0,012	-0,066
-372,044	515,870	0,010	-0,017
-371,029	800,000	-0,035	0,104
-370,015	38,908	0,134	-0,086
-369,000	86,170	-0,109	-0,086
-367,985	340,941	-0,059	-0,083
-366,971	770,911	-0,081	-0,159
-365,956	264,114	0,053	0,066
-364,942	-200,000	-0,023	0,086
-363,927	185,236	0,036	0,039
-362,912	55,779	-0,045	0,031
-361,898	-200,000	-0,031	-0,122
-360,883	800,000	-0,056	0,138
-359,869	-94,695	-0,091	0,018
-358,854	-105,644	0,023	0,004
-357,839	800,000	0,035	-0,069
-356,825	372,212	-0,064	-0,094
-355,810	113,572	0,016	0,014
-354,796	800,000	-0,032	0,093
-353,781	-200,000	0,032	-0,219
-352,766	-123,890	-0,139	0,016
-351,752	800,000	-0,040	0,105
-350,737	-200,000	0,011	0,129
-349,723	800,000	0,049	0,138
-348,708	800,000	-0,045	0,097
-347,693	-143,100	-0,113	0,008
-346,679	85,242	-0,092	-0,072
-345,664	-200,000	0,004	0,072
-344,650	405,973	-0,111	-0,169
-343,635	800,000	-0,035	0,094
-342,620	179,150	-0,051	0,053
-341,606	-109,761	0,100	0,015
-340,591	-200,000	0,020	0,099
-339,577	13,161	0,047	-0,026
-338,562	-200,000	-0,007	-0,219
-337,548	-173,308	-0,209	0,004
-336,533	-74,892	0,108	0,028
-335,518	800,000	-0,005	0,013
-334,504	-52,354	-0,073	0,024
-333,489	31,512	-0,051	-0,031
-332,475	-32,782	0,095	0,038
-331,460	-54,338	0,048	-0,016
-330,445	-141,676	-0,076	-0,005
-329,431	-32,472	0,069	0,028
-328,416	23,989	0,051	0,030
-327,402	800,000	-0,048	0,128
-326,387	-107,684	-0,025	0,004
-325,372	127,069	-0,052	-0,048
-324,358	47,165	-0,055	-0,037
-323,343	244,109	0,059	0,071
-322,329	-200,000	0,022	0,146
-321,314	-200,000	-0,000	-0,002
-320,299	-122,313	0,181	-0,021
-319,285	-52,694	-0,064	0,021
-318,270	702,155	0,026	0,050
-317,256	41,965	-0,140	-0,091
-316,241	-200,000	0,049	-0,201
-315,226	133,331	0,056	-0,052
-314,212	-53,747	0,130	0,042
-313,197	-200,000	-0,016	0,108
-312,183	121,302	-0,009	0,008
-311,168	-166,946	-0,106	0,003
-310,153	-200,000	0,004	-0,024
-309,139	-103,004	0,127	0,021
-308,124	-200,000	-0,001	-0,058
-307,110	-60,647	-0,150	-0,045
-306,095	158,447	0,128	0,127
-305,080	40,461	0,064	0,041
-304,066	-108,122	-0,043	-0,007
-303,051	-200,000	-0,023	-0,088
-302,037	800,000	0,030	-0,087
-301,022	-200,000	-0,004	-0,053
-300,008	-200,000	0,007	0,069
-298,993	-200,000	0,024	0,079
-297,978	-83,526	0,220	0,050
-296,964	27,361	-0,080	-0,048
-295,949	-14,775	0,062	-0,028
-294,935	141,614	-0,065	-0,062
-293,920	459,978	-0,017	-0,028
-292,905	337,704	0,050	-0,069
-291,891	24,922	0,130	0,077
-290,876	800,000	-0,103	-0,204
-289,862	-200,000	0,016	-0,065
-288,847	-200,000	0,030	0,117
-287,832	800,000	-0,035	0,081
-286,818	124,332	0,050	-0,045
-285,803	234,052	0,049	-0,058
-284,789	18,057	0,126	0,072
-283,774	-200,000	-0,015	0,107
-282,759	-36,539	-0,079	-0,030
-281,745	-125,823	-0,104	-0,011
-280,730	318,037	-0,070	-0,095
-279,716	558,017	-0,059	-0,102
-278,701	-200,000	0,026	0,092
-277,686	-156,671	0,067	0,003
-276,672	-15,718	0,026	-0,012
-275,657	-136,929	-0,119	-0,010
-274,643	-2,380	0,053	-0,026
-273,628	-200,000	0,020	0,095
-272,613	-118,008	0,078	-0,010
-271,599	-103,289	-0,113	0,019
-270,584	-31,191	0,140	-0,056
-269,570	-200,000	0,022	0,111
-268,555	-18,134	-0,128	0,057
-267,540	-41,112	0,028	0,010
-266,526	-5,475	-0,091	-0,044
-265,511	800,000	0,033	0,083
-264,497	7,528	0,060	-0,032
-263,482	-200,000	0,032	0,153
-262,467	-200,000	-0,045	0,232
-261,453	-82,850	0,041	0,009
-260,438	-29,465	0,105	-0,043
-259,424	-124,922	-0,082	-0,009
-258,409	-200,000	-0,002	-0,074
-257,395	800,000	-0,004	-0,012
-256,380	139,328	0,092	0,087
-255,365	252,127	0,070	0,085
-254,351	-200,000	0,013	0,193
-253,336	-200,000	-0,030	-0,118
-252,322	445,473	0,034	0,054
-251,307	-200,000	0,017	-0,129
-250,292	244,663	0,043	0,052
-249,278	800,000	-0,035	0,099
-248,263	-29,710	0,186	-0,076
-247,249	-114,660	0,152	-0,021
-246,234	39,608	0,070	0,045
-245,219	0,740	-0,052	0,026
-244,205	800,000	-0,053	-0,157
-243,190	-200,000	-0,007	0,037
-242,176	-200,000	0,035	0,145
-241,161	-36,249	0,111	-0,042
-240,146	800,000	0,017	0,052
-239,132	800,000	-0,019	0,056
-238,117	-140,883	-0,026	0,002
-237,103	-40,561	0,121	-0,045
-236,088	169,990	-0,048	-0,049
-235,073	-78,862	0,190	0,046
-234,059	-200,000	-0,009	0,032
-233,044	-64,494	0,049	0,014
-232,030	-200,000	0,026	-0,083
-231,015	104,797	-0,117	-0,099
-230,000	68,528	-0,087	-0,063
-228,986	55,674	0,112	-0,077
-227,971	282,621	-0,053	0,068
-226,957	24,433	0,040	0,023
-225,942	401,884	-0,054	-0,082
-224,927	120,943	0,129	0,114
-223,913	-110,620	-0,030	-0,004
-222,898	-200,000	0,018	0,068
-221,884	121,084	-0,079	-0,071
-220,869	334,828	-0,063	-0,087
-219,855	48,554	-0,046	-0,031
-218,840	-4,091	0,121	-0,059
-217,825	-41,280	0,065	-0,024
-216,811	-24,339	0,115	0,049
-215,796	800,000	0,020	0,057
-214,782	-200,000	-0,017	-0,097
-213,767	-200,000	0,000	-0,051
-212,752	-200,000	-0,024	0,154
-211,738	-200,000	-0,004	-0,056
-210,723	-49,849	0,104	0,035
-209,709	-75,622	0,035	0,009
-208,694	-133,819	0,042	0,004
-207,679	562,970	0,020	-0,034
-206,665	-200,000	-0,017	0,151
-205,650	161,720	-0,038	-0,038
-204,636	516,319	-0,076	-0,126
-203,621	800,000	0,041	-0,110
-202,606	26,465	-0,097	-0,057
-201,592	52,377	0,119	0,081
-200,577	16,464	0,166	-0,093
-199,563	800,000	-0,049	0,123
-198,548	62,941	-0,031	-0,022
-197,533	-200,000	-0,009	0,046
-196,519	-200,000	0,002	0,055
-195,504	-12,222	0,091	0,042
-194,490	-150,024	-0,129	-0,007
-193,475	597,836	0,022	0,039
-192,460	1,522	0,100	-0,051
-191,446	-85,373	0,183	0,040
-190,431	800,000	-0,048	0,119
-189,417	-147,528	0,094	0,006
-188,402	-82,800	-0,089	-0,020
-187,387	-200,000	-0,019	-0,110
-186,373	84,375	-0,019	0,015
-185,358	181,624	0,091	-0,095
-184,344	29,652	-0,096	-0,058
-183,329	431,278	0,051	0,078
-182,315	-106,734	0,167	0,026
-181,300	15,128	0,082	-0,046
-180,285	-11,851	-0,232	0,108
-179,271	-0,670	0,069	0,035
-178,256	41,795	-0,144	0,093
-177,242	-153,245	-0,110	-0,005
-176,227	-200,000	0,013	0,105
-175,212	119,275	0,056	0,049
-174,198	5,958	-0,051	0,027
-173,183	111,785	-0,105	-0,090
-172,169	-94,741	-0,096	0,018
-171,154	276,131	-0,048	-0,061
-170,139	23,939	-0,253	-0,148
-169,125	-86,430	0,119	0,026
-168,110	800,000	-0,075	0,164
-167,096	168,948	0,068	0,069
-166,081	800,000	-0,031	-0,096
-165,066	-200,000	0,002	-0,274
-164,052	224,466	0,044	-0,051
-163,037	9,951	-0,020	0,011
-162,023	265,055	0,083	0,103
-161,008	76,406	0,061	0,046
-159,993	-200,000	0,004	-0,160
-158,979	34,512	0,095	-0,059
-157,964	391,211	0,168	-0,249
-156,950	-44,278	0,028	0,010
-155,935	-200,000	0,023	0,116
-154,920	-200,000	-0,038	-0,136
-153,906	259,146	0,088	0,108
-152,891	-200,000	-0,010	0,092
-151,877	-200,000	-0,001	-0,004
-150,862	67,162	0,090	-0,065
-149,847	-26,916	-0,059	0,024
-148,833	-200,000	-0,021	0,086
-147,818	34,893	0,027	0,017
-146,804	200,568	-0,022	0,024
-145,789	-100,815	0,039	0,007
-144,775	27,493	0,064	-0,038
-143,760	-200,000	-0,040	-0,158
-142,745	153,004	-0,050	-0,049
-141,731	-189,726	-0,084	-0,001
-140,716	-159,010	-0,099	0,004
-139,702	-74,437	0,023	-0,006
-138,687	-14,423	0,082	-0,037
-137,672	800,000	-0,018	-0,049
-136,658	89,454	-0,110	-0,087
-135,643	193,610	0,092	0,099
-134,629	90,829	-0,106	0,085
-133,614	312,042	-0,046	0,061
-132,599	1,730	-0,113	-0,058
-131,585	-200,000	0,010	0,097
-130,570	-178,458	-0,099	-0,002
-129,556	367,467	0,073	-0,106
-128,541	800,000	0,021	0,063
-127,526	-1,566	0,028	-0,014
-126,512	-23,070	0,074	0,031
-125,497	-38,626	-0,071	0,026
-124,483	93,651	0,078	0,063
-123,468	-200,000	0,016	0,090
-122,453	-200,000	0,022	0,078
-121,439	605,347	-0,045	-0,080
-120,424	309,085	-0,013	0,017
-119,410	800,000	-0,024	0,070
-118,395	-167,813	0,178	0,005
