DTS Sentinel unit serial number:	SN410029Multiplexer serial number:	ORYXHardware model number:	OX2-SRSoftware version number:	ORYX F/W v4,00 Oryx Data Collector v3.7.2.0data status	okinstallation	BH3 CH2differential loss correction	single-endedforward channel	channel 2reverse channel	N/Adate	2023/12/06time	05:27:28forward acquisition time	300,00reverse acquisition time	0,00gamma	499,1914k internal	0,3197k external	0,3197temperature offset calibration	1,0000default loss term (dB/km)	0,3820temperature slope calibration	1,0000multiplexer offset coefficient	1,0000multiplexer slope coefficient	1,0000fibre end	0,00T internal ref (°C)	8,92T ext. ref 1 (°C)	-5,67T ext. ref 2 (°C)	-5,78length (m)	temperature (°C)	Stokes	anti-Stokes-744,400	-200,000	0,028	-0,199
-743,385	-200,000	-0,023	0,082
-742,371	457,810	-0,066	-0,107
-741,356	-107,666	-0,228	0,036
-740,342	-200,000	0,021	-0,113
-739,327	-110,522	-0,233	0,035
-738,312	-77,026	-0,072	-0,018
-737,298	-28,291	-0,387	0,162
-736,283	-28,614	-0,084	-0,035
-735,269	39,511	-0,258	0,168
-734,254	132,425	-0,121	-0,114
-733,239	-22,678	-0,437	-0,191
-732,225	514,407	0,143	-0,244
-731,210	-200,000	-0,005	-0,051
-730,196	88,349	-0,158	0,128
-729,181	-200,000	-0,014	-0,098
-728,167	-200,000	-0,011	0,101
-727,152	502,067	0,024	-0,040
-726,137	424,516	0,098	-0,154
-725,123	49,787	-0,172	-0,118
-724,108	-123,831	-0,068	-0,008
-723,094	-200,000	0,013	-0,163
-722,079	-33,338	-0,046	0,018
-721,064	-200,000	-0,001	0,124
-720,050	800,000	0,014	-0,038
-719,035	384,722	-0,107	-0,161
-718,021	67,945	0,089	0,066
-717,006	35,146	-0,093	-0,059
-715,991	190,137	-0,146	-0,159
-714,977	234,223	-0,055	-0,066
-713,962	-200,000	-0,026	0,088
-712,948	-200,000	-0,006	-0,103
-711,933	-200,000	0,015	-0,075
-710,918	42,713	-0,015	-0,010
-709,904	54,604	-0,148	-0,104
-708,889	-6,291	0,018	0,009
-707,875	2,503	0,044	0,023
-706,860	-200,000	-0,003	-0,029
-705,845	-77,634	-0,044	-0,011
-704,831	-200,000	-0,003	0,020
-703,816	86,030	-0,233	-0,187
-702,802	800,000	0,063	0,168
-701,787	-75,805	-0,081	0,021
-700,772	287,792	0,052	0,069
-699,758	53,091	-0,075	-0,052
-698,743	630,955	0,018	0,034
-697,729	800,000	0,047	-0,131
-696,714	-200,000	-0,059	0,208
-695,699	-46,379	-0,081	-0,029
-694,685	16,818	0,016	-0,009
-693,670	63,075	-0,185	0,135
-692,656	76,879	-0,126	-0,097
-691,641	-132,014	-0,106	-0,010
-690,627	139,782	0,042	-0,040
-689,612	800,000	0,034	-0,087
-688,597	93,011	-0,053	0,044
-687,583	-200,000	0,002	-0,067
-686,568	0,557	-0,123	0,064
-685,554	-200,000	0,020	-0,069
-684,539	368,474	-0,035	0,052
-683,524	127,595	-0,095	0,088
-682,510	262,979	-0,087	-0,111
-681,495	-200,000	-0,001	-0,065
-680,481	-156,719	0,127	-0,006
-679,466	-60,877	-0,045	0,014
-678,451	800,000	0,045	-0,107
-677,437	46,407	-0,149	-0,100
-676,422	800,000	-0,026	0,067
-675,408	-200,000	0,012	-0,128
-674,393	293,386	0,119	0,158
-673,378	-18,564	0,048	0,022
-672,364	-16,838	-0,042	-0,019
-671,349	6,857	-0,040	-0,021
-670,335	800,000	0,050	-0,141
-669,320	30,421	-0,024	0,015
-668,305	-130,378	-0,120	-0,012
-667,291	290,995	0,085	0,113
-666,276	-200,000	-0,019	0,061
-665,262	16,740	-0,169	-0,097
-664,247	-71,246	0,040	-0,011
-663,232	606,535	-0,027	-0,049
-662,218	-200,000	-0,019	0,073
-661,203	-91,586	-0,105	-0,022
-660,189	-200,000	0,008	-0,027
-659,174	213,654	-0,129	-0,148
-658,159	-200,000	-0,022	-0,172
-657,145	-200,000	-0,005	0,108
-656,130	-200,000	0,016	-0,055
-655,116	111,107	0,026	-0,023
-654,101	800,000	0,017	-0,048
-653,086	143,092	-0,144	-0,139
-652,072	-1,079	0,073	-0,037
-651,057	62,170	-0,082	-0,059
-650,043	-200,000	0,028	0,115
-649,028	178,398	-0,068	-0,072
-648,014	-99,643	0,054	-0,010
-646,999	-108,172	-0,022	0,003
-645,984	800,000	-0,026	-0,079
-644,970	800,000	-0,074	-0,154
-643,955	-200,000	-0,003	-0,066
-642,941	-146,114	-0,105	0,007
-641,926	-28,790	0,028	0,012
-640,911	-82,642	0,171	-0,040
-639,897	-200,000	0,009	-0,040
-638,882	46,917	-0,070	0,047
-637,868	645,358	0,036	-0,068
-636,853	800,000	0,018	-0,049
-635,838	-200,000	-0,013	-0,079
-634,824	800,000	-0,032	-0,081
-633,809	-200,000	0,019	-0,073
-632,795	800,000	-0,036	-0,092
-631,780	342,152	-0,051	-0,073
-630,765	-200,000	0,006	-0,026
-629,751	800,000	0,006	-0,017
-628,736	-44,471	-0,114	-0,041
-627,722	151,711	0,046	0,046
-626,707	53,664	-0,092	-0,064
-625,692	800,000	-0,020	-0,043
-624,678	159,486	-0,126	0,128
-623,663	-200,000	0,004	-0,031
-622,649	800,000	0,020	-0,054
-621,634	135,296	-0,085	-0,080
-620,619	61,140	0,054	-0,039
-619,605	-200,000	0,005	-0,158
-618,590	-4,608	0,106	0,053
-617,576	542,177	0,074	-0,128
-616,561	-72,555	-0,068	0,018
-615,546	120,530	0,092	0,083
-614,532	505,408	0,053	-0,089
-613,517	-108,369	-0,181	0,028
-612,503	-148,334	-0,034	-0,002
-611,488	-200,000	-0,025	0,175
-610,474	-150,593	-0,106	-0,006
-609,459	28,699	-0,031	0,019
-608,444	133,515	0,055	0,052
-607,430	250,784	-0,003	0,004
-606,415	-106,509	-0,102	-0,016
-605,401	-82,053	0,070	-0,016
-604,386	-67,009	0,088	-0,025
-603,371	-200,000	-0,009	0,116
-602,357	-200,000	-0,010	-0,037
-601,342	-28,762	0,020	0,008
-600,328	-20,445	-0,058	-0,026
-599,313	-130,195	-0,107	-0,010
-598,298	99,947	0,158	-0,133
-597,284	-88,824	0,063	-0,013
-596,269	-200,000	0,007	0,099
-595,255	-200,000	0,005	0,023
-594,240	800,000	0,047	-0,114
-593,225	-200,000	0,002	-0,093
-592,211	800,000	0,025	-0,054
-591,196	242,605	0,023	0,028
-590,182	-200,000	0,005	-0,030
-589,167	115,775	-0,065	-0,058
-588,152	-200,000	0,002	-0,062
-587,138	-200,000	-0,001	-0,033
-586,123	800,000	0,005	0,015
-585,109	-10,702	-0,046	0,022
-584,094	-200,000	-0,005	-0,020
-583,079	800,000	0,003	-0,007
-582,065	126,273	0,126	0,115
-581,050	119,899	-0,102	-0,091
-580,036	229,002	0,100	0,118
-579,021	29,883	-0,052	-0,032
-578,006	-200,000	0,011	0,056
-576,992	-159,430	0,044	0,002
-575,977	-128,355	-0,118	-0,012
-574,963	-143,343	0,065	0,004
-573,948	-98,308	-0,021	-0,004
-572,934	762,483	-0,054	-0,107
-571,919	-62,044	0,118	-0,035
-570,904	309,863	-0,053	-0,071
-569,890	-135,304	0,112	0,010
-568,875	800,000	0,027	0,063
-567,861	77,789	-0,026	-0,020
-566,846	-130,856	0,095	0,009
-565,831	-200,000	0,022	-0,153
-564,817	37,798	-0,007	0,005
-563,802	660,377	-0,042	-0,078
-562,788	-200,000	0,004	-0,076
-561,773	-200,000	0,016	-0,051
-560,758	-69,379	0,205	0,056
-559,744	800,000	0,042	0,112
-558,729	278,937	-0,035	0,045
-557,715	204,895	-0,130	-0,146
-556,700	-200,000	-0,011	-0,059
-555,685	203,304	-0,100	-0,111
-554,671	800,000	0,020	-0,064
-553,656	-200,000	-0,014	0,164
-552,642	-61,908	0,125	0,038
-551,627	175,816	-0,059	-0,062
-550,612	229,932	0,063	-0,074
-549,598	-137,559	-0,132	-0,011
-548,583	-200,000	-0,019	0,106
-547,569	-40,232	0,087	0,033
-546,554	800,000	-0,026	0,071
-545,539	193,684	0,119	-0,130
-544,525	241,007	-0,095	0,115
-543,510	-54,443	-0,178	-0,058
-542,496	-94,410	-0,131	0,026
-541,481	-78,143	0,142	0,035
-540,466	800,000	-0,020	-0,054
-539,452	-27,905	-0,074	-0,031
-538,437	750,655	0,026	0,051
-537,423	-12,934	0,064	-0,030
-536,408	800,000	0,039	-0,092
-535,393	800,000	-0,011	0,023
-534,379	-121,904	0,092	0,011
-533,364	783,896	-0,030	-0,061
-532,350	-84,688	-0,081	-0,018
-531,335	172,254	0,100	0,104
-530,321	800,000	-0,076	0,177
-529,306	-200,000	-0,006	-0,063
-528,291	-200,000	0,016	-0,095
-527,277	-200,000	0,008	-0,041
-526,262	-47,026	0,018	-0,006
-525,248	19,733	0,012	0,007
-524,233	45,789	-0,038	0,025
-523,218	361,628	0,018	-0,026
-522,204	-172,688	-0,147	0,003
-521,189	57,300	0,042	0,030
-520,175	-200,000	-0,007	-0,024
-519,160	126,144	-0,077	-0,070
-518,145	-200,000	0,023	0,127
-517,131	119,461	0,099	0,088
-516,116	5,289	0,089	0,047
-515,102	36,290	-0,073	-0,046
-514,087	61,404	0,087	-0,063
-513,072	515,675	-0,040	-0,068
-512,058	-200,000	0,013	-0,119
-511,043	3,015	0,055	0,029
-510,029	-131,382	-0,060	0,006
-509,014	-200,000	-0,010	-0,080
-507,999	-90,537	-0,108	0,022
-506,985	-200,000	0,007	0,053
-505,970	800,000	0,045	-0,109
-504,956	-200,000	-0,018	-0,076
-503,941	-58,204	0,052	0,016
-502,926	-100,645	0,027	-0,005
-501,912	-200,000	-0,021	-0,090
-500,897	-68,780	0,052	0,015
-499,883	800,000	-0,028	0,089
-498,868	-97,765	-0,128	-0,024
-497,853	-200,000	0,027	0,107
-496,839	553,644	-0,015	0,026
-495,824	80,796	-0,087	-0,068
-494,810	-200,000	0,016	-0,053
-493,795	369,193	-0,012	0,018
-492,781	164,886	-0,088	-0,089
-491,766	-89,327	-0,128	0,027
-490,751	-94,548	-0,074	-0,014
-489,737	-200,000	-0,013	-0,047
-488,722	800,000	-0,014	0,043
-487,708	800,000	0,044	0,092
-486,693	-113,745	0,042	-0,006
-485,678	192,225	-0,046	-0,050
-484,664	-200,000	-0,019	-0,140
-483,649	670,961	-0,058	0,109
-482,635	195,876	-0,070	-0,077
-481,620	616,281	0,022	-0,041
-480,605	122,682	0,091	0,082
-479,591	-200,000	-0,001	0,111
-478,576	47,201	-0,044	-0,030
-477,562	-200,000	0,015	-0,088
-476,547	355,232	-0,030	-0,044
-475,532	-200,000	-0,025	0,129
-474,518	146,467	-0,017	0,016
-473,503	4,623	-0,104	-0,055
-472,489	358,459	0,072	0,104
-471,474	361,730	-0,084	0,122
-470,459	-6,208	-0,130	0,064
-469,445	-133,454	-0,005	-0,000
-468,430	-200,000	0,027	-0,122
-467,416	541,934	0,033	-0,056
-466,401	-13,242	-0,069	-0,032
-465,386	-15,256	0,071	0,033
-464,372	277,203	-0,066	-0,085
-463,357	-91,079	0,042	0,009
-462,343	-27,055	-0,069	0,029
-461,328	-49,472	0,069	0,024
-460,313	606,912	0,042	-0,075
-459,299	136,830	0,025	0,024
-458,284	-40,678	0,130	0,048
-457,270	-200,000	0,003	-0,143
-456,255	-200,000	0,016	0,092
-455,241	-144,521	-0,084	-0,005
-454,226	736,916	-0,054	-0,104
-453,211	800,000	-0,032	0,087
-452,197	188,171	-0,045	-0,048
-451,182	348,007	0,057	-0,081
-450,168	612,186	-0,007	0,013
-449,153	800,000	-0,022	0,062
-448,138	-116,380	0,063	-0,008
-447,124	346,410	-0,089	-0,126
-446,109	800,000	-0,024	0,068
-445,095	-33,988	0,096	-0,038
-444,080	800,000	0,014	-0,029
-443,065	-200,000	-0,010	0,188
-442,051	-200,000	0,002	0,115
-441,036	19,791	-0,061	-0,035
-440,022	-151,746	-0,084	0,004
-439,007	211,223	0,111	0,126
-437,992	-200,000	-0,008	0,111
-436,978	751,830	0,054	0,106
-435,963	-200,000	0,005	-0,023
-434,949	502,614	0,071	0,119
-433,934	-65,275	-0,116	0,033
-432,919	-4,757	-0,130	-0,064
-431,905	22,556	0,014	0,008
-430,890	73,207	-0,028	-0,021
-429,876	-116,147	0,085	-0,011
-428,861	180,041	0,072	0,076
-427,846	-200,000	0,011	0,088
-426,832	-200,000	-0,014	0,052
-425,817	-144,244	-0,079	0,005
-424,803	-200,000	-0,001	-0,037
-423,788	800,000	-0,036	-0,099
-422,773	12,644	0,055	0,030
-421,759	800,000	0,067	0,210
-420,744	-45,476	-0,081	-0,029
-419,730	26,054	0,170	-0,102
-418,715	-81,371	-0,016	-0,004
-417,701	800,000	-0,031	0,074
-416,686	800,000	0,035	0,081
-415,671	162,939	-0,032	0,032
-414,657	20,101	-0,036	0,021
-413,642	208,842	0,048	0,055
-412,628	800,000	0,018	0,049
-411,613	-200,000	0,014	-0,047
-410,598	-71,554	0,139	0,037
-409,584	800,000	-0,037	0,079
-408,569	268,357	-0,057	-0,072
-407,555	-200,000	0,008	0,034
-406,540	708,773	0,022	0,043
-405,525	113,757	0,068	-0,060
-404,511	1,447	-0,124	-0,064
-403,496	230,032	-0,046	0,054
-402,482	239,977	-0,064	-0,077
-401,467	-34,208	0,083	0,033
-400,452	232,828	-0,063	0,075
-399,438	-200,000	0,002	0,096
-398,423	272,998	-0,013	-0,017
-397,409	537,760	0,055	-0,095
-396,394	492,031	0,051	0,085
-395,379	-200,000	0,035	0,117
-394,365	800,000	-0,039	-0,117
-393,350	-200,000	-0,035	0,151
-392,336	-118,047	0,023	0,003
-391,321	-200,000	-0,000	0,016
-390,306	101,059	-0,094	-0,079
-389,292	116,560	0,126	0,111
-388,277	-90,710	0,137	-0,028
-387,263	800,000	0,042	-0,096
-386,248	-1,759	0,101	0,051
-385,233	800,000	0,022	-0,053
-384,219	159,397	-0,028	-0,028
-383,204	-200,000	-0,036	-0,155
-382,190	800,000	0,037	-0,109
-381,175	-200,000	-0,021	-0,088
-380,160	-200,000	-0,006	-0,039
-379,146	-119,424	0,069	0,008
-378,131	800,000	-0,030	-0,076
-377,117	151,090	0,043	-0,042
-376,102	-72,941	0,149	0,039
-375,088	58,177	0,032	-0,022
-374,073	-200,000	0,012	-0,047
-373,058	69,376	0,045	0,033
-372,044	-55,071	0,020	0,006
-371,029	461,448	0,050	-0,080
-370,015	636,685	0,040	0,072
-369,000	-138,722	-0,193	0,015
-367,985	-45,764	-0,059	-0,021
-366,971	2,571	0,093	-0,048
-365,956	-35,350	0,131	-0,051
-364,942	150,983	0,156	0,153
-363,927	-106,461	0,082	-0,013
-362,912	-122,320	-0,228	-0,026
-361,898	202,754	0,037	-0,041
-360,883	90,298	0,072	0,057
-359,869	-6,274	-0,126	-0,062
-358,854	119,659	0,054	0,048
-357,839	-200,000	0,010	-0,044
-356,825	800,000	-0,025	0,051
-355,810	800,000	0,041	-0,092
-354,796	-132,820	-0,054	-0,005
-353,781	-127,748	-0,188	0,019
-352,766	-1,572	-0,120	0,061
-351,752	-75,952	-0,093	-0,023
-350,737	7,093	-0,113	0,060
-349,723	377,925	0,101	0,149
-348,708	295,220	-0,016	0,022
-347,693	800,000	-0,020	-0,059
-346,679	36,988	-0,109	0,069
-345,664	-200,000	-0,022	0,099
-344,650	-59,984	0,073	-0,022
-343,635	537,734	0,032	-0,055
-342,620	-200,000	-0,007	0,184
-341,606	127,112	0,064	0,058
-340,591	-164,082	-0,111	-0,004
-339,577	800,000	0,015	0,046
-338,562	174,980	-0,098	-0,102
-337,548	65,246	-0,101	0,073
-336,533	379,968	-0,014	-0,021
-335,518	800,000	0,032	-0,065
-334,504	45,538	0,047	0,031
-333,489	709,341	-0,041	0,078
-332,475	-200,000	0,023	0,100
-331,460	-200,000	-0,004	-0,084
-330,445	-164,002	0,065	-0,002
-329,431	30,445	0,115	-0,070
-328,416	-168,412	-0,126	-0,003
-327,402	-200,000	0,035	0,156
-326,387	83,337	-0,044	0,034
-325,372	-200,000	-0,024	-0,153
-324,358	-92,340	0,219	-0,044
-323,343	-188,984	-0,118	0,001
-322,329	541,232	0,024	-0,042
-321,314	5,840	0,162	0,086
-320,299	-93,328	0,067	0,013
-319,285	-137,000	-0,079	0,006
-318,270	473,849	-0,051	0,082
-317,256	-84,836	-0,033	0,007
-316,241	29,415	0,085	-0,052
-315,226	-108,399	-0,058	0,009
-314,212	602,261	0,063	0,112
-313,197	198,643	0,079	-0,087
-312,183	422,753	-0,057	-0,087
-311,168	524,209	-0,041	-0,070
-310,153	125,582	0,050	-0,045
-309,139	-163,327	-0,032	-0,001
-308,124	800,000	0,028	0,079
-307,110	-200,000	-0,005	0,102
-306,095	118,896	0,045	0,040
-305,080	-43,384	0,170	-0,061
-304,066	-4,789	-0,195	-0,096
-303,051	-118,820	-0,085	0,011
-302,037	214,740	0,037	0,042
-301,022	-200,000	0,003	-0,049
-300,008	-29,733	0,158	-0,064
-298,993	180,006	0,099	0,104
-297,978	541,994	-0,072	0,122
-296,964	-200,000	-0,023	-0,131
-295,949	11,162	-0,167	-0,091
-294,935	-200,000	-0,004	0,063
-293,920	-200,000	0,019	0,104
-292,905	800,000	-0,045	-0,095
-291,891	-15,118	-0,080	0,036
-290,876	129,465	0,015	-0,014
-289,862	-10,622	-0,081	0,038
-288,847	-67,961	-0,126	-0,035
-287,832	202,821	0,106	-0,118
-286,818	-63,042	-0,149	-0,044
-285,803	800,000	0,046	0,142
-284,789	123,131	0,088	0,079
-283,774	800,000	-0,021	0,049
-282,759	-200,000	-0,026	0,163
-281,745	-2,874	0,014	-0,007
-280,730	-165,433	-0,049	-0,001
-279,716	40,470	0,161	-0,103
-278,701	65,069	0,104	0,075
-277,686	-200,000	-0,010	0,161
-276,672	179,521	0,031	-0,032
-275,657	800,000	0,042	-0,099
-274,643	-200,000	0,001	-0,079
-273,628	-91,616	-0,259	0,052
-272,613	-132,724	-0,055	-0,005
-271,599	421,011	0,056	-0,086
-270,584	230,212	0,124	0,145
-269,570	451,587	-0,023	0,036
-268,555	129,912	-0,085	-0,078
-267,540	114,617	0,033	0,029
-266,526	32,975	0,040	-0,024
-265,511	-116,770	-0,129	0,017
-264,497	64,349	-0,095	0,068
-263,482	623,956	0,103	0,186
-262,467	30,209	0,089	0,054
-261,453	192,320	-0,064	0,069
-260,438	800,000	0,051	-0,135
-259,424	147,057	-0,033	-0,032
-258,409	800,000	0,060	-0,120
-257,395	-32,451	0,102	-0,040
-256,380	-200,000	0,005	0,094
-255,365	32,568	0,103	0,063
-254,351	-200,000	0,001	0,135
-253,336	514,964	-0,013	-0,022
-252,322	-58,480	0,047	-0,014
-251,307	101,773	-0,071	-0,059
-250,292	-73,517	-0,058	0,015
-249,278	404,607	0,034	-0,052
-248,263	441,783	0,063	0,099
-247,249	800,000	0,018	0,057
-246,234	534,598	0,047	-0,080
-245,219	800,000	0,050	0,104
-244,205	776,768	-0,021	0,040
-243,190	102,909	-0,032	0,027
-242,176	269,206	0,046	0,058
-241,161	-200,000	0,012	0,045
-240,146	-119,160	0,098	0,012
-239,132	-100,463	-0,056	0,010
-238,117	24,921	0,040	0,024
-237,103	36,527	0,033	-0,021
-236,088	-200,000	0,008	-0,087
-235,073	-81,005	0,050	0,012
-234,059	-200,000	0,026	0,163
-233,044	800,000	-0,021	0,057
-232,030	316,426	0,074	-0,100
-231,015	-191,776	-0,088	-0,001
-230,000	81,179	-0,040	-0,030
-228,986	-200,000	-0,004	0,093
-227,971	371,487	0,064	0,093
-226,957	800,000	-0,069	0,164
-225,942	-200,000	0,025	0,190
-224,927	-82,500	0,161	-0,037
-223,913	-200,000	-0,002	-0,123
-222,898	800,000	-0,071	-0,193
-221,884	-24,330	0,022	0,010
-220,869	36,546	0,095	0,060
-219,855	-200,000	-0,007	0,035
-218,840	44,830	0,177	-0,116
-217,825	3,553	-0,036	0,019
-216,811	177,274	-0,104	-0,108
-215,796	47,700	0,030	-0,020
-214,782	77,498	0,092	0,070
-213,767	800,000	-0,071	0,166
-212,752	391,571	0,035	0,051
-211,738	388,815	0,023	0,034
-210,723	78,825	-0,050	-0,038
-209,709	-200,000	-0,055	-0,207
-208,694	-200,000	-0,022	-0,079
-207,679	800,000	-0,044	-0,091
-206,665	197,030	0,051	0,055
-205,650	-200,000	0,053	-0,196
-204,636	191,397	0,056	0,060
-203,621	-136,002	-0,213	-0,018
-202,606	241,917	-0,089	-0,106
-201,592	800,000	-0,010	-0,020
-200,577	185,317	0,076	-0,081
-199,563	65,855	0,041	-0,030
-198,548	-4,789	0,077	-0,038
-197,533	800,000	-0,066	0,194
-196,519	2,114	0,083	0,042
-195,504	-90,745	0,121	0,025
-194,490	-35,305	-0,029	-0,011
-193,475	294,908	0,034	0,044
-192,460	272,258	-0,089	0,113
-191,446	-119,461	0,105	-0,013
-190,431	800,000	-0,026	0,080
-189,417	0,410	-0,072	-0,036
-188,402	800,000	0,030	-0,080
-187,387	-200,000	0,025	-0,158
-186,373	265,304	-0,048	0,059
-185,358	-52,934	0,018	-0,006
-184,344	800,000	0,035	0,073
-183,329	5,562	-0,082	0,043
-182,315	-112,975	0,079	-0,011
-181,300	156,851	-0,058	-0,058
-180,285	800,000	0,042	-0,109
-179,271	-200,000	-0,011	-0,063
-178,256	-35,179	-0,084	0,032
-177,242	-88,169	0,104	-0,022
-176,227	381,376	-0,073	0,108
-175,212	800,000	-0,028	0,075
-174,198	9,193	0,052	0,028
-173,183	-63,727	0,051	0,015
-172,169	30,834	-0,072	-0,044
-171,154	58,278	0,013	-0,009
-170,139	-200,000	0,006	-0,088
-169,125	574,418	-0,022	0,039
-168,110	326,597	0,022	0,030
-167,096	362,595	0,027	-0,039
-166,081	305,406	-0,017	0,022
-165,066	261,491	-0,070	-0,086
-164,052	5,605	-0,077	-0,040
-163,037	-200,000	-0,006	0,080
-162,023	-64,497	0,115	-0,033
-161,008	-200,000	-0,015	0,106
-159,993	-200,000	-0,005	0,164
-158,979	-200,000	0,004	0,014
-157,964	-30,177	0,052	-0,021
-156,950	-19,985	-0,121	0,053
-155,935	173,151	0,060	-0,062
-154,920	676,912	0,040	0,073
-153,906	-100,923	-0,030	-0,005
-152,891	-200,000	-0,013	0,074
-151,877	61,671	-0,140	0,099
-150,862	22,627	-0,116	0,067
-149,847	104,062	0,022	0,018
-148,833	-200,000	0,004	0,062
-147,818	-65,914	-0,137	-0,039
-146,804	344,653	0,035	0,048
-145,789	6,784	-0,051	0,027
-144,775	574,134	-0,078	-0,137
-143,760	207,347	-0,015	0,016
-142,745	-200,000	0,015	0,143
-141,731	-200,000	0,002	-0,056
-140,716	-200,000	0,010	-0,110
-139,702	632,429	-0,013	0,024
-138,687	36,692	0,145	0,091
-137,672	40,992	-0,044	0,028
-136,658	-143,535	0,042	-0,003
-135,643	97,362	0,007	-0,006
-134,629	-200,000	-0,025	-0,091
-133,614	800,000	-0,061	-0,151
-132,599	-200,000	-0,010	0,200
-131,585	800,000	-0,015	0,042
-130,570	800,000	0,027	-0,082
-129,556	-138,190	-0,102	0,008
-128,541	6,190	0,030	0,016
-127,526	289,178	-0,052	0,067
-126,512	-130,091	0,058	-0,006
-125,497	-200,000	-0,012	0,157
-124,483	294,473	-0,016	-0,021
-123,468	236,632	0,088	0,103
-122,453	-200,000	-0,066	-0,265
-121,439	-200,000	-0,019	-0,112
-120,424	-200,000	0,020	-0,113
-119,410	-200,000	-0,004	0,089
