DTS Sentinel unit serial number:	SN410029Multiplexer serial number:	ORYXHardware model number:	OX2-SRSoftware version number:	ORYX F/W v4,00 Oryx Data Collector v3.7.2.0data status	okinstallation	BH3 CH2differential loss correction	single-endedforward channel	channel 2reverse channel	N/Adate	2023/12/05time	19:47:28forward acquisition time	300,00reverse acquisition time	0,00gamma	499,1914k internal	0,3194k external	0,3194temperature offset calibration	1,0000default loss term (dB/km)	0,3820temperature slope calibration	1,0000multiplexer offset coefficient	1,0000multiplexer slope coefficient	1,0000fibre end	0,00T internal ref (°C)	10,62T ext. ref 1 (°C)	-3,94T ext. ref 2 (°C)	-4,08length (m)	temperature (°C)	Stokes	anti-Stokes-744,400	-200,000	-0,017	-0,149
-743,385	-42,703	-0,162	0,060
-742,371	-200,000	0,003	0,052
-741,356	114,012	-0,177	0,157
-740,342	84,460	0,035	-0,028
-739,327	-29,072	-0,196	0,082
-738,312	-94,180	-0,090	-0,018
-737,298	75,236	-0,198	0,152
-736,283	-61,614	0,055	-0,017
-735,269	-35,995	-0,260	0,102
-734,254	75,170	0,099	-0,076
-733,239	-107,536	-0,372	-0,059
-732,225	-200,000	0,028	-0,175
-731,210	-75,452	0,161	0,041
-730,196	-200,000	0,028	-0,094
-729,181	41,949	-0,044	-0,029
-728,167	-62,088	-0,141	0,042
-727,152	484,271	-0,051	-0,084
-726,137	-6,113	-0,062	-0,031
-725,123	-111,550	-0,113	0,017
-724,108	-74,538	-0,052	-0,014
-723,094	529,969	0,023	-0,040
-722,079	561,263	-0,036	-0,063
-721,064	-61,130	-0,054	0,016
-720,050	75,012	-0,045	0,035
-719,035	-200,000	0,019	-0,062
-718,021	-200,000	-0,006	-0,020
-717,006	86,972	0,122	-0,098
-715,991	-95,874	-0,118	-0,023
-714,977	800,000	-0,023	-0,071
-713,962	568,533	-0,062	-0,109
-712,948	-200,000	0,002	-0,043
-711,933	-159,050	0,095	0,004
-710,918	246,448	0,027	-0,034
-709,904	-200,000	-0,010	-0,193
-708,889	-200,000	0,031	-0,147
-707,875	-200,000	-0,017	-0,107
-706,860	-20,120	-0,142	-0,063
-705,845	-93,229	0,008	0,002
-704,831	33,564	0,074	-0,047
-703,816	5,497	-0,172	0,092
-702,802	-168,597	-0,226	0,006
-701,787	68,169	-0,084	-0,063
-700,772	-47,362	-0,056	0,020
-699,758	-177,404	-0,127	0,002
-698,743	800,000	-0,024	0,073
-697,729	57,240	0,113	0,080
-696,714	800,000	0,027	-0,078
-695,699	-200,000	-0,014	0,058
-694,685	79,487	0,110	0,086
-693,670	-44,323	-0,109	0,039
-692,656	-200,000	0,000	0,127
-691,641	-125,750	0,149	0,016
-690,627	615,656	-0,037	0,067
-689,612	-90,327	0,182	0,038
-688,597	800,000	-0,019	-0,051
-687,583	108,420	-0,164	-0,143
-686,568	-200,000	-0,003	-0,112
-685,554	800,000	-0,070	-0,173
-684,539	-126,640	0,017	0,002
-683,524	-84,489	0,058	-0,013
-682,510	-91,647	-0,099	0,020
-681,495	-200,000	-0,010	-0,058
-680,481	-70,310	0,088	-0,024
-679,466	-77,485	-0,098	-0,025
-678,451	-200,000	0,032	-0,104
-677,437	-200,000	0,048	0,153
-676,422	-161,487	0,117	0,004
-675,408	-17,903	-0,050	-0,023
-674,393	-200,000	0,046	-0,169
-673,378	54,145	-0,084	0,058
-672,364	-200,000	-0,011	-0,067
-671,349	800,000	-0,038	0,092
-670,335	448,804	-0,023	0,038
-669,320	-54,619	0,129	-0,042
-668,305	-200,000	0,002	0,078
-667,291	59,560	-0,153	0,110
-666,276	396,796	-0,056	-0,085
-665,262	800,000	-0,055	-0,131
-664,247	258,039	-0,054	0,068
-663,232	-178,511	-0,161	-0,003
-662,218	34,483	-0,064	0,040
-661,203	71,439	0,061	-0,046
-660,189	238,104	-0,069	0,084
-659,174	-10,072	-0,004	-0,002
-658,159	430,736	-0,098	-0,154
-657,145	800,000	0,010	0,026
-656,130	800,000	0,051	-0,104
-655,116	-200,000	0,010	-0,049
-654,101	591,555	-0,029	-0,052
-653,086	-129,848	-0,014	-0,001
-652,072	132,914	-0,048	-0,045
-651,057	461,398	-0,066	-0,107
-650,043	-128,436	-0,046	-0,005
-649,028	800,000	0,016	0,043
-648,014	-106,815	0,100	-0,016
-646,999	104,366	-0,035	0,030
-645,984	800,000	-0,040	0,092
-644,970	43,247	-0,102	-0,068
-643,955	-200,000	-0,037	-0,222
-642,941	-54,374	0,037	-0,012
-641,926	204,480	0,103	0,116
-640,911	-42,482	-0,061	-0,022
-639,897	-80,910	0,136	-0,033
-638,882	15,195	-0,083	-0,047
-637,868	-200,000	0,025	-0,085
-636,853	-15,633	-0,064	-0,029
-635,838	800,000	0,050	-0,132
-634,824	-139,468	-0,102	0,008
-633,809	312,040	0,110	-0,151
-632,795	800,000	-0,043	0,098
-631,780	800,000	0,013	0,027
-630,765	629,385	-0,048	-0,088
-629,751	-39,662	-0,106	-0,040
-628,736	-200,000	0,021	-0,068
-627,722	57,940	-0,028	0,020
-626,707	5,042	0,089	0,047
-625,692	-97,911	-0,176	-0,033
-624,678	-2,833	0,033	-0,017
-623,663	800,000	0,042	-0,111
-622,649	-76,407	-0,063	0,016
-621,634	-87,964	-0,105	-0,023
-620,619	-128,639	-0,070	-0,007
-619,605	454,154	0,019	-0,031
-618,590	-200,000	-0,010	0,087
-617,576	319,995	-0,050	0,070
-616,561	-114,727	0,082	0,011
-615,546	-200,000	-0,005	0,047
-614,532	-200,000	0,045	-0,174
-613,517	-128,779	-0,139	0,014
-612,503	-21,915	0,083	-0,036
-611,488	185,302	0,013	-0,014
-610,474	1,499	-0,080	0,042
-609,459	-0,878	0,017	-0,009
-608,444	-117,810	-0,047	-0,006
-607,430	-117,054	-0,168	0,022
-606,415	-200,000	0,014	-0,117
-605,401	-74,534	0,052	0,013
-604,386	-70,447	0,099	0,027
-603,371	2,698	0,153	0,080
-602,357	-200,000	-0,001	-0,034
-601,342	751,122	-0,075	-0,148
-600,328	-200,000	0,021	-0,080
-599,313	103,860	-0,146	-0,125
-598,298	-10,488	0,162	-0,077
-597,284	169,684	-0,137	0,142
-596,269	-200,000	-0,020	0,156
-595,255	469,304	0,065	0,106
-594,240	-157,085	0,103	-0,004
-593,225	-200,000	0,012	-0,060
-592,211	484,733	0,027	0,046
-591,196	-11,382	-0,029	-0,014
-590,182	380,890	-0,039	0,058
-589,167	-200,000	-0,022	0,098
-588,152	234,732	-0,065	-0,077
-587,138	-85,049	-0,100	-0,022
-586,123	-200,000	0,002	0,024
-585,109	-200,000	0,020	-0,107
-584,094	-200,000	0,001	0,012
-583,079	-10,484	0,069	0,033
-582,065	-149,240	0,077	-0,004
-581,050	-85,301	0,131	0,029
-580,036	-200,000	0,018	-0,107
-579,021	-17,314	0,031	0,014
-578,006	266,279	-0,070	-0,089
-576,992	-12,956	-0,094	-0,044
-575,977	800,000	0,060	0,126
-574,963	800,000	-0,026	-0,058
-573,948	800,000	0,016	0,046
-572,934	186,243	-0,093	0,100
-571,919	800,000	0,032	-0,087
-570,904	-85,692	-0,033	0,007
-569,890	-49,498	0,088	-0,030
-568,875	-200,000	0,013	0,063
-567,861	800,000	0,020	0,060
-566,846	-200,000	-0,015	-0,050
-565,831	107,898	-0,025	-0,022
-564,817	522,619	0,037	0,064
-563,802	130,004	-0,122	0,113
-562,788	-116,458	-0,082	0,011
-561,773	-99,604	0,128	-0,023
-560,758	106,355	0,141	0,121
-559,744	800,000	0,061	0,149
-558,729	-27,068	-0,058	-0,025
-557,715	-200,000	-0,004	0,127
-556,700	216,515	-0,052	-0,060
-555,685	18,288	0,085	0,049
-554,671	-34,905	0,067	-0,026
-553,656	-96,761	0,152	0,029
-552,642	-200,000	0,009	0,089
-551,627	577,994	0,035	0,062
-550,612	-200,000	0,001	-0,025
-549,598	184,599	-0,026	-0,028
-548,583	733,237	-0,017	-0,033
-547,569	800,000	-0,027	0,064
-546,554	316,524	0,185	0,253
-545,539	78,892	-0,045	-0,035
-544,525	380,271	0,050	-0,075
-543,510	1,920	-0,063	0,033
-542,496	516,714	0,068	0,115
-541,481	20,207	0,061	0,036
-540,466	-60,187	-0,082	0,025
-539,452	-200,000	0,005	0,028
-538,437	98,877	0,072	-0,060
-537,423	512,733	-0,091	0,155
-536,408	-1,996	-0,139	-0,070
-535,393	88,889	0,165	0,133
-534,379	80,363	0,074	-0,057
-533,364	126,006	-0,045	0,041
-532,350	-70,844	0,145	0,039
-531,335	66,741	0,124	0,091
-530,321	-142,014	0,114	0,008
-529,306	-200,000	0,001	-0,018
-528,291	800,000	0,046	-0,130
-527,277	302,401	-0,117	0,157
-526,262	-73,554	0,048	0,013
-525,248	800,000	-0,016	0,035
-524,233	800,000	-0,041	0,082
-523,218	800,000	-0,021	-0,042
-522,204	136,333	0,060	0,057
-521,189	-200,000	-0,031	-0,171
-520,175	104,230	0,072	-0,061
-519,160	-200,000	-0,037	-0,124
-518,145	-200,000	0,007	-0,029
-517,131	-75,221	0,099	0,025
-516,116	-25,549	-0,100	0,042
-515,102	-200,000	0,018	-0,108
-514,087	-99,321	-0,110	0,020
-513,072	-163,973	-0,290	0,010
-512,058	480,513	0,081	-0,133
-511,043	800,000	0,057	0,141
-510,029	-83,148	0,108	0,025
-509,014	25,237	-0,100	0,060
-507,999	800,000	0,014	0,030
-506,985	-200,000	0,008	0,036
-505,970	350,895	0,070	-0,101
-504,956	-200,000	0,031	-0,103
-503,941	-200,000	-0,006	-0,029
-502,926	-142,119	-0,056	0,004
-501,912	-200,000	0,042	0,157
-500,897	-63,534	0,127	0,038
-499,883	150,569	0,051	0,050
-498,868	800,000	-0,035	0,088
-497,853	-122,758	0,086	0,010
-496,839	20,633	0,024	0,014
-495,824	697,283	-0,073	0,140
-494,810	-142,409	0,045	-0,003
-493,795	-200,000	0,005	-0,101
-492,781	-88,147	0,083	0,018
-491,766	311,120	0,112	0,152
-490,751	800,000	-0,023	-0,066
-489,737	-43,359	0,042	0,015
-488,722	442,727	0,049	-0,078
-487,708	-51,529	0,080	-0,027
-486,693	422,040	0,046	-0,072
-485,678	-61,127	-0,072	-0,022
-484,664	-200,000	-0,006	-0,242
-483,649	41,947	-0,097	-0,063
-482,635	225,762	0,045	-0,052
-481,620	310,897	-0,029	-0,039
-480,605	-200,000	0,003	-0,090
-479,591	34,244	-0,036	0,023
-478,576	800,000	-0,015	-0,034
-477,562	-26,291	-0,119	-0,050
-476,547	30,203	-0,098	0,060
-475,532	-200,000	0,003	-0,012
-474,518	-109,424	-0,172	-0,026
-473,503	58,379	0,100	0,070
-472,489	800,000	0,006	0,015
-471,474	-200,000	-0,083	0,000
-470,459	-200,000	0,013	-0,081
-469,445	800,000	-0,046	-0,115
-468,430	123,022	-0,077	-0,069
-467,416	483,655	-0,065	-0,107
-466,401	18,770	0,073	-0,042
-465,386	-146,094	0,149	-0,009
-464,372	381,946	0,068	-0,101
-463,357	145,194	0,049	0,047
-462,343	-7,466	-0,034	-0,016
-461,328	-200,000	0,025	0,124
-460,313	-200,000	-0,001	0,047
-459,299	-74,237	0,055	0,014
-458,284	-200,000	-0,029	0,102
-457,270	1,802	-0,115	0,060
-456,255	-75,285	-0,113	-0,029
-455,241	800,000	0,018	-0,045
-454,226	224,831	0,069	-0,080
-453,211	-105,552	0,112	-0,018
-452,197	-29,877	0,119	0,049
-451,182	338,083	-0,059	-0,083
-450,168	274,549	-0,071	0,091
-449,153	-200,000	-0,029	-0,099
-448,138	-4,723	-0,184	-0,091
-447,124	432,194	0,044	-0,069
-446,109	158,874	-0,059	-0,059
-445,095	-200,000	-0,004	-0,128
-444,080	800,000	0,006	-0,014
-443,065	-66,706	0,054	0,015
-442,051	114,755	-0,063	-0,055
-441,036	597,507	-0,025	0,045
-440,022	-18,370	-0,094	-0,042
-439,007	251,917	-0,041	-0,050
-437,992	580,547	0,068	-0,120
-436,978	-107,650	-0,072	-0,011
-435,963	-45,741	-0,115	0,041
-434,949	800,000	-0,014	-0,038
-433,934	365,080	-0,041	-0,059
-432,919	150,952	0,052	0,051
-431,905	-200,000	0,002	0,084
-430,890	186,634	0,080	0,085
-429,876	289,477	-0,031	0,041
-428,861	448,143	0,078	0,124
-427,846	-30,589	0,024	0,010
-426,832	295,637	-0,128	-0,169
-425,817	15,090	0,031	-0,018
-424,803	-10,423	0,030	0,014
-423,788	722,007	-0,019	-0,037
-422,773	10,413	0,069	0,037
-421,759	-1,373	-0,147	-0,074
-420,744	-79,337	0,054	0,013
-419,730	265,109	-0,059	-0,074
-418,715	-137,477	-0,103	0,008
-417,701	800,000	-0,026	-0,063
-416,686	229,314	0,079	-0,092
-415,671	542,577	-0,022	0,038
-414,657	-63,402	-0,048	0,014
-413,642	383,385	0,091	0,135
-412,628	-200,000	-0,003	-0,022
-411,613	85,551	0,052	-0,041
-410,598	168,837	-0,035	-0,036
-409,584	-200,000	-0,005	-0,071
-408,569	527,089	0,055	-0,093
-407,555	200,734	-0,012	-0,013
-406,540	-200,000	-0,011	0,084
-405,525	65,459	-0,100	0,073
-404,511	-60,963	0,079	-0,024
-403,496	-30,098	-0,025	-0,010
-402,482	-52,542	0,126	0,042
-401,467	71,072	-0,032	0,024
-400,452	800,000	0,020	-0,059
-399,438	161,404	0,048	0,048
-398,423	800,000	-0,025	-0,080
-397,409	-7,530	-0,062	-0,030
-396,394	-200,000	0,017	-0,081
-395,379	-200,000	0,007	-0,024
-394,365	-200,000	-0,027	0,091
-393,350	-200,000	-0,048	0,165
-392,336	150,834	-0,081	0,080
-391,321	784,926	-0,052	0,103
-390,306	113,897	-0,084	-0,074
-389,292	-56,473	-0,128	0,040
-388,277	-200,000	-0,022	0,076
-387,263	99,864	0,083	0,069
-386,248	137,768	0,081	0,077
-385,233	735,647	0,056	0,108
-384,219	21,409	-0,045	-0,026
-383,204	26,176	-0,160	-0,096
-382,190	-79,299	0,104	0,025
-381,175	330,912	0,010	0,014
-380,160	-200,000	0,034	-0,130
-379,146	32,930	0,057	0,036
-378,131	108,044	0,089	-0,076
-377,117	71,184	0,077	-0,058
-376,102	495,001	-0,077	-0,127
-375,088	-200,000	-0,020	-0,124
-374,073	322,596	-0,039	-0,054
-373,058	795,377	-0,012	0,024
-372,044	-200,000	-0,011	0,188
-371,029	23,243	-0,028	0,016
-370,015	-200,000	-0,003	-0,045
-369,000	327,653	-0,039	-0,054
-367,985	-200,000	-0,002	0,073
-366,971	335,822	0,006	-0,008
-365,956	11,042	-0,033	-0,018
-364,942	502,508	0,101	0,168
-363,927	-71,306	0,015	-0,004
-362,912	127,385	0,019	-0,017
-361,898	-71,949	0,125	-0,033
-360,883	32,094	-0,037	-0,023
-359,869	7,528	-0,029	0,016
-358,854	25,960	0,056	-0,033
-357,839	-200,000	-0,016	-0,063
-356,825	-200,000	0,020	-0,069
-355,810	-200,000	0,016	-0,074
-354,796	-200,000	0,006	-0,030
-353,781	-43,068	-0,025	0,009
-352,766	-200,000	0,055	-0,278
-351,752	21,046	-0,009	0,005
-350,737	-58,538	-0,015	0,005
-349,723	-200,000	0,005	0,082
-348,708	-134,711	0,046	0,004
-347,693	-33,017	-0,141	0,056
-346,679	-200,000	-0,017	0,106
-345,664	-200,000	-0,023	0,189
-344,650	66,300	0,095	0,069
-343,635	-200,000	0,010	0,064
-342,620	-200,000	0,002	0,061
-341,606	-200,000	0,025	0,124
-340,591	-200,000	-0,021	0,106
-339,577	63,850	-0,054	0,039
-338,562	-100,179	0,097	0,017
-337,548	-200,000	0,011	-0,043
-336,533	53,071	-0,039	0,027
-335,518	-72,366	0,117	0,031
-334,504	27,157	-0,059	0,035
-333,489	-15,436	0,071	-0,033
-332,475	19,404	-0,076	-0,044
-331,460	164,509	-0,111	-0,113
-330,445	800,000	0,010	0,025
-329,431	-111,356	-0,044	-0,006
-328,416	-135,494	0,153	0,013
-327,402	-200,000	-0,001	-0,136
-326,387	-200,000	0,022	-0,089
-325,372	474,603	-0,039	0,064
-324,358	-200,000	0,005	0,025
-323,343	-200,000	-0,029	-0,122
-322,329	-52,464	0,158	0,052
-321,314	-200,000	-0,040	0,129
-320,299	-90,189	0,093	0,019
-319,285	-114,362	-0,069	0,009
-318,270	-200,000	0,034	-0,190
-317,256	-127,986	-0,072	-0,007
-316,241	26,811	-0,130	-0,078
-315,226	276,903	0,018	0,024
-314,212	-7,458	0,045	-0,022
-313,197	800,000	-0,009	0,019
-312,183	-148,951	0,052	0,003
-311,168	-172,969	-0,109	0,002
-310,153	-42,763	0,080	-0,029
-309,139	107,215	0,054	-0,046
-308,124	-116,936	-0,089	0,012
-307,110	-27,158	0,116	0,048
-306,095	-200,000	-0,007	0,064
-305,080	125,420	-0,114	0,104
-304,066	160,285	-0,034	-0,034
-303,051	187,617	0,022	-0,024
-302,037	765,741	-0,048	0,094
-301,022	144,749	0,066	0,063
-300,008	-200,000	-0,028	-0,105
-298,993	44,410	0,060	0,040
-297,978	-11,805	-0,122	0,057
-296,964	15,540	-0,102	-0,057
-295,949	-135,871	0,164	0,014
-294,935	-41,324	-0,030	-0,011
-293,920	-200,000	-0,019	0,064
-292,905	-200,000	-0,006	0,032
-291,891	42,352	0,020	0,013
-290,876	-200,000	0,000	-0,008
-289,862	-200,000	-0,018	-0,109
-288,847	-200,000	-0,007	0,163
-287,832	-44,464	-0,203	-0,072
-286,818	-200,000	-0,005	0,027
-285,803	-200,000	-0,025	-0,084
-284,789	-149,208	0,044	-0,002
-283,774	-129,845	0,052	-0,005
-282,759	364,339	0,013	0,018
-281,745	-200,000	-0,032	-0,104
-280,730	55,398	0,058	0,040
-279,716	552,351	-0,027	0,047
-278,701	-138,328	0,017	-0,001
-277,686	358,475	0,102	0,146
-276,672	17,577	-0,003	-0,002
-275,657	-200,000	-0,003	0,137
-274,643	31,412	-0,072	-0,044
-273,628	800,000	-0,042	-0,087
-272,613	90,601	-0,101	-0,081
-271,599	583,621	0,063	-0,111
-270,584	341,243	0,055	0,077
-269,570	-200,000	-0,049	0,173
-268,555	-200,000	0,006	-0,022
-267,540	800,000	-0,003	0,008
-266,526	-200,000	0,008	-0,088
-265,511	694,409	0,025	-0,048
-264,497	-87,285	-0,019	-0,004
-263,482	-106,222	0,044	0,007
-262,467	2,793	-0,074	-0,038
-261,453	-56,883	0,073	0,023
-260,438	-134,250	0,082	-0,007
-259,424	-142,551	-0,062	0,004
-258,409	-37,247	-0,126	-0,048
-257,395	-117,322	0,099	-0,013
-256,380	144,812	-0,061	0,058
-255,365	-82,339	0,113	-0,026
-254,351	-113,538	0,098	0,014
-253,336	26,936	0,043	-0,026
-252,322	61,199	0,012	0,009
-251,307	48,372	-0,073	-0,049
-250,292	-68,034	-0,047	-0,013
-249,278	75,088	0,038	-0,029
-248,263	800,000	0,050	0,143
-247,249	272,417	0,043	-0,055
-246,234	-148,503	-0,037	0,002
-245,219	34,347	0,040	-0,025
-244,205	-14,281	-0,084	-0,039
-243,190	689,907	0,097	0,183
-242,176	-200,000	0,016	-0,071
-241,161	275,706	-0,079	0,100
-240,146	-200,000	0,000	0,024
-239,132	-130,811	-0,155	-0,015
-238,117	73,910	0,079	-0,059
-237,103	570,631	-0,009	-0,016
-236,088	166,881	0,114	-0,115
-235,073	-200,000	0,036	-0,121
-234,059	-20,712	0,087	-0,038
-233,044	-51,737	-0,121	0,040
-232,030	800,000	-0,008	0,021
-231,015	790,332	-0,089	-0,176
-230,000	11,084	0,059	-0,032
-228,986	800,000	-0,056	0,154
-227,971	800,000	-0,013	-0,033
-226,957	10,427	0,071	0,038
-225,942	658,631	-0,114	0,211
-224,927	138,461	-0,045	-0,042
-223,913	6,358	-0,218	-0,115
-222,898	-105,106	0,018	-0,003
-221,884	233,795	0,034	-0,040
-220,869	-200,000	-0,034	-0,108
-219,855	800,000	-0,007	-0,015
-218,840	-200,000	-0,009	0,043
-217,825	-52,337	0,031	0,010
-216,811	14,675	0,050	0,028
-215,796	-41,698	-0,155	0,056
-214,782	163,433	0,086	-0,086
-213,767	83,232	0,078	-0,061
-212,752	800,000	0,023	0,052
-211,738	800,000	-0,048	0,116
-210,723	99,634	0,069	0,057
-209,709	-57,009	-0,117	0,036
-208,694	-11,494	-0,247	-0,116
-207,679	-162,512	0,056	0,002
-206,665	47,472	0,084	0,056
-205,650	104,040	0,080	0,067
-204,636	-135,730	0,027	0,002
-203,621	37,692	0,090	-0,057
-202,606	67,498	-0,057	-0,041
-201,592	-59,892	-0,093	0,028
-200,577	-62,090	0,044	-0,013
-199,563	-200,000	0,006	0,041
-198,548	-82,712	0,052	0,012
-197,533	-65,526	-0,105	0,030
-196,519	-25,956	0,083	0,035
-195,504	339,318	0,037	-0,051
-194,490	329,344	-0,034	0,047
-193,475	-200,000	0,024	0,116
-192,460	800,000	0,014	0,040
-191,446	73,570	0,025	-0,019
-190,431	-2,440	0,106	0,053
-189,417	538,400	0,024	0,040
-188,402	380,223	0,050	-0,074
-187,387	-200,000	0,003	0,078
-186,373	-23,057	-0,095	-0,041
-185,358	-3,634	0,044	0,022
-184,344	-200,000	-0,001	0,013
-183,329	-123,581	-0,044	-0,005
-182,315	-200,000	0,015	-0,053
-181,300	-200,000	-0,033	-0,149
-180,285	31,896	0,109	0,067
-179,271	-200,000	-0,018	0,069
-178,256	-144,929	-0,068	-0,004
-177,242	109,487	0,017	0,014
-176,227	-200,000	0,023	0,222
-175,212	-200,000	0,034	0,155
-174,198	-200,000	0,008	-0,047
-173,183	800,000	0,045	-0,126
-172,169	193,973	0,016	-0,017
-171,154	324,540	0,065	0,088
-170,139	-200,000	-0,009	-0,065
-169,125	-108,251	-0,160	0,024
-168,110	-167,654	0,080	-0,002
-167,096	54,803	0,042	-0,029
-166,081	-200,000	-0,009	0,119
-165,066	-113,224	0,054	0,008
-164,052	-150,723	0,064	0,003
-163,037	800,000	0,012	-0,025
-162,023	-49,994	0,079	-0,027
-161,008	800,000	0,023	-0,053
-159,993	12,010	-0,122	0,067
-158,979	-116,721	0,079	-0,010
-157,964	-74,293	-0,036	-0,009
-156,950	366,799	-0,076	-0,110
-155,935	-200,000	-0,025	0,096
-154,920	-200,000	0,014	0,077
-153,906	3,309	0,021	0,011
-152,891	-164,523	-0,170	-0,005
-151,877	-200,000	-0,006	-0,056
-150,862	-70,319	-0,069	0,019
-149,847	-83,310	0,068	-0,015
-148,833	147,669	0,018	-0,017
-147,818	-200,000	0,017	0,072
-146,804	-200,000	-0,020	-0,092
-145,789	-10,031	-0,088	0,042
-144,775	93,619	-0,046	-0,037
-143,760	-4,234	-0,083	-0,041
-142,745	800,000	-0,040	-0,080
-141,731	-15,565	-0,133	-0,060
-140,716	-101,655	0,126	-0,022
-139,702	272,198	0,042	0,053
-138,687	-97,180	0,103	0,019
-137,672	116,337	-0,035	0,031
-136,658	575,072	-0,023	-0,040
-135,643	279,808	-0,055	-0,070
-134,629	-200,000	0,005	-0,149
-133,614	-172,932	0,048	0,001
-132,599	320,430	0,043	0,058
-131,585	186,781	-0,060	-0,063
-130,570	16,993	-0,124	0,070
-129,556	-82,325	0,066	0,015
-128,541	283,107	-0,065	-0,084
-127,526	-132,809	0,034	0,003
-126,512	41,946	0,140	0,090
-125,497	698,052	0,046	0,087
-124,483	20,356	-0,094	0,054
-123,468	15,417	-0,066	-0,037
-122,453	800,000	0,032	0,082
-121,439	-73,798	-0,101	-0,026
-120,424	-200,000	0,001	0,130
-119,410	-120,378	-0,119	-0,014
