DTS Sentinel unit serial number:	SN410029Multiplexer serial number:	ORYXHardware model number:	OX2-SRSoftware version number:	ORYX F/W v4,00 Oryx Data Collector v3.7.2.0data status	okinstallation	BH3 CH2differential loss correction	single-endedforward channel	channel 2reverse channel	N/Adate	2023/12/06time	01:12:28forward acquisition time	300,00reverse acquisition time	0,00gamma	499,1914k internal	0,3196k external	0,3196temperature offset calibration	1,0000default loss term (dB/km)	0,3820temperature slope calibration	1,0000multiplexer offset coefficient	1,0000multiplexer slope coefficient	1,0000fibre end	0,00T internal ref (°C)	9,27T ext. ref 1 (°C)	-5,68T ext. ref 2 (°C)	-5,76length (m)	temperature (°C)	Stokes	anti-Stokes-744,400	-123,847	-0,088	-0,010
-743,385	-158,475	-0,221	0,009
-742,371	800,000	0,077	-0,165
-741,356	-200,000	-0,034	0,256
-740,342	-149,934	0,131	0,007
-739,327	-1,332	-0,245	0,126
-738,312	90,184	-0,130	-0,105
-737,298	-128,547	-0,186	-0,019
-736,283	26,114	-0,119	-0,072
-735,269	-149,784	-0,201	0,011
-734,254	-200,000	0,016	-0,157
-733,239	-77,579	-0,261	-0,065
-732,225	800,000	0,028	-0,080
-731,210	800,000	-0,041	0,098
-730,196	800,000	0,032	-0,100
-729,181	70,509	-0,062	0,047
-728,167	-188,657	-0,036	-0,000
-727,152	-119,837	-0,022	-0,003
-726,137	138,180	-0,079	0,076
-725,123	-105,379	-0,039	0,006
-724,108	-23,278	-0,063	-0,028
-723,094	224,797	-0,116	-0,136
-722,079	78,514	0,100	-0,078
-721,064	372,519	0,084	-0,125
-720,050	127,604	0,037	0,034
-719,035	-182,125	-0,132	-0,002
-718,021	510,528	0,047	-0,080
-717,006	17,229	-0,088	-0,050
-715,991	-21,163	0,073	-0,032
-714,977	280,268	-0,056	0,073
-713,962	-52,404	0,048	-0,016
-712,948	-200,000	0,017	-0,087
-711,933	4,752	-0,059	-0,031
-710,918	47,051	-0,023	-0,016
-709,904	270,670	0,046	0,058
-708,889	240,490	-0,039	-0,048
-707,875	-18,891	-0,040	0,018
-706,860	-68,453	0,137	0,038
-705,845	4,821	-0,093	0,050
-704,831	-102,464	0,094	-0,016
-703,816	234,370	-0,068	0,082
-702,802	119,599	0,073	0,065
-701,787	288,259	-0,061	0,081
-700,772	800,000	-0,094	-0,193
-699,758	-1,900	0,083	-0,042
-698,743	188,514	0,109	0,118
-697,729	800,000	-0,036	-0,100
-696,714	726,382	-0,031	-0,061
-695,699	23,547	-0,133	-0,079
-694,685	42,886	0,053	0,035
-693,670	-59,466	0,075	-0,023
-692,656	-200,000	-0,052	0,177
-691,641	-200,000	0,043	-0,197
-690,627	-60,533	0,182	0,056
-689,612	800,000	0,025	-0,060
-688,597	-37,228	0,064	0,025
-687,583	-91,867	-0,075	0,015
-686,568	-143,251	0,048	-0,003
-685,554	439,590	-0,095	-0,151
-684,539	-200,000	0,022	0,109
-683,524	1,388	0,086	-0,045
-682,510	-22,885	-0,077	-0,033
-681,495	50,942	-0,131	0,090
-680,481	43,406	0,043	-0,029
-679,466	-61,638	-0,041	-0,012
-678,451	-200,000	-0,016	-0,122
-677,437	66,253	-0,026	-0,019
-676,422	-85,818	0,083	-0,019
-675,408	107,715	0,101	-0,087
-674,393	27,290	-0,133	-0,081
-673,378	174,377	-0,042	-0,044
-672,364	-200,000	0,007	0,037
-671,349	553,882	-0,034	-0,060
-670,335	-44,844	0,075	-0,027
-669,320	-36,467	0,145	-0,056
-668,305	98,649	-0,030	-0,025
-667,291	53,451	0,141	0,098
-666,276	-200,000	0,010	-0,076
-665,262	278,873	-0,051	-0,066
-664,247	-200,000	0,020	0,152
-663,232	-183,980	-0,045	-0,001
-662,218	-95,481	0,072	0,014
-661,203	-200,000	0,040	0,180
-660,189	12,093	-0,071	0,039
-659,174	-155,404	-0,031	0,001
-658,159	-87,858	-0,109	-0,024
-657,145	-200,000	0,001	-0,109
-656,130	90,085	-0,077	-0,063
-655,116	49,776	-0,026	0,018
-654,101	519,642	0,096	0,163
-653,086	221,362	0,039	-0,045
-652,072	-62,740	-0,068	-0,020
-651,057	18,858	-0,188	-0,109
-650,043	414,018	0,026	0,041
-649,028	289,940	-0,083	-0,109
-648,014	-108,535	0,042	-0,006
-646,999	450,637	-0,039	-0,063
-645,984	777,830	-0,024	0,047
-644,970	-75,654	-0,040	-0,010
-643,955	-200,000	-0,038	-0,128
-642,941	-200,000	-0,015	-0,068
-641,926	-200,000	-0,003	-0,045
-640,911	-122,104	0,102	0,012
-639,897	452,941	0,061	-0,099
-638,882	-200,000	0,015	0,104
-637,868	-115,499	0,039	0,005
-636,853	-200,000	-0,008	-0,070
-635,838	667,451	0,063	-0,119
-634,824	156,934	-0,099	0,099
-633,809	475,475	0,033	0,054
-632,795	-55,213	0,055	-0,018
-631,780	800,000	0,065	0,143
-630,765	800,000	0,044	-0,091
-629,751	487,376	-0,045	-0,074
-628,736	164,748	-0,112	-0,114
-627,722	695,647	0,014	-0,027
-626,707	-28,725	0,121	-0,050
-625,692	15,017	0,059	-0,033
-624,678	48,125	0,178	0,121
-623,663	700,477	-0,065	-0,125
-622,649	187,935	-0,025	-0,028
-621,634	-102,078	-0,107	-0,019
-620,619	-200,000	-0,015	-0,131
-619,605	-71,905	0,109	0,029
-618,590	83,681	-0,089	0,070
-617,576	-122,820	-0,208	0,024
-616,561	-68,409	-0,054	-0,015
-615,546	-200,000	0,008	0,092
-614,532	-103,073	0,095	0,016
-613,517	428,178	0,018	-0,029
-612,503	97,922	0,065	-0,054
-611,488	-70,274	0,082	-0,022
-610,474	-69,110	-0,018	-0,005
-609,459	-200,000	0,043	-0,144
-608,444	-65,600	-0,114	0,033
-607,430	-200,000	-0,007	-0,184
-606,415	-200,000	0,009	-0,116
-605,401	222,918	0,017	0,020
-604,386	800,000	0,061	-0,143
-603,371	14,197	0,023	-0,013
-602,357	673,297	0,015	0,028
-601,342	-200,000	-0,007	0,144
-600,328	-84,232	-0,111	0,025
-599,313	-200,000	-0,036	-0,119
-598,298	-200,000	0,008	-0,066
-597,284	171,066	0,072	0,075
-596,269	-200,000	-0,019	-0,112
-595,255	800,000	0,007	0,019
-594,240	589,841	-0,042	0,076
-593,225	-15,629	0,022	0,010
-592,211	-134,992	-0,021	0,002
-591,196	324,628	-0,095	0,132
-590,182	-8,889	-0,043	-0,021
-589,167	-200,000	-0,009	0,095
-588,152	11,362	-0,064	0,036
-587,138	114,368	-0,151	0,133
-586,123	800,000	0,021	0,055
-585,109	347,404	-0,127	-0,182
-584,094	112,755	-0,061	-0,053
-583,079	-200,000	0,005	0,072
-582,065	162,043	0,066	-0,067
-581,050	659,954	0,037	-0,070
-580,036	-200,000	0,005	-0,034
-579,021	-86,418	-0,160	-0,035
-578,006	800,000	0,101	-0,224
-576,992	-200,000	0,012	0,058
-575,977	800,000	0,032	-0,073
-574,963	18,430	-0,050	0,029
-573,948	-57,358	0,089	0,028
-572,934	48,644	0,213	-0,145
-571,919	-134,083	-0,109	-0,010
-570,904	97,791	0,030	0,025
-569,890	133,674	-0,110	0,103
-568,875	352,792	0,018	0,026
-567,861	800,000	-0,049	-0,116
-566,846	151,595	0,067	0,066
-565,831	547,935	0,043	0,075
-564,817	-150,003	-0,069	-0,004
-563,802	-152,128	0,065	-0,003
-562,788	-69,251	0,021	0,006
-561,773	-105,113	0,081	-0,013
-560,758	4,912	0,055	0,029
-559,744	-200,000	-0,002	0,032
-558,729	-200,000	0,009	-0,052
-557,715	-200,000	0,006	-0,111
-556,700	-200,000	-0,010	0,074
-555,685	-114,118	0,087	-0,012
-554,671	-67,687	0,048	0,013
-553,656	-13,084	0,077	-0,036
-552,642	-102,956	-0,085	-0,015
-551,627	-200,000	-0,028	0,138
-550,612	-45,289	-0,014	-0,005
-549,598	296,230	0,022	0,030
-548,583	25,620	0,015	0,009
-547,569	-65,275	-0,100	-0,029
-546,554	-112,416	0,186	-0,027
-545,539	444,321	-0,047	0,075
-544,525	-127,669	0,155	-0,016
-543,510	-31,297	-0,077	0,031
-542,496	800,000	0,045	-0,100
-541,481	308,779	-0,015	-0,020
-540,466	800,000	0,039	-0,104
-539,452	-200,000	-0,001	0,003
-538,437	-200,000	0,015	-0,119
-537,423	-165,349	0,055	-0,002
-536,408	51,597	0,014	0,009
-535,393	112,356	-0,075	-0,065
-534,379	-200,000	-0,008	-0,039
-533,364	8,086	-0,058	-0,031
-532,350	-104,968	0,061	-0,010
-531,335	-86,881	0,129	0,028
-530,321	160,198	-0,082	0,083
-529,306	-114,640	-0,029	0,004
-528,291	-200,000	0,008	-0,050
-527,277	-116,815	0,047	-0,006
-526,262	-175,454	-0,093	0,002
-525,248	-7,163	-0,156	-0,076
-524,233	152,681	0,032	0,031
-523,218	-200,000	-0,001	-0,004
-522,204	354,957	-0,057	0,083
-521,189	-29,908	-0,094	-0,038
-520,175	-32,485	-0,144	0,058
-519,160	-15,150	0,087	0,040
-518,145	-200,000	0,025	-0,103
-517,131	711,966	0,067	0,129
-516,116	-38,476	-0,051	0,019
-515,102	-95,180	-0,033	0,006
-514,087	-200,000	-0,000	-0,012
-513,072	117,181	-0,081	-0,071
-512,058	-25,503	-0,033	-0,014
-511,043	40,032	-0,065	0,042
-510,029	-40,132	0,100	0,038
-509,014	-200,000	-0,004	0,052
-507,999	800,000	0,038	-0,086
-506,985	147,308	-0,090	-0,087
-505,970	696,600	-0,046	0,087
-504,956	-84,768	0,074	0,017
-503,941	68,734	-0,068	-0,050
-502,926	188,065	-0,047	-0,051
-501,912	-33,590	0,172	-0,068
-500,897	-106,260	-0,145	0,023
-499,883	-200,000	-0,042	-0,180
-498,868	320,515	0,093	-0,128
-497,853	286,686	-0,066	0,087
-496,839	-200,000	0,005	0,125
-495,824	800,000	-0,047	0,139
-494,810	409,160	-0,021	0,033
-493,795	-200,000	0,014	0,060
-492,781	79,195	-0,079	0,061
-491,766	240,845	-0,022	-0,026
-490,751	-200,000	0,001	-0,028
-489,737	-55,951	-0,111	-0,035
-488,722	114,822	0,059	-0,052
-487,708	-200,000	0,010	-0,105
-486,693	571,290	-0,033	-0,058
-485,678	-200,000	0,002	-0,007
-484,664	-122,409	-0,193	0,022
-483,649	-15,912	-0,127	-0,058
-482,635	473,813	-0,010	0,016
-481,620	800,000	0,047	-0,110
-480,605	-175,117	0,122	0,002
-479,591	179,124	0,094	0,099
-478,576	355,564	-0,059	0,085
-477,562	6,064	-0,045	-0,024
-476,547	-113,187	-0,132	-0,019
-475,532	-154,426	0,087	-0,004
-474,518	25,155	0,103	0,061
-473,503	-15,516	-0,025	0,012
-472,489	-56,581	0,101	0,032
-471,474	256,361	-0,064	-0,080
-470,459	550,853	-0,039	-0,068
-469,445	749,614	0,040	-0,078
-468,430	-55,545	0,039	0,013
-467,416	800,000	-0,024	0,054
-466,401	-200,000	0,015	0,051
-465,386	126,950	-0,122	-0,111
-464,372	198,308	-0,144	0,159
-463,357	-200,000	0,041	0,154
-462,343	-104,895	-0,168	0,027
-461,328	26,848	-0,089	-0,054
-460,313	-200,000	0,006	-0,067
-459,299	-67,558	-0,178	-0,050
-458,284	-200,000	0,024	-0,094
-457,270	54,011	0,069	0,047
-456,255	675,720	0,037	-0,070
-455,241	-131,191	0,187	-0,018
-454,226	800,000	0,028	-0,083
-453,211	800,000	-0,028	0,086
-452,197	41,375	-0,054	-0,035
-451,182	-200,000	0,032	0,131
-450,168	199,979	0,084	-0,093
-449,153	234,953	0,066	0,079
-448,138	-200,000	-0,008	0,047
-447,124	57,941	0,025	0,018
-446,109	242,112	0,021	-0,026
-445,095	43,091	0,061	-0,040
-444,080	-200,000	0,001	0,123
-443,065	-105,686	0,088	-0,014
-442,051	-200,000	0,001	0,040
-441,036	413,576	-0,057	0,088
-440,022	459,310	-0,030	-0,048
-439,007	704,304	0,048	-0,092
-437,992	800,000	-0,055	-0,113
-436,978	-47,078	0,126	0,044
-435,963	302,616	0,091	0,122
-434,949	6,407	-0,041	-0,022
-433,934	-79,362	-0,103	-0,025
-432,919	9,712	-0,048	-0,026
-431,905	698,444	-0,040	0,077
-430,890	269,073	0,055	0,069
-429,876	283,189	-0,099	0,128
-428,861	-200,000	-0,006	0,045
-427,846	-67,424	-0,157	0,044
-426,832	42,830	-0,092	0,060
-425,817	-117,992	0,045	-0,006
-424,803	-200,000	-0,006	0,031
-423,788	121,382	0,084	0,075
-422,773	-140,912	0,063	-0,005
-421,759	418,025	0,072	0,111
-420,744	-101,215	-0,046	0,008
-419,730	800,000	-0,045	-0,126
-418,715	-200,000	-0,014	-0,058
-417,701	-200,000	0,016	-0,098
-416,686	372,093	-0,046	-0,068
-415,671	800,000	-0,021	-0,047
-414,657	-103,096	0,126	0,021
-413,642	92,594	-0,034	-0,027
-412,628	-200,000	-0,011	-0,146
-411,613	-200,000	-0,037	-0,121
-410,598	608,345	0,031	-0,056
-409,584	560,366	0,039	0,068
-408,569	-146,897	0,116	0,007
-407,555	474,572	0,042	0,068
-406,540	-200,000	-0,007	0,107
-405,525	-139,788	-0,076	-0,006
-404,511	-200,000	0,009	-0,101
-403,496	366,562	-0,038	-0,056
-402,482	-69,775	-0,142	0,039
-401,467	312,266	0,127	0,171
-400,452	602,778	-0,035	0,063
-399,438	-27,353	0,092	-0,038
-398,423	800,000	-0,016	0,036
-397,409	303,461	-0,096	-0,128
-396,394	-114,912	0,069	0,009
-395,379	-59,986	0,102	-0,031
-394,365	77,362	0,072	-0,055
-393,350	-200,000	0,005	-0,067
-392,336	-200,000	0,004	0,150
-391,321	78,598	-0,054	0,042
-390,306	102,341	-0,091	0,077
-389,292	215,041	0,087	-0,099
-388,277	-168,295	-0,057	-0,002
-387,263	-200,000	0,045	0,158
-386,248	800,000	0,038	-0,077
-385,233	390,454	-0,036	-0,054
-384,219	800,000	-0,027	-0,057
-383,204	-200,000	0,015	0,061
-382,190	-200,000	0,001	-0,126
-381,175	63,731	0,023	0,017
-380,160	137,068	0,085	-0,080
-379,146	-157,366	0,157	-0,007
-378,131	-200,000	-0,005	0,116
-377,117	-127,838	0,066	0,007
-376,102	121,290	0,027	0,024
-375,088	448,372	0,094	0,149
-374,073	-200,000	-0,013	-0,079
-373,058	78,097	-0,065	0,050
-372,044	-26,233	0,067	0,028
-371,029	146,445	0,069	0,067
-370,015	46,663	-0,096	0,064
-369,000	58,351	0,033	-0,023
-367,985	362,613	-0,103	-0,149
-366,971	528,920	0,051	0,086
-365,956	-200,000	-0,028	0,093
-364,942	-200,000	-0,034	0,131
-363,927	-8,294	0,083	0,040
-362,912	413,493	0,034	0,051
-361,898	800,000	-0,054	0,118
-360,883	-200,000	0,010	0,054
-359,869	-58,189	0,059	0,018
-358,854	-135,607	-0,073	-0,006
-357,839	-61,809	0,163	-0,049
-356,825	-9,956	0,134	-0,064
-355,810	800,000	-0,039	0,085
-354,796	-200,000	0,015	-0,055
-353,781	-200,000	0,003	0,204
-352,766	-200,000	-0,001	-0,069
-351,752	800,000	0,039	-0,113
-350,737	-200,000	0,011	-0,053
-349,723	552,289	0,013	-0,023
-348,708	446,300	0,069	0,109
-347,693	-200,000	-0,022	0,119
-346,679	357,518	0,022	0,031
-345,664	800,000	-0,015	0,046
-344,650	-16,838	0,090	0,041
-343,635	575,894	0,044	0,078
-342,620	41,125	-0,081	0,052
-341,606	51,185	0,061	-0,041
-340,591	121,788	0,052	0,046
-339,577	295,994	0,060	-0,079
-338,562	56,366	-0,115	0,080
-337,548	181,796	-0,074	0,079
-336,533	800,000	0,033	-0,067
-335,518	254,441	0,066	0,081
-334,504	47,334	-0,086	0,057
-333,489	-200,000	0,014	-0,065
-332,475	-200,000	-0,001	-0,164
-331,460	-56,698	-0,065	0,021
-330,445	-113,066	-0,062	0,009
-329,431	-200,000	-0,017	0,072
-328,416	-32,939	0,149	0,059
-327,402	-97,610	-0,019	-0,003
-326,387	800,000	-0,018	0,047
-325,372	-200,000	0,017	0,079
-324,358	800,000	-0,055	0,121
-323,343	-6,200	-0,067	0,033
-322,329	-84,085	0,120	-0,027
-321,314	242,283	0,016	-0,019
-320,299	-200,000	0,083	0,000
-319,285	-42,694	0,069	-0,025
-318,270	207,994	0,011	-0,012
-317,256	-200,000	-0,013	-0,127
-316,241	-78,202	-0,026	-0,006
-315,226	751,446	0,055	0,107
-314,212	118,957	0,007	0,006
-313,197	-200,000	-0,013	0,153
-312,183	-200,000	0,016	0,221
-311,168	677,241	0,069	-0,130
-310,153	-200,000	0,003	-0,163
-309,139	211,556	-0,062	-0,070
-308,124	-200,000	0,020	-0,088
-307,110	289,472	0,133	-0,173
-306,095	-44,226	-0,090	-0,032
-305,080	-108,003	-0,092	0,014
-304,066	-200,000	-0,019	-0,090
-303,051	148,398	-0,063	0,061
-302,037	119,242	0,033	-0,029
-301,022	-133,143	0,016	-0,001
-300,008	-68,797	0,021	0,006
-298,993	800,000	0,053	0,108
-297,978	46,695	-0,030	-0,020
-296,964	744,526	-0,038	-0,074
-295,949	800,000	-0,018	-0,037
-294,935	-200,000	0,007	-0,083
-293,920	-200,000	-0,001	0,035
-292,905	800,000	-0,039	0,093
-291,891	-200,000	0,029	0,127
-290,876	-139,554	0,035	-0,003
-289,862	106,162	0,109	0,093
-288,847	53,030	-0,060	0,041
-287,832	132,212	-0,046	-0,042
-286,818	-123,129	0,045	0,005
-285,803	-177,338	-0,113	0,002
-284,789	387,261	0,032	0,047
-283,774	800,000	-0,049	0,132
-282,759	29,600	-0,044	-0,027
-281,745	-200,000	0,014	0,094
-280,730	800,000	-0,009	-0,024
-279,716	-61,301	-0,064	-0,019
-278,701	-145,923	-0,027	0,002
-277,686	-200,000	0,052	0,211
-276,672	11,340	-0,194	0,106
-275,657	176,407	-0,029	0,031
-274,643	425,067	-0,027	0,042
-273,628	109,381	0,027	0,023
-272,613	-8,745	0,012	0,006
-271,599	273,283	0,089	0,113
-270,584	-200,000	-0,007	0,085
-269,570	800,000	-0,033	0,098
-268,555	67,637	-0,038	0,027
-267,540	-80,417	-0,144	-0,034
-266,526	-200,000	0,002	-0,019
-265,511	-47,015	-0,089	0,031
-264,497	227,906	0,064	-0,075
-263,482	800,000	0,028	0,078
-262,467	433,104	-0,054	0,084
-261,453	800,000	0,033	-0,095
-260,438	-200,000	0,032	-0,156
-259,424	-200,000	-0,034	-0,166
-258,409	-200,000	-0,036	-0,154
-257,395	-156,018	0,039	-0,002
-256,380	800,000	-0,059	0,134
-255,365	-200,000	-0,024	-0,087
-254,351	-22,380	0,117	0,051
-253,336	-86,548	-0,084	-0,018
-252,322	701,962	-0,023	0,044
-251,307	-200,000	0,020	-0,070
-250,292	-104,198	0,126	-0,021
-249,278	-44,840	-0,113	-0,040
-248,263	800,000	0,058	0,156
-247,249	-119,983	-0,035	-0,004
-246,234	-200,000	-0,043	-0,176
-245,219	-200,000	0,017	-0,121
-244,205	232,873	0,011	0,012
-243,190	633,073	0,014	0,025
-242,176	168,977	0,066	-0,067
-241,161	-200,000	0,011	0,119
-240,146	354,718	-0,138	0,197
-239,132	-200,000	0,006	-0,020
-238,117	362,735	-0,061	-0,088
-237,103	375,731	0,088	-0,128
-236,088	-79,954	-0,084	-0,020
-235,073	596,205	0,043	-0,077
-234,059	80,811	0,046	-0,036
-233,044	510,797	-0,135	0,224
-232,030	743,659	-0,033	0,064
-231,015	-200,000	-0,008	-0,076
-230,000	241,183	0,065	-0,077
-228,986	-152,971	0,024	0,001
-227,971	12,092	0,053	-0,029
-226,957	-3,473	0,055	-0,027
-225,942	-10,027	-0,026	0,012
-224,927	800,000	-0,026	0,069
-223,913	-200,000	0,023	0,131
-222,898	-40,074	-0,053	-0,019
-221,884	-200,000	-0,008	0,027
-220,869	178,430	0,023	-0,024
-219,855	-37,546	0,097	0,037
-218,840	457,340	0,065	0,103
-217,825	582,926	0,035	-0,062
-216,811	800,000	0,080	-0,225
-215,796	56,977	0,033	-0,023
-214,782	412,676	-0,022	0,034
-213,767	-200,000	-0,022	0,125
-212,752	477,743	-0,015	-0,025
-211,738	-139,189	-0,224	-0,017
-210,723	-105,237	-0,044	-0,007
-209,709	-200,000	0,000	-0,028
-208,694	-200,000	-0,055	-0,189
-207,679	-200,000	-0,001	-0,073
-206,665	-32,845	0,162	0,064
-205,650	-200,000	-0,000	0,176
-204,636	-61,838	0,102	0,030
-203,621	-200,000	0,002	-0,149
-202,606	-200,000	-0,020	0,131
-201,592	-200,000	0,000	-0,086
-200,577	-200,000	0,005	-0,039
-199,563	66,609	0,132	0,096
-198,548	-178,784	0,149	-0,002
-197,533	550,417	-0,047	-0,081
-196,519	800,000	0,010	0,025
-195,504	800,000	-0,023	-0,056
-194,490	62,685	-0,035	-0,025
-193,475	386,761	-0,051	0,076
-192,460	202,802	-0,043	-0,047
-191,446	22,978	0,093	-0,054
-190,431	-200,000	-0,003	-0,060
-189,417	457,832	0,042	-0,067
-188,402	800,000	0,066	0,165
-187,387	-22,988	-0,089	0,038
-186,373	800,000	-0,013	0,040
-185,358	79,768	-0,132	-0,101
-184,344	-110,095	0,127	-0,019
-183,329	3,363	-0,092	0,048
-182,315	-143,189	0,101	0,007
-181,300	-200,000	0,005	-0,148
-180,285	-200,000	0,003	-0,099
-179,271	800,000	-0,050	0,145
-178,256	-200,000	0,001	-0,085
-177,242	800,000	0,011	-0,035
-176,227	-200,000	-0,007	-0,069
-175,212	281,967	0,012	0,015
-174,198	-200,000	0,007	0,072
-173,183	-200,000	0,013	-0,103
-172,169	-33,225	0,144	-0,057
-171,154	800,000	0,045	-0,101
-170,139	-18,319	-0,033	0,015
-169,125	324,082	0,043	0,058
-168,110	-32,192	-0,110	0,044
-167,096	-49,734	-0,125	-0,042
-166,081	-34,007	-0,075	0,029
-165,066	-200,000	0,022	-0,141
-164,052	55,305	-0,091	-0,063
-163,037	-28,487	0,086	0,035
-162,023	-200,000	0,006	-0,118
-161,008	62,776	0,083	0,059
-159,993	493,165	0,053	0,087
-158,979	800,000	-0,044	0,119
-157,964	349,138	-0,057	0,081
-156,950	253,924	0,015	0,018
-155,935	-200,000	0,007	0,043
-154,920	-200,000	-0,002	0,076
-153,906	435,214	0,070	0,108
-152,891	62,753	-0,158	0,112
-151,877	146,038	0,017	-0,016
-150,862	-31,451	-0,027	0,011
-149,847	-200,000	-0,011	0,054
-148,833	297,426	-0,079	-0,104
-147,818	220,202	0,058	0,066
-146,804	385,287	-0,064	-0,095
-145,789	513,536	-0,050	0,083
-144,775	800,000	0,023	-0,062
-143,760	-164,836	0,034	-0,001
-142,745	-200,000	0,002	-0,077
-141,731	-112,573	0,055	0,008
-140,716	267,740	-0,067	0,084
-139,702	800,000	0,027	0,070
-138,687	227,009	-0,093	-0,108
-137,672	-200,000	-0,007	0,054
-136,658	8,365	-0,089	0,047
-135,643	193,581	0,010	-0,011
-134,629	-200,000	0,001	0,026
-133,614	-137,025	0,081	-0,006
-132,599	144,628	0,083	-0,079
-131,585	-84,762	-0,159	0,035
-130,570	343,369	-0,083	-0,116
-129,556	599,793	-0,114	0,203
-128,541	70,523	0,106	-0,078
-127,526	-200,000	-0,013	-0,144
-126,512	-88,222	-0,026	0,006
-125,497	551,509	-0,050	0,086
-124,483	-200,000	-0,012	0,071
-123,468	800,000	-0,017	-0,049
-122,453	-107,550	-0,056	-0,009
-121,439	800,000	0,014	0,041
-120,424	-200,000	0,007	0,051
