DTS Sentinel unit serial number:	SN410029Multiplexer serial number:	ORYXHardware model number:	OX2-SRSoftware version number:	ORYX F/W v4,00 Oryx Data Collector v3.7.2.0data status	okinstallation	BH3 CH2differential loss correction	single-endedforward channel	channel 2reverse channel	N/Adate	2023/12/05time	14:57:28forward acquisition time	300,00reverse acquisition time	0,00gamma	499,1914k internal	0,3193k external	0,3193temperature offset calibration	1,0000default loss term (dB/km)	0,3820temperature slope calibration	1,0000multiplexer offset coefficient	1,0000multiplexer slope coefficient	1,0000fibre end	0,00T internal ref (°C)	10,96T ext. ref 1 (°C)	-3,23T ext. ref 2 (°C)	-3,35length (m)	temperature (°C)	Stokes	anti-Stokes-744,400	362,057	-0,077	-0,113
-743,385	363,337	-0,142	0,209
-742,371	-200,000	-0,014	-0,226
-741,356	800,000	-0,075	0,176
-740,342	225,575	-0,089	-0,105
-739,327	-116,797	-0,230	0,030
-738,312	-27,206	-0,098	-0,041
-737,298	-112,022	-0,213	-0,031
-736,283	-200,000	-0,004	-0,104
-735,269	211,079	-0,230	0,264
-734,254	475,036	-0,056	-0,093
-733,239	-49,218	-0,421	-0,146
-732,225	-200,000	0,010	-0,055
-731,210	-200,000	0,007	0,034
-730,196	104,267	-0,088	0,076
-729,181	-200,000	-0,003	0,053
-728,167	-6,147	-0,086	0,043
-727,152	404,059	0,035	-0,054
-726,137	13,322	0,045	-0,025
-725,123	-59,012	-0,081	-0,025
-724,108	800,000	0,029	-0,075
-723,094	-121,373	-0,152	0,018
-722,079	-55,122	-0,115	-0,037
-721,064	-200,000	-0,076	-0,246
-720,050	-0,690	0,050	0,026
-719,035	-24,263	-0,069	0,030
-718,021	-107,309	-0,132	0,021
-717,006	800,000	-0,047	0,112
-715,991	5,441	-0,151	-0,081
-714,977	22,663	0,080	-0,048
-713,962	183,923	-0,036	0,039
-712,948	216,240	0,092	0,106
-711,933	-32,444	0,060	-0,024
-710,918	438,145	0,038	0,060
-709,904	128,939	-0,053	-0,049
-708,889	800,000	0,042	-0,135
-707,875	-116,265	-0,097	-0,013
-706,860	688,403	0,083	0,158
-705,845	-18,412	0,066	-0,030
-704,831	2,275	0,101	0,053
-703,816	76,956	-0,235	0,181
-702,802	-26,848	0,079	-0,033
-701,787	800,000	-0,025	0,067
-700,772	-73,780	-0,048	-0,013
-699,758	621,858	-0,035	-0,065
-698,743	-200,000	0,039	0,161
-697,729	-120,520	-0,090	0,011
-696,714	800,000	0,018	0,043
-695,699	-200,000	-0,002	-0,018
-694,685	-16,537	0,017	0,008
-693,670	270,203	-0,040	-0,051
-692,656	-30,264	-0,014	-0,006
-691,641	800,000	-0,066	-0,148
-690,627	54,730	-0,056	0,039
-689,612	79,115	-0,029	0,023
-688,597	-200,000	0,003	0,025
-687,583	-200,000	-0,032	-0,117
-686,568	800,000	-0,041	-0,121
-685,554	-84,917	-0,130	-0,029
-684,539	59,257	0,063	0,045
-683,524	-200,000	0,012	-0,236
-682,510	141,201	-0,055	0,053
-681,495	8,622	-0,126	-0,069
-680,481	-200,000	0,006	-0,048
-679,466	97,846	-0,137	-0,114
-678,451	-200,000	0,008	-0,033
-677,437	800,000	-0,050	0,161
-676,422	1,921	-0,037	-0,019
-675,408	-42,004	0,019	-0,007
-674,393	189,300	0,092	-0,101
-673,378	-200,000	0,030	-0,141
-672,364	-200,000	-0,008	-0,188
-671,349	487,451	0,031	0,052
-670,335	241,304	0,042	-0,051
-669,320	-200,000	-0,005	-0,018
-668,305	-200,000	0,021	0,111
-667,291	107,285	0,012	-0,010
-666,276	108,250	-0,078	-0,067
-665,262	230,408	-0,114	-0,136
-664,247	9,090	-0,103	-0,056
-663,232	324,477	-0,084	0,116
-662,218	563,144	0,035	-0,062
-661,203	534,126	-0,063	0,110
-660,189	-63,595	-0,063	0,019
-659,174	-200,000	-0,009	0,103
-658,159	207,982	-0,030	-0,034
-657,145	179,463	0,046	0,049
-656,130	-30,531	-0,196	-0,080
-655,116	44,476	0,036	-0,024
-654,101	800,000	0,009	-0,018
-653,086	-148,970	0,154	0,009
-652,072	636,865	-0,051	0,094
-651,057	-96,160	0,100	0,019
-650,043	63,411	-0,104	-0,076
-649,028	-140,854	-0,041	-0,003
-648,014	-200,000	-0,020	0,099
-646,999	-200,000	0,006	-0,097
-645,984	-122,384	-0,040	-0,005
-644,970	119,495	-0,026	0,024
-643,955	-121,690	-0,045	-0,005
-642,941	213,421	-0,078	-0,089
-641,926	-200,000	0,029	-0,123
-640,911	565,453	-0,073	0,129
-639,897	26,271	0,092	0,056
-638,882	152,745	-0,148	-0,147
-637,868	349,675	0,041	-0,059
-636,853	-200,000	-0,021	-0,104
-635,838	-78,532	-0,207	-0,051
-634,824	4,316	-0,065	-0,034
-633,809	761,380	0,017	-0,034
-632,795	29,355	0,039	0,024
-631,780	298,444	0,030	-0,041
-630,765	150,643	-0,053	0,052
-629,751	38,548	0,039	-0,025
-628,736	-200,000	0,009	-0,063
-627,722	-126,631	0,023	0,002
-626,707	-121,711	-0,044	0,005
-625,692	542,267	-0,046	-0,080
-624,678	-115,151	0,074	0,010
-623,663	-109,639	-0,092	0,014
-622,649	-200,000	0,003	-0,018
-621,634	-62,341	0,073	0,022
-620,619	652,656	-0,093	-0,174
-619,605	477,264	0,059	0,097
-618,590	310,031	0,010	-0,014
-617,576	-200,000	0,035	0,150
-616,561	-44,296	-0,222	0,080
-615,546	-19,421	-0,057	-0,026
-614,532	-145,502	-0,192	-0,012
-613,517	46,212	-0,183	-0,123
-612,503	-200,000	-0,012	-0,046
-611,488	24,401	-0,061	0,036
-610,474	122,468	0,050	0,046
-609,459	-200,000	-0,029	-0,129
-608,444	45,613	-0,070	0,047
-607,430	-185,131	0,048	0,001
-606,415	282,222	0,031	0,040
-605,401	-200,000	-0,001	0,062
-604,386	479,599	0,049	0,081
-603,371	-178,140	-0,201	-0,003
-602,357	174,035	-0,028	-0,029
-601,342	800,000	-0,014	0,037
-600,328	99,612	-0,096	-0,080
-599,313	-31,118	-0,143	-0,058
-598,298	121,964	0,014	-0,013
-597,284	766,410	0,026	0,051
-596,269	3,007	0,036	0,019
-595,255	13,495	-0,072	0,040
-594,240	719,824	0,042	0,081
-593,225	104,868	-0,111	0,095
-592,211	-10,919	-0,064	0,030
-591,196	-53,520	0,127	-0,042
-590,182	-128,084	-0,072	0,007
-589,167	-27,601	0,156	0,066
-588,152	800,000	-0,068	-0,150
-587,138	-191,549	-0,090	0,001
-586,123	109,051	-0,011	0,009
-585,109	800,000	0,033	-0,088
-584,094	-78,868	0,027	0,007
-583,079	-3,791	0,155	-0,078
-582,065	-57,510	-0,090	0,028
-581,050	69,883	0,048	-0,036
-580,036	-31,433	-0,040	-0,016
-579,021	-200,000	-0,001	-0,058
-578,006	133,461	-0,145	-0,136
-576,992	800,000	0,086	-0,186
-575,977	108,790	-0,117	0,101
-574,963	415,623	-0,021	0,033
-573,948	-89,167	0,120	-0,025
-572,934	-101,547	0,067	0,012
-571,919	154,282	-0,032	-0,032
-570,904	117,370	-0,064	0,057
-569,890	-200,000	0,000	-0,065
-568,875	-62,618	0,117	-0,035
-567,861	-111,411	0,136	-0,020
-566,846	416,289	0,041	0,063
-565,831	670,042	-0,052	0,097
-564,817	-107,227	-0,233	0,037
-563,802	3,930	0,050	0,027
-562,788	-41,667	-0,054	0,020
-561,773	62,400	0,095	-0,068
-560,758	171,309	0,073	-0,076
-559,744	-200,000	0,012	0,042
-558,729	743,748	-0,053	-0,103
-557,715	158,298	0,036	0,036
-556,700	-154,666	-0,105	0,005
-555,685	-200,000	0,010	0,145
-554,671	800,000	-0,053	-0,111
-553,656	-85,775	0,098	-0,022
-552,642	-200,000	0,020	-0,090
-551,627	246,498	0,073	-0,089
-550,612	-50,711	-0,066	0,022
-549,598	800,000	-0,054	0,157
-548,583	800,000	-0,017	-0,048
-547,569	-100,141	-0,149	-0,027
-546,554	-9,397	0,201	0,097
-545,539	-17,050	-0,074	-0,034
-544,525	-143,263	0,031	0,002
-543,510	96,779	-0,105	0,087
-542,496	800,000	-0,060	-0,130
-541,481	-190,716	0,117	0,001
-540,466	55,112	0,095	0,067
-539,452	270,193	0,116	0,148
-538,437	331,033	0,086	0,121
-537,423	800,000	0,038	-0,081
-536,408	-200,000	-0,013	0,069
-535,393	-200,000	0,000	0,042
-534,379	-90,088	0,054	-0,011
-533,364	800,000	-0,020	-0,048
-532,350	-63,956	0,119	0,035
-531,335	-106,117	-0,097	0,016
-530,321	33,709	-0,061	0,038
-529,306	-200,000	0,001	-0,064
-528,291	-131,060	0,235	-0,022
-527,277	-200,000	0,004	-0,217
-526,262	-200,000	0,005	-0,044
-525,248	129,363	0,027	0,025
-524,233	20,388	-0,051	-0,029
-523,218	-129,030	0,101	-0,010
-522,204	10,643	-0,052	0,029
-521,189	30,007	-0,069	-0,043
-520,175	48,915	-0,047	-0,032
-519,160	-200,000	-0,015	0,068
-518,145	615,637	0,074	0,135
-517,131	148,400	-0,020	0,020
-516,116	-34,948	0,040	-0,016
-515,102	-200,000	-0,001	0,122
-514,087	-57,384	0,109	0,034
-513,072	291,009	-0,031	-0,041
-512,058	-200,000	0,001	-0,029
-511,043	800,000	-0,011	0,033
-510,029	18,014	0,067	0,039
-509,014	-13,979	-0,112	0,052
-507,999	-200,000	-0,005	-0,110
-506,985	-120,874	-0,015	-0,002
-505,970	800,000	-0,008	0,017
-504,956	-200,000	-0,013	0,074
-503,941	-200,000	-0,021	0,069
-502,926	-128,837	0,085	0,009
-501,912	800,000	0,055	0,155
-500,897	-74,136	-0,149	0,039
-499,883	31,300	0,055	-0,034
-498,868	82,984	-0,053	-0,041
-497,853	52,704	0,038	-0,026
-496,839	-41,129	-0,210	0,078
-495,824	56,611	-0,090	0,063
-494,810	-200,000	-0,027	0,104
-493,795	16,598	0,113	0,065
-492,781	-15,488	0,125	0,057
-491,766	254,758	0,009	-0,011
-490,751	-200,000	0,001	-0,165
-489,737	90,342	0,076	-0,061
-488,722	-200,000	-0,036	-0,119
-487,708	224,622	-0,023	0,027
-486,693	-56,538	-0,096	-0,031
-485,678	97,899	0,036	-0,030
-484,664	800,000	0,044	-0,094
-483,649	-200,000	-0,006	-0,098
-482,635	225,581	0,048	0,057
-481,620	46,118	0,054	-0,036
-480,605	16,856	-0,137	0,078
-479,591	-147,956	0,046	-0,003
-478,576	-116,903	-0,138	-0,018
-477,562	800,000	0,050	0,109
-476,547	140,843	-0,085	0,082
-475,532	38,109	0,124	-0,079
-474,518	-200,000	0,014	0,083
-473,503	508,876	0,032	0,054
-472,489	-26,148	-0,074	0,031
-471,474	-114,973	0,050	-0,007
-470,459	-200,000	0,039	0,145
-469,445	-200,000	-0,025	-0,105
-468,430	-200,000	0,008	-0,089
-467,416	-200,000	0,026	0,163
-466,401	-200,000	-0,016	0,123
-465,386	292,051	-0,087	0,114
-464,372	108,832	-0,061	0,052
-463,357	-200,000	-0,004	-0,203
-462,343	31,993	-0,116	-0,072
-461,328	-200,000	-0,004	-0,051
-460,313	223,738	0,018	0,021
-459,299	-200,000	-0,017	-0,119
-458,284	800,000	-0,024	0,053
-457,270	87,632	0,126	0,101
-456,255	-200,000	-0,006	-0,048
-455,241	315,833	-0,115	0,157
-454,226	-123,858	-0,034	-0,004
-453,211	-45,040	0,053	0,019
-452,197	800,000	-0,036	-0,114
-451,182	74,292	0,061	0,046
-450,168	-49,443	0,223	0,076
-449,153	16,402	-0,216	0,122
-448,138	137,948	-0,060	-0,057
-447,124	-29,130	0,125	-0,051
-446,109	-137,453	-0,075	-0,006
-445,095	-200,000	-0,050	0,204
-444,080	32,934	0,128	-0,079
-443,065	-200,000	0,003	0,104
-442,051	76,902	-0,147	-0,112
-441,036	-200,000	0,013	0,049
-440,022	-61,489	0,019	-0,006
-439,007	-200,000	-0,012	-0,088
-437,992	-200,000	-0,017	-0,223
-436,978	-200,000	-0,028	-0,104
-435,963	17,618	0,102	0,058
-434,949	59,992	0,082	-0,058
-433,934	388,916	0,040	-0,060
-432,919	-200,000	-0,001	-0,051
-431,905	-34,331	0,091	-0,036
-430,890	-134,382	-0,128	-0,011
-429,876	164,280	0,044	-0,044
-428,861	246,098	-0,009	-0,011
-427,846	-31,150	0,075	-0,030
-426,832	800,000	-0,056	-0,164
-425,817	785,667	0,047	0,094
-424,803	-54,621	-0,080	-0,026
-423,788	-21,003	0,051	-0,022
-422,773	-29,190	0,086	-0,035
-421,759	-102,614	-0,137	0,023
-420,744	-200,000	-0,003	-0,092
-419,730	-200,000	0,031	-0,140
-418,715	-200,000	0,006	0,027
-417,701	-8,269	-0,106	-0,051
-416,686	-5,784	0,093	-0,046
-415,671	-200,000	-0,005	0,044
-414,657	-25,422	0,113	0,048
-413,642	395,266	0,048	-0,072
-412,628	283,012	-0,030	0,039
-411,613	-70,850	0,095	-0,025
-410,598	2,003	-0,090	-0,046
-409,584	26,902	0,078	0,047
-408,569	413,408	-0,024	0,036
-407,555	181,712	-0,024	0,026
-406,540	800,000	0,022	-0,051
-405,525	-200,000	-0,034	0,156
-404,511	426,958	-0,083	-0,130
-403,496	197,428	0,019	-0,021
-402,482	52,585	-0,098	0,067
-401,467	-29,611	0,095	0,039
-400,452	396,436	-0,039	-0,059
-399,438	-200,000	0,011	0,043
-398,423	-131,753	0,010	0,001
-397,409	179,010	0,019	-0,020
-396,394	-200,000	-0,063	-0,252
-395,379	205,769	-0,059	-0,066
-394,365	800,000	-0,052	-0,118
-393,350	-85,781	0,150	-0,033
-392,336	54,308	0,049	0,034
-391,321	-200,000	0,013	-0,066
-390,306	-1,118	-0,056	0,028
-389,292	50,078	0,040	0,027
-388,277	228,848	0,018	-0,021
-387,263	335,619	0,098	0,137
-386,248	152,273	0,152	0,149
-385,233	-200,000	-0,000	-0,040
-384,219	209,082	-0,071	-0,080
-383,204	-200,000	-0,005	-0,064
-382,190	63,060	-0,187	-0,134
-381,175	-93,018	-0,064	-0,013
-380,160	18,024	0,159	0,091
-379,146	64,021	0,104	0,075
-378,131	800,000	0,015	0,047
-377,117	6,202	-0,033	-0,018
-376,102	180,972	-0,097	0,102
-375,088	-41,346	0,031	-0,011
-374,073	75,363	-0,112	0,085
-373,058	-200,000	-0,004	0,066
-372,044	160,887	0,038	0,038
-371,029	152,330	0,031	0,031
-370,015	-200,000	-0,018	0,088
-369,000	84,674	-0,181	-0,142
-367,985	74,380	-0,102	0,077
-366,971	800,000	0,029	-0,059
-365,956	-39,932	-0,050	0,019
-364,942	-200,000	0,018	-0,126
-363,927	58,789	-0,071	0,050
-362,912	-73,202	-0,084	-0,022
-361,898	7,619	-0,059	0,031
-360,883	-200,000	0,000	-0,047
-359,869	800,000	0,044	-0,114
-358,854	109,468	0,082	-0,070
-357,839	-95,627	0,087	0,017
-356,825	800,000	0,033	0,089
-355,810	60,461	-0,150	-0,107
-354,796	163,445	-0,026	0,027
-353,781	800,000	-0,024	-0,066
-352,766	-200,000	0,008	-0,071
-351,752	116,266	-0,042	0,037
-350,737	19,938	0,073	0,042
-349,723	-27,900	0,188	0,078
-348,708	3,188	-0,120	0,062
-347,693	-80,904	-0,067	0,016
-346,679	212,919	0,018	0,021
-345,664	800,000	0,050	0,139
-344,650	798,965	-0,020	0,039
-343,635	-200,000	-0,028	-0,099
-342,620	-46,465	0,035	0,012
-341,606	800,000	-0,077	0,167
-340,591	800,000	0,015	0,037
-339,577	-88,507	-0,057	-0,012
-338,562	-77,723	-0,117	-0,029
-337,548	-47,511	0,046	-0,016
-336,533	-54,433	0,089	-0,029
-335,518	-200,000	-0,004	-0,032
-334,504	88,477	0,148	0,118
-333,489	157,693	0,042	-0,042
-332,475	303,261	0,028	0,037
-331,460	-200,000	-0,015	-0,050
-330,445	45,447	0,063	0,041
-329,431	115,363	0,066	0,058
-328,416	-101,001	0,098	-0,017
-327,402	-101,802	-0,046	0,008
-326,387	-200,000	-0,038	0,139
-325,372	800,000	-0,044	-0,123
-324,358	-200,000	0,032	-0,108
-323,343	-132,619	0,122	0,011
-322,329	-60,351	-0,035	-0,010
-321,314	89,758	0,055	-0,044
-320,299	-52,360	0,192	0,063
-319,285	800,000	-0,057	-0,133
-318,270	-200,000	0,006	-0,022
-317,256	800,000	0,041	-0,098
-316,241	-36,210	-0,098	-0,038
-315,226	800,000	0,033	-0,082
-314,212	800,000	0,015	-0,040
-313,197	526,397	0,013	0,021
-312,183	-200,000	0,001	0,040
-311,168	-105,714	0,072	-0,012
-310,153	-200,000	-0,049	-0,187
-309,139	-200,000	-0,009	0,046
-308,124	126,236	-0,065	0,059
-307,110	-173,195	0,125	0,003
-306,095	-200,000	0,003	0,054
-305,080	500,996	0,041	0,067
-304,066	-200,000	-0,009	0,128
-303,051	-200,000	0,003	-0,061
-302,037	128,315	-0,028	-0,025
-301,022	-173,893	-0,072	0,001
-300,008	111,194	0,085	0,073
-298,993	-108,502	0,081	0,012
-297,978	-140,404	-0,070	-0,005
-296,964	-200,000	-0,020	-0,150
-295,949	-121,138	0,091	-0,011
-294,935	27,007	-0,079	-0,047
-293,920	-75,235	0,157	0,040
-292,905	147,505	0,107	-0,103
-291,891	-155,839	0,104	0,005
-290,876	-200,000	0,014	0,149
-289,862	-50,976	-0,096	0,032
-288,847	-24,027	0,062	0,026
-287,832	-84,689	0,244	-0,055
-286,818	88,119	-0,038	-0,030
-285,803	-153,981	0,099	-0,005
-284,789	469,768	0,049	0,080
-283,774	-200,000	-0,018	-0,068
-282,759	560,887	-0,036	0,063
-281,745	159,699	-0,030	-0,030
-280,730	800,000	0,015	-0,045
-279,716	39,742	-0,033	-0,021
-278,701	-200,000	0,000	0,014
-277,686	310,456	0,049	0,066
-276,672	424,408	0,050	0,077
-275,657	146,421	-0,044	0,042
-274,643	-200,000	0,045	-0,161
-273,628	123,132	0,103	-0,093
-272,613	13,760	-0,100	-0,056
-271,599	800,000	0,031	-0,084
-270,584	331,175	0,041	-0,057
-269,570	-124,485	0,028	0,003
-268,555	-62,530	-0,009	-0,003
-267,540	800,000	0,019	-0,054
-266,526	-32,924	-0,076	-0,030
-265,511	-174,412	-0,156	0,003
-264,497	-200,000	-0,015	0,120
-263,482	326,318	0,056	0,077
-262,467	-200,000	-0,008	0,260
-261,453	-10,772	0,020	-0,009
-260,438	-200,000	0,037	0,149
-259,424	33,998	-0,196	-0,122
-258,409	-135,426	-0,060	-0,005
-257,395	-81,070	0,116	-0,027
-256,380	16,023	0,051	-0,029
-255,365	34,152	-0,028	0,018
-254,351	-62,904	-0,093	-0,027
-253,336	28,850	0,119	0,072
-252,322	-200,000	-0,024	-0,142
-251,307	-200,000	-0,006	0,034
-250,292	-200,000	-0,009	0,111
-249,278	43,634	0,153	0,100
-248,263	-103,734	-0,041	-0,007
-247,249	800,000	-0,012	-0,026
-246,234	93,005	0,143	-0,115
-245,219	164,453	0,031	0,032
-244,205	61,742	-0,161	-0,115
-243,190	-159,167	0,041	-0,002
-242,176	224,207	-0,067	0,077
-241,161	-94,883	0,091	0,017
-240,146	-91,853	-0,071	0,014
-239,132	-200,000	0,030	-0,180
-238,117	800,000	0,046	-0,121
-237,103	800,000	-0,012	-0,035
-236,088	141,839	-0,061	-0,058
-235,073	800,000	-0,017	0,038
-234,059	337,025	0,103	0,144
-233,044	-200,000	0,002	-0,037
-232,030	-193,947	-0,208	-0,001
-231,015	-17,102	0,034	-0,015
-230,000	-16,329	0,063	-0,028
-228,986	-200,000	0,031	0,157
-227,971	133,942	-0,141	0,130
-226,957	800,000	-0,016	-0,034
-225,942	800,000	-0,034	-0,102
-224,927	72,665	-0,134	-0,100
-223,913	-161,038	0,067	0,002
-222,898	378,938	-0,078	-0,115
-221,884	428,643	0,023	-0,035
-220,869	147,384	0,070	0,067
-219,855	-26,471	0,129	0,054
-218,840	-200,000	0,018	0,061
-217,825	-200,000	0,007	0,028
-216,811	-200,000	0,013	0,071
-215,796	3,037	-0,051	-0,027
-214,782	800,000	0,022	0,066
-213,767	-200,000	-0,011	0,058
-212,752	-200,000	0,005	0,155
-211,738	179,374	0,093	-0,097
-210,723	183,259	-0,028	-0,029
-209,709	23,000	-0,071	-0,041
-208,694	530,838	-0,073	-0,123
-207,679	-200,000	-0,008	0,124
-206,665	800,000	0,015	-0,045
-205,650	35,209	0,069	-0,043
-204,636	-200,000	0,022	0,121
-203,621	-200,000	-0,004	0,167
-202,606	-200,000	-0,006	-0,053
-201,592	-111,324	0,055	-0,008
-200,577	800,000	-0,023	0,064
-199,563	192,001	-0,070	0,075
-198,548	-200,000	0,017	-0,069
-197,533	376,069	0,040	0,058
-196,519	68,703	-0,054	0,040
-195,504	-200,000	-0,005	-0,091
-194,490	-166,735	-0,109	0,003
-193,475	-162,270	0,099	0,003
-192,460	141,422	-0,054	-0,051
-191,446	392,594	0,057	0,084
-190,431	800,000	0,070	-0,139
-189,417	501,979	0,056	0,092
-188,402	-124,298	0,152	0,017
-187,387	168,360	-0,086	-0,087
-186,373	-24,865	-0,075	0,032
-185,358	-80,654	0,031	-0,007
-184,344	33,153	0,090	0,056
-183,329	-200,000	-0,013	0,044
-182,315	-200,000	0,041	0,156
-181,300	-200,000	-0,031	0,119
-180,285	505,102	-0,014	0,022
-179,271	15,451	-0,057	-0,032
-178,256	-5,403	0,102	-0,050
-177,242	-200,000	0,002	-0,012
-176,227	-200,000	0,005	0,099
-175,212	-135,499	0,067	-0,006
-174,198	592,444	0,035	-0,062
-173,183	-25,931	-0,195	0,081
-172,169	-200,000	0,006	-0,034
-171,154	-200,000	-0,011	0,057
-170,139	-200,000	-0,019	0,062
-169,125	-200,000	0,017	0,077
-168,110	249,225	0,059	-0,071
-167,096	113,902	-0,076	-0,066
-166,081	-81,110	-0,042	0,010
-165,066	119,594	0,032	-0,029
-164,052	-53,483	0,005	0,002
-163,037	-126,956	-0,065	0,007
-162,023	678,316	0,013	0,025
-161,008	731,071	0,047	0,091
-159,993	-200,000	0,005	0,065
-158,979	172,485	-0,030	-0,031
-157,964	497,732	0,046	-0,076
-156,950	-79,133	0,087	0,021
-155,935	460,965	0,054	0,087
-154,920	32,445	0,062	-0,038
-153,906	-200,000	0,040	0,134
-152,891	9,199	-0,041	0,022
-151,877	-200,000	0,009	0,086
-150,862	130,925	-0,090	-0,083
-149,847	-180,733	-0,030	-0,000
-148,833	46,094	-0,065	0,043
-147,818	687,092	0,037	0,070
-146,804	800,000	0,088	-0,209
-145,789	278,464	-0,049	-0,062
-144,775	520,284	-0,048	-0,081
-143,760	-83,488	-0,045	-0,010
-142,745	35,964	-0,102	-0,064
-141,731	358,737	-0,074	0,106
-140,716	800,000	-0,041	-0,085
-139,702	800,000	-0,048	-0,126
-138,687	-200,000	0,000	0,007
-137,672	3,634	-0,078	0,040
-136,658	-200,000	-0,002	-0,156
-135,643	-200,000	-0,012	-0,125
-134,629	800,000	0,055	-0,118
-133,614	228,192	0,148	0,172
-132,599	63,429	-0,084	0,060
-131,585	-200,000	0,006	-0,039
-130,570	-200,000	0,032	0,102
-129,556	-200,000	-0,005	-0,115
-128,541	223,054	-0,059	-0,068
-127,526	-200,000	0,014	-0,060
-126,512	-200,000	0,001	0,133
-125,497	-200,000	0,049	0,266
-124,483	288,870	0,043	0,056
-123,468	4,740	-0,078	0,041
-122,453	-158,530	-0,134	-0,005
-121,439	-200,000	-0,020	0,085
-120,424	-113,904	0,103	0,014
-119,410	-142,001	0,102	-0,007
