DTS Sentinel unit serial number:	SN410029Multiplexer serial number:	ORYXHardware model number:	OX2-SRSoftware version number:	ORYX F/W v4,00 Oryx Data Collector v3.7.2.0data status	okinstallation	BH3 CH2differential loss correction	single-endedforward channel	channel 2reverse channel	N/Adate	2023/12/06time	06:42:29forward acquisition time	300,00reverse acquisition time	0,00gamma	499,1914k internal	0,3197k external	0,3197temperature offset calibration	1,0000default loss term (dB/km)	0,3820temperature slope calibration	1,0000multiplexer offset coefficient	1,0000multiplexer slope coefficient	1,0000fibre end	0,00T internal ref (°C)	8,87T ext. ref 1 (°C)	-5,79T ext. ref 2 (°C)	-5,90length (m)	temperature (°C)	Stokes	anti-Stokes-744,400	185,685	-0,174	-0,188
-743,385	416,700	-0,125	0,195
-742,371	-87,282	-0,020	-0,004
-741,356	-150,005	-0,149	0,008
-740,342	800,000	-0,023	-0,051
-739,327	-138,285	-0,179	-0,014
-738,312	294,057	-0,045	-0,060
-737,298	-56,407	-0,238	0,076
-736,283	-200,000	-0,010	-0,216
-735,269	-196,421	-0,094	-0,000
-734,254	-21,532	0,181	-0,080
-733,239	-59,611	-0,482	-0,150
-732,225	800,000	0,023	-0,054
-731,210	126,415	-0,110	0,102
-730,196	800,000	0,039	0,096
-729,181	374,384	0,030	-0,044
-728,167	189,806	0,084	-0,092
-727,152	113,135	-0,101	-0,089
-726,137	-200,000	0,024	0,125
-725,123	41,797	-0,109	0,072
-724,108	71,447	-0,166	0,125
-723,094	-200,000	-0,023	-0,151
-722,079	97,629	0,027	-0,023
-721,064	800,000	0,006	0,013
-720,050	112,161	0,030	-0,026
-719,035	-130,689	-0,032	0,003
-718,021	-200,000	-0,013	0,053
-717,006	302,434	-0,073	-0,098
-715,991	-200,000	-0,003	-0,113
-714,977	-37,989	-0,033	-0,013
-713,962	-13,544	-0,170	-0,080
-712,948	800,000	-0,034	-0,095
-711,933	-88,073	-0,178	-0,039
-710,918	-74,791	0,099	-0,026
-709,904	123,559	-0,116	-0,105
-708,889	800,000	-0,030	-0,063
-707,875	-200,000	0,002	-0,121
-706,860	103,359	0,032	-0,027
-705,845	57,022	-0,139	-0,098
-704,831	-200,000	0,009	-0,084
-703,816	30,540	-0,078	-0,049
-702,802	-57,793	0,072	-0,023
-701,787	-14,948	-0,127	-0,059
-700,772	800,000	-0,022	0,060
-699,758	-200,000	0,054	-0,199
-698,743	-98,673	0,103	0,019
-697,729	139,574	0,031	0,030
-696,714	122,202	0,081	-0,073
-695,699	800,000	-0,018	-0,053
-694,685	-66,592	0,066	-0,019
-693,670	-200,000	-0,012	-0,095
-692,656	-200,000	-0,001	-0,153
-691,641	-121,350	0,030	-0,004
-690,627	-200,000	0,003	0,026
-689,612	-141,912	-0,006	0,000
-688,597	-111,403	0,023	-0,003
-687,583	283,612	-0,007	0,009
-686,568	270,735	-0,092	-0,118
-685,554	375,528	0,007	0,010
-684,539	-157,492	0,070	0,003
-683,524	800,000	-0,076	0,172
-682,510	149,911	0,077	0,076
-681,495	95,417	-0,034	-0,028
-680,481	-200,000	-0,037	-0,131
-679,466	-200,000	0,028	-0,189
-678,451	-85,796	0,032	-0,007
-677,437	800,000	0,018	0,044
-676,422	-167,707	0,135	-0,004
-675,408	-118,757	-0,130	-0,016
-674,393	-200,000	-0,016	0,064
-673,378	28,534	-0,117	-0,072
-672,364	-200,000	-0,001	-0,081
-671,349	64,352	-0,090	0,066
-670,335	558,577	-0,046	0,081
-669,320	102,383	-0,069	0,058
-668,305	-24,727	-0,130	0,056
-667,291	800,000	-0,022	0,063
-666,276	-154,044	0,040	0,002
-665,262	442,022	-0,039	-0,061
-664,247	213,429	-0,025	0,029
-663,232	800,000	0,023	-0,050
-662,218	522,316	0,064	0,110
-661,203	-200,000	0,031	-0,173
-660,189	800,000	0,073	-0,177
-659,174	153,327	0,103	-0,103
-658,159	-14,054	-0,118	-0,055
-657,145	28,098	-0,067	-0,041
-656,130	-88,980	0,157	-0,033
-655,116	643,652	0,041	-0,075
-654,101	-95,977	0,078	0,015
-653,086	-103,796	-0,141	-0,024
-652,072	38,276	-0,083	0,053
-651,057	800,000	-0,038	-0,104
-650,043	146,271	0,126	-0,122
-649,028	-110,546	-0,045	-0,007
-648,014	-167,399	0,095	-0,003
-646,999	-46,470	-0,173	-0,061
-645,984	111,016	-0,025	-0,022
-644,970	44,502	0,037	-0,025
-643,955	161,350	-0,043	-0,044
-642,941	58,572	-0,073	0,052
-641,926	-155,509	0,171	0,008
-640,911	-200,000	-0,003	0,054
-639,897	-119,795	0,125	0,015
-638,882	353,391	0,050	-0,073
-637,868	-200,000	0,021	0,069
-636,853	-131,101	0,073	0,007
-635,838	800,000	-0,038	-0,113
-634,824	800,000	-0,024	-0,069
-633,809	-200,000	-0,001	0,053
-632,795	800,000	-0,021	-0,063
-631,780	-141,599	0,057	0,004
-630,765	13,684	-0,136	0,077
-629,751	23,851	0,088	-0,053
-628,736	740,612	-0,025	0,049
-627,722	-127,998	-0,063	-0,007
-626,707	-144,234	0,170	-0,011
-625,692	-200,000	-0,018	-0,090
-624,678	-200,000	-0,010	0,097
-623,663	-29,967	-0,127	-0,052
-622,649	-200,000	0,015	-0,084
-621,634	435,748	0,057	-0,091
-620,619	-200,000	0,027	-0,091
-619,605	-108,551	0,070	-0,011
-618,590	-132,135	-0,063	-0,006
-617,576	-84,334	-0,057	0,013
-616,561	439,784	0,072	0,114
-615,546	640,430	-0,041	-0,076
-614,532	62,336	0,060	-0,043
-613,517	95,582	0,044	-0,036
-612,503	241,944	0,058	-0,070
-611,488	13,801	0,054	0,030
-610,474	-96,332	-0,030	0,006
-609,459	-89,260	0,057	-0,012
-608,444	800,000	-0,021	-0,048
-607,430	800,000	-0,046	-0,140
-606,415	-200,000	0,126	-0,000
-605,401	595,173	-0,050	0,091
-604,386	104,708	-0,038	0,032
-603,371	800,000	0,077	0,175
-602,357	800,000	0,046	-0,107
-601,342	-200,000	-0,012	-0,115
-600,328	132,969	-0,051	0,048
-599,313	-200,000	-0,010	0,036
-598,298	-61,303	0,123	-0,037
-597,284	-200,000	-0,017	0,103
-596,269	183,155	0,073	0,078
-595,255	72,790	-0,047	0,036
-594,240	-11,329	-0,089	0,042
-593,225	-38,660	-0,105	-0,040
-592,211	26,033	-0,101	-0,061
-591,196	-74,445	-0,094	0,024
-590,182	800,000	0,019	0,058
-589,167	-90,819	-0,060	0,012
-588,152	121,814	-0,099	-0,089
-587,138	-200,000	-0,013	0,109
-586,123	390,142	-0,104	-0,156
-585,109	-200,000	0,055	-0,182
-584,094	431,472	-0,045	-0,071
-583,079	-200,000	-0,030	0,127
-582,065	-99,750	0,030	-0,005
-581,050	-96,617	-0,053	0,010
-580,036	-200,000	0,048	-0,186
-579,021	43,766	-0,090	-0,059
-578,006	800,000	-0,049	-0,143
-576,992	-4,753	-0,132	0,065
-575,977	-200,000	0,013	-0,041
-574,963	800,000	0,028	0,067
-573,948	800,000	-0,037	0,099
-572,934	800,000	-0,028	0,063
-571,919	-87,994	-0,105	-0,023
-570,904	585,736	-0,061	-0,109
-569,890	-166,004	-0,160	-0,005
-568,875	-39,067	-0,067	-0,025
-567,861	25,075	-0,069	-0,042
-566,846	98,673	0,056	0,047
-565,831	572,832	0,058	0,103
-564,817	57,496	0,052	-0,036
-563,802	-200,000	0,006	0,034
-562,788	294,720	0,038	-0,050
-561,773	129,414	-0,065	-0,060
-560,758	800,000	0,036	0,091
-559,744	800,000	0,077	-0,205
-558,729	14,736	-0,016	-0,009
-557,715	-200,000	0,016	-0,053
-556,700	800,000	0,034	-0,079
-555,685	-53,574	-0,101	-0,033
-554,671	-3,378	-0,143	-0,072
-553,656	234,376	-0,049	0,059
-552,642	50,722	0,045	-0,031
-551,627	-83,199	0,078	0,018
-550,612	589,876	0,055	-0,098
-549,598	-123,158	-0,122	-0,014
-548,583	23,828	0,029	0,017
-547,569	118,515	0,052	0,047
-546,554	3,100	-0,120	0,063
-545,539	9,190	0,086	0,047
-544,525	800,000	-0,022	-0,070
-543,510	126,585	-0,130	-0,119
-542,496	800,000	-0,031	-0,079
-541,481	461,728	0,024	-0,038
-540,466	120,252	0,150	-0,135
-539,452	-200,000	0,006	0,060
-538,437	141,040	0,029	-0,027
-537,423	57,711	-0,064	0,045
-536,408	-42,921	0,029	-0,011
-535,393	67,405	-0,077	-0,056
-534,379	-200,000	-0,032	-0,167
-533,364	-200,000	0,000	0,044
-532,350	-200,000	-0,005	0,127
-531,335	-200,000	-0,021	0,089
-530,321	204,246	-0,082	0,092
-529,306	800,000	0,035	-0,079
-528,291	684,667	0,036	0,067
-527,277	-200,000	0,003	0,142
-526,262	-200,000	-0,003	0,046
-525,248	-200,000	0,018	0,075
-524,233	198,474	-0,042	0,047
-523,218	450,741	0,100	-0,160
-522,204	-110,728	-0,075	-0,011
-521,189	785,227	-0,049	0,098
-520,175	426,068	0,086	-0,135
-519,160	589,784	-0,104	-0,186
-518,145	-200,000	-0,010	0,208
-517,131	-96,023	0,014	0,003
-516,116	-120,725	-0,123	0,015
-515,102	-82,283	-0,092	0,022
-514,087	-139,746	-0,131	0,010
-513,072	105,479	-0,152	-0,130
-512,058	-11,547	-0,175	-0,083
-511,043	-18,343	0,018	0,008
-510,029	-200,000	0,023	0,140
-509,014	59,373	0,026	-0,019
-507,999	512,401	-0,023	0,038
-506,985	70,617	0,006	-0,004
-505,970	-176,367	-0,075	0,001
-504,956	-200,000	0,007	0,035
-503,941	279,494	0,012	-0,015
-502,926	-200,000	0,009	-0,046
-501,912	225,255	0,074	0,086
-500,897	168,632	0,126	0,130
-499,883	-200,000	0,029	-0,330
-498,868	-80,140	-0,103	0,025
-497,853	-44,672	-0,129	-0,046
-496,839	147,023	-0,086	0,084
-495,824	-47,539	-0,113	-0,040
-494,810	-158,796	0,086	0,003
-493,795	42,614	-0,033	-0,022
-492,781	-200,000	0,009	-0,125
-491,766	-86,723	-0,067	0,015
-490,751	800,000	0,052	0,109
-489,737	797,793	-0,014	0,028
-488,722	800,000	-0,053	-0,150
-487,708	-48,898	0,148	0,051
-486,693	-7,336	0,064	-0,031
-485,678	-200,000	0,006	0,071
-484,664	26,777	0,116	0,070
-483,649	-142,360	-0,109	0,008
-482,635	-106,758	0,046	0,007
-481,620	-165,170	-0,106	0,003
-480,605	-35,598	0,061	-0,024
-479,591	-191,189	-0,042	0,000
-478,576	505,273	0,026	-0,043
-477,562	4,500	-0,082	-0,043
-476,547	-200,000	-0,046	-0,180
-475,532	-72,304	-0,140	-0,037
-474,518	532,176	-0,075	0,129
-473,503	-30,404	0,121	0,049
-472,489	75,168	-0,132	0,100
-471,474	-200,000	0,016	0,110
-470,459	-200,000	-0,012	-0,114
-469,445	800,000	0,027	-0,064
-468,430	-98,118	-0,052	-0,010
-467,416	-200,000	0,048	0,157
-466,401	-200,000	0,009	0,061
-465,386	250,439	0,031	-0,038
-464,372	35,794	0,057	-0,036
-463,357	-25,552	0,065	-0,028
-462,343	188,573	-0,027	0,029
-461,328	-200,000	0,008	0,036
-460,313	443,173	0,038	0,060
-459,299	677,132	0,045	0,085
-458,284	-200,000	-0,003	-0,029
-457,270	-200,000	0,009	-0,030
-456,255	436,323	-0,093	0,147
-455,241	282,020	0,091	-0,118
-454,226	-76,903	0,087	0,022
-453,211	18,520	-0,042	0,024
-452,197	30,765	0,100	0,061
-451,182	800,000	-0,049	0,135
-450,168	413,728	-0,050	-0,076
-449,153	-154,122	-0,095	-0,005
-448,138	168,512	-0,066	-0,068
-447,124	-32,826	-0,050	0,020
-446,109	-200,000	-0,009	0,189
-445,095	121,743	0,137	0,123
-444,080	800,000	0,016	0,044
-443,065	-200,000	-0,012	0,068
-442,051	-120,943	0,087	-0,010
-441,036	356,645	0,038	-0,055
-440,022	-99,308	-0,072	0,013
-439,007	-139,592	0,035	-0,003
-437,992	-31,726	0,097	-0,039
-436,978	-149,878	-0,025	0,001
-435,963	-25,733	-0,018	-0,008
-434,949	-129,711	0,080	0,008
-433,934	134,545	0,053	-0,050
-432,919	-200,000	-0,005	-0,025
-431,905	138,235	-0,084	0,079
-430,890	-143,662	0,089	-0,006
-429,876	-136,582	0,087	-0,007
-428,861	800,000	-0,047	0,148
-427,846	-114,067	0,144	-0,020
-426,832	659,820	-0,027	0,051
-425,817	615,807	-0,090	-0,163
-424,803	-142,704	0,023	0,002
-423,788	800,000	0,033	0,080
-422,773	-200,000	-0,005	0,062
-421,759	155,477	0,026	0,025
-420,744	645,044	-0,037	-0,067
-419,730	-200,000	0,028	-0,140
-418,715	-200,000	0,027	-0,137
-417,701	-200,000	-0,011	0,081
-416,686	64,039	0,098	-0,070
-415,671	800,000	-0,019	0,053
-414,657	20,374	-0,089	0,051
-413,642	74,716	0,161	0,122
-412,628	800,000	-0,069	-0,144
-411,613	233,573	-0,039	-0,046
-410,598	-200,000	-0,011	0,100
-409,584	-200,000	-0,017	-0,125
-408,569	172,753	-0,086	0,089
-407,555	99,230	0,089	-0,074
-406,540	-200,000	0,014	-0,198
-405,525	534,803	0,056	0,096
-404,511	534,043	-0,034	-0,058
-403,496	318,372	-0,096	-0,131
-402,482	54,151	0,051	0,035
-401,467	800,000	0,053	0,111
-400,452	-39,616	0,068	-0,026
-399,438	-200,000	0,016	-0,069
-398,423	694,636	0,058	0,110
-397,409	21,317	-0,106	-0,062
-396,394	314,738	-0,089	-0,121
-395,379	-120,335	0,050	-0,006
-394,365	-0,619	-0,036	-0,018
-393,350	40,075	0,123	0,079
-392,336	-147,903	-0,029	0,002
-391,321	-122,526	0,151	-0,017
-390,306	273,611	-0,127	-0,161
-389,292	-200,000	-0,049	-0,181
-388,277	800,000	0,022	-0,056
-387,263	-9,622	-0,083	0,039
-386,248	-131,477	-0,068	-0,006
-385,233	-200,000	-0,024	0,124
-384,219	-43,459	-0,126	0,046
-383,204	-200,000	0,012	-0,059
-382,190	-200,000	-0,023	0,120
-381,175	-38,084	0,060	-0,023
-380,160	-200,000	-0,014	0,098
-379,146	150,145	0,062	-0,061
-378,131	648,999	-0,086	0,158
-377,117	-200,000	0,008	0,044
-376,102	213,761	-0,042	-0,048
-375,088	231,091	-0,047	0,056
-374,073	-100,811	0,057	-0,010
-373,058	-85,391	0,049	0,011
-372,044	800,000	0,023	-0,059
-371,029	305,135	-0,045	0,060
-370,015	155,407	0,054	-0,054
-369,000	278,860	0,132	-0,170
-367,985	-143,072	-0,176	-0,012
-366,971	-134,301	-0,057	-0,005
-365,956	-95,020	-0,061	0,012
-364,942	28,053	0,043	-0,026
-363,927	151,960	0,094	0,092
-362,912	324,147	-0,070	0,096
-361,898	-0,236	-0,128	-0,065
-360,883	599,006	-0,016	-0,028
-359,869	656,235	0,043	0,079
-358,854	44,736	-0,075	0,050
-357,839	-106,471	0,080	0,013
-356,825	800,000	0,049	0,112
-355,810	429,012	0,040	0,062
-354,796	800,000	-0,054	0,132
-353,781	-200,000	-0,048	0,172
-352,766	-200,000	0,016	-0,165
-351,752	103,582	0,093	-0,078
-350,737	89,171	0,073	-0,058
-349,723	-28,360	0,106	0,044
-348,708	-49,288	-0,101	0,034
-347,693	-11,233	-0,086	-0,041
-346,679	-12,466	-0,131	-0,061
-345,664	356,103	0,054	-0,078
-344,650	-200,000	-0,007	0,165
-343,635	-4,610	0,093	-0,046
-342,620	-106,591	-0,101	0,016
-341,606	800,000	0,038	0,082
-340,591	324,662	-0,099	0,137
-339,577	-200,000	0,011	-0,113
-338,562	-135,911	0,024	0,002
-337,548	-200,000	-0,007	-0,031
-336,533	163,335	0,057	-0,057
-335,518	-200,000	0,055	0,189
-334,504	226,650	0,044	-0,051
-333,489	-142,898	-0,042	0,003
-332,475	-78,926	-0,142	-0,034
-331,460	-200,000	-0,041	-0,155
-330,445	713,924	0,089	0,169
-329,431	-25,258	0,079	0,034
-328,416	-200,000	-0,004	0,023
-327,402	640,886	-0,078	0,143
-326,387	33,939	-0,151	0,094
-325,372	800,000	0,049	-0,106
-324,358	-89,111	-0,159	-0,033
-323,343	35,907	0,108	0,068
-322,329	-30,109	0,040	-0,016
-321,314	13,647	0,040	0,022
-320,299	-106,348	0,052	0,008
-319,285	-137,457	0,115	-0,009
-318,270	-24,264	0,104	-0,044
-317,256	-161,756	-0,082	-0,003
-316,241	-141,954	0,109	0,008
-315,226	-200,000	-0,002	-0,052
-314,212	152,538	0,077	0,075
-313,197	800,000	-0,037	0,088
-312,183	706,148	0,034	-0,065
-311,168	-200,000	-0,005	-0,077
-310,153	-200,000	0,012	0,051
-309,139	-53,339	0,155	0,051
-308,124	-101,871	0,081	-0,014
-307,110	-200,000	-0,011	0,053
-306,095	-45,783	0,059	-0,021
-305,080	-200,000	-0,018	0,104
-304,066	800,000	-0,010	-0,030
-303,051	-40,181	-0,070	-0,026
-302,037	22,515	0,019	0,011
-301,022	-200,000	0,007	0,023
-300,008	-64,167	0,086	0,025
-298,993	20,693	0,125	0,072
-297,978	-124,453	0,100	0,011
-296,964	254,116	-0,149	-0,182
-295,949	103,227	0,023	-0,019
-294,935	541,211	-0,019	-0,032
-293,920	204,259	-0,007	0,008
-292,905	-4,120	-0,076	0,038
-291,891	328,312	-0,009	-0,012
-290,876	800,000	-0,047	0,118
-289,862	492,163	-0,040	0,065
-288,847	-127,337	0,084	-0,009
-287,832	728,115	0,038	-0,074
-286,818	-200,000	-0,016	-0,086
-285,803	182,038	-0,050	0,053
-284,789	-200,000	0,005	0,086
-283,774	332,123	-0,046	-0,063
-282,759	-19,160	0,053	-0,023
-281,745	-66,129	-0,124	0,035
-280,730	-16,070	-0,103	0,047
-279,716	6,863	0,025	-0,013
-278,701	800,000	-0,010	-0,023
-277,686	151,246	0,093	-0,091
-276,672	581,564	-0,025	0,044
-275,657	800,000	0,003	0,008
-274,643	-75,409	-0,048	0,012
-273,628	-200,000	0,024	0,080
-272,613	-124,001	0,056	-0,006
-271,599	-15,525	0,096	0,044
-270,584	800,000	-0,018	0,044
-269,570	-200,000	-0,005	0,142
-268,555	286,266	0,055	0,071
-267,540	-200,000	-0,003	-0,042
-266,526	-200,000	0,001	-0,073
-265,511	158,788	0,093	-0,093
-264,497	-200,000	0,017	0,165
-263,482	-36,626	-0,113	0,043
-262,467	800,000	0,053	0,148
-261,453	-45,732	-0,094	0,033
-260,438	122,796	0,024	0,021
-259,424	-200,000	-0,000	0,048
-258,409	47,617	-0,075	-0,050
-257,395	62,957	0,091	-0,065
-256,380	-180,708	0,108	-0,002
-255,365	59,301	0,106	-0,075
-254,351	88,019	0,023	-0,018
-253,336	-124,881	-0,149	-0,016
-252,322	263,485	-0,072	-0,090
-251,307	-160,858	0,135	0,005
-250,292	-57,117	0,052	-0,016
-249,278	-116,094	-0,074	0,010
-248,263	38,813	0,088	0,056
-247,249	800,000	-0,045	-0,103
-246,234	-200,000	0,016	-0,103
-245,219	-51,933	0,068	-0,022
-244,205	294,780	0,009	-0,012
-243,190	-26,260	-0,120	-0,050
-242,176	-200,000	0,015	-0,140
-241,161	-200,000	0,034	0,135
-240,146	-94,428	-0,171	-0,033
-239,132	67,477	0,047	0,034
-238,117	800,000	0,058	-0,167
-237,103	264,174	0,009	-0,011
-236,088	149,665	0,033	-0,032
-235,073	17,296	0,098	-0,055
-234,059	358,342	-0,075	-0,107
-233,044	-112,007	0,130	-0,018
-232,030	-62,804	0,148	-0,044
-231,015	-99,325	-0,083	-0,015
-230,000	5,052	-0,048	-0,025
-228,986	-101,886	0,175	0,030
-227,971	-121,233	0,103	-0,012
-226,957	422,697	0,039	0,060
-225,942	-103,854	0,067	-0,011
-224,927	110,813	0,128	0,110
-223,913	800,000	-0,108	-0,269
-222,898	106,489	-0,111	-0,094
-221,884	800,000	-0,046	-0,099
-220,869	-33,849	0,122	-0,048
-219,855	-200,000	0,009	-0,091
-218,840	-200,000	-0,014	0,049
-217,825	47,257	-0,039	0,026
-216,811	145,124	0,088	-0,084
-215,796	-200,000	0,012	-0,100
-214,782	-40,447	-0,079	-0,029
-213,767	184,382	0,057	-0,060
-212,752	533,682	0,081	-0,137
-211,738	22,505	0,068	-0,040
-210,723	-200,000	-0,015	0,114
-209,709	-200,000	-0,003	-0,038
-208,694	326,211	-0,037	-0,051
-207,679	-114,795	0,068	0,009
-206,665	-200,000	0,010	0,061
-205,650	-121,221	0,068	-0,008
-204,636	133,507	-0,095	0,088
-203,621	-200,000	-0,026	0,102
-202,606	-88,858	-0,092	0,019
-201,592	-121,858	0,040	-0,005
-200,577	-200,000	-0,002	-0,150
-199,563	259,126	-0,033	-0,040
-198,548	-8,013	-0,121	-0,058
-197,533	201,022	0,088	0,096
-196,519	-200,000	-0,014	0,217
-195,504	36,103	-0,047	0,030
-194,490	-75,292	-0,068	0,017
-193,475	305,881	0,067	0,089
-192,460	-41,273	0,108	0,039
-191,446	419,398	0,026	-0,040
-190,431	54,647	0,090	0,062
-189,417	-15,817	0,067	0,030
-188,402	44,156	-0,068	0,044
-187,387	-200,000	-0,002	-0,059
-186,373	135,056	-0,099	0,091
-185,358	199,537	0,079	0,086
-184,344	0,432	0,052	0,026
-183,329	800,000	-0,039	0,090
-182,315	292,094	-0,019	-0,024
-181,300	-200,000	-0,021	0,106
-180,285	-41,758	-0,107	0,039
-179,271	-200,000	-0,009	0,088
-178,256	11,445	0,054	0,029
-177,242	-58,673	0,066	0,020
-176,227	198,914	-0,026	0,029
-175,212	-200,000	0,021	0,118
-174,198	-111,360	-0,083	0,012
-173,183	357,492	-0,046	0,065
-172,169	29,519	0,080	0,048
-171,154	-200,000	-0,060	-0,189
-170,139	-25,631	-0,011	0,005
-169,125	800,000	0,038	0,097
-168,110	-105,815	-0,124	0,020
-167,096	461,638	0,097	-0,154
-166,081	193,375	-0,050	-0,054
-165,066	-200,000	0,017	-0,076
-164,052	213,429	0,054	0,061
-163,037	-200,000	-0,017	0,115
-162,023	381,707	-0,073	-0,107
-161,008	-137,548	0,165	-0,013
-159,993	-86,933	0,026	0,006
-158,979	-200,000	0,004	0,073
-157,964	-200,000	-0,004	0,060
-156,950	800,000	0,063	0,142
-155,935	29,102	0,075	0,045
-154,920	-162,528	-0,041	-0,001
-153,906	800,000	0,047	0,119
-152,891	52,109	0,102	0,069
-151,877	-200,000	0,006	-0,075
-150,862	-200,000	-0,016	-0,191
-149,847	-8,804	0,061	-0,029
-148,833	-91,433	-0,198	0,040
-147,818	120,840	0,133	0,118
-146,804	-200,000	-0,040	0,230
-145,789	-200,000	0,041	0,153
-144,775	91,921	-0,077	-0,062
-143,760	148,281	0,035	-0,033
-142,745	-200,000	0,001	-0,024
-141,731	800,000	0,053	-0,134
-140,716	-200,000	0,026	0,131
-139,702	-200,000	0,036	0,130
-138,687	-200,000	-0,020	0,076
-137,672	116,485	-0,081	0,070
-136,658	141,172	-0,170	-0,160
-135,643	606,286	-0,046	0,081
-134,629	-108,224	0,008	0,001
-133,614	-200,000	0,013	-0,080
-132,599	-126,521	0,088	0,009
-131,585	800,000	-0,021	0,064
-130,570	10,048	0,090	0,049
-129,556	42,868	0,037	-0,024
-128,541	8,535	-0,109	-0,058
-127,526	657,844	-0,013	-0,025
-126,512	-37,887	0,085	0,032
-125,497	30,737	0,090	0,054
-124,483	-200,000	0,001	0,030
-123,468	-37,816	0,014	-0,005
-122,453	-128,985	-0,159	-0,016
-121,439	800,000	0,019	-0,041
-120,424	747,959	0,012	-0,024
