DTS Sentinel unit serial number:	SN410029Multiplexer serial number:	ORYXHardware model number:	OX2-SRSoftware version number:	ORYX F/W v4,00 Oryx Data Collector v3.7.2.0data status	okinstallation	BH3 CH2differential loss correction	single-endedforward channel	channel 2reverse channel	N/Adate	2023/12/06time	02:52:28forward acquisition time	300,00reverse acquisition time	0,00gamma	499,1914k internal	0,3197k external	0,3197temperature offset calibration	1,0000default loss term (dB/km)	0,3820temperature slope calibration	1,0000multiplexer offset coefficient	1,0000multiplexer slope coefficient	1,0000fibre end	0,00T internal ref (°C)	8,98T ext. ref 1 (°C)	-5,87T ext. ref 2 (°C)	-5,95length (m)	temperature (°C)	Stokes	anti-Stokes-744,400	380,841	-0,073	-0,109
-743,385	19,798	-0,188	0,110
-742,371	-130,085	0,119	-0,012
-741,356	-122,623	-0,259	0,030
-740,342	-200,000	0,007	-0,064
-739,327	11,945	-0,221	0,124
-738,312	408,102	-0,140	-0,216
-737,298	-133,891	-0,131	0,012
-736,283	134,792	-0,070	-0,066
-735,269	800,000	-0,083	0,206
-734,254	-63,492	-0,164	-0,049
-733,239	-154,482	-0,415	-0,020
-732,225	-122,603	0,068	-0,008
-731,210	-200,000	-0,006	0,061
-730,196	317,643	-0,092	-0,128
-729,181	-200,000	0,009	0,102
-728,167	800,000	0,074	-0,150
-727,152	-49,256	-0,050	0,017
-726,137	-145,623	-0,131	-0,008
-725,123	-200,000	-0,017	-0,119
-724,108	33,924	-0,146	-0,092
-723,094	323,635	-0,114	-0,159
-722,079	183,842	0,070	0,075
-721,064	-20,614	-0,078	0,035
-720,050	440,598	-0,038	-0,061
-719,035	-200,000	0,028	-0,124
-718,021	173,917	-0,037	-0,039
-717,006	-1,182	-0,081	-0,042
-715,991	164,154	-0,055	0,056
-714,977	-90,504	-0,153	0,032
-713,962	361,222	-0,039	-0,058
-712,948	-200,000	0,022	-0,098
-711,933	-108,820	0,037	0,006
-710,918	-200,000	0,015	-0,051
-709,904	293,723	-0,079	-0,105
-708,889	735,006	-0,096	-0,188
-707,875	-65,176	-0,121	0,035
-706,860	-87,337	0,098	0,021
-705,845	-123,079	0,067	-0,008
-704,831	366,620	0,102	0,150
-703,816	-105,530	-0,088	-0,014
-702,802	107,668	-0,091	-0,079
-701,787	117,873	-0,088	-0,079
-700,772	-200,000	-0,021	-0,105
-699,758	-200,000	0,007	-0,059
-698,743	800,000	0,051	0,103
-697,729	-18,725	0,169	0,076
-696,714	-200,000	-0,033	-0,143
-695,699	98,391	-0,083	-0,070
-694,685	-61,674	-0,078	-0,024
-693,670	-200,000	-0,053	-0,190
-692,656	306,339	-0,029	0,039
-691,641	122,326	0,162	0,147
-690,627	800,000	-0,060	0,134
-689,612	-69,697	-0,096	-0,027
-688,597	438,834	-0,081	0,129
-687,583	-154,060	-0,014	0,001
-686,568	336,188	0,017	-0,025
-685,554	800,000	-0,014	-0,036
-684,539	800,000	-0,077	0,216
-683,524	-200,000	-0,004	-0,101
-682,510	59,048	-0,082	0,058
-681,495	-200,000	0,017	-0,106
-680,481	-114,801	-0,042	-0,006
-679,466	-146,981	-0,102	0,006
-678,451	-200,000	-0,019	-0,101
-677,437	-107,566	-0,062	0,010
-676,422	42,749	0,014	0,009
-675,408	-67,147	-0,063	0,018
-674,393	-200,000	-0,000	0,143
-673,378	-116,873	-0,155	0,020
-672,364	413,339	0,005	-0,007
-671,349	222,689	0,056	-0,066
-670,335	800,000	-0,048	-0,117
-669,320	-23,104	0,093	-0,040
-668,305	-79,082	0,038	-0,009
-667,291	714,216	-0,028	0,054
-666,276	-93,459	-0,102	0,020
-665,262	-71,959	-0,170	-0,046
-664,247	-200,000	-0,020	-0,160
-663,232	56,554	-0,074	-0,052
-662,218	143,020	-0,064	-0,062
-661,203	-200,000	0,025	0,106
-660,189	499,648	0,074	0,124
-659,174	-200,000	0,001	0,031
-658,159	121,183	-0,084	-0,076
-657,145	391,552	0,041	-0,062
-656,130	800,000	-0,032	-0,087
-655,116	-200,000	-0,018	0,079
-654,101	-109,558	-0,138	0,021
-653,086	-200,000	0,013	-0,098
-652,072	479,181	0,030	-0,049
-651,057	228,141	0,085	-0,100
-650,043	218,204	-0,067	-0,077
-649,028	-200,000	0,001	0,051
-648,014	-45,264	-0,080	-0,029
-646,999	320,673	0,059	-0,082
-645,984	800,000	0,041	-0,112
-644,970	124,934	-0,157	-0,144
-643,955	-200,000	-0,050	-0,185
-642,941	800,000	-0,018	0,041
-641,926	69,504	0,144	-0,108
-640,911	299,580	0,059	-0,080
-639,897	-94,503	0,106	-0,021
-638,882	-186,070	-0,175	-0,002
-637,868	154,735	-0,119	-0,119
-636,853	-200,000	-0,018	0,134
-635,838	-200,000	-0,010	-0,121
-634,824	-200,000	-0,026	-0,124
-633,809	800,000	0,027	-0,086
-632,795	146,655	0,093	0,090
-631,780	-61,665	-0,135	-0,041
-630,765	-134,399	-0,100	-0,009
-629,751	800,000	-0,061	-0,160
-628,736	800,000	-0,053	-0,139
-627,722	-72,454	-0,157	0,042
-626,707	-39,683	0,005	0,002
-625,692	503,455	-0,031	-0,053
-624,678	543,632	0,048	-0,084
-623,663	449,767	-0,075	0,120
-622,649	-200,000	-0,009	-0,074
-621,634	800,000	0,010	-0,026
-620,619	800,000	-0,014	-0,038
-619,605	-200,000	-0,001	0,099
-618,590	622,708	-0,014	-0,027
-617,576	-62,196	-0,046	0,014
-616,561	-200,000	-0,002	-0,092
-615,546	-200,000	-0,019	-0,159
-614,532	-5,453	-0,117	-0,058
-613,517	-8,833	0,111	-0,054
-612,503	-126,844	-0,076	0,008
-611,488	295,800	0,036	0,048
-610,474	-200,000	-0,015	-0,080
-609,459	399,736	-0,018	0,028
-608,444	182,061	-0,072	-0,077
-607,430	-55,141	0,062	-0,020
-606,415	239,721	-0,100	0,120
-605,401	-200,000	-0,026	0,086
-604,386	58,168	0,139	0,099
-603,371	-77,546	-0,049	-0,012
-602,357	-200,000	-0,041	-0,137
-601,342	-6,629	-0,145	-0,071
-600,328	-200,000	0,022	-0,184
-599,313	-200,000	0,003	-0,087
-598,298	39,240	-0,090	-0,058
-597,284	6,100	0,088	-0,047
-596,269	69,705	0,089	-0,066
-595,255	275,766	0,039	-0,050
-594,240	237,379	-0,098	-0,117
-593,225	-200,000	-0,012	0,097
-592,211	120,687	-0,034	0,031
-591,196	119,801	0,081	0,072
-590,182	-35,067	-0,185	-0,073
-589,167	-200,000	-0,009	0,031
-588,152	800,000	-0,014	-0,034
-587,138	323,002	-0,039	0,054
-586,123	-125,956	0,065	0,007
-585,109	100,640	0,028	-0,023
-584,094	-159,096	-0,060	0,002
-583,079	800,000	-0,026	0,077
-582,065	696,303	0,080	0,153
-581,050	-82,045	-0,150	0,035
-580,036	37,444	0,108	0,069
-579,021	14,663	-0,078	-0,044
-578,006	-13,109	-0,054	-0,025
-576,992	626,624	0,064	-0,118
-575,977	-159,316	0,065	-0,003
-574,963	-195,402	0,085	0,000
-573,948	-89,030	-0,171	0,036
-572,934	226,885	0,080	0,094
-571,919	236,930	-0,033	-0,040
-570,904	496,435	0,025	0,042
-569,890	-91,605	0,133	0,027
-568,875	130,618	-0,063	0,058
-567,861	648,774	0,053	0,098
-566,846	579,993	-0,016	0,028
-565,831	-13,399	-0,068	-0,032
-564,817	800,000	-0,079	-0,162
-563,802	196,422	-0,031	-0,034
-562,788	8,262	-0,014	0,008
-561,773	-9,290	0,152	0,073
-560,758	-200,000	0,005	0,041
-559,744	84,277	0,083	-0,066
-558,729	-73,167	0,016	0,004
-557,715	378,601	-0,083	-0,123
-556,700	42,256	0,098	-0,064
-555,685	99,186	0,038	0,032
-554,671	-200,000	0,005	-0,041
-553,656	-3,900	0,047	-0,024
-552,642	125,236	0,024	-0,022
-551,627	366,479	-0,070	-0,102
-550,612	262,621	-0,071	0,089
-549,598	499,993	-0,062	-0,103
-548,583	800,000	0,055	-0,112
-547,569	-109,778	0,083	-0,013
-546,554	-87,283	0,055	-0,012
-545,539	58,859	0,070	-0,050
-544,525	-36,102	0,142	0,055
-543,510	-62,480	0,097	0,029
-542,496	-104,059	-0,176	-0,029
-541,481	-21,024	-0,012	-0,005
-540,466	318,836	0,048	0,067
-539,452	800,000	-0,048	0,150
-538,437	0,247	-0,130	0,067
-537,423	-55,616	0,140	0,045
-536,408	-28,975	-0,081	0,033
-535,393	-19,868	-0,117	-0,052
-534,379	-102,822	-0,032	-0,005
-533,364	195,017	0,029	0,032
-532,350	161,634	0,030	0,031
-531,335	69,554	0,200	0,148
-530,321	-200,000	0,002	0,011
-529,306	800,000	-0,047	-0,095
-528,291	-200,000	0,009	-0,041
-527,277	157,605	-0,144	-0,144
-526,262	-200,000	-0,000	-0,067
-525,248	203,740	0,088	0,099
-524,233	-200,000	0,006	0,032
-523,218	61,599	0,128	-0,092
-522,204	-200,000	-0,024	0,090
-521,189	-184,893	-0,144	-0,002
-520,175	-200,000	0,016	-0,097
-519,160	-180,882	-0,138	0,002
-518,145	113,250	0,069	-0,061
-517,131	-69,223	0,039	0,011
-516,116	-43,059	0,097	0,035
-515,102	-200,000	-0,005	0,095
-514,087	631,741	0,027	0,049
-513,072	800,000	-0,078	0,162
-512,058	132,600	-0,013	0,012
-511,043	83,972	-0,027	0,021
-510,029	-200,000	0,023	0,121
-509,014	-200,000	-0,015	0,104
-507,999	334,675	-0,046	-0,064
-506,985	28,475	0,041	-0,025
-505,970	610,932	-0,048	-0,086
-504,956	135,505	0,021	-0,020
-503,941	128,764	-0,082	0,076
-502,926	800,000	0,022	-0,066
-501,912	-200,000	-0,020	0,110
-500,897	532,125	-0,009	0,016
-499,883	58,234	-0,088	0,062
-498,868	156,010	-0,117	-0,117
-497,853	-158,953	-0,134	-0,005
-496,839	24,223	0,092	-0,054
-495,824	42,828	0,126	0,083
-494,810	182,333	0,077	-0,082
-493,795	-144,221	0,082	0,005
-492,781	172,062	-0,111	-0,116
-491,766	-200,000	0,003	-0,062
-490,751	-200,000	-0,009	-0,165
-489,737	258,006	-0,103	-0,128
-488,722	-200,000	0,002	-0,085
-487,708	232,403	0,036	0,043
-486,693	189,823	0,073	0,079
-485,678	768,873	0,033	0,064
-484,664	27,574	0,043	0,026
-483,649	16,443	-0,007	0,004
-482,635	800,000	-0,010	0,029
-481,620	-200,000	0,007	0,091
-480,605	-200,000	0,006	0,060
-479,591	-27,673	0,121	0,050
-478,576	279,366	-0,062	0,080
-477,562	800,000	-0,047	-0,107
-476,547	19,632	-0,139	-0,080
-475,532	-23,528	-0,036	-0,016
-474,518	149,744	-0,094	0,092
-473,503	189,040	0,082	-0,089
-472,489	260,736	0,046	-0,058
-471,474	-103,223	-0,043	0,007
-470,459	-40,008	-0,135	-0,050
-469,445	-36,307	0,056	0,022
-468,430	-200,000	-0,018	0,103
-467,416	-134,635	0,112	0,010
-466,401	46,011	0,075	-0,050
-465,386	130,401	0,025	-0,023
-464,372	-54,531	-0,160	-0,052
-463,357	-55,582	0,023	-0,007
-462,343	-200,000	-0,009	-0,113
-461,328	-135,817	-0,104	-0,009
-460,313	-200,000	-0,016	0,060
-459,299	-147,098	0,136	0,008
-458,284	175,616	0,052	-0,055
-457,270	800,000	0,039	-0,088
-456,255	-27,554	0,101	0,042
-455,241	111,472	-0,042	0,036
-454,226	22,878	-0,071	-0,042
-453,211	-57,787	0,123	-0,038
-452,197	800,000	-0,039	0,114
-451,182	-200,000	0,025	0,188
-450,168	46,667	-0,012	0,008
-449,153	132,215	0,122	0,113
-448,138	-23,867	-0,058	0,025
-447,124	365,673	-0,062	0,090
-446,109	14,483	0,071	-0,040
-445,095	-172,347	0,024	-0,001
-444,080	260,113	0,101	0,126
-443,065	-110,032	-0,108	0,016
-442,051	-200,000	0,006	0,091
-441,036	-200,000	-0,003	-0,016
-440,022	-56,861	0,055	0,017
-439,007	-200,000	0,024	0,079
-437,992	-110,397	0,154	0,023
-436,978	-200,000	0,003	0,047
-435,963	181,494	0,051	-0,054
-434,949	253,305	0,044	-0,055
-433,934	91,464	-0,180	-0,145
-432,919	101,620	0,064	-0,054
-431,905	-200,000	0,013	0,111
-430,890	-0,465	-0,075	-0,038
-429,876	-152,043	0,155	-0,008
-428,861	207,587	-0,055	-0,062
-427,846	-137,767	0,035	-0,003
-426,832	-200,000	0,019	-0,120
-425,817	150,091	-0,159	0,155
-424,803	-200,000	0,018	-0,076
-423,788	430,092	0,081	0,126
-422,773	109,086	0,075	0,064
-421,759	281,945	0,040	0,051
-420,744	52,904	-0,041	0,028
-419,730	-120,597	-0,087	0,010
-418,715	57,038	0,085	0,059
-417,701	-200,000	0,009	-0,119
-416,686	-42,409	0,019	-0,007
-415,671	800,000	0,073	0,155
-414,657	800,000	-0,045	-0,099
-413,642	-104,291	0,055	0,009
-412,628	48,476	-0,078	0,053
-411,613	800,000	-0,034	-0,080
-410,598	308,952	-0,045	-0,061
-409,584	-200,000	0,004	0,101
-408,569	-200,000	0,008	0,032
-407,555	141,950	0,032	0,030
-406,540	-131,343	-0,029	-0,003
-405,525	800,000	0,049	0,108
-404,511	-200,000	0,005	-0,066
-403,496	800,000	-0,035	-0,092
-402,482	351,755	0,017	-0,024
-401,467	-200,000	0,001	-0,061
-400,452	800,000	0,027	0,064
-399,438	15,259	0,059	-0,033
-398,423	90,800	0,100	-0,081
-397,409	349,135	-0,028	-0,039
-396,394	414,984	0,048	0,074
-395,379	-200,000	-0,024	0,105
-394,365	681,615	0,058	-0,108
-393,350	800,000	-0,056	0,137
-392,336	-37,301	-0,025	-0,009
-391,321	-35,120	-0,159	-0,062
-390,306	-46,036	-0,043	0,015
-389,292	419,361	0,095	-0,147
-388,277	-200,000	-0,010	0,081
-387,263	276,535	0,067	-0,086
-386,248	-200,000	0,005	-0,075
-385,233	116,749	-0,029	0,026
-384,219	800,000	-0,067	-0,192
-383,204	800,000	0,076	0,191
-382,190	-200,000	-0,025	0,080
-381,175	-124,398	0,117	-0,013
-380,160	-200,000	0,020	0,139
-379,146	428,018	0,022	-0,034
-378,131	-43,929	0,048	0,017
-377,117	-77,443	0,015	-0,004
-376,102	-76,821	-0,096	-0,024
-375,088	-200,000	0,008	0,069
-374,073	13,786	0,112	0,063
-373,058	-200,000	0,001	0,077
-372,044	331,231	0,023	0,032
-371,029	344,761	-0,130	0,184
-370,015	312,192	-0,050	0,068
-369,000	-200,000	-0,007	-0,043
-367,985	-200,000	-0,014	-0,087
-366,971	132,925	0,118	-0,109
-365,956	-76,282	-0,125	0,031
-364,942	51,293	0,112	0,076
-363,927	-176,398	0,125	0,002
-362,912	86,414	0,105	-0,083
-361,898	248,149	-0,100	0,122
-360,883	-90,960	-0,177	-0,036
-359,869	135,543	-0,037	0,035
-358,854	-200,000	-0,031	0,119
-357,839	500,339	0,076	0,126
-356,825	-200,000	0,025	0,110
-355,810	-200,000	-0,015	0,086
-354,796	110,741	0,113	-0,098
-353,781	227,925	-0,101	-0,118
-352,766	-11,298	0,165	-0,078
-351,752	800,000	-0,074	0,173
-350,737	800,000	0,061	0,183
-349,723	-200,000	0,029	0,101
-348,708	-100,657	-0,086	0,015
-347,693	445,865	-0,055	0,087
-346,679	800,000	-0,034	-0,080
-345,664	-6,768	0,089	-0,043
-344,650	65,509	-0,103	0,075
-343,635	457,448	-0,031	0,049
-342,620	800,000	0,048	-0,117
-341,606	75,294	0,105	-0,079
-340,591	86,066	0,046	0,037
-339,577	185,556	0,087	-0,093
-338,562	800,000	-0,033	-0,091
-337,548	456,237	0,031	-0,049
-336,533	-200,000	0,010	-0,051
-335,518	-200,000	-0,010	0,047
-334,504	63,218	-0,078	0,056
-333,489	203,670	-0,072	-0,080
-332,475	800,000	0,012	0,037
-331,460	16,898	0,027	0,015
-330,445	56,672	0,059	-0,041
-329,431	-41,122	0,138	0,051
-328,416	-88,950	0,054	-0,011
-327,402	-200,000	0,016	0,079
-326,387	-200,000	-0,002	0,058
-325,372	227,263	0,056	-0,066
-324,358	321,699	-0,089	-0,121
-323,343	388,836	0,037	0,056
-322,329	-131,522	0,023	-0,002
-321,314	169,542	0,081	-0,083
-320,299	-200,000	0,012	0,190
-319,285	13,620	-0,123	0,068
-318,270	-14,462	-0,026	0,012
-317,256	-200,000	-0,000	0,019
-316,241	92,362	0,133	0,108
-315,226	67,376	0,074	-0,054
-314,212	188,706	0,040	-0,043
-313,197	718,751	-0,012	0,024
-312,183	-151,346	0,076	-0,004
-311,168	-51,725	-0,128	0,042
-310,153	800,000	-0,070	0,176
-309,139	27,850	0,098	-0,059
-308,124	-50,539	0,118	0,040
-307,110	-200,000	-0,036	0,221
-306,095	386,239	0,068	0,101
-305,080	800,000	-0,030	0,060
-304,066	-78,264	0,034	-0,008
-303,051	-122,381	-0,046	-0,005
-302,037	-55,723	-0,136	-0,043
-301,022	64,353	-0,087	0,063
-300,008	125,843	0,164	-0,148
-298,993	3,843	0,064	-0,033
-297,978	-133,928	0,026	-0,002
-296,964	-200,000	0,006	-0,122
-295,949	800,000	-0,049	-0,115
-294,935	-200,000	0,006	-0,075
-293,920	-8,297	0,120	-0,058
-292,905	161,640	0,114	0,115
-291,891	-91,703	0,195	-0,039
-290,876	19,278	-0,133	0,076
-289,862	159,343	-0,061	-0,060
-288,847	-200,000	0,019	-0,079
-287,832	284,828	-0,034	-0,044
-286,818	95,358	0,024	-0,020
-285,803	-107,161	-0,026	0,004
-284,789	48,870	0,089	0,060
-283,774	-200,000	0,002	0,040
-282,759	-20,396	0,047	0,021
-281,745	-200,000	-0,006	0,042
-280,730	44,045	-0,161	0,106
-279,716	42,579	0,049	-0,032
-278,701	205,822	-0,175	-0,195
-277,686	368,480	-0,014	0,021
-276,672	-200,000	-0,033	0,107
-275,657	40,252	-0,058	0,037
-274,643	166,892	-0,069	-0,070
-273,628	-200,000	-0,019	-0,129
-272,613	800,000	0,028	-0,062
-271,599	150,127	0,046	0,045
-270,584	244,160	0,046	0,055
-269,570	139,135	0,054	0,051
-268,555	-37,264	-0,051	-0,019
-267,540	-200,000	0,017	-0,085
-266,526	-100,968	-0,193	-0,034
-265,511	-200,000	-0,003	-0,072
-264,497	-200,000	0,004	-0,110
-263,482	69,163	0,159	0,116
-262,467	59,997	0,057	0,040
-261,453	131,297	-0,070	0,064
-260,438	-38,931	-0,076	-0,028
-259,424	42,941	-0,054	-0,035
-258,409	-5,546	-0,042	0,020
-257,395	82,543	-0,059	-0,046
-256,380	-97,189	0,117	0,022
-255,365	174,695	-0,121	0,126
-254,351	95,613	-0,065	-0,053
-253,336	7,337	-0,048	0,025
-252,322	345,313	-0,036	-0,050
-251,307	-200,000	0,030	-0,172
-250,292	-73,012	0,163	-0,043
-249,278	800,000	0,034	0,097
-248,263	99,670	0,047	0,039
-247,249	-200,000	-0,043	0,150
-246,234	-200,000	0,003	-0,059
-245,219	800,000	0,040	-0,098
-244,205	-200,000	0,003	-0,147
-243,190	724,744	-0,037	-0,071
-242,176	-200,000	0,014	0,117
-241,161	-200,000	0,008	0,121
-240,146	334,930	-0,047	0,066
-239,132	109,262	-0,045	0,038
-238,117	9,709	-0,092	-0,050
-237,103	491,951	-0,047	-0,078
-236,088	800,000	0,037	-0,099
-235,073	-200,000	-0,019	0,136
-234,059	286,606	0,082	0,106
-233,044	378,535	-0,051	0,075
-232,030	94,592	-0,052	-0,042
-231,015	-32,775	0,030	0,012
-230,000	-149,150	-0,017	-0,001
-228,986	-88,467	0,035	0,007
-227,971	75,858	0,070	0,052
-226,957	-200,000	-0,023	0,079
-225,942	129,042	0,121	0,110
-224,927	107,708	-0,181	-0,154
-223,913	169,561	-0,026	-0,026
-222,898	313,813	0,095	-0,128
-221,884	97,065	-0,097	-0,080
-220,869	268,932	0,058	-0,072
-219,855	-45,651	-0,111	-0,039
-218,840	-200,000	0,027	0,137
-217,825	-67,143	0,204	-0,057
-216,811	86,124	-0,087	0,068
-215,796	-144,335	-0,046	0,003
-214,782	800,000	-0,010	-0,023
-213,767	181,736	0,085	-0,089
-212,752	236,831	0,075	0,089
-211,738	-200,000	0,001	-0,044
-210,723	-200,000	-0,013	0,048
-209,709	-200,000	-0,030	0,099
-208,694	-71,579	-0,080	-0,021
-207,679	66,237	-0,066	-0,048
-206,665	17,131	-0,163	0,092
-205,650	-1,268	0,065	0,032
-204,636	334,320	0,033	0,045
-203,621	800,000	0,064	-0,127
-202,606	506,801	-0,074	-0,122
-201,592	800,000	0,050	-0,120
-200,577	800,000	0,020	-0,045
-199,563	800,000	0,028	0,083
-198,548	800,000	-0,006	-0,018
-197,533	-105,829	0,013	-0,002
-196,519	800,000	-0,011	0,023
-195,504	-200,000	-0,020	0,063
-194,490	800,000	-0,092	-0,204
-193,475	-200,000	-0,014	-0,078
-192,460	70,743	-0,079	-0,058
-191,446	800,000	0,041	0,099
-190,431	317,152	0,073	0,099
-189,417	-200,000	0,021	0,135
-188,402	-200,000	0,010	0,133
-187,387	39,164	0,106	0,067
-186,373	-68,699	0,090	0,025
-185,358	-169,576	-0,064	0,002
-184,344	61,948	-0,065	-0,046
-183,329	-51,805	0,147	0,049
-182,315	-75,395	0,052	0,013
-181,300	-14,614	-0,004	0,002
-180,285	-200,000	0,012	-0,041
-179,271	316,668	0,117	-0,158
-178,256	-200,000	0,007	0,024
-177,242	-200,000	-0,002	0,076
-176,227	507,173	0,083	0,138
-175,212	-200,000	-0,009	-0,032
-174,198	61,364	-0,093	-0,066
-173,183	-200,000	-0,024	0,116
-172,169	-200,000	0,005	0,073
-171,154	-105,104	-0,147	-0,024
-170,139	-200,000	-0,000	0,006
-169,125	257,990	-0,034	0,041
-168,110	800,000	0,022	0,046
-167,096	52,064	-0,120	-0,081
-166,081	42,313	0,082	-0,053
-165,066	-106,374	-0,056	0,009
-164,052	76,128	-0,117	-0,088
-163,037	-200,000	0,036	0,139
-162,023	570,177	0,018	0,031
-161,008	239,720	-0,089	-0,106
-159,993	-9,661	-0,021	0,010
-158,979	53,869	0,113	0,077
-157,964	631,462	-0,069	-0,126
-156,950	-103,356	-0,016	0,003
-155,935	243,684	0,121	0,144
-154,920	-158,133	-0,048	0,002
-153,906	163,024	0,112	0,112
-152,891	800,000	-0,023	0,065
-151,877	-200,000	-0,028	-0,098
-150,862	135,990	-0,100	-0,093
-149,847	5,890	-0,116	-0,061
-148,833	48,629	-0,064	-0,043
-147,818	-5,993	0,114	-0,055
-146,804	-36,632	-0,023	0,009
-145,789	-29,254	0,066	0,027
-144,775	263,610	-0,105	0,130
-143,760	800,000	-0,051	-0,118
-142,745	800,000	-0,015	-0,039
-141,731	-186,812	-0,054	-0,001
-140,716	-15,249	0,047	0,021
-139,702	-9,246	-0,044	-0,021
-138,687	800,000	0,015	-0,044
-137,672	308,909	0,045	-0,059
-136,658	-141,134	-0,079	0,006
-135,643	800,000	-0,010	-0,030
-134,629	-200,000	-0,022	0,147
-133,614	-61,217	0,159	0,047
-132,599	16,670	-0,040	0,022
-131,585	-200,000	-0,012	0,231
-130,570	184,946	0,074	0,078
-129,556	-28,661	-0,084	-0,034
-128,541	368,534	-0,073	0,106
-127,526	-200,000	0,023	-0,093
-126,512	800,000	0,049	-0,112
-125,497	-200,000	-0,015	0,068
-124,483	-93,086	0,087	0,017
-123,468	-55,982	-0,058	0,018
-122,453	-200,000	0,063	0,208
-121,439	-200,000	-0,004	0,172
-120,424	93,541	0,107	-0,086
-119,410	-109,285	0,070	0,010
