DTS Sentinel unit serial number:	SN410029Multiplexer serial number:	ORYXHardware model number:	OX2-SRSoftware version number:	ORYX F/W v4,00 Oryx Data Collector v3.7.2.0data status	okinstallation	BH3 CH2differential loss correction	single-endedforward channel	channel 2reverse channel	N/Adate	2023/12/06time	01:07:29forward acquisition time	300,00reverse acquisition time	0,00gamma	499,1914k internal	0,3196k external	0,3196temperature offset calibration	1,0000default loss term (dB/km)	0,3820temperature slope calibration	1,0000multiplexer offset coefficient	1,0000multiplexer slope coefficient	1,0000fibre end	0,00T internal ref (°C)	9,29T ext. ref 1 (°C)	-5,66T ext. ref 2 (°C)	-5,73length (m)	temperature (°C)	Stokes	anti-Stokes-744,400	47,801	-0,113	-0,077
-743,385	531,188	-0,113	0,195
-742,371	217,080	0,064	-0,074
-741,356	241,014	-0,131	0,159
-740,342	6,436	0,154	-0,083
-739,327	162,677	-0,143	0,146
-738,312	-99,020	-0,038	-0,007
-737,298	-17,351	-0,170	0,078
-736,283	-200,000	-0,034	-0,200
-735,269	-21,292	-0,135	0,060
-734,254	113,138	0,039	-0,034
-733,239	-152,167	-0,407	0,021
-732,225	38,388	0,179	-0,116
-731,210	-50,005	0,069	0,024
-730,196	236,904	-0,064	0,077
-729,181	-135,145	-0,067	-0,006
-728,167	259,595	0,058	-0,073
-727,152	800,000	0,025	-0,079
-726,137	-151,480	-0,103	0,005
-725,123	-35,666	-0,084	-0,033
-724,108	74,891	-0,055	-0,042
-723,094	238,789	0,027	-0,033
-722,079	449,628	0,127	-0,205
-721,064	-70,214	-0,097	-0,027
-720,050	74,199	-0,040	-0,031
-719,035	32,306	-0,075	-0,047
-718,021	-200,000	0,011	-0,107
-717,006	-75,378	-0,078	-0,020
-715,991	114,175	-0,062	-0,055
-714,977	-123,732	0,147	0,017
-713,962	200,737	-0,051	0,057
-712,948	433,351	0,095	0,150
-711,933	115,743	-0,028	0,025
-710,918	800,000	0,025	-0,066
-709,904	-153,370	-0,147	0,007
-708,889	-200,000	-0,001	0,055
-707,875	58,690	-0,065	-0,046
-706,860	37,661	0,029	0,019
-705,845	-173,061	-0,072	0,002
-704,831	43,894	0,047	-0,031
-703,816	122,409	-0,120	-0,109
-702,802	162,402	0,056	0,058
-701,787	-58,567	-0,077	0,024
-700,772	-200,000	0,001	0,037
-699,758	-200,000	0,018	-0,069
-698,743	357,698	-0,042	0,061
-697,729	-28,859	0,147	-0,061
-696,714	11,564	0,137	0,076
-695,699	-200,000	0,008	0,113
-694,685	419,752	-0,078	-0,122
-693,670	35,780	-0,073	-0,046
-692,656	-200,000	-0,002	0,036
-691,641	20,946	0,122	0,072
-690,627	-79,548	0,075	-0,018
-689,612	-114,856	-0,080	0,011
-688,597	-114,829	-0,075	-0,010
-687,583	145,166	-0,151	-0,147
-686,568	76,068	-0,044	-0,034
-685,554	-200,000	0,021	-0,125
-684,539	93,840	0,050	-0,041
-683,524	719,784	-0,031	0,060
-682,510	401,859	-0,021	-0,032
-681,495	86,556	-0,023	0,018
-680,481	29,017	-0,084	0,052
-679,466	-200,000	-0,013	-0,065
-678,451	28,390	0,068	-0,042
-677,437	149,256	0,049	-0,049
-676,422	381,247	0,030	-0,045
-675,408	217,871	0,052	0,061
-674,393	-37,952	0,084	-0,032
-673,378	177,891	0,049	-0,052
-672,364	40,921	0,079	-0,052
-671,349	48,877	-0,047	0,032
-670,335	281,703	-0,066	-0,087
-669,320	-19,698	-0,105	-0,047
-668,305	-37,811	0,136	-0,052
-667,291	556,105	-0,030	-0,053
-666,276	-200,000	0,028	-0,165
-665,262	-123,484	-0,069	-0,008
-664,247	451,361	0,025	-0,041
-663,232	158,214	0,025	0,025
-662,218	94,480	0,082	-0,068
-661,203	-101,762	-0,104	-0,018
-660,189	-71,095	0,160	0,043
-659,174	-200,000	0,014	0,088
-658,159	691,282	-0,012	-0,023
-657,145	-49,583	-0,181	-0,062
-656,130	-72,409	0,114	-0,030
-655,116	15,049	-0,111	0,063
-654,101	105,414	0,188	-0,161
-653,086	27,111	-0,122	0,074
-652,072	163,688	0,063	0,064
-651,057	-75,120	-0,062	-0,016
-650,043	4,051	-0,132	-0,070
-649,028	282,157	0,124	-0,162
-648,014	-19,231	-0,029	-0,013
-646,999	-6,563	0,084	0,042
-645,984	-200,000	0,003	-0,147
-644,970	-90,069	-0,129	-0,027
-643,955	800,000	0,024	-0,053
-642,941	-200,000	0,037	-0,202
-641,926	-68,030	0,099	-0,028
-640,911	-200,000	0,032	0,105
-639,897	424,579	-0,047	-0,073
-638,882	-87,855	-0,066	0,014
-637,868	83,425	-0,096	0,076
-636,853	244,468	-0,071	-0,087
-635,838	800,000	-0,027	-0,066
-634,824	-200,000	0,022	0,091
-633,809	168,219	0,067	0,069
-632,795	-200,000	-0,004	0,031
-631,780	270,683	-0,031	-0,040
-630,765	23,509	-0,029	-0,017
-629,751	-200,000	-0,003	0,050
-628,736	162,340	-0,081	-0,083
-627,722	478,665	0,021	0,035
-626,707	118,534	0,072	0,065
-625,692	430,798	-0,055	0,087
-624,678	23,487	0,043	-0,026
-623,663	-57,833	0,170	0,054
-622,649	48,213	-0,054	-0,037
-621,634	800,000	-0,033	-0,102
-620,619	-40,866	0,087	0,032
-619,605	27,821	0,069	-0,042
-618,590	-38,172	-0,041	-0,016
-617,576	50,681	0,057	-0,039
-616,561	800,000	0,073	0,150
-615,546	20,821	0,043	0,025
-614,532	-200,000	0,005	0,048
-613,517	313,270	0,078	-0,106
-612,503	-70,463	-0,092	0,025
-611,488	-57,996	-0,040	-0,012
-610,474	-133,657	0,113	0,010
-609,459	800,000	-0,015	0,035
-608,444	261,485	0,070	0,087
-607,430	218,185	-0,055	-0,064
-606,415	483,855	-0,017	-0,028
-605,401	580,213	-0,015	0,027
-604,386	-200,000	0,040	0,135
-603,371	31,411	0,078	-0,049
-602,357	22,255	-0,115	0,068
-601,342	-134,487	0,142	0,012
-600,328	-15,101	-0,071	0,033
-599,313	800,000	0,042	0,106
-598,298	45,325	-0,085	-0,056
-597,284	-72,571	-0,060	-0,016
-596,269	665,822	-0,040	0,075
-595,255	-200,000	-0,003	0,078
-594,240	45,624	-0,067	0,045
-593,225	176,880	0,059	-0,062
-592,211	-200,000	-0,023	-0,114
-591,196	-200,000	-0,039	0,125
-590,182	-200,000	0,028	0,094
-589,167	222,243	0,055	0,065
-588,152	26,377	-0,139	-0,084
-587,138	-145,908	-0,057	-0,004
-586,123	-148,126	0,045	0,003
-585,109	-200,000	-0,068	-0,239
-584,094	295,821	-0,063	0,083
-583,079	-117,764	0,110	0,014
-582,065	77,572	-0,111	0,085
-581,050	-32,262	-0,187	0,075
-580,036	25,613	0,054	0,032
-579,021	-5,623	-0,131	-0,065
-578,006	381,127	0,018	-0,027
-576,992	-25,936	-0,091	0,039
-575,977	-200,000	-0,022	0,199
-574,963	-122,727	0,085	0,010
-573,948	110,543	-0,079	-0,068
-572,934	378,016	-0,092	-0,136
-571,919	93,111	-0,095	-0,078
-570,904	-109,855	0,084	0,013
-569,890	-200,000	-0,006	-0,044
-568,875	-11,629	-0,078	-0,037
-567,861	50,441	0,053	-0,036
-566,846	1,498	0,105	0,054
-565,831	800,000	0,049	0,126
-564,817	36,064	0,038	-0,024
-563,802	112,532	0,089	-0,078
-562,788	56,203	-0,123	-0,086
-561,773	0,096	0,060	0,031
-560,758	-200,000	0,034	0,119
-559,744	-200,000	-0,002	0,052
-558,729	800,000	0,021	0,060
-557,715	-200,000	-0,034	0,117
-556,700	621,956	-0,060	-0,110
-555,685	-42,460	0,150	-0,055
-554,671	-200,000	-0,040	-0,164
-553,656	-92,341	0,154	-0,031
-552,642	800,000	0,032	0,084
-551,627	3,931	0,075	0,040
-550,612	-29,686	-0,042	0,017
-549,598	258,137	-0,105	-0,131
-548,583	100,868	0,074	-0,062
-547,569	-200,000	-0,007	0,036
-546,554	66,470	0,013	0,010
-545,539	426,579	0,030	0,048
-544,525	800,000	0,057	0,127
-543,510	-200,000	-0,031	-0,120
-542,496	-53,583	-0,148	-0,049
-541,481	-61,659	-0,060	-0,018
-540,466	-200,000	-0,010	-0,049
-539,452	-82,460	0,178	0,041
-538,437	2,861	0,074	0,039
-537,423	504,458	-0,034	0,057
-536,408	-200,000	0,026	0,093
-535,393	-191,656	-0,022	-0,000
-534,379	232,780	-0,169	-0,201
-533,364	800,000	0,050	-0,120
-532,350	-83,853	-0,096	-0,022
-531,335	-17,485	0,106	0,048
-530,321	800,000	-0,065	0,164
-529,306	782,665	0,017	0,034
-528,291	800,000	-0,047	-0,145
-527,277	-163,523	-0,066	-0,002
-526,262	800,000	0,027	0,074
-525,248	657,549	-0,061	0,113
-524,233	-200,000	-0,022	0,157
-523,218	-200,000	0,049	0,198
-522,204	-200,000	0,012	0,048
-521,189	68,820	-0,098	-0,072
-520,175	219,225	0,052	0,060
-519,160	800,000	-0,016	-0,051
-518,145	110,884	0,095	0,082
-517,131	29,761	0,062	-0,038
-516,116	800,000	0,040	-0,091
-515,102	36,599	0,081	0,052
-514,087	13,343	-0,069	0,038
-513,072	161,072	-0,115	-0,116
-512,058	-200,000	0,003	-0,082
-511,043	-107,412	0,079	0,012
-510,029	175,931	0,128	0,135
-509,014	-200,000	-0,008	0,152
-507,999	-152,724	0,125	0,006
-506,985	-200,000	-0,049	-0,192
-505,970	-136,065	0,085	-0,007
-504,956	-200,000	-0,014	-0,193
-503,941	-25,346	-0,074	0,031
-502,926	257,514	-0,040	-0,050
-501,912	153,198	-0,024	0,024
-500,897	800,000	-0,023	0,056
-499,883	137,869	-0,159	-0,150
-498,868	399,571	0,042	0,063
-497,853	800,000	-0,012	-0,028
-496,839	-9,332	0,067	0,032
-495,824	-43,627	-0,034	0,012
-494,810	92,697	0,119	-0,097
-493,795	663,074	0,024	-0,045
-492,781	262,387	-0,022	0,027
-491,766	-200,000	-0,011	-0,061
-490,751	-124,005	-0,101	0,011
-489,737	334,266	-0,046	0,065
-488,722	29,739	0,150	-0,092
-487,708	-200,000	-0,016	-0,051
-486,693	-103,872	0,092	-0,015
-485,678	800,000	-0,027	-0,076
-484,664	-200,000	-0,005	-0,052
-483,649	-85,399	-0,059	-0,013
-482,635	-200,000	0,016	-0,052
-481,620	162,393	0,071	0,072
-480,605	-200,000	-0,015	0,255
-479,591	800,000	-0,028	-0,084
-478,576	6,965	0,017	0,009
-477,562	81,346	-0,073	-0,057
-476,547	-200,000	0,049	-0,195
-475,532	53,035	-0,057	-0,039
-474,518	-200,000	0,025	0,102
-473,503	-58,811	-0,044	0,014
-472,489	319,926	0,049	-0,068
-471,474	-200,000	0,009	0,108
-470,459	-200,000	0,020	0,076
-469,445	-13,095	-0,149	0,070
-468,430	-50,574	0,138	0,046
-467,416	21,497	-0,097	0,057
-466,401	-50,467	0,030	0,010
-465,386	3,597	-0,101	0,053
-464,372	154,902	0,040	-0,040
-463,357	-70,110	-0,081	-0,022
-462,343	139,442	0,024	-0,023
-461,328	-200,000	-0,025	-0,103
-460,313	514,341	-0,011	0,019
-459,299	800,000	0,032	0,072
-458,284	22,262	0,098	0,058
-457,270	115,982	0,018	0,016
-456,255	-200,000	-0,008	-0,084
-455,241	139,484	-0,111	-0,105
-454,226	-19,228	-0,076	0,034
-453,211	555,345	0,065	-0,112
-452,197	-106,202	0,088	-0,014
-451,182	189,585	0,024	-0,026
-450,168	492,906	0,017	-0,028
-449,153	-34,591	-0,155	0,061
-448,138	23,324	-0,139	-0,082
-447,124	54,326	0,106	0,073
-446,109	23,826	0,099	-0,059
-445,095	800,000	-0,031	0,066
-444,080	78,313	-0,078	-0,060
-443,065	176,991	-0,061	0,064
-442,051	800,000	0,008	-0,020
-441,036	800,000	-0,038	-0,077
-440,022	-200,000	0,008	-0,093
-439,007	-200,000	0,004	-0,127
-437,992	748,735	-0,017	-0,034
-436,978	-200,000	0,005	0,037
-435,963	-76,180	0,066	-0,017
-434,949	-127,353	0,057	0,006
-433,934	-88,831	-0,128	0,027
-432,919	95,702	-0,081	0,067
-431,905	-87,223	-0,041	-0,009
-430,890	6,314	0,110	-0,059
-429,876	800,000	0,032	0,079
-428,861	-142,653	0,231	0,016
-427,846	800,000	-0,056	-0,168
-426,832	-200,000	-0,021	-0,195
-425,817	465,576	-0,081	-0,131
-424,803	-107,327	-0,174	0,027
-423,788	758,318	0,061	-0,120
-422,773	6,689	0,081	0,043
-421,759	-117,054	-0,010	0,001
-420,744	-3,571	0,241	-0,120
-419,730	143,592	0,006	0,005
-418,715	-200,000	0,003	-0,077
-417,701	-82,575	-0,150	-0,035
-416,686	13,713	0,097	-0,054
-415,671	800,000	0,041	-0,092
-414,657	-200,000	0,015	-0,049
-413,642	-200,000	-0,006	-0,050
-412,628	104,497	-0,047	-0,040
-411,613	-123,038	-0,133	-0,015
-410,598	800,000	0,117	-0,242
-409,584	-142,184	0,085	0,006
-408,569	-54,856	0,120	0,039
-407,555	800,000	-0,041	0,094
-406,540	634,415	-0,047	0,087
-405,525	96,682	-0,046	-0,038
-404,511	-83,713	-0,028	-0,006
-403,496	-165,270	-0,189	-0,006
-402,482	101,830	0,044	-0,037
-401,467	-27,682	0,083	0,034
-400,452	32,882	0,018	0,011
-399,438	-82,867	0,073	0,017
-398,423	85,686	-0,022	-0,017
-397,409	-111,461	0,035	0,005
-396,394	507,420	-0,027	0,045
-395,379	-48,586	0,017	0,006
-394,365	-149,187	0,173	0,010
-393,350	366,955	-0,035	0,051
-392,336	800,000	0,015	0,036
-391,321	-200,000	-0,032	-0,128
-390,306	37,059	-0,074	-0,047
-389,292	58,023	-0,028	-0,020
-388,277	739,182	0,029	0,056
-387,263	-154,679	-0,061	-0,003
-386,248	309,097	0,019	-0,026
-385,233	-36,138	0,104	-0,040
-384,219	-200,000	-0,018	-0,066
-383,204	-200,000	0,019	-0,078
-382,190	800,000	0,059	0,174
-381,175	37,352	0,072	0,046
-380,160	-61,348	-0,062	-0,019
-379,146	136,722	0,046	-0,043
-378,131	-25,130	0,050	-0,021
-377,117	178,027	0,050	-0,053
-376,102	132,011	-0,040	-0,037
-375,088	800,000	-0,053	0,140
-374,073	-200,000	0,026	0,088
-373,058	-160,619	0,094	0,004
-372,044	-200,000	-0,000	-0,026
-371,029	800,000	-0,017	-0,043
-370,015	755,187	-0,026	-0,051
-369,000	220,835	-0,113	-0,130
-367,985	800,000	-0,100	-0,259
-366,971	9,793	0,034	-0,019
-365,956	800,000	-0,024	-0,058
-364,942	-200,000	0,033	-0,141
-363,927	134,645	-0,038	-0,035
-362,912	295,478	0,059	-0,078
-361,898	800,000	-0,056	-0,170
-360,883	311,984	-0,105	-0,141
-359,869	-109,409	-0,054	-0,008
-358,854	99,232	-0,037	0,031
-357,839	779,047	0,063	0,125
-356,825	2,562	0,105	0,055
-355,810	114,935	-0,028	0,025
-354,796	484,458	0,040	0,066
-353,781	125,046	0,065	-0,058
-352,766	-200,000	-0,012	0,119
-351,752	-200,000	0,010	0,053
-350,737	100,890	0,068	0,056
-349,723	-200,000	0,025	-0,174
-348,708	70,466	0,107	-0,079
-347,693	-113,473	0,172	-0,024
-346,679	402,807	0,082	0,124
-345,664	-200,000	-0,007	-0,079
-344,650	-16,777	0,096	-0,043
-343,635	-200,000	0,013	-0,069
-342,620	-200,000	0,022	0,104
-341,606	-200,000	0,000	0,050
-340,591	392,886	0,044	0,066
-339,577	-107,930	-0,086	-0,013
-338,562	240,495	0,053	-0,063
-337,548	23,818	-0,078	-0,046
-336,533	-11,330	-0,037	-0,017
-335,518	208,247	0,032	-0,036
-334,504	-113,543	0,110	0,015
-333,489	800,000	-0,072	0,187
-332,475	800,000	-0,009	-0,027
-331,460	-26,959	-0,118	-0,049
-330,445	279,844	-0,049	-0,062
-329,431	-200,000	0,008	0,092
-328,416	-23,958	0,146	0,062
-327,402	-59,755	0,087	0,026
-326,387	73,820	-0,133	-0,100
-325,372	116,172	0,070	0,061
-324,358	-100,442	-0,008	0,001
-323,343	800,000	-0,030	0,069
-322,329	313,494	0,024	0,032
-321,314	739,332	-0,033	0,065
-320,299	-68,383	-0,096	-0,027
-319,285	174,857	0,082	0,085
-318,270	-161,302	-0,081	-0,003
-317,256	-200,000	-0,005	-0,089
-316,241	-200,000	-0,005	-0,074
-315,226	45,401	-0,021	0,014
-314,212	190,688	0,058	0,062
-313,197	-200,000	0,028	0,000
-312,183	-92,549	-0,101	-0,020
-311,168	-200,000	0,033	0,174
-310,153	566,033	-0,044	0,077
-309,139	-200,000	-0,005	-0,223
-308,124	-200,000	0,001	-0,052
-307,110	345,550	-0,071	0,100
-306,095	29,865	0,116	-0,070
-305,080	-42,575	-0,070	0,025
-304,066	231,269	-0,032	0,037
-303,051	-200,000	0,014	-0,060
-302,037	111,310	0,050	-0,043
-301,022	37,047	-0,065	0,041
-300,008	20,909	-0,111	0,064
-298,993	756,717	0,109	0,212
-297,978	-94,705	-0,131	0,025
-296,964	62,301	0,123	-0,088
-295,949	-0,271	-0,022	0,011
-294,935	-49,745	0,048	-0,016
-293,920	-200,000	0,001	-0,097
-292,905	-34,624	-0,038	-0,015
-291,891	-160,771	0,143	-0,005
-290,876	-46,365	0,110	0,038
-289,862	112,009	-0,035	-0,030
-288,847	130,909	-0,008	0,007
-287,832	-52,869	-0,101	-0,033
-286,818	-5,038	0,140	0,069
-285,803	219,647	0,028	0,033
-284,789	109,776	0,106	0,091
-283,774	-77,114	-0,082	-0,020
-282,759	104,120	0,040	-0,033
-281,745	309,289	-0,047	-0,063
-280,730	642,339	-0,038	-0,069
-279,716	122,229	-0,072	-0,064
-278,701	-57,539	0,082	0,026
-277,686	-35,144	-0,022	0,009
-276,672	306,562	-0,086	0,115
-275,657	-50,658	0,167	-0,056
-274,643	-200,000	-0,037	-0,224
-273,628	-200,000	0,011	0,119
-272,613	-128,951	-0,113	0,011
-271,599	326,990	-0,036	0,049
-270,584	150,527	0,062	0,060
-269,570	29,921	0,047	0,029
-268,555	53,228	-0,065	0,044
-267,540	534,298	0,064	0,108
-266,526	-200,000	-0,006	0,065
-265,511	152,560	-0,103	-0,101
-264,497	62,810	0,098	0,070
-263,482	-200,000	0,038	-0,145
-262,467	127,936	0,130	0,118
-261,453	-63,147	-0,067	0,020
-260,438	622,776	0,051	0,091
-259,424	-112,317	-0,128	0,018
-258,409	800,000	0,067	-0,133
-257,395	-67,697	0,109	-0,030
-256,380	156,192	-0,038	-0,038
-255,365	136,736	0,074	-0,069
-254,351	-200,000	-0,011	-0,043
-253,336	800,000	0,018	-0,058
-252,322	-200,000	0,012	-0,097
-251,307	-104,773	-0,085	0,014
-250,292	-200,000	0,035	0,171
-249,278	110,056	-0,036	0,031
-248,263	14,977	0,055	0,030
-247,249	-112,631	-0,066	-0,009
-246,234	-22,173	0,113	-0,049
-245,219	-23,483	-0,132	0,056
-244,205	-119,963	0,061	-0,007
-243,190	-82,168	0,105	-0,024
-242,176	-54,145	0,154	0,050
-241,161	-200,000	-0,012	0,066
-240,146	-200,000	-0,017	0,056
-239,132	-200,000	-0,017	0,092
-238,117	206,051	-0,042	0,047
-237,103	135,463	-0,042	0,039
-236,088	97,534	-0,060	0,049
-235,073	241,822	-0,040	0,048
-234,059	-56,966	-0,143	-0,045
-233,044	-51,897	0,127	0,042
-232,030	-84,535	-0,179	-0,040
-231,015	426,765	0,034	-0,053
-230,000	172,954	-0,048	-0,050
-228,986	-200,000	-0,011	0,039
-227,971	800,000	0,041	0,115
-226,957	36,788	0,072	-0,045
-225,942	-64,305	-0,176	0,051
-224,927	25,855	0,035	0,021
-223,913	-121,131	-0,112	0,013
-222,898	-155,149	-0,091	-0,004
-221,884	69,544	-0,079	-0,058
-220,869	-200,000	-0,008	-0,106
-219,855	-53,595	0,048	0,016
-218,840	800,000	-0,050	0,139
-217,825	-194,477	0,087	-0,000
-216,811	-200,000	-0,029	0,124
-215,796	8,494	-0,068	-0,037
-214,782	24,298	-0,087	-0,051
-213,767	-200,000	-0,007	-0,119
-212,752	9,165	0,051	0,027
-211,738	-170,886	-0,070	0,002
-210,723	171,011	0,090	-0,092
-209,709	74,474	0,070	0,052
-208,694	-71,757	0,075	-0,020
-207,679	-200,000	-0,016	0,069
-206,665	-80,059	0,071	-0,017
-205,650	800,000	0,029	-0,072
-204,636	123,214	0,079	0,071
-203,621	-200,000	0,021	0,096
-202,606	213,169	-0,098	0,111
-201,592	-120,870	-0,141	-0,017
-200,577	-114,775	-0,076	-0,010
-199,563	-31,502	-0,067	-0,027
-198,548	342,338	-0,085	0,119
-197,533	-100,658	0,101	0,018
-196,519	226,405	-0,082	0,095
-195,504	-200,000	-0,009	0,103
-194,490	-87,557	-0,135	0,029
-193,475	128,955	-0,008	-0,007
-192,460	148,177	0,029	0,028
-191,446	178,540	-0,039	0,041
-190,431	-107,710	0,108	0,017
-189,417	-200,000	0,002	0,053
-188,402	-29,952	-0,189	-0,076
-187,387	-27,484	0,135	0,056
-186,373	-12,303	-0,084	-0,039
-185,358	51,713	-0,021	-0,014
-184,344	60,130	-0,044	-0,031
-183,329	-200,000	0,029	0,110
-182,315	800,000	-0,023	0,060
-181,300	644,808	-0,044	0,080
-180,285	242,318	-0,072	0,086
-179,271	-81,627	-0,055	-0,013
-178,256	-157,814	-0,082	-0,003
-177,242	-200,000	0,021	0,068
-176,227	800,000	-0,022	0,060
-175,212	-97,914	0,125	-0,023
-174,198	800,000	0,031	0,084
-173,183	413,576	0,010	-0,015
-172,169	-200,000	-0,035	0,127
-171,154	764,357	-0,084	0,164
-170,139	212,768	0,110	0,124
-169,125	-200,000	-0,005	0,144
-168,110	-200,000	-0,021	0,091
-167,096	800,000	0,004	-0,010
-166,081	56,162	-0,045	-0,031
-165,066	192,469	-0,009	-0,009
-164,052	61,958	0,141	-0,100
-163,037	-200,000	0,031	-0,215
-162,023	-200,000	-0,038	0,124
-161,008	-55,936	-0,063	0,020
-159,993	171,900	-0,051	0,052
-158,979	57,414	0,155	-0,107
-157,964	113,096	0,132	-0,114
-156,950	-113,481	-0,090	-0,012
-155,935	365,577	-0,041	-0,059
-154,920	10,750	-0,048	0,026
-153,906	185,414	0,063	0,066
-152,891	-200,000	0,036	0,134
-151,877	-108,205	0,198	0,030
-150,862	699,179	-0,060	-0,112
-149,847	800,000	0,041	-0,099
-148,833	-200,000	0,001	0,129
-147,818	403,226	-0,030	-0,046
-146,804	-200,000	0,036	0,134
-145,789	52,533	-0,117	0,079
-144,775	16,474	0,090	-0,051
-143,760	-200,000	0,024	-0,091
-142,745	-200,000	0,068	-0,262
-141,731	98,617	0,084	-0,069
-140,716	229,989	0,035	0,040
-139,702	-30,026	0,125	-0,050
-138,687	-146,380	-0,105	-0,006
-137,672	800,000	-0,010	0,031
-136,658	130,770	-0,054	-0,049
-135,643	272,389	-0,127	-0,160
-134,629	800,000	0,056	0,124
-133,614	144,377	0,089	0,085
-132,599	-200,000	0,008	0,046
-131,585	63,969	-0,048	0,034
-130,570	196,850	-0,074	0,080
-129,556	-55,283	-0,118	-0,038
-128,541	-200,000	0,013	0,086
-127,526	153,008	0,045	-0,044
-126,512	800,000	-0,034	-0,091
-125,497	9,276	0,089	0,048
-124,483	-156,844	-0,059	0,003
-123,468	-26,854	0,026	0,011
-122,453	800,000	-0,028	0,071
-121,439	-29,699	0,087	-0,035
-120,424	-200,000	-0,007	0,054
-119,410	32,343	0,072	0,044
-118,395	109,740	0,089	-0,076
