DTS Sentinel unit serial number:	SN410029Multiplexer serial number:	ORYXHardware model number:	OX2-SRSoftware version number:	ORYX F/W v4,00 Oryx Data Collector v3.7.2.0data status	okinstallation	BH3 CH2differential loss correction	single-endedforward channel	channel 2reverse channel	N/Adate	2023/12/05time	13:17:28forward acquisition time	300,00reverse acquisition time	0,00gamma	499,1914k internal	0,3195k external	0,3195temperature offset calibration	1,0000default loss term (dB/km)	0,3820temperature slope calibration	1,0000multiplexer offset coefficient	1,0000multiplexer slope coefficient	1,0000fibre end	0,00T internal ref (°C)	10,22T ext. ref 1 (°C)	-3,85T ext. ref 2 (°C)	-3,90length (m)	temperature (°C)	Stokes	anti-Stokes-744,400	800,000	-0,078	-0,223
-743,385	156,963	-0,098	0,099
-742,371	-200,000	0,028	-0,166
-741,356	-200,000	-0,072	0,267
-740,342	800,000	-0,045	-0,138
-739,327	-21,933	-0,259	0,114
-738,312	-3,838	-0,191	-0,096
-737,298	-30,363	-0,260	0,107
-736,283	141,616	-0,039	-0,037
-735,269	2,062	-0,099	0,052
-734,254	224,447	-0,037	0,044
-733,239	-110,205	-0,353	-0,053
-732,225	26,250	0,058	-0,035
-731,210	-52,308	0,083	0,028
-730,196	208,908	-0,042	-0,048
-729,181	800,000	-0,008	-0,021
-728,167	-99,835	-0,071	-0,013
-727,152	-139,139	-0,055	0,004
-726,137	-200,000	0,011	-0,080
-725,123	-200,000	-0,031	-0,136
-724,108	-60,435	-0,198	-0,061
-723,094	269,849	-0,046	-0,059
-722,079	-200,000	0,002	0,022
-721,064	-200,000	-0,006	-0,138
-720,050	800,000	-0,017	0,053
-719,035	-87,339	-0,080	-0,018
-718,021	800,000	-0,026	-0,079
-717,006	55,379	-0,066	-0,046
-715,991	74,648	-0,090	-0,069
-714,977	167,944	-0,093	0,096
-713,962	14,940	-0,093	0,053
-712,948	51,391	0,017	-0,012
-711,933	-45,631	-0,045	-0,016
-710,918	-46,859	-0,135	0,048
-709,904	715,922	-0,033	0,065
-708,889	800,000	-0,088	-0,213
-707,875	440,932	0,014	0,022
-706,860	800,000	-0,024	0,051
-705,845	-200,000	0,010	0,056
-704,831	-200,000	0,025	-0,127
-703,816	-149,083	0,023	-0,001
-702,802	300,574	-0,039	0,052
-701,787	800,000	-0,104	-0,223
-700,772	-4,192	0,064	-0,032
-699,758	-200,000	0,011	0,092
-698,743	61,181	0,081	0,058
-697,729	-200,000	-0,023	0,185
-696,714	583,975	0,057	0,102
-695,699	335,209	0,071	0,100
-694,685	-200,000	0,028	0,102
-693,670	-200,000	0,003	-0,025
-692,656	159,672	0,007	0,007
-691,641	26,200	0,102	0,062
-690,627	-200,000	0,009	0,119
-689,612	174,222	0,117	0,124
-688,597	272,734	-0,037	-0,047
-687,583	-3,256	-0,062	0,031
-686,568	249,441	-0,096	-0,119
-685,554	185,505	-0,054	-0,059
-684,539	-15,489	-0,134	-0,062
-683,524	219,036	-0,116	0,135
-682,510	-91,518	0,105	0,022
-681,495	-200,000	-0,015	-0,076
-680,481	-97,989	0,098	-0,018
-679,466	-81,024	-0,137	0,033
-678,451	-50,059	-0,080	-0,027
-677,437	800,000	-0,020	-0,048
-676,422	415,987	-0,002	0,003
-675,408	244,638	-0,020	-0,024
-674,393	447,473	-0,105	0,169
-673,378	-159,804	-0,117	-0,005
-672,364	-54,423	-0,138	-0,045
-671,349	16,774	-0,039	0,022
-670,335	800,000	0,028	0,058
-669,320	383,793	0,065	0,098
-668,305	12,124	0,056	0,031
-667,291	800,000	-0,015	0,046
-666,276	-126,352	-0,136	-0,015
-665,262	-200,000	-0,037	-0,186
-664,247	329,633	0,075	-0,106
-663,232	800,000	-0,024	-0,057
-662,218	-100,098	0,044	-0,008
-661,203	3,305	0,120	0,063
-660,189	-131,909	-0,044	0,004
-659,174	6,129	-0,029	0,016
-658,159	-20,321	-0,135	-0,060
-657,145	-31,799	0,061	-0,025
-656,130	-200,000	-0,008	-0,036
-655,116	24,411	0,131	-0,078
-654,101	-50,286	-0,028	-0,010
-653,086	-41,716	0,047	-0,017
-652,072	-200,000	-0,003	-0,026
-651,057	538,806	-0,077	-0,134
-650,043	-88,017	-0,082	-0,018
-649,028	42,846	0,055	-0,037
-648,014	800,000	-0,031	0,085
-646,999	-46,270	0,051	0,018
-645,984	-71,246	0,040	-0,011
-644,970	-11,982	0,033	0,016
-643,955	148,254	-0,053	-0,052
-642,941	348,891	-0,089	-0,127
-641,926	101,123	0,116	-0,098
-640,911	-40,662	0,008	-0,003
-639,897	-200,000	0,007	0,157
-638,882	-200,000	0,006	0,067
-637,868	687,274	-0,023	-0,044
-636,853	161,382	-0,087	-0,088
-635,838	12,767	-0,176	-0,098
-634,824	0,363	-0,065	0,033
-633,809	432,774	-0,039	-0,061
-632,795	78,977	-0,079	-0,061
-631,780	-200,000	-0,014	0,050
-630,765	301,136	0,040	-0,054
-629,751	-25,371	0,148	0,063
-628,736	11,011	0,038	-0,021
-627,722	-200,000	0,015	-0,060
-626,707	328,478	-0,023	0,033
-625,692	-200,000	-0,001	0,022
-624,678	502,961	-0,054	0,090
-623,663	84,450	-0,072	0,057
-622,649	800,000	-0,039	-0,120
-621,634	-200,000	0,007	-0,092
-620,619	-200,000	0,013	-0,067
-619,605	45,966	0,135	0,091
-618,590	37,505	0,149	0,096
-617,576	-200,000	-0,002	0,114
-616,561	13,544	-0,090	-0,050
-615,546	-200,000	-0,001	-0,007
-614,532	65,451	-0,058	-0,042
-613,517	800,000	-0,046	0,144
-612,503	-125,666	-0,122	-0,013
-611,488	800,000	0,019	-0,061
-610,474	800,000	0,076	0,184
-609,459	197,894	-0,103	0,114
-608,444	-116,104	-0,072	-0,010
-607,430	-186,262	0,027	-0,000
-606,415	-200,000	-0,020	0,099
-605,401	-200,000	0,015	-0,081
-604,386	522,246	-0,045	0,076
-603,371	184,754	0,087	0,093
-602,357	5,385	-0,062	-0,033
-601,342	57,482	-0,069	-0,049
-600,328	288,874	-0,010	0,013
-599,313	800,000	-0,057	-0,170
-598,298	-41,443	-0,153	-0,057
-597,284	-84,051	0,063	0,014
-596,269	140,630	-0,086	0,082
-595,255	-103,930	-0,134	0,022
-594,240	-27,832	-0,078	0,033
-593,225	111,923	-0,008	-0,007
-592,211	-200,000	0,001	-0,014
-591,196	391,737	-0,046	0,069
-590,182	233,598	-0,058	0,069
-589,167	-127,760	-0,094	-0,010
-588,152	348,573	-0,087	0,125
-587,138	-137,393	-0,178	0,014
-586,123	397,222	-0,063	-0,096
-585,109	-170,385	-0,063	-0,002
-584,094	-20,514	0,053	-0,023
-583,079	800,000	0,045	0,112
-582,065	-129,043	0,228	0,023
-581,050	800,000	-0,029	-0,079
-580,036	-200,000	0,000	-0,043
-579,021	73,156	0,121	0,092
-578,006	-40,368	-0,214	-0,080
-576,992	588,954	0,036	-0,065
-575,977	-23,795	0,107	0,046
-574,963	800,000	0,017	-0,051
-573,948	-28,582	-0,013	0,005
-572,934	-158,365	-0,179	-0,007
-571,919	91,331	0,043	-0,035
-570,904	-200,000	-0,043	-0,168
-569,890	294,791	0,007	-0,009
-568,875	403,189	0,085	0,129
-567,861	175,734	0,081	-0,085
-566,846	-200,000	-0,010	-0,034
-565,831	-200,000	-0,013	-0,044
-564,817	-200,000	0,001	-0,009
-563,802	4,210	-0,123	-0,065
-562,788	-200,000	-0,019	0,063
-561,773	800,000	-0,019	0,049
-560,758	37,494	-0,131	0,084
-559,744	800,000	-0,015	0,042
-558,729	-131,041	0,101	0,010
-557,715	-176,569	0,020	-0,000
-556,700	-200,000	0,002	-0,126
-555,685	-125,561	-0,121	0,013
-554,671	-88,515	0,083	-0,018
-553,656	81,624	0,073	0,057
-552,642	-140,364	-0,078	-0,006
-551,627	-200,000	-0,011	-0,037
-550,612	-125,993	-0,180	-0,019
-549,598	560,130	-0,030	-0,053
-548,583	617,055	0,086	-0,156
-547,569	-200,000	-0,005	-0,142
-546,554	258,366	-0,023	0,029
-545,539	-62,138	0,075	0,023
-544,525	800,000	0,089	0,203
-543,510	-113,617	-0,075	-0,011
-542,496	556,872	-0,011	0,019
-541,481	26,509	-0,055	-0,033
-540,466	87,270	0,148	0,118
-539,452	-200,000	-0,007	0,174
-538,437	-200,000	-0,001	0,017
-537,423	39,989	-0,049	0,032
-536,408	643,451	-0,032	-0,059
-535,393	396,061	0,023	-0,035
-534,379	-200,000	-0,018	0,061
-533,364	-200,000	-0,027	-0,136
-532,350	-107,422	-0,088	0,014
-531,335	800,000	0,024	0,074
-530,321	-200,000	0,012	0,102
-529,306	800,000	-0,012	0,024
-528,291	-19,911	-0,108	0,048
-527,277	371,036	-0,030	0,044
-526,262	-58,552	0,166	-0,052
-525,248	16,739	0,104	0,059
-524,233	172,951	-0,037	0,038
-523,218	153,249	0,116	0,115
-522,204	-95,600	-0,099	0,019
-521,189	-200,000	0,015	0,169
-520,175	-7,263	0,056	-0,027
-519,160	260,916	-0,020	-0,026
-518,145	-200,000	0,009	-0,105
-517,131	-200,000	-0,021	0,089
-516,116	158,278	0,120	0,120
-515,102	-0,617	0,098	-0,050
-514,087	516,016	-0,036	0,060
-513,072	-200,000	0,017	-0,091
-512,058	169,833	-0,108	-0,112
-511,043	-200,000	0,004	0,029
-510,029	-73,167	-0,016	0,004
-509,014	24,552	0,029	-0,017
-507,999	-21,374	0,132	0,058
-506,985	35,688	-0,140	-0,089
-505,970	-101,943	-0,104	0,018
-504,956	-50,886	-0,039	-0,013
-503,941	170,806	0,051	-0,053
-502,926	-190,000	0,092	0,001
-501,912	54,364	0,057	0,039
-500,897	562,490	-0,041	-0,072
-499,883	-200,000	0,024	-0,108
-498,868	180,651	-0,051	-0,054
-497,853	800,000	-0,047	-0,097
-496,839	800,000	0,027	0,056
-495,824	76,428	-0,071	0,054
-494,810	-40,104	-0,053	0,020
-493,795	129,079	0,043	0,039
-492,781	159,156	-0,027	0,027
-491,766	-200,000	-0,014	-0,051
-490,751	12,945	-0,075	-0,042
-489,737	277,669	-0,043	0,056
-488,722	-110,609	0,049	0,007
-487,708	132,442	0,070	-0,065
-486,693	-110,253	0,086	0,013
-485,678	268,625	-0,021	0,026
-484,664	-200,000	-0,015	-0,072
-483,649	-200,000	-0,038	-0,224
-482,635	-200,000	0,001	-0,089
-481,620	-64,547	0,120	-0,035
-480,605	165,130	-0,156	0,159
-479,591	57,721	-0,095	0,067
-478,576	149,084	0,081	-0,080
-477,562	-124,857	0,090	-0,010
-476,547	30,622	0,027	0,017
-475,532	-151,188	-0,062	-0,003
-474,518	800,000	0,051	0,138
-473,503	-15,209	0,064	0,029
-472,489	-126,338	0,104	-0,011
-471,474	-50,334	-0,075	-0,025
-470,459	-44,063	0,129	0,046
-469,445	-45,759	0,127	-0,045
-468,430	99,724	0,057	-0,047
-467,416	-121,957	0,043	0,005
-466,401	33,832	0,084	0,053
-465,386	431,133	0,093	0,146
-464,372	759,963	0,067	0,131
-463,357	-81,619	-0,152	-0,036
-462,343	202,864	-0,032	0,036
-461,328	-33,905	0,051	0,020
-460,313	800,000	-0,075	0,181
-459,299	126,967	0,133	0,121
-458,284	532,753	0,048	0,083
-457,270	297,942	-0,077	0,103
-456,255	-63,946	-0,050	0,015
-455,241	800,000	0,031	-0,091
-454,226	-40,676	0,126	-0,047
-453,211	-88,660	0,089	0,019
-452,197	636,826	-0,068	0,124
-451,182	-200,000	-0,009	0,083
-450,168	271,924	0,060	-0,077
-449,153	-40,825	-0,116	-0,043
-448,138	-200,000	-0,034	-0,139
-447,124	-31,437	-0,053	0,021
-446,109	499,968	-0,036	0,059
-445,095	-71,906	0,089	0,024
-444,080	-139,956	0,106	-0,008
-443,065	308,451	0,017	-0,023
-442,051	72,003	0,097	0,073
-441,036	124,168	-0,036	0,033
-440,022	-200,000	-0,028	-0,132
-439,007	800,000	-0,032	-0,079
-437,992	800,000	0,049	-0,099
-436,978	-200,000	0,006	-0,060
-435,963	800,000	-0,047	0,108
-434,949	-53,426	-0,063	-0,021
-433,934	139,870	-0,171	-0,162
-432,919	620,016	-0,023	-0,042
-431,905	-51,920	0,025	-0,008
-430,890	-82,859	0,037	0,009
-429,876	-200,000	-0,017	0,151
-428,861	579,832	-0,039	-0,069
-427,846	800,000	-0,011	0,029
-426,832	-90,540	0,036	0,007
-425,817	-71,351	-0,108	0,029
-424,803	181,592	0,048	0,051
-423,788	-26,380	-0,018	-0,008
-422,773	-200,000	0,019	0,064
-421,759	-141,974	0,048	0,003
-420,744	-97,951	-0,060	0,011
-419,730	-71,028	0,070	-0,019
-418,715	-29,518	-0,090	0,037
-417,701	272,703	0,037	0,047
-416,686	154,374	0,074	-0,073
-415,671	451,518	0,008	-0,012
-414,657	800,000	0,068	-0,159
-413,642	800,000	0,012	0,037
-412,628	800,000	-0,025	-0,060
-411,613	68,110	-0,048	-0,035
-410,598	390,035	0,094	0,140
-409,584	-20,119	-0,067	-0,029
-408,569	638,677	0,046	0,085
-407,555	340,934	0,066	-0,092
-406,540	-95,602	0,145	0,028
-405,525	-52,258	-0,050	-0,016
-404,511	-98,616	-0,097	0,018
-403,496	800,000	-0,016	-0,048
-402,482	28,685	0,134	0,081
-401,467	449,441	0,045	0,071
-400,452	47,718	-0,099	0,067
-399,438	428,247	-0,049	0,076
-398,423	-98,671	0,043	0,008
-397,409	95,611	-0,113	-0,093
-396,394	-200,000	0,010	-0,068
-395,379	-124,103	-0,131	0,015
-394,365	19,716	-0,109	-0,063
-393,350	25,896	0,092	-0,055
-392,336	-200,000	0,001	0,065
-391,321	-132,827	0,130	-0,012
-390,306	233,342	-0,055	-0,065
-389,292	-200,000	0,004	0,042
-388,277	350,529	-0,037	-0,053
-387,263	249,462	0,061	0,075
-386,248	72,901	0,115	0,086
-385,233	-97,087	0,174	0,032
-384,219	-200,000	-0,004	-0,115
-383,204	102,265	-0,004	-0,004
-382,190	79,023	-0,036	-0,028
-381,175	-200,000	0,005	-0,070
-380,160	16,802	0,049	-0,028
-379,146	-171,175	0,049	0,001
-378,131	-200,000	-0,001	0,063
-377,117	-200,000	-0,016	-0,167
-376,102	-81,934	-0,085	0,020
-375,088	109,875	-0,084	-0,072
-374,073	412,113	0,043	-0,065
-373,058	-164,178	0,075	0,002
-372,044	-200,000	-0,042	-0,196
-371,029	105,011	-0,026	-0,022
-370,015	90,357	0,164	-0,132
-369,000	29,495	-0,137	0,083
-367,985	595,760	0,065	-0,115
-366,971	-21,239	-0,129	-0,056
-365,956	-131,167	0,053	-0,005
-364,942	-200,000	0,000	0,053
-363,927	310,499	-0,063	0,085
-362,912	-174,065	0,077	0,002
-361,898	-200,000	0,044	-0,162
-360,883	-200,000	0,008	-0,053
-359,869	-46,201	-0,137	-0,048
-358,854	90,380	0,169	-0,136
-357,839	53,911	0,048	-0,033
-356,825	-32,178	0,057	-0,023
-355,810	-2,206	-0,044	0,022
-354,796	-118,025	-0,050	-0,006
-353,781	800,000	-0,033	-0,103
-352,766	-200,000	0,033	-0,125
-351,752	-15,936	0,082	-0,037
-350,737	46,002	0,074	0,049
-349,723	9,832	-0,117	-0,063
-348,708	-61,034	0,062	-0,019
-347,693	-85,627	-0,066	-0,015
-346,679	-200,000	-0,033	-0,128
-345,664	323,984	-0,022	-0,030
-344,650	174,457	0,079	-0,082
-343,635	800,000	0,040	0,123
-342,620	-200,000	-0,008	0,097
-341,606	479,186	0,044	0,073
-340,591	28,024	0,039	0,023
-339,577	24,258	0,067	-0,039
-338,562	10,496	-0,028	-0,015
-337,548	800,000	0,044	0,117
-336,533	-200,000	0,034	0,137
-335,518	-200,000	-0,003	-0,020
-334,504	72,823	-0,072	0,054
-333,489	108,933	-0,091	0,078
-332,475	-37,258	-0,145	-0,055
-331,460	-200,000	0,016	-0,204
-330,445	-110,312	-0,104	0,015
-329,431	800,000	0,083	0,177
-328,416	717,941	0,030	0,057
-327,402	-73,008	-0,054	0,014
-326,387	278,405	0,088	0,113
-325,372	-48,100	-0,085	-0,029
-324,358	-31,890	-0,137	-0,055
-323,343	114,870	0,065	0,056
-322,329	-119,405	0,168	-0,021
-321,314	-200,000	0,027	0,245
-320,299	227,658	0,046	0,054
-319,285	-117,714	-0,127	0,016
-318,270	-200,000	-0,017	-0,106
-317,256	740,194	-0,109	-0,210
-316,241	218,273	0,076	-0,088
-315,226	183,749	0,067	-0,071
-314,212	800,000	-0,023	-0,064
-313,197	-200,000	-0,015	-0,113
-312,183	-78,535	0,081	-0,020
-311,168	-200,000	-0,019	-0,127
-310,153	-200,000	-0,040	-0,166
-309,139	-35,193	-0,112	0,043
-308,124	48,715	-0,132	0,088
-307,110	-60,729	0,039	0,012
-306,095	11,566	-0,087	0,047
-305,080	206,527	-0,057	0,064
-304,066	-200,000	-0,005	0,107
-303,051	70,180	-0,082	-0,060
-302,037	-70,677	-0,127	0,034
-301,022	286,776	0,024	-0,031
-300,008	-148,258	0,034	-0,002
-298,993	595,401	-0,043	0,076
-297,978	-20,612	0,043	0,019
-296,964	800,000	0,025	-0,057
-295,949	643,521	-0,044	-0,080
-294,935	-2,871	0,065	0,032
-293,920	108,975	-0,096	-0,082
-292,905	26,261	0,074	-0,044
-291,891	189,372	0,082	-0,088
-290,876	-200,000	-0,023	0,136
-289,862	-200,000	0,022	-0,126
-288,847	740,150	-0,039	-0,076
-287,832	247,224	0,076	0,093
-286,818	133,146	0,033	-0,031
-285,803	-116,659	0,135	0,018
-284,789	374,885	0,072	0,106
-283,774	-5,182	-0,034	-0,017
-282,759	-99,976	0,039	-0,007
-281,745	-40,575	-0,054	-0,020
-280,730	130,297	0,086	-0,079
-279,716	-4,088	-0,104	0,051
-278,701	288,581	-0,026	0,034
-277,686	49,980	-0,127	0,086
-276,672	52,347	0,085	-0,058
-275,657	172,188	-0,060	-0,062
-274,643	182,520	0,038	0,040
-273,628	-120,191	-0,120	-0,015
-272,613	11,347	-0,113	-0,062
-271,599	40,347	-0,093	0,060
-270,584	-8,342	0,086	0,041
-269,570	31,525	0,084	0,051
-268,555	800,000	-0,046	0,112
-267,540	-57,866	0,024	-0,008
-266,526	800,000	0,046	-0,115
-265,511	59,598	-0,007	0,005
-264,497	279,038	0,055	0,071
-263,482	-86,585	-0,085	0,019
-262,467	800,000	-0,037	0,083
-261,453	-49,623	0,127	0,043
-260,438	241,342	-0,015	0,018
-259,424	-200,000	0,028	-0,172
-258,409	-192,243	-0,057	-0,000
-257,395	39,081	0,037	0,024
-256,380	107,890	0,135	-0,115
-255,365	550,348	0,091	-0,156
-254,351	-200,000	-0,033	0,112
-253,336	4,273	-0,103	-0,054
-252,322	73,221	-0,034	0,025
-251,307	52,724	-0,090	0,062
-250,292	-200,000	-0,011	-0,041
-249,278	-200,000	-0,012	0,109
-248,263	-200,000	0,015	0,152
-247,249	-137,641	-0,075	-0,006
-246,234	118,498	0,018	0,015
-245,219	306,849	-0,049	-0,065
-244,205	-130,806	-0,073	-0,007
-243,190	103,910	-0,061	0,051
-242,176	-128,432	0,024	-0,002
-241,161	-101,529	-0,047	-0,008
-240,146	-121,345	0,151	-0,018
-239,132	55,220	-0,046	0,032
-238,117	371,875	-0,034	-0,050
-237,103	-51,474	0,126	-0,042
-236,088	544,458	0,027	0,047
-235,073	237,610	0,082	0,098
-234,059	145,819	-0,087	0,083
-233,044	-200,000	-0,023	0,093
-232,030	56,734	-0,018	0,012
-231,015	-200,000	0,007	0,032
-230,000	800,000	0,054	0,153
-228,986	42,060	-0,048	0,031
-227,971	800,000	-0,039	0,116
-226,957	52,104	0,038	0,026
-225,942	447,165	-0,028	-0,043
-224,927	592,010	0,065	-0,115
-223,913	-200,000	-0,012	-0,117
-222,898	-200,000	0,001	-0,041
-221,884	459,925	-0,033	0,053
-220,869	800,000	0,019	-0,046
-219,855	800,000	0,063	0,144
-218,840	-38,590	0,036	0,013
-217,825	800,000	0,049	0,138
-216,811	800,000	0,034	0,095
-215,796	555,439	0,026	-0,045
-214,782	171,675	-0,029	0,030
-213,767	800,000	0,058	-0,123
-212,752	-119,534	0,160	0,020
-211,738	271,667	0,046	0,057
-210,723	170,577	0,091	0,093
-209,709	-64,105	-0,073	-0,021
-208,694	800,000	-0,033	0,076
-207,679	311,400	0,059	-0,079
-206,665	-18,617	-0,135	-0,060
-205,650	114,680	0,100	-0,087
-204,636	276,732	0,112	-0,142
-203,621	-56,439	0,211	-0,066
-202,606	-159,778	0,072	0,003
-201,592	-200,000	0,004	-0,147
-200,577	47,373	-0,040	-0,026
-199,563	-200,000	0,003	0,091
-198,548	-200,000	-0,025	0,147
-197,533	410,602	0,046	-0,070
-196,519	-200,000	0,034	-0,118
-195,504	-97,283	-0,127	0,023
-194,490	210,093	-0,082	-0,092
-193,475	176,659	-0,066	-0,069
-192,460	632,135	0,057	-0,103
-191,446	137,466	-0,058	-0,054
-190,431	-200,000	-0,030	0,193
-189,417	800,000	0,042	0,089
-188,402	800,000	0,030	-0,068
-187,387	3,120	-0,092	-0,048
-186,373	-113,922	-0,062	0,008
-185,358	121,093	0,077	0,068
-184,344	520,718	0,038	-0,064
-183,329	-157,849	-0,082	0,003
-182,315	800,000	0,029	-0,076
-181,300	323,998	-0,055	-0,075
-180,285	800,000	0,035	-0,091
-179,271	33,645	0,037	-0,023
-178,256	800,000	-0,018	0,052
-177,242	188,567	-0,039	-0,041
-176,227	-5,378	0,141	0,069
-175,212	300,555	0,045	-0,059
-174,198	348,125	-0,026	-0,037
-173,183	64,347	-0,037	-0,026
-172,169	115,910	0,066	0,058
-171,154	199,438	-0,054	-0,059
-170,139	-96,275	0,095	0,018
-169,125	-200,000	0,000	0,068
-168,110	-200,000	0,020	0,147
-167,096	-200,000	-0,010	0,069
-166,081	185,057	-0,067	0,071
-165,066	-200,000	-0,019	-0,105
-164,052	-186,215	0,110	-0,001
-163,037	477,731	0,001	-0,002
-162,023	-41,125	0,088	0,032
-161,008	800,000	-0,046	0,107
-159,993	-56,739	0,147	0,046
-158,979	-200,000	-0,028	-0,092
-157,964	-200,000	-0,022	-0,123
-156,950	90,698	-0,006	-0,005
-155,935	83,522	-0,116	0,090
-154,920	678,721	0,111	0,206
-153,906	-102,305	0,060	-0,010
-152,891	800,000	-0,028	0,056
-151,877	-87,840	0,091	0,019
-150,862	-181,690	0,020	-0,000
-149,847	800,000	-0,016	-0,037
-148,833	578,641	-0,041	-0,071
-147,818	253,669	0,052	0,063
-146,804	-200,000	0,009	-0,056
-145,789	243,756	-0,035	0,042
-144,775	53,514	-0,110	-0,075
-143,760	-98,377	0,060	-0,011
-142,745	-200,000	-0,003	-0,077
-141,731	800,000	0,026	-0,077
-140,716	800,000	0,031	0,076
-139,702	-200,000	0,000	-0,047
-138,687	-200,000	0,023	0,118
-137,672	800,000	0,037	-0,114
-136,658	-38,346	0,165	-0,062
-135,643	-200,000	0,007	-0,162
-134,629	-96,248	-0,075	-0,014
-133,614	-97,082	0,026	-0,005
-132,599	-72,318	-0,093	-0,024
-131,585	-5,791	0,103	-0,050
-130,570	-104,190	-0,092	0,015
-129,556	114,184	0,063	-0,054
-128,541	-200,000	-0,014	-0,086
-127,526	-200,000	0,034	-0,170
-126,512	-200,000	-0,023	-0,159
-125,497	181,355	-0,083	0,086
-124,483	-143,626	-0,064	0,004
-123,468	-55,876	-0,241	-0,076
-122,453	16,750	0,047	0,026
-121,439	-200,000	0,001	-0,101
-120,424	-200,000	-0,001	-0,022
-119,410	800,000	-0,020	-0,052
