DTS Sentinel unit serial number:	SN410029Multiplexer serial number:	ORYXHardware model number:	OX2-SRSoftware version number:	ORYX F/W v4,00 Oryx Data Collector v3.7.2.0data status	okinstallation	B4 Nyhavnadifferential loss correction	single-endedforward channel	channel 2reverse channel	N/Adate	2023/12/15time	17:50:13forward acquisition time	300,00reverse acquisition time	0,00gamma	499,1914k internal	0,3141k external	0,3141temperature offset calibration	1,0000default loss term (dB/km)	0,3820temperature slope calibration	1,0000multiplexer offset coefficient	1,0000multiplexer slope coefficient	1,0000fibre end	0,00T internal ref (°C)	18,66T ext. ref 1 (°C)	4,55T ext. ref 2 (°C)	4,59length (m)	temperature (°C)	Stokes	anti-Stokes-744,400	-200,000	0,004	0,055
-743,385	-32,638	-0,232	0,095
-742,371	392,972	-0,005	0,008
-741,356	-120,172	-0,315	0,039
-740,342	-150,193	0,083	0,005
-739,327	-99,485	-0,281	-0,052
-738,312	159,565	0,035	-0,036
-737,298	-43,518	-0,212	-0,079
-736,283	800,000	0,004	-0,011
-735,269	132,625	-0,239	0,229
-734,254	-135,983	0,108	-0,009
-733,239	177,386	-0,247	-0,267
-732,225	-200,000	0,002	-0,058
-731,210	-200,000	0,001	-0,043
-730,196	-93,840	-0,022	0,004
-729,181	129,793	-0,037	-0,035
-728,167	-200,000	0,032	0,161
-727,152	-200,000	-0,002	-0,007
-726,137	-200,000	-0,006	-0,062
-725,123	245,313	-0,098	-0,123
-724,108	-121,711	-0,081	0,010
-723,094	-14,357	-0,147	-0,070
-722,079	-109,077	0,097	-0,015
-721,064	800,000	-0,047	0,139
-720,050	-124,405	0,145	-0,017
-719,035	-44,309	-0,125	-0,046
-718,021	151,263	0,014	0,014
-717,006	800,000	-0,070	-0,167
-715,991	-8,739	-0,079	-0,039
-714,977	-113,796	0,111	0,016
-713,962	-44,278	0,041	0,015
-712,948	-200,000	-0,024	0,150
-711,933	626,064	0,042	0,079
-710,918	-45,676	-0,122	-0,044
-709,904	-22,274	0,085	0,038
-708,889	9,212	-0,022	-0,012
-707,875	-28,528	-0,090	0,038
-706,860	759,641	0,035	0,070
-705,845	51,040	0,101	0,071
-704,831	-0,372	0,042	0,022
-703,816	-200,000	0,007	-0,118
-702,802	-200,000	0,037	-0,141
-701,787	-200,000	0,023	-0,096
-700,772	62,748	-0,089	-0,066
-699,758	353,535	-0,014	-0,020
-698,743	-200,000	0,005	-0,113
-697,729	800,000	-0,039	-0,125
-696,714	-82,377	-0,160	-0,038
-695,699	-200,000	-0,035	-0,141
-694,685	800,000	-0,018	-0,050
-693,670	359,749	0,007	0,011
-692,656	260,848	-0,037	-0,047
-691,641	-33,102	0,112	-0,046
-690,627	-200,000	0,001	0,050
-689,612	-200,000	0,004	0,091
-688,597	16,432	-0,103	0,060
-687,583	800,000	-0,052	0,114
-686,568	800,000	0,043	0,129
-685,554	-200,000	-0,022	-0,207
-684,539	0,968	-0,114	-0,060
-683,524	-200,000	-0,036	0,133
-682,510	131,153	-0,125	-0,118
-681,495	-103,602	-0,054	0,009
-680,481	800,000	0,008	-0,020
-679,466	800,000	-0,025	-0,073
-678,451	135,289	-0,048	-0,046
-677,437	440,300	0,041	-0,067
-676,422	-186,299	-0,040	0,000
-675,408	100,697	-0,049	-0,042
-674,393	40,003	0,042	0,028
-673,378	181,274	-0,130	-0,141
-672,364	800,000	0,035	-0,089
-671,349	-31,397	-0,178	-0,074
-670,335	259,543	-0,079	0,101
-669,320	-89,890	-0,065	-0,014
-668,305	-55,774	-0,041	0,013
-667,291	668,551	0,038	0,073
-666,276	800,000	0,050	-0,104
-665,262	-28,870	-0,183	-0,077
-664,247	16,482	0,082	0,048
-663,232	176,820	0,099	-0,106
-662,218	18,674	-0,047	0,028
-661,203	236,867	-0,047	0,058
-660,189	-179,512	0,170	0,003
-659,174	60,287	-0,121	-0,088
-658,159	318,653	0,045	0,063
-657,145	-200,000	0,001	0,007
-656,130	-200,000	0,045	0,160
-655,116	-200,000	0,013	0,045
-654,101	-200,000	-0,004	0,037
-653,086	800,000	-0,011	0,025
-652,072	88,792	-0,139	0,114
-651,057	-200,000	-0,002	-0,033
-650,043	-200,000	0,025	-0,169
-649,028	-66,680	0,025	0,007
-648,014	793,226	0,026	0,053
-646,999	-9,757	0,092	-0,045
-645,984	800,000	0,044	0,139
-644,970	105,390	0,027	-0,023
-643,955	800,000	-0,053	-0,140
-642,941	471,039	-0,054	-0,090
-641,926	134,882	-0,047	-0,045
-640,911	-64,545	0,091	-0,027
-639,897	-79,259	-0,046	0,011
-638,882	18,577	0,137	-0,081
-637,868	-20,585	-0,032	0,014
-636,853	-49,671	-0,041	-0,014
-635,838	-119,032	-0,124	0,016
-634,824	-200,000	0,002	-0,071
-633,809	-14,058	0,143	-0,068
-632,795	1,940	-0,035	0,019
-631,780	-200,000	0,161	0,000
-630,765	169,048	-0,104	-0,110
-629,751	149,506	-0,085	-0,085
-628,736	114,753	0,024	0,021
-627,722	354,738	0,047	-0,070
-626,707	-200,000	-0,012	0,098
-625,692	54,120	-0,055	0,039
-624,678	-78,628	-0,081	-0,020
-623,663	-200,000	-0,000	-0,048
-622,649	42,030	-0,136	-0,091
-621,634	-200,000	0,010	-0,182
-620,619	-102,213	0,070	0,012
-619,605	-69,537	0,164	-0,046
-618,590	-200,000	-0,010	0,120
-617,576	800,000	0,065	0,205
-616,561	34,668	-0,049	-0,031
-615,546	-75,157	-0,131	-0,034
-614,532	198,757	0,054	-0,061
-613,517	-200,000	-0,001	0,015
-612,503	-94,299	-0,055	-0,011
-611,488	108,112	-0,088	0,077
-610,474	-200,000	0,008	0,092
-609,459	-48,857	-0,109	0,038
-608,444	-200,000	-0,163	-0,000
-607,430	-200,000	0,040	-0,168
-606,415	-200,000	-0,039	0,132
-605,401	-20,796	-0,056	-0,025
-604,386	320,966	0,074	0,105
-603,371	-182,176	-0,154	-0,002
-602,357	-200,000	0,018	-0,139
-601,342	800,000	-0,020	0,042
-600,328	-60,367	0,042	0,013
-599,313	-52,295	-0,154	0,052
-598,298	-200,000	-0,011	0,084
-597,284	-200,000	0,017	-0,055
-596,269	295,314	0,061	0,083
-595,255	33,013	-0,084	-0,053
-594,240	716,594	-0,034	0,067
-593,225	-139,783	-0,210	-0,016
-592,211	102,206	-0,065	0,056
-591,196	127,248	0,062	0,058
-590,182	14,798	0,049	-0,028
-589,167	-200,000	0,007	0,026
-588,152	98,281	-0,044	0,037
-587,138	800,000	0,056	0,139
-586,123	-155,150	-0,167	0,008
-585,109	-200,000	-0,010	-0,084
-584,094	-114,168	-0,098	0,014
-583,079	-200,000	-0,038	0,246
-582,065	673,784	0,033	-0,064
-581,050	-140,492	0,032	-0,002
-580,036	-118,213	0,114	0,015
-579,021	-124,013	-0,077	0,009
-578,006	-31,667	0,078	0,032
-576,992	-73,674	-0,070	0,019
-575,977	154,864	0,009	0,009
-574,963	-90,057	0,110	-0,023
-573,948	448,369	0,118	0,193
-572,934	90,449	-0,139	-0,114
-571,919	-108,181	-0,063	0,010
-570,904	-200,000	0,001	-0,083
-569,890	121,123	-0,018	-0,017
-568,875	800,000	0,005	0,012
-567,861	26,039	0,095	0,058
-566,846	-62,750	-0,034	-0,010
-565,831	39,642	0,085	0,056
-564,817	-55,918	-0,156	0,051
-563,802	-57,061	0,124	0,040
-562,788	15,305	-0,180	-0,103
-561,773	46,045	-0,020	0,014
-560,758	15,879	-0,059	0,034
-559,744	-200,000	0,000	0,048
-558,729	72,913	0,054	-0,042
-557,715	800,000	-0,026	-0,074
-556,700	42,590	0,034	-0,023
-555,685	-39,902	0,021	-0,008
-554,671	-108,334	0,032	-0,005
-553,656	12,983	0,042	0,024
-552,642	-114,478	-0,029	-0,004
-551,627	-100,726	-0,082	-0,015
-550,612	-105,291	-0,033	0,005
-549,598	20,814	-0,126	0,075
-548,583	190,666	0,023	0,026
-547,569	800,000	-0,022	-0,050
-546,554	561,185	-0,087	-0,155
-545,539	-200,000	0,019	0,136
-544,525	200,034	0,045	0,051
-543,510	-65,442	-0,111	-0,033
-542,496	517,079	0,098	-0,169
-541,481	-156,937	-0,041	-0,002
-540,466	3,198	-0,103	0,055
-539,452	505,750	-0,017	-0,030
-538,437	-6,673	0,140	0,070
-537,423	79,570	-0,028	-0,022
-536,408	-200,000	-0,024	-0,102
-535,393	189,131	0,095	0,105
-534,379	331,512	-0,055	0,078
-533,364	-99,036	0,030	-0,005
-532,350	140,050	0,072	0,070
-531,335	93,979	0,059	0,049
-530,321	-200,000	0,001	0,145
-529,306	45,858	-0,049	-0,033
-528,291	800,000	0,020	-0,046
-527,277	-200,000	0,009	-0,036
-526,262	-115,176	0,090	0,012
-525,248	110,283	-0,067	0,059
-524,233	578,799	-0,051	0,092
-523,218	-200,000	-0,037	-0,169
-522,204	456,975	-0,055	-0,089
-521,189	800,000	0,041	-0,105
-520,175	800,000	-0,040	-0,089
-519,160	-200,000	-0,027	-0,164
-518,145	-200,000	-0,029	-0,122
-517,131	-200,000	0,022	0,074
-516,116	-200,000	-0,025	-0,096
-515,102	-200,000	0,003	0,026
-514,087	124,408	-0,078	-0,072
-513,072	473,365	0,123	-0,205
-512,058	-200,000	-0,014	-0,046
-511,043	-200,000	0,009	-0,056
-510,029	71,725	0,155	0,118
-509,014	57,145	-0,105	-0,075
-507,999	-200,000	0,015	-0,100
-506,985	-26,945	-0,043	0,018
-505,970	211,950	0,068	-0,079
-504,956	303,355	-0,055	-0,075
-503,941	-200,000	0,006	0,095
-502,926	-6,104	-0,026	0,013
-501,912	647,253	-0,048	0,091
-500,897	-15,622	0,070	-0,032
-499,883	281,372	0,042	-0,055
-498,868	-81,045	-0,055	-0,013
-497,853	-200,000	0,003	-0,106
-496,839	800,000	0,011	0,031
-495,824	3,932	0,100	0,054
-494,810	141,176	-0,013	0,012
-493,795	170,333	0,092	0,097
-492,781	-105,049	-0,027	0,004
-491,766	-50,713	-0,124	0,043
-490,751	800,000	-0,017	-0,055
-489,737	-103,818	0,077	0,013
-488,722	-200,000	-0,011	0,117
-487,708	-10,575	0,259	0,125
-486,693	-100,053	0,086	-0,016
-485,678	56,184	-0,076	-0,054
-484,664	66,361	0,052	0,039
-483,649	421,807	-0,067	-0,105
-482,635	107,675	-0,142	-0,124
-481,620	-200,000	0,001	-0,083
-480,605	-200,000	0,001	0,032
-479,591	800,000	-0,014	0,029
-478,576	-200,000	0,011	0,122
-477,562	-34,001	-0,102	0,041
-476,547	5,725	-0,040	-0,022
-475,532	-200,000	0,007	0,026
-474,518	378,549	-0,015	0,023
-473,503	305,253	0,094	-0,129
-472,489	430,050	0,034	-0,054
-471,474	181,065	0,053	0,057
-470,459	-71,240	-0,074	0,020
-469,445	-99,276	0,113	-0,021
-468,430	-200,000	-0,000	-0,065
-467,416	-25,763	-0,067	-0,029
-466,401	800,000	0,068	0,193
-465,386	-200,000	0,010	0,035
-464,372	-200,000	-0,009	-0,117
-463,357	800,000	-0,067	-0,148
-462,343	-200,000	-0,019	-0,119
-461,328	172,971	0,087	-0,092
-460,313	347,089	-0,078	0,113
-459,299	688,369	0,033	-0,063
-458,284	-50,390	0,155	0,053
-457,270	311,877	0,074	0,103
-456,255	800,000	0,037	-0,089
-455,241	-60,398	0,141	0,044
-454,226	-200,000	0,038	0,130
-453,211	800,000	-0,020	0,057
-452,197	-95,912	0,085	0,016
-451,182	195,479	-0,066	0,074
-450,168	-123,257	0,071	-0,008
-449,153	-64,445	-0,109	-0,032
-448,138	278,385	0,036	0,048
-447,124	451,817	0,060	0,097
-446,109	-200,000	-0,004	0,100
-445,095	-38,456	0,061	0,024
-444,080	-151,359	0,037	0,002
-443,065	-43,862	-0,227	0,083
-442,051	437,549	-0,056	0,090
-441,036	-175,717	0,124	-0,002
-440,022	54,179	-0,100	-0,071
-439,007	10,955	-0,081	0,045
-437,992	-200,000	0,001	-0,039
-436,978	-13,450	0,061	0,029
-435,963	84,575	0,037	0,030
-434,949	-150,298	-0,097	0,005
-433,934	5,417	-0,083	-0,045
-432,919	43,429	-0,133	0,089
-431,905	-33,903	-0,028	-0,011
-430,890	-200,000	0,017	-0,056
-429,876	519,309	0,057	0,098
-428,861	-200,000	-0,004	0,024
-427,846	27,603	0,059	0,036
-426,832	-62,047	-0,079	-0,024
-425,817	-200,000	-0,126	-0,000
-424,803	-34,879	-0,032	-0,013
-423,788	27,356	0,016	-0,010
-422,773	800,000	-0,023	0,069
-421,759	498,301	-0,047	0,080
-420,744	170,416	0,068	0,072
-419,730	-138,852	0,127	-0,010
-418,715	-116,766	-0,013	0,002
-417,701	543,240	0,056	-0,098
-416,686	-200,000	0,015	-0,061
-415,671	-81,157	0,056	0,013
-414,657	408,474	-0,028	0,043
-413,642	-200,000	0,014	-0,086
-412,628	-200,000	-0,023	-0,088
-411,613	-200,000	0,000	-0,106
-410,598	800,000	-0,090	-0,276
-409,584	-52,667	-0,033	-0,011
-408,569	-47,869	0,073	0,026
-407,555	364,928	0,053	-0,079
-406,540	-200,000	-0,010	-0,052
-405,525	-200,000	-0,001	-0,015
-404,511	-200,000	0,001	-0,078
-403,496	681,908	0,019	-0,036
-402,482	-138,714	0,034	0,003
-401,467	800,000	0,025	0,050
-400,452	-11,229	0,044	0,021
-399,438	-200,000	-0,009	0,137
-398,423	-105,770	-0,141	-0,023
-397,409	97,645	-0,156	-0,131
-396,394	-200,000	0,004	-0,017
-395,379	-7,533	-0,015	0,007
-394,365	-200,000	0,003	0,065
-393,350	6,686	-0,082	-0,045
-392,336	-200,000	0,003	0,127
-391,321	400,262	-0,035	-0,055
-390,306	188,088	0,065	-0,071
-389,292	800,000	-0,014	-0,039
-388,277	-200,000	-0,030	0,141
-387,263	-124,496	-0,108	-0,012
-386,248	47,104	0,095	0,064
-385,233	191,242	0,019	0,021
-384,219	79,334	0,090	0,070
-383,204	607,605	0,009	-0,016
-382,190	255,164	0,147	0,184
-381,175	-125,092	-0,115	-0,013
-380,160	-200,000	-0,009	0,128
-379,146	800,000	0,062	0,157
-378,131	314,049	0,034	0,047
-377,117	183,438	-0,126	0,136
-376,102	800,000	-0,043	0,122
-375,088	800,000	0,012	0,027
-374,073	105,659	0,045	-0,039
-373,058	-200,000	-0,019	-0,064
-372,044	-169,266	0,070	-0,002
-371,029	84,372	0,135	0,108
-370,015	210,931	0,044	0,050
-369,000	-15,076	-0,101	-0,047
-367,985	-200,000	0,006	0,021
-366,971	-200,000	0,037	-0,132
-365,956	4,342	0,115	-0,061
-364,942	-68,711	-0,123	0,034
-363,927	116,577	0,085	-0,076
-362,912	-75,619	-0,024	-0,006
-361,898	-200,000	0,003	-0,019
-360,883	-31,251	-0,051	0,021
-359,869	-66,117	-0,185	-0,053
-358,854	-70,335	0,068	0,019
-357,839	178,591	-0,067	0,071
-356,825	-200,000	-0,020	-0,067
-355,810	-169,751	-0,038	-0,001
-354,796	-200,000	-0,011	-0,056
-353,781	-200,000	0,005	-0,086
-352,766	-12,248	-0,078	0,037
-351,752	-105,816	-0,015	-0,003
-350,737	-200,000	-0,026	-0,103
-349,723	-200,000	-0,014	-0,070
-348,708	430,446	0,040	0,063
-347,693	-0,506	0,047	-0,025
-346,679	-105,615	-0,141	-0,023
-345,664	80,410	-0,025	0,020
-344,650	76,443	-0,021	0,016
-343,635	200,273	0,117	0,131
-342,620	800,000	0,016	0,034
-341,606	92,647	-0,020	0,017
-340,591	-200,000	0,022	0,115
-339,577	126,133	-0,046	-0,042
-338,562	-79,340	-0,096	-0,023
-337,548	-117,273	-0,055	0,007
-336,533	-200,000	0,009	0,157
-335,518	453,344	0,099	0,161
-334,504	-200,000	0,014	0,098
-333,489	158,398	0,049	0,050
-332,475	340,132	-0,037	0,052
-331,460	-200,000	0,033	-0,202
-330,445	-200,000	0,014	-0,118
-329,431	-200,000	-0,033	-0,132
-328,416	326,912	0,104	0,146
-327,402	-200,000	-0,008	0,171
-326,387	-200,000	-0,021	0,123
-325,372	27,630	0,133	-0,081
-324,358	542,847	-0,026	-0,045
-323,343	213,348	-0,062	0,071
-322,329	7,623	0,094	-0,051
-321,314	-46,424	-0,064	-0,023
-320,299	-200,000	-0,013	0,050
-319,285	418,356	0,037	0,058
-318,270	-27,081	0,030	0,013
-317,256	-96,790	-0,028	-0,005
-316,241	-200,000	-0,006	-0,091
-315,226	800,000	0,063	-0,188
-314,212	-200,000	-0,003	0,096
-313,197	0,486	0,080	-0,042
-312,183	-200,000	-0,030	0,120
-311,168	800,000	-0,040	-0,117
-310,153	800,000	-0,025	-0,054
-309,139	-200,000	0,004	0,098
-308,124	-82,710	0,111	-0,026
-307,110	24,273	0,049	0,029
-306,095	800,000	0,033	0,092
-305,080	130,786	0,019	-0,018
-304,066	-8,487	-0,169	0,083
-303,051	-200,000	-0,023	-0,073
-302,037	69,914	0,063	0,047
-301,022	-200,000	-0,027	0,131
-300,008	-16,928	0,169	0,078
-298,993	-75,497	0,097	0,025
-297,978	-200,000	0,016	0,080
-296,964	23,007	-0,045	0,027
-295,949	240,795	0,055	-0,067
-294,935	-145,017	0,059	0,004
-293,920	375,960	0,059	-0,088
-292,905	-22,306	0,052	0,023
-291,891	-73,290	0,097	0,026
-290,876	-178,359	-0,131	-0,002
-289,862	800,000	0,035	0,070
-288,847	177,585	0,076	0,081
-287,832	-23,901	0,080	-0,035
-286,818	148,868	0,087	0,086
-285,803	121,141	-0,083	0,076
-284,789	-200,000	0,001	-0,012
-283,774	-200,000	-0,021	0,180
-282,759	286,660	-0,021	0,027
-281,745	-97,586	-0,102	-0,019
-280,730	40,974	0,024	-0,016
-279,716	222,157	-0,081	0,096
-278,701	73,344	0,043	0,033
-277,686	151,249	0,033	-0,032
-276,672	-200,000	-0,006	0,102
-275,657	240,928	-0,035	0,043
-274,643	156,074	-0,078	-0,078
-273,628	7,518	0,180	-0,098
-272,613	48,685	-0,127	-0,087
-271,599	-200,000	-0,012	0,038
-270,584	-157,260	0,252	0,011
-269,570	800,000	0,047	0,140
-268,555	203,002	-0,049	-0,055
-267,540	800,000	-0,039	0,106
-266,526	-152,173	-0,100	0,005
-265,511	800,000	-0,039	-0,116
-264,497	-90,542	0,094	-0,020
-263,482	-139,145	-0,083	0,006
-262,467	800,000	-0,018	0,058
-261,453	-80,173	0,071	-0,017
-260,438	41,684	-0,056	0,037
-259,424	-200,000	0,008	-0,071
-258,409	546,914	-0,073	-0,128
-257,395	251,036	0,027	0,033
-256,380	287,013	0,078	0,103
-255,365	392,282	-0,038	0,058
-254,351	-8,765	0,124	0,060
-253,336	-200,000	0,016	-0,203
-252,322	-200,000	-0,018	-0,059
-251,307	-200,000	-0,001	-0,036
-250,292	791,827	-0,072	-0,145
-249,278	76,066	-0,137	-0,105
-248,263	15,644	-0,088	0,050
-247,249	189,922	0,034	-0,038
-246,234	-133,203	-0,038	-0,003
-245,219	-93,010	-0,083	-0,017
-244,205	25,023	0,057	0,034
-243,190	-200,000	-0,029	-0,123
-242,176	27,225	0,082	0,050
-241,161	150,884	-0,030	-0,030
-240,146	265,582	0,032	-0,041
-239,132	-169,012	0,039	-0,001
-238,117	445,070	-0,021	0,034
-237,103	-61,975	0,072	0,022
-236,088	75,979	-0,049	-0,037
-235,073	728,616	-0,012	-0,024
-234,059	190,488	0,082	-0,089
-233,044	-72,106	-0,022	0,006
-232,030	-200,000	0,003	-0,016
-231,015	391,122	0,064	-0,097
-230,000	-135,171	0,071	0,006
-228,986	-200,000	0,044	-0,204
-227,971	-36,587	0,058	-0,022
-226,957	-200,000	-0,036	0,200
-225,942	88,360	0,054	0,044
-224,927	116,696	-0,035	-0,031
-223,913	800,000	0,034	-0,072
-222,898	65,304	0,047	-0,034
-221,884	-200,000	-0,011	-0,038
-220,869	223,977	0,070	0,082
-219,855	-200,000	0,008	0,129
-218,840	-111,572	-0,018	-0,003
-217,825	-13,656	0,162	0,076
-216,811	40,951	-0,111	0,073
-215,796	95,459	0,018	0,015
-214,782	-200,000	0,013	-0,088
-213,767	800,000	0,064	0,194
-212,752	152,023	0,019	-0,019
-211,738	142,574	0,140	-0,135
-210,723	-200,000	-0,009	0,051
-209,709	-98,838	-0,195	0,036
-208,694	-169,913	-0,095	0,002
-207,679	29,482	-0,075	0,046
-206,665	-77,029	0,081	-0,020
-205,650	-132,343	0,174	0,016
-204,636	243,180	0,100	0,122
-203,621	800,000	-0,040	-0,081
-202,606	-200,000	0,001	-0,035
-201,592	110,605	0,113	-0,099
-200,577	800,000	0,058	-0,126
-199,563	-200,000	-0,002	-0,102
-198,548	-106,808	0,055	-0,009
-197,533	-200,000	0,022	0,093
-196,519	154,194	0,053	0,053
-195,504	-200,000	0,015	0,157
-194,490	-56,999	-0,116	-0,037
-193,475	114,351	-0,128	-0,113
-192,460	800,000	0,042	-0,116
-191,446	800,000	-0,001	0,004
-190,431	-200,000	0,019	0,127
-189,417	-11,886	0,032	0,015
-188,402	-27,272	0,064	-0,027
-187,387	800,000	-0,080	-0,190
-186,373	800,000	0,047	-0,124
-185,358	-40,863	0,133	-0,050
-184,344	800,000	0,032	0,073
-183,329	-200,000	0,002	0,096
-182,315	800,000	0,032	-0,083
-181,300	66,909	0,049	0,036
-180,285	109,941	0,143	-0,125
-179,271	53,914	-0,063	-0,044
-178,256	503,385	-0,012	0,020
-177,242	800,000	0,017	-0,048
-176,227	251,946	-0,050	-0,062
-175,212	95,283	-0,084	-0,069
-174,198	-46,685	0,056	0,020
-173,183	113,340	-0,131	0,115
-172,169	-200,000	-0,014	-0,183
-171,154	800,000	-0,023	0,057
-170,139	-200,000	-0,008	0,049
-169,125	-24,883	-0,091	0,039
-168,110	223,167	0,045	0,053
-167,096	-200,000	-0,001	0,038
-166,081	-42,192	-0,075	-0,028
-165,066	98,521	-0,122	-0,102
-164,052	-72,893	0,015	0,004
-163,037	5,205	-0,019	0,010
-162,023	-70,749	-0,087	0,024
-161,008	-61,110	0,060	-0,018
-159,993	18,656	0,117	-0,068
-158,979	-200,000	-0,045	-0,177
-157,964	-200,000	-0,008	-0,084
-156,950	-61,827	-0,061	-0,018
-155,935	-200,000	0,049	-0,187
-154,920	501,978	0,047	0,079
-153,906	155,931	-0,046	0,046
-152,891	188,935	-0,078	0,084
-151,877	-25,654	0,087	0,037
-150,862	-200,000	-0,012	0,047
-149,847	-200,000	-0,015	0,132
-148,833	-177,661	0,150	0,003
-147,818	-29,968	0,196	0,081
-146,804	-80,902	0,098	0,023
-145,789	-175,616	-0,104	0,002
-144,775	107,695	0,080	-0,069
-143,760	-83,970	-0,082	-0,019
-142,745	-10,090	-0,109	-0,052
-141,731	800,000	0,021	0,049
-140,716	800,000	-0,049	0,101
-139,702	-109,018	0,060	-0,009
-138,687	-200,000	0,022	-0,192
-137,672	-123,643	0,058	0,007
-136,658	-200,000	0,001	0,081
-135,643	-44,443	0,097	0,035
-134,629	196,721	-0,119	-0,131
-133,614	-200,000	0,002	0,101
-132,599	488,675	0,120	0,199
-131,585	148,728	0,045	0,044
-130,570	-104,435	-0,105	0,017
-129,556	569,411	-0,063	0,112
-128,541	-24,826	-0,042	0,018
-127,526	571,714	0,030	-0,053
-126,512	800,000	-0,011	0,025
-125,497	-67,595	0,160	-0,045
-124,483	-200,000	0,006	-0,086
-123,468	-200,000	0,011	-0,079
-122,453	-96,389	0,141	-0,027
-121,439	-74,392	-0,049	0,013
-120,424	10,134	-0,043	-0,023
-119,410	167,864	-0,031	0,032
