DTS Sentinel unit serial number:	SN410029Multiplexer serial number:	ORYXHardware model number:	OX2-SRSoftware version number:	ORYX F/W v4,00 Oryx Data Collector v3.7.2.0data status	okinstallation	B4 Nyhavnadifferential loss correction	single-endedforward channel	channel 2reverse channel	N/Adate	2023/12/15time	21:55:13forward acquisition time	300,00reverse acquisition time	0,00gamma	499,1914k internal	0,3132k external	0,3132temperature offset calibration	1,0000default loss term (dB/km)	0,3820temperature slope calibration	1,0000multiplexer offset coefficient	1,0000multiplexer slope coefficient	1,0000fibre end	0,00T internal ref (°C)	21,14T ext. ref 1 (°C)	6,52T ext. ref 2 (°C)	6,66length (m)	temperature (°C)	Stokes	anti-Stokes-744,400	-62,836	0,085	-0,026
-743,385	-12,207	-0,220	0,107
-742,371	-87,690	0,144	-0,032
-741,356	17,874	-0,212	0,125
-740,342	80,632	0,134	-0,107
-739,327	82,182	-0,180	0,145
-738,312	435,300	0,019	-0,031
-737,298	198,732	-0,125	0,142
-736,283	-200,000	0,005	0,192
-735,269	612,150	-0,061	0,114
-734,254	-101,567	0,121	0,022
-733,239	-108,475	-0,396	-0,063
-732,225	18,657	0,170	0,101
-731,210	773,355	-0,081	0,164
-730,196	229,248	0,082	-0,099
-729,181	283,644	0,014	-0,019
-728,167	-103,867	0,166	-0,029
-727,152	800,000	0,037	0,091
-726,137	-191,416	-0,159	0,001
-725,123	-200,000	-0,000	0,088
-724,108	36,812	-0,045	0,029
-723,094	-200,000	-0,035	-0,120
-722,079	-55,011	-0,097	0,032
-721,064	-111,252	-0,127	-0,019
-720,050	800,000	-0,012	0,028
-719,035	36,655	0,155	-0,101
-718,021	-51,582	-0,182	-0,063
-717,006	532,729	0,077	-0,136
-715,991	384,312	-0,034	-0,052
-714,977	-200,000	-0,003	0,047
-713,962	800,000	-0,045	0,127
-712,948	68,176	-0,023	-0,017
-711,933	108,832	-0,054	0,048
-710,918	-200,000	0,016	0,125
-709,904	41,935	-0,073	-0,049
-708,889	-151,228	-0,055	0,003
-707,875	-35,997	-0,077	-0,031
-706,860	193,958	-0,116	0,131
-705,845	-200,000	0,013	0,078
-704,831	172,169	0,092	-0,099
-703,816	700,620	0,070	0,138
-702,802	-200,000	-0,032	0,000
-701,787	25,129	0,030	-0,018
-700,772	800,000	-0,017	-0,053
-699,758	291,172	0,124	-0,167
-698,743	-116,966	0,163	0,022
-697,729	800,000	-0,019	0,059
-696,714	-180,061	0,169	-0,003
-695,699	207,335	0,115	-0,133
-694,685	469,187	0,059	0,098
-693,670	-200,000	-0,006	-0,226
-692,656	-123,354	0,074	-0,009
-691,641	800,000	-0,062	0,133
-690,627	-94,540	-0,034	-0,007
-689,612	800,000	0,058	0,128
-688,597	-155,334	-0,100	0,005
-687,583	-65,864	-0,173	-0,051
-686,568	-119,267	0,098	-0,013
-685,554	354,137	0,015	0,023
-684,539	-148,020	0,073	-0,004
-683,524	163,065	0,021	0,021
-682,510	42,057	0,084	0,057
-681,495	-200,000	-0,012	-0,117
-680,481	237,147	-0,083	-0,102
-679,466	266,264	-0,088	-0,114
-678,451	800,000	-0,016	0,040
-677,437	166,579	-0,056	-0,059
-676,422	-199,979	0,124	-0,000
-675,408	-69,530	0,097	-0,027
-674,393	-89,585	-0,100	0,021
-673,378	-107,576	-0,096	0,015
-672,364	193,742	-0,081	-0,091
-671,349	-10,957	-0,112	0,055
-670,335	-44,515	0,285	-0,105
-669,320	-41,680	-0,130	0,049
-668,305	-98,323	0,037	0,007
-667,291	368,104	0,014	0,021
-666,276	-83,718	0,136	-0,032
-665,262	-200,000	-0,002	-0,112
-664,247	107,140	-0,046	0,041
-663,232	-7,238	0,088	0,044
-662,218	-131,637	0,072	-0,007
-661,203	-103,278	-0,117	-0,020
-660,189	-200,000	-0,002	-0,057
-659,174	787,675	-0,030	0,062
-658,159	-82,500	-0,089	-0,021
-657,145	-150,382	-0,038	0,002
-656,130	38,064	-0,062	0,041
-655,116	315,291	0,051	0,071
-654,101	261,171	0,099	0,127
-653,086	110,254	0,037	0,033
-652,072	8,174	-0,102	-0,057
-651,057	-200,000	0,007	0,037
-650,043	253,927	0,034	-0,044
-649,028	-132,497	0,080	-0,007
-648,014	-200,000	-0,019	-0,107
-646,999	99,670	-0,051	0,044
-645,984	800,000	-0,061	-0,127
-644,970	111,666	0,082	0,073
-643,955	-200,000	0,004	0,115
-642,941	800,000	-0,045	-0,144
-641,926	-200,000	-0,004	0,024
-640,911	343,618	-0,034	-0,050
-639,897	70,570	0,106	0,081
-638,882	-200,000	0,003	-0,055
-637,868	-200,000	0,004	0,044
-636,853	69,780	0,022	0,017
-635,838	186,479	-0,102	-0,112
-634,824	-109,857	-0,087	0,013
-633,809	316,746	-0,063	-0,088
-632,795	800,000	0,058	-0,162
-631,780	22,613	0,030	-0,018
-630,765	761,476	0,026	-0,052
-629,751	-71,649	-0,052	-0,014
-628,736	294,790	-0,124	-0,168
-627,722	-2,216	0,065	0,033
-626,707	800,000	-0,042	0,120
-625,692	-123,354	-0,099	-0,012
-624,678	300,774	-0,071	-0,097
-623,663	-200,000	-0,004	-0,049
-622,649	-116,165	-0,088	0,012
-621,634	-200,000	0,007	-0,041
-620,619	-200,000	-0,011	0,081
-619,605	-112,492	0,147	0,021
-618,590	-160,431	0,206	-0,008
-617,576	800,000	-0,048	0,115
-616,561	776,461	-0,008	0,015
-615,546	386,066	0,075	-0,116
-614,532	-26,247	-0,044	-0,019
-613,517	800,000	-0,051	0,127
-612,503	-18,297	0,097	-0,045
-611,488	800,000	0,044	0,093
-610,474	110,397	-0,150	0,134
-609,459	800,000	-0,031	0,069
-608,444	-31,437	-0,093	-0,038
-607,430	-200,000	0,021	-0,076
-606,415	32,628	-0,130	-0,083
-605,401	-128,522	0,073	0,008
-604,386	243,412	-0,061	0,076
-603,371	21,284	0,060	0,036
-602,357	-77,129	0,087	-0,022
-601,342	431,620	-0,101	-0,162
-600,328	385,320	-0,046	0,070
-599,313	311,197	0,072	-0,100
-598,298	74,278	0,126	-0,098
-597,284	47,704	-0,038	-0,026
-596,269	-200,000	0,018	-0,214
-595,255	-100,664	0,054	-0,010
-594,240	-200,000	-0,006	0,025
-593,225	45,124	-0,123	-0,084
-592,211	344,362	0,047	-0,068
-591,196	72,399	0,072	-0,056
-590,182	800,000	-0,043	0,104
-589,167	235,531	0,112	0,136
-588,152	293,857	-0,050	-0,068
-587,138	51,947	0,100	-0,071
-586,123	237,964	-0,082	-0,101
-585,109	-164,579	-0,019	0,001
-584,094	67,904	0,047	0,036
-583,079	800,000	-0,020	-0,046
-582,065	151,449	0,078	-0,079
-581,050	104,220	-0,029	0,025
-580,036	-200,000	0,012	0,043
-579,021	2,027	-0,079	-0,042
-578,006	-200,000	0,006	-0,104
-576,992	54,745	-0,085	-0,060
-575,977	-200,000	0,013	0,122
-574,963	177,202	0,046	0,049
-573,948	-145,318	0,120	-0,008
-572,934	243,208	0,051	0,064
-571,919	-200,000	-0,006	-0,037
-570,904	-200,000	0,010	0,090
-569,890	603,373	-0,026	0,048
-568,875	-31,456	0,021	0,009
-567,861	-200,000	-0,018	0,126
-566,846	-111,126	-0,247	-0,037
-565,831	-114,677	0,105	-0,015
-564,817	-101,065	-0,057	-0,010
-563,802	-128,278	-0,136	-0,014
-562,788	800,000	0,061	-0,126
-561,773	316,586	-0,099	-0,139
-560,758	61,949	-0,061	0,045
-559,744	-22,324	0,060	0,027
-558,729	-200,000	-0,021	0,088
-557,715	103,123	-0,053	0,046
-556,700	-31,561	-0,088	0,036
-555,685	-200,000	-0,012	0,068
-554,671	-97,312	-0,013	-0,002
-553,656	-200,000	0,004	0,032
-552,642	-200,000	0,033	0,175
-551,627	-71,649	-0,017	0,005
-550,612	284,449	-0,029	-0,039
-549,598	12,350	-0,125	-0,071
-548,583	647,399	-0,040	-0,075
-547,569	432,981	0,024	0,038
-546,554	-75,844	0,039	-0,010
-545,539	800,000	-0,074	0,159
-544,525	-200,000	-0,006	0,182
-543,510	-111,034	-0,070	-0,011
-542,496	-112,374	-0,107	-0,016
-541,481	800,000	0,004	-0,011
-540,466	-180,607	-0,043	0,001
-539,452	357,138	0,041	0,061
-538,437	-40,762	-0,074	0,028
-537,423	89,923	0,031	-0,026
-536,408	680,048	0,011	-0,022
-535,393	-75,959	-0,120	0,031
-534,379	373,886	-0,027	0,041
-533,364	-200,000	-0,023	-0,077
-532,350	-34,275	-0,050	-0,020
-531,335	-200,000	-0,000	-0,063
-530,321	-200,000	0,003	-0,030
-529,306	240,113	-0,062	0,076
-528,291	72,561	0,060	-0,046
-527,277	586,691	-0,028	0,050
-526,262	-31,053	-0,126	-0,052
-525,248	-140,249	0,100	-0,008
-524,233	-200,000	-0,007	-0,037
-523,218	-200,000	-0,018	0,092
-522,204	-101,262	0,024	-0,004
-521,189	278,181	-0,084	-0,110
-520,175	324,016	0,022	-0,032
-519,160	800,000	-0,028	-0,077
-518,145	476,456	-0,055	0,092
-517,131	109,819	0,059	-0,052
-516,116	-114,860	0,164	0,023
-515,102	-200,000	-0,005	0,094
-514,087	800,000	-0,036	0,103
-513,072	-91,945	-0,205	0,042
-512,058	330,957	0,020	-0,028
-511,043	139,292	0,068	-0,066
-510,029	138,031	-0,054	-0,052
-509,014	40,937	0,023	0,016
-507,999	-98,798	-0,064	0,012
-506,985	800,000	-0,030	-0,074
-505,970	-200,000	-0,047	-0,175
-504,956	121,294	-0,029	0,027
-503,941	214,424	0,041	0,048
-502,926	133,526	0,075	0,071
-501,912	216,794	-0,033	0,039
-500,897	-2,070	-0,165	0,085
-499,883	-179,929	0,133	0,002
-498,868	-8,978	-0,042	-0,021
-497,853	10,366	-0,127	-0,071
-496,839	271,509	-0,033	0,043
-495,824	405,032	0,009	-0,014
-494,810	725,359	0,040	0,078
-493,795	800,000	-0,035	0,110
-492,781	-58,259	0,019	-0,006
-491,766	18,603	0,005	0,003
-490,751	-200,000	-0,004	-0,019
-489,737	159,125	-0,053	0,055
-488,722	-200,000	0,008	0,129
-487,708	-151,664	0,045	-0,002
-486,693	68,222	-0,049	-0,037
-485,678	-131,487	0,121	-0,012
-484,664	800,000	-0,026	0,060
-483,649	237,655	-0,029	0,035
-482,635	800,000	0,040	0,090
-481,620	-101,059	0,111	0,020
-480,605	-200,000	-0,005	0,061
-479,591	-200,000	0,048	0,191
-478,576	-200,000	-0,037	0,142
-477,562	-108,709	-0,060	-0,009
-476,547	388,948	0,034	-0,052
-475,532	54,482	-0,135	-0,096
-474,518	486,843	-0,013	-0,022
-473,503	-200,000	0,015	0,117
-472,489	56,177	-0,059	0,042
-471,474	56,971	0,058	-0,041
-470,459	-83,290	0,100	-0,023
-469,445	497,833	-0,022	-0,037
-468,430	161,109	-0,059	0,060
-467,416	287,044	0,119	0,159
-466,401	27,739	0,134	-0,083
-465,386	-200,000	0,013	0,146
-464,372	-15,084	0,030	-0,014
-463,357	262,599	0,101	-0,129
-462,343	800,000	-0,019	-0,054
-461,328	-200,000	0,016	-0,146
-460,313	-200,000	-0,033	-0,114
-459,299	135,296	0,051	0,049
-458,284	11,803	-0,089	0,050
-457,270	151,315	0,024	-0,024
-456,255	97,237	0,076	-0,064
-455,241	-200,000	0,002	-0,112
-454,226	637,749	-0,056	-0,105
-453,211	-200,000	-0,004	0,014
-452,197	39,804	-0,055	-0,036
-451,182	302,866	0,109	0,149
-450,168	12,748	-0,039	-0,022
-449,153	753,680	-0,026	-0,053
-448,138	-148,373	-0,137	-0,008
-447,124	142,193	-0,079	-0,077
-446,109	-43,433	-0,086	0,032
-445,095	800,000	0,040	-0,108
-444,080	800,000	0,014	0,039
-443,065	-200,000	0,003	-0,111
-442,051	-200,000	0,011	0,079
-441,036	433,355	0,055	-0,089
-440,022	-72,577	-0,078	-0,021
-439,007	-81,041	0,078	-0,019
-437,992	-147,236	-0,072	0,004
-436,978	800,000	0,023	0,055
-435,963	30,692	0,069	-0,043
-434,949	800,000	-0,034	-0,069
-433,934	-31,359	0,026	0,011
-432,919	290,782	-0,079	-0,106
-431,905	-200,000	-0,006	-0,059
-430,890	-200,000	-0,014	-0,137
-429,876	-200,000	-0,028	0,145
-428,861	48,236	0,076	0,052
-427,846	-11,196	-0,036	-0,017
-426,832	168,317	0,022	-0,023
-425,817	335,961	-0,023	-0,033
-424,803	-85,269	-0,133	-0,030
-423,788	22,769	0,092	-0,055
-422,773	-92,991	0,056	-0,011
-421,759	252,580	-0,030	0,038
-420,744	-101,986	-0,065	-0,011
-419,730	-179,895	0,100	-0,002
-418,715	-7,374	-0,015	0,007
-417,701	85,450	0,053	0,043
-416,686	-200,000	0,036	-0,136
-415,671	-200,000	-0,001	-0,003
-414,657	125,723	0,099	0,091
-413,642	-173,521	-0,044	0,001
-412,628	588,244	-0,036	-0,065
-411,613	-158,102	-0,050	0,002
-410,598	174,828	0,091	-0,097
-409,584	-110,731	-0,126	0,019
-408,569	-200,000	0,017	-0,081
-407,555	500,109	0,059	0,101
-406,540	135,364	-0,031	0,030
-405,525	-47,978	0,051	0,018
-404,511	-67,487	-0,025	-0,007
-403,496	529,179	0,029	0,050
-402,482	800,000	0,046	0,133
-401,467	105,903	-0,076	0,066
-400,452	190,661	0,071	0,078
-399,438	-75,958	0,062	-0,016
-398,423	326,748	-0,078	-0,109
-397,409	-115,274	0,064	-0,009
-396,394	401,614	0,070	0,108
-395,379	527,728	-0,057	0,099
-394,365	100,077	-0,061	0,052
-393,350	76,612	-0,097	-0,075
-392,336	-28,330	0,068	-0,029
-391,321	-75,036	-0,092	-0,024
-390,306	-200,000	-0,019	-0,181
-389,292	441,792	0,018	0,030
-388,277	101,072	0,126	-0,107
-387,263	326,943	0,032	-0,045
-386,248	-18,602	-0,093	0,043
-385,233	-9,055	0,025	-0,012
-384,219	288,506	-0,065	-0,087
-383,204	-200,000	0,006	-0,119
-382,190	50,582	-0,169	-0,117
-381,175	-15,200	0,084	0,039
-380,160	-200,000	0,016	-0,118
-379,146	687,874	0,065	0,125
-378,131	800,000	0,041	0,085
-377,117	115,877	0,098	0,088
-376,102	-123,635	-0,084	-0,010
-375,088	136,057	-0,022	-0,021
-374,073	-200,000	-0,025	-0,083
-373,058	-158,626	0,132	0,005
-372,044	44,992	-0,024	0,016
-371,029	800,000	-0,021	0,051
-370,015	307,705	0,056	-0,077
-369,000	-200,000	0,005	-0,132
-367,985	-61,574	-0,227	0,069
-366,971	39,081	-0,085	-0,056
-365,956	-96,810	0,098	-0,019
-364,942	103,995	0,122	0,105
-363,927	-50,277	0,120	-0,041
-362,912	-200,000	-0,003	0,117
-361,898	-65,343	-0,134	0,039
-360,883	182,455	0,040	0,043
-359,869	380,068	-0,096	-0,145
-358,854	352,190	0,097	-0,140
-357,839	103,141	-0,063	-0,054
-356,825	19,409	0,032	-0,019
-355,810	90,352	-0,063	0,051
-354,796	141,891	-0,006	0,006
-353,781	-200,000	-0,005	-0,036
-352,766	800,000	0,019	0,058
-351,752	-169,050	0,113	0,003
-350,737	36,822	0,087	0,056
-349,723	800,000	0,029	0,091
-348,708	-139,448	0,065	-0,005
-347,693	118,979	0,038	0,035
-346,679	-82,174	0,098	0,023
-345,664	287,290	0,161	0,214
-344,650	23,180	-0,096	-0,058
-343,635	-128,278	0,073	0,008
-342,620	331,754	0,083	0,118
-341,606	-200,000	-0,012	0,155
-340,591	-200,000	-0,029	0,159
-339,577	450,573	-0,077	0,125
-338,562	800,000	0,065	-0,135
-337,548	-95,087	-0,058	0,011
-336,533	-10,028	-0,103	0,050
-335,518	-88,310	0,039	0,009
-334,504	-77,575	-0,046	-0,012
-333,489	53,665	-0,039	-0,027
-332,475	800,000	-0,027	-0,075
-331,460	10,408	-0,157	0,087
-330,445	-46,058	-0,046	-0,017
-329,431	-200,000	0,034	0,112
-328,416	800,000	-0,009	-0,026
-327,402	-200,000	-0,021	-0,147
-326,387	-200,000	-0,004	-0,045
-325,372	-133,747	-0,120	-0,011
-324,358	800,000	0,043	0,094
-323,343	800,000	0,036	0,081
-322,329	-127,672	0,118	0,012
-321,314	93,478	0,066	-0,055
-320,299	452,928	-0,068	0,110
-319,285	-200,000	-0,019	0,157
-318,270	-10,577	0,076	0,037
-317,256	-200,000	0,011	0,063
-316,241	800,000	0,018	0,053
-315,226	800,000	-0,015	-0,038
-314,212	133,633	0,069	-0,065
-313,197	-128,456	0,099	0,010
-312,183	402,566	-0,054	0,083
-311,168	7,406	0,051	0,028
-310,153	-200,000	-0,023	-0,100
-309,139	800,000	-0,053	-0,112
-308,124	494,314	0,046	-0,078
-307,110	35,433	-0,059	0,037
-306,095	-95,782	-0,202	-0,039
-305,080	800,000	-0,066	0,149
-304,066	800,000	0,055	-0,140
-303,051	119,422	-0,120	-0,108
-302,037	68,432	-0,080	0,060
-301,022	-200,000	0,012	0,075
-300,008	-120,463	-0,174	0,021
-298,993	-65,872	0,209	-0,061
-297,978	49,962	0,013	0,009
-296,964	248,615	0,025	0,031
-295,949	-25,154	0,026	-0,011
-294,935	-56,272	-0,122	-0,039
-293,920	373,549	0,122	0,182
-292,905	278,202	-0,055	0,071
-291,891	366,503	0,084	0,125
-290,876	56,304	0,101	0,071
-289,862	800,000	-0,007	-0,016
-288,847	-97,082	0,053	-0,010
-287,832	220,423	0,077	-0,091
-286,818	-24,954	0,139	-0,060
-285,803	-200,000	-0,011	-0,064
-284,789	800,000	-0,043	0,102
-283,774	133,426	0,052	0,049
-282,759	-140,710	-0,179	0,013
-281,745	143,449	-0,036	-0,035
-280,730	42,843	-0,126	0,084
-279,716	1,793	0,075	-0,039
-278,701	92,368	-0,020	-0,017
-277,686	111,855	0,047	-0,041
-276,672	173,568	-0,036	-0,038
-275,657	800,000	-0,043	-0,095
-274,643	-200,000	-0,009	0,056
-273,628	800,000	-0,043	0,119
-272,613	800,000	-0,031	0,087
-271,599	-73,049	-0,035	0,009
-270,584	-200,000	-0,007	0,034
-269,570	-200,000	0,112	0,000
-268,555	800,000	0,027	0,065
-267,540	-200,000	0,007	-0,076
-266,526	-9,329	-0,078	-0,038
-265,511	-200,000	-0,010	-0,038
-264,497	-92,083	0,183	0,037
-263,482	-125,050	0,124	-0,014
-262,467	-200,000	0,003	-0,070
-261,453	-145,465	0,092	-0,006
-260,438	-200,000	0,003	-0,040
-259,424	-101,873	-0,089	-0,015
-258,409	-200,000	-0,017	-0,194
-257,395	-24,542	0,093	0,040
-256,380	334,529	0,065	0,092
-255,365	40,451	-0,052	0,034
-254,351	-84,787	-0,107	-0,024
-253,336	800,000	0,042	0,113
-252,322	253,368	0,066	0,082
-251,307	800,000	0,029	0,073
-250,292	-79,565	-0,026	0,006
-249,278	498,890	0,036	-0,061
-248,263	800,000	0,043	-0,105
-247,249	800,000	-0,066	0,144
-246,234	23,397	-0,040	-0,024
-245,219	-200,000	0,006	-0,228
-244,205	333,676	-0,016	-0,023
-243,190	-164,668	0,170	0,005
-242,176	146,412	0,041	0,040
-241,161	800,000	0,014	0,043
-240,146	71,464	0,075	0,056
-239,132	800,000	0,014	0,033
-238,117	170,439	-0,083	0,086
-237,103	800,000	0,020	-0,054
-236,088	190,034	0,077	0,085
-235,073	-200,000	-0,002	0,043
-234,059	-48,032	0,093	0,033
-233,044	68,758	0,117	-0,087
-232,030	800,000	0,002	-0,005
-231,015	-47,901	0,037	0,013
-230,000	473,323	-0,064	-0,106
-228,986	424,017	-0,058	-0,091
-227,971	-200,000	-0,031	0,115
-226,957	658,225	0,027	0,051
-225,942	-200,000	0,001	-0,010
-224,927	25,356	0,037	0,023
-223,913	800,000	0,018	0,047
-222,898	-200,000	0,019	-0,071
-221,884	-200,000	-0,010	-0,036
-220,869	-200,000	0,020	-0,116
-219,855	51,137	0,071	-0,049
-218,840	367,463	0,070	0,103
-217,825	800,000	-0,035	0,091
-216,811	-161,728	-0,057	-0,002
-215,796	264,258	0,065	-0,082
-214,782	-200,000	-0,009	-0,165
-213,767	-72,739	0,057	-0,015
-212,752	-200,000	0,004	0,060
-211,738	130,208	0,103	-0,096
-210,723	-57,797	-0,019	0,006
-209,709	-5,535	0,091	0,045
-208,694	375,860	-0,092	-0,138
-207,679	-128,329	-0,166	-0,017
-206,665	-200,000	0,053	0,195
-205,650	396,664	0,057	0,087
-204,636	-124,436	0,049	-0,006
-203,621	316,605	0,069	0,094
-202,606	-200,000	-0,024	0,096
-201,592	22,661	-0,056	0,033
-200,577	652,198	0,035	-0,065
-199,563	800,000	0,025	0,073
-198,548	83,899	0,067	0,054
-197,533	-155,547	0,197	0,009
-196,519	-200,000	0,017	0,106
-195,504	119,523	-0,085	0,077
-194,490	276,921	0,071	-0,092
-193,475	-94,091	0,058	0,012
-192,460	800,000	-0,043	-0,100
-191,446	58,100	0,134	-0,096
-190,431	393,065	0,026	0,039
-189,417	21,710	0,058	0,034
-188,402	800,000	0,059	0,132
-187,387	800,000	-0,045	-0,104
-186,373	-200,000	-0,013	-0,066
-185,358	-200,000	0,000	0,032
-184,344	-200,000	0,009	0,074
-183,329	70,270	0,160	0,120
-182,315	473,002	-0,046	0,075
-181,300	-120,567	-0,083	-0,010
-180,285	371,486	-0,049	-0,073
-179,271	-25,639	-0,075	-0,032
-178,256	800,000	0,035	-0,092
-177,242	-174,450	0,053	-0,001
-176,227	248,474	0,056	0,069
-175,212	-200,000	-0,017	0,129
-174,198	-200,000	-0,016	0,066
-173,183	-36,738	-0,108	-0,042
-172,169	422,902	-0,089	-0,139
-171,154	182,420	-0,016	0,017
-170,139	-100,858	0,048	-0,009
-169,125	-142,826	0,037	-0,003
-168,110	590,400	0,026	0,047
-167,096	-118,821	-0,103	0,013
-166,081	-60,384	-0,092	-0,028
-165,066	-45,761	0,072	-0,026
-164,052	285,301	-0,035	-0,046
-163,037	33,998	0,121	-0,077
-162,023	800,000	0,024	-0,050
-161,008	472,449	-0,046	-0,076
-159,993	352,140	-0,018	-0,026
-158,979	125,482	-0,017	-0,016
-157,964	434,205	-0,016	-0,026
-156,950	53,333	-0,078	-0,054
-155,935	-200,000	0,001	-0,042
-154,920	-91,068	0,034	0,007
-153,906	603,482	-0,072	-0,130
-152,891	800,000	-0,025	-0,073
-151,877	-124,695	-0,077	-0,009
-150,862	90,035	0,056	-0,046
-149,847	173,708	-0,069	0,072
-148,833	800,000	-0,045	0,099
-147,818	-73,255	-0,110	-0,029
-146,804	23,671	0,078	0,046
-145,789	-200,000	0,001	0,019
-144,775	256,406	0,045	-0,056
-143,760	-200,000	-0,041	-0,137
-142,745	45,432	-0,080	-0,053
-141,731	166,918	-0,077	-0,079
-140,716	-159,817	0,066	-0,003
-139,702	800,000	0,056	0,127
-138,687	337,119	0,025	-0,035
-137,672	118,683	-0,088	0,079
-136,658	338,956	-0,021	-0,030
-135,643	481,629	-0,037	-0,061
-134,629	-200,000	-0,001	0,133
-133,614	800,000	0,059	0,146
-132,599	800,000	-0,037	0,101
-131,585	48,697	-0,043	-0,029
-130,570	78,426	0,163	0,126
-129,556	-132,295	0,063	0,006
-128,541	283,706	-0,063	0,082
-127,526	-200,000	0,001	-0,031
-126,512	-200,000	0,007	-0,087
-125,497	-200,000	-0,001	-0,044
-124,483	-200,000	0,027	0,210
-123,468	800,000	-0,029	0,088
-122,453	10,359	0,093	-0,051
-121,439	800,000	0,026	-0,061
-120,424	-136,677	-0,038	0,003
-119,410	440,531	0,016	0,025
