DTS Sentinel unit serial number:	SN410029Multiplexer serial number:	ORYXHardware model number:	OX2-SRSoftware version number:	ORYX F/W v4,00 Oryx Data Collector v3.7.2.0data status	okinstallation	B4 Nyhavnadifferential loss correction	single-endedforward channel	channel 2reverse channel	N/Adate	2023/12/19time	03:05:13forward acquisition time	300,00reverse acquisition time	0,00gamma	499,1914k internal	0,3125k external	0,3125temperature offset calibration	1,0000default loss term (dB/km)	0,3820temperature slope calibration	1,0000multiplexer offset coefficient	1,0000multiplexer slope coefficient	1,0000fibre end	0,00T internal ref (°C)	21,18T ext. ref 1 (°C)	5,98T ext. ref 2 (°C)	5,96length (m)	temperature (°C)	Stokes	anti-Stokes-744,400	731,579	-0,078	-0,156
-743,385	87,954	-0,136	0,112
-742,371	59,884	-0,082	-0,060
-741,356	241,604	-0,115	0,143
-740,342	-200,000	0,016	0,106
-739,327	-163,560	-0,274	-0,009
-738,312	800,000	0,017	0,042
-737,298	52,169	-0,329	0,233
-736,283	800,000	0,009	-0,026
-735,269	575,330	-0,093	0,170
-734,254	313,541	0,072	-0,101
-733,239	-133,408	-0,402	-0,037
-732,225	-94,172	0,061	-0,012
-731,210	-200,000	-0,000	0,024
-730,196	-103,543	0,059	0,010
-729,181	-126,853	-0,219	-0,024
-728,167	222,372	-0,080	0,096
-727,152	193,985	-0,073	-0,083
-726,137	-79,836	-0,182	-0,045
-725,123	108,989	-0,059	0,052
-724,108	-48,771	-0,122	-0,043
-723,094	-200,000	-0,081	0,000
-722,079	201,295	-0,043	0,049
-721,064	534,250	0,041	-0,073
-720,050	159,289	-0,097	-0,100
-719,035	-7,661	0,058	0,029
-718,021	15,311	-0,127	-0,074
-717,006	193,478	-0,069	0,077
-715,991	-200,000	0,012	-0,096
-714,977	422,512	-0,081	-0,129
-713,962	-97,399	-0,033	-0,006
-712,948	-200,000	-0,006	-0,030
-711,933	-200,000	0,009	0,033
-710,918	-138,216	0,021	0,002
-709,904	114,373	-0,084	0,076
-708,889	-122,399	-0,090	0,011
-707,875	-130,851	-0,121	0,012
-706,860	-93,682	-0,081	-0,017
-705,845	-117,983	0,160	0,021
-704,831	61,070	0,087	0,064
-703,816	301,854	-0,069	-0,095
-702,802	-126,894	-0,064	-0,007
-701,787	-200,000	0,012	-0,170
-700,772	31,652	-0,053	-0,034
-699,758	22,466	-0,046	0,028
-698,743	-40,457	0,074	-0,028
-697,729	451,024	-0,036	-0,059
-696,714	-200,000	-0,007	-0,093
-695,699	-200,000	0,013	-0,097
-694,685	-56,115	0,047	0,015
-693,670	185,463	-0,159	-0,176
-692,656	800,000	0,022	0,061
-691,641	10,382	-0,110	0,062
-690,627	300,120	0,046	0,063
-689,612	256,829	-0,023	0,030
-688,597	-200,000	-0,011	0,053
-687,583	482,443	-0,019	0,032
-686,568	800,000	0,055	-0,141
-685,554	8,036	0,115	-0,064
-684,539	800,000	0,068	-0,142
-683,524	-20,327	0,057	-0,026
-682,510	-200,000	0,006	0,085
-681,495	-7,710	-0,118	-0,059
-680,481	455,416	-0,025	-0,042
-679,466	-200,000	0,003	-0,033
-678,451	-33,904	0,039	0,016
-677,437	-121,157	0,106	-0,013
-676,422	8,827	0,092	0,052
-675,408	-56,373	-0,121	0,040
-674,393	268,433	-0,052	-0,068
-673,378	161,445	-0,079	-0,082
-672,364	-89,475	-0,050	0,011
-671,349	-58,214	-0,064	0,021
-670,335	11,717	0,092	0,052
-669,320	21,355	-0,199	-0,120
-668,305	331,292	-0,059	-0,085
-667,291	-200,000	0,022	0,099
-666,276	800,000	-0,021	-0,046
-665,262	-3,007	-0,196	-0,101
-664,247	102,354	0,078	-0,068
-663,232	77,488	0,062	-0,049
-662,218	21,095	-0,105	0,063
-661,203	-84,431	-0,123	0,029
-660,189	-147,598	-0,058	0,004
-659,174	633,380	-0,050	0,095
-658,159	-72,636	-0,216	-0,059
-657,145	198,402	0,012	-0,014
-656,130	19,227	-0,150	-0,089
-655,116	-200,000	-0,014	-0,088
-654,101	-200,000	0,004	0,028
-653,086	-200,000	-0,020	-0,186
-652,072	-200,000	0,017	0,058
-651,057	-146,187	-0,144	0,009
-650,043	-200,000	-0,005	-0,074
-649,028	800,000	-0,022	0,046
-648,014	72,755	0,153	-0,119
-646,999	800,000	0,021	0,053
-645,984	178,379	-0,127	0,138
-644,970	76,202	0,044	-0,034
-643,955	717,460	0,030	0,059
-642,941	800,000	-0,017	-0,037
-641,926	800,000	0,028	-0,061
-640,911	40,834	0,062	0,041
-639,897	52,991	0,086	0,061
-638,882	-17,212	-0,151	0,070
-637,868	383,056	0,031	0,047
-636,853	1,211	-0,073	-0,039
-635,838	-103,045	0,087	-0,015
-634,824	800,000	-0,025	-0,065
-633,809	-35,027	0,155	-0,062
-632,795	-200,000	-0,005	-0,018
-631,780	-200,000	-0,002	0,127
-630,765	-200,000	0,022	0,121
-629,751	-200,000	-0,028	0,094
-628,736	733,925	-0,021	0,041
-627,722	78,984	-0,044	-0,035
-626,707	61,311	0,051	-0,037
-625,692	573,420	0,020	0,037
-624,678	-200,000	-0,035	0,153
-623,663	-200,000	-0,003	0,080
-622,649	-200,000	-0,005	-0,140
-621,634	-86,417	-0,026	0,006
-620,619	-200,000	0,003	-0,132
-619,605	17,804	-0,119	-0,070
-618,590	194,091	0,065	-0,073
-617,576	-200,000	-0,041	0,172
-616,561	-50,850	-0,110	-0,038
-615,546	48,531	-0,045	0,031
-614,532	53,330	0,003	0,002
-613,517	-68,570	-0,110	-0,032
-612,503	-200,000	0,015	0,056
-611,488	568,612	-0,060	0,108
-610,474	154,530	-0,036	0,037
-609,459	80,536	0,043	-0,035
-608,444	161,479	0,077	-0,080
-607,430	-56,078	-0,046	0,015
-606,415	-7,486	-0,076	0,038
-605,401	32,961	0,067	0,043
-604,386	-12,647	0,244	0,118
-603,371	-59,926	-0,054	0,017
-602,357	134,924	-0,063	0,061
-601,342	-157,384	-0,027	-0,001
-600,328	-138,979	-0,138	0,011
-599,313	152,219	0,077	0,078
-598,298	611,613	-0,042	-0,079
-597,284	-38,650	0,118	0,046
-596,269	312,224	-0,099	0,138
-595,255	-43,721	-0,020	-0,008
-594,240	440,397	0,042	0,068
-593,225	-132,112	-0,065	0,006
-592,211	425,813	-0,109	-0,175
-591,196	800,000	0,016	0,042
-590,182	55,900	0,083	0,060
-589,167	-200,000	-0,006	-0,059
-588,152	100,820	0,028	-0,024
-587,138	276,205	-0,055	0,073
-586,123	45,518	-0,074	0,051
-585,109	37,140	-0,136	-0,089
-584,094	16,818	0,121	0,071
-583,079	800,000	0,035	0,075
-582,065	-198,355	0,011	0,000
-581,050	800,000	0,028	-0,074
-580,036	-4,334	-0,056	0,028
-579,021	374,823	0,015	0,023
-578,006	800,000	-0,044	-0,140
-576,992	-191,619	0,043	-0,000
-575,977	232,928	-0,039	0,048
-574,963	800,000	0,007	0,022
-573,948	-114,947	0,150	-0,021
-572,934	168,673	0,103	-0,108
-571,919	60,359	-0,056	-0,041
-570,904	546,918	-0,097	-0,173
-569,890	314,498	-0,004	-0,006
-568,875	26,259	0,118	0,073
-567,861	-200,000	0,022	-0,091
-566,846	-43,680	-0,093	-0,035
-565,831	-43,350	-0,062	0,023
-564,817	-200,000	0,140	-0,000
-563,802	-200,000	-0,016	0,072
-562,788	-127,640	0,041	0,004
-561,773	-144,409	-0,047	0,003
-560,758	184,335	0,032	0,035
-559,744	-200,000	0,006	0,058
-558,729	116,043	-0,061	0,055
-557,715	-200,000	-0,006	0,044
-556,700	-200,000	-0,026	-0,167
-555,685	-163,022	0,112	-0,004
-554,671	-200,000	0,019	-0,079
-553,656	-71,218	-0,140	0,038
-552,642	-200,000	0,003	-0,093
-551,627	-200,000	0,010	-0,105
-550,612	-200,000	0,020	0,133
-549,598	133,682	-0,087	-0,083
-548,583	169,231	-0,080	-0,085
-547,569	461,345	-0,080	-0,133
-546,554	82,029	0,046	0,037
-545,539	102,841	-0,060	0,052
-544,525	134,408	0,036	0,035
-543,510	264,256	0,008	0,010
-542,496	-58,105	-0,151	-0,048
-541,481	-200,000	-0,038	-0,194
-540,466	-69,264	-0,021	0,006
-539,452	757,032	0,032	-0,064
-538,437	57,494	0,024	0,018
-537,423	-107,706	-0,007	-0,001
-536,408	19,548	0,101	-0,060
-535,393	-200,000	-0,008	-0,032
-534,379	162,942	-0,111	-0,115
-533,364	511,157	0,040	0,069
-532,350	800,000	-0,057	0,129
-531,335	-170,662	0,011	-0,000
-530,321	516,624	0,044	0,077
-529,306	-7,042	-0,018	-0,009
-528,291	800,000	-0,048	-0,111
-527,277	695,749	-0,050	-0,097
-526,262	194,962	0,061	0,068
-525,248	348,830	0,053	-0,077
-524,233	135,258	0,066	-0,063
-523,218	464,261	0,059	-0,097
-522,204	-60,188	0,127	0,040
-521,189	50,519	-0,164	-0,114
-520,175	-200,000	0,005	-0,037
-519,160	144,727	0,088	-0,087
-518,145	-68,375	0,153	0,044
-517,131	87,386	0,170	0,139
-516,116	237,845	0,036	0,044
-515,102	800,000	0,050	0,147
-514,087	-14,956	-0,150	0,071
-513,072	430,027	-0,039	-0,062
-512,058	-200,000	-0,013	0,072
-511,043	-131,822	-0,097	0,009
-510,029	42,388	0,093	-0,062
-509,014	800,000	0,023	-0,063
-507,999	-200,000	-0,014	-0,063
-506,985	153,641	-0,029	0,030
-505,970	-51,038	-0,011	0,004
-504,956	27,691	-0,031	-0,019
-503,941	66,288	-0,091	-0,068
-502,926	478,660	-0,014	0,024
-501,912	-20,959	-0,040	0,018
-500,897	-84,523	0,063	-0,015
-499,883	37,988	-0,048	-0,032
-498,868	349,132	-0,096	-0,140
-497,853	62,975	-0,058	-0,043
-496,839	-43,383	0,169	-0,063
-495,824	103,781	0,051	0,044
-494,810	-189,262	0,082	0,001
-493,795	-200,000	0,005	0,072
-492,781	-9,635	-0,103	-0,050
-491,766	-78,936	0,158	-0,039
-490,751	76,638	-0,066	-0,052
-489,737	50,531	-0,034	-0,024
-488,722	-108,795	0,076	-0,012
-487,708	-200,000	-0,000	-0,053
-486,693	45,495	0,076	0,051
-485,678	-6,585	0,074	-0,037
-484,664	-117,124	-0,097	0,013
-483,649	496,324	0,070	0,119
-482,635	36,738	0,074	-0,048
-481,620	-171,496	0,100	0,002
-480,605	49,021	-0,059	0,041
-479,591	61,708	-0,041	0,030
-478,576	-85,708	0,044	-0,010
-477,562	5,894	0,012	0,006
-476,547	222,957	-0,084	-0,100
-475,532	-10,101	0,093	0,045
-474,518	-189,422	0,072	-0,001
-473,503	76,156	-0,069	0,053
-472,489	-200,000	-0,015	-0,069
-471,474	-45,048	-0,064	-0,024
-470,459	-23,077	-0,057	0,025
-469,445	156,245	0,098	-0,099
-468,430	800,000	-0,010	0,023
-467,416	-67,978	0,156	-0,044
-466,401	167,068	0,047	0,050
-465,386	-62,213	-0,180	0,055
-464,372	1,019	0,036	0,019
-463,357	237,826	0,035	-0,042
-462,343	430,122	0,048	0,077
-461,328	65,480	0,096	0,072
-460,313	-36,646	-0,179	-0,071
-459,299	-43,887	0,032	-0,012
-458,284	501,888	-0,022	0,037
-457,270	-117,898	0,053	-0,007
-456,255	33,413	-0,124	0,079
-455,241	-200,000	0,015	-0,113
-454,226	89,554	-0,020	-0,017
-453,211	-200,000	-0,018	-0,066
-452,197	-200,000	0,000	-0,004
-451,182	800,000	-0,047	0,140
-450,168	-67,778	-0,062	0,018
-449,153	563,583	0,008	0,014
-448,138	475,821	-0,026	0,044
-447,124	-200,000	0,006	-0,020
-446,109	-200,000	0,001	0,100
-445,095	9,015	-0,028	-0,016
-444,080	-121,314	0,121	0,015
-443,065	765,406	-0,038	-0,076
-442,051	172,528	0,130	-0,137
-441,036	196,199	-0,065	-0,073
-440,022	158,532	-0,077	0,079
-439,007	-142,642	0,025	0,002
-437,992	153,331	-0,055	0,055
-436,978	-200,000	0,005	0,055
-435,963	-54,176	0,004	-0,001
-434,949	62,940	0,109	0,081
-433,934	-119,533	0,060	-0,008
-432,919	696,152	0,046	0,089
-431,905	800,000	0,065	-0,179
-430,890	800,000	0,051	-0,114
-429,876	142,612	0,100	-0,097
-428,861	-200,000	-0,009	0,168
-427,846	-200,000	0,007	-0,080
-426,832	-52,754	-0,075	-0,025
-425,817	200,848	-0,069	-0,078
-424,803	453,279	0,043	-0,070
-423,788	347,503	0,013	-0,019
-422,773	115,188	-0,105	-0,095
-421,759	-20,878	-0,047	0,021
-420,744	-92,265	-0,058	-0,012
-419,730	-108,056	0,118	0,019
-418,715	136,827	-0,030	0,029
-417,701	-200,000	-0,012	-0,080
-416,686	551,261	-0,031	-0,054
-415,671	382,280	-0,018	-0,028
-414,657	-73,549	0,042	-0,011
-413,642	90,028	0,066	-0,054
-412,628	-84,087	-0,053	-0,012
-411,613	800,000	0,043	-0,130
-410,598	494,724	0,029	-0,050
-409,584	-69,975	-0,042	-0,012
-408,569	-112,767	0,100	0,014
-407,555	269,503	0,047	0,060
-406,540	800,000	0,013	0,039
-405,525	17,575	-0,075	-0,044
-404,511	-200,000	0,044	-0,299
-403,496	-200,000	0,021	-0,081
-402,482	-200,000	0,003	-0,101
-401,467	-200,000	-0,031	-0,142
-400,452	-2,522	0,059	0,030
-399,438	129,816	-0,043	-0,040
-398,423	-54,880	-0,152	0,050
-397,409	-144,287	-0,058	0,004
-396,394	174,110	0,075	-0,080
-395,379	364,988	0,029	0,043
-394,365	237,375	0,009	-0,011
-393,350	310,229	-0,058	0,080
-392,336	800,000	0,046	-0,138
-391,321	-51,868	0,106	0,036
-390,306	252,751	-0,089	-0,111
-389,292	800,000	0,078	-0,200
-388,277	147,218	0,102	-0,101
-387,263	-118,667	0,188	-0,024
-386,248	1,688	0,023	-0,012
-385,233	218,212	-0,047	0,055
-384,219	-200,000	0,010	0,066
-383,204	-72,622	-0,094	0,025
-382,190	-103,482	0,061	0,010
-381,175	11,896	0,083	0,047
-380,160	-95,776	0,088	-0,017
-379,146	-200,000	0,015	0,109
-378,131	800,000	0,020	-0,043
-377,117	304,789	-0,086	-0,118
-376,102	471,295	0,043	0,072
-375,088	56,614	0,066	-0,047
-374,073	-200,000	-0,018	-0,074
-373,058	484,809	0,028	-0,046
-372,044	794,128	-0,065	-0,132
-371,029	99,665	0,048	-0,040
-370,015	740,747	0,015	0,030
-369,000	166,350	0,041	-0,043
-367,985	18,256	-0,041	-0,024
-366,971	85,071	-0,111	0,090
-365,956	168,331	-0,104	-0,109
-364,942	172,620	-0,096	-0,102
-363,927	168,832	-0,065	-0,068
-362,912	334,629	-0,040	0,058
-361,898	9,785	-0,090	-0,050
-360,883	386,987	-0,070	-0,106
-359,869	58,025	0,072	-0,052
-358,854	-90,789	0,199	0,042
-357,839	800,000	0,052	0,108
-356,825	264,142	0,033	-0,042
-355,810	32,812	-0,171	0,108
-354,796	132,579	-0,167	-0,158
-353,781	-200,000	0,017	-0,095
-352,766	143,217	-0,175	-0,171
-351,752	-63,282	0,075	-0,023
-350,737	800,000	0,055	0,139
-349,723	551,396	0,011	0,019
-348,708	114,729	0,052	-0,047
-347,693	-200,000	0,011	-0,054
-346,679	-34,379	-0,110	0,044
-345,664	-200,000	0,047	-0,171
-344,650	-200,000	-0,005	-0,049
-343,635	118,064	0,053	0,048
-342,620	-200,000	-0,014	0,177
-341,606	488,530	-0,080	0,135
-340,591	88,837	0,078	-0,064
-339,577	240,920	0,039	-0,047
-338,562	-147,096	0,128	0,008
-337,548	-200,000	0,019	0,104
-336,533	657,478	0,071	0,135
-335,518	335,058	0,073	0,104
-334,504	-200,000	-0,022	0,084
-333,489	-200,000	0,011	-0,056
-332,475	-53,698	-0,112	-0,037
-331,460	-200,000	0,027	-0,191
-330,445	30,508	0,019	-0,012
-329,431	6,174	0,102	0,055
-328,416	-115,162	-0,015	-0,002
-327,402	-59,803	-0,031	-0,010
-326,387	-44,207	0,039	-0,014
-325,372	-51,683	0,111	-0,038
-324,358	-200,000	-0,007	-0,057
-323,343	148,433	0,056	-0,056
-322,329	-200,000	-0,006	-0,040
-321,314	-200,000	-0,007	0,062
-320,299	774,360	0,034	0,068
-319,285	-122,396	0,055	0,006
-318,270	-72,934	-0,110	0,029
-317,256	-72,628	-0,005	-0,001
-316,241	800,000	-0,033	0,081
-315,226	800,000	-0,052	0,113
-314,212	-200,000	-0,012	-0,078
-313,197	177,550	0,080	-0,086
-312,183	-133,726	0,114	0,010
-311,168	-121,924	0,072	-0,009
-310,153	83,451	-0,090	0,071
-309,139	4,365	-0,018	-0,009
-308,124	-78,831	-0,023	-0,006
-307,110	-200,000	0,004	0,130
-306,095	10,523	-0,040	-0,022
-305,080	711,675	-0,052	0,101
-304,066	96,114	0,088	-0,074
-303,051	523,766	0,038	0,066
-302,037	-128,231	0,029	0,003
-301,022	-107,133	0,047	0,008
-300,008	800,000	0,058	0,133
-298,993	-200,000	0,006	0,076
-297,978	102,318	-0,037	0,032
-296,964	154,888	-0,042	-0,042
-295,949	474,164	-0,025	-0,041
-294,935	-200,000	0,035	-0,122
-293,920	190,785	0,024	0,026
-292,905	174,671	0,114	0,120
-291,891	160,246	0,094	0,096
-290,876	592,752	-0,033	-0,060
-289,862	5,641	-0,012	0,006
-288,847	-200,000	0,001	-0,065
-287,832	277,119	0,023	-0,030
-286,818	10,745	-0,084	0,047
-285,803	59,279	-0,039	0,028
-284,789	-200,000	-0,009	0,064
-283,774	490,895	0,049	-0,083
-282,759	-200,000	0,008	-0,113
-281,745	179,883	-0,131	0,141
-280,730	179,606	-0,124	0,132
-279,716	-13,209	-0,056	0,026
-278,701	800,000	0,029	-0,062
-277,686	-200,000	-0,012	0,102
-276,672	432,796	0,039	0,062
-275,657	800,000	-0,082	0,188
-274,643	-200,000	0,021	0,110
-273,628	-37,844	-0,106	0,041
-272,613	-66,411	0,094	0,027
-271,599	16,192	0,194	0,111
-270,584	772,057	-0,022	-0,045
-269,570	-200,000	-0,047	0,202
-268,555	158,851	0,045	-0,045
-267,540	-98,676	0,062	0,011
-266,526	12,547	-0,099	-0,056
-265,511	131,304	-0,009	0,008
-264,497	800,000	-0,061	0,141
-263,482	800,000	-0,012	0,035
-262,467	314,694	0,054	0,074
-261,453	82,904	0,070	0,056
-260,438	-123,077	-0,060	-0,007
-259,424	61,751	-0,060	-0,044
-258,409	105,944	-0,124	-0,107
-257,395	-200,000	0,006	0,058
-256,380	122,064	-0,030	0,027
-255,365	-200,000	0,005	0,086
-254,351	-200,000	0,020	0,082
-253,336	52,930	0,107	0,075
-252,322	-5,739	-0,127	-0,063
-251,307	800,000	0,031	0,093
-250,292	-200,000	0,015	0,158
-249,278	-200,000	0,037	0,148
-248,263	50,835	0,085	0,059
-247,249	800,000	-0,036	0,080
-246,234	239,149	0,073	-0,089
-245,219	800,000	0,023	-0,070
-244,205	-200,000	0,000	-0,078
-243,190	-200,000	0,043	0,181
-242,176	24,429	0,154	0,093
-241,161	800,000	0,049	0,105
-240,146	195,158	0,017	-0,019
-239,132	51,758	-0,142	-0,098
-238,117	-130,404	-0,087	-0,009
-237,103	-98,570	-0,164	-0,030
-236,088	-144,604	-0,163	0,011
-235,073	15,771	0,048	0,028
-234,059	-155,441	0,181	-0,008
-233,044	-69,370	-0,034	-0,010
-232,030	-106,622	-0,160	0,026
-231,015	-145,526	0,065	-0,004
-230,000	29,917	-0,171	0,106
-228,986	-200,000	0,004	-0,120
-227,971	-47,548	-0,103	0,036
-226,957	800,000	0,013	-0,032
-225,942	-200,000	0,024	0,124
-224,927	777,134	-0,027	0,055
-223,913	-15,262	-0,080	0,037
-222,898	133,686	-0,082	-0,077
-221,884	484,276	-0,046	0,076
-220,869	123,540	-0,083	0,076
-219,855	-22,325	-0,129	-0,057
-218,840	800,000	0,051	-0,124
-217,825	-105,881	0,121	0,020
-216,811	403,448	0,060	-0,093
-215,796	-10,907	-0,045	-0,022
-214,782	-141,012	0,075	0,006
-213,767	300,475	0,080	-0,108
-212,752	-74,107	0,088	-0,023
-211,738	800,000	0,004	-0,012
-210,723	431,163	-0,068	0,108
-209,709	-73,280	-0,209	0,055
-208,694	61,807	0,031	0,022
-207,679	13,643	-0,112	0,063
-206,665	-99,270	0,122	0,022
-205,650	-200,000	0,007	-0,046
-204,636	162,843	0,063	0,065
-203,621	-200,000	0,006	-0,104
-202,606	-200,000	0,001	0,040
-201,592	800,000	-0,022	0,055
-200,577	53,617	-0,163	-0,114
-199,563	-190,748	0,084	-0,001
-198,548	-140,877	0,090	0,007
-197,533	145,227	0,059	0,057
-196,519	157,240	-0,037	0,037
-195,504	-17,350	-0,094	0,043
-194,490	-90,304	-0,030	-0,006
-193,475	45,529	-0,139	-0,093
-192,460	104,684	0,035	-0,030
-191,446	363,297	-0,065	0,096
-190,431	800,000	0,015	0,034
-189,417	-48,738	0,111	0,039
-188,402	800,000	0,050	0,143
-187,387	-151,794	-0,074	0,004
-186,373	234,259	0,077	-0,092
-185,358	-161,515	-0,055	-0,002
-184,344	8,329	0,104	0,057
-183,329	-200,000	-0,013	0,120
-182,315	800,000	-0,061	0,177
-181,300	-67,208	0,110	-0,031
-180,285	-200,000	-0,001	-0,011
-179,271	-200,000	-0,002	-0,071
-178,256	-150,574	-0,088	-0,005
-177,242	-200,000	0,003	-0,063
-176,227	52,320	-0,013	0,009
-175,212	347,644	-0,060	-0,086
-174,198	35,648	0,125	-0,080
-173,183	10,791	-0,024	0,013
-172,169	440,994	0,033	-0,053
-171,154	3,543	-0,016	-0,008
-170,139	-115,205	0,033	-0,004
-169,125	-10,608	0,064	-0,031
-168,110	-200,000	0,016	0,164
-167,096	460,264	-0,069	0,112
-166,081	32,651	0,043	0,027
-165,066	118,174	-0,081	-0,073
-164,052	82,802	0,066	-0,052
-163,037	-26,608	-0,109	-0,046
-162,023	-200,000	-0,012	0,069
-161,008	375,265	0,012	0,017
-159,993	-155,209	-0,126	0,006
-158,979	195,713	-0,023	0,025
-157,964	173,598	0,058	-0,061
-156,950	-200,000	-0,013	0,180
-155,935	482,941	-0,061	-0,102
-154,920	800,000	0,027	-0,056
-153,906	65,879	0,068	-0,050
-152,891	86,707	-0,058	-0,047
-151,877	800,000	-0,041	0,103
-150,862	-173,511	0,090	-0,002
-149,847	-67,199	-0,098	0,028
-148,833	13,979	-0,102	0,058
-147,818	-200,000	-0,031	0,128
-146,804	200,923	0,113	0,127
-145,789	71,077	-0,045	0,034
-144,775	142,260	-0,081	-0,078
-143,760	-200,000	0,000	0,079
-142,745	-19,357	-0,079	0,035
-141,731	-9,680	0,156	-0,075
-140,716	271,296	-0,079	0,102
-139,702	-200,000	-0,018	0,165
-138,687	-200,000	0,048	0,155
-137,672	6,286	-0,045	-0,024
-136,658	-70,834	-0,050	0,014
-135,643	-49,181	-0,048	-0,016
-134,629	5,427	0,118	-0,063
-133,614	-95,316	-0,065	-0,013
-132,599	-8,874	-0,115	-0,056
-131,585	30,230	-0,082	0,051
-130,570	191,862	0,020	0,022
-129,556	-200,000	0,017	-0,072
-128,541	-63,394	0,119	-0,035
-127,526	-101,617	-0,062	0,011
-126,512	-200,000	0,036	0,141
-125,497	21,164	0,108	-0,063
-124,483	41,316	0,040	0,026
-123,468	16,691	-0,044	0,025
-122,453	-44,874	-0,120	0,043
-121,439	246,929	-0,081	-0,100
-120,424	361,142	-0,085	0,124
-119,410	800,000	0,017	-0,041
-118,395	-131,040	0,225	-0,022
-117,380	-26,292	-0,128	0,054
