DTS Sentinel unit serial number:	SN410029Multiplexer serial number:	ORYXHardware model number:	OX2-SRSoftware version number:	ORYX F/W v4,00 Oryx Data Collector v3.7.2.0data status	okinstallation	B4 Nyhavnadifferential loss correction	single-endedforward channel	channel 2reverse channel	N/Adate	2023/12/18time	19:15:13forward acquisition time	300,00reverse acquisition time	0,00gamma	499,1914k internal	0,3124k external	0,3124temperature offset calibration	1,0000default loss term (dB/km)	0,3820temperature slope calibration	1,0000multiplexer offset coefficient	1,0000multiplexer slope coefficient	1,0000fibre end	0,00T internal ref (°C)	21,88T ext. ref 1 (°C)	6,94T ext. ref 2 (°C)	6,97length (m)	temperature (°C)	Stokes	anti-Stokes-744,400	-141,789	-0,153	0,011
-743,385	125,870	-0,121	0,114
-742,371	-131,125	0,100	-0,010
-741,356	-108,630	-0,217	0,034
-740,342	1,541	0,019	0,010
-739,327	79,897	-0,269	0,215
-738,312	-76,139	0,054	0,014
-737,298	31,073	-0,208	0,133
-736,283	318,774	0,054	-0,076
-735,269	64,627	-0,178	0,134
-734,254	-128,600	0,083	0,009
-733,239	-150,460	-0,440	0,025
-732,225	-170,682	0,174	0,004
-731,210	269,730	-0,126	0,165
-730,196	-149,232	-0,019	-0,001
-729,181	300,110	-0,068	0,093
-728,167	186,438	0,045	0,050
-727,152	-126,491	-0,226	0,025
-726,137	18,755	-0,017	0,010
-725,123	475,705	-0,030	-0,051
-724,108	-129,709	-0,149	-0,015
-723,094	142,873	-0,120	-0,119
-722,079	-200,000	-0,002	-0,132
-721,064	-200,000	-0,027	0,092
-720,050	183,366	0,007	-0,008
-719,035	-200,000	0,015	-0,064
-718,021	-126,178	-0,186	-0,020
-717,006	-114,876	0,022	0,003
-715,991	23,866	-0,080	-0,049
-714,977	800,000	-0,065	0,180
-713,962	1,293	-0,101	-0,054
-712,948	-200,000	0,011	0,085
-711,933	-46,923	0,056	0,020
-710,918	616,313	0,051	0,096
-709,904	-11,639	-0,055	-0,027
-708,889	313,476	-0,043	0,060
-707,875	-168,549	-0,099	0,003
-706,860	80,107	-0,122	0,098
-705,845	-200,000	0,006	-0,164
-704,831	-155,194	-0,012	0,001
-703,816	800,000	0,050	0,125
-702,802	25,127	0,018	0,011
-701,787	94,099	-0,179	-0,151
-700,772	-194,019	0,165	0,001
-699,758	94,742	0,090	-0,076
-698,743	269,120	0,074	0,096
-697,729	-15,741	-0,072	-0,034
-696,714	-58,613	0,023	-0,007
-695,699	220,758	-0,025	-0,030
-694,685	-200,000	-0,004	0,056
-693,670	-200,000	0,007	0,096
-692,656	-137,023	0,045	-0,004
-691,641	800,000	-0,046	-0,141
-690,627	-200,000	-0,004	0,072
-689,612	800,000	0,039	0,109
-688,597	16,495	-0,134	0,078
-687,583	227,017	0,056	-0,068
-686,568	104,616	-0,060	-0,052
-685,554	-100,838	-0,082	0,015
-684,539	-4,256	0,153	0,079
-683,524	-177,485	-0,100	0,002
-682,510	400,003	-0,016	0,025
-681,495	-148,692	-0,204	0,012
-680,481	-91,330	0,088	-0,018
-679,466	22,670	0,120	-0,073
-678,451	11,411	-0,084	-0,047
-677,437	-200,000	-0,014	-0,057
-676,422	800,000	0,020	-0,058
-675,408	132,101	-0,062	-0,060
-674,393	163,052	-0,090	-0,094
-673,378	326,538	-0,048	-0,068
-672,364	107,449	-0,073	0,064
-671,349	-9,380	0,070	-0,035
-670,335	35,535	0,009	0,006
-669,320	-200,000	-0,037	-0,147
-668,305	-200,000	0,014	0,112
-667,291	-135,245	0,064	-0,006
-666,276	46,992	-0,061	-0,042
-665,262	-97,251	-0,074	0,014
-664,247	1,272	-0,116	0,062
-663,232	160,909	0,079	-0,082
-662,218	0,467	0,055	0,029
-661,203	696,334	0,015	0,030
-660,189	150,907	-0,055	-0,055
-659,174	177,047	0,067	-0,073
-658,159	-102,039	-0,063	0,011
-657,145	800,000	-0,044	0,142
-656,130	781,156	-0,005	-0,010
-655,116	44,326	0,101	0,069
-654,101	131,939	-0,065	0,062
-653,086	99,183	0,021	0,018
-652,072	-200,000	-0,028	0,117
-651,057	24,395	-0,089	0,055
-650,043	60,817	-0,052	-0,038
-649,028	800,000	-0,066	-0,204
-648,014	62,518	-0,056	0,042
-646,999	-200,000	0,002	0,011
-645,984	800,000	-0,031	0,075
-644,970	86,651	-0,103	-0,084
-643,955	-28,810	-0,095	-0,040
-642,941	-200,000	-0,017	-0,167
-641,926	335,687	0,044	0,063
-640,911	-31,524	0,059	0,024
-639,897	141,760	-0,104	0,102
-638,882	-95,500	0,044	0,009
-637,868	-200,000	0,011	-0,084
-636,853	324,191	-0,050	0,071
-635,838	-200,000	0,004	-0,023
-634,824	-94,800	-0,013	0,003
-633,809	180,546	-0,015	0,017
-632,795	-80,557	0,029	0,007
-631,780	5,170	0,165	0,090
-630,765	-24,814	-0,099	-0,043
-629,751	-80,237	-0,126	-0,031
-628,736	-29,998	0,046	-0,019
-627,722	-200,000	-0,004	0,065
-626,707	195,427	-0,084	-0,095
-625,692	46,353	0,046	-0,031
-624,678	-200,000	-0,005	0,016
-623,663	-68,570	-0,047	-0,013
-622,649	58,954	-0,166	-0,121
-621,634	10,235	-0,113	-0,064
-620,619	-170,289	-0,010	-0,000
-619,605	-200,000	0,010	0,104
-618,590	800,000	-0,079	0,189
-617,576	190,509	0,052	0,058
-616,561	264,716	-0,080	0,103
-615,546	71,578	-0,082	0,063
-614,532	636,372	-0,042	-0,080
-613,517	96,464	-0,041	-0,035
-612,503	660,671	-0,018	-0,034
-611,488	606,221	0,051	-0,095
-610,474	74,575	-0,126	-0,098
-609,459	482,583	-0,025	0,043
-608,444	207,745	-0,038	-0,044
-607,430	-200,000	-0,039	-0,203
-606,415	153,731	-0,088	-0,090
-605,401	-95,697	0,140	0,027
-604,386	-96,437	-0,027	0,005
-603,371	-200,000	0,024	0,098
-602,357	-200,000	0,001	-0,007
-601,342	-9,391	-0,123	-0,061
-600,328	-11,669	-0,032	-0,016
-599,313	661,588	0,044	0,084
-598,298	-7,945	0,060	0,030
-597,284	800,000	-0,041	0,130
-596,269	194,292	-0,087	0,098
-595,255	151,050	0,004	-0,004
-594,240	-200,000	0,027	0,096
-593,225	-200,000	0,009	-0,092
-592,211	503,797	0,042	-0,072
-591,196	-200,000	-0,010	0,114
-590,182	115,360	0,199	0,180
-589,167	149,558	-0,063	-0,063
-588,152	-132,341	-0,074	-0,007
-587,138	-46,410	0,070	0,025
-586,123	-200,000	0,015	-0,069
-585,109	-84,639	0,066	0,015
-584,094	92,249	-0,063	-0,053
-583,079	-54,299	0,034	0,011
-582,065	124,825	0,044	-0,041
-581,050	-200,000	-0,008	-0,034
-580,036	89,330	-0,131	-0,108
-579,021	800,000	0,085	-0,191
-578,006	-167,144	-0,071	-0,002
-576,992	-127,314	0,056	-0,006
-575,977	-200,000	-0,008	-0,035
-574,963	-200,000	-0,010	-0,112
-573,948	-40,250	0,059	-0,023
-572,934	-200,000	-0,004	-0,030
-571,919	731,262	-0,061	-0,121
-570,904	-200,000	-0,011	0,036
-569,890	60,821	-0,056	-0,041
-568,875	121,517	-0,066	0,061
-567,861	117,064	0,069	0,062
-566,846	-23,441	-0,045	0,020
-565,831	5,162	-0,035	-0,019
-564,817	-89,034	0,036	-0,008
-563,802	-200,000	0,006	-0,094
-562,788	-200,000	-0,004	0,165
-561,773	-13,457	-0,071	0,034
-560,758	50,066	0,122	0,085
-559,744	-200,000	0,002	0,152
-558,729	50,141	-0,072	-0,050
-557,715	-200,000	-0,005	0,123
-556,700	194,847	-0,037	0,042
-555,685	-46,167	-0,113	0,041
-554,671	-95,021	-0,012	-0,002
-553,656	-200,000	0,012	-0,055
-552,642	-47,665	0,044	0,016
-551,627	-125,438	-0,029	-0,003
-550,612	800,000	-0,040	0,098
-549,598	-39,374	-0,047	0,018
-548,583	-200,000	-0,009	-0,036
-547,569	223,434	-0,023	-0,027
-546,554	800,000	-0,013	-0,030
-545,539	-200,000	-0,019	0,090
-544,525	-163,498	0,054	0,002
-543,510	-86,563	-0,069	-0,015
-542,496	-21,552	-0,123	0,055
-541,481	-6,191	-0,085	0,043
-540,466	535,983	-0,080	-0,140
-539,452	-100,082	0,009	0,002
-538,437	-191,520	0,047	0,000
-537,423	348,780	0,026	0,039
-536,408	674,783	-0,033	0,063
-535,393	297,354	0,009	-0,013
-534,379	-200,000	-0,012	0,042
-533,364	-82,523	-0,054	-0,013
-532,350	110,383	0,073	-0,065
-531,335	199,303	-0,071	-0,081
-530,321	25,962	0,145	-0,089
-529,306	163,027	-0,079	-0,082
-528,291	305,260	-0,042	0,058
-527,277	-13,237	-0,135	0,065
-526,262	57,723	-0,037	-0,027
-525,248	-97,398	0,038	-0,007
-524,233	258,104	0,054	0,068
-523,218	9,261	0,066	0,037
-522,204	17,932	-0,161	0,094
-521,189	-200,000	0,000	0,013
-520,175	250,517	-0,051	0,065
-519,160	-176,461	0,136	-0,003
-518,145	124,063	-0,052	0,048
-517,131	267,375	0,085	0,110
-516,116	-200,000	-0,004	-0,043
-515,102	-88,386	0,184	0,040
-514,087	8,813	0,050	-0,028
-513,072	95,130	-0,086	-0,073
-512,058	-35,911	0,117	0,047
-511,043	-200,000	-0,005	-0,108
-510,029	773,199	-0,029	0,058
-509,014	-146,063	0,098	-0,006
-507,999	-64,292	0,086	-0,026
-506,985	-78,955	-0,047	-0,012
-505,970	-32,010	-0,115	-0,047
-504,956	-99,204	-0,131	0,024
-503,941	303,925	-0,073	-0,100
-502,926	-200,000	-0,010	0,034
-501,912	-200,000	0,029	0,106
-500,897	-200,000	-0,028	-0,173
-499,883	-122,380	0,110	0,013
-498,868	-200,000	0,017	0,222
-497,853	-139,466	-0,097	0,008
-496,839	202,830	0,050	0,057
-495,824	18,412	-0,034	0,020
-494,810	-64,408	0,039	-0,011
-493,795	282,512	0,139	0,184
-492,781	100,227	-0,101	-0,087
-491,766	-200,000	-0,008	-0,056
-490,751	47,425	0,090	-0,062
-489,737	302,017	-0,020	0,028
-488,722	459,371	-0,041	0,068
-487,708	-66,332	0,166	-0,048
-486,693	224,739	0,018	0,021
-485,678	-99,154	0,119	-0,022
-484,664	800,000	-0,077	-0,158
-483,649	-200,000	-0,014	-0,088
-482,635	274,757	0,117	0,154
-481,620	475,576	0,062	-0,104
-480,605	598,294	0,053	0,098
-479,591	159,779	-0,007	0,007
-478,576	251,654	0,052	0,066
-477,562	800,000	0,030	0,084
-476,547	-124,625	0,115	-0,013
-475,532	105,710	0,055	-0,048
-474,518	-200,000	-0,035	-0,130
-473,503	292,938	0,078	-0,105
-472,489	94,544	-0,030	-0,025
-471,474	-200,000	-0,021	0,113
-470,459	139,853	-0,110	-0,107
-469,445	800,000	-0,045	-0,096
-468,430	443,653	-0,060	0,097
-467,416	-200,000	0,003	-0,018
-466,401	-200,000	-0,023	0,116
-465,386	-92,024	0,063	0,013
-464,372	-123,142	-0,071	-0,008
-463,357	6,721	-0,146	0,080
-462,343	-13,071	0,053	0,025
-461,328	248,836	-0,046	-0,057
-460,313	800,000	0,081	-0,192
-459,299	-200,000	0,009	0,121
-458,284	800,000	-0,033	0,084
-457,270	-200,000	0,009	-0,050
-456,255	-28,438	0,031	-0,013
-455,241	800,000	0,082	-0,172
-454,226	758,333	-0,052	0,105
-453,211	322,210	0,030	0,043
-452,197	-17,167	-0,020	0,009
-451,182	800,000	0,043	0,094
-450,168	-200,000	-0,012	0,049
-449,153	-200,000	-0,035	0,188
-448,138	-200,000	-0,009	-0,100
-447,124	183,026	0,022	-0,024
-446,109	-73,257	0,058	0,015
-445,095	151,143	-0,016	-0,016
-444,080	-119,320	-0,080	0,010
-443,065	-4,024	0,155	0,079
-442,051	800,000	0,040	0,110
-441,036	-106,335	0,025	0,004
-440,022	-200,000	-0,015	-0,071
-439,007	-73,135	0,013	0,004
-437,992	-200,000	0,035	0,203
-436,978	467,686	0,038	0,062
-435,963	-200,000	-0,010	0,036
-434,949	283,010	-0,084	-0,111
-433,934	197,997	0,063	-0,071
-432,919	100,383	-0,119	-0,102
-431,905	800,000	-0,027	-0,063
-430,890	653,035	-0,062	0,118
-429,876	-78,081	0,120	-0,030
-428,861	-141,851	-0,036	0,003
-427,846	-104,110	0,068	0,012
-426,832	-200,000	0,048	-0,160
-425,817	29,701	-0,078	0,049
-424,803	-180,371	0,217	0,003
-423,788	57,486	0,012	-0,009
-422,773	-200,000	-0,031	-0,136
-421,759	9,732	0,055	0,031
-420,744	-200,000	-0,014	0,087
-419,730	800,000	0,068	-0,147
-418,715	10,751	-0,152	-0,085
-417,701	220,271	0,053	0,063
-416,686	703,098	-0,077	0,150
-415,671	-156,855	0,145	0,006
-414,657	16,810	0,067	0,039
-413,642	-136,703	0,028	0,002
-412,628	597,082	-0,037	0,068
-411,613	80,067	0,061	0,048
-410,598	-200,000	-0,024	-0,107
-409,584	-120,851	0,158	-0,019
-408,569	771,098	0,037	-0,074
-407,555	489,530	0,073	0,124
-406,540	-119,469	-0,077	0,010
-405,525	-200,000	-0,006	-0,084
-404,511	556,038	0,035	-0,063
-403,496	-200,000	-0,011	0,107
-402,482	-200,000	-0,020	0,107
-401,467	800,000	-0,050	0,103
-400,452	-200,000	-0,022	0,075
-399,438	-111,429	0,045	0,007
-398,423	-200,000	-0,001	0,032
-397,409	-44,898	0,073	-0,027
-396,394	-24,583	0,104	-0,045
-395,379	609,008	-0,042	0,078
-394,365	-125,295	-0,041	-0,005
-393,350	-186,665	0,123	0,001
-392,336	-200,000	-0,015	-0,065
-391,321	-70,363	-0,039	-0,011
-390,306	-200,000	0,019	-0,137
-389,292	257,244	-0,040	0,051
-388,277	800,000	-0,040	-0,116
-387,263	800,000	-0,017	-0,053
-386,248	52,030	0,082	0,058
-385,233	415,955	0,021	-0,032
-384,219	-120,800	0,057	0,007
-383,204	550,168	-0,009	0,016
-382,190	-28,190	-0,078	-0,033
-381,175	-200,000	0,006	0,032
-380,160	-200,000	0,001	0,005
-379,146	201,183	0,022	0,025
-378,131	277,475	0,034	0,045
-377,117	33,389	0,058	0,037
-376,102	-51,504	-0,101	0,034
-375,088	-11,319	-0,090	-0,043
-374,073	-3,247	0,093	0,047
-373,058	88,236	-0,052	-0,042
-372,044	-69,617	0,174	-0,049
-371,029	20,492	-0,032	0,019
-370,015	-148,393	-0,094	-0,006
-369,000	-116,856	0,064	-0,008
-367,985	-11,905	-0,077	-0,037
-366,971	-48,724	-0,119	-0,042
-365,956	-200,000	0,004	-0,092
-364,942	800,000	-0,015	0,031
-363,927	-200,000	-0,020	0,088
-362,912	-200,000	0,004	-0,076
-361,898	141,954	-0,218	-0,213
-360,883	-200,000	0,177	-0,000
-359,869	707,287	0,030	-0,058
-358,854	255,761	0,067	-0,085
-357,839	150,010	0,043	0,043
-356,825	4,631	-0,033	-0,018
-355,810	17,816	-0,059	-0,035
-354,796	-131,790	-0,133	-0,013
-353,781	-52,220	-0,073	-0,025
-352,766	158,085	0,032	-0,032
-351,752	-200,000	0,001	0,015
-350,737	62,037	0,117	0,086
-349,723	800,000	-0,058	0,133
-348,708	800,000	-0,049	0,104
-347,693	88,498	-0,043	-0,035
-346,679	-103,857	0,035	0,006
-345,664	64,914	-0,035	-0,026
-344,650	702,254	0,033	-0,064
-343,635	245,514	-0,027	0,034
-342,620	130,818	0,067	0,064
-341,606	1,483	0,039	0,020
-340,591	-165,495	0,198	0,006
-339,577	-200,000	-0,010	0,069
-338,562	-47,793	-0,112	0,039
-337,548	-200,000	0,019	-0,119
-336,533	-200,000	-0,015	0,050
-335,518	800,000	0,030	0,085
-334,504	303,895	-0,063	-0,086
-333,489	-200,000	0,002	0,072
-332,475	222,708	0,060	-0,071
-331,460	-200,000	-0,010	0,050
-330,445	-200,000	-0,002	-0,019
-329,431	-200,000	-0,023	-0,077
-328,416	-177,173	0,039	-0,001
-327,402	800,000	0,076	0,183
-326,387	455,376	0,075	0,122
-325,372	-29,231	-0,066	-0,028
-324,358	15,398	0,142	-0,082
-323,343	79,936	-0,101	-0,080
-322,329	-74,261	-0,070	0,019
-321,314	-146,938	0,144	-0,009
-320,299	168,255	0,037	0,039
-319,285	32,342	-0,084	0,053
-318,270	800,000	-0,010	-0,023
-317,256	237,455	-0,032	0,039
-316,241	380,385	-0,030	0,045
-315,226	-108,565	0,157	0,024
-314,212	-200,000	-0,006	0,050
-313,197	800,000	-0,016	-0,036
-312,183	6,968	0,018	0,010
-311,168	85,758	-0,102	-0,082
-310,153	384,498	-0,090	0,136
-309,139	-200,000	0,005	-0,055
-308,124	153,145	0,049	-0,049
-307,110	-39,343	0,072	0,028
-306,095	-68,120	0,044	0,013
-305,080	119,674	0,054	0,049
-304,066	-200,000	0,009	-0,097
-303,051	-200,000	0,004	-0,118
-302,037	148,904	-0,213	-0,211
-301,022	59,583	0,043	0,031
-300,008	22,355	0,106	0,063
-298,993	800,000	0,046	0,146
-297,978	100,252	0,028	0,023
-296,964	-200,000	0,024	0,087
-295,949	-200,000	0,010	0,113
-294,935	18,593	-0,056	0,033
-293,920	22,744	0,119	-0,071
-292,905	305,024	0,088	0,120
-291,891	-30,528	-0,063	-0,026
-290,876	-72,309	0,080	-0,021
-289,862	-149,934	-0,066	-0,004
-288,847	777,590	-0,105	-0,211
-287,832	800,000	0,009	0,029
-286,818	-200,000	0,017	-0,095
-285,803	414,761	-0,038	-0,059
-284,789	237,793	0,085	-0,103
-283,774	283,506	0,062	-0,082
-282,759	26,639	0,071	-0,044
-281,745	13,075	-0,082	-0,046
-280,730	-200,000	-0,018	0,111
-279,716	282,870	0,074	-0,097
-278,701	56,518	0,094	-0,067
-277,686	199,531	0,074	-0,084
-276,672	-200,000	0,023	0,079
-275,657	-200,000	0,017	0,066
-274,643	65,421	-0,054	-0,040
-273,628	-1,597	-0,012	-0,006
-272,613	403,661	0,050	-0,078
-271,599	-47,858	-0,039	-0,014
-270,584	-200,000	-0,007	-0,027
-269,570	-200,000	-0,026	0,117
-268,555	-129,685	-0,053	0,005
-267,540	76,093	-0,186	-0,144
-266,526	-200,000	0,059	-0,253
-265,511	800,000	0,022	0,068
-264,497	108,173	-0,034	0,030
-263,482	-192,889	0,059	0,000
-262,467	800,000	-0,017	-0,045
-261,453	-161,554	0,089	-0,003
-260,438	414,627	0,095	0,149
-259,424	-164,900	-0,126	-0,004
-258,409	-200,000	0,021	-0,081
-257,395	-113,176	0,109	0,015
-256,380	328,764	0,094	0,133
-255,365	-55,947	-0,065	-0,021
-254,351	330,570	0,061	0,086
-253,336	-22,441	-0,036	0,016
-252,322	-14,516	-0,155	0,072
-251,307	94,015	-0,088	-0,073
-250,292	133,258	0,053	-0,050
-249,278	-5,486	0,091	0,046
-248,263	-200,000	0,013	0,170
-247,249	-110,949	0,094	0,014
-246,234	-1,295	0,071	-0,037
-245,219	-200,000	-0,034	-0,151
-244,205	-200,000	-0,016	-0,085
-243,190	38,227	0,127	-0,083
-242,176	86,985	-0,059	0,048
-241,161	-200,000	-0,011	-0,036
-240,146	800,000	-0,045	-0,108
-239,132	800,000	-0,050	-0,107
-238,117	-129,772	-0,095	-0,009
-237,103	535,661	-0,038	0,066
-236,088	-128,006	0,031	-0,003
-235,073	377,544	-0,020	0,029
-234,059	185,931	-0,122	0,133
-233,044	-134,528	0,090	0,008
-232,030	333,256	0,076	0,107
-231,015	-200,000	-0,008	-0,098
-230,000	39,682	0,053	-0,034
-228,986	-51,296	0,057	-0,019
-227,971	800,000	0,029	-0,086
-226,957	18,899	0,052	-0,030
-225,942	-151,737	0,051	0,003
-224,927	-101,601	0,076	0,013
-223,913	-60,191	-0,114	0,035
-222,898	800,000	-0,046	0,129
-221,884	-52,869	-0,074	-0,025
-220,869	-73,764	-0,067	-0,018
-219,855	5,083	0,095	0,051
-218,840	347,833	0,070	0,101
-217,825	66,933	-0,161	-0,120
-216,811	142,965	-0,039	0,038
-215,796	-13,990	-0,110	-0,052
-214,782	278,803	-0,091	-0,119
-213,767	704,647	0,093	-0,180
-212,752	324,279	-0,055	0,077
-211,738	-200,000	0,027	0,114
-210,723	-136,630	-0,016	-0,001
-209,709	89,344	-0,036	0,029
-208,694	-50,189	-0,069	-0,024
-207,679	800,000	-0,030	-0,067
-206,665	-200,000	-0,023	0,116
-205,650	731,797	-0,032	0,063
-204,636	135,506	0,092	0,087
-203,621	67,138	-0,046	-0,034
-202,606	-9,944	-0,046	-0,022
-201,592	127,736	-0,074	-0,068
-200,577	158,489	-0,060	-0,061
-199,563	424,892	-0,029	0,046
-198,548	-55,761	-0,010	-0,003
-197,533	-200,000	-0,021	0,102
-196,519	93,476	-0,086	-0,071
-195,504	117,156	-0,050	-0,044
-194,490	-104,603	-0,024	-0,004
-193,475	800,000	0,035	-0,104
-192,460	-48,968	-0,106	-0,037
-191,446	-200,000	0,000	-0,129
-190,431	-30,245	-0,032	-0,013
-189,417	48,327	0,052	-0,035
-188,402	-200,000	0,019	-0,099
-187,387	141,660	-0,046	0,045
-186,373	-200,000	0,011	0,083
-185,358	-200,000	-0,014	0,056
-184,344	201,417	0,105	0,118
-183,329	800,000	-0,042	0,117
-182,315	-52,813	0,018	-0,006
-181,300	800,000	0,025	0,072
-180,285	-10,231	-0,078	-0,038
-179,271	-76,281	0,054	0,014
-178,256	109,022	0,142	0,124
-177,242	-73,020	0,115	-0,031
-176,227	-200,000	0,024	0,194
-175,212	-22,424	0,047	0,021
-174,198	-200,000	-0,042	0,172
-173,183	-113,070	0,140	0,020
-172,169	-122,459	-0,082	-0,010
-171,154	-200,000	-0,025	-0,160
-170,139	-49,434	0,055	0,019
-169,125	800,000	0,080	0,214
-168,110	250,295	-0,047	0,058
-167,096	772,269	-0,026	-0,051
-166,081	123,366	0,057	0,052
-165,066	26,091	-0,091	0,055
-164,052	591,312	-0,007	-0,013
-163,037	169,731	-0,058	0,061
-162,023	353,414	0,074	-0,107
-161,008	255,989	0,043	-0,054
-159,993	-73,242	0,054	-0,014
-158,979	-200,000	-0,017	-0,093
-157,964	-200,000	0,022	-0,139
-156,950	254,669	0,042	0,053
-155,935	-39,614	0,140	0,053
-154,920	224,843	0,086	-0,102
-153,906	-0,014	0,095	0,049
-152,891	69,066	-0,179	-0,134
-151,877	156,354	-0,048	0,049
-150,862	-22,918	-0,114	-0,050
-149,847	707,114	0,034	0,067
-148,833	-200,000	0,036	-0,159
-147,818	800,000	0,054	-0,113
-146,804	104,665	-0,060	0,052
-145,789	130,851	0,073	0,069
-144,775	28,435	0,061	0,037
-143,760	-112,324	-0,116	-0,017
-142,745	800,000	-0,025	-0,076
-141,731	-200,000	0,021	0,084
-140,716	77,786	0,057	-0,044
-139,702	700,414	0,002	-0,005
-138,687	-200,000	0,001	0,018
-137,672	300,967	0,027	0,036
-136,658	-129,397	-0,071	-0,007
-135,643	-59,704	-0,265	0,082
-134,629	39,018	-0,067	-0,044
-133,614	336,047	-0,059	-0,084
-132,599	-200,000	-0,013	-0,103
-131,585	-200,000	0,005	0,051
-130,570	85,200	0,089	-0,071
-129,556	330,151	-0,043	0,061
-128,541	-200,000	-0,003	-0,123
-127,526	800,000	-0,052	-0,158
-126,512	75,273	-0,102	0,079
-125,497	151,316	-0,065	0,064
-124,483	800,000	-0,035	0,106
-123,468	-55,991	0,095	-0,031
-122,453	-81,926	0,095	-0,022
-121,439	800,000	-0,023	-0,054
-120,424	604,536	0,033	-0,060
-119,410	-138,965	-0,017	0,001
