DTS Sentinel unit serial number:	SN410029Multiplexer serial number:	ORYXHardware model number:	OX2-SRSoftware version number:	ORYX F/W v4,00 Oryx Data Collector v3.7.2.0data status	okinstallation	B4 Nyhavnadifferential loss correction	single-endedforward channel	channel 2reverse channel	N/Adate	2023/12/19time	08:35:13forward acquisition time	300,00reverse acquisition time	0,00gamma	499,1914k internal	0,3127k external	0,3127temperature offset calibration	1,0000default loss term (dB/km)	0,3820temperature slope calibration	1,0000multiplexer offset coefficient	1,0000multiplexer slope coefficient	1,0000fibre end	0,00T internal ref (°C)	20,78T ext. ref 1 (°C)	5,36T ext. ref 2 (°C)	5,36length (m)	temperature (°C)	Stokes	anti-Stokes-744,400	92,572	0,108	0,091
-743,385	-56,771	-0,218	0,071
-742,371	175,178	0,018	0,019
-741,356	73,705	-0,120	0,093
-740,342	-200,000	0,012	-0,047
-739,327	-76,714	-0,219	0,057
-738,312	-27,817	-0,127	0,055
-737,298	19,672	-0,227	0,136
-736,283	86,731	0,101	-0,083
-735,269	-200,000	-0,322	0,000
-734,254	627,605	0,049	-0,093
-733,239	-66,568	-0,417	-0,122
-732,225	187,780	0,053	0,059
-731,210	-110,330	0,033	-0,005
-730,196	-8,922	0,035	-0,017
-729,181	203,459	-0,068	0,079
-728,167	-200,000	-0,009	-0,058
-727,152	-57,095	-0,049	-0,016
-726,137	-58,332	-0,129	-0,041
-725,123	-200,000	0,018	0,068
-724,108	-200,000	0,035	-0,182
-723,094	-200,000	0,040	-0,177
-722,079	-200,000	0,007	-0,103
-721,064	26,796	-0,117	-0,073
-720,050	-200,000	-0,002	-0,023
-719,035	800,000	-0,036	-0,087
-718,021	82,375	-0,108	0,087
-717,006	-68,666	0,073	-0,021
-715,991	186,937	-0,053	-0,059
-714,977	800,000	0,047	-0,103
-713,962	141,629	-0,066	-0,065
-712,948	-200,000	0,014	0,146
-711,933	6,475	0,097	0,053
-710,918	-200,000	-0,000	0,027
-709,904	-200,000	-0,001	0,066
-708,889	6,056	-0,102	-0,056
-707,875	697,940	0,045	-0,088
-706,860	372,538	0,041	0,062
-705,845	-200,000	0,004	0,055
-704,831	140,528	-0,031	0,031
-703,816	277,306	0,024	0,032
-702,802	592,381	0,014	0,026
-701,787	-61,253	-0,087	0,027
-700,772	366,848	-0,045	-0,068
-699,758	18,320	-0,063	-0,038
-698,743	691,721	-0,054	0,106
-697,729	800,000	0,022	0,066
-696,714	127,077	0,034	0,032
-695,699	111,397	-0,050	-0,044
-694,685	800,000	-0,040	-0,105
-693,670	344,758	-0,096	-0,141
-692,656	589,454	0,024	0,045
-691,641	-41,616	0,046	-0,018
-690,627	800,000	0,024	0,077
-689,612	-41,165	0,149	-0,057
-688,597	9,147	0,013	0,007
-687,583	-200,000	0,007	-0,068
-686,568	-200,000	0,015	-0,111
-685,554	-49,065	-0,054	-0,019
-684,539	88,375	0,020	-0,016
-683,524	-200,000	-0,014	-0,046
-682,510	-73,806	0,103	0,028
-681,495	-109,750	-0,113	-0,017
-680,481	800,000	0,030	-0,088
-679,466	340,547	-0,117	-0,171
-678,451	154,602	0,100	-0,102
-677,437	-200,000	-0,038	0,131
-676,422	-123,775	-0,078	-0,009
-675,408	-40,020	0,034	0,013
-674,393	45,613	-0,029	0,020
-673,378	-200,000	-0,021	-0,142
-672,364	-17,536	-0,135	-0,063
-671,349	-162,552	-0,108	-0,004
-670,335	800,000	0,062	0,141
-669,320	123,263	0,075	0,069
-668,305	-29,763	0,121	-0,051
-667,291	-99,706	-0,063	-0,012
-666,276	800,000	0,055	-0,134
-665,262	-7,658	0,076	0,038
-664,247	12,954	-0,108	-0,062
-663,232	364,920	-0,065	-0,097
-662,218	-10,181	0,051	0,025
-661,203	149,576	0,034	0,035
-660,189	-200,000	0,017	-0,082
-659,174	60,568	-0,173	-0,127
-658,159	779,130	-0,062	-0,127
-657,145	3,469	-0,039	-0,021
-656,130	-54,154	-0,042	0,014
-655,116	-200,000	0,007	0,032
-654,101	85,281	0,060	-0,049
-653,086	25,498	0,027	-0,017
-652,072	-200,000	-0,004	-0,039
-651,057	-69,941	0,013	0,004
-650,043	-200,000	-0,153	0,000
-649,028	-75,039	-0,106	0,028
-648,014	-52,771	0,082	0,028
-646,999	58,657	0,066	0,048
-645,984	800,000	-0,034	0,087
-644,970	800,000	-0,047	-0,119
-643,955	-144,818	-0,054	0,004
-642,941	-200,000	-0,003	-0,024
-641,926	83,654	-0,052	-0,042
-640,911	63,953	-0,099	0,074
-639,897	-200,000	-0,017	-0,086
-638,882	252,754	-0,039	0,049
-637,868	146,433	-0,048	-0,048
-636,853	-133,738	-0,043	0,004
-635,838	-67,784	-0,098	0,028
-634,824	-52,572	-0,036	0,012
-633,809	158,684	0,160	0,165
-632,795	-200,000	0,003	0,117
-631,780	-84,558	-0,103	-0,024
-630,765	-200,000	0,012	-0,098
-629,751	-41,041	-0,139	-0,053
-628,736	-139,738	-0,074	-0,006
-627,722	623,580	0,048	-0,091
-626,707	178,516	-0,061	-0,066
-625,692	-200,000	-0,001	-0,053
-624,678	-92,296	0,027	-0,006
-623,663	-13,155	-0,076	0,036
-622,649	381,174	-0,030	-0,046
-621,634	-200,000	0,011	-0,038
-620,619	-26,798	-0,071	-0,031
-619,605	-200,000	-0,009	0,041
-618,590	-18,406	0,155	-0,071
-617,576	150,870	-0,045	-0,046
-616,561	319,933	-0,044	-0,062
-615,546	-200,000	-0,007	-0,091
-614,532	260,700	-0,094	-0,120
-613,517	-95,595	-0,106	-0,021
-612,503	-88,179	0,079	0,017
-611,488	780,067	0,028	-0,056
-610,474	-200,000	0,019	0,065
-609,459	800,000	0,011	0,027
-608,444	800,000	0,019	-0,054
-607,430	800,000	-0,046	-0,114
-606,415	261,207	-0,070	0,090
-605,401	-200,000	0,028	-0,127
-604,386	-200,000	0,023	0,083
-603,371	-179,466	0,117	-0,002
-602,357	-68,874	0,018	0,005
-601,342	56,236	0,203	0,146
-600,328	261,708	-0,059	-0,076
-599,313	0,659	0,113	-0,060
-598,298	-65,508	-0,158	-0,047
-597,284	800,000	0,058	-0,131
-596,269	59,280	0,075	-0,055
-595,255	-9,766	0,016	0,008
-594,240	366,603	-0,038	-0,058
-593,225	-126,604	-0,064	-0,007
-592,211	-200,000	0,003	0,076
-591,196	89,151	-0,040	-0,033
-590,182	127,031	0,064	-0,060
-589,167	34,802	0,022	0,014
-588,152	-200,000	-0,007	-0,033
-587,138	65,723	0,052	0,039
-586,123	-200,000	-0,005	-0,021
-585,109	800,000	-0,004	-0,011
-584,094	190,888	0,072	-0,080
-583,079	145,988	0,079	0,079
-582,065	394,328	-0,035	-0,055
-581,050	800,000	0,031	-0,076
-580,036	258,866	-0,080	-0,103
-579,021	-200,000	0,001	-0,127
-578,006	-200,000	0,008	0,132
-576,992	800,000	-0,016	0,051
-575,977	33,585	0,029	-0,019
-574,963	21,881	0,146	-0,088
-573,948	800,000	0,037	-0,082
-572,934	-200,000	-0,007	0,113
-571,919	291,464	-0,022	-0,030
-570,904	401,548	-0,049	-0,076
-569,890	44,496	-0,085	-0,058
-568,875	221,887	-0,026	0,032
-567,861	-36,874	0,050	0,020
-566,846	268,175	0,042	0,054
-565,831	800,000	-0,029	-0,065
-564,817	800,000	-0,016	0,037
-563,802	124,992	-0,091	-0,085
-562,788	166,924	0,083	-0,087
-561,773	566,354	0,022	-0,040
-560,758	-115,148	-0,040	-0,006
-559,744	95,858	0,055	0,046
-558,729	15,497	0,071	-0,041
-557,715	39,951	-0,078	-0,052
-556,700	145,391	-0,127	-0,126
-555,685	527,669	-0,062	0,108
-554,671	-200,000	-0,008	-0,049
-553,656	-65,237	-0,030	-0,009
-552,642	87,806	0,130	0,106
-551,627	-103,628	-0,108	-0,019
-550,612	-120,662	-0,082	-0,010
-549,598	-116,736	0,027	0,004
-548,583	-200,000	-0,012	-0,107
-547,569	-61,348	0,024	0,007
-546,554	-127,289	0,095	-0,010
-545,539	-37,661	-0,020	0,008
-544,525	760,419	0,050	0,100
-543,510	-7,795	-0,090	-0,045
-542,496	469,332	0,097	-0,161
-541,481	113,353	-0,056	-0,050
-540,466	-132,310	0,042	0,004
-539,452	-110,001	-0,107	0,016
-538,437	800,000	0,036	0,083
-537,423	-200,000	-0,006	-0,049
-536,408	373,044	-0,079	0,118
-535,393	-110,920	-0,083	0,013
-534,379	-200,000	0,034	0,219
-533,364	3,420	-0,042	0,022
-532,350	-200,000	0,015	0,084
-531,335	392,372	0,054	-0,083
-530,321	-190,195	-0,126	-0,001
-529,306	-35,717	-0,022	-0,009
-528,291	-124,074	-0,131	-0,015
-527,277	-138,947	0,138	-0,011
-526,262	-108,012	0,070	-0,011
-525,248	-62,413	0,155	-0,047
-524,233	192,993	0,127	0,142
-523,218	-132,473	-0,107	-0,010
-522,204	49,532	0,053	0,037
-521,189	-85,962	-0,110	-0,025
-520,175	800,000	0,018	-0,045
-519,160	243,142	0,083	-0,103
-518,145	370,499	0,078	-0,117
-517,131	88,192	0,031	-0,025
-516,116	-123,622	0,036	0,004
-515,102	800,000	-0,112	0,231
-514,087	-200,000	0,007	-0,025
-513,072	-200,000	-0,002	0,011
-512,058	-200,000	-0,013	-0,054
-511,043	800,000	0,053	-0,142
-510,029	10,052	0,036	-0,020
-509,014	-113,930	-0,063	-0,009
-507,999	800,000	0,018	-0,049
-506,985	800,000	-0,073	0,176
-505,970	496,680	-0,058	0,099
-504,956	239,511	-0,013	-0,016
-503,941	-200,000	-0,018	0,117
-502,926	371,736	-0,011	-0,017
-501,912	117,520	0,047	0,043
-500,897	-181,409	-0,145	-0,002
-499,883	800,000	-0,072	-0,157
-498,868	-44,296	0,081	-0,030
-497,853	669,463	-0,080	-0,154
-496,839	319,037	0,020	0,029
-495,824	-200,000	-0,010	-0,137
-494,810	79,147	0,099	-0,079
-493,795	800,000	-0,037	-0,107
-492,781	-91,225	0,064	0,013
-491,766	800,000	-0,016	-0,041
-490,751	-0,082	0,025	-0,013
-489,737	59,893	-0,060	0,043
-488,722	-200,000	0,020	0,088
-487,708	175,098	0,052	-0,056
-486,693	-81,142	-0,143	0,035
-485,678	495,840	-0,096	-0,164
-484,664	-36,692	0,070	0,028
-483,649	168,489	-0,090	-0,095
-482,635	-81,410	-0,023	-0,006
-481,620	-200,000	0,007	0,076
-480,605	44,391	0,118	0,079
-479,591	-76,762	0,031	-0,008
-478,576	-130,852	-0,186	-0,018
-477,562	195,205	0,097	0,109
-476,547	717,692	-0,090	0,177
-475,532	124,626	0,014	0,013
-474,518	-68,323	0,057	0,016
-473,503	-200,000	-0,023	0,078
-472,489	-200,000	-0,005	0,041
-471,474	76,843	0,110	0,086
-470,459	259,115	0,061	0,078
-469,445	70,065	0,097	0,073
-468,430	-200,000	-0,006	-0,031
-467,416	-200,000	0,022	0,078
-466,401	-200,000	-0,030	0,100
-465,386	-83,491	-0,069	0,016
-464,372	636,764	0,047	0,089
-463,357	800,000	-0,038	-0,083
-462,343	50,569	0,109	-0,076
-461,328	349,758	0,110	-0,160
-460,313	29,809	0,147	-0,092
-459,299	-46,981	0,098	0,035
-458,284	4,128	0,036	0,019
-457,270	-111,681	-0,134	-0,020
-456,255	183,700	-0,035	0,038
-455,241	800,000	-0,064	0,131
-454,226	800,000	0,026	-0,084
-453,211	-82,264	0,044	-0,011
-452,197	-56,407	0,072	0,023
-451,182	107,360	0,045	0,040
-450,168	761,812	-0,039	0,079
-449,153	-157,711	-0,106	-0,005
-448,138	-33,389	0,147	0,060
-447,124	-92,550	0,048	0,010
-446,109	16,168	0,023	0,013
-445,095	37,064	-0,039	-0,025
-444,080	-200,000	-0,028	0,182
-443,065	-200,000	0,033	0,110
-442,051	800,000	-0,020	0,061
-441,036	9,930	-0,038	-0,021
-440,022	14,983	0,043	-0,025
-439,007	-79,182	-0,189	0,047
-437,992	424,034	0,056	0,089
-436,978	132,468	-0,047	0,044
-435,963	122,978	-0,019	0,017
-434,949	800,000	-0,029	0,064
-433,934	800,000	-0,063	-0,141
-432,919	-191,094	-0,171	0,001
-431,905	130,241	0,056	-0,053
-430,890	211,343	0,076	0,088
-429,876	117,244	-0,111	0,101
-428,861	78,162	0,096	0,075
-427,846	-200,000	-0,001	0,021
-426,832	-126,997	0,091	-0,010
-425,817	-46,939	-0,069	-0,025
-424,803	-107,865	-0,082	0,013
-423,788	88,319	0,039	-0,032
-422,773	48,786	0,085	-0,058
-421,759	-62,479	-0,068	0,021
-420,744	-200,000	0,002	-0,079
-419,730	111,661	-0,097	-0,086
-418,715	205,777	-0,075	-0,086
-417,701	32,134	-0,113	0,071
-416,686	29,410	-0,087	-0,054
-415,671	62,407	0,077	-0,057
-414,657	-22,662	-0,071	-0,031
-413,642	141,001	-0,100	0,098
-412,628	499,569	0,057	-0,096
-411,613	800,000	0,033	0,068
-410,598	-87,826	0,081	-0,018
-409,584	459,750	0,037	-0,061
-408,569	117,806	-0,121	-0,110
-407,555	32,207	0,047	-0,030
-406,540	-43,263	-0,060	-0,022
-405,525	281,058	-0,090	0,119
-404,511	-56,957	0,069	-0,022
-403,496	69,705	-0,087	0,066
-402,482	-200,000	-0,028	0,129
-401,467	465,288	0,065	-0,107
-400,452	160,599	0,115	0,118
-399,438	-200,000	0,009	-0,128
-398,423	108,945	-0,057	-0,050
-397,409	-25,088	0,087	0,038
-396,394	-200,000	0,005	0,088
-395,379	2,360	-0,075	0,040
-394,365	239,021	-0,059	0,072
-393,350	63,678	0,110	-0,081
-392,336	259,741	-0,076	0,097
-391,321	563,996	-0,071	0,126
-390,306	281,023	0,026	0,035
-389,292	-124,435	0,128	0,014
-388,277	556,451	0,042	0,075
-387,263	25,059	0,088	0,053
-386,248	479,045	0,028	0,046
-385,233	-52,556	0,045	0,015
-384,219	284,258	-0,041	-0,054
-383,204	-30,382	0,150	-0,062
-382,190	-200,000	0,001	-0,130
-381,175	-126,663	-0,098	0,010
-380,160	56,376	0,158	0,113
-379,146	67,231	0,165	0,124
-378,131	-200,000	0,012	-0,045
-377,117	441,945	0,043	0,069
-376,102	-129,273	-0,093	0,009
-375,088	250,641	-0,090	0,113
-374,073	-43,958	-0,038	-0,014
-373,058	147,644	0,072	-0,071
-372,044	202,811	0,014	0,016
-371,029	800,000	-0,038	0,079
-370,015	-200,000	0,020	-0,076
-369,000	46,014	0,082	-0,056
-367,985	-133,219	-0,041	0,004
-366,971	3,073	-0,091	-0,048
-365,956	-99,150	-0,089	0,016
-364,942	-200,000	0,001	-0,021
-363,927	-200,000	0,044	0,242
-362,912	-124,637	-0,068	-0,008
-361,898	-73,196	0,084	0,022
-360,883	388,768	-0,068	-0,103
-359,869	120,312	-0,062	-0,057
-358,854	-200,000	0,022	0,136
-357,839	-200,000	-0,009	0,059
-356,825	-27,560	0,119	0,050
-355,810	-57,879	-0,056	-0,018
-354,796	-200,000	0,007	0,046
-353,781	109,960	0,107	-0,094
-352,766	58,213	0,084	-0,060
-351,752	-200,000	-0,013	-0,130
-350,737	231,048	0,051	0,061
-349,723	-200,000	0,019	0,073
-348,708	59,888	0,096	0,070
-347,693	800,000	-0,040	-0,105
-346,679	-200,000	-0,007	-0,101
-345,664	-75,074	-0,097	-0,025
-344,650	167,228	0,106	-0,110
-343,635	6,847	0,096	-0,052
-342,620	800,000	-0,030	0,071
-341,606	344,205	0,028	0,041
-340,591	-7,723	-0,146	-0,072
-339,577	-200,000	-0,004	-0,048
-338,562	-44,378	0,062	0,023
-337,548	-200,000	-0,024	-0,099
-336,533	-33,178	0,025	0,010
-335,518	-200,000	0,014	0,164
-334,504	58,917	0,112	-0,080
-333,489	687,101	-0,055	-0,105
-332,475	-73,880	-0,105	0,028
-331,460	105,946	-0,029	0,025
-330,445	800,000	-0,014	-0,038
-329,431	-72,131	-0,029	-0,008
-328,416	800,000	0,052	0,112
-327,402	388,716	0,108	-0,164
-326,387	325,823	-0,019	-0,027
-325,372	-173,442	-0,106	-0,002
-324,358	248,360	0,057	-0,070
-323,343	-22,727	-0,041	-0,018
-322,329	-107,959	0,093	-0,015
-321,314	-103,849	-0,086	0,015
-320,299	150,226	0,041	-0,041
-319,285	8,788	-0,124	-0,068
-318,270	-200,000	0,007	0,079
-317,256	-200,000	0,014	0,090
-316,241	67,186	-0,054	-0,040
-315,226	-200,000	0,023	-0,091
-314,212	-89,367	-0,025	-0,005
-313,197	-200,000	-0,009	-0,065
-312,183	-0,847	0,086	-0,045
-311,168	-64,937	0,029	-0,009
-310,153	-122,607	-0,051	0,006
-309,139	-200,000	-0,010	-0,055
-308,124	-200,000	0,010	0,055
-307,110	54,947	-0,115	0,081
-306,095	-100,018	0,137	-0,025
-305,080	127,307	0,120	-0,111
-304,066	-112,508	-0,087	0,013
-303,051	450,325	-0,014	0,022
-302,037	-61,052	-0,082	-0,025
-301,022	274,287	0,022	-0,028
-300,008	800,000	0,025	0,064
-298,993	-45,125	0,229	0,083
-297,978	-116,820	-0,046	-0,006
-296,964	160,921	-0,063	-0,064
-295,949	-78,616	0,016	0,004
-294,935	51,952	-0,069	0,048
-293,920	-200,000	0,018	0,081
-292,905	193,716	0,067	0,075
-291,891	236,635	-0,024	0,030
-290,876	800,000	-0,047	0,145
-289,862	170,336	0,081	-0,085
-288,847	122,467	0,051	-0,047
-287,832	-200,000	0,011	-0,096
-286,818	195,667	-0,020	-0,023
-285,803	163,134	-0,050	-0,051
-284,789	-104,233	0,044	-0,007
-283,774	53,617	-0,070	-0,049
-282,759	-200,000	0,001	0,087
-281,745	-141,591	-0,168	-0,012
-280,730	-29,595	-0,075	-0,031
-279,716	389,025	-0,038	0,058
-278,701	352,675	-0,067	0,097
-277,686	142,230	-0,025	0,024
-276,672	-94,794	0,058	0,011
-275,657	-200,000	-0,041	0,179
-274,643	66,181	0,040	-0,030
-273,628	63,045	-0,061	-0,045
-272,613	-33,031	0,094	0,038
-271,599	215,774	-0,061	-0,071
-270,584	-197,157	0,018	0,000
-269,570	-157,453	0,033	-0,001
-268,555	800,000	-0,056	0,129
-267,540	-200,000	-0,009	0,146
-266,526	-200,000	0,006	-0,058
-265,511	-200,000	0,028	-0,140
-264,497	311,268	0,062	0,086
-263,482	800,000	0,089	0,182
-262,467	-43,627	-0,175	0,064
-261,453	-79,182	0,102	-0,025
-260,438	129,659	-0,063	0,059
-259,424	55,891	0,031	0,022
-258,409	618,036	-0,068	0,125
-257,395	-200,000	0,004	-0,106
-256,380	-6,144	0,031	0,015
-255,365	316,243	-0,049	0,067
-254,351	-41,236	-0,037	-0,014
-253,336	-158,723	0,063	0,003
-252,322	-165,708	0,088	-0,003
-251,307	20,986	0,075	-0,045
-250,292	800,000	-0,003	-0,007
-249,278	800,000	0,068	0,140
-248,263	236,828	0,192	0,232
-247,249	2,578	-0,115	0,060
-246,234	-50,204	-0,114	0,039
-245,219	800,000	-0,010	0,032
-244,205	118,094	-0,030	0,027
-243,190	123,143	-0,062	-0,057
-242,176	60,864	0,082	0,059
-241,161	800,000	-0,034	-0,083
-240,146	-148,767	-0,081	0,005
-239,132	571,375	0,060	0,108
-238,117	30,695	-0,055	0,035
-237,103	68,436	-0,079	-0,059
-236,088	155,563	0,069	0,069
-235,073	-200,000	0,014	-0,099
-234,059	29,911	0,087	0,054
-233,044	38,518	0,072	0,046
-232,030	-74,101	0,076	0,020
-231,015	-200,000	0,001	-0,106
-230,000	-200,000	0,024	0,138
-228,986	-200,000	-0,003	-0,113
-227,971	615,079	-0,035	-0,064
-226,957	-44,509	0,108	-0,039
-225,942	-40,625	0,037	-0,014
-224,927	194,865	-0,077	-0,085
-223,913	-200,000	0,002	-0,115
-222,898	-145,273	0,072	0,005
-221,884	-200,000	0,000	0,009
-220,869	277,817	0,117	0,152
-219,855	-139,291	-0,056	0,004
-218,840	114,664	0,027	0,024
-217,825	-72,048	-0,048	-0,013
-216,811	-101,076	-0,030	0,005
-215,796	-37,882	0,066	0,025
-214,782	800,000	0,049	0,140
-213,767	-108,211	-0,105	-0,016
-212,752	55,607	0,058	-0,041
-211,738	-200,000	-0,026	-0,085
-210,723	9,321	0,063	-0,034
-209,709	-104,093	-0,167	-0,028
-208,694	-200,000	-0,051	-0,174
-207,679	-91,999	-0,025	-0,005
-206,665	97,703	-0,092	0,077
-205,650	-133,304	0,075	0,007
-204,636	32,199	0,133	-0,083
-203,621	-38,719	0,100	-0,038
-202,606	800,000	-0,018	0,046
-201,592	21,691	-0,101	-0,060
-200,577	790,441	-0,036	-0,073
-199,563	70,082	-0,056	-0,042
-198,548	-200,000	0,011	-0,143
-197,533	-29,465	0,060	-0,025
-196,519	9,860	-0,074	0,041
-195,504	-155,656	0,091	0,004
-194,490	-0,902	-0,050	0,026
-193,475	-200,000	-0,018	-0,102
-192,460	-200,000	0,014	-0,063
-191,446	67,983	0,145	-0,108
-190,431	800,000	-0,039	0,091
-189,417	73,196	-0,090	-0,069
-188,402	350,939	-0,054	0,078
-187,387	140,972	-0,058	-0,056
-186,373	-200,000	0,048	-0,227
-185,358	-200,000	0,021	-0,134
-184,344	-107,610	0,126	-0,020
-183,329	97,941	-0,065	0,054
-182,315	82,149	-0,072	-0,057
-181,300	-136,345	0,190	-0,016
-180,285	38,986	0,102	0,066
-179,271	-18,852	0,034	-0,015
-178,256	-73,345	0,020	-0,005
-177,242	57,175	-0,013	-0,009
-176,227	800,000	-0,016	0,033
-175,212	800,000	-0,016	0,045
-174,198	800,000	0,005	0,012
-173,183	434,951	-0,032	0,050
-172,169	-200,000	-0,013	-0,153
-171,154	387,244	0,025	0,038
-170,139	-16,270	0,113	-0,052
-169,125	-200,000	0,035	0,123
-168,110	-164,728	0,158	0,005
-167,096	800,000	0,041	-0,116
-166,081	12,768	-0,096	-0,054
-165,066	-200,000	0,018	0,068
-164,052	492,217	-0,088	0,148
-163,037	70,242	0,024	0,018
-162,023	89,660	0,053	0,043
-161,008	-135,264	0,147	0,013
-159,993	-155,610	0,026	-0,001
-158,979	-60,214	-0,088	0,027
-157,964	-200,000	-0,010	0,052
-156,950	-56,742	-0,137	-0,044
-155,935	234,595	-0,136	0,163
-154,920	142,731	-0,123	0,119
-153,906	-200,000	-0,010	0,046
-152,891	174,593	0,070	0,074
-151,877	5,605	-0,060	0,032
-150,862	441,918	0,007	0,011
-149,847	-87,795	-0,085	0,018
-148,833	-4,440	-0,028	-0,014
-147,818	-200,000	0,014	0,063
-146,804	173,843	0,042	0,044
-145,789	-14,598	-0,098	-0,045
-144,775	-14,116	-0,014	0,007
-143,760	-68,470	0,059	0,017
-142,745	-43,563	-0,130	0,047
-141,731	126,905	0,141	0,130
-140,716	-200,000	-0,013	0,293
-139,702	178,990	0,094	0,100
-138,687	-37,153	0,118	0,046
-137,672	99,053	-0,074	0,062
-136,658	-200,000	-0,019	-0,085
-135,643	-28,722	0,100	-0,041
-134,629	129,758	0,081	-0,076
-133,614	-200,000	0,010	0,040
-132,599	682,554	0,058	0,110
-131,585	-112,745	0,075	0,011
-130,570	415,442	-0,017	0,027
-129,556	510,969	0,045	-0,077
-128,541	258,665	0,051	-0,064
-127,526	745,097	-0,027	0,054
-126,512	-146,908	0,084	0,005
-125,497	-200,000	-0,014	0,105
-124,483	55,776	0,112	0,079
-123,468	800,000	0,027	-0,074
-122,453	277,114	-0,086	-0,112
-121,439	116,106	0,039	-0,035
-120,424	-200,000	0,023	-0,090
-119,410	-50,574	-0,045	-0,015
-118,395	47,342	0,075	-0,050
