DTS Sentinel unit serial number:	SN410029Multiplexer serial number:	ORYXHardware model number:	OX2-SRSoftware version number:	ORYX F/W v4,00 Oryx Data Collector v3.7.2.0data status	okinstallation	B4 Nyhavnadifferential loss correction	single-endedforward channel	channel 2reverse channel	N/Adate	2023/12/16time	12:00:13forward acquisition time	300,00reverse acquisition time	0,00gamma	499,1914k internal	0,3125k external	0,3125temperature offset calibration	1,0000default loss term (dB/km)	0,3820temperature slope calibration	1,0000multiplexer offset coefficient	1,0000multiplexer slope coefficient	1,0000fibre end	0,00T internal ref (°C)	23,93T ext. ref 1 (°C)	9,74T ext. ref 2 (°C)	9,90length (m)	temperature (°C)	Stokes	anti-Stokes-744,400	-39,182	-0,090	-0,035
-743,385	134,007	-0,156	0,150
-742,371	-200,000	-0,017	0,088
-741,356	-94,402	-0,177	0,036
-740,342	-200,000	0,004	-0,126
-739,327	-86,555	-0,145	0,033
-738,312	8,483	0,123	-0,069
-737,298	-2,517	-0,203	0,105
-736,283	618,295	-0,047	-0,089
-735,269	67,273	-0,152	0,116
-734,254	-106,314	0,150	0,025
-733,239	-79,878	-0,275	-0,068
-732,225	-92,729	0,069	-0,014
-731,210	101,941	-0,049	-0,043
-730,196	661,423	-0,021	-0,041
-729,181	800,000	0,030	0,088
-728,167	-45,521	0,096	0,035
-727,152	-113,197	-0,061	-0,009
-726,137	800,000	-0,039	-0,113
-725,123	-16,079	-0,090	-0,042
-724,108	498,539	-0,081	-0,139
-723,094	363,648	-0,051	-0,076
-722,079	-200,000	0,001	0,052
-721,064	3,100	-0,058	0,032
-720,050	106,484	0,051	0,045
-719,035	74,928	-0,048	-0,038
-718,021	71,480	-0,076	-0,059
-717,006	-200,000	0,007	0,032
-715,991	-200,000	0,015	-0,052
-714,977	-146,158	-0,057	0,004
-713,962	-157,257	-0,091	0,004
-712,948	800,000	0,050	-0,111
-711,933	-138,637	0,084	-0,007
-710,918	-91,009	0,034	0,007
-709,904	215,900	-0,106	-0,126
-708,889	-116,537	-0,060	0,008
-707,875	-157,946	-0,026	0,001
-706,860	94,576	-0,086	0,073
-705,845	162,262	0,102	0,107
-704,831	76,475	0,076	0,060
-703,816	89,693	0,079	0,066
-702,802	530,861	-0,058	-0,103
-701,787	224,766	-0,067	-0,081
-700,772	-13,146	0,089	-0,043
-699,758	40,657	0,060	0,040
-698,743	403,267	0,029	-0,045
-697,729	-200,000	0,004	-0,076
-696,714	-118,267	0,146	-0,019
-695,699	-47,161	-0,157	-0,057
-694,685	404,081	-0,019	-0,030
-693,670	-49,628	0,080	-0,028
-692,656	674,237	0,057	-0,111
-691,641	74,293	0,107	0,084
-690,627	617,290	0,052	0,097
-689,612	-200,000	0,001	0,043
-688,597	-200,000	-0,027	-0,246
-687,583	472,554	-0,084	-0,142
-686,568	800,000	0,019	0,044
-685,554	281,512	-0,044	0,059
-684,539	-96,593	-0,029	-0,006
-683,524	234,811	-0,042	-0,052
-682,510	42,149	-0,121	0,081
-681,495	59,433	-0,053	-0,039
-680,481	-7,264	-0,155	-0,078
-679,466	63,409	-0,071	0,053
-678,451	-200,000	0,004	0,069
-677,437	6,149	-0,068	0,037
-676,422	-85,390	0,100	0,023
-675,408	-77,632	0,027	0,007
-674,393	712,585	-0,014	0,028
-673,378	800,000	0,046	0,099
-672,364	471,954	-0,063	0,106
-671,349	-63,560	-0,084	-0,026
-670,335	-200,000	0,000	0,040
-669,320	-200,000	-0,007	-0,024
-668,305	800,000	0,052	-0,121
-667,291	286,579	-0,013	-0,018
-666,276	104,716	-0,062	-0,054
-665,262	800,000	-0,056	-0,134
-664,247	17,563	0,074	-0,043
-663,232	-200,000	0,015	-0,115
-662,218	457,796	0,030	-0,049
-661,203	800,000	0,065	0,161
-660,189	-103,629	-0,069	-0,012
-659,174	-96,679	0,047	-0,009
-658,159	800,000	-0,065	-0,151
-657,145	204,875	0,043	-0,050
-656,130	-200,000	0,016	-0,090
-655,116	132,913	0,072	0,069
-654,101	34,411	-0,046	0,030
-653,086	40,815	-0,168	0,112
-652,072	800,000	0,029	0,089
-651,057	71,377	0,007	0,006
-650,043	-123,181	-0,074	-0,009
-649,028	7,666	-0,168	0,093
-648,014	-85,909	0,175	0,040
-646,999	251,652	0,009	0,011
-645,984	474,737	0,013	0,021
-644,970	166,388	-0,026	-0,028
-643,955	639,099	-0,011	-0,021
-642,941	504,461	0,014	0,025
-641,926	-200,000	0,004	-0,056
-640,911	-171,657	-0,120	-0,003
-639,897	-200,000	0,009	-0,048
-638,882	129,164	0,081	0,077
-637,868	88,919	-0,037	0,031
-636,853	-200,000	-0,017	-0,144
-635,838	269,984	-0,147	-0,193
-634,824	-136,414	0,171	-0,015
-633,809	228,190	0,008	0,009
-632,795	200,926	0,046	0,052
-631,780	422,231	0,021	-0,033
-630,765	-4,505	-0,140	0,071
-629,751	-130,319	-0,100	-0,010
-628,736	20,574	-0,059	0,035
-627,722	-109,092	-0,090	0,014
-626,707	-200,000	0,003	0,141
-625,692	322,397	0,048	0,068
-624,678	168,646	0,078	-0,082
-623,663	800,000	0,010	0,022
-622,649	-200,000	0,000	-0,028
-621,634	-200,000	0,028	-0,124
-620,619	8,061	-0,094	0,052
-619,605	800,000	0,030	0,062
-618,590	-200,000	0,011	0,045
-617,576	-72,901	0,039	0,011
-616,561	11,880	-0,019	-0,011
-615,546	172,838	0,084	-0,089
-614,532	-134,091	-0,117	-0,011
-613,517	158,749	-0,090	-0,093
-612,503	-145,347	0,090	-0,006
-611,488	-200,000	0,014	0,061
-610,474	64,199	-0,029	-0,022
-609,459	401,885	0,013	-0,021
-608,444	-149,418	-0,083	0,005
-607,430	-82,485	-0,056	0,013
-606,415	-173,915	-0,158	0,003
-605,401	-48,286	0,099	0,035
-604,386	-166,605	-0,135	-0,004
-603,371	22,188	-0,039	-0,024
-602,357	46,280	-0,054	0,037
-601,342	156,957	-0,060	0,062
-600,328	3,078	-0,042	-0,022
-599,313	30,395	-0,100	0,063
-598,298	98,126	-0,011	0,010
-597,284	471,390	-0,036	-0,060
-596,269	100,617	0,039	-0,033
-595,255	-131,383	0,105	0,010
-594,240	181,401	-0,040	0,043
-593,225	677,766	0,047	0,090
-592,211	291,736	-0,079	-0,106
-591,196	-10,835	0,098	-0,048
-590,182	285,159	0,057	0,076
-589,167	56,438	0,130	0,094
-588,152	-200,000	0,005	0,024
-587,138	-16,941	0,069	0,032
-586,123	-200,000	0,015	0,076
-585,109	-53,018	0,093	0,031
-584,094	462,526	-0,078	-0,129
-583,079	58,328	0,090	0,065
-582,065	60,839	-0,088	0,064
-581,050	683,292	0,075	0,146
-580,036	-200,000	0,027	0,093
-579,021	408,692	-0,031	0,048
-578,006	-126,231	-0,119	0,013
-576,992	-200,000	0,025	-0,090
-575,977	38,127	0,108	-0,071
-574,963	-73,210	-0,036	0,010
-573,948	220,667	-0,077	0,091
-572,934	42,603	0,048	-0,032
-571,919	-109,543	-0,125	-0,019
-570,904	43,586	0,147	-0,100
-569,890	143,789	0,086	0,085
-568,875	-125,645	0,139	-0,015
-567,861	-200,000	0,022	0,120
-566,846	-200,000	-0,022	-0,081
-565,831	-89,988	0,033	0,007
-564,817	-20,630	-0,124	-0,056
-563,802	-200,000	-0,017	-0,119
-562,788	-43,348	-0,037	-0,014
-561,773	88,710	-0,074	0,061
-560,758	-27,660	-0,098	-0,042
-559,744	36,069	0,067	-0,043
-558,729	-126,772	-0,092	0,010
-557,715	70,849	-0,090	0,069
-556,700	-114,806	-0,011	0,002
-555,685	-151,318	-0,086	0,005
-554,671	-78,280	0,038	-0,010
-553,656	-71,565	0,034	0,009
-552,642	800,000	0,025	0,055
-551,627	593,553	-0,040	-0,074
-550,612	800,000	0,039	0,097
-549,598	-82,819	-0,138	0,033
-548,583	-200,000	-0,003	-0,097
-547,569	-200,000	0,006	-0,086
-546,554	-72,266	-0,080	0,022
-545,539	273,656	-0,044	-0,058
-544,525	-200,000	0,017	0,120
-543,510	-200,000	-0,041	0,146
-542,496	-109,129	-0,082	-0,013
-541,481	-200,000	-0,007	-0,102
-540,466	-19,694	-0,054	0,024
-539,452	-53,527	0,104	0,035
-538,437	487,476	0,029	-0,050
-537,423	91,895	-0,040	0,033
-536,408	-50,762	-0,072	-0,025
-535,393	69,080	-0,141	0,107
-534,379	708,565	0,046	0,091
-533,364	-200,000	-0,053	-0,190
-532,350	325,352	-0,092	-0,130
-531,335	-101,832	0,068	0,012
-530,321	-200,000	-0,003	0,046
-529,306	323,668	-0,076	-0,108
-528,291	800,000	0,018	-0,047
-527,277	52,622	-0,158	-0,111
-526,262	-26,277	0,055	-0,024
-525,248	-200,000	0,006	-0,151
-524,233	800,000	-0,037	-0,083
-523,218	69,807	-0,064	0,049
-522,204	-115,326	0,014	-0,002
-521,189	800,000	-0,040	-0,088
-520,175	734,355	0,032	-0,063
-519,160	-200,000	0,001	0,023
-518,145	-200,000	0,002	-0,191
-517,131	360,697	0,051	-0,075
-516,116	251,781	-0,007	0,009
-515,102	195,357	0,026	0,029
-514,087	-64,842	-0,080	0,024
-513,072	36,950	0,053	0,034
-512,058	23,799	0,088	-0,053
-511,043	287,376	-0,034	0,046
-510,029	749,528	0,019	-0,039
-509,014	-57,628	0,079	0,025
-507,999	667,182	0,019	0,036
-506,985	-200,000	-0,016	-0,058
-505,970	-95,979	-0,138	-0,027
-504,956	-101,687	-0,073	-0,013
-503,941	525,980	0,027	0,047
-502,926	800,000	0,050	0,105
-501,912	-115,832	-0,035	0,005
-500,897	-13,352	0,044	-0,021
-499,883	-200,000	0,000	-0,050
-498,868	-84,132	-0,137	-0,032
-497,853	-67,629	0,092	0,027
-496,839	-136,177	-0,101	0,009
-495,824	-200,000	0,004	-0,099
-494,810	28,377	0,039	0,024
-493,795	-200,000	0,013	0,117
-492,781	800,000	0,027	0,062
-491,766	256,174	0,021	-0,027
-490,751	-200,000	0,015	-0,051
-489,737	-37,420	-0,105	0,041
-488,722	516,183	-0,022	-0,038
-487,708	163,629	0,048	-0,050
-486,693	-200,000	0,011	-0,060
-485,678	27,176	-0,071	-0,044
-484,664	-200,000	0,018	-0,074
-483,649	-104,736	0,135	-0,023
-482,635	-154,917	0,026	-0,001
-481,620	486,420	0,017	0,029
-480,605	800,000	-0,067	-0,160
-479,591	800,000	0,022	0,056
-478,576	-81,131	-0,024	-0,006
-477,562	9,357	-0,115	-0,064
-476,547	-200,000	-0,004	-0,055
-475,532	295,390	0,035	0,048
-474,518	-200,000	-0,002	0,097
-473,503	-66,940	0,113	0,033
-472,489	138,090	-0,092	-0,089
-471,474	139,765	0,037	-0,036
-470,459	720,833	0,051	-0,100
-469,445	-200,000	0,011	-0,035
-468,430	800,000	0,023	0,064
-467,416	800,000	-0,035	0,090
-466,401	-63,464	-0,053	-0,016
-465,386	-200,000	0,018	-0,199
-464,372	-2,231	0,050	-0,026
-463,357	-199,779	-0,036	-0,000
-462,343	-200,000	0,018	-0,099
-461,328	3,625	0,167	-0,089
-460,313	-26,097	-0,072	0,031
-459,299	800,000	-0,049	0,121
-458,284	-200,000	0,023	0,075
-457,270	800,000	-0,035	0,104
-456,255	75,099	-0,090	-0,070
-455,241	800,000	0,005	0,012
-454,226	-21,335	0,027	-0,012
-453,211	325,492	-0,077	-0,108
-452,197	-200,000	0,027	0,128
-451,182	-67,675	0,094	0,027
-450,168	166,619	0,020	0,021
-449,153	63,457	-0,058	-0,043
-448,138	800,000	-0,041	-0,104
-447,124	-72,959	0,099	0,027
-446,109	-148,321	0,064	0,004
-445,095	19,920	-0,090	-0,053
-444,080	133,387	-0,145	-0,138
-443,065	-200,000	-0,016	0,188
-442,051	-95,146	-0,143	0,028
-441,036	-200,000	0,002	0,057
-440,022	800,000	-0,039	-0,082
-439,007	800,000	0,054	-0,134
-437,992	-42,356	0,051	-0,019
-436,978	-200,000	-0,012	0,107
-435,963	156,148	-0,009	0,009
-434,949	-51,633	-0,071	-0,024
-433,934	-200,000	-0,015	-0,050
-432,919	-104,483	-0,028	0,005
-431,905	-53,284	0,033	0,011
-430,890	-52,684	0,030	-0,010
-429,876	-13,662	0,056	0,026
-428,861	-200,000	0,018	0,129
-427,846	84,816	0,137	-0,111
-426,832	-1,780	-0,092	0,048
-425,817	35,720	-0,066	0,042
-424,803	798,623	0,042	-0,085
-423,788	116,266	0,010	-0,009
-422,773	736,854	-0,059	0,116
-421,759	-101,274	0,099	0,018
-420,744	266,631	-0,071	0,092
-419,730	800,000	-0,015	0,043
-418,715	-161,003	0,062	0,002
-417,701	800,000	-0,022	0,064
-416,686	351,849	0,080	0,117
-415,671	-200,000	0,053	0,206
-414,657	11,533	-0,058	0,032
-413,642	-85,482	0,081	0,018
-412,628	20,398	0,067	-0,039
-411,613	-200,000	0,001	-0,152
-410,598	-163,212	0,082	-0,003
-409,584	-90,701	0,109	0,023
-408,569	-200,000	-0,011	0,047
-407,555	800,000	0,038	0,100
-406,540	12,817	-0,070	0,040
-405,525	-129,719	-0,142	0,014
-404,511	145,809	-0,052	-0,051
-403,496	800,000	-0,055	-0,137
-402,482	800,000	0,047	0,145
-401,467	-72,572	0,160	0,043
-400,452	-200,000	0,009	0,032
-399,438	-4,712	-0,124	-0,063
-398,423	800,000	0,019	0,051
-397,409	-200,000	0,006	-0,083
-396,394	800,000	0,036	-0,084
-395,379	35,502	0,032	-0,020
-394,365	143,626	0,010	-0,010
-393,350	-85,264	0,060	0,014
-392,336	800,000	0,046	-0,110
-391,321	-200,000	0,005	-0,032
-390,306	-200,000	-0,015	0,145
-389,292	-200,000	-0,004	-0,064
-388,277	664,267	0,108	-0,207
-387,263	-12,285	0,055	-0,026
-386,248	476,598	0,044	0,074
-385,233	-200,000	0,022	0,139
-384,219	800,000	0,017	-0,050
-383,204	127,512	-0,094	-0,088
-382,190	43,798	-0,097	0,065
-381,175	-64,710	0,036	-0,011
-380,160	133,625	0,102	-0,097
-379,146	-98,880	0,107	-0,020
-378,131	800,000	-0,006	-0,015
-377,117	-200,000	-0,017	0,100
-376,102	119,438	-0,067	-0,061
-375,088	-200,000	0,002	-0,100
-374,073	201,406	-0,060	-0,068
-373,058	10,926	0,041	-0,023
-372,044	11,328	-0,043	-0,024
-371,029	-15,453	0,132	0,062
-370,015	-61,176	-0,135	0,042
-369,000	-200,000	0,013	-0,167
-367,985	62,804	0,025	-0,018
-366,971	-75,651	0,066	-0,017
-365,956	213,839	-0,079	-0,092
-364,942	-172,118	0,245	-0,006
-363,927	170,712	0,133	0,140
-362,912	-160,609	-0,116	0,004
-361,898	-200,000	0,008	-0,059
-360,883	-200,000	-0,014	-0,065
-359,869	800,000	0,033	-0,107
-358,854	-200,000	-0,016	-0,075
-357,839	-37,795	0,111	0,043
-356,825	35,373	-0,070	0,045
-355,810	153,402	-0,152	-0,153
-354,796	11,561	0,022	0,012
-353,781	-57,157	-0,140	-0,045
-352,766	-72,925	0,124	0,033
-351,752	307,363	0,075	0,103
-350,737	-200,000	-0,023	0,187
-349,723	-200,000	0,016	0,086
-348,708	-200,000	-0,026	0,105
-347,693	387,480	-0,022	0,034
-346,679	-200,000	-0,027	-0,195
-345,664	86,756	-0,022	-0,018
-344,650	800,000	-0,033	0,071
-343,635	800,000	-0,032	0,085
-342,620	-34,469	0,071	0,028
-341,606	140,323	0,099	0,096
-340,591	-0,572	-0,077	0,040
-339,577	-77,754	-0,088	0,022
-338,562	499,777	0,055	-0,094
-337,548	-200,000	0,018	-0,121
-336,533	-200,000	-0,004	0,057
-335,518	163,518	0,092	-0,095
-334,504	-200,000	0,019	0,089
-333,489	306,388	0,093	0,127
-332,475	-93,810	0,054	-0,011
-331,460	-32,576	-0,174	-0,071
-330,445	19,608	-0,191	0,112
-329,431	83,248	-0,058	-0,046
-328,416	800,000	0,029	-0,065
-327,402	-200,000	0,005	0,072
-326,387	24,517	-0,048	0,029
-325,372	-33,848	-0,036	0,015
-324,358	12,206	-0,095	0,054
-323,343	10,900	-0,191	0,107
-322,329	800,000	0,018	0,048
-321,314	119,621	0,086	-0,078
-320,299	214,224	0,032	0,038
-319,285	-66,929	-0,111	0,032
-318,270	-152,732	0,075	0,004
-317,256	-200,000	-0,004	-0,023
-316,241	88,545	-0,011	0,009
-315,226	607,863	0,040	-0,073
-314,212	98,594	0,029	-0,024
-313,197	203,099	-0,056	0,064
-312,183	-108,683	-0,075	-0,012
-311,168	-200,000	-0,036	0,144
-310,153	-200,000	0,010	-0,113
-309,139	457,275	0,020	0,033
-308,124	-200,000	0,024	0,139
-307,110	325,162	0,070	0,098
-306,095	-200,000	0,010	0,058
-305,080	800,000	0,063	-0,147
-304,066	-200,000	-0,019	0,111
-303,051	-58,588	-0,090	-0,028
-302,037	-25,998	0,063	-0,027
-301,022	239,662	0,045	0,055
-300,008	-48,734	0,084	0,030
-298,993	-21,908	0,140	0,062
-297,978	-21,139	0,048	-0,021
-296,964	236,098	-0,040	0,048
-295,949	-200,000	0,007	0,160
-294,935	281,410	-0,105	-0,138
-293,920	-200,000	0,034	0,113
-292,905	-200,000	0,016	0,074
-291,891	-125,882	-0,122	0,013
-290,876	-200,000	-0,005	0,029
-289,862	27,277	0,174	-0,107
-288,847	-5,967	0,165	-0,083
-287,832	271,937	0,089	-0,116
-286,818	-200,000	0,005	-0,045
-285,803	125,091	0,070	-0,065
-284,789	-14,937	0,152	0,071
-283,774	161,605	0,076	0,078
-282,759	-200,000	-0,002	0,086
-281,745	261,259	0,026	-0,033
-280,730	-200,000	-0,010	-0,169
-279,716	154,546	-0,109	0,110
-278,701	800,000	0,020	0,059
-277,686	73,497	0,050	0,039
-276,672	800,000	-0,025	-0,072
-275,657	-181,138	0,018	0,000
-274,643	-200,000	-0,001	-0,053
-273,628	750,469	0,034	-0,067
-272,613	-200,000	-0,049	-0,174
-271,599	-34,518	0,083	0,033
-270,584	320,730	0,102	0,143
-269,570	-186,271	-0,077	0,001
-268,555	-200,000	-0,002	-0,046
-267,540	-45,452	0,078	0,028
-266,526	800,000	-0,034	0,094
-265,511	-200,000	-0,019	-0,087
-264,497	46,458	-0,040	0,027
-263,482	-200,000	0,008	0,159
-262,467	-200,000	0,006	0,185
-261,453	-87,469	0,087	-0,019
-260,438	-96,829	-0,051	0,010
-259,424	46,250	-0,056	-0,038
-258,409	-200,000	-0,039	-0,139
-257,395	-40,407	0,171	-0,064
-256,380	-200,000	0,009	-0,036
-255,365	338,285	-0,036	-0,051
-254,351	222,095	-0,044	-0,052
-253,336	-118,943	-0,166	-0,021
-252,322	98,556	0,093	0,078
-251,307	-134,086	0,095	-0,008
-250,292	-114,010	0,142	0,020
-249,278	-200,000	-0,016	-0,053
-248,263	-200,000	-0,006	0,044
-247,249	-200,000	0,028	0,133
-246,234	-58,003	-0,097	-0,031
-245,219	-24,434	-0,191	-0,083
-244,205	-57,876	-0,097	-0,031
-243,190	137,434	-0,008	-0,008
-242,176	144,845	-0,024	0,024
-241,161	442,651	0,053	-0,085
-240,146	800,000	0,033	0,089
-239,132	85,902	0,041	0,033
-238,117	-128,205	0,028	0,003
-237,103	673,025	0,021	-0,041
-236,088	-154,840	-0,037	-0,002
-235,073	71,140	-0,061	0,046
-234,059	-200,000	0,015	0,198
-233,044	-170,068	-0,071	-0,002
-232,030	-93,477	0,127	-0,025
-231,015	-48,303	-0,129	0,045
-230,000	-200,000	0,017	-0,078
-228,986	298,904	-0,029	-0,039
-227,971	190,694	0,054	0,060
-226,957	511,001	0,076	0,130
-225,942	-200,000	-0,055	0,197
-224,927	49,894	0,068	-0,047
-223,913	144,017	-0,086	-0,084
-222,898	-28,149	-0,110	-0,046
-221,884	160,390	-0,053	-0,054
-220,869	214,634	-0,107	-0,124
-219,855	-200,000	0,007	0,076
-218,840	-200,000	-0,003	0,139
-217,825	163,839	-0,065	0,067
-216,811	-114,408	0,059	-0,008
-215,796	-143,898	-0,144	-0,010
-214,782	41,220	0,069	0,046
-213,767	-12,244	-0,109	0,052
-212,752	-104,220	-0,034	0,006
-211,738	27,613	-0,135	0,083
-210,723	86,720	-0,048	-0,039
-209,709	-144,695	0,128	-0,008
-208,694	-200,000	-0,011	-0,093
-207,679	87,951	-0,045	-0,036
-206,665	-22,601	-0,101	-0,044
-205,650	124,837	0,046	-0,043
-204,636	-40,964	0,249	0,093
-203,621	-200,000	-0,009	-0,086
-202,606	281,278	-0,014	0,019
-201,592	18,215	-0,057	0,033
-200,577	179,579	-0,044	0,047
-199,563	599,707	-0,069	-0,125
-198,548	-200,000	0,048	0,185
-197,533	50,829	-0,126	0,087
-196,519	99,392	0,130	0,109
-195,504	301,921	-0,060	-0,081
-194,490	-200,000	-0,003	-0,094
-193,475	111,091	0,134	-0,118
-192,460	500,093	0,034	-0,057
-191,446	-200,000	-0,006	-0,057
-190,431	-2,813	0,053	0,027
-189,417	-49,699	0,160	-0,055
-188,402	-176,375	0,078	0,001
-187,387	800,000	0,031	0,080
-186,373	428,555	0,060	0,095
-185,358	800,000	0,021	-0,043
-184,344	96,723	0,073	-0,061
-183,329	-200,000	0,011	-0,050
-182,315	800,000	-0,042	0,114
-181,300	-41,491	-0,090	0,034
-180,285	621,459	0,059	-0,108
-179,271	-200,000	0,003	0,034
-178,256	-47,866	0,098	-0,035
-177,242	800,000	0,028	0,065
-176,227	175,294	0,064	-0,068
-175,212	-27,485	0,033	0,014
-174,198	123,741	-0,048	0,043
-173,183	34,439	-0,029	0,018
-172,169	-57,672	-0,040	-0,013
-171,154	89,792	0,048	0,039
-170,139	800,000	-0,052	-0,134
-169,125	-88,562	-0,027	0,006
-168,110	-200,000	-0,009	-0,073
-167,096	281,839	0,076	0,099
-166,081	165,068	0,027	0,028
-165,066	-200,000	0,025	-0,263
-164,052	345,454	0,066	0,094
-163,037	86,519	-0,038	-0,030
-162,023	-67,218	0,167	0,048
-161,008	-71,928	-0,057	-0,015
-159,993	90,000	0,043	-0,035
-158,979	800,000	0,039	0,099
-157,964	-92,293	0,109	-0,022
-156,950	-200,000	0,005	-0,040
-155,935	-55,024	0,029	0,010
-154,920	-136,499	-0,068	-0,006
-153,906	96,294	0,065	0,054
-152,891	-200,000	-0,025	-0,083
-151,877	78,707	-0,006	-0,005
-150,862	800,000	-0,052	-0,125
-149,847	800,000	0,021	-0,067
-148,833	-102,663	-0,061	0,010
-147,818	121,808	0,075	-0,069
-146,804	800,000	-0,013	0,041
-145,789	800,000	0,029	0,076
-144,775	478,912	-0,044	-0,073
-143,760	-200,000	-0,006	0,075
-142,745	-200,000	-0,005	-0,066
-141,731	-200,000	0,042	-0,177
-140,716	421,710	-0,023	0,036
-139,702	159,385	0,128	0,129
-138,687	270,340	-0,058	-0,075
-137,672	455,598	0,088	-0,143
-136,658	-200,000	0,016	-0,130
-135,643	-148,528	-0,021	0,001
-134,629	-78,950	-0,169	-0,042
-133,614	256,979	0,036	0,045
-132,599	358,572	0,073	0,106
-131,585	13,854	-0,157	0,089
-130,570	378,338	0,047	0,071
-129,556	675,285	-0,018	-0,034
-128,541	42,886	-0,061	0,041
-127,526	-2,381	0,058	0,029
-126,512	-11,088	0,085	-0,040
-125,497	800,000	0,035	0,111
-124,483	-200,000	0,019	0,072
-123,468	141,985	0,029	-0,028
-122,453	83,451	0,074	-0,058
-121,439	-200,000	0,006	-0,053
-120,424	-74,316	-0,159	0,042
-119,410	-127,197	0,112	-0,012
-118,395	71,558	-0,072	0,054
