DTS Sentinel unit serial number:	SN410029Multiplexer serial number:	ORYXHardware model number:	OX2-SRSoftware version number:	ORYX F/W v4,00 Oryx Data Collector v3.7.2.0data status	okinstallation	B4 Nyhavnadifferential loss correction	single-endedforward channel	channel 2reverse channel	N/Adate	2023/12/16time	00:25:13forward acquisition time	300,00reverse acquisition time	0,00gamma	499,1914k internal	0,3128k external	0,3128temperature offset calibration	1,0000default loss term (dB/km)	0,3820temperature slope calibration	1,0000multiplexer offset coefficient	1,0000multiplexer slope coefficient	1,0000fibre end	0,00T internal ref (°C)	22,00T ext. ref 1 (°C)	6,71T ext. ref 2 (°C)	6,93length (m)	temperature (°C)	Stokes	anti-Stokes-744,400	142,201	0,088	-0,087
-743,385	-15,076	-0,094	0,045
-742,371	311,662	0,078	0,109
-741,356	-153,853	-0,209	-0,010
-740,342	-200,000	0,006	-0,069
-739,327	-3,470	-0,282	0,145
-738,312	43,785	0,063	0,043
-737,298	-96,371	-0,210	0,041
-736,283	543,241	0,012	0,021
-735,269	-86,520	-0,133	-0,030
-734,254	800,000	0,013	-0,032
-733,239	-92,934	-0,404	-0,083
-732,225	-39,179	0,181	0,070
-731,210	331,344	-0,010	0,014
-730,196	800,000	-0,010	-0,028
-729,181	614,495	-0,032	0,061
-728,167	61,607	-0,069	-0,051
-727,152	271,138	-0,044	-0,058
-726,137	4,845	-0,142	0,078
-725,123	47,796	-0,117	0,081
-724,108	42,587	-0,223	-0,151
-723,094	690,241	-0,058	-0,114
-722,079	-101,351	-0,144	-0,026
-721,064	800,000	-0,037	-0,080
-720,050	-106,806	-0,061	0,010
-719,035	236,213	-0,103	0,127
-718,021	-200,000	0,018	-0,164
-717,006	-200,000	0,019	-0,140
-715,991	-200,000	-0,005	-0,131
-714,977	-118,889	-0,101	0,013
-713,962	-115,033	0,004	0,000
-712,948	-200,000	0,018	-0,066
-711,933	511,543	0,026	0,045
-710,918	-167,735	0,049	-0,001
-709,904	-54,923	-0,033	0,011
-708,889	800,000	0,053	-0,120
-707,875	336,640	-0,024	0,035
-706,860	-167,008	-0,130	-0,004
-705,845	48,908	-0,056	-0,039
-704,831	-200,000	0,005	0,021
-703,816	-200,000	-0,009	-0,034
-702,802	-200,000	-0,021	-0,132
-701,787	-18,030	-0,142	-0,066
-700,772	196,744	0,014	0,016
-699,758	-200,000	0,021	-0,121
-698,743	-97,295	0,086	0,016
-697,729	-114,026	0,116	-0,016
-696,714	-200,000	0,001	0,082
-695,699	-200,000	-0,001	0,020
-694,685	190,151	-0,079	0,088
-693,670	-200,000	-0,001	-0,118
-692,656	555,747	0,058	0,105
-691,641	800,000	-0,017	0,035
-690,627	151,849	0,088	0,089
-689,612	800,000	-0,016	0,052
-688,597	-200,000	0,011	0,237
-687,583	-200,000	0,015	0,048
-686,568	546,070	-0,022	-0,040
-685,554	323,719	-0,036	-0,050
-684,539	146,725	0,091	0,091
-683,524	-200,000	-0,005	0,065
-682,510	208,492	0,048	-0,056
-681,495	138,449	0,072	-0,070
-680,481	18,070	-0,066	0,039
-679,466	-11,036	-0,063	0,031
-678,451	30,041	0,130	-0,082
-677,437	245,973	0,062	0,077
-676,422	800,000	0,040	-0,091
-675,408	244,426	0,039	0,049
-674,393	720,894	0,029	0,057
-673,378	86,105	-0,155	-0,126
-672,364	-116,911	-0,010	0,001
-671,349	-122,921	0,146	-0,017
-670,335	800,000	-0,047	0,117
-669,320	105,415	-0,029	-0,025
-668,305	438,989	0,077	-0,124
-667,291	108,888	-0,042	-0,037
-666,276	205,710	-0,035	-0,040
-665,262	-200,000	0,033	0,140
-664,247	397,839	0,006	-0,009
-663,232	800,000	0,031	-0,064
-662,218	490,270	0,074	0,126
-661,203	-200,000	-0,020	0,086
-660,189	-143,029	-0,081	0,006
-659,174	671,715	0,036	-0,069
-658,159	453,863	-0,024	0,039
-657,145	-103,946	-0,014	0,002
-656,130	-200,000	-0,029	0,096
-655,116	-70,791	0,130	0,036
-654,101	-200,000	-0,014	-0,092
-653,086	-83,767	-0,064	-0,015
-652,072	-200,000	-0,043	-0,150
-651,057	771,067	0,037	0,076
-650,043	-72,705	0,060	-0,016
-649,028	-200,000	0,006	-0,086
-648,014	-169,294	0,012	0,000
-646,999	-7,188	-0,107	0,054
-645,984	-200,000	0,029	-0,109
-644,970	414,855	0,022	0,034
-643,955	336,832	-0,061	-0,087
-642,941	154,205	-0,093	-0,094
-641,926	-179,099	0,047	0,001
-640,911	338,502	0,062	0,090
-639,897	154,827	0,043	0,044
-638,882	-68,016	-0,115	-0,033
-637,868	350,531	-0,028	0,041
-636,853	-117,703	-0,102	-0,013
-635,838	-200,000	0,023	-0,234
-634,824	800,000	0,045	-0,126
-633,809	-41,348	-0,078	-0,030
-632,795	-200,000	0,013	0,066
-631,780	-163,557	-0,057	0,002
-630,765	-120,436	-0,028	0,004
-629,751	-200,000	0,004	0,023
-628,736	195,453	-0,091	-0,103
-627,722	-200,000	0,002	0,053
-626,707	-130,729	-0,087	0,009
-625,692	800,000	0,019	0,056
-624,678	124,529	-0,066	0,062
-623,663	3,124	-0,057	0,031
-622,649	33,296	-0,012	0,007
-621,634	-200,000	-0,007	-0,253
-620,619	343,601	-0,021	-0,030
-619,605	-200,000	-0,008	-0,104
-618,590	-200,000	0,042	0,151
-617,576	-200,000	0,001	-0,025
-616,561	-200,000	0,019	-0,085
-615,546	800,000	-0,073	-0,222
-614,532	-200,000	0,005	-0,044
-613,517	52,660	0,094	-0,067
-612,503	-200,000	0,014	-0,054
-611,488	-200,000	-0,020	0,106
-610,474	800,000	-0,075	-0,216
-609,459	482,766	0,040	-0,067
-608,444	30,299	-0,120	0,076
-607,430	142,675	-0,054	-0,053
-606,415	751,106	0,007	0,014
-605,401	152,287	0,085	-0,086
-604,386	154,456	0,104	0,106
-603,371	-15,132	0,076	-0,036
-602,357	-103,466	0,045	0,008
-601,342	27,803	-0,077	0,048
-600,328	800,000	-0,012	0,036
-599,313	-27,117	0,096	0,041
-598,298	418,964	0,056	0,089
-597,284	-200,000	-0,011	-0,106
-596,269	800,000	-0,009	0,020
-595,255	-18,605	0,086	0,040
-594,240	132,592	-0,084	0,081
-593,225	223,336	-0,055	0,066
-592,211	-12,889	0,080	0,039
-591,196	-101,937	-0,057	0,010
-590,182	143,645	0,058	0,058
-589,167	91,598	-0,068	0,056
-588,152	800,000	-0,011	-0,027
-587,138	-75,483	0,101	-0,026
-586,123	601,601	-0,052	-0,096
-585,109	392,518	-0,046	-0,071
-584,094	-200,000	-0,011	0,096
-583,079	-25,106	0,058	0,025
-582,065	800,000	0,032	0,102
-581,050	-172,239	0,083	-0,002
-580,036	-60,957	-0,116	-0,036
-579,021	-22,805	-0,024	0,011
-578,006	53,876	-0,076	-0,054
-576,992	800,000	-0,069	0,150
-575,977	-102,282	-0,063	-0,011
-574,963	-100,106	0,083	-0,015
-573,948	-143,369	-0,137	0,010
-572,934	407,838	0,014	-0,021
-571,919	215,565	-0,010	0,012
-570,904	-4,021	-0,106	0,054
-569,890	-200,000	-0,017	0,081
-568,875	-87,702	0,067	0,015
-567,861	224,807	-0,026	0,031
-566,846	-48,236	-0,135	0,048
-565,831	-200,000	0,034	0,123
-564,817	32,871	-0,157	0,101
-563,802	218,368	0,030	-0,036
-562,788	800,000	-0,020	-0,055
-561,773	206,818	0,083	0,096
-560,758	-98,439	0,240	0,045
-559,744	212,812	-0,060	0,070
-558,729	687,910	-0,020	-0,038
-557,715	-98,002	-0,067	0,013
-556,700	-162,533	-0,100	0,004
-555,685	-51,145	-0,092	-0,032
-554,671	210,823	0,104	0,121
-553,656	-3,945	0,061	0,031
-552,642	59,362	0,092	0,067
-551,627	680,239	-0,044	-0,085
-550,612	327,020	0,121	-0,172
-549,598	-59,202	0,021	-0,007
-548,583	-18,676	0,097	0,044
-547,569	800,000	-0,018	-0,041
-546,554	-17,345	-0,032	0,015
-545,539	-200,000	-0,001	-0,028
-544,525	203,008	0,084	-0,096
-543,510	-51,967	-0,085	0,029
-542,496	-0,470	-0,057	-0,030
-541,481	-200,000	0,000	-0,068
-540,466	-200,000	-0,026	-0,111
-539,452	-200,000	0,007	-0,052
-538,437	-200,000	-0,022	0,115
-537,423	2,600	-0,021	-0,011
-536,408	800,000	0,010	-0,032
-535,393	800,000	-0,029	-0,069
-534,379	-200,000	-0,009	-0,106
-533,364	-164,709	-0,045	0,001
-532,350	-200,000	0,012	-0,073
-531,335	-5,989	0,073	0,037
-530,321	-42,590	-0,102	-0,038
-529,306	-200,000	-0,004	-0,106
-528,291	162,468	0,071	-0,074
-527,277	52,994	-0,070	-0,049
-526,262	251,741	0,080	-0,101
-525,248	50,102	0,072	0,050
-524,233	27,489	0,065	-0,040
-523,218	800,000	0,049	0,116
-522,204	119,163	-0,070	0,064
-521,189	-24,488	0,072	0,031
-520,175	-77,141	0,057	0,015
-519,160	-200,000	-0,033	-0,179
-518,145	81,446	0,229	0,183
-517,131	800,000	-0,015	0,050
-516,116	-200,000	0,001	-0,017
-515,102	800,000	-0,022	0,062
-514,087	165,090	-0,069	-0,072
-513,072	-200,000	0,003	-0,102
-512,058	-6,850	0,056	-0,028
-511,043	72,111	-0,050	0,038
-510,029	-200,000	0,018	0,074
-509,014	-2,387	0,112	-0,058
-507,999	259,145	0,050	0,064
-506,985	54,208	-0,036	-0,026
-505,970	32,125	0,062	0,039
-504,956	-200,000	-0,018	0,076
-503,941	-200,000	0,017	0,125
-502,926	-200,000	0,023	0,085
-501,912	-200,000	-0,009	-0,103
-500,897	-86,160	0,161	0,036
-499,883	211,182	-0,104	0,121
-498,868	-76,125	0,063	-0,016
-497,853	230,858	-0,080	0,097
-496,839	-48,098	0,047	-0,017
-495,824	320,998	0,092	0,129
-494,810	800,000	0,027	0,076
-493,795	-19,614	-0,038	-0,017
-492,781	-200,000	-0,013	0,100
-491,766	-48,556	-0,073	-0,026
-490,751	800,000	0,031	-0,099
-489,737	467,290	0,025	0,041
-488,722	-121,590	-0,076	-0,009
-487,708	-35,162	0,042	0,017
-486,693	-200,000	-0,010	0,117
-485,678	-46,381	0,097	-0,035
-484,664	252,996	0,036	0,046
-483,649	-80,235	-0,030	-0,007
-482,635	-200,000	-0,005	-0,017
-481,620	246,562	-0,007	-0,008
-480,605	-122,238	0,088	-0,011
-479,591	-200,000	0,003	0,046
-478,576	-200,000	-0,023	-0,122
-477,562	680,287	-0,051	-0,099
-476,547	-131,738	-0,085	-0,008
-475,532	-200,000	0,009	-0,076
-474,518	800,000	0,038	0,087
-473,503	2,701	0,060	0,032
-472,489	-200,000	-0,010	0,095
-471,474	32,752	-0,075	-0,048
-470,459	-45,306	-0,099	-0,036
-469,445	-153,568	-0,093	0,005
-468,430	0,926	-0,058	-0,030
-467,416	-200,000	0,020	-0,125
-466,401	155,859	-0,088	0,089
-465,386	332,221	0,059	0,084
-464,372	800,000	0,019	0,042
-463,357	10,746	-0,094	-0,053
-462,343	-200,000	0,034	0,164
-461,328	205,823	-0,048	0,055
-460,313	392,362	0,044	-0,067
-459,299	206,393	-0,058	-0,066
-458,284	124,017	0,045	-0,042
-457,270	210,176	-0,023	0,026
-456,255	149,944	-0,049	-0,049
-455,241	9,821	0,082	0,045
-454,226	-200,000	-0,005	-0,059
-453,211	133,932	-0,064	0,061
-452,197	591,656	0,046	0,084
-451,182	-65,171	0,066	-0,019
-450,168	90,886	-0,086	0,071
-449,153	-50,124	0,123	0,043
-448,138	38,627	-0,009	-0,006
-447,124	331,064	0,046	0,065
-446,109	-39,926	0,202	-0,077
-445,095	26,546	0,102	0,062
-444,080	-18,068	0,042	-0,019
-443,065	-200,000	-0,029	-0,102
-442,051	-200,000	0,001	0,010
-441,036	-200,000	0,016	-0,112
-440,022	-200,000	-0,028	0,120
-439,007	46,743	-0,101	0,069
-437,992	54,832	0,064	-0,045
-436,978	304,883	0,041	0,057
-435,963	800,000	-0,021	-0,053
-434,949	-56,748	-0,165	0,053
-433,934	-115,475	0,080	0,011
-432,919	4,819	-0,081	-0,043
-431,905	-200,000	0,007	0,048
-430,890	-200,000	0,007	0,100
-429,876	318,246	0,111	-0,155
-428,861	306,823	0,100	-0,138
-427,846	-200,000	0,011	-0,084
-426,832	-55,346	0,037	-0,012
-425,817	-200,000	-0,077	-0,315
-424,803	94,599	-0,044	-0,037
-423,788	132,992	-0,082	0,078
-422,773	146,790	0,096	0,095
-421,759	-153,564	0,193	-0,010
-420,744	-85,520	-0,061	0,014
-419,730	459,860	-0,004	0,007
-418,715	87,042	0,020	0,016
-417,701	-200,000	0,022	-0,116
-416,686	-200,000	0,014	0,054
-415,671	74,952	0,021	0,016
-414,657	502,387	0,071	0,122
-413,642	800,000	-0,050	0,113
-412,628	56,042	-0,140	0,100
-411,613	66,384	-0,111	0,082
-410,598	-44,055	-0,071	-0,026
-409,584	800,000	0,033	-0,083
-408,569	-96,317	0,101	0,020
-407,555	330,075	0,033	0,047
-406,540	-20,072	-0,022	0,010
-405,525	636,949	0,027	0,051
-404,511	42,488	0,148	-0,098
-403,496	-200,000	-0,021	0,114
-402,482	-86,721	0,130	0,029
-401,467	-200,000	-0,014	0,065
-400,452	-115,355	0,055	-0,008
-399,438	286,988	0,047	0,063
-398,423	-111,599	-0,196	0,029
-397,409	-182,813	-0,047	0,001
-396,394	-200,000	-0,004	0,023
-395,379	-132,095	0,067	-0,006
-394,365	-181,505	-0,116	0,002
-393,350	195,986	0,050	0,056
-392,336	116,864	0,122	-0,110
-391,321	-86,926	0,067	0,015
-390,306	75,244	-0,031	-0,024
-389,292	-0,780	-0,119	-0,062
-388,277	-69,676	0,146	0,041
-387,263	-200,000	0,013	0,050
-386,248	-44,399	0,070	-0,026
-385,233	675,591	-0,038	0,074
-384,219	260,755	-0,064	-0,081
-383,204	38,369	0,077	-0,050
-382,190	-200,000	-0,004	-0,084
-381,175	7,192	-0,008	-0,004
-380,160	-200,000	-0,001	0,064
-379,146	-134,394	0,024	0,002
-378,131	-40,757	0,094	0,036
-377,117	716,830	-0,069	-0,134
-376,102	46,520	-0,144	-0,098
-375,088	-200,000	-0,027	-0,095
-374,073	21,756	-0,056	0,034
-373,058	138,827	0,056	-0,054
-372,044	-176,698	-0,076	-0,001
-371,029	-90,039	-0,054	-0,011
-370,015	-129,295	0,198	-0,020
-369,000	-132,796	-0,034	-0,003
-367,985	-200,000	0,027	-0,131
-366,971	242,152	-0,055	0,068
-365,956	-38,378	0,079	0,030
-364,942	-200,000	0,106	0,000
-363,927	296,257	-0,071	0,095
-362,912	102,736	-0,033	-0,028
-361,898	-200,000	-0,028	-0,148
-360,883	359,255	-0,040	-0,059
-359,869	24,901	-0,070	-0,043
-358,854	471,058	-0,008	-0,014
-357,839	800,000	0,069	-0,144
-356,825	393,815	0,058	-0,088
-355,810	203,053	0,038	0,044
-354,796	23,716	-0,121	0,073
-353,781	-200,000	0,001	0,030
-352,766	-120,768	-0,054	-0,007
-351,752	36,529	-0,064	0,041
-350,737	800,000	0,047	-0,133
-349,723	800,000	-0,044	0,139
-348,708	-107,461	0,156	-0,025
-347,693	-92,629	0,101	-0,021
-346,679	-200,000	0,005	-0,104
-345,664	198,329	-0,014	-0,016
-344,650	132,479	0,036	0,034
-343,635	155,518	-0,090	-0,091
-342,620	-200,000	-0,001	-0,093
-341,606	-60,607	0,023	-0,007
-340,591	-100,829	-0,029	-0,005
-339,577	456,451	-0,013	0,022
-338,562	800,000	0,056	0,149
-337,548	221,578	-0,066	0,078
-336,533	-200,000	0,020	0,184
-335,518	104,958	0,056	0,048
-334,504	-133,814	-0,042	0,004
-333,489	152,352	-0,043	0,044
-332,475	-200,000	-0,019	-0,175
-331,460	-200,000	0,024	-0,083
-330,445	800,000	0,047	0,116
-329,431	16,369	0,091	0,052
-328,416	60,521	0,155	0,112
-327,402	152,826	-0,080	0,080
-326,387	-200,000	-0,011	-0,046
-325,372	-102,790	-0,165	0,029
-324,358	800,000	0,007	-0,016
-323,343	104,820	0,040	-0,035
-322,329	106,043	0,064	-0,055
-321,314	15,211	0,083	0,048
-320,299	28,337	0,025	0,015
-319,285	-60,860	-0,091	0,028
-318,270	10,091	-0,050	-0,028
-317,256	50,558	-0,050	-0,034
-316,241	134,252	-0,042	-0,039
-315,226	-108,743	0,118	-0,018
-314,212	2,958	-0,076	0,040
-313,197	130,795	-0,028	0,026
-312,183	1,213	-0,032	0,017
-311,168	179,277	0,115	-0,123
-310,153	84,487	-0,032	0,026
-309,139	-141,157	0,092	-0,007
-308,124	116,606	0,077	-0,069
-307,110	-200,000	-0,041	0,177
-306,095	800,000	-0,011	0,023
-305,080	-17,755	0,122	-0,056
-304,066	-73,797	0,093	0,024
-303,051	-200,000	-0,002	-0,016
-302,037	105,278	-0,044	0,038
-301,022	66,489	-0,020	0,015
-300,008	-200,000	0,034	0,205
-298,993	-77,388	-0,073	-0,018
-297,978	-56,242	0,029	-0,009
-296,964	-99,600	-0,053	-0,010
-295,949	800,000	-0,015	-0,034
-294,935	0,333	-0,056	-0,029
-293,920	-6,478	0,088	-0,044
-292,905	800,000	-0,086	0,198
-291,891	115,122	0,026	0,023
-290,876	104,200	0,055	-0,047
-289,862	-44,074	-0,121	-0,044
-288,847	-200,000	0,004	0,038
-287,832	-200,000	-0,001	0,016
-286,818	-119,997	-0,152	-0,019
-285,803	517,070	0,042	0,072
-284,789	800,000	0,068	0,179
-283,774	-172,027	-0,077	0,002
-282,759	-175,364	0,093	-0,002
-281,745	336,281	-0,003	0,005
-280,730	703,993	0,028	0,054
-279,716	-7,004	-0,062	-0,031
-278,701	800,000	0,014	-0,034
-277,686	48,361	0,163	0,111
-276,672	-200,000	-0,016	0,078
-275,657	272,685	-0,002	-0,003
-274,643	240,942	-0,018	0,022
-273,628	-200,000	-0,031	-0,137
-272,613	-200,000	-0,003	-0,035
-271,599	-176,444	0,090	-0,002
-270,584	-2,520	-0,071	0,036
-269,570	100,338	0,024	0,021
-268,555	3,492	-0,089	-0,047
-267,540	231,596	0,044	0,052
-266,526	-97,412	-0,066	0,012
-265,511	-200,000	0,010	-0,111
-264,497	-200,000	0,002	-0,103
-263,482	263,820	-0,027	-0,034
-262,467	-128,135	-0,097	-0,010
-261,453	-80,977	0,078	0,019
-260,438	221,470	-0,094	-0,110
-259,424	800,000	0,051	-0,143
-258,409	-200,000	-0,020	-0,113
-257,395	-78,937	0,062	-0,015
-256,380	-126,016	-0,081	0,009
-255,365	109,178	0,161	0,141
-254,351	-118,495	-0,079	0,010
-253,336	31,194	0,032	0,020
-252,322	201,741	0,120	-0,135
-251,307	296,608	-0,093	-0,125
-250,292	413,460	-0,116	-0,180
-249,278	-200,000	-0,012	-0,055
-248,263	-133,602	0,068	0,006
-247,249	121,590	0,098	0,089
-246,234	-8,419	-0,053	0,026
-245,219	58,649	-0,055	-0,039
-244,205	708,909	-0,034	0,067
-243,190	-38,785	0,012	-0,004
-242,176	-200,000	-0,003	-0,037
-241,161	-97,983	0,026	-0,005
-240,146	-200,000	-0,002	-0,023
-239,132	800,000	0,028	-0,074
-238,117	800,000	0,026	-0,052
-237,103	800,000	0,031	-0,078
-236,088	-200,000	0,005	-0,080
-235,073	745,122	0,051	0,100
-234,059	-4,700	-0,063	-0,032
-233,044	-200,000	0,003	0,023
-232,030	757,085	-0,059	0,117
-231,015	-200,000	0,014	-0,061
-230,000	-82,891	-0,162	-0,038
-228,986	-134,961	-0,126	0,011
-227,971	-200,000	0,024	0,094
-226,957	396,031	-0,028	0,043
-225,942	-200,000	-0,002	0,010
-224,927	39,525	-0,053	-0,034
-223,913	-200,000	0,007	0,074
-222,898	-115,108	-0,082	-0,011
-221,884	22,983	-0,091	-0,054
-220,869	-200,000	-0,011	-0,097
-219,855	-111,522	0,057	-0,008
-218,840	800,000	0,033	0,095
-217,825	-200,000	-0,016	0,065
-216,811	-9,279	-0,144	0,070
-215,796	725,110	0,062	0,121
-214,782	-55,821	-0,180	-0,058
-213,767	800,000	0,036	0,073
-212,752	78,710	-0,026	-0,020
-211,738	-121,697	-0,182	-0,022
-210,723	115,182	0,063	0,056
-209,709	23,420	-0,176	-0,105
-208,694	-200,000	0,035	-0,137
-207,679	800,000	-0,038	-0,089
-206,665	-89,301	0,205	-0,044
-205,650	141,249	0,087	-0,084
-204,636	-27,856	0,090	0,038
-203,621	-45,197	0,066	0,024
-202,606	-109,152	-0,030	0,005
-201,592	35,421	0,128	-0,082
-200,577	-130,545	-0,094	-0,009
-199,563	-44,277	-0,165	0,060
-198,548	800,000	0,044	0,112
-197,533	-6,947	0,114	-0,056
-196,519	800,000	-0,055	0,164
-195,504	-200,000	0,028	0,225
-194,490	6,651	-0,108	-0,059
-193,475	800,000	-0,015	-0,037
-192,460	191,276	-0,101	0,111
-191,446	95,793	0,155	0,129
-190,431	-69,983	0,113	-0,031
-189,417	-136,320	0,070	-0,006
-188,402	443,553	0,046	-0,074
-187,387	-66,054	-0,025	0,007
-186,373	-200,000	-0,009	-0,088
-185,358	800,000	-0,015	-0,042
-184,344	-30,932	0,085	0,035
-183,329	-200,000	0,012	0,118
-182,315	-14,122	0,032	0,015
-181,300	-62,328	0,036	0,011
-180,285	305,457	0,046	-0,063
-179,271	-79,559	-0,145	0,035
-178,256	-64,888	0,031	-0,009
-177,242	-200,000	-0,016	0,100
-176,227	-200,000	0,021	0,080
-175,212	-124,720	-0,044	-0,005
-174,198	-200,000	0,025	-0,134
-173,183	24,691	-0,075	0,045
-172,169	-90,357	-0,105	-0,022
-171,154	-112,179	-0,137	0,020
-170,139	209,358	-0,064	0,073
-169,125	-194,503	-0,020	0,000
-168,110	586,363	-0,045	-0,081
-167,096	200,327	0,068	0,077
-166,081	800,000	0,031	0,066
-165,066	-200,000	-0,006	-0,121
-164,052	226,712	-0,078	-0,093
-163,037	624,785	0,054	0,100
-162,023	43,089	0,011	0,008
-161,008	-92,923	0,146	0,029
-159,993	120,232	-0,034	0,031
-158,979	-40,841	-0,066	-0,025
-157,964	-200,000	-0,003	-0,081
-156,950	-200,000	-0,001	0,036
-155,935	56,303	0,022	0,015
-154,920	-121,416	0,179	-0,021
-153,906	-200,000	-0,011	0,083
-152,891	64,581	0,078	0,057
-151,877	-67,191	0,132	-0,038
-150,862	-167,623	-0,087	-0,002
-149,847	719,854	-0,059	0,114
-148,833	6,751	0,070	-0,038
-147,818	-200,000	0,033	0,132
-146,804	800,000	0,021	0,064
-145,789	-200,000	0,048	0,158
-144,775	800,000	-0,058	0,158
-143,760	233,134	-0,110	-0,132
-142,745	-200,000	-0,007	-0,025
-141,731	-200,000	0,008	-0,116
-140,716	800,000	0,050	0,127
-139,702	-200,000	-0,017	0,142
-138,687	-37,903	0,092	0,035
-137,672	56,691	-0,168	0,118
-136,658	13,367	-0,047	-0,026
-135,643	-200,000	-0,001	0,025
-134,629	800,000	-0,006	-0,015
-133,614	-200,000	0,003	0,084
-132,599	379,171	0,056	0,084
-131,585	226,777	0,029	0,035
-130,570	-200,000	-0,004	-0,063
-129,556	45,239	-0,062	0,042
-128,541	52,473	-0,101	-0,070
-127,526	800,000	0,056	0,165
-126,512	730,247	-0,004	-0,007
-125,497	800,000	-0,013	0,031
-124,483	-61,712	-0,062	-0,019
-123,468	-137,005	-0,146	0,012
-122,453	-200,000	0,005	0,056
-121,439	29,592	-0,149	0,092
-120,424	55,129	-0,069	-0,049
-119,410	800,000	0,011	0,028
