DTS Sentinel unit serial number:	SN410029Multiplexer serial number:	ORYXHardware model number:	OX2-SRSoftware version number:	ORYX F/W v4,00 Oryx Data Collector v3.7.2.0data status	okinstallation	B4 Nyhavnadifferential loss correction	single-endedforward channel	channel 2reverse channel	N/Adate	2023/12/16time	08:35:13forward acquisition time	300,00reverse acquisition time	0,00gamma	499,1914k internal	0,3127k external	0,3127temperature offset calibration	1,0000default loss term (dB/km)	0,3820temperature slope calibration	1,0000multiplexer offset coefficient	1,0000multiplexer slope coefficient	1,0000fibre end	0,00T internal ref (°C)	22,62T ext. ref 1 (°C)	8,53T ext. ref 2 (°C)	8,68length (m)	temperature (°C)	Stokes	anti-Stokes-744,400	800,000	-0,014	0,042
-743,385	484,268	-0,072	0,123
-742,371	-36,674	0,056	0,022
-741,356	-29,106	-0,154	0,065
-740,342	-200,000	-0,005	-0,057
-739,327	-134,645	-0,218	0,019
-738,312	-200,000	-0,007	-0,030
-737,298	60,608	-0,220	0,162
-736,283	-87,696	0,120	-0,027
-735,269	29,876	-0,159	-0,101
-734,254	268,022	-0,027	0,035
-733,239	-92,529	-0,408	-0,085
-732,225	-54,699	0,152	0,051
-731,210	-200,000	0,000	0,040
-730,196	154,499	-0,032	-0,032
-729,181	-65,290	-0,147	0,044
-728,167	281,745	-0,035	-0,046
-727,152	-131,527	-0,148	0,014
-726,137	248,446	-0,142	-0,180
-725,123	80,620	-0,058	-0,047
-724,108	800,000	-0,046	-0,147
-723,094	-200,000	0,015	-0,086
-722,079	639,374	-0,082	-0,156
-721,064	69,603	0,046	-0,035
-720,050	713,303	0,024	0,048
-719,035	19,076	-0,138	0,082
-718,021	-107,980	-0,075	-0,012
-717,006	627,267	0,064	-0,120
-715,991	-103,083	-0,159	-0,028
-714,977	270,300	-0,073	-0,095
-713,962	800,000	-0,063	-0,168
-712,948	-200,000	-0,034	0,158
-711,933	-79,761	-0,112	0,028
-710,918	207,172	0,058	-0,067
-709,904	800,000	0,009	0,021
-708,889	251,518	-0,126	-0,160
-707,875	225,639	0,044	0,053
-706,860	-200,000	0,007	0,024
-705,845	153,005	-0,084	0,085
-704,831	800,000	-0,032	0,078
-703,816	554,957	0,059	0,105
-702,802	-82,917	0,061	0,014
-701,787	-16,114	-0,115	-0,054
-700,772	108,280	-0,106	0,094
-699,758	28,969	-0,024	-0,015
-698,743	-112,312	0,098	0,014
-697,729	800,000	-0,041	-0,097
-696,714	-200,000	-0,009	-0,034
-695,699	56,938	-0,120	0,087
-694,685	738,988	0,018	0,036
-693,670	299,946	0,044	-0,061
-692,656	-145,088	0,186	-0,012
-691,641	268,140	0,071	-0,092
-690,627	-200,000	-0,007	0,155
-689,612	-59,790	-0,088	-0,028
-688,597	-200,000	0,022	-0,169
-687,583	800,000	0,043	-0,121
-686,568	157,870	0,015	-0,016
-685,554	-22,389	-0,076	0,034
-684,539	251,639	-0,059	0,074
-683,524	800,000	0,044	0,109
-682,510	338,921	0,081	0,118
-681,495	800,000	-0,051	0,149
-680,481	-46,290	-0,055	0,020
-679,466	-170,653	-0,139	0,003
-678,451	-200,000	-0,000	-0,044
-677,437	-200,000	-0,003	0,011
-676,422	-59,792	0,116	0,037
-675,408	183,130	0,084	-0,092
-674,393	-144,927	-0,066	-0,004
-673,378	133,107	-0,026	0,025
-672,364	800,000	0,073	-0,153
-671,349	-55,390	-0,053	-0,017
-670,335	-170,747	-0,083	0,002
-669,320	-200,000	-0,007	-0,060
-668,305	-156,309	0,212	-0,010
-667,291	-161,617	-0,080	-0,003
-666,276	800,000	0,040	-0,113
-665,262	-94,779	-0,048	-0,010
-664,247	81,353	-0,085	-0,068
-663,232	-87,415	0,027	0,006
-662,218	-200,000	0,009	-0,043
-661,203	-78,564	0,150	0,038
-660,189	-51,335	-0,059	-0,020
-659,174	-80,028	-0,114	0,028
-658,159	800,000	-0,059	-0,125
-657,145	-200,000	0,004	0,094
-656,130	800,000	0,015	-0,044
-655,116	-200,000	0,012	0,055
-654,101	266,285	-0,055	0,071
-653,086	-200,000	0,024	0,132
-652,072	118,591	0,059	-0,054
-651,057	-31,914	-0,094	0,039
-650,043	-33,676	-0,055	0,022
-649,028	194,945	0,095	-0,107
-648,014	-110,060	0,081	-0,012
-646,999	148,868	0,021	-0,021
-645,984	422,121	-0,075	0,120
-644,970	-0,767	0,025	-0,013
-643,955	-71,132	-0,039	-0,011
-642,941	800,000	0,041	-0,108
-641,926	-87,571	0,097	0,022
-640,911	-56,807	0,063	-0,020
-639,897	174,373	-0,077	0,082
-638,882	-200,000	0,003	0,082
-637,868	-200,000	-0,011	0,066
-636,853	17,777	0,111	-0,065
-635,838	-59,679	-0,120	-0,038
-634,824	-200,000	-0,010	-0,096
-633,809	-63,221	0,104	0,032
-632,795	127,154	0,023	0,021
-631,780	-114,376	-0,104	-0,015
-630,765	62,314	-0,182	0,135
-629,751	94,607	-0,070	0,059
-628,736	800,000	-0,047	-0,134
-627,722	-200,000	0,019	0,083
-626,707	201,600	-0,052	0,059
-625,692	-103,819	0,075	-0,013
-624,678	414,321	-0,140	-0,221
-623,663	-200,000	0,004	0,072
-622,649	-174,235	-0,054	-0,001
-621,634	-200,000	-0,053	-0,202
-620,619	-140,033	-0,152	0,012
-619,605	-2,031	0,124	0,064
-618,590	800,000	-0,016	-0,039
-617,576	-200,000	0,015	-0,156
-616,561	-36,630	-0,030	-0,012
-615,546	-200,000	0,000	-0,072
-614,532	800,000	-0,066	-0,178
-613,517	388,613	0,008	0,012
-612,503	-154,445	0,123	-0,006
-611,488	36,281	0,033	-0,021
-610,474	-154,834	0,040	-0,002
-609,459	-20,769	-0,035	-0,016
-608,444	230,788	-0,130	-0,158
-607,430	-200,000	0,024	-0,101
-606,415	-200,000	-0,003	0,023
-605,401	-71,712	0,026	-0,007
-604,386	-200,000	-0,007	0,095
-603,371	306,233	-0,044	0,061
-602,357	-194,585	-0,064	0,000
-601,342	-200,000	0,026	-0,136
-600,328	-80,111	0,068	-0,017
-599,313	647,536	-0,062	-0,119
-598,298	71,944	-0,073	0,056
-597,284	75,512	-0,072	0,056
-596,269	800,000	0,021	0,045
-595,255	-200,000	-0,009	0,075
-594,240	161,024	-0,063	-0,066
-593,225	495,744	-0,036	-0,062
-592,211	427,199	-0,136	-0,217
-591,196	28,785	0,055	0,034
-590,182	-73,056	0,165	0,044
-589,167	226,047	-0,018	-0,022
-588,152	-200,000	-0,001	0,020
-587,138	34,649	-0,098	-0,063
-586,123	-200,000	0,003	0,070
-585,109	-200,000	-0,002	0,013
-584,094	-4,925	-0,073	0,037
-583,079	-72,067	-0,113	-0,031
-582,065	-200,000	0,023	0,085
-581,050	267,313	0,058	0,075
-580,036	4,667	0,097	0,053
-579,021	198,441	-0,052	0,059
-578,006	46,889	-0,127	-0,087
-576,992	219,120	-0,051	-0,060
-575,977	-90,813	0,189	0,040
-574,963	-200,000	-0,027	-0,175
-573,948	11,345	-0,123	-0,069
-572,934	-31,636	0,042	0,017
-571,919	-87,295	-0,090	-0,020
-570,904	800,000	-0,032	-0,083
-569,890	-200,000	0,002	-0,074
-568,875	677,953	0,040	-0,076
-567,861	113,048	-0,094	0,085
-566,846	800,000	-0,054	0,121
-565,831	-85,905	0,103	-0,023
-564,817	307,942	0,042	0,058
-563,802	718,928	-0,059	-0,116
-562,788	-114,735	0,142	0,020
-561,773	-71,443	0,066	0,018
-560,758	222,759	0,090	0,108
-559,744	388,867	0,059	-0,090
-558,729	-200,000	0,007	-0,155
-557,715	205,686	-0,033	0,038
-556,700	-107,033	-0,085	-0,014
-555,685	-194,886	0,027	0,000
-554,671	-200,000	0,003	0,026
-553,656	-200,000	0,000	0,104
-552,642	92,816	0,112	-0,093
-551,627	717,929	-0,006	0,013
-550,612	42,501	-0,073	-0,049
-549,598	134,063	-0,082	-0,079
-548,583	-200,000	-0,020	-0,081
-547,569	-200,000	-0,012	0,110
-546,554	-38,969	0,118	0,046
-545,539	75,488	-0,056	-0,044
-544,525	-200,000	0,014	0,106
-543,510	-78,860	-0,056	0,014
-542,496	800,000	0,023	-0,070
-541,481	380,016	-0,076	-0,115
-540,466	18,389	-0,103	0,061
-539,452	286,353	0,030	0,041
-538,437	800,000	-0,040	0,086
-537,423	-120,217	-0,073	0,009
-536,408	-200,000	0,000	0,004
-535,393	-200,000	0,040	-0,161
-534,379	-112,416	-0,067	0,010
-533,364	-31,614	0,131	-0,054
-532,350	800,000	-0,020	0,054
-531,335	31,050	0,044	-0,028
-530,321	34,162	-0,087	0,056
-529,306	-73,926	-0,024	-0,006
-528,291	41,882	-0,084	0,056
-527,277	-200,000	0,003	-0,081
-526,262	113,657	-0,033	0,029
-525,248	800,000	-0,056	0,124
-524,233	265,516	-0,035	0,045
-523,218	791,637	-0,051	0,103
-522,204	-115,985	0,110	-0,015
-521,189	-20,307	-0,050	-0,023
-520,175	-60,270	0,019	0,006
-519,160	229,648	-0,062	-0,075
-518,145	549,213	0,104	0,185
-517,131	-200,000	0,018	0,084
-516,116	-91,724	0,093	0,019
-515,102	77,673	0,040	0,032
-514,087	313,520	0,083	0,115
-513,072	2,748	-0,045	-0,024
-512,058	67,352	-0,078	0,059
-511,043	-200,000	-0,011	-0,041
-510,029	363,338	0,068	-0,101
-509,014	23,748	0,049	0,030
-507,999	155,321	-0,075	-0,077
-506,985	-200,000	0,002	-0,023
-505,970	115,829	0,071	0,064
-504,956	-200,000	0,003	-0,041
-503,941	-200,000	-0,021	0,130
-502,926	800,000	-0,028	-0,079
-501,912	22,520	0,066	0,040
-500,897	-125,149	0,058	0,007
-499,883	537,052	0,045	0,079
-498,868	-200,000	-0,001	-0,042
-497,853	263,918	-0,085	0,110
-496,839	230,278	0,045	0,055
-495,824	-114,113	-0,077	-0,011
-494,810	-116,173	0,153	0,021
-493,795	621,262	0,031	0,058
-492,781	-116,974	0,036	-0,005
-491,766	111,327	-0,084	-0,075
-490,751	800,000	0,021	-0,060
-489,737	-9,209	-0,050	-0,024
-488,722	137,600	0,039	0,038
-487,708	-200,000	-0,020	0,079
-486,693	800,000	0,069	0,167
-485,678	-81,769	-0,160	0,038
-484,664	-200,000	-0,058	-0,219
-483,649	35,157	0,086	-0,055
-482,635	-62,202	0,097	0,030
-481,620	307,358	0,044	-0,061
-480,605	75,735	-0,014	-0,011
-479,591	-200,000	0,020	-0,142
-478,576	-200,000	-0,016	-0,080
-477,562	-200,000	0,001	-0,093
-476,547	286,670	-0,005	0,007
-475,532	-200,000	0,023	-0,135
-474,518	37,350	0,022	-0,014
-473,503	-97,546	0,179	-0,034
-472,489	159,647	-0,055	0,056
-471,474	800,000	-0,070	0,195
-470,459	-200,000	0,004	-0,140
-469,445	-200,000	-0,037	-0,164
-468,430	50,039	-0,086	0,060
-467,416	-164,174	0,154	-0,005
-466,401	32,981	0,090	0,057
-465,386	74,902	-0,058	-0,045
-464,372	534,067	0,044	0,077
-463,357	-200,000	-0,005	0,117
-462,343	82,336	-0,077	-0,062
-461,328	800,000	-0,031	-0,081
-460,313	119,633	-0,043	0,039
-459,299	-10,901	0,055	0,026
-458,284	81,223	0,136	0,108
-457,270	-24,279	-0,068	-0,030
-456,255	-104,437	-0,114	0,019
-455,241	-87,337	0,082	0,018
-454,226	800,000	-0,081	-0,178
-453,211	-200,000	0,023	-0,204
-452,197	800,000	-0,041	-0,103
-451,182	-39,727	0,064	-0,024
-450,168	-59,704	0,108	0,034
-449,153	-200,000	0,002	-0,037
-448,138	-200,000	-0,010	-0,044
-447,124	180,340	-0,115	-0,124
-446,109	-200,000	0,011	-0,145
-445,095	-200,000	0,015	-0,076
-444,080	800,000	0,061	0,172
-443,065	-52,360	-0,036	0,012
-442,051	59,509	0,163	-0,118
-441,036	192,989	0,053	-0,059
-440,022	-200,000	-0,013	-0,151
-439,007	-200,000	-0,021	0,071
-437,992	-22,786	0,074	-0,033
-436,978	-105,480	0,151	-0,025
-435,963	599,754	0,020	0,037
-434,949	-158,381	0,025	-0,001
-433,934	429,894	-0,039	0,062
-432,919	-164,174	0,096	-0,003
-431,905	60,070	0,145	-0,105
-430,890	314,536	-0,053	-0,074
-429,876	800,000	0,051	-0,119
-428,861	11,223	-0,090	-0,050
-427,846	-111,205	-0,066	0,010
-426,832	-200,000	0,029	-0,128
-425,817	-200,000	0,029	-0,114
-424,803	-16,591	-0,072	-0,033
-423,788	-125,682	-0,111	-0,012
-422,773	-200,000	0,019	-0,132
-421,759	800,000	0,039	0,100
-420,744	-69,249	0,161	0,045
-419,730	212,016	-0,106	-0,123
-418,715	-60,454	0,057	-0,018
-417,701	-21,169	-0,017	0,007
-416,686	-84,180	0,047	-0,011
-415,671	800,000	-0,023	0,052
-414,657	-105,858	0,082	0,013
-413,642	800,000	0,045	0,119
-412,628	-16,531	-0,104	0,048
-411,613	-200,000	-0,002	0,052
-410,598	-183,501	-0,099	0,001
-409,584	800,000	0,020	-0,061
-408,569	-200,000	-0,004	-0,091
-407,555	-181,576	0,026	0,000
-406,540	8,214	0,045	-0,025
-405,525	1,156	0,053	-0,028
-404,511	-133,585	-0,066	-0,006
-403,496	-80,588	-0,185	-0,045
-402,482	470,457	-0,012	0,020
-401,467	-154,391	-0,028	-0,001
-400,452	-200,000	0,000	-0,053
-399,438	-57,206	-0,091	-0,029
-398,423	756,090	-0,028	0,056
-397,409	-90,218	-0,044	0,009
-396,394	171,464	0,057	-0,061
-395,379	786,902	-0,032	0,065
-394,365	-200,000	0,003	-0,011
-393,350	-200,000	-0,003	0,107
-392,336	81,590	0,069	0,054
-391,321	18,639	-0,156	0,092
-390,306	-200,000	0,000	-0,066
-389,292	37,119	-0,027	-0,017
-388,277	800,000	-0,023	0,073
-387,263	-43,006	0,033	-0,012
-386,248	-76,283	0,033	-0,008
-385,233	56,389	0,032	-0,023
-384,219	610,383	0,008	-0,014
-383,204	373,147	-0,060	0,090
-382,190	-200,000	-0,007	-0,057
-381,175	800,000	-0,019	0,046
-380,160	-119,926	0,066	0,008
-379,146	-142,858	0,187	0,013
-378,131	-200,000	0,033	0,151
-377,117	9,306	-0,076	-0,042
-376,102	35,415	-0,057	0,037
-375,088	19,454	-0,024	0,014
-374,073	-37,923	-0,071	0,028
-373,058	-200,000	0,008	0,142
-372,044	-200,000	-0,015	0,141
-371,029	-81,225	0,119	0,029
-370,015	-200,000	0,008	0,048
-369,000	171,700	-0,043	-0,045
-367,985	-200,000	-0,014	-0,075
-366,971	-4,255	-0,110	-0,055
-365,956	312,950	-0,038	-0,053
-364,942	-103,483	0,076	-0,013
-363,927	-96,148	-0,155	-0,030
-362,912	-200,000	0,001	0,094
-361,898	-200,000	-0,011	0,070
-360,883	-200,000	-0,021	-0,093
-359,869	158,111	0,057	-0,058
-358,854	-200,000	-0,009	0,041
-357,839	337,583	-0,033	-0,047
-356,825	-185,450	0,152	0,002
-355,810	-200,000	0,038	0,128
-354,796	-75,622	-0,196	-0,051
-353,781	394,346	0,126	0,193
-352,766	2,845	-0,061	-0,032
-351,752	-200,000	0,010	-0,107
-350,737	264,875	0,066	0,084
-349,723	-106,882	0,157	-0,025
-348,708	800,000	-0,050	0,139
-347,693	800,000	-0,033	0,082
-346,679	-11,782	0,105	0,050
-345,664	-97,719	-0,096	0,018
-344,650	-4,925	-0,046	0,023
-343,635	-53,394	0,130	0,043
-342,620	-200,000	0,010	0,118
-341,606	291,961	0,021	0,028
-340,591	-83,998	-0,152	0,035
-339,577	-41,993	0,086	-0,032
-338,562	37,667	-0,046	-0,030
-337,548	-200,000	-0,004	-0,038
-336,533	-200,000	0,028	0,095
-335,518	800,000	0,025	-0,062
-334,504	-200,000	0,019	-0,068
-333,489	45,863	0,118	-0,080
-332,475	400,890	-0,056	-0,087
-331,460	15,408	-0,048	-0,027
-330,445	-111,958	0,107	0,016
-329,431	-68,083	0,169	-0,048
-328,416	230,320	-0,044	0,053
-327,402	-200,000	0,002	0,018
-326,387	-171,106	0,109	0,003
-325,372	800,000	0,012	-0,034
-324,358	800,000	-0,008	-0,019
-323,343	365,416	-0,024	0,036
-322,329	-200,000	0,009	0,177
-321,314	-24,092	0,034	-0,015
-320,299	162,521	0,040	0,041
-319,285	-200,000	-0,007	0,147
-318,270	-200,000	-0,003	0,044
-317,256	167,942	0,019	-0,019
-316,241	-87,022	-0,226	0,050
-315,226	-10,743	-0,096	-0,046
-314,212	31,611	0,089	0,056
-313,197	-18,156	0,106	-0,049
-312,183	-52,831	0,034	-0,011
-311,168	584,716	-0,033	0,059
-310,153	-69,920	0,091	-0,025
-309,139	-138,938	-0,149	0,012
-308,124	404,679	0,011	0,018
-307,110	-43,782	0,057	0,021
-306,095	-17,996	0,126	0,058
-305,080	-200,000	-0,009	-0,070
-304,066	-72,035	-0,071	0,019
-303,051	-200,000	0,004	-0,031
-302,037	800,000	0,017	-0,049
-301,022	800,000	0,002	0,005
-300,008	21,357	0,215	-0,128
-298,993	-95,663	-0,023	-0,004
-297,978	110,150	0,023	0,020
-296,964	-200,000	-0,027	-0,089
-295,949	0,039	-0,079	0,041
-294,935	-55,099	-0,057	-0,019
-293,920	325,226	0,050	-0,069
-292,905	18,386	0,029	-0,017
-291,891	800,000	-0,034	0,084
-290,876	154,749	-0,020	-0,020
-289,862	-78,646	-0,144	-0,036
-288,847	46,072	-0,092	0,062
-287,832	-140,323	0,102	0,008
-286,818	278,942	0,053	-0,070
-285,803	800,000	0,040	0,084
-284,789	-200,000	0,002	0,127
-283,774	598,971	-0,009	-0,016
-282,759	158,975	0,051	0,052
-281,745	386,186	-0,053	0,080
-280,730	680,272	0,022	-0,043
-279,716	303,264	0,033	0,045
-278,701	127,597	0,062	0,058
-277,686	314,350	0,054	0,074
-276,672	710,685	0,075	0,145
-275,657	-200,000	-0,007	0,086
-274,643	216,427	0,062	-0,072
-273,628	800,000	-0,006	0,015
-272,613	30,147	0,033	-0,021
-271,599	800,000	-0,049	-0,104
-270,584	-200,000	-0,001	0,138
-269,570	-200,000	-0,006	0,118
-268,555	-200,000	-0,021	0,121
-267,540	63,704	-0,034	0,025
-266,526	-200,000	0,027	-0,181
-265,511	135,234	-0,214	0,203
-264,497	-49,686	0,031	0,011
-263,482	-15,466	-0,073	0,034
-262,467	-200,000	-0,026	0,166
-261,453	380,322	-0,056	0,084
-260,438	123,027	0,082	-0,075
-259,424	29,492	-0,045	-0,028
-258,409	-144,296	-0,054	0,004
-257,395	753,789	-0,036	-0,071
-256,380	-25,492	0,063	-0,027
-255,365	-88,257	0,099	0,022
-254,351	-178,742	-0,097	-0,002
-253,336	490,455	-0,044	-0,073
-252,322	-3,576	0,053	-0,027
-251,307	534,872	0,070	-0,121
-250,292	328,392	0,071	0,100
-249,278	-74,427	0,018	0,005
-248,263	-200,000	0,013	0,168
-247,249	342,807	-0,009	-0,013
-246,234	800,000	-0,031	0,097
-245,219	-200,000	0,004	-0,025
-244,205	116,927	-0,106	-0,095
-243,190	91,497	0,010	0,008
-242,176	-142,555	-0,057	0,004
-241,161	-86,122	0,078	0,017
-240,146	-200,000	-0,013	0,069
-239,132	-156,796	-0,035	0,002
-238,117	171,138	0,034	0,035
-237,103	800,000	-0,022	-0,065
-236,088	54,554	-0,148	-0,104
-235,073	457,411	-0,037	0,061
-234,059	-200,000	-0,037	0,151
-233,044	-200,000	0,002	-0,177
-232,030	210,224	-0,087	-0,099
-231,015	70,051	-0,064	0,048
-230,000	295,415	-0,100	-0,134
-228,986	-200,000	-0,021	-0,086
-227,971	-122,592	0,104	0,012
-226,957	-12,175	0,028	-0,013
-225,942	800,000	0,027	0,065
-224,927	-200,000	0,001	-0,063
-223,913	52,309	-0,111	0,077
-222,898	-60,540	0,085	-0,026
-221,884	-200,000	0,026	-0,096
-220,869	260,252	0,075	-0,095
-219,855	87,050	-0,019	-0,016
-218,840	-196,820	0,148	0,001
-217,825	-48,739	-0,059	-0,021
-216,811	-200,000	-0,013	0,067
-215,796	183,029	0,008	0,009
-214,782	-40,470	0,056	0,021
-213,767	-200,000	-0,007	-0,076
-212,752	59,422	0,053	-0,038
-211,738	-200,000	-0,004	0,084
-210,723	800,000	0,065	0,150
-209,709	800,000	0,022	0,054
-208,694	-85,614	0,098	-0,022
-207,679	-17,072	-0,081	-0,037
-206,665	-200,000	0,036	0,185
-205,650	166,508	0,089	0,092
-204,636	8,015	0,087	-0,048
-203,621	-200,000	0,001	-0,069
-202,606	-38,749	-0,030	-0,011
-201,592	-44,025	-0,030	-0,011
-200,577	-177,362	-0,169	0,003
-199,563	426,599	0,093	-0,147
-198,548	35,969	-0,046	0,029
-197,533	-200,000	0,014	0,072
-196,519	-67,293	0,092	0,026
-195,504	1,838	0,127	-0,067
-194,490	800,000	0,046	-0,114
-193,475	-34,361	-0,074	-0,029
-192,460	367,130	-0,029	0,043
-191,446	-90,291	-0,134	0,028
-190,431	800,000	0,039	0,106
-189,417	-200,000	-0,060	0,212
-188,402	91,513	-0,037	0,030
-187,387	86,927	-0,082	0,066
-186,373	-200,000	-0,010	0,098
-185,358	-124,386	0,083	-0,009
-184,344	38,444	-0,043	-0,028
-183,329	185,474	0,072	0,078
-182,315	-200,000	-0,008	0,029
-181,300	132,403	-0,069	-0,065
-180,285	800,000	0,067	-0,173
-179,271	236,132	-0,079	-0,095
-178,256	-133,348	0,144	0,013
-177,242	-108,070	0,030	-0,005
-176,227	42,437	0,055	0,037
-175,212	121,651	0,036	-0,033
-174,198	183,852	0,115	0,124
-173,183	-146,005	-0,061	-0,004
-172,169	-169,555	-0,072	0,002
-171,154	-92,551	0,052	0,011
-170,139	172,862	0,023	0,024
-169,125	-200,000	0,001	0,198
-168,110	267,944	0,076	0,098
-167,096	800,000	-0,032	-0,085
-166,081	17,768	-0,054	-0,031
-165,066	-200,000	-0,043	-0,151
-164,052	-153,080	0,100	-0,005
-163,037	360,737	-0,111	0,162
-162,023	-200,000	-0,005	0,064
-161,008	-101,140	-0,062	-0,011
-159,993	-200,000	-0,016	-0,093
-158,979	83,743	-0,058	-0,046
-157,964	-140,578	-0,129	-0,010
-156,950	151,114	-0,037	0,037
-155,935	-71,935	0,093	0,025
-154,920	800,000	-0,020	-0,057
-153,906	110,341	-0,121	0,106
-152,891	-134,302	0,092	0,008
-151,877	297,370	-0,043	-0,058
-150,862	-200,000	-0,032	0,104
-149,847	168,355	-0,075	-0,078
-148,833	41,567	0,147	0,096
-147,818	800,000	0,082	0,165
-146,804	-200,000	0,013	0,053
-145,789	-200,000	-0,027	0,097
-144,775	435,009	0,064	-0,102
-143,760	64,784	-0,061	-0,045
-142,745	294,638	-0,030	-0,040
-141,731	-55,802	0,027	0,009
-140,716	164,035	-0,077	0,079
-139,702	-200,000	-0,009	-0,092
-138,687	-200,000	-0,002	0,019
-137,672	-149,191	0,116	0,007
-136,658	6,444	0,104	-0,056
-135,643	22,550	0,094	0,056
-134,629	-78,285	-0,026	0,007
-133,614	134,318	0,090	0,084
-132,599	-127,908	0,065	-0,007
-131,585	91,339	0,017	-0,014
-130,570	-103,630	0,079	-0,013
-129,556	-2,731	-0,059	-0,030
-128,541	17,354	-0,068	-0,039
-127,526	-200,000	0,012	-0,097
-126,512	-30,124	0,138	-0,057
-125,497	800,000	-0,011	-0,022
-124,483	800,000	-0,053	0,113
-123,468	-200,000	0,009	0,131
-122,453	-200,000	-0,009	0,036
-121,439	7,582	-0,137	0,074
-120,424	800,000	0,036	0,077
-119,410	800,000	0,049	0,110
