DTS Sentinel unit serial number:	SN410029Multiplexer serial number:	ORYXHardware model number:	OX2-SRSoftware version number:	ORYX F/W v4,00 Oryx Data Collector v3.7.2.0data status	okinstallation	B4 Nyhavnadifferential loss correction	single-endedforward channel	channel 2reverse channel	N/Adate	2023/12/15time	17:35:13forward acquisition time	300,00reverse acquisition time	0,00gamma	499,1914k internal	0,3141k external	0,3141temperature offset calibration	1,0000default loss term (dB/km)	0,3820temperature slope calibration	1,0000multiplexer offset coefficient	1,0000multiplexer slope coefficient	1,0000fibre end	0,00T internal ref (°C)	18,44T ext. ref 1 (°C)	4,20T ext. ref 2 (°C)	4,29length (m)	temperature (°C)	Stokes	anti-Stokes-744,400	-200,000	-0,001	-0,098
-743,385	-2,511	-0,355	0,184
-742,371	800,000	0,033	0,069
-741,356	37,377	-0,135	0,089
-740,342	-200,000	0,037	0,184
-739,327	-113,860	-0,309	0,044
-738,312	-23,858	-0,107	0,047
-737,298	-7,384	-0,269	0,135
-736,283	800,000	-0,027	-0,060
-735,269	-63,784	-0,184	-0,055
-734,254	-148,523	0,266	-0,016
-733,239	-75,211	-0,515	-0,135
-732,225	160,940	0,075	0,078
-731,210	-71,024	-0,101	0,028
-730,196	-200,000	-0,028	-0,194
-729,181	-61,902	-0,150	-0,046
-728,167	800,000	0,027	-0,063
-727,152	1,058	-0,075	-0,040
-726,137	-76,082	-0,136	-0,035
-725,123	212,526	0,086	0,100
-724,108	101,263	-0,079	-0,068
-723,094	425,717	-0,062	-0,099
-722,079	-200,000	0,008	-0,070
-721,064	800,000	0,041	0,087
-720,050	46,452	0,043	0,030
-719,035	-200,000	0,017	0,094
-718,021	-98,177	-0,013	0,002
-717,006	800,000	-0,017	0,048
-715,991	301,974	-0,009	0,012
-714,977	93,745	0,068	0,057
-713,962	-39,791	0,059	0,023
-712,948	213,957	0,077	0,090
-711,933	136,616	-0,023	-0,022
-710,918	-25,206	0,161	0,070
-709,904	-177,783	-0,099	-0,002
-708,889	-89,734	-0,199	0,043
-707,875	349,232	-0,056	-0,082
-706,860	313,401	0,099	-0,138
-705,845	-156,827	-0,080	0,004
-704,831	-49,655	-0,029	0,010
-703,816	147,945	-0,066	0,066
-702,802	171,703	0,053	-0,057
-701,787	323,549	-0,048	0,067
-700,772	-200,000	-0,005	-0,031
-699,758	-93,374	-0,054	0,011
-698,743	35,988	-0,123	0,080
-697,729	-200,000	-0,034	-0,160
-696,714	800,000	-0,021	0,068
-695,699	100,573	-0,027	-0,023
-694,685	-77,167	-0,115	0,029
-693,670	-200,000	-0,025	0,102
-692,656	800,000	-0,046	-0,109
-691,641	259,432	-0,057	0,073
-690,627	-200,000	0,005	0,221
-689,612	65,203	-0,025	-0,019
-688,597	-99,646	-0,102	-0,019
-687,583	-89,603	0,115	0,025
-686,568	158,632	0,049	-0,051
-685,554	-200,000	-0,010	-0,078
-684,539	210,385	0,033	0,038
-683,524	128,604	0,135	-0,128
-682,510	-200,000	0,003	0,062
-681,495	271,319	0,043	-0,056
-680,481	584,389	-0,032	-0,059
-679,466	-153,526	-0,148	0,007
-678,451	-100,746	-0,120	-0,022
-677,437	747,704	0,049	-0,098
-676,422	206,707	0,086	0,100
-675,408	114,536	0,048	0,043
-674,393	800,000	-0,023	-0,051
-673,378	-200,000	0,001	0,069
-672,364	-109,100	-0,082	-0,013
-671,349	323,268	-0,020	-0,029
-670,335	4,015	-0,098	-0,053
-669,320	-120,335	-0,055	-0,007
-668,305	770,488	-0,018	0,036
-667,291	341,285	-0,039	0,057
-666,276	-45,548	-0,078	-0,028
-665,262	326,251	-0,058	-0,083
-664,247	800,000	0,006	-0,012
-663,232	-109,407	-0,084	0,013
-662,218	-24,793	0,057	0,025
-661,203	635,921	-0,060	-0,113
-660,189	-200,000	-0,002	-0,018
-659,174	62,587	-0,085	0,063
-658,159	121,348	-0,093	-0,086
-657,145	-200,000	0,005	-0,105
-656,130	-16,617	0,089	-0,042
-655,116	-200,000	-0,003	0,015
-654,101	230,343	0,083	0,100
-653,086	29,601	0,062	-0,039
-652,072	-200,000	0,001	-0,033
-651,057	240,906	0,056	-0,069
-650,043	242,147	-0,062	-0,077
-649,028	104,831	0,068	-0,059
-648,014	-200,000	0,025	0,095
-646,999	105,434	-0,077	0,067
-645,984	-87,878	0,173	-0,038
-644,970	-200,000	-0,015	0,084
-643,955	204,523	-0,070	0,080
-642,941	270,523	-0,057	-0,075
-641,926	9,376	-0,054	0,030
-640,911	83,009	0,042	0,034
-639,897	-200,000	0,010	-0,109
-638,882	-200,000	-0,012	0,053
-637,868	-112,526	0,132	0,019
-636,853	800,000	-0,059	0,162
-635,838	-4,040	-0,160	-0,081
-634,824	-200,000	0,001	0,028
-633,809	587,656	0,050	0,092
-632,795	-200,000	0,001	0,009
-631,780	-80,076	0,025	0,006
-630,765	62,497	-0,097	-0,071
-629,751	242,657	0,023	0,029
-628,736	-175,295	-0,174	-0,003
-627,722	-4,841	-0,129	0,065
-626,707	233,894	0,122	0,148
-625,692	800,000	0,021	0,043
-624,678	-119,255	-0,056	-0,007
-623,663	575,238	0,052	0,093
-622,649	44,643	-0,028	-0,019
-621,634	66,651	-0,048	0,036
-620,619	45,060	-0,245	-0,166
-619,605	-48,176	0,060	0,021
-618,590	-135,541	0,074	-0,006
-617,576	-200,000	-0,005	0,019
-616,561	332,210	0,019	-0,027
-615,546	-128,676	-0,090	-0,009
-614,532	-20,357	-0,046	0,021
-613,517	154,265	0,066	0,067
-612,503	-200,000	0,027	0,110
-611,488	-149,404	0,023	0,001
-610,474	2,173	-0,035	0,019
-609,459	800,000	-0,036	-0,110
-608,444	111,016	-0,081	0,072
-607,430	800,000	-0,023	-0,047
-606,415	94,363	0,025	0,021
-605,401	-200,000	0,007	0,035
-604,386	-76,125	-0,092	0,024
-603,371	312,993	0,008	0,011
-602,357	299,623	0,030	-0,041
-601,342	332,048	-0,030	-0,043
-600,328	482,392	0,070	-0,117
-599,313	558,215	0,018	0,033
-598,298	-200,000	0,022	0,081
-597,284	105,308	0,060	0,052
-596,269	-52,933	0,074	0,025
-595,255	-96,136	-0,083	0,016
-594,240	14,487	0,090	0,052
-593,225	310,937	-0,031	-0,043
-592,211	-200,000	-0,027	0,094
-591,196	346,980	-0,073	-0,105
-590,182	545,517	0,035	0,063
-589,167	800,000	-0,020	0,055
-588,152	-128,444	0,110	-0,011
-587,138	-81,623	0,116	-0,028
-586,123	-53,857	-0,143	0,048
-585,109	-170,145	-0,102	0,003
-584,094	74,575	-0,141	0,109
-583,079	-21,672	-0,108	0,048
-582,065	164,971	0,037	0,039
-581,050	-116,365	-0,161	0,022
-580,036	84,522	-0,105	-0,085
-579,021	-66,571	-0,067	-0,019
-578,006	-200,000	-0,009	-0,114
-576,992	169,330	-0,009	-0,009
-575,977	-3,941	0,090	0,046
-574,963	23,368	-0,009	-0,006
-573,948	-200,000	-0,033	0,148
-572,934	517,199	0,040	0,070
-571,919	341,446	-0,110	-0,159
-570,904	-77,733	-0,102	-0,026
-569,890	-87,071	0,068	0,015
-568,875	800,000	-0,029	0,086
-567,861	153,405	0,062	-0,063
-566,846	-200,000	-0,001	-0,110
-565,831	771,988	0,020	0,040
-564,817	0,630	-0,088	0,046
-563,802	-200,000	0,021	-0,100
-562,788	-200,000	0,001	-0,121
-561,773	182,854	0,021	0,023
-560,758	-110,118	-0,035	0,005
-559,744	800,000	-0,037	0,077
-558,729	64,478	0,075	0,055
-557,715	195,568	-0,122	-0,137
-556,700	-61,030	-0,039	0,012
-555,685	527,802	0,013	-0,022
-554,671	234,433	0,060	-0,073
-553,656	163,901	-0,104	0,107
-552,642	132,867	0,083	0,078
-551,627	66,976	-0,093	-0,070
-550,612	130,332	-0,084	-0,079
-549,598	-54,110	-0,093	-0,031
-548,583	-200,000	-0,028	0,096
-547,569	31,254	0,115	0,072
-546,554	800,000	-0,048	0,099
-545,539	-22,990	-0,105	-0,046
-544,525	-200,000	0,008	-0,088
-543,510	23,758	-0,037	0,022
-542,496	800,000	0,018	-0,056
-541,481	125,668	0,036	0,034
-540,466	310,921	-0,037	0,051
-539,452	-200,000	-0,004	0,099
-538,437	374,519	0,057	0,086
-537,423	13,543	-0,080	-0,045
-536,408	201,019	-0,077	0,087
-535,393	-126,347	-0,049	0,005
-534,379	523,853	0,083	-0,143
-533,364	-200,000	-0,029	-0,101
-532,350	-35,089	0,137	0,055
-531,335	-24,129	0,045	0,020
-530,321	182,623	0,070	0,076
-529,306	295,497	0,034	0,046
-528,291	34,431	-0,067	0,043
-527,277	439,132	-0,135	0,217
-526,262	105,776	0,032	0,027
-525,248	-200,000	-0,002	-0,079
-524,233	-200,000	0,013	0,060
-523,218	83,969	-0,089	0,072
-522,204	470,437	-0,042	0,070
-521,189	-181,494	0,062	0,001
-520,175	375,689	0,069	-0,103
-519,160	-23,905	-0,112	-0,049
-518,145	111,074	-0,040	0,035
-517,131	9,310	0,117	0,065
-516,116	86,891	-0,033	0,027
-515,102	88,502	-0,003	-0,002
-514,087	532,210	-0,032	-0,056
-513,072	2,244	0,079	-0,042
-512,058	-200,000	-0,015	0,140
-511,043	31,716	0,040	0,025
-510,029	49,389	0,120	0,083
-509,014	338,469	0,054	-0,077
-507,999	-139,096	0,113	0,009
-506,985	-172,021	0,079	-0,002
-505,970	-25,656	0,057	0,025
-504,956	800,000	-0,080	-0,190
-503,941	-200,000	-0,030	-0,141
-502,926	-200,000	0,001	-0,166
-501,912	-15,484	-0,039	-0,018
-500,897	-200,000	-0,006	-0,117
-499,883	-72,522	0,057	0,015
-498,868	800,000	0,008	0,018
-497,853	35,598	-0,072	0,046
-496,839	747,790	0,019	0,037
-495,824	-109,526	0,215	-0,033
-494,810	-1,171	-0,073	-0,038
-493,795	495,010	0,016	0,028
-492,781	127,711	0,037	0,035
-491,766	-135,981	-0,031	0,003
-490,751	90,592	0,107	-0,088
-489,737	21,660	-0,082	-0,049
-488,722	224,426	0,099	0,117
-487,708	-184,763	-0,075	-0,001
-486,693	37,541	-0,081	-0,052
-485,678	229,402	-0,093	0,111
-484,664	749,280	-0,081	-0,161
-483,649	-63,060	0,166	-0,050
-482,635	-48,484	-0,176	0,062
-481,620	-126,176	0,109	0,012
-480,605	-77,499	-0,024	0,006
-479,591	6,527	-0,038	0,021
-478,576	272,730	0,060	0,078
-477,562	800,000	-0,039	-0,078
-476,547	288,989	0,010	0,013
-475,532	-200,000	-0,008	-0,242
-474,518	73,901	-0,088	-0,067
-473,503	2,425	0,138	-0,073
-472,489	800,000	-0,030	0,072
-471,474	252,448	0,017	0,021
-470,459	15,151	-0,107	-0,061
-469,445	-200,000	-0,007	0,041
-468,430	-200,000	0,005	0,067
-467,416	-114,490	0,123	0,017
-466,401	-33,510	-0,088	-0,035
-465,386	-116,873	0,112	0,015
-464,372	-57,570	-0,093	0,030
-463,357	-200,000	0,050	0,197
-462,343	-200,000	0,002	0,042
-461,328	-48,400	0,099	0,035
-460,313	-39,390	-0,032	0,012
-459,299	-22,640	0,025	0,011
-458,284	38,695	-0,073	-0,048
-457,270	92,862	0,116	0,096
-456,255	800,000	0,038	0,088
-455,241	800,000	-0,064	-0,193
-454,226	-200,000	0,022	-0,070
-453,211	413,972	0,056	-0,087
-452,197	231,174	0,085	0,103
-451,182	421,778	0,094	0,149
-450,168	151,329	0,059	0,059
-449,153	800,000	-0,045	-0,097
-448,138	7,375	-0,053	0,029
-447,124	522,440	0,021	-0,036
-446,109	-186,233	0,125	0,001
-445,095	293,681	0,041	-0,055
-444,080	-154,551	0,103	-0,005
-443,065	220,003	0,044	0,051
-442,051	102,546	0,066	-0,057
-441,036	-125,217	0,086	0,010
-440,022	-200,000	0,022	-0,146
-439,007	164,252	-0,135	-0,140
-437,992	-200,000	-0,046	0,173
-436,978	-6,741	-0,101	0,050
-435,963	168,074	0,060	-0,062
-434,949	-200,000	-0,002	-0,014
-433,934	-124,224	0,026	-0,003
-432,919	-30,821	0,052	-0,021
-431,905	-200,000	-0,022	0,168
-430,890	-6,158	0,041	0,020
-429,876	-83,465	0,091	0,021
-428,861	516,557	-0,048	0,082
-427,846	-200,000	0,008	0,072
-426,832	-200,000	-0,046	-0,166
-425,817	84,892	0,011	0,009
-424,803	239,714	0,035	-0,043
-423,788	-60,656	0,098	0,030
-422,773	-200,000	-0,113	0,000
-421,759	-87,953	0,118	0,026
-420,744	-200,000	0,009	0,054
-419,730	-134,241	0,094	0,008
-418,715	-200,000	0,022	-0,094
-417,701	-10,980	0,092	0,044
-416,686	391,491	0,044	0,067
-415,671	224,888	-0,065	-0,077
-414,657	-62,160	-0,018	-0,005
-413,642	-200,000	0,033	-0,184
-412,628	-90,808	-0,078	-0,016
-411,613	225,190	-0,105	0,125
-410,598	-90,548	-0,079	-0,017
-409,584	-200,000	0,017	0,168
-408,569	-200,000	-0,000	-0,208
-407,555	-56,682	0,182	0,059
-406,540	299,432	0,054	0,073
-405,525	-200,000	-0,021	-0,182
-404,511	-200,000	-0,036	-0,155
-403,496	49,332	-0,107	-0,074
-402,482	-200,000	0,020	0,234
-401,467	778,697	0,046	-0,092
-400,452	800,000	-0,015	-0,034
-399,438	98,728	0,023	0,019
-398,423	-200,000	0,009	-0,077
-397,409	88,434	-0,081	-0,066
-396,394	-2,764	-0,058	-0,029
-395,379	-200,000	-0,007	0,037
-394,365	-165,551	0,090	-0,003
-393,350	53,591	-0,063	-0,044
-392,336	400,237	0,075	-0,115
-391,321	-135,065	-0,045	0,004
-390,306	93,016	-0,160	-0,132
-389,292	307,454	-0,079	-0,108
-388,277	217,065	0,074	-0,086
-387,263	800,000	0,031	0,097
-386,248	-200,000	0,037	-0,157
-385,233	-47,852	0,174	0,061
-384,219	-200,000	-0,023	0,184
-383,204	-137,836	-0,075	0,006
-382,190	769,270	-0,132	-0,264
-381,175	113,055	-0,020	0,017
-380,160	-200,000	-0,006	-0,149
-379,146	-200,000	-0,023	0,095
-378,131	231,985	-0,040	-0,049
-377,117	800,000	0,028	0,087
-376,102	-131,527	-0,116	-0,011
-375,088	800,000	-0,048	-0,118
-374,073	-200,000	-0,018	-0,103
-373,058	-36,815	0,070	0,027
-372,044	-200,000	0,008	-0,075
-371,029	-150,152	0,103	0,006
-370,015	163,473	0,079	-0,082
-369,000	222,343	0,020	-0,024
-367,985	-76,128	-0,084	0,022
-366,971	-43,697	0,044	-0,016
-365,956	-200,000	-0,045	-0,151
-364,942	-44,989	0,196	-0,071
-363,927	192,701	0,043	0,048
-362,912	125,858	-0,089	0,082
-361,898	-22,775	-0,045	0,020
-360,883	-116,336	-0,136	-0,018
-359,869	297,932	-0,054	0,072
-358,854	-200,000	-0,002	0,099
-357,839	-81,896	0,087	-0,021
-356,825	-160,822	0,128	-0,005
-355,810	800,000	-0,016	0,037
-354,796	-200,000	-0,034	-0,163
-353,781	-130,523	0,088	0,009
-352,766	-47,357	0,083	0,029
-351,752	-6,752	0,109	-0,054
-350,737	-29,500	0,041	0,017
-349,723	-90,275	-0,078	-0,016
-348,708	-200,000	-0,008	0,109
-347,693	-75,232	0,057	-0,015
-346,679	-151,284	-0,177	-0,009
-345,664	246,596	-0,033	-0,041
-344,650	-200,000	-0,002	-0,117
-343,635	10,315	-0,012	0,006
-342,620	570,355	0,070	-0,124
-341,606	-200,000	0,010	0,119
-340,591	-112,992	-0,057	0,008
-339,577	-200,000	0,007	0,041
-338,562	800,000	0,008	-0,017
-337,548	616,580	-0,091	-0,167
-336,533	-200,000	-0,013	0,076
-335,518	-21,564	-0,099	-0,044
-334,504	800,000	-0,004	-0,010
-333,489	675,644	-0,033	0,062
-332,475	800,000	0,055	-0,141
-331,460	26,915	-0,091	-0,056
-330,445	439,635	-0,037	-0,060
-329,431	96,868	0,254	0,212
-328,416	-55,289	-0,106	0,035
-327,402	-195,270	-0,080	-0,000
-326,387	-200,000	-0,045	-0,177
-325,372	-200,000	0,039	-0,139
-324,358	-200,000	0,026	-0,121
-323,343	-200,000	0,050	-0,193
-322,329	-200,000	-0,038	0,182
-321,314	-200,000	-0,049	0,211
-320,299	-69,078	0,087	0,024
-319,285	-170,796	0,079	-0,002
-318,270	-28,274	0,096	-0,040
-317,256	-200,000	0,006	0,188
-316,241	47,627	-0,148	-0,100
-315,226	65,280	0,013	0,010
-314,212	-64,807	0,105	0,031
-313,197	436,528	0,059	0,094
-312,183	155,613	-0,076	0,076
-311,168	-200,000	0,021	0,113
-310,153	-200,000	-0,000	0,082
-309,139	-25,719	0,010	-0,004
-308,124	-200,000	-0,009	-0,089
-307,110	-84,083	0,080	0,018
-306,095	800,000	-0,057	0,148
-305,080	800,000	-0,044	0,127
-304,066	717,025	0,029	-0,056
-303,051	11,671	0,055	0,031
-302,037	47,811	-0,128	-0,087
-301,022	-110,791	-0,131	-0,019
-300,008	-200,000	0,036	0,145
-298,993	-200,000	0,047	0,161
-297,978	-200,000	0,014	-0,057
-296,964	-40,888	-0,056	0,021
-295,949	800,000	-0,065	-0,133
-294,935	37,318	0,084	-0,054
-293,920	-162,675	-0,108	-0,004
-292,905	189,353	0,049	0,053
-291,891	-12,000	0,038	-0,018
-290,876	800,000	0,035	0,106
-289,862	-200,000	-0,002	-0,105
-288,847	-29,811	-0,072	-0,030
-287,832	-200,000	-0,007	-0,041
-286,818	15,550	0,012	-0,007
-285,803	-200,000	0,003	0,037
-284,789	-187,377	-0,012	0,000
-283,774	-7,313	0,019	0,009
-282,759	64,411	-0,092	0,068
-281,745	-200,000	0,030	-0,118
-280,730	-200,000	0,001	-0,121
-279,716	31,212	-0,066	0,041
-278,701	316,768	-0,025	-0,035
-277,686	800,000	-0,041	0,126
-276,672	50,547	0,041	0,028
-275,657	800,000	0,017	0,049
-274,643	245,925	0,024	0,029
-273,628	612,454	0,012	-0,022
-272,613	274,080	-0,061	-0,079
-271,599	93,799	0,087	-0,071
-270,584	-200,000	0,004	0,143
-269,570	-200,000	0,003	0,069
-268,555	345,535	-0,021	0,030
-267,540	663,867	-0,051	0,096
-266,526	189,607	0,025	-0,028
-265,511	463,277	-0,035	-0,057
-264,497	-9,468	0,113	0,055
-263,482	205,315	0,027	-0,031
-262,467	61,023	-0,030	-0,022
-261,453	275,629	-0,075	0,097
-260,438	800,000	-0,037	-0,089
-259,424	-200,000	-0,009	0,157
-258,409	-200,000	0,009	0,073
-257,395	-166,966	0,033	0,001
-256,380	-48,632	0,135	-0,047
-255,365	-73,502	0,090	-0,024
-254,351	-200,000	0,012	0,133
-253,336	538,884	0,054	-0,094
-252,322	-32,627	-0,062	-0,025
-251,307	-5,072	-0,041	-0,021
-250,292	-200,000	0,000	0,009
-249,278	117,684	0,047	-0,042
-248,263	-147,152	-0,018	-0,001
-247,249	-200,000	-0,005	0,025
-246,234	260,911	-0,067	0,085
-245,219	-200,000	-0,006	0,047
-244,205	137,157	0,040	0,038
-243,190	28,046	-0,050	0,031
-242,176	-19,228	0,006	0,002
-241,161	400,067	0,032	0,048
-240,146	-200,000	0,017	0,130
-239,132	800,000	0,021	-0,052
-238,117	-154,146	-0,096	-0,005
-237,103	-200,000	0,013	-0,079
-236,088	66,851	-0,095	0,070
-235,073	800,000	0,038	0,108
-234,059	47,278	0,082	-0,055
-233,044	-200,000	0,010	0,086
-232,030	-200,000	-0,008	-0,090
-231,015	121,051	-0,090	0,081
-230,000	-42,531	-0,083	-0,030
-228,986	-200,000	0,042	-0,165
-227,971	376,957	0,065	-0,096
-226,957	18,431	0,077	-0,045
-225,942	-135,619	0,179	0,015
-224,927	353,765	-0,068	-0,099
-223,913	-89,689	-0,157	-0,033
-222,898	-66,647	-0,074	-0,021
-221,884	-4,603	0,093	-0,046
-220,869	-117,842	0,230	-0,030
-219,855	800,000	0,037	-0,100
-218,840	-200,000	0,018	0,123
-217,825	17,982	0,049	0,028
-216,811	41,076	-0,128	0,084
-215,796	-200,000	0,009	-0,096
-214,782	-200,000	0,010	-0,158
-213,767	392,121	0,031	-0,047
-212,752	17,426	-0,021	-0,012
-211,738	165,793	-0,110	0,113
-210,723	180,585	-0,018	0,019
-209,709	78,191	0,048	-0,037
-208,694	-200,000	0,006	-0,041
-207,679	564,977	0,015	0,026
-206,665	-70,446	0,067	0,018
-205,650	107,682	-0,094	-0,081
-204,636	-60,991	0,111	0,034
-203,621	-186,901	-0,043	-0,000
-202,606	207,867	-0,046	-0,053
-201,592	248,992	-0,082	-0,101
-200,577	800,000	-0,037	0,077
-199,563	-169,481	-0,058	0,002
-198,548	-186,721	0,130	-0,001
-197,533	213,177	-0,064	0,073
-196,519	-200,000	-0,023	-0,076
-195,504	-200,000	-0,017	0,063
-194,490	800,000	0,038	-0,116
-193,475	42,757	-0,110	-0,072
-192,460	-200,000	0,005	0,036
-191,446	413,250	0,068	0,106
-190,431	800,000	0,032	-0,078
-189,417	-91,651	0,053	-0,011
-188,402	12,099	-0,037	0,021
-187,387	109,318	-0,030	-0,026
-186,373	-54,823	-0,041	-0,013
-185,358	128,213	0,036	-0,033
-184,344	123,393	0,044	-0,040
-183,329	-95,572	0,072	0,014
-182,315	-87,916	0,047	-0,010
-181,300	800,000	0,032	0,082
-180,285	7,732	-0,069	0,038
-179,271	800,000	-0,031	0,064
-178,256	141,629	0,028	-0,027
-177,242	42,551	0,095	0,062
-176,227	761,767	-0,039	0,078
-175,212	-115,951	-0,053	0,007
-174,198	95,893	-0,026	0,021
-173,183	87,218	-0,023	-0,018
-172,169	800,000	-0,006	-0,018
-171,154	-141,807	-0,017	0,001
-170,139	261,206	0,081	0,101
-169,125	527,097	0,071	0,121
-168,110	-132,770	0,161	-0,015
-167,096	800,000	-0,022	0,059
-166,081	-54,077	-0,037	0,012
-165,066	347,461	0,057	-0,082
-164,052	800,000	-0,030	0,077
-163,037	-54,597	-0,176	0,057
-162,023	-52,164	0,162	-0,054
-161,008	-200,000	-0,004	0,030
-159,993	131,545	0,112	0,105
-158,979	-105,081	-0,042	-0,007
-157,964	-115,994	-0,039	0,005
-156,950	-3,352	-0,120	-0,061
-155,935	237,930	0,103	-0,124
-154,920	-200,000	-0,028	-0,106
-153,906	80,516	0,092	-0,071
-152,891	-50,902	0,096	-0,033
-151,877	-174,220	-0,042	0,001
-150,862	-19,132	-0,068	-0,031
-149,847	-96,471	-0,126	-0,024
-148,833	275,343	-0,033	0,042
-147,818	55,101	0,027	0,019
-146,804	-200,000	0,013	-0,044
-145,789	-33,540	-0,051	0,020
-144,775	800,000	-0,043	-0,102
-143,760	-129,670	-0,064	0,006
-142,745	19,356	-0,099	-0,058
-141,731	3,580	0,098	0,052
-140,716	254,322	0,029	-0,035
-139,702	-200,000	-0,006	0,041
-138,687	800,000	-0,054	0,173
-137,672	-200,000	-0,009	0,058
-136,658	800,000	-0,075	-0,166
-135,643	39,151	-0,077	0,050
-134,629	71,917	-0,035	-0,026
-133,614	-200,000	0,013	-0,055
-132,599	-192,007	0,062	-0,000
-131,585	800,000	-0,023	0,058
-130,570	800,000	0,021	-0,054
-129,556	33,618	-0,009	0,006
-128,541	-14,124	0,093	-0,043
-127,526	446,678	0,037	0,059
-126,512	-76,542	-0,075	-0,019
-125,497	338,972	-0,040	-0,056
-124,483	-78,580	0,085	0,021
-123,468	44,376	-0,037	0,025
-122,453	-39,684	0,132	-0,050
-121,439	164,644	-0,087	-0,089
-120,424	-108,777	-0,113	-0,017
-119,410	610,123	0,065	-0,119
-118,395	-200,000	-0,007	0,080
