DTS Sentinel unit serial number:	SN410029Multiplexer serial number:	ORYXHardware model number:	OX2-SRSoftware version number:	ORYX F/W v4,00 Oryx Data Collector v3.7.2.0data status	okinstallation	B4 Nyhavnadifferential loss correction	single-endedforward channel	channel 2reverse channel	N/Adate	2023/12/19time	12:50:13forward acquisition time	300,00reverse acquisition time	0,00gamma	499,1914k internal	0,3128k external	0,3128temperature offset calibration	1,0000default loss term (dB/km)	0,3820temperature slope calibration	1,0000multiplexer offset coefficient	1,0000multiplexer slope coefficient	1,0000fibre end	0,00T internal ref (°C)	19,49T ext. ref 1 (°C)	4,33T ext. ref 2 (°C)	4,24length (m)	temperature (°C)	Stokes	anti-Stokes-744,400	85,674	0,100	-0,082
-743,385	-81,298	-0,126	0,031
-742,371	-30,737	0,089	-0,037
-741,356	1,382	-0,134	-0,072
-740,342	207,818	0,062	0,073
-739,327	-153,523	-0,351	0,018
-738,312	-200,000	-0,014	-0,057
-737,298	7,601	-0,253	0,140
-736,283	-123,252	0,236	0,028
-735,269	23,795	-0,383	0,234
-734,254	-22,402	0,102	0,046
-733,239	-130,592	-0,577	-0,057
-732,225	800,000	0,045	0,102
-731,210	-200,000	0,007	0,096
-730,196	110,901	0,026	-0,023
-729,181	27,866	0,071	0,044
-728,167	-108,136	-0,056	-0,009
-727,152	-100,472	-0,038	-0,007
-726,137	202,820	-0,066	-0,076
-725,123	800,000	0,039	-0,087
-724,108	-75,476	-0,044	0,012
-723,094	-119,476	-0,098	0,012
-722,079	-62,265	-0,143	0,044
-721,064	-200,000	-0,018	-0,063
-720,050	-145,949	0,102	0,007
-719,035	463,346	-0,053	-0,088
-718,021	196,170	0,062	-0,071
-717,006	-200,000	0,009	-0,146
-715,991	76,851	-0,118	-0,093
-714,977	-106,144	-0,192	-0,032
-713,962	-200,000	-0,011	-0,097
-712,948	-79,666	0,112	-0,028
-711,933	-139,536	-0,147	0,011
-710,918	-47,196	-0,136	-0,049
-709,904	800,000	-0,029	-0,065
-708,889	218,380	-0,164	-0,195
-707,875	-14,114	-0,063	-0,030
-706,860	509,268	0,051	-0,089
-705,845	345,597	-0,011	0,017
-704,831	-200,000	0,007	0,046
-703,816	58,325	0,040	-0,029
-702,802	507,055	-0,027	-0,047
-701,787	-103,960	-0,096	-0,016
-700,772	-200,000	-0,024	0,140
-699,758	-200,000	-0,028	-0,207
-698,743	800,000	0,025	0,066
-697,729	98,169	0,059	-0,050
-696,714	196,584	-0,083	-0,094
-695,699	-12,998	-0,072	0,035
-694,685	108,559	-0,068	-0,061
-693,670	-0,223	-0,039	0,021
-692,656	678,162	-0,043	-0,083
-691,641	-91,753	-0,082	0,017
-690,627	-27,988	0,164	-0,070
-689,612	-17,254	-0,029	-0,013
-688,597	800,000	-0,036	-0,084
-687,583	73,563	-0,107	-0,083
-686,568	-40,785	-0,154	-0,059
-685,554	-128,111	-0,157	0,016
-684,539	104,715	0,062	0,054
-683,524	19,569	0,085	-0,051
-682,510	191,117	-0,039	-0,043
-681,495	76,137	-0,091	0,071
-680,481	800,000	-0,025	0,080
-679,466	800,000	-0,024	-0,059
-678,451	800,000	-0,061	0,146
-677,437	-200,000	0,029	0,157
-676,422	-200,000	0,013	0,078
-675,408	-200,000	0,042	0,179
-674,393	237,893	0,010	0,013
-673,378	146,959	-0,067	-0,067
-672,364	-16,455	-0,155	0,073
-671,349	-8,910	0,120	0,060
-670,335	-200,000	-0,030	0,142
-669,320	-200,000	-0,006	-0,071
-668,305	-1,068	0,083	-0,044
-667,291	89,191	-0,038	0,031
-666,276	48,345	-0,128	-0,089
-665,262	195,205	0,105	-0,119
-664,247	6,672	-0,123	-0,068
-663,232	-70,109	0,116	-0,032
-662,218	67,638	0,113	0,085
-661,203	27,797	-0,094	0,059
-660,189	-30,251	-0,068	-0,028
-659,174	-62,700	-0,055	-0,017
-658,159	-18,493	-0,153	-0,071
-657,145	-200,000	-0,014	-0,126
-656,130	25,156	-0,087	-0,054
-655,116	-133,758	-0,081	0,007
-654,101	-119,944	0,152	-0,019
-653,086	-27,736	-0,111	-0,047
-652,072	253,837	-0,055	0,069
-651,057	-190,838	-0,109	-0,001
-650,043	-144,606	0,051	0,003
-649,028	-200,000	0,007	-0,146
-648,014	57,206	0,063	-0,046
-646,999	58,399	-0,137	0,100
-645,984	800,000	-0,012	0,034
-644,970	49,390	-0,114	-0,079
-643,955	800,000	0,017	-0,043
-642,941	27,887	-0,126	-0,078
-641,926	-78,430	-0,112	-0,028
-640,911	-27,534	0,074	0,032
-639,897	-41,252	-0,069	-0,026
-638,882	259,957	0,123	-0,158
-637,868	-200,000	-0,009	0,104
-636,853	152,584	-0,065	0,066
-635,838	557,894	-0,073	-0,131
-634,824	442,577	-0,017	-0,028
-633,809	-71,315	-0,069	-0,019
-632,795	776,401	-0,018	0,036
-631,780	-9,738	0,105	0,052
-630,765	422,765	0,012	-0,019
-629,751	-63,292	-0,083	-0,025
-628,736	-56,811	-0,067	-0,022
-627,722	-200,000	-0,015	-0,064
-626,707	280,870	0,012	0,016
-625,692	-200,000	0,012	0,061
-624,678	-33,471	-0,048	0,020
-623,663	46,911	-0,054	-0,037
-622,649	800,000	-0,011	-0,027
-621,634	-200,000	0,003	-0,072
-620,619	-200,000	0,005	-0,084
-619,605	-31,486	-0,126	0,052
-618,590	-41,641	-0,046	-0,017
-617,576	-129,499	0,072	0,007
-616,561	-200,000	-0,025	0,095
-615,546	-39,985	-0,061	0,023
-614,532	-98,938	-0,079	-0,015
-613,517	-78,646	0,097	0,024
-612,503	800,000	-0,089	0,205
-611,488	-72,095	0,092	0,025
-610,474	378,201	0,043	-0,066
-609,459	-73,954	-0,115	0,031
-608,444	-128,978	-0,066	-0,007
-607,430	800,000	-0,016	-0,038
-606,415	800,000	-0,028	-0,084
-605,401	-65,556	0,187	0,055
-604,386	-132,177	0,146	0,014
-603,371	-71,994	0,067	0,018
-602,357	145,861	0,061	-0,061
-601,342	149,530	0,115	0,115
-600,328	800,000	-0,053	-0,124
-599,313	119,064	-0,127	-0,116
-598,298	800,000	0,047	-0,104
-597,284	322,491	0,007	0,010
-596,269	-36,003	-0,064	-0,025
-595,255	145,378	-0,042	0,042
-594,240	786,903	-0,037	-0,076
-593,225	82,477	0,071	-0,057
-592,211	201,975	0,017	-0,020
-591,196	-200,000	0,008	0,157
-590,182	187,667	0,048	-0,053
-589,167	62,927	-0,038	0,028
-588,152	78,854	-0,045	0,036
-587,138	-200,000	-0,003	0,050
-586,123	-73,828	0,068	0,018
-585,109	-160,259	-0,054	-0,002
-584,094	-200,000	0,000	-0,063
-583,079	800,000	-0,024	0,056
-582,065	800,000	0,052	0,118
-581,050	149,101	-0,051	0,051
-580,036	-51,330	-0,053	0,018
-579,021	-14,050	0,026	0,013
-578,006	-200,000	-0,001	0,012
-576,992	-32,889	-0,097	0,040
-575,977	397,805	0,054	-0,084
-574,963	-200,000	0,006	-0,033
-573,948	66,295	0,060	0,045
-572,934	-19,627	-0,110	0,050
-571,919	26,342	0,027	-0,016
-570,904	67,160	0,080	-0,060
-569,890	800,000	-0,042	-0,096
-568,875	800,000	0,020	0,059
-567,861	-134,262	-0,055	0,005
-566,846	-200,000	-0,015	0,070
-565,831	-26,734	-0,108	0,047
-564,817	-200,000	0,012	-0,054
-563,802	-107,772	-0,069	-0,011
-562,788	60,129	-0,176	-0,128
-561,773	-8,067	-0,040	0,020
-560,758	-137,585	0,019	-0,002
-559,744	-78,128	0,162	-0,041
-558,729	-101,751	0,118	-0,021
-557,715	-12,311	-0,098	-0,047
-556,700	300,436	0,049	-0,067
-555,685	-200,000	-0,001	0,025
-554,671	-46,870	0,140	-0,050
-553,656	-10,740	0,042	-0,020
-552,642	-158,275	0,050	-0,002
-551,627	392,921	-0,030	0,047
-550,612	7,065	0,153	0,084
-549,598	800,000	0,051	-0,128
-548,583	-200,000	-0,006	-0,064
-547,569	-79,143	-0,024	0,006
-546,554	121,033	0,032	-0,029
-545,539	72,960	0,027	-0,021
-544,525	-200,000	0,015	0,059
-543,510	623,989	0,047	0,088
-542,496	174,917	-0,050	-0,053
-541,481	760,862	-0,026	-0,052
-540,466	-154,207	0,096	-0,005
-539,452	552,590	0,052	0,092
-538,437	-200,000	0,071	0,269
-537,423	800,000	-0,018	0,054
-536,408	-200,000	0,002	-0,045
-535,393	-21,342	-0,130	-0,058
-534,379	800,000	-0,041	-0,095
-533,364	451,946	-0,048	-0,079
-532,350	-200,000	-0,008	-0,059
-531,335	-200,000	-0,003	0,024
-530,321	800,000	-0,033	0,107
-529,306	-116,005	0,043	-0,006
-528,291	303,070	0,035	-0,048
-527,277	-200,000	-0,009	0,038
-526,262	64,803	0,063	0,047
-525,248	212,061	-0,015	0,018
-524,233	-102,293	0,130	0,023
-523,218	-54,505	-0,144	0,048
-522,204	-200,000	-0,026	-0,103
-521,189	-200,000	-0,011	-0,144
-520,175	302,592	-0,070	0,095
-519,160	-89,837	0,113	0,024
-518,145	84,503	-0,080	0,064
-517,131	-14,601	0,086	0,041
-516,116	559,611	-0,044	0,078
-515,102	-134,673	0,033	0,003
-514,087	800,000	-0,044	-0,119
-513,072	-17,823	-0,031	0,015
-512,058	-89,760	-0,101	0,022
-511,043	800,000	0,069	-0,147
-510,029	-121,269	-0,097	0,012
-509,014	184,041	-0,051	0,056
-507,999	-100,959	0,024	0,004
-506,985	-41,922	0,110	0,041
-505,970	-106,398	-0,042	-0,007
-504,956	-92,476	-0,064	0,013
-503,941	-60,817	0,088	-0,027
-502,926	-103,903	0,133	-0,023
-501,912	191,418	0,093	0,104
-500,897	-91,303	-0,135	0,028
-499,883	17,630	-0,119	-0,070
-498,868	-200,000	-0,019	-0,127
-497,853	-200,000	-0,010	-0,101
-496,839	-23,176	-0,160	-0,071
-495,824	-200,000	0,008	-0,067
-494,810	-75,237	0,114	0,030
-493,795	-200,000	0,016	-0,081
-492,781	-3,574	0,028	-0,015
-491,766	210,529	0,039	-0,045
-490,751	397,745	-0,067	-0,103
-489,737	57,265	-0,037	-0,026
-488,722	77,103	-0,027	0,021
-487,708	-28,075	0,101	0,043
-486,693	800,000	0,009	0,021
-485,678	259,882	0,068	-0,086
-484,664	-200,000	-0,030	-0,103
-483,649	-200,000	-0,032	-0,130
-482,635	651,274	0,082	-0,156
-481,620	364,987	0,077	-0,114
-480,605	-111,442	0,121	-0,018
-479,591	69,087	0,025	0,019
-478,576	800,000	0,010	-0,030
-477,562	349,650	0,025	0,037
-476,547	-200,000	0,043	-0,158
-475,532	-100,487	0,132	-0,024
-474,518	-35,978	0,074	0,030
-473,503	97,178	0,039	0,033
-472,489	397,930	0,080	-0,124
-471,474	-32,192	0,160	-0,065
-470,459	-84,043	-0,057	0,013
-469,445	800,000	-0,049	-0,141
-468,430	800,000	0,020	-0,045
-467,416	-66,022	0,147	0,043
-466,401	10,655	0,027	0,015
-465,386	-26,352	0,107	0,046
-464,372	-200,000	0,036	0,120
-463,357	-200,000	-0,016	0,056
-462,343	317,417	-0,042	0,059
-461,328	-125,923	-0,036	-0,004
-460,313	-200,000	-0,013	-0,058
-459,299	-116,537	0,070	0,009
-458,284	800,000	-0,021	0,048
-457,270	-35,385	0,099	0,039
-456,255	-200,000	0,009	-0,062
-455,241	247,604	-0,108	-0,135
-454,226	505,096	-0,076	0,131
-453,211	800,000	-0,040	0,123
-452,197	-185,718	0,104	0,001
-451,182	156,514	0,068	0,069
-450,168	800,000	0,012	0,036
-449,153	800,000	-0,012	-0,033
-448,138	154,291	-0,051	0,052
-447,124	-200,000	-0,017	0,061
-446,109	-90,191	-0,055	-0,012
-445,095	-200,000	-0,001	0,049
-444,080	-23,271	0,161	0,071
-443,065	-100,838	0,135	0,024
-442,051	-115,220	0,072	0,010
-441,036	49,368	-0,050	-0,034
-440,022	-200,000	0,012	0,095
-439,007	296,197	-0,047	0,064
-437,992	-200,000	-0,002	-0,014
-436,978	-200,000	-0,005	0,080
-435,963	164,481	0,048	0,049
-434,949	-200,000	0,008	-0,031
-433,934	-200,000	-0,011	-0,114
-432,919	800,000	-0,024	0,054
-431,905	800,000	0,022	0,056
-430,890	-200,000	-0,033	-0,107
-429,876	-114,678	-0,028	-0,004
-428,861	142,771	0,084	0,082
-427,846	372,678	0,008	0,012
-426,832	-200,000	-0,004	-0,130
-425,817	-8,051	-0,180	0,089
-424,803	-75,992	0,150	-0,039
-423,788	800,000	-0,046	-0,106
-422,773	463,130	0,095	0,157
-421,759	664,448	0,028	-0,054
-420,744	87,769	0,022	-0,018
-419,730	-200,000	-0,024	-0,127
-418,715	-98,609	-0,035	-0,006
-417,701	-200,000	-0,014	0,083
-416,686	-200,000	-0,012	-0,081
-415,671	422,681	0,009	-0,014
-414,657	84,515	0,082	0,066
-413,642	415,755	0,053	-0,083
-412,628	-200,000	-0,022	-0,190
-411,613	97,938	0,057	0,048
-410,598	-200,000	-0,029	-0,141
-409,584	473,001	0,036	0,060
-408,569	458,569	0,056	0,091
-407,555	74,175	0,056	-0,043
-406,540	-137,350	-0,064	0,005
-405,525	-18,612	0,089	-0,041
-404,511	800,000	-0,028	-0,067
-403,496	250,011	-0,042	0,053
-402,482	-73,703	-0,109	0,029
-401,467	-200,000	0,025	0,124
-400,452	-12,699	0,120	-0,057
-399,438	-197,167	-0,103	0,000
-398,423	-200,000	-0,005	-0,118
-397,409	-200,000	0,007	0,087
-396,394	23,262	0,031	0,019
-395,379	505,398	0,041	0,071
-394,365	129,022	0,057	0,054
-393,350	-200,000	0,084	-0,000
-392,336	23,653	-0,139	-0,084
-391,321	118,804	-0,026	-0,024
-390,306	-200,000	-0,004	-0,051
-389,292	800,000	-0,056	-0,149
-388,277	-113,197	-0,094	0,013
-387,263	-200,000	-0,003	0,087
-386,248	-200,000	0,018	0,077
-385,233	800,000	-0,030	0,078
-384,219	50,603	-0,056	0,039
-383,204	80,353	-0,017	-0,013
-382,190	58,285	-0,070	-0,050
-381,175	-143,892	-0,067	0,005
-380,160	800,000	0,072	0,173
-379,146	46,438	0,111	-0,076
-378,131	92,629	-0,102	0,085
-377,117	-200,000	-0,003	0,142
-376,102	27,572	0,074	-0,046
-375,088	-91,028	0,076	-0,016
-374,073	246,202	-0,080	-0,099
-373,058	-177,530	0,125	0,002
-372,044	-25,817	-0,091	0,039
-371,029	-154,943	-0,078	0,004
-370,015	96,427	-0,024	0,020
-369,000	334,525	-0,044	-0,063
-367,985	-200,000	-0,016	0,055
-366,971	-200,000	0,001	0,084
-365,956	-200,000	-0,045	0,256
-364,942	800,000	0,026	0,077
-363,927	590,273	-0,048	0,087
-362,912	90,974	0,072	0,059
-361,898	-64,839	-0,075	-0,022
-360,883	484,963	0,034	0,057
-359,869	84,139	-0,051	-0,041
-358,854	13,929	0,072	-0,041
-357,839	120,288	0,038	-0,035
-356,825	-29,514	0,118	-0,049
-355,810	800,000	0,033	-0,094
-354,796	-98,006	0,166	-0,031
-353,781	233,690	-0,031	-0,037
-352,766	-200,000	-0,004	0,016
-351,752	-4,467	0,078	0,039
-350,737	-200,000	0,005	0,107
-349,723	-200,000	-0,031	0,182
-348,708	800,000	0,017	-0,041
-347,693	-200,000	-0,027	0,112
-346,679	-200,000	-0,007	-0,045
-345,664	251,702	-0,129	-0,161
-344,650	771,683	0,056	-0,111
-343,635	-52,358	0,113	0,038
-342,620	334,322	-0,046	-0,065
-341,606	104,325	0,066	0,057
-340,591	-200,000	-0,002	-0,107
-339,577	800,000	-0,021	-0,047
-338,562	457,144	0,019	0,032
-337,548	-145,995	0,068	-0,004
-336,533	-200,000	0,000	0,023
-335,518	800,000	-0,034	0,100
-334,504	55,480	0,049	0,035
-333,489	800,000	-0,021	0,047
-332,475	-200,000	0,006	0,048
-331,460	186,418	0,062	-0,068
-330,445	-103,336	-0,118	0,020
-329,431	286,004	0,058	0,077
-328,416	318,368	0,119	-0,165
-327,402	-146,637	0,077	-0,005
-326,387	-200,000	-0,020	0,112
-325,372	111,783	-0,016	0,014
-324,358	-141,802	-0,062	-0,004
-323,343	800,000	0,004	-0,010
-322,329	-20,241	0,168	0,075
-321,314	-200,000	-0,008	-0,160
-320,299	61,202	-0,035	0,026
-319,285	6,147	-0,113	0,061
-318,270	-84,758	0,058	-0,013
-317,256	350,858	-0,063	0,092
-316,241	36,334	0,047	-0,030
-315,226	-200,000	0,012	0,115
-314,212	-200,000	0,006	-0,047
-313,197	-200,000	0,007	-0,096
-312,183	-14,705	-0,143	-0,067
-311,168	-200,000	-0,025	0,180
-310,153	-200,000	-0,026	-0,092
-309,139	85,049	0,062	0,050
-308,124	38,750	-0,100	-0,065
-307,110	-11,031	0,015	-0,007
-306,095	800,000	-0,017	0,037
-305,080	-200,000	-0,013	-0,048
-304,066	-200,000	-0,006	-0,041
-303,051	-67,835	0,057	0,016
-302,037	800,000	0,011	-0,025
-301,022	167,887	0,066	0,069
-300,008	152,401	0,056	0,056
-298,993	367,456	0,036	-0,054
-297,978	5,613	-0,016	0,008
-296,964	800,000	-0,045	-0,092
-295,949	-200,000	0,015	0,223
-294,935	-100,825	0,055	-0,010
-293,920	-200,000	0,001	0,116
-292,905	-37,721	0,186	-0,072
-291,891	-200,000	0,014	-0,087
-290,876	-112,349	-0,041	-0,006
-289,862	-200,000	0,028	0,112
-288,847	800,000	-0,029	0,067
-287,832	309,916	-0,098	-0,134
-286,818	319,500	0,025	-0,035
-285,803	83,286	0,076	-0,060
-284,789	366,601	-0,076	-0,112
-283,774	278,906	-0,094	-0,123
-282,759	-6,333	0,094	-0,046
-281,745	63,166	0,049	0,036
-280,730	37,285	-0,026	-0,017
-279,716	-63,122	-0,025	0,007
-278,701	-75,803	0,111	-0,029
-277,686	269,064	-0,035	0,045
-276,672	-12,421	0,091	0,043
-275,657	-200,000	-0,064	0,257
-274,643	800,000	-0,044	0,108
-273,628	332,045	-0,050	0,071
-272,613	551,976	-0,051	0,090
-271,599	800,000	0,047	-0,119
-270,584	-170,606	-0,072	0,002
-269,570	800,000	0,014	0,042
-268,555	590,860	0,021	0,039
-267,540	410,232	0,020	-0,030
-266,526	-10,440	0,052	0,025
-265,511	-67,669	-0,083	0,024
-264,497	-33,518	0,079	-0,032
-263,482	147,192	0,127	0,125
-262,467	23,611	0,056	0,034
-261,453	-39,421	-0,095	0,036
-260,438	60,416	-0,121	0,087
-259,424	-200,000	0,011	-0,096
-258,409	-44,118	-0,096	-0,035
-257,395	110,850	-0,080	-0,070
-256,380	-85,860	-0,135	0,030
-255,365	-200,000	0,008	-0,050
-254,351	35,153	-0,046	-0,029
-253,336	-71,334	-0,146	0,040
-252,322	287,017	-0,057	-0,076
-251,307	800,000	-0,044	-0,105
-250,292	800,000	-0,023	-0,068
-249,278	-200,000	-0,013	-0,042
-248,263	-72,383	0,083	0,022
-247,249	-200,000	-0,027	0,123
-246,234	-200,000	0,013	0,049
-245,219	800,000	-0,008	-0,017
-244,205	-111,694	-0,096	0,014
-243,190	800,000	-0,049	0,126
-242,176	190,629	-0,034	0,037
-241,161	-200,000	0,006	0,098
-240,146	-121,565	-0,150	-0,018
-239,132	173,734	-0,045	0,048
-238,117	-69,817	-0,123	0,034
-237,103	-154,260	-0,059	0,003
-236,088	134,808	-0,034	0,032
-235,073	800,000	0,014	0,033
-234,059	270,623	-0,015	-0,019
-233,044	800,000	-0,019	0,052
-232,030	-35,415	-0,150	-0,059
-231,015	-76,822	-0,087	0,022
-230,000	167,400	-0,085	-0,089
-228,986	-200,000	-0,003	0,027
-227,971	-200,000	0,046	-0,180
-226,957	136,777	-0,077	-0,074
-225,942	-200,000	-0,007	-0,066
-224,927	150,918	0,014	-0,014
-223,913	-13,047	-0,057	-0,027
-222,898	225,134	0,087	-0,103
-221,884	-200,000	-0,012	-0,050
-220,869	21,726	0,136	-0,081
-219,855	413,866	-0,050	-0,078
-218,840	29,378	-0,041	-0,026
-217,825	-54,402	-0,110	0,036
-216,811	29,139	0,029	0,018
-215,796	800,000	-0,035	0,071
-214,782	800,000	0,051	0,110
-213,767	-200,000	-0,003	0,021
-212,752	106,980	0,073	0,063
-211,738	-20,143	-0,040	-0,018
-210,723	-26,719	-0,048	-0,020
-209,709	-200,000	0,025	-0,090
-208,694	166,627	0,040	0,041
-207,679	-179,246	-0,112	-0,002
-206,665	186,080	0,070	-0,076
-205,650	-200,000	-0,015	-0,058
-204,636	-200,000	-0,008	0,074
-203,621	399,763	-0,015	-0,023
-202,606	243,737	0,014	0,017
-201,592	283,181	-0,082	-0,108
-200,577	-200,000	-0,013	-0,054
-199,563	292,815	-0,097	0,130
-198,548	289,648	0,073	0,096
-197,533	-90,525	0,063	0,013
-196,519	-100,769	0,072	-0,013
-195,504	321,073	-0,019	0,026
-194,490	800,000	-0,059	-0,177
-193,475	14,649	0,076	0,043
-192,460	-148,934	-0,108	-0,006
-191,446	1,758	0,102	0,053
-190,431	15,877	0,074	0,043
-189,417	55,494	0,105	-0,074
-188,402	-200,000	0,010	-0,099
-187,387	800,000	0,017	-0,053
-186,373	360,343	-0,044	0,064
-185,358	176,439	-0,045	-0,047
-184,344	-200,000	-0,001	0,128
-183,329	800,000	0,020	0,050
-182,315	42,750	0,041	0,027
-181,300	457,634	-0,054	0,087
-180,285	-37,765	-0,122	0,047
-179,271	515,696	-0,017	0,029
-178,256	800,000	-0,035	-0,084
-177,242	-145,461	0,056	-0,004
-176,227	-100,292	-0,123	0,022
-175,212	785,782	-0,046	-0,091
-174,198	387,867	0,025	0,038
-173,183	137,197	0,069	-0,066
-172,169	-37,974	0,073	0,028
-171,154	800,000	-0,024	-0,054
-170,139	-142,801	0,160	0,011
-169,125	-200,000	0,030	-0,108
-168,110	800,000	-0,080	0,177
-167,096	-200,000	0,024	0,162
-166,081	178,790	-0,077	0,082
-165,066	234,064	0,087	0,104
-164,052	393,173	0,025	0,038
-163,037	-0,888	0,043	-0,022
-162,023	109,046	-0,031	0,027
-161,008	97,326	-0,028	0,024
-159,993	-102,734	-0,067	-0,012
-158,979	-200,000	0,036	-0,184
-157,964	-98,997	-0,020	0,004
-156,950	-77,459	0,101	0,025
-155,935	-32,922	0,067	0,027
-154,920	-105,641	-0,090	0,015
-153,906	800,000	0,033	0,081
-152,891	-200,000	0,022	0,143
-151,877	318,024	0,061	0,084
-150,862	86,287	-0,082	0,065
-149,847	-43,454	0,105	0,038
-148,833	-200,000	0,009	-0,033
-147,818	3,813	-0,080	-0,043
-146,804	-200,000	0,018	0,207
-145,789	-200,000	-0,014	0,097
-144,775	-186,312	-0,048	0,000
-143,760	-68,937	-0,084	-0,024
-142,745	800,000	0,014	-0,045
-141,731	-164,622	0,132	0,004
-140,716	-87,636	-0,116	-0,025
-139,702	301,973	0,090	0,122
-138,687	625,266	0,088	0,162
-137,672	-200,000	-0,011	-0,043
-136,658	-104,074	-0,227	0,038
-135,643	229,742	-0,015	0,018
-134,629	-92,230	0,011	0,002
-133,614	800,000	0,081	0,219
-132,599	730,895	0,035	0,068
-131,585	-200,000	0,005	-0,072
-130,570	566,146	0,041	-0,072
-129,556	84,587	-0,075	0,059
-128,541	-62,526	-0,143	-0,043
-127,526	-200,000	-0,027	-0,123
-126,512	519,046	-0,021	-0,036
-125,497	-200,000	0,007	0,068
-124,483	181,212	0,033	-0,036
-123,468	800,000	0,049	0,107
-122,453	108,864	-0,046	-0,040
-121,439	800,000	-0,035	0,096
-120,424	-54,425	-0,122	0,040
-119,410	800,000	0,038	-0,083
