DTS Sentinel unit serial number:	SN410029Multiplexer serial number:	ORYXHardware model number:	OX2-SRSoftware version number:	ORYX F/W v4,00 Oryx Data Collector v3.7.2.0data status	okinstallation	B4 Nyhavnadifferential loss correction	single-endedforward channel	channel 2reverse channel	N/Adate	2023/12/15time	21:10:13forward acquisition time	300,00reverse acquisition time	0,00gamma	499,1914k internal	0,3134k external	0,3134temperature offset calibration	1,0000default loss term (dB/km)	0,3820temperature slope calibration	1,0000multiplexer offset coefficient	1,0000multiplexer slope coefficient	1,0000fibre end	0,00T internal ref (°C)	20,88T ext. ref 1 (°C)	6,13T ext. ref 2 (°C)	6,29length (m)	temperature (°C)	Stokes	anti-Stokes-744,400	-200,000	0,015	-0,132
-743,385	-72,216	-0,231	0,063
-742,371	93,184	0,128	-0,107
-741,356	-143,508	-0,194	0,014
-740,342	-134,900	0,196	0,017
-739,327	-4,025	-0,227	-0,117
-738,312	433,480	0,059	-0,095
-737,298	55,041	-0,149	0,107
-736,283	399,104	0,046	-0,072
-735,269	11,165	-0,221	0,125
-734,254	-171,876	0,092	-0,002
-733,239	-145,883	-0,515	-0,033
-732,225	-91,827	0,047	0,010
-731,210	-36,560	-0,169	0,067
-730,196	147,597	0,041	-0,041
-729,181	80,252	-0,095	0,076
-728,167	4,151	0,028	0,015
-727,152	-76,286	-0,068	0,018
-726,137	800,000	-0,030	-0,083
-725,123	-22,262	-0,055	0,024
-724,108	4,282	-0,143	-0,078
-723,094	-28,233	-0,053	-0,023
-722,079	800,000	0,031	-0,101
-721,064	-73,389	0,007	0,002
-720,050	-200,000	0,003	-0,066
-719,035	-49,331	-0,056	-0,020
-718,021	16,016	-0,053	0,031
-717,006	256,522	0,094	-0,120
-715,991	-4,035	-0,085	-0,043
-714,977	-99,784	-0,037	0,007
-713,962	670,976	-0,062	-0,119
-712,948	800,000	-0,018	-0,049
-711,933	-75,258	-0,063	-0,017
-710,918	800,000	-0,011	-0,027
-709,904	800,000	-0,014	-0,039
-708,889	728,124	-0,042	-0,084
-707,875	-200,000	-0,011	-0,104
-706,860	-6,313	0,052	-0,026
-705,845	-18,474	-0,055	-0,025
-704,831	-120,305	-0,084	-0,011
-703,816	-141,643	-0,109	-0,008
-702,802	-200,000	0,018	-0,080
-701,787	800,000	-0,047	-0,104
-700,772	760,849	-0,083	-0,168
-699,758	-200,000	0,004	0,091
-698,743	547,224	-0,035	0,062
-697,729	81,726	-0,044	0,036
-696,714	-200,000	-0,036	-0,135
-695,699	103,523	-0,036	-0,031
-694,685	-102,534	-0,086	-0,015
-693,670	800,000	0,040	0,114
-692,656	89,536	-0,032	-0,026
-691,641	-23,450	-0,013	-0,006
-690,627	-34,394	0,081	-0,033
-689,612	114,543	-0,052	-0,047
-688,597	-8,719	-0,017	-0,009
-687,583	280,276	-0,061	-0,081
-686,568	396,141	-0,084	-0,131
-685,554	-114,992	0,155	-0,022
-684,539	-27,937	-0,072	0,031
-683,524	-141,370	-0,073	-0,005
-682,510	-5,069	-0,050	0,025
-681,495	185,692	-0,047	-0,052
-680,481	33,232	0,112	-0,072
-679,466	800,000	0,062	-0,135
-678,451	19,911	-0,087	0,052
-677,437	-134,238	-0,085	-0,008
-676,422	-143,188	-0,123	0,009
-675,408	520,733	-0,111	0,194
-674,393	92,128	-0,056	0,046
-673,378	800,000	0,061	-0,126
-672,364	-127,759	-0,142	-0,015
-671,349	800,000	-0,030	-0,077
-670,335	-145,201	0,090	0,006
-669,320	476,111	0,078	0,131
-668,305	75,527	0,057	-0,045
-667,291	195,877	-0,098	0,111
-666,276	-120,040	0,095	-0,012
-665,262	697,861	-0,033	-0,064
-664,247	-114,979	-0,103	0,014
-663,232	-132,622	-0,026	0,002
-662,218	55,726	-0,012	-0,009
-661,203	800,000	-0,020	0,048
-660,189	-200,000	0,022	0,084
-659,174	-173,874	-0,095	0,002
-658,159	-91,595	-0,044	0,009
-657,145	645,567	0,026	0,050
-656,130	800,000	-0,034	-0,098
-655,116	800,000	-0,047	0,130
-654,101	-200,000	0,025	0,088
-653,086	-5,104	0,130	-0,066
-652,072	-181,054	0,095	-0,001
-651,057	277,003	0,013	0,017
-650,043	-200,000	0,002	-0,067
-649,028	233,654	0,050	0,060
-648,014	-119,849	0,125	-0,016
-646,999	-121,027	0,103	-0,013
-645,984	7,771	0,105	-0,058
-644,970	800,000	0,040	0,119
-643,955	56,002	0,105	-0,075
-642,941	10,879	-0,059	-0,033
-641,926	100,962	-0,080	0,069
-640,911	29,591	0,134	0,084
-639,897	-200,000	0,005	-0,021
-638,882	26,696	0,019	-0,012
-637,868	512,653	-0,084	-0,146
-636,853	-200,000	0,024	-0,109
-635,838	1,102	-0,153	0,081
-634,824	-9,519	-0,101	0,050
-633,809	-200,000	-0,006	-0,085
-632,795	491,892	-0,029	0,049
-631,780	-200,000	0,013	-0,059
-630,765	134,231	0,099	-0,095
-629,751	800,000	0,030	0,081
-628,736	443,393	-0,034	-0,055
-627,722	800,000	0,049	0,105
-626,707	8,372	-0,003	0,002
-625,692	-200,000	0,004	0,069
-624,678	316,483	-0,037	0,052
-623,663	4,269	-0,035	-0,019
-622,649	-155,170	-0,111	0,005
-621,634	-200,000	0,014	-0,125
-620,619	-200,000	-0,007	-0,150
-619,605	40,353	-0,085	0,056
-618,590	-200,000	0,002	0,075
-617,576	-104,160	-0,025	0,004
-616,561	-96,839	0,071	-0,014
-615,546	-200,000	0,015	-0,082
-614,532	117,847	-0,015	0,014
-613,517	-200,000	-0,012	0,057
-612,503	104,282	0,057	0,050
-611,488	458,565	0,066	0,108
-610,474	800,000	-0,054	0,166
-609,459	-15,241	-0,086	0,041
-608,444	257,875	0,009	0,011
-607,430	344,209	-0,099	-0,144
-606,415	-200,000	-0,035	-0,146
-605,401	122,918	0,039	0,036
-604,386	800,000	0,014	0,035
-603,371	800,000	0,038	0,117
-602,357	104,558	0,074	-0,065
-601,342	506,089	-0,022	0,039
-600,328	37,826	-0,084	0,055
-599,313	-15,767	-0,090	-0,042
-598,298	613,839	0,015	0,028
-597,284	-157,663	0,152	-0,007
-596,269	25,014	-0,125	-0,076
-595,255	744,722	0,024	-0,047
-594,240	18,571	-0,072	0,043
-593,225	800,000	0,008	-0,018
-592,211	32,824	-0,024	0,015
-591,196	26,139	-0,100	0,061
-590,182	-200,000	0,006	-0,029
-589,167	1,078	0,078	0,041
-588,152	800,000	0,057	0,123
-587,138	-200,000	-0,040	0,188
-586,123	495,791	0,069	-0,118
-585,109	-200,000	0,000	0,005
-584,094	297,521	0,045	-0,061
-583,079	-110,035	0,087	-0,013
-582,065	-141,594	-0,078	-0,006
-581,050	345,048	0,065	0,095
-580,036	-25,797	-0,036	-0,016
-579,021	-36,817	0,093	-0,037
-578,006	65,559	0,083	0,062
-576,992	384,960	0,041	-0,062
-575,977	131,048	-0,027	-0,026
-574,963	-200,000	0,037	-0,157
-573,948	-200,000	-0,025	0,125
-572,934	34,993	0,151	0,097
-571,919	129,566	-0,109	-0,103
-570,904	-200,000	-0,001	-0,079
-569,890	155,824	0,074	0,076
-568,875	252,277	0,017	0,022
-567,861	-123,829	-0,044	-0,005
-566,846	800,000	0,006	-0,014
-565,831	-200,000	0,011	-0,081
-564,817	-102,489	-0,106	0,018
-563,802	-42,462	-0,128	0,048
-562,788	275,275	-0,069	-0,091
-561,773	27,558	0,029	0,018
-560,758	-82,528	0,060	0,014
-559,744	147,317	0,064	0,064
-558,729	800,000	0,033	0,071
-557,715	-200,000	-0,016	-0,125
-556,700	201,993	-0,076	-0,087
-555,685	-10,996	-0,041	0,020
-554,671	78,569	0,028	0,022
-553,656	65,331	-0,100	0,075
-552,642	2,870	-0,131	0,070
-551,627	-61,080	0,023	-0,007
-550,612	-45,801	0,050	-0,018
-549,598	121,141	-0,104	-0,096
-548,583	251,286	0,069	-0,086
-547,569	25,946	-0,054	-0,033
-546,554	-200,000	-0,020	-0,097
-545,539	156,241	-0,028	0,028
-544,525	-54,678	-0,088	0,029
-543,510	68,813	-0,070	-0,053
-542,496	14,881	0,132	0,076
-541,481	81,643	0,046	-0,036
-540,466	46,872	-0,051	-0,035
-539,452	-3,020	0,093	0,048
-538,437	-200,000	0,003	-0,012
-537,423	331,012	0,089	0,127
-536,408	561,291	0,047	0,084
-535,393	-200,000	-0,011	-0,137
-534,379	-58,723	-0,080	-0,025
-533,364	200,565	0,057	-0,065
-532,350	-176,599	0,098	-0,002
-531,335	800,000	-0,023	-0,063
-530,321	-72,068	-0,064	0,017
-529,306	800,000	-0,026	-0,085
-528,291	32,411	-0,034	0,022
-527,277	188,619	-0,025	0,027
-526,262	153,642	-0,070	0,071
-525,248	-200,000	0,000	-0,024
-524,233	-92,288	0,050	-0,010
-523,218	800,000	-0,020	0,056
-522,204	127,203	-0,036	0,033
-521,189	90,644	0,044	0,036
-520,175	165,734	-0,045	-0,047
-519,160	193,222	-0,060	-0,067
-518,145	800,000	-0,028	0,067
-517,131	208,145	-0,064	0,074
-516,116	-91,189	0,123	-0,026
-515,102	-26,703	-0,066	0,028
-514,087	37,595	-0,029	0,019
-513,072	313,519	-0,096	-0,134
-512,058	800,000	-0,005	-0,014
-511,043	-200,000	0,015	-0,049
-510,029	-139,215	0,059	-0,005
-509,014	-200,000	0,005	0,023
-507,999	-60,906	0,139	0,043
-506,985	-88,352	-0,161	-0,035
-505,970	-3,976	0,070	-0,035
-504,956	-200,000	0,016	-0,064
-503,941	-62,030	0,060	0,018
-502,926	-92,265	0,037	0,008
-501,912	-200,000	0,018	-0,061
-500,897	115,725	-0,047	-0,042
-499,883	13,709	0,071	-0,040
-498,868	-200,000	-0,018	-0,139
-497,853	800,000	-0,037	-0,094
-496,839	800,000	0,037	-0,079
-495,824	512,002	-0,034	-0,058
-494,810	115,486	0,102	-0,092
-493,795	-151,593	0,110	-0,006
-492,781	-64,738	0,075	0,022
-491,766	489,129	-0,050	-0,085
-490,751	390,462	0,047	-0,072
-489,737	508,017	0,027	-0,046
-488,722	674,781	0,071	0,136
-487,708	-15,650	0,094	0,044
-486,693	-200,000	-0,004	0,061
-485,678	-128,431	-0,148	-0,015
-484,664	115,332	-0,044	0,040
-483,649	-200,000	0,003	-0,102
-482,635	-130,279	0,070	0,007
-481,620	-200,000	-0,003	0,098
-480,605	438,660	0,048	0,077
-479,591	800,000	-0,007	0,020
-478,576	278,260	0,029	0,038
-477,562	-200,000	-0,007	-0,074
-476,547	83,669	-0,170	-0,136
-475,532	-200,000	-0,003	0,049
-474,518	-2,231	-0,059	0,030
-473,503	800,000	0,053	-0,169
-472,489	-45,476	0,035	-0,013
-471,474	-200,000	-0,007	-0,052
-470,459	-105,474	-0,183	-0,030
-469,445	800,000	-0,017	-0,041
-468,430	800,000	-0,021	-0,067
-467,416	193,997	0,083	-0,093
-466,401	-200,000	-0,007	-0,062
-465,386	-27,880	-0,051	-0,022
-464,372	-25,488	0,128	0,055
-463,357	182,033	-0,113	-0,123
-462,343	800,000	0,018	0,041
-461,328	-200,000	0,001	0,048
-460,313	-200,000	0,008	0,059
-459,299	-200,000	0,006	0,101
-458,284	90,074	0,067	-0,055
-457,270	19,696	-0,109	-0,064
-456,255	-200,000	-0,013	0,074
-455,241	800,000	-0,032	-0,071
-454,226	-118,148	0,034	0,004
-453,211	-147,301	-0,052	-0,003
-452,197	-59,924	0,112	0,035
-451,182	-113,390	0,109	0,015
-450,168	26,833	0,086	0,053
-449,153	32,453	-0,181	-0,115
-448,138	306,890	-0,089	-0,122
-447,124	800,000	-0,084	-0,186
-446,109	9,549	-0,069	-0,038
-445,095	587,225	-0,017	0,031
-444,080	800,000	0,063	0,154
-443,065	-200,000	-0,001	0,005
-442,051	15,615	0,075	-0,043
-441,036	-76,623	-0,081	-0,021
-440,022	-19,293	0,086	-0,039
-439,007	-200,000	0,000	0,141
-437,992	663,768	0,076	0,145
-436,978	-16,911	0,065	0,030
-435,963	534,149	-0,071	0,124
-434,949	163,909	-0,102	0,106
-433,934	-29,606	-0,085	0,035
-432,919	158,200	-0,078	0,079
-431,905	474,311	0,047	-0,078
-430,890	-200,000	-0,014	0,134
-429,876	-115,562	-0,128	-0,018
-428,861	-24,030	-0,212	-0,092
-427,846	-200,000	0,009	0,143
-426,832	97,109	0,062	0,052
-425,817	174,979	0,055	-0,059
-424,803	800,000	0,049	0,139
-423,788	-200,000	0,008	-0,090
-422,773	-200,000	0,017	0,068
-421,759	-200,000	0,008	0,054
-420,744	-200,000	-0,010	0,037
-419,730	0,945	0,154	0,081
-418,715	-71,862	0,029	0,008
-417,701	-62,113	-0,086	-0,026
-416,686	-200,000	-0,010	-0,107
-415,671	641,612	0,046	0,086
-414,657	800,000	0,033	0,067
-413,642	564,665	0,020	-0,035
-412,628	800,000	-0,071	-0,149
-411,613	55,317	0,011	0,008
-410,598	800,000	0,023	0,051
-409,584	133,198	-0,050	0,048
-408,569	-4,868	-0,099	0,050
-407,555	800,000	0,022	0,062
-406,540	314,678	-0,015	-0,020
-405,525	-74,911	-0,048	0,012
-404,511	-200,000	-0,005	-0,106
-403,496	166,271	0,116	-0,121
-402,482	-17,618	0,106	-0,049
-401,467	800,000	-0,040	-0,129
-400,452	-65,327	0,153	0,045
-399,438	-144,900	0,126	0,008
-398,423	17,187	-0,138	0,080
-397,409	283,446	-0,104	-0,137
-396,394	-200,000	-0,017	0,061
-395,379	147,836	0,044	-0,043
-394,365	-145,367	0,056	-0,004
-393,350	800,000	0,050	0,144
-392,336	78,429	-0,053	0,042
-391,321	-20,598	0,076	0,034
-390,306	251,242	-0,052	-0,066
-389,292	308,326	-0,070	-0,096
-388,277	-200,000	-0,014	0,088
-387,263	447,240	0,086	-0,139
-386,248	121,141	-0,042	0,039
-385,233	-200,000	-0,039	0,140
-384,219	403,695	0,072	-0,112
-383,204	-200,000	-0,008	0,111
-382,190	98,677	-0,029	-0,024
-381,175	-190,671	0,211	0,002
-380,160	183,132	0,038	-0,042
-379,146	-200,000	0,002	0,152
-378,131	-200,000	-0,004	0,105
-377,117	-200,000	0,040	0,193
-376,102	549,003	-0,048	-0,084
-375,088	800,000	-0,026	-0,081
-374,073	267,752	0,027	0,034
-373,058	167,654	0,052	0,054
-372,044	800,000	-0,003	0,008
-371,029	332,121	-0,038	0,055
-370,015	800,000	-0,043	0,115
-369,000	39,006	0,085	0,055
-367,985	529,206	-0,045	0,078
-366,971	-200,000	0,054	-0,178
-365,956	-200,000	-0,011	0,066
-364,942	-200,000	0,035	0,132
-363,927	233,725	-0,080	-0,097
-362,912	69,010	-0,094	0,071
-361,898	338,692	-0,060	0,086
-360,883	99,160	-0,048	-0,040
-359,869	800,000	0,045	-0,097
-358,854	-200,000	0,017	-0,152
-357,839	201,963	0,070	0,079
-356,825	-17,625	0,157	0,072
-355,810	-200,000	0,026	0,088
-354,796	2,976	-0,097	-0,052
-353,781	72,530	-0,067	0,051
-352,766	-29,829	0,065	-0,027
-351,752	800,000	-0,055	0,125
-350,737	177,333	-0,097	0,103
-349,723	800,000	0,047	0,127
-348,708	-115,788	0,103	-0,014
-347,693	608,192	0,025	0,046
-346,679	715,450	0,067	-0,130
-345,664	-200,000	-0,021	-0,150
-344,650	-200,000	0,023	-0,083
-343,635	33,619	-0,115	-0,073
-342,620	-131,106	-0,073	-0,007
-341,606	179,231	-0,013	-0,014
-340,591	114,746	0,146	0,130
-339,577	93,299	-0,074	0,061
-338,562	-200,000	0,019	-0,064
-337,548	800,000	0,065	-0,155
-336,533	753,208	0,019	0,037
-335,518	186,797	0,051	0,056
-334,504	-200,000	0,003	-0,080
-333,489	-200,000	-0,004	-0,035
-332,475	14,651	-0,030	-0,017
-331,460	800,000	-0,035	0,074
-330,445	-6,110	0,086	-0,043
-329,431	-15,418	-0,066	0,031
-328,416	64,226	0,150	0,110
-327,402	552,036	-0,011	-0,019
-326,387	-200,000	-0,018	0,060
-325,372	800,000	-0,017	-0,049
-324,358	-200,000	0,001	0,029
-323,343	177,395	-0,031	-0,033
-322,329	617,479	0,059	0,109
-321,314	102,521	0,113	0,096
-320,299	-200,000	0,000	-0,022
-319,285	120,136	0,073	0,066
-318,270	-69,490	0,083	0,023
-317,256	-125,251	-0,119	-0,013
-316,241	594,097	0,030	-0,055
-315,226	90,976	-0,046	0,037
-314,212	19,739	0,105	0,062
-313,197	405,959	-0,015	-0,023
-312,183	283,210	-0,035	-0,046
-311,168	221,809	0,032	-0,037
-310,153	-70,216	-0,135	-0,037
-309,139	-200,000	-0,014	-0,174
-308,124	120,604	0,064	-0,058
-307,110	764,157	0,071	-0,142
-306,095	-200,000	-0,029	0,187
-305,080	-111,933	-0,017	0,002
-304,066	260,848	-0,086	-0,108
-303,051	213,083	-0,058	-0,067
-302,037	18,307	-0,044	-0,025
-301,022	-200,000	-0,013	-0,130
-300,008	-64,243	-0,075	0,022
-298,993	-200,000	0,008	0,050
-297,978	56,563	0,024	-0,017
-296,964	-200,000	0,012	0,134
-295,949	-142,389	0,151	-0,011
-294,935	-200,000	-0,004	-0,057
-293,920	-61,647	0,101	-0,031
-292,905	-54,715	0,095	0,031
-291,891	-200,000	0,011	0,126
-290,876	800,000	0,016	0,033
-289,862	606,011	-0,033	-0,060
-288,847	-200,000	0,032	0,118
-287,832	-75,180	-0,125	-0,032
-286,818	158,550	0,059	-0,060
-285,803	495,239	0,053	-0,090
-284,789	169,534	-0,105	-0,109
-283,774	-76,633	-0,068	-0,017
-282,759	800,000	-0,028	0,060
-281,745	161,584	-0,039	-0,040
-280,730	60,837	0,077	0,056
-279,716	-95,899	-0,103	-0,020
-278,701	800,000	-0,039	0,101
-277,686	-200,000	-0,012	0,044
-276,672	303,674	0,052	-0,071
-275,657	-200,000	-0,025	0,110
-274,643	112,053	0,084	-0,074
-273,628	758,787	-0,063	-0,124
-272,613	-200,000	-0,019	-0,075
-271,599	-200,000	-0,013	0,109
-270,584	217,909	0,080	0,093
-269,570	-27,230	-0,080	-0,034
-268,555	800,000	0,027	-0,064
-267,540	39,898	-0,088	0,057
-266,526	30,213	-0,050	-0,031
-265,511	-200,000	-0,015	0,110
-264,497	109,769	0,119	0,104
-263,482	-200,000	-0,007	0,029
-262,467	-31,490	-0,113	-0,046
-261,453	55,572	-0,088	-0,062
-260,438	-200,000	0,011	0,082
-259,424	-146,229	0,133	0,008
-258,409	30,490	0,009	-0,006
-257,395	-16,912	0,077	0,035
-256,380	-140,342	-0,067	0,005
-255,365	-51,210	0,105	0,036
-254,351	-200,000	-0,016	0,069
-253,336	-200,000	-0,021	-0,079
-252,322	33,400	-0,086	-0,055
-251,307	-7,928	-0,097	-0,048
-250,292	-41,344	0,020	0,008
-249,278	2,841	-0,045	0,024
-248,263	67,160	0,066	0,049
-247,249	-200,000	-0,017	-0,068
-246,234	-66,501	0,103	-0,029
-245,219	548,788	-0,056	-0,098
-244,205	741,028	-0,051	-0,101
-243,190	800,000	-0,035	-0,102
-242,176	505,804	-0,029	0,049
-241,161	-200,000	-0,020	0,142
-240,146	341,663	0,022	0,031
-239,132	-200,000	-0,001	-0,053
-238,117	75,958	-0,084	-0,065
-237,103	272,494	-0,075	-0,096
-236,088	12,261	0,199	-0,112
-235,073	479,203	0,038	0,063
-234,059	-200,000	0,000	-0,018
-233,044	132,701	0,053	-0,050
-232,030	800,000	0,033	-0,091
-231,015	66,839	0,119	0,088
-230,000	-188,180	-0,147	0,001
-228,986	413,732	0,042	0,066
-227,971	304,611	0,019	0,025
-226,957	-14,917	0,181	0,084
-225,942	-73,527	0,019	-0,005
-224,927	185,783	0,191	-0,207
-223,913	120,776	0,055	0,049
-222,898	-200,000	0,013	0,077
-221,884	800,000	0,007	-0,017
-220,869	-200,000	-0,005	-0,041
-219,855	271,332	0,045	-0,058
-218,840	379,316	0,023	-0,034
-217,825	-129,704	0,036	0,004
-216,811	-200,000	-0,005	-0,126
-215,796	-200,000	0,003	-0,102
-214,782	-53,288	-0,132	0,044
-213,767	-40,717	0,116	-0,044
-212,752	-139,419	0,056	-0,004
-211,738	-95,096	-0,083	0,016
-210,723	-36,972	-0,098	-0,038
-209,709	33,672	0,083	-0,052
-208,694	-103,899	-0,119	-0,020
-207,679	-7,502	-0,111	0,054
-206,665	130,278	0,112	0,105
-205,650	-200,000	0,035	0,150
-204,636	-200,000	0,010	0,047
-203,621	106,104	0,076	-0,065
-202,606	-200,000	-0,022	0,097
-201,592	222,084	-0,140	0,164
-200,577	680,412	0,047	-0,089
-199,563	-200,000	-0,012	0,092
-198,548	18,255	-0,076	-0,044
-197,533	574,167	0,061	0,108
-196,519	800,000	-0,067	0,153
-195,504	359,092	0,010	0,015
-194,490	120,124	-0,089	-0,080
-193,475	-97,853	0,119	-0,022
-192,460	-200,000	-0,028	0,095
-191,446	-142,848	0,163	0,011
-190,431	57,321	0,064	-0,045
-189,417	-200,000	0,030	0,101
-188,402	-134,658	-0,039	0,003
-187,387	178,475	-0,108	-0,115
-186,373	473,101	-0,054	-0,090
-185,358	36,356	-0,109	-0,070
-184,344	273,067	-0,067	0,086
-183,329	-47,505	0,108	-0,038
-182,315	-32,666	0,025	0,010
-181,300	-200,000	0,023	-0,124
-180,285	31,244	-0,019	-0,012
-179,271	677,138	-0,027	0,051
-178,256	-56,759	0,035	-0,011
-177,242	-200,000	-0,026	0,129
-176,227	23,128	-0,058	0,035
-175,212	800,000	-0,036	0,114
-174,198	42,273	-0,034	-0,023
-173,183	19,197	-0,072	0,042
-172,169	349,319	0,044	-0,063
-171,154	-200,000	-0,014	-0,049
-170,139	800,000	-0,061	0,173
-169,125	197,852	0,070	-0,078
-168,110	800,000	-0,016	0,035
-167,096	237,645	0,042	-0,051
-166,081	-98,197	-0,107	-0,020
-165,066	157,056	0,034	-0,034
-164,052	-200,000	0,024	-0,182
-163,037	-85,698	-0,161	0,036
-162,023	800,000	-0,067	0,142
-161,008	-200,000	-0,000	0,069
-159,993	-200,000	-0,003	0,092
-158,979	-51,077	0,093	0,031
-157,964	800,000	-0,050	-0,138
-156,950	-23,988	-0,043	0,018
-155,935	147,807	-0,147	-0,144
-154,920	714,791	0,055	-0,107
-153,906	142,149	-0,066	0,064
-152,891	-200,000	-0,020	0,134
-151,877	192,136	-0,041	0,045
-150,862	-127,322	-0,130	-0,014
-149,847	131,576	-0,067	-0,063
-148,833	115,407	-0,061	0,054
-147,818	92,854	-0,040	-0,032
-146,804	23,438	0,113	0,068
-145,789	-25,041	-0,024	-0,010
-144,775	46,851	0,072	0,049
-143,760	140,105	-0,056	-0,054
-142,745	268,635	-0,106	-0,135
-141,731	243,064	-0,096	0,117
-140,716	103,886	0,069	0,059
-139,702	-36,735	0,064	-0,025
-138,687	285,873	0,051	-0,067
-137,672	301,689	-0,018	0,025
-136,658	-200,000	0,026	-0,096
-135,643	12,118	-0,070	0,039
-134,629	-200,000	-0,038	-0,156
-133,614	626,099	0,015	0,028
-132,599	800,000	-0,021	0,068
-131,585	281,751	0,043	0,055
-130,570	-200,000	-0,011	-0,096
-129,556	165,442	-0,049	-0,050
-128,541	-200,000	0,014	-0,075
-127,526	-72,366	0,014	-0,004
-126,512	122,490	0,065	0,059
-125,497	-76,774	-0,044	0,011
-124,483	-64,912	0,068	-0,020
-123,468	-200,000	0,005	0,025
-122,453	-96,264	-0,051	0,010
-121,439	-200,000	0,027	-0,114
-120,424	-126,461	-0,071	0,008
-119,410	443,279	0,026	-0,042
