DTS Sentinel unit serial number:	SN410029Multiplexer serial number:	ORYXHardware model number:	OX2-SRSoftware version number:	ORYX F/W v4,00 Oryx Data Collector v3.7.2.0data status	okinstallation	B4 Nyhavnadifferential loss correction	single-endedforward channel	channel 2reverse channel	N/Adate	2023/12/15time	17:30:13forward acquisition time	300,00reverse acquisition time	0,00gamma	499,1914k internal	0,3142k external	0,3142temperature offset calibration	1,0000default loss term (dB/km)	0,3820temperature slope calibration	1,0000multiplexer offset coefficient	1,0000multiplexer slope coefficient	1,0000fibre end	0,00T internal ref (°C)	18,39T ext. ref 1 (°C)	4,13T ext. ref 2 (°C)	4,24length (m)	temperature (°C)	Stokes	anti-Stokes-744,400	800,000	0,064	0,160
-743,385	-21,157	-0,260	0,117
-742,371	-200,000	0,014	0,059
-741,356	57,059	-0,204	0,147
-740,342	351,488	0,054	0,079
-739,327	-87,263	-0,263	0,059
-738,312	369,519	0,028	0,042
-737,298	-95,280	-0,279	0,055
-736,283	259,723	0,046	0,059
-735,269	-157,051	-0,151	0,007
-734,254	326,754	0,043	0,062
-733,239	-3,788	-0,330	-0,169
-732,225	-66,485	0,065	0,019
-731,210	270,191	0,057	0,074
-730,196	96,806	0,051	-0,043
-729,181	-10,692	-0,050	-0,024
-728,167	-200,000	0,018	-0,132
-727,152	36,767	-0,132	0,086
-726,137	-122,922	-0,151	0,018
-725,123	418,448	0,057	-0,090
-724,108	-124,017	-0,135	0,016
-723,094	-35,019	-0,078	0,031
-722,079	546,429	-0,065	0,116
-721,064	800,000	-0,025	-0,058
-720,050	75,767	-0,074	0,058
-719,035	-19,911	-0,097	0,044
-718,021	-151,099	-0,155	0,008
-717,006	690,588	-0,071	-0,138
-715,991	70,210	-0,140	-0,107
-714,977	-133,781	0,051	-0,005
-713,962	-200,000	-0,018	-0,170
-712,948	53,043	0,107	0,075
-711,933	-200,000	-0,006	0,158
-710,918	224,325	-0,072	0,086
-709,904	362,832	-0,019	-0,029
-708,889	316,710	-0,019	0,027
-707,875	-200,000	-0,028	0,168
-706,860	-188,172	0,118	0,001
-705,845	-200,000	0,015	-0,078
-704,831	254,160	-0,058	0,074
-703,816	-55,031	0,103	0,034
-702,802	-145,438	-0,133	-0,009
-701,787	-65,312	0,146	-0,043
-700,772	-87,718	-0,027	0,006
-699,758	383,794	-0,031	0,048
-698,743	-39,169	-0,048	0,019
-697,729	-10,090	-0,111	0,054
-696,714	-67,417	0,082	-0,024
-695,699	4,157	0,127	-0,068
-694,685	337,655	-0,061	0,088
-693,670	-200,000	0,004	-0,014
-692,656	131,698	0,076	0,072
-691,641	-200,000	-0,025	-0,091
-690,627	-200,000	0,017	0,101
-689,612	285,419	0,075	0,100
-688,597	340,243	-0,015	0,021
-687,583	208,839	0,049	-0,057
-686,568	-200,000	0,016	-0,092
-685,554	-14,976	-0,076	0,036
-684,539	-149,784	0,113	-0,006
-683,524	114,901	0,051	-0,046
-682,510	148,678	0,038	0,038
-681,495	131,545	0,018	-0,017
-680,481	233,791	-0,030	0,036
-679,466	-76,467	0,096	-0,025
-678,451	29,276	0,034	-0,022
-677,437	-200,000	-0,011	0,038
-676,422	-200,000	0,026	0,111
-675,408	-200,000	-0,000	0,036
-674,393	-24,759	0,070	0,031
-673,378	137,641	-0,044	-0,042
-672,364	-200,000	0,004	-0,037
-671,349	-24,076	-0,069	0,030
-670,335	800,000	-0,053	-0,127
-669,320	-138,460	-0,162	0,013
-668,305	8,425	-0,054	0,030
-667,291	53,186	-0,054	-0,038
-666,276	237,195	-0,040	0,049
-665,262	104,240	-0,043	0,037
-664,247	-97,498	-0,066	-0,013
-663,232	-89,553	-0,011	0,002
-662,218	251,864	0,050	0,063
-661,203	800,000	-0,046	0,135
-660,189	77,302	0,070	-0,055
-659,174	800,000	-0,009	0,022
-658,159	183,089	0,030	-0,033
-657,145	-151,046	0,096	0,005
-656,130	125,087	-0,034	-0,032
-655,116	698,598	0,074	-0,145
-654,101	161,161	0,042	0,043
-653,086	-28,758	-0,130	0,055
-652,072	154,463	0,050	-0,051
-651,057	-68,082	-0,074	0,021
-650,043	584,741	0,050	0,091
-649,028	-200,000	0,007	0,149
-648,014	800,000	0,051	0,151
-646,999	695,280	0,010	-0,019
-645,984	26,175	-0,048	-0,029
-644,970	33,859	-0,042	0,027
-643,955	43,956	0,111	-0,075
-642,941	176,907	-0,128	-0,138
-641,926	56,276	0,046	0,033
-640,911	-200,000	-0,013	0,107
-639,897	-4,580	0,018	-0,009
-638,882	-200,000	0,010	-0,075
-637,868	166,908	-0,084	0,088
-636,853	800,000	0,011	-0,028
-635,838	800,000	-0,066	-0,195
-634,824	-85,764	-0,104	0,024
-633,809	295,620	0,047	0,063
-632,795	99,941	-0,029	-0,025
-631,780	74,727	-0,001	0,001
-630,765	157,289	0,065	0,067
-629,751	-41,428	-0,038	0,014
-628,736	774,517	-0,013	0,027
-627,722	512,373	0,059	0,102
-626,707	-4,393	-0,022	-0,011
-625,692	800,000	0,029	0,074
-624,678	-200,000	-0,007	0,140
-623,663	7,157	-0,041	0,023
-622,649	201,858	-0,019	-0,021
-621,634	80,308	-0,062	-0,049
-620,619	-200,000	0,017	-0,057
-619,605	514,605	0,082	-0,142
-618,590	800,000	0,025	0,078
-617,576	332,725	0,049	0,071
-616,561	800,000	-0,048	-0,143
-615,546	205,465	0,021	-0,024
-614,532	-158,636	-0,079	-0,003
-613,517	-154,869	-0,072	-0,003
-612,503	-200,000	-0,001	0,085
-611,488	168,439	-0,005	-0,005
-610,474	-155,457	0,177	0,008
-609,459	-200,000	0,001	-0,046
-608,444	-131,547	0,038	-0,004
-607,430	-140,185	-0,024	0,002
-606,415	188,152	-0,098	-0,108
-605,401	233,323	-0,041	-0,050
-604,386	211,756	0,016	0,019
-603,371	10,500	-0,040	-0,022
-602,357	-84,978	-0,150	0,034
-601,342	800,000	0,038	-0,095
-600,328	180,948	-0,071	-0,077
-599,313	68,735	0,074	-0,056
-598,298	800,000	-0,020	-0,046
-597,284	-74,609	0,164	-0,043
-596,269	-200,000	0,024	-0,092
-595,255	132,889	0,143	-0,136
-594,240	-200,000	-0,009	0,042
-593,225	318,129	0,047	-0,065
-592,211	-200,000	-0,031	-0,170
-591,196	-1,297	0,066	-0,034
-590,182	800,000	0,037	-0,087
-589,167	-200,000	0,001	0,116
-588,152	480,922	0,035	0,059
-587,138	800,000	-0,047	-0,121
-586,123	800,000	-0,042	0,100
-585,109	-200,000	-0,013	-0,044
-584,094	-108,930	0,106	-0,016
-583,079	-200,000	0,000	0,071
-582,065	521,711	-0,045	-0,079
-581,050	226,666	0,061	0,073
-580,036	-69,486	-0,076	-0,021
-579,021	194,115	-0,023	0,026
-578,006	-200,000	-0,002	-0,097
-576,992	-200,000	-0,010	0,076
-575,977	800,000	0,021	-0,068
-574,963	442,297	0,028	-0,045
-573,948	-128,228	0,041	0,004
-572,934	-200,000	-0,002	0,055
-571,919	8,857	0,040	0,022
-570,904	-200,000	0,002	-0,026
-569,890	800,000	0,051	-0,147
-568,875	270,528	-0,021	-0,028
-567,861	11,488	-0,103	0,058
-566,846	-71,455	0,062	-0,017
-565,831	-26,661	0,067	-0,029
-564,817	184,433	-0,051	-0,056
-563,802	-93,413	-0,088	0,018
-562,788	-85,803	0,138	-0,031
-561,773	800,000	-0,037	0,087
-560,758	-200,000	0,007	0,030
-559,744	-81,674	0,078	-0,019
-558,729	-46,474	0,077	0,028
-557,715	142,998	-0,066	-0,065
-556,700	-58,407	0,035	0,011
-555,685	-72,015	-0,077	-0,021
-554,671	0,772	-0,091	-0,048
-553,656	112,407	-0,016	0,015
-552,642	74,270	0,053	0,041
-551,627	-200,000	0,004	0,023
-550,612	-94,203	0,089	0,018
-549,598	-63,400	0,043	-0,013
-548,583	51,535	-0,037	-0,026
-547,569	220,723	-0,049	-0,058
-546,554	720,834	0,044	0,087
-545,539	186,952	0,052	0,057
-544,525	-200,000	-0,019	0,083
-543,510	252,255	0,062	-0,078
-542,496	-200,000	-0,003	0,060
-541,481	-200,000	-0,044	-0,146
-540,466	-132,451	-0,057	-0,005
-539,452	38,416	0,071	-0,046
-538,437	-200,000	-0,005	-0,040
-537,423	-200,000	-0,004	-0,121
-536,408	64,776	-0,067	-0,050
-535,393	239,406	-0,064	-0,079
-534,379	-99,119	-0,161	-0,030
-533,364	-200,000	-0,006	-0,053
-532,350	-200,000	-0,003	0,069
-531,335	76,887	0,094	0,073
-530,321	70,674	-0,088	0,067
-529,306	-200,000	0,022	0,082
-528,291	-102,982	-0,087	-0,015
-527,277	108,537	0,108	0,095
-526,262	48,206	-0,059	-0,041
-525,248	96,857	-0,093	0,079
-524,233	-44,657	0,093	0,034
-523,218	-4,560	0,068	-0,034
-522,204	800,000	-0,011	-0,035
-521,189	661,643	-0,107	-0,203
-520,175	-199,764	0,092	0,000
-519,160	599,569	-0,070	-0,129
-518,145	115,693	-0,109	0,098
-517,131	-200,000	0,022	0,094
-516,116	90,408	0,095	-0,078
-515,102	-11,815	0,059	-0,028
-514,087	103,921	-0,042	0,036
-513,072	-200,000	-0,008	-0,028
-512,058	-200,000	-0,003	0,088
-511,043	112,969	-0,046	0,041
-510,029	800,000	-0,048	0,114
-509,014	60,898	0,024	-0,018
-507,999	187,728	0,098	0,108
-506,985	-200,000	0,008	-0,061
-505,970	409,061	-0,064	-0,100
-504,956	-97,515	-0,024	0,005
-503,941	113,696	0,063	-0,056
-502,926	526,450	0,053	0,091
-501,912	-200,000	-0,011	0,037
-500,897	172,626	0,118	0,125
-499,883	-200,000	-0,019	0,067
-498,868	232,965	-0,037	-0,044
-497,853	753,674	-0,072	-0,144
-496,839	-123,774	0,057	0,007
-495,824	504,025	0,074	0,126
-494,810	-200,000	0,027	0,140
-493,795	87,614	0,046	-0,037
-492,781	-90,691	-0,059	-0,012
-491,766	-200,000	-0,023	-0,174
-490,751	674,368	-0,056	-0,108
-489,737	43,142	-0,165	-0,111
-488,722	113,549	0,119	0,106
-487,708	283,148	0,095	0,125
-486,693	800,000	0,027	0,067
-485,678	92,774	-0,016	0,013
-484,664	-200,000	0,025	-0,147
-483,649	93,987	-0,156	-0,130
-482,635	-42,936	-0,029	-0,011
-481,620	407,135	0,052	0,080
-480,605	288,995	0,011	-0,015
-479,591	11,352	0,080	-0,045
-478,576	42,230	-0,106	-0,070
-477,562	72,521	-0,034	0,026
-476,547	52,654	-0,129	-0,091
-475,532	-200,000	-0,039	-0,148
-474,518	-200,000	-0,054	-0,203
-473,503	102,050	0,104	-0,089
-472,489	-44,838	-0,030	-0,011
-471,474	-37,899	-0,105	0,041
-470,459	-200,000	-0,008	-0,071
-469,445	136,298	-0,010	-0,009
-468,430	-179,065	-0,083	-0,001
-467,416	-127,880	0,122	-0,013
-466,401	163,479	-0,054	-0,056
-465,386	782,325	0,010	-0,020
-464,372	-200,000	0,003	0,030
-463,357	-36,534	-0,026	-0,010
-462,343	554,192	-0,043	-0,076
-461,328	340,821	0,048	-0,069
-460,313	319,848	0,044	-0,061
-459,299	190,949	-0,037	-0,040
-458,284	518,828	0,014	-0,023
-457,270	-200,000	0,015	-0,056
-456,255	-200,000	-0,024	-0,112
-455,241	-200,000	-0,024	0,000
-454,226	-14,010	-0,115	0,054
-453,211	250,011	-0,032	0,040
-452,197	800,000	0,025	-0,072
-451,182	481,696	-0,061	0,101
-450,168	-200,000	-0,028	-0,094
-449,153	169,517	-0,069	0,072
-448,138	105,453	-0,075	0,065
-447,124	-19,097	-0,030	-0,014
-446,109	345,140	-0,029	0,042
-445,095	-200,000	-0,001	-0,064
-444,080	-200,000	0,000	0,168
-443,065	156,565	-0,100	-0,101
-442,051	59,705	0,100	0,072
-441,036	55,603	-0,074	0,052
-440,022	-200,000	0,014	0,049
-439,007	-67,126	0,037	-0,010
-437,992	-0,793	0,049	0,025
-436,978	105,620	-0,026	-0,022
-435,963	-13,514	-0,045	-0,021
-434,949	-200,000	-0,027	-0,144
-433,934	60,361	-0,093	0,067
-432,919	-116,413	0,062	-0,008
-431,905	-163,138	-0,092	-0,003
-430,890	34,514	-0,080	-0,051
-429,876	-118,569	0,042	0,005
-428,861	373,720	-0,091	0,136
-427,846	-148,369	0,008	0,000
-426,832	111,346	-0,005	-0,005
-425,817	239,287	0,070	-0,085
-424,803	-42,771	-0,144	0,053
-423,788	-91,256	0,208	0,043
-422,773	15,170	0,070	-0,040
-421,759	324,845	-0,052	0,073
-420,744	-13,567	-0,071	0,034
-419,730	800,000	-0,055	-0,158
-418,715	17,273	0,099	0,057
-417,701	199,452	-0,067	0,075
-416,686	791,219	0,045	0,090
-415,671	411,810	0,050	0,078
-414,657	570,237	-0,071	0,127
-413,642	-149,816	0,049	0,003
-412,628	-65,477	-0,124	-0,036
-411,613	800,000	-0,014	0,032
-410,598	-200,000	-0,006	0,055
-409,584	36,616	-0,100	-0,065
-408,569	98,802	0,035	-0,030
-407,555	27,943	0,132	-0,081
-406,540	800,000	-0,033	0,091
-405,525	83,843	0,076	-0,061
-404,511	-56,375	-0,084	0,027
-403,496	365,311	0,043	-0,063
-402,482	-147,024	0,035	0,002
-401,467	-200,000	0,018	0,084
-400,452	-158,941	-0,111	-0,005
-399,438	300,025	0,042	-0,056
-398,423	197,537	-0,080	0,089
-397,409	40,628	0,038	0,025
-396,394	-105,798	-0,065	0,011
-395,379	-200,000	-0,011	-0,048
-394,365	281,565	0,050	-0,065
-393,350	-21,720	0,040	0,018
-392,336	-133,521	0,147	0,013
-391,321	-105,381	0,028	-0,005
-390,306	334,779	-0,062	0,088
-389,292	-62,026	-0,135	0,041
-388,277	548,161	-0,032	0,057
-387,263	-200,000	-0,031	0,124
-386,248	800,000	0,027	0,079
-385,233	-200,000	0,037	0,139
-384,219	775,551	0,066	0,132
-383,204	327,910	0,031	0,043
-382,190	328,128	0,044	0,061
-381,175	201,287	-0,012	0,014
-380,160	-200,000	-0,014	0,078
-379,146	62,665	0,125	0,091
-378,131	711,920	0,033	-0,064
-377,117	-46,454	-0,068	-0,024
-376,102	265,347	0,048	0,062
-375,088	800,000	0,050	0,157
-374,073	800,000	-0,025	0,055
-373,058	-149,011	-0,072	0,004
-372,044	40,797	0,088	0,058
-371,029	290,072	0,031	0,042
-370,015	-200,000	-0,011	-0,072
-369,000	379,955	-0,077	0,116
-367,985	800,000	0,071	0,148
-366,971	-200,000	-0,014	0,143
-365,956	-62,781	-0,065	-0,019
-364,942	-16,970	-0,055	0,025
-363,927	800,000	-0,007	-0,022
-362,912	-51,611	0,163	0,055
-361,898	-200,000	-0,003	-0,068
-360,883	59,145	0,051	0,037
-359,869	-28,265	0,037	0,016
-358,854	800,000	0,034	-0,078
-357,839	143,067	0,031	-0,030
-356,825	-200,000	0,028	0,131
-355,810	-99,410	-0,084	-0,015
-354,796	-200,000	0,021	0,069
-353,781	13,404	0,036	-0,020
-352,766	-200,000	0,034	-0,112
-351,752	-200,000	0,010	-0,048
-350,737	-200,000	-0,019	0,116
-349,723	-200,000	0,011	0,063
-348,708	386,778	-0,022	0,034
-347,693	800,000	-0,050	-0,157
-346,679	20,387	0,011	0,006
-345,664	11,136	0,123	-0,068
-344,650	-85,181	0,136	0,031
-343,635	-200,000	0,010	0,051
-342,620	-38,285	0,144	0,055
-341,606	-69,522	0,170	0,047
-340,591	-39,424	0,067	-0,025
-339,577	-200,000	-0,028	-0,105
-338,562	-200,000	-0,016	-0,100
-337,548	-98,209	-0,030	-0,006
-336,533	-137,089	0,125	-0,010
-335,518	-200,000	-0,011	0,071
-334,504	-105,695	-0,054	0,009
-333,489	-116,053	0,087	-0,012
-332,475	-200,000	0,006	0,098
-331,460	-200,000	-0,003	-0,031
-330,445	-200,000	0,002	0,083
-329,431	-111,325	0,128	-0,019
-328,416	-64,807	0,064	0,019
-327,402	-32,774	-0,047	0,019
-326,387	68,724	-0,059	-0,044
-325,372	103,420	0,026	-0,022
-324,358	513,274	-0,069	0,118
-323,343	214,568	-0,037	-0,043
-322,329	-200,000	-0,010	0,085
-321,314	-200,000	0,000	-0,025
-320,299	229,580	-0,104	-0,125
-319,285	-142,307	-0,201	-0,014
-318,270	800,000	-0,046	-0,118
-317,256	593,948	0,006	0,011
-316,241	-143,317	-0,095	0,007
-315,226	-24,085	0,122	0,053
-314,212	-157,016	0,076	0,003
-313,197	1,407	0,046	0,024
-312,183	-138,243	0,112	0,009
-311,168	-91,768	-0,128	-0,026
-310,153	-24,879	-0,118	-0,051
-309,139	800,000	0,062	0,130
-308,124	-150,699	0,061	0,003
-307,110	148,447	-0,047	0,046
-306,095	-200,000	-0,007	0,077
-305,080	95,258	0,081	0,067
-304,066	157,460	0,094	-0,095
-303,051	51,215	-0,117	-0,081
-302,037	-29,322	-0,139	0,058
-301,022	-200,000	0,013	-0,101
-300,008	90,482	-0,059	-0,048
-298,993	800,000	0,014	-0,031
-297,978	-55,201	-0,074	-0,024
-296,964	-45,692	0,148	0,053
-295,949	-79,819	-0,039	0,010
-294,935	-200,000	0,023	-0,106
-293,920	669,175	0,009	0,016
-292,905	-44,617	-0,027	-0,010
-291,891	301,984	0,034	0,046
-290,876	40,898	0,072	-0,047
-289,862	-79,904	-0,146	0,035
-288,847	344,425	-0,084	-0,121
-287,832	53,110	-0,066	-0,046
-286,818	646,007	-0,044	0,083
-285,803	27,034	0,156	-0,095
-284,789	9,949	0,020	0,011
-283,774	-200,000	0,001	-0,018
-282,759	36,953	-0,032	0,021
-281,745	326,453	0,012	0,017
-280,730	-102,817	-0,186	0,032
-279,716	800,000	0,037	0,100
-278,701	-149,577	0,166	0,009
-277,686	-200,000	0,001	0,086
-276,672	260,203	-0,029	-0,036
-275,657	79,245	0,087	-0,068
-274,643	82,399	-0,054	-0,043
-273,628	-43,277	-0,050	0,018
-272,613	-82,864	0,037	0,009
-271,599	281,499	0,042	0,054
-270,584	-59,850	0,116	-0,036
-269,570	-25,661	-0,067	-0,028
-268,555	380,191	0,062	-0,093
-267,540	262,192	-0,069	-0,087
-266,526	323,272	-0,064	-0,090
-265,511	-157,757	0,174	0,007
-264,497	-80,073	-0,036	0,009
-263,482	800,000	-0,072	-0,155
-262,467	-200,000	0,023	-0,082
-261,453	44,402	-0,130	0,087
-260,438	-200,000	-0,018	-0,068
-259,424	77,890	-0,103	0,080
-258,409	146,275	0,006	-0,006
-257,395	100,659	0,015	0,013
-256,380	557,110	0,056	0,098
-255,365	-200,000	0,017	-0,113
-254,351	290,015	-0,040	-0,052
-253,336	-200,000	-0,007	-0,030
-252,322	800,000	-0,073	-0,176
-251,307	-36,356	0,069	-0,027
-250,292	94,720	0,128	-0,105
-249,278	34,999	-0,130	0,083
-248,263	68,307	0,100	-0,074
-247,249	800,000	0,036	0,076
-246,234	-200,000	-0,025	0,152
-245,219	-200,000	0,049	-0,175
-244,205	242,170	-0,052	-0,063
-243,190	376,568	0,027	-0,041
-242,176	-151,920	-0,097	0,005
-241,161	-59,713	0,067	-0,021
-240,146	-186,914	-0,056	0,001
-239,132	-200,000	-0,003	0,077
-238,117	-200,000	-0,005	0,048
-237,103	-21,648	-0,066	0,029
-236,088	496,173	-0,015	0,025
-235,073	297,950	-0,059	0,080
-234,059	25,082	0,083	0,050
-233,044	-200,000	-0,005	0,032
-232,030	-35,293	0,092	-0,036
-231,015	-154,722	0,124	-0,006
-230,000	-4,797	-0,119	-0,059
-228,986	800,000	0,029	-0,076
-227,971	63,421	0,055	0,040
-226,957	-8,484	0,062	-0,030
-225,942	800,000	0,052	-0,106
-224,927	161,957	0,041	-0,042
-223,913	-200,000	0,015	-0,133
-222,898	3,951	-0,040	-0,021
-221,884	-34,339	0,046	-0,018
-220,869	87,721	0,031	0,025
-219,855	256,220	-0,050	0,062
-218,840	5,279	0,067	0,036
-217,825	-200,000	-0,005	-0,058
-216,811	-100,687	0,023	0,004
-215,796	372,346	-0,066	-0,097
-214,782	800,000	-0,025	-0,069
-213,767	-200,000	0,006	0,068
-212,752	-200,000	-0,018	0,081
-211,738	-179,608	0,154	0,002
-210,723	-130,417	0,035	0,003
-209,709	-163,363	0,114	-0,004
-208,694	-200,000	0,024	-0,094
-207,679	374,431	-0,016	0,024
-206,665	122,848	-0,053	-0,048
-205,650	-128,691	0,098	0,010
-204,636	-200,000	0,038	0,124
-203,621	-200,000	-0,023	-0,084
-202,606	241,243	-0,021	0,026
-201,592	40,490	-0,038	0,025
-200,577	-7,196	-0,090	0,044
-199,563	177,581	0,113	0,119
-198,548	-56,851	-0,061	-0,020
-197,533	800,000	0,083	0,197
-196,519	-200,000	0,012	-0,043
-195,504	-147,715	-0,087	0,005
-194,490	53,686	0,106	0,074
-193,475	22,104	-0,014	0,008
-192,460	-57,852	-0,117	-0,037
-191,446	-1,164	-0,050	-0,025
-190,431	244,348	0,175	0,214
-189,417	-200,000	-0,033	0,120
-188,402	23,919	0,042	0,025
-187,387	800,000	-0,054	-0,112
-186,373	-48,562	-0,150	-0,052
-185,358	-78,432	0,086	0,021
-184,344	410,748	-0,056	0,086
-183,329	-200,000	-0,013	0,258
-182,315	-79,135	0,133	0,032
-181,300	-3,100	-0,031	0,016
-180,285	82,552	-0,070	0,055
-179,271	-169,432	-0,042	0,001
-178,256	77,297	0,091	-0,070
-177,242	-200,000	0,007	0,029
-176,227	-200,000	0,013	-0,067
-175,212	-65,475	0,106	-0,031
-174,198	-38,806	0,072	0,027
-173,183	-200,000	-0,001	0,022
-172,169	9,923	0,040	-0,022
-171,154	-19,499	-0,028	-0,013
-170,139	373,412	0,050	-0,074
-169,125	-8,898	0,107	0,052
-168,110	800,000	-0,057	0,153
-167,096	-200,000	-0,014	-0,066
-166,081	-200,000	-0,008	-0,073
-165,066	-118,630	-0,164	-0,021
-164,052	-200,000	-0,004	0,119
-163,037	-200,000	0,019	0,100
-162,023	165,779	0,034	0,034
-161,008	759,581	0,029	0,056
-159,993	-200,000	-0,007	0,061
-158,979	-14,386	-0,050	-0,023
-157,964	251,757	-0,118	-0,146
-156,950	-101,888	-0,197	0,034
-155,935	408,649	0,016	0,025
-154,920	75,034	-0,037	0,028
-153,906	167,188	0,066	-0,068
-152,891	-22,137	-0,084	-0,037
-151,877	59,070	-0,151	-0,108
-150,862	800,000	0,030	-0,072
-149,847	-109,471	-0,052	0,008
-148,833	-60,228	0,015	0,005
-147,818	-49,285	-0,122	0,042
-146,804	800,000	0,043	0,100
-145,789	-200,000	-0,032	0,142
-144,775	800,000	-0,018	-0,037
-143,760	211,062	-0,028	-0,032
-142,745	-12,304	-0,032	0,015
-141,731	-103,379	0,064	0,011
-140,716	30,042	-0,090	-0,055
-139,702	-46,310	-0,094	-0,033
-138,687	800,000	-0,032	0,070
-137,672	-200,000	-0,002	-0,008
-136,658	-100,143	-0,078	0,014
-135,643	-200,000	-0,003	-0,075
-134,629	216,074	-0,051	0,058
-133,614	-200,000	-0,005	-0,064
-132,599	50,645	0,030	-0,021
-131,585	-200,000	0,007	-0,023
-130,570	800,000	-0,040	-0,091
-129,556	19,515	0,048	-0,028
-128,541	-33,553	0,038	0,015
-127,526	31,582	0,050	-0,031
-126,512	81,092	-0,086	-0,067
-125,497	41,396	-0,069	-0,045
-124,483	-11,395	0,179	0,085
-123,468	-86,383	-0,153	0,034
-122,453	-200,000	-0,018	-0,066
-121,439	-200,000	0,008	-0,027
-120,424	-200,000	-0,019	-0,071
-119,410	-74,513	0,052	0,013
-118,395	-68,142	-0,131	0,037
