DTS Sentinel unit serial number:	SN410029Multiplexer serial number:	ORYXHardware model number:	OX2-SRSoftware version number:	ORYX F/W v4,00 Oryx Data Collector v3.7.2.0data status	okinstallation	B4 Nyhavnadifferential loss correction	single-endedforward channel	channel 2reverse channel	N/Adate	2023/12/16time	03:45:13forward acquisition time	300,00reverse acquisition time	0,00gamma	499,1914k internal	0,3128k external	0,3128temperature offset calibration	1,0000default loss term (dB/km)	0,3820temperature slope calibration	1,0000multiplexer offset coefficient	1,0000multiplexer slope coefficient	1,0000fibre end	0,00T internal ref (°C)	22,00T ext. ref 1 (°C)	7,10T ext. ref 2 (°C)	7,27length (m)	temperature (°C)	Stokes	anti-Stokes-744,400	-200,000	-0,027	-0,133
-743,385	-160,007	-0,153	-0,006
-742,371	211,495	0,086	0,100
-741,356	462,754	-0,147	0,246
-740,342	-42,357	0,071	-0,027
-739,327	-108,863	-0,284	0,045
-738,312	30,999	-0,060	-0,038
-737,298	81,894	-0,092	0,074
-736,283	-112,418	0,130	0,019
-735,269	-8,782	-0,317	0,158
-734,254	800,000	0,033	0,095
-733,239	-80,968	-0,544	-0,133
-732,225	-96,587	0,226	0,044
-731,210	-200,000	-0,021	0,070
-730,196	-150,879	-0,123	0,007
-729,181	-95,416	-0,135	0,027
-728,167	-128,912	-0,138	-0,014
-727,152	34,586	-0,114	-0,074
-726,137	537,003	-0,046	-0,081
-725,123	632,105	-0,039	0,073
-724,108	-200,000	-0,044	-0,184
-723,094	-200,000	-0,003	-0,028
-722,079	800,000	-0,022	0,056
-721,064	-17,293	-0,111	-0,052
-720,050	-172,819	0,038	-0,001
-719,035	156,712	-0,007	0,007
-718,021	800,000	-0,043	-0,121
-717,006	-16,121	-0,145	-0,068
-715,991	-140,866	-0,097	-0,007
-714,977	-141,804	-0,048	0,003
-713,962	-109,019	0,034	0,005
-712,948	-56,869	-0,036	-0,012
-711,933	321,597	0,055	-0,078
-710,918	-200,000	0,021	-0,108
-709,904	-91,985	-0,191	0,040
-708,889	-37,740	0,009	0,003
-707,875	800,000	-0,062	-0,171
-706,860	-200,000	-0,033	0,000
-705,845	-200,000	-0,017	0,095
-704,831	-200,000	0,014	-0,072
-703,816	800,000	-0,023	0,051
-702,802	199,148	-0,092	-0,104
-701,787	136,574	-0,066	-0,064
-700,772	-78,314	-0,079	0,020
-699,758	-70,637	0,114	0,032
-698,743	154,699	-0,085	-0,087
-697,729	276,341	0,043	0,057
-696,714	280,389	-0,040	0,053
-695,699	800,000	0,037	0,116
-694,685	-103,410	-0,035	-0,006
-693,670	-141,451	-0,051	0,004
-692,656	800,000	0,030	0,068
-691,641	-111,391	-0,035	-0,005
-690,627	127,200	0,120	-0,113
-689,612	-17,743	0,032	0,015
-688,597	63,721	-0,112	-0,084
-687,583	149,422	-0,241	-0,242
-686,568	800,000	-0,029	-0,062
-685,554	508,352	-0,025	-0,043
-684,539	-84,877	0,085	0,020
-683,524	-200,000	-0,004	0,020
-682,510	-66,190	0,059	0,017
-681,495	129,614	0,042	-0,040
-680,481	92,290	-0,068	0,057
-679,466	-137,724	-0,070	-0,006
-678,451	357,908	-0,030	-0,045
-677,437	-95,888	0,065	-0,013
-676,422	-160,441	0,109	0,004
-675,408	6,623	-0,087	-0,048
-674,393	-15,947	0,083	-0,039
-673,378	0,589	-0,005	0,003
-672,364	-29,063	-0,105	-0,045
-671,349	-200,000	-0,020	-0,137
-670,335	253,380	0,045	-0,057
-669,320	35,345	-0,128	0,083
-668,305	-200,000	0,006	-0,064
-667,291	-59,116	-0,031	0,010
-666,276	104,790	-0,071	-0,062
-665,262	795,780	-0,045	-0,093
-664,247	800,000	-0,022	0,066
-663,232	-200,000	-0,020	0,119
-662,218	135,023	0,044	-0,043
-661,203	-71,104	0,153	0,042
-660,189	-76,502	-0,049	-0,013
-659,174	-118,222	-0,118	-0,015
-658,159	-71,048	0,056	-0,016
-657,145	52,886	-0,130	-0,092
-656,130	800,000	-0,027	0,060
-655,116	607,969	0,052	-0,097
-654,101	-135,481	0,105	0,009
-653,086	485,890	0,006	-0,011
-652,072	800,000	-0,013	-0,035
-651,057	-106,909	0,090	-0,015
-650,043	76,999	-0,122	-0,096
-649,028	-62,001	-0,051	0,016
-648,014	-200,000	0,007	0,087
-646,999	332,818	-0,124	0,179
-645,984	-200,000	-0,004	-0,060
-644,970	-200,000	0,036	0,152
-643,955	-73,464	-0,148	-0,040
-642,941	375,135	0,023	0,035
-641,926	567,419	0,033	-0,059
-640,911	-200,000	0,007	-0,117
-639,897	10,466	-0,060	-0,034
-638,882	257,318	-0,069	-0,088
-637,868	-145,306	-0,132	0,009
-636,853	408,213	-0,076	-0,119
-635,838	262,222	0,084	-0,109
-634,824	-20,433	0,017	0,008
-633,809	-93,565	0,126	0,026
-632,795	-200,000	0,002	0,069
-631,780	-200,000	-0,052	-0,172
-630,765	-200,000	-0,022	-0,116
-629,751	324,473	-0,081	-0,115
-628,736	316,759	0,047	-0,066
-627,722	-130,944	0,075	-0,007
-626,707	-119,184	-0,009	-0,001
-625,692	-176,162	-0,032	-0,001
-624,678	190,421	0,023	0,025
-623,663	-200,000	0,006	0,171
-622,649	-36,563	0,066	0,026
-621,634	2,686	0,068	-0,037
-620,619	-59,853	-0,075	0,024
-619,605	-103,816	-0,100	0,017
-618,590	-57,165	0,086	0,028
-617,576	-139,569	-0,023	0,002
-616,561	800,000	-0,006	-0,018
-615,546	18,050	0,091	0,053
-614,532	0,310	-0,130	-0,069
-613,517	800,000	0,041	-0,123
-612,503	-200,000	-0,014	0,070
-611,488	3,664	-0,053	0,029
-610,474	-200,000	0,020	-0,115
-609,459	800,000	0,047	-0,112
-608,444	692,550	-0,060	-0,118
-607,430	539,371	0,114	-0,202
-606,415	635,891	0,093	-0,176
-605,401	37,108	-0,095	-0,062
-604,386	-115,718	0,032	-0,004
-603,371	-200,000	-0,014	0,154
-602,357	96,489	0,050	-0,042
-601,342	-55,186	-0,064	0,021
-600,328	-37,033	-0,077	0,030
-599,313	129,980	-0,068	0,064
-598,298	-200,000	-0,004	-0,119
-597,284	415,825	0,060	0,094
-596,269	-200,000	0,011	-0,084
-595,255	730,520	-0,022	-0,045
-594,240	-35,920	-0,164	0,065
-593,225	100,878	0,082	-0,071
-592,211	-101,971	-0,100	0,018
-591,196	59,528	-0,116	-0,085
-590,182	375,741	0,079	0,119
-589,167	-143,257	-0,141	-0,010
-588,152	32,311	-0,065	-0,042
-587,138	435,890	-0,035	-0,056
-586,123	-200,000	0,059	-0,284
-585,109	-200,000	-0,001	-0,115
-584,094	800,000	0,032	-0,102
-583,079	7,395	-0,036	0,020
-582,065	336,725	0,082	0,118
-581,050	473,506	0,061	-0,102
-580,036	-80,829	0,104	-0,025
-579,021	0,837	-0,018	0,009
-578,006	274,548	-0,094	-0,123
-576,992	800,000	0,017	-0,045
-575,977	-114,630	-0,045	0,006
-574,963	-132,884	-0,115	0,011
-573,948	208,979	0,035	0,040
-572,934	70,854	0,103	0,079
-571,919	39,238	-0,087	-0,058
-570,904	-200,000	0,015	-0,084
-569,890	82,743	0,096	-0,077
-568,875	-112,050	0,179	-0,026
-567,861	680,568	0,027	0,052
-566,846	215,689	-0,111	0,131
-565,831	-200,000	0,010	-0,041
-564,817	-94,324	-0,068	0,014
-563,802	268,312	-0,018	-0,023
-562,788	-33,609	0,080	-0,032
-561,773	131,842	-0,060	-0,057
-560,758	175,086	0,055	0,059
-559,744	-200,000	0,011	0,042
-558,729	-41,078	-0,223	0,085
-557,715	134,729	-0,067	0,064
-556,700	259,442	-0,075	-0,096
-555,685	181,482	-0,108	-0,117
-554,671	1,282	0,098	-0,052
-553,656	-200,000	-0,010	-0,088
-552,642	667,685	0,034	0,064
-551,627	-200,000	0,005	-0,023
-550,612	420,123	-0,066	-0,104
-549,598	-147,536	-0,067	-0,004
-548,583	227,717	-0,070	-0,084
-547,569	646,182	-0,058	-0,109
-546,554	290,944	-0,062	0,083
-545,539	-200,000	0,013	-0,109
-544,525	-16,409	0,152	0,071
-543,510	602,566	0,076	0,141
-542,496	-200,000	0,020	-0,087
-541,481	-200,000	0,002	-0,067
-540,466	45,745	-0,153	-0,104
-539,452	-200,000	0,001	-0,018
-538,437	-102,549	0,114	-0,020
-537,423	-200,000	-0,029	0,095
-536,408	800,000	-0,059	0,142
-535,393	183,500	0,079	-0,086
-534,379	800,000	-0,022	-0,053
-533,364	-37,253	0,055	0,022
-532,350	58,520	0,101	-0,073
-531,335	236,147	0,022	0,027
-530,321	441,424	0,114	0,185
-529,306	-36,800	-0,031	-0,012
-528,291	345,866	-0,044	0,064
-527,277	145,232	-0,120	0,119
-526,262	679,280	-0,041	0,079
-525,248	91,139	0,054	0,044
-524,233	800,000	-0,015	0,047
-523,218	-200,000	-0,011	-0,053
-522,204	-8,072	0,066	0,033
-521,189	-200,000	-0,004	-0,067
-520,175	52,911	0,036	-0,025
-519,160	438,523	0,075	0,121
-518,145	-200,000	-0,036	-0,138
-517,131	-200,000	0,006	0,040
-516,116	402,910	0,023	-0,036
-515,102	138,614	-0,150	0,145
-514,087	134,110	0,031	-0,030
-513,072	-54,289	-0,087	0,029
-512,058	-102,743	0,082	-0,014
-511,043	-58,801	-0,190	0,060
-510,029	-136,682	-0,034	-0,003
-509,014	347,674	0,073	-0,107
-507,999	-143,694	-0,233	-0,016
-506,985	230,992	0,048	0,058
-505,970	800,000	0,017	-0,045
-504,956	800,000	-0,028	-0,072
-503,941	-96,165	-0,187	0,036
-502,926	-163,424	0,078	0,003
-501,912	333,563	-0,074	0,106
-500,897	399,731	0,022	0,034
-499,883	-2,797	-0,084	0,043
-498,868	-156,048	-0,094	-0,004
-497,853	-39,854	-0,102	-0,039
-496,839	33,063	-0,149	0,095
-495,824	-103,657	-0,060	-0,010
-494,810	-200,000	0,015	0,096
-493,795	302,455	0,094	0,128
-492,781	-200,000	-0,007	0,060
-491,766	-200,000	0,026	-0,098
-490,751	175,995	-0,134	-0,143
-489,737	-200,000	0,002	-0,032
-488,722	800,000	-0,015	0,048
-487,708	19,031	-0,008	0,005
-486,693	198,938	0,041	-0,046
-485,678	-200,000	-0,000	-0,049
-484,664	-200,000	0,001	-0,028
-483,649	-200,000	0,001	-0,015
-482,635	-115,569	-0,035	0,005
-481,620	-181,147	0,131	0,002
-480,605	-200,000	-0,001	-0,140
-479,591	446,556	0,088	-0,143
-478,576	-200,000	-0,002	-0,065
-477,562	63,696	0,093	-0,069
-476,547	0,932	-0,067	0,036
-475,532	-200,000	0,007	-0,184
-474,518	-173,998	-0,026	-0,001
-473,503	13,255	0,041	0,023
-472,489	800,000	-0,037	0,077
-471,474	-12,018	-0,022	0,011
-470,459	-158,747	-0,063	0,003
-469,445	160,368	0,106	-0,109
-468,430	-200,000	-0,006	0,056
-467,416	-178,380	0,119	0,002
-466,401	254,140	0,070	0,088
-465,386	285,841	-0,119	0,158
-464,372	8,713	0,039	0,021
-463,357	-106,011	-0,122	0,020
-462,343	-64,362	0,120	0,036
-461,328	-200,000	-0,010	-0,174
-460,313	-200,000	0,027	0,093
-459,299	-200,000	0,039	0,146
-458,284	-108,680	0,077	-0,012
-457,270	800,000	0,021	-0,057
-456,255	384,111	0,076	-0,116
-455,241	21,465	-0,063	-0,038
-454,226	-191,970	0,186	0,001
-453,211	-200,000	0,008	-0,067
-452,197	-66,380	0,065	0,019
-451,182	-161,663	0,168	-0,006
-450,168	106,908	-0,039	-0,034
-449,153	800,000	0,028	0,077
-448,138	273,170	-0,076	-0,099
-447,124	-200,000	-0,004	0,035
-446,109	-28,496	0,118	-0,050
-445,095	-200,000	0,008	0,041
-444,080	-13,117	0,106	-0,051
-443,065	-112,029	-0,072	0,011
-442,051	269,370	-0,075	-0,097
-441,036	664,143	-0,050	-0,096
-440,022	-75,674	-0,102	-0,026
-439,007	599,728	0,004	-0,007
-437,992	-200,000	-0,001	-0,010
-436,978	800,000	0,018	0,045
-435,963	-154,562	-0,054	0,003
-434,949	4,260	-0,071	-0,038
-433,934	-200,000	0,012	-0,166
-432,919	-0,696	-0,080	0,042
-431,905	-200,000	-0,009	-0,033
-430,890	103,292	-0,013	-0,012
-429,876	654,145	-0,031	0,059
-428,861	-94,002	-0,094	-0,019
-427,846	-200,000	0,003	-0,048
-426,832	800,000	-0,030	-0,077
-425,817	-105,846	-0,106	0,017
-424,803	192,355	0,073	0,081
-423,788	37,048	-0,021	-0,014
-422,773	-64,396	0,148	0,044
-421,759	106,580	-0,041	0,036
-420,744	-200,000	0,010	0,034
-419,730	-55,715	-0,141	-0,046
-418,715	-200,000	-0,001	0,060
-417,701	81,681	0,084	-0,067
-416,686	-200,000	0,004	0,060
-415,671	-200,000	-0,008	-0,094
-414,657	-200,000	0,030	0,102
-413,642	130,812	-0,066	0,063
-412,628	355,844	-0,058	-0,085
-411,613	215,607	-0,096	0,112
-410,598	236,870	-0,042	-0,052
-409,584	-6,049	-0,098	0,049
-408,569	-200,000	-0,003	0,090
-407,555	-94,044	0,063	-0,013
-406,540	54,381	0,093	-0,065
-405,525	24,540	0,043	0,026
-404,511	142,676	0,022	-0,021
-403,496	-200,000	-0,001	0,008
-402,482	-200,000	0,005	0,047
-401,467	-62,052	0,192	0,059
-400,452	348,311	0,007	0,010
-399,438	312,061	-0,064	-0,088
-398,423	351,297	0,043	0,063
-397,409	-91,970	-0,140	-0,029
-396,394	-200,000	0,002	-0,013
-395,379	-21,971	-0,067	0,030
-394,365	78,089	0,025	-0,020
-393,350	-200,000	0,011	-0,069
-392,336	800,000	-0,019	-0,039
-391,321	-200,000	-0,000	0,035
-390,306	-10,712	0,057	-0,027
-389,292	-200,000	-0,018	0,082
-388,277	370,952	-0,055	0,082
-387,263	437,680	0,045	0,073
-386,248	191,309	-0,092	0,102
-385,233	330,936	0,067	0,096
-384,219	-134,207	0,095	0,008
-383,204	-200,000	-0,028	0,120
-382,190	-5,463	0,052	-0,026
-381,175	438,234	-0,018	0,030
-380,160	-200,000	0,029	0,100
-379,146	79,334	0,193	0,152
-378,131	81,058	0,109	0,086
-377,117	-200,000	0,008	0,106
-376,102	-30,186	0,099	-0,041
-375,088	300,964	-0,126	-0,171
-374,073	276,023	0,115	-0,150
-373,058	-200,000	0,021	0,101
-372,044	800,000	-0,021	-0,044
-371,029	712,330	-0,023	-0,045
-370,015	383,733	-0,038	-0,057
-369,000	75,859	-0,067	-0,052
-367,985	-200,000	0,015	-0,061
-366,971	162,631	0,066	-0,068
-365,956	-36,209	0,106	0,042
-364,942	-200,000	-0,000	-0,029
-363,927	-113,303	0,071	0,010
-362,912	-152,529	0,098	-0,005
-361,898	-20,784	-0,050	0,022
-360,883	-200,000	0,019	0,079
-359,869	-56,502	-0,060	-0,019
-358,854	-200,000	0,011	-0,048
-357,839	-146,853	-0,086	-0,005
-356,825	139,025	0,032	0,031
-355,810	-51,441	-0,077	0,026
-354,796	61,285	0,026	0,019
-353,781	260,379	0,039	-0,050
-352,766	312,205	-0,018	-0,025
-351,752	-200,000	0,002	0,010
-350,737	211,689	-0,034	0,039
-349,723	214,606	0,050	-0,058
-348,708	-200,000	0,009	0,059
-347,693	260,958	-0,023	-0,030
-346,679	800,000	0,043	0,095
-345,664	572,231	0,026	0,046
-344,650	-139,253	0,089	0,007
-343,635	571,045	0,035	0,063
-342,620	-200,000	-0,009	0,048
-341,606	-77,343	0,053	0,013
-340,591	747,266	0,081	0,160
-339,577	-200,000	0,013	0,073
-338,562	613,159	-0,021	-0,039
-337,548	800,000	-0,027	-0,083
-336,533	-200,000	0,038	0,147
-335,518	-32,215	0,099	0,040
-334,504	800,000	-0,045	0,133
-333,489	-16,903	-0,094	0,043
-332,475	-200,000	-0,008	0,051
-331,460	800,000	0,012	-0,029
-330,445	-46,399	-0,022	0,008
-329,431	800,000	-0,007	0,021
-328,416	-200,000	0,024	0,128
-327,402	91,082	0,107	0,088
-326,387	239,557	0,079	0,097
-325,372	141,098	0,114	0,110
-324,358	394,812	-0,032	0,049
-323,343	13,800	-0,054	-0,031
-322,329	420,059	0,014	-0,022
-321,314	-200,000	-0,013	-0,069
-320,299	-59,383	0,215	-0,067
-319,285	-101,015	-0,051	-0,009
-318,270	-160,392	-0,033	0,001
-317,256	-92,964	-0,074	-0,015
-316,241	192,982	0,135	-0,149
-315,226	-200,000	-0,014	-0,074
-314,212	261,834	-0,104	-0,133
-313,197	-157,632	0,057	-0,002
-312,183	-24,871	0,062	0,027
-311,168	-200,000	-0,014	-0,076
-310,153	-123,531	-0,053	0,006
-309,139	35,566	-0,040	0,026
-308,124	517,814	-0,006	-0,010
-307,110	-160,801	-0,073	-0,003
-306,095	-68,419	0,062	0,017
-305,080	-200,000	0,097	0,000
-304,066	-174,540	-0,042	-0,001
-303,051	-74,029	0,024	-0,006
-302,037	-60,917	-0,015	-0,005
-301,022	-79,011	0,068	-0,017
-300,008	-200,000	0,001	0,077
-298,993	575,337	0,059	0,106
-297,978	26,303	0,142	-0,086
-296,964	-200,000	-0,063	-0,204
-295,949	800,000	0,037	-0,107
-294,935	25,901	-0,130	-0,079
-293,920	-200,000	0,004	0,087
-292,905	713,665	0,051	0,100
-291,891	-106,079	-0,091	-0,015
-290,876	417,554	-0,016	0,025
-289,862	-30,188	-0,029	-0,012
-288,847	21,022	-0,018	-0,011
-287,832	-29,017	-0,078	-0,032
-286,818	800,000	-0,020	-0,050
-285,803	-200,000	-0,004	-0,055
-284,789	-200,000	-0,003	0,014
-283,774	-61,515	0,177	-0,054
-282,759	-97,321	0,074	-0,014
-281,745	-200,000	0,017	-0,096
-280,730	800,000	-0,049	-0,128
-279,716	-200,000	0,003	0,020
-278,701	283,329	0,032	-0,042
-277,686	-135,701	0,030	0,003
-276,672	-13,472	-0,032	-0,015
-275,657	75,870	0,070	-0,054
-274,643	200,762	-0,017	0,019
-273,628	-41,421	-0,083	0,031
-272,613	223,626	0,059	-0,070
-271,599	800,000	0,017	-0,039
-270,584	-154,972	0,013	-0,001
-269,570	-157,731	0,078	0,003
-268,555	-138,708	0,112	0,009
-267,540	12,476	-0,104	0,058
-266,526	8,796	-0,088	0,048
-265,511	-70,825	-0,176	-0,048
-264,497	28,799	-0,110	0,068
-263,482	-43,994	0,080	-0,029
-262,467	800,000	-0,006	-0,018
-261,453	-12,455	-0,116	0,055
-260,438	-200,000	0,011	-0,071
-259,424	130,826	-0,048	-0,045
-258,409	-90,554	-0,019	-0,004
-257,395	-200,000	0,016	0,075
-256,380	-200,000	0,015	0,142
-255,365	-200,000	0,012	0,050
-254,351	640,486	0,029	0,053
-253,336	591,020	-0,022	-0,039
-252,322	800,000	-0,039	-0,089
-251,307	14,741	0,123	-0,070
-250,292	-164,279	0,133	-0,004
-249,278	-87,443	-0,050	0,011
-248,263	-104,313	0,083	0,014
-247,249	800,000	-0,019	-0,049
-246,234	-200,000	0,007	-0,029
-245,219	-76,022	-0,091	0,023
-244,205	383,472	-0,034	-0,051
-243,190	290,568	0,061	-0,081
-242,176	3,223	0,062	-0,033
-241,161	-62,244	-0,038	-0,012
-240,146	-140,885	0,100	-0,007
-239,132	800,000	0,048	-0,144
-238,117	442,228	0,028	-0,045
-237,103	57,590	0,051	0,036
-236,088	-200,000	0,010	0,132
-235,073	-200,000	0,008	0,061
-234,059	356,899	-0,059	0,086
-233,044	-200,000	-0,012	0,070
-232,030	154,767	-0,061	0,061
-231,015	-200,000	0,025	-0,094
-230,000	33,628	-0,080	0,050
-228,986	110,005	-0,118	-0,103
-227,971	800,000	0,033	-0,076
-226,957	-200,000	0,014	0,046
-225,942	-10,238	-0,018	0,009
-224,927	-23,549	0,082	0,036
-223,913	20,948	-0,068	-0,040
-222,898	800,000	0,020	-0,052
-221,884	668,944	-0,017	0,033
-220,869	81,198	0,156	-0,123
-219,855	800,000	-0,021	0,065
-218,840	-200,000	0,004	-0,043
-217,825	-39,829	-0,101	0,038
-216,811	-43,904	0,075	0,027
-215,796	390,145	-0,065	0,098
-214,782	28,341	0,032	-0,020
-213,767	-200,000	-0,011	0,098
-212,752	800,000	-0,033	0,069
-211,738	-112,645	0,134	-0,019
-210,723	800,000	0,020	0,056
-209,709	-42,866	-0,144	0,053
-208,694	34,495	0,051	-0,032
-207,679	185,119	-0,087	0,094
-206,665	586,686	0,033	0,060
-205,650	800,000	0,013	-0,027
-204,636	-200,000	-0,007	-0,034
-203,621	-124,028	-0,033	-0,004
-202,606	-200,000	-0,015	0,111
-201,592	7,870	-0,026	-0,014
-200,577	-150,868	-0,088	-0,005
-199,563	-84,305	0,057	0,013
-198,548	800,000	-0,022	0,066
-197,533	-93,800	0,121	0,024
-196,519	279,830	0,104	0,135
-195,504	800,000	0,011	-0,031
-194,490	-70,683	-0,067	-0,018
-193,475	-60,727	-0,079	0,024
-192,460	21,257	0,022	-0,013
-191,446	64,292	-0,124	0,091
-190,431	800,000	0,015	0,041
-189,417	-101,026	0,060	-0,011
-188,402	-200,000	0,005	0,019
-187,387	-200,000	-0,007	0,042
-186,373	-200,000	-0,010	-0,189
-185,358	180,183	-0,089	-0,095
-184,344	335,679	-0,006	-0,009
-183,329	-200,000	-0,012	0,161
-182,315	-132,003	-0,136	-0,013
-181,300	555,554	0,023	0,040
-180,285	96,836	-0,061	-0,051
-179,271	-144,320	-0,067	0,004
-178,256	150,057	0,043	0,043
-177,242	103,335	0,054	-0,046
-176,227	461,467	-0,048	0,078
-175,212	-200,000	0,027	0,113
-174,198	800,000	-0,040	0,089
-173,183	800,000	-0,068	0,145
-172,169	-165,010	0,149	0,005
-171,154	-200,000	-0,025	-0,124
-170,139	-48,640	-0,014	0,005
-169,125	29,130	0,092	0,057
-168,110	800,000	0,036	0,088
-167,096	341,700	0,085	0,121
-166,081	468,844	-0,075	0,123
-165,066	-200,000	-0,005	-0,092
-164,052	-200,000	0,000	-0,048
-163,037	251,859	0,090	0,111
-162,023	800,000	0,005	0,014
-161,008	-71,696	0,069	-0,019
-159,993	-200,000	0,044	0,148
-158,979	-200,000	-0,010	0,052
-157,964	453,884	0,062	-0,100
-156,950	184,146	-0,047	0,050
-155,935	700,285	0,053	0,101
-154,920	86,527	0,039	0,031
-153,906	187,450	0,143	0,155
-152,891	800,000	0,012	0,031
-151,877	-81,215	0,133	0,032
-150,862	327,773	-0,082	-0,114
-149,847	-8,309	0,086	0,042
-148,833	-30,336	0,124	-0,051
-147,818	-200,000	0,020	0,118
-146,804	622,796	0,078	-0,143
-145,789	800,000	-0,009	0,021
-144,775	800,000	0,015	0,044
-143,760	592,323	-0,082	-0,149
-142,745	-143,669	0,039	0,003
-141,731	-200,000	0,003	-0,075
-140,716	111,428	0,101	-0,089
-139,702	20,377	0,022	0,013
-138,687	789,378	-0,019	0,038
-137,672	-145,556	0,061	0,004
-136,658	218,534	0,035	0,040
-135,643	-177,666	0,063	0,001
-134,629	-186,304	0,048	-0,000
-133,614	414,113	0,033	0,051
-132,599	800,000	0,036	0,099
-131,585	83,232	-0,043	0,034
-130,570	-200,000	0,018	-0,101
-129,556	110,810	-0,077	0,067
-128,541	800,000	-0,029	-0,083
-127,526	800,000	0,050	-0,140
-126,512	-178,827	0,044	-0,001
-125,497	251,158	0,064	-0,079
-124,483	800,000	-0,025	0,069
-123,468	91,130	-0,069	-0,057
-122,453	36,642	-0,074	-0,047
-121,439	147,195	-0,016	-0,015
-120,424	366,846	0,061	-0,090
