DTS Sentinel unit serial number:	SN410029Multiplexer serial number:	ORYXHardware model number:	OX2-SRSoftware version number:	ORYX F/W v4,00 Oryx Data Collector v3.7.2.0data status	okinstallation	B4 Nyhavnadifferential loss correction	single-endedforward channel	channel 2reverse channel	N/Adate	2023/12/19time	10:45:13forward acquisition time	300,00reverse acquisition time	0,00gamma	499,1914k internal	0,3127k external	0,3127temperature offset calibration	1,0000default loss term (dB/km)	0,3820temperature slope calibration	1,0000multiplexer offset coefficient	1,0000multiplexer slope coefficient	1,0000fibre end	0,00T internal ref (°C)	19,99T ext. ref 1 (°C)	4,73T ext. ref 2 (°C)	4,68length (m)	temperature (°C)	Stokes	anti-Stokes-744,400	-77,028	-0,168	-0,043
-743,385	-122,835	-0,232	-0,028
-742,371	98,302	0,092	-0,079
-741,356	110,095	-0,143	0,128
-740,342	-0,134	0,118	0,062
-739,327	350,337	-0,133	0,197
-738,312	-200,000	0,029	-0,185
-737,298	269,669	-0,133	0,175
-736,283	-104,994	0,014	-0,002
-735,269	257,660	-0,110	0,141
-734,254	100,817	-0,071	-0,062
-733,239	-118,545	-0,392	-0,051
-732,225	-148,039	0,154	0,009
-731,210	138,745	0,062	0,061
-730,196	-200,000	-0,012	-0,149
-729,181	449,214	-0,033	-0,055
-728,167	-200,000	-0,016	0,074
-727,152	253,271	0,032	0,040
-726,137	-200,000	0,010	-0,144
-725,123	-200,000	0,008	0,042
-724,108	99,150	0,042	-0,036
-723,094	14,592	-0,058	0,034
-722,079	-181,094	0,043	0,001
-721,064	-37,900	0,061	-0,024
-720,050	-22,226	-0,130	-0,058
-719,035	-82,746	0,025	-0,006
-718,021	625,024	-0,086	-0,163
-717,006	66,675	-0,081	0,061
-715,991	57,151	-0,085	0,062
-714,977	-200,000	0,011	-0,060
-713,962	-136,960	0,032	0,003
-712,948	-200,000	-0,012	0,097
-711,933	236,908	-0,033	0,041
-710,918	-200,000	-0,017	-0,071
-709,904	-55,595	-0,195	-0,064
-708,889	112,263	-0,026	-0,023
-707,875	-13,290	-0,186	-0,089
-706,860	-200,000	-0,019	0,090
-705,845	93,574	0,052	-0,044
-704,831	-169,411	-0,018	0,000
-703,816	-178,759	-0,053	-0,001
-702,802	687,716	-0,020	-0,039
-701,787	-76,125	-0,122	-0,032
-700,772	18,208	-0,178	-0,105
-699,758	-122,689	0,093	-0,011
-698,743	397,999	0,016	-0,025
-697,729	-200,000	-0,019	-0,071
-696,714	511,980	0,058	-0,102
-695,699	228,551	-0,140	-0,169
-694,685	-117,884	-0,048	-0,006
-693,670	-51,594	-0,085	-0,029
-692,656	-200,000	0,020	-0,107
-691,641	-181,115	0,113	-0,002
-690,627	49,576	0,131	-0,092
-689,612	800,000	0,034	-0,086
-688,597	120,405	0,127	0,117
-687,583	468,070	-0,077	-0,129
-686,568	74,162	-0,107	-0,084
-685,554	-70,094	-0,021	-0,006
-684,539	-200,000	0,018	0,114
-683,524	258,276	-0,099	0,126
-682,510	800,000	0,041	-0,107
-681,495	760,200	-0,038	-0,076
-680,481	267,287	-0,089	-0,115
-679,466	-79,458	-0,090	-0,022
-678,451	-200,000	-0,000	-0,031
-677,437	401,570	0,053	-0,083
-676,422	172,399	-0,054	0,058
-675,408	-200,000	0,018	-0,101
-674,393	86,374	-0,134	0,110
-673,378	-67,508	-0,107	-0,031
-672,364	-83,556	-0,040	0,009
-671,349	800,000	-0,041	-0,116
-670,335	142,575	-0,042	-0,041
-669,320	800,000	0,046	0,120
-668,305	203,351	-0,050	-0,057
-667,291	-161,780	-0,044	-0,002
-666,276	141,189	0,066	-0,065
-665,262	800,000	-0,027	0,072
-664,247	226,377	-0,066	-0,079
-663,232	309,996	-0,056	-0,078
-662,218	69,300	-0,051	0,039
-661,203	86,909	0,067	0,055
-660,189	-89,756	0,054	0,012
-659,174	-36,880	0,093	-0,037
-658,159	-47,012	-0,146	-0,053
-657,145	448,794	-0,054	0,088
-656,130	67,912	-0,058	0,044
-655,116	-200,000	0,001	-0,015
-654,101	83,139	0,096	0,077
-653,086	457,506	-0,013	0,022
-652,072	800,000	-0,059	0,166
-651,057	246,568	-0,077	-0,096
-650,043	356,329	-0,041	0,061
-649,028	-126,797	-0,108	-0,012
-648,014	79,825	-0,036	-0,029
-646,999	800,000	0,016	-0,038
-645,984	33,306	0,158	0,101
-644,970	-200,000	-0,011	-0,099
-643,955	519,262	-0,031	-0,054
-642,941	-90,837	-0,057	-0,012
-641,926	44,792	0,018	0,012
-640,911	800,000	0,037	0,088
-639,897	-18,004	0,075	-0,034
-638,882	285,938	0,040	0,054
-637,868	37,596	-0,115	-0,076
-636,853	800,000	-0,059	-0,125
-635,838	197,130	-0,052	0,059
-634,824	-21,033	-0,056	0,025
-633,809	-164,821	0,101	0,003
-632,795	-200,000	-0,016	-0,107
-631,780	-84,871	-0,106	-0,024
-630,765	161,190	-0,042	0,043
-629,751	179,788	-0,053	-0,058
-628,736	800,000	-0,033	-0,074
-627,722	-154,857	0,032	-0,002
-626,707	-71,403	0,048	-0,013
-625,692	-200,000	0,030	0,118
-624,678	-63,013	0,138	0,042
-623,663	167,951	-0,082	0,087
-622,649	-15,404	-0,090	-0,042
-621,634	90,058	-0,053	-0,044
-620,619	412,878	-0,047	-0,074
-619,605	307,579	-0,032	-0,044
-618,590	-200,000	-0,011	-0,165
-617,576	-6,188	-0,096	0,049
-616,561	-105,045	0,082	0,014
-615,546	-14,478	-0,165	-0,078
-614,532	800,000	0,050	0,113
-613,517	-200,000	0,024	-0,110
-612,503	131,748	0,047	0,045
-611,488	107,958	0,095	-0,083
-610,474	-200,000	-0,018	0,073
-609,459	-164,245	0,115	0,004
-608,444	168,589	0,107	0,113
-607,430	11,145	-0,174	-0,098
-606,415	733,441	-0,025	-0,050
-605,401	51,108	0,045	-0,032
-604,386	144,869	0,029	0,028
-603,371	-200,000	-0,006	0,151
-602,357	204,876	-0,058	0,067
-601,342	-120,296	0,049	0,006
-600,328	800,000	0,026	-0,063
-599,313	-200,000	0,029	-0,109
-598,298	-79,588	0,156	0,039
-597,284	-142,748	-0,055	-0,004
-596,269	-200,000	0,018	0,076
-595,255	35,140	-0,036	0,024
-594,240	-25,716	-0,078	-0,034
-593,225	293,887	0,071	0,096
-592,211	-33,199	-0,146	-0,060
-591,196	800,000	0,047	0,106
-590,182	-200,000	-0,016	0,072
-589,167	800,000	0,034	0,083
-588,152	167,361	0,045	0,047
-587,138	677,492	0,072	-0,139
-586,123	800,000	0,044	-0,123
-585,109	138,453	-0,141	-0,137
-584,094	-37,652	0,013	0,005
-583,079	592,873	-0,010	-0,019
-582,065	-124,744	-0,087	-0,010
-581,050	-2,078	0,017	-0,009
-580,036	200,183	-0,040	-0,046
-579,021	-200,000	0,014	-0,152
-578,006	-200,000	-0,005	-0,068
-576,992	797,825	0,033	0,067
-575,977	-200,000	0,005	0,036
-574,963	800,000	0,025	-0,065
-573,948	-118,253	0,090	0,012
-572,934	-200,000	-0,002	-0,012
-571,919	-41,176	-0,093	0,035
-570,904	-33,973	-0,220	-0,089
-569,890	226,188	-0,065	-0,078
-568,875	79,446	0,055	-0,043
-567,861	-52,866	0,097	-0,033
-566,846	-74,745	0,125	-0,033
-565,831	800,000	0,036	0,091
-564,817	-200,000	0,004	0,139
-563,802	515,104	-0,041	0,070
-562,788	380,442	-0,034	0,052
-561,773	215,335	0,119	-0,139
-560,758	42,783	-0,052	-0,035
-559,744	-74,578	-0,119	0,032
-558,729	800,000	0,013	-0,029
-557,715	259,646	-0,057	-0,073
-556,700	58,470	-0,108	-0,078
-555,685	-200,000	0,009	0,071
-554,671	319,786	0,033	-0,046
-553,656	62,938	-0,050	0,037
-552,642	78,567	0,059	0,046
-551,627	488,257	-0,033	0,055
-550,612	800,000	-0,021	-0,048
-549,598	184,304	0,066	0,072
-548,583	39,424	-0,082	-0,054
-547,569	90,026	0,074	-0,061
-546,554	-190,519	0,131	-0,001
-545,539	88,046	0,107	-0,087
-544,525	-200,000	0,010	-0,034
-543,510	76,885	-0,082	0,064
-542,496	-171,237	-0,104	-0,003
-541,481	75,343	-0,178	0,139
-540,466	199,198	0,033	-0,038
-539,452	800,000	-0,028	0,071
-538,437	800,000	0,038	0,090
-537,423	800,000	-0,024	-0,060
-536,408	800,000	0,003	-0,007
-535,393	2,560	-0,133	-0,071
-534,379	186,896	0,119	-0,131
-533,364	667,768	0,048	-0,092
-532,350	-200,000	0,026	0,105
-531,335	-200,000	0,006	0,129
-530,321	-200,000	0,002	-0,036
-529,306	-48,626	0,020	0,007
-528,291	-157,604	0,103	-0,004
-527,277	80,308	-0,086	0,069
-526,262	453,515	0,030	-0,049
-525,248	66,618	0,153	-0,114
-524,233	415,522	0,018	0,028
-523,218	380,035	-0,039	0,060
-522,204	800,000	-0,024	0,068
-521,189	-200,000	0,003	-0,022
-520,175	77,053	-0,085	-0,066
-519,160	94,224	0,028	0,023
-518,145	401,661	-0,063	0,098
-517,131	-200,000	0,010	0,072
-516,116	-200,000	0,000	-0,069
-515,102	321,121	-0,042	-0,060
-514,087	-200,000	0,022	-0,112
-513,072	800,000	-0,036	-0,090
-512,058	23,961	-0,081	-0,049
-511,043	-200,000	-0,004	0,122
-510,029	-100,083	0,101	-0,018
-509,014	137,533	0,043	0,041
-507,999	-200,000	0,023	0,090
-506,985	-200,000	-0,007	-0,056
-505,970	-11,030	-0,149	0,072
-504,956	-200,000	-0,001	0,051
-503,941	61,540	0,108	0,079
-502,926	-138,911	0,071	-0,006
-501,912	204,878	0,066	0,076
-500,897	22,259	-0,098	-0,059
-499,883	308,030	-0,122	-0,168
-498,868	-77,349	-0,075	-0,019
-497,853	-139,934	0,086	-0,007
-496,839	404,312	-0,017	0,027
-495,824	800,000	0,025	-0,069
-494,810	476,403	-0,059	0,098
-493,795	-200,000	-0,019	0,194
-492,781	82,152	0,059	-0,047
-491,766	-200,000	0,027	0,000
-490,751	125,045	-0,036	0,034
-489,737	-35,226	-0,048	0,019
-488,722	-109,715	0,086	0,013
-487,708	-81,916	-0,147	-0,035
-486,693	-200,000	-0,005	0,030
-485,678	-59,921	0,126	0,039
-484,664	373,122	-0,051	0,077
-483,649	-30,569	-0,144	-0,060
-482,635	-200,000	0,028	-0,103
-481,620	19,554	0,148	-0,087
-480,605	94,114	0,094	-0,079
-479,591	-51,368	0,141	0,048
-478,576	-65,447	-0,141	-0,042
-477,562	-102,904	0,060	0,010
-476,547	25,682	-0,038	0,023
-475,532	-114,173	-0,079	-0,011
-474,518	-45,240	0,088	-0,032
-473,503	27,434	-0,057	0,035
-472,489	415,210	-0,065	-0,102
-471,474	-8,132	0,082	-0,041
-470,459	47,276	-0,060	-0,041
-469,445	207,066	-0,081	0,093
-468,430	-200,000	-0,008	0,055
-467,416	-200,000	0,014	0,085
-466,401	-200,000	0,041	0,158
-465,386	183,804	-0,057	-0,062
-464,372	-159,790	-0,117	-0,005
-463,357	299,241	0,053	-0,072
-462,343	721,231	0,059	-0,116
-461,328	-200,000	-0,004	-0,105
-460,313	-200,000	0,018	-0,078
-459,299	279,255	0,106	-0,140
-458,284	-24,087	0,041	-0,018
-457,270	67,039	0,105	0,079
-456,255	-200,000	0,013	-0,122
-455,241	212,742	-0,066	-0,077
-454,226	-149,776	-0,040	-0,002
-453,211	111,451	-0,047	-0,042
-452,197	15,542	0,019	0,011
-451,182	-34,230	0,154	-0,062
-450,168	145,226	0,049	0,048
-449,153	108,561	0,023	-0,020
-448,138	-46,758	-0,074	0,026
-447,124	96,861	-0,017	0,014
-446,109	800,000	-0,055	-0,120
-445,095	-177,607	0,053	0,001
-444,080	49,333	-0,036	0,025
-443,065	-200,000	0,018	-0,098
-442,051	53,745	-0,113	-0,080
-441,036	-140,250	-0,012	0,001
-440,022	417,825	-0,033	-0,052
-439,007	-200,000	-0,013	0,064
-437,992	-200,000	0,055	0,244
-436,978	122,267	0,020	0,018
-435,963	-113,233	-0,077	-0,011
-434,949	-108,162	-0,066	0,010
-433,934	-22,893	0,091	-0,040
-432,919	-63,680	0,068	-0,020
-431,905	-71,354	0,063	-0,017
-430,890	-200,000	0,002	-0,020
-429,876	800,000	-0,045	0,113
-428,861	-200,000	0,001	0,016
-427,846	-97,163	-0,050	0,010
-426,832	-96,335	0,056	0,011
-425,817	-55,090	-0,059	-0,019
-424,803	-200,000	-0,015	0,138
-423,788	151,222	0,041	0,041
-422,773	82,286	-0,059	-0,047
-421,759	657,062	-0,044	0,083
-420,744	20,454	0,125	-0,074
-419,730	545,600	0,069	-0,122
-418,715	-200,000	-0,148	0,000
-417,701	75,746	0,076	-0,059
-416,686	-200,000	-0,008	0,093
-415,671	-6,252	0,040	-0,020
-414,657	-141,992	0,047	0,003
-413,642	-84,527	0,044	-0,010
-412,628	-200,000	0,001	-0,162
-411,613	380,931	0,083	-0,125
-410,598	-200,000	-0,006	-0,060
-409,584	-200,000	-0,031	0,110
-408,569	339,744	0,077	0,110
-407,555	26,640	-0,109	-0,067
-406,540	130,500	0,068	0,064
-405,525	55,019	-0,082	-0,058
-404,511	-200,000	-0,008	-0,044
-403,496	-200,000	-0,006	-0,030
-402,482	-200,000	0,014	-0,090
-401,467	40,927	0,098	0,065
-400,452	98,107	-0,125	-0,106
-399,438	-135,609	0,086	-0,007
-398,423	-129,009	-0,053	-0,005
-397,409	-200,000	-0,008	0,083
-396,394	-200,000	0,004	0,151
-395,379	-80,882	0,079	0,019
-394,365	365,623	0,102	0,151
-393,350	303,300	-0,139	0,190
-392,336	493,995	-0,049	0,082
-391,321	800,000	0,038	-0,080
-390,306	562,333	0,018	-0,032
-389,292	-86,408	-0,078	0,017
-388,277	78,466	-0,031	0,024
-387,263	-149,858	-0,044	0,002
-386,248	-119,782	0,045	-0,006
-385,233	-200,000	-0,020	0,104
-384,219	-200,000	-0,036	0,162
-383,204	2,371	-0,113	-0,060
-382,190	-128,577	-0,074	-0,008
-381,175	800,000	-0,023	-0,053
-380,160	595,808	0,071	0,130
-379,146	37,051	-0,177	0,115
-378,131	157,834	0,149	0,152
-377,117	-2,528	-0,040	0,020
-376,102	193,959	0,047	0,052
-375,088	48,593	0,070	0,048
-374,073	-54,049	-0,026	0,009
-373,058	-124,513	-0,066	0,007
-372,044	342,650	0,083	0,119
-371,029	91,001	0,020	-0,016
-370,015	292,304	0,074	0,099
-369,000	287,763	0,011	-0,015
-367,985	-152,404	-0,122	-0,006
-366,971	-42,268	-0,092	-0,034
-365,956	129,945	0,081	0,076
-364,942	-200,000	0,005	0,072
-363,927	289,321	-0,020	0,027
-362,912	154,942	-0,062	0,063
-361,898	-111,209	-0,083	0,012
-360,883	276,794	-0,099	-0,129
-359,869	-77,670	-0,186	-0,047
-358,854	155,296	-0,061	-0,062
-357,839	800,000	0,035	0,091
-356,825	-71,616	-0,049	0,013
-355,810	800,000	0,054	0,163
-354,796	-200,000	-0,018	0,161
-353,781	-97,221	-0,168	0,032
-352,766	-103,678	-0,115	-0,020
-351,752	139,215	0,149	0,144
-350,737	62,768	0,090	0,066
-349,723	-68,920	0,092	0,026
-348,708	48,321	-0,087	-0,060
-347,693	800,000	-0,013	-0,036
-346,679	253,751	-0,037	-0,046
-345,664	0,742	-0,064	-0,033
-344,650	199,331	0,037	0,041
-343,635	259,128	-0,047	-0,060
-342,620	39,021	0,108	-0,070
-341,606	572,424	0,064	-0,114
-340,591	-162,921	0,012	0,000
-339,577	-200,000	0,015	0,090
-338,562	-68,428	0,083	-0,023
-337,548	800,000	-0,004	0,013
-336,533	49,134	-0,093	0,064
-335,518	800,000	-0,033	0,096
-334,504	-65,289	0,068	0,020
-333,489	-5,564	-0,030	0,015
-332,475	-88,191	-0,101	0,022
-331,460	583,342	-0,045	-0,081
-330,445	103,287	0,038	-0,033
-329,431	-179,892	-0,088	-0,001
-328,416	-41,637	0,034	0,013
-327,402	44,979	0,063	-0,042
-326,387	800,000	-0,028	-0,076
-325,372	19,090	0,143	0,084
-324,358	-200,000	-0,045	-0,148
-323,343	-200,000	-0,013	-0,102
-322,329	-200,000	0,011	-0,063
-321,314	-71,783	-0,034	0,009
-320,299	27,785	0,149	-0,092
-319,285	-7,788	-0,080	-0,039
-318,270	191,537	-0,044	-0,049
-317,256	-200,000	-0,017	0,122
-316,241	92,511	0,027	-0,022
-315,226	800,000	0,053	-0,124
-314,212	800,000	0,089	0,221
-313,197	800,000	-0,013	0,039
-312,183	-200,000	0,003	-0,027
-311,168	800,000	-0,020	0,045
-310,153	-81,275	-0,062	-0,015
-309,139	-120,862	-0,056	-0,007
-308,124	-31,449	0,181	-0,074
-307,110	-80,736	0,074	-0,018
-306,095	-178,276	-0,089	0,001
-305,080	107,910	-0,115	-0,100
-304,066	198,655	0,118	-0,132
-303,051	800,000	0,043	-0,097
-302,037	202,707	0,084	-0,095
-301,022	-29,070	-0,081	-0,034
-300,008	-157,975	0,110	-0,005
-298,993	445,779	0,128	0,206
-297,978	202,994	0,038	0,043
-296,964	-200,000	0,013	-0,086
-295,949	201,622	0,089	-0,100
-294,935	-92,213	-0,142	-0,029
-293,920	-72,790	0,083	-0,022
-292,905	-30,089	0,040	0,016
-291,891	381,023	-0,094	0,141
-290,876	-200,000	-0,002	0,016
-289,862	-200,000	-0,018	0,099
-288,847	221,772	-0,104	-0,123
-287,832	-102,875	-0,153	-0,026
-286,818	320,895	0,099	-0,138
-285,803	-200,000	-0,021	-0,080
-284,789	800,000	-0,034	0,094
-283,774	486,052	0,057	0,095
-282,759	-62,842	-0,116	-0,035
-281,745	41,006	-0,074	0,049
-280,730	-200,000	0,002	0,049
-279,716	16,737	0,048	-0,028
-278,701	-200,000	0,013	-0,109
-277,686	3,992	0,115	-0,061
-276,672	-200,000	0,030	-0,209
-275,657	164,349	-0,047	-0,049
-274,643	63,186	0,060	-0,044
-273,628	125,998	-0,045	-0,041
-272,613	800,000	-0,056	-0,133
-271,599	33,650	-0,066	-0,042
-270,584	800,000	-0,031	0,067
-269,570	56,900	0,034	0,024
-268,555	-186,820	-0,115	0,001
-267,540	-41,357	0,065	0,024
-266,526	800,000	-0,047	0,100
-265,511	-200,000	0,011	0,098
-264,497	105,999	0,080	0,069
-263,482	800,000	0,042	-0,087
-262,467	7,993	0,044	0,024
-261,453	-59,046	0,121	0,038
-260,438	800,000	-0,067	0,158
-259,424	-55,009	0,150	-0,049
-258,409	76,271	-0,056	0,043
-257,395	-121,438	-0,116	-0,014
-256,380	-74,559	0,126	0,033
-255,365	-16,176	0,041	0,019
-254,351	800,000	-0,006	-0,012
-253,336	-97,436	0,072	-0,014
-252,322	10,132	-0,127	-0,070
-251,307	-34,612	0,084	-0,033
-250,292	264,128	0,031	0,039
-249,278	-54,967	0,029	0,009
-248,263	-200,000	-0,030	0,102
-247,249	-200,000	0,002	0,124
-246,234	-91,498	-0,080	0,017
-245,219	739,893	-0,043	-0,084
-244,205	60,113	-0,044	0,032
-243,190	-146,762	0,138	-0,009
-242,176	6,959	0,147	-0,080
-241,161	-200,000	-0,021	-0,079
-240,146	22,656	-0,094	-0,056
-239,132	-200,000	0,033	-0,212
-238,117	-102,923	0,023	-0,004
-237,103	647,329	0,067	0,125
-236,088	56,293	0,129	0,092
-235,073	-200,000	0,011	0,080
-234,059	-200,000	0,006	0,182
-233,044	794,571	-0,055	0,112
-232,030	-200,000	-0,017	-0,084
-231,015	800,000	-0,017	-0,049
-230,000	800,000	0,012	0,026
-228,986	-10,440	0,121	0,058
-227,971	-200,000	-0,021	0,114
-226,957	-200,000	-0,008	0,123
-225,942	-92,687	-0,087	-0,018
-224,927	44,074	-0,117	-0,078
-223,913	67,809	0,092	-0,068
-222,898	800,000	0,051	0,105
-221,884	678,117	-0,026	-0,050
-220,869	-200,000	-0,012	0,183
-219,855	-60,121	0,064	-0,020
-218,840	400,476	0,117	0,180
-217,825	-36,562	-0,143	0,056
-216,811	-27,197	-0,027	-0,011
-215,796	60,188	-0,109	-0,078
-214,782	800,000	-0,020	-0,047
-213,767	123,509	0,057	0,052
-212,752	119,298	0,050	0,045
-211,738	64,831	0,041	0,030
-210,723	184,045	0,095	-0,103
-209,709	33,129	-0,091	0,057
-208,694	359,144	-0,146	-0,213
-207,679	-200,000	-0,004	-0,026
-206,665	-13,565	0,090	-0,042
-205,650	-73,594	-0,045	-0,012
-204,636	154,125	0,084	0,084
-203,621	16,636	-0,125	0,072
-202,606	3,541	0,084	0,044
-201,592	142,531	0,105	-0,102
-200,577	800,000	-0,057	-0,179
-199,563	94,598	-0,033	-0,027
-198,548	-74,625	0,097	0,025
-197,533	-78,585	0,136	-0,034
-196,519	201,919	0,044	-0,049
-195,504	-92,980	0,066	0,013
-194,490	678,474	0,046	-0,087
-193,475	-200,000	-0,005	-0,021
-192,460	-113,188	-0,057	-0,008
-191,446	-200,000	-0,012	0,042
-190,431	31,591	-0,041	0,025
-189,417	743,473	0,031	0,061
-188,402	60,718	-0,134	0,097
-187,387	-39,447	0,089	0,034
-186,373	-101,564	0,034	0,006
-185,358	800,000	-0,052	-0,118
-184,344	-74,571	0,037	-0,010
-183,329	800,000	0,014	-0,041
-182,315	-200,000	0,036	0,169
-181,300	-200,000	0,022	-0,095
-180,285	413,338	-0,037	-0,057
-179,271	-200,000	0,011	0,096
-178,256	102,237	-0,124	-0,105
-177,242	201,617	0,113	-0,127
-176,227	-200,000	-0,010	0,114
-175,212	404,244	-0,064	-0,099
-174,198	12,798	-0,065	0,036
-173,183	-10,334	0,070	-0,034
-172,169	37,884	-0,018	-0,012
-171,154	-200,000	0,006	-0,104
-170,139	800,000	0,011	-0,026
-169,125	-184,055	0,087	0,001
-168,110	697,033	-0,059	0,114
-167,096	-39,615	-0,139	0,053
-166,081	800,000	-0,048	0,128
-165,066	-200,000	-0,003	0,021
-164,052	-200,000	0,009	0,091
-163,037	-0,828	0,030	-0,015
-162,023	2,694	0,233	-0,122
-161,008	-200,000	0,041	0,165
-159,993	144,448	-0,048	-0,047
-158,979	495,940	-0,073	0,122
-157,964	229,635	0,065	0,077
-156,950	511,507	-0,030	-0,051
-155,935	-139,419	-0,119	0,009
-154,920	147,550	0,054	0,053
-153,906	-113,398	0,137	-0,019
-152,891	800,000	-0,028	-0,066
-151,877	499,879	-0,035	-0,058
-150,862	98,813	-0,064	0,054
-149,847	-200,000	-0,000	-0,072
-148,833	51,670	0,066	-0,045
-147,818	27,941	0,074	-0,045
-146,804	-9,361	0,042	-0,020
-145,789	-58,946	-0,029	0,009
-144,775	-200,000	0,003	-0,084
-143,760	32,520	-0,129	-0,081
-142,745	-144,146	-0,210	0,014
-141,731	800,000	0,042	0,127
-140,716	-94,580	-0,080	-0,016
-139,702	184,759	0,087	0,093
-138,687	185,245	-0,089	0,096
-137,672	-183,800	0,029	-0,000
-136,658	455,050	-0,098	-0,158
-135,643	-52,688	0,034	-0,011
-134,629	800,000	-0,018	-0,038
-133,614	192,927	-0,062	0,068
-132,599	45,388	0,033	-0,022
-131,585	-54,626	-0,017	0,006
-130,570	240,950	-0,028	-0,035
-129,556	321,078	0,064	0,088
-128,541	204,991	-0,062	0,070
-127,526	59,919	-0,104	-0,074
-126,512	291,437	0,099	-0,131
-125,497	710,761	0,090	0,174
-124,483	133,681	0,120	-0,113
-123,468	129,861	0,068	0,064
-122,453	343,407	-0,031	0,045
-121,439	223,532	-0,071	0,083
-120,424	-132,282	-0,039	-0,004
-119,410	-50,031	-0,099	0,034
