DTS Sentinel unit serial number:	SN410029Multiplexer serial number:	ORYXHardware model number:	OX2-SRSoftware version number:	ORYX F/W v4,00 Oryx Data Collector v3.7.2.0data status	okinstallation	B4 Nyhavnadifferential loss correction	single-endedforward channel	channel 2reverse channel	N/Adate	2023/12/19time	02:40:13forward acquisition time	300,00reverse acquisition time	0,00gamma	499,1914k internal	0,3125k external	0,3125temperature offset calibration	1,0000default loss term (dB/km)	0,3820temperature slope calibration	1,0000multiplexer offset coefficient	1,0000multiplexer slope coefficient	1,0000fibre end	0,00T internal ref (°C)	21,26T ext. ref 1 (°C)	6,19T ext. ref 2 (°C)	6,27length (m)	temperature (°C)	Stokes	anti-Stokes-744,400	-88,588	-0,102	-0,022
-743,385	-149,035	-0,302	0,018
-742,371	-200,000	-0,001	0,004
-741,356	160,239	-0,075	0,078
-740,342	800,000	-0,057	-0,133
-739,327	-101,162	-0,171	0,031
-738,312	800,000	-0,020	-0,048
-737,298	-158,207	-0,267	0,011
-736,283	430,296	0,063	-0,102
-735,269	-53,292	-0,150	0,051
-734,254	-200,000	0,025	0,155
-733,239	-16,217	-0,386	-0,182
-732,225	800,000	0,013	0,041
-731,210	491,463	-0,061	0,104
-730,196	-74,713	-0,043	0,011
-729,181	17,423	-0,174	-0,103
-728,167	69,793	0,071	-0,055
-727,152	730,935	0,033	0,066
-726,137	-87,544	-0,182	0,041
-725,123	-200,000	0,012	-0,121
-724,108	247,479	-0,009	0,012
-723,094	-200,000	-0,012	-0,094
-722,079	791,928	-0,027	-0,055
-721,064	-81,799	-0,039	-0,010
-720,050	495,204	-0,049	0,084
-719,035	-130,063	0,052	0,005
-718,021	75,859	-0,074	-0,058
-717,006	695,339	-0,034	-0,067
-715,991	-129,429	-0,050	0,005
-714,977	-23,667	-0,085	-0,038
-713,962	63,071	0,096	0,071
-712,948	800,000	-0,041	0,091
-711,933	25,480	0,099	0,061
-710,918	73,789	-0,086	0,067
-709,904	-180,115	-0,196	0,003
-708,889	84,288	-0,035	0,029
-707,875	151,032	-0,083	-0,084
-706,860	-120,620	0,069	0,009
-705,845	-111,863	-0,038	0,006
-704,831	413,762	-0,054	-0,085
-703,816	725,400	0,009	-0,018
-702,802	349,922	-0,090	-0,133
-701,787	169,948	-0,045	-0,047
-700,772	-200,000	-0,021	-0,106
-699,758	-200,000	0,027	0,129
-698,743	-25,618	0,173	-0,075
-697,729	18,050	0,108	-0,064
-696,714	-95,032	0,040	0,008
-695,699	-132,002	-0,097	-0,009
-694,685	304,803	-0,064	-0,088
-693,670	-200,000	-0,013	-0,066
-692,656	-31,584	-0,078	-0,032
-691,641	-125,331	0,074	-0,008
-690,627	-178,188	-0,105	0,002
-689,612	151,723	-0,044	-0,045
-688,597	258,752	0,033	0,043
-687,583	-82,766	-0,162	0,039
-686,568	800,000	-0,027	0,086
-685,554	800,000	0,043	-0,102
-684,539	-39,488	0,080	-0,031
-683,524	-0,683	0,100	-0,053
-682,510	-200,000	0,010	0,081
-681,495	-92,647	0,220	-0,045
-680,481	-53,588	-0,194	-0,065
-679,466	800,000	0,014	-0,038
-678,451	143,727	-0,020	-0,020
-677,437	-47,884	-0,223	-0,080
-676,422	-62,223	-0,016	-0,005
-675,408	107,633	0,078	0,069
-674,393	-200,000	-0,026	-0,127
-673,378	-136,082	-0,081	-0,007
-672,364	174,764	-0,085	-0,092
-671,349	-200,000	-0,015	-0,050
-670,335	-23,344	0,022	-0,010
-669,320	46,881	-0,148	0,102
-668,305	227,033	-0,085	-0,103
-667,291	239,256	0,055	-0,068
-666,276	-139,470	-0,114	0,009
-665,262	20,995	-0,146	0,088
-664,247	51,055	-0,040	-0,028
-663,232	-200,000	-0,027	0,099
-662,218	-20,612	0,055	-0,025
-661,203	47,854	0,012	0,008
-660,189	800,000	0,026	0,074
-659,174	-187,327	-0,090	-0,001
-658,159	626,043	0,026	-0,049
-657,145	800,000	-0,059	-0,142
-656,130	-78,303	-0,114	-0,029
-655,116	42,548	0,134	0,091
-654,101	800,000	-0,058	0,131
-653,086	17,875	0,055	-0,033
-652,072	384,046	-0,080	-0,122
-651,057	751,805	-0,008	-0,016
-650,043	222,194	-0,028	-0,034
-649,028	-200,000	0,015	0,126
-648,014	156,358	0,038	0,039
-646,999	77,148	-0,072	-0,056
-645,984	61,265	-0,085	0,063
-644,970	800,000	0,081	0,174
-643,955	-48,135	-0,059	-0,021
-642,941	628,185	0,053	0,099
-641,926	-71,153	0,045	0,012
-640,911	68,317	0,064	0,048
-639,897	800,000	0,091	0,197
-638,882	-200,000	-0,003	-0,035
-637,868	99,658	-0,066	0,057
-636,853	65,469	-0,123	-0,092
-635,838	-65,692	0,065	-0,019
-634,824	72,525	-0,018	0,014
-633,809	800,000	-0,056	0,145
-632,795	115,555	0,025	0,023
-631,780	-200,000	0,007	0,024
-630,765	-200,000	0,031	-0,112
-629,751	-200,000	-0,034	0,138
-628,736	402,139	0,078	0,121
-627,722	-157,134	-0,140	-0,006
-626,707	-200,000	0,003	0,067
-625,692	32,887	0,118	0,076
-624,678	191,140	-0,094	-0,105
-623,663	-55,698	-0,050	-0,016
-622,649	-200,000	0,007	0,050
-621,634	55,346	-0,110	-0,078
-620,619	121,134	-0,063	0,058
-619,605	800,000	-0,013	0,029
-618,590	143,312	-0,046	-0,045
-617,576	-57,792	-0,147	0,047
-616,561	-200,000	0,019	0,092
-615,546	13,990	0,122	-0,070
-614,532	89,817	-0,103	-0,085
-613,517	32,659	0,045	-0,029
-612,503	800,000	-0,042	-0,095
-611,488	-75,961	-0,037	-0,010
-610,474	-184,165	-0,107	0,001
-609,459	-133,529	0,073	0,007
-608,444	331,759	-0,085	-0,122
-607,430	243,031	-0,092	0,114
-606,415	773,736	0,061	-0,123
-605,401	-167,570	-0,031	-0,001
-604,386	72,460	0,032	0,025
-603,371	62,683	-0,036	0,027
-602,357	-5,892	-0,049	-0,025
-601,342	-30,046	0,016	-0,007
-600,328	-200,000	-0,007	-0,042
-599,313	-137,966	-0,024	-0,002
-598,298	-67,628	-0,204	0,059
-597,284	144,716	0,171	0,169
-596,269	505,570	0,099	0,171
-595,255	800,000	-0,035	0,096
-594,240	303,943	-0,028	-0,039
-593,225	-200,000	-0,004	-0,076
-592,211	800,000	-0,023	-0,050
-591,196	-200,000	-0,006	-0,053
-590,182	-200,000	0,017	0,160
-589,167	-104,547	0,138	0,023
-588,152	152,194	-0,074	-0,075
-587,138	36,435	0,126	-0,082
-586,123	199,958	0,008	0,009
-585,109	772,555	-0,058	-0,118
-584,094	-200,000	0,003	-0,023
-583,079	-200,000	0,009	-0,154
-582,065	352,606	0,063	0,092
-581,050	22,788	0,067	0,041
-580,036	55,950	0,048	0,035
-579,021	46,630	0,091	-0,063
-578,006	-47,823	-0,071	0,025
-576,992	800,000	-0,061	-0,134
-575,977	-102,870	0,066	-0,011
-574,963	334,787	-0,054	-0,078
-573,948	800,000	0,028	-0,081
-572,934	800,000	-0,044	0,115
-571,919	-61,527	-0,157	-0,049
-570,904	-77,468	-0,202	-0,052
-569,890	800,000	-0,048	-0,124
-568,875	-158,088	0,055	0,002
-567,861	-200,000	0,016	-0,058
-566,846	261,815	0,028	0,036
-565,831	-161,086	-0,110	0,004
-564,817	95,122	-0,014	-0,011
-563,802	226,148	-0,075	-0,090
-562,788	0,703	-0,085	-0,045
-561,773	-200,000	0,002	0,110
-560,758	800,000	-0,060	0,168
-559,744	39,808	0,082	0,055
-558,729	-200,000	-0,020	0,100
-557,715	-134,814	-0,152	-0,013
-556,700	6,863	0,173	-0,095
-555,685	96,554	0,019	0,016
-554,671	7,872	0,015	0,008
-553,656	-60,919	0,111	-0,035
-552,642	-68,276	-0,160	-0,046
-551,627	-127,996	0,055	-0,006
-550,612	107,851	-0,112	0,098
-549,598	145,500	-0,098	-0,097
-548,583	-82,173	0,159	0,038
-547,569	31,530	0,068	-0,043
-546,554	-3,991	-0,147	-0,075
-545,539	39,468	0,124	0,082
-544,525	167,119	0,040	0,042
-543,510	-130,806	-0,030	-0,003
-542,496	375,880	0,030	-0,046
-541,481	301,615	-0,035	-0,048
-540,466	-200,000	-0,058	0,190
-539,452	-135,905	0,076	-0,006
-538,437	-60,223	0,111	0,035
-537,423	9,626	0,066	-0,037
-536,408	201,745	-0,046	-0,053
-535,393	658,555	-0,073	-0,139
-534,379	-200,000	-0,025	0,105
-533,364	-200,000	0,001	-0,008
-532,350	-28,151	0,070	0,030
-531,335	274,285	0,086	-0,112
-530,321	-70,973	-0,057	0,016
-529,306	-200,000	-0,001	-0,033
-528,291	-43,623	-0,039	-0,014
-527,277	82,081	-0,149	-0,119
-526,262	231,658	0,021	-0,026
-525,248	-200,000	0,024	0,085
-524,233	78,633	-0,011	-0,009
-523,218	-200,000	-0,004	0,020
-522,204	-45,084	0,093	0,034
-521,189	-152,505	-0,206	-0,011
-520,175	-131,384	0,059	-0,006
-519,160	198,446	0,023	0,026
-518,145	-20,218	0,060	0,027
-517,131	8,008	0,101	0,056
-516,116	44,359	0,072	0,049
-515,102	-200,000	0,012	-0,040
-514,087	119,910	0,023	0,021
-513,072	342,472	-0,030	0,043
-512,058	211,135	-0,142	-0,165
-511,043	-200,000	0,011	0,074
-510,029	618,374	-0,047	0,088
-509,014	103,745	-0,069	0,060
-507,999	509,429	-0,043	0,073
-506,985	-18,927	-0,065	-0,030
-505,970	116,680	0,072	-0,065
-504,956	-54,699	0,123	-0,041
-503,941	44,550	-0,051	0,035
-502,926	800,000	0,071	0,174
-501,912	800,000	0,052	0,135
-500,897	-166,762	0,037	-0,001
-499,883	-200,000	0,039	0,152
-498,868	800,000	-0,041	-0,097
-497,853	336,601	0,121	-0,174
-496,839	-51,169	-0,045	0,015
-495,824	-200,000	-0,004	0,017
-494,810	309,903	0,079	0,110
-493,795	77,139	-0,031	0,024
-492,781	-11,970	0,020	0,010
-491,766	320,396	-0,080	-0,112
-490,751	800,000	-0,054	-0,119
-489,737	-200,000	-0,010	-0,083
-488,722	-200,000	0,046	0,171
-487,708	-73,209	0,133	0,036
-486,693	-159,670	0,080	0,003
-485,678	800,000	-0,012	-0,036
-484,664	521,572	-0,048	-0,084
-483,649	-95,304	-0,144	-0,028
-482,635	-200,000	0,045	0,149
-481,620	-200,000	-0,010	-0,046
-480,605	-93,119	0,099	0,020
-479,591	-200,000	-0,004	0,078
-478,576	40,820	0,108	-0,072
-477,562	-200,000	0,022	-0,109
-476,547	12,783	-0,056	0,032
-475,532	-200,000	0,002	-0,082
-474,518	-117,924	0,092	0,012
-473,503	800,000	-0,049	0,110
-472,489	-61,375	0,073	0,022
-471,474	-5,242	0,146	0,074
-470,459	11,582	0,089	-0,050
-469,445	25,331	0,052	0,032
-468,430	259,432	0,066	0,084
-467,416	-59,938	0,085	-0,027
-466,401	-70,484	-0,081	0,023
-465,386	114,067	0,110	-0,099
-464,372	-200,000	-0,005	0,073
-463,357	-121,453	-0,043	-0,005
-462,343	120,613	-0,031	-0,029
-461,328	-60,749	0,110	0,034
-460,313	-200,000	-0,008	0,158
-459,299	484,871	-0,090	0,151
-458,284	12,962	-0,097	-0,055
-457,270	643,717	-0,042	0,078
-456,255	86,977	-0,001	-0,001
-455,241	800,000	0,001	0,003
-454,226	52,385	-0,087	-0,061
-453,211	754,334	-0,029	-0,058
-452,197	-200,000	-0,008	-0,035
-451,182	-8,592	0,107	-0,053
-450,168	205,882	0,071	-0,082
-449,153	-200,000	0,005	-0,029
-448,138	800,000	0,032	-0,102
-447,124	211,275	0,085	-0,098
-446,109	434,883	-0,046	0,073
-445,095	-200,000	-0,015	0,101
-444,080	-200,000	-0,011	-0,066
-443,065	-105,197	-0,075	-0,012
-442,051	-47,126	-0,139	-0,050
-441,036	-200,000	-0,005	-0,102
-440,022	-200,000	0,007	-0,126
-439,007	800,000	0,012	-0,031
-437,992	800,000	0,021	-0,068
-436,978	94,438	-0,041	-0,034
-435,963	297,974	0,054	-0,073
-434,949	483,068	-0,047	0,078
-433,934	261,933	0,078	0,100
-432,919	134,294	0,032	-0,031
-431,905	-14,666	-0,060	0,028
-430,890	203,058	0,075	0,086
-429,876	-200,000	0,005	-0,103
-428,861	292,286	0,070	-0,094
-427,846	-200,000	0,018	0,124
-426,832	553,359	0,093	0,165
-425,817	-114,610	0,041	-0,006
-424,803	-200,000	0,018	0,064
-423,788	-200,000	-0,035	-0,162
-422,773	-200,000	0,002	-0,122
-421,759	-9,150	0,034	-0,017
-420,744	91,806	-0,115	0,095
-419,730	-100,420	0,037	-0,007
-418,715	207,437	-0,119	-0,137
-417,701	800,000	-0,068	0,185
-416,686	-113,606	0,070	0,010
-415,671	138,468	-0,040	0,039
-414,657	271,542	0,051	0,066
-413,642	307,412	-0,105	0,144
-412,628	15,888	-0,095	0,055
-411,613	-23,741	-0,035	-0,016
-410,598	800,000	0,041	0,088
-409,584	-200,000	-0,022	0,092
-408,569	33,243	-0,093	0,059
-407,555	167,699	-0,096	0,101
-406,540	-24,807	0,125	-0,055
-405,525	-200,000	0,005	-0,116
-404,511	709,941	0,066	-0,129
-403,496	-200,000	0,009	0,058
-402,482	550,046	0,028	-0,050
-401,467	230,784	0,085	0,102
-400,452	332,792	-0,090	0,128
-399,438	-13,381	0,092	0,044
-398,423	311,205	-0,047	0,065
-397,409	103,485	0,053	0,046
-396,394	-200,000	0,003	0,058
-395,379	-5,672	0,108	-0,054
-394,365	534,969	-0,042	0,074
-393,350	800,000	0,037	0,094
-392,336	-73,414	0,125	0,033
-391,321	-200,000	-0,001	-0,039
-390,306	-200,000	-0,014	-0,169
-389,292	248,873	-0,077	-0,096
-388,277	10,500	-0,077	-0,043
-387,263	171,291	0,095	0,100
-386,248	22,614	0,177	0,106
-385,233	800,000	-0,055	0,120
-384,219	-200,000	0,009	-0,032
-383,204	81,504	0,043	0,034
-382,190	800,000	-0,014	0,045
-381,175	-200,000	-0,025	0,092
-380,160	63,691	0,061	0,045
-379,146	33,272	0,212	0,135
-378,131	282,531	0,061	0,080
-377,117	588,783	0,085	-0,155
-376,102	247,750	-0,028	0,035
-375,088	235,856	-0,050	0,060
-374,073	161,041	-0,081	-0,084
-373,058	800,000	0,046	0,105
-372,044	-200,000	0,003	-0,028
-371,029	-98,508	0,039	0,007
-370,015	-8,504	-0,107	0,053
-369,000	56,921	-0,052	-0,037
-367,985	-188,227	-0,056	0,001
-366,971	80,972	-0,053	-0,042
-365,956	15,878	0,066	-0,038
-364,942	9,492	0,065	0,036
-363,927	-164,692	-0,124	-0,004
-362,912	-29,432	-0,072	0,030
-361,898	133,781	-0,070	0,067
-360,883	-32,512	0,013	0,005
-359,869	-148,028	0,065	-0,004
-358,854	53,176	-0,116	0,082
-357,839	230,789	-0,066	0,080
-356,825	-73,369	0,138	-0,037
-355,810	376,337	0,040	0,059
-354,796	-200,000	-0,053	-0,224
-353,781	800,000	-0,039	-0,106
-352,766	100,509	-0,136	-0,116
-351,752	-199,424	-0,126	-0,000
-350,737	245,935	0,063	0,078
-349,723	215,757	-0,094	0,110
-348,708	12,715	-0,058	0,033
-347,693	-77,769	0,073	-0,018
-346,679	-200,000	-0,009	-0,082
-345,664	13,695	-0,110	0,063
-344,650	-46,609	-0,052	0,019
-343,635	92,381	-0,030	-0,025
-342,620	247,336	0,010	-0,013
-341,606	88,223	0,051	-0,042
-340,591	-94,112	-0,133	-0,027
-339,577	44,282	0,043	0,029
-338,562	800,000	0,039	0,082
-337,548	800,000	-0,052	-0,132
-336,533	126,111	0,022	0,020
-335,518	-15,148	-0,096	-0,045
-334,504	564,830	-0,051	-0,091
-333,489	800,000	0,034	0,084
-332,475	602,921	0,040	0,074
-331,460	-0,106	-0,060	0,031
-330,445	-200,000	0,011	0,077
-329,431	435,748	-0,033	0,053
-328,416	-200,000	0,011	0,091
-327,402	686,775	0,086	-0,165
-326,387	574,438	-0,067	-0,121
-325,372	-68,840	0,186	-0,052
-324,358	-1,654	-0,088	-0,045
-323,343	48,665	-0,063	-0,043
-322,329	-159,101	0,178	-0,007
-321,314	-200,000	-0,009	0,041
-320,299	43,120	0,120	0,080
-319,285	800,000	-0,018	-0,057
-318,270	-164,222	-0,052	0,002
-317,256	532,025	-0,074	0,129
-316,241	-82,243	0,099	-0,023
-315,226	520,511	-0,070	-0,121
-314,212	52,688	0,075	-0,053
-313,197	800,000	0,036	-0,097
-312,183	620,874	0,040	0,075
-311,168	271,389	-0,033	0,043
-310,153	87,816	-0,078	-0,063
-309,139	-75,454	-0,059	-0,015
-308,124	203,966	0,079	-0,090
-307,110	-200,000	0,013	-0,143
-306,095	-93,579	0,061	0,012
-305,080	-136,028	-0,190	0,016
-304,066	561,826	0,050	-0,088
-303,051	-20,731	0,101	0,045
-302,037	594,714	-0,038	0,069
-301,022	800,000	-0,046	0,101
-300,008	-81,013	0,157	0,038
-298,993	-55,058	0,076	-0,025
-297,978	11,547	0,148	0,083
-296,964	172,396	0,051	-0,053
-295,949	-130,254	-0,036	-0,004
-294,935	151,478	-0,119	-0,119
-293,920	420,285	0,075	0,119
-292,905	-15,113	0,118	-0,055
-291,891	-200,000	0,011	0,085
-290,876	-200,000	-0,015	0,109
-289,862	-200,000	0,030	-0,195
-288,847	-200,000	0,001	-0,030
-287,832	-100,738	0,052	-0,009
-286,818	-54,424	-0,061	0,020
-285,803	3,926	-0,008	-0,004
-284,789	-76,674	0,131	-0,033
-283,774	-28,021	0,016	0,007
-282,759	425,261	0,029	0,046
-281,745	209,781	-0,101	-0,116
-280,730	-17,049	-0,025	0,012
-279,716	110,762	0,070	-0,062
-278,701	-200,000	0,034	0,158
-277,686	-82,261	0,174	0,041
-276,672	-200,000	-0,001	0,093
-275,657	16,623	0,022	-0,013
-274,643	548,039	-0,050	-0,089
-273,628	355,762	-0,073	0,107
-272,613	40,191	-0,096	-0,063
-271,599	92,862	-0,076	-0,063
-270,584	-200,000	-0,002	-0,123
-269,570	46,736	-0,086	0,058
-268,555	-28,651	-0,024	-0,010
-267,540	-200,000	-0,036	-0,131
-266,526	-200,000	0,022	0,093
-265,511	5,878	0,152	-0,082
-264,497	-200,000	-0,052	-0,209
-263,482	-91,796	0,076	-0,016
-262,467	-71,529	-0,037	0,010
-261,453	217,293	-0,007	0,009
-260,438	-200,000	0,004	-0,140
-259,424	-96,098	-0,064	0,012
-258,409	-200,000	-0,001	-0,083
-257,395	800,000	-0,009	0,024
-256,380	247,850	-0,042	0,052
-255,365	582,272	-0,033	-0,059
-254,351	-200,000	0,009	-0,102
-253,336	138,808	-0,083	-0,080
-252,322	800,000	-0,011	0,033
-251,307	-4,011	0,065	-0,033
-250,292	355,809	-0,056	0,082
-249,278	75,083	-0,135	-0,104
-248,263	-200,000	0,001	-0,052
-247,249	-36,877	0,084	-0,033
-246,234	-178,958	0,051	0,001
-245,219	800,000	-0,040	0,120
-244,205	-200,000	0,007	-0,169
-243,190	534,934	-0,085	-0,148
-242,176	-200,000	0,013	0,100
-241,161	-19,705	-0,094	-0,042
-240,146	-170,604	-0,049	-0,001
-239,132	-200,000	-0,006	-0,150
-238,117	-200,000	0,001	-0,074
-237,103	233,677	-0,017	-0,020
-236,088	800,000	-0,012	0,026
-235,073	22,291	-0,030	0,018
-234,059	-200,000	0,034	0,119
-233,044	48,900	0,089	0,061
-232,030	-79,462	0,046	-0,011
-231,015	-13,495	-0,103	-0,048
-230,000	133,158	0,026	-0,025
-228,986	240,205	0,108	0,132
-227,971	21,908	-0,081	-0,048
-226,957	800,000	0,031	0,071
-225,942	143,417	-0,080	0,078
-224,927	21,191	0,038	-0,022
-223,913	-61,781	0,093	-0,028
-222,898	800,000	-0,054	-0,138
-221,884	-119,385	0,025	-0,003
-220,869	166,137	0,040	-0,041
-219,855	-65,419	0,153	0,045
-218,840	94,586	0,074	0,061
-217,825	800,000	-0,011	-0,025
-216,811	-115,173	-0,050	0,007
-215,796	-43,785	0,083	-0,030
-214,782	-114,561	0,059	-0,008
-213,767	-37,914	0,037	-0,014
-212,752	-200,000	-0,008	0,069
-211,738	-200,000	0,001	0,050
-210,723	216,114	0,053	0,062
-209,709	8,268	-0,089	-0,049
-208,694	-151,322	0,022	0,001
-207,679	-200,000	0,006	-0,086
-206,665	451,145	0,038	-0,061
-205,650	-24,283	0,019	0,008
-204,636	-200,000	-0,004	-0,113
-203,621	81,445	-0,097	-0,076
-202,606	-5,395	-0,121	0,060
-201,592	488,414	-0,025	-0,041
-200,577	-200,000	-0,021	-0,159
-199,563	-72,996	0,081	-0,021
-198,548	-108,293	0,139	0,022
-197,533	-200,000	0,006	0,070
-196,519	-200,000	-0,045	0,181
-195,504	-105,293	-0,026	-0,004
-194,490	160,716	-0,090	-0,091
-193,475	303,927	-0,050	0,068
-192,460	22,649	0,040	-0,024
-191,446	-27,649	0,097	-0,041
-190,431	442,955	0,083	0,133
-189,417	73,454	-0,037	-0,028
-188,402	81,184	-0,152	-0,120
-187,387	131,695	0,102	-0,095
-186,373	-127,736	-0,019	0,002
-185,358	-89,071	0,104	0,022
-184,344	800,000	-0,022	0,058
-183,329	800,000	0,050	-0,107
-182,315	51,342	0,016	-0,011
-181,300	554,726	-0,045	-0,079
-180,285	-155,991	-0,121	0,005
-179,271	51,305	-0,098	-0,068
-178,256	-140,001	-0,052	-0,004
-177,242	-79,547	0,163	0,040
-176,227	800,000	-0,022	0,048
-175,212	208,757	0,093	0,106
-174,198	-109,993	0,097	-0,015
-173,183	800,000	0,028	-0,063
-172,169	800,000	0,023	-0,048
-171,154	-200,000	0,012	-0,110
-170,139	100,322	-0,026	0,022
-169,125	800,000	-0,042	0,093
-168,110	-33,264	-0,108	0,043
-167,096	-104,056	-0,194	0,033
-166,081	-109,520	-0,130	-0,020
-165,066	-136,559	-0,070	0,006
-164,052	319,826	-0,030	-0,042
-163,037	-200,000	-0,002	0,078
-162,023	309,773	-0,080	0,109
-161,008	-200,000	-0,028	-0,136
-159,993	94,171	0,096	-0,079
-158,979	-137,653	0,083	-0,007
-157,964	800,000	-0,040	-0,120
-156,950	6,523	0,134	-0,072
-155,935	-200,000	0,032	0,144
-154,920	124,046	-0,050	0,046
-153,906	-200,000	0,021	0,087
-152,891	2,263	0,100	-0,053
-151,877	686,329	-0,016	0,031
-150,862	800,000	-0,049	-0,121
-149,847	1,836	0,070	-0,037
-148,833	-180,568	0,145	0,002
-147,818	-84,987	-0,149	0,034
-146,804	390,402	0,063	-0,096
-145,789	151,919	0,070	0,069
-144,775	268,244	0,069	-0,088
-143,760	-200,000	-0,005	-0,059
-142,745	316,367	-0,035	-0,048
-141,731	142,130	-0,075	0,072
-140,716	-123,905	0,181	-0,021
-139,702	-187,547	0,185	-0,002
-138,687	-200,000	0,029	-0,097
-137,672	714,767	-0,035	-0,068
-136,658	292,081	-0,037	-0,049
-135,643	-49,393	-0,040	0,014
-134,629	392,753	0,032	0,049
-133,614	-200,000	-0,042	0,152
-132,599	800,000	0,050	-0,102
-131,585	-63,402	0,061	-0,018
-130,570	24,986	-0,058	0,035
-129,556	51,166	-0,083	0,057
-128,541	800,000	-0,057	-0,117
-127,526	-129,931	0,034	0,003
-126,512	800,000	0,009	-0,020
-125,497	-81,243	0,091	-0,022
-124,483	198,509	0,103	0,115
-123,468	159,636	0,086	0,087
-122,453	-200,000	-0,052	-0,173
-121,439	-47,160	-0,058	-0,020
-120,424	-200,000	0,006	-0,044
-119,410	800,000	0,026	0,071
-118,395	63,893	-0,093	0,068
