DTS Sentinel unit serial number:	SN410029Multiplexer serial number:	ORYXHardware model number:	OX2-SRSoftware version number:	ORYX F/W v4,00 Oryx Data Collector v3.7.2.0data status	okinstallation	B4 Nyhavnadifferential loss correction	single-endedforward channel	channel 2reverse channel	N/Adate	2023/12/18time	16:15:13forward acquisition time	300,00reverse acquisition time	0,00gamma	499,1914k internal	0,3135k external	0,3135temperature offset calibration	1,0000default loss term (dB/km)	0,3820temperature slope calibration	1,0000multiplexer offset coefficient	1,0000multiplexer slope coefficient	1,0000fibre end	0,00T internal ref (°C)	19,47T ext. ref 1 (°C)	7,64T ext. ref 2 (°C)	7,76length (m)	temperature (°C)	Stokes	anti-Stokes-744,400	-200,000	-0,019	0,118
-743,385	79,084	-0,189	0,150
-742,371	144,777	-0,022	-0,022
-741,356	-200,000	0,021	0,153
-740,342	63,384	0,026	0,019
-739,327	-18,761	-0,244	0,113
-738,312	-200,000	0,001	-0,125
-737,298	-113,998	-0,243	0,035
-736,283	-114,176	0,141	0,020
-735,269	-45,096	-0,265	0,097
-734,254	341,299	0,086	-0,125
-733,239	-71,524	-0,453	-0,125
-732,225	-34,362	0,136	-0,055
-731,210	150,936	0,083	-0,084
-730,196	-200,000	0,029	0,129
-729,181	-118,175	-0,089	-0,012
-728,167	169,964	-0,057	0,061
-727,152	98,139	-0,043	-0,036
-726,137	-22,663	-0,128	0,057
-725,123	-200,000	-0,031	-0,168
-724,108	634,502	-0,038	-0,071
-723,094	396,648	-0,129	-0,200
-722,079	111,576	0,069	-0,062
-721,064	44,491	0,082	-0,056
-720,050	-118,921	-0,150	-0,019
-719,035	-68,598	-0,065	0,019
-718,021	302,556	-0,035	-0,048
-717,006	800,000	-0,043	-0,107
-715,991	-200,000	-0,025	-0,116
-714,977	571,097	0,026	-0,048
-713,962	800,000	-0,045	0,093
-712,948	462,029	0,065	0,108
-711,933	-23,169	0,049	0,022
-710,918	-20,274	-0,083	-0,038
-709,904	53,609	-0,145	-0,103
-708,889	143,741	-0,055	0,054
-707,875	559,610	-0,010	-0,017
-706,860	-200,000	0,020	-0,065
-705,845	-101,033	-0,067	-0,012
-704,831	264,102	-0,095	0,123
-703,816	-126,685	-0,107	-0,012
-702,802	-39,767	0,134	0,052
-701,787	23,743	-0,074	0,045
-700,772	-119,246	-0,031	0,004
-699,758	-32,176	0,096	0,040
-698,743	-200,000	0,026	0,161
-697,729	50,039	0,075	0,053
-696,714	16,865	-0,163	0,096
-695,699	370,443	-0,012	0,018
-694,685	-200,000	-0,001	0,058
-693,670	-200,000	-0,014	-0,120
-692,656	-200,000	0,004	-0,077
-691,641	800,000	0,007	-0,019
-690,627	-200,000	-0,011	0,182
-689,612	731,895	0,042	-0,083
-688,597	-117,342	-0,093	0,012
-687,583	2,075	0,079	-0,042
-686,568	588,976	-0,028	-0,052
-685,554	438,719	-0,026	0,043
-684,539	105,268	0,153	0,134
-683,524	800,000	0,031	0,065
-682,510	800,000	0,030	0,091
-681,495	-200,000	-0,038	-0,145
-680,481	-39,640	-0,073	-0,028
-679,466	-133,245	0,053	-0,005
-678,451	279,198	0,047	-0,062
-677,437	-200,000	0,006	0,112
-676,422	-200,000	-0,002	-0,176
-675,408	-200,000	-0,013	0,055
-674,393	-200,000	0,008	-0,041
-673,378	77,812	-0,137	-0,108
-672,364	-200,000	0,001	0,148
-671,349	800,000	0,067	-0,182
-670,335	800,000	0,021	-0,049
-669,320	-19,494	-0,082	-0,037
-668,305	130,915	0,051	-0,048
-667,291	-66,038	-0,081	-0,024
-666,276	39,147	-0,117	-0,078
-665,262	-200,000	0,056	-0,186
-664,247	28,043	0,033	0,020
-663,232	96,674	-0,051	0,043
-662,218	41,626	-0,049	-0,033
-661,203	-95,683	0,115	-0,022
-660,189	-200,000	-0,009	0,095
-659,174	-200,000	0,013	0,222
-658,159	251,853	-0,039	0,049
-657,145	-19,153	-0,016	-0,007
-656,130	320,461	-0,047	0,066
-655,116	-200,000	0,003	0,023
-654,101	-22,171	0,162	0,072
-653,086	50,565	0,020	-0,014
-652,072	-200,000	0,007	-0,100
-651,057	532,966	-0,065	-0,114
-650,043	-200,000	-0,003	-0,017
-649,028	81,756	-0,136	0,109
-648,014	516,635	-0,027	-0,047
-646,999	800,000	0,041	0,091
-645,984	127,345	0,054	0,051
-644,970	61,383	-0,056	-0,041
-643,955	632,217	-0,015	-0,028
-642,941	-77,033	-0,045	-0,011
-641,926	-145,954	-0,035	0,002
-640,911	-200,000	-0,019	-0,118
-639,897	800,000	0,060	0,135
-638,882	-70,277	-0,098	-0,027
-637,868	-139,001	0,053	-0,004
-636,853	167,329	-0,043	-0,045
-635,838	122,897	0,088	0,081
-634,824	-0,178	0,062	0,033
-633,809	134,792	0,072	0,069
-632,795	-82,816	0,071	0,017
-631,780	-16,485	0,040	0,018
-630,765	800,000	0,057	0,120
-629,751	-200,000	-0,005	0,053
-628,736	800,000	-0,063	-0,136
-627,722	-107,133	-0,026	0,004
-626,707	-200,000	-0,013	-0,060
-625,692	800,000	-0,011	0,033
-624,678	290,010	-0,039	0,052
-623,663	635,464	-0,034	0,064
-622,649	-18,894	-0,042	-0,019
-621,634	-200,000	0,016	-0,109
-620,619	-168,307	0,088	0,002
-619,605	-36,192	0,131	0,052
-618,590	634,428	0,026	0,048
-617,576	62,730	0,052	0,038
-616,561	203,799	0,046	-0,053
-615,546	502,016	0,015	-0,026
-614,532	236,708	-0,071	-0,087
-613,517	331,893	-0,031	-0,045
-612,503	-126,475	0,079	-0,009
-611,488	-93,659	0,108	0,022
-610,474	-200,000	0,002	0,053
-609,459	800,000	0,014	-0,032
-608,444	42,345	-0,132	-0,089
-607,430	248,135	0,067	-0,084
-606,415	-132,304	-0,038	0,004
-605,401	800,000	0,011	-0,024
-604,386	-0,873	0,175	0,091
-603,371	166,582	0,089	0,094
-602,357	-200,000	-0,015	0,094
-601,342	428,518	0,068	0,108
-600,328	169,897	-0,073	-0,078
-599,313	33,808	-0,077	-0,049
-598,298	146,386	0,048	0,048
-597,284	-100,430	-0,034	0,006
-596,269	-57,795	-0,032	-0,010
-595,255	-140,506	0,120	-0,009
-594,240	-200,000	0,011	-0,080
-593,225	626,022	0,056	0,104
-592,211	800,000	-0,061	-0,143
-591,196	-15,649	-0,106	-0,050
-590,182	-200,000	-0,019	-0,066
-589,167	-200,000	-0,025	-0,099
-588,152	-200,000	-0,006	0,084
-587,138	-200,000	-0,012	-0,041
-586,123	800,000	-0,056	0,122
-585,109	10,574	0,065	-0,037
-584,094	-200,000	-0,001	-0,070
-583,079	-124,728	0,048	0,005
-582,065	291,943	0,044	-0,059
-581,050	-200,000	-0,011	0,052
-580,036	800,000	0,046	0,117
-579,021	800,000	0,036	-0,080
-578,006	1,847	-0,081	-0,043
-576,992	-200,000	-0,006	-0,140
-575,977	-200,000	0,003	0,096
-574,963	-77,051	0,093	0,024
-573,948	-11,921	0,083	0,040
-572,934	391,323	-0,022	-0,034
-571,919	-189,580	-0,081	-0,001
-570,904	-200,000	0,026	0,113
-569,890	34,924	0,070	0,045
-568,875	-42,528	-0,109	-0,041
-567,861	161,670	0,076	0,079
-566,846	201,924	0,061	-0,069
-565,831	67,603	0,067	0,050
-564,817	-161,110	-0,128	-0,005
-563,802	18,246	-0,081	0,047
-562,788	-52,931	-0,047	0,016
-561,773	-38,769	-0,095	-0,037
-560,758	-6,877	0,026	0,013
-559,744	-143,256	0,077	0,005
-558,729	-45,979	0,080	-0,029
-557,715	54,535	-0,083	-0,059
-556,700	49,497	0,034	-0,023
-555,685	-68,110	0,043	0,012
-554,671	53,820	-0,050	-0,036
-553,656	304,737	0,034	0,046
-552,642	-32,312	-0,200	0,082
-551,627	-200,000	-0,025	0,102
-550,612	8,006	0,071	0,039
-549,598	-76,966	-0,139	-0,036
-548,583	-200,000	-0,006	-0,171
-547,569	-110,610	0,064	0,010
-546,554	734,666	0,054	0,107
-545,539	-200,000	-0,015	0,146
-544,525	203,458	0,040	-0,046
-543,510	128,864	-0,195	-0,183
-542,496	800,000	0,064	-0,181
-541,481	30,956	-0,017	-0,011
-540,466	63,257	-0,098	0,072
-539,452	294,497	0,025	-0,033
-538,437	187,928	0,121	0,133
-537,423	-200,000	0,022	0,120
-536,408	-86,324	-0,092	0,021
-535,393	-200,000	0,031	0,137
-534,379	-47,242	0,076	-0,027
-533,364	63,255	0,049	0,036
-532,350	44,132	-0,074	0,050
-531,335	800,000	-0,017	0,048
-530,321	800,000	-0,033	0,071
-529,306	-200,000	0,008	0,139
-528,291	-27,125	-0,138	-0,059
-527,277	3,129	0,079	0,042
-526,262	-200,000	-0,009	0,094
-525,248	-200,000	0,022	-0,096
-524,233	-200,000	-0,019	0,000
-523,218	549,810	0,038	0,068
-522,204	-98,574	0,071	-0,013
-521,189	-57,893	0,061	0,020
-520,175	179,024	0,029	-0,031
-519,160	229,070	0,117	0,140
-518,145	800,000	0,044	-0,115
-517,131	155,999	0,010	0,010
-516,116	-200,000	0,016	-0,057
-515,102	800,000	0,024	0,062
-514,087	-112,442	-0,125	-0,018
-513,072	12,185	-0,099	0,056
-512,058	-95,121	-0,066	-0,013
-511,043	179,854	-0,090	0,097
-510,029	462,906	0,083	0,136
-509,014	-200,000	0,003	0,062
-507,999	-39,427	0,048	0,018
-506,985	-53,310	-0,028	0,009
-505,970	-200,000	0,006	-0,035
-504,956	522,835	-0,038	-0,065
-503,941	-200,000	0,002	-0,052
-502,926	164,837	-0,022	0,023
-501,912	76,081	0,052	0,040
-500,897	-200,000	-0,001	0,056
-499,883	800,000	0,049	-0,120
-498,868	350,087	-0,076	-0,111
-497,853	395,980	-0,040	-0,062
-496,839	662,919	-0,037	-0,070
-495,824	-200,000	0,015	-0,082
-494,810	3,697	0,145	-0,078
-493,795	-128,798	-0,098	0,010
-492,781	-74,235	0,082	-0,022
-491,766	199,465	0,063	0,071
-490,751	63,668	-0,050	0,037
-489,737	21,249	0,049	0,029
-488,722	47,595	0,114	-0,078
-487,708	477,040	0,025	0,042
-486,693	129,171	-0,075	-0,070
-485,678	800,000	0,039	-0,088
-484,664	106,939	0,045	0,040
-483,649	-146,887	-0,024	-0,002
-482,635	800,000	0,027	-0,055
-481,620	319,686	0,076	0,106
-480,605	-42,780	-0,066	-0,024
-479,591	28,942	0,093	0,058
-478,576	586,526	-0,051	-0,093
-477,562	582,231	0,025	-0,046
-476,547	136,454	-0,039	0,038
-475,532	-120,243	0,203	-0,025
-474,518	783,813	0,082	-0,165
-473,503	800,000	-0,030	-0,076
-472,489	530,375	0,040	0,070
-471,474	27,636	0,100	-0,062
-470,459	203,734	-0,104	-0,118
-469,445	100,804	-0,042	-0,036
-468,430	800,000	-0,086	-0,220
-467,416	800,000	-0,017	-0,039
-466,401	-200,000	0,019	0,076
-465,386	46,400	0,049	0,034
-464,372	-200,000	0,000	-0,005
-463,357	-18,675	-0,068	0,031
-462,343	-200,000	0,021	-0,152
-461,328	800,000	0,026	0,074
-460,313	-89,073	0,084	0,018
-459,299	388,143	0,069	0,105
-458,284	58,880	0,116	0,084
-457,270	222,254	-0,025	-0,030
-456,255	402,253	-0,051	0,079
-455,241	-200,000	-0,004	0,078
-454,226	-114,624	0,077	0,011
-453,211	83,442	0,058	-0,046
-452,197	236,202	0,027	0,033
-451,182	707,764	-0,045	0,088
-450,168	61,892	-0,165	0,121
-449,153	-200,000	0,022	-0,079
-448,138	136,589	0,043	0,041
-447,124	-200,000	-0,010	-0,151
-446,109	800,000	-0,022	0,048
-445,095	-75,333	-0,133	0,034
-444,080	168,832	0,065	0,068
-443,065	-200,000	-0,037	0,160
-442,051	340,429	-0,035	-0,051
-441,036	-23,811	-0,054	-0,024
-440,022	-200,000	-0,004	-0,168
-439,007	10,830	-0,130	-0,073
-437,992	-200,000	0,034	0,126
-436,978	-166,707	0,062	0,002
-435,963	-29,182	0,019	-0,008
-434,949	399,441	-0,082	0,126
-433,934	242,619	0,136	-0,168
-432,919	-200,000	-0,001	-0,075
-431,905	392,228	-0,048	0,074
-430,890	-200,000	-0,037	0,000
-429,876	189,683	-0,022	0,025
-428,861	58,447	0,026	0,019
-427,846	-200,000	-0,011	-0,041
-426,832	-200,000	-0,013	-0,186
-425,817	716,360	-0,012	-0,024
-424,803	742,558	-0,019	-0,038
-423,788	-66,559	0,057	-0,016
-422,773	96,418	-0,031	-0,026
-421,759	-200,000	-0,024	0,111
-420,744	8,022	-0,098	-0,054
-419,730	-59,682	-0,067	-0,021
-418,715	35,365	-0,028	-0,018
-417,701	26,526	-0,048	0,029
-416,686	800,000	-0,014	0,038
-415,671	47,502	0,081	0,056
-414,657	182,245	0,090	0,097
-413,642	-200,000	-0,002	0,025
-412,628	-200,000	-0,025	-0,131
-411,613	536,294	0,045	-0,079
-410,598	-200,000	-0,008	-0,190
-409,584	91,683	-0,034	0,028
-408,569	108,253	0,090	-0,079
-407,555	800,000	-0,016	-0,036
-406,540	114,306	0,056	0,050
-405,525	-200,000	0,014	-0,085
-404,511	-143,717	-0,147	-0,010
-403,496	32,627	-0,086	-0,054
-402,482	210,141	0,038	0,043
-401,467	-200,000	0,012	-0,039
-400,452	-171,608	0,141	-0,003
-399,438	-200,000	0,011	0,070
-398,423	-14,114	-0,033	0,015
-397,409	64,824	0,050	-0,037
-396,394	-41,789	-0,115	-0,043
-395,379	-137,345	0,176	-0,014
-394,365	-3,938	-0,020	0,010
-393,350	-130,646	0,073	0,007
-392,336	251,380	-0,069	0,086
-391,321	18,564	0,079	-0,046
-390,306	571,924	-0,013	-0,024
-389,292	800,000	0,031	0,076
-388,277	-200,000	0,025	0,168
-387,263	185,784	0,058	0,064
-386,248	-200,000	-0,038	0,155
-385,233	800,000	0,018	-0,043
-384,219	279,010	0,038	-0,049
-383,204	54,947	-0,066	0,046
-382,190	72,458	-0,079	-0,060
-381,175	-22,368	0,048	-0,021
-380,160	32,836	-0,095	0,060
-379,146	-41,096	0,125	0,047
-378,131	131,314	0,015	0,014
-377,117	-200,000	0,000	-0,130
-376,102	-200,000	-0,001	-0,116
-375,088	-132,044	-0,104	0,010
-374,073	800,000	-0,008	0,018
-373,058	273,245	0,052	0,068
-372,044	-65,663	-0,020	-0,006
-371,029	-200,000	0,003	0,058
-370,015	385,481	-0,011	-0,017
-369,000	50,026	-0,086	-0,059
-367,985	143,399	-0,076	-0,074
-366,971	-200,000	0,009	-0,091
-365,956	-200,000	0,013	0,058
-364,942	-11,012	0,157	-0,076
-363,927	210,948	-0,085	0,098
-362,912	421,798	-0,097	0,152
-361,898	123,201	-0,026	-0,023
-360,883	1,823	-0,035	0,019
-359,869	-153,102	-0,077	-0,004
-358,854	800,000	-0,007	-0,014
-357,839	159,824	0,042	0,043
-356,825	620,921	-0,012	0,023
-355,810	325,623	-0,015	-0,021
-354,796	-200,000	-0,007	0,150
-353,781	144,994	-0,014	0,013
-352,766	-51,559	-0,163	0,055
-351,752	184,856	0,075	0,082
-350,737	-77,622	-0,127	0,032
-349,723	-135,478	0,160	-0,014
-348,708	800,000	-0,032	0,069
-347,693	168,497	-0,117	-0,122
-346,679	469,929	0,106	-0,175
-345,664	-25,367	0,109	-0,047
-344,650	800,000	-0,022	-0,057
-343,635	14,826	0,071	0,041
-342,620	-157,744	0,208	-0,009
-341,606	287,143	-0,070	-0,093
-340,591	30,467	0,114	-0,071
-339,577	279,552	-0,054	-0,070
-338,562	-200,000	0,032	-0,242
-337,548	33,136	-0,085	-0,053
-336,533	6,652	0,056	0,030
-335,518	94,200	0,020	-0,016
-334,504	-7,259	0,109	-0,054
-333,489	158,353	-0,068	0,069
-332,475	134,746	-0,062	-0,059
-331,460	-200,000	0,019	-0,100
-330,445	418,036	-0,099	-0,155
-329,431	32,402	-0,081	0,051
-328,416	-139,488	0,113	0,009
-327,402	58,269	-0,111	0,080
-326,387	-200,000	-0,007	-0,055
-325,372	-200,000	-0,021	-0,149
-324,358	33,888	-0,030	0,019
-323,343	96,505	0,098	0,082
-322,329	800,000	0,011	-0,029
-321,314	755,581	0,041	-0,082
-320,299	800,000	0,031	0,064
-319,285	142,680	0,068	0,066
-318,270	-94,760	-0,088	-0,017
-317,256	501,448	0,053	-0,090
-316,241	116,590	-0,097	-0,087
-315,226	-200,000	0,010	-0,126
-314,212	18,136	0,059	-0,034
-313,197	-200,000	0,017	0,094
-312,183	126,501	0,028	0,026
-311,168	-200,000	0,013	0,064
-310,153	-30,529	-0,058	-0,024
-309,139	14,181	-0,093	-0,053
-308,124	800,000	0,031	0,065
-307,110	-52,154	0,207	0,070
-306,095	-200,000	-0,015	0,058
-305,080	800,000	-0,037	0,102
-304,066	183,022	-0,153	-0,165
-303,051	-200,000	-0,008	0,047
-302,037	414,290	-0,061	-0,095
-301,022	-200,000	-0,013	-0,049
-300,008	-200,000	-0,028	-0,129
-298,993	-200,000	-0,005	0,097
-297,978	-200,000	0,014	0,151
-296,964	143,279	0,058	-0,057
-295,949	-42,976	-0,087	0,032
-294,935	120,464	-0,102	-0,093
-293,920	-101,129	-0,012	0,002
-292,905	381,450	0,041	0,062
-291,891	329,985	0,035	-0,049
-290,876	96,439	0,126	0,105
-289,862	800,000	0,033	-0,069
-288,847	-68,421	0,009	-0,003
-287,832	75,081	-0,049	-0,038
-286,818	-69,354	0,084	-0,023
-285,803	731,042	0,023	0,046
-284,789	-73,488	0,077	0,020
-283,774	-3,445	-0,117	-0,059
-282,759	286,053	0,090	0,119
-281,745	374,797	-0,048	-0,071
-280,730	-200,000	-0,011	-0,140
-279,716	129,512	-0,134	-0,125
-278,701	800,000	0,072	0,181
-277,686	-99,981	0,044	-0,008
-276,672	-200,000	0,013	-0,081
-275,657	-62,251	-0,067	0,020
-274,643	1,975	0,070	0,037
-273,628	127,176	-0,135	-0,125
-272,613	-200,000	0,008	-0,177
-271,599	800,000	0,007	0,018
-270,584	800,000	-0,031	0,091
-269,570	-200,000	-0,008	0,058
-268,555	-27,749	-0,035	-0,015
-267,540	-200,000	-0,029	-0,096
-266,526	75,967	0,016	0,012
-265,511	53,702	-0,036	0,025
-264,497	344,562	-0,104	-0,148
-263,482	-111,948	-0,123	0,018
-262,467	251,557	0,080	0,099
-261,453	-61,626	0,016	0,005
-260,438	145,216	-0,070	0,068
-259,424	-13,517	-0,099	0,047
-258,409	-79,269	-0,130	0,032
-257,395	793,819	-0,024	0,049
-256,380	800,000	-0,025	0,062
-255,365	53,585	-0,024	-0,017
-254,351	446,848	-0,044	-0,071
-253,336	280,013	-0,058	0,076
-252,322	51,216	-0,111	-0,076
-251,307	800,000	-0,052	0,120
-250,292	19,716	-0,024	0,014
-249,278	-23,360	0,103	0,045
-248,263	-200,000	0,003	0,010
-247,249	90,001	-0,052	-0,043
-246,234	-117,780	-0,114	-0,015
-245,219	793,428	0,020	-0,041
-244,205	-154,355	-0,074	-0,004
-243,190	97,209	0,053	-0,044
-242,176	-104,983	-0,020	0,003
-241,161	-65,568	0,158	0,046
-240,146	-100,645	0,063	0,011
-239,132	800,000	-0,034	0,091
-238,117	355,285	0,051	0,074
-237,103	36,270	0,049	-0,032
-236,088	22,654	0,055	0,033
-235,073	406,999	0,070	0,108
-234,059	-53,745	0,088	0,029
-233,044	285,383	0,057	0,075
-232,030	1,208	0,061	0,032
-231,015	368,166	0,079	-0,116
-230,000	67,836	-0,070	-0,052
-228,986	-97,728	0,175	0,033
-227,971	800,000	-0,033	0,084
-226,957	-200,000	0,005	-0,022
-225,942	-71,810	-0,062	0,017
-224,927	800,000	0,030	0,087
-223,913	-188,502	0,049	-0,000
-222,898	61,751	-0,065	-0,047
-221,884	-114,151	-0,052	0,007
-220,869	-200,000	0,007	0,062
-219,855	-33,499	-0,099	-0,040
-218,840	168,711	0,047	0,049
-217,825	610,032	-0,046	-0,084
-216,811	800,000	-0,026	-0,071
-215,796	-200,000	0,008	-0,039
-214,782	713,036	-0,077	0,149
-213,767	-144,020	-0,074	-0,005
-212,752	33,668	0,153	-0,096
-211,738	372,097	-0,038	-0,057
-210,723	10,656	-0,100	0,055
-209,709	464,068	0,048	-0,078
-208,694	-143,601	-0,045	-0,003
-207,679	-200,000	-0,004	0,055
-206,665	-20,765	0,182	-0,081
-205,650	-200,000	0,016	0,065
-204,636	114,616	-0,117	-0,104
-203,621	800,000	0,011	0,033
-202,606	266,007	-0,065	-0,083
-201,592	800,000	0,072	-0,148
-200,577	800,000	-0,046	-0,139
-199,563	-200,000	0,022	-0,128
-198,548	-121,405	-0,057	0,007
-197,533	800,000	0,013	-0,037
-196,519	-72,076	-0,132	0,035
-195,504	-200,000	-0,010	-0,069
-194,490	-200,000	0,032	-0,125
-193,475	800,000	0,034	-0,100
-192,460	49,466	0,060	-0,041
-191,446	-200,000	0,015	0,204
-190,431	-92,459	0,140	0,028
-189,417	26,743	-0,112	0,068
-188,402	97,900	0,054	0,045
-187,387	-149,236	-0,151	-0,009
-186,373	237,193	-0,023	0,028
-185,358	-200,000	0,001	-0,144
-184,344	-123,194	0,206	-0,024
-183,329	-128,402	0,065	0,007
-182,315	469,798	0,013	0,021
-181,300	-149,128	-0,087	-0,005
-180,285	-200,000	-0,006	-0,034
-179,271	-200,000	-0,012	0,189
-178,256	-200,000	-0,030	-0,136
-177,242	186,654	0,069	0,074
-176,227	-200,000	-0,059	0,221
-175,212	-1,160	0,128	0,066
-174,198	360,782	0,080	-0,116
-173,183	-42,911	-0,104	0,038
-172,169	68,963	-0,046	0,034
-171,154	-200,000	0,013	-0,081
-170,139	-15,540	0,183	0,085
-169,125	-101,408	0,062	-0,011
-168,110	183,374	-0,098	0,105
-167,096	233,473	-0,087	0,105
-166,081	-149,899	0,007	0,000
-165,066	214,539	-0,069	0,079
-164,052	369,613	-0,066	0,098
-163,037	457,608	0,067	0,109
-162,023	67,767	0,028	-0,020
-161,008	-73,571	-0,104	0,027
-159,993	-200,000	0,016	0,063
-158,979	459,415	0,043	0,070
-157,964	87,818	-0,073	0,059
-156,950	462,569	0,076	-0,123
-155,935	-200,000	0,038	0,125
-154,920	-8,360	-0,106	-0,052
-153,906	-200,000	-0,023	0,117
-152,891	125,203	-0,082	0,075
-151,877	-57,977	-0,090	-0,028
-150,862	800,000	-0,041	-0,122
-149,847	800,000	-0,015	-0,033
-148,833	800,000	0,024	-0,074
-147,818	800,000	-0,017	-0,037
-146,804	-200,000	-0,001	0,043
-145,789	281,908	0,039	0,051
-144,775	-200,000	0,018	-0,117
-143,760	151,343	-0,086	-0,085
-142,745	-200,000	0,027	0,101
-141,731	-200,000	0,028	0,210
-140,716	-53,794	0,126	0,041
-139,702	39,487	-0,116	0,075
-138,687	-32,862	-0,034	0,013
-137,672	800,000	0,024	0,053
-136,658	-39,981	0,039	-0,015
-135,643	800,000	-0,057	-0,152
-134,629	756,474	-0,028	0,055
-133,614	-200,000	-0,014	0,069
-132,599	14,621	-0,058	0,033
-131,585	-200,000	-0,016	-0,116
-130,570	-200,000	0,022	-0,082
-129,556	3,521	-0,120	-0,063
-128,541	-32,112	-0,145	-0,059
-127,526	800,000	0,050	-0,118
-126,512	114,588	-0,077	-0,068
-125,497	-156,213	0,083	-0,004
-124,483	-200,000	-0,004	-0,034
-123,468	-116,557	-0,118	0,016
-122,453	-65,556	-0,083	-0,024
-121,439	131,242	-0,074	-0,069
-120,424	-200,000	-0,002	-0,093
-119,410	-200,000	0,018	-0,131
-118,395	-200,000	0,001	0,050
