DTS Sentinel unit serial number:	SN410029Multiplexer serial number:	ORYXHardware model number:	OX2-SRSoftware version number:	ORYX F/W v4,00 Oryx Data Collector v3.7.2.0data status	okinstallation	B4 Nyhavnadifferential loss correction	single-endedforward channel	channel 2reverse channel	N/Adate	2023/12/16time	07:35:13forward acquisition time	300,00reverse acquisition time	0,00gamma	499,1914k internal	0,3127k external	0,3127temperature offset calibration	1,0000default loss term (dB/km)	0,3820temperature slope calibration	1,0000multiplexer offset coefficient	1,0000multiplexer slope coefficient	1,0000fibre end	0,00T internal ref (°C)	22,36T ext. ref 1 (°C)	7,65T ext. ref 2 (°C)	7,81length (m)	temperature (°C)	Stokes	anti-Stokes-744,400	331,273	0,082	-0,118
-743,385	-82,912	-0,183	0,044
-742,371	330,524	0,070	-0,100
-741,356	119,753	-0,189	0,174
-740,342	-12,106	0,126	-0,061
-739,327	18,424	-0,191	0,114
-738,312	-91,891	0,086	-0,018
-737,298	82,073	-0,142	0,114
-736,283	-149,644	0,144	0,008
-735,269	121,402	-0,224	0,208
-734,254	-54,689	0,036	0,012
-733,239	-2,867	-0,392	-0,203
-732,225	136,725	-0,058	-0,056
-731,210	531,981	-0,066	0,116
-730,196	-38,639	-0,045	0,018
-729,181	800,000	0,059	0,166
-728,167	-200,000	-0,015	-0,128
-727,152	305,224	-0,062	-0,086
-726,137	78,700	-0,085	-0,068
-725,123	-22,745	-0,044	-0,020
-724,108	800,000	-0,024	-0,061
-723,094	-200,000	-0,005	-0,193
-722,079	119,713	-0,109	-0,100
-721,064	-94,558	0,063	0,013
-720,050	-200,000	-0,035	-0,134
-719,035	-77,719	-0,066	0,017
-718,021	-106,151	-0,020	-0,003
-717,006	800,000	-0,040	-0,101
-715,991	75,430	-0,087	-0,068
-714,977	298,197	0,009	0,013
-713,962	727,112	-0,059	-0,117
-712,948	143,943	-0,032	-0,032
-711,933	-47,620	-0,049	-0,018
-710,918	-200,000	0,011	-0,088
-709,904	434,768	-0,057	0,093
-708,889	344,544	-0,031	-0,046
-707,875	800,000	0,030	-0,072
-706,860	-200,000	0,008	0,109
-705,845	-200,000	0,014	-0,054
-704,831	800,000	0,021	0,062
-703,816	36,771	0,056	-0,036
-702,802	19,638	0,034	-0,020
-701,787	121,183	-0,093	-0,086
-700,772	-35,019	-0,167	-0,067
-699,758	149,680	-0,048	0,048
-698,743	800,000	0,014	-0,035
-697,729	187,296	0,053	0,059
-696,714	515,009	-0,077	-0,135
-695,699	800,000	-0,061	-0,129
-694,685	474,866	-0,089	-0,150
-693,670	348,664	0,077	0,113
-692,656	-200,000	0,026	0,104
-691,641	0,137	0,062	-0,033
-690,627	353,331	0,017	0,025
-689,612	-200,000	0,001	0,150
-688,597	-53,993	-0,151	0,051
-687,583	-200,000	0,018	-0,085
-686,568	211,890	-0,071	-0,084
-685,554	-200,000	-0,000	-0,003
-684,539	-92,479	-0,027	0,006
-683,524	-160,122	0,063	0,002
-682,510	495,016	-0,028	0,048
-681,495	-200,000	-0,014	0,047
-680,481	-200,000	0,015	-0,115
-679,466	76,605	0,043	-0,034
-678,451	86,053	0,019	0,016
-677,437	-114,233	-0,079	0,011
-676,422	223,894	-0,048	0,058
-675,408	-53,593	0,027	0,009
-674,393	-200,000	-0,027	-0,121
-673,378	177,966	-0,129	0,140
-672,364	22,033	-0,120	-0,073
-671,349	800,000	0,027	-0,074
-670,335	-93,862	-0,188	0,038
-669,320	800,000	0,007	0,016
-668,305	227,888	-0,045	0,054
-667,291	800,000	-0,016	-0,035
-666,276	82,320	-0,090	-0,073
-665,262	-125,880	0,081	0,009
-664,247	-2,965	-0,041	0,021
-663,232	800,000	0,015	0,048
-662,218	121,489	-0,020	0,019
-661,203	-118,823	-0,094	-0,012
-660,189	68,544	-0,141	0,107
-659,174	138,363	-0,049	-0,048
-658,159	-200,000	0,002	0,011
-657,145	-56,062	0,036	-0,012
-656,130	336,052	-0,015	0,022
-655,116	77,551	0,086	-0,068
-654,101	-200,000	-0,006	0,222
-653,086	-200,000	-0,016	0,064
-652,072	-109,526	0,133	-0,021
-651,057	800,000	-0,007	-0,016
-650,043	71,931	-0,123	-0,095
-649,028	-200,000	-0,012	-0,120
-648,014	-200,000	-0,013	-0,057
-646,999	-135,751	0,047	-0,004
-645,984	556,203	-0,013	-0,023
-644,970	-96,370	-0,070	0,014
-643,955	451,116	0,020	-0,033
-642,941	800,000	-0,047	0,150
-641,926	204,610	-0,008	-0,010
-640,911	48,157	-0,101	0,070
-639,897	-98,665	-0,036	-0,007
-638,882	100,094	-0,065	0,056
-637,868	-125,704	-0,072	0,008
-636,853	800,000	0,037	0,099
-635,838	636,254	-0,047	-0,088
-634,824	-200,000	-0,010	0,059
-633,809	-200,000	0,010	-0,032
-632,795	187,680	-0,044	0,049
-631,780	419,481	-0,038	0,061
-630,765	800,000	0,021	-0,046
-629,751	17,370	-0,116	0,068
-628,736	-200,000	0,028	-0,104
-627,722	107,157	-0,108	0,095
-626,707	-200,000	-0,007	0,034
-625,692	271,779	-0,028	0,037
-624,678	-200,000	0,021	0,147
-623,663	-200,000	-0,015	-0,082
-622,649	255,753	-0,151	-0,192
-621,634	274,667	0,101	-0,132
-620,619	-108,354	-0,095	-0,015
-619,605	170,158	-0,071	0,075
-618,590	-130,287	0,080	-0,008
-617,576	141,845	-0,064	-0,063
-616,561	800,000	0,025	-0,073
-615,546	-200,000	0,022	0,108
-614,532	800,000	-0,042	-0,108
-613,517	244,054	-0,086	-0,108
-612,503	107,506	0,030	0,027
-611,488	-60,703	0,125	-0,039
-610,474	-32,438	0,083	-0,034
-609,459	-34,417	-0,095	0,039
-608,444	-200,000	-0,018	-0,170
-607,430	384,117	-0,098	-0,150
-606,415	-52,144	-0,108	-0,037
-605,401	416,514	0,062	-0,099
-604,386	-200,000	-0,007	0,033
-603,371	800,000	0,023	-0,057
-602,357	-11,574	0,107	0,052
-601,342	251,370	-0,171	0,216
-600,328	-122,226	-0,006	0,001
-599,313	-19,558	0,107	-0,049
-598,298	428,874	0,043	-0,070
-597,284	-200,000	0,009	0,091
-596,269	-200,000	-0,004	-0,072
-595,255	-200,000	0,001	-0,061
-594,240	300,552	-0,020	-0,027
-593,225	227,678	0,093	-0,112
-592,211	800,000	-0,063	0,147
-591,196	193,088	-0,047	0,052
-590,182	-76,509	0,017	-0,004
-589,167	33,400	0,083	0,053
-588,152	-121,435	-0,093	-0,011
-587,138	800,000	-0,034	-0,079
-586,123	-36,805	-0,234	-0,092
-585,109	-200,000	0,024	-0,137
-584,094	800,000	-0,026	-0,064
-583,079	-101,077	0,149	0,027
-582,065	642,700	0,043	-0,081
-581,050	448,760	0,061	-0,099
-580,036	-70,337	-0,098	-0,027
-579,021	-59,144	-0,153	-0,049
-578,006	60,713	0,065	0,047
-576,992	-200,000	0,022	0,080
-575,977	60,796	0,126	0,092
-574,963	-83,403	0,120	-0,028
-573,948	800,000	0,016	-0,035
-572,934	-66,285	-0,066	0,019
-571,919	-28,134	-0,044	-0,019
-570,904	-200,000	-0,002	0,082
-569,890	-200,000	0,020	0,088
-568,875	255,333	-0,044	0,056
-567,861	13,753	0,062	-0,036
-566,846	-200,000	0,008	0,065
-565,831	281,627	-0,064	-0,085
-564,817	-129,818	-0,150	0,015
-563,802	800,000	0,029	-0,063
-562,788	-96,935	0,059	-0,011
-561,773	735,809	-0,036	0,071
-560,758	220,929	-0,031	-0,037
-559,744	-29,150	0,058	-0,024
-558,729	253,936	-0,067	0,084
-557,715	102,428	-0,073	0,063
-556,700	-130,838	0,120	0,012
-555,685	589,203	0,062	-0,114
-554,671	-200,000	0,004	0,068
-553,656	3,968	0,042	-0,023
-552,642	-48,217	0,096	0,034
-551,627	24,293	-0,071	-0,043
-550,612	-89,437	-0,028	-0,006
-549,598	-29,405	-0,190	0,080
-548,583	246,288	-0,092	-0,115
-547,569	800,000	0,025	-0,080
-546,554	20,288	-0,111	-0,066
-545,539	-19,795	-0,129	-0,059
-544,525	800,000	0,077	0,167
-543,510	191,846	0,145	-0,162
-542,496	-200,000	0,010	0,054
-541,481	-97,685	0,079	-0,015
-540,466	-27,644	-0,078	0,033
-539,452	-41,910	-0,120	0,045
-538,437	-200,000	0,027	-0,117
-537,423	220,128	-0,038	0,045
-536,408	-200,000	0,015	-0,095
-535,393	-125,294	-0,057	0,006
-534,379	-22,370	-0,060	-0,027
-533,364	-200,000	-0,042	0,147
-532,350	29,089	0,088	0,055
-531,335	166,451	-0,040	0,042
-530,321	10,064	0,156	0,087
-529,306	334,559	0,059	0,085
-528,291	-200,000	-0,124	-0,000
-527,277	49,533	-0,045	-0,031
-526,262	-200,000	-0,014	0,081
-525,248	800,000	0,048	0,132
-524,233	-200,000	0,023	0,126
-523,218	117,597	0,023	0,021
-522,204	800,000	-0,012	-0,028
-521,189	-113,457	0,054	-0,008
-520,175	-54,533	-0,054	-0,018
-519,160	63,574	-0,085	-0,063
-518,145	-64,606	0,072	-0,021
-517,131	8,611	0,035	0,019
-516,116	52,637	0,103	0,072
-515,102	-39,183	-0,075	-0,029
-514,087	349,593	-0,022	-0,032
-513,072	-200,000	0,000	0,018
-512,058	-200,000	0,005	0,068
-511,043	116,488	-0,092	0,084
-510,029	-200,000	0,006	0,110
-509,014	298,158	0,099	0,135
-507,999	471,417	0,035	-0,058
-506,985	594,562	0,078	0,142
-505,970	-102,770	-0,132	-0,023
-504,956	-58,813	-0,018	0,006
-503,941	800,000	0,053	-0,162
-502,926	-200,000	0,012	-0,063
-501,912	-36,836	-0,067	0,026
-500,897	82,965	0,109	-0,087
-499,883	74,447	-0,098	-0,076
-498,868	-6,031	0,110	0,055
-497,853	-90,648	-0,065	0,014
-496,839	269,265	-0,039	-0,051
-495,824	-75,840	0,047	0,012
-494,810	-47,758	0,075	0,027
-493,795	-200,000	-0,003	0,028
-492,781	58,447	0,069	0,050
-491,766	388,570	0,064	-0,098
-490,751	-200,000	-0,008	0,026
-489,737	-164,795	-0,125	0,004
-488,722	-122,878	0,133	0,016
-487,708	9,968	-0,058	0,032
-486,693	-167,068	-0,026	0,001
-485,678	-112,326	-0,054	0,008
-484,664	-111,664	-0,120	-0,018
-483,649	-81,916	-0,050	0,012
-482,635	293,637	0,026	-0,036
-481,620	793,557	-0,038	0,077
-480,605	159,399	-0,092	-0,094
-479,591	-149,409	0,035	0,002
-478,576	139,574	-0,084	-0,082
-477,562	-79,410	-0,076	-0,019
-476,547	-41,154	-0,191	-0,072
-475,532	-51,259	0,100	0,034
-474,518	-146,500	0,135	-0,009
-473,503	-200,000	0,007	0,138
-472,489	-73,910	-0,074	0,020
-471,474	69,087	0,052	-0,039
-470,459	-200,000	0,045	-0,149
-469,445	-200,000	-0,036	-0,212
-468,430	800,000	-0,029	-0,092
-467,416	2,161	0,215	-0,114
-466,401	-8,394	0,072	-0,035
-465,386	-200,000	-0,018	-0,104
-464,372	-200,000	-0,013	-0,121
-463,357	8,276	-0,144	-0,079
-462,343	800,000	-0,051	-0,116
-461,328	47,847	-0,034	0,023
-460,313	800,000	-0,013	-0,033
-459,299	-90,558	0,039	0,008
-458,284	117,376	0,066	0,060
-457,270	22,707	-0,151	0,091
-456,255	-64,444	-0,022	-0,007
-455,241	-77,867	-0,085	0,021
-454,226	190,268	0,105	-0,116
-453,211	29,941	0,035	0,022
-452,197	582,692	0,058	0,105
-451,182	-130,667	0,177	-0,017
-450,168	800,000	0,014	0,031
-449,153	800,000	-0,017	-0,045
-448,138	41,429	-0,130	-0,086
-447,124	306,502	0,103	-0,141
-446,109	-74,513	0,096	-0,025
-445,095	516,001	0,038	0,065
-444,080	59,564	0,143	-0,103
-443,065	-58,752	0,109	-0,034
-442,051	-123,795	-0,166	-0,019
-441,036	-200,000	0,001	-0,023
-440,022	-144,480	-0,083	-0,006
-439,007	180,885	0,095	0,103
-437,992	-200,000	-0,024	0,088
-436,978	800,000	-0,055	0,114
-435,963	-200,000	-0,003	-0,017
-434,949	40,235	0,153	0,101
-433,934	-200,000	-0,005	0,137
-432,919	363,354	-0,047	-0,070
-431,905	-149,582	0,068	0,004
-430,890	-72,701	-0,177	-0,048
-429,876	95,772	0,123	0,103
-428,861	321,403	-0,050	0,070
-427,846	160,872	0,038	0,039
-426,832	61,453	-0,192	0,140
-425,817	-28,621	0,068	0,029
-424,803	200,008	0,069	-0,078
-423,788	-200,000	-0,004	0,014
-422,773	263,480	-0,080	0,102
-421,759	457,478	-0,056	-0,093
-420,744	148,069	0,023	0,023
-419,730	184,949	0,083	-0,091
-418,715	-7,540	-0,016	0,008
-417,701	-176,400	-0,192	0,004
-416,686	313,756	0,020	-0,028
-415,671	-140,299	0,146	0,011
-414,657	-200,000	-0,013	-0,043
-413,642	-178,539	0,086	0,001
-412,628	-97,046	-0,125	0,024
-411,613	311,488	-0,037	-0,051
-410,598	-93,970	0,060	-0,012
-409,584	374,318	0,022	0,033
-408,569	196,734	0,036	0,040
-407,555	800,000	0,021	0,062
-406,540	-200,000	-0,022	0,087
-405,525	42,831	0,038	0,026
-404,511	33,214	-0,142	0,091
-403,496	800,000	-0,019	0,045
-402,482	280,692	0,087	-0,115
-401,467	-200,000	-0,009	0,031
-400,452	800,000	-0,068	0,144
-399,438	156,402	-0,090	-0,091
-398,423	-12,589	0,096	0,046
-397,409	-200,000	-0,024	-0,118
-396,394	800,000	-0,038	-0,081
-395,379	-89,529	0,042	-0,009
-394,365	231,924	-0,026	-0,032
-393,350	800,000	0,019	-0,052
-392,336	482,051	0,026	-0,043
-391,321	-5,238	-0,010	0,005
-390,306	-200,000	0,004	0,051
-389,292	-200,000	0,007	0,023
-388,277	204,357	-0,041	-0,046
-387,263	-54,797	0,122	-0,040
-386,248	3,800	-0,110	0,059
-385,233	-25,912	0,125	-0,054
-384,219	-18,580	0,156	-0,071
-383,204	-126,210	-0,127	-0,014
-382,190	800,000	-0,027	-0,055
-381,175	122,224	-0,031	0,028
-380,160	-200,000	-0,006	-0,030
-379,146	-200,000	-0,017	-0,079
-378,131	800,000	0,014	0,035
-377,117	47,171	0,065	-0,045
-376,102	206,627	0,029	-0,033
-375,088	800,000	0,066	-0,165
-374,073	800,000	0,039	-0,120
-373,058	105,595	0,081	-0,070
-372,044	-64,444	-0,184	0,054
-371,029	-48,984	0,094	0,033
-370,015	-50,753	0,157	-0,054
-369,000	88,188	0,061	-0,050
-367,985	17,458	-0,003	0,002
-366,971	-200,000	0,022	0,185
-365,956	-74,122	0,075	-0,020
-364,942	-200,000	0,021	-0,132
-363,927	305,057	0,032	0,043
-362,912	-46,324	-0,067	0,024
-361,898	-15,775	-0,115	0,054
-360,883	-115,384	-0,168	0,023
-359,869	-200,000	-0,015	-0,056
-358,854	-200,000	0,019	-0,142
-357,839	15,893	-0,090	-0,052
-356,825	-46,813	0,083	0,030
-355,810	800,000	0,039	0,095
-354,796	-106,464	0,028	-0,005
-353,781	-200,000	-0,005	0,094
-352,766	639,367	-0,028	0,052
-351,752	250,089	-0,046	-0,058
-350,737	-200,000	-0,025	-0,127
-349,723	-200,000	0,031	-0,126
-348,708	-200,000	0,021	-0,092
-347,693	373,645	-0,019	-0,029
-346,679	619,648	-0,007	-0,013
-345,664	303,291	0,046	-0,062
-344,650	-181,997	0,113	0,002
-343,635	800,000	-0,062	0,152
-342,620	50,875	-0,113	0,079
-341,606	-200,000	0,017	-0,065
-340,591	28,922	-0,068	-0,042
-339,577	-114,016	0,043	0,006
-338,562	239,002	-0,119	0,145
-337,548	-200,000	0,033	-0,108
-336,533	-193,810	0,147	0,001
-335,518	9,908	0,178	0,099
-334,504	341,600	-0,066	0,095
-333,489	134,322	0,056	0,053
-332,475	800,000	-0,015	0,036
-331,460	45,402	0,166	-0,112
-330,445	-200,000	0,001	0,050
-329,431	760,074	-0,047	-0,093
-328,416	-122,024	-0,091	-0,011
-327,402	-7,862	-0,113	0,056
-326,387	88,931	-0,054	-0,044
-325,372	-123,069	-0,052	-0,006
-324,358	-101,043	0,062	-0,011
-323,343	-160,553	0,060	-0,002
-322,329	81,691	0,072	0,057
-321,314	66,265	-0,120	0,089
-320,299	-99,216	-0,079	0,014
-319,285	800,000	-0,032	-0,089
-318,270	-159,521	-0,146	0,006
-317,256	140,459	-0,034	-0,033
-316,241	-200,000	0,013	0,081
-315,226	-73,117	0,250	0,067
-314,212	12,427	0,107	-0,060
-313,197	-200,000	0,023	0,091
-312,183	800,000	0,012	0,031
-311,168	-200,000	0,037	-0,130
-310,153	589,388	0,028	-0,051
-309,139	172,609	0,091	-0,096
-308,124	13,956	0,028	-0,016
-307,110	4,774	-0,033	-0,018
-306,095	-200,000	0,011	0,087
-305,080	-123,718	-0,087	-0,010
-304,066	-47,673	0,024	0,008
-303,051	-71,328	-0,043	-0,012
-302,037	-200,000	0,044	-0,150
-301,022	-200,000	0,014	0,059
-300,008	-200,000	0,012	0,105
-298,993	-87,900	0,190	0,042
-297,978	-200,000	-0,016	0,145
-296,964	-105,557	0,072	-0,012
-295,949	182,554	-0,152	-0,165
-294,935	433,680	-0,044	0,071
-293,920	371,178	0,045	0,067
-292,905	-62,751	0,073	0,022
-291,891	23,246	0,063	-0,038
-290,876	57,045	-0,097	-0,069
-289,862	-124,658	-0,096	-0,011
-288,847	-200,000	-0,021	0,134
-287,832	-157,657	-0,026	0,001
-286,818	800,000	-0,038	-0,093
-285,803	192,939	0,067	0,074
-284,789	87,421	0,072	0,058
-283,774	-112,180	0,099	-0,014
-282,759	-200,000	0,020	0,123
-281,745	221,622	-0,062	-0,073
-280,730	120,811	-0,037	-0,034
-279,716	-200,000	-0,000	0,036
-278,701	197,369	-0,059	-0,066
-277,686	-116,738	0,066	-0,009
-276,672	-200,000	-0,007	-0,077
-275,657	111,365	-0,051	0,045
-274,643	574,817	0,072	0,130
-273,628	547,876	-0,006	-0,011
-272,613	-200,000	0,018	-0,067
-271,599	139,505	-0,065	0,063
-270,584	73,465	0,117	0,090
-269,570	800,000	-0,027	0,058
-268,555	-82,256	0,190	-0,045
-267,540	713,817	0,049	-0,096
-266,526	360,552	-0,081	-0,119
-265,511	-200,000	-0,052	0,186
-264,497	-23,704	0,075	0,033
-263,482	508,945	0,006	0,010
-262,467	72,143	0,031	-0,023
-261,453	192,478	-0,074	-0,081
-260,438	-101,034	0,115	-0,020
-259,424	736,827	-0,034	0,068
-258,409	490,589	0,046	-0,078
-257,395	-151,542	0,020	-0,001
-256,380	133,688	-0,080	-0,076
-255,365	-200,000	-0,014	0,097
-254,351	-53,095	0,065	-0,022
-253,336	-32,079	0,070	-0,029
-252,322	-28,323	-0,120	-0,051
-251,307	-42,292	-0,038	-0,014
-250,292	115,926	-0,042	-0,038
-249,278	-54,474	0,023	0,008
-248,263	800,000	0,032	0,080
-247,249	-74,782	0,066	0,017
-246,234	0,371	-0,117	-0,061
-245,219	-36,846	-0,201	-0,078
-244,205	-85,648	-0,033	-0,007
-243,190	412,874	0,010	-0,016
-242,176	800,000	-0,024	0,054
-241,161	731,661	-0,065	0,127
-240,146	-200,000	-0,004	0,114
-239,132	19,650	-0,057	-0,033
-238,117	800,000	0,029	-0,071
-237,103	728,341	0,028	-0,054
-236,088	-200,000	-0,031	0,101
-235,073	312,700	0,069	0,095
-234,059	275,069	0,024	-0,031
-233,044	-200,000	0,003	0,167
-232,030	60,972	0,111	-0,080
-231,015	610,792	0,063	-0,116
-230,000	800,000	-0,011	0,035
-228,986	235,938	0,053	0,064
-227,971	341,915	0,069	0,099
-226,957	-200,000	0,038	0,133
-225,942	-13,823	0,030	0,014
-224,927	37,103	0,082	0,053
-223,913	-93,421	0,019	-0,004
-222,898	800,000	-0,044	-0,098
-221,884	-200,000	-0,001	-0,088
-220,869	800,000	0,047	-0,132
-219,855	-200,000	0,010	0,147
-218,840	-200,000	0,012	0,095
-217,825	134,353	-0,057	-0,054
-216,811	-94,137	-0,050	-0,010
-215,796	-200,000	0,000	-0,025
-214,782	-200,000	0,001	0,045
-213,767	-76,265	-0,048	0,012
-212,752	729,783	0,062	0,121
-211,738	-85,738	0,095	-0,021
-210,723	36,925	-0,089	0,057
-209,709	290,768	-0,079	-0,105
-208,694	-147,684	0,113	0,007
-207,679	800,000	0,022	-0,066
-206,665	-99,516	0,106	-0,019
-205,650	-200,000	-0,123	-0,000
-204,636	495,924	0,030	0,051
-203,621	-200,000	0,026	0,097
-202,606	103,905	-0,046	0,040
-201,592	350,872	-0,082	-0,118
-200,577	-77,769	0,068	-0,017
-199,563	-46,021	-0,002	0,001
-198,548	-15,774	-0,050	0,023
-197,533	10,630	-0,030	-0,017
-196,519	-77,434	0,104	0,026
-195,504	226,745	0,103	0,122
-194,490	206,901	0,024	-0,027
-193,475	298,458	-0,107	-0,144
-192,460	12,577	-0,047	-0,026
-191,446	-89,918	0,102	0,022
-190,431	451,902	-0,069	0,111
-189,417	265,215	0,016	0,020
-188,402	30,922	-0,107	0,067
-187,387	-118,767	-0,164	-0,021
-186,373	166,209	0,078	-0,080
-185,358	-31,924	0,084	0,034
-184,344	800,000	-0,032	0,070
-183,329	-71,474	0,081	-0,022
-182,315	-200,000	-0,008	-0,095
-181,300	302,676	0,033	0,045
-180,285	175,365	-0,080	-0,085
-179,271	-166,286	0,063	0,002
-178,256	219,255	-0,008	0,009
-177,242	27,534	0,072	0,044
-176,227	575,776	0,017	0,030
-175,212	-200,000	0,007	0,083
-174,198	3,816	0,063	0,033
-173,183	31,834	0,043	-0,027
-172,169	-166,682	0,135	-0,004
-171,154	243,878	-0,074	0,090
-170,139	-200,000	0,002	0,111
-169,125	13,019	-0,029	0,016
-168,110	-32,395	0,106	-0,043
-167,096	-29,319	-0,103	0,043
-166,081	306,651	-0,053	0,073
-165,066	48,577	-0,154	0,105
-164,052	-200,000	0,021	-0,161
-163,037	800,000	-0,017	-0,035
-162,023	-200,000	-0,000	0,088
-161,008	182,027	0,061	0,066
-159,993	44,812	-0,040	0,027
-158,979	460,647	0,089	-0,145
-157,964	-47,241	-0,046	0,016
-156,950	800,000	0,069	0,140
-155,935	2,610	0,088	0,046
-154,920	91,885	-0,068	0,055
-153,906	505,639	-0,037	0,062
-152,891	-15,953	0,129	0,060
-151,877	22,097	0,062	0,037
-150,862	17,694	0,032	-0,018
-149,847	-87,352	-0,154	-0,034
-148,833	356,628	-0,060	0,088
-147,818	-90,346	0,032	-0,007
-146,804	800,000	0,001	0,004
-145,789	-44,686	0,116	0,042
-144,775	137,214	0,104	0,099
-143,760	176,754	0,001	-0,001
-142,745	-200,000	-0,026	-0,129
-141,731	70,484	0,015	0,011
-140,716	-200,000	0,000	0,107
-139,702	-115,570	0,037	-0,005
-138,687	-200,000	-0,001	-0,014
-137,672	102,867	0,084	-0,072
-136,658	27,102	-0,099	-0,060
-135,643	66,232	0,018	-0,013
-134,629	-132,197	0,105	-0,010
-133,614	-200,000	0,004	0,056
-132,599	142,819	0,138	0,134
-131,585	-200,000	-0,032	0,141
-130,570	293,044	0,128	-0,171
-129,556	-5,608	-0,039	0,020
-128,541	295,699	-0,074	-0,099
-127,526	31,431	-0,034	-0,021
-126,512	-127,339	-0,088	-0,009
-125,497	800,000	0,014	0,043
-124,483	224,791	-0,094	0,110
-123,468	469,062	-0,068	-0,112
-122,453	-180,972	-0,101	-0,001
-121,439	50,498	0,138	0,095
-120,424	475,465	-0,032	-0,052
-119,410	-117,791	0,136	0,018
-118,395	67,918	0,061	0,045
