DTS Sentinel unit serial number:	SN410029Multiplexer serial number:	ORYXHardware model number:	OX2-SRSoftware version number:	ORYX F/W v4,00 Oryx Data Collector v3.7.2.0data status	okinstallation	B4 Nyhavnadifferential loss correction	single-endedforward channel	channel 2reverse channel	N/Adate	2023/12/16time	07:20:13forward acquisition time	300,00reverse acquisition time	0,00gamma	499,1914k internal	0,3127k external	0,3127temperature offset calibration	1,0000default loss term (dB/km)	0,3820temperature slope calibration	1,0000multiplexer offset coefficient	1,0000multiplexer slope coefficient	1,0000fibre end	0,00T internal ref (°C)	22,35T ext. ref 1 (°C)	7,53T ext. ref 2 (°C)	7,70length (m)	temperature (°C)	Stokes	anti-Stokes-744,400	-157,662	-0,139	-0,006
-743,385	55,839	-0,160	0,115
-742,371	120,761	0,135	0,125
-741,356	424,000	-0,150	0,240
-740,342	-200,000	-0,030	0,120
-739,327	218,240	-0,139	0,165
-738,312	62,268	0,045	0,033
-737,298	-54,060	-0,198	0,067
-736,283	155,332	0,121	-0,124
-735,269	-120,151	-0,108	0,014
-734,254	560,099	0,062	-0,113
-733,239	-37,899	-0,425	-0,167
-732,225	43,814	0,091	0,062
-731,210	332,185	0,042	0,061
-730,196	493,119	0,077	-0,131
-729,181	-200,000	-0,004	0,117
-728,167	5,746	-0,095	-0,052
-727,152	117,500	-0,058	-0,054
-726,137	-200,000	-0,002	-0,036
-725,123	234,362	-0,052	-0,063
-724,108	-131,244	-0,028	-0,003
-723,094	-9,850	-0,086	0,043
-722,079	-200,000	0,023	-0,125
-721,064	80,006	-0,056	-0,045
-720,050	-154,987	0,070	0,003
-719,035	92,402	-0,041	0,035
-718,021	800,000	0,063	0,142
-717,006	13,266	-0,072	-0,042
-715,991	293,187	-0,043	-0,059
-714,977	-200,000	-0,002	-0,052
-713,962	800,000	-0,014	0,035
-712,948	303,091	0,034	0,047
-711,933	193,311	-0,059	0,066
-710,918	-23,945	0,122	0,054
-709,904	195,057	0,042	-0,047
-708,889	-132,021	-0,095	0,009
-707,875	-200,000	-0,006	-0,055
-706,860	-141,624	0,073	-0,005
-705,845	-94,831	0,151	-0,030
-704,831	61,900	-0,096	0,071
-703,816	-200,000	-0,019	0,091
-702,802	178,164	-0,071	-0,077
-701,787	13,380	-0,071	0,041
-700,772	800,000	0,033	0,102
-699,758	382,591	0,049	-0,075
-698,743	208,837	0,102	0,119
-697,729	800,000	-0,066	0,150
-696,714	76,947	0,076	0,060
-695,699	47,633	-0,166	-0,115
-694,685	-101,251	-0,143	0,026
-693,670	17,281	0,096	-0,057
-692,656	623,377	-0,030	0,057
-691,641	43,285	-0,059	-0,040
-690,627	-200,000	0,008	-0,099
-689,612	74,333	-0,047	-0,037
-688,597	343,445	-0,083	-0,121
-687,583	-200,000	0,013	-0,095
-686,568	800,000	0,044	-0,137
-685,554	-200,000	-0,030	-0,173
-684,539	565,963	-0,026	0,047
-683,524	277,465	0,058	0,077
-682,510	800,000	-0,019	0,043
-681,495	-200,000	-0,023	0,096
-680,481	-200,000	0,001	0,008
-679,466	-62,856	-0,102	0,031
-678,451	-190,747	-0,042	-0,000
-677,437	800,000	-0,034	0,074
-676,422	800,000	0,059	0,178
-675,408	-33,378	-0,094	-0,039
-674,393	-29,215	-0,087	0,037
-673,378	-44,304	-0,130	0,048
-672,364	170,321	-0,106	0,112
-671,349	800,000	0,030	-0,075
-670,335	102,121	-0,099	0,086
-669,320	119,528	0,053	-0,049
-668,305	370,975	-0,024	-0,036
-667,291	-200,000	-0,003	-0,163
-666,276	378,199	-0,131	-0,199
-665,262	800,000	-0,055	-0,129
-664,247	127,637	0,048	0,045
-663,232	80,028	-0,054	0,043
-662,218	255,490	-0,028	0,035
-661,203	800,000	0,012	-0,036
-660,189	800,000	0,037	0,121
-659,174	-34,088	-0,041	-0,017
-658,159	61,852	-0,137	0,101
-657,145	-159,237	-0,140	0,006
-656,130	-200,000	-0,019	-0,062
-655,116	-200,000	0,004	0,092
-654,101	539,949	0,034	0,060
-653,086	141,040	-0,036	-0,036
-652,072	800,000	-0,026	0,076
-651,057	-9,858	-0,101	0,050
-650,043	-200,000	-0,006	-0,084
-649,028	87,361	0,077	0,063
-648,014	354,097	-0,013	0,019
-646,999	-45,441	-0,083	0,030
-645,984	-200,000	0,015	0,052
-644,970	179,396	-0,091	-0,098
-643,955	270,630	-0,019	-0,024
-642,941	146,882	0,085	-0,084
-641,926	-200,000	-0,001	0,116
-640,911	74,540	-0,059	-0,046
-639,897	-200,000	-0,003	-0,039
-638,882	201,881	0,042	0,048
-637,868	-200,000	0,008	0,104
-636,853	-17,959	0,073	-0,034
-635,838	-127,467	-0,130	-0,014
-634,824	234,674	-0,055	0,067
-633,809	-188,359	0,071	-0,001
-632,795	82,449	-0,037	-0,030
-631,780	-27,367	0,141	0,060
-630,765	-200,000	0,031	0,121
-629,751	800,000	0,023	-0,060
-628,736	-200,000	0,019	-0,069
-627,722	35,479	-0,062	-0,040
-626,707	93,330	-0,037	-0,031
-625,692	-16,108	0,162	0,076
-624,678	-21,768	-0,047	0,021
-623,663	223,262	-0,064	-0,077
-622,649	37,651	-0,119	-0,078
-621,634	453,540	-0,049	0,080
-620,619	-200,000	-0,039	0,145
-619,605	-119,263	0,083	0,011
-618,590	800,000	0,027	0,061
-617,576	435,288	0,047	0,076
-616,561	45,986	-0,013	-0,009
-615,546	259,500	0,052	-0,067
-614,532	459,277	-0,068	0,112
-613,517	-34,577	0,045	-0,018
-612,503	374,607	-0,030	-0,045
-611,488	84,043	-0,060	-0,049
-610,474	-145,027	0,042	-0,003
-609,459	131,614	0,051	0,048
-608,444	214,226	-0,010	-0,012
-607,430	-200,000	-0,012	0,068
-606,415	-89,578	-0,110	0,024
-605,401	17,734	0,047	-0,028
-604,386	5,175	0,175	-0,095
-603,371	61,387	0,052	0,038
-602,357	-87,283	0,088	0,020
-601,342	-200,000	-0,004	0,024
-600,328	330,823	0,100	-0,144
-599,313	787,919	-0,060	-0,122
-598,298	-200,000	0,023	0,102
-597,284	340,154	0,080	0,116
-596,269	12,715	0,051	-0,029
-595,255	365,305	0,055	-0,082
-594,240	74,500	-0,034	-0,026
-593,225	53,083	-0,099	-0,070
-592,211	-134,917	-0,191	0,017
-591,196	315,843	0,068	-0,095
-590,182	151,769	0,060	-0,061
-589,167	-79,073	-0,058	-0,014
-588,152	800,000	0,037	0,101
-587,138	-16,931	0,082	0,038
-586,123	-200,000	-0,017	-0,082
-585,109	-51,713	-0,126	0,043
-584,094	407,636	-0,067	-0,104
-583,079	-200,000	-0,041	-0,232
-582,065	55,073	0,103	-0,073
-581,050	-200,000	-0,015	0,062
-580,036	-106,110	-0,092	0,015
-579,021	-9,071	-0,078	0,039
-578,006	-200,000	-0,006	-0,079
-576,992	129,450	0,152	-0,144
-575,977	-200,000	-0,000	-0,038
-574,963	-17,265	-0,048	-0,022
-573,948	-200,000	-0,008	-0,040
-572,934	92,537	-0,075	0,062
-571,919	-68,171	-0,160	-0,046
-570,904	127,190	0,027	-0,025
-569,890	800,000	-0,016	-0,047
-568,875	-200,000	0,023	0,143
-567,861	568,417	-0,076	0,138
-566,846	272,358	0,025	-0,032
-565,831	65,647	0,020	-0,015
-564,817	800,000	-0,032	0,080
-563,802	-6,877	-0,054	-0,027
-562,788	-19,270	-0,089	0,040
-561,773	17,620	0,042	-0,025
-560,758	-18,841	-0,006	0,003
-559,744	91,886	-0,064	0,053
-558,729	-106,072	0,127	-0,021
-557,715	-136,727	0,058	0,005
-556,700	-200,000	0,003	-0,154
-555,685	800,000	0,052	-0,159
-554,671	451,119	-0,061	0,100
-553,656	18,339	0,054	-0,032
-552,642	231,701	0,034	-0,041
-551,627	180,157	0,092	-0,100
-550,612	343,386	-0,060	-0,087
-549,598	-89,353	-0,093	-0,020
-548,583	14,194	-0,023	0,013
-547,569	-142,945	0,107	-0,008
-546,554	-76,908	-0,117	0,030
-545,539	800,000	0,051	-0,110
-544,525	-200,000	0,027	-0,123
-543,510	-172,913	-0,053	-0,001
-542,496	-200,000	0,010	0,052
-541,481	800,000	0,064	-0,156
-540,466	12,971	-0,128	0,073
-539,452	252,669	0,058	-0,073
-538,437	353,100	0,021	-0,030
-537,423	-200,000	0,018	0,063
-536,408	-50,761	-0,093	0,032
-535,393	3,064	0,096	-0,051
-534,379	689,437	0,032	-0,062
-533,364	-34,175	-0,066	-0,027
-532,350	159,580	0,041	-0,042
-531,335	173,100	0,140	0,149
-530,321	-40,094	0,172	0,066
-529,306	-200,000	-0,000	-0,109
-528,291	-200,000	0,015	-0,092
-527,277	544,667	0,045	-0,080
-526,262	-54,855	0,149	0,049
-525,248	800,000	-0,006	0,015
-524,233	-200,000	0,043	-0,168
-523,218	-53,642	-0,180	0,060
-522,204	4,091	0,111	-0,060
-521,189	365,696	-0,030	0,045
-520,175	-121,001	-0,046	0,006
-519,160	91,351	-0,089	-0,074
-518,145	328,688	0,069	-0,099
-517,131	-46,343	0,095	-0,034
-516,116	-19,107	0,100	0,046
-515,102	-200,000	-0,008	-0,123
-514,087	800,000	-0,037	-0,119
-513,072	76,521	0,046	-0,036
-512,058	800,000	0,045	-0,111
-511,043	15,799	0,136	-0,078
-510,029	23,971	0,042	0,025
-509,014	205,984	0,041	0,048
-507,999	175,982	0,084	0,090
-506,985	-200,000	0,007	-0,027
-505,970	-68,824	0,077	-0,022
-504,956	-47,753	-0,171	0,061
-503,941	52,753	0,098	0,069
-502,926	-200,000	0,012	0,096
-501,912	228,124	0,049	-0,059
-500,897	-63,681	-0,077	-0,023
-499,883	-200,000	-0,015	0,111
-498,868	-200,000	-0,003	-0,057
-497,853	-200,000	0,001	0,117
-496,839	800,000	0,059	0,159
-495,824	-25,174	-0,041	0,018
-494,810	-91,653	-0,042	-0,009
-493,795	141,369	-0,054	0,052
-492,781	-92,817	-0,044	0,009
-491,766	800,000	0,010	-0,028
-490,751	338,693	0,062	-0,089
-489,737	63,349	0,091	0,067
-488,722	82,124	-0,044	-0,035
-487,708	169,037	0,146	0,153
-486,693	-95,344	-0,133	0,026
-485,678	160,976	0,091	-0,094
-484,664	-200,000	-0,009	-0,119
-483,649	213,781	-0,057	-0,066
-482,635	188,952	0,023	-0,025
-481,620	-200,000	0,016	0,111
-480,605	-200,000	0,008	0,153
-479,591	706,278	-0,044	-0,086
-478,576	67,303	-0,111	0,084
-477,562	-200,000	-0,029	0,117
-476,547	-200,000	0,029	-0,104
-475,532	800,000	0,031	-0,081
-474,518	218,063	-0,029	-0,034
-473,503	800,000	0,013	-0,032
-472,489	-51,752	-0,085	-0,029
-471,474	-200,000	-0,001	0,040
-470,459	78,714	-0,076	-0,060
-469,445	-200,000	-0,016	0,054
-468,430	-146,890	-0,042	0,003
-467,416	-200,000	0,025	0,095
-466,401	-200,000	0,008	0,104
-465,386	206,912	0,047	-0,054
-464,372	-200,000	-0,006	0,116
-463,357	-105,478	-0,104	-0,017
-462,343	-200,000	0,016	-0,142
-461,328	-44,696	-0,065	-0,024
-460,313	-200,000	-0,007	-0,128
-459,299	800,000	-0,016	-0,045
-458,284	-200,000	-0,030	0,120
-457,270	-64,561	0,088	0,026
-456,255	-67,881	-0,035	0,010
-455,241	-16,975	-0,181	0,084
-454,226	-117,448	-0,070	-0,009
-453,211	-200,000	0,009	0,131
-452,197	-32,624	0,133	0,054
-451,182	-94,484	-0,029	0,006
-450,168	28,211	0,148	0,092
-449,153	800,000	-0,049	0,126
-448,138	110,982	-0,139	0,124
-447,124	800,000	0,048	0,102
-446,109	361,100	-0,079	0,116
-445,095	-200,000	-0,046	0,173
-444,080	343,969	-0,038	-0,055
-443,065	800,000	-0,037	0,083
-442,051	-200,000	0,026	-0,090
-441,036	1,304	-0,106	-0,056
-440,022	146,773	0,018	0,018
-439,007	-2,375	0,122	-0,063
-437,992	800,000	0,002	0,004
-436,978	-200,000	-0,033	0,185
-435,963	485,243	-0,050	0,085
-434,949	159,435	0,013	0,013
-433,934	-58,408	-0,079	0,025
-432,919	-114,820	-0,140	-0,019
-431,905	251,680	-0,047	-0,059
-430,890	10,213	0,019	0,010
-429,876	-132,942	0,144	0,013
-428,861	-59,116	0,062	0,019
-427,846	-200,000	0,021	-0,146
-426,832	163,140	-0,055	0,056
-425,817	773,774	-0,032	0,065
-424,803	-29,820	0,077	-0,032
-423,788	338,516	0,040	-0,058
-422,773	50,711	0,114	0,079
-421,759	-200,000	0,005	-0,025
-420,744	233,710	0,051	0,062
-419,730	-32,167	-0,119	-0,049
-418,715	11,379	-0,027	-0,015
-417,701	-106,705	0,112	0,018
-416,686	-200,000	-0,014	-0,172
-415,671	-200,000	-0,001	0,138
-414,657	-31,235	0,169	-0,070
-413,642	800,000	0,048	0,122
-412,628	94,601	-0,093	-0,078
-411,613	-200,000	0,003	0,076
-410,598	67,779	-0,029	-0,022
-409,584	-200,000	0,003	0,018
-408,569	-200,000	-0,001	-0,080
-407,555	124,387	-0,022	-0,020
-406,540	800,000	0,009	-0,021
-405,525	17,920	-0,093	0,054
-404,511	762,356	0,057	0,113
-403,496	-155,606	-0,161	0,007
-402,482	688,470	0,045	0,088
-401,467	17,149	-0,051	-0,030
-400,452	394,987	-0,007	0,011
-399,438	-28,615	-0,108	-0,045
-398,423	0,493	-0,075	0,039
-397,409	-11,266	0,171	-0,083
-396,394	-79,823	0,096	0,024
-395,379	-91,768	0,080	0,017
-394,365	-200,000	-0,013	-0,083
-393,350	-40,074	0,113	0,043
-392,336	-101,499	-0,077	-0,014
-391,321	103,088	0,022	0,019
-390,306	47,957	-0,038	0,026
-389,292	369,015	0,029	0,043
-388,277	800,000	0,038	-0,086
-387,263	33,425	0,077	-0,049
-386,248	16,898	-0,169	0,098
-385,233	-138,489	0,080	0,006
-384,219	235,617	-0,044	-0,054
-383,204	329,023	-0,072	-0,102
-382,190	169,021	0,053	-0,056
-381,175	-140,002	-0,139	-0,011
-380,160	800,000	-0,048	-0,121
-379,146	33,760	0,037	-0,024
-378,131	800,000	0,054	0,116
-377,117	-20,655	-0,113	0,051
-376,102	-10,466	-0,139	-0,067
-375,088	-88,128	0,046	0,010
-374,073	-62,621	0,009	-0,003
-373,058	-38,781	0,084	0,033
-372,044	-200,000	0,006	-0,095
-371,029	-134,486	-0,159	-0,014
-370,015	-193,522	0,140	-0,001
-369,000	12,254	0,080	-0,045
-367,985	-106,521	-0,033	0,005
-366,971	164,947	-0,103	0,107
-365,956	-200,000	-0,013	0,051
-364,942	-13,995	0,078	0,037
-363,927	-200,000	-0,000	0,086
-362,912	-57,000	0,014	0,005
-361,898	-200,000	-0,007	0,115
-360,883	134,892	-0,037	0,035
-359,869	-200,000	-0,015	-0,063
-358,854	737,441	-0,011	-0,022
-357,839	-57,624	-0,228	-0,073
-356,825	-200,000	0,032	0,174
-355,810	-200,000	0,023	0,086
-354,796	800,000	0,050	0,117
-353,781	132,321	0,042	0,039
-352,766	300,276	-0,047	-0,064
-351,752	-200,000	0,016	-0,085
-350,737	344,416	-0,052	0,075
-349,723	-109,389	0,143	0,022
-348,708	28,020	-0,163	0,101
-347,693	30,542	0,035	0,022
-346,679	23,399	0,044	-0,026
-345,664	-200,000	0,016	-0,060
-344,650	500,403	0,073	0,123
-343,635	131,820	-0,038	-0,036
-342,620	800,000	-0,046	0,133
-341,606	719,347	0,074	0,144
-340,591	-6,331	0,054	0,027
-339,577	-12,125	-0,100	-0,048
-338,562	244,077	0,116	-0,143
-337,548	-107,347	-0,056	0,009
-336,533	319,988	0,041	0,057
-335,518	32,641	0,053	-0,033
-334,504	-54,598	0,007	0,002
-333,489	164,155	0,038	-0,040
-332,475	25,846	0,105	0,064
-331,460	-126,690	-0,096	0,010
-330,445	800,000	0,059	-0,179
-329,431	151,174	-0,078	-0,077
-328,416	-200,000	0,032	0,120
-327,402	88,455	0,034	-0,028
-326,387	-200,000	-0,009	-0,113
-325,372	63,943	-0,087	-0,064
-324,358	-2,931	0,139	0,071
-323,343	-200,000	-0,019	-0,089
-322,329	-200,000	0,020	0,111
-321,314	171,137	-0,091	0,096
-320,299	-189,830	0,054	0,000
-319,285	-55,173	0,044	-0,014
-318,270	-160,576	-0,155	-0,006
-317,256	59,328	-0,083	-0,060
-316,241	243,846	0,085	0,104
-315,226	-41,875	0,108	-0,040
-314,212	363,555	-0,093	0,137
-313,197	124,223	0,094	0,086
-312,183	-200,000	0,009	0,096
-311,168	10,100	-0,051	-0,028
-310,153	251,025	0,074	-0,092
-309,139	-200,000	0,022	-0,116
-308,124	-68,556	0,072	-0,020
-307,110	-139,351	0,096	-0,007
-306,095	-63,922	-0,044	-0,013
-305,080	664,138	-0,033	0,063
-304,066	222,022	0,021	0,025
-303,051	-200,000	0,009	-0,114
-302,037	-80,789	-0,095	0,023
-301,022	-51,451	-0,159	0,054
-300,008	-30,096	-0,095	0,039
-298,993	78,571	-0,147	-0,115
-297,978	141,404	-0,056	0,055
-296,964	-141,677	-0,049	0,004
-295,949	800,000	-0,021	0,051
-294,935	11,266	-0,056	0,031
-293,920	-200,000	-0,008	0,095
-292,905	-110,833	0,095	-0,014
-291,891	170,653	-0,051	0,053
-290,876	-67,004	0,059	0,017
-289,862	-15,899	0,121	0,056
-288,847	73,171	-0,065	0,050
-287,832	-137,393	-0,063	-0,005
-286,818	0,141	0,062	-0,032
-285,803	-85,490	0,152	0,034
-284,789	-200,000	0,012	0,078
-283,774	-68,852	-0,113	-0,032
-282,759	379,345	0,032	-0,048
-281,745	-200,000	-0,018	-0,140
-280,730	-200,000	-0,022	-0,137
-279,716	-145,940	0,098	-0,006
-278,701	69,792	-0,043	0,033
-277,686	-1,219	0,048	-0,025
-276,672	-17,507	0,055	0,025
-275,657	-200,000	0,021	0,086
-274,643	77,424	0,120	0,093
-273,628	64,893	-0,075	-0,055
-272,613	172,504	-0,102	-0,108
-271,599	-77,571	0,099	-0,025
-270,584	-200,000	-0,002	-0,027
-269,570	105,921	-0,049	0,042
-268,555	-200,000	0,000	0,055
-267,540	800,000	-0,052	-0,136
-266,526	-200,000	0,030	0,137
-265,511	226,233	-0,030	-0,035
-264,497	-157,452	0,057	-0,002
-263,482	-200,000	0,016	-0,076
-262,467	435,358	0,040	-0,063
-261,453	38,656	-0,073	0,047
-260,438	162,959	-0,041	-0,042
-259,424	255,419	-0,019	0,023
-258,409	416,583	0,052	-0,081
-257,395	158,623	0,080	-0,082
-256,380	280,596	-0,135	0,177
-255,365	-200,000	-0,025	0,108
-254,351	-135,876	0,046	0,004
-253,336	212,176	-0,044	0,050
-252,322	114,226	-0,059	0,052
-251,307	-47,312	0,095	0,033
-250,292	-85,572	-0,105	0,024
-249,278	-41,875	0,111	0,041
-248,263	68,024	0,073	-0,055
-247,249	-142,306	-0,191	-0,014
-246,234	-22,973	0,026	0,012
-245,219	-135,497	-0,137	-0,012
-244,205	685,781	-0,075	-0,143
-243,190	150,299	0,101	-0,100
-242,176	-200,000	-0,008	-0,079
-241,161	731,112	-0,059	0,115
-240,146	-200,000	-0,020	0,075
-239,132	-33,620	-0,057	0,023
-238,117	96,582	-0,120	-0,100
-237,103	11,823	-0,076	0,042
-236,088	5,819	-0,012	0,006
-235,073	-53,900	0,077	0,025
-234,059	-34,533	0,147	0,058
-233,044	-163,730	0,026	0,001
-232,030	-100,474	-0,092	0,016
-231,015	48,377	0,048	0,033
-230,000	-200,000	0,018	-0,189
-228,986	332,743	0,036	-0,051
-227,971	-32,146	-0,056	0,023
-226,957	-200,000	-0,036	-0,154
-225,942	317,692	-0,025	-0,035
-224,927	-8,070	-0,006	0,003
-223,913	-75,446	0,036	-0,009
-222,898	234,726	0,153	-0,185
-221,884	-200,000	0,008	-0,040
-220,869	800,000	0,034	-0,099
-219,855	11,770	-0,091	-0,051
-218,840	-146,593	-0,033	0,002
-217,825	800,000	-0,062	-0,145
-216,811	80,070	0,082	-0,064
-215,796	-200,000	-0,006	-0,107
-214,782	171,767	-0,040	0,042
-213,767	150,183	-0,097	0,096
-212,752	800,000	-0,033	0,076
-211,738	319,130	-0,072	0,099
-210,723	800,000	0,018	-0,040
-209,709	441,790	-0,048	-0,076
-208,694	103,371	0,014	-0,012
-207,679	193,591	0,063	0,069
-206,665	800,000	0,056	0,145
-205,650	-72,985	0,131	0,035
-204,636	50,394	0,110	-0,076
-203,621	164,925	0,133	-0,137
-202,606	800,000	0,027	-0,083
-201,592	-74,425	-0,089	0,023
-200,577	-200,000	0,004	-0,130
-199,563	182,537	-0,037	-0,040
-198,548	496,002	-0,041	0,069
-197,533	-21,281	0,133	0,059
-196,519	33,328	0,045	-0,029
-195,504	12,228	-0,091	0,051
-194,490	800,000	-0,046	-0,113
-193,475	118,124	-0,105	-0,094
-192,460	211,030	0,039	-0,045
-191,446	497,891	-0,053	0,089
-190,431	128,610	0,096	0,090
-189,417	788,589	-0,036	0,073
-188,402	142,151	0,048	-0,047
-187,387	593,361	-0,059	0,107
-186,373	-125,326	-0,085	0,009
-185,358	800,000	-0,008	-0,024
-184,344	-200,000	-0,014	-0,104
-183,329	-200,000	0,029	0,105
-182,315	464,687	0,063	0,103
-181,300	-185,804	0,173	-0,002
-180,285	-54,434	0,131	-0,043
-179,271	800,000	0,028	-0,084
-178,256	31,393	-0,050	0,031
-177,242	-78,994	-0,094	0,023
-176,227	-117,302	0,051	0,007
-175,212	489,994	0,029	-0,049
-174,198	49,667	-0,098	0,067
-173,183	189,620	-0,114	0,124
-172,169	-56,717	-0,041	0,013
-171,154	800,000	-0,014	0,036
-170,139	800,000	0,044	0,090
-169,125	-200,000	-0,016	0,111
-168,110	-200,000	0,021	0,136
-167,096	-25,665	-0,107	-0,046
-166,081	-55,222	0,026	-0,009
-165,066	354,794	0,050	0,073
-164,052	217,740	-0,014	0,016
-163,037	110,147	0,069	-0,061
-162,023	592,142	-0,050	-0,090
-161,008	-45,479	-0,092	-0,033
-159,993	665,938	0,052	-0,098
-158,979	471,286	0,053	0,088
-157,964	214,575	-0,083	0,096
-156,950	228,800	0,103	-0,122
-155,935	800,000	0,017	-0,043
-154,920	-47,783	0,083	-0,029
-153,906	466,766	0,022	-0,037
-152,891	-77,014	0,013	0,003
-151,877	452,267	0,025	-0,041
-150,862	136,664	0,013	0,013
-149,847	-200,000	0,005	-0,099
-148,833	-200,000	-0,003	-0,022
-147,818	-43,283	-0,075	-0,028
-146,804	-32,289	-0,075	0,030
-145,789	-200,000	0,020	0,127
-144,775	-78,029	0,047	-0,012
-143,760	67,498	0,115	-0,086
-142,745	91,176	0,062	0,051
-141,731	-200,000	0,037	0,136
-140,716	-73,302	-0,025	-0,007
-139,702	800,000	-0,017	0,042
-138,687	-200,000	-0,018	0,112
-137,672	-200,000	0,010	-0,034
-136,658	800,000	-0,046	-0,111
-135,643	-72,433	-0,045	0,012
-134,629	-200,000	0,001	0,154
-133,614	-93,300	0,166	-0,033
-132,599	-97,784	0,112	0,021
-131,585	279,806	0,004	-0,005
-130,570	-105,942	0,055	0,009
-129,556	-85,767	0,125	-0,028
-128,541	304,135	0,087	0,118
-127,526	-200,000	-0,003	-0,069
-126,512	99,213	-0,077	0,064
-125,497	166,444	0,085	-0,087
-124,483	554,310	0,060	-0,106
-123,468	-200,000	-0,033	-0,120
-122,453	-95,450	-0,160	0,031
-121,439	-200,000	-0,020	-0,107
-120,424	-131,277	0,125	0,012
-119,410	-132,731	0,061	-0,006
-118,395	54,201	0,098	0,068
