DTS Sentinel unit serial number:	SN410029Multiplexer serial number:	ORYXHardware model number:	OX2-SRSoftware version number:	ORYX F/W v4,00 Oryx Data Collector v3.7.2.0data status	okinstallation	B4 Nyhavnadifferential loss correction	single-endedforward channel	channel 2reverse channel	N/Adate	2023/12/15time	23:00:13forward acquisition time	300,00reverse acquisition time	0,00gamma	499,1914k internal	0,3130k external	0,3130temperature offset calibration	1,0000default loss term (dB/km)	0,3820temperature slope calibration	1,0000multiplexer offset coefficient	1,0000multiplexer slope coefficient	1,0000fibre end	0,00T internal ref (°C)	21,55T ext. ref 1 (°C)	6,67T ext. ref 2 (°C)	6,83length (m)	temperature (°C)	Stokes	anti-Stokes-744,400	800,000	-0,017	-0,038
-743,385	-28,530	-0,322	0,137
-742,371	83,963	-0,045	0,036
-741,356	225,491	-0,181	0,219
-740,342	81,795	0,052	0,042
-739,327	-28,647	-0,183	0,078
-738,312	403,933	-0,019	0,030
-737,298	-150,178	-0,264	0,015
-736,283	800,000	0,022	-0,069
-735,269	241,937	-0,182	0,226
-734,254	-200,000	-0,006	0,042
-733,239	-51,147	-0,392	-0,136
-732,225	385,925	0,042	0,065
-731,210	800,000	-0,081	0,173
-730,196	-94,126	-0,146	0,029
-729,181	-200,000	-0,034	-0,168
-728,167	-200,000	-0,014	0,068
-727,152	15,534	-0,105	0,061
-726,137	240,951	0,069	-0,086
-725,123	-200,000	-0,001	-0,168
-724,108	-200,000	-0,001	-0,114
-723,094	-35,009	-0,152	-0,061
-722,079	-200,000	-0,004	0,122
-721,064	-32,558	-0,028	0,012
-720,050	-200,000	0,022	-0,134
-719,035	800,000	0,018	-0,056
-718,021	-200,000	0,023	-0,137
-717,006	800,000	-0,057	-0,171
-715,991	-200,000	-0,027	-0,169
-714,977	-200,000	0,031	-0,124
-713,962	411,737	0,023	0,036
-712,948	-200,000	-0,001	0,036
-711,933	196,531	-0,029	0,033
-710,918	214,120	-0,200	-0,235
-709,904	-200,000	0,022	-0,117
-708,889	48,634	-0,060	0,041
-707,875	-200,000	-0,032	-0,115
-706,860	-33,558	0,043	-0,018
-705,845	-7,900	0,077	-0,039
-704,831	391,964	-0,057	0,088
-703,816	13,139	0,113	0,065
-702,802	142,887	0,067	-0,066
-701,787	350,091	0,040	-0,059
-700,772	-102,070	0,061	-0,011
-699,758	800,000	-0,044	-0,105
-698,743	-200,000	0,021	0,145
-697,729	-113,208	-0,038	0,005
-696,714	168,774	0,089	0,094
-695,699	-175,579	-0,059	0,001
-694,685	8,069	-0,151	-0,084
-693,670	800,000	-0,031	0,097
-692,656	-200,000	-0,013	-0,058
-691,641	118,983	0,106	-0,098
-690,627	-97,315	-0,061	0,012
-689,612	607,267	0,039	0,072
-688,597	124,367	-0,115	-0,107
-687,583	-53,557	-0,226	-0,076
-686,568	-99,291	0,160	0,030
-685,554	455,869	-0,039	0,065
-684,539	177,406	-0,075	0,081
-683,524	-200,000	0,025	0,084
-682,510	-70,039	-0,083	-0,023
-681,495	160,803	-0,079	-0,082
-680,481	800,000	-0,041	-0,130
-679,466	-200,000	-0,031	-0,202
-678,451	207,829	-0,059	-0,069
-677,437	-200,000	-0,009	0,039
-676,422	-94,310	0,156	0,031
-675,408	70,143	0,053	-0,041
-674,393	58,733	-0,058	0,043
-673,378	123,173	0,103	-0,095
-672,364	-200,000	-0,002	-0,069
-671,349	-56,597	0,116	0,038
-670,335	-23,653	0,091	0,040
-669,320	-200,000	-0,005	-0,091
-668,305	-112,442	-0,050	-0,007
-667,291	-180,994	-0,054	-0,001
-666,276	-120,492	-0,064	-0,008
-665,262	-200,000	-0,005	0,084
-664,247	-107,741	-0,053	-0,008
-663,232	-200,000	-0,023	-0,106
-662,218	-76,278	0,090	-0,023
-661,203	-40,864	-0,071	0,027
-660,189	-200,000	-0,029	-0,131
-659,174	-158,181	-0,032	0,001
-658,159	322,375	-0,063	-0,090
-657,145	598,923	0,099	-0,183
-656,130	-200,000	-0,016	0,071
-655,116	-77,121	0,165	0,042
-654,101	-171,447	-0,050	-0,001
-653,086	271,485	-0,092	-0,121
-652,072	199,675	0,056	-0,063
-651,057	-138,781	-0,139	0,011
-650,043	42,522	0,092	0,062
-649,028	197,196	0,037	-0,042
-648,014	224,982	0,033	-0,040
-646,999	-200,000	0,012	0,116
-645,984	30,291	0,102	0,064
-644,970	-200,000	-0,003	0,030
-643,955	-200,000	-0,018	-0,070
-642,941	162,081	-0,034	0,035
-641,926	-166,977	-0,041	-0,001
-640,911	-200,000	0,016	-0,162
-639,897	-86,117	0,081	0,018
-638,882	800,000	0,029	-0,087
-637,868	591,009	-0,051	-0,094
-636,853	7,553	-0,110	-0,060
-635,838	-111,265	-0,049	-0,007
-634,824	117,116	-0,164	-0,150
-633,809	56,186	-0,095	-0,068
-632,795	353,829	0,054	0,080
-631,780	-200,000	-0,005	-0,040
-630,765	-200,000	-0,009	-0,044
-629,751	658,902	-0,098	-0,188
-628,736	-94,337	-0,204	-0,041
-627,722	-146,624	-0,040	0,003
-626,707	-200,000	0,034	-0,156
-625,692	-200,000	-0,004	-0,108
-624,678	616,879	0,026	-0,048
-623,663	416,497	0,052	-0,082
-622,649	555,902	0,074	-0,132
-621,634	-200,000	0,009	0,061
-620,619	800,000	-0,011	0,033
-619,605	-200,000	0,018	0,061
-618,590	-200,000	-0,012	-0,060
-617,576	800,000	-0,020	-0,060
-616,561	-120,004	-0,081	0,010
-615,546	-6,243	-0,056	-0,028
-614,532	-200,000	-0,015	-0,052
-613,517	-94,032	-0,091	-0,018
-612,503	800,000	0,009	0,028
-611,488	800,000	-0,022	0,049
-610,474	449,177	0,044	0,073
-609,459	-55,487	0,139	-0,046
-608,444	2,562	0,070	0,038
-607,430	-59,506	0,032	0,010
-606,415	-200,000	0,021	-0,087
-605,401	230,735	0,019	-0,024
-604,386	-161,511	-0,048	0,002
-603,371	299,818	0,088	0,120
-602,357	772,565	0,039	0,080
-601,342	-200,000	-0,003	-0,102
-600,328	-62,336	-0,120	0,037
-599,313	-105,611	0,090	0,015
-598,298	-137,560	0,046	0,004
-597,284	800,000	0,010	0,021
-596,269	153,785	0,052	-0,052
-595,255	534,177	-0,053	-0,093
-594,240	-200,000	0,013	0,076
-593,225	-127,654	-0,163	-0,017
-592,211	288,547	-0,046	-0,061
-591,196	800,000	-0,057	-0,146
-590,182	-158,203	0,172	0,007
-589,167	48,342	-0,022	0,016
-588,152	800,000	-0,045	-0,093
-587,138	352,713	-0,025	0,036
-586,123	800,000	-0,064	-0,150
-585,109	-17,411	0,021	-0,010
-584,094	-58,328	-0,058	0,019
-583,079	-200,000	-0,021	-0,100
-582,065	575,306	0,064	0,116
-581,050	366,378	0,048	0,072
-580,036	-200,000	0,002	-0,031
-579,021	800,000	0,043	-0,120
-578,006	133,358	0,059	-0,056
-576,992	-200,000	0,008	-0,040
-575,977	800,000	-0,022	0,057
-574,963	-200,000	-0,011	0,098
-573,948	512,857	-0,012	0,020
-572,934	-200,000	0,009	-0,084
-571,919	-44,559	-0,148	0,054
-570,904	601,031	-0,020	-0,038
-569,890	24,634	-0,086	0,052
-568,875	-163,218	0,223	0,008
-567,861	216,437	0,084	-0,099
-566,846	-200,000	0,006	0,077
-565,831	800,000	-0,048	0,117
-564,817	800,000	0,005	0,013
-563,802	73,905	0,073	0,057
-562,788	-200,000	-0,055	0,181
-561,773	-200,000	-0,002	0,089
-560,758	800,000	0,033	-0,102
-559,744	265,014	0,050	-0,064
-558,729	-200,000	-0,013	-0,077
-557,715	111,739	0,118	-0,105
-556,700	-73,982	0,061	-0,016
-555,685	-73,561	-0,133	-0,035
-554,671	-200,000	0,004	-0,031
-553,656	-56,244	-0,069	-0,022
-552,642	-200,000	-0,018	0,152
-551,627	-81,465	-0,139	-0,034
-550,612	-66,210	0,151	0,044
-549,598	-30,735	-0,028	0,012
-548,583	-200,000	0,013	0,094
-547,569	-6,749	0,124	0,062
-546,554	361,924	0,076	0,113
-545,539	-17,481	0,176	0,081
-544,525	-200,000	0,017	-0,082
-543,510	701,131	0,045	-0,087
-542,496	209,663	0,070	-0,081
-541,481	44,498	-0,097	0,066
-540,466	800,000	-0,045	-0,107
-539,452	-40,476	-0,161	0,062
-538,437	240,930	-0,079	0,098
-537,423	-200,000	-0,038	0,175
-536,408	68,834	0,157	0,119
-535,393	-6,739	-0,115	-0,058
-534,379	-12,242	0,024	0,012
-533,364	582,088	0,044	-0,080
-532,350	-200,000	-0,039	0,152
-531,335	800,000	0,026	-0,060
-530,321	800,000	0,012	0,025
-529,306	104,883	-0,045	0,039
-528,291	136,099	0,109	-0,105
-527,277	-200,000	-0,009	-0,075
-526,262	173,498	-0,026	0,028
-525,248	20,046	-0,086	0,051
-524,233	-148,205	0,129	0,008
-523,218	265,442	-0,068	-0,088
-522,204	69,119	0,018	0,014
-521,189	-57,561	-0,131	0,042
-520,175	33,412	0,071	0,045
-519,160	-200,000	0,036	-0,134
-518,145	-200,000	0,009	-0,035
-517,131	-58,569	0,064	0,020
-516,116	-42,014	0,022	0,008
-515,102	377,748	0,028	-0,042
-514,087	472,566	-0,123	-0,205
-513,072	-162,739	0,099	-0,003
-512,058	-200,000	-0,005	0,081
-511,043	-200,000	0,017	0,157
-510,029	22,007	0,086	0,052
-509,014	165,933	0,099	0,103
-507,999	-200,000	0,024	-0,106
-506,985	-3,505	-0,105	-0,054
-505,970	-200,000	0,016	-0,148
-504,956	-17,415	-0,065	0,030
-503,941	-200,000	0,003	0,022
-502,926	6,757	0,053	0,029
-501,912	-14,319	0,029	-0,014
-500,897	2,641	0,061	0,033
-499,883	-150,530	-0,103	0,006
-498,868	-144,088	0,095	0,006
-497,853	-200,000	-0,001	0,012
-496,839	15,493	0,088	0,051
-495,824	800,000	0,014	-0,035
-494,810	549,328	0,099	-0,176
-493,795	-200,000	0,025	0,110
-492,781	79,192	-0,117	0,092
-491,766	-1,108	0,056	-0,029
-490,751	800,000	0,017	-0,051
-489,737	119,385	0,078	-0,071
-488,722	-1,213	0,114	-0,059
-487,708	265,408	-0,045	0,058
-486,693	-16,122	0,045	-0,021
-485,678	-84,144	0,068	-0,016
-484,664	534,687	0,053	0,093
-483,649	-64,131	-0,001	-0,000
-482,635	-200,000	0,022	-0,114
-481,620	-200,000	-0,022	-0,079
-480,605	-100,861	-0,102	-0,018
-479,591	-8,085	-0,015	0,007
-478,576	-200,000	0,017	-0,129
-477,562	-73,445	-0,200	-0,053
-476,547	-200,000	0,023	0,076
-475,532	16,383	0,069	-0,040
-474,518	-33,325	0,114	0,046
-473,503	-200,000	0,017	-0,074
-472,489	-51,006	0,126	-0,043
-471,474	73,640	0,024	-0,019
-470,459	-200,000	0,003	0,017
-469,445	-175,357	0,086	0,002
-468,430	-200,000	-0,020	0,110
-467,416	474,947	-0,019	0,032
-466,401	301,271	0,024	0,033
-465,386	800,000	0,037	0,092
-464,372	-200,000	-0,008	-0,079
-463,357	-148,167	-0,101	0,006
-462,343	369,625	-0,005	-0,007
-461,328	-55,655	0,145	0,048
-460,313	-5,561	-0,083	-0,041
-459,299	800,000	-0,027	0,083
-458,284	-200,000	-0,001	-0,029
-457,270	-200,000	0,028	-0,130
-456,255	108,339	-0,071	-0,063
-455,241	-200,000	0,002	-0,142
-454,226	322,106	0,045	-0,063
-453,211	-200,000	0,030	0,130
-452,197	-37,527	0,057	0,022
-451,182	-200,000	-0,040	0,146
-450,168	35,641	-0,129	0,083
-449,153	-65,336	0,104	-0,031
-448,138	800,000	-0,061	0,129
-447,124	-191,096	-0,048	-0,000
-446,109	-200,000	0,018	0,162
-445,095	87,491	-0,098	0,080
-444,080	800,000	0,026	0,066
-443,065	326,633	0,092	0,129
-442,051	-200,000	-0,005	-0,047
-441,036	-124,709	0,023	0,003
-440,022	-108,914	-0,037	-0,006
-439,007	-200,000	0,002	0,038
-437,992	-200,000	0,025	-0,083
-436,978	51,115	0,112	0,078
-435,963	-87,058	0,082	0,018
-434,949	-114,121	-0,081	-0,011
-433,934	296,843	0,007	-0,010
-432,919	800,000	0,040	-0,113
-431,905	-32,819	-0,082	0,033
-430,890	-124,072	0,040	0,005
-429,876	800,000	0,020	0,049
-428,861	11,544	0,030	0,017
-427,846	-55,182	0,033	0,011
-426,832	24,859	0,027	-0,017
-425,817	110,685	-0,073	0,064
-424,803	-200,000	-0,010	-0,039
-423,788	608,334	0,103	-0,190
-422,773	800,000	0,032	0,097
-421,759	114,560	0,170	0,152
-420,744	18,153	0,114	0,066
-419,730	-86,097	-0,051	0,012
-418,715	-73,710	0,130	-0,035
-417,701	-89,893	-0,023	-0,005
-416,686	-174,156	0,097	0,002
-415,671	500,163	-0,097	-0,165
-414,657	540,057	-0,041	-0,072
-413,642	60,948	0,033	-0,024
-412,628	-77,531	-0,134	-0,034
-411,613	-200,000	-0,012	0,121
-410,598	144,860	-0,079	0,078
-409,584	236,880	-0,047	0,057
-408,569	413,115	0,095	0,149
-407,555	-200,000	0,023	0,094
-406,540	-200,000	-0,009	0,107
-405,525	800,000	0,064	0,169
-404,511	41,469	-0,078	0,052
-403,496	-45,021	0,110	-0,040
-402,482	-114,113	0,044	-0,006
-401,467	-200,000	-0,001	-0,025
-400,452	7,912	0,057	0,031
-399,438	-25,285	-0,139	0,060
-398,423	-200,000	0,002	0,053
-397,409	-96,579	-0,005	0,001
-396,394	149,055	-0,074	-0,073
-395,379	-200,000	0,013	-0,064
-394,365	800,000	0,030	0,067
-393,350	-153,035	-0,021	0,001
-392,336	-22,182	0,041	-0,018
-391,321	-111,117	-0,071	-0,011
-390,306	201,402	-0,033	-0,037
-389,292	800,000	-0,055	-0,163
-388,277	314,872	-0,028	-0,039
-387,263	374,034	0,051	0,076
-386,248	317,540	-0,030	-0,042
-385,233	-77,381	0,189	0,048
-384,219	-200,000	-0,002	-0,060
-383,204	305,527	-0,043	-0,058
-382,190	-200,000	-0,074	0,000
-381,175	800,000	0,039	-0,080
-380,160	363,781	-0,021	-0,031
-379,146	-3,666	0,063	-0,032
-378,131	222,387	0,121	0,143
-377,117	-70,286	-0,030	0,008
-376,102	377,571	-0,081	-0,121
-375,088	-30,398	0,065	0,027
-374,073	63,959	0,039	-0,029
-373,058	0,325	-0,108	-0,056
-372,044	-123,009	-0,080	-0,009
-371,029	-87,858	-0,076	-0,017
-370,015	265,539	-0,034	0,043
-369,000	479,144	-0,038	0,063
-367,985	-147,875	0,065	-0,004
-366,971	26,996	-0,135	-0,083
-365,956	44,261	-0,068	-0,046
-364,942	115,891	0,066	0,059
-363,927	328,205	-0,046	0,064
-362,912	-200,000	-0,010	0,050
-361,898	-139,272	0,097	0,008
-360,883	104,587	-0,054	-0,046
-359,869	-65,716	-0,050	-0,015
-358,854	-18,418	-0,171	-0,078
-357,839	398,338	-0,029	-0,045
-356,825	22,972	0,082	0,049
-355,810	125,365	0,112	0,103
-354,796	37,379	-0,108	-0,070
-353,781	101,485	-0,048	-0,041
-352,766	-107,943	0,106	0,017
-351,752	-200,000	0,000	0,121
-350,737	66,366	-0,018	0,014
-349,723	800,000	0,004	-0,012
-348,708	5,849	0,112	0,061
-347,693	60,492	-0,054	-0,039
-346,679	800,000	0,025	-0,078
-345,664	-155,167	-0,050	0,002
-344,650	345,028	0,030	-0,043
-343,635	-67,789	-0,139	-0,040
-342,620	93,100	0,115	0,095
-341,606	-200,000	-0,001	-0,097
-340,591	51,681	0,044	0,031
-339,577	-1,805	0,058	-0,030
-338,562	170,185	-0,038	-0,040
-337,548	514,048	-0,075	0,128
-336,533	-130,886	0,089	0,009
-335,518	-200,000	-0,010	0,056
-334,504	-200,000	0,011	0,069
-333,489	800,000	-0,024	-0,062
-332,475	-187,032	0,106	0,001
-331,460	137,629	-0,036	-0,034
-330,445	-200,000	0,004	-0,033
-329,431	-84,287	0,114	0,026
-328,416	316,159	0,072	0,099
-327,402	-200,000	-0,007	0,029
-326,387	-173,668	0,047	-0,001
-325,372	800,000	-0,053	0,151
-324,358	-86,239	0,035	0,008
-323,343	-200,000	0,007	-0,092
-322,329	13,734	-0,056	-0,032
-321,314	-151,550	0,078	0,004
-320,299	18,151	0,133	0,077
-319,285	800,000	0,067	0,143
-318,270	565,178	-0,072	-0,128
-317,256	800,000	-0,023	-0,060
-316,241	-200,000	0,001	-0,147
-315,226	194,768	-0,103	-0,115
-314,212	-200,000	0,004	0,095
-313,197	36,136	-0,087	0,056
-312,183	-200,000	0,004	-0,073
-311,168	51,605	-0,028	0,019
-310,153	-200,000	-0,007	-0,107
-309,139	425,437	-0,075	-0,119
-308,124	698,992	-0,048	0,092
-307,110	92,660	0,102	0,084
-306,095	800,000	0,043	0,089
-305,080	215,954	-0,131	0,152
-304,066	58,787	-0,041	-0,029
-303,051	9,097	-0,123	0,068
-302,037	800,000	-0,048	0,098
-301,022	122,394	-0,011	-0,010
-300,008	-200,000	-0,012	0,043
-298,993	-6,290	0,119	-0,059
-297,978	800,000	0,044	0,104
-296,964	76,800	-0,070	-0,055
-295,949	37,705	-0,168	-0,109
-294,935	418,931	-0,044	-0,069
-293,920	-23,412	0,075	-0,033
-292,905	349,886	-0,076	0,111
-291,891	270,718	-0,048	-0,062
-290,876	-200,000	-0,006	-0,060
-289,862	146,423	-0,046	0,045
-288,847	81,565	-0,152	-0,120
-287,832	120,009	-0,121	0,109
-286,818	22,590	0,051	0,030
-285,803	16,633	0,140	-0,081
-284,789	14,606	-0,033	-0,019
-283,774	266,849	0,063	0,080
-282,759	-150,514	0,081	-0,004
-281,745	-200,000	0,011	-0,066
-280,730	-200,000	0,007	0,038
-279,716	670,676	0,029	0,054
-278,701	162,178	-0,037	-0,037
-277,686	-89,844	0,116	0,024
-276,672	40,186	0,012	0,008
-275,657	-200,000	-0,011	-0,110
-274,643	-200,000	-0,002	-0,114
-273,628	-200,000	-0,011	0,115
-272,613	-116,482	-0,086	0,012
-271,599	129,308	0,133	0,124
-270,584	-200,000	-0,070	0,315
-269,570	-83,976	-0,088	-0,020
-268,555	-102,357	-0,073	0,013
-267,540	-7,541	-0,046	-0,023
-266,526	215,310	-0,014	-0,017
-265,511	-100,739	-0,079	0,014
-264,497	278,040	0,023	0,031
-263,482	61,843	0,013	0,009
-262,467	-103,292	0,138	-0,023
-261,453	152,041	0,035	-0,035
-260,438	-50,667	0,048	0,016
-259,424	-86,466	-0,073	-0,016
-258,409	-200,000	-0,005	-0,228
-257,395	-6,920	-0,092	0,045
-256,380	63,669	0,062	-0,046
-255,365	-200,000	0,020	0,070
-254,351	-16,780	-0,037	-0,017
-253,336	-55,404	-0,015	0,005
-252,322	-200,000	-0,007	-0,026
-251,307	-200,000	-0,021	-0,075
-250,292	-86,471	-0,085	-0,019
-249,278	-1,745	0,041	-0,021
-248,263	75,718	-0,110	0,085
-247,249	-200,000	-0,007	-0,031
-246,234	-88,793	-0,080	0,017
-245,219	-153,267	-0,165	0,008
-244,205	-200,000	0,010	-0,060
-243,190	800,000	-0,022	-0,062
-242,176	-105,974	0,025	0,004
-241,161	271,251	-0,044	0,057
-240,146	391,349	-0,029	0,045
-239,132	-200,000	-0,005	-0,152
-238,117	-200,000	0,005	0,022
-237,103	-200,000	0,002	-0,043
-236,088	288,602	0,095	-0,125
-235,073	362,688	0,034	-0,050
-234,059	92,808	0,100	-0,082
-233,044	323,059	0,061	0,086
-232,030	163,317	-0,041	0,042
-231,015	6,347	-0,101	0,054
-230,000	264,560	0,046	-0,058
-228,986	800,000	0,002	-0,005
-227,971	-34,256	0,067	-0,027
-226,957	602,226	0,020	0,036
-225,942	234,193	-0,068	0,082
-224,927	-150,936	0,062	-0,003
-223,913	-83,485	-0,015	0,003
-222,898	-152,407	-0,127	0,007
-221,884	-54,297	-0,128	-0,042
-220,869	106,702	0,055	0,047
-219,855	-200,000	-0,014	0,070
-218,840	84,650	-0,086	0,069
-217,825	265,730	-0,025	-0,032
-216,811	-200,000	-0,019	0,080
-215,796	391,739	-0,048	0,074
-214,782	-139,368	-0,054	-0,004
-213,767	-200,000	0,004	0,059
-212,752	-8,024	0,025	-0,012
-211,738	-42,567	-0,140	0,052
-210,723	800,000	-0,008	0,025
-209,709	430,134	0,062	-0,098
-208,694	800,000	-0,028	-0,074
-207,679	-200,000	-0,001	0,087
-206,665	65,337	-0,019	-0,014
-205,650	-200,000	-0,012	0,057
-204,636	800,000	0,017	0,039
-203,621	-200,000	-0,001	0,131
-202,606	800,000	0,053	-0,124
-201,592	-200,000	0,028	-0,145
-200,577	-200,000	-0,003	0,102
-199,563	10,213	-0,076	0,042
-198,548	15,965	0,092	0,053
-197,533	736,694	-0,056	0,109
-196,519	72,857	0,155	-0,118
-195,504	575,863	-0,043	0,077
-194,490	-86,114	-0,085	0,019
-193,475	203,632	-0,134	-0,152
-192,460	-200,000	-0,012	-0,061
-191,446	96,277	0,101	-0,084
-190,431	-200,000	0,008	0,088
-189,417	800,000	-0,003	-0,007
-188,402	-165,006	0,039	-0,001
-187,387	-108,428	-0,184	0,029
-186,373	-200,000	0,012	-0,199
-185,358	800,000	-0,039	-0,102
-184,344	-128,603	0,144	-0,015
-183,329	100,177	0,142	0,120
-182,315	-41,203	-0,122	-0,045
-181,300	760,933	0,004	-0,008
-180,285	71,343	0,042	-0,032
-179,271	-9,396	-0,055	-0,027
-178,256	-76,730	-0,082	-0,021
-177,242	117,900	0,082	0,074
-176,227	-200,000	0,006	0,088
-175,212	11,347	0,113	0,063
-174,198	-61,146	-0,054	-0,016
-173,183	279,219	-0,052	-0,068
-172,169	59,880	-0,080	0,058
-171,154	-142,380	0,084	0,006
-170,139	159,152	0,073	0,074
-169,125	-108,323	0,128	0,020
-168,110	154,270	-0,056	0,056
-167,096	-54,171	0,044	0,014
-166,081	126,841	-0,048	0,044
-165,066	-49,393	-0,053	0,018
-164,052	-61,407	0,108	-0,033
-163,037	-19,251	0,088	0,040
-162,023	40,250	0,104	0,068
-161,008	61,469	0,129	0,093
-159,993	-200,000	0,004	0,032
-158,979	794,963	-0,041	-0,082
-157,964	-200,000	0,002	-0,082
-156,950	-200,000	-0,009	-0,061
-155,935	279,666	-0,030	0,038
-154,920	-48,949	-0,098	0,034
-153,906	-200,000	0,015	0,086
-152,891	-41,399	-0,123	-0,046
-151,877	334,449	0,050	-0,071
-150,862	-3,638	-0,086	0,043
-149,847	112,244	-0,063	0,055
-148,833	632,922	-0,045	0,084
-147,818	602,722	-0,031	0,056
-146,804	800,000	-0,035	0,072
-145,789	-74,393	0,123	0,032
-144,775	197,165	-0,050	-0,056
-143,760	-200,000	0,001	-0,150
-142,745	800,000	-0,015	-0,037
-141,731	-145,980	-0,135	-0,009
-140,716	-168,210	-0,119	-0,003
-139,702	419,195	0,103	0,161
-138,687	171,149	0,099	-0,104
-137,672	-200,000	0,013	-0,045
-136,658	106,323	-0,050	-0,043
-135,643	-36,500	-0,067	-0,026
-134,629	-162,212	0,137	-0,005
-133,614	-200,000	-0,010	0,062
-132,599	-100,874	-0,049	-0,009
-131,585	366,938	0,065	0,096
-130,570	136,176	-0,178	-0,169
-129,556	-140,621	-0,170	0,013
-128,541	-49,804	-0,053	0,018
-127,526	109,942	-0,145	0,127
-126,512	500,346	0,092	-0,154
-125,497	800,000	0,073	0,159
-124,483	-200,000	0,016	-0,053
-123,468	62,579	-0,022	0,016
-122,453	-113,980	-0,098	0,014
-121,439	246,898	-0,061	0,075
-120,424	-200,000	-0,001	-0,035
