DTS Sentinel unit serial number:	SN410029Multiplexer serial number:	ORYXHardware model number:	OX2-SRSoftware version number:	ORYX F/W v4,00 Oryx Data Collector v3.7.2.0data status	okinstallation	B4 Nyhavnadifferential loss correction	single-endedforward channel	channel 2reverse channel	N/Adate	2023/12/15time	23:05:13forward acquisition time	300,00reverse acquisition time	0,00gamma	499,1914k internal	0,3130k external	0,3130temperature offset calibration	1,0000default loss term (dB/km)	0,3820temperature slope calibration	1,0000multiplexer offset coefficient	1,0000multiplexer slope coefficient	1,0000fibre end	0,00T internal ref (°C)	21,57T ext. ref 1 (°C)	6,70T ext. ref 2 (°C)	6,87length (m)	temperature (°C)	Stokes	anti-Stokes-744,400	595,297	-0,044	0,082
-743,385	-77,223	-0,243	0,063
-742,371	101,251	-0,017	0,015
-741,356	285,061	-0,174	0,234
-740,342	-71,066	-0,098	0,027
-739,327	52,778	-0,314	0,223
-738,312	-200,000	-0,030	-0,177
-737,298	-145,797	-0,320	-0,021
-736,283	-145,131	-0,049	0,003
-735,269	-36,452	-0,255	0,102
-734,254	800,000	-0,023	-0,048
-733,239	-42,796	-0,445	-0,167
-732,225	640,608	0,005	-0,010
-731,210	-80,049	0,098	-0,024
-730,196	419,193	-0,074	0,119
-729,181	168,511	-0,122	-0,129
-728,167	744,235	-0,075	-0,150
-727,152	244,365	-0,016	-0,020
-726,137	-38,488	-0,054	-0,021
-725,123	-200,000	-0,012	0,086
-724,108	-28,776	-0,108	-0,046
-723,094	53,772	0,131	-0,093
-722,079	304,691	0,091	-0,126
-721,064	141,865	-0,100	-0,098
-720,050	175,775	-0,091	0,098
-719,035	-0,627	-0,061	0,032
-718,021	-38,075	-0,163	-0,064
-717,006	-21,428	-0,067	0,030
-715,991	117,405	-0,024	0,022
-714,977	-200,000	-0,013	-0,109
-713,962	457,911	-0,025	0,041
-712,948	168,065	0,030	-0,032
-711,933	-131,806	-0,116	-0,011
-710,918	43,999	0,065	0,044
-709,904	36,437	-0,150	-0,098
-708,889	764,817	0,052	-0,105
-707,875	77,070	-0,049	-0,039
-706,860	-200,000	-0,017	-0,137
-705,845	-200,000	-0,031	-0,118
-704,831	-200,000	0,003	-0,048
-703,816	800,000	-0,031	0,070
-702,802	52,939	-0,089	-0,063
-701,787	-200,000	-0,022	-0,141
-700,772	350,151	-0,059	0,086
-699,758	-62,242	0,067	-0,020
-698,743	-63,000	0,042	-0,013
-697,729	-94,646	-0,084	0,017
-696,714	800,000	-0,046	-0,113
-695,699	-200,000	0,009	-0,156
-694,685	-146,207	0,061	0,004
-693,670	653,600	-0,023	-0,043
-692,656	458,385	-0,055	-0,091
-691,641	-200,000	-0,001	0,065
-690,627	-107,569	-0,030	0,005
-689,612	117,182	0,065	-0,059
-688,597	102,198	-0,078	-0,068
-687,583	688,666	0,028	-0,055
-686,568	-200,000	-0,013	0,044
-685,554	800,000	-0,087	0,197
-684,539	300,230	-0,075	0,103
-683,524	-57,475	-0,049	-0,016
-682,510	388,198	-0,022	0,034
-681,495	-200,000	-0,031	-0,159
-680,481	800,000	-0,016	0,049
-679,466	800,000	0,023	-0,049
-678,451	60,141	-0,037	-0,027
-677,437	385,093	-0,040	-0,062
-676,422	178,092	0,051	-0,055
-675,408	324,315	-0,096	-0,136
-674,393	98,189	-0,033	0,028
-673,378	-200,000	-0,009	0,119
-672,364	-132,465	-0,194	0,018
-671,349	-200,000	-0,041	-0,160
-670,335	-91,876	-0,034	-0,007
-669,320	-149,731	-0,084	-0,005
-668,305	10,186	0,038	0,022
-667,291	112,014	-0,115	0,103
-666,276	-113,987	0,061	-0,009
-665,262	-200,000	0,008	-0,078
-664,247	96,577	0,079	-0,067
-663,232	661,276	0,048	0,091
-662,218	90,408	-0,067	-0,055
-661,203	-61,086	-0,057	-0,018
-660,189	70,817	0,066	-0,050
-659,174	86,232	-0,084	-0,068
-658,159	247,882	-0,021	-0,027
-657,145	462,284	-0,071	-0,118
-656,130	800,000	-0,023	-0,066
-655,116	-138,135	0,076	-0,006
-654,101	434,507	-0,078	0,126
-653,086	-94,090	0,036	0,007
-652,072	800,000	-0,048	-0,106
-651,057	-200,000	0,002	-0,198
-650,043	14,498	-0,099	0,057
-649,028	800,000	0,047	0,111
-648,014	686,936	0,011	0,021
-646,999	-6,835	-0,080	-0,040
-645,984	-30,954	0,074	0,031
-644,970	447,230	-0,032	-0,053
-643,955	216,645	0,118	0,139
-642,941	259,276	-0,131	-0,167
-641,926	201,895	0,079	-0,090
-640,911	-101,116	0,063	-0,011
-639,897	76,453	0,103	0,080
-638,882	-43,471	-0,137	0,051
-637,868	-98,036	-0,124	-0,023
-636,853	-137,678	-0,077	-0,006
-635,838	-200,000	-0,035	-0,180
-634,824	-115,768	-0,103	0,014
-633,809	624,897	0,047	0,089
-632,795	800,000	0,036	-0,114
-631,780	-118,414	-0,037	0,005
-630,765	-126,010	-0,073	-0,008
-629,751	-200,000	-0,010	-0,063
-628,736	75,883	-0,070	-0,055
-627,722	-200,000	-0,026	0,254
-626,707	-101,945	0,061	-0,011
-625,692	189,067	0,072	0,080
-624,678	-200,000	-0,006	0,037
-623,663	72,738	-0,163	0,125
-622,649	-0,200	-0,110	-0,058
-621,634	548,701	-0,064	-0,114
-620,619	193,962	-0,062	-0,069
-619,605	-200,000	0,020	-0,211
-618,590	290,714	-0,074	-0,100
-617,576	166,675	0,084	0,088
-616,561	-200,000	-0,005	-0,088
-615,546	800,000	0,031	0,074
-614,532	-200,000	-0,025	-0,171
-613,517	-200,000	0,007	-0,061
-612,503	-188,747	-0,100	0,001
-611,488	567,915	0,077	-0,139
-610,474	29,956	-0,033	-0,020
-609,459	-200,000	0,024	-0,133
-608,444	505,545	-0,056	0,097
-607,430	6,562	0,088	-0,048
-606,415	-200,000	-0,024	-0,118
-605,401	-101,211	0,050	-0,009
-604,386	-62,228	-0,083	0,025
-603,371	408,760	-0,020	0,032
-602,357	-37,850	0,033	0,013
-601,342	409,354	0,038	0,060
-600,328	354,383	0,116	-0,171
-599,313	-92,088	-0,116	0,024
-598,298	57,654	0,028	0,020
-597,284	-176,574	0,123	0,002
-596,269	187,295	-0,092	0,101
-595,255	113,102	0,106	0,095
-594,240	-170,057	-0,089	0,002
-593,225	662,411	-0,016	-0,030
-592,211	800,000	-0,069	-0,166
-591,196	138,998	-0,079	-0,077
-590,182	-200,000	0,014	0,100
-589,167	-43,248	-0,068	0,025
-588,152	-200,000	-0,024	0,087
-587,138	50,376	0,070	0,049
-586,123	1,025	-0,087	-0,046
-585,109	-120,400	0,098	0,012
-584,094	-93,465	0,063	0,013
-583,079	800,000	0,012	-0,035
-582,065	-200,000	-0,007	0,224
-581,050	281,170	0,017	-0,023
-580,036	151,472	0,056	0,057
-579,021	-5,110	-0,124	-0,063
-578,006	186,209	0,125	-0,137
-576,992	-200,000	-0,019	-0,082
-575,977	-96,715	0,007	-0,001
-574,963	-200,000	0,009	0,094
-573,948	726,818	0,042	0,084
-572,934	730,905	0,024	0,048
-571,919	-7,694	0,083	-0,041
-570,904	-175,490	-0,087	-0,002
-569,890	-77,589	0,102	0,026
-568,875	-200,000	-0,022	-0,124
-567,861	440,057	0,066	-0,107
-566,846	-200,000	0,009	-0,115
-565,831	8,057	-0,073	0,041
-564,817	-24,249	-0,178	-0,078
-563,802	398,974	0,040	0,062
-562,788	110,228	0,026	-0,023
-561,773	-183,885	0,117	0,001
-560,758	-200,000	0,030	0,108
-559,744	246,038	-0,044	0,054
-558,729	98,532	-0,039	-0,033
-557,715	361,866	-0,024	0,036
-556,700	6,255	-0,139	-0,076
-555,685	707,779	-0,086	0,169
-554,671	348,368	0,061	-0,088
-553,656	-200,000	0,003	0,054
-552,642	192,398	-0,066	-0,074
-551,627	800,000	-0,036	-0,077
-550,612	-85,857	-0,043	0,010
-549,598	-200,000	-0,014	-0,097
-548,583	-11,231	-0,054	-0,026
-547,569	-84,629	0,028	0,006
-546,554	64,830	0,128	-0,095
-545,539	-200,000	-0,008	0,118
-544,525	-15,147	0,081	-0,038
-543,510	-158,348	-0,100	0,004
-542,496	-61,449	-0,014	-0,004
-541,481	8,951	-0,067	-0,037
-540,466	105,491	0,025	0,022
-539,452	-53,573	-0,049	-0,016
-538,437	420,807	0,040	0,063
-537,423	76,380	0,042	0,033
-536,408	-115,795	0,052	-0,007
-535,393	800,000	-0,031	-0,081
-534,379	18,333	0,130	0,076
-533,364	485,759	-0,051	-0,086
-532,350	800,000	-0,049	0,148
-531,335	74,640	-0,033	0,025
-530,321	-99,827	0,063	-0,012
-529,306	187,387	-0,142	-0,157
-528,291	-116,557	-0,034	0,005
-527,277	18,713	-0,118	0,069
-526,262	-200,000	-0,046	-0,152
-525,248	800,000	0,044	0,108
-524,233	395,609	0,080	0,124
-523,218	-93,931	-0,036	-0,007
-522,204	-28,585	-0,063	-0,027
-521,189	-90,365	-0,088	0,019
-520,175	-123,526	-0,089	-0,010
-519,160	38,117	0,056	-0,037
-518,145	800,000	-0,023	0,052
-517,131	-106,288	-0,031	0,005
-516,116	-200,000	-0,013	-0,055
-515,102	-200,000	0,013	-0,081
-514,087	-200,000	0,007	0,042
-513,072	800,000	-0,025	0,070
-512,058	86,551	-0,062	-0,050
-511,043	-111,908	0,160	-0,024
-510,029	81,198	0,072	0,057
-509,014	650,469	-0,051	0,096
-507,999	-200,000	-0,009	-0,051
-506,985	-200,000	-0,011	-0,037
-505,970	-200,000	0,047	-0,189
-504,956	-139,539	-0,053	-0,004
-503,941	649,599	0,015	-0,028
-502,926	-71,656	-0,053	-0,015
-501,912	-54,020	-0,022	0,007
-500,897	-25,387	0,120	0,052
-499,883	98,870	-0,031	-0,027
-498,868	102,734	0,039	-0,033
-497,853	-200,000	0,005	0,106
-496,839	-29,981	0,090	0,037
-495,824	414,990	0,064	-0,101
-494,810	-200,000	-0,009	-0,077
-493,795	133,690	0,179	-0,170
-492,781	338,609	0,028	-0,041
-491,766	-200,000	-0,013	-0,155
-490,751	800,000	-0,088	-0,213
-489,737	412,635	0,114	-0,179
-488,722	122,818	-0,050	0,046
-487,708	486,926	-0,092	-0,155
-486,693	-112,999	-0,030	-0,004
-485,678	800,000	-0,035	0,076
-484,664	325,906	0,055	-0,078
-483,649	5,185	-0,011	-0,006
-482,635	800,000	-0,036	0,118
-481,620	336,147	0,075	0,107
-480,605	-200,000	0,001	0,060
-479,591	-200,000	0,010	0,055
-478,576	76,477	0,063	-0,049
-477,562	800,000	0,003	0,007
-476,547	90,829	-0,119	-0,098
-475,532	-200,000	0,008	0,033
-474,518	-75,268	-0,224	-0,059
-473,503	-200,000	0,118	-0,000
-472,489	-57,237	0,107	0,034
-471,474	433,269	-0,021	-0,033
-470,459	120,547	-0,067	-0,061
-469,445	-180,821	-0,029	-0,000
-468,430	-200,000	0,009	-0,147
-467,416	-100,357	0,117	-0,021
-466,401	197,626	-0,019	-0,022
-465,386	-200,000	-0,019	0,300
-464,372	-124,652	0,147	-0,017
-463,357	657,855	-0,063	-0,120
-462,343	-200,000	-0,055	-0,197
-461,328	327,056	0,032	0,045
-460,313	-200,000	0,012	0,089
-459,299	-94,986	0,033	0,006
-458,284	-200,000	-0,010	0,074
-457,270	800,000	0,011	0,022
-456,255	-133,439	0,132	0,012
-455,241	0,873	-0,058	0,030
-454,226	45,987	-0,076	0,052
-453,211	-200,000	-0,011	-0,048
-452,197	-200,000	-0,004	-0,067
-451,182	-200,000	0,033	0,152
-450,168	800,000	0,050	-0,105
-449,153	800,000	0,027	0,062
-448,138	-78,351	0,102	0,026
-447,124	800,000	0,017	-0,050
-446,109	80,449	0,107	-0,085
-445,095	38,164	0,074	-0,048
-444,080	43,401	-0,147	0,099
-443,065	800,000	-0,015	-0,033
-442,051	-93,104	-0,107	0,022
-441,036	-200,000	0,006	-0,073
-440,022	384,219	-0,042	0,063
-439,007	800,000	0,040	-0,114
-437,992	800,000	-0,012	-0,029
-436,978	-81,853	-0,141	-0,034
-435,963	800,000	0,017	-0,047
-434,949	149,996	0,029	0,029
-433,934	-200,000	-0,021	-0,105
-432,919	-75,622	0,064	-0,017
-431,905	23,394	0,112	-0,068
-430,890	1,283	0,159	-0,083
-429,876	208,514	0,036	0,042
-428,861	-200,000	-0,045	0,209
-427,846	-200,000	0,028	0,120
-426,832	255,160	-0,060	-0,076
-425,817	-200,000	-0,017	0,114
-424,803	-74,839	0,068	0,018
-423,788	744,822	-0,074	-0,147
-422,773	70,836	0,087	0,066
-421,759	20,849	0,067	0,040
-420,744	800,000	-0,002	0,008
-419,730	20,600	-0,018	0,011
-418,715	-200,000	-0,021	0,101
-417,701	800,000	0,047	-0,142
-416,686	315,109	-0,066	0,092
-415,671	-105,469	-0,031	0,005
-414,657	-96,657	0,099	0,019
-413,642	213,861	-0,108	0,126
-412,628	236,577	-0,080	0,097
-411,613	60,306	0,014	0,010
-410,598	800,000	0,021	-0,051
-409,584	-200,000	0,032	0,157
-408,569	-200,000	0,004	0,081
-407,555	800,000	0,017	0,047
-406,540	800,000	0,036	-0,097
-405,525	-200,000	-0,032	-0,113
-404,511	-62,174	-0,170	-0,052
-403,496	-173,211	0,183	0,004
-402,482	-200,000	0,023	0,226
-401,467	800,000	-0,032	0,082
-400,452	501,050	0,008	0,013
-399,438	632,235	-0,088	0,164
-398,423	800,000	-0,012	-0,026
-397,409	-200,000	0,020	-0,099
-396,394	-149,415	0,083	-0,005
-395,379	39,103	0,112	0,073
-394,365	640,291	0,065	0,121
-393,350	-16,541	-0,152	-0,070
-392,336	219,652	0,052	0,061
-391,321	13,742	0,091	-0,052
-390,306	293,464	-0,084	-0,113
-389,292	-180,549	0,052	0,001
-388,277	-96,424	0,191	-0,037
-387,263	-92,838	-0,090	-0,018
-386,248	-91,093	0,056	-0,012
-385,233	-200,000	0,018	0,086
-384,219	-61,257	-0,143	-0,044
-383,204	-35,389	-0,073	-0,029
-382,190	93,819	0,055	0,045
-381,175	800,000	0,026	0,055
-380,160	-180,925	0,029	-0,000
-379,146	-144,600	-0,034	0,002
-378,131	144,318	0,114	-0,112
-377,117	100,297	0,074	-0,063
-376,102	800,000	-0,012	-0,034
-375,088	86,544	0,049	-0,040
-374,073	-200,000	0,008	-0,082
-373,058	99,227	0,161	0,137
-372,044	800,000	-0,040	-0,088
-371,029	-14,966	-0,081	-0,038
-370,015	-200,000	-0,010	0,186
-369,000	-200,000	0,010	-0,077
-367,985	56,330	-0,044	0,031
-366,971	800,000	0,021	-0,062
-365,956	-200,000	-0,003	0,023
-364,942	255,028	-0,087	0,109
-363,927	-16,661	-0,013	0,006
-362,912	756,536	-0,015	0,030
-361,898	-153,500	-0,255	-0,013
-360,883	590,345	-0,059	-0,106
-359,869	-98,941	-0,038	0,007
-358,854	260,257	0,029	0,037
-357,839	-20,431	0,073	0,033
-356,825	-91,852	0,026	0,005
-355,810	-200,000	0,007	0,156
-354,796	800,000	0,047	-0,106
-353,781	160,929	0,032	-0,032
-352,766	-76,614	0,042	-0,011
-351,752	3,919	-0,115	0,061
-350,737	-6,504	0,086	0,043
-349,723	-81,581	-0,133	0,032
-348,708	-200,000	0,015	-0,050
-347,693	202,818	0,020	-0,023
-346,679	123,974	-0,033	-0,031
-345,664	-60,018	-0,122	-0,038
-344,650	-106,753	0,033	0,005
-343,635	-85,446	0,080	0,018
-342,620	-200,000	0,001	0,022
-341,606	242,218	0,040	0,049
-340,591	160,203	-0,033	0,033
-339,577	-200,000	-0,025	-0,162
-338,562	137,373	0,021	0,020
-337,548	155,725	-0,045	0,045
-336,533	-200,000	-0,003	0,034
-335,518	-52,622	0,078	-0,026
-334,504	-22,029	0,117	-0,052
-333,489	36,684	0,030	-0,019
-332,475	-200,000	0,027	-0,097
-331,460	62,514	-0,041	-0,030
-330,445	-138,451	-0,105	0,008
-329,431	-200,000	0,003	0,022
-328,416	-200,000	0,009	0,045
-327,402	196,598	-0,077	0,086
-326,387	158,072	-0,102	0,104
-325,372	-200,000	-0,011	-0,051
-324,358	800,000	0,018	-0,057
-323,343	-134,339	-0,104	0,009
-322,329	115,168	-0,021	-0,019
-321,314	136,748	0,085	-0,082
-320,299	9,056	0,055	0,030
-319,285	-165,003	0,030	-0,001
-318,270	-200,000	-0,002	-0,116
-317,256	800,000	-0,030	-0,062
-316,241	-35,508	-0,142	-0,056
-315,226	1,197	0,051	-0,026
-314,212	-200,000	-0,026	0,121
-313,197	285,154	0,071	0,094
-312,183	800,000	0,067	0,145
-311,168	-15,232	-0,100	-0,046
-310,153	212,950	-0,042	-0,049
-309,139	-200,000	-0,003	0,048
-308,124	342,457	-0,061	-0,087
-307,110	630,421	-0,036	-0,067
-306,095	210,081	-0,059	-0,068
-305,080	0,028	-0,030	-0,015
-304,066	-200,000	0,008	0,053
-303,051	800,000	0,014	0,036
-302,037	800,000	0,057	-0,128
-301,022	-45,038	-0,060	-0,022
-300,008	66,518	0,085	-0,063
-298,993	588,852	-0,031	0,056
-297,978	140,589	0,033	-0,032
-296,964	-200,000	-0,015	0,064
-295,949	-62,794	0,057	-0,017
-294,935	16,658	0,130	0,075
-293,920	214,423	0,029	-0,033
-292,905	61,154	0,060	0,044
-291,891	-29,543	0,110	0,046
-290,876	112,047	0,047	-0,041
-289,862	-200,000	0,015	0,137
-288,847	84,183	-0,080	-0,064
-287,832	-200,000	-0,004	-0,081
-286,818	84,995	-0,068	0,055
-285,803	159,346	0,030	0,030
-284,789	1,293	0,091	0,048
-283,774	77,596	0,051	0,040
-282,759	128,266	-0,042	0,039
-281,745	264,944	-0,054	-0,069
-280,730	147,929	0,044	-0,044
-279,716	-200,000	-0,015	0,071
-278,701	12,492	0,123	0,069
-277,686	800,000	0,019	0,055
-276,672	-2,827	-0,096	-0,049
-275,657	185,198	0,090	0,097
-274,643	36,369	-0,114	-0,073
-273,628	320,264	0,051	-0,071
-272,613	284,304	-0,069	0,091
-271,599	-131,153	0,144	-0,014
-270,584	-0,965	-0,091	-0,047
-269,570	580,664	0,092	0,166
-268,555	123,562	-0,017	0,015
-267,540	-123,585	-0,074	0,008
-266,526	-74,741	-0,203	-0,053
-265,511	-200,000	0,047	-0,172
-264,497	408,323	-0,120	-0,186
-263,482	-27,825	0,113	0,047
-262,467	133,195	0,091	0,086
-261,453	-97,242	-0,102	-0,019
-260,438	106,596	-0,073	-0,063
-259,424	37,189	0,057	-0,037
-258,409	-8,411	-0,010	0,005
-257,395	-95,527	0,111	-0,022
-256,380	585,498	0,029	0,052
-255,365	-45,108	0,029	0,010
-254,351	750,490	0,008	0,015
-253,336	800,000	0,012	-0,033
-252,322	-10,534	0,157	-0,076
-251,307	800,000	-0,025	-0,073
-250,292	-200,000	-0,006	0,079
-249,278	800,000	0,023	0,062
-248,263	-200,000	-0,004	-0,089
-247,249	-19,901	0,056	0,025
-246,234	37,581	-0,073	-0,047
-245,219	45,564	0,016	0,011
-244,205	244,173	-0,028	0,034
-243,190	93,607	0,021	-0,018
-242,176	-124,766	0,099	-0,011
-241,161	243,518	-0,051	0,063
-240,146	158,093	0,030	0,030
-239,132	33,336	0,116	-0,073
-238,117	-70,016	-0,227	0,063
-237,103	100,593	0,021	0,018
-236,088	540,200	-0,069	0,121
-235,073	-200,000	0,042	0,149
-234,059	521,187	0,070	0,120
-233,044	474,963	-0,052	0,087
-232,030	-97,469	-0,039	0,007
-231,015	-86,514	-0,136	-0,030
-230,000	13,787	-0,080	-0,045
-228,986	-200,000	0,003	0,115
-227,971	60,530	0,088	0,063
-226,957	5,463	0,028	0,015
-225,942	188,067	0,188	0,205
-224,927	-200,000	-0,013	0,147
-223,913	47,220	-0,130	-0,088
-222,898	-181,273	0,032	0,000
-221,884	-38,151	0,068	0,026
-220,869	12,344	0,020	-0,011
-219,855	797,344	0,048	-0,098
-218,840	-59,185	0,047	-0,015
-217,825	271,176	-0,027	-0,034
-216,811	800,000	0,020	0,041
-215,796	-4,667	-0,118	-0,059
-214,782	800,000	0,036	-0,107
-213,767	-98,844	0,025	0,005
-212,752	-39,875	0,120	0,045
-211,738	800,000	-0,050	0,103
-210,723	-200,000	0,011	0,144
-209,709	-200,000	0,017	-0,066
-208,694	-74,319	-0,021	-0,005
-207,679	-75,840	-0,105	0,027
-206,665	-200,000	-0,002	-0,025
-205,650	800,000	0,022	0,050
-204,636	33,388	0,103	0,065
-203,621	800,000	0,040	0,081
-202,606	512,931	0,009	-0,016
-201,592	610,224	-0,069	-0,126
-200,577	800,000	0,075	-0,167
-199,563	-200,000	0,014	-0,080
-198,548	-35,585	0,079	0,031
-197,533	-200,000	0,013	0,133
-196,519	220,739	-0,127	0,148
-195,504	-42,322	0,030	0,011
-194,490	-200,000	-0,020	-0,066
-193,475	-67,114	-0,040	0,011
-192,460	188,503	-0,064	-0,070
-191,446	800,000	-0,045	0,097
-190,431	-185,012	0,105	-0,001
-189,417	-117,013	-0,021	-0,003
-188,402	-200,000	-0,017	0,105
-187,387	-200,000	-0,012	-0,139
-186,373	104,059	-0,046	-0,039
-185,358	69,302	0,081	0,061
-184,344	27,820	0,154	0,094
-183,329	-89,738	-0,079	0,017
-182,315	-70,418	0,111	-0,030
-181,300	800,000	0,017	-0,047
-180,285	-141,652	-0,161	-0,012
-179,271	34,324	-0,012	0,008
-178,256	365,700	-0,012	0,017
-177,242	24,105	0,120	0,072
-176,227	289,394	-0,097	0,128
-175,212	150,462	0,035	0,035
-174,198	19,615	0,117	0,068
-173,183	-66,742	-0,090	-0,026
-172,169	39,677	-0,102	-0,066
-171,154	677,724	0,020	0,038
-170,139	800,000	-0,049	0,124
-169,125	-122,314	0,022	-0,003
-168,110	800,000	0,092	0,228
-167,096	702,178	-0,008	-0,015
-166,081	-96,082	-0,144	-0,028
-165,066	-200,000	0,003	-0,133
-164,052	-200,000	-0,005	0,122
-163,037	240,451	0,030	0,037
-162,023	140,444	0,121	-0,116
-161,008	-7,025	0,058	0,028
-159,993	94,661	-0,076	-0,063
-158,979	68,133	-0,054	-0,040
-157,964	102,280	-0,033	-0,028
-156,950	-200,000	0,002	-0,130
-155,935	-79,865	-0,178	0,043
-154,920	800,000	0,025	0,075
-153,906	-21,603	0,183	0,081
-152,891	237,392	-0,087	0,106
-151,877	-200,000	0,019	-0,114
-150,862	-13,333	-0,045	0,021
-149,847	653,391	-0,047	-0,088
-148,833	-78,554	-0,038	-0,009
-147,818	-200,000	-0,019	0,136
-146,804	-200,000	-0,010	0,046
-145,789	-200,000	0,005	-0,030
-144,775	197,806	-0,051	-0,057
-143,760	205,433	0,039	-0,044
-142,745	88,129	0,028	0,022
-141,731	139,600	0,036	0,034
-140,716	-136,963	0,050	-0,004
-139,702	128,287	0,043	-0,039
-138,687	-200,000	0,002	0,052
-137,672	522,699	-0,023	0,039
-136,658	-45,719	-0,099	-0,035
-135,643	-19,667	-0,050	-0,023
-134,629	-141,211	0,092	-0,007
-133,614	-200,000	-0,020	0,076
-132,599	-200,000	0,008	0,078
-131,585	-200,000	0,026	-0,130
-130,570	155,548	0,042	0,042
-129,556	-200,000	0,007	-0,051
-128,541	-31,198	0,012	-0,005
-127,526	108,495	0,009	0,008
-126,512	-73,096	-0,119	-0,031
-125,497	800,000	-0,023	-0,070
-124,483	-200,000	0,015	0,135
-123,468	-200,000	-0,007	-0,054
-122,453	-200,000	0,006	0,070
-121,439	-200,000	-0,003	0,058
-120,424	733,334	0,089	-0,174
-119,410	-114,686	0,082	-0,011
