DTS Sentinel unit serial number:	SN410029Multiplexer serial number:	ORYXHardware model number:	OX2-SRSoftware version number:	ORYX F/W v4,00 Oryx Data Collector v3.7.2.0data status	okinstallation	B4 Nyhavnadifferential loss correction	single-endedforward channel	channel 2reverse channel	N/Adate	2023/12/15time	18:15:13forward acquisition time	300,00reverse acquisition time	0,00gamma	499,1914k internal	0,3141k external	0,3141temperature offset calibration	1,0000default loss term (dB/km)	0,3820temperature slope calibration	1,0000multiplexer offset coefficient	1,0000multiplexer slope coefficient	1,0000fibre end	0,00T internal ref (°C)	19,08T ext. ref 1 (°C)	4,88T ext. ref 2 (°C)	5,03length (m)	temperature (°C)	Stokes	anti-Stokes-744,400	113,100	-0,084	-0,076
-743,385	-49,971	-0,164	0,057
-742,371	57,921	0,110	0,080
-741,356	-37,448	-0,239	0,094
-740,342	620,691	0,038	-0,070
-739,327	-30,272	-0,242	0,102
-738,312	708,871	0,056	-0,110
-737,298	-76,960	-0,146	0,037
-736,283	-2,506	0,101	-0,052
-735,269	-57,635	-0,268	0,087
-734,254	448,087	0,075	-0,122
-733,239	-63,615	-0,462	-0,140
-732,225	-22,390	0,064	-0,029
-731,210	207,402	0,056	0,064
-730,196	9,975	0,084	-0,047
-729,181	233,590	0,016	-0,020
-728,167	-84,215	0,064	0,015
-727,152	765,461	0,053	0,106
-726,137	84,935	-0,061	-0,050
-725,123	60,167	-0,107	-0,078
-724,108	166,934	-0,035	-0,037
-723,094	72,033	0,097	-0,074
-722,079	34,563	-0,047	0,030
-721,064	166,995	0,023	0,024
-720,050	-200,000	-0,005	-0,106
-719,035	224,441	-0,044	-0,053
-718,021	39,268	-0,094	-0,062
-717,006	-200,000	0,018	-0,156
-715,991	-45,306	-0,193	-0,071
-714,977	529,304	0,035	-0,061
-713,962	447,943	-0,071	-0,117
-712,948	-200,000	-0,023	0,086
-711,933	-200,000	-0,032	-0,134
-710,918	-200,000	0,025	-0,125
-709,904	-73,742	0,139	-0,037
-708,889	800,000	-0,051	-0,111
-707,875	393,993	0,017	-0,026
-706,860	-200,000	-0,006	-0,077
-705,845	-95,508	0,085	-0,017
-704,831	247,437	0,063	-0,079
-703,816	-66,845	-0,064	-0,018
-702,802	66,311	-0,174	-0,131
-701,787	-200,000	0,006	0,056
-700,772	-78,468	-0,081	-0,020
-699,758	79,461	0,061	0,049
-698,743	-200,000	-0,007	-0,054
-697,729	-200,000	-0,047	0,165
-696,714	-21,860	0,202	0,091
-695,699	542,801	0,082	-0,145
-694,685	-200,000	-0,046	-0,230
-693,670	-93,384	-0,197	-0,040
-692,656	-68,964	0,009	0,003
-691,641	-200,000	0,025	-0,122
-690,627	-200,000	0,011	-0,056
-689,612	465,288	0,042	0,070
-688,597	3,255	-0,110	-0,059
-687,583	-162,239	-0,048	-0,002
-686,568	800,000	0,037	-0,111
-685,554	83,198	-0,065	0,052
-684,539	-94,961	-0,165	0,033
-683,524	173,226	-0,088	0,094
-682,510	35,373	-0,089	0,058
-681,495	-200,000	0,002	-0,073
-680,481	66,424	-0,113	-0,085
-679,466	231,095	-0,104	-0,127
-678,451	-200,000	0,001	0,056
-677,437	-72,852	-0,066	-0,018
-676,422	-110,105	-0,002	-0,000
-675,408	-85,636	0,058	0,013
-674,393	-57,567	-0,098	0,031
-673,378	-121,725	-0,063	-0,008
-672,364	-102,248	-0,168	-0,030
-671,349	-44,246	-0,045	0,017
-670,335	-79,258	0,163	0,041
-669,320	-200,000	0,001	-0,098
-668,305	-100,878	0,155	0,028
-667,291	330,295	-0,070	0,100
-666,276	-200,000	-0,007	-0,026
-665,262	74,443	-0,163	-0,126
-664,247	800,000	0,045	0,133
-663,232	140,533	0,026	-0,025
-662,218	501,938	0,057	0,097
-661,203	143,939	0,028	-0,028
-660,189	-21,999	-0,044	-0,020
-659,174	-200,000	0,006	-0,053
-658,159	800,000	-0,053	-0,151
-657,145	800,000	-0,103	-0,242
-656,130	800,000	0,026	-0,084
-655,116	-200,000	-0,010	0,046
-654,101	-70,732	-0,092	-0,025
-653,086	-200,000	-0,001	0,114
-652,072	-141,758	-0,069	-0,005
-651,057	161,656	0,029	0,030
-650,043	39,495	0,030	0,020
-649,028	-200,000	-0,008	-0,182
-648,014	800,000	0,053	-0,114
-646,999	800,000	-0,059	0,149
-645,984	800,000	0,023	-0,073
-644,970	180,299	0,073	-0,080
-643,955	69,007	-0,110	0,083
-642,941	5,540	0,057	-0,031
-641,926	-200,000	-0,001	0,019
-640,911	800,000	-0,047	0,109
-639,897	-61,351	0,075	-0,023
-638,882	-133,487	-0,048	-0,004
-637,868	267,253	-0,101	-0,131
-636,853	800,000	-0,026	0,071
-635,838	800,000	-0,051	-0,108
-634,824	234,654	0,075	-0,092
-633,809	706,715	-0,053	-0,104
-632,795	-200,000	-0,009	0,072
-631,780	-42,390	0,070	-0,026
-630,765	37,444	-0,025	0,016
-629,751	32,234	0,059	-0,037
-628,736	57,743	-0,091	-0,066
-627,722	36,473	-0,101	-0,066
-626,707	290,121	0,081	0,108
-625,692	-200,000	-0,012	0,056
-624,678	677,352	-0,064	0,123
-623,663	800,000	0,025	-0,060
-622,649	-92,813	-0,201	-0,041
-621,634	-200,000	0,003	-0,195
-620,619	180,986	-0,100	-0,109
-619,605	118,174	0,064	0,058
-618,590	757,580	-0,027	0,054
-617,576	349,160	-0,050	0,073
-616,561	105,702	-0,153	0,133
-615,546	82,453	-0,103	0,082
-614,532	-200,000	-0,003	-0,147
-613,517	-200,000	-0,024	-0,080
-612,503	-80,251	-0,033	-0,008
-611,488	800,000	0,051	0,123
-610,474	257,164	0,061	0,078
-609,459	263,231	-0,045	-0,058
-608,444	-74,370	-0,135	0,036
-607,430	-200,000	-0,012	-0,122
-606,415	-200,000	0,016	-0,078
-605,401	5,323	0,122	0,066
-604,386	396,378	-0,026	0,040
-603,371	800,000	0,021	-0,065
-602,357	332,960	-0,024	-0,034
-601,342	57,969	-0,064	-0,046
-600,328	800,000	0,004	0,013
-599,313	-66,396	-0,075	-0,022
-598,298	-200,000	0,002	-0,012
-597,284	-200,000	0,005	0,019
-596,269	56,916	-0,042	-0,030
-595,255	-200,000	0,116	-0,000
-594,240	-200,000	-0,016	0,052
-593,225	116,542	-0,097	-0,087
-592,211	-200,000	-0,016	-0,074
-591,196	202,428	-0,057	0,065
-590,182	493,141	0,071	-0,120
-589,167	349,967	-0,040	-0,059
-588,152	670,893	0,063	-0,121
-587,138	123,533	0,064	0,059
-586,123	-189,072	0,050	-0,000
-585,109	-157,290	-0,080	0,004
-584,094	800,000	-0,016	-0,037
-583,079	-200,000	0,038	0,191
-582,065	40,380	0,156	-0,103
-581,050	-3,293	0,018	-0,009
-580,036	-200,000	0,021	0,079
-579,021	-53,872	0,191	0,064
-578,006	-200,000	-0,013	-0,085
-576,992	52,176	0,067	-0,047
-575,977	96,033	-0,058	-0,049
-574,963	-133,070	0,135	0,012
-573,948	-200,000	0,002	0,122
-572,934	43,678	-0,018	0,012
-571,919	-200,000	0,007	0,067
-570,904	-200,000	0,025	-0,177
-569,890	-200,000	0,003	-0,132
-568,875	127,390	0,087	0,082
-567,861	-160,330	-0,053	0,002
-566,846	318,722	0,058	0,082
-565,831	-53,854	0,178	0,059
-564,817	33,486	-0,153	-0,097
-563,802	800,000	0,027	-0,083
-562,788	-200,000	0,001	0,019
-561,773	-200,000	0,008	-0,037
-560,758	-200,000	0,003	0,015
-559,744	-30,175	0,070	0,029
-558,729	-123,489	-0,083	-0,010
-557,715	-130,003	-0,080	0,008
-556,700	-88,268	0,026	-0,006
-555,685	-200,000	0,027	0,093
-554,671	181,527	0,022	0,024
-553,656	649,657	0,024	0,046
-552,642	250,437	0,048	0,060
-551,627	321,844	0,042	0,058
-550,612	-104,447	0,120	-0,020
-549,598	-63,378	-0,112	-0,034
-548,583	-160,130	-0,054	-0,002
-547,569	-94,058	-0,013	0,003
-546,554	231,970	0,051	0,061
-545,539	269,522	0,032	-0,042
-544,525	38,716	0,053	-0,035
-543,510	-200,000	-0,005	-0,071
-542,496	92,248	-0,008	-0,006
-541,481	-200,000	-0,010	-0,177
-540,466	-200,000	0,001	-0,017
-539,452	72,079	-0,035	-0,027
-538,437	-8,537	0,036	-0,018
-537,423	800,000	-0,037	-0,087
-536,408	303,520	0,029	-0,040
-535,393	-23,312	-0,124	0,054
-534,379	22,405	0,006	-0,004
-533,364	-28,787	0,049	-0,021
-532,350	-200,000	0,003	-0,088
-531,335	179,905	0,042	0,045
-530,321	-200,000	0,025	-0,100
-529,306	800,000	-0,030	0,072
-528,291	314,819	0,026	-0,037
-527,277	434,012	0,043	-0,069
-526,262	551,957	0,064	0,113
-525,248	228,044	-0,068	0,082
-524,233	-200,000	0,045	0,161
-523,218	86,826	-0,018	-0,014
-522,204	800,000	-0,031	0,081
-521,189	47,363	-0,070	-0,048
-520,175	-74,605	-0,096	-0,025
-519,160	412,141	-0,030	0,047
-518,145	-166,924	0,144	0,004
-517,131	-200,000	0,027	-0,136
-516,116	-51,054	-0,139	-0,048
-515,102	-200,000	-0,017	-0,076
-514,087	-200,000	0,003	0,051
-513,072	-32,201	-0,132	0,054
-512,058	101,495	-0,082	-0,070
-511,043	-200,000	-0,002	0,041
-510,029	750,856	-0,025	0,049
-509,014	479,666	0,012	0,019
-507,999	-200,000	0,011	-0,036
-506,985	-38,064	-0,042	-0,016
-505,970	-78,247	0,077	-0,019
-504,956	82,549	-0,071	0,056
-503,941	289,226	-0,052	0,070
-502,926	20,006	0,013	-0,007
-501,912	-7,750	-0,017	0,008
-500,897	173,591	0,109	-0,116
-499,883	293,931	-0,093	0,124
-498,868	43,487	-0,152	0,102
-497,853	-200,000	-0,016	-0,083
-496,839	800,000	0,043	-0,094
-495,824	10,802	0,083	-0,046
-494,810	-49,122	-0,049	-0,017
-493,795	-200,000	-0,012	0,135
-492,781	120,522	0,090	0,082
-491,766	-200,000	0,035	-0,148
-490,751	-137,661	-0,118	-0,010
-489,737	28,333	-0,007	-0,004
-488,722	551,280	0,067	-0,118
-487,708	-126,145	-0,017	0,002
-486,693	-200,000	0,046	-0,168
-485,678	800,000	-0,036	0,111
-484,664	-108,617	-0,147	0,023
-483,649	-200,000	-0,022	0,107
-482,635	-200,000	0,012	-0,054
-481,620	-139,241	-0,088	0,007
-480,605	276,387	0,029	0,037
-479,591	-80,961	0,058	-0,014
-478,576	-46,457	0,022	0,008
-477,562	395,242	-0,022	0,033
-476,547	705,751	-0,024	-0,048
-475,532	237,169	-0,004	-0,005
-474,518	-139,180	-0,126	-0,010
-473,503	-200,000	-0,013	0,146
-472,489	-74,714	0,026	0,007
-471,474	-75,809	-0,051	0,013
-470,459	-200,000	-0,006	-0,090
-469,445	88,474	-0,102	-0,083
-468,430	-135,615	0,098	0,008
-467,416	-200,000	0,013	-0,082
-466,401	-200,000	-0,018	-0,059
-465,386	287,512	0,054	0,072
-464,372	569,025	-0,042	0,076
-463,357	800,000	0,029	-0,089
-462,343	-200,000	-0,012	-0,063
-461,328	179,462	0,085	-0,091
-460,313	183,620	-0,129	0,140
-459,299	-91,612	0,028	0,006
-458,284	557,179	0,058	0,102
-457,270	-200,000	0,002	0,079
-456,255	-200,000	-0,009	-0,088
-455,241	-101,735	-0,059	0,010
-454,226	-35,399	-0,093	-0,037
-453,211	52,250	0,036	-0,025
-452,197	-75,447	-0,024	0,006
-451,182	176,657	-0,037	0,039
-450,168	-200,000	0,003	0,035
-449,153	450,198	0,033	-0,054
-448,138	-200,000	0,010	-0,142
-447,124	-200,000	-0,047	-0,153
-446,109	420,814	0,076	0,120
-445,095	-200,000	-0,001	0,085
-444,080	-41,066	0,078	0,029
-443,065	148,103	-0,059	-0,059
-442,051	84,501	0,017	-0,014
-441,036	70,190	-0,078	-0,059
-440,022	107,167	-0,035	0,031
-439,007	-13,743	0,082	0,039
-437,992	800,000	-0,027	-0,085
-436,978	-200,000	0,016	-0,063
-435,963	-121,568	0,110	-0,013
-434,949	-200,000	0,031	-0,119
-433,934	-200,000	0,019	-0,093
-432,919	7,744	-0,107	-0,058
-431,905	297,176	0,036	0,049
-430,890	542,590	0,105	0,185
-429,876	-200,000	0,024	0,280
-428,861	-91,016	0,111	0,023
-427,846	-200,000	0,049	0,163
-426,832	-93,135	-0,102	-0,021
-425,817	169,894	0,051	-0,053
-424,803	-200,000	0,008	0,061
-423,788	-200,000	0,000	0,003
-422,773	129,970	0,015	-0,014
-421,759	-200,000	-0,018	-0,083
-420,744	88,477	0,068	-0,055
-419,730	-88,531	-0,113	-0,025
-418,715	248,164	-0,046	0,057
-417,701	91,907	-0,037	0,030
-416,686	-200,000	-0,009	0,039
-415,671	-200,000	0,020	-0,071
-414,657	-20,103	0,066	0,030
-413,642	17,832	-0,055	0,032
-412,628	-105,206	0,156	0,026
-411,613	-200,000	0,002	-0,037
-410,598	355,813	-0,051	-0,074
-409,584	24,823	-0,097	0,059
-408,569	701,785	-0,023	-0,045
-407,555	-200,000	0,007	-0,041
-406,540	39,002	-0,125	0,082
-405,525	800,000	0,051	-0,113
-404,511	-153,213	-0,098	-0,005
-403,496	16,486	-0,151	-0,087
-402,482	-200,000	0,004	-0,081
-401,467	800,000	0,025	0,064
-400,452	-82,783	0,140	-0,033
-399,438	-144,066	-0,162	0,011
-398,423	-200,000	-0,026	-0,122
-397,409	-81,619	0,126	-0,030
-396,394	11,268	-0,073	-0,041
-395,379	-47,347	-0,079	0,028
-394,365	-200,000	0,004	0,044
-393,350	31,763	0,118	0,074
-392,336	-200,000	-0,001	-0,010
-391,321	-10,073	-0,044	0,021
-390,306	-146,600	0,148	-0,009
-389,292	224,222	0,023	-0,027
-388,277	800,000	0,055	-0,169
-387,263	516,243	0,051	0,088
-386,248	-200,000	0,022	0,086
-385,233	186,703	-0,112	0,122
-384,219	133,962	0,018	-0,017
-383,204	438,156	-0,056	0,090
-382,190	-200,000	-0,035	-0,123
-381,175	-160,152	0,086	0,003
-380,160	592,457	0,018	0,034
-379,146	-157,181	0,106	-0,005
-378,131	264,467	-0,021	0,027
-377,117	-189,757	0,053	-0,000
-376,102	119,950	-0,022	0,020
-375,088	36,110	-0,046	-0,030
-374,073	192,331	0,006	0,007
-373,058	137,742	0,080	0,076
-372,044	700,778	0,065	-0,125
-371,029	800,000	-0,062	-0,139
-370,015	413,425	-0,083	0,129
-369,000	-200,000	0,012	0,061
-367,985	-200,000	0,005	0,055
-366,971	-110,623	-0,057	-0,009
-365,956	2,200	0,109	-0,057
-364,942	124,631	-0,046	-0,042
-363,927	158,953	-0,082	0,083
-362,912	-131,157	0,037	0,004
-361,898	-31,167	-0,038	0,015
-360,883	227,638	-0,094	-0,112
-359,869	-5,920	-0,064	-0,032
-358,854	81,936	-0,088	0,070
-357,839	106,235	0,070	0,061
-356,825	27,110	0,103	0,063
-355,810	-200,000	-0,006	0,043
-354,796	800,000	-0,018	-0,055
-353,781	378,327	-0,123	-0,185
-352,766	40,424	0,086	-0,056
-351,752	800,000	-0,010	-0,025
-350,737	20,697	-0,016	-0,009
-349,723	250,556	0,075	0,094
-348,708	42,367	0,118	0,078
-347,693	12,547	-0,066	-0,037
-346,679	411,696	0,012	-0,018
-345,664	-200,000	-0,018	0,064
-344,650	-60,222	-0,023	-0,007
-343,635	226,098	0,068	0,081
-342,620	-200,000	0,039	0,146
-341,606	47,365	-0,099	0,067
-340,591	103,115	-0,026	0,022
-339,577	2,019	-0,048	0,025
-338,562	-200,000	-0,032	-0,111
-337,548	-128,933	-0,077	0,008
-336,533	468,124	0,034	0,055
-335,518	-127,695	0,103	0,011
-334,504	351,401	-0,058	0,084
-333,489	-200,000	-0,012	-0,058
-332,475	-200,000	0,002	0,014
-331,460	24,691	-0,070	0,042
-330,445	-200,000	-0,023	0,109
-329,431	-39,643	0,051	0,019
-328,416	234,678	0,053	0,064
-327,402	-126,637	-0,129	0,014
-326,387	488,841	0,033	-0,056
-325,372	-200,000	-0,002	0,021
-324,358	-95,860	0,041	-0,008
-323,343	641,495	-0,039	0,073
-322,329	5,588	0,075	0,040
-321,314	-11,402	0,104	0,050
-320,299	777,678	0,037	0,073
-319,285	573,653	0,050	-0,090
-318,270	194,070	-0,048	-0,053
-317,256	6,525	-0,057	0,031
-316,241	409,198	0,059	-0,091
-315,226	143,030	-0,051	-0,049
-314,212	-97,309	0,123	-0,023
-313,197	-200,000	-0,029	0,159
-312,183	-200,000	0,003	-0,085
-311,168	52,060	0,082	0,057
-310,153	-0,079	-0,021	-0,011
-309,139	65,699	-0,019	-0,014
-308,124	592,752	-0,031	-0,055
-307,110	-137,017	0,095	0,008
-306,095	-103,332	0,143	0,024
-305,080	-34,293	-0,089	-0,035
-304,066	124,184	-0,058	-0,053
-303,051	100,615	0,019	0,016
-302,037	129,905	-0,116	0,109
-301,022	-200,000	0,005	-0,049
-300,008	-80,548	0,034	0,008
-298,993	-81,032	0,040	-0,010
-297,978	-105,383	0,115	0,019
-296,964	106,857	-0,039	-0,034
-295,949	-200,000	0,001	-0,040
-294,935	-146,925	-0,073	0,004
-293,920	-12,880	-0,038	-0,018
-292,905	-156,247	-0,056	0,003
-291,891	445,045	0,066	-0,107
-290,876	800,000	-0,035	0,101
-289,862	800,000	0,033	0,077
-288,847	422,368	-0,081	0,127
-287,832	417,494	-0,054	-0,084
-286,818	81,245	0,018	-0,014
-285,803	215,650	0,104	-0,121
-284,789	-113,317	-0,106	0,015
-283,774	317,275	0,087	0,121
-282,759	-200,000	0,007	0,061
-281,745	206,221	-0,009	-0,011
-280,730	-73,481	-0,103	-0,027
-279,716	19,877	0,023	0,014
-278,701	800,000	-0,058	-0,130
-277,686	-200,000	-0,013	0,080
-276,672	800,000	0,059	0,143
-275,657	-200,000	0,051	0,168
-274,643	800,000	0,008	-0,023
-273,628	295,024	0,034	0,045
-272,613	-200,000	-0,001	0,041
-271,599	-200,000	-0,013	-0,070
-270,584	-200,000	0,026	0,174
-269,570	11,160	-0,032	-0,018
-268,555	287,088	0,027	-0,035
-267,540	-93,344	0,020	-0,004
-266,526	800,000	-0,047	-0,138
-265,511	-162,386	-0,153	0,005
-264,497	48,150	0,071	0,048
-263,482	47,153	0,068	-0,046
-262,467	-193,235	0,166	-0,001
-261,453	190,675	0,038	0,042
-260,438	-200,000	0,017	-0,193
-259,424	147,221	-0,100	-0,098
-258,409	256,341	-0,062	-0,077
-257,395	-200,000	0,006	-0,039
-256,380	210,969	0,036	0,041
-255,365	800,000	-0,012	0,040
-254,351	703,331	-0,001	0,003
-253,336	-34,913	-0,133	0,053
-252,322	-200,000	0,028	-0,090
-251,307	193,970	0,035	-0,039
-250,292	-200,000	-0,011	0,083
-249,278	217,307	0,123	0,143
-248,263	-200,000	0,003	0,092
-247,249	-112,156	0,034	0,005
-246,234	82,198	-0,122	-0,096
-245,219	473,048	-0,024	-0,040
-244,205	-200,000	-0,019	-0,063
-243,190	122,177	-0,057	-0,051
-242,176	216,942	-0,056	-0,065
-241,161	136,831	0,083	0,079
-240,146	73,809	0,035	-0,026
-239,132	-200,000	0,001	-0,020
-238,117	-200,000	-0,013	-0,100
-237,103	189,703	-0,039	-0,042
-236,088	-114,267	-0,063	0,009
-235,073	-9,536	0,113	-0,055
-234,059	650,661	0,049	0,091
-233,044	-117,713	-0,011	-0,001
-232,030	-72,998	-0,064	0,017
-231,015	782,088	-0,036	-0,073
-230,000	-100,076	0,033	0,006
-228,986	-15,995	0,103	-0,048
-227,971	73,985	0,047	0,036
-226,957	-200,000	0,009	0,143
-225,942	95,524	0,026	0,022
-224,927	276,103	0,044	0,056
-223,913	-200,000	0,019	-0,074
-222,898	38,831	0,060	0,039
-221,884	358,264	-0,077	0,112
-220,869	800,000	-0,051	0,107
-219,855	-200,000	-0,027	0,102
-218,840	483,440	0,045	0,074
-217,825	800,000	-0,020	-0,053
-216,811	-200,000	0,008	-0,062
-215,796	251,085	-0,077	-0,095
-214,782	78,250	-0,022	0,017
-213,767	-111,842	0,052	0,008
-212,752	-200,000	0,010	0,109
-211,738	-200,000	-0,016	0,129
-210,723	-71,602	-0,060	-0,016
-209,709	14,432	0,003	-0,002
-208,694	50,221	0,051	-0,035
-207,679	-191,011	0,139	0,001
-206,665	400,070	-0,037	-0,057
-205,650	-200,000	-0,033	-0,115
-204,636	-169,445	0,141	0,004
-203,621	140,740	-0,138	0,132
-202,606	144,952	0,110	0,107
-201,592	-57,357	-0,104	0,033
-200,577	-3,027	-0,134	-0,067
-199,563	161,281	0,093	0,094
-198,548	240,573	0,081	0,098
-197,533	-99,016	-0,141	-0,026
-196,519	233,697	-0,036	0,043
-195,504	800,000	-0,002	-0,007
-194,490	-200,000	-0,011	-0,045
-193,475	187,122	0,058	-0,063
-192,460	366,213	-0,032	-0,047
-191,446	17,086	0,060	0,034
-190,431	-200,000	-0,026	0,148
-189,417	147,485	-0,035	0,034
-188,402	82,689	-0,029	0,022
-187,387	190,504	-0,073	-0,080
-186,373	800,000	0,024	-0,073
-185,358	-200,000	-0,016	-0,074
-184,344	41,464	-0,116	0,076
-183,329	-32,435	0,063	-0,025
-182,315	171,991	-0,037	-0,039
-181,300	-130,756	-0,101	-0,010
-180,285	-200,000	0,001	0,021
-179,271	302,851	0,012	0,016
-178,256	147,880	-0,021	0,020
-177,242	103,229	0,031	-0,026
-176,227	203,641	-0,047	0,053
-175,212	82,357	0,053	-0,042
-174,198	-101,903	0,053	-0,009
-173,183	-200,000	-0,016	-0,067
-172,169	-99,497	-0,088	0,016
-171,154	800,000	0,030	-0,081
-170,139	800,000	-0,022	0,049
-169,125	125,384	0,147	0,135
-168,110	31,889	-0,042	0,026
-167,096	150,557	0,106	0,105
-166,081	-64,103	0,079	-0,023
-165,066	-176,986	-0,136	0,002
-164,052	-108,042	0,067	0,010
-163,037	563,115	-0,056	0,099
-162,023	-141,377	0,124	-0,009
-161,008	-144,199	0,147	0,010
-159,993	-160,719	-0,029	0,001
-158,979	398,935	0,013	-0,020
-157,964	342,204	0,065	-0,093
-156,950	800,000	0,033	0,075
-155,935	-4,942	0,173	-0,086
-154,920	-200,000	0,011	0,098
-153,906	220,274	0,062	-0,072
-152,891	-140,112	0,261	0,020
-151,877	-63,060	-0,068	0,020
-150,862	155,774	0,054	-0,054
-149,847	800,000	0,042	-0,106
-148,833	800,000	-0,072	-0,172
-147,818	231,328	0,067	-0,080
-146,804	13,310	-0,137	0,077
-145,789	-200,000	-0,004	0,028
-144,775	-179,618	0,081	-0,001
-143,760	-97,059	-0,155	0,029
-142,745	555,574	0,086	-0,150
-141,731	-200,000	0,004	0,045
-140,716	800,000	-0,008	-0,023
-139,702	-44,137	-0,127	0,046
-138,687	25,265	0,162	0,097
-137,672	-102,861	0,009	-0,002
-136,658	30,806	-0,031	0,019
-135,643	-200,000	0,008	0,094
-134,629	-115,855	0,048	-0,006
-133,614	800,000	0,022	-0,064
-132,599	91,621	0,083	0,067
-131,585	-42,254	0,075	-0,028
-130,570	-200,000	-0,011	0,120
-129,556	-200,000	0,002	-0,064
-128,541	39,073	0,038	-0,024
-127,526	178,015	-0,028	0,030
-126,512	328,322	-0,072	0,101
-125,497	573,139	-0,058	0,102
-124,483	326,074	-0,053	-0,073
-123,468	29,540	0,042	0,026
-122,453	106,572	0,051	-0,043
-121,439	-76,911	-0,057	0,014
-120,424	800,000	-0,054	-0,126
-119,410	-200,000	0,019	0,145
