DTS Sentinel unit serial number:	SN410029Multiplexer serial number:	ORYXHardware model number:	OX2-SRSoftware version number:	ORYX F/W v4,00 Oryx Data Collector v3.7.2.0data status	okinstallation	B4 Nyhavnadifferential loss correction	single-endedforward channel	channel 2reverse channel	N/Adate	2023/12/19time	08:25:13forward acquisition time	300,00reverse acquisition time	0,00gamma	499,1914k internal	0,3126k external	0,3126temperature offset calibration	1,0000default loss term (dB/km)	0,3820temperature slope calibration	1,0000multiplexer offset coefficient	1,0000multiplexer slope coefficient	1,0000fibre end	0,00T internal ref (°C)	20,82T ext. ref 1 (°C)	5,69T ext. ref 2 (°C)	5,78length (m)	temperature (°C)	Stokes	anti-Stokes-744,400	800,000	0,037	-0,120
-743,385	2,123	-0,165	0,089
-742,371	800,000	0,072	0,155
-741,356	38,937	-0,190	0,126
-740,342	-71,116	0,022	0,006
-739,327	-43,152	-0,228	0,086
-738,312	-200,000	-0,007	-0,048
-737,298	-43,941	-0,276	0,103
-736,283	484,524	0,030	-0,050
-735,269	-123,486	-0,110	-0,013
-734,254	800,000	0,024	0,070
-733,239	-171,883	-0,471	-0,011
-732,225	-123,263	0,204	0,024
-731,210	-200,000	0,035	0,175
-730,196	-48,812	-0,168	0,060
-729,181	83,853	0,104	0,085
-728,167	99,043	0,050	0,043
-727,152	-121,884	0,056	-0,007
-726,137	-69,505	-0,175	-0,050
-725,123	-59,791	-0,079	-0,025
-724,108	-200,000	-0,029	-0,132
-723,094	41,817	-0,094	-0,063
-722,079	-200,000	-0,011	-0,066
-721,064	-26,240	-0,093	0,041
-720,050	-42,265	-0,053	-0,020
-719,035	63,726	-0,094	-0,070
-718,021	-108,169	-0,068	-0,011
-717,006	-200,000	0,005	-0,072
-715,991	762,713	-0,041	-0,083
-714,977	146,934	0,013	0,013
-713,962	38,161	-0,072	0,048
-712,948	238,993	0,023	-0,029
-711,933	152,217	-0,104	0,106
-710,918	-6,496	-0,009	0,005
-709,904	-89,436	-0,095	-0,021
-708,889	-200,000	0,011	0,070
-707,875	800,000	-0,087	-0,184
-706,860	-27,007	-0,026	0,011
-705,845	295,734	-0,079	-0,109
-704,831	44,722	0,053	0,036
-703,816	101,442	-0,108	-0,094
-702,802	216,168	0,032	0,038
-701,787	-200,000	0,001	-0,011
-700,772	115,715	-0,097	-0,088
-699,758	169,936	-0,083	-0,088
-698,743	342,420	0,049	-0,071
-697,729	-150,911	-0,028	0,002
-696,714	290,611	-0,052	-0,071
-695,699	800,000	-0,075	-0,184
-694,685	-10,286	0,136	-0,067
-693,670	-35,341	-0,131	-0,053
-692,656	119,456	0,074	-0,068
-691,641	-57,451	-0,035	0,011
-690,627	-77,796	0,047	-0,012
-689,612	-165,337	0,078	0,002
-688,597	-113,089	-0,165	0,024
-687,583	127,067	-0,130	-0,122
-686,568	800,000	0,021	0,046
-685,554	-75,169	-0,034	0,009
-684,539	119,294	0,065	-0,060
-683,524	504,389	-0,024	-0,041
-682,510	-200,000	-0,009	0,039
-681,495	-79,579	0,237	-0,059
-680,481	-200,000	0,025	-0,145
-679,466	-200,000	0,028	0,122
-678,451	-200,000	-0,025	-0,109
-677,437	24,922	0,119	-0,073
-676,422	-168,230	0,124	0,003
-675,408	800,000	-0,046	-0,141
-674,393	-122,591	-0,058	-0,007
-673,378	443,496	0,046	-0,075
-672,364	-200,000	0,022	0,082
-671,349	-42,081	-0,157	0,059
-670,335	197,968	0,110	0,125
-669,320	18,651	0,056	0,033
-668,305	-20,537	0,037	0,017
-667,291	-43,475	-0,162	-0,060
-666,276	31,939	0,143	-0,091
-665,262	215,966	0,070	0,083
-664,247	297,029	-0,028	-0,038
-663,232	-200,000	0,003	-0,040
-662,218	137,608	0,037	-0,036
-661,203	-200,000	-0,021	-0,154
-660,189	-58,597	-0,077	-0,025
-659,174	800,000	0,012	0,039
-658,159	161,687	-0,046	-0,048
-657,145	171,602	0,020	0,021
-656,130	-165,243	-0,016	-0,001
-655,116	-133,179	0,060	0,006
-654,101	-111,211	0,187	0,028
-653,086	800,000	0,055	0,137
-652,072	1,426	0,123	0,065
-651,057	-200,000	0,011	-0,101
-650,043	516,977	-0,044	-0,077
-649,028	-161,629	-0,116	0,004
-648,014	36,016	0,095	-0,062
-646,999	-86,568	-0,095	0,021
-645,984	53,193	-0,115	0,081
-644,970	251,083	-0,057	-0,072
-643,955	800,000	0,031	0,093
-642,941	422,663	-0,027	-0,043
-641,926	-63,439	-0,089	-0,027
-640,911	320,993	-0,054	0,077
-639,897	-1,266	0,021	0,011
-638,882	181,773	0,067	-0,074
-637,868	133,153	-0,058	0,056
-636,853	81,231	0,126	-0,101
-635,838	-200,000	0,002	0,115
-634,824	756,037	0,035	-0,070
-633,809	800,000	-0,033	0,069
-632,795	565,566	-0,027	-0,049
-631,780	-137,019	-0,067	-0,006
-630,765	-133,666	0,109	-0,010
-629,751	-133,552	-0,023	-0,002
-628,736	-131,744	0,016	-0,002
-627,722	-200,000	0,014	-0,074
-626,707	800,000	0,072	0,155
-625,692	-79,588	0,122	0,030
-624,678	-43,579	0,067	0,025
-623,663	-18,845	0,082	0,038
-622,649	-41,804	-0,162	-0,061
-621,634	52,085	-0,101	0,071
-620,619	800,000	0,025	-0,079
-619,605	-102,726	-0,134	-0,024
-618,590	-200,000	0,023	0,089
-617,576	-200,000	0,020	0,118
-616,561	-78,847	-0,147	0,037
-615,546	453,427	-0,070	0,116
-614,532	38,951	-0,108	-0,071
-613,517	-200,000	-0,000	0,057
-612,503	-200,000	-0,003	-0,044
-611,488	36,115	0,022	-0,014
-610,474	-200,000	0,007	-0,103
-609,459	156,196	-0,031	0,032
-608,444	-200,000	-0,034	-0,155
-607,430	139,124	-0,030	-0,029
-606,415	70,279	-0,167	-0,128
-605,401	-200,000	-0,008	0,051
-604,386	649,691	0,096	0,183
-603,371	800,000	0,028	-0,079
-602,357	116,289	-0,120	0,109
-601,342	-69,581	-0,016	0,004
-600,328	800,000	-0,041	-0,104
-599,313	-116,832	0,130	-0,017
-598,298	-22,841	0,072	0,032
-597,284	-200,000	-0,002	0,032
-596,269	750,628	-0,039	-0,079
-595,255	-107,078	0,116	0,019
-594,240	-75,300	-0,191	-0,050
-593,225	800,000	-0,040	0,086
-592,211	29,642	0,051	-0,032
-591,196	-200,000	0,021	-0,118
-590,182	194,356	-0,101	0,114
-589,167	50,146	0,070	0,049
-588,152	67,832	-0,061	-0,046
-587,138	-112,744	0,101	0,015
-586,123	-75,634	-0,080	-0,021
-585,109	-200,000	-0,016	-0,140
-584,094	800,000	0,020	-0,052
-583,079	189,391	-0,012	-0,013
-582,065	61,738	0,088	-0,065
-581,050	-200,000	0,002	0,098
-580,036	-9,967	-0,162	-0,079
-579,021	91,042	-0,052	0,043
-578,006	-184,822	-0,112	-0,001
-576,992	800,000	-0,018	0,054
-575,977	41,328	0,074	0,049
-574,963	-200,000	-0,019	0,133
-573,948	-200,000	-0,043	0,151
-572,934	-200,000	0,011	0,090
-571,919	-138,829	-0,081	-0,006
-570,904	216,022	0,106	-0,125
-569,890	800,000	-0,014	0,038
-568,875	3,287	0,071	0,038
-567,861	-186,934	-0,066	0,001
-566,846	-4,979	-0,118	-0,060
-565,831	454,265	-0,095	0,156
-564,817	231,717	-0,023	-0,028
-563,802	-15,368	0,088	0,042
-562,788	51,396	0,023	0,016
-561,773	26,110	0,023	0,014
-560,758	459,260	0,031	-0,051
-559,744	-2,761	0,065	0,033
-558,729	14,465	-0,089	0,051
-557,715	-200,000	0,000	-0,045
-556,700	-106,806	-0,053	-0,009
-555,685	800,000	0,010	0,027
-554,671	152,284	-0,078	-0,079
-553,656	163,674	-0,071	0,074
-552,642	800,000	0,040	0,083
-551,627	64,023	-0,103	-0,076
-550,612	255,636	-0,060	-0,077
-549,598	-169,006	-0,052	-0,001
-548,583	-29,928	-0,113	0,048
-547,569	199,354	-0,094	-0,106
-546,554	-129,206	0,081	0,008
-545,539	73,606	0,074	0,057
-544,525	-200,000	0,026	0,265
-543,510	311,542	0,075	0,105
-542,496	-200,000	0,022	-0,072
-541,481	-50,449	-0,049	0,017
-540,466	57,240	0,063	0,046
-539,452	641,242	-0,030	-0,056
-538,437	4,496	0,058	0,031
-537,423	44,628	-0,029	0,020
-536,408	247,458	0,082	-0,103
-535,393	28,658	-0,026	-0,016
-534,379	60,297	-0,086	-0,063
-533,364	247,720	0,042	-0,052
-532,350	-44,235	0,045	0,017
-531,335	109,630	0,066	-0,058
-530,321	730,587	-0,033	0,066
-529,306	-46,052	-0,059	0,022
-528,291	530,749	-0,016	-0,027
-527,277	800,000	-0,049	-0,155
-526,262	-17,867	-0,068	-0,031
-525,248	247,388	-0,043	-0,053
-524,233	-23,402	-0,062	-0,027
-523,218	-61,543	0,022	-0,007
-522,204	-200,000	0,015	0,127
-521,189	-200,000	0,002	-0,042
-520,175	175,946	-0,065	0,070
-519,160	162,988	-0,014	-0,014
-518,145	226,830	-0,050	0,060
-517,131	800,000	-0,047	-0,102
-516,116	-165,843	-0,134	-0,004
-515,102	116,167	-0,052	0,047
-514,087	51,598	0,052	0,036
-513,072	81,971	0,086	0,069
-512,058	6,945	0,022	0,012
-511,043	59,513	-0,053	-0,038
-510,029	-18,434	0,051	-0,024
-509,014	8,899	0,162	-0,090
-507,999	119,711	0,112	0,102
-506,985	800,000	0,036	0,085
-505,970	105,000	0,050	0,043
-504,956	-200,000	0,001	0,024
-503,941	800,000	-0,035	-0,074
-502,926	-73,469	-0,032	-0,009
-501,912	-200,000	0,006	-0,032
-500,897	-200,000	0,009	-0,085
-499,883	60,687	-0,025	-0,018
-498,868	-93,000	-0,081	0,016
-497,853	259,385	-0,090	-0,115
-496,839	44,386	-0,058	0,039
-495,824	459,812	0,046	-0,076
-494,810	-95,400	-0,104	0,020
-493,795	-155,957	0,008	0,000
-492,781	695,858	-0,032	-0,062
-491,766	204,675	-0,091	-0,104
-490,751	-99,441	-0,089	0,016
-489,737	-75,655	0,264	0,069
-488,722	-0,939	0,124	0,064
-487,708	-83,903	0,096	0,022
-486,693	128,016	0,015	0,014
-485,678	800,000	0,039	-0,083
-484,664	17,421	0,050	0,029
-483,649	800,000	0,035	0,089
-482,635	-37,075	0,052	-0,020
-481,620	108,853	-0,055	0,048
-480,605	-200,000	0,007	0,081
-479,591	800,000	-0,040	-0,101
-478,576	60,835	-0,056	0,041
-477,562	573,140	-0,040	-0,072
-476,547	-74,383	-0,170	-0,045
-475,532	758,564	-0,034	0,069
-474,518	-67,464	-0,093	0,027
-473,503	199,675	0,009	-0,010
-472,489	-44,043	-0,081	-0,030
-471,474	546,432	-0,019	-0,033
-470,459	-200,000	-0,002	0,126
-469,445	691,255	-0,007	0,014
-468,430	213,558	-0,061	-0,071
-467,416	-200,000	-0,013	-0,042
-466,401	-151,772	0,116	0,006
-465,386	-106,254	0,056	0,009
-464,372	-200,000	-0,020	-0,157
-463,357	-24,743	-0,117	0,051
-462,343	186,289	-0,064	0,071
-461,328	800,000	-0,051	0,108
-460,313	303,428	0,029	-0,040
-459,299	18,557	-0,073	-0,043
-458,284	-84,975	0,049	-0,011
-457,270	-200,000	0,009	-0,102
-456,255	240,709	0,094	-0,115
-455,241	-200,000	-0,054	-0,176
-454,226	99,321	-0,054	-0,046
-453,211	266,592	0,063	0,081
-452,197	484,378	-0,047	0,079
-451,182	-200,000	-0,003	-0,107
-450,168	800,000	-0,065	0,139
-449,153	-62,120	-0,103	0,032
-448,138	94,091	0,073	-0,061
-447,124	-104,776	-0,022	0,004
-446,109	278,186	0,018	0,023
-445,095	41,055	-0,087	0,058
-444,080	-81,634	0,146	-0,035
-443,065	800,000	-0,030	0,066
-442,051	-25,913	0,086	0,037
-441,036	-62,231	-0,171	0,052
-440,022	381,634	-0,015	-0,023
-439,007	-200,000	-0,001	0,068
-437,992	-47,128	0,133	0,048
-436,978	-200,000	-0,014	0,154
-435,963	-200,000	-0,016	0,060
-434,949	55,619	0,037	-0,027
-433,934	643,119	-0,044	-0,083
-432,919	300,598	0,068	-0,093
-431,905	10,424	0,045	-0,025
-430,890	196,150	0,037	-0,041
-429,876	301,062	0,070	0,095
-428,861	-200,000	0,004	-0,031
-427,846	692,917	-0,031	0,060
-426,832	63,833	0,134	0,099
-425,817	-76,859	-0,032	0,008
-424,803	-200,000	-0,002	-0,028
-423,788	-140,395	-0,077	-0,006
-422,773	238,585	0,028	0,034
-421,759	-134,950	-0,042	0,004
-420,744	-20,188	0,067	0,030
-419,730	-89,312	0,023	0,005
-418,715	234,328	-0,039	0,047
-417,701	70,730	-0,017	-0,013
-416,686	-90,965	0,091	0,019
-415,671	-200,000	0,050	0,211
-414,657	346,256	-0,044	0,064
-413,642	452,862	0,102	-0,166
-412,628	329,979	0,035	-0,049
-411,613	222,941	-0,098	-0,116
-410,598	108,834	-0,039	-0,034
-409,584	-200,000	-0,000	0,177
-408,569	169,106	0,059	0,062
-407,555	76,879	0,058	-0,045
-406,540	800,000	-0,056	0,126
-405,525	800,000	0,046	-0,107
-404,511	186,940	0,093	0,102
-403,496	3,355	-0,119	-0,063
-402,482	-160,380	0,172	-0,007
-401,467	329,284	0,047	0,067
-400,452	800,000	-0,050	0,130
-399,438	92,947	-0,023	0,019
-398,423	-120,290	0,021	-0,003
-397,409	-52,209	-0,116	0,039
-396,394	-55,506	0,043	-0,014
-395,379	155,090	-0,047	-0,048
-394,365	-200,000	-0,002	-0,148
-393,350	-200,000	0,023	0,115
-392,336	-3,106	-0,040	0,020
-391,321	-171,332	0,121	-0,003
-390,306	800,000	-0,053	-0,139
-389,292	800,000	-0,006	-0,016
-388,277	-89,039	0,045	-0,010
-387,263	-19,494	0,059	-0,027
-386,248	-50,111	0,201	-0,070
-385,233	108,117	-0,116	-0,102
-384,219	-200,000	-0,025	0,087
-383,204	-200,000	0,002	0,082
-382,190	800,000	0,021	-0,051
-381,175	-200,000	-0,007	0,033
-380,160	440,577	0,042	-0,067
-379,146	87,549	0,061	0,050
-378,131	107,182	0,097	0,085
-377,117	-60,749	0,035	0,011
-376,102	800,000	-0,027	-0,086
-375,088	26,459	0,027	-0,017
-374,073	-200,000	-0,003	0,046
-373,058	266,127	0,045	0,058
-372,044	-200,000	-0,003	0,057
-371,029	-28,421	-0,049	0,021
-370,015	6,316	-0,070	-0,038
-369,000	421,060	-0,037	-0,059
-367,985	547,349	0,019	-0,033
-366,971	-200,000	-0,027	-0,098
-365,956	352,435	0,038	0,055
-364,942	757,298	-0,052	0,104
-363,927	766,815	0,045	0,090
-362,912	-200,000	-0,014	0,209
-361,898	48,424	-0,074	0,051
-360,883	229,583	-0,029	0,034
-359,869	575,069	0,062	0,111
-358,854	363,239	-0,020	0,029
-357,839	-8,993	0,045	-0,022
-356,825	9,485	-0,062	0,035
-355,810	243,595	-0,064	-0,078
-354,796	758,066	0,043	0,086
-353,781	11,668	-0,004	0,002
-352,766	72,841	-0,078	-0,059
-351,752	358,443	0,048	-0,070
-350,737	-200,000	-0,015	-0,064
-349,723	44,564	0,080	-0,054
-348,708	293,118	0,061	0,082
-347,693	250,116	0,031	-0,039
-346,679	-200,000	0,005	-0,034
-345,664	-200,000	-0,008	-0,053
-344,650	357,239	0,038	0,055
-343,635	-99,657	-0,102	-0,019
-342,620	-14,146	0,148	-0,070
-341,606	-141,209	0,015	0,001
-340,591	-80,967	0,091	0,022
-339,577	528,549	-0,067	-0,116
-338,562	-175,085	0,076	0,002
-337,548	19,652	-0,060	0,036
-336,533	-200,000	0,042	-0,156
-335,518	800,000	-0,031	0,067
-334,504	-91,934	0,057	-0,012
-333,489	249,907	0,068	-0,085
-332,475	800,000	0,038	-0,088
-331,460	-109,780	0,116	-0,018
-330,445	58,287	-0,097	-0,069
-329,431	609,466	0,019	0,034
-328,416	-200,000	0,009	0,071
-327,402	171,482	0,093	0,097
-326,387	-71,923	0,123	0,033
-325,372	69,634	-0,122	0,092
-324,358	216,419	-0,012	0,014
-323,343	800,000	0,045	-0,114
-322,329	-115,926	0,061	-0,008
-321,314	88,296	0,095	0,077
-320,299	-200,000	0,009	-0,093
-319,285	-47,303	-0,134	-0,047
-318,270	40,501	0,062	-0,041
-317,256	237,682	-0,047	-0,057
-316,241	800,000	0,067	-0,182
-315,226	-137,584	-0,008	-0,001
-314,212	-97,123	0,145	0,028
-313,197	279,465	0,087	-0,113
-312,183	620,649	-0,020	-0,036
-311,168	-128,603	-0,183	0,019
-310,153	275,428	0,009	-0,012
-309,139	128,248	-0,032	-0,030
-308,124	28,701	0,120	-0,074
-307,110	-13,926	0,084	-0,040
-306,095	112,550	0,095	-0,084
-305,080	-118,765	0,023	-0,003
-304,066	-7,236	0,056	0,028
-303,051	-200,000	0,016	0,086
-302,037	-200,000	0,004	-0,139
-301,022	-96,164	0,089	-0,017
-300,008	-31,068	0,113	0,047
-298,993	-106,344	0,153	-0,025
-297,978	115,265	-0,058	0,052
-296,964	-161,644	-0,152	-0,006
-295,949	-200,000	-0,006	0,119
-294,935	527,942	0,017	0,030
-293,920	-130,135	0,171	-0,017
-292,905	67,324	0,024	-0,018
-291,891	-160,682	-0,107	-0,004
-290,876	800,000	-0,030	-0,067
-289,862	106,796	-0,035	0,031
-288,847	220,206	-0,049	-0,057
-287,832	-31,107	0,056	0,023
-286,818	-200,000	0,022	-0,085
-285,803	-200,000	-0,013	-0,080
-284,789	800,000	0,010	0,032
-283,774	44,096	0,083	0,055
-282,759	-200,000	0,021	-0,125
-281,745	-83,674	-0,156	0,036
-280,730	524,560	0,027	-0,046
-279,716	-56,431	0,061	-0,020
-278,701	74,774	-0,063	-0,049
-277,686	-112,059	0,086	-0,013
-276,672	-142,526	-0,055	-0,004
-275,657	-68,002	-0,094	-0,027
-274,643	161,291	-0,102	-0,105
-273,628	486,058	0,037	-0,062
-272,613	-200,000	0,030	-0,097
-271,599	-65,506	0,114	0,033
-270,584	139,158	-0,069	0,066
-269,570	-92,388	0,020	0,004
-268,555	-185,368	0,023	0,000
-267,540	-200,000	-0,002	-0,066
-266,526	800,000	-0,032	-0,077
-265,511	800,000	0,051	0,161
-264,497	800,000	0,021	0,065
-263,482	146,987	-0,047	-0,046
-262,467	-200,000	0,005	-0,065
-261,453	598,728	0,047	0,085
-260,438	-27,601	-0,034	-0,015
-259,424	356,738	0,023	-0,034
-258,409	582,187	-0,055	-0,100
-257,395	800,000	0,034	-0,077
-256,380	-113,181	-0,158	-0,023
-255,365	-17,756	0,023	-0,010
-254,351	-200,000	-0,030	-0,145
-253,336	173,929	-0,071	-0,075
-252,322	514,052	0,034	-0,059
-251,307	-200,000	0,006	0,088
-250,292	-75,761	0,073	-0,019
-249,278	-67,361	0,160	0,046
-248,263	197,482	0,115	0,128
-247,249	-130,086	0,034	-0,003
-246,234	-3,117	0,038	0,019
-245,219	-36,934	-0,068	-0,027
-244,205	-200,000	0,003	0,073
-243,190	161,424	0,034	-0,035
-242,176	222,061	0,064	-0,076
-241,161	74,314	-0,012	-0,009
-240,146	32,136	-0,074	-0,046
-239,132	359,991	0,031	-0,046
-238,117	800,000	-0,033	0,089
-237,103	299,357	0,055	-0,074
-236,088	160,522	-0,082	-0,084
-235,073	47,097	0,130	0,088
-234,059	134,110	0,058	0,055
-233,044	-200,000	0,008	0,147
-232,030	-200,000	-0,001	-0,088
-231,015	-46,903	-0,098	-0,035
-230,000	-70,014	-0,078	-0,021
-228,986	-51,765	-0,144	-0,049
-227,971	91,442	0,050	0,041
-226,957	348,122	-0,029	0,042
-225,942	510,909	-0,045	0,076
-224,927	800,000	-0,029	0,091
-223,913	68,489	-0,027	-0,020
-222,898	32,729	-0,035	-0,022
-221,884	800,000	-0,030	0,088
-220,869	15,662	-0,200	0,115
-219,855	-117,868	0,090	0,012
-218,840	-200,000	0,047	-0,154
-217,825	232,355	-0,033	-0,040
-216,811	-74,308	-0,075	-0,020
-215,796	-18,574	-0,095	0,043
-214,782	108,758	-0,017	-0,015
-213,767	549,713	0,055	0,097
-212,752	115,774	-0,069	0,062
-211,738	-103,178	0,122	0,021
-210,723	800,000	0,017	-0,041
-209,709	800,000	0,027	-0,062
-208,694	-104,985	-0,051	0,008
-207,679	103,467	-0,048	0,041
-206,665	-91,615	0,113	0,023
-205,650	-101,428	-0,123	-0,022
-204,636	-63,641	0,048	0,014
-203,621	-88,354	-0,044	0,010
-202,606	-181,395	-0,148	0,002
-201,592	57,764	-0,080	-0,057
-200,577	59,622	-0,109	0,078
-199,563	-73,886	0,107	0,028
-198,548	-144,602	0,178	0,012
-197,533	-200,000	-0,006	0,065
-196,519	-66,702	0,162	0,046
-195,504	-200,000	-0,005	-0,118
-194,490	71,622	-0,039	-0,030
-193,475	800,000	-0,048	0,105
-192,460	-200,000	-0,007	0,053
-191,446	800,000	0,070	-0,149
-190,431	232,810	0,056	-0,067
-189,417	165,276	-0,108	0,112
-188,402	23,856	0,085	0,051
-187,387	-194,971	0,033	-0,000
-186,373	315,788	0,021	-0,029
-185,358	-200,000	0,007	-0,041
-184,344	800,000	-0,059	-0,157
-183,329	-56,088	0,118	-0,038
-182,315	612,193	-0,013	0,025
-181,300	800,000	0,038	0,085
-180,285	-200,000	-0,027	-0,092
-179,271	-200,000	-0,029	-0,110
-178,256	328,450	-0,048	0,068
-177,242	284,019	0,049	-0,064
-176,227	800,000	0,051	0,116
-175,212	-66,272	0,130	0,037
-174,198	-200,000	0,005	0,110
-173,183	-200,000	0,041	0,000
-172,169	307,372	-0,054	0,073
-171,154	-44,199	-0,078	0,028
-170,139	-116,019	0,163	-0,022
-169,125	76,444	0,082	0,063
-168,110	-64,378	-0,115	0,034
-167,096	116,135	-0,101	0,090
-166,081	-135,765	0,128	-0,011
-165,066	800,000	-0,031	-0,086
-164,052	-140,580	-0,125	-0,009
-163,037	-181,486	0,029	-0,000
-162,023	-27,856	0,028	-0,012
-161,008	107,360	-0,055	-0,048
-159,993	-76,939	-0,026	0,007
-158,979	62,114	-0,125	-0,091
-157,964	800,000	0,050	0,107
-156,950	21,053	0,003	-0,001
-155,935	-146,677	0,190	-0,012
-154,920	582,049	0,086	-0,155
-153,906	-200,000	-0,006	0,184
-152,891	-200,000	0,003	0,016
-151,877	-17,920	-0,098	0,045
-150,862	-200,000	0,024	0,077
-149,847	-200,000	0,000	0,036
-148,833	84,118	0,074	-0,059
-147,818	800,000	0,009	-0,024
-146,804	-103,074	0,081	-0,014
-145,789	65,332	0,063	-0,046
-144,775	258,564	-0,097	-0,122
-143,760	43,894	-0,164	0,109
-142,745	73,564	-0,081	-0,062
-141,731	-158,708	0,034	-0,001
-140,716	337,743	0,021	0,030
-139,702	-200,000	-0,006	0,159
-138,687	800,000	0,063	0,127
-137,672	-200,000	0,032	0,137
-136,658	282,913	-0,032	-0,042
-135,643	-51,906	-0,118	-0,040
-134,629	-200,000	0,014	-0,101
-133,614	-55,193	-0,055	0,018
-132,599	-200,000	-0,020	0,145
-131,585	68,809	0,113	-0,084
-130,570	800,000	-0,009	-0,030
-129,556	354,925	-0,069	0,100
-128,541	-1,779	-0,127	-0,065
-127,526	-200,000	-0,014	0,155
-126,512	89,892	-0,052	0,042
-125,497	72,868	-0,068	0,052
-124,483	363,443	0,093	0,136
-123,468	-1,649	-0,084	0,043
-122,453	24,124	0,166	-0,099
-121,439	112,314	-0,043	0,038
-120,424	-200,000	0,036	-0,127
-119,410	-65,474	0,081	-0,023
-118,395	-200,000	-0,011	0,094
