DTS Sentinel unit serial number:	SN410029Multiplexer serial number:	ORYXHardware model number:	OX2-SRSoftware version number:	ORYX F/W v4,00 Oryx Data Collector v3.7.2.0data status	okinstallation	B4 Nyhavnadifferential loss correction	single-endedforward channel	channel 2reverse channel	N/Adate	2023/12/18time	17:45:13forward acquisition time	300,00reverse acquisition time	0,00gamma	499,1914k internal	0,3125k external	0,3125temperature offset calibration	1,0000default loss term (dB/km)	0,3820temperature slope calibration	1,0000multiplexer offset coefficient	1,0000multiplexer slope coefficient	1,0000fibre end	0,00T internal ref (°C)	21,80T ext. ref 1 (°C)	7,20T ext. ref 2 (°C)	7,25length (m)	temperature (°C)	Stokes	anti-Stokes-744,400	161,028	-0,073	-0,076
-743,385	-62,266	-0,187	0,058
-742,371	-6,465	0,088	-0,044
-741,356	-68,695	-0,260	0,075
-740,342	-200,000	0,004	0,082
-739,327	-3,330	-0,236	0,122
-738,312	-15,300	-0,136	0,064
-737,298	-107,932	-0,257	0,041
-736,283	-152,572	0,087	0,005
-735,269	-132,927	-0,300	-0,028
-734,254	-59,979	-0,071	-0,023
-733,239	-146,662	-0,382	-0,024
-732,225	-88,120	0,043	0,009
-731,210	800,000	0,005	0,015
-730,196	8,580	0,120	-0,067
-729,181	88,910	-0,061	-0,051
-728,167	343,175	-0,059	0,086
-727,152	61,752	-0,043	0,032
-726,137	327,326	-0,079	-0,113
-725,123	191,377	-0,042	-0,047
-724,108	204,790	-0,084	-0,097
-723,094	-200,000	-0,003	-0,077
-722,079	-200,000	-0,044	-0,173
-721,064	-141,842	-0,068	0,005
-720,050	13,552	-0,063	-0,036
-719,035	-200,000	-0,011	0,062
-718,021	800,000	0,021	0,057
-717,006	-7,127	-0,100	0,050
-715,991	-200,000	0,008	-0,063
-714,977	-200,000	0,021	-0,176
-713,962	-200,000	0,018	-0,106
-712,948	-18,288	0,033	-0,015
-711,933	-169,096	0,088	0,002
-710,918	740,700	0,017	0,035
-709,904	356,919	-0,059	0,088
-708,889	202,908	-0,058	0,067
-707,875	165,305	-0,135	-0,143
-706,860	-150,463	-0,066	-0,004
-705,845	288,704	-0,068	0,092
-704,831	482,531	0,067	-0,114
-703,816	-200,000	0,019	-0,086
-702,802	175,188	-0,036	0,039
-701,787	800,000	-0,052	-0,149
-700,772	800,000	-0,080	-0,189
-699,758	651,125	-0,023	-0,045
-698,743	800,000	0,055	0,119
-697,729	380,162	0,032	0,048
-696,714	-200,000	-0,046	0,166
-695,699	800,000	-0,069	0,158
-694,685	20,739	-0,108	0,065
-693,670	-36,179	0,017	-0,007
-692,656	-200,000	-0,013	0,051
-691,641	90,907	-0,076	0,064
-690,627	800,000	0,052	0,111
-689,612	-143,009	-0,068	-0,005
-688,597	-32,491	-0,131	-0,054
-687,583	208,356	-0,070	-0,082
-686,568	92,934	-0,040	-0,034
-685,554	21,874	-0,089	-0,054
-684,539	800,000	0,009	0,023
-683,524	-154,575	-0,082	0,004
-682,510	-40,974	0,030	-0,011
-681,495	-176,002	-0,175	0,003
-680,481	318,999	-0,035	-0,049
-679,466	753,529	0,028	0,057
-678,451	56,176	-0,149	-0,107
-677,437	604,895	0,024	0,044
-676,422	-200,000	0,009	-0,080
-675,408	-200,000	-0,016	0,107
-674,393	39,681	-0,139	0,093
-673,378	-200,000	-0,018	-0,119
-672,364	-142,383	-0,195	-0,014
-671,349	-200,000	0,005	0,079
-670,335	-130,833	-0,093	-0,009
-669,320	158,839	0,038	0,039
-668,305	-12,701	0,158	0,076
-667,291	-38,432	-0,037	-0,015
-666,276	-147,718	-0,193	-0,012
-665,262	147,447	-0,062	-0,062
-664,247	800,000	0,044	-0,111
-663,232	3,188	-0,032	0,017
-662,218	-200,000	-0,022	0,113
-661,203	14,258	0,048	0,028
-660,189	-11,129	-0,112	0,055
-659,174	61,393	-0,109	0,081
-658,159	59,473	-0,066	-0,049
-657,145	800,000	-0,068	-0,157
-656,130	-200,000	-0,000	0,016
-655,116	204,665	-0,072	0,084
-654,101	504,476	0,101	0,175
-653,086	659,672	0,038	0,073
-652,072	-200,000	0,018	0,119
-651,057	-97,861	-0,057	0,011
-650,043	528,590	-0,071	-0,125
-649,028	113,106	0,055	-0,050
-648,014	-200,000	-0,002	0,054
-646,999	-200,000	-0,001	-0,136
-645,984	-31,104	0,030	0,012
-644,970	275,835	-0,045	0,059
-643,955	90,245	0,064	-0,053
-642,941	722,975	-0,042	-0,084
-641,926	800,000	0,011	0,024
-640,911	-66,961	0,181	0,053
-639,897	-200,000	-0,001	0,080
-638,882	165,509	-0,123	0,129
-637,868	-124,626	-0,132	0,015
-636,853	-51,998	-0,084	-0,029
-635,838	-200,000	0,009	-0,097
-634,824	154,422	-0,028	0,028
-633,809	800,000	0,053	0,116
-632,795	13,496	0,061	0,035
-631,780	0,833	-0,089	0,047
-630,765	544,954	0,043	-0,077
-629,751	-200,000	0,021	0,130
-628,736	-91,647	-0,106	-0,022
-627,722	-200,000	-0,011	-0,074
-626,707	800,000	-0,050	0,142
-625,692	-65,141	0,077	0,023
-624,678	800,000	-0,018	0,042
-623,663	-200,000	-0,015	-0,120
-622,649	140,579	-0,099	-0,097
-621,634	-68,039	-0,105	-0,030
-620,619	-50,258	0,173	-0,060
-619,605	260,949	0,026	-0,034
-618,590	197,135	-0,062	-0,071
-617,576	46,973	0,092	0,063
-616,561	182,261	0,109	-0,120
-615,546	-175,408	0,117	-0,002
-614,532	66,632	0,025	-0,019
-613,517	-200,000	-0,001	-0,089
-612,503	-66,590	0,096	-0,028
-611,488	150,696	0,033	-0,034
-610,474	800,000	-0,053	-0,112
-609,459	-200,000	-0,012	0,086
-608,444	800,000	-0,071	0,151
-607,430	-85,310	-0,138	0,032
-606,415	-88,335	-0,068	-0,015
-605,401	-118,487	0,251	-0,033
-604,386	119,994	-0,065	-0,059
-603,371	800,000	0,015	0,034
-602,357	-98,614	-0,132	-0,025
-601,342	-200,000	0,005	0,114
-600,328	49,807	-0,085	-0,060
-599,313	92,728	0,054	-0,045
-598,298	800,000	0,032	-0,093
-597,284	-159,541	-0,124	0,005
-596,269	400,650	0,031	0,049
-595,255	-94,275	-0,069	0,014
-594,240	84,220	-0,069	-0,056
-593,225	800,000	0,049	-0,154
-592,211	-130,605	0,050	-0,005
-591,196	376,559	-0,014	-0,021
-590,182	800,000	0,017	0,046
-589,167	800,000	0,028	0,063
-588,152	160,699	0,097	-0,100
-587,138	-200,000	0,008	-0,027
-586,123	800,000	0,071	-0,150
-585,109	57,987	0,014	0,010
-584,094	53,401	-0,096	-0,068
-583,079	39,843	-0,080	-0,053
-582,065	-200,000	0,000	-0,058
-581,050	800,000	0,048	-0,104
-580,036	-28,625	-0,049	-0,021
-579,021	-200,000	0,010	-0,109
-578,006	-12,366	-0,119	-0,057
-576,992	-200,000	-0,041	-0,186
-575,977	-200,000	-0,017	0,088
-574,963	639,721	0,048	0,092
-573,948	-123,072	-0,117	0,014
-572,934	800,000	0,022	-0,059
-571,919	800,000	-0,026	0,072
-570,904	-11,192	-0,015	0,008
-569,890	-200,000	-0,043	0,147
-568,875	-200,000	-0,023	0,305
-567,861	-200,000	0,042	0,137
-566,846	420,366	-0,037	0,059
-565,831	457,676	0,068	-0,112
-564,817	800,000	-0,030	-0,072
-563,802	800,000	-0,027	0,072
-562,788	-200,000	-0,005	-0,052
-561,773	281,113	-0,056	0,074
-560,758	-186,453	0,037	-0,000
-559,744	-77,996	-0,076	0,019
-558,729	-32,329	-0,076	0,031
-557,715	-90,732	-0,068	-0,014
-556,700	126,847	0,042	-0,040
-555,685	-24,300	0,026	0,011
-554,671	-73,373	-0,077	-0,021
-553,656	85,367	0,072	-0,059
-552,642	800,000	-0,027	-0,066
-551,627	-200,000	-0,007	0,151
-550,612	757,497	0,031	-0,063
-549,598	-200,000	0,018	-0,130
-548,583	-65,031	-0,067	0,020
-547,569	36,495	0,030	0,019
-546,554	-127,842	0,051	-0,005
-545,539	-12,122	-0,090	-0,043
-544,525	-100,417	0,052	0,009
-543,510	-69,662	-0,038	0,011
-542,496	800,000	0,050	-0,151
-541,481	17,054	0,054	0,032
-540,466	252,629	0,106	-0,134
-539,452	227,133	-0,088	-0,106
-538,437	-200,000	0,020	0,115
-537,423	9,532	0,066	0,037
-536,408	-44,883	-0,059	-0,021
-535,393	631,249	0,076	-0,144
-534,379	123,520	-0,106	0,098
-533,364	376,149	0,023	-0,035
-532,350	-77,874	0,135	0,034
-531,335	215,879	-0,037	0,043
-530,321	367,943	-0,082	-0,122
-529,306	-200,000	-0,020	-0,103
-528,291	-102,914	0,071	-0,012
-527,277	313,931	0,032	-0,044
-526,262	-29,202	-0,115	-0,049
-525,248	-56,318	0,201	0,065
-524,233	-200,000	-0,007	0,229
-523,218	-200,000	0,038	0,201
-522,204	122,861	0,081	0,075
-521,189	498,899	-0,060	-0,102
-520,175	-39,929	-0,066	0,025
-519,160	457,083	-0,003	0,005
-518,145	34,074	0,074	-0,048
-517,131	-126,732	0,065	0,007
-516,116	800,000	0,055	0,153
-515,102	-200,000	-0,028	-0,093
-514,087	-200,000	-0,004	-0,071
-513,072	800,000	0,016	-0,048
-512,058	-200,000	-0,020	-0,071
-511,043	-200,000	-0,002	-0,040
-510,029	800,000	0,039	0,085
-509,014	-200,000	-0,029	0,145
-507,999	800,000	-0,023	-0,052
-506,985	125,232	-0,099	-0,093
-505,970	800,000	-0,063	0,133
-504,956	800,000	-0,014	-0,042
-503,941	656,542	0,053	-0,101
-502,926	2,658	-0,091	0,048
-501,912	-41,988	-0,073	-0,027
-500,897	231,668	-0,099	0,120
-499,883	-126,589	-0,187	-0,020
-498,868	800,000	-0,004	0,010
-497,853	300,494	-0,059	-0,081
-496,839	139,644	0,041	0,040
-495,824	73,961	0,135	0,104
-494,810	138,087	0,079	0,076
-493,795	-17,020	0,039	0,018
-492,781	-200,000	0,024	-0,124
-491,766	-157,557	-0,133	-0,006
-490,751	-200,000	0,002	0,043
-489,737	9,993	0,059	-0,033
-488,722	-20,876	0,107	0,048
-487,708	-200,000	0,024	0,165
-486,693	394,065	-0,023	-0,036
-485,678	-200,000	-0,009	0,074
-484,664	-200,000	-0,012	-0,173
-483,649	-73,403	-0,036	-0,010
-482,635	53,533	0,051	-0,036
-481,620	800,000	-0,025	-0,070
-480,605	-14,412	0,086	-0,041
-479,591	-33,522	-0,124	0,050
-478,576	135,783	-0,033	0,032
-477,562	131,407	-0,152	-0,144
-476,547	-200,000	0,022	-0,102
-475,532	-200,000	0,036	-0,154
-474,518	800,000	0,035	0,085
-473,503	-104,404	-0,014	0,002
-472,489	49,750	0,132	-0,091
-471,474	9,406	-0,122	-0,068
-470,459	-61,699	-0,131	-0,040
-469,445	435,613	-0,056	-0,091
-468,430	-200,000	0,020	-0,111
-467,416	784,347	-0,024	-0,049
-466,401	5,902	0,069	-0,037
-465,386	-200,000	0,020	0,078
-464,372	-86,970	-0,043	0,010
-463,357	247,749	-0,047	-0,058
-462,343	-126,515	-0,117	-0,013
-461,328	452,698	-0,067	-0,110
-460,313	-23,591	-0,086	0,038
-459,299	244,067	0,082	0,102
-458,284	-151,764	-0,059	0,003
-457,270	800,000	0,083	0,222
-456,255	-31,359	0,087	0,036
-455,241	800,000	-0,020	-0,042
-454,226	-200,000	-0,002	0,051
-453,211	-56,484	-0,083	0,027
-452,197	-200,000	-0,014	0,074
-451,182	-200,000	0,021	0,137
-450,168	-200,000	-0,026	0,138
-449,153	-138,048	0,113	-0,009
-448,138	-96,657	-0,201	0,039
-447,124	-200,000	0,002	-0,042
-446,109	685,556	0,091	0,175
-445,095	-200,000	0,037	0,177
-444,080	25,193	0,057	0,035
-443,065	348,383	0,049	0,071
-442,051	40,782	-0,030	-0,020
-441,036	161,756	0,025	0,026
-440,022	-74,898	0,126	-0,033
-439,007	-6,457	-0,058	-0,029
-437,992	81,987	0,149	0,119
-436,978	-200,000	-0,007	0,171
-435,963	-200,000	0,027	0,187
-434,949	309,657	0,027	-0,037
-433,934	-200,000	-0,009	-0,126
-432,919	-200,000	0,035	0,137
-431,905	359,581	0,041	0,060
-430,890	800,000	-0,014	0,034
-429,876	163,859	0,062	-0,064
-428,861	-96,443	-0,072	-0,014
-427,846	59,909	0,106	0,077
-426,832	237,898	-0,030	0,037
-425,817	-154,288	0,028	-0,001
-424,803	-6,033	0,040	-0,020
-423,788	590,820	-0,029	-0,052
-422,773	-153,944	0,082	-0,004
-421,759	800,000	0,007	-0,016
-420,744	-200,000	-0,015	0,136
-419,730	774,259	0,081	0,164
-418,715	-116,301	0,045	0,006
-417,701	28,174	0,056	0,035
-416,686	65,117	0,040	-0,030
-415,671	-149,738	-0,169	0,010
-414,657	59,719	-0,039	-0,029
-413,642	-132,144	-0,166	0,016
-412,628	-152,774	0,072	0,004
-411,613	277,632	0,038	0,049
-410,598	-54,413	0,141	-0,047
-409,584	12,730	-0,088	-0,050
-408,569	47,933	0,087	-0,060
-407,555	204,210	-0,024	0,028
-406,540	-109,514	-0,039	0,006
-405,525	32,421	0,119	-0,076
-404,511	800,000	-0,067	-0,145
-403,496	13,061	0,059	-0,034
-402,482	151,768	0,098	-0,099
-401,467	-200,000	0,016	-0,056
-400,452	-200,000	0,054	0,186
-399,438	-12,914	-0,141	-0,067
-398,423	-200,000	-0,003	-0,027
-397,409	-200,000	-0,004	0,104
-396,394	-64,924	0,022	-0,007
-395,379	800,000	-0,000	0,001
-394,365	32,712	0,030	-0,019
-393,350	552,169	-0,030	0,053
-392,336	-118,255	-0,075	0,010
-391,321	-200,000	-0,006	0,064
-390,306	51,892	-0,125	0,087
-389,292	63,368	-0,023	0,017
-388,277	-46,437	0,074	-0,027
-387,263	-86,393	0,089	0,020
-386,248	-200,000	-0,002	0,010
-385,233	120,308	0,015	-0,013
-384,219	-200,000	0,006	-0,134
-383,204	7,689	-0,134	-0,074
-382,190	186,809	-0,045	-0,049
-381,175	29,011	0,053	-0,033
-380,160	181,821	0,048	-0,052
-379,146	27,422	0,113	0,070
-378,131	235,531	0,081	-0,098
-377,117	235,748	0,087	0,106
-376,102	99,325	-0,041	-0,035
-375,088	2,219	-0,095	0,050
-374,073	-200,000	-0,028	-0,196
-373,058	36,246	0,119	0,077
-372,044	223,114	0,067	0,080
-371,029	-200,000	0,005	-0,017
-370,015	69,955	-0,041	-0,031
-369,000	280,613	-0,064	-0,085
-367,985	-200,000	-0,009	-0,061
-366,971	-200,000	0,001	-0,084
-365,956	-182,801	-0,030	-0,000
-364,942	-159,384	0,049	0,002
-363,927	-200,000	0,001	0,010
-362,912	532,389	-0,008	-0,014
-361,898	-135,397	-0,102	-0,009
-360,883	73,996	-0,035	0,027
-359,869	246,111	0,011	-0,013
-358,854	-123,136	0,047	0,005
-357,839	-200,000	0,012	0,103
-356,825	22,554	0,048	-0,029
-355,810	800,000	-0,029	0,089
-354,796	4,482	-0,117	-0,063
-353,781	-9,497	-0,124	0,061
-352,766	351,664	0,022	-0,032
-351,752	304,187	-0,104	0,142
-350,737	44,198	0,116	0,078
-349,723	-200,000	0,008	0,070
-348,708	-200,000	-0,013	-0,132
-347,693	800,000	-0,074	-0,221
-346,679	66,454	-0,102	-0,076
-345,664	-15,072	-0,047	-0,022
-344,650	-31,012	0,209	-0,086
-343,635	-89,657	0,265	-0,057
-342,620	-71,108	0,074	-0,020
-341,606	800,000	0,052	0,114
-340,591	-118,221	0,199	0,026
-339,577	-200,000	0,003	-0,082
-338,562	-16,148	-0,076	-0,036
-337,548	-78,630	0,113	0,028
-336,533	445,951	-0,007	-0,012
-335,518	800,000	0,007	-0,014
-334,504	-152,868	0,064	0,003
-333,489	-34,323	-0,110	-0,044
-332,475	-57,059	-0,033	-0,010
-331,460	47,908	0,095	0,065
-330,445	-200,000	0,017	0,101
-329,431	23,215	0,069	0,042
-328,416	311,162	-0,089	0,123
-327,402	-97,834	-0,082	0,015
-326,387	11,735	-0,037	0,021
-325,372	-154,824	0,112	-0,005
-324,358	-200,000	-0,018	-0,077
-323,343	40,010	0,025	-0,016
-322,329	169,895	0,098	-0,102
-321,314	725,369	0,075	0,146
-320,299	-200,000	0,037	0,147
-319,285	-84,875	-0,059	-0,014
-318,270	382,687	0,097	-0,146
-317,256	800,000	-0,094	-0,211
-316,241	28,952	-0,099	0,061
-315,226	-9,384	0,022	0,011
-314,212	800,000	0,081	0,220
-313,197	-200,000	0,003	0,138
-312,183	-200,000	-0,020	0,112
-311,168	800,000	-0,015	-0,047
-310,153	99,274	-0,027	0,023
-309,139	-124,229	0,057	0,006
-308,124	800,000	0,033	0,077
-307,110	-47,587	0,062	0,022
-306,095	396,599	0,027	0,041
-305,080	-200,000	0,010	0,086
-304,066	-14,152	-0,086	0,041
-303,051	-59,829	-0,137	0,043
-302,037	639,984	0,118	-0,222
-301,022	-5,092	0,118	0,059
-300,008	800,000	-0,022	0,050
-298,993	-53,792	-0,039	-0,013
-297,978	800,000	-0,012	0,031
-296,964	87,867	-0,046	0,037
-295,949	186,349	-0,061	-0,067
-294,935	-75,155	0,085	0,022
-293,920	130,149	0,022	-0,021
-292,905	-44,510	0,083	-0,030
-291,891	-200,000	0,005	-0,178
-290,876	-106,278	-0,118	-0,019
-289,862	638,206	-0,030	-0,057
-288,847	800,000	-0,046	-0,128
-287,832	84,921	0,028	-0,023
-286,818	-200,000	0,002	0,007
-285,803	350,945	0,077	-0,112
-284,789	800,000	-0,055	0,159
-283,774	-54,325	-0,041	0,014
-282,759	100,172	-0,079	-0,067
-281,745	340,837	0,037	-0,053
-280,730	800,000	0,035	-0,095
-279,716	-63,817	0,051	0,015
-278,701	39,162	-0,103	-0,067
-277,686	-1,485	0,116	-0,060
-276,672	29,467	0,135	0,084
-275,657	800,000	-0,054	0,131
-274,643	55,531	0,059	-0,042
-273,628	64,163	0,102	0,075
-272,613	-84,410	-0,123	-0,028
-271,599	800,000	-0,021	0,057
-270,584	65,873	0,080	0,059
-269,570	-65,304	-0,073	0,021
-268,555	34,157	-0,048	-0,030
-267,540	-200,000	0,014	-0,067
-266,526	800,000	0,033	-0,079
-265,511	-96,263	-0,058	-0,011
-264,497	355,579	0,027	-0,039
-263,482	-17,082	0,051	-0,023
-262,467	-123,100	-0,125	0,015
-261,453	-200,000	0,014	0,052
-260,438	-76,143	-0,036	-0,009
-259,424	100,189	-0,039	-0,033
-258,409	800,000	-0,032	-0,093
-257,395	144,813	0,041	0,040
-256,380	-200,000	0,015	0,073
-255,365	106,245	0,057	-0,049
-254,351	-7,208	0,046	0,023
-253,336	180,339	0,040	-0,043
-252,322	1,913	-0,064	-0,033
-251,307	-31,871	0,013	-0,005
-250,292	-17,296	-0,095	0,044
-249,278	409,361	0,050	0,078
-248,263	35,872	0,156	0,100
-247,249	152,591	-0,106	0,105
-246,234	467,724	-0,071	-0,116
-245,219	-200,000	-0,011	-0,045
-244,205	-200,000	-0,026	0,095
-243,190	-200,000	-0,008	-0,062
-242,176	-66,547	0,094	-0,027
-241,161	-65,740	0,068	0,020
-240,146	800,000	0,022	-0,059
-239,132	12,840	-0,041	-0,023
-238,117	412,079	0,072	-0,112
-237,103	141,212	-0,111	0,107
-236,088	12,255	-0,069	-0,039
-235,073	518,098	-0,054	-0,093
-234,059	-200,000	0,021	0,086
-233,044	90,026	0,058	0,047
-232,030	184,557	-0,032	0,034
-231,015	-107,661	-0,118	-0,019
-230,000	99,000	-0,069	-0,058
-228,986	-17,539	-0,082	0,038
-227,971	-130,790	0,039	-0,004
-226,957	-200,000	0,006	-0,042
-225,942	342,426	0,074	0,106
-224,927	-200,000	-0,044	-0,147
-223,913	-200,000	0,030	-0,120
-222,898	-200,000	0,017	0,117
-221,884	-81,192	-0,085	-0,020
-220,869	-88,888	0,002	-0,000
-219,855	-200,000	0,007	0,064
-218,840	-200,000	-0,010	0,079
-217,825	180,013	-0,007	-0,008
-216,811	16,311	-0,057	0,033
-215,796	172,854	-0,078	-0,082
-214,782	-200,000	0,021	-0,085
-213,767	45,794	0,094	0,063
-212,752	153,141	0,060	0,060
-211,738	70,715	-0,114	0,086
-210,723	800,000	0,022	-0,048
-209,709	710,577	-0,038	-0,074
-208,694	-60,564	0,120	0,037
-207,679	-75,875	0,086	0,022
-206,665	-200,000	-0,008	-0,087
-205,650	20,462	0,048	0,028
-204,636	-200,000	0,028	0,112
-203,621	-200,000	-0,026	0,141
-202,606	251,368	0,041	0,051
-201,592	11,355	0,026	-0,015
-200,577	-200,000	-0,023	-0,269
-199,563	-200,000	0,009	0,039
-198,548	-96,714	0,048	0,009
-197,533	-200,000	-0,005	-0,061
-196,519	-91,479	-0,064	0,013
-195,504	-13,034	0,098	-0,046
-194,490	179,568	-0,052	0,055
-193,475	-40,686	-0,143	0,054
-192,460	-200,000	0,003	0,105
-191,446	-200,000	0,014	-0,046
-190,431	800,000	0,045	0,123
-189,417	800,000	-0,011	0,029
-188,402	-200,000	-0,002	0,149
-187,387	145,716	0,046	-0,045
-186,373	214,715	0,060	-0,069
-185,358	-200,000	-0,015	-0,115
-184,344	-200,000	0,006	0,035
-183,329	131,174	0,023	0,022
-182,315	-200,000	0,032	0,130
-181,300	-44,221	0,055	0,020
-180,285	-39,602	-0,046	0,018
-179,271	-167,191	-0,024	-0,001
-178,256	-50,616	-0,040	-0,014
-177,242	-6,136	0,185	0,092
-176,227	800,000	-0,033	0,094
-175,212	-37,377	0,080	-0,031
-174,198	382,861	-0,063	-0,095
-173,183	-200,000	0,000	-0,006
-172,169	335,485	-0,038	-0,053
-171,154	53,316	-0,082	-0,057
-170,139	-200,000	-0,026	-0,089
-169,125	259,746	-0,045	-0,056
-168,110	461,577	0,057	0,093
-167,096	13,230	0,038	0,021
-166,081	-25,620	-0,139	0,059
-165,066	23,989	-0,054	0,033
-164,052	40,760	-0,095	-0,063
-163,037	800,000	0,008	0,018
-162,023	165,792	-0,040	-0,041
-161,008	564,477	0,043	0,077
-159,993	-7,421	-0,162	0,079
-158,979	355,407	0,067	0,098
-157,964	654,936	0,043	-0,081
-156,950	597,171	-0,067	-0,121
-155,935	-200,000	0,025	-0,082
-154,920	509,599	-0,014	-0,025
-153,906	12,661	0,029	0,016
-152,891	-76,997	-0,144	-0,036
-151,877	800,000	0,022	0,046
-150,862	22,957	0,012	-0,007
-149,847	800,000	-0,024	0,063
-148,833	89,015	0,078	0,063
-147,818	-100,290	0,043	0,008
-146,804	283,282	-0,104	0,137
-145,789	233,614	-0,087	0,105
-144,775	-9,646	0,078	0,038
-143,760	417,929	-0,035	-0,054
-142,745	97,682	-0,035	-0,029
-141,731	-109,895	0,064	-0,010
-140,716	80,832	-0,041	-0,032
-139,702	16,582	-0,024	-0,014
-138,687	-200,000	-0,029	0,143
-137,672	-117,924	0,020	0,003
-136,658	64,504	0,050	0,037
-135,643	294,040	0,053	-0,071
-134,629	-15,385	0,103	0,048
-133,614	369,448	0,009	0,013
-132,599	427,757	0,102	0,160
-131,585	-200,000	-0,006	0,064
-130,570	-117,127	-0,165	-0,022
-129,556	423,266	0,026	-0,041
-128,541	-200,000	-0,013	-0,045
-127,526	-200,000	0,013	-0,084
-126,512	221,142	0,033	-0,039
-125,497	-200,000	-0,013	0,083
-124,483	800,000	-0,009	0,028
-123,468	27,978	-0,086	-0,052
-122,453	-26,305	-0,154	-0,065
-121,439	172,232	0,010	0,011
-120,424	-200,000	-0,025	-0,080
-119,410	488,847	0,036	-0,060
-118,395	677,948	-0,049	0,092
