DTS Sentinel unit serial number:	SN410029Multiplexer serial number:	ORYXHardware model number:	OX2-SRSoftware version number:	ORYX F/W v4,00 Oryx Data Collector v3.7.2.0data status	okinstallation	B4 Nyhavnadifferential loss correction	single-endedforward channel	channel 2reverse channel	N/Adate	2023/12/18time	21:50:13forward acquisition time	300,00reverse acquisition time	0,00gamma	499,1914k internal	0,3124k external	0,3124temperature offset calibration	1,0000default loss term (dB/km)	0,3820temperature slope calibration	1,0000multiplexer offset coefficient	1,0000multiplexer slope coefficient	1,0000fibre end	0,00T internal ref (°C)	21,83T ext. ref 1 (°C)	7,24T ext. ref 2 (°C)	7,17length (m)	temperature (°C)	Stokes	anti-Stokes-744,400	-103,044	0,093	-0,016
-743,385	-4,334	-0,204	0,105
-742,371	291,702	0,035	0,048
-741,356	-27,657	-0,211	0,091
-740,342	511,171	0,094	0,163
-739,327	-47,081	-0,238	0,086
-738,312	800,000	-0,011	-0,033
-737,298	-38,160	-0,297	0,117
-736,283	-200,000	0,002	-0,025
-735,269	800,000	-0,081	0,175
-734,254	-200,000	0,008	-0,113
-733,239	-54,261	-0,478	-0,161
-732,225	-156,899	0,149	0,007
-731,210	120,301	0,034	0,032
-730,196	-109,439	0,111	-0,017
-729,181	12,916	-0,149	0,086
-728,167	-139,219	0,076	0,006
-727,152	161,410	-0,042	-0,044
-726,137	-200,000	-0,004	-0,067
-725,123	-200,000	-0,001	0,032
-724,108	-200,000	0,014	0,049
-723,094	310,473	0,031	-0,043
-722,079	35,042	-0,093	-0,060
-721,064	-200,000	0,010	-0,104
-720,050	-56,169	-0,088	-0,029
-719,035	800,000	0,054	0,121
-718,021	-159,003	-0,036	0,001
-717,006	-111,650	-0,062	-0,009
-715,991	-50,452	0,020	-0,007
-714,977	-65,691	0,016	0,005
-713,962	-200,000	-0,009	-0,034
-712,948	598,330	-0,081	0,150
-711,933	800,000	-0,044	0,096
-710,918	-200,000	-0,023	0,083
-709,904	401,144	-0,050	0,079
-708,889	-1,594	-0,046	0,024
-707,875	-145,722	-0,137	0,009
-706,860	-200,000	-0,042	-0,000
-705,845	-46,505	-0,114	0,041
-704,831	-80,868	0,039	0,009
-703,816	800,000	-0,035	-0,086
-702,802	61,238	-0,113	-0,083
-701,787	38,821	-0,049	-0,033
-700,772	-13,915	-0,103	-0,049
-699,758	-200,000	-0,015	-0,057
-698,743	77,681	0,031	-0,025
-697,729	-20,303	-0,022	0,010
-696,714	-98,338	-0,093	-0,018
-695,699	430,576	0,027	-0,043
-694,685	-88,312	0,067	-0,015
-693,670	-55,455	-0,093	-0,031
-692,656	170,935	0,045	0,048
-691,641	283,055	0,010	-0,013
-690,627	256,991	0,047	-0,060
-689,612	177,722	-0,047	-0,051
-688,597	96,573	-0,093	-0,079
-687,583	-49,016	-0,078	0,028
-686,568	-164,807	0,079	0,003
-685,554	-200,000	-0,006	0,050
-684,539	-96,233	0,123	0,024
-683,524	800,000	0,051	0,125
-682,510	548,979	-0,048	0,086
-681,495	-200,000	-0,022	0,185
-680,481	-10,268	-0,093	0,046
-679,466	-200,000	-0,017	-0,065
-678,451	-200,000	0,004	-0,144
-677,437	-99,165	-0,067	0,012
-676,422	-200,000	0,027	-0,136
-675,408	-31,165	0,095	-0,040
-674,393	177,101	0,030	0,033
-673,378	126,622	-0,137	-0,129
-672,364	781,127	0,034	-0,069
-671,349	-200,000	-0,004	-0,060
-670,335	-49,060	0,130	-0,046
-669,320	-200,000	0,034	0,121
-668,305	44,996	-0,128	0,087
-667,291	203,720	-0,115	0,132
-666,276	-200,000	0,014	-0,087
-665,262	-141,787	-0,050	0,004
-664,247	415,488	-0,048	0,077
-663,232	554,356	0,056	-0,101
-662,218	800,000	0,056	0,117
-661,203	81,700	-0,051	0,041
-660,189	759,783	-0,035	-0,070
-659,174	298,186	0,084	0,115
-658,159	272,547	0,086	-0,113
-657,145	-200,000	-0,008	-0,129
-656,130	-177,308	0,047	0,001
-655,116	371,245	-0,081	0,122
-654,101	513,850	-0,084	0,146
-653,086	103,593	-0,096	0,084
-652,072	341,852	0,046	0,067
-651,057	800,000	-0,008	-0,020
-650,043	-98,014	0,138	0,026
-649,028	84,742	-0,087	0,070
-648,014	-200,000	0,004	-0,101
-646,999	410,978	-0,085	0,134
-645,984	442,427	0,024	0,040
-644,970	84,858	-0,057	0,046
-643,955	-73,483	-0,138	-0,037
-642,941	798,063	-0,045	-0,093
-641,926	-9,461	0,071	-0,035
-640,911	393,763	0,059	-0,091
-639,897	-21,831	-0,102	0,046
-638,882	269,724	-0,079	-0,103
-637,868	-9,987	-0,027	-0,013
-636,853	-200,000	0,002	-0,059
-635,838	538,802	0,010	0,017
-634,824	-200,000	0,042	-0,141
-633,809	491,696	-0,040	-0,068
-632,795	800,000	-0,047	0,115
-631,780	-0,021	-0,114	0,060
-630,765	-200,000	0,000	0,179
-629,751	193,264	-0,063	0,071
-628,736	661,862	-0,070	-0,134
-627,722	-200,000	-0,029	0,137
-626,707	-200,000	-0,006	-0,118
-625,692	737,535	0,045	0,091
-624,678	491,750	0,084	0,143
-623,663	-200,000	0,030	-0,104
-622,649	256,817	-0,062	0,079
-621,634	-66,750	0,178	-0,052
-620,619	605,344	-0,052	-0,096
-619,605	-200,000	-0,005	0,132
-618,590	22,890	0,081	-0,049
-617,576	249,894	0,008	0,010
-616,561	-30,679	0,102	-0,043
-615,546	800,000	0,040	-0,090
-614,532	-138,161	-0,093	0,008
-613,517	800,000	-0,009	-0,027
-612,503	123,949	0,137	0,128
-611,488	800,000	0,011	0,034
-610,474	94,281	0,023	-0,019
-609,459	492,364	0,029	0,050
-608,444	21,464	-0,134	-0,081
-607,430	800,000	-0,071	-0,196
-606,415	265,466	0,008	-0,011
-605,401	-62,318	-0,050	0,015
-604,386	14,744	0,031	0,018
-603,371	-200,000	-0,017	0,112
-602,357	800,000	0,022	0,058
-601,342	-86,517	-0,138	-0,031
-600,328	800,000	-0,048	-0,111
-599,313	-200,000	-0,146	0,000
-598,298	-200,000	-0,010	-0,045
-597,284	31,541	0,082	0,052
-596,269	97,462	0,057	-0,048
-595,255	800,000	-0,029	0,093
-594,240	-108,164	0,117	-0,019
-593,225	-200,000	-0,002	0,008
-592,211	-43,649	-0,155	-0,057
-591,196	800,000	0,050	-0,127
-590,182	-200,000	0,025	0,131
-589,167	-124,439	0,144	-0,016
-588,152	-32,598	-0,079	-0,032
-587,138	452,822	0,066	-0,109
-586,123	-200,000	-0,006	-0,132
-585,109	200,160	-0,066	-0,075
-584,094	800,000	0,036	-0,117
-583,079	-44,299	0,109	-0,040
-582,065	-112,873	0,030	0,004
-581,050	358,182	-0,030	0,044
-580,036	-11,000	0,026	-0,013
-579,021	800,000	0,015	-0,044
-578,006	-200,000	-0,000	-0,117
-576,992	-200,000	0,008	-0,047
-575,977	169,753	0,042	0,044
-574,963	252,620	-0,025	0,031
-573,948	-109,805	-0,132	0,020
-572,934	90,131	-0,158	0,131
-571,919	50,287	0,061	0,043
-570,904	-13,306	-0,080	0,038
-569,890	36,927	0,087	-0,057
-568,875	80,859	0,112	-0,089
-567,861	800,000	-0,049	0,117
-566,846	-200,000	0,014	0,112
-565,831	371,447	-0,083	0,125
-564,817	-46,080	-0,173	-0,063
-563,802	177,996	-0,062	0,067
-562,788	-151,369	-0,022	-0,001
-561,773	800,000	-0,010	-0,030
-560,758	99,313	0,059	0,050
-559,744	-200,000	0,012	-0,059
-558,729	-99,561	0,071	0,013
-557,715	-12,235	0,028	0,014
-556,700	-32,421	-0,050	-0,021
-555,685	-87,150	-0,101	0,022
-554,671	-161,993	0,118	0,004
-553,656	123,688	-0,052	0,048
-552,642	-49,741	0,154	0,054
-551,627	112,551	-0,066	0,059
-550,612	-200,000	-0,007	-0,079
-549,598	575,381	-0,076	-0,138
-548,583	-200,000	-0,006	-0,139
-547,569	-61,208	0,066	-0,020
-546,554	47,248	0,088	-0,060
-545,539	24,332	-0,076	-0,047
-544,525	-200,000	0,003	0,020
-543,510	-200,000	-0,008	-0,032
-542,496	-93,691	-0,100	-0,020
-541,481	693,762	0,036	-0,071
-540,466	509,207	0,073	-0,126
-539,452	280,870	0,022	-0,030
-538,437	-120,215	0,050	0,006
-537,423	-199,512	-0,065	-0,000
-536,408	215,377	0,066	-0,077
-535,393	120,731	-0,053	0,048
-534,379	105,956	-0,087	0,077
-533,364	-200,000	-0,008	0,085
-532,350	46,261	-0,018	-0,012
-531,335	-200,000	0,009	0,063
-530,321	558,158	0,058	0,105
-529,306	-96,022	0,218	0,043
-528,291	800,000	-0,041	-0,104
-527,277	17,490	-0,076	-0,045
-526,262	800,000	-0,053	-0,134
-525,248	800,000	-0,036	-0,075
-524,233	-88,699	-0,088	0,019
-523,218	262,798	0,056	0,072
-522,204	12,791	-0,077	-0,044
-521,189	50,849	0,024	-0,016
-520,175	-121,048	0,052	-0,006
-519,160	-200,000	-0,003	0,051
-518,145	-200,000	0,020	0,074
-517,131	37,876	0,038	-0,025
-516,116	800,000	0,033	0,075
-515,102	-51,484	-0,052	0,018
-514,087	-141,156	-0,034	-0,002
-513,072	-200,000	-0,015	0,156
-512,058	337,402	-0,053	0,077
-511,043	89,522	-0,060	-0,050
-510,029	800,000	-0,061	-0,178
-509,014	800,000	-0,018	0,046
-507,999	39,426	0,062	-0,041
-506,985	-200,000	-0,016	-0,064
-505,970	-200,000	0,002	0,034
-504,956	366,463	-0,071	-0,106
-503,941	80,818	-0,046	0,036
-502,926	1,671	0,060	-0,032
-501,912	-125,660	0,067	-0,007
-500,897	-44,303	-0,062	0,023
-499,883	-200,000	0,001	0,222
-498,868	-200,000	0,000	-0,030
-497,853	-200,000	0,004	-0,021
-496,839	-85,473	0,053	-0,012
-495,824	-156,989	0,166	-0,007
-494,810	218,358	-0,045	0,053
-493,795	-53,933	-0,124	0,041
-492,781	664,523	0,075	-0,144
-491,766	393,658	-0,075	0,116
-490,751	500,317	0,016	0,027
-489,737	68,852	0,083	0,063
-488,722	367,188	0,009	-0,014
-487,708	-91,794	0,117	-0,024
-486,693	800,000	0,070	0,174
-485,678	593,942	-0,033	0,060
-484,664	-50,660	0,131	0,045
-483,649	-133,256	-0,154	-0,014
-482,635	-115,515	0,150	-0,021
-481,620	-121,417	0,140	0,017
-480,605	-115,604	0,148	-0,020
-479,591	49,727	-0,117	0,081
-478,576	-39,102	0,068	-0,026
-477,562	800,000	0,029	0,059
-476,547	-22,010	0,088	-0,039
-475,532	248,831	-0,051	-0,064
-474,518	-42,406	0,160	-0,060
-473,503	156,323	-0,040	-0,041
-472,489	-135,102	-0,224	0,020
-471,474	800,000	-0,034	-0,083
-470,459	-10,836	0,102	0,049
-469,445	-44,586	0,067	0,025
-468,430	0,852	0,089	-0,047
-467,416	-200,000	0,001	-0,069
-466,401	456,033	-0,048	0,079
-465,386	-4,561	-0,046	0,023
-464,372	-125,537	-0,056	0,006
-463,357	-200,000	-0,013	-0,100
-462,343	-200,000	0,024	-0,099
-461,328	22,907	-0,062	0,037
-460,313	-121,021	0,088	0,011
-459,299	-155,564	0,139	0,006
-458,284	800,000	-0,035	-0,114
-457,270	398,384	-0,053	-0,081
-456,255	-177,462	-0,084	0,001
-455,241	-109,312	-0,056	-0,009
-454,226	-200,000	-0,007	-0,075
-453,211	171,001	-0,047	-0,049
-452,197	-200,000	0,010	0,034
-451,182	800,000	0,070	0,176
-450,168	-126,814	-0,106	-0,011
-449,153	-161,266	-0,064	-0,002
-448,138	77,409	-0,057	-0,045
-447,124	-24,902	-0,138	-0,060
-446,109	338,394	0,051	0,074
-445,095	-58,870	-0,010	0,003
-444,080	800,000	0,054	0,122
-443,065	-137,946	-0,070	0,006
-442,051	-200,000	-0,010	-0,052
-441,036	-200,000	-0,010	-0,124
-440,022	-118,072	0,144	-0,019
-439,007	800,000	0,070	-0,167
-437,992	295,775	0,045	-0,060
-436,978	13,747	0,079	0,045
-435,963	366,254	0,061	0,091
-434,949	-200,000	0,008	0,038
-433,934	-200,000	0,019	-0,160
-432,919	215,042	-0,049	-0,057
-431,905	-97,011	-0,131	-0,025
-430,890	32,163	0,049	0,031
-429,876	-97,337	-0,048	-0,009
-428,861	2,368	-0,123	0,065
-427,846	16,253	0,060	0,035
-426,832	150,655	-0,064	0,064
-425,817	241,174	-0,001	0,001
-424,803	-200,000	0,000	-0,055
-423,788	-200,000	0,002	0,010
-422,773	-200,000	-0,003	-0,012
-421,759	800,000	-0,052	0,164
-420,744	-200,000	-0,036	0,140
-419,730	800,000	0,007	-0,020
-418,715	545,439	-0,084	-0,148
-417,701	800,000	0,028	0,067
-416,686	-200,000	0,005	0,020
-415,671	374,989	-0,026	-0,039
-414,657	-200,000	0,003	0,184
-413,642	391,384	-0,020	0,030
-412,628	-200,000	-0,012	-0,052
-411,613	82,961	-0,033	-0,027
-410,598	800,000	-0,014	0,033
-409,584	191,482	0,073	0,081
-408,569	659,104	0,018	0,034
-407,555	740,585	-0,047	0,094
-406,540	-65,019	0,065	-0,019
-405,525	397,466	0,091	-0,140
-404,511	-78,447	-0,061	-0,015
-403,496	-39,874	0,073	-0,028
-402,482	416,339	-0,023	0,036
-401,467	-8,055	0,038	0,019
-400,452	104,985	0,055	0,048
-399,438	-200,000	0,005	-0,061
-398,423	-81,523	-0,128	-0,031
-397,409	-34,614	0,057	0,023
-396,394	-200,000	0,003	-0,039
-395,379	-71,773	-0,174	0,047
-394,365	83,589	0,036	0,029
-393,350	-26,012	0,060	-0,026
-392,336	187,419	-0,073	0,080
-391,321	18,843	-0,032	0,019
-390,306	342,383	-0,034	0,049
-389,292	-64,943	-0,075	0,022
-388,277	190,877	-0,005	0,005
-387,263	-76,800	-0,101	0,026
-386,248	207,870	-0,055	-0,064
-385,233	59,672	0,091	-0,066
-384,219	55,863	0,043	-0,031
-383,204	426,365	-0,064	-0,102
-382,190	71,848	-0,061	-0,047
-381,175	760,947	0,029	-0,059
-380,160	-200,000	-0,001	-0,067
-379,146	13,743	-0,024	-0,014
-378,131	-9,812	0,008	0,004
-377,117	-49,678	0,076	-0,026
-376,102	222,521	0,035	-0,041
-375,088	437,482	-0,049	-0,079
-374,073	154,103	-0,058	0,059
-373,058	334,763	0,016	0,023
-372,044	-200,000	0,016	0,125
-371,029	-127,207	-0,022	-0,002
-370,015	-3,194	-0,012	0,006
-369,000	-71,090	-0,136	-0,037
-367,985	-108,340	0,139	-0,022
-366,971	469,758	-0,074	0,122
-365,956	64,776	-0,120	0,089
-364,942	55,123	0,143	0,101
-363,927	570,849	0,075	0,135
-362,912	-122,559	-0,095	-0,011
-361,898	150,465	0,026	-0,026
-360,883	-200,000	0,010	-0,060
-359,869	-97,021	0,027	-0,005
-358,854	90,622	-0,090	0,074
-357,839	69,404	0,036	-0,027
-356,825	246,762	0,006	-0,008
-355,810	-0,766	-0,061	-0,032
-354,796	800,000	-0,033	0,074
-353,781	136,737	-0,082	-0,079
-352,766	58,898	-0,057	-0,041
-351,752	55,840	0,169	-0,120
-350,737	14,592	0,057	0,033
-349,723	56,443	0,121	0,086
-348,708	413,162	0,031	0,049
-347,693	70,168	0,075	0,057
-346,679	472,790	0,067	0,112
-345,664	-74,501	-0,205	0,054
-344,650	38,333	-0,061	0,040
-343,635	-63,675	0,168	-0,050
-342,620	-13,809	0,192	0,091
-341,606	-200,000	0,004	-0,142
-340,591	481,075	-0,038	-0,064
-339,577	43,936	0,077	0,052
-338,562	17,444	0,096	-0,056
-337,548	-200,000	0,013	-0,057
-336,533	-154,933	-0,014	-0,001
-335,518	-191,117	0,046	-0,000
-334,504	185,118	0,072	-0,078
-333,489	249,481	0,066	-0,082
-332,475	800,000	-0,036	-0,109
-331,460	269,753	0,054	-0,070
-330,445	800,000	-0,041	-0,106
-329,431	102,790	0,072	-0,062
-328,416	-23,141	0,093	0,041
-327,402	-200,000	0,011	0,070
-326,387	-200,000	0,001	0,072
-325,372	-67,617	0,010	0,003
-324,358	-200,000	-0,016	0,062
-323,343	-4,823	-0,049	0,025
-322,329	-137,045	-0,146	0,012
-321,314	-53,761	0,053	0,018
-320,299	122,148	0,078	0,071
-319,285	301,105	-0,037	-0,050
-318,270	800,000	0,025	-0,062
-317,256	800,000	-0,037	-0,109
-316,241	249,263	-0,085	0,106
-315,226	27,166	-0,014	0,009
-314,212	56,180	-0,071	-0,051
-313,197	179,196	0,092	0,098
-312,183	598,955	0,072	0,132
-311,168	-200,000	-0,010	-0,099
-310,153	800,000	0,041	-0,088
-309,139	-200,000	0,012	-0,076
-308,124	-200,000	0,003	0,025
-307,110	800,000	0,017	-0,052
-306,095	-85,482	0,060	-0,014
-305,080	52,554	-0,086	-0,060
-304,066	-200,000	-0,014	0,154
-303,051	332,719	-0,037	-0,052
-302,037	5,615	-0,104	0,056
-301,022	369,111	-0,079	0,117
-300,008	214,866	-0,060	0,070
-298,993	-200,000	-0,007	0,082
-297,978	-34,196	0,128	0,051
-296,964	-200,000	0,007	0,033
-295,949	496,921	-0,078	-0,131
-294,935	39,164	0,130	-0,085
-293,920	77,179	-0,068	-0,053
-292,905	-127,588	-0,026	0,003
-291,891	-107,262	0,128	0,020
-290,876	-38,185	-0,032	0,012
-289,862	-119,876	-0,135	0,017
-288,847	-33,241	0,099	-0,040
-287,832	398,471	-0,049	0,076
-286,818	-200,000	0,010	-0,072
-285,803	800,000	-0,015	0,034
-284,789	-149,840	0,084	0,005
-283,774	160,746	-0,069	0,070
-282,759	-77,367	0,065	-0,016
-281,745	460,096	0,098	-0,160
-280,730	800,000	-0,038	-0,094
-279,716	-200,000	0,000	-0,002
-278,701	800,000	0,089	-0,184
-277,686	538,178	-0,064	0,112
-276,672	18,594	0,170	-0,099
-275,657	-117,133	-0,100	0,013
-274,643	4,845	-0,069	0,037
-273,628	245,276	-0,028	0,034
-272,613	-200,000	-0,023	0,078
-271,599	-100,702	0,070	-0,012
-270,584	-35,371	0,119	0,047
-269,570	-200,000	-0,013	0,052
-268,555	-54,961	0,093	-0,030
-267,540	-200,000	-0,003	-0,012
-266,526	-200,000	0,002	0,016
-265,511	-70,289	-0,114	-0,031
-264,497	491,007	0,024	0,041
-263,482	112,581	0,036	0,032
-262,467	800,000	-0,024	0,063
-261,453	654,457	-0,049	0,092
-260,438	103,057	-0,035	0,030
-259,424	-119,677	-0,150	-0,019
-258,409	-200,000	0,001	-0,086
-257,395	-200,000	-0,010	-0,065
-256,380	12,512	-0,009	-0,005
-255,365	52,568	-0,042	0,029
-254,351	308,399	0,061	-0,084
-253,336	465,303	0,080	0,132
-252,322	492,119	-0,068	-0,114
-251,307	-41,160	-0,011	-0,004
-250,292	149,928	-0,087	0,086
-249,278	800,000	0,015	-0,044
-248,263	91,882	-0,140	0,115
-247,249	1,110	0,169	0,089
-246,234	642,768	-0,008	-0,015
-245,219	-88,350	-0,044	0,009
-244,205	470,610	-0,030	0,049
-243,190	-68,535	0,125	0,035
-242,176	-200,000	0,019	0,079
-241,161	133,197	0,039	0,037
-240,146	285,013	-0,035	0,047
-239,132	26,296	0,037	-0,022
-238,117	-200,000	0,008	-0,041
-237,103	-200,000	0,027	-0,106
-236,088	90,382	0,083	0,067
-235,073	418,200	0,051	-0,079
-234,059	800,000	-0,054	0,123
-233,044	-103,686	-0,070	-0,012
-232,030	-159,358	-0,170	-0,007
-231,015	615,768	0,118	0,216
-230,000	-200,000	-0,011	0,082
-228,986	-200,000	0,003	-0,112
-227,971	41,590	0,117	0,077
-226,957	800,000	-0,053	0,150
-225,942	800,000	-0,011	0,025
-224,927	247,584	-0,068	-0,084
-223,913	619,033	-0,026	-0,049
-222,898	-200,000	0,018	-0,070
-221,884	-24,018	-0,067	-0,029
-220,869	422,768	-0,081	-0,128
-219,855	-200,000	0,001	0,093
-218,840	5,054	0,105	0,056
-217,825	-200,000	-0,046	-0,185
-216,811	-189,922	-0,044	-0,000
-215,796	19,207	-0,061	0,036
-214,782	-173,081	0,078	0,002
-213,767	-200,000	0,038	0,139
-212,752	306,800	0,093	0,126
-211,738	-200,000	-0,002	-0,168
-210,723	800,000	-0,049	-0,115
-209,709	-181,758	-0,064	-0,001
-208,694	-92,908	-0,117	-0,024
-207,679	800,000	0,038	-0,091
-206,665	-12,509	0,080	-0,038
-205,650	800,000	0,015	-0,034
-204,636	100,044	-0,097	0,082
-203,621	-200,000	0,005	-0,072
-202,606	-136,691	-0,162	0,013
-201,592	800,000	0,053	0,111
-200,577	655,783	0,009	0,017
-199,563	-200,000	0,016	-0,070
-198,548	-200,000	-0,005	0,182
-197,533	150,404	0,084	0,083
-196,519	-33,778	0,108	0,043
-195,504	208,147	-0,090	0,102
-194,490	-200,000	0,005	-0,170
-193,475	51,323	0,077	-0,053
-192,460	-26,790	-0,039	0,017
-191,446	-114,349	0,077	-0,011
-190,431	-157,719	0,003	-0,000
-189,417	-200,000	-0,023	0,142
-188,402	-200,000	-0,013	-0,061
-187,387	-200,000	0,030	-0,112
-186,373	99,723	0,087	-0,073
-185,358	-200,000	-0,007	0,082
-184,344	800,000	0,009	-0,020
-183,329	-200,000	0,046	0,221
-182,315	483,831	0,047	-0,079
-181,300	-72,300	0,065	-0,018
-180,285	800,000	0,011	0,026
-179,271	8,148	-0,044	0,024
-178,256	-200,000	0,021	-0,090
-177,242	41,583	-0,043	-0,029
-176,227	-93,832	0,099	0,020
-175,212	-171,323	0,099	0,002
-174,198	-8,765	-0,061	0,030
-173,183	89,464	-0,020	-0,016
-172,169	165,091	0,028	0,029
-171,154	168,954	-0,028	0,029
-170,139	784,247	0,033	0,067
-169,125	800,000	-0,032	-0,075
-168,110	-90,487	0,120	-0,025
-167,096	-200,000	-0,002	0,089
-166,081	772,669	0,052	0,105
-165,066	800,000	0,031	-0,091
-164,052	-200,000	-0,018	-0,081
-163,037	272,393	0,029	-0,037
-162,023	275,555	0,036	-0,047
-161,008	-21,437	0,138	0,061
-159,993	201,939	-0,107	-0,121
-158,979	-200,000	0,017	0,101
-157,964	64,596	-0,139	-0,102
-156,950	-34,825	-0,102	-0,041
-155,935	800,000	0,040	-0,083
-154,920	-200,000	-0,018	0,075
-153,906	-200,000	0,013	0,122
-152,891	320,016	-0,023	0,032
-151,877	800,000	-0,044	-0,106
-150,862	608,053	-0,027	-0,050
-149,847	297,214	-0,014	0,019
-148,833	-200,000	-0,008	-0,101
-147,818	-155,790	0,105	-0,005
-146,804	468,966	0,036	0,058
-145,789	112,135	-0,031	-0,028
-144,775	-200,000	0,011	-0,098
-143,760	-200,000	0,008	0,039
-142,745	-28,840	-0,022	-0,009
-141,731	743,651	-0,047	-0,092
-140,716	-200,000	0,015	0,210
-139,702	157,466	0,064	0,065
-138,687	-31,963	0,059	-0,024
-137,672	-125,707	0,097	-0,011
-136,658	121,772	-0,082	-0,075
-135,643	-200,000	-0,017	-0,136
-134,629	-153,786	-0,114	0,006
-133,614	800,000	-0,015	0,038
-132,599	736,058	0,073	0,143
-131,585	-200,000	-0,011	-0,037
-130,570	7,998	0,068	-0,037
-129,556	7,251	0,017	0,009
-128,541	749,911	-0,076	-0,150
-127,526	-36,989	-0,076	-0,030
-126,512	37,077	-0,012	-0,008
-125,497	12,635	0,048	-0,027
-124,483	246,147	-0,041	0,051
-123,468	736,752	-0,069	-0,136
-122,453	236,872	-0,077	-0,092
-121,439	-200,000	0,004	-0,022
-120,424	155,053	0,052	-0,052
-119,410	-42,751	0,115	-0,042
