DTS Sentinel unit serial number:	SN410029Multiplexer serial number:	ORYXHardware model number:	OX2-SRSoftware version number:	ORYX F/W v4,00 Oryx Data Collector v3.7.2.0data status	okinstallation	B4 Nyhavnadifferential loss correction	single-endedforward channel	channel 2reverse channel	N/Adate	2023/12/19time	09:55:13forward acquisition time	300,00reverse acquisition time	0,00gamma	499,1914k internal	0,3128k external	0,3128temperature offset calibration	1,0000default loss term (dB/km)	0,3820temperature slope calibration	1,0000multiplexer offset coefficient	1,0000multiplexer slope coefficient	1,0000fibre end	0,00T internal ref (°C)	20,30T ext. ref 1 (°C)	4,81T ext. ref 2 (°C)	4,78length (m)	temperature (°C)	Stokes	anti-Stokes-744,400	-200,000	0,022	-0,170
-743,385	25,670	-0,214	0,132
-742,371	234,564	0,118	0,145
-741,356	-17,977	-0,249	0,116
-740,342	505,867	0,025	0,043
-739,327	-39,657	-0,277	0,107
-738,312	341,278	-0,068	-0,098
-737,298	-142,413	-0,247	0,018
-736,283	-200,000	-0,007	0,106
-735,269	287,086	-0,208	0,280
-734,254	117,291	-0,060	-0,055
-733,239	16,713	-0,441	-0,259
-732,225	537,954	0,052	-0,092
-731,210	-200,000	0,023	0,149
-730,196	-200,000	-0,023	0,142
-729,181	800,000	0,011	0,024
-728,167	-200,000	-0,005	0,023
-727,152	-147,644	-0,091	0,006
-726,137	-139,658	-0,028	0,002
-725,123	800,000	-0,040	-0,115
-724,108	188,543	-0,066	-0,073
-723,094	486,174	-0,059	-0,101
-722,079	158,409	-0,084	-0,087
-721,064	-200,000	-0,043	-0,164
-720,050	11,912	0,113	-0,065
-719,035	677,610	-0,036	-0,069
-718,021	302,825	-0,047	0,065
-717,006	-200,000	-0,014	-0,137
-715,991	133,529	0,064	0,062
-714,977	-134,252	-0,224	0,020
-713,962	239,684	-0,109	-0,135
-712,948	-63,285	-0,053	0,016
-711,933	5,196	-0,085	-0,046
-710,918	704,621	-0,069	0,135
-709,904	93,100	-0,097	0,081
-708,889	79,812	-0,073	-0,058
-707,875	-60,741	-0,074	0,023
-706,860	27,417	0,080	-0,050
-705,845	465,293	0,028	0,046
-704,831	-161,943	-0,091	-0,003
-703,816	782,937	0,025	-0,051
-702,802	-200,000	-0,005	-0,088
-701,787	-200,000	0,013	-0,058
-700,772	800,000	0,011	0,030
-699,758	-107,202	-0,063	0,010
-698,743	-131,873	0,072	-0,007
-697,729	800,000	0,046	-0,134
-696,714	-95,731	-0,142	-0,028
-695,699	152,840	0,036	0,037
-694,685	8,774	-0,076	-0,042
-693,670	-200,000	-0,025	-0,089
-692,656	52,058	0,108	-0,076
-691,641	35,831	0,105	0,068
-690,627	83,288	0,026	0,021
-689,612	251,162	0,029	-0,037
-688,597	-124,331	-0,202	-0,023
-687,583	27,384	0,085	0,053
-686,568	-115,100	-0,057	0,008
-685,554	-32,440	0,013	0,005
-684,539	-200,000	0,008	-0,034
-683,524	-200,000	0,009	0,043
-682,510	326,459	0,112	0,159
-681,495	-36,837	-0,103	-0,041
-680,481	322,716	0,021	-0,030
-679,466	-200,000	0,005	-0,121
-678,451	-10,701	-0,051	0,025
-677,437	237,839	-0,133	-0,164
-676,422	800,000	-0,022	0,049
-675,408	-200,000	-0,014	0,093
-674,393	70,829	-0,033	-0,025
-673,378	800,000	-0,051	-0,161
-672,364	-165,403	0,135	-0,004
-671,349	-46,041	0,019	-0,007
-670,335	-35,373	-0,041	-0,017
-669,320	63,357	0,093	-0,069
-668,305	308,748	-0,057	0,079
-667,291	-188,156	-0,127	-0,001
-666,276	-103,097	-0,049	-0,009
-665,262	-200,000	-0,011	0,102
-664,247	-200,000	0,020	-0,137
-663,232	800,000	-0,015	-0,035
-662,218	-89,408	-0,006	0,001
-661,203	372,076	0,049	0,074
-660,189	25,340	0,143	0,088
-659,174	-200,000	-0,014	-0,050
-658,159	210,341	-0,025	-0,029
-657,145	-20,401	-0,068	-0,031
-656,130	482,287	-0,074	0,124
-655,116	800,000	-0,078	0,189
-654,101	-32,777	0,095	-0,039
-653,086	-200,000	-0,011	0,055
-652,072	800,000	-0,024	0,052
-651,057	-8,037	0,062	-0,031
-650,043	22,316	0,048	-0,029
-649,028	800,000	-0,044	0,132
-648,014	-115,373	-0,048	0,007
-646,999	-0,860	0,070	0,037
-645,984	-52,632	-0,076	-0,026
-644,970	-3,093	-0,109	-0,056
-643,955	62,819	-0,078	-0,057
-642,941	43,225	-0,047	0,032
-641,926	800,000	-0,036	0,113
-640,911	-200,000	-0,009	0,083
-639,897	-183,405	0,112	0,001
-638,882	-73,728	0,166	-0,044
-637,868	278,249	0,067	-0,088
-636,853	145,905	-0,042	0,042
-635,838	-71,720	-0,144	0,040
-634,824	-200,000	0,011	0,040
-633,809	-200,000	0,012	-0,076
-632,795	122,483	-0,074	0,068
-631,780	-143,816	0,072	0,005
-630,765	-175,741	0,079	0,002
-629,751	-72,339	-0,065	0,018
-628,736	-80,428	-0,110	0,027
-627,722	-40,875	0,128	0,049
-626,707	-200,000	0,050	0,167
-625,692	-200,000	0,022	0,125
-624,678	391,646	-0,041	0,063
-623,663	392,774	-0,069	-0,107
-622,649	-200,000	0,028	-0,164
-621,634	35,366	0,096	0,062
-620,619	731,381	0,017	-0,033
-619,605	-10,536	0,106	0,052
-618,590	-200,000	0,016	0,069
-617,576	-200,000	0,000	-0,101
-616,561	-53,543	0,081	-0,027
-615,546	800,000	-0,072	-0,161
-614,532	715,088	0,063	-0,124
-613,517	284,346	0,034	-0,045
-612,503	-200,000	-0,010	-0,112
-611,488	-67,110	0,070	-0,020
-610,474	-93,781	0,098	0,020
-609,459	-78,091	-0,046	-0,012
-608,444	-85,605	-0,134	-0,031
-607,430	-151,654	-0,058	-0,003
-606,415	244,820	-0,047	-0,059
-605,401	800,000	-0,019	-0,060
-604,386	631,797	0,024	-0,046
-603,371	-74,680	0,047	-0,013
-602,357	212,592	-0,097	0,114
-601,342	281,262	-0,065	-0,086
-600,328	-36,687	-0,074	-0,029
-599,313	460,208	0,065	-0,108
-598,298	800,000	-0,046	-0,102
-597,284	67,458	0,075	-0,057
-596,269	122,407	-0,048	0,044
-595,255	218,670	-0,032	-0,037
-594,240	212,355	-0,045	-0,052
-593,225	800,000	0,013	-0,035
-592,211	-200,000	0,016	-0,143
-591,196	-200,000	-0,056	-0,236
-590,182	800,000	0,050	-0,147
-589,167	199,590	0,052	0,059
-588,152	-200,000	0,016	0,125
-587,138	-200,000	-0,001	-0,016
-586,123	800,000	0,027	0,057
-585,109	316,701	-0,032	-0,044
-584,094	72,414	0,083	-0,064
-583,079	9,582	0,045	0,025
-582,065	68,056	0,115	-0,087
-581,050	649,072	0,054	-0,103
-580,036	-7,335	-0,212	-0,106
-579,021	-200,000	-0,023	-0,141
-578,006	-200,000	-0,006	-0,147
-576,992	-145,365	-0,087	0,006
-575,977	-200,000	-0,008	-0,042
-574,963	-189,800	-0,092	-0,001
-573,948	190,623	0,068	0,076
-572,934	-119,269	0,201	0,026
-571,919	-8,448	-0,068	0,034
-570,904	264,857	-0,036	0,046
-569,890	-200,000	-0,043	-0,188
-568,875	-50,142	0,132	-0,046
-567,861	209,284	0,094	0,109
-566,846	-94,600	-0,095	-0,019
-565,831	-47,833	0,107	-0,038
-564,817	148,889	0,044	-0,044
-563,802	-69,351	-0,125	-0,035
-562,788	-200,000	-0,021	-0,130
-561,773	-161,879	-0,052	-0,002
-560,758	800,000	0,023	0,051
-559,744	-200,000	0,010	0,037
-558,729	-200,000	-0,020	0,120
-557,715	1,247	-0,074	0,039
-556,700	56,251	-0,047	0,034
-555,685	800,000	-0,067	-0,149
-554,671	-38,426	-0,051	0,020
-553,656	-200,000	-0,012	0,070
-552,642	417,493	0,031	0,049
-551,627	-51,840	-0,056	-0,019
-550,612	800,000	-0,041	-0,092
-549,598	119,631	0,028	-0,025
-548,583	-200,000	-0,030	0,162
-547,569	192,719	-0,021	0,024
-546,554	-48,190	0,020	-0,007
-545,539	227,013	-0,041	0,049
-544,525	-162,632	0,130	0,005
-543,510	258,975	-0,032	0,041
-542,496	523,103	-0,045	-0,078
-541,481	-200,000	0,024	-0,106
-540,466	156,773	0,087	-0,089
-539,452	41,984	0,084	0,056
-538,437	-82,108	0,121	0,029
-537,423	-200,000	-0,004	-0,014
-536,408	-94,870	0,025	0,005
-535,393	476,179	-0,059	-0,099
-534,379	-36,903	-0,123	0,049
-533,364	120,877	0,058	0,053
-532,350	132,806	-0,025	0,024
-531,335	800,000	-0,032	0,080
-530,321	251,213	-0,054	-0,067
-529,306	-112,994	-0,049	0,007
-528,291	-86,749	0,145	-0,032
-527,277	-160,916	-0,040	0,002
-526,262	800,000	-0,032	0,102
-525,248	-119,924	-0,037	0,005
-524,233	91,115	0,089	0,074
-523,218	17,766	0,032	0,019
-522,204	-127,050	0,037	0,004
-521,189	26,239	0,013	-0,008
-520,175	-53,838	-0,029	0,010
-519,160	159,374	-0,132	-0,136
-518,145	-200,000	0,004	0,075
-517,131	-200,000	-0,007	0,045
-516,116	-200,000	-0,000	-0,098
-515,102	-145,038	-0,041	0,003
-514,087	-200,000	-0,015	-0,073
-513,072	11,171	-0,214	-0,121
-512,058	-200,000	0,003	0,091
-511,043	-200,000	0,004	-0,067
-510,029	-200,000	0,006	-0,040
-509,014	-200,000	0,021	0,097
-507,999	-54,662	-0,138	-0,046
-506,985	60,106	-0,103	-0,075
-505,970	17,018	-0,140	-0,082
-504,956	800,000	-0,052	-0,112
-503,941	800,000	0,012	-0,036
-502,926	-40,723	0,049	-0,019
-501,912	489,046	-0,124	0,210
-500,897	184,903	-0,099	0,108
-499,883	800,000	0,035	0,097
-498,868	-200,000	0,013	-0,085
-497,853	-67,161	-0,050	0,014
-496,839	-200,000	0,008	-0,067
-495,824	-142,529	0,045	0,003
-494,810	800,000	0,059	0,140
-493,795	329,054	0,056	0,080
-492,781	-200,000	-0,012	-0,059
-491,766	-99,507	0,152	-0,028
-490,751	439,775	0,008	-0,013
-489,737	-42,403	-0,070	-0,026
-488,722	-200,000	-0,009	0,053
-487,708	-23,988	0,096	0,042
-486,693	-21,079	-0,047	-0,021
-485,678	800,000	-0,065	-0,181
-484,664	-2,966	-0,127	0,065
-483,649	800,000	-0,027	-0,059
-482,635	-67,299	0,083	-0,024
-481,620	377,056	0,045	0,068
-480,605	800,000	0,058	0,119
-479,591	-200,000	0,009	-0,065
-478,576	800,000	-0,013	-0,035
-477,562	205,639	-0,056	0,064
-476,547	-200,000	-0,011	-0,152
-475,532	-200,000	-0,002	0,040
-474,518	95,753	0,163	0,137
-473,503	411,043	0,025	0,039
-472,489	30,304	0,057	-0,036
-471,474	-107,329	0,098	0,016
-470,459	58,197	0,056	0,040
-469,445	753,656	-0,015	-0,030
-468,430	-46,148	0,126	0,046
-467,416	-200,000	0,000	-0,013
-466,401	586,528	-0,038	0,070
-465,386	-200,000	-0,001	0,089
-464,372	-5,212	-0,048	0,024
-463,357	-181,289	-0,068	0,001
-462,343	-166,437	-0,168	0,005
-461,328	56,636	-0,078	0,056
-460,313	142,252	-0,059	-0,058
-459,299	-200,000	0,005	-0,040
-458,284	-200,000	-0,014	0,047
-457,270	7,584	-0,048	-0,027
-456,255	-148,501	-0,190	0,011
-455,241	800,000	0,037	-0,077
-454,226	669,842	-0,070	-0,134
-453,211	-200,000	0,009	0,119
-452,197	-200,000	0,008	0,056
-451,182	-200,000	0,040	0,138
-450,168	800,000	-0,043	-0,094
-449,153	800,000	-0,054	-0,117
-448,138	800,000	-0,059	-0,140
-447,124	30,010	-0,038	-0,024
-446,109	-200,000	0,007	-0,035
-445,095	800,000	-0,014	0,032
-444,080	89,342	0,074	0,061
-443,065	-3,209	0,083	0,042
-442,051	-116,496	0,094	-0,013
-441,036	-200,000	0,003	0,042
-440,022	800,000	0,005	-0,015
-439,007	197,270	-0,064	0,071
-437,992	158,889	-0,118	0,121
-436,978	-188,852	0,050	-0,000
-435,963	-32,013	-0,023	0,009
-434,949	623,830	-0,088	0,164
-433,934	4,129	0,073	0,039
-432,919	593,445	-0,032	0,058
-431,905	0,163	-0,077	-0,040
-430,890	-200,000	0,008	-0,027
-429,876	-200,000	-0,015	0,149
-428,861	-4,814	0,011	-0,005
-427,846	85,507	0,037	0,030
-426,832	-200,000	0,007	-0,034
-425,817	-129,603	0,084	0,008
-424,803	72,508	0,085	0,065
-423,788	-112,246	0,064	0,009
-422,773	309,925	0,101	0,140
-421,759	44,337	-0,036	-0,024
-420,744	800,000	-0,048	-0,113
-419,730	-200,000	0,032	0,113
-418,715	125,115	-0,071	-0,065
-417,701	-200,000	0,016	-0,090
-416,686	-200,000	0,021	-0,134
-415,671	-172,642	0,176	-0,004
-414,657	800,000	-0,026	0,061
-413,642	117,276	0,088	0,079
-412,628	138,424	0,055	0,053
-411,613	800,000	-0,039	0,126
-410,598	-155,047	-0,059	-0,003
-409,584	800,000	-0,032	-0,092
-408,569	102,454	0,097	0,083
-407,555	-45,868	0,017	0,006
-406,540	-53,033	-0,101	0,034
-405,525	703,891	0,053	-0,103
-404,511	-24,401	0,025	-0,011
-403,496	-74,574	0,081	-0,021
-402,482	800,000	0,062	-0,126
-401,467	113,983	-0,034	-0,030
-400,452	-200,000	0,002	-0,131
-399,438	-200,000	0,013	-0,045
-398,423	494,681	-0,050	0,084
-397,409	-19,962	-0,049	-0,022
-396,394	-50,594	0,053	0,018
-395,379	-54,816	-0,111	0,037
-394,365	303,118	0,097	0,132
-393,350	621,251	0,049	0,090
-392,336	-102,467	0,042	0,007
-391,321	187,903	0,030	0,033
-390,306	-200,000	-0,034	-0,154
-389,292	-11,760	0,072	0,034
-388,277	-200,000	0,010	0,042
-387,263	-26,898	-0,080	0,034
-386,248	11,668	0,057	-0,032
-385,233	800,000	0,027	-0,070
-384,219	800,000	-0,051	0,111
-383,204	60,215	0,075	0,054
-382,190	-200,000	-0,009	0,074
-381,175	-200,000	-0,005	-0,180
-380,160	663,323	-0,020	-0,038
-379,146	306,351	-0,079	0,108
-378,131	800,000	-0,020	-0,051
-377,117	800,000	-0,015	0,041
-376,102	422,393	0,034	-0,054
-375,088	-39,736	-0,136	0,052
-374,073	-104,912	0,034	0,006
-373,058	308,905	0,086	0,119
-372,044	800,000	0,025	0,070
-371,029	-105,310	-0,050	0,008
-370,015	310,828	0,016	-0,022
-369,000	-7,759	0,043	-0,021
-367,985	800,000	-0,023	0,073
-366,971	7,272	0,010	0,006
-365,956	771,164	0,042	0,084
-364,942	-200,000	0,007	0,028
-363,927	-120,810	-0,102	-0,013
-362,912	470,440	0,057	0,095
-361,898	135,423	-0,158	-0,151
-360,883	-200,000	-0,011	-0,092
-359,869	-42,144	-0,117	-0,044
-358,854	293,946	-0,048	-0,065
-357,839	352,574	0,033	0,048
-356,825	-116,406	0,100	0,013
-355,810	288,059	-0,110	0,147
-354,796	-200,000	-0,007	0,211
-353,781	800,000	-0,040	-0,121
-352,766	800,000	0,009	-0,023
-351,752	-200,000	0,034	0,171
-350,737	800,000	0,051	0,130
-349,723	285,816	-0,052	0,069
-348,708	-10,281	0,057	0,028
-347,693	-200,000	0,049	0,000
-346,679	-62,227	-0,038	-0,012
-345,664	614,938	0,012	-0,022
-344,650	14,657	-0,049	0,028
-343,635	-200,000	0,002	-0,036
-342,620	-64,735	0,127	0,037
-341,606	-131,236	0,108	0,010
-340,591	163,019	-0,023	-0,024
-339,577	120,794	0,040	0,036
-338,562	290,192	-0,036	-0,048
-337,548	145,701	-0,061	-0,060
-336,533	-83,315	0,081	0,019
-335,518	525,611	-0,018	0,031
-334,504	-200,000	-0,006	-0,036
-333,489	92,054	0,030	0,025
-332,475	80,900	-0,042	-0,033
-331,460	-200,000	-0,008	-0,159
-330,445	-89,639	0,056	-0,012
-329,431	800,000	0,023	0,067
-328,416	272,731	-0,011	0,015
-327,402	-200,000	0,012	-0,064
-326,387	303,980	-0,022	0,030
-325,372	-18,803	-0,066	-0,030
-324,358	-200,000	-0,003	-0,046
-323,343	0,871	0,040	0,021
-322,329	213,058	-0,023	0,027
-321,314	-200,000	0,020	0,176
-320,299	219,629	0,078	0,091
-319,285	-200,000	0,014	0,073
-318,270	800,000	-0,059	-0,143
-317,256	-200,000	0,014	-0,086
-316,241	17,123	-0,108	-0,063
-315,226	-200,000	-0,022	0,105
-314,212	-200,000	-0,008	-0,025
-313,197	-200,000	0,087	-0,000
-312,183	15,307	0,044	0,025
-311,168	198,362	-0,031	-0,035
-310,153	21,445	-0,039	-0,023
-309,139	-24,640	-0,034	0,015
-308,124	-137,360	0,140	0,011
-307,110	-51,620	-0,041	0,014
-306,095	-79,786	-0,072	-0,018
-305,080	-74,451	0,079	-0,021
-304,066	800,000	0,011	-0,030
-303,051	800,000	-0,035	-0,104
-302,037	800,000	-0,051	-0,133
-301,022	800,000	0,016	-0,051
-300,008	800,000	0,027	0,085
-298,993	286,302	0,021	0,028
-297,978	48,342	0,032	-0,022
-296,964	125,471	-0,049	-0,045
-295,949	-78,883	0,080	0,020
-294,935	203,053	-0,082	0,093
-293,920	800,000	0,050	-0,116
-292,905	489,086	0,040	-0,067
-291,891	-98,879	0,184	-0,034
-290,876	-106,644	-0,080	-0,013
-289,862	800,000	0,020	0,065
-288,847	137,597	-0,059	0,056
-287,832	-37,387	-0,020	-0,008
-286,818	8,521	-0,094	-0,052
-285,803	-200,000	-0,034	0,142
-284,789	-76,104	-0,142	0,036
-283,774	112,248	0,058	0,051
-282,759	-200,000	0,017	-0,054
-281,745	260,879	0,074	-0,094
-280,730	800,000	0,016	-0,045
-279,716	-32,735	-0,042	0,017
-278,701	-200,000	-0,001	0,055
-277,686	800,000	-0,020	0,055
-276,672	70,097	0,015	0,011
-275,657	-34,308	-0,035	-0,014
-274,643	368,798	0,031	0,046
-273,628	318,993	-0,050	-0,070
-272,613	-120,344	0,047	-0,006
-271,599	-142,459	0,099	0,007
-270,584	-187,802	0,105	-0,001
-269,570	-144,187	0,074	-0,005
-268,555	-80,524	-0,023	0,006
-267,540	699,607	0,062	-0,120
-266,526	-7,146	-0,027	-0,013
-265,511	306,972	-0,121	-0,165
-264,497	79,597	0,167	0,131
-263,482	96,256	0,110	0,092
-262,467	252,729	-0,066	0,082
-261,453	-200,000	0,000	0,083
-260,438	-132,882	-0,075	-0,007
-259,424	367,822	-0,098	-0,146
-258,409	92,505	-0,118	0,097
-257,395	-50,301	0,173	-0,059
-256,380	170,333	-0,142	0,149
-255,365	-200,000	-0,008	0,078
-254,351	-160,804	0,046	0,002
-253,336	-76,665	0,017	-0,004
-252,322	324,507	-0,017	-0,023
-251,307	-200,000	-0,013	-0,066
-250,292	-22,467	-0,083	-0,036
-249,278	498,621	-0,012	0,020
-248,263	-200,000	0,039	0,130
-247,249	-200,000	-0,016	0,203
-246,234	121,583	0,161	0,146
-245,219	-51,249	0,082	0,028
-244,205	800,000	0,016	-0,047
-243,190	-200,000	0,004	0,030
-242,176	-200,000	0,021	-0,093
-241,161	53,349	0,146	0,102
-240,146	1,460	-0,241	-0,126
-239,132	-200,000	-0,011	0,067
-238,117	49,189	0,111	-0,076
-237,103	144,738	0,087	0,085
-236,088	-114,521	0,092	0,013
-235,073	-200,000	-0,004	-0,205
-234,059	116,213	0,101	-0,090
-233,044	-145,013	-0,109	0,007
-232,030	265,690	0,015	-0,019
-231,015	-117,176	-0,166	0,022
-230,000	800,000	0,044	0,110
-228,986	658,647	0,046	-0,086
-227,971	800,000	-0,039	-0,108
-226,957	-17,891	0,072	0,033
-225,942	245,102	0,041	0,051
-224,927	-66,165	0,070	0,020
-223,913	-200,000	-0,010	-0,085
-222,898	84,626	-0,103	-0,082
-221,884	-200,000	0,020	-0,083
-220,869	72,864	0,044	0,033
-219,855	-36,557	-0,149	-0,058
-218,840	339,980	-0,023	-0,033
-217,825	-200,000	-0,024	-0,129
-216,811	800,000	-0,015	0,038
-215,796	162,076	-0,024	0,024
-214,782	800,000	-0,045	0,130
-213,767	70,464	-0,035	-0,026
-212,752	23,656	0,109	-0,065
-211,738	-103,568	0,031	0,005
-210,723	800,000	0,030	-0,071
-209,709	431,476	-0,072	-0,114
-208,694	-4,508	-0,112	0,056
-207,679	190,500	-0,065	-0,071
-206,665	47,427	-0,034	0,023
-205,650	-85,614	0,146	-0,033
-204,636	-200,000	-0,007	0,212
-203,621	-114,192	-0,051	0,007
-202,606	-200,000	0,010	0,097
-201,592	-121,765	-0,034	-0,004
-200,577	-200,000	-0,003	0,015
-199,563	401,247	-0,057	0,088
-198,548	-78,595	0,109	0,027
-197,533	254,783	0,096	0,119
-196,519	-20,799	-0,093	0,041
-195,504	191,485	0,045	0,049
-194,490	800,000	-0,018	0,045
-193,475	476,103	-0,023	0,037
-192,460	47,471	-0,047	-0,032
-191,446	293,659	-0,018	-0,025
-190,431	272,425	0,054	-0,069
-189,417	122,591	0,042	0,039
-188,402	-90,241	-0,115	-0,024
-187,387	800,000	0,054	-0,111
-186,373	25,639	0,110	-0,067
-185,358	-150,224	0,039	-0,002
-184,344	36,489	0,173	0,111
-183,329	800,000	-0,009	0,027
-182,315	-200,000	0,005	0,056
-181,300	-200,000	-0,003	0,014
-180,285	-108,041	-0,081	0,013
-179,271	132,025	-0,094	-0,088
-178,256	7,694	-0,091	0,049
-177,242	-93,005	0,106	0,021
-176,227	-82,131	0,148	0,035
-175,212	312,434	-0,045	-0,062
-174,198	-78,263	0,058	0,014
-173,183	-51,745	0,047	0,016
-172,169	-200,000	0,024	-0,099
-171,154	253,090	-0,117	-0,146
-170,139	-26,505	0,070	0,030
-169,125	-72,774	-0,065	0,017
-168,110	-143,066	-0,062	-0,004
-167,096	134,761	-0,069	0,065
-166,081	245,618	-0,025	0,031
-165,066	800,000	-0,010	0,020
-164,052	254,751	-0,085	-0,106
-163,037	-74,770	0,106	0,027
-162,023	374,434	0,027	0,039
-161,008	618,876	0,054	0,099
-159,993	-200,000	0,007	-0,080
-158,979	173,863	0,082	0,086
-157,964	-90,514	-0,071	-0,015
-156,950	149,141	0,028	0,028
-155,935	78,415	-0,041	-0,032
-154,920	-50,345	0,103	-0,035
-153,906	416,208	0,055	-0,085
-152,891	602,836	0,049	0,089
-151,877	18,843	0,095	-0,055
-150,862	800,000	0,042	0,133
-149,847	-135,357	0,072	-0,006
-148,833	126,912	0,044	-0,041
-147,818	179,550	-0,044	0,047
-146,804	-200,000	0,007	0,035
-145,789	274,936	-0,064	0,083
-144,775	255,419	0,036	-0,044
-143,760	-69,914	-0,128	0,035
-142,745	-200,000	-0,008	0,115
-141,731	58,350	-0,012	-0,008
-140,716	-22,425	0,025	-0,011
-139,702	800,000	-0,041	0,106
-138,687	126,723	-0,103	0,095
-137,672	4,641	-0,138	-0,074
-136,658	-34,912	0,012	-0,005
-135,643	58,619	-0,121	-0,086
-134,629	315,925	0,072	0,099
-133,614	139,534	0,027	0,025
-132,599	-21,626	-0,063	0,028
-131,585	137,969	-0,037	0,035
-130,570	-81,790	0,053	-0,013
-129,556	122,607	-0,044	-0,040
-128,541	-200,000	-0,022	-0,073
-127,526	62,224	0,082	0,059
-126,512	800,000	-0,025	0,067
-125,497	-200,000	-0,007	-0,027
-124,483	-163,198	-0,120	-0,004
-123,468	-200,000	-0,035	0,150
-122,453	38,519	0,084	0,054
-121,439	-200,000	-0,011	-0,085
-120,424	18,626	0,188	0,109
-119,410	159,538	0,087	0,088
