DTS Sentinel unit serial number:	SN410029Multiplexer serial number:	ORYXHardware model number:	OX2-SRSoftware version number:	ORYX F/W v4,00 Oryx Data Collector v3.7.2.0data status	okinstallation	B4 Nyhavnadifferential loss correction	single-endedforward channel	channel 2reverse channel	N/Adate	2023/12/16time	05:45:13forward acquisition time	300,00reverse acquisition time	0,00gamma	499,1914k internal	0,3128k external	0,3128temperature offset calibration	1,0000default loss term (dB/km)	0,3820temperature slope calibration	1,0000multiplexer offset coefficient	1,0000multiplexer slope coefficient	1,0000fibre end	0,00T internal ref (°C)	22,19T ext. ref 1 (°C)	7,49T ext. ref 2 (°C)	7,67length (m)	temperature (°C)	Stokes	anti-Stokes-744,400	-34,848	0,087	0,035
-743,385	60,778	-0,218	0,161
-742,371	597,021	0,066	-0,122
-741,356	183,056	-0,204	0,225
-740,342	-111,355	0,076	-0,011
-739,327	-68,016	-0,263	0,076
-738,312	135,461	0,071	-0,068
-737,298	-79,238	-0,295	0,074
-736,283	321,124	0,050	-0,070
-735,269	12,197	-0,090	0,051
-734,254	-116,242	0,051	0,007
-733,239	-120,945	-0,521	-0,064
-732,225	-75,012	0,072	0,019
-731,210	-10,547	0,039	-0,019
-730,196	-60,249	0,055	-0,017
-729,181	-105,647	-0,039	0,007
-728,167	113,067	-0,026	-0,024
-727,152	-200,000	-0,036	-0,190
-726,137	-14,018	0,089	-0,042
-725,123	-191,111	-0,087	-0,001
-724,108	-48,228	-0,155	-0,055
-723,094	-200,000	-0,003	-0,088
-722,079	800,000	0,018	-0,056
-721,064	-61,696	0,038	0,012
-720,050	336,283	0,017	0,025
-719,035	503,560	-0,025	0,044
-718,021	-1,606	-0,114	-0,060
-717,006	461,905	-0,071	-0,119
-715,991	252,012	-0,065	-0,082
-714,977	-31,012	0,050	0,021
-713,962	319,203	-0,099	-0,140
-712,948	-110,131	0,051	-0,008
-711,933	-200,000	-0,005	-0,052
-710,918	-92,870	0,061	-0,013
-709,904	149,008	0,078	-0,078
-708,889	-200,000	-0,041	-0,147
-707,875	-200,000	-0,020	0,078
-706,860	800,000	0,063	-0,135
-705,845	353,440	0,018	0,026
-704,831	64,297	0,112	0,084
-703,816	-200,000	0,005	0,040
-702,802	-60,511	-0,090	-0,028
-701,787	-56,359	-0,074	-0,024
-700,772	800,000	0,042	-0,097
-699,758	-164,879	0,099	0,003
-698,743	-200,000	-0,003	-0,095
-697,729	-161,430	-0,107	-0,004
-696,714	-81,388	-0,169	0,041
-695,699	-200,000	-0,023	-0,157
-694,685	90,550	-0,188	-0,156
-693,670	185,641	0,166	-0,183
-692,656	-200,000	0,005	-0,180
-691,641	443,298	-0,014	-0,023
-690,627	-36,626	-0,096	-0,038
-689,612	-9,324	0,159	-0,079
-688,597	292,372	0,103	-0,139
-687,583	-103,804	-0,117	-0,020
-686,568	59,717	-0,175	-0,128
-685,554	800,000	-0,028	-0,072
-684,539	451,794	0,018	-0,030
-683,524	-116,710	-0,088	0,012
-682,510	51,394	-0,079	-0,056
-681,495	65,992	0,038	-0,029
-680,481	-57,616	0,067	-0,022
-679,466	234,924	-0,046	0,057
-678,451	254,525	0,031	-0,039
-677,437	-8,074	-0,113	-0,056
-676,422	-8,543	-0,040	-0,020
-675,408	-200,000	0,013	0,077
-674,393	-200,000	0,003	0,111
-673,378	765,766	-0,023	-0,046
-672,364	-78,621	-0,072	-0,018
-671,349	56,332	0,058	0,042
-670,335	-145,507	0,079	0,005
-669,320	-200,000	0,008	-0,084
-668,305	-200,000	0,033	-0,186
-667,291	82,683	0,128	0,103
-666,276	-200,000	-0,067	0,000
-665,262	277,374	0,105	-0,139
-664,247	147,373	-0,113	-0,113
-663,232	-54,204	-0,126	-0,042
-662,218	-81,128	0,084	-0,020
-661,203	487,735	-0,031	-0,052
-660,189	-78,607	0,188	0,047
-659,174	134,259	-0,013	0,012
-658,159	-144,479	-0,125	-0,008
-657,145	-86,549	-0,105	-0,024
-656,130	-200,000	-0,025	0,145
-655,116	287,060	0,079	0,106
-654,101	83,717	-0,041	0,033
-653,086	221,179	0,048	0,057
-652,072	252,961	-0,016	-0,020
-651,057	-200,000	-0,035	-0,131
-650,043	-149,842	-0,089	-0,005
-649,028	800,000	-0,036	-0,095
-648,014	-200,000	0,001	0,105
-646,999	-46,922	0,251	-0,090
-645,984	800,000	-0,005	0,011
-644,970	110,919	-0,032	0,028
-643,955	-133,503	-0,026	-0,002
-642,941	-3,733	-0,119	0,061
-641,926	313,954	0,042	-0,058
-640,911	3,925	0,052	-0,028
-639,897	-139,181	-0,108	0,009
-638,882	-200,000	0,011	0,072
-637,868	-115,127	0,048	0,007
-636,853	47,328	-0,027	0,019
-635,838	-76,789	-0,105	0,027
-634,824	135,108	0,058	-0,056
-633,809	-24,186	0,076	0,034
-632,795	527,549	0,080	0,140
-631,780	-20,804	-0,068	-0,031
-630,765	273,287	-0,037	-0,048
-629,751	-137,393	-0,112	0,009
-628,736	272,991	-0,042	0,056
-627,722	-66,837	-0,135	-0,039
-626,707	181,299	-0,107	-0,117
-625,692	-200,000	0,032	-0,105
-624,678	-145,025	-0,172	-0,011
-623,663	-200,000	-0,013	-0,157
-622,649	800,000	-0,060	-0,148
-621,634	143,503	-0,162	-0,159
-620,619	-64,087	0,042	-0,013
-619,605	-200,000	0,017	0,063
-618,590	800,000	0,030	-0,085
-617,576	26,403	-0,025	0,015
-616,561	-200,000	0,005	-0,032
-615,546	683,933	-0,032	-0,063
-614,532	783,327	-0,035	-0,072
-613,517	-65,631	-0,142	-0,042
-612,503	-114,348	0,068	0,010
-611,488	301,307	-0,085	-0,117
-610,474	154,318	0,034	-0,035
-609,459	241,510	0,046	-0,057
-608,444	-200,000	-0,002	-0,131
-607,430	800,000	-0,028	-0,079
-606,415	5,407	-0,107	0,058
-605,401	-125,153	0,121	-0,014
-604,386	800,000	-0,060	0,137
-603,371	-200,000	0,017	-0,074
-602,357	-37,797	-0,111	0,043
-601,342	149,108	-0,081	0,081
-600,328	-200,000	-0,021	-0,144
-599,313	225,043	0,023	0,027
-598,298	248,977	-0,074	0,093
-597,284	524,141	-0,007	0,013
-596,269	-110,784	0,065	-0,010
-595,255	235,743	-0,089	0,110
-594,240	-154,582	-0,096	-0,005
-593,225	-200,000	0,014	-0,136
-592,211	800,000	0,052	0,125
-591,196	381,859	0,031	0,047
-590,182	189,388	0,090	-0,100
-589,167	316,998	-0,033	0,047
-588,152	-96,179	-0,092	0,018
-587,138	800,000	-0,067	-0,178
-586,123	-200,000	0,007	-0,055
-585,109	2,364	-0,041	0,022
-584,094	270,943	-0,047	-0,062
-583,079	-44,267	-0,061	-0,022
-582,065	-200,000	-0,000	-0,017
-581,050	-32,662	0,121	0,049
-580,036	-97,978	-0,177	-0,033
-579,021	196,920	-0,094	-0,106
-578,006	362,097	0,091	-0,136
-576,992	103,822	-0,045	-0,039
-575,977	800,000	0,021	0,058
-574,963	-200,000	0,020	-0,110
-573,948	229,423	-0,056	0,067
-572,934	33,377	-0,014	0,009
-571,919	47,205	-0,087	0,060
-570,904	-112,631	0,021	-0,003
-569,890	-149,916	-0,097	0,005
-568,875	468,305	0,043	-0,071
-567,861	359,769	-0,021	-0,030
-566,846	800,000	0,042	0,099
-565,831	188,042	0,094	-0,104
-564,817	-164,858	-0,060	0,002
-563,802	-200,000	-0,022	-0,149
-562,788	705,098	0,014	0,028
-561,773	174,362	0,047	0,050
-560,758	-200,000	0,038	-0,145
-559,744	-200,000	0,024	0,098
-558,729	56,519	-0,039	0,028
-557,715	214,209	-0,042	-0,049
-556,700	432,311	0,003	-0,005
-555,685	-200,000	-0,113	0,000
-554,671	-69,812	-0,158	-0,044
-553,656	25,471	-0,068	-0,042
-552,642	-18,176	-0,137	0,063
-551,627	-129,988	0,054	-0,005
-550,612	800,000	0,044	0,111
-549,598	395,565	-0,066	-0,102
-548,583	-176,592	0,018	-0,000
-547,569	79,712	0,075	0,060
-546,554	261,204	-0,085	0,109
-545,539	800,000	-0,032	0,093
-544,525	800,000	0,075	0,159
-543,510	163,635	-0,054	-0,056
-542,496	125,312	0,096	-0,089
-541,481	295,128	0,013	-0,017
-540,466	33,739	0,055	-0,035
-539,452	-200,000	-0,010	-0,058
-538,437	656,424	0,029	0,055
-537,423	-200,000	-0,020	0,092
-536,408	-200,000	0,013	0,117
-535,393	-200,000	-0,062	-0,212
-534,379	452,975	0,065	0,106
-533,364	55,452	0,077	-0,055
-532,350	800,000	-0,012	-0,030
-531,335	122,018	-0,030	-0,028
-530,321	-46,980	-0,126	0,045
-529,306	-168,579	-0,060	-0,002
-528,291	-146,668	-0,144	0,009
-527,277	-125,952	-0,143	-0,016
-526,262	-200,000	-0,029	-0,132
-525,248	75,698	0,002	-0,002
-524,233	-45,942	0,091	-0,033
-523,218	-200,000	0,003	-0,023
-522,204	-108,081	0,149	0,024
-521,189	-200,000	0,000	-0,010
-520,175	425,321	0,062	0,099
-519,160	-200,000	-0,007	0,039
-518,145	-66,547	-0,032	-0,009
-517,131	584,597	-0,010	-0,019
-516,116	-12,936	0,037	0,018
-515,102	-13,715	0,127	-0,060
-514,087	-200,000	-0,022	-0,107
-513,072	341,931	-0,083	-0,121
-512,058	8,962	-0,106	0,059
-511,043	136,400	0,036	-0,035
-510,029	-132,393	0,046	-0,004
-509,014	-200,000	-0,002	-0,084
-507,999	-101,962	0,084	0,015
-506,985	-200,000	-0,003	-0,048
-505,970	800,000	-0,031	-0,070
-504,956	294,412	0,061	-0,083
-503,941	-200,000	0,000	0,064
-502,926	-200,000	-0,024	0,096
-501,912	76,096	-0,083	0,065
-500,897	106,271	-0,055	-0,048
-499,883	-95,473	0,063	-0,012
-498,868	82,798	-0,105	-0,084
-497,853	-200,000	-0,004	-0,137
-496,839	212,264	0,056	-0,065
-495,824	132,126	0,051	0,048
-494,810	723,894	-0,014	0,029
-493,795	-160,752	0,079	-0,003
-492,781	800,000	0,054	0,129
-491,766	-43,238	-0,026	0,010
-490,751	800,000	-0,016	0,049
-489,737	41,378	0,078	0,052
-488,722	168,812	0,042	0,044
-487,708	455,529	0,033	0,054
-486,693	-177,170	0,188	-0,003
-485,678	688,826	-0,074	-0,144
-484,664	270,789	-0,020	0,026
-483,649	74,050	-0,055	-0,043
-482,635	-155,632	0,188	0,009
-481,620	-124,263	0,057	-0,006
-480,605	-200,000	0,035	0,138
-479,591	244,703	0,079	0,098
-478,576	800,000	-0,037	0,082
-477,562	800,000	0,042	-0,089
-476,547	800,000	0,083	-0,198
-475,532	-48,727	-0,099	-0,035
-474,518	331,080	0,031	0,044
-473,503	671,347	-0,032	-0,062
-472,489	-200,000	0,010	-0,144
-471,474	403,886	0,050	0,078
-470,459	-119,298	-0,056	0,007
-469,445	-14,802	0,055	-0,026
-468,430	96,436	0,026	-0,022
-467,416	-43,068	-0,087	0,032
-466,401	-73,764	-0,063	0,017
-465,386	578,395	-0,028	0,050
-464,372	-200,000	-0,003	0,048
-463,357	-200,000	-0,018	0,069
-462,343	-200,000	-0,014	-0,088
-461,328	-200,000	-0,006	0,025
-460,313	73,516	-0,091	-0,070
-459,299	-200,000	-0,005	0,074
-458,284	-200,000	-0,002	-0,052
-457,270	800,000	-0,037	0,095
-456,255	-102,408	0,057	0,010
-455,241	800,000	-0,078	-0,184
-454,226	61,466	-0,122	-0,090
-453,211	800,000	0,038	0,108
-452,197	627,781	-0,044	0,083
-451,182	-200,000	0,007	0,039
-450,168	215,772	0,041	0,047
-449,153	1,519	-0,052	-0,027
-448,138	-200,000	-0,011	-0,094
-447,124	111,991	0,132	0,117
-446,109	450,955	-0,088	0,144
-445,095	-33,531	0,146	0,059
-444,080	-200,000	0,059	0,218
-443,065	26,503	-0,069	0,042
-442,051	-200,000	0,008	-0,030
-441,036	-200,000	-0,034	-0,111
-440,022	677,191	0,043	-0,082
-439,007	-13,721	0,064	-0,030
-437,992	131,400	-0,052	-0,049
-436,978	800,000	-0,046	-0,113
-435,963	-200,000	-0,019	0,070
-434,949	157,133	-0,119	-0,121
-433,934	138,469	-0,098	-0,094
-432,919	164,412	-0,019	0,020
-431,905	800,000	0,025	0,069
-430,890	-59,894	0,072	0,023
-429,876	218,647	-0,041	-0,048
-428,861	-80,121	0,063	0,015
-427,846	-119,149	-0,078	-0,010
-426,832	-200,000	-0,028	-0,093
-425,817	-200,000	-0,002	0,027
-424,803	-200,000	0,014	0,075
-423,788	-137,854	0,036	0,003
-422,773	-83,178	0,222	0,052
-421,759	154,133	0,065	-0,065
-420,744	-200,000	0,000	-0,145
-419,730	25,286	-0,096	-0,058
-418,715	800,000	-0,029	-0,085
-417,701	-70,610	0,127	-0,035
-416,686	331,749	0,042	0,060
-415,671	-140,050	-0,050	-0,004
-414,657	-58,083	0,113	-0,036
-413,642	800,000	0,047	0,151
-412,628	-200,000	-0,039	0,130
-411,613	-200,000	-0,041	-0,188
-410,598	-68,008	0,124	0,035
-409,584	79,987	0,020	-0,016
-408,569	-94,715	0,075	0,015
-407,555	-53,009	0,191	-0,064
-406,540	-35,629	0,100	-0,040
-405,525	-200,000	-0,000	-0,033
-404,511	-71,086	-0,017	-0,005
-403,496	271,147	0,046	-0,060
-402,482	-200,000	-0,008	0,130
-401,467	11,988	-0,094	0,053
-400,452	109,688	0,102	0,090
-399,438	588,656	0,052	-0,095
-398,423	774,310	0,014	-0,029
-397,409	800,000	-0,018	-0,050
-396,394	33,688	0,045	-0,029
-395,379	548,158	-0,016	-0,028
-394,365	-105,085	-0,050	-0,008
-393,350	-200,000	-0,007	0,046
-392,336	-200,000	0,023	0,080
-391,321	-149,149	-0,035	0,002
-390,306	-200,000	-0,023	0,099
-389,292	67,636	-0,127	-0,095
-388,277	39,606	0,067	-0,044
-387,263	66,849	0,118	0,088
-386,248	800,000	0,055	0,156
-385,233	-200,000	0,019	0,091
-384,219	10,900	-0,051	-0,029
-383,204	-32,022	0,018	-0,007
-382,190	158,326	-0,106	0,108
-381,175	-7,864	-0,041	-0,020
-380,160	69,999	-0,096	-0,073
-379,146	113,232	0,068	0,060
-378,131	800,000	-0,005	0,011
-377,117	-4,321	-0,038	-0,019
-376,102	90,702	-0,061	-0,050
-375,088	608,231	0,065	-0,120
-374,073	172,548	0,067	-0,071
-373,058	472,923	0,073	0,122
-372,044	-143,189	-0,044	-0,003
-371,029	800,000	-0,042	-0,109
-370,015	692,108	0,025	-0,049
-369,000	33,395	0,080	-0,051
-367,985	-104,785	-0,071	0,012
-366,971	800,000	-0,026	0,067
-365,956	-107,291	-0,054	-0,009
-364,942	149,662	0,096	0,095
-363,927	283,286	0,055	0,072
-362,912	-76,871	-0,060	0,015
-361,898	-200,000	-0,009	-0,043
-360,883	-148,097	0,054	-0,003
-359,869	1,759	-0,017	0,009
-358,854	112,594	-0,038	-0,034
-357,839	-63,246	0,039	-0,012
-356,825	99,716	0,115	0,097
-355,810	93,759	0,133	0,110
-354,796	-200,000	-0,018	0,098
-353,781	-35,369	-0,083	0,033
-352,766	208,713	-0,078	-0,089
-351,752	800,000	0,037	0,101
-350,737	577,182	-0,043	-0,078
-349,723	548,331	0,046	-0,082
-348,708	267,211	0,055	0,070
-347,693	-147,868	0,052	-0,003
-346,679	-200,000	0,007	-0,042
-345,664	479,655	-0,060	0,100
-344,650	9,326	0,078	0,043
-343,635	-200,000	0,026	-0,094
-342,620	-175,570	-0,023	-0,000
-341,606	184,137	-0,054	-0,058
-340,591	31,426	-0,119	0,075
-339,577	800,000	-0,039	-0,087
-338,562	-200,000	-0,017	-0,057
-337,548	-200,000	-0,003	-0,141
-336,533	800,000	0,044	0,091
-335,518	800,000	-0,071	0,171
-334,504	140,784	-0,090	0,087
-333,489	96,123	0,082	0,069
-332,475	-200,000	0,007	-0,052
-331,460	-63,950	-0,083	-0,025
-330,445	800,000	-0,026	-0,057
-329,431	2,611	0,060	-0,032
-328,416	-200,000	0,027	0,087
-327,402	45,068	-0,042	0,028
-326,387	-92,229	-0,080	0,016
-325,372	-29,752	0,043	0,018
-324,358	163,837	-0,037	-0,039
-323,343	-200,000	-0,025	-0,086
-322,329	43,404	-0,056	0,038
-321,314	-3,912	0,097	0,049
-320,299	-200,000	-0,001	0,085
-319,285	-200,000	-0,009	0,102
-318,270	355,086	-0,014	-0,021
-317,256	-200,000	0,010	-0,041
-316,241	55,223	0,076	0,054
-315,226	-162,917	0,071	-0,002
-314,212	-200,000	-0,032	0,152
-313,197	-200,000	0,009	0,095
-312,183	-200,000	0,032	0,120
-311,168	-72,910	-0,052	-0,014
-310,153	800,000	-0,037	-0,115
-309,139	-200,000	-0,001	-0,094
-308,124	-200,000	0,036	0,126
-307,110	67,086	0,038	0,029
-306,095	-20,476	0,075	-0,034
-305,080	-12,472	-0,016	-0,008
-304,066	56,955	-0,084	-0,060
-303,051	159,143	-0,045	0,046
-302,037	-200,000	0,010	0,081
-301,022	550,685	-0,061	-0,107
-300,008	-200,000	0,012	0,095
-298,993	-200,000	0,034	0,119
-297,978	-173,706	0,070	0,001
-296,964	-111,478	0,100	-0,015
-295,949	25,291	0,054	0,033
-294,935	89,365	-0,083	0,068
-293,920	-200,000	-0,004	-0,098
-292,905	-184,567	-0,047	-0,001
-291,891	-200,000	0,002	-0,026
-290,876	29,551	-0,166	-0,103
-289,862	-71,475	0,106	0,029
-288,847	-5,368	-0,076	-0,038
-287,832	105,291	-0,180	0,155
-286,818	-17,525	0,145	-0,066
-285,803	-200,000	-0,003	-0,099
-284,789	-200,000	0,009	-0,043
-283,774	-2,523	0,067	0,034
-282,759	521,110	-0,067	0,115
-281,745	-53,828	0,044	0,015
-280,730	800,000	-0,006	-0,016
-279,716	-57,975	0,112	0,036
-278,701	-170,531	0,104	0,003
-277,686	101,302	-0,088	0,075
-276,672	204,981	0,051	0,058
-275,657	-16,630	-0,044	-0,020
-274,643	-68,969	-0,096	-0,027
-273,628	-48,065	0,084	-0,029
-272,613	-200,000	-0,005	-0,170
-271,599	-200,000	-0,001	0,046
-270,584	-200,000	-0,003	0,134
-269,570	800,000	-0,021	0,063
-268,555	81,564	-0,050	0,040
-267,540	150,612	0,079	0,079
-266,526	800,000	0,014	0,033
-265,511	-200,000	0,019	-0,063
-264,497	-200,000	-0,009	0,050
-263,482	767,359	-0,079	0,158
-262,467	-200,000	0,019	0,072
-261,453	-101,834	0,098	-0,017
-260,438	529,392	-0,069	0,120
-259,424	590,576	0,014	-0,025
-258,409	190,773	0,034	-0,037
-257,395	-113,096	-0,076	0,011
-256,380	-15,208	0,075	0,035
-255,365	-200,000	0,010	-0,037
-254,351	-200,000	-0,003	-0,098
-253,336	485,588	0,041	-0,068
-252,322	800,000	-0,102	-0,230
-251,307	-200,000	-0,003	-0,114
-250,292	99,268	0,056	0,047
-249,278	-78,673	0,027	0,007
-248,263	357,528	-0,006	0,008
-247,249	451,200	0,094	0,152
-246,234	-71,836	0,099	-0,027
-245,219	-104,849	-0,064	0,011
-244,205	800,000	-0,015	0,042
-243,190	800,000	0,028	-0,060
-242,176	267,403	-0,033	0,043
-241,161	-22,450	0,088	0,039
-240,146	209,586	0,039	0,045
-239,132	-117,191	0,084	0,011
-238,117	522,302	-0,056	-0,096
-237,103	-1,923	0,046	0,024
-236,088	122,003	0,059	-0,054
-235,073	-0,054	0,045	0,023
-234,059	-71,195	0,077	0,021
-233,044	-142,756	0,086	0,006
-232,030	77,319	-0,156	-0,121
-231,015	544,438	-0,015	0,026
-230,000	-175,555	-0,139	0,003
-228,986	-66,845	0,071	-0,020
-227,971	-200,000	0,030	0,129
-226,957	-200,000	0,031	0,135
-225,942	-29,574	0,079	0,033
-224,927	-8,587	0,069	0,033
-223,913	800,000	0,032	0,088
-222,898	-51,562	0,068	-0,023
-221,884	113,125	-0,049	0,043
-220,869	800,000	-0,089	0,192
-219,855	6,922	0,130	-0,070
-218,840	-106,916	-0,117	0,019
-217,825	800,000	-0,032	0,097
-216,811	-14,050	-0,097	-0,045
-215,796	800,000	0,050	-0,123
-214,782	-200,000	0,034	-0,219
-213,767	274,497	0,024	0,032
-212,752	-114,073	-0,047	-0,007
-211,738	178,182	0,085	0,091
-210,723	-200,000	-0,017	0,173
-209,709	29,062	-0,079	-0,049
-208,694	16,555	-0,083	0,048
-207,679	6,540	-0,123	-0,067
-206,665	-200,000	-0,025	0,095
-205,650	-200,000	0,007	0,062
-204,636	800,000	-0,027	0,071
-203,621	-26,818	0,070	0,030
-202,606	66,292	0,001	-0,001
-201,592	72,093	0,052	-0,040
-200,577	-176,277	-0,152	-0,003
-199,563	800,000	0,021	-0,055
-198,548	79,253	0,111	0,087
-197,533	-76,243	0,148	0,038
-196,519	-66,478	-0,085	0,024
-195,504	108,858	0,062	-0,054
-194,490	23,993	-0,077	0,046
-193,475	294,060	0,013	0,017
-192,460	448,932	-0,027	-0,044
-191,446	328,626	0,042	0,059
-190,431	168,728	0,069	0,072
-189,417	-50,235	0,119	-0,041
-188,402	117,935	-0,061	0,055
-187,387	91,198	0,048	-0,039
-186,373	265,887	0,012	0,015
-185,358	39,911	0,032	0,021
-184,344	-77,300	0,070	0,017
-183,329	73,837	0,043	-0,033
-182,315	800,000	-0,061	0,142
-181,300	23,742	0,056	0,034
-180,285	-200,000	-0,007	0,079
-179,271	81,132	-0,032	-0,025
-178,256	-200,000	-0,001	-0,150
-177,242	22,669	0,045	0,027
-176,227	81,121	0,128	0,101
-175,212	-200,000	-0,029	0,106
-174,198	800,000	0,063	-0,131
-173,183	170,342	-0,059	0,062
-172,169	381,197	-0,058	-0,087
-171,154	-122,150	-0,170	-0,020
-170,139	-103,809	0,183	-0,031
-169,125	238,453	-0,021	-0,026
-168,110	-83,141	0,145	0,034
-167,096	-200,000	-0,023	-0,116
-166,081	590,327	0,061	-0,110
-165,066	-200,000	-0,012	-0,111
-164,052	54,660	-0,089	-0,062
-163,037	163,341	-0,039	-0,040
-162,023	800,000	0,067	0,136
-161,008	265,656	0,022	0,027
-159,993	-200,000	0,012	0,041
-158,979	800,000	0,047	0,138
-157,964	800,000	-0,053	-0,158
-156,950	800,000	-0,050	-0,154
-155,935	-200,000	0,012	0,089
-154,920	-200,000	0,042	0,142
-153,906	131,745	0,063	-0,059
-152,891	74,470	-0,056	-0,043
-151,877	-29,142	-0,066	-0,027
-150,862	-77,461	-0,098	-0,025
-149,847	-26,952	0,127	-0,054
-148,833	-40,609	-0,072	0,027
-147,818	-200,000	-0,002	0,048
-146,804	-200,000	0,004	0,062
-145,789	800,000	-0,060	0,140
-144,775	-200,000	0,017	-0,128
-143,760	-27,442	0,041	-0,017
-142,745	-15,973	0,128	0,059
-141,731	800,000	0,040	-0,124
-140,716	-77,630	-0,028	-0,007
-139,702	46,657	0,144	-0,097
-138,687	-200,000	0,010	-0,060
-137,672	800,000	-0,005	0,017
-136,658	-100,318	-0,063	0,011
-135,643	-200,000	-0,011	0,069
-134,629	182,168	0,017	0,018
-133,614	393,238	0,004	0,006
-132,599	800,000	-0,017	0,051
-131,585	-86,083	0,111	-0,025
-130,570	316,949	-0,023	-0,031
-129,556	46,013	-0,045	-0,030
-128,541	149,538	0,054	-0,054
-127,526	210,960	-0,079	-0,091
-126,512	-19,861	-0,079	0,035
-125,497	-200,000	0,014	-0,083
-124,483	-81,773	-0,101	0,024
-123,468	-28,947	0,082	-0,034
-122,453	800,000	-0,010	0,022
-121,439	-152,594	-0,096	-0,005
-120,424	151,009	-0,070	-0,069
