DTS Sentinel unit serial number:	SN410029Multiplexer serial number:	ORYXHardware model number:	OX2-SRSoftware version number:	ORYX F/W v4,00 Oryx Data Collector v3.7.2.0data status	okinstallation	B4 Nyhavnadifferential loss correction	single-endedforward channel	channel 2reverse channel	N/Adate	2023/12/16time	04:10:13forward acquisition time	300,00reverse acquisition time	0,00gamma	499,1914k internal	0,3128k external	0,3128temperature offset calibration	1,0000default loss term (dB/km)	0,3820temperature slope calibration	1,0000multiplexer offset coefficient	1,0000multiplexer slope coefficient	1,0000fibre end	0,00T internal ref (°C)	22,00T ext. ref 1 (°C)	7,11T ext. ref 2 (°C)	7,27length (m)	temperature (°C)	Stokes	anti-Stokes-744,400	-200,000	0,010	-0,110
-743,385	-79,486	-0,158	0,039
-742,371	-200,000	-0,002	-0,086
-741,356	162,184	-0,170	0,178
-740,342	-18,673	0,178	0,082
-739,327	-30,815	-0,289	0,121
-738,312	121,980	0,016	-0,015
-737,298	-119,046	-0,239	0,031
-736,283	-60,261	0,117	-0,037
-735,269	-34,565	-0,172	-0,070
-734,254	290,908	0,073	0,099
-733,239	-36,404	-0,419	-0,167
-732,225	-50,586	0,158	-0,055
-731,210	400,459	0,044	0,070
-730,196	-200,000	-0,025	-0,143
-729,181	-200,000	0,008	-0,084
-728,167	141,549	0,063	-0,062
-727,152	-72,440	-0,131	0,036
-726,137	-175,313	-0,054	-0,001
-725,123	184,881	-0,092	-0,102
-724,108	-103,566	-0,088	0,015
-723,094	105,636	-0,019	0,017
-722,079	-200,000	-0,137	-0,000
-721,064	-128,399	-0,073	0,008
-720,050	-200,000	0,012	-0,130
-719,035	151,411	-0,093	-0,094
-718,021	-200,000	0,025	-0,163
-717,006	190,137	0,046	-0,051
-715,991	-110,216	-0,096	-0,015
-714,977	-200,000	-0,054	-0,219
-713,962	381,179	-0,101	-0,155
-712,948	-58,150	-0,028	-0,009
-711,933	78,424	0,026	-0,021
-710,918	-200,000	-0,009	-0,092
-709,904	15,975	-0,156	-0,091
-708,889	-122,901	-0,086	0,010
-707,875	-200,000	-0,012	-0,146
-706,860	-163,784	0,046	0,002
-705,845	-75,673	-0,080	-0,021
-704,831	-200,000	-0,004	0,062
-703,816	38,503	0,065	0,043
-702,802	-5,771	-0,005	0,003
-701,787	549,056	-0,059	-0,105
-700,772	-17,591	0,172	-0,080
-699,758	800,000	0,011	-0,025
-698,743	-200,000	-0,018	-0,076
-697,729	-61,872	0,052	-0,016
-696,714	-200,000	-0,005	-0,040
-695,699	-6,294	0,109	-0,055
-694,685	-109,713	-0,140	0,022
-693,670	800,000	-0,034	-0,112
-692,656	6,662	-0,104	-0,057
-691,641	71,221	0,105	0,081
-690,627	113,342	-0,091	-0,082
-689,612	384,458	-0,076	0,117
-688,597	-11,730	0,041	0,020
-687,583	58,177	-0,143	-0,104
-686,568	-200,000	-0,010	-0,146
-685,554	242,893	0,038	-0,048
-684,539	637,718	-0,027	0,051
-683,524	-58,772	0,069	-0,022
-682,510	106,629	-0,079	0,069
-681,495	-131,322	0,180	-0,017
-680,481	-106,244	-0,038	-0,006
-679,466	-26,206	-0,071	-0,031
-678,451	247,163	-0,092	-0,115
-677,437	-200,000	-0,007	-0,216
-676,422	-200,000	0,032	0,115
-675,408	583,267	-0,057	-0,105
-674,393	-149,518	-0,115	-0,007
-673,378	-200,000	0,002	-0,125
-672,364	650,030	0,035	-0,067
-671,349	70,468	-0,103	-0,079
-670,335	-200,000	0,046	-0,180
-669,320	-200,000	-0,003	0,022
-668,305	129,896	-0,023	0,022
-667,291	-83,123	-0,059	-0,014
-666,276	400,694	-0,053	-0,082
-665,262	272,226	-0,099	-0,130
-664,247	800,000	0,032	0,068
-663,232	-200,000	-0,013	-0,082
-662,218	178,907	0,048	0,052
-661,203	-200,000	0,001	-0,040
-660,189	800,000	0,030	-0,070
-659,174	800,000	-0,042	-0,135
-658,159	-153,884	0,034	0,002
-657,145	-62,508	-0,111	-0,034
-656,130	-200,000	-0,016	-0,090
-655,116	500,530	0,027	0,047
-654,101	-72,682	0,107	0,029
-653,086	-200,000	0,006	0,104
-652,072	-127,772	0,084	0,009
-651,057	74,691	-0,111	-0,087
-650,043	-200,000	0,046	-0,163
-649,028	-167,956	0,114	0,003
-648,014	800,000	0,041	-0,113
-646,999	800,000	-0,005	0,013
-645,984	-46,585	0,081	0,029
-644,970	-200,000	-0,002	-0,102
-643,955	118,398	-0,091	0,083
-642,941	-107,287	-0,143	-0,023
-641,926	-200,000	-0,023	0,093
-640,911	-200,000	-0,006	-0,121
-639,897	-200,000	-0,016	0,117
-638,882	38,306	0,005	-0,003
-637,868	311,943	-0,059	0,083
-636,853	201,036	-0,017	-0,019
-635,838	-100,096	0,066	0,012
-634,824	800,000	0,041	-0,088
-633,809	-4,837	-0,087	-0,044
-632,795	-200,000	0,036	0,171
-631,780	92,154	0,026	0,022
-630,765	273,215	0,069	-0,091
-629,751	192,394	-0,164	0,184
-628,736	-4,766	-0,085	0,043
-627,722	800,000	0,023	0,053
-626,707	64,191	0,018	-0,014
-625,692	-200,000	0,030	0,142
-624,678	-36,635	-0,087	0,034
-623,663	221,473	0,153	-0,183
-622,649	641,819	0,050	-0,096
-621,634	-34,924	-0,168	-0,068
-620,619	250,527	0,143	-0,180
-619,605	41,973	-0,087	-0,058
-618,590	29,325	-0,061	-0,039
-617,576	175,324	-0,090	-0,097
-616,561	750,480	-0,011	-0,022
-615,546	-200,000	-0,015	-0,064
-614,532	-157,502	-0,171	0,007
-613,517	-47,634	-0,103	0,037
-612,503	-118,279	-0,065	0,008
-611,488	-89,514	-0,032	0,007
-610,474	800,000	0,038	0,090
-609,459	-200,000	-0,001	-0,120
-608,444	-200,000	0,008	-0,051
-607,430	88,816	-0,137	-0,113
-606,415	1,030	-0,073	-0,038
-605,401	-200,000	-0,017	0,063
-604,386	-200,000	0,011	0,084
-603,371	149,845	-0,084	0,084
-602,357	800,000	0,040	-0,122
-601,342	-200,000	-0,010	0,111
-600,328	-200,000	0,014	-0,067
-599,313	-200,000	-0,025	0,112
-598,298	358,993	-0,006	-0,009
-597,284	18,550	0,037	0,022
-596,269	-139,417	0,098	-0,008
-595,255	-31,219	0,066	-0,028
-594,240	-25,976	0,084	0,036
-593,225	334,730	0,014	-0,020
-592,211	223,474	-0,086	-0,103
-591,196	-129,188	0,094	-0,010
-590,182	14,566	-0,101	0,058
-589,167	273,869	0,076	-0,100
-588,152	-157,917	0,058	-0,002
-587,138	-200,000	-0,019	0,083
-586,123	-195,163	-0,101	0,001
-585,109	5,379	-0,090	-0,049
-584,094	405,831	-0,031	-0,048
-583,079	159,138	0,066	0,068
-582,065	-200,000	0,000	0,190
-581,050	338,266	-0,035	0,051
-580,036	-3,749	-0,053	0,027
-579,021	-131,714	-0,180	-0,017
-578,006	-200,000	0,021	-0,112
-576,992	104,420	-0,091	-0,080
-575,977	42,060	0,135	0,090
-574,963	52,136	-0,030	-0,021
-573,948	-200,000	0,012	-0,067
-572,934	-200,000	0,003	0,068
-571,919	38,646	-0,036	-0,024
-570,904	-137,309	-0,117	0,010
-569,890	-200,000	0,038	-0,154
-568,875	72,358	0,109	0,084
-567,861	754,129	0,046	0,092
-566,846	800,000	0,045	0,094
-565,831	162,213	0,081	-0,084
-564,817	51,257	0,084	-0,059
-563,802	-98,545	-0,057	-0,011
-562,788	-75,703	-0,057	-0,015
-561,773	-200,000	-0,004	-0,051
-560,758	101,307	0,076	0,065
-559,744	283,371	0,119	0,159
-558,729	64,782	-0,086	-0,064
-557,715	130,912	0,087	0,082
-556,700	46,959	-0,037	-0,026
-555,685	-38,516	-0,107	-0,042
-554,671	-200,000	-0,002	-0,045
-553,656	800,000	-0,069	0,168
-552,642	-200,000	0,024	-0,117
-551,627	47,850	-0,149	0,102
-550,612	-139,415	-0,026	-0,002
-549,598	123,560	-0,060	-0,055
-548,583	-200,000	-0,007	-0,040
-547,569	-122,927	0,110	0,013
-546,554	-200,000	0,007	0,101
-545,539	-200,000	0,018	0,075
-544,525	39,678	0,039	0,026
-543,510	-148,328	0,112	0,007
-542,496	91,785	0,037	-0,031
-541,481	74,391	-0,021	0,016
-540,466	800,000	0,021	0,065
-539,452	-200,000	0,014	-0,074
-538,437	161,187	0,114	0,118
-537,423	-200,000	-0,019	0,077
-536,408	-200,000	-0,039	-0,212
-535,393	-63,476	-0,150	-0,045
-534,379	666,130	0,078	-0,149
-533,364	-200,000	-0,003	-0,050
-532,350	-200,000	0,001	-0,039
-531,335	-200,000	-0,002	0,088
-530,321	-200,000	-0,003	-0,096
-529,306	-200,000	-0,007	-0,096
-528,291	-200,000	-0,001	0,005
-527,277	-200,000	-0,003	0,076
-526,262	800,000	0,042	0,107
-525,248	231,799	0,037	-0,045
-524,233	-200,000	-0,005	0,090
-523,218	-200,000	-0,007	0,072
-522,204	-200,000	-0,005	-0,066
-521,189	49,489	0,058	-0,040
-520,175	502,972	0,050	-0,085
-519,160	524,672	0,020	0,036
-518,145	-200,000	0,002	0,067
-517,131	303,142	-0,022	-0,031
-516,116	-76,980	0,168	0,043
-515,102	-147,521	0,057	0,003
-514,087	528,821	0,057	0,099
-513,072	228,916	-0,023	-0,028
-512,058	44,183	0,025	-0,017
-511,043	-200,000	-0,042	-0,150
-510,029	190,537	0,042	-0,047
-509,014	800,000	0,030	0,091
-507,999	372,614	-0,021	-0,031
-506,985	701,773	0,042	-0,082
-505,970	739,321	-0,038	0,076
-504,956	2,109	0,103	0,054
-503,941	641,698	-0,042	0,079
-502,926	531,713	-0,045	0,079
-501,912	-200,000	-0,004	0,032
-500,897	15,843	-0,082	0,048
-499,883	295,042	0,069	0,093
-498,868	-63,710	-0,095	-0,029
-497,853	-76,197	-0,119	0,031
-496,839	20,282	-0,063	-0,037
-495,824	-200,000	0,020	0,112
-494,810	-151,889	-0,092	0,005
-493,795	-16,333	0,088	0,041
-492,781	-24,947	-0,149	0,065
-491,766	-200,000	0,035	-0,158
-490,751	-116,974	0,065	0,009
-489,737	-101,365	0,026	0,005
-488,722	264,624	0,117	0,150
-487,708	-47,032	0,160	0,057
-486,693	20,226	0,108	0,064
-485,678	41,028	0,113	0,075
-484,664	288,326	-0,053	-0,071
-483,649	92,612	-0,034	0,028
-482,635	-200,000	-0,000	0,130
-481,620	-69,614	-0,089	0,025
-480,605	10,987	-0,035	-0,019
-479,591	121,624	-0,018	0,017
-478,576	-36,582	-0,085	0,034
-477,562	-59,251	-0,206	0,065
-476,547	-200,000	-0,024	-0,139
-475,532	163,500	-0,113	-0,117
-474,518	800,000	0,042	-0,128
-473,503	-196,045	0,097	-0,000
-472,489	-161,940	0,053	0,002
-471,474	306,615	0,112	0,154
-470,459	-60,425	0,083	0,026
-469,445	-138,231	-0,128	-0,010
-468,430	-200,000	-0,004	0,043
-467,416	-198,700	0,122	0,000
-466,401	67,844	-0,063	0,047
-465,386	-200,000	-0,007	-0,064
-464,372	175,746	-0,120	0,128
-463,357	145,075	-0,072	0,071
-462,343	-175,941	-0,130	0,002
-461,328	92,098	0,054	-0,045
-460,313	401,748	0,058	0,090
-459,299	800,000	0,034	-0,094
-458,284	609,486	-0,023	0,043
-457,270	157,049	0,022	0,023
-456,255	147,848	0,037	-0,037
-455,241	-200,000	-0,015	0,095
-454,226	-158,141	-0,120	0,005
-453,211	125,430	0,067	-0,062
-452,197	117,591	-0,011	0,010
-451,182	-10,965	-0,079	0,038
-450,168	419,243	0,074	0,116
-449,153	176,639	0,091	-0,098
-448,138	384,996	-0,048	-0,074
-447,124	157,966	-0,091	-0,093
-446,109	1,657	0,078	-0,041
-445,095	800,000	0,049	0,115
-444,080	-200,000	-0,005	0,085
-443,065	-35,363	0,106	0,042
-442,051	-200,000	0,001	0,084
-441,036	-32,091	0,032	0,013
-440,022	3,733	-0,056	-0,030
-439,007	-71,289	0,075	-0,021
-437,992	-18,702	0,070	-0,032
-436,978	-200,000	-0,012	0,057
-435,963	-61,442	0,110	-0,034
-434,949	70,230	-0,102	0,078
-433,934	83,687	0,060	-0,048
-432,919	538,597	0,005	0,009
-431,905	-105,204	0,064	-0,011
-430,890	0,519	0,094	-0,049
-429,876	436,397	0,038	0,060
-428,861	63,053	0,061	-0,045
-427,846	-6,392	0,072	-0,036
-426,832	-8,141	-0,077	0,038
-425,817	-200,000	0,002	-0,117
-424,803	139,028	0,043	-0,041
-423,788	800,000	-0,026	-0,074
-422,773	-200,000	0,032	-0,122
-421,759	-149,291	0,030	-0,002
-420,744	-37,498	-0,186	0,073
-419,730	504,009	-0,040	-0,069
-418,715	-200,000	0,026	-0,137
-417,701	-126,749	0,065	0,007
-416,686	-28,827	-0,024	0,010
-415,671	90,934	0,017	-0,014
-414,657	-33,416	0,110	-0,044
-413,642	362,575	0,082	-0,121
-412,628	-200,000	0,016	0,118
-411,613	141,692	0,076	0,074
-410,598	-52,533	0,041	-0,014
-409,584	58,061	-0,093	0,067
-408,569	-16,329	0,101	0,047
-407,555	183,278	-0,020	-0,022
-406,540	-200,000	-0,012	0,102
-405,525	-135,638	0,045	0,004
-404,511	5,977	-0,078	-0,042
-403,496	424,233	-0,043	0,069
-402,482	800,000	0,042	0,086
-401,467	-45,679	0,026	-0,009
-400,452	-90,874	0,083	-0,017
-399,438	-4,805	-0,098	-0,049
-398,423	-200,000	0,031	-0,112
-397,409	-200,000	-0,050	-0,258
-396,394	-190,482	0,035	-0,000
-395,379	-200,000	0,023	-0,078
-394,365	-161,579	-0,060	-0,002
-393,350	-200,000	-0,009	0,047
-392,336	32,364	0,138	0,087
-391,321	-104,258	-0,054	-0,009
-390,306	-200,000	-0,014	-0,069
-389,292	-6,926	0,063	-0,031
-388,277	-33,793	0,125	-0,050
-387,263	-61,754	-0,136	-0,041
-386,248	465,221	-0,058	0,096
-385,233	-151,387	0,096	-0,005
-384,219	-200,000	0,009	-0,079
-383,204	163,300	0,078	-0,081
-382,190	0,603	0,064	0,033
-381,175	-200,000	-0,006	-0,057
-380,160	800,000	0,045	0,142
-379,146	7,052	0,029	0,016
-378,131	185,365	-0,035	0,038
-377,117	-200,000	-0,012	-0,050
-376,102	431,200	0,036	0,058
-375,088	-200,000	0,015	-0,105
-374,073	-80,504	-0,060	-0,015
-373,058	97,566	0,109	-0,092
-372,044	106,117	0,012	0,011
-371,029	65,002	0,022	0,016
-370,015	9,548	0,023	0,013
-369,000	178,788	-0,041	0,044
-367,985	-83,536	-0,088	0,021
-366,971	-0,266	0,042	-0,022
-365,956	-91,976	0,135	0,028
-364,942	-160,223	0,139	0,005
-363,927	-57,648	0,080	-0,026
-362,912	-200,000	0,001	0,013
-361,898	94,093	-0,121	-0,101
-360,883	800,000	0,052	-0,141
-359,869	-171,421	0,124	-0,003
-358,854	268,263	0,069	0,088
-357,839	-200,000	-0,011	-0,059
-356,825	-51,892	0,116	-0,039
-355,810	-200,000	0,008	0,051
-354,796	224,631	0,009	0,011
-353,781	-6,859	-0,050	-0,025
-352,766	-200,000	0,023	-0,090
-351,752	800,000	-0,057	0,125
-350,737	-200,000	0,016	0,116
-349,723	-200,000	-0,013	0,086
-348,708	65,676	0,075	-0,056
-347,693	-13,856	-0,152	-0,072
-346,679	328,541	-0,048	0,068
-345,664	-138,276	-0,026	-0,002
-344,650	-43,212	0,020	0,007
-343,635	256,260	-0,042	0,052
-342,620	243,530	0,026	0,031
-341,606	672,468	-0,027	0,052
-340,591	-200,000	0,018	0,104
-339,577	-200,000	-0,036	-0,236
-338,562	800,000	0,045	-0,140
-337,548	80,336	0,154	-0,121
-336,533	125,226	0,084	-0,078
-335,518	-200,000	-0,012	0,065
-334,504	-107,584	-0,076	0,012
-333,489	458,530	-0,037	-0,060
-332,475	1,356	-0,088	-0,046
-331,460	648,563	-0,097	-0,183
-330,445	195,686	0,038	-0,042
-329,431	800,000	0,038	0,115
-328,416	800,000	0,030	0,063
-327,402	-76,900	-0,058	0,015
-326,387	-42,560	0,061	-0,022
-325,372	630,209	-0,061	0,114
-324,358	-68,967	-0,092	-0,026
-323,343	-200,000	0,015	0,082
-322,329	-200,000	0,011	0,048
-321,314	180,428	-0,056	0,060
-320,299	800,000	0,007	0,020
-319,285	293,034	0,063	-0,084
-318,270	-200,000	-0,031	0,107
-317,256	-72,616	-0,104	0,028
-316,241	-18,309	0,068	-0,031
-315,226	-39,796	0,154	0,059
-314,212	567,271	-0,102	0,181
-313,197	-200,000	0,036	0,131
-312,183	-50,115	-0,031	0,011
-311,168	274,264	-0,006	0,008
-310,153	544,936	0,041	-0,071
-309,139	99,589	-0,059	0,050
-308,124	288,104	-0,021	-0,028
-307,110	220,384	0,084	-0,099
-306,095	-200,000	-0,013	0,067
-305,080	-162,143	0,053	-0,002
-304,066	260,805	0,036	-0,046
-303,051	-6,243	0,085	-0,042
-302,037	17,758	-0,079	0,046
-301,022	-70,066	0,113	0,031
-300,008	137,560	0,014	0,013
-298,993	120,437	-0,127	-0,115
-297,978	-200,000	0,009	0,034
-296,964	-200,000	-0,027	-0,129
-295,949	1,829	0,028	-0,015
-294,935	173,598	-0,064	-0,067
-293,920	-200,000	-0,002	0,176
-292,905	47,300	-0,011	-0,007
-291,891	800,000	0,078	0,161
-290,876	542,406	-0,047	0,082
-289,862	-200,000	0,023	0,114
-288,847	-109,955	0,076	0,011
-287,832	441,873	0,033	-0,054
-286,818	41,829	-0,037	0,024
-285,803	666,857	0,015	-0,028
-284,789	54,088	0,069	-0,049
-283,774	41,046	-0,039	-0,026
-282,759	-148,231	0,161	-0,010
-281,745	-75,753	-0,193	0,050
-280,730	800,000	0,006	0,016
-279,716	-8,309	0,088	0,043
-278,701	124,321	0,155	0,142
-277,686	161,770	0,093	0,095
-276,672	17,137	-0,048	0,027
-275,657	284,912	-0,044	-0,058
-274,643	-144,938	-0,104	-0,007
-273,628	-115,509	-0,079	0,011
-272,613	344,164	-0,057	-0,082
-271,599	-163,054	-0,065	-0,002
-270,584	-90,394	-0,106	-0,022
-269,570	748,111	-0,036	-0,071
-268,555	-1,937	0,101	-0,052
-267,540	800,000	-0,058	-0,148
-266,526	-43,048	-0,008	0,003
-265,511	223,864	0,074	0,088
-264,497	30,883	-0,031	-0,019
-263,482	-200,000	0,005	0,076
-262,467	37,192	0,124	0,080
-261,453	246,599	0,012	0,015
-260,438	-147,887	-0,190	-0,011
-259,424	54,893	-0,094	0,066
-258,409	-200,000	0,016	-0,064
-257,395	-58,067	-0,070	-0,022
-256,380	-135,485	-0,123	-0,011
-255,365	37,801	0,039	-0,025
-254,351	-72,779	0,055	-0,015
-253,336	308,432	-0,043	0,059
-252,322	48,282	-0,067	0,046
-251,307	22,333	0,012	-0,007
-250,292	86,833	0,066	-0,053
-249,278	800,000	0,014	0,043
-248,263	368,260	0,024	-0,036
-247,249	-66,291	-0,144	-0,042
-246,234	-200,000	-0,002	0,168
-245,219	-41,109	-0,154	0,058
-244,205	800,000	-0,053	-0,142
-243,190	-3,414	-0,064	0,033
-242,176	83,061	0,008	0,006
-241,161	-101,983	-0,134	0,023
-240,146	-200,000	-0,028	0,120
-239,132	138,930	0,044	-0,042
-238,117	-149,246	-0,108	-0,006
-237,103	-200,000	-0,002	-0,028
-236,088	-120,248	0,123	-0,015
-235,073	-53,620	-0,093	-0,031
-234,059	76,704	-0,136	0,105
-233,044	800,000	0,034	0,095
-232,030	-124,832	-0,121	-0,013
-231,015	223,659	0,054	-0,064
-230,000	800,000	0,030	-0,078
-228,986	-46,769	-0,087	-0,031
-227,971	22,115	0,153	-0,091
-226,957	800,000	-0,056	0,142
-225,942	-200,000	-0,016	-0,079
-224,927	-39,792	-0,106	-0,040
-223,913	-200,000	-0,039	-0,157
-222,898	-84,977	-0,183	-0,041
-221,884	800,000	-0,024	-0,076
-220,869	344,062	0,111	0,160
-219,855	-137,950	-0,127	-0,010
-218,840	138,151	0,078	0,074
-217,825	800,000	-0,036	0,112
-216,811	-3,345	0,120	-0,061
-215,796	-2,743	-0,085	-0,043
-214,782	-200,000	0,006	-0,028
-213,767	-200,000	-0,006	0,095
-212,752	-200,000	0,013	-0,087
-211,738	353,570	0,051	-0,074
-210,723	254,200	0,022	0,028
-209,709	-200,000	-0,038	-0,126
-208,694	800,000	-0,025	-0,067
-207,679	800,000	-0,038	-0,086
-206,665	800,000	0,037	0,108
-205,650	384,522	0,068	0,102
-204,636	-200,000	0,006	0,077
-203,621	-108,456	0,120	0,019
-202,606	-200,000	-0,007	-0,038
-201,592	-14,662	-0,116	-0,054
-200,577	-200,000	-0,006	-0,102
-199,563	115,829	-0,148	-0,132
-198,548	-110,434	-0,059	-0,009
-197,533	22,125	0,081	0,048
-196,519	800,000	-0,061	0,123
-195,504	-13,840	-0,051	-0,024
-194,490	-142,766	0,238	0,017
-193,475	14,067	-0,049	-0,028
-192,460	-125,987	0,147	0,016
-191,446	104,713	-0,107	-0,092
-190,431	178,094	0,025	0,026
-189,417	-200,000	-0,050	0,218
-188,402	-118,137	0,063	0,008
-187,387	-53,485	-0,104	-0,035
-186,373	250,882	0,037	-0,046
-185,358	328,049	-0,049	0,068
-184,344	800,000	0,041	-0,125
-183,329	-200,000	0,008	-0,049
-182,315	124,519	-0,097	0,089
-181,300	395,505	0,095	0,145
-180,285	505,996	-0,081	0,138
-179,271	311,542	0,042	0,058
-178,256	-200,000	-0,029	-0,116
-177,242	-197,726	0,063	-0,000
-176,227	191,642	-0,062	0,068
-175,212	-112,743	0,135	0,019
-174,198	-0,215	-0,038	-0,020
-173,183	100,938	0,040	-0,034
-172,169	110,158	-0,068	-0,059
-171,154	800,000	-0,021	-0,053
-170,139	800,000	0,031	0,068
-169,125	-200,000	-0,006	0,028
-168,110	-200,000	0,016	0,073
-167,096	-200,000	0,013	-0,042
-166,081	-10,708	-0,054	-0,026
-165,066	308,380	0,066	-0,090
-164,052	800,000	0,020	-0,046
-163,037	800,000	-0,059	-0,122
-162,023	3,063	0,088	-0,047
-161,008	262,747	0,066	-0,083
-159,993	780,808	0,047	-0,095
-158,979	-103,765	0,142	0,024
-157,964	-200,000	-0,014	-0,053
-156,950	-200,000	-0,014	-0,098
-155,935	335,656	0,027	0,039
-154,920	97,943	0,048	0,040
-153,906	-200,000	0,001	-0,020
-152,891	800,000	-0,061	-0,144
-151,877	800,000	0,014	0,035
-150,862	-200,000	0,007	-0,215
-149,847	-40,599	0,009	0,003
-148,833	90,947	0,072	-0,059
-147,818	726,078	-0,021	0,041
-146,804	-200,000	-0,012	-0,063
-145,789	394,627	-0,062	-0,095
-144,775	244,983	-0,151	0,185
-143,760	800,000	-0,056	0,132
-142,745	752,176	-0,024	-0,047
-141,731	-85,544	0,072	-0,016
-140,716	53,801	-0,080	-0,056
-139,702	5,636	0,180	-0,096
-138,687	103,672	-0,139	-0,119
-137,672	-52,888	-0,046	-0,015
-136,658	215,229	-0,054	-0,062
-135,643	-12,959	-0,078	-0,037
-134,629	119,878	-0,066	0,060
-133,614	390,657	0,080	-0,121
-132,599	327,843	0,028	-0,039
-131,585	-200,000	-0,005	-0,021
-130,570	482,299	0,058	-0,097
-129,556	800,000	0,026	-0,068
-128,541	-194,797	-0,049	0,000
-127,526	-200,000	0,018	0,132
-126,512	-200,000	-0,035	-0,156
-125,497	290,948	0,067	0,089
-124,483	-200,000	-0,018	0,208
-123,468	-137,841	0,074	-0,006
-122,453	-91,289	-0,125	-0,026
-121,439	-200,000	-0,042	-0,137
-120,424	-200,000	0,033	-0,127
