DTS Sentinel unit serial number:	SN410029Multiplexer serial number:	ORYXHardware model number:	OX2-SRSoftware version number:	ORYX F/W v4,00 Oryx Data Collector v3.7.2.0data status	okinstallation	B4 Nyhavnadifferential loss correction	single-endedforward channel	channel 2reverse channel	N/Adate	2023/12/16time	15:00:13forward acquisition time	300,00reverse acquisition time	0,00gamma	499,1914k internal	0,3164k external	0,3164temperature offset calibration	1,0000default loss term (dB/km)	0,3820temperature slope calibration	1,0000multiplexer offset coefficient	1,0000multiplexer slope coefficient	1,0000fibre end	0,00T internal ref (°C)	19,54T ext. ref 1 (°C)	10,59T ext. ref 2 (°C)	10,80length (m)	temperature (°C)	Stokes	anti-Stokes-744,400	-60,979	0,044	-0,014
-743,385	-135,080	-0,343	-0,030
-742,371	-59,901	0,139	0,043
-741,356	-96,053	-0,317	0,061
-740,342	309,558	0,029	-0,039
-739,327	-98,904	-0,387	-0,072
-738,312	-80,828	0,089	0,022
-737,298	-127,462	-0,294	-0,031
-736,283	616,691	0,060	0,111
-735,269	-75,751	-0,275	0,071
-734,254	-40,535	0,140	0,053
-733,239	-24,513	-0,417	-0,182
-732,225	-25,200	0,189	0,082
-731,210	800,000	-0,056	0,143
-730,196	-200,000	-0,001	0,030
-729,181	-200,000	0,001	-0,062
-728,167	75,819	-0,092	0,072
-727,152	-200,000	0,000	-0,013
-726,137	-200,000	0,003	-0,119
-725,123	800,000	-0,050	-0,152
-724,108	513,218	-0,099	-0,171
-723,094	800,000	-0,037	-0,083
-722,079	800,000	-0,016	-0,052
-721,064	-80,633	0,114	-0,028
-720,050	-71,419	-0,091	0,025
-719,035	16,873	-0,051	0,030
-718,021	157,771	-0,016	-0,017
-717,006	-200,000	0,010	-0,050
-715,991	269,507	-0,032	-0,042
-714,977	-200,000	0,013	0,056
-713,962	800,000	0,026	0,076
-712,948	-200,000	0,007	-0,026
-711,933	8,182	-0,041	-0,023
-710,918	651,554	-0,044	-0,083
-709,904	-73,042	-0,071	-0,019
-708,889	555,119	-0,055	-0,097
-707,875	-200,000	0,004	-0,100
-706,860	214,197	-0,084	0,098
-705,845	-114,710	0,147	-0,020
-704,831	535,102	-0,051	0,089
-703,816	-200,000	0,022	0,138
-702,802	800,000	0,055	-0,156
-701,787	51,582	-0,101	-0,070
-700,772	69,120	-0,066	0,049
-699,758	-200,000	-0,003	-0,010
-698,743	-200,000	0,030	0,163
-697,729	460,275	0,018	0,029
-696,714	208,649	-0,083	0,095
-695,699	299,513	0,015	-0,020
-694,685	800,000	-0,048	0,124
-693,670	-200,000	0,036	-0,131
-692,656	800,000	-0,040	-0,091
-691,641	29,433	0,114	0,071
-690,627	252,882	0,063	-0,079
-689,612	-111,836	0,073	0,011
-688,597	-200,000	-0,008	0,066
-687,583	800,000	-0,030	0,079
-686,568	-120,341	-0,107	0,013
-685,554	-200,000	0,037	-0,187
-684,539	800,000	0,028	-0,066
-683,524	-200,000	0,009	-0,096
-682,510	152,400	0,034	0,035
-681,495	-153,687	-0,058	-0,003
-680,481	-200,000	-0,017	-0,133
-679,466	199,088	-0,081	-0,091
-678,451	16,892	0,016	-0,009
-677,437	1,197	0,040	0,021
-676,422	260,785	0,074	-0,095
-675,408	166,119	-0,048	-0,050
-674,393	-200,000	-0,018	-0,141
-673,378	-200,000	0,005	-0,056
-672,364	-200,000	0,008	-0,084
-671,349	508,608	-0,058	-0,099
-670,335	800,000	-0,011	0,033
-669,320	-12,340	0,064	-0,030
-668,305	210,061	0,048	-0,055
-667,291	58,560	-0,091	-0,065
-666,276	800,000	-0,032	0,073
-665,262	198,631	-0,103	-0,115
-664,247	579,067	-0,010	-0,018
-663,232	-112,515	0,071	0,010
-662,218	93,616	-0,018	0,015
-661,203	800,000	-0,017	0,050
-660,189	-87,612	0,213	0,047
-659,174	-78,899	-0,073	0,018
-658,159	-30,688	-0,093	-0,038
-657,145	31,764	-0,037	-0,023
-656,130	36,340	-0,052	0,034
-655,116	180,481	0,052	-0,056
-654,101	-77,796	0,167	0,042
-653,086	131,348	-0,071	0,067
-652,072	-200,000	-0,020	-0,082
-651,057	110,702	-0,072	-0,064
-650,043	800,000	-0,015	-0,045
-649,028	-200,000	-0,032	-0,106
-648,014	19,009	0,107	-0,063
-646,999	-200,000	-0,066	-0,228
-645,984	-35,846	0,056	-0,022
-644,970	-29,425	0,077	0,032
-643,955	-28,149	-0,104	-0,044
-642,941	356,728	-0,055	-0,081
-641,926	476,118	-0,036	-0,060
-640,911	98,569	0,119	-0,101
-639,897	587,495	0,043	-0,078
-638,882	-79,386	-0,012	0,003
-637,868	769,364	-0,056	0,112
-636,853	-200,000	-0,001	-0,125
-635,838	182,022	0,057	-0,061
-634,824	-4,201	-0,053	-0,027
-633,809	-200,000	0,008	0,123
-632,795	-200,000	-0,023	-0,164
-631,780	-200,000	0,008	0,032
-630,765	358,809	0,007	0,010
-629,751	-200,000	0,005	-0,054
-628,736	-200,000	0,015	-0,060
-627,722	168,817	0,069	0,072
-626,707	498,776	0,085	-0,144
-625,692	469,320	-0,020	0,034
-624,678	161,881	-0,077	0,079
-623,663	97,537	-0,110	0,093
-622,649	197,577	-0,096	-0,108
-621,634	-200,000	-0,023	-0,092
-620,619	-64,122	-0,096	-0,028
-619,605	-145,062	0,047	-0,003
-618,590	-200,000	-0,007	0,061
-617,576	131,347	0,137	0,129
-616,561	-68,619	-0,145	0,041
-615,546	-87,262	0,080	0,018
-614,532	-4,627	-0,140	-0,070
-613,517	110,645	-0,035	-0,031
-612,503	800,000	-0,038	0,103
-611,488	800,000	-0,006	-0,015
-610,474	-200,000	-0,001	0,030
-609,459	-200,000	0,018	-0,129
-608,444	-56,205	0,018	-0,006
-607,430	800,000	0,033	-0,070
-606,415	-110,251	-0,106	0,016
-605,401	-119,595	-0,084	-0,011
-604,386	-200,000	0,011	0,107
-603,371	82,123	0,047	0,038
-602,357	777,549	-0,040	-0,080
-601,342	226,119	-0,017	0,020
-600,328	800,000	-0,051	-0,109
-599,313	-200,000	-0,023	-0,127
-598,298	195,960	-0,009	0,010
-597,284	189,211	0,100	-0,110
-596,269	10,428	0,107	0,059
-595,255	800,000	-0,019	-0,059
-594,240	-200,000	-0,010	0,109
-593,225	-200,000	0,024	-0,127
-592,211	-6,905	0,094	-0,047
-591,196	-113,840	0,095	0,013
-590,182	-82,680	0,056	0,013
-589,167	218,664	0,048	-0,056
-588,152	-200,000	-0,017	0,065
-587,138	237,256	-0,104	-0,126
-586,123	-108,690	-0,182	-0,028
-585,109	-200,000	-0,016	0,068
-584,094	5,092	0,047	-0,025
-583,079	800,000	-0,009	0,022
-582,065	476,462	0,067	-0,111
-581,050	70,477	-0,045	0,034
-580,036	80,553	0,040	0,031
-579,021	-11,743	-0,074	-0,036
-578,006	9,141	-0,091	0,050
-576,992	800,000	-0,009	-0,021
-575,977	373,634	-0,038	-0,056
-574,963	196,370	0,048	0,053
-573,948	-52,288	-0,148	0,050
-572,934	108,556	-0,121	0,106
-571,919	800,000	-0,030	-0,092
-570,904	-200,000	-0,045	-0,153
-569,890	97,063	0,079	-0,066
-568,875	178,321	-0,032	-0,034
-567,861	19,614	0,030	0,017
-566,846	-19,352	0,063	0,028
-565,831	267,410	-0,078	-0,100
-564,817	-157,616	-0,013	0,001
-563,802	358,462	-0,068	-0,099
-562,788	-27,484	-0,124	0,053
-561,773	33,295	-0,038	0,024
-560,758	6,977	0,029	-0,016
-559,744	800,000	-0,073	0,153
-558,729	-151,844	0,107	0,006
-557,715	800,000	0,018	-0,053
-556,700	800,000	-0,053	-0,119
-555,685	565,494	0,017	0,030
-554,671	49,995	-0,020	0,014
-553,656	-200,000	-0,008	0,057
-552,642	-30,459	0,029	0,012
-551,627	76,273	0,045	0,035
-550,612	16,498	-0,070	0,040
-549,598	275,777	-0,086	-0,111
-548,583	-110,794	-0,128	0,019
-547,569	349,724	0,034	0,050
-546,554	-200,000	0,006	0,062
-545,539	3,954	0,015	-0,008
-544,525	-144,821	0,065	-0,004
-543,510	-132,137	0,051	-0,005
-542,496	40,965	0,077	0,050
-541,481	-40,471	-0,040	-0,015
-540,466	-131,254	0,118	-0,011
-539,452	-200,000	-0,012	0,071
-538,437	167,489	-0,059	0,061
-537,423	141,830	0,083	-0,080
-536,408	-200,000	0,005	0,102
-535,393	-101,507	-0,066	-0,012
-534,379	-200,000	0,006	-0,099
-533,364	19,900	-0,081	-0,047
-532,350	800,000	-0,003	0,007
-531,335	100,009	0,119	0,100
-530,321	-200,000	-0,013	0,110
-529,306	-200,000	0,015	0,141
-528,291	44,605	0,144	-0,096
-527,277	148,627	-0,072	0,071
-526,262	89,732	-0,156	-0,127
-525,248	455,746	0,089	0,145
-524,233	-75,706	0,071	-0,018
-523,218	694,621	0,017	0,033
-522,204	-54,383	0,066	-0,022
-521,189	39,384	-0,120	0,078
-520,175	76,263	0,072	-0,055
-519,160	256,576	0,052	-0,065
-518,145	-200,000	-0,004	0,022
-517,131	-200,000	0,018	-0,172
-516,116	77,868	0,107	-0,083
-515,102	-200,000	0,000	0,027
-514,087	800,000	0,015	0,039
-513,072	649,949	-0,014	-0,027
-512,058	-200,000	0,017	-0,064
-511,043	-20,550	0,126	0,056
-510,029	74,868	0,121	0,093
-509,014	183,166	0,075	0,081
-507,999	-200,000	-0,018	-0,074
-506,985	217,519	-0,032	-0,037
-505,970	-26,757	-0,117	-0,050
-504,956	55,478	-0,075	-0,053
-503,941	-200,000	0,001	-0,066
-502,926	67,304	0,052	0,039
-501,912	165,120	0,082	0,084
-500,897	-200,000	-0,000	0,034
-499,883	-200,000	-0,003	-0,106
-498,868	-14,308	-0,145	-0,068
-497,853	-200,000	-0,011	-0,056
-496,839	-170,888	0,073	0,002
-495,824	-123,070	0,040	-0,005
-494,810	-11,074	-0,109	0,052
-493,795	345,005	-0,047	0,068
-492,781	77,543	0,046	0,036
-491,766	0,278	-0,042	0,022
-490,751	-100,013	-0,066	-0,012
-489,737	32,827	-0,031	-0,019
-488,722	-141,033	0,103	0,008
-487,708	33,616	0,048	-0,031
-486,693	-149,376	0,092	0,005
-485,678	35,924	-0,125	0,080
-484,664	800,000	-0,026	-0,083
-483,649	189,368	0,070	0,076
-482,635	800,000	-0,012	-0,031
-481,620	-200,000	0,008	0,035
-480,605	-200,000	-0,002	-0,027
-479,591	92,513	-0,100	0,082
-478,576	-128,103	-0,040	0,004
-477,562	226,973	-0,033	-0,039
-476,547	540,284	-0,046	0,081
-475,532	167,444	-0,086	-0,089
-474,518	-137,433	0,123	-0,010
-473,503	-121,414	-0,168	0,020
-472,489	-200,000	-0,008	0,037
-471,474	510,594	0,038	0,064
-470,459	571,095	-0,036	-0,063
-469,445	-200,000	0,063	0,000
-468,430	800,000	0,025	-0,060
-467,416	-200,000	0,032	0,165
-466,401	800,000	-0,020	0,062
-465,386	800,000	0,019	-0,054
-464,372	498,916	-0,068	0,114
-463,357	107,623	0,098	0,085
-462,343	21,651	-0,098	-0,058
-461,328	-200,000	0,032	-0,157
-460,313	11,810	0,100	0,056
-459,299	69,636	0,081	-0,060
-458,284	-96,822	0,148	0,028
-457,270	-200,000	-0,058	0,245
-456,255	59,006	-0,063	-0,045
-455,241	-162,070	-0,079	0,003
-454,226	-29,246	-0,083	-0,035
-453,211	-200,000	0,017	-0,056
-452,197	-200,000	0,048	0,177
-451,182	193,312	-0,067	-0,074
-450,168	-15,925	0,186	0,086
-449,153	174,561	-0,053	-0,056
-448,138	-15,544	-0,064	-0,030
-447,124	-62,243	-0,042	-0,013
-446,109	-159,563	0,113	-0,004
-445,095	-200,000	-0,008	0,041
-444,080	-114,980	0,076	0,010
-443,065	131,454	-0,054	0,050
-442,051	259,722	0,075	-0,094
-441,036	152,557	-0,057	0,056
-440,022	-149,612	-0,125	0,007
-439,007	0,718	0,107	-0,055
-437,992	-110,457	-0,057	0,008
-436,978	-200,000	-0,026	-0,109
-435,963	99,648	0,156	-0,131
-434,949	-85,331	-0,046	0,010
-433,934	-200,000	-0,013	-0,182
-432,919	-72,022	-0,121	0,032
-431,905	-84,388	0,080	-0,018
-430,890	-110,921	0,164	0,024
-429,876	-82,554	-0,027	-0,006
-428,861	-51,328	-0,071	0,024
-427,846	136,608	0,042	0,040
-426,832	-200,000	-0,009	0,033
-425,817	800,000	0,016	-0,051
-424,803	55,672	0,062	-0,043
-423,788	-36,921	-0,047	0,018
-422,773	275,024	0,073	0,094
-421,759	-103,063	0,076	-0,013
-420,744	-200,000	-0,023	0,077
-419,730	785,653	-0,014	-0,029
-418,715	-200,000	-0,020	-0,066
-417,701	567,297	0,041	-0,073
-416,686	630,917	0,029	0,054
-415,671	301,959	0,083	0,112
-414,657	-200,000	-0,034	0,201
-413,642	-200,000	-0,010	0,033
-412,628	800,000	-0,059	0,150
-411,613	-85,011	0,102	0,023
-410,598	174,275	-0,076	0,080
-409,584	-200,000	-0,012	-0,078
-408,569	-11,105	-0,069	-0,033
-407,555	-200,000	0,025	0,114
-406,540	39,750	0,072	0,047
-405,525	-19,000	0,034	0,015
-404,511	280,405	-0,060	-0,078
-403,496	-200,000	-0,000	-0,104
-402,482	-75,246	0,121	0,031
-401,467	-61,207	-0,068	-0,021
-400,452	-200,000	-0,020	0,000
-399,438	24,229	0,125	0,075
-398,423	-136,583	-0,117	-0,010
-397,409	-157,505	-0,034	0,001
-396,394	126,990	-0,089	-0,082
-395,379	-162,514	0,072	-0,003
-394,365	800,000	0,035	-0,073
-393,350	800,000	0,024	-0,076
-392,336	-200,000	-0,003	0,040
-391,321	672,126	-0,036	-0,068
-390,306	369,495	-0,053	0,078
-389,292	189,499	0,044	-0,048
-388,277	123,187	0,077	-0,070
-387,263	-200,000	-0,008	-0,081
-386,248	800,000	-0,039	0,094
-385,233	398,840	-0,027	0,041
-384,219	-200,000	0,014	-0,147
-383,204	356,041	-0,043	-0,062
-382,190	-146,453	-0,138	-0,009
-381,175	182,697	0,071	0,076
-380,160	-200,000	-0,001	0,045
-379,146	-200,000	-0,011	0,068
-378,131	-74,228	-0,003	-0,001
-377,117	-200,000	0,001	0,004
-376,102	577,088	-0,046	-0,083
-375,088	-200,000	0,034	-0,119
-374,073	103,446	-0,011	-0,009
-373,058	456,954	-0,032	-0,051
-372,044	-200,000	0,017	-0,063
-371,029	11,179	0,079	0,044
-370,015	-58,978	-0,027	0,008
-369,000	63,329	-0,053	-0,038
-367,985	26,324	-0,125	0,075
-366,971	-99,440	-0,111	-0,020
-365,956	243,477	0,012	-0,015
-364,942	-40,684	0,076	-0,028
-363,927	-10,441	0,033	-0,016
-362,912	-200,000	0,005	0,079
-361,898	-67,052	0,024	0,007
-360,883	-200,000	-0,012	-0,102
-359,869	800,000	0,045	-0,112
-358,854	-73,640	-0,085	0,022
-357,839	2,641	0,133	0,070
-356,825	426,757	-0,127	0,199
-355,810	-81,173	0,118	0,028
-354,796	54,691	-0,107	0,075
-353,781	-54,532	-0,092	-0,030
-352,766	-63,397	0,068	-0,020
-351,752	141,113	-0,022	0,021
-350,737	-88,907	0,068	0,015
-349,723	800,000	-0,069	0,171
-348,708	-10,966	-0,045	-0,021
-347,693	31,455	-0,062	0,038
-346,679	-200,000	0,032	-0,132
-345,664	-200,000	0,021	-0,088
-344,650	231,223	0,092	-0,110
-343,635	-107,769	-0,088	-0,014
-342,620	-93,155	0,123	-0,025
-341,606	800,000	0,044	-0,138
-340,591	-121,293	0,123	0,015
-339,577	-164,412	0,054	0,002
-338,562	333,393	0,021	0,029
-337,548	160,894	-0,059	0,060
-336,533	478,431	0,033	0,054
-335,518	2,463	0,055	0,029
-334,504	800,000	0,016	0,034
-333,489	-200,000	0,041	-0,215
-332,475	221,814	0,030	-0,035
-331,460	280,685	-0,058	-0,075
-330,445	50,587	-0,050	0,034
-329,431	-12,188	0,046	0,022
-328,416	-200,000	0,009	0,124
-327,402	-33,384	0,076	0,030
-326,387	-200,000	0,017	0,091
-325,372	74,833	-0,091	-0,069
-324,358	510,728	-0,040	-0,068
-323,343	-57,059	0,074	-0,024
-322,329	-86,707	-0,099	0,022
-321,314	-57,300	-0,067	0,021
-320,299	-200,000	-0,012	0,110
-319,285	410,969	0,046	0,071
-318,270	99,185	-0,020	-0,017
-317,256	-200,000	-0,117	0,000
-316,241	661,714	-0,067	-0,125
-315,226	-31,061	0,135	-0,055
-314,212	800,000	0,007	0,021
-313,197	-64,244	0,142	0,041
-312,183	-115,613	0,097	-0,013
-311,168	28,542	0,011	-0,007
-310,153	-200,000	0,001	-0,023
-309,139	800,000	0,043	-0,118
-308,124	-200,000	-0,001	-0,161
-307,110	-112,536	0,036	0,005
-306,095	-173,193	0,082	0,002
-305,080	-200,000	0,039	-0,170
-304,066	57,149	0,015	0,011
-303,051	-141,150	-0,133	0,010
-302,037	-152,144	-0,158	0,008
-301,022	551,751	0,068	-0,118
-300,008	-200,000	0,019	0,139
-298,993	-80,244	0,114	0,027
-297,978	55,455	0,098	0,069
-296,964	28,137	-0,085	-0,052
-295,949	-88,947	-0,006	0,001
-294,935	20,588	0,057	0,033
-293,920	224,094	0,066	-0,078
-292,905	-118,767	-0,079	0,010
-291,891	290,536	0,081	0,107
-290,876	-200,000	0,013	0,151
-289,862	-184,764	-0,091	0,001
-288,847	301,023	0,036	-0,048
-287,832	180,901	0,009	0,009
-286,818	285,653	0,006	0,008
-285,803	-200,000	-0,011	-0,073
-284,789	-23,891	0,058	0,025
-283,774	13,648	0,088	0,049
-282,759	-51,310	0,097	-0,033
-281,745	800,000	-0,062	-0,151
-280,730	202,769	-0,091	0,101
-279,716	800,000	-0,048	0,141
-278,701	19,105	0,091	-0,053
-277,686	239,523	-0,091	-0,109
-276,672	74,614	-0,040	0,030
-275,657	221,915	-0,090	-0,105
-274,643	800,000	0,026	0,075
-273,628	214,826	-0,132	0,151
-272,613	-200,000	0,027	-0,134
-271,599	800,000	0,068	0,167
-270,584	3,046	-0,060	-0,031
-269,570	-200,000	-0,009	0,112
-268,555	83,663	0,035	-0,028
-267,540	59,670	-0,163	0,116
-266,526	-200,000	-0,008	-0,149
-265,511	-200,000	-0,010	-0,041
-264,497	-103,557	0,117	0,020
-263,482	548,820	0,071	0,123
-262,467	-200,000	0,022	0,074
-261,453	-200,000	-0,003	0,027
-260,438	448,051	-0,033	0,053
-259,424	479,757	-0,055	0,090
-258,409	440,087	-0,038	-0,060
-257,395	-49,957	0,051	0,017
-256,380	-38,665	-0,080	-0,031
-255,365	-154,601	0,104	-0,005
-254,351	186,895	-0,057	0,062
-253,336	127,666	0,133	0,122
-252,322	-39,108	-0,092	0,035
-251,307	800,000	0,023	-0,063
-250,292	800,000	-0,027	0,061
-249,278	-34,387	0,130	0,051
-248,263	-200,000	-0,000	-0,012
-247,249	-200,000	-0,009	0,034
-246,234	-200,000	-0,009	0,063
-245,219	709,130	-0,023	0,044
-244,205	-4,937	0,104	-0,052
-243,190	105,769	0,096	0,082
-242,176	-200,000	0,003	0,170
-241,161	91,284	-0,034	-0,028
-240,146	800,000	-0,049	0,101
-239,132	796,203	0,076	-0,152
-238,117	800,000	0,039	0,079
-237,103	167,848	-0,052	0,053
-236,088	-101,340	-0,011	-0,002
-235,073	-8,158	-0,087	-0,042
-234,059	800,000	0,096	0,194
-233,044	-200,000	0,002	0,085
-232,030	-5,046	0,080	0,040
-231,015	-48,862	-0,075	-0,026
-230,000	160,412	0,014	0,014
-228,986	-94,045	-0,088	-0,017
-227,971	110,237	-0,052	-0,045
-226,957	154,214	0,019	-0,019
-225,942	800,000	-0,042	0,123
-224,927	8,775	0,185	0,100
-223,913	-83,549	-0,165	-0,038
-222,898	13,585	-0,036	0,020
-221,884	41,304	-0,066	0,043
-220,869	-43,261	-0,046	-0,017
-219,855	292,159	0,039	-0,051
-218,840	-8,381	0,029	-0,014
-217,825	144,762	0,054	0,052
-216,811	800,000	-0,028	-0,072
-215,796	-11,782	0,054	-0,026
-214,782	97,578	0,031	-0,025
-213,767	-47,718	0,131	0,045
-212,752	167,492	0,114	0,116
-211,738	-6,382	-0,090	-0,044
-210,723	-77,828	-0,085	-0,021
-209,709	-49,022	-0,050	-0,017
-208,694	-53,035	-0,091	-0,030
-207,679	7,413	-0,031	-0,016
-206,665	800,000	0,059	0,130
-205,650	5,716	0,159	0,084
-204,636	-65,847	0,033	-0,009
-203,621	404,586	-0,090	0,137
-202,606	161,299	-0,092	0,092
-201,592	263,356	0,084	0,105
-200,577	800,000	-0,027	-0,064
-199,563	-94,138	0,063	-0,012
-198,548	-64,538	-0,057	0,017
-197,533	105,718	0,018	0,015
-196,519	800,000	0,036	-0,102
-195,504	203,740	-0,041	-0,046
-194,490	-200,000	0,015	-0,065
-193,475	-59,531	-0,110	-0,034
-192,460	-200,000	0,017	0,085
-191,446	-55,434	0,249	-0,080
-190,431	-200,000	-0,003	0,125
-189,417	-189,268	-0,134	0,001
-188,402	-178,169	-0,134	-0,002
-187,387	429,221	-0,146	-0,228
-186,373	-200,000	0,018	-0,132
-185,358	629,570	0,031	0,057
-184,344	800,000	0,039	0,102
-183,329	-45,767	0,066	0,023
-182,315	800,000	0,035	-0,070
-181,300	325,774	-0,025	0,035
-180,285	303,962	-0,091	0,122
-179,271	481,040	0,068	0,112
-178,256	40,322	0,009	0,006
-177,242	-200,000	-0,026	-0,108
-176,227	-200,000	0,009	0,047
-175,212	121,126	0,075	0,067
-174,198	26,189	-0,126	-0,076
-173,183	339,218	0,042	-0,060
-172,169	129,267	0,049	-0,045
-171,154	-200,000	-0,010	0,056
-170,139	397,385	0,036	0,055
-169,125	35,106	0,059	0,037
-168,110	800,000	-0,013	0,033
-167,096	800,000	-0,019	-0,037
-166,081	24,511	-0,099	-0,059
-165,066	-22,696	-0,193	-0,083
-164,052	205,474	-0,052	-0,058
-163,037	-90,149	0,040	0,008
-162,023	800,000	0,045	0,119
-161,008	-200,000	-0,004	0,036
-159,993	-200,000	0,043	-0,154
-158,979	-33,790	0,048	-0,019
-157,964	-89,222	-0,054	-0,011
-156,950	-86,667	0,062	0,014
-155,935	12,691	0,106	-0,059
-154,920	-16,247	-0,081	-0,037
-153,906	34,667	0,089	0,056
-152,891	-150,146	-0,118	-0,006
-151,877	-200,000	-0,010	0,052
-150,862	343,882	-0,020	-0,028
-149,847	30,322	0,035	-0,022
-148,833	-58,191	0,079	0,025
-147,818	126,200	0,037	0,033
-146,804	-140,655	-0,108	0,008
-145,789	164,271	0,088	0,089
-144,775	149,382	-0,022	0,021
-143,760	800,000	-0,024	-0,055
-142,745	-200,000	0,007	-0,087
-141,731	-200,000	0,030	0,105
-140,716	-41,773	0,108	-0,040
-139,702	-151,031	0,041	0,002
-138,687	800,000	-0,037	0,094
-137,672	106,752	0,083	0,071
-136,658	-38,512	0,057	-0,022
-135,643	6,412	-0,021	-0,011
-134,629	-200,000	-0,019	0,153
-133,614	709,681	-0,015	0,029
-132,599	451,344	0,065	0,104
-131,585	-200,000	-0,040	0,145
-130,570	-200,000	-0,019	-0,121
-129,556	-133,092	0,083	0,007
-128,541	-200,000	0,005	-0,093
-127,526	-200,000	-0,032	0,131
-126,512	2,360	0,028	0,014
-125,497	-143,217	0,095	-0,006
-124,483	-9,529	-0,204	0,098
-123,468	-20,542	0,056	-0,025
-122,453	-123,907	0,033	-0,004
-121,439	71,684	-0,070	-0,052
-120,424	7,266	0,038	-0,020
-119,410	519,022	0,027	-0,045
-118,395	48,790	-0,098	0,066
