DTS Sentinel unit serial number:	SN410029Multiplexer serial number:	ORYXHardware model number:	OX2-SRSoftware version number:	ORYX F/W v4,00 Oryx Data Collector v3.7.2.0data status	okinstallation	B4 Nyhavnadifferential loss correction	single-endedforward channel	channel 2reverse channel	N/Adate	2023/12/19time	11:30:14forward acquisition time	300,00reverse acquisition time	0,00gamma	499,1914k internal	0,3128k external	0,3128temperature offset calibration	1,0000default loss term (dB/km)	0,3820temperature slope calibration	1,0000multiplexer offset coefficient	1,0000multiplexer slope coefficient	1,0000fibre end	0,00T internal ref (°C)	19,79T ext. ref 1 (°C)	4,55T ext. ref 2 (°C)	4,50length (m)	temperature (°C)	Stokes	anti-Stokes-744,400	800,000	0,053	-0,112
-743,385	-164,452	-0,153	0,005
-742,371	248,276	-0,046	0,058
-741,356	1,137	-0,210	0,112
-740,342	497,775	-0,043	-0,074
-739,327	-92,413	-0,267	0,056
-738,312	111,802	0,053	-0,047
-737,298	-68,755	-0,259	0,074
-736,283	-39,189	-0,091	-0,035
-735,269	-33,292	-0,274	0,112
-734,254	383,237	-0,020	0,031
-733,239	-124,175	-0,309	-0,036
-732,225	-42,360	0,108	-0,041
-731,210	335,569	-0,054	-0,078
-730,196	-200,000	-0,013	-0,131
-729,181	-28,039	0,050	-0,021
-728,167	42,552	-0,080	-0,054
-727,152	306,982	-0,053	-0,074
-726,137	372,029	-0,050	-0,076
-725,123	111,214	-0,060	0,053
-724,108	-200,000	-0,013	-0,129
-723,094	-17,895	-0,051	-0,024
-722,079	-200,000	0,001	-0,050
-721,064	105,098	-0,114	-0,100
-720,050	114,501	-0,053	-0,048
-719,035	760,947	0,019	-0,039
-718,021	800,000	-0,054	-0,152
-717,006	110,624	0,082	-0,074
-715,991	115,855	-0,049	-0,044
-714,977	-59,348	-0,068	0,022
-713,962	-200,000	-0,036	-0,142
-712,948	-172,972	-0,010	-0,000
-711,933	-168,574	-0,103	-0,003
-710,918	-108,230	-0,041	-0,007
-709,904	-100,423	-0,099	0,018
-708,889	-200,000	-0,014	-0,075
-707,875	800,000	-0,024	-0,060
-706,860	-200,000	0,029	0,104
-705,845	76,049	0,098	0,077
-704,831	52,246	-0,037	-0,026
-703,816	178,255	0,051	0,055
-702,802	49,863	-0,115	-0,080
-701,787	-39,778	-0,107	-0,041
-700,772	-200,000	-0,010	0,101
-699,758	230,191	-0,055	-0,067
-698,743	-121,092	0,068	0,008
-697,729	680,596	0,076	0,148
-696,714	512,406	-0,036	0,063
-695,699	800,000	-0,040	-0,099
-694,685	-3,660	-0,076	-0,039
-693,670	-10,547	0,100	-0,049
-692,656	-12,836	0,053	0,025
-691,641	306,380	-0,058	-0,081
-690,627	655,956	-0,006	0,012
-689,612	185,603	0,094	-0,104
-688,597	-44,970	-0,050	-0,018
-687,583	-200,000	0,006	0,092
-686,568	-200,000	0,005	-0,082
-685,554	89,235	0,041	0,034
-684,539	800,000	0,068	0,205
-683,524	-74,952	0,028	-0,007
-682,510	-200,000	-0,002	0,192
-681,495	-139,288	-0,134	0,011
-680,481	800,000	-0,006	0,013
-679,466	605,530	0,084	-0,156
-678,451	409,704	0,018	-0,028
-677,437	-94,048	0,066	-0,013
-676,422	-200,000	-0,016	-0,059
-675,408	471,188	-0,058	-0,098
-674,393	8,882	-0,027	0,015
-673,378	-200,000	-0,010	-0,062
-672,364	97,048	-0,143	-0,122
-671,349	64,101	-0,075	-0,056
-670,335	-66,109	0,098	-0,029
-669,320	122,304	-0,082	0,076
-668,305	182,241	-0,038	0,042
-667,291	-14,362	0,114	-0,054
-666,276	137,571	0,075	-0,073
-665,262	-166,620	-0,059	-0,002
-664,247	173,228	0,057	0,061
-663,232	640,745	0,078	0,149
-662,218	145,966	-0,058	-0,058
-661,203	0,236	0,039	0,021
-660,189	23,226	0,049	-0,030
-659,174	-19,568	-0,219	-0,100
-658,159	-156,440	0,028	-0,001
-657,145	-9,694	0,038	-0,019
-656,130	-200,000	0,023	0,187
-655,116	74,241	0,046	0,036
-654,101	401,781	0,066	-0,103
-653,086	281,994	0,063	0,085
-652,072	800,000	-0,041	-0,123
-651,057	-200,000	-0,016	-0,149
-650,043	39,576	0,098	-0,065
-649,028	-200,000	-0,155	-0,000
-648,014	102,631	0,050	0,044
-646,999	232,121	-0,060	0,074
-645,984	-200,000	-0,001	0,054
-644,970	-162,498	-0,101	0,004
-643,955	-89,012	-0,051	0,011
-642,941	44,694	0,059	-0,040
-641,926	32,465	0,074	-0,047
-640,911	48,256	0,104	0,072
-639,897	698,796	0,027	0,052
-638,882	50,403	-0,068	-0,047
-637,868	-200,000	0,007	0,037
-636,853	-193,345	-0,110	-0,001
-635,838	-3,920	-0,085	-0,044
-634,824	-200,000	0,009	-0,031
-633,809	113,142	-0,039	-0,035
-632,795	16,974	-0,094	0,055
-631,780	124,434	-0,048	0,045
-630,765	45,880	0,081	0,055
-629,751	5,133	0,118	-0,064
-628,736	-86,651	-0,175	0,039
-627,722	488,885	-0,053	-0,090
-626,707	-200,000	0,004	0,027
-625,692	-57,710	0,147	0,048
-624,678	118,432	-0,101	-0,093
-623,663	-24,792	0,064	0,028
-622,649	197,747	-0,085	0,096
-621,634	-89,781	-0,132	-0,028
-620,619	5,363	-0,115	-0,063
-619,605	171,020	-0,148	-0,158
-618,590	-200,000	0,071	0,000
-617,576	-68,902	0,078	0,022
-616,561	-200,000	-0,013	0,043
-615,546	70,753	-0,131	0,100
-614,532	-7,470	-0,020	-0,010
-613,517	15,940	-0,130	0,076
-612,503	364,879	-0,116	-0,173
-611,488	-12,246	-0,072	0,035
-610,474	-79,448	-0,060	-0,015
-609,459	20,248	0,084	0,050
-608,444	-200,000	0,002	0,120
-607,430	-40,909	-0,034	0,013
-606,415	478,283	-0,015	-0,025
-605,401	359,961	-0,107	-0,159
-604,386	-200,000	0,008	-0,069
-603,371	-200,000	-0,012	0,049
-602,357	11,932	-0,012	-0,007
-601,342	281,102	-0,030	-0,040
-600,328	-67,994	-0,097	-0,028
-599,313	-200,000	0,022	0,083
-598,298	78,483	0,047	0,037
-597,284	-166,391	-0,046	0,001
-596,269	253,135	0,075	0,094
-595,255	182,548	-0,076	-0,084
-594,240	-26,052	-0,076	0,033
-593,225	29,972	-0,046	0,029
-592,211	-25,532	0,064	-0,028
-591,196	244,983	-0,063	-0,078
-590,182	108,657	0,077	0,068
-589,167	-200,000	-0,035	-0,149
-588,152	-200,000	0,002	-0,028
-587,138	7,990	-0,047	-0,026
-586,123	-87,877	-0,101	0,022
-585,109	-28,546	0,065	0,028
-584,094	-200,000	-0,007	-0,027
-583,079	-200,000	0,021	0,151
-582,065	59,965	-0,036	0,027
-581,050	800,000	0,006	0,014
-580,036	189,951	0,058	-0,064
-579,021	-169,828	-0,166	0,004
-578,006	-36,285	0,083	0,033
-576,992	-73,962	0,088	0,023
-575,977	-128,799	-0,057	-0,006
-574,963	800,000	0,021	-0,057
-573,948	671,889	0,031	0,060
-572,934	640,719	0,008	0,015
-571,919	-157,789	-0,084	0,004
-570,904	800,000	-0,043	-0,097
-569,890	18,344	-0,038	0,023
-568,875	85,171	0,158	0,128
-567,861	-200,000	-0,002	0,133
-566,846	-200,000	-0,003	0,113
-565,831	-27,078	0,127	-0,054
-564,817	-134,780	-0,189	-0,017
-563,802	-200,000	0,012	-0,172
-562,788	-146,597	-0,147	0,009
-561,773	10,865	0,110	0,062
-560,758	800,000	0,035	-0,106
-559,744	61,245	-0,072	0,053
-558,729	-200,000	0,019	0,131
-557,715	-138,233	-0,140	-0,011
-556,700	-200,000	-0,000	-0,021
-555,685	-66,616	-0,128	-0,037
-554,671	800,000	-0,020	0,062
-553,656	800,000	0,050	-0,134
-552,642	-116,832	0,111	0,015
-551,627	656,796	-0,055	-0,105
-550,612	-88,386	0,039	0,009
-549,598	-200,000	0,024	0,150
-548,583	800,000	0,050	-0,121
-547,569	230,052	0,104	-0,126
-546,554	-200,000	0,003	0,278
-545,539	627,282	0,047	-0,087
-544,525	-95,862	-0,074	-0,014
-543,510	355,560	0,067	-0,099
-542,496	-22,517	0,012	0,006
-541,481	496,695	-0,038	0,064
-540,466	10,077	0,036	0,020
-539,452	-78,586	0,106	0,027
-538,437	-105,350	-0,035	-0,006
-537,423	-112,102	0,050	0,007
-536,408	-200,000	0,027	-0,113
-535,393	-33,260	-0,067	0,027
-534,379	330,690	0,028	-0,041
-533,364	700,137	0,078	-0,152
-532,350	147,644	-0,100	0,099
-531,335	-198,964	-0,038	-0,000
-530,321	44,635	0,049	-0,033
-529,306	573,023	-0,005	0,009
-528,291	358,112	0,115	-0,170
-527,277	274,141	-0,050	-0,065
-526,262	-42,988	0,119	-0,044
-525,248	101,630	0,022	-0,019
-524,233	800,000	-0,049	0,103
-523,218	-40,353	0,078	-0,030
-522,204	-93,828	-0,137	0,028
-521,189	475,067	-0,051	-0,085
-520,175	-14,937	-0,061	0,029
-519,160	-200,000	0,001	-0,042
-518,145	-64,916	0,017	0,005
-517,131	-60,248	0,091	0,028
-516,116	-200,000	0,022	0,075
-515,102	43,309	-0,056	-0,037
-514,087	114,542	-0,100	-0,090
-513,072	-47,715	-0,097	-0,034
-512,058	800,000	0,011	0,029
-511,043	34,135	0,063	-0,041
-510,029	82,398	0,091	0,073
-509,014	208,078	-0,023	-0,027
-507,999	49,910	0,077	0,054
-506,985	395,793	0,060	0,093
-505,970	800,000	-0,013	0,037
-504,956	-200,000	0,011	-0,071
-503,941	-87,795	0,091	-0,020
-502,926	-200,000	0,007	0,101
-501,912	-11,061	0,108	-0,052
-500,897	800,000	0,047	0,144
-499,883	265,770	0,032	0,042
-498,868	800,000	-0,009	-0,021
-497,853	800,000	-0,032	0,094
-496,839	265,329	-0,079	-0,102
-495,824	-200,000	0,015	-0,071
-494,810	151,314	0,094	0,095
-493,795	-200,000	-0,005	0,045
-492,781	800,000	-0,075	-0,168
-491,766	-30,175	0,059	-0,025
-490,751	-74,084	-0,107	0,028
-489,737	-200,000	0,019	-0,068
-488,722	-43,347	0,107	-0,040
-487,708	352,721	0,045	0,066
-486,693	103,059	-0,060	0,052
-485,678	439,649	0,023	-0,036
-484,664	221,785	-0,015	0,018
-483,649	21,976	0,033	0,020
-482,635	41,619	0,067	-0,044
-481,620	513,092	-0,036	0,062
-480,605	38,065	0,090	0,059
-479,591	330,567	0,060	0,086
-478,576	348,009	0,055	-0,080
-477,562	-55,055	-0,114	0,037
-476,547	-200,000	0,011	0,070
-475,532	287,998	0,032	0,043
-474,518	-104,943	0,053	0,009
-473,503	-107,303	-0,069	0,011
-472,489	-200,000	0,007	0,068
-471,474	386,954	0,039	-0,059
-470,459	-200,000	-0,001	-0,057
-469,445	584,740	-0,028	0,050
-468,430	-14,605	0,072	0,034
-467,416	-57,704	-0,032	0,010
-466,401	-0,889	0,133	-0,069
-465,386	-28,079	-0,054	0,023
-464,372	-94,783	-0,053	-0,011
-463,357	800,000	0,034	0,082
-462,343	-150,917	-0,119	-0,007
-461,328	48,331	-0,100	0,069
-460,313	800,000	-0,017	0,043
-459,299	-91,841	-0,081	-0,017
-458,284	136,294	0,102	0,098
-457,270	65,207	-0,112	0,084
-456,255	-200,000	-0,019	-0,097
-455,241	-200,000	0,008	-0,151
-454,226	-169,546	-0,076	-0,002
-453,211	13,541	-0,039	-0,022
-452,197	41,618	-0,102	-0,068
-451,182	800,000	0,068	0,164
-450,168	-59,638	-0,075	0,023
-449,153	-18,085	0,109	0,050
-448,138	183,893	-0,043	0,047
-447,124	-200,000	0,002	-0,095
-446,109	-200,000	0,003	-0,074
-445,095	135,546	0,091	0,087
-444,080	-200,000	-0,006	0,169
-443,065	-144,353	0,064	-0,004
-442,051	397,301	0,079	-0,122
-441,036	-200,000	-0,033	-0,180
-440,022	-200,000	-0,003	0,017
-439,007	-27,689	0,026	-0,011
-437,992	16,327	0,176	-0,102
-436,978	-138,779	0,112	-0,009
-435,963	-75,267	-0,047	-0,012
-434,949	-62,946	-0,109	0,033
-433,934	642,037	0,018	0,034
-432,919	145,480	-0,099	-0,097
-431,905	475,240	0,016	-0,027
-430,890	12,925	0,075	0,043
-429,876	-61,297	0,051	0,016
-428,861	18,444	-0,088	-0,052
-427,846	800,000	0,023	0,057
-426,832	800,000	0,022	-0,071
-425,817	147,126	-0,048	-0,047
-424,803	467,001	-0,054	-0,090
-423,788	-29,552	-0,041	0,017
-422,773	-46,254	0,142	0,051
-421,759	-200,000	-0,009	0,075
-420,744	-144,687	-0,097	-0,006
-419,730	-1,511	-0,136	-0,070
-418,715	125,704	0,013	-0,012
-417,701	800,000	-0,048	0,121
-416,686	11,816	0,152	0,086
-415,671	146,392	0,114	0,112
-414,657	-200,000	0,001	0,073
-413,642	800,000	0,052	0,110
-412,628	-20,620	-0,133	0,060
-411,613	-7,458	-0,064	-0,032
-410,598	-200,000	-0,009	-0,078
-409,584	-51,550	0,041	0,014
-408,569	754,671	-0,018	0,036
-407,555	116,266	0,095	-0,085
-406,540	573,304	0,067	-0,120
-405,525	-200,000	0,021	-0,110
-404,511	-200,000	-0,014	-0,234
-403,496	-200,000	-0,008	-0,057
-402,482	-123,494	-0,022	0,002
-401,467	-153,744	0,057	-0,003
-400,452	56,361	0,107	0,076
-399,438	337,283	-0,100	0,142
-398,423	-140,643	-0,082	-0,006
-397,409	-200,000	0,012	-0,166
-396,394	-32,259	-0,098	0,040
-395,379	13,795	0,103	-0,058
-394,365	-111,303	-0,063	-0,009
-393,350	78,638	-0,136	0,107
-392,336	114,519	-0,154	-0,138
-391,321	264,493	-0,123	0,157
-390,306	-124,724	0,089	-0,010
-389,292	800,000	-0,022	-0,060
-388,277	800,000	0,036	-0,077
-387,263	329,059	-0,050	0,071
-386,248	135,888	0,103	0,099
-385,233	800,000	-0,054	0,134
-384,219	-200,000	-0,006	-0,040
-383,204	181,183	0,075	0,081
-382,190	64,228	-0,085	0,063
-381,175	-200,000	0,001	0,038
-380,160	220,752	0,044	0,051
-379,146	800,000	0,041	0,130
-378,131	-39,414	0,047	0,018
-377,117	253,041	-0,069	0,087
-376,102	-101,007	0,073	-0,013
-375,088	609,771	-0,035	-0,064
-374,073	34,093	0,202	-0,129
-373,058	97,748	0,095	-0,080
-372,044	800,000	-0,043	0,119
-371,029	225,522	0,050	-0,060
-370,015	15,938	-0,085	-0,049
-369,000	-200,000	0,006	-0,029
-367,985	-33,652	0,202	-0,081
-366,971	800,000	-0,029	-0,092
-365,956	-118,568	0,153	-0,020
-364,942	-84,632	-0,119	0,027
-363,927	-200,000	-0,009	0,127
-362,912	470,714	-0,090	0,149
-361,898	-200,000	-0,031	-0,121
-360,883	-140,984	-0,082	0,006
-359,869	83,506	0,059	-0,047
-358,854	-200,000	-0,036	0,122
-357,839	-25,665	0,102	0,044
-356,825	51,006	-0,056	-0,039
-355,810	-200,000	0,020	-0,128
-354,796	49,935	-0,078	-0,054
-353,781	-200,000	-0,017	-0,081
-352,766	274,089	-0,050	0,064
-351,752	800,000	-0,032	-0,102
-350,737	206,733	0,175	-0,201
-349,723	291,470	0,055	-0,074
-348,708	-200,000	0,010	0,087
-347,693	-200,000	-0,023	0,137
-346,679	-67,860	-0,015	-0,004
-345,664	-200,000	0,001	-0,146
-344,650	113,308	-0,124	-0,111
-343,635	-200,000	-0,009	-0,071
-342,620	-42,442	0,046	-0,017
-341,606	-51,677	-0,072	-0,024
-340,591	2,993	-0,005	-0,003
-339,577	331,768	-0,088	0,124
-338,562	800,000	-0,020	0,042
-337,548	322,734	0,034	-0,048
-336,533	775,040	0,054	0,108
-335,518	-200,000	-0,038	-0,150
-334,504	460,365	0,028	0,046
-333,489	132,462	0,023	-0,021
-332,475	-200,000	-0,011	-0,036
-331,460	-89,385	-0,051	-0,011
-330,445	-39,569	-0,086	0,033
-329,431	-77,293	-0,121	-0,031
-328,416	-200,000	-0,006	0,070
-327,402	-200,000	-0,002	-0,016
-326,387	-88,521	0,145	0,031
-325,372	800,000	0,018	0,043
-324,358	800,000	-0,075	-0,203
-323,343	587,721	0,057	-0,102
-322,329	69,490	0,072	0,054
-321,314	421,616	-0,018	0,028
-320,299	-200,000	0,028	-0,110
-319,285	137,283	-0,027	-0,025
-318,270	-200,000	-0,027	-0,106
-317,256	-16,104	-0,057	-0,026
-316,241	800,000	-0,034	-0,102
-315,226	800,000	0,026	0,067
-314,212	105,985	-0,064	0,055
-313,197	800,000	-0,049	0,140
-312,183	183,212	-0,061	0,066
-311,168	65,863	0,146	-0,108
-310,153	333,819	0,090	-0,128
-309,139	395,416	0,089	-0,137
-308,124	800,000	0,033	0,086
-307,110	800,000	-0,023	0,047
-306,095	-200,000	0,009	0,097
-305,080	800,000	-0,027	-0,079
-304,066	122,965	-0,034	0,031
-303,051	800,000	0,001	-0,002
-302,037	-36,766	0,029	0,011
-301,022	-200,000	0,003	0,074
-300,008	306,892	0,083	0,114
-298,993	155,940	0,075	0,076
-297,978	159,108	-0,064	-0,065
-296,964	-40,731	-0,079	-0,030
-295,949	403,664	-0,045	-0,069
-294,935	356,085	-0,043	-0,063
-293,920	-200,000	-0,031	-0,108
-292,905	800,000	0,071	-0,153
-291,891	-100,887	0,074	0,013
-290,876	327,617	0,090	0,126
-289,862	-200,000	-0,024	-0,153
-288,847	800,000	0,008	-0,018
-287,832	-200,000	-0,003	0,011
-286,818	-76,147	0,032	-0,008
-285,803	-200,000	0,012	-0,072
-284,789	52,735	-0,107	0,075
-283,774	-174,090	-0,024	0,000
-282,759	-36,931	-0,063	-0,024
-281,745	800,000	0,012	0,034
-280,730	-200,000	0,001	0,068
-279,716	178,578	0,144	0,153
-278,701	-200,000	0,004	-0,124
-277,686	-200,000	0,040	0,137
-276,672	-200,000	-0,014	0,107
-275,657	-200,000	-0,002	0,034
-274,643	800,000	0,037	-0,092
-273,628	341,341	0,036	-0,052
-272,613	-200,000	-0,006	0,048
-271,599	280,152	-0,007	0,009
-270,584	800,000	0,034	-0,085
-269,570	-87,056	0,058	0,013
-268,555	110,096	0,073	0,064
-267,540	-200,000	-0,036	-0,217
-266,526	64,039	-0,076	-0,056
-265,511	69,000	-0,077	0,057
-264,497	51,473	-0,063	-0,044
-263,482	-55,287	-0,051	0,017
-262,467	-42,248	0,032	0,012
-261,453	-200,000	0,023	0,128
-260,438	403,682	0,060	-0,092
-259,424	-200,000	-0,017	0,073
-258,409	-200,000	-0,006	-0,076
-257,395	93,504	0,023	-0,019
-256,380	800,000	-0,025	-0,069
-255,365	-200,000	-0,017	0,081
-254,351	116,891	0,050	0,045
-253,336	276,636	-0,090	-0,118
-252,322	547,109	-0,009	-0,016
-251,307	-129,837	0,085	0,008
-250,292	-200,000	-0,025	0,144
-249,278	-200,000	0,004	-0,095
-248,263	86,999	0,102	0,082
-247,249	800,000	0,025	0,061
-246,234	-200,000	0,003	0,052
-245,219	800,000	-0,028	-0,057
-244,205	-200,000	-0,015	-0,098
-243,190	272,342	-0,059	0,076
-242,176	800,000	0,052	0,109
-241,161	-103,267	0,103	0,018
-240,146	-200,000	0,007	-0,030
-239,132	620,118	-0,019	-0,035
-238,117	-26,575	-0,203	0,086
-237,103	53,192	0,106	0,074
-236,088	196,670	-0,058	-0,064
-235,073	278,848	0,057	0,075
-234,059	-102,038	0,125	-0,022
-233,044	800,000	0,031	-0,069
-232,030	-14,653	0,080	-0,037
-231,015	707,171	-0,026	-0,051
-230,000	-80,434	-0,107	0,026
-228,986	199,495	-0,055	0,062
-227,971	800,000	-0,027	-0,055
-226,957	-200,000	-0,002	-0,027
-225,942	135,845	0,082	0,078
-224,927	-200,000	0,008	0,140
-223,913	468,729	0,057	0,094
-222,898	-99,376	0,036	-0,007
-221,884	-91,740	-0,108	-0,022
-220,869	-163,850	0,137	-0,005
-219,855	188,626	-0,012	0,014
-218,840	-200,000	-0,008	-0,069
-217,825	-168,534	-0,103	-0,003
-216,811	-200,000	-0,008	0,043
-215,796	-87,954	-0,048	0,010
-214,782	-9,149	0,118	0,057
-213,767	85,523	0,084	0,067
-212,752	-80,376	0,108	-0,026
-211,738	-66,763	0,101	0,029
-210,723	-200,000	-0,002	-0,077
-209,709	590,347	0,021	0,037
-208,694	180,547	0,052	-0,056
-207,679	-144,662	-0,082	0,005
-206,665	276,268	-0,024	0,031
-205,650	148,074	0,104	0,103
-204,636	140,421	0,021	0,021
-203,621	92,333	0,096	0,079
-202,606	-200,000	0,001	0,033
-201,592	-20,203	-0,046	-0,021
-200,577	105,247	0,007	-0,006
-199,563	800,000	-0,023	-0,070
-198,548	-58,042	0,048	0,015
-197,533	-20,732	-0,083	-0,037
-196,519	-18,071	0,022	-0,010
-195,504	349,453	-0,064	0,093
-194,490	-148,899	-0,111	0,006
-193,475	264,952	-0,057	0,072
-192,460	-57,505	0,159	-0,050
-191,446	225,071	-0,039	0,046
-190,431	58,931	0,090	0,064
-189,417	41,106	0,133	0,087
-188,402	-200,000	0,020	-0,108
-187,387	191,159	-0,030	-0,032
-186,373	27,660	0,062	0,038
-185,358	55,051	0,102	-0,072
-184,344	15,038	0,070	0,040
-183,329	-166,775	0,055	0,002
-182,315	-55,543	-0,116	0,038
-181,300	-200,000	-0,007	0,103
-180,285	79,422	-0,056	-0,044
-179,271	800,000	0,018	-0,042
-178,256	-108,428	-0,042	-0,007
-177,242	429,735	0,043	-0,067
-176,227	-136,497	0,151	0,013
-175,212	-200,000	-0,000	0,003
-174,198	105,199	0,041	-0,035
-173,183	67,429	-0,145	-0,108
-172,169	-104,473	-0,118	0,020
-171,154	193,010	0,031	0,034
-170,139	800,000	0,031	-0,096
-169,125	-200,000	-0,009	0,033
-168,110	-78,027	0,035	-0,009
-167,096	800,000	0,033	0,097
-166,081	366,464	-0,042	0,062
-165,066	496,305	-0,043	0,072
-164,052	800,000	0,056	0,122
-163,037	-200,000	-0,015	-0,145
-162,023	-58,872	0,133	0,042
-161,008	-15,372	0,079	0,036
-159,993	245,556	0,029	-0,036
-158,979	-172,334	0,052	-0,001
-157,964	-19,880	-0,128	-0,057
-156,950	233,916	0,040	0,048
-155,935	405,562	-0,058	-0,089
-154,920	-53,897	-0,146	0,048
-153,906	163,568	0,033	-0,034
-152,891	800,000	0,007	-0,015
-151,877	454,745	0,054	-0,087
-150,862	-100,188	0,101	-0,018
-149,847	800,000	-0,051	-0,157
-148,833	68,986	0,120	-0,090
-147,818	800,000	0,017	0,035
-146,804	-200,000	-0,001	0,113
-145,789	-200,000	-0,005	-0,041
-144,775	-143,133	-0,044	-0,003
-143,760	572,110	-0,083	-0,148
-142,745	-200,000	0,018	-0,150
-141,731	298,537	-0,055	0,074
-140,716	800,000	-0,022	0,059
-139,702	800,000	0,059	0,157
-138,687	321,006	0,085	-0,118
-137,672	262,117	0,009	-0,011
-136,658	170,834	0,087	-0,091
-135,643	800,000	-0,074	-0,181
-134,629	-142,771	-0,121	0,008
-133,614	142,759	0,072	0,069
-132,599	-200,000	0,013	0,102
-131,585	-200,000	-0,004	0,079
-130,570	74,687	-0,168	0,129
-129,556	61,656	-0,030	0,021
-128,541	-200,000	0,073	-0,000
-127,526	-200,000	-0,001	0,092
-126,512	-200,000	0,007	-0,064
-125,497	34,032	0,007	0,005
-124,483	787,081	0,024	0,048
-123,468	119,232	-0,098	0,088
-122,453	253,129	0,033	-0,041
-121,439	-200,000	-0,016	-0,069
-120,424	-108,852	-0,079	0,012
-119,410	58,322	0,084	0,060
