DTS Sentinel unit serial number:	SN410029Multiplexer serial number:	ORYXHardware model number:	OX2-SRSoftware version number:	ORYX F/W v4,00 Oryx Data Collector v3.7.2.0data status	okinstallation	B4 Nyhavnadifferential loss correction	single-endedforward channel	channel 2reverse channel	N/Adate	2023/12/19time	02:50:13forward acquisition time	300,00reverse acquisition time	0,00gamma	499,1914k internal	0,3125k external	0,3125temperature offset calibration	1,0000default loss term (dB/km)	0,3820temperature slope calibration	1,0000multiplexer offset coefficient	1,0000multiplexer slope coefficient	1,0000fibre end	0,00T internal ref (°C)	21,25T ext. ref 1 (°C)	6,09T ext. ref 2 (°C)	6,09length (m)	temperature (°C)	Stokes	anti-Stokes-744,400	800,000	-0,071	-0,152
-743,385	-160,739	-0,119	0,005
-742,371	800,000	0,034	-0,080
-741,356	136,907	-0,189	0,184
-740,342	-82,317	-0,096	0,023
-739,327	190,920	-0,135	0,151
-738,312	-47,590	0,074	-0,027
-737,298	-20,286	-0,153	0,070
-736,283	-11,480	0,122	-0,060
-735,269	-25,039	-0,325	0,143
-734,254	69,460	0,088	0,068
-733,239	-82,413	-0,408	-0,098
-732,225	63,277	0,123	0,092
-731,210	55,799	0,083	0,060
-730,196	-200,000	0,038	0,130
-729,181	105,758	-0,020	-0,017
-728,167	800,000	-0,021	0,062
-727,152	158,076	-0,053	-0,055
-726,137	340,931	0,108	0,157
-725,123	800,000	-0,018	-0,039
-724,108	-200,000	-0,022	-0,087
-723,094	800,000	-0,111	-0,230
-722,079	223,263	-0,057	-0,068
-721,064	-200,000	0,012	-0,059
-720,050	100,382	-0,065	0,056
-719,035	106,127	0,022	0,019
-718,021	-200,000	-0,006	-0,092
-717,006	-69,815	-0,175	-0,049
-715,991	-200,000	0,013	-0,153
-714,977	-77,382	-0,122	-0,031
-713,962	443,003	-0,041	0,068
-712,948	-200,000	0,003	0,082
-711,933	57,393	-0,023	-0,017
-710,918	673,879	0,011	0,021
-709,904	130,567	0,027	0,025
-708,889	257,554	-0,052	-0,067
-707,875	-37,580	-0,149	-0,059
-706,860	18,185	0,056	-0,033
-705,845	-41,811	0,073	-0,028
-704,831	-40,199	-0,087	0,033
-703,816	373,495	0,041	-0,062
-702,802	800,000	0,028	-0,057
-701,787	-200,000	-0,013	-0,118
-700,772	-119,423	-0,042	0,005
-699,758	-191,310	0,045	-0,000
-698,743	-200,000	0,010	0,261
-697,729	800,000	0,016	-0,037
-696,714	51,536	0,034	0,024
-695,699	-182,716	-0,124	-0,002
-694,685	206,102	-0,077	0,089
-693,670	-200,000	0,025	-0,136
-692,656	46,793	-0,023	-0,016
-691,641	738,796	-0,015	-0,030
-690,627	40,634	0,044	0,029
-689,612	641,517	0,026	0,049
-688,597	800,000	0,044	-0,117
-687,583	28,127	-0,195	-0,122
-686,568	-106,114	-0,068	0,011
-685,554	-66,415	0,058	0,017
-684,539	-60,541	-0,125	-0,039
-683,524	310,641	0,021	-0,029
-682,510	332,956	0,064	0,092
-681,495	29,140	-0,046	0,029
-680,481	800,000	0,032	0,093
-679,466	-200,000	-0,004	-0,058
-678,451	146,448	-0,061	-0,061
-677,437	768,666	-0,036	-0,073
-676,422	-200,000	-0,008	0,214
-675,408	-44,054	-0,121	0,045
-674,393	145,131	-0,065	0,064
-673,378	-200,000	0,011	0,084
-672,364	4,938	-0,123	-0,067
-671,349	-30,246	0,010	0,004
-670,335	393,184	0,082	-0,127
-669,320	-200,000	0,012	-0,067
-668,305	-200,000	-0,007	0,131
-667,291	-19,909	-0,137	-0,063
-666,276	158,351	-0,132	-0,136
-665,262	31,538	-0,073	-0,047
-664,247	552,789	0,045	0,080
-663,232	97,683	0,044	-0,038
-662,218	-200,000	0,018	0,147
-661,203	-162,611	0,178	-0,006
-660,189	-200,000	0,012	-0,199
-659,174	-148,948	-0,051	-0,003
-658,159	351,417	-0,016	-0,024
-657,145	-200,000	0,011	-0,156
-656,130	-87,804	-0,162	0,036
-655,116	179,063	-0,090	-0,098
-654,101	84,353	0,079	-0,064
-653,086	-191,219	0,060	-0,000
-652,072	-51,541	-0,098	-0,034
-651,057	-161,144	-0,182	-0,007
-650,043	-98,687	-0,043	0,008
-649,028	67,669	0,054	0,041
-648,014	718,417	-0,047	0,093
-646,999	-102,285	0,074	0,013
-645,984	-99,275	0,174	0,032
-644,970	-200,000	-0,003	0,050
-643,955	132,161	-0,006	0,005
-642,941	-200,000	0,012	-0,107
-641,926	486,592	-0,086	-0,145
-640,911	-200,000	0,028	0,098
-639,897	-200,000	0,015	0,082
-638,882	-133,226	0,042	-0,004
-637,868	263,401	0,057	-0,074
-636,853	800,000	-0,038	-0,109
-635,838	-200,000	-0,002	-0,157
-634,824	147,272	0,038	0,038
-633,809	-20,081	-0,054	-0,025
-632,795	41,443	0,094	-0,063
-631,780	-19,803	-0,073	-0,033
-630,765	63,278	-0,068	0,050
-629,751	161,003	-0,031	0,032
-628,736	800,000	0,049	-0,103
-627,722	-80,363	-0,115	0,028
-626,707	-200,000	0,010	-0,129
-625,692	800,000	-0,010	0,027
-624,678	-200,000	0,015	-0,077
-623,663	17,048	0,056	0,033
-622,649	-121,933	-0,142	-0,017
-621,634	-200,000	-0,026	-0,146
-620,619	-200,000	-0,011	-0,159
-619,605	-41,599	0,085	0,032
-618,590	32,370	0,121	-0,077
-617,576	800,000	0,034	0,095
-616,561	-151,624	-0,032	0,002
-615,546	-200,000	-0,003	-0,109
-614,532	-79,250	-0,087	0,022
-613,517	-200,000	-0,005	-0,073
-612,503	140,999	0,029	0,029
-611,488	-200,000	-0,002	-0,072
-610,474	81,298	0,044	-0,035
-609,459	239,086	0,021	-0,026
-608,444	172,719	-0,016	0,017
-607,430	-200,000	0,019	-0,137
-606,415	547,601	-0,019	-0,035
-605,401	648,546	0,047	-0,089
-604,386	158,766	-0,030	0,030
-603,371	187,985	0,091	0,101
-602,357	73,467	-0,055	-0,043
-601,342	-200,000	0,024	-0,103
-600,328	-128,953	-0,051	0,005
-599,313	-7,156	0,126	0,063
-598,298	-11,829	-0,128	-0,062
-597,284	800,000	-0,008	-0,021
-596,269	16,689	0,099	-0,058
-595,255	-200,000	-0,035	-0,150
-594,240	-72,215	-0,017	0,005
-593,225	205,235	-0,145	-0,167
-592,211	-200,000	-0,019	-0,135
-591,196	800,000	0,010	-0,028
-590,182	8,136	0,058	0,032
-589,167	800,000	0,058	0,132
-588,152	-110,112	0,066	0,010
-587,138	-159,094	-0,060	0,002
-586,123	-200,000	0,052	-0,189
-585,109	258,210	-0,090	-0,115
-584,094	-140,767	-0,075	-0,006
-583,079	-113,114	0,173	0,025
-582,065	-200,000	0,023	0,106
-581,050	295,136	0,040	-0,054
-580,036	17,779	-0,031	0,018
-579,021	-200,000	-0,013	-0,094
-578,006	-148,677	-0,029	0,002
-576,992	264,470	0,021	0,027
-575,977	-200,000	-0,021	0,110
-574,963	713,755	0,057	-0,112
-573,948	-179,613	0,124	-0,002
-572,934	266,212	-0,045	0,058
-571,919	-92,510	0,040	0,008
-570,904	633,033	0,049	-0,092
-569,890	-1,294	0,046	-0,024
-568,875	29,594	0,039	-0,025
-567,861	-80,677	-0,090	-0,022
-566,846	-78,060	-0,083	-0,021
-565,831	-70,755	0,058	-0,016
-564,817	408,880	0,015	0,024
-563,802	-48,237	0,160	-0,057
-562,788	-72,320	0,072	-0,020
-561,773	-23,028	-0,035	0,015
-560,758	206,701	0,071	-0,082
-559,744	18,986	-0,160	-0,094
-558,729	-30,411	-0,011	0,005
-557,715	-80,895	-0,114	0,028
-556,700	-99,314	0,055	0,010
-555,685	-200,000	-0,008	-0,079
-554,671	-70,087	-0,139	-0,039
-553,656	85,201	-0,050	0,040
-552,642	-200,000	0,012	0,048
-551,627	346,783	-0,036	0,053
-550,612	-200,000	0,013	-0,109
-549,598	-120,065	-0,060	-0,008
-548,583	79,849	-0,025	-0,020
-547,569	717,186	-0,028	-0,056
-546,554	-74,078	0,155	0,041
-545,539	-50,342	-0,063	-0,022
-544,525	634,896	0,043	0,080
-543,510	-170,119	0,046	0,001
-542,496	-200,000	0,022	0,088
-541,481	-200,000	0,001	-0,035
-540,466	-64,814	0,157	-0,047
-539,452	-14,736	0,102	0,048
-538,437	-69,262	0,085	0,024
-537,423	800,000	0,034	-0,085
-536,408	422,811	0,012	0,019
-535,393	-65,448	-0,157	0,046
-534,379	128,511	-0,072	-0,068
-533,364	54,283	-0,081	-0,057
-532,350	-200,000	-0,001	0,136
-531,335	217,493	-0,042	-0,049
-530,321	-41,278	0,045	-0,017
-529,306	296,260	0,033	-0,045
-528,291	800,000	-0,031	0,079
-527,277	235,570	-0,064	-0,079
-526,262	-200,000	-0,029	0,102
-525,248	49,163	0,018	0,013
-524,233	345,027	-0,118	0,171
-523,218	-200,000	0,036	0,159
-522,204	207,430	0,040	-0,046
-521,189	142,842	-0,113	-0,111
-520,175	618,521	-0,029	0,053
-519,160	-200,000	0,020	-0,082
-518,145	313,871	-0,060	-0,084
-517,131	-200,000	0,036	0,131
-516,116	-200,000	-0,013	0,071
-515,102	800,000	-0,045	-0,098
-514,087	95,781	0,078	-0,066
-513,072	-200,000	0,020	-0,067
-512,058	-111,127	-0,085	-0,013
-511,043	-79,869	-0,091	-0,022
-510,029	242,997	0,034	-0,042
-509,014	-137,321	-0,034	-0,003
-507,999	-148,500	-0,089	-0,005
-506,985	-200,000	0,008	0,118
-505,970	-116,171	-0,128	-0,017
-504,956	800,000	-0,007	-0,014
-503,941	-99,629	-0,052	-0,010
-502,926	19,149	0,114	-0,067
-501,912	37,673	0,082	-0,054
-500,897	610,717	-0,010	0,018
-499,883	-14,412	0,047	0,022
-498,868	-59,045	-0,073	0,023
-497,853	-118,181	-0,117	-0,015
-496,839	-200,000	-0,005	0,104
-495,824	-77,586	0,109	-0,028
-494,810	800,000	0,022	0,054
-493,795	164,986	-0,003	-0,003
-492,781	418,679	0,022	-0,035
-491,766	-66,591	-0,144	-0,042
-490,751	-116,586	-0,129	0,017
-489,737	-31,482	-0,064	0,026
-488,722	-65,524	-0,086	-0,025
-487,708	-131,906	0,041	-0,004
-486,693	-200,000	-0,017	0,098
-485,678	79,892	-0,130	0,103
-484,664	-101,580	0,095	0,017
-483,649	662,904	0,074	-0,141
-482,635	219,339	-0,092	0,109
-481,620	-67,491	0,062	0,018
-480,605	286,178	0,100	0,133
-479,591	71,271	0,012	0,009
-478,576	-28,604	-0,121	-0,051
-477,562	375,658	0,111	-0,168
-476,547	800,000	-0,016	0,038
-475,532	395,024	0,038	0,059
-474,518	339,873	-0,060	-0,087
-473,503	800,000	-0,029	-0,084
-472,489	-200,000	0,002	-0,092
-471,474	556,289	0,038	0,067
-470,459	-200,000	0,000	-0,015
-469,445	-200,000	-0,018	-0,141
-468,430	-51,179	-0,014	0,005
-467,416	-200,000	0,023	-0,084
-466,401	-70,717	-0,067	-0,019
-465,386	8,529	-0,038	0,021
-464,372	107,147	0,120	-0,105
-463,357	215,585	0,063	-0,073
-462,343	452,915	-0,056	-0,092
-461,328	-92,923	-0,060	-0,012
-460,313	800,000	-0,010	-0,024
-459,299	-98,608	0,088	0,016
-458,284	-111,568	0,060	-0,009
-457,270	636,410	-0,022	-0,042
-456,255	-22,418	0,105	-0,046
-455,241	-200,000	-0,029	-0,101
-454,226	200,355	0,051	0,058
-453,211	800,000	0,046	-0,128
-452,197	800,000	0,009	0,022
-451,182	130,604	-0,034	0,032
-450,168	-200,000	-0,022	-0,072
-449,153	800,000	-0,043	0,099
-448,138	106,569	0,034	0,030
-447,124	-200,000	-0,020	-0,067
-446,109	256,351	0,072	-0,091
-445,095	711,080	-0,021	0,042
-444,080	-115,705	-0,027	-0,004
-443,065	302,656	-0,034	0,047
-442,051	-25,949	-0,055	-0,024
-441,036	149,235	-0,046	0,046
-440,022	147,886	-0,153	-0,152
-439,007	800,000	-0,033	-0,087
-437,992	800,000	0,047	-0,123
-436,978	44,754	0,084	-0,057
-435,963	65,668	0,119	0,088
-434,949	-200,000	0,028	0,123
-433,934	238,230	-0,027	-0,033
-432,919	559,298	-0,115	-0,206
-431,905	800,000	0,033	-0,099
-430,890	25,199	0,109	-0,067
-429,876	71,431	-0,041	-0,032
-428,861	67,868	0,090	0,068
-427,846	-72,261	0,034	-0,009
-426,832	-57,180	-0,037	0,012
-425,817	602,098	-0,087	0,160
-424,803	-80,942	-0,094	0,023
-423,788	-95,260	0,227	0,044
-422,773	63,352	-0,027	0,020
-421,759	-200,000	0,023	0,126
-420,744	-200,000	0,019	0,086
-419,730	53,131	-0,028	-0,020
-418,715	-200,000	0,002	0,010
-417,701	-200,000	-0,005	-0,108
-416,686	704,066	-0,064	0,124
-415,671	-127,817	0,152	-0,016
-414,657	-200,000	0,033	0,123
-413,642	45,059	-0,070	-0,047
-412,628	800,000	0,057	-0,122
-411,613	-30,546	0,021	0,009
-410,598	233,263	0,022	-0,026
-409,584	726,357	-0,074	-0,146
-408,569	-106,078	-0,105	-0,017
-407,555	-200,000	0,012	-0,097
-406,540	438,336	0,068	-0,110
-405,525	800,000	0,044	-0,119
-404,511	182,496	-0,057	-0,062
-403,496	-200,000	0,029	-0,111
-402,482	-200,000	-0,008	-0,076
-401,467	69,553	0,084	-0,064
-400,452	-139,875	0,138	-0,011
-399,438	800,000	0,019	-0,048
-398,423	-19,465	0,027	0,012
-397,409	74,844	0,033	-0,026
-396,394	800,000	0,038	0,112
-395,379	523,758	-0,022	-0,038
-394,365	532,963	0,050	0,088
-393,350	800,000	0,046	0,119
-392,336	151,643	0,017	-0,018
-391,321	-134,736	0,125	0,011
-390,306	-200,000	0,009	0,030
-389,292	88,676	-0,048	-0,039
-388,277	-200,000	-0,005	0,071
-387,263	-200,000	0,029	0,165
-386,248	-7,604	0,154	0,076
-385,233	459,990	-0,047	0,078
-384,219	-200,000	0,014	-0,148
-383,204	-158,701	-0,165	-0,007
-382,190	-69,382	-0,172	-0,048
-381,175	-200,000	0,033	-0,192
-380,160	-200,000	0,001	-0,020
-379,146	-200,000	0,026	0,126
-378,131	-200,000	-0,002	0,121
-377,117	800,000	-0,007	-0,016
-376,102	-200,000	0,010	0,054
-375,088	73,284	0,022	0,017
-374,073	202,334	0,058	0,065
-373,058	-24,176	0,065	0,028
-372,044	389,745	0,016	0,024
-371,029	800,000	0,064	0,201
-370,015	204,031	-0,049	0,056
-369,000	-200,000	0,002	-0,050
-367,985	-78,804	-0,032	0,008
-366,971	249,645	0,069	0,086
-365,956	48,519	0,014	-0,010
-364,942	-23,606	-0,104	-0,046
-363,927	32,459	0,111	0,070
-362,912	45,418	-0,061	0,041
-361,898	98,446	-0,090	0,076
-360,883	281,661	0,009	-0,012
-359,869	-200,000	-0,009	0,069
-358,854	314,812	0,105	0,146
-357,839	82,402	-0,017	0,014
-356,825	800,000	-0,061	0,196
-355,810	100,423	-0,046	0,039
-354,796	266,199	0,032	-0,041
-353,781	-185,051	-0,175	-0,002
-352,766	-54,624	0,162	0,053
-351,752	-200,000	-0,020	-0,069
-350,737	0,621	0,182	0,095
-349,723	67,722	0,200	0,150
-348,708	94,352	0,047	0,039
-347,693	160,217	0,022	0,023
-346,679	5,570	-0,097	0,052
-345,664	-200,000	-0,027	0,115
-344,650	-1,028	0,058	0,030
-343,635	273,239	-0,069	0,089
-342,620	703,997	0,061	0,119
-341,606	800,000	0,050	0,137
-340,591	18,465	-0,111	0,065
-339,577	228,990	-0,073	0,087
-338,562	386,435	0,050	-0,075
-337,548	-36,672	-0,113	-0,044
-336,533	-136,727	-0,065	0,005
-335,518	-155,062	0,064	-0,003
-334,504	161,450	-0,070	0,072
-333,489	-88,782	-0,031	-0,007
-332,475	-107,073	0,077	0,012
-331,460	219,413	0,011	-0,013
-330,445	-77,615	0,143	0,036
-329,431	211,173	0,020	0,023
-328,416	-200,000	0,009	-0,032
-327,402	-30,747	0,155	0,064
-326,387	800,000	-0,015	0,045
-325,372	-200,000	-0,002	-0,103
-324,358	800,000	-0,043	-0,121
-323,343	180,292	-0,094	-0,101
-322,329	-148,796	-0,190	0,011
-321,314	800,000	0,038	-0,096
-320,299	800,000	0,035	0,090
-319,285	119,823	-0,135	-0,123
-318,270	153,848	-0,051	-0,051
-317,256	-200,000	0,011	0,048
-316,241	155,128	0,047	0,047
-315,226	-200,000	-0,023	0,074
-314,212	-30,522	-0,039	0,016
-313,197	5,262	0,094	0,051
-312,183	46,346	-0,103	0,070
-311,168	87,359	0,007	0,006
-310,153	-200,000	-0,004	-0,051
-309,139	-13,472	-0,081	-0,038
-308,124	517,479	0,031	0,054
-307,110	-200,000	-0,016	-0,153
-306,095	660,961	0,068	0,130
-305,080	173,368	0,052	-0,055
-304,066	46,550	0,094	-0,064
-303,051	40,641	0,019	-0,013
-302,037	77,123	0,019	0,014
-301,022	-138,068	-0,026	-0,002
-300,008	149,086	0,063	-0,062
-298,993	-44,389	-0,088	-0,032
-297,978	-97,824	0,106	0,020
-296,964	35,190	0,059	-0,038
-295,949	78,585	-0,046	-0,036
-294,935	445,796	-0,040	0,065
-293,920	800,000	-0,017	-0,046
-292,905	-40,614	0,150	0,057
-291,891	75,347	-0,124	0,095
-290,876	230,156	-0,037	0,045
-289,862	-200,000	-0,007	0,064
-288,847	56,590	0,028	0,020
-287,832	-31,659	-0,095	-0,039
-286,818	800,000	-0,102	-0,212
-285,803	-79,440	-0,130	-0,032
-284,789	-72,954	0,124	-0,033
-283,774	150,523	-0,071	-0,070
-282,759	4,273	-0,104	-0,056
-281,745	-200,000	-0,001	-0,092
-280,730	-200,000	-0,002	-0,035
-279,716	260,032	-0,090	0,114
-278,701	-200,000	0,012	-0,056
-277,686	30,170	-0,112	0,070
-276,672	800,000	0,045	0,097
-275,657	9,931	0,092	0,051
-274,643	-115,558	-0,057	0,008
-273,628	-120,467	-0,142	-0,017
-272,613	-200,000	0,013	0,089
-271,599	-62,019	0,117	0,035
-270,584	-200,000	-0,006	-0,111
-269,570	-200,000	-0,038	-0,127
-268,555	6,219	-0,061	-0,033
-267,540	-119,786	-0,043	0,005
-266,526	371,686	0,067	0,100
-265,511	-23,965	-0,059	-0,026
-264,497	67,280	-0,019	-0,014
-263,482	-74,861	-0,072	-0,019
-262,467	-200,000	-0,008	-0,027
-261,453	800,000	-0,006	-0,014
-260,438	-200,000	-0,017	-0,090
-259,424	153,356	-0,029	-0,029
-258,409	-200,000	-0,038	-0,149
-257,395	704,538	0,052	0,101
-256,380	663,989	0,078	0,147
-255,365	-148,197	0,103	0,006
-254,351	-89,346	0,055	-0,012
-253,336	-200,000	-0,013	-0,183
-252,322	-100,830	-0,104	0,018
-251,307	329,299	-0,108	-0,152
-250,292	80,603	-0,045	0,035
-249,278	-84,313	-0,087	-0,020
-248,263	-121,997	0,097	0,012
-247,249	-200,000	0,029	0,126
-246,234	665,915	0,026	0,049
-245,219	-70,501	-0,064	-0,018
-244,205	285,463	-0,066	-0,087
-243,190	-200,000	0,019	0,108
-242,176	-7,760	0,164	0,081
-241,161	800,000	-0,051	0,111
-240,146	-200,000	0,005	0,088
-239,132	227,593	0,065	0,078
-238,117	86,806	0,128	0,104
-237,103	-2,051	0,094	-0,048
-236,088	-200,000	0,035	0,185
-235,073	51,667	0,035	-0,024
-234,059	800,000	-0,034	0,089
-233,044	800,000	-0,012	-0,026
-232,030	278,856	0,049	0,064
-231,015	-200,000	-0,026	-0,128
-230,000	132,690	-0,105	-0,098
-228,986	74,564	0,061	0,047
-227,971	29,212	-0,099	-0,061
-226,957	-174,376	0,074	-0,002
-225,942	179,692	-0,088	-0,094
-224,927	583,934	0,005	-0,009
-223,913	800,000	0,033	0,089
-222,898	795,976	0,060	0,121
-221,884	-200,000	-0,000	-0,046
-220,869	22,825	-0,036	0,022
-219,855	69,119	0,029	0,022
-218,840	800,000	-0,091	0,190
-217,825	-200,000	-0,001	0,096
-216,811	800,000	0,088	-0,226
-215,796	-84,642	-0,162	0,037
-214,782	137,043	-0,014	0,013
-213,767	495,375	0,065	0,109
-212,752	637,276	0,092	0,171
-211,738	105,820	0,071	-0,062
-210,723	151,875	0,077	0,077
-209,709	800,000	-0,034	-0,109
-208,694	164,951	-0,039	0,040
-207,679	242,077	0,057	-0,070
-206,665	114,158	-0,099	0,088
-205,650	800,000	0,015	0,031
-204,636	-115,460	0,055	0,007
-203,621	-200,000	0,028	0,092
-202,606	102,862	-0,023	0,019
-201,592	-200,000	0,004	0,022
-200,577	540,092	-0,044	0,077
-199,563	-200,000	0,007	-0,037
-198,548	-200,000	0,005	-0,041
-197,533	-158,797	0,140	-0,006
-196,519	349,913	-0,068	0,098
-195,504	800,000	-0,054	0,122
-194,490	63,010	-0,114	0,083
-193,475	-125,305	-0,084	0,009
-192,460	1,154	-0,088	0,046
-191,446	800,000	-0,055	0,154
-190,431	-158,524	0,044	0,002
-189,417	123,988	-0,043	0,039
-188,402	-70,790	0,056	-0,015
-187,387	97,994	-0,095	0,080
-186,373	96,321	0,061	-0,051
-185,358	95,907	-0,048	-0,040
-184,344	-109,561	0,102	-0,015
-183,329	-19,583	0,134	0,060
-182,315	111,833	0,132	0,116
-181,300	800,000	0,021	-0,044
-180,285	-200,000	0,005	-0,138
-179,271	800,000	-0,047	0,152
-178,256	-85,193	0,162	0,037
-177,242	-200,000	-0,014	0,155
-176,227	-118,793	-0,167	0,021
-175,212	237,446	-0,095	-0,114
-174,198	800,000	0,040	0,086
-173,183	-64,406	-0,069	0,020
-172,169	65,363	-0,054	0,039
-171,154	-195,317	0,057	0,000
-170,139	-200,000	0,038	-0,148
-169,125	154,119	0,070	0,070
-168,110	-95,400	0,266	0,051
-167,096	-200,000	-0,014	-0,056
-166,081	85,293	-0,172	0,137
-165,066	-106,317	-0,133	0,021
-164,052	-200,000	0,003	-0,122
-163,037	800,000	0,031	-0,093
-162,023	-108,364	-0,085	0,013
-161,008	-9,438	0,012	-0,006
-159,993	155,607	0,051	0,051
-158,979	19,083	-0,064	0,038
-157,964	43,657	-0,027	-0,018
-156,950	18,726	-0,061	-0,036
-155,935	-99,566	0,023	0,004
-154,920	-200,000	0,008	0,078
-153,906	-200,000	-0,000	0,059
-152,891	353,973	-0,057	0,082
-151,877	-200,000	0,006	0,124
-150,862	80,493	-0,029	0,023
-149,847	-200,000	0,034	-0,111
-148,833	-200,000	-0,003	-0,110
-147,818	-171,928	0,061	-0,001
-146,804	-112,285	0,126	0,018
-145,789	-125,265	0,088	0,010
-144,775	-151,285	0,089	-0,005
-143,760	-200,000	-0,022	0,131
-142,745	-8,378	-0,164	-0,080
-141,731	800,000	-0,039	-0,079
-140,716	-200,000	0,013	0,084
-139,702	90,716	0,046	0,038
-138,687	112,996	-0,031	0,028
-137,672	800,000	0,024	0,059
-136,658	-77,052	-0,109	-0,028
-135,643	-200,000	0,019	-0,124
-134,629	78,764	-0,036	-0,028
-133,614	800,000	0,059	0,136
-132,599	-88,275	0,174	-0,037
-131,585	800,000	0,067	0,164
-130,570	-151,308	-0,131	0,007
-129,556	-10,324	-0,022	0,011
-128,541	214,033	0,013	-0,015
-127,526	260,681	0,047	-0,059
-126,512	-200,000	0,006	-0,049
-125,497	211,729	0,128	0,147
-124,483	-200,000	-0,000	-0,012
-123,468	179,351	0,057	0,061
-122,453	-161,133	-0,134	-0,005
-121,439	11,404	-0,101	-0,056
-120,424	-200,000	-0,001	0,014
-119,410	123,079	0,034	-0,031
