DTS Sentinel unit serial number:	SN410029Multiplexer serial number:	ORYXHardware model number:	OX2-SRSoftware version number:	ORYX F/W v4,00 Oryx Data Collector v3.7.2.0data status	okinstallation	B4 Nyhavnadifferential loss correction	single-endedforward channel	channel 2reverse channel	N/Adate	2023/12/16time	14:55:13forward acquisition time	300,00reverse acquisition time	0,00gamma	499,1914k internal	0,3144k external	0,3144temperature offset calibration	1,0000default loss term (dB/km)	0,3820temperature slope calibration	1,0000multiplexer offset coefficient	1,0000multiplexer slope coefficient	1,0000fibre end	0,00T internal ref (°C)	19,72T ext. ref 1 (°C)	10,66T ext. ref 2 (°C)	10,89length (m)	temperature (°C)	Stokes	anti-Stokes-744,400	-179,950	0,111	-0,002
-743,385	-89,093	-0,406	-0,088
-742,371	-40,011	0,178	-0,069
-741,356	-200,000	-0,261	0,000
-740,342	414,174	0,031	0,049
-739,327	-95,856	-0,413	-0,081
-738,312	-12,610	0,068	-0,033
-737,298	-168,126	-0,414	-0,012
-736,283	-100,340	0,084	0,015
-735,269	-64,042	-0,289	-0,087
-734,254	138,568	0,039	0,038
-733,239	-9,382	-0,570	-0,281
-732,225	-72,263	0,188	0,051
-731,210	-138,454	0,118	0,009
-730,196	307,273	-0,069	-0,096
-729,181	-24,010	0,041	-0,018
-728,167	520,349	0,013	0,022
-727,152	28,720	-0,105	0,066
-726,137	-142,128	0,140	-0,010
-725,123	-41,867	-0,142	-0,054
-724,108	-68,545	-0,055	0,016
-723,094	292,887	-0,065	-0,087
-722,079	-122,707	-0,160	-0,019
-721,064	552,945	-0,025	-0,044
-720,050	-101,838	-0,191	-0,034
-719,035	-72,903	-0,052	-0,014
-718,021	-26,205	-0,031	-0,014
-717,006	60,438	-0,144	-0,105
-715,991	-200,000	0,013	0,047
-714,977	-200,000	0,012	0,069
-713,962	64,857	-0,058	-0,043
-712,948	144,618	-0,061	-0,060
-711,933	-56,772	0,109	-0,035
-710,918	-112,240	-0,086	0,013
-709,904	226,545	-0,083	0,100
-708,889	-101,640	-0,146	0,026
-707,875	-126,837	-0,030	-0,003
-706,860	-32,089	-0,064	0,026
-705,845	-60,248	-0,066	-0,021
-704,831	-200,000	0,002	0,075
-703,816	129,324	-0,091	-0,086
-702,802	253,253	-0,107	0,136
-701,787	304,401	-0,038	-0,052
-700,772	-200,000	-0,030	0,099
-699,758	68,780	0,032	-0,024
-698,743	126,817	0,093	0,088
-697,729	-200,000	-0,003	0,121
-696,714	-52,984	0,138	0,047
-695,699	-62,048	-0,104	0,032
-694,685	115,723	-0,034	-0,031
-693,670	-100,423	-0,050	0,009
-692,656	-200,000	0,000	-0,082
-691,641	105,829	0,091	-0,080
-690,627	-200,000	-0,013	-0,074
-689,612	-63,377	0,091	0,027
-688,597	141,648	-0,065	-0,063
-687,583	800,000	-0,024	0,049
-686,568	201,716	-0,100	-0,114
-685,554	304,906	0,001	0,002
-684,539	-200,000	-0,032	-0,116
-683,524	-85,421	-0,065	0,015
-682,510	-0,390	0,051	-0,026
-681,495	408,542	0,086	-0,135
-680,481	-135,931	-0,034	0,003
-679,466	800,000	-0,074	-0,152
-678,451	-119,575	-0,094	0,012
-677,437	42,602	-0,097	-0,065
-676,422	671,435	-0,053	0,102
-675,408	-49,930	0,091	0,032
-674,393	-157,954	-0,212	-0,009
-673,378	-141,492	0,083	-0,006
-672,364	-200,000	0,014	0,055
-671,349	-200,000	-0,047	-0,162
-670,335	-5,092	0,087	0,044
-669,320	335,685	-0,056	0,080
-668,305	186,524	0,032	-0,035
-667,291	800,000	0,052	-0,114
-666,276	-200,000	0,001	-0,025
-665,262	-200,000	-0,002	-0,041
-664,247	23,810	-0,113	0,069
-663,232	61,273	0,043	-0,031
-662,218	800,000	0,061	-0,144
-661,203	5,737	0,080	-0,043
-660,189	9,566	0,022	0,012
-659,174	800,000	0,014	0,034
-658,159	42,321	-0,187	-0,125
-657,145	800,000	-0,109	-0,227
-656,130	-200,000	-0,021	-0,120
-655,116	161,338	-0,034	0,035
-654,101	-200,000	0,008	-0,035
-653,086	800,000	-0,055	-0,145
-652,072	685,443	0,040	0,078
-651,057	-200,000	0,004	-0,091
-650,043	-22,854	-0,141	0,062
-649,028	800,000	-0,063	0,152
-648,014	800,000	0,046	-0,094
-646,999	152,612	0,076	0,077
-645,984	-200,000	-0,001	-0,005
-644,970	800,000	-0,023	-0,074
-643,955	179,848	0,032	0,035
-642,941	7,916	0,053	0,029
-641,926	-14,212	-0,114	-0,054
-640,911	38,316	-0,027	-0,017
-639,897	-200,000	0,007	0,044
-638,882	-135,853	0,079	0,007
-637,868	363,610	0,015	0,023
-636,853	-80,496	0,087	0,021
-635,838	800,000	-0,046	-0,149
-634,824	228,493	-0,008	0,010
-633,809	139,725	-0,120	-0,116
-632,795	-200,000	-0,001	0,024
-631,780	-16,008	0,054	0,025
-630,765	34,993	-0,059	-0,038
-629,751	-24,174	-0,139	-0,061
-628,736	-91,322	-0,099	-0,021
-627,722	150,362	-0,046	-0,046
-626,707	800,000	-0,038	-0,124
-625,692	-200,000	-0,002	-0,129
-624,678	331,363	-0,028	0,040
-623,663	-40,025	0,094	-0,036
-622,649	371,888	-0,082	-0,124
-621,634	676,940	-0,048	-0,093
-620,619	12,488	0,041	-0,023
-619,605	800,000	0,034	0,069
-618,590	-20,679	0,135	0,061
-617,576	-200,000	0,027	0,120
-616,561	61,081	-0,097	0,071
-615,546	800,000	-0,022	0,053
-614,532	-200,000	0,014	0,119
-613,517	299,878	0,061	0,084
-612,503	-200,000	0,025	-0,173
-611,488	167,527	0,017	0,017
-610,474	45,108	-0,062	0,042
-609,459	-77,729	-0,049	0,012
-608,444	-6,864	-0,172	0,086
-607,430	800,000	-0,044	-0,117
-606,415	199,217	0,019	-0,021
-605,401	231,142	-0,068	-0,082
-604,386	-200,000	-0,015	0,107
-603,371	127,785	-0,051	-0,048
-602,357	800,000	-0,030	0,070
-601,342	800,000	0,021	-0,052
-600,328	-67,872	-0,165	-0,047
-599,313	62,015	0,138	0,101
-598,298	-200,000	-0,051	0,182
-597,284	-28,025	0,043	0,018
-596,269	-200,000	0,018	0,100
-595,255	-169,925	0,142	0,004
-594,240	800,000	0,027	-0,073
-593,225	800,000	-0,035	-0,098
-592,211	800,000	0,026	-0,068
-591,196	-57,260	0,097	0,031
-590,182	-168,601	0,079	0,002
-589,167	210,664	-0,025	-0,029
-588,152	392,124	0,089	0,136
-587,138	46,878	-0,125	0,086
-586,123	118,334	-0,135	0,123
-585,109	387,577	0,052	-0,080
-584,094	14,346	0,059	-0,034
-583,079	25,481	0,036	-0,022
-582,065	29,433	0,100	0,062
-581,050	800,000	0,045	-0,107
-580,036	453,215	-0,069	0,112
-579,021	-61,055	-0,114	0,035
-578,006	-3,105	-0,102	-0,052
-576,992	-200,000	-0,017	-0,062
-575,977	-179,516	-0,091	0,001
-574,963	254,128	0,126	0,159
-573,948	266,179	-0,015	0,020
-572,934	-200,000	0,003	0,100
-571,919	-200,000	0,000	-0,158
-570,904	-200,000	0,012	0,061
-569,890	-118,952	-0,046	-0,006
-568,875	151,304	0,086	0,086
-567,861	-67,885	0,081	0,023
-566,846	-34,812	-0,060	0,024
-565,831	-129,878	0,117	0,012
-564,817	785,377	-0,025	0,050
-563,802	-200,000	0,012	-0,069
-562,788	379,722	0,061	-0,091
-561,773	800,000	-0,034	-0,084
-560,758	105,243	-0,025	0,022
-559,744	-35,656	-0,090	0,036
-558,729	-200,000	-0,011	0,068
-557,715	-200,000	0,004	0,122
-556,700	800,000	0,024	-0,059
-555,685	-24,859	-0,044	-0,019
-554,671	800,000	0,038	0,115
-553,656	326,855	0,043	0,060
-552,642	40,849	0,059	-0,039
-551,627	-200,000	0,011	0,093
-550,612	180,617	0,078	-0,084
-549,598	81,787	-0,092	0,073
-548,583	324,414	-0,039	0,055
-547,569	-161,048	0,105	-0,004
-546,554	-200,000	0,011	-0,112
-545,539	-50,006	-0,123	0,043
-544,525	-152,782	-0,036	0,002
-543,510	196,359	0,065	-0,073
-542,496	-83,905	0,039	-0,009
-541,481	-138,299	-0,029	0,002
-540,466	31,731	-0,090	-0,057
-539,452	687,772	0,066	0,128
-538,437	-200,000	-0,040	0,178
-537,423	-95,341	0,042	-0,008
-536,408	-107,415	-0,146	-0,023
-535,393	88,442	-0,133	-0,108
-534,379	-21,239	-0,075	0,034
-533,364	252,749	-0,050	-0,062
-532,350	800,000	0,045	0,103
-531,335	57,398	0,078	-0,056
-530,321	396,268	0,046	0,070
-529,306	800,000	0,028	-0,089
-528,291	573,943	-0,013	0,023
-527,277	800,000	-0,054	-0,134
-526,262	-91,630	0,099	-0,020
-525,248	-200,000	0,012	-0,077
-524,233	-200,000	0,017	-0,135
-523,218	-177,818	0,095	0,002
-522,204	-200,000	-0,002	0,123
-521,189	10,599	-0,103	-0,058
-520,175	800,000	-0,026	-0,062
-519,160	-162,794	-0,030	-0,001
-518,145	40,273	0,121	0,079
-517,131	-200,000	-0,019	0,158
-516,116	128,572	0,074	-0,069
-515,102	216,677	-0,017	0,020
-514,087	-16,122	0,057	-0,026
-513,072	47,237	-0,041	-0,028
-512,058	-200,000	0,007	0,044
-511,043	-37,855	0,041	-0,016
-510,029	312,692	-0,023	-0,031
-509,014	179,416	0,083	-0,089
-507,999	302,767	0,033	0,044
-506,985	14,759	0,086	-0,049
-505,970	-18,217	-0,169	-0,077
-504,956	155,738	-0,076	-0,077
-503,941	-200,000	0,027	-0,090
-502,926	-63,385	-0,088	0,026
-501,912	25,613	0,125	0,076
-500,897	-133,566	0,013	-0,001
-499,883	-41,304	0,059	0,022
-498,868	-200,000	-0,020	-0,098
-497,853	-72,132	0,126	-0,034
-496,839	71,526	0,057	0,044
-495,824	800,000	0,087	0,177
-494,810	-102,618	0,141	-0,024
-493,795	166,739	-0,067	0,070
-492,781	355,411	0,044	-0,065
-491,766	800,000	0,068	-0,201
-490,751	134,495	-0,055	0,052
-489,737	-105,126	0,148	0,025
-488,722	96,819	-0,044	-0,037
-487,708	11,831	0,108	-0,061
-486,693	115,156	-0,051	-0,046
-485,678	-100,150	-0,042	-0,008
-484,664	800,000	-0,051	-0,161
-483,649	100,109	0,045	0,038
-482,635	-73,098	-0,086	0,023
-481,620	-53,688	-0,080	-0,027
-480,605	800,000	0,028	0,061
-479,591	-42,099	0,130	0,048
-478,576	604,890	-0,043	-0,079
-477,562	648,393	-0,006	-0,012
-476,547	800,000	-0,046	-0,101
-475,532	-200,000	0,009	0,058
-474,518	-78,363	-0,072	-0,018
-473,503	312,537	0,081	0,112
-472,489	-16,956	0,170	0,078
-471,474	597,906	0,034	0,063
-470,459	282,184	0,066	-0,086
-469,445	-200,000	-0,000	-0,009
-468,430	-94,647	0,142	-0,028
-467,416	-85,091	0,036	-0,008
-466,401	-3,016	-0,155	0,079
-465,386	2,019	0,086	0,045
-464,372	-23,442	0,042	0,018
-463,357	89,805	-0,127	0,104
-462,343	150,839	0,030	0,030
-461,328	-200,000	-0,004	-0,036
-460,313	-200,000	0,008	-0,169
-459,299	521,504	0,023	0,039
-458,284	800,000	-0,033	-0,072
-457,270	-200,000	-0,014	0,125
-456,255	800,000	0,018	-0,054
-455,241	144,428	-0,061	-0,060
-454,226	97,978	0,036	-0,030
-453,211	-200,000	-0,012	0,158
-452,197	-200,000	0,018	0,068
-451,182	-200,000	-0,013	0,090
-450,168	-200,000	0,019	0,168
-449,153	-140,649	-0,156	0,012
-448,138	-124,647	0,092	0,010
-447,124	800,000	0,030	-0,083
-446,109	112,382	-0,030	-0,027
-445,095	800,000	-0,044	0,103
-444,080	-1,921	0,072	-0,037
-443,065	-91,131	0,042	0,009
-442,051	130,677	-0,038	0,036
-441,036	-200,000	-0,014	-0,047
-440,022	-22,416	-0,091	0,040
-439,007	155,689	-0,055	0,055
-437,992	-39,459	0,114	-0,044
-436,978	303,279	0,026	0,036
-435,963	-81,176	0,165	-0,040
-434,949	-63,594	0,049	-0,014
-433,934	-87,631	0,089	-0,020
-432,919	-138,403	-0,198	0,016
-431,905	-200,000	-0,005	-0,054
-430,890	409,820	0,076	-0,118
-429,876	-200,000	-0,039	0,140
-428,861	-200,000	-0,027	-0,133
-427,846	800,000	-0,013	0,027
-426,832	77,710	-0,066	-0,052
-425,817	-165,823	-0,017	-0,001
-424,803	-88,013	-0,033	-0,007
-423,788	-31,894	0,085	-0,035
-422,773	32,625	-0,038	0,024
-421,759	0,215	-0,083	0,043
-420,744	-61,427	0,112	0,034
-419,730	-18,226	0,113	-0,051
-418,715	-24,823	-0,162	0,070
-417,701	-38,686	0,060	0,023
-416,686	-149,930	-0,075	0,004
-415,671	405,649	0,065	0,100
-414,657	-114,073	0,065	0,009
-413,642	-200,000	-0,007	0,131
-412,628	-88,434	-0,160	0,035
-411,613	-94,094	0,052	0,010
-410,598	-66,350	-0,162	-0,047
-409,584	-200,000	-0,016	0,000
-408,569	-19,979	-0,088	0,040
-407,555	229,834	-0,075	0,090
-406,540	8,395	0,020	-0,011
-405,525	-152,646	-0,070	0,004
-404,511	800,000	-0,045	-0,134
-403,496	800,000	-0,017	-0,055
-402,482	800,000	0,026	-0,083
-401,467	800,000	-0,025	0,079
-400,452	-200,000	0,012	0,136
-399,438	66,274	-0,054	0,040
-398,423	104,420	0,035	0,030
-397,409	-6,842	-0,068	0,033
-396,394	73,925	-0,023	0,017
-395,379	-200,000	0,001	0,070
-394,365	75,012	-0,088	-0,068
-393,350	432,008	-0,057	-0,090
-392,336	-3,473	0,097	-0,049
-391,321	-200,000	0,010	-0,095
-390,306	-122,696	0,018	-0,002
-389,292	800,000	-0,080	-0,218
-388,277	-200,000	-0,004	0,031
-387,263	576,553	0,095	0,170
-386,248	-200,000	0,059	0,208
-385,233	-200,000	-0,019	0,066
-384,219	184,154	0,046	0,050
-383,204	141,843	0,129	0,125
-382,190	138,850	0,103	0,099
-381,175	-125,039	0,019	0,002
-380,160	45,816	-0,068	0,046
-379,146	-131,486	0,096	-0,009
-378,131	-135,975	-0,117	-0,010
-377,117	800,000	0,009	-0,018
-376,102	-51,915	-0,187	-0,063
-375,088	20,219	-0,061	-0,036
-374,073	493,173	-0,033	0,056
-373,058	-200,000	-0,099	-0,000
-372,044	-93,331	0,154	0,031
-371,029	800,000	0,059	0,157
-370,015	315,170	0,077	-0,106
-369,000	-200,000	-0,027	-0,154
-367,985	-200,000	0,012	-0,093
-366,971	253,143	-0,026	0,032
-365,956	168,731	0,096	-0,100
-364,942	190,129	-0,136	-0,149
-363,927	-200,000	0,000	-0,006
-362,912	94,788	-0,075	-0,062
-361,898	20,370	0,025	0,015
-360,883	71,797	-0,142	0,108
-359,869	800,000	-0,011	0,030
-358,854	190,284	0,060	0,066
-357,839	800,000	-0,047	0,115
-356,825	-200,000	-0,028	0,188
-355,810	-200,000	-0,021	0,110
-354,796	-200,000	-0,018	0,119
-353,781	391,181	-0,039	-0,060
-352,766	100,700	-0,104	0,088
-351,752	-200,000	-0,000	0,034
-350,737	-89,647	0,100	-0,021
-349,723	-9,431	0,030	-0,014
-348,708	17,780	0,077	0,045
-347,693	-45,528	0,011	0,004
-346,679	277,174	-0,127	-0,164
-345,664	-200,000	-0,014	-0,046
-344,650	88,316	-0,029	0,023
-343,635	215,888	0,005	-0,006
-342,620	-104,266	0,101	-0,017
-341,606	485,011	0,057	0,095
-340,591	26,869	-0,094	0,057
-339,577	-64,379	-0,061	-0,018
-338,562	202,946	-0,093	-0,105
-337,548	-200,000	-0,025	0,106
-336,533	-11,981	-0,043	-0,020
-335,518	728,393	0,055	-0,107
-334,504	107,405	-0,142	-0,123
-333,489	134,335	0,046	-0,044
-332,475	169,590	-0,090	-0,094
-331,460	-200,000	-0,011	-0,151
-330,445	9,838	0,078	-0,043
-329,431	800,000	-0,036	-0,077
-328,416	-37,523	-0,103	-0,040
-327,402	-200,000	0,004	0,023
-326,387	-151,554	0,123	0,006
-325,372	247,371	-0,008	0,009
-324,358	129,756	0,041	0,038
-323,343	-66,193	-0,167	-0,048
-322,329	411,928	0,041	0,064
-321,314	-118,279	0,117	0,015
-320,299	185,711	0,128	0,139
-319,285	-162,207	0,096	0,003
-318,270	-124,340	0,191	-0,021
-317,256	-200,000	-0,024	-0,136
-316,241	800,000	0,036	-0,090
-315,226	800,000	-0,058	0,139
-314,212	-48,068	0,055	-0,019
-313,197	251,976	-0,084	-0,104
-312,183	-200,000	-0,024	0,108
-311,168	-75,197	-0,033	-0,008
-310,153	146,804	-0,076	0,074
-309,139	-23,376	0,074	0,032
-308,124	-41,499	0,052	-0,019
-307,110	250,032	0,061	-0,075
-306,095	-137,657	0,110	0,009
-305,080	800,000	0,010	0,025
-304,066	299,044	-0,085	-0,115
-303,051	49,335	0,069	-0,047
-302,037	245,629	0,125	-0,153
-301,022	-141,307	0,107	0,008
-300,008	566,974	0,021	0,037
-298,993	-71,435	-0,024	-0,006
-297,978	57,461	0,037	-0,026
-296,964	314,855	-0,092	0,127
-295,949	76,497	0,032	0,024
-294,935	-17,806	-0,129	0,059
-293,920	-68,583	0,037	-0,010
-292,905	7,835	0,096	0,052
-291,891	-200,000	-0,005	0,159
-290,876	118,249	0,072	0,065
-289,862	25,628	-0,164	-0,099
-288,847	-14,307	-0,038	-0,018
-287,832	800,000	-0,020	0,061
-286,818	-11,218	-0,042	-0,020
-285,803	-200,000	-0,008	-0,055
-284,789	-200,000	0,015	0,090
-283,774	-200,000	0,000	-0,075
-282,759	-111,744	0,080	0,012
-281,745	335,115	-0,042	0,059
-280,730	278,208	-0,037	-0,048
-279,716	-200,000	0,004	0,016
-278,701	-146,162	0,132	0,008
-277,686	-200,000	-0,003	-0,056
-276,672	-8,493	-0,027	0,013
-275,657	-200,000	0,009	0,048
-274,643	-78,331	-0,088	0,022
-273,628	-37,612	-0,050	-0,019
-272,613	504,391	-0,063	0,106
-271,599	-36,989	-0,034	-0,013
-270,584	-149,244	-0,170	-0,010
-269,570	49,638	0,062	-0,042
-268,555	-156,255	-0,120	0,005
-267,540	-200,000	-0,015	-0,108
-266,526	800,000	-0,066	-0,173
-265,511	189,653	-0,076	-0,083
-264,497	-108,073	-0,111	-0,017
-263,482	-157,177	-0,045	0,002
-262,467	225,705	0,081	-0,095
-261,453	98,353	0,008	-0,007
-260,438	-200,000	-0,027	-0,087
-259,424	272,247	0,033	-0,042
-258,409	-200,000	0,008	0,094
-257,395	340,321	-0,030	0,043
-256,380	-200,000	0,016	0,173
-255,365	194,695	-0,083	-0,092
-254,351	447,316	-0,008	-0,013
-253,336	800,000	-0,060	-0,124
-252,322	800,000	0,026	-0,072
-251,307	319,197	0,079	0,110
-250,292	360,492	0,009	0,013
-249,278	-200,000	-0,012	-0,083
-248,263	5,799	0,091	0,049
-247,249	-200,000	0,010	0,136
-246,234	-200,000	0,016	0,106
-245,219	-200,000	-0,008	-0,073
-244,205	648,590	-0,045	-0,084
-243,190	-200,000	-0,018	0,116
-242,176	-200,000	0,001	0,007
-241,161	-165,445	0,013	-0,000
-240,146	165,938	-0,066	0,068
-239,132	-115,410	0,069	-0,009
-238,117	30,435	-0,116	-0,072
-237,103	185,773	0,029	-0,031
-236,088	-200,000	0,023	-0,093
-235,073	492,553	-0,019	0,031
-234,059	800,000	0,038	-0,099
-233,044	-200,000	0,013	-0,048
-232,030	-30,858	-0,188	0,077
-231,015	83,484	-0,136	-0,108
-230,000	103,093	-0,059	-0,050
-228,986	-5,990	0,116	-0,058
-227,971	104,046	-0,044	0,037
-226,957	-15,071	-0,096	0,044
-225,942	-200,000	0,001	-0,099
-224,927	-70,203	0,096	0,026
-223,913	-131,391	0,160	-0,015
-222,898	23,200	-0,144	-0,086
-221,884	48,840	0,031	-0,021
-220,869	-59,204	0,074	-0,023
-219,855	800,000	-0,037	0,116
-218,840	-200,000	0,025	0,167
-217,825	-200,000	-0,006	0,032
-216,811	419,303	0,045	0,070
-215,796	-89,222	0,079	-0,017
-214,782	380,628	0,065	-0,097
-213,767	-200,000	0,011	-0,126
-212,752	-200,000	0,015	0,128
-211,738	-200,000	0,077	0,000
-210,723	106,012	0,065	0,056
-209,709	-98,458	-0,083	0,015
-208,694	-200,000	0,001	-0,102
-207,679	2,994	-0,059	0,031
-206,665	25,908	0,043	0,026
-205,650	-52,610	0,102	-0,034
-204,636	-200,000	-0,011	-0,146
-203,621	195,852	-0,063	-0,069
-202,606	37,962	-0,051	-0,033
-201,592	-20,646	-0,032	-0,014
-200,577	-200,000	-0,018	-0,083
-199,563	44,512	0,097	-0,065
-198,548	800,000	0,047	0,099
-197,533	125,117	-0,226	0,207
-196,519	103,504	0,018	-0,015
-195,504	121,816	0,062	-0,056
-194,490	338,787	-0,112	0,158
-193,475	91,465	0,040	-0,032
-192,460	-183,382	0,165	-0,002
-191,446	-200,000	0,008	-0,068
-190,431	-200,000	0,005	0,092
-189,417	-58,316	0,102	0,032
-188,402	285,954	-0,064	0,084
-187,387	800,000	-0,021	-0,045
-186,373	-36,442	0,069	0,027
-185,358	800,000	-0,024	0,078
-184,344	358,901	0,078	-0,113
-183,329	-15,355	-0,048	0,022
-182,315	-75,972	0,102	0,026
-181,300	-56,100	0,126	-0,040
-180,285	27,192	0,045	-0,027
-179,271	-200,000	-0,019	-0,086
-178,256	800,000	-0,039	-0,094
-177,242	65,369	0,045	-0,033
-176,227	553,517	0,036	-0,063
-175,212	-53,813	0,064	0,021
-174,198	183,892	0,058	0,062
-173,183	625,194	-0,042	-0,078
-172,169	19,554	-0,066	-0,038
-171,154	-200,000	0,000	0,088
-170,139	-200,000	-0,003	0,109
-169,125	-200,000	0,035	0,127
-168,110	-200,000	0,103	0,000
-167,096	-23,152	0,071	-0,031
-166,081	-146,271	-0,154	0,010
-165,066	-200,000	0,011	-0,111
-164,052	206,689	0,076	-0,085
-163,037	800,000	-0,047	-0,134
-162,023	781,162	-0,027	0,053
-161,008	800,000	-0,005	-0,014
-159,993	-165,138	-0,045	0,001
-158,979	449,093	-0,013	-0,021
-157,964	-200,000	-0,019	-0,088
-156,950	173,959	0,071	-0,075
-155,935	800,000	0,014	-0,035
-154,920	-86,276	0,117	-0,026
-153,906	750,927	0,072	0,142
-152,891	5,488	-0,092	0,049
-151,877	596,153	-0,044	0,080
-150,862	800,000	-0,022	-0,054
-149,847	30,938	-0,097	-0,060
-148,833	800,000	-0,048	0,123
-147,818	201,040	0,048	0,053
-146,804	6,891	0,050	-0,027
-145,789	72,006	-0,039	-0,029
-144,775	-48,280	0,132	-0,046
-143,760	-69,033	0,041	-0,011
-142,745	-65,065	-0,092	-0,027
-141,731	138,493	0,107	0,102
-140,716	-200,000	0,022	-0,076
-139,702	-168,779	-0,060	-0,002
-138,687	-97,059	0,036	-0,007
-137,672	15,996	0,122	0,069
-136,658	314,146	0,040	0,054
-135,643	60,136	-0,058	-0,042
-134,629	117,759	0,057	-0,051
-133,614	-78,726	0,155	-0,038
-132,599	-200,000	0,018	0,126
-131,585	114,109	-0,030	0,026
-130,570	-200,000	-0,008	0,071
-129,556	-49,369	-0,073	-0,025
-128,541	800,000	0,025	-0,052
-127,526	-200,000	-0,022	0,203
-126,512	628,840	-0,052	0,096
-125,497	-36,382	-0,058	-0,023
-124,483	-5,865	0,010	-0,005
-123,468	172,233	0,026	-0,027
-122,453	-56,525	-0,098	-0,031
-121,439	330,932	-0,039	-0,054
-120,424	-153,940	-0,134	-0,006
-119,410	30,838	0,100	-0,062
