DTS Sentinel unit serial number:	SN410029Multiplexer serial number:	ORYXHardware model number:	OX2-SRSoftware version number:	ORYX F/W v4,00 Oryx Data Collector v3.7.2.0data status	okinstallation	B4 Nyhavnadifferential loss correction	single-endedforward channel	channel 2reverse channel	N/Adate	2023/12/19time	12:55:13forward acquisition time	300,00reverse acquisition time	0,00gamma	499,1914k internal	0,3128k external	0,3128temperature offset calibration	1,0000default loss term (dB/km)	0,3820temperature slope calibration	1,0000multiplexer offset coefficient	1,0000multiplexer slope coefficient	1,0000fibre end	0,00T internal ref (°C)	19,47T ext. ref 1 (°C)	4,37T ext. ref 2 (°C)	4,28length (m)	temperature (°C)	Stokes	anti-Stokes-744,400	-200,000	-0,003	-0,012
-743,385	-77,677	-0,273	0,070
-742,371	141,794	0,087	-0,086
-741,356	-43,570	-0,286	0,107
-740,342	-200,000	-0,004	-0,065
-739,327	-54,790	-0,285	0,095
-738,312	800,000	-0,012	0,038
-737,298	-89,717	-0,323	0,070
-736,283	72,535	0,050	-0,039
-735,269	-196,761	-0,196	-0,001
-734,254	-200,000	0,008	0,165
-733,239	-89,351	-0,385	-0,084
-732,225	-117,060	0,217	-0,029
-731,210	-200,000	0,016	0,179
-730,196	383,693	0,025	-0,039
-729,181	250,150	-0,029	-0,037
-728,167	-126,155	0,052	0,006
-727,152	-200,000	-0,033	-0,154
-726,137	-200,000	-0,033	-0,110
-725,123	-106,913	-0,075	-0,012
-724,108	91,529	-0,112	0,094
-723,094	171,519	-0,109	-0,117
-722,079	514,591	0,078	-0,136
-721,064	-200,000	-0,011	-0,085
-720,050	-200,000	0,002	-0,035
-719,035	-200,000	0,005	-0,021
-718,021	-89,987	-0,116	-0,025
-717,006	-129,810	-0,214	-0,022
-715,991	-200,000	-0,018	0,182
-714,977	-200,000	-0,009	-0,110
-713,962	724,149	0,069	-0,137
-712,948	716,005	0,043	0,084
-711,933	-85,093	0,045	0,010
-710,918	244,907	-0,013	0,017
-709,904	62,097	0,073	-0,054
-708,889	-55,237	0,022	-0,007
-707,875	-181,182	-0,143	-0,002
-706,860	-103,345	0,092	-0,016
-705,845	650,411	0,052	-0,099
-704,831	-34,636	0,151	-0,061
-703,816	392,064	-0,085	-0,131
-702,802	157,327	-0,034	0,035
-701,787	800,000	-0,035	-0,092
-700,772	50,914	0,015	-0,011
-699,758	49,232	-0,079	0,055
-698,743	-122,384	-0,047	0,006
-697,729	-200,000	0,018	-0,080
-696,714	133,141	0,053	0,051
-695,699	-106,817	-0,156	-0,025
-694,685	494,873	-0,022	0,037
-693,670	-200,000	0,004	-0,105
-692,656	65,169	0,071	0,053
-691,641	227,947	0,004	-0,005
-690,627	-200,000	-0,029	0,119
-689,612	-200,000	0,024	-0,116
-688,597	-66,015	-0,138	0,041
-687,583	800,000	-0,025	0,077
-686,568	-200,000	0,022	-0,091
-685,554	234,191	-0,050	-0,061
-684,539	-59,637	-0,101	-0,032
-683,524	-200,000	0,002	-0,044
-682,510	-200,000	-0,021	0,100
-681,495	800,000	-0,035	0,082
-680,481	-78,046	-0,129	0,033
-679,466	326,426	0,012	0,017
-678,451	385,405	-0,102	0,156
-677,437	-187,449	0,057	-0,001
-676,422	-200,000	-0,008	-0,028
-675,408	-7,401	-0,054	-0,027
-674,393	-92,083	0,053	0,011
-673,378	800,000	0,038	-0,094
-672,364	434,488	-0,080	-0,130
-671,349	50,529	-0,131	-0,092
-670,335	-200,000	0,000	0,054
-669,320	-200,000	0,023	0,122
-668,305	359,764	-0,060	0,089
-667,291	1,512	0,104	-0,056
-666,276	144,492	-0,033	-0,033
-665,262	300,091	-0,059	-0,080
-664,247	217,022	0,075	-0,089
-663,232	153,004	-0,090	-0,091
-662,218	-126,535	0,186	-0,020
-661,203	800,000	0,025	0,070
-660,189	733,963	-0,043	-0,086
-659,174	-200,000	-0,003	-0,028
-658,159	84,742	-0,046	0,038
-657,145	-47,347	0,111	-0,040
-656,130	-200,000	-0,013	0,074
-655,116	-12,348	0,041	0,020
-654,101	-200,000	0,027	0,194
-653,086	800,000	-0,012	0,026
-652,072	236,469	-0,018	0,023
-651,057	-56,093	-0,069	0,023
-650,043	800,000	0,015	-0,046
-649,028	-75,497	-0,048	0,013
-648,014	124,081	-0,102	-0,095
-646,999	-200,000	-0,026	0,101
-645,984	-95,427	0,034	0,007
-644,970	-200,000	-0,016	0,177
-643,955	-40,613	-0,092	-0,035
-642,941	-200,000	-0,019	-0,088
-641,926	8,085	-0,067	0,037
-640,911	297,864	0,074	-0,101
-639,897	800,000	-0,011	-0,025
-638,882	-51,663	0,045	0,016
-637,868	63,871	-0,053	0,039
-636,853	-105,707	0,092	0,015
-635,838	-114,448	-0,085	0,012
-634,824	800,000	-0,039	-0,113
-633,809	-200,000	0,018	-0,112
-632,795	-68,054	-0,073	0,021
-631,780	353,835	0,069	0,101
-630,765	-81,200	-0,109	-0,027
-629,751	-200,000	0,005	-0,054
-628,736	-200,000	0,003	-0,079
-627,722	-200,000	0,003	0,054
-626,707	391,851	-0,089	0,137
-625,692	93,830	0,101	0,085
-624,678	-200,000	0,032	0,222
-623,663	800,000	0,050	-0,146
-622,649	-200,000	-0,017	-0,067
-621,634	800,000	-0,061	-0,191
-620,619	-132,347	0,156	-0,015
-619,605	-36,366	0,015	0,006
-618,590	-200,000	0,037	0,148
-617,576	800,000	-0,030	0,097
-616,561	800,000	0,044	0,101
-615,546	-200,000	0,012	0,076
-614,532	-86,883	-0,131	0,029
-613,517	243,841	0,055	-0,069
-612,503	20,721	-0,015	-0,009
-611,488	800,000	0,011	-0,031
-610,474	109,313	-0,146	-0,129
-609,459	267,832	-0,113	-0,147
-608,444	-53,761	-0,056	-0,019
-607,430	115,998	0,034	-0,030
-606,415	800,000	-0,031	-0,085
-605,401	800,000	-0,018	0,050
-604,386	800,000	-0,055	-0,137
-603,371	109,347	0,101	0,090
-602,357	-200,000	-0,001	-0,021
-601,342	-200,000	0,001	-0,028
-600,328	800,000	0,032	-0,095
-599,313	672,954	-0,034	-0,066
-598,298	-67,008	-0,200	-0,058
-597,284	166,957	-0,056	-0,059
-596,269	11,326	0,090	0,051
-595,255	-142,637	-0,112	-0,008
-594,240	43,012	0,065	-0,044
-593,225	335,148	0,026	-0,038
-592,211	800,000	0,053	-0,141
-591,196	442,011	-0,081	-0,131
-590,182	-28,408	0,122	0,052
-589,167	800,000	0,054	0,139
-588,152	-85,778	-0,143	-0,033
-587,138	137,177	-0,093	0,090
-586,123	-43,610	-0,049	-0,018
-585,109	25,242	0,063	0,039
-584,094	127,462	0,074	-0,070
-583,079	-71,531	0,038	0,010
-582,065	-7,344	0,123	-0,062
-581,050	-3,190	0,045	-0,023
-580,036	-200,000	-0,022	-0,124
-579,021	-200,000	-0,032	-0,108
-578,006	355,911	-0,055	-0,081
-576,992	6,155	-0,140	-0,077
-575,977	30,971	0,116	-0,073
-574,963	-200,000	-0,029	0,151
-573,948	-200,000	-0,006	-0,065
-572,934	800,000	0,028	0,080
-571,919	299,437	-0,097	0,132
-570,904	-84,113	-0,062	-0,014
-569,890	146,262	-0,080	0,080
-568,875	502,283	0,060	-0,103
-567,861	-200,000	-0,002	-0,031
-566,846	-113,771	-0,116	-0,016
-565,831	619,057	0,057	-0,107
-564,817	-53,907	0,029	0,010
-563,802	-200,000	-0,062	-0,203
-562,788	-200,000	0,014	-0,080
-561,773	800,000	-0,024	-0,068
-560,758	-200,000	-0,001	-0,109
-559,744	-3,014	0,031	0,016
-558,729	39,042	-0,117	0,077
-557,715	716,578	0,034	-0,067
-556,700	25,676	-0,093	-0,057
-555,685	-17,521	-0,167	-0,077
-554,671	445,703	0,069	0,112
-553,656	-200,000	-0,001	-0,097
-552,642	-38,911	0,162	-0,063
-551,627	148,415	-0,009	-0,009
-550,612	-2,502	-0,121	0,063
-549,598	-200,000	0,032	-0,171
-548,583	88,465	0,087	-0,071
-547,569	-87,117	0,156	-0,035
-546,554	-64,580	0,116	-0,035
-545,539	-8,668	-0,048	0,024
-544,525	-70,419	0,070	0,019
-543,510	-2,951	-0,050	-0,026
-542,496	197,094	-0,071	0,080
-541,481	-27,906	0,114	0,049
-540,466	800,000	0,021	-0,056
-539,452	754,354	-0,045	0,091
-538,437	170,257	-0,116	0,123
-537,423	261,315	-0,131	0,168
-536,408	23,687	-0,082	0,050
-535,393	7,002	-0,086	0,047
-534,379	-200,000	-0,009	-0,035
-533,364	-200,000	0,014	-0,069
-532,350	-200,000	-0,022	-0,078
-531,335	221,065	-0,017	0,020
-530,321	-200,000	-0,013	0,079
-529,306	-200,000	0,019	0,112
-528,291	645,710	-0,068	-0,129
-527,277	353,183	-0,072	-0,105
-526,262	-200,000	0,023	0,101
-525,248	191,167	-0,044	-0,049
-524,233	-45,267	0,134	-0,049
-523,218	-200,000	0,014	0,089
-522,204	-200,000	0,004	-0,018
-521,189	800,000	-0,023	0,067
-520,175	-200,000	0,008	0,051
-519,160	547,539	-0,066	-0,117
-518,145	26,759	0,100	0,062
-517,131	200,762	0,097	-0,110
-516,116	800,000	-0,077	0,162
-515,102	800,000	0,030	0,076
-514,087	254,880	-0,065	0,082
-513,072	-79,968	-0,055	0,014
-512,058	206,158	-0,048	0,055
-511,043	800,000	-0,035	0,090
-510,029	113,254	0,079	0,071
-509,014	123,908	-0,071	-0,065
-507,999	374,663	0,048	-0,072
-506,985	-59,675	-0,090	-0,028
-505,970	225,350	-0,057	-0,068
-504,956	-200,000	0,006	-0,082
-503,941	362,106	0,027	-0,039
-502,926	-200,000	-0,018	-0,139
-501,912	223,864	-0,042	0,050
-500,897	-71,223	-0,064	0,017
-499,883	800,000	-0,013	0,036
-498,868	210,386	-0,030	0,035
-497,853	-80,680	0,050	0,012
-496,839	-194,929	0,119	-0,001
-495,824	65,633	0,089	0,066
-494,810	-22,566	-0,153	-0,068
-493,795	287,792	0,076	0,102
-492,781	48,034	-0,097	-0,066
-491,766	-200,000	-0,011	-0,104
-490,751	-140,599	-0,093	-0,007
-489,737	122,639	0,077	-0,071
-488,722	-27,466	0,122	0,052
-487,708	230,686	0,075	0,091
-486,693	60,996	-0,016	-0,011
-485,678	-200,000	-0,003	-0,026
-484,664	-200,000	0,021	-0,161
-483,649	-115,627	0,057	0,008
-482,635	-128,962	0,039	0,004
-481,620	800,000	-0,016	-0,035
-480,605	-91,218	0,095	0,020
-479,591	-30,599	0,117	0,049
-478,576	-123,376	0,032	0,004
-477,562	-135,579	-0,095	-0,008
-476,547	-44,124	0,130	-0,048
-475,532	117,025	-0,168	0,152
-474,518	758,740	0,054	0,109
-473,503	55,314	0,152	0,108
-472,489	-200,000	-0,007	0,056
-471,474	-200,000	0,015	-0,123
-470,459	-85,180	-0,140	-0,032
-469,445	-36,399	-0,049	0,019
-468,430	331,345	-0,034	-0,049
-467,416	-200,000	0,038	-0,164
-466,401	-200,000	0,002	-0,226
-465,386	-200,000	-0,003	-0,072
-464,372	-200,000	-0,000	-0,090
-463,357	-35,087	-0,065	-0,026
-462,343	201,886	-0,088	-0,101
-461,328	-37,943	0,083	-0,032
-460,313	-200,000	-0,028	-0,094
-459,299	-160,785	-0,088	0,003
-458,284	138,392	0,067	0,064
-457,270	-143,096	0,033	-0,002
-456,255	-200,000	-0,007	-0,114
-455,241	11,550	-0,073	0,041
-454,226	95,216	0,113	-0,095
-453,211	-200,000	0,004	-0,099
-452,197	122,833	0,050	0,046
-451,182	13,802	0,072	-0,041
-450,168	-200,000	-0,038	0,124
-449,153	-200,000	0,013	-0,079
-448,138	-200,000	-0,009	0,080
-447,124	-114,625	-0,143	-0,020
-446,109	-149,001	-0,122	-0,007
-445,095	422,964	-0,085	0,135
-444,080	270,720	0,026	0,034
-443,065	-176,101	0,059	0,001
-442,051	250,772	0,040	0,050
-441,036	536,379	-0,099	-0,173
-440,022	30,759	-0,082	-0,052
-439,007	-200,000	0,003	0,104
-437,992	209,042	0,138	0,159
-436,978	-7,570	0,077	0,038
-435,963	185,995	-0,053	0,058
-434,949	3,759	0,055	0,029
-433,934	93,817	-0,052	-0,044
-432,919	23,270	-0,078	-0,047
-431,905	-200,000	0,008	0,070
-430,890	-200,000	0,026	0,190
-429,876	-200,000	0,009	0,069
-428,861	-200,000	0,019	0,113
-427,846	102,493	-0,059	0,050
-426,832	-80,989	-0,102	-0,025
-425,817	118,456	-0,029	-0,027
-424,803	-36,368	0,090	-0,035
-423,788	-45,290	-0,129	0,047
-422,773	-200,000	0,020	0,127
-421,759	-200,000	-0,003	0,074
-420,744	8,686	0,052	0,029
-419,730	190,496	0,050	-0,056
-418,715	-200,000	-0,013	-0,138
-417,701	308,723	0,055	0,076
-416,686	-183,642	0,120	-0,001
-415,671	800,000	-0,060	-0,129
-414,657	-200,000	-0,014	0,090
-413,642	120,196	-0,129	0,118
-412,628	-200,000	-0,013	-0,131
-411,613	-200,000	0,005	-0,074
-410,598	46,864	-0,044	-0,030
-409,584	-135,151	0,048	-0,004
-408,569	24,287	-0,030	-0,018
-407,555	340,835	0,020	-0,029
-406,540	645,018	0,048	0,091
-405,525	-200,000	-0,007	-0,036
-404,511	-51,251	-0,087	0,030
-403,496	-200,000	0,002	0,118
-402,482	-198,030	0,060	0,000
-401,467	-200,000	0,019	0,132
-400,452	106,231	0,081	0,070
-399,438	-87,976	-0,097	0,021
-398,423	-33,669	-0,079	-0,032
-397,409	800,000	-0,028	-0,065
-396,394	281,307	0,058	-0,076
-395,379	-200,000	0,018	-0,100
-394,365	-42,145	-0,094	-0,035
-393,350	130,072	-0,034	-0,032
-392,336	-29,060	-0,120	0,050
-391,321	800,000	-0,071	-0,200
-390,306	-200,000	0,020	-0,067
-389,292	-200,000	-0,012	-0,073
-388,277	-200,000	-0,010	0,044
-387,263	58,067	0,060	0,043
-386,248	266,907	0,088	0,113
-385,233	112,456	0,099	-0,088
-384,219	235,050	-0,062	-0,076
-383,204	-200,000	0,008	-0,032
-382,190	65,725	0,062	-0,046
-381,175	-89,051	0,059	0,013
-380,160	125,662	-0,144	0,134
-379,146	-200,000	0,009	-0,053
-378,131	-200,000	0,002	-0,029
-377,117	194,752	-0,031	-0,034
-376,102	-50,319	0,026	0,009
-375,088	-200,000	0,014	0,076
-374,073	751,583	-0,053	-0,105
-373,058	-149,249	-0,111	-0,006
-372,044	-140,527	0,175	-0,013
-371,029	-200,000	-0,012	0,061
-370,015	222,415	0,077	0,091
-369,000	-9,317	0,036	0,018
-367,985	26,087	-0,136	-0,083
-366,971	6,504	0,116	0,063
-365,956	85,515	-0,070	0,057
-364,942	240,638	0,082	0,100
-363,927	-52,536	0,052	0,017
-362,912	173,605	0,061	-0,064
-361,898	617,354	-0,041	-0,076
-360,883	-200,000	-0,001	0,089
-359,869	227,936	-0,038	0,045
-358,854	-200,000	0,004	0,017
-357,839	-200,000	0,013	0,120
-356,825	771,749	0,048	0,097
-355,810	-173,100	0,087	-0,002
-354,796	546,356	0,034	-0,061
-353,781	800,000	-0,025	0,064
-352,766	-200,000	0,003	-0,071
-351,752	618,491	-0,022	0,041
-350,737	45,368	-0,029	-0,019
-349,723	43,727	-0,077	0,052
-348,708	155,964	0,071	-0,072
-347,693	-200,000	0,021	-0,107
-346,679	-139,750	-0,118	-0,009
-345,664	259,679	-0,026	-0,033
-344,650	-38,858	-0,073	-0,028
-343,635	69,545	0,083	0,063
-342,620	-200,000	0,017	-0,078
-341,606	33,232	-0,168	-0,107
-340,591	144,946	0,081	0,080
-339,577	-73,425	-0,111	-0,029
-338,562	159,789	0,058	-0,059
-337,548	94,502	-0,017	0,014
-336,533	417,624	0,064	0,101
-335,518	276,853	-0,023	-0,030
-334,504	-200,000	0,005	-0,052
-333,489	-11,953	-0,091	0,044
-332,475	800,000	-0,046	0,146
-331,460	-160,566	-0,037	0,001
-330,445	294,557	-0,060	0,080
-329,431	-200,000	0,007	0,078
-328,416	142,473	0,011	0,011
-327,402	-48,663	0,129	-0,045
-326,387	-177,954	-0,082	0,001
-325,372	-166,675	0,104	-0,003
-324,358	-20,933	-0,043	0,019
-323,343	-115,376	0,050	-0,007
-322,329	-70,449	0,122	0,034
-321,314	-87,605	-0,090	0,020
-320,299	800,000	-0,075	0,153
-319,285	67,840	0,035	0,026
-318,270	800,000	-0,017	-0,047
-317,256	190,885	-0,162	-0,179
-316,241	-200,000	0,004	-0,160
-315,226	-200,000	0,005	0,034
-314,212	-77,808	-0,039	0,010
-313,197	800,000	-0,014	0,032
-312,183	800,000	-0,025	0,063
-311,168	-200,000	0,023	-0,098
-310,153	-65,887	-0,091	-0,026
-309,139	-75,662	-0,071	0,018
-308,124	-93,643	0,139	-0,028
-307,110	9,363	-0,081	-0,045
-306,095	-200,000	0,001	0,053
-305,080	-200,000	0,009	0,128
-304,066	309,608	0,065	0,089
-303,051	58,862	-0,111	-0,080
-302,037	241,834	-0,067	0,083
-301,022	-60,858	0,078	0,024
-300,008	-184,049	0,119	-0,001
-298,993	-22,814	0,147	0,065
-297,978	74,924	-0,067	-0,051
-296,964	-33,359	0,095	0,038
-295,949	-102,903	-0,204	0,035
-294,935	800,000	0,041	0,128
-293,920	433,526	-0,005	0,007
-292,905	71,819	0,056	0,042
-291,891	170,318	0,071	0,074
-290,876	-39,937	-0,048	-0,018
-289,862	193,628	0,100	0,111
-288,847	288,828	0,145	0,193
-287,832	275,144	0,067	0,087
-286,818	-65,411	-0,044	0,013
-285,803	-119,714	0,077	0,010
-284,789	-200,000	0,009	0,036
-283,774	17,976	0,053	0,031
-282,759	-200,000	-0,030	-0,139
-281,745	-85,400	0,166	0,037
-280,730	429,669	0,011	-0,017
-279,716	800,000	-0,020	0,051
-278,701	6,478	-0,087	-0,047
-277,686	800,000	0,052	0,165
-276,672	800,000	0,044	0,100
-275,657	80,500	0,091	0,072
-274,643	-200,000	0,009	0,031
-273,628	800,000	-0,008	-0,022
-272,613	-102,808	-0,097	0,017
-271,599	800,000	0,035	-0,073
-270,584	-200,000	-0,003	0,090
-269,570	-62,610	0,143	0,043
-268,555	-200,000	0,018	0,069
-267,540	800,000	0,035	-0,072
-266,526	-5,721	-0,134	-0,067
-265,511	-121,574	-0,156	-0,019
-264,497	77,676	0,132	0,103
-263,482	800,000	0,039	0,108
-262,467	-200,000	0,000	0,024
-261,453	10,462	-0,007	-0,004
-260,438	-11,027	0,019	0,009
-259,424	10,378	-0,103	-0,057
-258,409	-97,579	0,044	0,008
-257,395	254,139	0,014	-0,017
-256,380	-96,410	0,113	-0,022
-255,365	-105,659	0,062	-0,010
-254,351	560,494	-0,019	-0,033
-253,336	-11,906	-0,101	-0,048
-252,322	-69,295	-0,178	-0,050
-251,307	-117,156	0,101	-0,013
-250,292	27,650	-0,081	-0,050
-249,278	-5,459	0,085	0,042
-248,263	800,000	-0,048	0,152
-247,249	712,034	-0,051	-0,099
-246,234	499,079	-0,067	-0,113
-245,219	95,011	-0,025	0,021
-244,205	83,668	0,046	0,036
-243,190	-129,793	0,010	-0,001
-242,176	-200,000	0,000	0,022
-241,161	-16,957	0,075	-0,034
-240,146	-29,723	0,080	0,033
-239,132	136,173	-0,088	-0,083
-238,117	56,597	0,043	0,030
-237,103	800,000	-0,055	0,114
-236,088	304,530	0,012	-0,016
-235,073	-200,000	0,046	0,161
-234,059	-119,036	0,007	-0,001
-233,044	13,093	-0,059	-0,033
-232,030	-200,000	0,002	-0,024
-231,015	800,000	-0,009	-0,022
-230,000	309,333	-0,019	-0,026
-228,986	-200,000	-0,008	0,050
-227,971	51,445	0,129	0,089
-226,957	-66,662	0,032	0,009
-225,942	194,047	0,052	0,058
-224,927	-99,142	-0,054	-0,010
-223,913	313,077	-0,024	-0,033
-222,898	-200,000	0,005	0,033
-221,884	800,000	0,041	-0,101
-220,869	0,600	0,156	-0,081
-219,855	137,277	0,022	0,021
-218,840	140,916	-0,104	0,100
-217,825	220,379	0,075	0,088
-216,811	266,545	0,054	0,068
-215,796	-51,538	-0,055	-0,019
-214,782	258,042	0,069	0,086
-213,767	-122,190	0,069	0,008
-212,752	800,000	0,049	0,156
-211,738	20,849	-0,020	0,012
-210,723	247,025	0,032	0,039
-209,709	-80,410	-0,040	-0,010
-208,694	81,916	0,022	0,018
-207,679	93,681	-0,124	-0,102
-206,665	11,864	0,119	0,067
-205,650	-7,482	0,064	0,032
-204,636	-97,273	-0,129	0,024
-203,621	-4,674	0,039	0,019
-202,606	-200,000	0,003	-0,065
-201,592	634,799	0,080	-0,148
-200,577	207,521	-0,091	0,104
-199,563	-42,530	-0,053	0,019
-198,548	43,069	0,113	0,075
-197,533	-88,021	-0,063	0,014
-196,519	122,296	0,012	-0,011
-195,504	-200,000	0,029	0,125
-194,490	-93,498	0,037	-0,007
-193,475	800,000	0,051	-0,111
-192,460	-164,369	0,036	0,001
-191,446	153,210	0,101	0,101
-190,431	62,765	-0,072	-0,052
-189,417	-200,000	0,039	0,136
-188,402	-107,347	0,107	-0,017
-187,387	180,340	-0,084	-0,090
-186,373	800,000	-0,010	-0,026
-185,358	177,526	0,047	-0,050
-184,344	554,037	-0,059	-0,104
-183,329	-120,678	0,158	-0,019
-182,315	217,589	-0,040	-0,047
-181,300	631,540	-0,009	-0,017
-180,285	-200,000	0,009	-0,059
-179,271	121,742	0,020	0,019
-178,256	27,383	0,100	-0,061
-177,242	226,046	0,047	-0,056
-176,227	-200,000	-0,006	0,096
-175,212	-200,000	0,020	-0,086
-174,198	-200,000	-0,007	0,122
-173,183	-200,000	0,046	-0,151
-172,169	-31,234	0,037	-0,015
-171,154	-151,445	-0,084	0,004
-170,139	-100,438	-0,100	0,018
-169,125	-200,000	0,012	0,072
-168,110	-118,041	-0,023	0,003
-167,096	-200,000	-0,041	-0,199
-166,081	214,933	0,052	-0,060
-165,066	-8,604	-0,134	0,065
-164,052	-17,043	0,064	-0,029
-163,037	800,000	0,072	-0,190
-162,023	581,922	0,078	0,139
-161,008	88,618	0,067	0,054
-159,993	-88,143	-0,134	-0,029
-158,979	800,000	0,056	-0,160
-157,964	-14,659	-0,037	0,017
-156,950	51,788	0,108	-0,075
-155,935	-23,856	0,147	0,064
-154,920	453,278	0,047	0,076
-153,906	-78,740	0,067	0,017
-152,891	-200,000	-0,000	-0,004
-151,877	-136,604	0,143	-0,012
-150,862	-97,392	-0,048	0,009
-149,847	281,294	-0,091	-0,119
-148,833	-113,306	-0,020	0,003
-147,818	-77,755	0,076	-0,019
-146,804	-200,000	-0,011	0,038
-145,789	-200,000	0,013	0,118
-144,775	-200,000	-0,005	-0,083
-143,760	108,335	-0,084	-0,073
-142,745	147,822	-0,053	-0,052
-141,731	-58,140	-0,051	-0,016
-140,716	-42,849	0,014	-0,005
-139,702	513,183	0,010	-0,017
-138,687	-169,957	-0,083	-0,002
-137,672	406,564	-0,043	-0,066
-136,658	-62,931	0,102	0,031
-135,643	-11,355	0,087	-0,042
-134,629	504,043	-0,040	-0,067
-133,614	-17,781	0,157	-0,071
-132,599	196,079	0,032	0,035
-131,585	-200,000	0,011	-0,040
-130,570	466,827	-0,057	-0,093
-129,556	738,421	-0,090	-0,176
-128,541	-116,781	0,109	0,014
-127,526	67,528	0,057	0,042
-126,512	-17,298	0,126	0,058
-125,497	48,490	-0,131	-0,089
-124,483	800,000	-0,044	-0,123
-123,468	26,893	0,029	0,018
-122,453	119,584	0,099	0,089
-121,439	93,037	-0,179	-0,147
-120,424	-61,399	0,088	-0,027
-119,410	-200,000	0,017	-0,069
