DTS Sentinel unit serial number:	SN410029Multiplexer serial number:	ORYXHardware model number:	OX2-SRSoftware version number:	ORYX F/W v4,00 Oryx Data Collector v3.7.2.0data status	okinstallation	B4 Nyhavnadifferential loss correction	single-endedforward channel	channel 2reverse channel	N/Adate	2023/12/16time	05:35:13forward acquisition time	300,00reverse acquisition time	0,00gamma	499,1914k internal	0,3128k external	0,3128temperature offset calibration	1,0000default loss term (dB/km)	0,3820temperature slope calibration	1,0000multiplexer offset coefficient	1,0000multiplexer slope coefficient	1,0000fibre end	0,00T internal ref (°C)	22,18T ext. ref 1 (°C)	7,41T ext. ref 2 (°C)	7,58length (m)	temperature (°C)	Stokes	anti-Stokes-744,400	19,731	-0,089	-0,053
-743,385	-86,757	-0,268	-0,060
-742,371	-79,020	0,091	-0,023
-741,356	-60,142	-0,223	0,070
-740,342	698,426	-0,025	-0,050
-739,327	-127,289	-0,206	0,022
-738,312	175,832	0,067	-0,072
-737,298	-158,386	-0,326	-0,014
-736,283	384,128	0,104	-0,160
-735,269	-97,641	-0,189	0,036
-734,254	-0,292	0,075	0,040
-733,239	-5,735	-0,319	-0,162
-732,225	-2,127	0,096	-0,050
-731,210	216,351	0,058	-0,068
-730,196	-93,724	0,057	-0,012
-729,181	-200,000	-0,002	-0,087
-728,167	-52,265	-0,038	0,013
-727,152	381,155	-0,037	-0,056
-726,137	800,000	-0,033	-0,107
-725,123	-142,818	-0,156	-0,011
-724,108	-107,029	0,050	-0,008
-723,094	88,016	-0,139	-0,115
-722,079	800,000	-0,083	-0,218
-721,064	-131,721	-0,118	-0,011
-720,050	-54,977	-0,021	-0,007
-719,035	800,000	0,023	0,074
-718,021	-200,000	0,019	-0,094
-717,006	126,218	-0,129	-0,122
-715,991	512,465	-0,075	-0,130
-714,977	53,354	-0,128	-0,091
-713,962	24,451	-0,053	-0,032
-712,948	-200,000	0,009	-0,054
-711,933	-200,000	0,006	-0,140
-710,918	-88,762	-0,050	-0,011
-709,904	-136,585	-0,158	-0,013
-708,889	-0,412	-0,103	-0,054
-707,875	-200,000	-0,025	-0,096
-706,860	-200,000	-0,005	-0,036
-705,845	270,409	0,018	-0,024
-704,831	-200,000	-0,003	-0,033
-703,816	255,177	-0,094	-0,119
-702,802	-117,225	-0,099	-0,013
-701,787	-200,000	-0,013	-0,087
-700,772	112,321	0,058	0,053
-699,758	479,574	0,026	0,044
-698,743	90,975	-0,050	-0,042
-697,729	-200,000	0,065	-0,000
-696,714	-66,897	-0,050	-0,014
-695,699	-200,000	-0,009	0,069
-694,685	800,000	0,017	0,049
-693,670	-140,369	-0,023	-0,002
-692,656	-200,000	0,007	0,048
-691,641	-99,115	-0,118	-0,022
-690,627	472,428	-0,096	-0,161
-689,612	800,000	0,023	-0,058
-688,597	24,122	-0,072	0,044
-687,583	-96,731	-0,061	-0,012
-686,568	267,959	-0,018	0,024
-685,554	-0,015	0,083	-0,044
-684,539	-200,000	-0,017	-0,068
-683,524	83,376	-0,059	0,048
-682,510	-33,636	0,112	-0,046
-681,495	800,000	-0,057	-0,132
-680,481	-200,000	-0,017	-0,106
-679,466	-124,508	0,095	0,011
-678,451	-12,141	-0,122	-0,059
-677,437	304,260	0,053	-0,073
-676,422	418,803	-0,047	-0,074
-675,408	17,528	0,017	0,010
-674,393	-79,889	0,019	0,005
-673,378	-41,444	-0,069	0,026
-672,364	800,000	-0,050	-0,158
-671,349	627,498	0,049	-0,092
-670,335	282,380	0,084	-0,112
-669,320	-32,166	-0,092	-0,038
-668,305	-6,775	0,033	-0,017
-667,291	-3,317	-0,127	-0,066
-666,276	-200,000	-0,004	-0,212
-665,262	-200,000	-0,012	-0,102
-664,247	-200,000	-0,019	-0,095
-663,232	-87,286	0,160	-0,036
-662,218	111,430	0,013	-0,011
-661,203	-13,128	0,041	-0,020
-660,189	-200,000	0,004	-0,026
-659,174	236,766	-0,056	-0,069
-658,159	-110,956	-0,153	-0,023
-657,145	-50,782	-0,042	0,015
-656,130	183,039	-0,063	0,069
-655,116	-116,737	0,201	0,027
-654,101	-137,967	-0,037	-0,003
-653,086	195,139	0,074	0,083
-652,072	-170,490	-0,108	-0,003
-651,057	-136,554	-0,150	0,013
-650,043	136,320	-0,040	-0,039
-649,028	-17,646	-0,168	0,078
-648,014	348,531	0,058	-0,085
-646,999	-200,000	0,001	-0,013
-645,984	800,000	-0,041	0,085
-644,970	49,773	-0,173	0,120
-643,955	215,941	-0,079	-0,093
-642,941	14,047	-0,039	-0,023
-641,926	124,658	-0,086	-0,080
-640,911	-46,841	0,104	-0,038
-639,897	110,584	0,071	-0,063
-638,882	-8,880	-0,183	0,090
-637,868	-169,334	-0,066	-0,002
-636,853	-65,123	-0,164	-0,049
-635,838	93,472	-0,060	-0,051
-634,824	800,000	0,068	-0,176
-633,809	-173,552	-0,056	-0,001
-632,795	484,979	0,021	-0,036
-631,780	-109,781	-0,149	-0,023
-630,765	800,000	-0,033	-0,080
-629,751	-40,850	-0,082	-0,031
-628,736	149,748	-0,108	-0,109
-627,722	-33,480	-0,034	0,014
-626,707	-88,369	0,065	0,014
-625,692	81,228	0,175	0,140
-624,678	260,891	-0,046	-0,059
-623,663	47,936	0,072	0,050
-622,649	-200,000	-0,059	-0,233
-621,634	101,824	0,119	-0,103
-620,619	-200,000	-0,002	-0,038
-619,605	-31,104	-0,087	-0,036
-618,590	800,000	0,027	0,072
-617,576	-200,000	-0,027	0,199
-616,561	-7,104	0,062	-0,031
-615,546	-57,040	-0,054	0,018
-614,532	450,229	-0,097	0,159
-613,517	-147,729	-0,136	0,008
-612,503	4,075	0,059	-0,032
-611,488	-200,000	0,001	0,036
-610,474	-1,002	0,063	-0,033
-609,459	-200,000	-0,011	0,067
-608,444	800,000	-0,037	-0,091
-607,430	800,000	0,034	0,081
-606,415	180,983	-0,074	-0,081
-605,401	-68,621	0,086	-0,024
-604,386	-200,000	-0,002	-0,053
-603,371	-38,494	0,063	0,024
-602,357	-23,066	-0,166	-0,074
-601,342	-200,000	0,001	0,039
-600,328	-200,000	-0,076	-0,000
-599,313	277,821	-0,047	-0,063
-598,298	273,404	0,095	-0,125
-597,284	-200,000	0,008	-0,037
-596,269	800,000	0,027	-0,058
-595,255	-200,000	-0,005	-0,117
-594,240	279,007	-0,091	0,120
-593,225	338,782	-0,067	-0,097
-592,211	151,811	-0,069	-0,070
-591,196	245,216	0,068	-0,085
-590,182	71,651	0,078	0,060
-589,167	179,856	-0,011	-0,012
-588,152	-144,334	-0,081	-0,006
-587,138	-200,000	0,034	-0,132
-586,123	800,000	-0,065	-0,184
-585,109	588,263	-0,055	-0,101
-584,094	800,000	-0,052	0,137
-583,079	-124,288	0,065	-0,007
-582,065	800,000	-0,032	0,086
-581,050	53,959	0,094	-0,066
-580,036	-14,554	-0,066	0,031
-579,021	118,057	-0,070	-0,064
-578,006	-56,573	-0,115	-0,037
-576,992	146,815	0,028	-0,028
-575,977	-200,000	0,012	-0,046
-574,963	294,287	0,069	0,093
-573,948	179,040	-0,072	0,078
-572,934	56,810	-0,073	-0,053
-571,919	800,000	-0,019	0,042
-570,904	472,918	-0,099	0,166
-569,890	-200,000	-0,004	0,035
-568,875	-200,000	-0,010	0,087
-567,861	-21,799	0,119	-0,053
-566,846	-23,362	-0,144	0,064
-565,831	800,000	-0,036	-0,077
-564,817	-200,000	0,007	-0,212
-563,802	-200,000	0,000	-0,146
-562,788	800,000	0,018	-0,045
-561,773	-106,941	0,035	-0,006
-560,758	-193,862	0,112	-0,001
-559,744	166,019	0,071	-0,075
-558,729	-200,000	0,003	0,037
-557,715	-32,114	-0,061	0,025
-556,700	165,329	-0,112	-0,118
-555,685	279,670	0,026	-0,035
-554,671	-150,484	0,094	0,005
-553,656	402,025	0,080	0,125
-552,642	198,921	0,116	0,132
-551,627	-200,000	0,002	-0,036
-550,612	103,448	-0,098	-0,085
-549,598	800,000	0,080	-0,203
-548,583	183,919	0,046	0,050
-547,569	366,541	-0,060	-0,090
-546,554	17,272	0,146	-0,085
-545,539	-200,000	0,041	0,137
-544,525	-24,893	0,108	0,047
-543,510	83,792	0,066	0,053
-542,496	800,000	-0,011	0,023
-541,481	800,000	0,028	0,073
-540,466	71,502	-0,044	0,033
-539,452	33,675	0,133	0,085
-538,437	230,670	0,079	-0,096
-537,423	-28,830	-0,028	0,012
-536,408	164,246	-0,053	0,056
-535,393	800,000	0,008	-0,022
-534,379	-200,000	0,005	-0,089
-533,364	48,013	0,044	-0,030
-532,350	-200,000	0,004	-0,089
-531,335	1,132	0,089	0,047
-530,321	279,866	0,062	0,082
-529,306	-122,342	-0,092	0,011
-528,291	-200,000	-0,022	-0,078
-527,277	-200,000	-0,012	-0,061
-526,262	120,490	0,045	0,042
-525,248	-200,000	-0,008	-0,119
-524,233	-200,000	0,021	-0,115
-523,218	-200,000	-0,010	0,147
-522,204	-49,653	0,100	0,035
-521,189	-3,493	-0,157	-0,080
-520,175	295,995	-0,021	0,029
-519,160	-200,000	-0,002	-0,095
-518,145	50,327	0,023	-0,016
-517,131	382,536	0,023	0,035
-516,116	800,000	0,024	0,067
-515,102	141,293	0,116	-0,113
-514,087	114,428	-0,038	-0,034
-513,072	800,000	0,028	-0,067
-512,058	800,000	0,031	-0,070
-511,043	-134,012	0,122	-0,011
-510,029	800,000	-0,045	0,124
-509,014	800,000	0,021	-0,049
-507,999	800,000	-0,011	-0,030
-506,985	89,133	-0,092	-0,075
-505,970	-200,000	-0,007	-0,145
-504,956	207,833	-0,075	0,087
-503,941	-200,000	0,018	0,086
-502,926	-200,000	-0,012	-0,060
-501,912	113,802	0,018	0,016
-500,897	800,000	-0,011	0,037
-499,883	800,000	0,059	-0,169
-498,868	15,318	-0,058	0,033
-497,853	-156,969	-0,137	-0,006
-496,839	-99,879	-0,132	-0,024
-495,824	691,755	-0,018	0,035
-494,810	195,218	-0,060	-0,067
-493,795	55,596	-0,028	0,020
-492,781	4,901	0,152	-0,082
-491,766	5,953	-0,080	0,043
-490,751	8,445	-0,051	0,028
-489,737	-200,000	0,021	0,122
-488,722	-146,919	0,073	-0,005
-487,708	339,485	0,034	-0,049
-486,693	294,508	-0,084	-0,114
-485,678	-166,790	0,075	0,002
-484,664	-98,174	-0,070	-0,013
-483,649	117,719	-0,088	-0,080
-482,635	-12,598	-0,033	0,016
-481,620	-111,908	0,121	0,018
-480,605	800,000	-0,049	0,150
-479,591	-200,000	-0,004	0,040
-478,576	-140,605	0,053	0,004
-477,562	25,870	-0,098	-0,060
-476,547	113,146	0,070	0,062
-475,532	297,679	-0,054	-0,073
-474,518	378,387	0,108	0,164
-473,503	-200,000	-0,034	-0,143
-472,489	136,838	0,072	0,069
-471,474	-87,221	-0,049	-0,011
-470,459	194,217	-0,058	-0,065
-469,445	54,368	-0,026	0,019
-468,430	347,689	0,059	0,085
-467,416	-36,512	-0,095	0,038
-466,401	20,853	0,112	-0,067
-465,386	800,000	0,019	0,059
-464,372	81,291	0,107	-0,085
-463,357	800,000	0,008	0,019
-462,343	800,000	0,014	-0,035
-461,328	-200,000	0,010	-0,116
-460,313	224,777	-0,086	-0,103
-459,299	-144,072	0,174	0,012
-458,284	6,702	0,084	-0,046
-457,270	376,513	-0,056	0,085
-456,255	800,000	0,018	0,052
-455,241	-200,000	0,024	0,085
-454,226	800,000	-0,040	0,083
-453,211	14,874	0,179	0,103
-452,197	-51,795	-0,157	0,053
-451,182	12,720	-0,066	0,038
-450,168	31,610	0,025	-0,016
-449,153	800,000	0,030	-0,092
-448,138	-61,006	0,103	-0,032
-447,124	-138,815	-0,074	-0,006
-446,109	-200,000	-0,005	0,039
-445,095	-200,000	0,001	-0,023
-444,080	-200,000	0,019	0,068
-443,065	-200,000	0,007	0,065
-442,051	-167,884	-0,111	0,003
-441,036	62,428	-0,048	-0,035
-440,022	368,769	-0,091	-0,136
-439,007	800,000	-0,025	0,052
-437,992	800,000	0,023	0,049
-436,978	44,915	-0,058	-0,039
-435,963	26,302	-0,067	-0,041
-434,949	-200,000	0,012	-0,049
-433,934	-50,603	0,048	0,017
-432,919	-42,618	-0,074	0,027
-431,905	-200,000	-0,009	-0,099
-430,890	-200,000	-0,012	0,054
-429,876	51,573	0,038	0,027
-428,861	800,000	-0,066	0,136
-427,846	-85,262	0,027	0,006
-426,832	-132,704	-0,104	-0,010
-425,817	443,619	0,053	-0,085
-424,803	131,023	-0,092	0,086
-423,788	-120,976	0,061	-0,007
-422,773	39,119	-0,015	0,010
-421,759	10,337	0,054	0,030
-420,744	202,986	-0,091	-0,104
-419,730	-91,532	0,058	-0,012
-418,715	46,004	-0,091	0,062
-417,701	-71,888	-0,052	0,014
-416,686	-200,000	0,022	-0,086
-415,671	440,855	0,045	-0,072
-414,657	-110,524	-0,127	-0,019
-413,642	-43,139	0,002	0,001
-412,628	800,000	-0,045	-0,093
-411,613	527,065	-0,052	0,090
-410,598	-65,717	0,022	-0,006
-409,584	7,090	0,084	0,046
-408,569	-17,285	0,051	0,024
-407,555	-200,000	0,012	0,106
-406,540	-200,000	-0,020	0,168
-405,525	-137,705	-0,074	-0,006
-404,511	-141,106	-0,149	0,011
-403,496	-58,990	0,097	0,031
-402,482	622,900	0,008	-0,014
-401,467	520,546	0,034	0,059
-400,452	-149,592	0,035	0,002
-399,438	-15,975	0,033	0,015
-398,423	-200,000	-0,019	0,128
-397,409	-200,000	-0,014	0,081
-396,394	369,484	-0,063	-0,094
-395,379	52,633	0,037	0,026
-394,365	-103,729	0,213	-0,036
-393,350	58,343	0,113	0,082
-392,336	103,553	0,108	0,093
-391,321	-46,818	-0,073	0,026
-390,306	-66,434	-0,031	-0,009
-389,292	-200,000	0,001	-0,238
-388,277	528,519	-0,013	0,023
-387,263	-111,198	0,099	-0,015
-386,248	-99,231	0,091	-0,017
-385,233	-200,000	-0,029	-0,122
-384,219	4,596	-0,125	-0,067
-383,204	-109,947	-0,105	0,016
-382,190	-200,000	0,011	0,134
-381,175	-200,000	-0,002	0,019
-380,160	21,381	0,080	-0,048
-379,146	-40,590	0,112	-0,042
-378,131	-200,000	-0,031	0,207
-377,117	181,371	-0,052	0,057
-376,102	-200,000	-0,025	-0,120
-375,088	10,055	0,034	-0,019
-374,073	-27,136	0,077	0,033
-373,058	-15,566	0,133	0,062
-372,044	-200,000	0,013	0,079
-371,029	-21,836	0,116	0,052
-370,015	-200,000	-0,020	0,114
-369,000	-116,857	-0,050	0,007
-367,985	167,810	-0,029	-0,030
-366,971	-200,000	-0,003	0,056
-365,956	327,342	-0,064	0,090
-364,942	120,808	-0,086	-0,078
-363,927	46,413	0,042	-0,029
-362,912	279,629	-0,076	0,099
-361,898	-200,000	0,019	0,169
-360,883	800,000	-0,025	0,078
-359,869	-52,144	0,055	0,019
-358,854	104,217	0,148	0,128
-357,839	57,438	0,063	-0,045
-356,825	-96,773	0,139	0,026
-355,810	184,513	0,074	0,081
-354,796	-200,000	0,049	0,247
-353,781	140,025	-0,069	-0,067
-352,766	-200,000	-0,002	-0,051
-351,752	324,891	-0,046	-0,064
-350,737	81,995	-0,067	0,054
-349,723	-11,002	0,033	-0,016
-348,708	-200,000	0,011	0,059
-347,693	-200,000	0,014	-0,116
-346,679	-91,119	-0,084	-0,017
-345,664	800,000	-0,041	0,103
-344,650	18,184	-0,089	-0,052
-343,635	2,674	0,033	0,017
-342,620	800,000	0,024	0,075
-341,606	58,179	0,071	0,051
-340,591	800,000	0,039	-0,084
-339,577	-200,000	0,016	-0,117
-338,562	-8,182	-0,123	0,060
-337,548	-143,495	0,080	-0,006
-336,533	-164,493	0,119	-0,004
-335,518	-200,000	0,009	0,122
-334,504	736,229	-0,039	0,077
-333,489	412,548	-0,056	0,088
-332,475	342,733	-0,063	0,090
-331,460	312,375	-0,063	0,086
-330,445	-98,531	0,031	0,006
-329,431	426,958	0,116	0,184
-328,416	303,105	0,047	0,063
-327,402	-200,000	0,049	-0,163
-326,387	-90,187	-0,037	0,008
-325,372	-200,000	-0,003	-0,028
-324,358	-200,000	-0,030	-0,268
-323,343	-9,963	-0,072	0,035
-322,329	800,000	0,040	0,123
-321,314	800,000	0,047	0,131
-320,299	-200,000	0,007	0,113
-319,285	182,254	0,026	-0,029
-318,270	605,036	-0,050	0,091
-317,256	-200,000	0,038	-0,129
-316,241	170,128	0,043	-0,045
-315,226	800,000	-0,014	-0,034
-314,212	-46,669	0,165	-0,059
-313,197	-149,391	0,100	0,006
-312,183	114,542	-0,061	0,054
-311,168	-92,244	0,005	0,001
-310,153	793,286	0,042	0,085
-309,139	415,576	0,034	0,054
-308,124	-200,000	0,000	-0,023
-307,110	-147,176	0,086	0,005
-306,095	23,855	0,041	0,025
-305,080	488,744	0,045	0,076
-304,066	51,449	-0,011	0,007
-303,051	-158,970	-0,145	0,006
-302,037	37,246	-0,122	-0,079
-301,022	-55,208	0,106	-0,035
-300,008	-200,000	0,018	-0,086
-298,993	6,533	0,105	0,057
-297,978	-200,000	-0,026	0,121
-296,964	542,235	-0,016	0,029
-295,949	53,371	-0,055	-0,038
-294,935	800,000	0,049	0,117
-293,920	-59,324	0,124	-0,039
-292,905	-200,000	0,002	-0,065
-291,891	30,051	0,095	0,059
-290,876	-70,108	0,160	0,044
-289,862	111,203	-0,036	0,032
-288,847	744,863	0,059	0,117
-287,832	175,356	0,062	-0,066
-286,818	800,000	0,050	-0,107
-285,803	-83,698	0,134	0,031
-284,789	48,763	0,036	0,025
-283,774	-200,000	0,012	0,045
-282,759	5,895	-0,075	0,041
-281,745	-200,000	0,063	-0,242
-280,730	-200,000	-0,008	-0,083
-279,716	800,000	-0,016	-0,040
-278,701	122,820	0,111	0,102
-277,686	-200,000	0,030	0,209
-276,672	-88,600	-0,093	0,020
-275,657	-200,000	-0,014	0,062
-274,643	-90,575	0,127	0,027
-273,628	800,000	-0,054	-0,112
-272,613	153,498	-0,150	-0,151
-271,599	301,648	-0,039	0,052
-270,584	-137,749	0,089	-0,007
-269,570	-63,858	-0,083	0,025
-268,555	182,886	-0,052	0,056
-267,540	24,437	0,073	0,044
-266,526	-200,000	0,006	-0,112
-265,511	-27,131	0,085	-0,036
-264,497	-42,599	0,155	-0,057
-263,482	-52,406	0,012	-0,004
-262,467	689,408	0,003	-0,005
-261,453	-200,000	0,011	0,063
-260,438	124,353	-0,075	0,069
-259,424	800,000	-0,027	-0,061
-258,409	-200,000	-0,024	-0,086
-257,395	-200,000	-0,000	-0,046
-256,380	-0,437	-0,039	0,020
-255,365	38,487	0,032	-0,021
-254,351	123,339	-0,087	-0,080
-253,336	800,000	-0,021	-0,048
-252,322	-174,591	-0,068	0,001
-251,307	-200,000	-0,008	-0,044
-250,292	800,000	-0,051	0,150
-249,278	-77,090	-0,069	-0,017
-248,263	-154,131	0,147	-0,007
-247,249	-127,989	-0,021	-0,002
-246,234	-200,000	0,032	-0,114
-245,219	265,515	0,009	-0,012
-244,205	-155,699	-0,089	0,004
-243,190	205,173	0,038	0,044
-242,176	-100,589	0,131	0,023
-241,161	93,092	-0,072	0,059
-240,146	-200,000	-0,020	0,113
-239,132	795,536	-0,066	0,132
-238,117	-200,000	0,006	-0,077
-237,103	-152,788	-0,102	-0,005
-236,088	-66,919	-0,026	-0,007
-235,073	-200,000	0,022	-0,144
-234,059	198,697	0,092	0,103
-233,044	-200,000	0,017	0,130
-232,030	-74,962	-0,079	0,020
-231,015	-99,931	-0,138	0,025
-230,000	-200,000	-0,012	0,121
-228,986	-19,033	-0,023	0,011
-227,971	-18,401	0,038	-0,017
-226,957	-200,000	-0,007	-0,076
-225,942	739,066	-0,024	-0,048
-224,927	334,995	0,046	0,065
-223,913	643,644	-0,064	-0,120
-222,898	39,847	-0,036	-0,023
-221,884	-200,000	0,036	0,191
-220,869	-200,000	-0,061	0,218
-219,855	800,000	-0,048	-0,113
-218,840	37,218	-0,093	0,060
-217,825	410,408	0,053	-0,083
-216,811	-7,722	-0,113	0,055
-215,796	-132,757	-0,051	-0,005
-214,782	91,003	0,025	-0,020
-213,767	-200,000	0,046	0,148
-212,752	-44,967	-0,030	0,011
-211,738	-11,176	-0,132	-0,063
-210,723	-64,136	0,081	-0,024
-209,709	-68,351	-0,079	-0,022
-208,694	-200,000	0,029	-0,143
-207,679	-43,742	-0,044	-0,016
-206,665	198,785	-0,096	-0,107
-205,650	800,000	-0,036	0,115
-204,636	-200,000	-0,015	0,059
-203,621	67,472	-0,032	0,024
-202,606	106,660	0,017	-0,014
-201,592	-200,000	-0,007	-0,069
-200,577	-200,000	-0,012	-0,196
-199,563	74,730	0,049	-0,037
-198,548	164,746	0,094	0,096
-197,533	-200,000	-0,039	-0,167
-196,519	-200,000	0,004	-0,056
-195,504	197,022	0,090	-0,100
-194,490	156,174	0,020	0,020
-193,475	63,933	-0,136	-0,099
-192,460	401,269	0,066	0,102
-191,446	105,736	-0,034	0,029
-190,431	-141,872	0,060	-0,004
-189,417	-34,625	-0,080	-0,032
-188,402	603,089	0,026	0,048
-187,387	-200,000	-0,013	-0,081
-186,373	-200,000	-0,011	0,049
-185,358	-166,551	0,112	0,003
-184,344	-50,606	0,064	0,022
-183,329	-200,000	0,028	0,112
-182,315	-97,381	0,131	0,025
-181,300	-89,868	-0,079	0,017
-180,285	119,139	-0,040	0,036
-179,271	-200,000	0,001	-0,054
-178,256	-48,988	0,065	0,022
-177,242	117,124	0,074	-0,066
-176,227	-200,000	0,063	0,000
-175,212	13,133	-0,050	0,028
-174,198	-105,885	0,073	0,012
-173,183	525,770	0,002	-0,004
-172,169	-126,433	-0,103	-0,011
-171,154	-138,976	-0,076	0,006
-170,139	-134,683	-0,109	-0,009
-169,125	6,592	0,042	0,023
-168,110	-128,603	0,116	-0,012
-167,096	67,957	0,085	-0,063
-166,081	-41,285	-0,102	0,038
-165,066	-82,905	-0,062	0,015
-164,052	-200,000	-0,014	-0,054
-163,037	-63,399	0,079	0,024
-162,023	319,663	0,114	0,158
-161,008	800,000	0,010	0,028
-159,993	-35,571	-0,042	0,017
-158,979	371,237	0,029	-0,042
-157,964	-26,962	-0,084	-0,036
-156,950	-12,383	0,055	-0,026
-155,935	71,419	0,180	-0,136
-154,920	-200,000	-0,002	0,022
-153,906	173,773	-0,036	-0,038
-152,891	-68,394	-0,062	-0,017
-151,877	268,410	0,042	0,054
-150,862	-31,249	-0,180	0,074
-149,847	-200,000	-0,021	-0,077
-148,833	576,837	0,028	0,051
-147,818	163,280	0,075	0,077
-146,804	366,757	0,077	0,113
-145,789	-200,000	-0,008	0,087
-144,775	800,000	-0,026	-0,084
-143,760	-45,233	-0,107	-0,038
-142,745	-39,287	0,060	-0,023
-141,731	-200,000	0,001	-0,058
-140,716	-200,000	-0,100	0,000
-139,702	-200,000	0,001	0,141
-138,687	800,000	0,033	0,087
-137,672	-91,686	-0,025	-0,005
-136,658	-200,000	0,004	-0,144
-135,643	-200,000	-0,004	-0,065
-134,629	800,000	0,005	0,012
-133,614	-116,477	0,137	0,018
-132,599	94,266	0,083	-0,068
-131,585	-148,208	0,073	0,004
-130,570	26,083	-0,175	-0,106
-129,556	-126,327	-0,145	0,016
-128,541	484,530	0,008	-0,014
-127,526	800,000	-0,025	0,064
-126,512	-200,000	-0,019	0,099
-125,497	800,000	0,042	0,120
-124,483	-107,219	0,100	0,016
-123,468	-200,000	0,017	0,077
-122,453	562,577	0,029	-0,052
-121,439	800,000	0,006	0,014
-120,424	-17,938	-0,227	-0,103
