DTS Sentinel unit serial number:	SN410029Multiplexer serial number:	ORYXHardware model number:	OX2-SRSoftware version number:	ORYX F/W v4,00 Oryx Data Collector v3.7.2.0data status	okinstallation	B4 Nyhavnadifferential loss correction	single-endedforward channel	channel 2reverse channel	N/Adate	2023/12/18time	18:00:13forward acquisition time	300,00reverse acquisition time	0,00gamma	499,1914k internal	0,3124k external	0,3124temperature offset calibration	1,0000default loss term (dB/km)	0,3820temperature slope calibration	1,0000multiplexer offset coefficient	1,0000multiplexer slope coefficient	1,0000fibre end	0,00T internal ref (°C)	21,87T ext. ref 1 (°C)	7,23T ext. ref 2 (°C)	7,26length (m)	temperature (°C)	Stokes	anti-Stokes-744,400	346,288	0,025	-0,037
-743,385	83,843	-0,120	0,098
-742,371	-86,714	0,068	-0,015
-741,356	117,513	-0,142	0,131
-740,342	10,299	-0,074	-0,042
-739,327	-32,538	-0,187	0,077
-738,312	75,778	0,094	-0,074
-737,298	-53,987	-0,293	0,099
-736,283	-66,632	-0,161	-0,047
-735,269	-47,639	-0,217	0,078
-734,254	93,309	0,057	-0,048
-733,239	-169,196	-0,483	-0,013
-732,225	394,123	0,057	-0,089
-731,210	101,276	-0,060	0,052
-730,196	294,204	-0,038	0,052
-729,181	105,686	-0,017	-0,015
-728,167	-200,000	-0,016	0,059
-727,152	-200,000	0,010	-0,044
-726,137	800,000	-0,043	-0,095
-725,123	162,474	-0,052	-0,054
-724,108	48,319	-0,106	-0,074
-723,094	-114,992	-0,035	0,005
-722,079	262,182	0,104	-0,134
-721,064	7,150	-0,109	-0,060
-720,050	101,569	-0,069	0,060
-719,035	198,120	0,102	-0,116
-718,021	-200,000	0,014	-0,074
-717,006	-111,957	-0,124	0,018
-715,991	-34,265	-0,125	-0,051
-714,977	-200,000	-0,008	0,056
-713,962	81,757	-0,051	-0,041
-712,948	66,194	0,086	-0,065
-711,933	800,000	-0,041	0,095
-710,918	-76,016	-0,114	-0,030
-709,904	216,612	0,037	0,044
-708,889	-44,057	-0,051	-0,019
-707,875	-200,000	-0,021	0,097
-706,860	425,779	-0,050	0,080
-705,845	-198,564	0,064	-0,000
-704,831	-18,063	-0,081	0,037
-703,816	262,278	-0,036	0,047
-702,802	148,292	0,063	-0,063
-701,787	-200,000	-0,008	-0,039
-700,772	-16,909	-0,113	-0,053
-699,758	-38,985	-0,147	0,057
-698,743	800,000	-0,006	0,015
-697,729	800,000	0,038	0,109
-696,714	-200,000	-0,015	0,088
-695,699	49,463	0,039	0,027
-694,685	-77,509	-0,103	0,026
-693,670	7,396	-0,139	0,077
-692,656	-200,000	-0,013	0,167
-691,641	21,964	0,101	0,061
-690,627	129,050	-0,052	-0,049
-689,612	-200,000	0,018	-0,062
-688,597	350,700	-0,057	-0,085
-687,583	-3,410	-0,164	-0,084
-686,568	677,531	-0,086	-0,167
-685,554	178,190	-0,112	-0,122
-684,539	800,000	0,011	0,027
-683,524	-29,159	-0,044	0,019
-682,510	-11,996	-0,138	-0,067
-681,495	800,000	-0,045	-0,143
-680,481	55,824	-0,137	-0,099
-679,466	-168,570	-0,084	0,002
-678,451	800,000	-0,023	-0,059
-677,437	577,538	0,039	0,072
-676,422	25,181	0,038	0,023
-675,408	-200,000	0,005	0,036
-674,393	200,864	0,033	-0,038
-673,378	-200,000	0,011	0,075
-672,364	374,560	-0,058	-0,088
-671,349	800,000	0,007	0,015
-670,335	64,540	0,112	-0,083
-669,320	-200,000	0,010	0,055
-668,305	-200,000	-0,013	-0,072
-667,291	47,042	-0,098	0,067
-666,276	-128,935	-0,184	0,019
-665,262	-21,715	0,002	0,001
-664,247	-200,000	0,026	-0,087
-663,232	-129,196	-0,118	0,012
-662,218	303,239	0,027	-0,037
-661,203	800,000	0,009	0,020
-660,189	-200,000	-0,025	-0,085
-659,174	58,072	-0,123	-0,089
-658,159	-200,000	0,027	0,117
-657,145	-24,761	-0,097	-0,043
-656,130	353,369	0,040	0,060
-655,116	-83,762	0,073	-0,017
-654,101	108,094	0,067	0,059
-653,086	-114,060	-0,186	0,027
-652,072	800,000	0,019	0,052
-651,057	-200,000	0,067	-0,237
-650,043	-30,285	-0,120	-0,050
-649,028	-200,000	0,014	-0,056
-648,014	-200,000	-0,016	-0,082
-646,999	-124,019	0,039	-0,004
-645,984	-200,000	-0,015	0,105
-644,970	132,578	-0,039	-0,037
-643,955	-129,844	-0,149	-0,015
-642,941	800,000	-0,034	-0,083
-641,926	-200,000	-0,020	0,098
-640,911	800,000	0,011	-0,031
-639,897	525,381	-0,017	0,031
-638,882	-117,561	-0,115	-0,015
-637,868	-41,410	-0,041	0,016
-636,853	154,587	-0,069	-0,070
-635,838	99,982	-0,119	0,102
-634,824	364,985	-0,082	-0,124
-633,809	-38,821	0,026	-0,010
-632,795	-200,000	0,015	0,084
-631,780	287,133	0,046	-0,062
-630,765	800,000	-0,024	-0,075
-629,751	-68,990	-0,135	0,038
-628,736	-121,692	-0,106	0,013
-627,722	352,697	0,129	0,190
-626,707	99,346	0,157	0,135
-625,692	-200,000	-0,009	-0,135
-624,678	168,761	-0,094	0,100
-623,663	-118,909	0,018	0,002
-622,649	-175,432	-0,063	0,001
-621,634	272,993	-0,029	0,038
-620,619	800,000	-0,021	-0,043
-619,605	172,233	-0,048	0,052
-618,590	800,000	-0,017	0,054
-617,576	-200,000	-0,020	0,079
-616,561	166,836	0,078	0,083
-615,546	630,391	-0,068	-0,129
-614,532	800,000	0,035	-0,115
-613,517	800,000	-0,039	-0,125
-612,503	184,388	0,122	-0,134
-611,488	38,581	-0,104	0,069
-610,474	-153,042	0,081	0,004
-609,459	-39,091	0,115	0,045
-608,444	-200,000	-0,038	0,149
-607,430	26,547	0,016	-0,010
-606,415	116,579	-0,110	-0,100
-605,401	-79,317	0,092	0,023
-604,386	328,890	0,083	-0,118
-603,371	-200,000	0,013	0,139
-602,357	800,000	-0,010	0,026
-601,342	246,004	-0,086	-0,107
-600,328	-112,419	-0,076	-0,011
-599,313	619,919	-0,050	-0,094
-598,298	-10,655	-0,131	-0,064
-597,284	8,236	0,159	0,088
-596,269	287,825	0,115	0,155
-595,255	-111,303	-0,028	0,004
-594,240	800,000	0,052	-0,124
-593,225	-4,136	-0,139	0,071
-592,211	-146,427	-0,111	-0,007
-591,196	154,220	-0,077	0,078
-590,182	46,448	-0,064	0,044
-589,167	32,947	0,071	0,045
-588,152	-48,672	-0,069	-0,025
-587,138	800,000	0,017	0,047
-586,123	-94,419	-0,098	0,020
-585,109	-164,875	-0,090	0,003
-584,094	-123,523	0,191	-0,022
-583,079	800,000	0,012	0,028
-582,065	40,066	0,218	0,145
-581,050	-54,567	-0,074	0,025
-580,036	-7,423	-0,072	0,036
-579,021	402,672	-0,086	-0,134
-578,006	272,763	0,061	0,080
-576,992	-127,229	0,076	-0,008
-575,977	-110,183	-0,140	0,021
-574,963	247,574	-0,040	-0,050
-573,948	-200,000	-0,002	-0,101
-572,934	5,347	-0,149	0,081
-571,919	183,268	-0,063	-0,069
-570,904	-200,000	-0,003	-0,012
-569,890	-200,000	-0,005	-0,081
-568,875	741,332	0,053	-0,107
-567,861	-200,000	-0,017	0,063
-566,846	35,934	-0,142	0,092
-565,831	306,601	-0,051	-0,070
-564,817	595,685	0,016	-0,030
-563,802	-200,000	-0,015	-0,074
-562,788	-3,738	0,016	-0,008
-561,773	-200,000	-0,021	0,151
-560,758	277,631	0,046	-0,061
-559,744	462,747	0,078	0,130
-558,729	157,772	0,012	-0,012
-557,715	-166,291	0,009	0,000
-556,700	-114,622	-0,094	-0,013
-555,685	-200,000	0,018	-0,077
-554,671	113,929	0,077	-0,070
-553,656	800,000	0,020	0,048
-552,642	-194,061	-0,087	-0,001
-551,627	-64,253	-0,080	-0,024
-550,612	25,216	0,024	0,015
-549,598	-100,668	-0,153	0,028
-548,583	-41,257	0,100	0,038
-547,569	-0,448	0,153	-0,080
-546,554	-200,000	-0,002	-0,015
-545,539	-44,476	0,121	0,045
-544,525	-95,221	-0,069	-0,014
-543,510	285,312	-0,030	0,040
-542,496	141,023	0,016	-0,015
-541,481	100,247	-0,092	-0,079
-540,466	-200,000	-0,025	-0,105
-539,452	-68,546	0,100	-0,029
-538,437	-200,000	-0,021	-0,092
-537,423	-200,000	0,014	0,087
-536,408	122,236	0,023	-0,021
-535,393	-160,813	0,125	-0,005
-534,379	-38,760	0,016	-0,006
-533,364	-200,000	-0,039	0,173
-532,350	800,000	0,044	0,102
-531,335	135,466	0,056	0,053
-530,321	800,000	-0,046	-0,099
-529,306	-101,562	0,052	-0,009
-528,291	-183,628	-0,063	0,001
-527,277	-200,000	0,003	-0,093
-526,262	81,642	-0,117	0,094
-525,248	189,369	0,113	0,125
-524,233	-78,364	0,039	-0,010
-523,218	-46,948	0,159	0,057
-522,204	-64,925	-0,068	0,020
-521,189	-200,000	-0,005	-0,050
-520,175	-200,000	0,043	-0,224
-519,160	33,036	0,035	0,022
-518,145	16,558	-0,065	-0,038
-517,131	-153,445	0,074	-0,004
-516,116	-131,574	-0,044	-0,004
-515,102	-41,356	-0,125	-0,047
-514,087	-67,704	-0,123	-0,035
-513,072	72,386	-0,107	0,082
-512,058	-200,000	0,007	-0,052
-511,043	50,898	0,067	-0,047
-510,029	-200,000	-0,018	-0,096
-509,014	44,376	0,042	-0,028
-507,999	511,878	0,058	-0,100
-506,985	50,145	-0,017	0,012
-505,970	800,000	0,012	0,030
-504,956	700,376	-0,045	-0,088
-503,941	181,745	0,053	0,058
-502,926	-200,000	0,029	-0,098
-501,912	79,536	-0,112	-0,089
-500,897	-200,000	-0,013	-0,046
-499,883	674,473	0,060	-0,116
-498,868	-16,177	-0,120	-0,056
-497,853	-86,776	-0,068	-0,015
-496,839	239,935	-0,061	0,075
-495,824	-172,086	0,147	-0,003
-494,810	3,935	0,038	0,021
-493,795	20,737	-0,090	-0,053
-492,781	-76,579	-0,174	0,045
-491,766	-200,000	0,008	-0,086
-490,751	800,000	-0,054	-0,165
-489,737	-200,000	-0,019	0,115
-488,722	-7,520	0,135	-0,067
-487,708	9,796	0,157	0,087
-486,693	54,733	-0,024	-0,017
-485,678	142,163	0,068	-0,067
-484,664	800,000	0,048	-0,107
-483,649	800,000	-0,012	-0,035
-482,635	496,952	-0,039	-0,066
-481,620	103,156	0,171	0,148
-480,605	800,000	0,019	-0,045
-479,591	18,276	0,117	-0,069
-478,576	-137,257	-0,066	0,005
-477,562	-15,346	-0,037	-0,017
-476,547	-69,987	-0,194	-0,054
-475,532	-200,000	0,002	0,158
-474,518	78,973	0,033	0,026
-473,503	-200,000	0,006	0,083
-472,489	-5,510	0,085	-0,043
-471,474	-200,000	-0,008	0,075
-470,459	-111,885	-0,112	0,016
-469,445	237,521	-0,069	-0,084
-468,430	171,468	-0,062	-0,065
-467,416	31,664	0,111	-0,070
-466,401	123,984	0,064	0,059
-465,386	418,438	0,044	0,070
-464,372	-79,373	-0,067	-0,017
-463,357	800,000	-0,003	0,008
-462,343	-133,765	-0,093	-0,008
-461,328	-22,414	-0,085	0,038
-460,313	-200,000	0,029	0,133
-459,299	-41,202	0,040	-0,015
-458,284	-14,297	0,068	0,032
-457,270	-200,000	-0,018	0,064
-456,255	-200,000	-0,009	0,042
-455,241	62,888	-0,043	0,031
-454,226	234,987	-0,030	-0,036
-453,211	-200,000	0,010	-0,050
-452,197	253,758	0,025	-0,031
-451,182	-114,438	0,091	-0,013
-450,168	555,629	-0,054	0,096
-449,153	-4,516	0,161	0,082
-448,138	46,983	-0,177	-0,121
-447,124	-200,000	-0,040	-0,154
-446,109	466,331	0,055	0,090
-445,095	88,308	0,053	-0,043
-444,080	800,000	0,028	-0,066
-443,065	-200,000	0,012	0,107
-442,051	-200,000	0,010	0,165
-441,036	800,000	-0,052	0,137
-440,022	206,742	0,023	0,026
-439,007	198,627	0,060	-0,068
-437,992	364,474	0,088	-0,131
-436,978	-97,346	0,151	0,029
-435,963	69,592	0,090	0,068
-434,949	305,012	-0,059	0,081
-433,934	-200,000	-0,036	-0,156
-432,919	-121,235	-0,056	0,007
-431,905	-200,000	0,004	0,049
-430,890	158,887	0,045	-0,046
-429,876	800,000	0,052	0,132
-428,861	-126,148	-0,066	0,007
-427,846	-200,000	-0,010	0,035
-426,832	-200,000	-0,001	-0,066
-425,817	-200,000	0,009	-0,063
-424,803	-41,823	0,188	0,070
-423,788	-200,000	-0,013	-0,049
-422,773	-200,000	-0,008	0,081
-421,759	-164,305	0,057	-0,002
-420,744	-5,273	0,116	-0,059
-419,730	4,811	0,041	-0,022
-418,715	-200,000	0,006	-0,028
-417,701	71,752	0,058	-0,044
-416,686	-148,941	0,140	-0,008
-415,671	374,993	-0,013	0,020
-414,657	-85,408	0,040	0,009
-413,642	-66,586	-0,097	0,028
-412,628	-107,507	-0,026	-0,004
-411,613	-200,000	-0,024	-0,083
-410,598	-200,000	-0,038	-0,147
-409,584	46,930	-0,036	0,025
-408,569	-200,000	-0,021	0,112
-407,555	-114,333	-0,150	-0,021
-406,540	-47,992	0,061	0,022
-405,525	186,934	-0,129	-0,141
-404,511	800,000	0,059	-0,136
-403,496	800,000	0,041	0,108
-402,482	-3,976	0,136	0,069
-401,467	-173,743	-0,058	-0,001
-400,452	-95,234	0,091	0,018
-399,438	-200,000	-0,016	0,063
-398,423	-200,000	-0,030	0,187
-397,409	52,353	-0,051	0,035
-396,394	-140,754	-0,039	0,003
-395,379	82,605	-0,060	0,048
-394,365	656,448	0,137	-0,261
-393,350	-200,000	-0,014	0,055
-392,336	333,113	-0,016	-0,023
-391,321	-29,575	-0,030	-0,012
-390,306	-200,000	-0,032	-0,118
-389,292	116,234	-0,043	-0,038
-388,277	800,000	-0,010	-0,023
-387,263	-65,427	0,037	-0,011
-386,248	103,315	0,098	-0,084
-385,233	88,581	0,028	-0,023
-384,219	-200,000	-0,004	0,030
-383,204	179,669	0,116	-0,125
-382,190	-146,227	-0,100	-0,006
-381,175	-10,917	0,115	-0,056
-380,160	800,000	0,035	-0,102
-379,146	-14,510	0,075	-0,035
-378,131	-94,295	0,127	0,025
-377,117	32,609	0,108	-0,068
-376,102	800,000	-0,023	-0,073
-375,088	-200,000	-0,005	-0,075
-374,073	438,477	0,047	-0,075
-373,058	92,106	0,052	0,043
-372,044	800,000	0,006	-0,014
-371,029	-100,430	0,067	0,012
-370,015	169,182	0,087	0,091
-369,000	800,000	0,012	0,039
-367,985	-200,000	-0,001	-0,167
-366,971	-200,000	0,003	0,132
-365,956	361,766	0,066	0,098
-364,942	34,969	-0,087	0,056
-363,927	92,247	0,101	0,084
-362,912	533,600	-0,030	-0,052
-361,898	800,000	0,060	-0,165
-360,883	-200,000	-0,011	0,045
-359,869	-93,759	-0,113	-0,023
-358,854	33,584	-0,111	0,071
-357,839	89,131	0,077	0,063
-356,825	-46,614	0,090	-0,032
-355,810	-200,000	-0,013	-0,079
-354,796	521,482	-0,015	-0,026
-353,781	156,012	-0,053	0,053
-352,766	459,796	-0,106	-0,175
-351,752	303,135	0,042	0,057
-350,737	799,982	0,087	0,177
-349,723	-62,324	0,137	-0,042
-348,708	311,272	-0,032	0,044
-347,693	-200,000	-0,001	-0,064
-346,679	101,533	-0,128	-0,110
-345,664	-200,000	0,011	-0,079
-344,650	430,229	-0,053	0,084
-343,635	-200,000	-0,006	0,117
-342,620	-200,000	-0,003	0,074
-341,606	-115,526	-0,044	0,006
-340,591	15,417	-0,039	0,022
-339,577	-200,000	0,026	-0,183
-338,562	800,000	-0,016	0,039
-337,548	-200,000	-0,012	-0,078
-336,533	-55,521	0,038	-0,012
-335,518	773,074	0,039	0,078
-334,504	219,955	0,047	0,055
-333,489	45,139	0,066	0,045
-332,475	800,000	0,011	-0,028
-331,460	-28,835	-0,068	0,029
-330,445	-85,700	-0,079	-0,018
-329,431	717,435	0,027	-0,053
-328,416	-200,000	0,008	0,132
-327,402	-19,869	-0,153	0,069
-326,387	800,000	0,008	-0,025
-325,372	288,567	-0,090	-0,120
-324,358	54,643	0,072	0,051
-323,343	-69,389	0,040	-0,011
-322,329	-162,702	0,112	-0,004
-321,314	-200,000	0,055	0,199
-320,299	-162,127	0,142	-0,005
-319,285	8,781	-0,118	0,065
-318,270	82,755	0,064	0,051
-317,256	343,387	-0,072	-0,103
-316,241	-200,000	0,002	-0,028
-315,226	800,000	-0,042	-0,124
-314,212	73,130	0,156	0,119
-313,197	800,000	-0,032	0,101
-312,183	-22,279	-0,044	0,019
-311,168	243,817	0,045	-0,056
-310,153	376,722	0,036	0,054
-309,139	-24,645	-0,084	-0,036
-308,124	-94,730	0,138	0,027
-307,110	-8,398	0,097	0,048
-306,095	42,638	-0,028	0,018
-305,080	124,427	0,078	0,072
-304,066	-102,523	-0,103	-0,018
-303,051	-110,669	-0,137	0,021
-302,037	505,153	0,082	0,140
-301,022	577,725	0,036	-0,065
-300,008	-0,675	0,064	0,033
-298,993	-167,786	-0,098	-0,003
-297,978	800,000	0,020	0,053
-296,964	44,553	-0,015	-0,010
-295,949	194,861	0,032	-0,035
-294,935	-200,000	0,005	0,092
-293,920	212,956	-0,040	0,046
-292,905	558,173	0,024	-0,042
-291,891	105,384	0,090	0,078
-290,876	-18,742	0,051	0,023
-289,862	-112,660	-0,115	0,017
-288,847	-200,000	-0,002	0,168
-287,832	18,346	0,102	-0,059
-286,818	-0,997	0,062	0,032
-285,803	131,901	0,028	-0,026
-284,789	-200,000	0,028	0,112
-283,774	162,656	0,074	-0,076
-282,759	-46,986	-0,116	0,041
-281,745	-70,665	-0,121	0,033
-280,730	-200,000	0,016	0,118
-279,716	-13,654	-0,109	-0,052
-278,701	242,480	0,078	-0,096
-277,686	-54,710	0,199	0,065
-276,672	-46,112	-0,075	-0,027
-275,657	105,185	-0,123	0,107
-274,643	800,000	-0,009	-0,025
-273,628	114,044	0,084	-0,075
-272,613	56,385	-0,099	0,070
-271,599	334,234	0,030	-0,042
-270,584	800,000	0,007	-0,019
-269,570	-200,000	0,001	0,123
-268,555	472,884	0,021	-0,035
-267,540	23,659	-0,130	0,078
-266,526	20,313	0,125	0,074
-265,511	800,000	-0,022	0,067
-264,497	-200,000	0,058	0,206
-263,482	-13,985	0,077	0,036
-262,467	-126,654	0,043	-0,005
-261,453	528,061	0,033	0,057
-260,438	-200,000	0,012	0,170
-259,424	265,838	-0,076	-0,097
-258,409	166,768	-0,176	-0,182
-257,395	-200,000	0,015	-0,107
-256,380	800,000	0,044	-0,105
-255,365	382,636	0,051	0,077
-254,351	567,624	-0,039	-0,070
-253,336	-200,000	-0,006	0,022
-252,322	-29,883	-0,197	-0,082
-251,307	208,066	-0,052	0,060
-250,292	-92,612	0,068	0,014
-249,278	73,470	0,124	0,095
-248,263	124,197	0,167	0,153
-247,249	658,966	0,088	0,167
-246,234	-200,000	-0,031	0,146
-245,219	-6,619	0,057	-0,028
-244,205	-24,688	-0,061	-0,026
-243,190	-200,000	-0,008	-0,026
-242,176	-72,046	-0,067	0,018
-241,161	222,134	0,041	0,048
-240,146	800,000	0,058	0,141
-239,132	318,480	-0,042	0,058
-238,117	133,556	-0,101	-0,096
-237,103	459,162	0,113	-0,185
-236,088	-104,031	0,082	0,014
-235,073	178,619	-0,134	-0,143
-234,059	70,546	0,052	0,039
-233,044	583,143	0,046	-0,083
-232,030	-200,000	0,015	0,113
-231,015	-119,212	-0,098	0,012
-230,000	-166,081	-0,244	-0,007
-228,986	303,199	0,031	0,042
-227,971	139,652	0,119	0,115
-226,957	-162,914	0,061	0,002
-225,942	-33,337	-0,060	0,024
-224,927	23,103	-0,136	0,081
-223,913	-200,000	-0,000	0,034
-222,898	-200,000	0,045	-0,174
-221,884	127,289	0,029	0,027
-220,869	366,635	-0,041	0,060
-219,855	-33,548	0,053	0,021
-218,840	-200,000	0,014	-0,146
-217,825	47,231	-0,091	-0,062
-216,811	-200,000	-0,000	-0,067
-215,796	-200,000	0,005	-0,060
-214,782	158,007	-0,032	-0,032
-213,767	236,041	-0,058	-0,070
-212,752	517,784	-0,032	0,054
-211,738	-200,000	-0,000	0,004
-210,723	148,916	-0,036	0,035
-209,709	251,808	-0,012	-0,015
-208,694	251,469	0,042	0,052
-207,679	800,000	-0,023	0,053
-206,665	461,644	-0,047	0,077
-205,650	317,054	0,085	-0,117
-204,636	800,000	0,079	0,165
-203,621	-143,082	0,078	0,005
-202,606	800,000	-0,060	-0,129
-201,592	-60,975	-0,120	-0,037
-200,577	-34,760	0,050	-0,020
-199,563	7,496	-0,147	-0,080
-198,548	-88,065	0,061	0,013
-197,533	655,482	0,080	0,150
-196,519	800,000	-0,021	0,067
-195,504	-160,982	-0,044	0,002
-194,490	-200,000	-0,017	-0,107
-193,475	-200,000	-0,024	0,153
-192,460	800,000	-0,025	-0,064
-191,446	-200,000	0,006	-0,057
-190,431	-180,007	0,060	-0,001
-189,417	-200,000	0,039	0,133
-188,402	-27,765	-0,113	-0,047
-187,387	-200,000	-0,012	-0,096
-186,373	448,616	-0,083	-0,133
-185,358	800,000	0,032	-0,098
-184,344	-200,000	0,006	-0,126
-183,329	800,000	0,055	0,133
-182,315	800,000	-0,057	0,151
-181,300	-79,150	-0,036	-0,009
-180,285	-200,000	0,003	-0,116
-179,271	800,000	-0,023	-0,070
-178,256	101,738	-0,085	-0,072
-177,242	218,426	0,105	-0,123
-176,227	-200,000	0,004	-0,055
-175,212	-43,101	0,113	-0,042
-174,198	800,000	0,043	0,109
-173,183	115,520	-0,088	-0,079
-172,169	-90,956	0,141	0,029
-171,154	34,807	-0,033	0,021
-170,139	800,000	0,055	-0,126
-169,125	339,893	0,029	0,041
-168,110	-200,000	0,003	0,074
-167,096	190,331	-0,093	0,102
-166,081	-200,000	0,018	-0,096
-165,066	4,764	-0,153	-0,082
-164,052	-69,525	-0,066	-0,018
-163,037	-200,000	0,004	-0,016
-162,023	-36,564	-0,111	0,043
-161,008	204,461	0,053	-0,060
-159,993	-101,413	0,171	0,030
-158,979	472,229	0,019	0,031
-157,964	500,287	-0,114	-0,192
-156,950	52,473	-0,096	-0,066
-155,935	338,621	0,091	0,129
-154,920	176,166	0,062	-0,066
-153,906	79,244	-0,071	0,055
-152,891	-200,000	-0,014	0,110
-151,877	-200,000	0,029	0,137
-150,862	800,000	0,030	-0,062
-149,847	28,677	-0,128	0,079
-148,833	-200,000	0,041	0,152
-147,818	-150,618	-0,037	0,002
-146,804	-145,314	-0,043	-0,003
-145,789	-165,478	-0,085	0,003
-144,775	452,411	0,037	-0,060
-143,760	106,695	-0,081	-0,070
-142,745	483,248	-0,045	-0,075
-141,731	-174,550	-0,119	-0,002
-140,716	-70,865	0,041	0,011
-139,702	602,002	-0,015	0,027
-138,687	-200,000	-0,012	-0,098
-137,672	-200,000	0,003	-0,111
-136,658	-200,000	-0,010	-0,158
-135,643	800,000	0,064	0,197
-134,629	296,091	0,061	-0,081
-133,614	116,150	-0,095	0,085
-132,599	147,709	0,024	-0,023
-131,585	-194,121	0,064	-0,000
-130,570	-200,000	0,010	-0,063
-129,556	-104,139	-0,038	-0,006
-128,541	-113,853	-0,065	0,009
-127,526	224,421	0,029	0,034
-126,512	-3,425	-0,063	0,032
-125,497	800,000	-0,025	0,066
-124,483	-60,453	-0,038	-0,012
-123,468	188,731	-0,174	0,190
-122,453	218,921	0,071	0,083
-121,439	467,151	0,031	-0,050
-120,424	-98,238	-0,069	0,013
-119,410	106,000	0,064	0,055
