DTS Sentinel unit serial number:	SN410029Multiplexer serial number:	ORYXHardware model number:	OX2-SRSoftware version number:	ORYX F/W v4,00 Oryx Data Collector v3.7.2.0data status	okinstallation	B4 Nyhavnadifferential loss correction	single-endedforward channel	channel 2reverse channel	N/Adate	2023/12/16time	10:50:13forward acquisition time	300,00reverse acquisition time	0,00gamma	499,1914k internal	0,3125k external	0,3125temperature offset calibration	1,0000default loss term (dB/km)	0,3820temperature slope calibration	1,0000multiplexer offset coefficient	1,0000multiplexer slope coefficient	1,0000fibre end	0,00T internal ref (°C)	23,43T ext. ref 1 (°C)	9,12T ext. ref 2 (°C)	9,31length (m)	temperature (°C)	Stokes	anti-Stokes-744,400	-200,000	-0,030	-0,177
-743,385	800,000	-0,034	0,087
-742,371	156,858	0,076	-0,078
-741,356	114,341	-0,185	0,167
-740,342	13,464	0,069	-0,039
-739,327	57,750	-0,199	0,145
-738,312	-200,000	-0,008	-0,088
-737,298	390,704	-0,115	0,178
-736,283	435,489	-0,026	0,042
-735,269	-9,692	-0,340	0,168
-734,254	236,256	0,085	-0,105
-733,239	-123,021	-0,306	-0,036
-732,225	-74,636	0,135	0,036
-731,210	-200,000	-0,009	-0,084
-730,196	-200,000	-0,003	0,074
-729,181	-67,174	-0,091	0,027
-728,167	161,869	-0,060	-0,063
-727,152	23,325	0,115	0,070
-726,137	800,000	-0,018	0,039
-725,123	-96,219	-0,045	-0,009
-724,108	-200,000	0,008	-0,060
-723,094	457,330	-0,112	-0,185
-722,079	43,491	-0,145	-0,099
-721,064	437,297	0,104	-0,169
-720,050	568,006	-0,103	-0,186
-719,035	-35,249	0,043	0,017
-718,021	-70,117	-0,145	-0,041
-717,006	358,665	-0,089	-0,132
-715,991	-1,630	-0,036	0,019
-714,977	374,167	-0,047	0,071
-713,962	215,804	0,063	-0,075
-712,948	360,527	0,085	-0,127
-711,933	-39,453	-0,052	-0,020
-710,918	-106,357	-0,037	-0,006
-709,904	717,341	0,040	0,079
-708,889	-200,000	-0,009	-0,067
-707,875	390,300	0,060	-0,092
-706,860	27,167	-0,105	-0,066
-705,845	-102,018	0,184	-0,033
-704,831	753,327	0,072	-0,146
-703,816	15,035	0,117	0,068
-702,802	-83,939	-0,119	-0,028
-701,787	184,184	0,016	0,017
-700,772	800,000	-0,043	-0,129
-699,758	-168,384	0,122	-0,003
-698,743	-200,000	-0,006	-0,134
-697,729	-200,000	-0,010	-0,062
-696,714	167,742	0,074	0,078
-695,699	-200,000	-0,012	-0,066
-694,685	-200,000	-0,015	-0,150
-693,670	-49,505	0,045	-0,016
-692,656	-68,117	-0,153	-0,044
-691,641	800,000	-0,021	-0,065
-690,627	-200,000	-0,013	0,184
-689,612	800,000	0,051	0,114
-688,597	-200,000	0,006	-0,088
-687,583	709,609	-0,087	-0,173
-686,568	-128,459	-0,136	-0,014
-685,554	41,514	-0,072	0,049
-684,539	104,899	0,042	-0,037
-683,524	-200,000	0,016	-0,086
-682,510	238,359	0,013	-0,016
-681,495	127,574	-0,141	-0,133
-680,481	-86,050	-0,142	0,032
-679,466	-200,000	0,002	0,046
-678,451	-5,751	0,099	-0,050
-677,437	-7,459	-0,053	0,026
-676,422	100,442	-0,054	0,047
-675,408	800,000	-0,041	0,107
-674,393	-200,000	-0,022	-0,088
-673,378	732,074	0,021	0,043
-672,364	-114,853	-0,143	-0,020
-671,349	314,773	0,092	-0,129
-670,335	800,000	0,026	0,081
-669,320	800,000	0,032	-0,076
-668,305	66,264	-0,129	-0,097
-667,291	-18,642	-0,145	-0,067
-666,276	-200,000	0,004	-0,148
-665,262	800,000	0,017	-0,048
-664,247	-200,000	-0,021	0,091
-663,232	-200,000	-0,020	-0,091
-662,218	-91,881	-0,118	0,025
-661,203	51,238	0,040	0,028
-660,189	-200,000	0,010	-0,053
-659,174	-200,000	-0,012	-0,189
-658,159	57,795	-0,075	0,055
-657,145	-200,000	-0,014	-0,082
-656,130	-176,518	-0,030	-0,001
-655,116	-200,000	0,003	0,090
-654,101	343,454	-0,027	-0,039
-653,086	637,582	-0,048	0,091
-652,072	-157,488	-0,118	0,005
-651,057	645,392	-0,064	-0,122
-650,043	-77,662	0,117	-0,030
-649,028	-139,139	-0,120	-0,009
-648,014	7,131	-0,056	0,031
-646,999	-146,983	0,158	-0,010
-645,984	219,500	-0,040	0,048
-644,970	49,165	-0,076	0,053
-643,955	800,000	-0,038	-0,108
-642,941	-200,000	-0,015	-0,119
-641,926	26,316	0,114	0,070
-640,911	85,797	0,107	0,087
-639,897	-200,000	0,009	0,115
-638,882	47,503	-0,056	-0,039
-637,868	144,291	-0,103	-0,102
-636,853	461,919	-0,034	-0,056
-635,838	319,436	0,037	-0,053
-634,824	-34,103	-0,116	-0,047
-633,809	-41,711	0,042	-0,016
-632,795	-200,000	-0,039	0,134
-631,780	-131,144	-0,040	0,004
-630,765	-200,000	0,001	-0,132
-629,751	-31,870	-0,104	-0,043
-628,736	-200,000	-0,015	-0,073
-627,722	-200,000	0,001	0,037
-626,707	66,192	0,115	0,087
-625,692	800,000	0,025	0,077
-624,678	-200,000	0,001	0,019
-623,663	-200,000	0,011	-0,073
-622,649	153,040	0,045	-0,046
-621,634	352,595	-0,035	-0,051
-620,619	165,132	-0,083	0,087
-619,605	278,355	-0,017	0,022
-618,590	-200,000	0,013	0,088
-617,576	-35,850	0,099	0,040
-616,561	16,902	-0,120	0,070
-615,546	800,000	0,041	-0,110
-614,532	-200,000	-0,002	-0,045
-613,517	272,052	-0,059	-0,077
-612,503	-200,000	0,020	-0,089
-611,488	108,119	-0,072	0,064
-610,474	38,827	-0,130	0,086
-609,459	124,728	0,082	-0,077
-608,444	-200,000	-0,015	-0,084
-607,430	800,000	-0,042	-0,093
-606,415	40,914	0,040	-0,027
-605,401	565,125	-0,020	-0,035
-604,386	91,706	0,056	0,047
-603,371	-200,000	-0,048	0,159
-602,357	673,292	-0,024	-0,046
-601,342	570,933	-0,046	0,083
-600,328	619,013	-0,063	-0,118
-599,313	-200,000	-0,003	-0,053
-598,298	-200,000	-0,001	-0,100
-597,284	-200,000	0,021	0,175
-596,269	-200,000	0,007	0,028
-595,255	116,365	0,018	0,016
-594,240	670,283	-0,043	-0,083
-593,225	-200,000	-0,014	-0,088
-592,211	800,000	-0,070	-0,197
-591,196	342,720	-0,026	0,038
-590,182	-200,000	-0,043	-0,203
-589,167	185,135	0,123	0,135
-588,152	-200,000	0,011	0,057
-587,138	-89,168	-0,065	-0,014
-586,123	194,183	-0,091	-0,102
-585,109	-26,348	-0,111	-0,048
-584,094	-200,000	-0,002	-0,082
-583,079	800,000	0,011	0,027
-582,065	143,537	0,081	0,080
-581,050	51,782	0,082	0,058
-580,036	800,000	-0,017	-0,050
-579,021	69,960	-0,044	-0,033
-578,006	-69,615	-0,137	-0,038
-576,992	800,000	-0,021	-0,052
-575,977	-200,000	-0,002	0,027
-574,963	651,348	-0,041	-0,079
-573,948	-30,600	0,142	0,059
-572,934	-200,000	-0,029	-0,123
-571,919	652,474	-0,054	-0,103
-570,904	800,000	-0,015	-0,045
-569,890	-200,000	0,006	-0,027
-568,875	-82,876	0,116	0,027
-567,861	-96,512	0,006	0,001
-566,846	-95,104	-0,080	0,016
-565,831	320,935	0,068	0,096
-564,817	-140,031	-0,068	-0,005
-563,802	761,041	0,053	-0,106
-562,788	-200,000	-0,012	0,104
-561,773	-57,519	0,019	0,006
-560,758	-24,200	0,136	-0,060
-559,744	-36,214	-0,018	0,007
-558,729	-153,012	0,061	0,003
-557,715	-119,113	0,087	0,011
-556,700	-200,000	0,019	-0,169
-555,685	800,000	-0,025	-0,073
-554,671	-20,258	-0,059	-0,027
-553,656	-10,320	-0,033	0,016
-552,642	-137,276	-0,093	-0,008
-551,627	698,358	-0,060	-0,118
-550,612	-110,654	0,140	-0,021
-549,598	800,000	0,031	0,090
-548,583	-74,646	-0,080	0,021
-547,569	-126,739	0,017	-0,002
-546,554	-66,638	0,032	-0,009
-545,539	-66,929	-0,092	-0,027
-544,525	148,126	0,046	-0,046
-543,510	229,314	0,092	-0,112
-542,496	-127,662	-0,109	0,012
-541,481	-8,815	0,103	0,051
-540,466	431,496	-0,052	0,083
-539,452	-30,433	0,048	0,020
-538,437	-200,000	-0,001	-0,078
-537,423	-200,000	0,004	-0,041
-536,408	-133,112	-0,202	-0,019
-535,393	-200,000	-0,012	-0,131
-534,379	-98,102	-0,057	0,011
-533,364	-200,000	0,004	0,050
-532,350	-200,000	-0,012	0,056
-531,335	51,464	-0,030	-0,021
-530,321	-200,000	-0,003	0,139
-529,306	445,087	-0,029	-0,047
-528,291	800,000	-0,062	-0,152
-527,277	0,709	-0,046	0,024
-526,262	-200,000	-0,000	-0,132
-525,248	-118,995	0,183	0,023
-524,233	324,612	-0,098	-0,139
-523,218	800,000	-0,024	-0,061
-522,204	-0,940	0,060	0,032
-521,189	27,602	-0,066	-0,041
-520,175	49,265	-0,090	0,063
-519,160	21,430	-0,054	0,032
-518,145	-48,183	0,093	-0,033
-517,131	-200,000	0,004	-0,135
-516,116	-147,967	-0,091	0,005
-515,102	800,000	0,056	0,121
-514,087	-200,000	-0,016	-0,102
-513,072	-200,000	-0,000	0,023
-512,058	-200,000	-0,006	-0,044
-511,043	54,479	-0,103	-0,073
-510,029	-200,000	-0,022	0,131
-509,014	202,269	0,079	0,090
-507,999	275,203	0,065	-0,086
-506,985	-91,995	0,124	0,026
-505,970	-200,000	0,010	-0,074
-504,956	-147,522	-0,093	-0,006
-503,941	-66,562	0,060	0,017
-502,926	-200,000	0,024	0,129
-501,912	197,555	0,172	-0,194
-500,897	-86,032	-0,163	-0,037
-499,883	33,985	-0,022	-0,014
-498,868	-28,625	0,073	0,031
-497,853	-200,000	-0,017	0,080
-496,839	-200,000	-0,026	-0,146
-495,824	800,000	0,068	0,222
-494,810	195,911	-0,064	0,071
-493,795	-1,311	0,085	-0,044
-492,781	80,927	0,044	0,035
-491,766	446,051	-0,067	-0,110
-490,751	-19,936	0,159	0,072
-489,737	155,466	-0,019	0,020
-488,722	42,300	0,043	-0,029
-487,708	-20,080	0,076	0,035
-486,693	-200,000	-0,006	-0,088
-485,678	-200,000	0,004	-0,088
-484,664	30,149	-0,207	-0,130
-483,649	141,265	-0,067	-0,066
-482,635	525,480	-0,098	-0,171
-481,620	167,918	0,047	0,050
-480,605	109,995	0,064	-0,056
-479,591	94,948	0,032	-0,027
-478,576	223,189	-0,019	0,023
-477,562	-31,495	0,070	-0,029
-476,547	9,848	0,092	-0,051
-475,532	800,000	0,036	-0,080
-474,518	-5,359	0,095	0,048
-473,503	-52,396	0,126	0,043
-472,489	-200,000	-0,015	0,053
-471,474	-200,000	0,048	0,205
-470,459	213,947	-0,101	0,118
-469,445	-19,892	-0,105	-0,048
-468,430	144,030	-0,034	0,033
-467,416	-200,000	0,020	-0,142
-466,401	512,882	0,109	0,188
-465,386	538,262	0,010	-0,018
-464,372	-72,100	-0,147	0,040
-463,357	800,000	-0,031	-0,072
-462,343	-200,000	-0,003	0,017
-461,328	-200,000	-0,012	-0,044
-460,313	-7,789	0,037	0,018
-459,299	180,322	0,074	0,080
-458,284	800,000	-0,011	0,032
-457,270	-92,053	-0,049	-0,010
-456,255	-200,000	-0,025	0,110
-455,241	-184,816	-0,150	0,002
-454,226	-180,758	0,061	0,001
-453,211	-200,000	0,079	0,000
-452,197	82,440	0,071	-0,057
-451,182	-22,561	-0,117	0,052
-450,168	-200,000	0,002	-0,041
-449,153	-9,359	-0,099	0,049
-448,138	800,000	0,019	0,058
-447,124	-42,582	0,062	-0,023
-446,109	-8,096	0,138	-0,068
-445,095	97,029	0,047	0,039
-444,080	7,599	-0,068	-0,037
-443,065	-200,000	-0,008	-0,081
-442,051	18,184	0,029	-0,017
-441,036	-6,985	0,115	-0,057
-440,022	-200,000	-0,036	-0,193
-439,007	116,948	-0,067	-0,061
-437,992	800,000	-0,048	0,148
-436,978	-200,000	-0,034	0,133
-435,963	-200,000	0,012	0,113
-434,949	6,891	0,066	0,036
-433,934	-43,578	-0,113	-0,042
-432,919	6,533	0,047	-0,025
-431,905	800,000	0,026	-0,072
-430,890	11,916	0,019	-0,011
-429,876	-200,000	0,008	0,089
-428,861	-200,000	0,011	0,090
-427,846	-150,099	-0,049	0,003
-426,832	-200,000	0,009	-0,079
-425,817	800,000	0,071	-0,183
-424,803	-12,443	0,082	0,039
-423,788	-52,458	-0,112	-0,038
-422,773	800,000	0,051	-0,136
-421,759	-77,319	-0,118	0,030
-420,744	800,000	0,042	0,096
-419,730	219,543	0,082	0,097
-418,715	31,922	-0,134	-0,084
-417,701	-158,692	0,088	-0,004
-416,686	368,819	-0,029	0,043
-415,671	-200,000	0,047	0,175
-414,657	320,951	0,040	0,056
-413,642	84,878	0,031	0,025
-412,628	-200,000	0,008	0,067
-411,613	-16,620	-0,120	-0,055
-410,598	800,000	0,028	0,077
-409,584	-104,059	0,016	-0,003
-408,569	-5,731	0,124	0,062
-407,555	-94,254	0,185	0,037
-406,540	-156,670	-0,206	-0,009
-405,525	-200,000	0,002	-0,055
-404,511	-75,699	-0,041	-0,011
-403,496	109,433	-0,028	-0,024
-402,482	-70,213	0,140	0,039
-401,467	-200,000	0,007	-0,057
-400,452	104,785	-0,031	0,027
-399,438	-178,549	0,043	-0,001
-398,423	-38,122	-0,058	-0,022
-397,409	232,246	-0,075	-0,090
-396,394	28,175	-0,055	-0,034
-395,379	-200,000	-0,008	-0,050
-394,365	-70,044	0,094	-0,026
-393,350	260,973	0,046	0,059
-392,336	191,987	0,020	-0,022
-391,321	23,077	-0,115	0,069
-390,306	-104,615	-0,195	0,033
-389,292	-103,271	-0,168	-0,029
-388,277	800,000	0,025	0,052
-387,263	366,259	0,084	0,125
-386,248	-67,449	-0,059	0,017
-385,233	-139,204	0,114	0,009
-384,219	688,214	-0,028	0,054
-383,204	-200,000	-0,003	-0,039
-382,190	23,331	0,076	-0,046
-381,175	-22,458	0,043	-0,019
-380,160	47,460	-0,121	0,083
-379,146	210,233	0,075	0,087
-378,131	430,336	0,036	-0,057
-377,117	-99,062	0,139	-0,026
-376,102	-200,000	-0,009	0,137
-375,088	-15,996	-0,078	-0,036
-374,073	-200,000	-0,008	-0,112
-373,058	136,443	0,070	0,068
-372,044	-200,000	-0,001	-0,039
-371,029	395,657	0,041	0,063
-370,015	130,337	0,113	0,107
-369,000	230,234	-0,058	-0,069
-367,985	-95,248	-0,059	-0,012
-366,971	-200,000	-0,011	0,103
-365,956	-102,177	0,125	0,022
-364,942	800,000	-0,042	0,108
-363,927	-200,000	0,000	0,024
-362,912	-200,000	-0,001	0,071
-361,898	46,265	-0,112	0,076
-360,883	-119,789	0,069	0,009
-359,869	800,000	-0,047	0,135
-358,854	-200,000	0,000	0,009
-357,839	127,827	0,045	0,042
-356,825	331,014	0,045	0,064
-355,810	-200,000	-0,002	0,058
-354,796	-7,063	-0,070	0,035
-353,781	471,894	-0,057	-0,094
-352,766	800,000	0,015	-0,043
-351,752	-89,841	-0,074	0,016
-350,737	-109,351	-0,023	-0,004
-349,723	-200,000	0,004	-0,083
-348,708	89,720	0,049	0,040
-347,693	22,369	0,015	-0,009
-346,679	116,816	-0,057	0,051
-345,664	-70,654	0,043	0,012
-344,650	-13,254	-0,069	0,033
-343,635	76,464	0,060	0,047
-342,620	706,845	-0,045	0,087
-341,606	-200,000	-0,011	-0,091
-340,591	-167,712	-0,075	-0,002
-339,577	800,000	-0,062	-0,128
-338,562	-130,688	-0,061	-0,006
-337,548	57,059	0,106	0,076
-336,533	-82,680	-0,021	0,005
-335,518	615,133	0,064	0,119
-334,504	322,312	-0,084	0,118
-333,489	-200,000	0,049	0,166
-332,475	800,000	0,024	-0,073
-331,460	617,946	0,065	-0,120
-330,445	-59,901	-0,098	-0,031
-329,431	800,000	0,027	0,073
-328,416	-97,927	0,101	0,019
-327,402	135,286	0,086	0,082
-326,387	181,143	-0,069	0,074
-325,372	-47,629	-0,128	-0,045
-324,358	-33,098	0,094	-0,038
-323,343	23,534	-0,115	-0,069
-322,329	118,224	0,041	-0,037
-321,314	-200,000	0,036	0,121
-320,299	800,000	0,031	0,072
-319,285	185,513	-0,036	0,039
-318,270	-28,434	0,133	-0,056
-317,256	495,778	0,011	-0,019
-316,241	-200,000	0,005	-0,049
-315,226	298,188	-0,027	-0,037
-314,212	-62,405	0,101	0,030
-313,197	91,355	0,074	0,061
-312,183	88,033	0,057	0,046
-311,168	-26,154	-0,066	0,028
-310,153	141,483	-0,061	-0,059
-309,139	-136,493	-0,134	0,011
-308,124	261,914	0,046	-0,059
-307,110	-99,259	0,174	-0,032
-306,095	485,699	-0,020	-0,034
-305,080	800,000	0,037	-0,119
-304,066	284,923	0,112	-0,149
-303,051	800,000	-0,021	-0,044
-302,037	776,905	-0,063	-0,127
-301,022	64,264	0,145	-0,107
-300,008	409,139	0,012	-0,019
-298,993	800,000	0,020	0,049
-297,978	309,399	-0,035	0,049
-296,964	-123,400	0,062	0,007
-295,949	229,941	-0,108	-0,130
-294,935	538,712	0,011	0,020
-293,920	117,967	0,068	-0,061
-292,905	246,342	0,094	-0,116
-291,891	800,000	-0,017	0,051
-290,876	98,488	0,056	-0,048
-289,862	-51,872	-0,244	0,083
-288,847	120,604	-0,122	0,111
-287,832	800,000	0,071	-0,225
-286,818	800,000	-0,024	0,052
-285,803	-124,747	-0,129	0,014
-284,789	-41,974	-0,020	0,007
-283,774	146,346	0,083	0,082
-282,759	-200,000	0,003	-0,026
-281,745	196,865	-0,111	-0,124
-280,730	234,277	0,062	-0,075
-279,716	-96,434	0,108	0,021
-278,701	74,963	0,121	-0,094
-277,686	-18,224	-0,064	-0,029
-276,672	-70,653	0,017	0,005
-275,657	800,000	0,023	0,066
-274,643	-96,475	-0,063	0,012
-273,628	-9,523	0,077	0,038
-272,613	377,750	-0,045	0,067
-271,599	-200,000	-0,013	-0,128
-270,584	-15,852	0,106	-0,049
-269,570	577,898	-0,074	0,133
-268,555	444,568	-0,046	0,075
-267,540	223,420	-0,110	-0,130
-266,526	106,954	-0,024	0,021
-265,511	-200,000	0,015	0,089
-264,497	47,871	-0,054	-0,037
-263,482	-37,225	0,049	-0,019
-262,467	-56,409	0,059	0,019
-261,453	-41,893	0,054	0,020
-260,438	101,743	-0,032	0,027
-259,424	357,741	-0,050	-0,073
-258,409	27,480	0,046	-0,028
-257,395	-200,000	-0,012	-0,097
-256,380	-200,000	0,012	0,061
-255,365	-200,000	0,011	0,087
-254,351	7,313	0,028	-0,015
-253,336	209,310	-0,069	-0,080
-252,322	448,000	0,044	-0,071
-251,307	-163,293	-0,081	-0,003
-250,292	-200,000	-0,009	-0,141
-249,278	118,212	0,108	0,098
-248,263	350,132	-0,075	0,109
-247,249	105,206	-0,079	0,068
-246,234	-200,000	-0,001	0,063
-245,219	163,767	0,119	-0,123
-244,205	64,006	-0,071	-0,052
-243,190	-96,507	0,025	-0,005
-242,176	322,386	0,074	-0,104
-241,161	51,942	-0,047	-0,032
-240,146	358,946	-0,127	-0,186
-239,132	-144,845	0,071	0,005
-238,117	-200,000	0,017	-0,066
-237,103	800,000	0,018	0,041
-236,088	55,487	-0,050	0,035
-235,073	180,876	0,046	-0,049
-234,059	-200,000	-0,006	0,110
-233,044	31,327	0,108	0,068
-232,030	29,353	-0,062	0,038
-231,015	42,410	-0,064	-0,043
-230,000	247,899	-0,033	-0,041
-228,986	-42,941	0,124	-0,046
-227,971	55,734	0,048	-0,034
-226,957	18,341	0,109	0,063
-225,942	800,000	0,016	-0,042
-224,927	333,371	0,072	0,102
-223,913	800,000	0,021	-0,044
-222,898	-200,000	-0,005	0,081
-221,884	496,760	-0,038	-0,065
-220,869	132,074	0,225	-0,212
-219,855	-200,000	0,008	-0,029
-218,840	-200,000	0,005	0,125
-217,825	322,934	-0,022	0,031
-216,811	-35,860	-0,073	0,029
-215,796	39,644	-0,063	-0,041
-214,782	-200,000	0,011	-0,060
-213,767	357,881	-0,091	-0,133
-212,752	-98,512	0,186	-0,034
-211,738	-200,000	0,000	-0,034
-210,723	686,435	-0,058	0,111
-209,709	-200,000	0,004	-0,088
-208,694	-51,781	0,060	-0,020
-207,679	-200,000	-0,010	0,073
-206,665	-200,000	-0,012	0,091
-205,650	-200,000	-0,014	0,197
-204,636	-150,271	0,071	0,004
-203,621	208,923	-0,068	-0,078
-202,606	-200,000	-0,006	0,021
-201,592	-16,089	0,063	0,029
-200,577	14,392	0,061	0,035
-199,563	-200,000	0,012	0,075
-198,548	281,225	-0,032	0,042
-197,533	-200,000	0,023	0,151
-196,519	41,805	-0,101	0,066
-195,504	-85,793	-0,028	-0,006
-194,490	-108,323	-0,083	0,013
-193,475	510,002	0,068	-0,115
-192,460	-149,012	-0,040	0,002
-191,446	-200,000	-0,026	0,148
-190,431	800,000	0,066	0,160
-189,417	800,000	-0,018	0,052
-188,402	115,962	0,027	0,024
-187,387	-125,125	0,028	-0,003
-186,373	-157,647	-0,199	-0,008
-185,358	104,304	0,022	0,019
-184,344	-200,000	-0,025	0,090
-183,329	-10,129	-0,059	0,028
-182,315	-200,000	0,007	0,187
-181,300	-200,000	0,006	0,059
-180,285	782,246	-0,030	0,059
-179,271	800,000	-0,037	-0,079
-178,256	800,000	0,020	0,043
-177,242	-65,105	0,073	0,021
-176,227	-200,000	-0,025	0,082
-175,212	-200,000	0,014	0,195
-174,198	-75,673	-0,035	0,009
-173,183	84,769	0,135	0,108
-172,169	-152,777	-0,057	-0,003
-171,154	-120,233	0,022	0,003
-170,139	367,814	0,027	0,040
-169,125	-200,000	-0,012	0,061
-168,110	-200,000	-0,036	0,174
-167,096	-200,000	0,015	0,087
-166,081	94,595	-0,035	-0,029
-165,066	228,441	-0,043	0,051
-164,052	-200,000	-0,010	0,049
-163,037	-143,517	0,133	-0,009
-162,023	-200,000	-0,019	0,075
-161,008	-200,000	0,018	0,082
-159,993	-80,939	0,134	0,032
-158,979	-200,000	-0,005	0,048
-157,964	385,621	-0,094	-0,142
-156,950	-200,000	0,006	-0,120
-155,935	314,226	0,082	-0,113
-154,920	408,231	0,065	-0,100
-153,906	106,958	-0,036	-0,031
-152,891	-55,459	-0,071	0,023
-151,877	642,056	-0,055	0,102
-150,862	800,000	-0,052	-0,159
-149,847	-200,000	-0,040	-0,153
-148,833	-35,716	0,163	0,064
-147,818	156,979	0,066	-0,066
-146,804	194,450	0,046	-0,051
-145,789	-200,000	0,006	-0,111
-144,775	23,974	0,060	-0,036
-143,760	800,000	0,026	-0,065
-142,745	2,008	0,051	-0,027
-141,731	-25,238	0,074	0,032
-140,716	-200,000	-0,016	0,099
-139,702	-51,567	0,113	0,038
-138,687	-62,237	-0,048	0,014
-137,672	-43,905	-0,071	0,026
-136,658	623,523	0,047	-0,086
-135,643	800,000	-0,032	-0,075
-134,629	-200,000	-0,034	0,118
-133,614	503,774	0,101	0,171
-132,599	-200,000	-0,001	0,007
-131,585	-124,808	-0,038	-0,004
-130,570	-200,000	-0,002	-0,108
-129,556	477,367	0,036	-0,060
-128,541	-135,392	-0,058	0,005
-127,526	-132,749	0,049	0,004
-126,512	748,926	0,059	0,116
-125,497	-47,129	-0,092	-0,032
-124,483	-200,000	-0,001	-0,019
-123,468	-200,000	-0,005	-0,022
-122,453	-110,239	-0,132	-0,020
-121,439	73,153	-0,081	-0,061
-120,424	-22,458	0,120	-0,052
