DTS Sentinel unit serial number:	SN410029Multiplexer serial number:	ORYXHardware model number:	OX2-SRSoftware version number:	ORYX F/W v4,00 Oryx Data Collector v3.7.2.0data status	okinstallation	B4 Nyhavnadifferential loss correction	single-endedforward channel	channel 2reverse channel	N/Adate	2023/12/19time	10:20:13forward acquisition time	300,00reverse acquisition time	0,00gamma	499,1914k internal	0,3128k external	0,3128temperature offset calibration	1,0000default loss term (dB/km)	0,3820temperature slope calibration	1,0000multiplexer offset coefficient	1,0000multiplexer slope coefficient	1,0000fibre end	0,00T internal ref (°C)	20,13T ext. ref 1 (°C)	4,88T ext. ref 2 (°C)	4,81length (m)	temperature (°C)	Stokes	anti-Stokes-744,400	53,353	0,067	-0,047
-743,385	-57,218	-0,246	0,080
-742,371	120,613	0,049	-0,046
-741,356	-93,344	-0,242	0,050
-740,342	-200,000	-0,024	-0,116
-739,327	137,177	-0,224	0,218
-738,312	800,000	-0,022	-0,054
-737,298	-194,368	-0,153	-0,001
-736,283	343,087	0,097	-0,142
-735,269	683,042	-0,104	0,203
-734,254	43,646	0,136	-0,092
-733,239	-119,494	-0,376	-0,048
-732,225	75,827	0,105	0,082
-731,210	-200,000	-0,006	0,065
-730,196	-70,502	-0,172	-0,048
-729,181	331,136	-0,038	-0,055
-728,167	-27,743	0,105	0,045
-727,152	178,235	-0,033	-0,036
-726,137	169,436	-0,060	0,064
-725,123	62,845	-0,015	-0,011
-724,108	-200,000	-0,051	-0,179
-723,094	8,975	-0,155	-0,087
-722,079	-200,000	0,008	-0,098
-721,064	-120,761	-0,193	-0,024
-720,050	-72,644	0,070	-0,019
-719,035	2,961	-0,078	-0,042
-718,021	32,214	0,104	-0,067
-717,006	184,645	-0,116	0,128
-715,991	-62,171	-0,230	-0,071
-714,977	18,695	-0,078	-0,046
-713,962	-47,472	-0,165	-0,059
-712,948	-73,970	-0,047	0,013
-711,933	-126,330	-0,098	-0,011
-710,918	-200,000	-0,021	-0,117
-709,904	482,067	-0,061	-0,103
-708,889	-200,000	-0,046	-0,166
-707,875	344,876	-0,108	-0,158
-706,860	377,575	0,085	-0,130
-705,845	164,992	-0,028	-0,030
-704,831	-200,000	-0,002	0,066
-703,816	800,000	0,030	0,076
-702,802	-55,345	0,054	-0,018
-701,787	149,785	0,026	0,026
-700,772	800,000	-0,028	0,084
-699,758	1,145	-0,162	0,086
-698,743	-190,578	-0,073	-0,001
-697,729	-7,828	-0,049	0,024
-696,714	-200,000	-0,003	0,062
-695,699	-200,000	-0,011	-0,093
-694,685	-200,000	-0,034	-0,168
-693,670	52,927	-0,093	-0,066
-692,656	-200,000	-0,001	-0,026
-691,641	-28,831	0,044	0,019
-690,627	99,997	-0,059	-0,050
-689,612	-74,338	0,058	-0,015
-688,597	-200,000	-0,024	-0,124
-687,583	800,000	0,045	-0,141
-686,568	800,000	0,047	0,127
-685,554	-25,514	0,103	0,045
-684,539	-124,322	-0,011	0,001
-683,524	800,000	-0,083	0,176
-682,510	-8,044	-0,063	-0,032
-681,495	-200,000	-0,030	-0,185
-680,481	-200,000	0,004	-0,053
-679,466	211,138	-0,102	-0,119
-678,451	800,000	0,036	-0,076
-677,437	120,383	0,104	-0,096
-676,422	-200,000	-0,026	0,100
-675,408	-200,000	0,008	0,137
-674,393	-118,200	-0,125	0,016
-673,378	652,413	-0,009	-0,017
-672,364	6,238	-0,074	0,040
-671,349	-95,632	-0,079	-0,016
-670,335	-200,000	-0,015	-0,163
-669,320	757,535	0,028	-0,057
-668,305	5,237	-0,079	0,043
-667,291	-45,850	-0,118	-0,043
-666,276	105,555	0,072	-0,063
-665,262	108,481	-0,212	-0,188
-664,247	304,958	0,015	0,020
-663,232	464,915	-0,066	-0,111
-662,218	-86,356	0,110	0,025
-661,203	139,718	0,064	0,062
-660,189	800,000	-0,011	-0,028
-659,174	-49,879	-0,098	-0,034
-658,159	301,779	0,101	0,139
-657,145	-200,000	-0,007	-0,061
-656,130	-39,020	-0,048	0,019
-655,116	103,804	0,085	-0,074
-654,101	21,645	-0,099	-0,060
-653,086	-13,271	0,071	0,034
-652,072	92,957	-0,070	0,058
-651,057	800,000	-0,020	-0,042
-650,043	-125,216	-0,204	-0,023
-649,028	533,620	0,001	-0,002
-648,014	800,000	0,032	0,102
-646,999	5,344	0,126	0,069
-645,984	586,012	-0,015	-0,027
-644,970	662,890	0,030	-0,058
-643,955	159,633	-0,138	-0,143
-642,941	-200,000	-0,002	-0,059
-641,926	-25,340	-0,061	-0,027
-640,911	-42,031	0,100	-0,038
-639,897	1,856	0,074	-0,040
-638,882	800,000	-0,024	-0,053
-637,868	-153,102	0,025	0,001
-636,853	-131,338	-0,139	0,013
-635,838	404,891	-0,029	-0,045
-634,824	-200,000	0,031	-0,144
-633,809	-200,000	0,000	0,040
-632,795	-200,000	0,023	0,152
-631,780	272,433	-0,073	0,096
-630,765	-51,168	0,074	-0,025
-629,751	40,269	-0,127	0,084
-628,736	-164,801	-0,128	0,004
-627,722	-91,179	-0,099	-0,021
-626,707	-61,056	0,104	0,032
-625,692	-93,636	0,113	0,023
-624,678	-35,042	-0,111	-0,045
-623,663	116,988	0,052	0,047
-622,649	-32,271	0,151	-0,062
-621,634	-29,984	-0,101	0,043
-620,619	-200,000	-0,017	-0,077
-619,605	-29,800	-0,122	0,051
-618,590	1,302	0,073	0,039
-617,576	-200,000	0,000	0,070
-616,561	-127,053	-0,129	0,014
-615,546	54,654	-0,022	-0,016
-614,532	-82,092	-0,108	-0,026
-613,517	92,871	-0,100	-0,083
-612,503	175,237	-0,088	-0,094
-611,488	800,000	0,084	0,189
-610,474	-200,000	0,004	-0,117
-609,459	-37,989	-0,047	0,018
-608,444	-182,406	-0,110	0,001
-607,430	-111,366	-0,131	-0,020
-606,415	2,928	-0,091	-0,049
-605,401	661,295	0,057	0,110
-604,386	173,159	0,119	0,127
-603,371	800,000	-0,036	-0,103
-602,357	-131,163	-0,039	-0,004
-601,342	-29,328	0,088	-0,037
-600,328	753,158	-0,009	-0,018
-599,313	-200,000	0,007	-0,116
-598,298	-200,000	0,005	-0,075
-597,284	97,946	-0,061	-0,052
-596,269	800,000	-0,012	0,034
-595,255	-20,395	0,064	0,029
-594,240	-200,000	-0,033	-0,120
-593,225	800,000	-0,013	-0,033
-592,211	21,312	-0,067	0,040
-591,196	-39,064	-0,074	-0,029
-590,182	148,832	-0,011	-0,011
-589,167	5,471	0,038	0,021
-588,152	-200,000	0,008	-0,041
-587,138	800,000	0,023	0,048
-586,123	-5,230	-0,035	-0,018
-585,109	94,517	-0,120	-0,101
-584,094	36,201	0,077	0,050
-583,079	-200,000	-0,020	-0,076
-582,065	-9,417	-0,062	0,030
-581,050	-200,000	0,001	-0,016
-580,036	67,016	0,052	0,039
-579,021	-84,557	-0,093	-0,022
-578,006	-72,161	-0,057	-0,015
-576,992	76,195	0,112	-0,087
-575,977	800,000	-0,100	-0,249
-574,963	-138,040	0,105	-0,009
-573,948	29,891	0,066	0,042
-572,934	539,602	0,059	0,103
-571,919	660,286	0,052	-0,099
-570,904	800,000	0,014	-0,030
-569,890	-9,716	0,081	-0,040
-568,875	-200,000	-0,006	0,035
-567,861	112,805	0,140	-0,125
-566,846	-6,519	-0,017	-0,009
-565,831	194,224	-0,123	0,138
-564,817	82,486	0,038	-0,031
-563,802	-88,376	-0,096	-0,021
-562,788	296,960	-0,026	0,036
-561,773	29,402	-0,040	0,025
-560,758	196,497	-0,087	0,098
-559,744	-200,000	0,015	0,149
-558,729	-200,000	-0,009	-0,050
-557,715	81,518	0,075	-0,060
-556,700	636,163	0,040	-0,076
-555,685	-200,000	-0,000	0,042
-554,671	691,384	-0,071	-0,137
-553,656	233,395	0,038	-0,046
-552,642	319,538	-0,034	0,048
-551,627	-188,343	0,005	0,000
-550,612	-200,000	-0,019	0,084
-549,598	-152,215	-0,186	-0,010
-548,583	800,000	0,013	0,038
-547,569	-96,597	0,039	0,008
-546,554	215,856	0,044	0,051
-545,539	-29,321	0,091	0,038
-544,525	-18,953	0,034	0,016
-543,510	306,076	0,045	0,062
-542,496	-57,662	-0,077	-0,025
-541,481	174,160	-0,024	0,026
-540,466	-42,864	-0,107	-0,040
-539,452	9,177	0,029	-0,016
-538,437	-200,000	0,014	-0,098
-537,423	-123,172	-0,102	0,012
-536,408	450,718	-0,044	-0,072
-535,393	82,151	-0,053	0,043
-534,379	-200,000	0,011	0,040
-533,364	800,000	0,079	-0,161
-532,350	221,432	-0,075	-0,090
-531,335	-200,000	-0,029	0,131
-530,321	-200,000	0,003	-0,027
-529,306	-97,822	0,005	-0,001
-528,291	170,743	-0,065	-0,069
-527,277	-4,905	0,067	0,034
-526,262	-99,002	-0,114	-0,021
-525,248	-8,718	-0,025	0,012
-524,233	-200,000	0,017	0,060
-523,218	349,016	-0,036	-0,052
-522,204	800,000	-0,033	-0,095
-521,189	43,365	0,048	0,032
-520,175	-10,238	-0,051	-0,025
-519,160	-113,606	-0,122	0,017
-518,145	436,553	-0,031	-0,050
-517,131	-200,000	0,019	-0,125
-516,116	290,058	0,123	-0,165
-515,102	-170,158	0,057	-0,001
-514,087	-200,000	-0,007	0,093
-513,072	69,888	-0,138	0,105
-512,058	22,567	0,054	0,032
-511,043	669,823	0,070	0,134
-510,029	-12,766	0,088	0,042
-509,014	244,438	0,037	-0,046
-507,999	55,698	0,160	-0,114
-506,985	-200,000	0,004	0,062
-505,970	800,000	-0,013	0,040
-504,956	800,000	-0,037	-0,101
-503,941	-165,216	-0,041	-0,001
-502,926	-200,000	-0,031	-0,100
-501,912	-191,122	0,084	0,001
-500,897	109,409	0,146	0,129
-499,883	169,179	-0,094	-0,099
-498,868	528,796	-0,065	-0,114
-497,853	-68,607	-0,138	-0,039
-496,839	485,715	0,039	0,067
-495,824	533,583	0,039	-0,069
-494,810	-0,072	0,087	0,046
-493,795	46,483	-0,134	0,091
-492,781	8,388	0,029	0,016
-491,766	31,182	0,088	-0,055
-490,751	-34,367	-0,051	-0,020
-489,737	515,746	-0,081	0,139
-488,722	-200,000	-0,012	0,121
-487,708	375,892	0,061	0,092
-486,693	-53,733	-0,016	0,005
-485,678	257,504	-0,115	-0,146
-484,664	50,191	-0,136	0,094
-483,649	215,121	-0,017	-0,020
-482,635	201,753	0,104	0,118
-481,620	-200,000	0,042	0,175
-480,605	44,266	0,080	0,054
-479,591	-95,102	-0,057	-0,011
-478,576	299,934	-0,077	-0,105
-477,562	-200,000	-0,008	-0,040
-476,547	96,532	-0,075	-0,063
-475,532	-77,831	-0,101	0,025
-474,518	102,413	0,052	-0,045
-473,503	555,712	0,048	0,086
-472,489	-134,430	0,108	0,010
-471,474	-200,000	-0,016	0,111
-470,459	72,021	-0,111	-0,085
-469,445	-200,000	-0,040	-0,157
-468,430	800,000	-0,011	-0,037
-467,416	800,000	0,044	-0,107
-466,401	36,086	0,069	0,045
-465,386	-200,000	-0,009	0,069
-464,372	-200,000	-0,005	-0,085
-463,357	-136,782	-0,085	0,007
-462,343	-88,630	-0,191	0,041
-461,328	-200,000	-0,053	-0,201
-460,313	-200,000	-0,016	-0,105
-459,299	800,000	0,060	0,155
-458,284	36,238	-0,069	0,045
-457,270	190,096	-0,031	-0,034
-456,255	-102,544	-0,127	0,022
-455,241	800,000	0,013	-0,031
-454,226	-200,000	-0,039	0,168
-453,211	-107,025	-0,062	-0,010
-452,197	251,193	0,078	0,097
-451,182	-84,533	0,113	-0,026
-450,168	317,679	0,025	0,035
-449,153	800,000	0,028	-0,060
-448,138	233,522	0,026	0,032
-447,124	252,219	0,052	-0,065
-446,109	-200,000	0,023	-0,110
-445,095	-3,381	0,058	0,030
-444,080	-200,000	-0,008	0,110
-443,065	-174,351	0,053	-0,001
-442,051	139,517	-0,027	-0,027
-441,036	-40,966	-0,142	-0,054
-440,022	-68,803	-0,098	-0,028
-439,007	158,649	-0,075	-0,077
-437,992	421,379	-0,064	-0,102
-436,978	317,880	0,074	0,104
-435,963	-67,810	-0,168	0,048
-434,949	70,808	0,122	-0,093
-433,934	-43,417	0,066	0,025
-432,919	317,486	-0,062	0,087
-431,905	-53,094	-0,076	0,025
-430,890	20,442	-0,066	0,039
-429,876	-200,000	-0,018	-0,060
-428,861	800,000	0,067	0,173
-427,846	-74,710	0,085	-0,022
-426,832	648,651	0,019	0,036
-425,817	-200,000	0,010	-0,070
-424,803	-55,396	0,043	-0,014
-423,788	-66,744	0,080	-0,023
-422,773	-75,784	0,126	-0,033
-421,759	-200,000	0,015	0,049
-420,744	-118,313	0,116	-0,015
-419,730	-200,000	-0,012	0,067
-418,715	520,897	0,063	-0,110
-417,701	173,430	-0,066	0,070
-416,686	446,209	-0,045	-0,074
-415,671	40,097	0,109	-0,072
-414,657	39,114	0,078	0,051
-413,642	-97,591	0,070	0,013
-412,628	-70,619	-0,038	0,010
-411,613	800,000	-0,059	0,130
-410,598	86,423	-0,064	-0,052
-409,584	-200,000	0,010	-0,112
-408,569	-61,738	0,149	-0,046
-407,555	-125,351	-0,057	0,006
-406,540	-64,708	0,140	0,041
-405,525	86,045	-0,031	-0,025
-404,511	-200,000	-0,007	0,070
-403,496	-200,000	-0,012	-0,128
-402,482	480,352	0,025	-0,042
-401,467	762,725	0,037	-0,075
-400,452	-200,000	-0,037	0,186
-399,438	182,899	0,057	0,062
-398,423	800,000	0,006	-0,016
-397,409	217,783	-0,029	-0,034
-396,394	378,159	0,098	0,148
-395,379	-200,000	0,033	0,133
-394,365	-97,020	0,192	0,037
-393,350	226,159	-0,039	-0,047
-392,336	144,420	-0,090	0,089
-391,321	451,725	0,043	-0,070
-390,306	-119,631	0,072	-0,009
-389,292	-69,884	-0,065	0,018
-388,277	800,000	-0,037	-0,089
-387,263	-121,148	-0,077	-0,009
-386,248	461,304	-0,038	-0,062
-385,233	244,179	-0,041	0,051
-384,219	366,915	0,016	-0,023
-383,204	-81,617	-0,100	0,024
-382,190	272,137	-0,022	-0,028
-381,175	800,000	0,014	0,035
-380,160	139,672	0,096	0,093
-379,146	-60,956	0,155	0,048
-378,131	256,759	0,091	-0,115
-377,117	800,000	0,027	-0,063
-376,102	-180,279	0,106	0,002
-375,088	-98,099	-0,057	-0,011
-374,073	-116,308	0,052	0,007
-373,058	216,475	-0,075	-0,088
-372,044	79,903	0,197	0,155
-371,029	-47,061	0,143	-0,051
-370,015	800,000	0,006	0,013
-369,000	-200,000	0,009	-0,084
-367,985	132,663	0,036	-0,034
-366,971	-200,000	0,014	-0,090
-365,956	-70,092	0,083	0,023
-364,942	-138,480	0,059	-0,005
-363,927	26,747	-0,106	0,065
-362,912	287,005	-0,045	0,060
-361,898	-200,000	0,023	-0,105
-360,883	330,132	-0,092	-0,130
-359,869	-151,261	0,081	-0,004
-358,854	99,236	0,016	0,013
-357,839	-200,000	-0,000	0,005
-356,825	504,706	-0,053	0,091
-355,810	-31,346	-0,111	0,046
-354,796	441,375	-0,117	0,189
-353,781	-200,000	0,007	0,032
-352,766	-135,103	0,173	-0,015
-351,752	-92,715	0,073	-0,015
-350,737	-200,000	-0,002	-0,006
-349,723	29,794	0,105	-0,065
-348,708	320,696	-0,018	0,025
-347,693	800,000	0,046	0,130
-346,679	63,321	-0,039	-0,029
-345,664	81,209	-0,035	0,027
-344,650	177,282	-0,041	-0,044
-343,635	177,516	-0,051	-0,054
-342,620	455,768	0,058	0,094
-341,606	-116,988	-0,021	0,003
-340,591	800,000	0,053	-0,125
-339,577	175,597	-0,138	-0,147
-338,562	66,087	-0,094	-0,069
-337,548	-200,000	0,006	-0,116
-336,533	-200,000	-0,013	0,108
-335,518	800,000	0,016	-0,034
-334,504	250,935	0,123	0,154
-333,489	-200,000	0,001	-0,032
-332,475	-123,908	0,117	0,013
-331,460	33,993	-0,121	-0,077
-330,445	800,000	-0,028	0,059
-329,431	26,822	0,067	-0,041
-328,416	608,120	0,016	-0,029
-327,402	203,349	0,072	-0,081
-326,387	33,190	0,091	-0,058
-325,372	800,000	-0,074	-0,170
-324,358	-200,000	0,049	-0,202
-323,343	380,397	-0,044	0,066
-322,329	60,164	0,063	0,045
-321,314	-0,816	0,074	0,038
-320,299	-200,000	-0,000	-0,057
-319,285	245,208	-0,100	-0,123
-318,270	661,799	-0,033	-0,063
-317,256	307,738	0,023	0,032
-316,241	252,014	-0,045	0,056
-315,226	675,845	0,103	-0,197
-314,212	-103,489	-0,029	-0,005
-313,197	74,251	0,083	0,064
-312,183	131,772	0,136	-0,128
-311,168	180,370	0,045	-0,048
-310,153	-200,000	0,010	0,038
-309,139	10,178	-0,090	0,050
-308,124	-89,699	0,040	0,008
-307,110	-63,054	0,153	0,046
-306,095	-43,256	0,057	-0,021
-305,080	771,620	-0,065	0,130
-304,066	-200,000	0,001	-0,012
-303,051	43,285	0,124	-0,083
-302,037	139,034	0,087	-0,083
-301,022	24,327	0,085	-0,051
-300,008	653,605	0,035	0,065
-298,993	7,669	0,117	0,064
-297,978	-200,000	0,000	0,096
-296,964	159,470	-0,066	-0,067
-295,949	53,150	-0,098	-0,069
-294,935	-40,692	-0,065	-0,024
-293,920	238,058	0,057	-0,069
-292,905	-60,592	0,102	-0,031
-291,891	800,000	-0,076	0,221
-290,876	194,408	-0,078	0,087
-289,862	332,220	0,095	0,134
-288,847	-40,456	-0,097	0,037
-287,832	270,232	0,026	-0,034
-286,818	800,000	-0,036	0,087
-285,803	-126,137	0,075	-0,008
-284,789	172,427	0,020	0,021
-283,774	484,428	0,074	0,123
-282,759	800,000	0,050	0,158
-281,745	502,196	-0,022	-0,037
-280,730	95,378	-0,082	-0,069
-279,716	683,688	0,019	-0,037
-278,701	379,022	0,045	0,068
-277,686	478,512	0,061	-0,102
-276,672	308,267	0,087	0,119
-275,657	165,010	0,135	0,139
-274,643	-200,000	-0,031	-0,121
-273,628	-200,000	-0,008	-0,063
-272,613	800,000	-0,028	-0,067
-271,599	59,043	0,126	-0,091
-270,584	447,064	0,038	0,062
-269,570	2,125	0,021	-0,011
-268,555	-145,503	0,107	0,007
-267,540	-48,346	-0,089	0,031
-266,526	-172,396	-0,110	-0,003
-265,511	199,301	0,054	0,061
-264,497	-69,629	-0,154	0,043
-263,482	257,966	-0,093	0,117
-262,467	-179,698	-0,110	0,002
-261,453	538,326	0,018	-0,031
-260,438	220,496	0,019	-0,023
-259,424	271,700	0,065	-0,083
-258,409	299,416	-0,085	0,115
-257,395	214,573	-0,065	-0,076
-256,380	800,000	0,026	0,080
-255,365	-200,000	0,033	0,111
-254,351	-116,622	-0,045	0,006
-253,336	-60,213	-0,096	-0,030
-252,322	132,974	-0,123	-0,116
-251,307	-140,914	0,067	0,005
-250,292	36,391	-0,057	-0,037
-249,278	-60,759	0,116	0,036
-248,263	-63,635	0,030	0,009
-247,249	-36,233	0,082	0,032
-246,234	59,499	-0,136	-0,098
-245,219	800,000	-0,043	-0,122
-244,205	-200,000	0,013	-0,053
-243,190	476,635	-0,044	0,072
-242,176	-7,705	0,157	-0,077
-241,161	-40,583	0,091	0,034
-240,146	-74,243	-0,165	0,043
-239,132	800,000	0,033	-0,099
-238,117	800,000	0,037	0,096
-237,103	559,491	-0,068	0,120
-236,088	-200,000	0,044	-0,175
-235,073	76,151	-0,070	-0,054
-234,059	-200,000	0,009	-0,029
-233,044	382,243	0,027	0,041
-232,030	57,620	0,140	0,100
-231,015	9,305	-0,136	-0,075
-230,000	-200,000	0,040	-0,156
-228,986	117,789	0,076	-0,068
-227,971	800,000	0,022	0,069
-226,957	-35,101	0,100	0,040
-225,942	-29,475	-0,110	0,046
-224,927	-200,000	-0,001	0,049
-223,913	-11,291	-0,110	-0,053
-222,898	800,000	0,052	0,139
-221,884	371,139	0,077	0,114
-220,869	27,997	0,042	-0,026
-219,855	800,000	-0,045	-0,135
-218,840	279,121	0,045	0,059
-217,825	-200,000	0,016	0,056
-216,811	199,118	-0,038	-0,043
-215,796	137,930	-0,148	-0,142
-214,782	-135,288	0,100	-0,009
-213,767	-200,000	0,019	0,104
-212,752	-200,000	-0,013	-0,132
-211,738	-63,754	0,237	-0,070
-210,723	-113,225	0,133	-0,019
-209,709	-200,000	0,002	0,050
-208,694	422,999	-0,051	-0,080
-207,679	70,584	-0,088	0,067
-206,665	6,057	-0,020	-0,011
-205,650	131,738	-0,097	0,091
-204,636	-200,000	-0,008	0,043
-203,621	-85,766	0,126	0,028
-202,606	-75,731	-0,093	0,024
-201,592	-116,763	-0,173	0,023
-200,577	228,085	0,053	-0,063
-199,563	800,000	-0,006	0,015
-198,548	491,414	0,048	-0,080
-197,533	-27,221	0,078	0,033
-196,519	0,611	-0,188	0,098
-195,504	-180,136	-0,042	0,001
-194,490	167,183	-0,058	-0,060
-193,475	380,501	-0,040	0,060
-192,460	-115,702	-0,086	-0,012
-191,446	800,000	-0,038	-0,079
-190,431	-200,000	-0,007	-0,096
-189,417	-71,637	0,104	-0,028
-188,402	-116,893	-0,166	0,022
-187,387	70,739	-0,108	0,082
-186,373	-120,420	0,093	0,011
-185,358	-200,000	-0,009	0,074
-184,344	800,000	-0,103	0,213
-183,329	-200,000	0,040	0,186
-182,315	19,029	-0,091	-0,053
-181,300	-200,000	0,011	-0,124
-180,285	-200,000	0,002	-0,081
-179,271	-73,667	-0,041	0,011
-178,256	14,247	0,043	-0,024
-177,242	-8,190	-0,073	-0,035
-176,227	-200,000	0,031	0,109
-175,212	-48,052	0,148	-0,052
-174,198	248,781	-0,040	0,050
-173,183	748,479	0,048	0,095
-172,169	10,501	-0,099	-0,055
-171,154	286,817	-0,056	0,073
-170,139	-49,346	-0,100	0,035
-169,125	445,400	0,057	0,092
-168,110	0,535	0,109	0,056
-167,096	800,000	-0,032	-0,071
-166,081	37,865	-0,137	0,089
-165,066	322,082	-0,076	0,106
-164,052	759,769	0,047	-0,093
-163,037	-57,287	0,137	0,043
-162,023	-47,305	0,005	-0,002
-161,008	7,766	0,074	0,040
-159,993	169,826	0,108	0,112
-158,979	-57,895	-0,067	-0,021
-157,964	800,000	-0,052	0,123
-156,950	-91,325	-0,086	0,018
-155,935	-108,465	0,125	0,019
-154,920	263,720	0,135	0,171
-153,906	800,000	-0,045	0,145
-152,891	-200,000	0,005	0,071
-151,877	-152,698	0,060	-0,003
-150,862	296,459	-0,055	-0,074
-149,847	632,443	-0,097	-0,179
-148,833	-200,000	0,010	-0,218
-147,818	-200,000	-0,044	0,160
-146,804	515,841	0,099	-0,169
-145,789	-200,000	-0,021	-0,101
-144,775	-78,961	-0,114	0,028
-143,760	133,986	-0,108	-0,102
-142,745	98,971	0,023	0,019
-141,731	-98,086	0,134	0,025
-140,716	26,462	-0,106	0,064
-139,702	800,000	-0,013	-0,035
-138,687	200,671	-0,131	-0,146
-137,672	-200,000	-0,026	0,120
-136,658	138,904	0,122	-0,116
-135,643	-115,004	-0,114	0,016
-134,629	-200,000	-0,013	0,044
-133,614	541,492	0,071	-0,124
-132,599	655,695	0,057	0,106
-131,585	-50,255	-0,115	-0,039
-130,570	-21,704	-0,059	-0,026
-129,556	404,556	0,056	-0,087
-128,541	-200,000	0,002	-0,176
-127,526	728,190	0,059	-0,115
-126,512	-200,000	0,007	-0,040
-125,497	18,790	0,159	0,092
-124,483	-19,132	0,168	-0,075
-123,468	-153,340	0,034	0,002
-122,453	800,000	-0,092	-0,203
-121,439	11,517	-0,006	0,003
-120,424	98,029	-0,134	-0,112
-119,410	376,039	0,046	-0,068
-118,395	294,203	-0,050	0,066
