DTS Sentinel unit serial number:	SN410029Multiplexer serial number:	ORYXHardware model number:	OX2-SRSoftware version number:	ORYX F/W v4,00 Oryx Data Collector v3.7.2.0data status	okinstallation	B4 Nyhavnadifferential loss correction	single-endedforward channel	channel 2reverse channel	N/Adate	2023/12/16time	11:30:13forward acquisition time	300,00reverse acquisition time	0,00gamma	499,1914k internal	0,3126k external	0,3126temperature offset calibration	1,0000default loss term (dB/km)	0,3820temperature slope calibration	1,0000multiplexer offset coefficient	1,0000multiplexer slope coefficient	1,0000fibre end	0,00T internal ref (°C)	23,74T ext. ref 1 (°C)	9,60T ext. ref 2 (°C)	9,79length (m)	temperature (°C)	Stokes	anti-Stokes-744,400	-200,000	0,013	-0,095
-743,385	-130,031	-0,162	0,016
-742,371	-38,395	0,066	0,026
-741,356	511,825	-0,070	0,123
-740,342	461,035	-0,070	0,117
-739,327	19,400	-0,087	0,052
-738,312	319,534	-0,040	-0,057
-737,298	-148,270	-0,306	-0,018
-736,283	-59,532	0,125	-0,040
-735,269	-41,201	-0,160	0,061
-734,254	800,000	0,064	-0,151
-733,239	-137,833	-0,419	0,034
-732,225	29,502	-0,051	0,032
-731,210	265,032	0,071	0,092
-730,196	362,330	-0,018	0,026
-729,181	800,000	0,017	0,037
-728,167	-9,533	-0,073	-0,036
-727,152	69,821	-0,071	-0,054
-726,137	-104,833	-0,057	-0,010
-725,123	800,000	-0,045	-0,111
-724,108	62,081	-0,121	-0,090
-723,094	-200,000	-0,003	-0,152
-722,079	800,000	-0,047	-0,145
-721,064	-66,568	0,132	-0,039
-720,050	-71,152	-0,104	0,029
-719,035	-65,894	-0,064	-0,019
-718,021	270,867	-0,051	0,066
-717,006	-185,043	-0,094	-0,001
-715,991	312,767	-0,050	-0,070
-714,977	800,000	-0,028	-0,074
-713,962	-28,072	0,092	0,039
-712,948	-55,470	0,119	0,040
-711,933	-200,000	-0,007	0,024
-710,918	-200,000	0,017	-0,071
-709,904	23,908	-0,154	-0,094
-708,889	9,512	-0,116	-0,065
-707,875	215,429	0,046	0,055
-706,860	-9,255	0,080	0,040
-705,845	-200,000	0,005	0,072
-704,831	-200,000	0,010	0,051
-703,816	-170,753	-0,052	0,001
-702,802	-6,812	-0,123	-0,062
-701,787	-200,000	-0,019	0,088
-700,772	-200,000	0,014	-0,060
-699,758	267,718	0,087	-0,114
-698,743	-200,000	-0,008	-0,035
-697,729	338,957	0,056	0,081
-696,714	-37,274	-0,074	0,029
-695,699	-21,010	-0,101	-0,046
-694,685	-200,000	-0,019	-0,096
-693,670	-68,131	-0,112	-0,032
-692,656	-12,387	0,020	0,010
-691,641	800,000	-0,040	0,129
-690,627	227,351	0,055	0,067
-689,612	-30,452	0,097	0,041
-688,597	735,648	-0,026	0,053
-687,583	-27,200	-0,093	-0,040
-686,568	-45,090	0,023	0,009
-685,554	-90,826	-0,020	0,004
-684,539	-88,563	0,044	-0,010
-683,524	-90,379	-0,139	-0,030
-682,510	590,638	0,016	0,030
-681,495	629,914	-0,097	0,183
-680,481	132,809	-0,053	-0,051
-679,466	370,463	-0,088	-0,134
-678,451	-200,000	0,009	0,072
-677,437	109,306	-0,107	-0,095
-676,422	-21,732	-0,110	-0,050
-675,408	-200,000	0,002	-0,062
-674,393	-200,000	-0,006	0,025
-673,378	-12,660	0,032	-0,015
-672,364	381,317	-0,072	0,110
-671,349	-38,452	-0,151	-0,059
-670,335	-79,485	0,023	0,006
-669,320	166,745	-0,032	-0,034
-668,305	5,483	-0,043	0,024
-667,291	71,625	-0,098	0,076
-666,276	78,465	-0,097	0,077
-665,262	798,362	-0,073	-0,151
-664,247	800,000	-0,015	0,030
-663,232	-200,000	-0,032	-0,173
-662,218	-58,988	-0,216	-0,069
-661,203	211,607	-0,075	0,088
-660,189	87,144	-0,096	0,079
-659,174	800,000	-0,052	-0,121
-658,159	-200,000	-0,010	-0,071
-657,145	157,521	-0,087	-0,090
-656,130	242,734	0,018	0,022
-655,116	-74,944	0,058	-0,015
-654,101	321,003	0,078	0,111
-653,086	-182,658	-0,099	0,001
-652,072	101,428	0,062	-0,054
-651,057	-175,384	-0,055	0,001
-650,043	-200,000	-0,002	0,030
-649,028	-112,376	-0,093	-0,014
-648,014	800,000	0,060	-0,166
-646,999	489,613	-0,030	0,051
-645,984	-200,000	-0,009	0,063
-644,970	-200,000	-0,002	-0,048
-643,955	-200,000	0,007	-0,078
-642,941	49,494	-0,068	-0,047
-641,926	800,000	-0,026	0,067
-640,911	-121,475	-0,034	-0,004
-639,897	-2,828	0,097	0,050
-638,882	800,000	0,031	-0,080
-637,868	800,000	0,027	0,058
-636,853	-200,000	0,017	-0,059
-635,838	-55,462	-0,094	-0,031
-634,824	102,424	0,044	-0,038
-633,809	343,057	-0,079	0,115
-632,795	666,749	0,068	0,131
-631,780	434,849	-0,039	-0,063
-630,765	308,664	-0,072	0,100
-629,751	137,714	0,072	0,070
-628,736	800,000	-0,017	-0,040
-627,722	800,000	0,015	0,036
-626,707	-39,701	0,027	0,010
-625,692	111,239	0,073	0,065
-624,678	-104,082	-0,118	0,020
-623,663	8,852	-0,062	0,035
-622,649	40,861	0,017	-0,012
-621,634	749,077	0,074	-0,148
-620,619	800,000	0,020	0,045
-619,605	701,456	-0,039	-0,076
-618,590	-53,461	-0,043	-0,014
-617,576	110,668	-0,025	0,022
-616,561	-200,000	-0,007	0,078
-615,546	-200,000	0,001	0,025
-614,532	353,647	0,019	-0,028
-613,517	-48,130	-0,087	-0,031
-612,503	-200,000	0,029	0,155
-611,488	304,477	-0,022	-0,031
-610,474	30,537	0,007	-0,004
-609,459	-69,295	0,089	-0,025
-608,444	-200,000	-0,015	-0,132
-607,430	287,058	0,069	-0,093
-606,415	-200,000	-0,024	-0,096
-605,401	569,746	0,024	-0,043
-604,386	79,980	0,089	0,071
-603,371	-149,911	-0,085	-0,005
-602,357	-13,917	0,066	-0,031
-601,342	-200,000	0,001	-0,008
-600,328	41,265	-0,078	-0,052
-599,313	742,201	-0,033	-0,066
-598,298	-144,450	0,078	-0,005
-597,284	-200,000	0,007	0,109
-596,269	-117,915	0,050	-0,007
-595,255	9,396	-0,055	-0,031
-594,240	41,919	-0,099	0,066
-593,225	-148,084	-0,025	0,002
-592,211	-59,049	0,108	-0,034
-591,196	-200,000	0,011	0,108
-590,182	800,000	0,081	0,173
-589,167	52,177	0,063	0,044
-588,152	-200,000	-0,009	0,038
-587,138	-81,715	0,037	-0,009
-586,123	-15,452	-0,035	0,016
-585,109	800,000	-0,030	0,094
-584,094	-53,432	-0,077	-0,026
-583,079	-37,874	0,045	-0,018
-582,065	461,988	0,022	-0,037
-581,050	-157,380	0,047	-0,002
-580,036	-200,000	0,004	-0,143
-579,021	47,455	-0,054	-0,037
-578,006	181,894	-0,081	-0,088
-576,992	-99,779	-0,031	-0,006
-575,977	-200,000	0,005	0,037
-574,963	-28,413	0,109	0,046
-573,948	498,077	0,028	0,048
-572,934	-91,974	-0,072	-0,015
-571,919	96,746	-0,058	-0,049
-570,904	3,935	-0,083	-0,045
-569,890	68,828	-0,063	0,048
-568,875	800,000	-0,049	0,134
-567,861	-5,749	0,142	0,071
-566,846	10,455	0,046	-0,026
-565,831	-173,448	-0,060	0,001
-564,817	127,021	0,060	-0,056
-563,802	-200,000	-0,013	0,072
-562,788	-200,000	0,016	-0,058
-561,773	52,388	-0,050	-0,035
-560,758	-200,000	-0,009	0,100
-559,744	270,478	0,064	0,083
-558,729	-200,000	-0,028	0,129
-557,715	-115,184	-0,160	0,022
-556,700	-200,000	0,009	0,040
-555,685	800,000	-0,026	-0,061
-554,671	800,000	-0,038	-0,108
-553,656	254,751	0,114	-0,144
-552,642	-81,729	0,111	0,027
-551,627	800,000	0,027	0,067
-550,612	600,390	-0,069	0,128
-549,598	272,756	-0,064	-0,083
-548,583	-21,064	0,127	-0,057
-547,569	800,000	-0,038	0,101
-546,554	0,855	0,053	0,028
-545,539	-14,056	0,080	0,038
-544,525	-200,000	0,004	0,071
-543,510	-73,683	0,075	-0,020
-542,496	414,070	-0,032	-0,051
-541,481	-9,009	-0,132	-0,065
-540,466	-115,508	0,117	-0,016
-539,452	126,126	0,091	-0,085
-538,437	-127,982	0,020	0,002
-537,423	198,949	0,015	-0,017
-536,408	-83,608	0,152	-0,036
-535,393	-81,887	-0,148	-0,035
-534,379	84,808	-0,093	-0,075
-533,364	732,902	0,033	-0,066
-532,350	289,881	-0,034	-0,046
-531,335	141,488	0,050	0,049
-530,321	-133,664	-0,025	-0,002
-529,306	-71,611	-0,036	0,010
-528,291	-40,920	0,068	0,026
-527,277	-5,384	-0,137	-0,069
-526,262	-200,000	-0,006	-0,047
-525,248	-53,808	0,127	-0,043
-524,233	88,703	-0,025	0,020
-523,218	18,368	0,070	0,041
-522,204	-164,972	-0,077	-0,002
-521,189	78,382	0,142	-0,112
-520,175	408,487	0,070	0,109
-519,160	-200,000	-0,015	-0,056
-518,145	-101,245	-0,164	-0,029
-517,131	292,946	-0,048	0,065
-516,116	72,850	0,066	-0,051
-515,102	-200,000	0,011	0,066
-514,087	302,646	-0,142	-0,194
-513,072	-200,000	-0,001	-0,023
-512,058	40,790	-0,165	0,110
-511,043	-98,966	0,131	-0,024
-510,029	-31,795	0,031	0,013
-509,014	-200,000	0,006	0,167
-507,999	29,506	-0,088	0,055
-506,985	8,023	-0,091	0,050
-505,970	99,049	0,086	0,073
-504,956	-200,000	-0,021	-0,077
-503,941	-200,000	-0,025	0,091
-502,926	800,000	0,059	0,123
-501,912	-200,000	0,043	0,160
-500,897	77,299	-0,054	-0,042
-499,883	157,586	-0,053	-0,054
-498,868	-97,616	-0,167	-0,032
-497,853	-54,731	0,070	0,023
-496,839	34,896	-0,134	0,086
-495,824	-200,000	0,003	0,067
-494,810	-64,806	0,027	-0,008
-493,795	-112,893	0,114	-0,017
-492,781	232,017	0,028	0,034
-491,766	215,990	-0,085	-0,100
-490,751	-200,000	-0,013	-0,124
-489,737	800,000	-0,025	0,065
-488,722	-190,491	0,110	-0,001
-487,708	-200,000	-0,007	0,033
-486,693	800,000	0,009	0,029
-485,678	-118,893	0,056	-0,007
-484,664	355,380	-0,116	0,170
-483,649	-88,628	-0,058	0,013
-482,635	231,714	0,056	-0,068
-481,620	37,524	-0,028	0,018
-480,605	-44,370	-0,141	0,052
-479,591	56,743	0,032	0,023
-478,576	151,132	-0,060	-0,060
-477,562	126,201	0,091	-0,085
-476,547	200,522	-0,063	-0,071
-475,532	95,058	-0,061	0,051
-474,518	-14,647	0,086	0,041
-473,503	258,647	0,037	-0,047
-472,489	612,128	0,036	-0,066
-471,474	64,931	-0,050	0,037
-470,459	-200,000	0,037	-0,124
-469,445	-97,466	-0,113	-0,021
-468,430	-200,000	-0,002	-0,100
-467,416	327,763	0,040	-0,056
-466,401	-40,443	0,085	0,032
-465,386	-35,489	-0,063	-0,025
-464,372	22,560	-0,107	0,064
-463,357	159,789	-0,044	-0,045
-462,343	-200,000	0,016	-0,187
-461,328	355,822	-0,039	-0,057
-460,313	-200,000	-0,017	0,062
-459,299	-68,628	0,054	-0,015
-458,284	73,617	-0,117	0,090
-457,270	-200,000	-0,014	0,071
-456,255	-200,000	-0,007	-0,086
-455,241	-108,789	0,053	0,008
-454,226	-23,369	-0,183	0,081
-453,211	-200,000	-0,015	0,120
-452,197	16,473	0,194	-0,113
-451,182	-200,000	0,050	-0,218
-450,168	78,261	-0,098	0,077
-449,153	-200,000	0,023	0,153
-448,138	-174,114	-0,123	-0,003
-447,124	455,161	-0,043	-0,070
-446,109	313,740	0,074	0,103
-445,095	139,005	0,044	0,043
-444,080	47,592	0,042	0,029
-443,065	800,000	-0,037	0,112
-442,051	800,000	0,015	0,035
-441,036	-178,475	0,033	0,001
-440,022	1,873	-0,100	-0,053
-439,007	-107,663	0,028	0,004
-437,992	-200,000	-0,001	0,153
-436,978	-43,691	-0,041	-0,015
-435,963	800,000	0,021	-0,048
-434,949	8,566	-0,046	0,025
-433,934	-80,568	-0,033	-0,008
-432,919	40,936	-0,089	-0,059
-431,905	478,034	0,031	-0,051
-430,890	-200,000	-0,056	0,186
-429,876	-200,000	-0,011	0,111
-428,861	129,353	-0,029	0,027
-427,846	-200,000	-0,013	0,069
-426,832	-200,000	-0,012	-0,126
-425,817	800,000	0,010	0,023
-424,803	800,000	0,022	-0,045
-423,788	71,207	0,038	0,029
-422,773	466,989	0,043	-0,071
-421,759	547,305	-0,032	-0,056
-420,744	-43,930	0,053	-0,019
-419,730	570,864	-0,031	0,055
-418,715	800,000	-0,034	-0,088
-417,701	-146,376	-0,181	-0,011
-416,686	-200,000	-0,007	-0,048
-415,671	-53,629	0,075	-0,025
-414,657	-200,000	0,004	0,084
-413,642	261,607	-0,022	0,029
-412,628	-92,740	-0,114	0,023
-411,613	368,906	0,017	-0,025
-410,598	310,801	0,079	-0,110
-409,584	9,124	-0,063	-0,035
-408,569	800,000	-0,014	0,033
-407,555	-146,377	-0,077	0,005
-406,540	234,156	0,030	-0,036
-405,525	1,878	-0,130	0,068
-404,511	305,310	-0,028	-0,038
-403,496	-200,000	0,014	-0,084
-402,482	-200,000	0,004	-0,053
-401,467	25,511	-0,054	0,033
-400,452	-139,260	0,211	0,016
-399,438	780,150	-0,049	-0,099
-398,423	111,531	0,069	0,061
-397,409	74,384	-0,016	0,012
-396,394	-200,000	-0,032	-0,126
-395,379	-60,288	0,014	-0,004
-394,365	-200,000	-0,020	0,085
-393,350	328,796	0,079	-0,112
-392,336	131,122	-0,050	0,047
-391,321	-6,598	-0,079	-0,039
-390,306	-200,000	-0,012	-0,057
-389,292	-125,994	-0,118	-0,013
-388,277	800,000	0,039	-0,083
-387,263	-200,000	0,024	-0,124
-386,248	-39,810	-0,041	0,016
-385,233	800,000	-0,031	0,093
-384,219	87,499	-0,050	-0,041
-383,204	-131,195	0,103	-0,010
-382,190	81,009	-0,065	-0,052
-381,175	-200,000	0,004	-0,051
-380,160	-62,096	0,101	0,031
-379,146	-200,000	0,027	0,096
-378,131	254,463	0,070	-0,088
-377,117	746,042	-0,047	-0,094
-376,102	494,005	-0,115	-0,194
-375,088	192,236	0,073	-0,081
-374,073	195,396	-0,069	-0,077
-373,058	427,147	0,044	0,070
-372,044	41,626	-0,074	-0,049
-371,029	310,795	-0,027	-0,037
-370,015	800,000	-0,035	0,100
-369,000	-40,851	0,035	0,013
-367,985	35,566	-0,046	0,029
-366,971	800,000	-0,044	-0,120
-365,956	800,000	0,077	0,171
-364,942	-200,000	0,011	0,055
-363,927	118,605	-0,086	-0,078
-362,912	-4,823	-0,088	-0,045
-361,898	800,000	-0,027	-0,059
-360,883	-200,000	-0,020	-0,066
-359,869	739,668	-0,098	-0,193
-358,854	235,425	0,054	-0,065
-357,839	-15,080	0,012	-0,006
-356,825	-72,760	0,135	0,036
-355,810	205,560	-0,056	0,064
-354,796	78,787	0,104	0,081
-353,781	17,828	0,065	0,038
-352,766	-200,000	0,031	0,000
-351,752	-200,000	-0,002	-0,016
-350,737	-71,502	0,109	-0,030
-349,723	248,742	0,081	0,101
-348,708	-19,084	-0,045	-0,020
-347,693	-200,000	-0,037	-0,170
-346,679	246,459	-0,085	-0,106
-345,664	800,000	-0,052	-0,137
-344,650	-53,490	0,181	-0,060
-343,635	-200,000	-0,006	0,048
-342,620	547,539	-0,051	0,090
-341,606	99,977	0,018	0,015
-340,591	-130,014	0,054	0,005
-339,577	238,477	-0,012	-0,014
-338,562	548,335	0,062	0,109
-337,548	-173,920	0,061	-0,001
-336,533	-65,842	-0,022	0,006
-335,518	256,872	-0,046	0,058
-334,504	-200,000	0,007	-0,026
-333,489	80,149	0,045	-0,036
-332,475	-131,992	-0,041	-0,004
-331,460	-200,000	-0,002	-0,118
-330,445	-200,000	0,003	-0,076
-329,431	-200,000	0,003	-0,015
-328,416	-5,235	0,081	0,041
-327,402	385,883	-0,064	0,098
-326,387	-22,792	-0,061	0,027
-325,372	-200,000	0,027	-0,104
-324,358	800,000	0,014	-0,038
-323,343	-200,000	0,004	0,018
-322,329	161,652	0,053	0,055
-321,314	-200,000	-0,015	0,065
-320,299	156,387	0,053	-0,053
-319,285	-41,670	0,093	0,035
-318,270	47,064	-0,046	0,031
-317,256	-124,724	0,073	-0,008
-316,241	-56,461	0,071	-0,023
-315,226	36,366	0,015	-0,010
-314,212	-200,000	-0,030	0,167
-313,197	800,000	0,064	0,187
-312,183	-60,329	0,025	-0,008
-311,168	154,434	-0,035	-0,035
-310,153	14,423	-0,053	-0,030
-309,139	563,013	0,062	-0,110
-308,124	-200,000	0,004	-0,101
-307,110	312,271	0,051	-0,070
-306,095	-183,218	0,102	-0,001
-305,080	241,532	-0,068	0,083
-304,066	197,568	0,033	-0,037
-303,051	-200,000	0,009	-0,082
-302,037	-154,197	-0,158	0,008
-301,022	-200,000	0,013	-0,053
-300,008	5,976	0,153	0,083
-298,993	-127,183	-0,005	0,001
-297,978	110,769	-0,074	0,065
-296,964	61,248	-0,151	0,110
-295,949	152,562	-0,057	0,057
-294,935	75,053	-0,079	0,061
-293,920	-51,848	0,042	0,014
-292,905	800,000	0,046	-0,130
-291,891	-200,000	0,008	0,037
-290,876	-132,333	-0,061	0,006
-289,862	212,394	0,071	-0,082
-288,847	-74,382	-0,125	0,033
-287,832	-200,000	-0,010	0,069
-286,818	-64,334	0,046	-0,014
-285,803	800,000	-0,039	0,089
-284,789	-200,000	0,033	0,131
-283,774	-39,953	-0,040	0,015
-282,759	-112,450	-0,076	0,011
-281,745	-200,000	0,015	-0,099
-280,730	121,163	-0,149	-0,135
-279,716	136,961	-0,041	0,040
-278,701	389,239	0,067	0,103
-277,686	-200,000	-0,007	0,124
-276,672	-73,277	0,063	-0,017
-275,657	-66,219	-0,062	-0,018
-274,643	-200,000	0,011	-0,043
-273,628	730,550	0,013	-0,025
-272,613	475,270	-0,019	-0,031
-271,599	-20,742	0,096	-0,043
-270,584	-200,000	-0,004	-0,024
-269,570	-36,012	0,171	-0,067
-268,555	141,892	-0,049	0,048
-267,540	192,945	0,019	0,021
-266,526	-200,000	-0,018	-0,070
-265,511	-123,738	-0,130	0,015
-264,497	271,612	0,041	0,053
-263,482	-200,000	0,006	0,072
-262,467	-200,000	-0,010	-0,078
-261,453	800,000	0,071	-0,159
-260,438	43,354	-0,036	-0,024
-259,424	29,938	-0,122	0,076
-258,409	800,000	-0,057	-0,116
-257,395	498,430	-0,038	-0,064
-256,380	800,000	0,012	-0,029
-255,365	66,769	0,053	0,039
-254,351	306,375	0,045	0,062
-253,336	91,463	-0,144	-0,118
-252,322	135,967	0,091	-0,086
-251,307	68,684	-0,058	0,044
-250,292	-200,000	-0,006	0,081
-249,278	-98,379	0,122	0,023
-248,263	-200,000	0,035	0,151
-247,249	-200,000	-0,004	0,037
-246,234	800,000	0,042	0,092
-245,219	58,407	-0,037	0,027
-244,205	800,000	0,035	0,085
-243,190	-42,523	-0,005	0,002
-242,176	89,012	0,019	0,015
-241,161	112,907	0,018	0,016
-240,146	-57,559	0,036	0,011
-239,132	-60,846	-0,104	0,032
-238,117	-129,892	0,071	0,007
-237,103	800,000	0,029	0,085
-236,088	236,215	0,065	0,078
-235,073	54,751	0,105	0,074
-234,059	-24,634	0,017	-0,007
-233,044	-181,418	0,046	-0,001
-232,030	10,966	0,035	-0,020
-231,015	319,707	-0,031	-0,042
-230,000	800,000	0,023	-0,049
-228,986	-200,000	0,002	-0,030
-227,971	473,254	0,055	-0,091
-226,957	-116,302	0,047	-0,006
-225,942	373,711	-0,035	0,052
-224,927	676,546	-0,033	-0,063
-223,913	653,107	0,062	0,117
-222,898	-6,145	-0,098	0,048
-221,884	-145,806	0,079	-0,005
-220,869	-200,000	-0,016	0,117
-219,855	488,635	-0,058	0,097
-218,840	-200,000	-0,018	-0,090
-217,825	-200,000	0,043	-0,150
-216,811	167,867	-0,056	0,059
-215,796	761,321	-0,037	-0,073
-214,782	-106,619	-0,202	0,033
-213,767	224,519	0,037	-0,044
-212,752	-200,000	0,020	0,095
-211,738	800,000	-0,021	0,053
-210,723	197,455	-0,070	0,078
-209,709	170,484	-0,014	-0,015
-208,694	-134,562	0,061	-0,005
-207,679	29,268	-0,084	0,052
-206,665	-84,852	0,161	-0,037
-205,650	62,981	-0,083	0,060
-204,636	252,599	0,061	0,076
-203,621	317,109	-0,030	-0,042
-202,606	76,956	0,065	0,050
-201,592	7,534	0,080	0,044
-200,577	-102,379	-0,145	0,025
-199,563	444,986	0,070	-0,112
-198,548	0,066	-0,105	-0,054
-197,533	143,345	0,093	0,090
-196,519	800,000	-0,021	0,066
-195,504	-200,000	-0,009	0,049
-194,490	-122,334	0,153	0,018
-193,475	17,078	-0,037	-0,021
-192,460	48,330	-0,049	-0,033
-191,446	140,713	-0,041	-0,040
-190,431	300,331	0,018	-0,025
-189,417	800,000	0,027	0,069
-188,402	-48,180	0,038	-0,013
-187,387	-200,000	0,002	-0,025
-186,373	771,784	0,082	-0,164
-185,358	800,000	-0,043	-0,104
-184,344	-144,069	0,143	0,010
-183,329	800,000	0,030	0,060
-182,315	293,745	0,027	-0,036
-181,300	8,830	-0,079	0,043
-180,285	800,000	-0,015	-0,046
-179,271	-92,226	-0,111	0,023
-178,256	-43,378	0,090	0,033
-177,242	800,000	0,049	-0,107
-176,227	44,639	0,149	0,100
-175,212	67,262	0,022	-0,017
-174,198	32,405	0,064	0,040
-173,183	-200,000	-0,015	0,137
-172,169	800,000	0,032	-0,096
-171,154	800,000	0,022	0,061
-170,139	-64,308	0,148	-0,044
-169,125	142,103	-0,128	0,124
-168,110	-76,832	0,171	0,043
-167,096	-200,000	-0,009	-0,106
-166,081	-200,000	-0,008	-0,031
-165,066	56,519	0,039	0,028
-164,052	-112,556	0,053	0,008
-163,037	-119,739	0,139	-0,017
-162,023	800,000	-0,052	-0,119
-161,008	-106,738	0,122	0,020
-159,993	197,129	-0,051	0,057
-158,979	375,662	-0,093	0,139
-157,964	-200,000	-0,003	0,077
-156,950	800,000	-0,070	-0,168
-155,935	-200,000	0,018	-0,171
-154,920	49,878	0,184	0,126
-153,906	800,000	-0,040	0,082
-152,891	-112,241	0,063	0,009
-151,877	800,000	-0,010	0,021
-150,862	58,586	0,104	0,074
-149,847	-200,000	-0,023	0,089
-148,833	24,768	-0,125	0,075
-147,818	-155,334	0,144	-0,007
-146,804	121,111	0,044	0,039
-145,789	35,037	0,035	0,022
-144,775	697,951	-0,027	0,052
-143,760	146,637	-0,025	-0,024
-142,745	78,725	0,045	-0,035
-141,731	-200,000	0,012	-0,074
-140,716	-104,459	-0,073	-0,012
-139,702	-200,000	0,003	-0,026
-138,687	200,619	-0,078	-0,088
-137,672	800,000	0,026	-0,076
-136,658	-200,000	-0,004	-0,029
-135,643	-200,000	-0,032	-0,137
-134,629	-200,000	-0,000	-0,146
-133,614	52,818	0,105	-0,073
-132,599	-100,275	0,070	-0,013
-131,585	69,555	0,149	0,112
-130,570	223,405	-0,041	-0,049
-129,556	-15,362	0,038	0,018
-128,541	511,452	0,055	-0,093
-127,526	0,682	0,109	-0,057
-126,512	448,973	-0,037	-0,060
-125,497	-104,359	0,219	-0,036
-124,483	800,000	-0,035	0,083
-123,468	303,439	-0,052	0,070
-122,453	24,882	-0,044	0,026
-121,439	800,000	0,068	-0,137
-120,424	-115,500	-0,111	0,015
-119,410	34,453	0,071	-0,045
-118,395	502,187	0,029	-0,049
