DTS Sentinel unit serial number:	SN410029Multiplexer serial number:	ORYXHardware model number:	OX2-SRSoftware version number:	ORYX F/W v4,00 Oryx Data Collector v3.7.2.0data status	okinstallation	B4 Nyhavnadifferential loss correction	single-endedforward channel	channel 2reverse channel	N/Adate	2023/12/18time	17:20:13forward acquisition time	300,00reverse acquisition time	0,00gamma	499,1914k internal	0,3125k external	0,3125temperature offset calibration	1,0000default loss term (dB/km)	0,3820temperature slope calibration	1,0000multiplexer offset coefficient	1,0000multiplexer slope coefficient	1,0000fibre end	0,00T internal ref (°C)	21,62T ext. ref 1 (°C)	7,24T ext. ref 2 (°C)	7,27length (m)	temperature (°C)	Stokes	anti-Stokes-744,400	-200,000	-0,015	-0,068
-743,385	-102,435	-0,254	0,045
-742,371	-102,352	0,006	0,001
-741,356	800,000	-0,063	0,190
-740,342	53,857	-0,051	-0,037
-739,327	-25,036	-0,186	0,082
-738,312	-99,422	-0,125	-0,023
-737,298	160,380	-0,182	0,190
-736,283	-200,000	-0,029	-0,114
-735,269	22,428	-0,124	0,075
-734,254	54,151	-0,082	-0,059
-733,239	-21,215	-0,361	0,163
-732,225	-67,975	0,167	-0,048
-731,210	800,000	0,030	0,068
-730,196	272,234	-0,028	0,037
-729,181	59,838	-0,049	-0,036
-728,167	239,072	0,048	0,059
-727,152	-156,661	0,029	-0,001
-726,137	800,000	0,034	0,107
-725,123	-122,428	-0,096	-0,012
-724,108	-104,939	-0,120	-0,020
-723,094	-43,291	-0,282	-0,106
-722,079	-33,397	-0,048	0,020
-721,064	88,065	-0,059	-0,048
-720,050	-200,000	-0,006	-0,088
-719,035	-80,883	0,080	0,020
-718,021	-128,146	-0,048	0,005
-717,006	135,950	0,040	-0,039
-715,991	192,574	-0,111	-0,125
-714,977	257,802	-0,138	-0,177
-713,962	800,000	-0,043	-0,120
-712,948	-90,920	0,095	0,020
-711,933	-63,978	-0,133	0,040
-710,918	389,940	-0,044	0,068
-709,904	303,903	-0,128	-0,178
-708,889	-200,000	-0,002	-0,168
-707,875	-200,000	0,032	-0,158
-706,860	-21,216	0,128	-0,058
-705,845	136,480	0,162	-0,157
-704,831	97,465	-0,098	-0,083
-703,816	-85,200	0,017	-0,004
-702,802	800,000	0,023	-0,074
-701,787	56,624	-0,024	-0,017
-700,772	-200,000	0,003	0,060
-699,758	1,482	0,199	-0,106
-698,743	227,010	0,046	-0,056
-697,729	-111,634	0,193	0,029
-696,714	-78,589	0,080	0,020
-695,699	-200,000	0,036	-0,167
-694,685	-34,361	0,079	-0,032
-693,670	800,000	0,014	-0,037
-692,656	-200,000	0,016	0,059
-691,641	104,671	-0,010	-0,009
-690,627	800,000	-0,032	0,081
-689,612	69,243	0,109	-0,083
-688,597	-200,000	-0,021	-0,096
-687,583	110,688	-0,105	-0,094
-686,568	216,946	-0,039	-0,046
-685,554	800,000	-0,050	-0,104
-684,539	-23,220	-0,013	0,006
-683,524	632,490	0,066	0,125
-682,510	180,555	0,008	0,009
-681,495	91,771	0,068	0,057
-680,481	-142,387	-0,240	0,017
-679,466	800,000	0,031	-0,069
-678,451	722,672	-0,040	0,080
-677,437	-115,505	0,064	0,009
-676,422	51,246	0,134	0,095
-675,408	-3,521	0,103	-0,053
-674,393	-101,017	0,094	-0,017
-673,378	-86,395	-0,146	-0,033
-672,364	178,852	0,064	-0,070
-671,349	-200,000	-0,042	-0,171
-670,335	183,269	-0,025	0,028
-669,320	-3,138	0,136	0,070
-668,305	138,628	-0,080	-0,078
-667,291	123,207	-0,026	-0,024
-666,276	477,360	0,054	0,091
-665,262	269,825	-0,065	-0,086
-664,247	800,000	-0,061	-0,146
-663,232	592,722	-0,048	-0,088
-662,218	220,893	-0,024	0,029
-661,203	297,293	-0,004	0,005
-660,189	10,191	-0,035	0,020
-659,174	366,352	0,078	-0,117
-658,159	-200,000	0,010	-0,040
-657,145	-200,000	0,025	-0,085
-656,130	93,091	-0,060	-0,051
-655,116	-118,790	-0,051	-0,007
-654,101	-200,000	0,013	-0,061
-653,086	37,141	0,065	0,043
-652,072	494,960	-0,044	-0,075
-651,057	1,413	-0,128	-0,068
-650,043	-149,352	0,143	-0,008
-649,028	77,532	-0,089	-0,070
-648,014	9,720	0,047	0,026
-646,999	-116,723	0,073	0,010
-645,984	-134,519	-0,104	0,009
-644,970	463,881	-0,038	0,063
-643,955	800,000	0,067	-0,148
-642,941	316,306	0,037	-0,052
-641,926	-200,000	0,010	0,047
-640,911	800,000	-0,058	0,129
-639,897	-34,497	-0,050	0,020
-638,882	-66,088	0,028	0,008
-637,868	800,000	-0,054	-0,132
-636,853	-75,667	0,089	-0,023
-635,838	800,000	-0,028	0,061
-634,824	-25,064	-0,147	0,064
-633,809	800,000	-0,011	-0,030
-632,795	-127,538	0,094	-0,010
-631,780	704,271	0,020	-0,038
-630,765	79,697	-0,059	-0,047
-629,751	-13,284	-0,042	-0,020
-628,736	43,724	-0,070	-0,048
-627,722	158,239	0,032	-0,033
-626,707	-200,000	0,020	0,082
-625,692	-200,000	0,011	0,118
-624,678	420,878	-0,038	0,061
-623,663	116,574	-0,124	0,113
-622,649	-200,000	-0,008	0,042
-621,634	-200,000	-0,006	-0,041
-620,619	577,209	-0,038	-0,069
-619,605	-200,000	0,012	0,114
-618,590	240,354	0,020	0,025
-617,576	-80,589	-0,075	-0,018
-616,561	-64,791	0,133	-0,040
-615,546	800,000	-0,043	0,104
-614,532	800,000	-0,038	-0,106
-613,517	-200,000	-0,022	-0,083
-612,503	39,434	0,067	0,044
-611,488	25,333	0,073	-0,045
-610,474	-98,251	0,170	-0,032
-609,459	60,801	-0,127	0,093
-608,444	-200,000	-0,012	0,087
-607,430	-200,000	-0,009	-0,045
-606,415	-109,051	-0,065	0,010
-605,401	14,641	-0,096	0,055
-604,386	130,409	0,042	-0,040
-603,371	-121,170	0,064	0,008
-602,357	349,483	-0,045	-0,066
-601,342	145,087	-0,049	0,049
-600,328	66,245	-0,089	-0,067
-599,313	-2,079	0,040	0,021
-598,298	669,593	0,040	-0,078
-597,284	-200,000	-0,028	-0,170
-596,269	427,372	0,036	-0,057
-595,255	136,780	0,061	-0,059
-594,240	35,476	-0,144	-0,094
-593,225	800,000	0,033	0,080
-592,211	800,000	-0,005	-0,014
-591,196	-83,018	-0,073	-0,017
-590,182	-72,909	-0,105	-0,028
-589,167	103,728	0,064	-0,055
-588,152	-25,637	0,137	0,060
-587,138	-136,537	-0,088	0,007
-586,123	114,907	-0,094	-0,085
-585,109	-133,576	-0,104	-0,009
-584,094	-89,880	0,058	0,012
-583,079	158,288	-0,043	0,045
-582,065	-154,375	0,076	0,004
-581,050	175,820	-0,032	-0,034
-580,036	254,388	-0,076	-0,097
-579,021	-29,734	-0,157	-0,066
-578,006	-103,152	0,100	0,017
-576,992	-200,000	-0,013	-0,076
-575,977	-5,832	-0,088	0,045
-574,963	-48,428	-0,073	-0,026
-573,948	-79,801	-0,092	0,023
-572,934	48,373	0,079	0,055
-571,919	-200,000	0,007	-0,145
-570,904	-200,000	0,009	-0,035
-569,890	-94,067	-0,133	-0,027
-568,875	-200,000	-0,019	-0,089
-567,861	-200,000	0,002	-0,174
-566,846	104,010	-0,083	0,073
-565,831	-200,000	-0,009	-0,052
-564,817	62,026	0,048	-0,035
-563,802	-200,000	-0,027	-0,157
-562,788	301,246	0,107	-0,147
-561,773	-200,000	0,026	-0,087
-560,758	-59,669	0,101	0,032
-559,744	800,000	-0,008	0,025
-558,729	379,744	0,039	0,060
-557,715	31,218	-0,062	0,039
-556,700	642,357	0,033	0,063
-555,685	30,095	-0,056	-0,035
-554,671	670,056	-0,032	0,061
-553,656	-200,000	-0,018	0,125
-552,642	-200,000	-0,040	0,147
-551,627	-127,499	-0,012	0,001
-550,612	382,005	-0,098	-0,150
-549,598	800,000	-0,058	-0,130
-548,583	-63,082	-0,097	0,029
-547,569	24,063	-0,041	-0,025
-546,554	509,048	-0,032	0,056
-545,539	800,000	0,024	-0,062
-544,525	-200,000	0,007	0,041
-543,510	90,872	-0,064	-0,053
-542,496	9,870	0,110	0,062
-541,481	684,233	0,035	0,068
-540,466	171,879	-0,055	-0,059
-539,452	121,955	-0,027	-0,025
-538,437	102,106	0,109	-0,094
-537,423	83,923	0,143	-0,115
-536,408	-4,874	0,121	0,062
-535,393	-200,000	0,016	0,067
-534,379	331,547	0,086	-0,123
-533,364	306,818	0,046	-0,064
-532,350	-62,917	-0,120	-0,036
-531,335	133,916	-0,052	-0,049
-530,321	800,000	0,026	-0,080
-529,306	-12,811	0,039	0,019
-528,291	-90,179	-0,065	0,014
-527,277	-107,749	-0,131	-0,021
-526,262	255,312	0,052	-0,066
-525,248	-200,000	0,010	0,101
-524,233	-74,828	0,181	0,048
-523,218	-200,000	-0,001	0,061
-522,204	131,319	0,043	0,040
-521,189	-153,389	0,112	-0,006
-520,175	182,995	-0,081	-0,089
-519,160	-127,441	0,085	-0,009
-518,145	-26,679	0,031	-0,013
-517,131	160,561	0,023	0,023
-516,116	-200,000	0,013	0,117
-515,102	9,044	0,037	0,020
-514,087	-46,222	0,146	-0,053
-513,072	-167,216	-0,079	0,002
-512,058	-200,000	-0,021	-0,068
-511,043	800,000	0,050	0,162
-510,029	772,080	0,019	0,038
-509,014	268,231	0,050	-0,065
-507,999	270,888	-0,012	-0,016
-506,985	62,268	0,067	-0,049
-505,970	61,304	-0,060	-0,044
-504,956	800,000	0,017	-0,036
-503,941	134,853	0,063	-0,061
-502,926	207,750	0,005	0,006
-501,912	-141,113	-0,058	0,004
-500,897	-166,710	-0,042	0,001
-499,883	144,197	-0,013	0,013
-498,868	-138,066	0,098	0,008
-497,853	-74,358	-0,095	-0,025
-496,839	232,765	0,025	0,030
-495,824	-97,192	-0,042	0,008
-494,810	542,535	-0,043	0,076
-493,795	-73,483	0,171	0,046
-492,781	326,307	-0,054	-0,077
-491,766	344,151	0,026	0,037
-490,751	44,639	0,039	-0,027
-489,737	530,941	0,044	-0,077
-488,722	-200,000	0,011	0,050
-487,708	-200,000	0,014	-0,077
-486,693	-200,000	0,007	0,058
-485,678	-82,091	-0,087	-0,021
-484,664	61,189	0,061	0,045
-483,649	800,000	0,022	0,045
-482,635	143,435	-0,034	-0,033
-481,620	-107,016	0,089	-0,014
-480,605	387,995	-0,024	0,036
-479,591	-153,207	0,051	0,003
-478,576	30,689	0,057	-0,036
-477,562	-200,000	0,019	0,064
-476,547	-172,521	-0,159	0,004
-475,532	18,466	0,137	0,080
-474,518	-120,531	0,072	-0,009
-473,503	21,567	0,109	-0,065
-472,489	-16,211	0,241	0,112
-471,474	102,926	-0,098	0,084
-470,459	800,000	-0,037	-0,106
-469,445	310,500	0,069	0,096
-468,430	-200,000	0,017	0,079
-467,416	-200,000	0,006	-0,043
-466,401	800,000	-0,030	0,086
-465,386	-109,561	0,081	-0,012
-464,372	-200,000	-0,028	0,097
-463,357	113,316	-0,128	0,115
-462,343	12,496	0,043	0,024
-461,328	31,244	-0,007	0,004
-460,313	212,249	0,064	-0,075
-459,299	-99,965	0,150	0,027
-458,284	-200,000	-0,007	-0,028
-457,270	440,224	-0,047	0,077
-456,255	-14,450	-0,054	0,026
-455,241	73,592	-0,106	-0,082
-454,226	-140,674	-0,155	0,012
-453,211	-200,000	-0,006	-0,090
-452,197	800,000	-0,060	0,141
-451,182	-16,104	0,172	0,080
-450,168	134,512	-0,096	0,092
-449,153	259,478	0,056	0,072
-448,138	-101,544	0,131	0,023
-447,124	-200,000	-0,003	0,047
-446,109	-57,044	0,036	-0,012
-445,095	55,873	0,029	0,021
-444,080	-200,000	0,026	-0,088
-443,065	-200,000	-0,012	0,094
-442,051	191,913	0,072	-0,080
-441,036	709,247	0,057	-0,111
-440,022	800,000	0,025	-0,063
-439,007	178,048	-0,130	-0,139
-437,992	800,000	0,034	0,109
-436,978	800,000	0,050	0,158
-435,963	-200,000	-0,014	0,064
-434,949	-200,000	0,023	-0,132
-433,934	45,828	-0,128	0,087
-432,919	241,545	-0,050	-0,062
-431,905	-200,000	0,001	0,018
-430,890	800,000	0,043	0,128
-429,876	-200,000	0,015	0,064
-428,861	-71,479	0,107	0,029
-427,846	377,200	0,021	0,032
-426,832	-200,000	-0,021	-0,153
-425,817	12,408	0,113	-0,064
-424,803	395,368	-0,047	0,072
-423,788	-200,000	0,018	0,074
-422,773	123,231	-0,029	0,027
-421,759	170,561	0,063	0,066
-420,744	-200,000	-0,002	-0,008
-419,730	-200,000	0,009	-0,287
-418,715	-27,866	-0,157	-0,067
-417,701	-121,003	0,114	0,014
-416,686	109,230	0,103	-0,091
-415,671	800,000	0,033	0,089
-414,657	112,929	0,115	0,103
-413,642	360,943	-0,032	-0,047
-412,628	349,458	-0,003	0,005
-411,613	185,697	-0,091	-0,100
-410,598	67,232	-0,111	-0,083
-409,584	-54,964	0,016	-0,005
-408,569	658,173	0,021	0,039
-407,555	739,411	0,091	0,180
-406,540	454,081	-0,098	0,161
-405,525	-155,946	-0,060	0,003
-404,511	-200,000	0,007	-0,051
-403,496	-113,064	-0,019	0,003
-402,482	-167,684	-0,061	0,002
-401,467	800,000	-0,058	0,146
-400,452	-200,000	0,049	0,192
-399,438	15,150	0,131	0,075
-398,423	-58,103	-0,184	0,059
-397,409	-200,000	0,002	-0,120
-396,394	800,000	0,014	0,031
-395,379	-200,000	-0,004	-0,051
-394,365	162,038	0,106	0,109
-393,350	3,445	0,154	0,082
-392,336	343,326	0,082	0,118
-391,321	-200,000	-0,037	0,119
-390,306	-200,000	-0,022	-0,090
-389,292	-200,000	-0,013	0,148
-388,277	-54,766	-0,091	0,030
-387,263	-72,137	0,137	0,037
-386,248	101,407	0,118	0,101
-385,233	-21,764	-0,103	0,046
-384,219	-200,000	0,010	-0,066
-383,204	-53,875	-0,052	-0,017
-382,190	-152,644	0,132	-0,007
-381,175	33,989	0,062	-0,040
-380,160	424,760	0,051	-0,081
-379,146	393,522	0,100	0,153
-378,131	-114,933	0,033	0,005
-377,117	96,432	-0,093	0,078
-376,102	790,738	-0,032	0,065
-375,088	-41,766	-0,168	0,063
-374,073	800,000	0,020	-0,052
-373,058	-200,000	-0,006	0,095
-372,044	-27,912	-0,118	0,050
-371,029	267,360	-0,039	0,050
-370,015	135,172	0,036	-0,034
-369,000	-113,595	-0,095	-0,013
-367,985	189,445	-0,063	-0,069
-366,971	581,251	-0,032	-0,057
-365,956	75,322	0,025	0,019
-364,942	-200,000	0,027	0,111
-363,927	800,000	0,062	0,195
-362,912	-146,050	-0,011	-0,001
-361,898	-200,000	0,012	0,116
-360,883	358,290	0,023	0,034
-359,869	-200,000	0,024	-0,085
-358,854	-116,261	0,094	0,013
-357,839	-157,958	0,064	0,003
-356,825	42,114	0,076	0,050
-355,810	-200,000	-0,031	0,149
-354,796	-163,435	-0,150	0,005
-353,781	-81,662	0,032	0,008
-352,766	-53,849	-0,015	0,005
-351,752	596,342	0,028	0,052
-350,737	-98,986	0,101	0,019
-349,723	-200,000	-0,011	0,076
-348,708	-200,000	-0,007	-0,036
-347,693	259,866	-0,030	-0,038
-346,679	192,214	-0,097	0,107
-345,664	-46,279	0,098	0,035
-344,650	-15,061	0,052	0,024
-343,635	-200,000	-0,019	-0,095
-342,620	13,928	0,166	0,094
-341,606	-127,196	0,112	0,012
-340,591	-33,004	-0,081	0,033
-339,577	583,089	-0,033	0,060
-338,562	-139,116	0,120	0,009
-337,548	73,595	0,007	0,006
-336,533	-110,893	-0,045	0,007
-335,518	800,000	0,017	0,048
-334,504	178,145	-0,050	0,053
-333,489	-200,000	0,008	-0,102
-332,475	59,984	0,112	0,081
-331,460	800,000	-0,052	-0,152
-330,445	203,824	-0,061	0,069
-329,431	162,838	0,101	0,104
-328,416	800,000	0,050	0,127
-327,402	3,452	-0,028	-0,015
-326,387	148,278	0,049	-0,048
-325,372	-200,000	0,015	-0,055
-324,358	-104,989	0,072	0,012
-323,343	2,735	-0,110	-0,059
-322,329	358,820	-0,048	-0,071
-321,314	559,741	0,008	0,015
-320,299	98,941	-0,112	0,094
-319,285	-53,731	-0,079	0,026
-318,270	-128,339	-0,081	-0,008
-317,256	800,000	-0,076	0,157
-316,241	-200,000	-0,010	-0,053
-315,226	-53,770	-0,101	0,033
-314,212	687,336	0,097	0,186
-313,197	-200,000	-0,016	0,115
-312,183	230,628	-0,087	0,105
-311,168	800,000	0,041	0,085
-310,153	-82,843	-0,159	-0,037
-309,139	296,890	0,027	-0,036
-308,124	-200,000	0,009	-0,081
-307,110	368,172	0,022	0,033
-306,095	-82,634	0,054	-0,013
-305,080	70,393	0,074	0,056
-304,066	466,596	-0,062	-0,102
-303,051	-39,096	0,052	-0,020
-302,037	800,000	-0,035	-0,081
-301,022	252,990	0,033	-0,041
-300,008	-80,897	0,059	0,014
-298,993	-200,000	-0,008	0,041
-297,978	-108,129	0,161	0,025
-296,964	-75,597	-0,071	-0,018
-295,949	-200,000	-0,009	-0,128
-294,935	-200,000	-0,024	-0,090
-293,920	-97,841	-0,072	-0,013
-292,905	-200,000	0,023	0,158
-291,891	-200,000	0,020	-0,090
-290,876	-80,924	0,058	0,014
-289,862	95,105	0,026	-0,021
-288,847	-200,000	-0,026	-0,159
-287,832	7,350	-0,029	-0,016
-286,818	208,093	-0,125	0,143
-285,803	110,030	0,124	0,108
-284,789	800,000	0,019	0,057
-283,774	-16,801	0,079	-0,036
-282,759	-98,401	0,055	-0,010
-281,745	-200,000	0,003	-0,169
-280,730	-200,000	0,004	-0,054
-279,716	192,840	0,006	-0,006
-278,701	695,250	0,037	0,071
-277,686	-93,825	0,105	-0,021
-276,672	121,578	-0,013	-0,012
-275,657	-105,505	-0,206	0,034
-274,643	-122,947	-0,057	-0,007
-273,628	800,000	-0,037	0,090
-272,613	202,539	0,027	-0,031
-271,599	-200,000	-0,019	-0,073
-270,584	-200,000	0,008	-0,040
-269,570	-106,229	0,089	0,014
-268,555	800,000	-0,021	0,053
-267,540	800,000	0,021	-0,047
-266,526	41,408	-0,026	0,017
-265,511	-112,929	0,053	-0,008
-264,497	271,192	0,116	-0,150
-263,482	239,826	-0,036	0,043
-262,467	800,000	0,046	0,111
-261,453	10,701	0,067	0,037
-260,438	-92,023	0,075	-0,015
-259,424	-200,000	0,003	0,093
-258,409	272,214	-0,106	-0,138
-257,395	13,000	0,100	-0,057
-256,380	-19,211	-0,136	0,061
-255,365	55,076	0,051	0,036
-254,351	308,457	-0,064	-0,088
-253,336	72,936	-0,048	-0,037
-252,322	75,880	-0,059	-0,046
-251,307	800,000	0,047	-0,145
-250,292	-42,666	0,103	-0,038
-249,278	800,000	-0,014	-0,028
-248,263	219,290	0,111	-0,130
-247,249	269,699	-0,032	0,041
-246,234	800,000	0,038	-0,094
-245,219	-75,446	-0,101	-0,026
-244,205	740,463	0,065	0,127
-243,190	492,846	-0,022	0,037
-242,176	-67,439	0,030	-0,009
-241,161	-71,098	0,015	-0,004
-240,146	-159,900	-0,077	0,003
-239,132	-56,633	0,045	-0,014
-238,117	-109,714	-0,150	0,023
-237,103	-111,742	-0,062	0,009
-236,088	87,521	0,079	-0,064
-235,073	-200,000	-0,000	0,035
-234,059	-200,000	-0,016	-0,071
-233,044	-29,625	-0,137	0,057
-232,030	29,446	0,111	0,069
-231,015	310,633	-0,048	-0,066
-230,000	220,626	0,036	-0,042
-228,986	800,000	0,030	-0,081
-227,971	46,650	0,028	0,019
-226,957	-200,000	0,019	0,081
-225,942	481,389	0,063	-0,105
-224,927	-8,805	0,027	-0,013
-223,913	-169,169	0,114	0,003
-222,898	195,997	0,011	-0,012
-221,884	93,512	-0,068	-0,056
-220,869	-87,611	0,081	0,018
-219,855	0,575	0,149	0,078
-218,840	120,923	0,042	0,038
-217,825	-51,997	0,035	-0,012
-216,811	160,432	-0,032	0,032
-215,796	-68,908	0,014	-0,004
-214,782	-148,144	0,081	0,005
-213,767	800,000	-0,028	-0,072
-212,752	-70,965	-0,023	0,006
-211,738	-100,608	-0,004	0,001
-210,723	45,730	0,078	-0,053
-209,709	232,975	-0,086	-0,103
-208,694	800,000	0,065	-0,162
-207,679	-200,000	0,002	-0,090
-206,665	7,809	0,076	0,041
-205,650	81,311	-0,048	0,038
-204,636	-115,986	0,061	0,008
-203,621	204,337	0,035	-0,040
-202,606	-151,221	-0,083	-0,004
-201,592	21,551	-0,093	-0,055
-200,577	95,933	0,095	-0,079
-199,563	-200,000	-0,012	-0,091
-198,548	471,291	-0,043	-0,070
-197,533	-19,099	-0,096	-0,044
-196,519	-68,181	-0,068	-0,019
-195,504	-128,663	-0,099	0,010
-194,490	-47,353	0,071	0,025
-193,475	-88,024	0,162	0,035
-192,460	-200,000	0,015	-0,139
-191,446	-200,000	-0,014	0,055
-190,431	-176,800	-0,057	0,001
-189,417	800,000	0,022	0,054
-188,402	800,000	0,030	-0,061
-187,387	-83,476	-0,124	-0,029
-186,373	162,756	-0,057	0,058
-185,358	210,212	-0,028	0,032
-184,344	105,770	-0,084	0,072
-183,329	800,000	0,039	-0,116
-182,315	-46,875	-0,083	-0,029
-181,300	-200,000	-0,021	0,106
-180,285	103,399	-0,092	-0,078
-179,271	98,737	0,050	-0,042
-178,256	-200,000	-0,020	-0,068
-177,242	-42,085	-0,095	-0,035
-176,227	800,000	0,067	0,141
-175,212	593,600	-0,010	-0,018
-174,198	800,000	-0,037	0,099
-173,183	198,212	-0,051	-0,057
-172,169	97,291	-0,082	-0,068
-171,154	-67,025	-0,031	0,009
-170,139	615,512	0,042	-0,077
-169,125	5,739	-0,061	-0,033
-168,110	411,603	-0,074	-0,116
-167,096	-134,095	-0,125	-0,011
-166,081	-87,956	-0,129	0,028
-165,066	91,553	-0,078	-0,064
-164,052	268,402	-0,035	-0,045
-163,037	368,527	-0,013	-0,020
-162,023	612,953	-0,047	0,087
-161,008	-106,171	0,073	0,012
-159,993	291,911	-0,071	-0,095
-158,979	102,375	-0,051	0,044
-157,964	-200,000	-0,010	-0,130
-156,950	80,082	-0,110	-0,086
-155,935	800,000	0,046	-0,136
-154,920	-96,598	0,061	0,012
-153,906	-40,239	-0,108	-0,041
-152,891	800,000	-0,028	0,069
-151,877	146,021	-0,059	-0,057
-150,862	-3,492	-0,094	0,047
-149,847	-89,366	-0,053	0,011
-148,833	800,000	-0,056	-0,133
-147,818	-87,917	0,112	-0,024
-146,804	581,639	-0,064	0,114
-145,789	475,581	0,069	-0,114
-144,775	208,636	-0,046	-0,053
-143,760	37,067	-0,158	-0,101
-142,745	-200,000	-0,010	-0,098
-141,731	-128,406	0,064	0,007
-140,716	800,000	0,016	0,042
-139,702	-123,925	0,079	-0,009
-138,687	800,000	-0,018	-0,054
-137,672	800,000	-0,042	-0,132
-136,658	-200,000	-0,012	-0,041
-135,643	53,207	0,068	-0,048
-134,629	259,224	-0,032	0,040
-133,614	429,048	-0,035	0,055
-132,599	55,402	0,036	-0,026
-131,585	193,385	-0,053	0,058
-130,570	-83,808	-0,076	-0,017
-129,556	170,149	0,009	-0,009
-128,541	-200,000	0,039	0,214
-127,526	800,000	-0,012	0,037
-126,512	43,587	0,068	0,045
-125,497	-24,149	0,052	-0,023
-124,483	-100,956	-0,134	-0,024
-123,468	417,596	0,073	-0,113
-122,453	653,553	0,042	-0,079
-121,439	77,443	-0,100	-0,077
-120,424	-21,480	-0,129	0,057
-119,410	-103,499	0,106	0,018
-118,395	800,000	0,059	0,133
