DTS Sentinel unit serial number:	SN410029Multiplexer serial number:	ORYXHardware model number:	OX2-SRSoftware version number:	ORYX F/W v4,00 Oryx Data Collector v3.7.2.0data status	okinstallation	B4 Nyhavnadifferential loss correction	single-endedforward channel	channel 2reverse channel	N/Adate	2023/12/18time	23:15:13forward acquisition time	300,00reverse acquisition time	0,00gamma	499,1914k internal	0,3124k external	0,3124temperature offset calibration	1,0000default loss term (dB/km)	0,3820temperature slope calibration	1,0000multiplexer offset coefficient	1,0000multiplexer slope coefficient	1,0000fibre end	0,00T internal ref (°C)	22,13T ext. ref 1 (°C)	7,97T ext. ref 2 (°C)	7,94length (m)	temperature (°C)	Stokes	anti-Stokes-744,400	369,937	0,042	-0,063
-743,385	-124,226	-0,189	0,022
-742,371	111,896	-0,074	-0,067
-741,356	172,255	-0,185	0,198
-740,342	103,012	-0,044	-0,039
-739,327	-39,250	-0,177	0,069
-738,312	233,774	0,072	-0,088
-737,298	-111,016	-0,279	-0,042
-736,283	-126,840	-0,098	-0,011
-735,269	455,226	-0,084	0,140
-734,254	-97,615	0,050	0,010
-733,239	-156,149	-0,311	-0,014
-732,225	671,989	0,073	-0,142
-731,210	7,011	-0,104	-0,058
-730,196	-60,629	0,059	0,019
-729,181	380,241	-0,053	-0,081
-728,167	800,000	0,049	0,110
-727,152	214,621	0,035	0,041
-726,137	-200,000	0,010	-0,076
-725,123	-155,812	0,066	-0,003
-724,108	-200,000	-0,011	-0,080
-723,094	277,068	-0,075	-0,099
-722,079	-0,492	0,098	-0,052
-721,064	113,371	0,076	-0,069
-720,050	-200,000	-0,011	0,065
-719,035	-119,730	-0,086	-0,011
-718,021	9,004	-0,079	-0,044
-717,006	-72,576	-0,144	-0,039
-715,991	-29,040	0,007	-0,003
-714,977	47,747	-0,065	-0,045
-713,962	-200,000	0,013	-0,076
-712,948	137,624	0,044	-0,043
-711,933	321,022	-0,053	-0,075
-710,918	-72,677	-0,112	-0,030
-709,904	-200,000	0,028	-0,188
-708,889	395,437	0,032	-0,051
-707,875	800,000	-0,015	-0,033
-706,860	58,595	-0,027	-0,020
-705,845	-200,000	0,021	0,125
-704,831	800,000	0,037	0,086
-703,816	40,492	-0,051	0,034
-702,802	-128,024	-0,068	0,007
-701,787	800,000	-0,049	-0,125
-700,772	-200,000	0,023	-0,098
-699,758	800,000	0,037	-0,114
-698,743	-200,000	-0,013	0,124
-697,729	51,613	0,085	0,060
-696,714	-106,740	-0,074	-0,012
-695,699	-200,000	-0,000	-0,014
-694,685	-200,000	0,008	0,063
-693,670	-200,000	0,011	-0,060
-692,656	375,716	0,042	0,064
-691,641	442,376	0,069	0,113
-690,627	214,644	0,093	0,109
-689,612	490,796	-0,045	-0,077
-688,597	11,565	-0,007	0,004
-687,583	-37,739	-0,006	0,002
-686,568	158,490	-0,075	-0,077
-685,554	-200,000	0,032	-0,177
-684,539	-200,000	0,011	-0,058
-683,524	-158,616	0,136	0,006
-682,510	-136,333	0,097	-0,008
-681,495	763,689	-0,042	0,086
-680,481	800,000	-0,036	0,087
-679,466	-200,000	0,018	0,060
-678,451	55,554	-0,102	-0,073
-677,437	10,391	0,023	-0,013
-676,422	239,566	0,028	0,034
-675,408	-143,530	0,087	-0,006
-674,393	443,568	0,040	-0,065
-673,378	800,000	-0,085	-0,176
-672,364	-51,670	0,123	-0,042
-671,349	800,000	-0,034	-0,087
-670,335	-200,000	0,055	-0,251
-669,320	-200,000	-0,005	-0,049
-668,305	-19,242	-0,053	-0,024
-667,291	38,301	-0,124	-0,082
-666,276	103,194	0,110	-0,096
-665,262	96,578	-0,093	-0,079
-664,247	-141,848	0,093	0,007
-663,232	133,263	-0,090	-0,087
-662,218	-200,000	0,001	0,031
-661,203	170,325	0,062	0,066
-660,189	-200,000	-0,003	-0,121
-659,174	-200,000	0,012	-0,114
-658,159	-28,209	-0,096	-0,041
-657,145	84,843	-0,076	-0,062
-656,130	800,000	0,020	0,061
-655,116	800,000	0,017	-0,046
-654,101	-196,280	-0,124	-0,001
-653,086	755,242	-0,042	0,086
-652,072	-18,433	-0,087	-0,040
-651,057	800,000	0,029	-0,080
-650,043	29,150	0,028	-0,018
-649,028	372,721	-0,040	0,061
-648,014	-200,000	0,005	-0,025
-646,999	692,364	-0,081	0,158
-645,984	80,211	0,062	0,050
-644,970	-44,130	-0,063	-0,024
-643,955	-8,551	-0,128	0,064
-642,941	-39,211	0,113	0,044
-641,926	-200,000	0,003	-0,066
-640,911	-42,192	0,092	-0,035
-639,897	-200,000	-0,019	0,093
-638,882	8,387	0,048	0,027
-637,868	-200,000	0,007	0,047
-636,853	-48,028	-0,110	-0,039
-635,838	772,496	0,032	-0,066
-634,824	800,000	0,031	0,101
-633,809	-200,000	-0,002	0,042
-632,795	800,000	0,018	-0,049
-631,780	184,180	0,018	-0,020
-630,765	-200,000	0,007	0,061
-629,751	244,759	-0,053	0,067
-628,736	-142,620	-0,074	0,005
-627,722	313,969	-0,048	-0,067
-626,707	800,000	-0,042	0,095
-625,692	170,318	-0,089	-0,095
-624,678	202,447	-0,102	-0,117
-623,663	-179,649	-0,119	0,002
-622,649	-200,000	0,002	-0,028
-621,634	-58,543	-0,083	-0,026
-620,619	-200,000	0,009	-0,040
-619,605	-200,000	0,001	-0,039
-618,590	-46,244	0,159	0,058
-617,576	-99,115	0,076	-0,014
-616,561	8,891	-0,096	0,054
-615,546	188,010	-0,041	0,045
-614,532	-139,003	-0,128	0,010
-613,517	-113,057	-0,109	-0,016
-612,503	600,429	0,010	0,018
-611,488	-12,426	0,122	-0,059
-610,474	-61,856	-0,086	-0,027
-609,459	385,373	-0,021	0,033
-608,444	65,319	-0,057	-0,043
-607,430	-200,000	-0,025	-0,201
-606,415	-177,119	0,054	0,001
-605,401	-200,000	0,021	-0,072
-604,386	-99,877	-0,153	0,028
-603,371	-200,000	0,047	0,154
-602,357	-200,000	0,017	-0,079
-601,342	-141,041	-0,172	0,013
-600,328	800,000	-0,020	-0,044
-599,313	-25,114	0,124	-0,054
-598,298	-188,042	-0,082	0,001
-597,284	125,338	0,077	0,072
-596,269	255,660	0,108	-0,138
-595,255	-13,145	-0,102	0,049
-594,240	413,425	0,070	-0,110
-593,225	-200,000	-0,005	0,043
-592,211	-113,256	-0,208	0,030
-591,196	468,097	-0,054	-0,090
-590,182	-200,000	-0,003	0,167
-589,167	-111,686	0,092	0,014
-588,152	133,069	0,045	-0,043
-587,138	27,227	-0,088	-0,055
-586,123	236,849	-0,099	0,122
-585,109	800,000	0,052	-0,115
-584,094	32,320	-0,051	0,033
-583,079	-200,000	0,008	0,055
-582,065	-200,000	-0,016	0,070
-581,050	800,000	-0,014	0,029
-580,036	126,879	0,120	-0,112
-579,021	168,902	0,121	-0,128
-578,006	-200,000	-0,025	-0,116
-576,992	-16,164	-0,063	0,029
-575,977	-48,460	0,111	-0,039
-574,963	-200,000	0,025	0,126
-573,948	-7,231	-0,041	0,021
-572,934	-200,000	0,017	-0,072
-571,919	-79,183	-0,064	0,016
-570,904	-200,000	-0,024	-0,098
-569,890	-69,597	-0,069	-0,019
-568,875	-154,083	0,100	-0,005
-567,861	-81,446	0,166	0,040
-566,846	-200,000	0,027	0,100
-565,831	9,823	-0,021	0,012
-564,817	-61,644	0,149	0,046
-563,802	800,000	0,027	0,072
-562,788	-1,087	-0,059	-0,031
-561,773	151,468	-0,079	0,079
-560,758	451,824	0,034	0,055
-559,744	-200,000	0,004	0,100
-558,729	-200,000	-0,006	0,036
-557,715	-200,000	0,024	-0,129
-556,700	-74,694	-0,061	-0,016
-555,685	155,157	-0,089	0,090
-554,671	176,694	-0,082	0,088
-553,656	258,760	-0,017	0,021
-552,642	-150,504	0,061	0,003
-551,627	-200,000	0,016	0,180
-550,612	-150,216	0,131	0,007
-549,598	800,000	-0,031	-0,073
-548,583	-30,804	-0,063	0,026
-547,569	-200,000	-0,011	0,085
-546,554	-14,694	0,043	0,020
-545,539	389,095	0,021	0,032
-544,525	-200,000	-0,004	0,142
-543,510	-74,452	0,100	0,026
-542,496	2,045	-0,182	-0,097
-541,481	55,561	0,059	-0,043
-540,466	102,035	0,067	0,058
-539,452	653,264	-0,042	-0,080
-538,437	-36,693	-0,076	-0,030
-537,423	-0,511	0,040	0,021
-536,408	800,000	0,020	0,053
-535,393	-39,191	-0,127	0,049
-534,379	73,599	-0,118	-0,091
-533,364	361,379	-0,016	-0,024
-532,350	-95,920	-0,060	-0,012
-531,335	50,181	0,155	0,108
-530,321	-39,263	0,027	0,011
-529,306	15,193	0,099	0,057
-528,291	252,986	-0,032	0,041
-527,277	-200,000	0,004	0,044
-526,262	-200,000	-0,015	-0,052
-525,248	-200,000	-0,011	0,068
-524,233	-200,000	0,041	0,143
-523,218	521,157	-0,059	0,103
-522,204	-200,000	-0,003	-0,040
-521,189	-84,654	-0,076	0,017
-520,175	315,093	-0,054	0,076
-519,160	310,172	-0,058	-0,080
-518,145	-78,597	0,159	-0,040
-517,131	-200,000	-0,056	0,196
-516,116	-200,000	0,033	0,158
-515,102	259,627	-0,083	0,106
-514,087	80,283	-0,089	0,071
-513,072	-200,000	-0,002	0,090
-512,058	348,300	-0,065	0,095
-511,043	-10,207	0,024	-0,012
-510,029	-35,642	0,065	-0,026
-509,014	-200,000	0,006	0,045
-507,999	-18,626	-0,026	-0,012
-506,985	800,000	0,026	-0,059
-505,970	-131,496	0,108	-0,010
-504,956	-8,005	-0,126	-0,062
-503,941	-45,334	-0,079	0,029
-502,926	-95,833	0,238	0,046
-501,912	-161,365	-0,033	0,001
-500,897	706,832	-0,062	0,122
-499,883	196,938	0,091	0,103
-498,868	800,000	-0,093	-0,197
-497,853	523,734	0,046	-0,080
-496,839	-103,386	-0,105	0,018
-495,824	-200,000	0,007	-0,081
-494,810	-200,000	0,008	0,117
-493,795	131,455	-0,037	0,036
-492,781	-112,363	-0,017	-0,002
-491,766	109,596	-0,143	-0,126
-490,751	-129,591	-0,093	0,009
-489,737	-200,000	0,022	-0,137
-488,722	-200,000	-0,035	0,129
-487,708	377,267	0,101	0,153
-486,693	596,140	0,042	0,076
-485,678	96,975	-0,038	0,032
-484,664	383,788	0,050	-0,077
-483,649	-200,000	-0,021	-0,111
-482,635	-200,000	0,017	-0,160
-481,620	279,379	-0,043	0,056
-480,605	158,084	0,148	0,151
-479,591	800,000	-0,033	0,094
-478,576	-200,000	0,018	-0,156
-477,562	167,943	0,024	0,026
-476,547	-74,390	-0,185	-0,049
-475,532	-50,659	0,146	0,050
-474,518	800,000	0,008	0,023
-473,503	-86,089	-0,106	0,024
-472,489	800,000	0,036	-0,100
-471,474	121,819	0,042	-0,039
-470,459	69,569	0,090	-0,068
-469,445	-200,000	-0,014	-0,062
-468,430	800,000	0,036	-0,095
-467,416	-50,613	-0,096	-0,033
-466,401	457,469	0,013	-0,021
-465,386	126,931	0,120	0,112
-464,372	-40,860	-0,082	-0,031
-463,357	168,672	-0,126	0,133
-462,343	-200,000	0,001	-0,181
-461,328	77,649	-0,086	-0,067
-460,313	121,104	0,086	0,079
-459,299	35,563	0,130	0,084
-458,284	800,000	0,031	-0,088
-457,270	76,388	0,117	-0,092
-456,255	-200,000	-0,020	-0,136
-455,241	-200,000	0,011	-0,052
-454,226	-200,000	-0,038	-0,176
-453,211	390,006	-0,067	0,103
-452,197	800,000	0,057	-0,164
-451,182	-100,003	-0,043	0,008
-450,168	596,460	0,066	-0,120
-449,153	-200,000	-0,018	-0,127
-448,138	-15,619	-0,071	0,033
-447,124	-200,000	-0,022	-0,082
-446,109	-72,664	0,127	0,034
-445,095	94,215	0,042	-0,035
-444,080	394,181	0,102	0,157
-443,065	76,284	0,122	0,095
-442,051	-200,000	-0,008	-0,072
-441,036	147,522	0,032	-0,032
-440,022	35,170	-0,043	0,028
-439,007	-105,512	-0,037	0,006
-437,992	800,000	0,013	-0,028
-436,978	-96,556	-0,059	-0,011
-435,963	-27,462	-0,075	-0,032
-434,949	800,000	-0,037	0,104
-433,934	4,499	-0,147	-0,079
-432,919	265,824	0,083	-0,107
-431,905	-200,000	0,023	0,123
-430,890	-151,906	-0,060	0,003
-429,876	-57,307	0,128	-0,041
-428,861	-86,279	-0,077	0,017
-427,846	105,971	-0,101	0,088
-426,832	465,771	0,047	0,078
-425,817	-52,125	-0,085	-0,029
-424,803	492,701	0,035	0,059
-423,788	800,000	0,018	0,049
-422,773	637,856	0,090	0,170
-421,759	-178,315	0,116	0,002
-420,744	51,076	-0,089	0,062
-419,730	-20,495	0,110	-0,050
-418,715	6,353	-0,025	0,014
-417,701	268,619	-0,046	0,060
-416,686	180,090	0,098	-0,106
-415,671	130,039	-0,056	-0,053
-414,657	-81,813	0,072	-0,017
-413,642	800,000	-0,050	0,128
-412,628	-200,000	-0,010	-0,034
-411,613	37,207	0,088	-0,057
-410,598	-157,930	0,072	0,003
-409,584	-200,000	-0,013	0,069
-408,569	-200,000	0,001	-0,088
-407,555	-139,771	0,153	-0,012
-406,540	18,686	-0,029	0,017
-405,525	10,485	-0,132	-0,074
-404,511	-157,044	0,090	-0,004
-403,496	408,950	-0,012	-0,019
-402,482	-70,698	-0,076	0,021
-401,467	-170,215	0,072	0,002
-400,452	-2,530	0,121	0,062
-399,438	-2,159	-0,052	-0,027
-398,423	-200,000	-0,005	-0,039
-397,409	29,728	-0,080	-0,050
-396,394	10,866	0,050	0,028
-395,379	-200,000	0,011	-0,036
-394,365	361,314	-0,009	-0,013
-393,350	519,008	-0,052	0,090
-392,336	-200,000	-0,013	0,077
-391,321	64,685	-0,035	-0,026
-390,306	-200,000	-0,010	-0,103
-389,292	800,000	-0,055	-0,134
-388,277	-200,000	0,006	0,109
-387,263	-44,765	-0,070	0,026
-386,248	-178,926	-0,042	0,001
-385,233	-115,491	0,110	-0,015
-384,219	-200,000	0,011	-0,090
-383,204	49,959	-0,069	-0,048
-382,190	-28,514	-0,014	-0,006
-381,175	36,970	0,076	0,049
-380,160	1,721	0,028	0,015
-379,146	-107,941	-0,101	-0,016
-378,131	196,290	0,058	0,065
-377,117	5,729	-0,100	-0,054
-376,102	-200,000	0,026	0,102
-375,088	-15,115	-0,100	0,047
-374,073	-200,000	0,014	-0,080
-373,058	136,770	-0,048	0,046
-372,044	21,801	0,086	-0,051
-371,029	800,000	0,050	0,135
-370,015	90,553	0,017	-0,014
-369,000	-200,000	0,005	-0,050
-367,985	-17,812	-0,039	-0,018
-366,971	51,476	0,092	-0,064
-365,956	153,269	0,053	-0,054
-364,942	-9,196	0,075	-0,037
-363,927	507,386	-0,017	0,029
-362,912	-200,000	0,016	-0,068
-361,898	-47,322	-0,060	0,021
-360,883	118,660	-0,079	-0,071
-359,869	259,907	-0,051	-0,064
-358,854	-200,000	0,005	0,052
-357,839	328,270	-0,025	0,035
-356,825	567,794	0,130	0,233
-355,810	42,508	-0,104	0,069
-354,796	-188,655	0,160	0,001
-353,781	123,439	0,032	-0,029
-352,766	234,120	-0,076	-0,092
-351,752	-36,178	0,109	-0,043
-350,737	-200,000	0,008	-0,056
-349,723	549,945	-0,090	0,159
-348,708	528,411	0,041	-0,072
-347,693	-35,556	-0,098	0,039
-346,679	335,032	0,018	-0,026
-345,664	800,000	-0,044	-0,125
-344,650	800,000	-0,007	-0,022
-343,635	-35,217	-0,123	-0,049
-342,620	-200,000	0,006	0,104
-341,606	131,432	0,060	0,057
-340,591	-45,738	0,024	0,009
-339,577	-200,000	0,008	-0,119
-338,562	301,283	-0,066	-0,090
-337,548	-172,352	-0,055	-0,001
-336,533	157,827	0,064	0,065
-335,518	286,695	0,025	0,033
-334,504	186,568	-0,035	-0,038
-333,489	206,435	-0,064	0,073
-332,475	180,570	-0,060	0,065
-331,460	725,456	-0,079	-0,155
-330,445	-176,216	0,087	0,002
-329,431	-200,000	0,006	0,071
-328,416	326,902	0,136	0,191
-327,402	800,000	-0,044	0,116
-326,387	-80,833	0,048	-0,012
-325,372	582,081	-0,076	-0,138
-324,358	-200,000	0,004	-0,135
-323,343	320,210	-0,009	0,013
-322,329	-23,102	0,083	0,036
-321,314	46,085	0,076	0,051
-320,299	214,495	0,044	0,051
-319,285	86,460	0,059	0,047
-318,270	800,000	0,037	-0,113
-317,256	-200,000	0,025	-0,114
-316,241	-36,995	-0,118	-0,046
-315,226	634,519	-0,032	0,060
-314,212	504,828	0,039	0,066
-313,197	-200,000	-0,013	0,099
-312,183	-20,500	0,118	-0,053
-311,168	132,315	-0,025	0,023
-310,153	-44,827	-0,054	0,020
-309,139	201,219	0,020	0,023
-308,124	-65,868	-0,068	-0,020
-307,110	-200,000	-0,006	-0,065
-306,095	-200,000	0,019	0,072
-305,080	222,325	0,064	0,076
-304,066	-200,000	0,074	-0,242
-303,051	-57,729	-0,147	-0,047
-302,037	-200,000	-0,023	-0,086
-301,022	-72,555	0,083	0,022
-300,008	800,000	-0,045	0,103
-298,993	17,608	0,080	-0,047
-297,978	156,562	-0,026	-0,027
-296,964	-77,544	0,223	0,056
-295,949	-63,707	-0,125	-0,037
-294,935	-152,402	0,111	0,006
-293,920	-92,495	-0,094	0,019
-292,905	-200,000	0,043	-0,160
-291,891	-63,895	-0,076	0,023
-290,876	187,922	0,056	0,061
-289,862	-200,000	-0,022	-0,114
-288,847	-95,619	-0,077	0,015
-287,832	-200,000	0,030	0,159
-286,818	800,000	0,022	0,049
-285,803	42,048	0,044	-0,029
-284,789	299,167	0,019	-0,026
-283,774	301,688	-0,114	0,155
-282,759	-107,197	0,075	0,012
-281,745	266,172	-0,056	-0,072
-280,730	13,335	-0,085	-0,048
-279,716	32,913	-0,070	-0,044
-278,701	-200,000	-0,010	0,034
-277,686	84,592	0,169	0,136
-276,672	517,293	0,034	0,059
-275,657	537,622	-0,058	0,101
-274,643	-200,000	-0,030	-0,128
-273,628	-200,000	0,011	-0,065
-272,613	-200,000	-0,038	-0,134
-271,599	317,654	0,009	-0,013
-270,584	130,667	-0,024	0,023
-269,570	208,447	0,054	-0,062
-268,555	-92,565	-0,046	-0,009
-267,540	418,271	-0,029	0,046
-266,526	-200,000	-0,021	-0,070
-265,511	-11,057	0,042	0,020
-264,497	800,000	0,019	0,051
-263,482	-36,242	-0,048	-0,019
-262,467	110,056	-0,091	0,080
-261,453	327,333	-0,034	-0,048
-260,438	81,266	-0,034	-0,027
-259,424	-47,313	-0,040	0,014
-258,409	11,470	0,108	-0,060
-257,395	-89,538	0,052	0,011
-256,380	-81,295	-0,059	-0,014
-255,365	558,134	0,038	0,067
-254,351	-106,687	-0,099	-0,016
-253,336	-200,000	-0,009	-0,085
-252,322	121,015	0,058	0,053
-251,307	-200,000	0,012	-0,075
-250,292	20,166	0,063	-0,037
-249,278	-200,000	-0,003	0,014
-248,263	800,000	0,018	0,052
-247,249	152,974	0,060	0,060
-246,234	-137,105	-0,158	0,013
-245,219	800,000	0,025	0,057
-244,205	-200,000	-0,006	-0,190
-243,190	96,247	0,096	-0,081
-242,176	-200,000	-0,144	0,000
-241,161	45,712	0,148	0,100
-240,146	726,174	0,032	0,063
-239,132	-200,000	0,002	-0,065
-238,117	-104,257	0,035	-0,006
-237,103	458,875	0,023	-0,038
-236,088	2,397	0,179	0,094
-235,073	25,349	0,046	0,028
-234,059	800,000	-0,053	-0,127
-233,044	-121,879	0,106	-0,013
-232,030	-132,516	-0,155	0,014
-231,015	149,073	-0,039	-0,039
-230,000	-30,275	-0,096	-0,040
-228,986	-167,664	0,069	0,002
-227,971	-200,000	0,006	0,038
-226,957	312,579	0,064	0,088
-225,942	557,217	0,081	0,143
-224,927	-200,000	0,023	0,118
-223,913	30,152	-0,107	-0,066
-222,898	436,080	-0,056	-0,090
-221,884	800,000	0,051	-0,156
-220,869	130,911	0,040	-0,037
-219,855	-90,341	0,110	-0,023
-218,840	-200,000	0,021	0,098
-217,825	800,000	-0,016	0,034
-216,811	-49,290	0,075	-0,026
-215,796	-200,000	-0,028	-0,118
-214,782	-200,000	-0,027	-0,112
-213,767	-200,000	0,030	-0,168
-212,752	145,590	0,030	0,029
-211,738	169,906	0,074	0,077
-210,723	662,216	-0,031	0,059
-209,709	-172,036	0,059	-0,001
-208,694	-200,000	0,013	-0,049
-207,679	-94,139	-0,043	0,009
-206,665	800,000	0,068	0,151
-205,650	800,000	-0,050	0,121
-204,636	-200,000	0,008	0,156
-203,621	-34,543	-0,096	-0,038
-202,606	-88,501	0,068	0,015
-201,592	-200,000	-0,007	0,024
-200,577	-200,000	0,051	-0,202
-199,563	407,852	-0,051	-0,080
-198,548	-200,000	0,009	0,073
-197,533	-171,005	-0,017	-0,000
-196,519	-200,000	-0,002	-0,027
-195,504	0,999	-0,163	0,085
-194,490	-200,000	0,002	-0,027
-193,475	-24,735	-0,088	-0,038
-192,460	-27,571	-0,076	-0,032
-191,446	185,375	-0,035	0,038
-190,431	64,049	0,032	-0,023
-189,417	107,164	0,071	0,061
-188,402	-105,025	0,169	0,028
-187,387	424,025	-0,036	0,056
-186,373	115,615	-0,039	0,035
-185,358	-200,000	0,030	0,155
-184,344	-200,000	-0,005	0,141
-183,329	-114,009	0,115	-0,016
-182,315	-200,000	0,011	-0,051
-181,300	140,750	0,045	-0,044
-180,285	189,071	-0,056	-0,061
-179,271	-39,345	0,035	0,013
-178,256	-200,000	0,051	-0,169
-177,242	407,769	0,024	-0,037
-176,227	800,000	0,023	-0,060
-175,212	130,242	-0,045	0,042
-174,198	382,712	-0,081	-0,122
-173,183	-130,685	0,140	-0,014
-172,169	-200,000	-0,013	-0,074
-171,154	146,552	0,012	-0,012
-170,139	-67,173	0,112	0,032
-169,125	-30,787	0,052	0,021
-168,110	-19,243	-0,151	0,068
-167,096	800,000	0,022	0,046
-166,081	305,618	-0,040	0,054
-165,066	800,000	-0,029	-0,080
-164,052	-200,000	0,001	-0,053
-163,037	-200,000	0,010	-0,128
-162,023	800,000	0,040	-0,083
-161,008	-83,489	0,162	-0,038
-159,993	-169,562	-0,088	0,002
-158,979	-35,665	-0,057	-0,023
-157,964	435,651	0,071	-0,112
-156,950	-200,000	-0,024	-0,157
-155,935	89,776	-0,123	0,100
-154,920	108,603	0,159	-0,138
-153,906	262,448	-0,063	0,079
-152,891	341,779	0,050	0,072
-151,877	-200,000	0,010	-0,093
-150,862	692,139	0,029	-0,055
-149,847	-27,559	-0,148	-0,062
-148,833	800,000	-0,011	-0,026
-147,818	-62,261	0,097	-0,029
-146,804	104,796	-0,103	-0,088
-145,789	-200,000	0,027	0,181
-144,775	-200,000	-0,015	-0,077
-143,760	-56,543	-0,025	0,008
-142,745	193,489	0,090	0,099
-141,731	-200,000	-0,012	-0,096
-140,716	800,000	-0,025	0,071
-139,702	-200,000	-0,002	-0,040
-138,687	114,486	0,062	-0,055
-137,672	-200,000	-0,011	0,067
-136,658	-90,944	-0,085	-0,018
-135,643	293,351	-0,036	-0,049
-134,629	-176,738	0,117	-0,002
-133,614	800,000	0,031	-0,095
-132,599	-200,000	-0,006	0,153
-131,585	90,609	-0,027	0,022
-130,570	-11,030	-0,056	-0,027
-129,556	-36,207	-0,043	-0,017
-128,541	-90,636	-0,091	-0,019
-127,526	-25,561	-0,044	-0,019
-126,512	-13,966	0,111	0,052
-125,497	-125,706	0,124	-0,013
-124,483	800,000	-0,048	0,136
-123,468	313,437	0,074	-0,101
-122,453	-142,259	0,081	0,006
-121,439	-159,562	-0,006	0,000
-120,424	-112,203	-0,069	-0,010
