DTS Sentinel unit serial number:	SN410029Multiplexer serial number:	ORYXHardware model number:	OX2-SRSoftware version number:	ORYX F/W v4,00 Oryx Data Collector v3.7.2.0data status	okinstallation	B4 Nyhavnadifferential loss correction	single-endedforward channel	channel 2reverse channel	N/Adate	2023/12/15time	15:50:13forward acquisition time	300,00reverse acquisition time	0,00gamma	499,1914k internal	0,3150k external	0,3150temperature offset calibration	1,0000default loss term (dB/km)	0,3820temperature slope calibration	1,0000multiplexer offset coefficient	1,0000multiplexer slope coefficient	1,0000fibre end	0,00T internal ref (°C)	16,80T ext. ref 1 (°C)	3,05T ext. ref 2 (°C)	3,16length (m)	temperature (°C)	Stokes	anti-Stokes-744,400	-200,000	0,000	-0,051
-743,385	-76,511	-0,198	0,051
-742,371	-200,000	-0,008	0,050
-741,356	63,136	-0,099	0,073
-740,342	-52,404	0,046	-0,016
-739,327	-18,968	-0,196	0,090
-738,312	800,000	0,035	0,079
-737,298	-152,474	-0,206	-0,011
-736,283	235,518	0,037	-0,045
-735,269	50,026	-0,207	-0,144
-734,254	-108,203	-0,033	0,005
-733,239	-167,155	-0,604	0,018
-732,225	-200,000	0,002	0,062
-731,210	-200,000	0,013	0,070
-730,196	-45,201	0,077	0,028
-729,181	34,069	-0,096	-0,062
-728,167	176,357	-0,093	-0,100
-727,152	34,887	-0,110	-0,071
-726,137	591,125	-0,039	0,071
-725,123	-119,071	-0,049	-0,006
-724,108	-200,000	-0,013	-0,098
-723,094	-50,556	-0,033	-0,011
-722,079	-118,421	-0,058	-0,008
-721,064	-127,544	0,019	-0,002
-720,050	295,279	0,022	-0,030
-719,035	50,725	-0,106	0,074
-718,021	-200,000	-0,020	-0,080
-717,006	-167,061	0,009	0,000
-715,991	266,534	-0,051	-0,066
-714,977	12,127	-0,115	0,065
-713,962	-94,415	0,135	-0,027
-712,948	327,675	0,016	0,023
-711,933	-73,468	-0,094	0,025
-710,918	800,000	-0,048	-0,110
-709,904	290,079	-0,040	-0,054
-708,889	-136,605	-0,044	-0,004
-707,875	-121,109	-0,008	-0,001
-706,860	-200,000	0,024	-0,097
-705,845	736,105	-0,046	-0,091
-704,831	-200,000	0,011	0,037
-703,816	502,727	-0,082	0,141
-702,802	-200,000	-0,018	0,081
-701,787	-6,598	0,102	-0,051
-700,772	-200,000	0,001	0,039
-699,758	-200,000	0,004	0,071
-698,743	260,197	-0,048	-0,061
-697,729	-102,537	0,146	0,025
-696,714	-172,974	-0,109	-0,002
-695,699	-127,666	-0,056	0,006
-694,685	800,000	-0,021	0,057
-693,670	64,684	0,097	0,072
-692,656	314,883	-0,014	0,020
-691,641	800,000	-0,027	0,087
-690,627	79,858	-0,077	0,061
-689,612	-92,228	0,043	-0,009
-688,597	-200,000	-0,010	-0,051
-687,583	308,875	-0,057	-0,078
-686,568	132,079	-0,046	-0,044
-685,554	81,475	0,143	0,114
-684,539	182,792	0,110	0,120
-683,524	-200,000	-0,017	0,165
-682,510	-200,000	0,005	0,115
-681,495	438,995	0,059	0,094
-680,481	152,864	0,033	-0,034
-679,466	301,186	-0,098	-0,134
-678,451	-192,111	-0,120	-0,001
-677,437	126,721	-0,020	0,019
-676,422	-200,000	-0,004	0,114
-675,408	351,821	-0,042	0,062
-674,393	12,109	0,056	0,032
-673,378	590,166	-0,017	-0,031
-672,364	-200,000	-0,031	-0,117
-671,349	-40,894	-0,121	-0,046
-670,335	-193,867	-0,083	-0,000
-669,320	-48,726	-0,074	-0,026
-668,305	39,744	0,074	0,049
-667,291	311,379	-0,037	-0,051
-666,276	800,000	-0,023	-0,070
-665,262	-200,000	0,008	-0,028
-664,247	-7,289	-0,118	0,059
-663,232	-200,000	0,000	-0,010
-662,218	-78,646	0,074	0,018
-661,203	-39,949	-0,021	0,008
-660,189	-200,000	0,004	0,115
-659,174	57,820	0,064	-0,046
-658,159	800,000	0,015	0,041
-657,145	-10,978	-0,105	-0,051
-656,130	-80,128	-0,082	0,020
-655,116	-39,847	0,039	0,015
-654,101	-200,000	-0,036	0,144
-653,086	-71,811	-0,154	0,042
-652,072	507,621	0,012	0,021
-651,057	-200,000	0,021	-0,075
-650,043	-10,511	0,024	0,012
-649,028	-200,000	-0,002	-0,060
-648,014	800,000	-0,036	0,084
-646,999	-25,547	0,085	0,037
-645,984	7,408	-0,107	-0,059
-644,970	-200,000	-0,012	0,063
-643,955	-134,441	-0,165	-0,015
-642,941	97,929	-0,062	-0,053
-641,926	407,255	0,042	-0,066
-640,911	-54,843	-0,094	-0,031
-639,897	203,057	0,050	-0,057
-638,882	219,371	0,076	-0,090
-637,868	237,501	-0,053	-0,065
-636,853	108,654	0,058	-0,051
-635,838	-200,000	-0,018	-0,189
-634,824	-200,000	0,008	-0,084
-633,809	-200,000	0,024	-0,118
-632,795	-160,361	0,114	0,004
-631,780	-147,122	-0,020	0,001
-630,765	-156,788	-0,085	0,004
-629,751	-143,049	-0,087	0,006
-628,736	31,048	-0,137	-0,086
-627,722	5,825	-0,025	0,014
-626,707	-113,685	-0,150	-0,021
-625,692	-145,662	0,096	-0,006
-624,678	-200,000	-0,039	0,206
-623,663	800,000	-0,014	0,037
-622,649	-40,216	-0,110	-0,042
-621,634	-119,768	0,043	0,005
-620,619	22,489	-0,080	-0,048
-619,605	264,666	-0,020	0,025
-618,590	540,597	0,031	0,054
-617,576	-26,485	0,142	-0,061
-616,561	-200,000	0,001	0,083
-615,546	-200,000	0,006	-0,036
-614,532	-200,000	-0,014	0,097
-613,517	330,057	0,015	0,021
-612,503	98,185	-0,028	-0,023
-611,488	307,133	0,111	0,152
-610,474	-200,000	0,001	0,004
-609,459	339,552	-0,035	-0,051
-608,444	-41,444	-0,024	0,009
-607,430	-200,000	0,001	0,008
-606,415	-3,397	0,022	0,011
-605,401	279,192	-0,073	0,096
-604,386	132,899	0,061	-0,058
-603,371	-200,000	-0,021	-0,212
-602,357	478,381	-0,044	0,073
-601,342	800,000	-0,041	-0,114
-600,328	44,457	-0,092	-0,062
-599,313	771,996	0,031	-0,063
-598,298	-200,000	0,015	0,094
-597,284	536,994	0,045	-0,080
-596,269	-57,668	0,054	0,017
-595,255	702,697	0,022	-0,043
-594,240	724,790	-0,094	-0,185
-593,225	-109,882	-0,056	0,008
-592,211	45,020	-0,123	-0,083
-591,196	-200,000	0,018	0,062
-590,182	106,803	-0,042	0,036
-589,167	-165,442	0,064	-0,002
-588,152	123,674	-0,096	0,088
-587,138	99,037	0,077	-0,065
-586,123	-200,000	0,002	0,055
-585,109	3,401	-0,069	0,037
-584,094	160,949	-0,103	-0,106
-583,079	-8,845	-0,130	-0,064
-582,065	-200,000	-0,050	-0,174
-581,050	67,308	-0,110	0,082
-580,036	800,000	-0,052	-0,117
-579,021	-200,000	-0,009	-0,056
-578,006	-142,670	-0,106	-0,007
-576,992	224,551	0,024	0,028
-575,977	138,058	0,020	0,019
-574,963	800,000	-0,027	0,082
-573,948	-96,422	0,052	-0,010
-572,934	-200,000	0,007	0,167
-571,919	190,942	-0,091	0,100
-570,904	-200,000	-0,022	-0,087
-569,890	-200,000	0,016	0,114
-568,875	800,000	-0,010	-0,022
-567,861	-16,218	-0,045	0,021
-566,846	315,483	0,062	-0,086
-565,831	-167,197	0,063	0,002
-564,817	-200,000	0,017	-0,104
-563,802	-200,000	0,037	-0,167
-562,788	115,050	-0,088	0,078
-561,773	-200,000	0,016	0,102
-560,758	-66,934	0,069	0,020
-559,744	800,000	0,019	0,051
-558,729	772,350	0,005	0,010
-557,715	-200,000	-0,023	0,137
-556,700	-83,280	-0,115	-0,027
-555,685	800,000	0,029	-0,062
-554,671	119,709	0,035	-0,032
-553,656	-37,133	0,121	-0,047
-552,642	-89,138	-0,104	-0,022
-551,627	64,404	-0,016	0,012
-550,612	188,874	0,064	-0,070
-549,598	-93,668	-0,166	-0,033
-548,583	444,381	0,044	0,072
-547,569	199,501	0,073	-0,082
-546,554	240,570	-0,100	-0,122
-545,539	445,067	0,086	0,139
-544,525	-200,000	-0,017	0,073
-543,510	-25,940	0,052	0,022
-542,496	-47,296	-0,127	-0,045
-541,481	800,000	0,021	-0,049
-540,466	-21,359	0,073	0,033
-539,452	79,900	0,014	0,011
-538,437	-137,119	0,028	-0,002
-537,423	145,733	0,082	0,081
-536,408	483,755	0,075	-0,125
-535,393	-68,278	-0,059	-0,017
-534,379	-86,435	-0,131	-0,029
-533,364	522,851	0,046	-0,079
-532,350	-151,718	-0,048	-0,003
-531,335	-55,819	0,087	0,028
-530,321	254,544	0,060	0,075
-529,306	261,624	-0,060	-0,077
-528,291	61,951	-0,019	-0,014
-527,277	-173,846	-0,072	-0,002
-526,262	-168,736	0,118	-0,003
-525,248	227,619	0,050	0,060
-524,233	45,011	0,085	-0,057
-523,218	38,760	0,105	-0,069
-522,204	238,458	-0,046	0,057
-521,189	-77,276	0,027	0,007
-520,175	79,415	-0,041	0,032
-519,160	25,161	-0,072	0,043
-518,145	-200,000	0,055	-0,192
-517,131	198,252	-0,051	0,057
-516,116	-171,864	0,094	0,002
-515,102	-63,867	-0,073	-0,022
-514,087	58,811	0,098	-0,070
-513,072	800,000	-0,013	-0,029
-512,058	631,196	-0,041	0,077
-511,043	800,000	0,024	-0,052
-510,029	367,266	0,007	0,010
-509,014	-110,459	-0,042	-0,006
-507,999	-40,500	0,054	-0,020
-506,985	-200,000	-0,019	-0,095
-505,970	-67,106	0,114	-0,033
-504,956	20,902	0,089	-0,053
-503,941	-93,924	0,179	0,036
-502,926	90,232	0,068	0,055
-501,912	-159,658	0,039	0,002
-500,897	-33,385	0,037	0,015
-499,883	-39,260	-0,059	-0,023
-498,868	800,000	0,033	-0,079
-497,853	370,640	-0,079	-0,118
-496,839	-129,847	0,133	0,013
-495,824	303,762	0,019	0,026
-494,810	-82,802	0,108	0,025
-493,795	11,038	-0,109	0,061
-492,781	-200,000	0,018	0,151
-491,766	103,635	-0,075	-0,064
-490,751	800,000	0,017	0,037
-489,737	-28,492	-0,042	0,018
-488,722	-200,000	0,006	0,021
-487,708	-20,567	-0,141	0,063
-486,693	3,316	0,098	0,052
-485,678	-29,843	-0,168	0,070
-484,664	-200,000	0,011	-0,043
-483,649	-86,498	-0,132	0,029
-482,635	-61,748	-0,083	0,025
-481,620	-200,000	-0,004	0,140
-480,605	-76,594	0,106	0,027
-479,591	152,896	0,061	0,061
-478,576	495,064	-0,057	0,097
-477,562	800,000	-0,046	-0,115
-476,547	-99,546	-0,146	-0,027
-475,532	225,776	-0,043	-0,051
-474,518	-200,000	-0,001	-0,014
-473,503	350,659	0,062	0,091
-472,489	82,892	0,049	0,039
-471,474	119,283	0,064	0,058
-470,459	400,941	-0,033	-0,051
-469,445	208,496	0,108	-0,123
-468,430	-102,806	-0,020	0,003
-467,416	-200,000	0,048	0,210
-466,401	-99,582	-0,055	0,010
-465,386	-26,932	0,066	0,028
-464,372	-200,000	-0,002	0,090
-463,357	413,519	-0,041	-0,065
-462,343	800,000	0,017	-0,049
-461,328	-200,000	0,015	-0,081
-460,313	-200,000	-0,004	-0,014
-459,299	-200,000	-0,003	0,126
-458,284	31,619	-0,037	-0,023
-457,270	-78,370	-0,099	-0,025
-456,255	800,000	-0,016	0,038
-455,241	-200,000	0,019	-0,095
-454,226	-200,000	0,000	-0,064
-453,211	-118,303	0,115	0,015
-452,197	-89,311	-0,118	-0,025
-451,182	-6,000	0,137	0,068
-450,168	188,853	0,087	0,095
-449,153	272,550	-0,070	-0,090
-448,138	-35,512	0,148	0,059
-447,124	377,813	-0,041	0,062
-446,109	426,723	0,061	0,096
-445,095	-0,297	0,051	0,027
-444,080	-22,027	-0,077	0,034
-443,065	-200,000	0,028	0,150
-442,051	-200,000	0,001	-0,103
-441,036	523,041	-0,052	-0,090
-440,022	414,175	0,051	-0,080
-439,007	149,418	-0,069	0,068
-437,992	10,579	0,036	0,020
-436,978	-200,000	-0,022	0,108
-435,963	93,429	0,078	0,064
-434,949	230,748	-0,018	0,021
-433,934	-61,541	-0,120	0,037
-432,919	-200,000	-0,035	-0,149
-431,905	113,648	-0,161	-0,142
-430,890	-88,183	-0,051	0,011
-429,876	-122,374	-0,047	-0,006
-428,861	204,796	0,079	0,090
-427,846	107,039	0,039	0,034
-426,832	-200,000	-0,007	0,122
-425,817	-173,415	-0,015	0,000
-424,803	-188,590	0,078	0,001
-423,788	-200,000	0,007	-0,054
-422,773	-200,000	0,009	0,186
-421,759	269,814	-0,020	-0,026
-420,744	800,000	-0,036	-0,076
-419,730	-93,808	-0,045	0,009
-418,715	-200,000	-0,000	-0,013
-417,701	800,000	0,018	0,049
-416,686	-200,000	0,008	0,088
-415,671	-20,252	0,130	-0,058
-414,657	-200,000	-0,011	-0,062
-413,642	-200,000	0,012	0,173
-412,628	271,610	0,050	0,065
-411,613	310,828	0,046	-0,063
-410,598	292,080	-0,048	0,063
-409,584	-200,000	0,003	-0,032
-408,569	-120,715	0,085	0,010
-407,555	760,938	-0,023	0,045
-406,540	-200,000	-0,010	0,060
-405,525	-200,000	0,011	0,074
-404,511	470,535	-0,007	0,011
-403,496	-114,511	0,060	-0,008
-402,482	-200,000	-0,012	-0,061
-401,467	331,849	-0,061	0,086
-400,452	-200,000	-0,001	0,061
-399,438	-183,424	0,237	-0,003
-398,423	80,343	-0,118	0,092
-397,409	42,083	0,044	-0,029
-396,394	312,548	-0,090	-0,124
-395,379	-78,462	0,093	-0,023
-394,365	-80,888	0,044	-0,011
-393,350	166,008	0,067	-0,069
-392,336	-2,874	0,051	-0,026
-391,321	-169,287	0,078	-0,002
-390,306	-200,000	-0,006	-0,061
-389,292	142,176	-0,068	0,065
-388,277	386,228	0,025	-0,037
-387,263	-200,000	0,004	0,033
-386,248	130,248	-0,060	0,056
-385,233	-102,179	0,212	-0,037
-384,219	40,936	0,094	-0,061
-383,204	-200,000	-0,010	-0,052
-382,190	800,000	-0,031	-0,065
-381,175	195,669	-0,058	0,064
-380,160	-38,049	-0,055	0,021
-379,146	623,481	0,025	0,047
-378,131	666,333	0,124	0,235
-377,117	-200,000	0,014	0,083
-376,102	-85,633	-0,137	-0,031
-375,088	-11,116	-0,037	0,017
-374,073	5,332	-0,111	-0,059
-373,058	-200,000	0,016	-0,114
-372,044	123,945	0,091	-0,083
-371,029	-200,000	-0,014	0,054
-370,015	-95,005	-0,107	-0,021
-369,000	16,285	0,068	-0,039
-367,985	-200,000	0,004	0,031
-366,971	-200,000	-0,015	-0,060
-365,956	800,000	0,016	-0,035
-364,942	-48,057	0,095	0,033
-363,927	107,254	0,084	0,073
-362,912	329,893	0,049	0,069
-361,898	-200,000	0,010	-0,096
-360,883	28,962	0,059	0,036
-359,869	786,270	0,023	0,046
-358,854	800,000	0,004	0,011
-357,839	232,195	0,027	-0,033
-356,825	-200,000	-0,001	-0,024
-355,810	136,455	0,081	0,077
-354,796	-200,000	-0,003	-0,073
-353,781	129,595	0,058	-0,054
-352,766	568,823	-0,069	0,123
-351,752	64,000	-0,052	-0,038
-350,737	3,509	-0,046	0,024
-349,723	800,000	-0,016	-0,039
-348,708	-147,412	0,009	-0,001
-347,693	162,374	-0,089	-0,091
-346,679	-200,000	-0,022	-0,091
-345,664	-200,000	-0,013	-0,055
-344,650	-134,502	0,058	0,005
-343,635	-104,851	0,064	-0,011
-342,620	-113,928	-0,131	-0,018
-341,606	126,210	0,033	-0,030
-340,591	-14,799	-0,044	-0,020
-339,577	114,837	-0,106	-0,094
-338,562	-61,066	0,099	-0,030
-337,548	800,000	-0,065	0,138
-336,533	-200,000	0,027	0,091
-335,518	37,803	-0,063	0,041
-334,504	-100,602	-0,064	0,011
-333,489	-184,019	-0,085	0,001
-332,475	-200,000	-0,015	-0,054
-331,460	2,796	-0,096	-0,050
-330,445	800,000	-0,035	-0,072
-329,431	-200,000	-0,002	-0,019
-328,416	-43,083	-0,070	-0,026
-327,402	-31,924	0,024	0,010
-326,387	270,749	0,094	-0,121
-325,372	280,078	-0,075	0,098
-324,358	-200,000	-0,008	-0,099
-323,343	95,960	0,020	0,017
-322,329	457,479	-0,038	0,061
-321,314	-200,000	0,000	0,010
-320,299	158,016	0,055	-0,056
-319,285	-200,000	0,002	0,075
-318,270	6,215	0,109	-0,058
-317,256	-200,000	-0,008	0,094
-316,241	-200,000	0,003	0,113
-315,226	74,029	0,056	0,042
-314,212	-200,000	0,002	0,080
-313,197	-200,000	-0,010	0,107
-312,183	376,004	-0,067	0,100
-311,168	34,683	0,053	-0,034
-310,153	-77,786	-0,160	0,040
-309,139	191,366	0,030	0,033
-308,124	157,617	0,084	-0,084
-307,110	132,915	-0,047	0,044
-306,095	-80,164	0,093	-0,022
-305,080	184,104	0,017	0,019
-304,066	-200,000	0,009	-0,264
-303,051	-35,376	-0,145	-0,057
-302,037	-65,759	-0,133	0,039
-301,022	-197,058	0,110	-0,000
-300,008	420,002	0,039	0,060
-298,993	43,488	-0,059	-0,039
-297,978	-200,000	-0,055	-0,197
-296,964	669,725	0,043	0,082
-295,949	-200,000	0,006	0,039
-294,935	457,311	-0,030	-0,049
-293,920	-125,574	-0,038	0,004
-292,905	-200,000	-0,014	0,071
-291,891	-137,335	0,114	0,009
-290,876	-200,000	0,002	0,078
-289,862	-71,566	-0,093	-0,025
-288,847	-200,000	0,000	-0,178
-287,832	-112,604	-0,014	0,002
-286,818	800,000	0,050	0,125
-285,803	139,209	-0,095	0,091
-284,789	-143,192	0,078	-0,005
-283,774	-88,047	-0,053	-0,011
-282,759	78,319	0,085	0,065
-281,745	-128,570	0,048	0,005
-280,730	67,477	-0,123	-0,091
-279,716	315,404	0,062	0,085
-278,701	-113,205	0,198	0,028
-277,686	-21,605	0,146	0,064
-276,672	-100,035	0,082	0,015
-275,657	-76,379	0,101	0,025
-274,643	303,137	0,070	0,094
-273,628	-78,702	0,049	-0,012
-272,613	-200,000	0,005	0,040
-271,599	-200,000	0,010	0,075
-270,584	-200,000	-0,007	-0,075
-269,570	-168,392	0,091	0,002
-268,555	52,320	-0,060	-0,042
-267,540	-193,438	-0,069	0,000
-266,526	-57,399	0,052	-0,017
-265,511	118,725	-0,040	-0,036
-264,497	234,860	0,071	-0,085
-263,482	72,307	-0,016	0,012
-262,467	110,381	0,116	0,101
-261,453	-200,000	-0,002	0,069
-260,438	6,565	-0,116	0,062
-259,424	800,000	0,032	-0,069
-258,409	-85,370	-0,178	0,040
-257,395	23,185	0,043	-0,025
-256,380	161,061	0,049	0,050
-255,365	-64,406	0,171	-0,050
-254,351	-200,000	0,004	0,042
-253,336	316,143	-0,046	-0,064
-252,322	-22,375	-0,099	-0,043
-251,307	-142,562	-0,110	-0,008
-250,292	388,045	-0,109	-0,164
-249,278	89,856	-0,043	-0,035
-248,263	-14,651	0,076	-0,035
-247,249	-45,125	-0,016	-0,006
-246,234	313,860	-0,047	0,064
-245,219	-200,000	0,008	-0,054
-244,205	-200,000	-0,014	0,090
-243,190	-200,000	-0,022	0,135
-242,176	-37,089	-0,108	0,042
-241,161	-200,000	0,000	0,212
-240,146	800,000	-0,040	0,092
-239,132	-200,000	-0,016	0,071
-238,117	280,867	0,053	0,069
-237,103	-200,000	-0,039	0,128
-236,088	800,000	-0,023	0,051
-235,073	-200,000	-0,015	-0,086
-234,059	-200,000	0,031	0,162
-233,044	343,386	-0,031	-0,044
-232,030	800,000	0,031	0,081
-231,015	-200,000	-0,005	0,021
-230,000	800,000	0,016	0,045
-228,986	785,311	0,014	0,027
-227,971	370,833	-0,073	0,108
-226,957	-83,920	0,108	0,025
-225,942	41,166	0,100	-0,065
-224,927	107,704	-0,091	-0,079
-223,913	270,935	0,031	-0,040
-222,898	-200,000	-0,010	-0,169
-221,884	-200,000	0,022	-0,074
-220,869	800,000	-0,028	0,081
-219,855	230,912	0,061	0,072
-218,840	800,000	-0,036	-0,074
-217,825	-200,000	-0,010	-0,083
-216,811	-79,347	0,100	0,024
-215,796	-200,000	0,014	-0,069
-214,782	759,026	-0,009	-0,018
-213,767	-200,000	0,020	-0,085
-212,752	342,158	-0,062	-0,088
-211,738	153,024	-0,007	0,007
-210,723	96,097	0,119	-0,098
-209,709	642,009	-0,019	-0,036
-208,694	-124,621	-0,092	-0,010
-207,679	21,723	0,206	-0,121
-206,665	-200,000	-0,022	0,130
-205,650	-200,000	-0,016	0,091
-204,636	-160,480	-0,043	-0,002
-203,621	-200,000	0,011	-0,042
-202,606	-200,000	-0,022	-0,079
-201,592	-45,320	-0,089	-0,032
-200,577	23,700	-0,103	-0,061
-199,563	-133,615	0,205	-0,018
-198,548	61,479	0,059	-0,043
-197,533	-88,936	-0,062	0,013
-196,519	-34,600	0,084	-0,033
-195,504	-128,390	-0,042	-0,004
-194,490	-200,000	0,014	-0,147
-193,475	220,474	-0,113	-0,131
-192,460	-200,000	0,008	0,095
-191,446	93,472	0,029	0,024
-190,431	232,490	-0,045	-0,054
-189,417	-200,000	-0,019	-0,146
-188,402	281,055	-0,132	-0,171
-187,387	-148,369	0,126	0,007
-186,373	185,544	-0,026	-0,027
-185,358	800,000	-0,040	0,091
-184,344	4,460	-0,047	-0,025
-183,329	-134,520	0,074	-0,006
-182,315	-45,666	-0,046	0,016
-181,300	-53,348	0,137	0,045
-180,285	800,000	0,013	-0,029
-179,271	-200,000	-0,019	-0,075
-178,256	-200,000	-0,020	0,096
-177,242	-133,136	-0,037	-0,003
-176,227	1,315	-0,026	0,013
-175,212	-63,636	-0,016	-0,005
-174,198	116,785	0,067	0,059
-173,183	475,652	0,102	-0,168
-172,169	440,592	0,070	-0,111
-171,154	-145,342	0,058	-0,004
-170,139	-37,289	-0,114	-0,044
-169,125	192,518	-0,048	0,053
-168,110	-200,000	0,003	0,119
-167,096	193,827	-0,085	0,093
-166,081	800,000	-0,014	0,033
-165,066	-113,141	0,069	-0,010
-164,052	27,719	0,083	-0,050
-163,037	183,365	0,032	-0,035
-162,023	227,268	0,075	0,088
-161,008	800,000	0,029	0,083
-159,993	17,026	-0,022	0,012
-158,979	157,523	-0,080	-0,080
-157,964	800,000	-0,037	0,081
-156,950	119,216	-0,104	0,093
-155,935	800,000	-0,087	0,176
-154,920	-112,109	0,116	-0,017
-153,906	268,929	0,049	0,063
-152,891	800,000	0,057	-0,117
-151,877	-48,383	-0,091	-0,031
-150,862	-164,993	-0,135	0,004
-149,847	800,000	0,049	0,151
-148,833	40,573	-0,092	-0,060
-147,818	337,173	-0,041	-0,058
-146,804	-80,969	0,072	-0,017
-145,789	325,220	-0,055	-0,077
-144,775	397,154	-0,044	-0,066
-143,760	-148,238	-0,083	-0,005
-142,745	-200,000	-0,018	0,098
-141,731	645,299	-0,037	0,069
-140,716	124,835	0,124	-0,113
-139,702	-200,000	0,006	0,064
-138,687	512,170	0,045	0,076
-137,672	169,806	-0,078	0,081
-136,658	-75,644	-0,045	0,011
-135,643	800,000	-0,034	-0,068
-134,629	-48,139	0,087	-0,030
-133,614	21,879	0,104	-0,061
-132,599	800,000	-0,018	0,050
-131,585	66,203	0,039	0,029
-130,570	800,000	-0,011	-0,030
-129,556	-200,000	0,001	0,017
-128,541	-200,000	0,015	-0,095
-127,526	115,808	-0,011	0,010
-126,512	72,476	0,048	0,036
-125,497	309,190	-0,023	0,031
-124,483	800,000	-0,039	0,078
-123,468	-200,000	-0,030	-0,265
-122,453	-107,595	-0,075	0,012
-121,439	-200,000	0,018	0,092
-120,424	-200,000	-0,001	-0,087
