DTS Sentinel unit serial number:	SN410029Multiplexer serial number:	ORYXHardware model number:	OX2-SRSoftware version number:	ORYX F/W v4,00 Oryx Data Collector v3.7.2.0data status	okinstallation	B4 Nyhavnadifferential loss correction	single-endedforward channel	channel 2reverse channel	N/Adate	2023/12/15time	14:20:13forward acquisition time	300,00reverse acquisition time	0,00gamma	499,1914k internal	0,3161k external	0,3161temperature offset calibration	1,0000default loss term (dB/km)	0,3820temperature slope calibration	1,0000multiplexer offset coefficient	1,0000multiplexer slope coefficient	1,0000fibre end	0,00T internal ref (°C)	14,78T ext. ref 1 (°C)	1,41T ext. ref 2 (°C)	1,53length (m)	temperature (°C)	Stokes	anti-Stokes-744,400	256,323	0,057	-0,072
-743,385	-25,286	-0,260	-0,113
-742,371	15,725	0,152	0,088
-741,356	-73,035	-0,324	0,087
-740,342	-200,000	0,039	0,127
-739,327	-128,842	-0,330	0,034
-738,312	-135,285	0,104	-0,009
-737,298	-142,057	-0,332	-0,024
-736,283	-105,597	0,100	-0,017
-735,269	-134,558	-0,215	0,019
-734,254	-64,375	0,152	0,045
-733,239	-85,437	-0,565	-0,129
-732,225	-34,411	0,226	0,091
-731,210	286,206	0,043	-0,057
-730,196	-89,129	0,098	-0,021
-729,181	-200,000	-0,013	0,094
-728,167	199,571	-0,059	-0,067
-727,152	-200,000	0,001	-0,018
-726,137	-14,831	-0,014	0,006
-725,123	56,634	-0,042	-0,030
-724,108	693,818	-0,036	-0,070
-723,094	800,000	-0,053	-0,114
-722,079	102,584	-0,163	0,140
-721,064	75,972	0,062	0,048
-720,050	-200,000	0,001	-0,020
-719,035	93,573	0,082	-0,068
-718,021	25,959	-0,035	0,021
-717,006	758,910	-0,018	-0,036
-715,991	-200,000	-0,008	-0,163
-714,977	-200,000	-0,005	0,016
-713,962	575,242	-0,059	0,107
-712,948	-200,000	-0,028	0,145
-711,933	-119,327	-0,038	0,005
-710,918	204,656	0,065	0,074
-709,904	800,000	0,054	-0,120
-708,889	-200,000	-0,021	-0,087
-707,875	265,131	-0,093	-0,119
-706,860	367,419	0,091	-0,136
-705,845	490,964	-0,027	0,046
-704,831	800,000	-0,043	0,112
-703,816	-200,000	-0,002	-0,043
-702,802	590,960	0,041	-0,076
-701,787	-104,477	-0,052	-0,009
-700,772	-112,762	-0,122	0,018
-699,758	800,000	-0,006	0,018
-698,743	-120,181	-0,050	0,006
-697,729	-200,000	0,012	-0,083
-696,714	-60,616	0,078	0,024
-695,699	316,022	0,074	-0,103
-694,685	-71,910	-0,076	-0,021
-693,670	76,050	0,052	-0,040
-692,656	-143,687	-0,114	-0,008
-691,641	66,339	-0,054	0,040
-690,627	183,796	0,048	0,053
-689,612	649,583	-0,026	0,050
-688,597	-64,243	-0,022	-0,006
-687,583	-200,000	0,014	-0,148
-686,568	-25,659	-0,227	-0,098
-685,554	84,825	-0,043	-0,035
-684,539	157,266	0,041	-0,042
-683,524	800,000	-0,054	0,123
-682,510	499,382	0,024	0,040
-681,495	327,163	-0,073	-0,103
-680,481	-61,814	-0,031	0,009
-679,466	-145,704	-0,124	-0,008
-678,451	-21,811	0,032	-0,014
-677,437	233,823	-0,012	-0,015
-676,422	-76,520	-0,111	-0,028
-675,408	27,596	-0,162	-0,100
-674,393	6,394	0,058	-0,032
-673,378	590,750	-0,031	-0,056
-672,364	-200,000	0,005	-0,041
-671,349	-126,956	-0,131	-0,014
-670,335	-89,995	0,102	0,022
-669,320	-71,666	0,084	0,023
-668,305	698,814	0,010	0,019
-667,291	-200,000	0,003	-0,074
-666,276	-200,000	0,028	-0,117
-665,262	-200,000	0,000	-0,027
-664,247	-122,019	-0,030	-0,004
-663,232	-26,656	0,063	0,027
-662,218	-200,000	-0,020	0,096
-661,203	535,567	0,015	-0,026
-660,189	-200,000	-0,018	-0,114
-659,174	-200,000	-0,035	-0,143
-658,159	91,482	-0,102	-0,084
-657,145	-200,000	0,006	0,049
-656,130	32,572	-0,056	0,036
-655,116	-40,805	-0,064	-0,024
-654,101	53,245	-0,084	-0,059
-653,086	-200,000	0,017	-0,151
-652,072	-62,472	-0,156	0,047
-651,057	-170,377	-0,150	-0,004
-650,043	176,958	0,051	0,055
-649,028	-200,000	0,011	0,036
-648,014	800,000	0,043	0,098
-646,999	-200,000	-0,027	0,107
-645,984	55,161	0,098	-0,069
-644,970	272,146	0,067	0,087
-643,955	74,665	-0,046	-0,035
-642,941	-200,000	0,046	0,188
-641,926	-118,689	-0,141	0,018
-640,911	499,754	0,027	0,046
-639,897	-200,000	-0,028	-0,096
-638,882	800,000	0,013	0,030
-637,868	154,913	-0,018	0,018
-636,853	-52,646	-0,156	-0,052
-635,838	675,554	-0,073	-0,139
-634,824	43,484	-0,044	0,029
-633,809	-42,213	0,048	-0,018
-632,795	-113,617	-0,031	-0,004
-631,780	309,324	0,061	0,084
-630,765	-55,338	-0,049	0,016
-629,751	722,844	-0,049	-0,096
-628,736	293,284	-0,086	-0,116
-627,722	-22,770	0,064	-0,028
-626,707	255,376	0,061	0,077
-625,692	-147,687	-0,097	-0,006
-624,678	800,000	-0,032	-0,085
-623,663	560,116	-0,062	-0,110
-622,649	-95,071	-0,102	-0,020
-621,634	-67,763	0,071	-0,020
-620,619	466,760	-0,090	-0,149
-619,605	158,817	-0,031	-0,032
-618,590	-200,000	0,020	0,108
-617,576	-93,726	0,115	-0,023
-616,561	-200,000	0,006	0,079
-615,546	103,495	-0,107	0,092
-614,532	209,883	-0,061	-0,070
-613,517	-51,956	0,071	-0,024
-612,503	-106,842	-0,025	-0,004
-611,488	363,639	-0,064	0,094
-610,474	-116,109	-0,007	0,001
-609,459	312,134	0,025	0,035
-608,444	-48,822	0,069	0,024
-607,430	99,528	-0,044	0,037
-606,415	-140,215	-0,153	-0,012
-605,401	480,650	0,023	-0,039
-604,386	-200,000	0,002	-0,037
-603,371	-125,092	0,065	0,007
-602,357	584,283	-0,032	0,059
-601,342	224,228	-0,096	-0,114
-600,328	-125,870	-0,161	-0,018
-599,313	382,767	0,032	0,048
-598,298	738,854	0,016	-0,032
-597,284	80,353	0,030	0,024
-596,269	51,536	-0,088	0,061
-595,255	-200,000	0,011	0,096
-594,240	296,981	-0,129	-0,174
-593,225	800,000	-0,028	-0,071
-592,211	63,023	0,060	-0,044
-591,196	257,799	0,073	0,092
-590,182	-200,000	0,002	-0,121
-589,167	-146,304	0,158	0,010
-588,152	-200,000	-0,009	0,034
-587,138	0,663	0,037	-0,019
-586,123	-200,000	0,002	-0,104
-585,109	-140,525	-0,107	-0,008
-584,094	565,333	-0,009	-0,015
-583,079	-17,829	-0,075	0,034
-582,065	-44,572	0,097	0,035
-581,050	800,000	0,048	0,104
-580,036	800,000	-0,052	-0,153
-579,021	-200,000	0,038	-0,163
-578,006	253,396	-0,020	-0,025
-576,992	-200,000	0,012	-0,046
-575,977	-96,876	-0,078	0,015
-574,963	-200,000	-0,006	0,070
-573,948	665,103	-0,044	0,084
-572,934	-24,973	0,050	-0,022
-571,919	788,876	0,036	-0,073
-570,904	-200,000	0,017	0,062
-569,890	-71,562	-0,162	-0,044
-568,875	-139,524	0,041	0,003
-567,861	800,000	0,004	0,012
-566,846	-108,638	-0,137	0,021
-565,831	800,000	0,027	0,060
-564,817	800,000	-0,008	0,019
-563,802	754,501	0,030	-0,060
-562,788	-200,000	-0,026	-0,129
-561,773	800,000	0,050	0,104
-560,758	-40,297	0,088	0,033
-559,744	161,828	-0,098	-0,100
-558,729	588,510	0,027	-0,049
-557,715	490,260	0,048	-0,081
-556,700	-114,529	-0,151	-0,021
-555,685	276,523	0,036	0,047
-554,671	-169,793	-0,086	-0,002
-553,656	-200,000	0,017	-0,066
-552,642	-200,000	0,020	0,108
-551,627	-11,598	-0,116	-0,055
-550,612	-146,017	-0,079	0,005
-549,598	800,000	0,061	0,188
-548,583	176,958	-0,075	-0,079
-547,569	-200,000	-0,009	0,050
-546,554	376,091	-0,026	-0,039
-545,539	43,851	-0,087	-0,058
-544,525	198,239	-0,049	0,055
-543,510	-26,514	-0,068	0,029
-542,496	-200,000	0,029	-0,103
-541,481	-147,550	-0,037	-0,002
-540,466	15,196	-0,102	-0,058
-539,452	-200,000	0,038	-0,135
-538,437	-200,000	-0,006	0,060
-537,423	-200,000	-0,001	-0,033
-536,408	-64,972	0,030	-0,009
-535,393	-60,303	-0,056	-0,017
-534,379	330,109	0,072	-0,102
-533,364	-200,000	-0,013	-0,100
-532,350	-96,345	0,088	-0,017
-531,335	-200,000	-0,019	0,078
-530,321	288,243	-0,038	0,051
-529,306	-5,365	0,055	0,027
-528,291	33,726	-0,099	0,063
-527,277	-15,375	-0,058	-0,027
-526,262	41,183	0,092	0,061
-525,248	-103,050	-0,091	-0,016
-524,233	-13,932	0,131	0,062
-523,218	500,757	-0,091	0,154
-522,204	98,618	-0,032	0,027
-521,189	319,044	-0,021	-0,029
-520,175	778,856	-0,048	-0,096
-519,160	168,550	-0,024	-0,025
-518,145	-93,109	-0,037	-0,008
-517,131	-200,000	-0,016	0,131
-516,116	-200,000	-0,019	-0,064
-515,102	-77,651	-0,064	0,016
-514,087	-155,766	0,039	0,002
-513,072	-47,429	-0,091	0,032
-512,058	481,348	0,048	0,080
-511,043	-200,000	-0,024	0,141
-510,029	-200,000	0,025	0,124
-509,014	334,696	-0,107	0,151
-507,999	577,186	-0,056	0,100
-506,985	800,000	-0,068	0,177
-505,970	-124,734	-0,134	-0,015
-504,956	-164,182	-0,079	0,003
-503,941	327,047	0,067	-0,094
-502,926	202,639	-0,010	-0,012
-501,912	-145,848	0,133	-0,008
-500,897	-200,000	0,000	0,034
-499,883	178,804	0,015	0,016
-498,868	166,890	0,080	-0,083
-497,853	396,714	-0,032	-0,049
-496,839	28,247	0,057	0,035
-495,824	800,000	0,018	0,043
-494,810	173,213	0,103	0,108
-493,795	624,110	0,019	0,035
-492,781	73,976	0,074	-0,057
-491,766	378,608	0,066	-0,099
-490,751	800,000	-0,042	-0,096
-489,737	-111,678	0,084	-0,012
-488,722	-200,000	0,001	0,023
-487,708	-200,000	0,021	0,162
-486,693	128,866	0,045	0,042
-485,678	-200,000	0,009	-0,044
-484,664	116,576	-0,123	-0,110
-483,649	800,000	0,030	-0,089
-482,635	800,000	-0,042	0,114
-481,620	800,000	-0,041	0,086
-480,605	-94,319	0,081	0,016
-479,591	-47,091	0,123	-0,044
-478,576	-200,000	0,003	0,024
-477,562	-191,536	-0,129	-0,001
-476,547	27,570	-0,025	0,015
-475,532	126,036	0,068	0,063
-474,518	-141,755	-0,024	0,002
-473,503	-131,926	-0,032	-0,003
-472,489	-200,000	-0,047	-0,155
-471,474	-45,973	0,065	-0,023
-470,459	-70,620	-0,133	-0,036
-469,445	-200,000	0,028	-0,092
-468,430	28,165	-0,059	-0,036
-467,416	-137,968	-0,098	-0,008
-466,401	-164,963	0,044	-0,001
-465,386	800,000	-0,014	-0,031
-464,372	57,996	0,085	0,060
-463,357	-91,803	-0,088	0,018
-462,343	-8,871	0,121	-0,059
-461,328	277,821	-0,067	-0,087
-460,313	9,012	0,065	0,036
-459,299	69,099	-0,126	0,094
-458,284	53,795	-0,081	-0,056
-457,270	-200,000	0,017	0,065
-456,255	223,726	-0,073	-0,086
-455,241	800,000	-0,055	-0,159
-454,226	-170,368	-0,038	-0,001
-453,211	67,598	-0,088	-0,065
-452,197	800,000	0,055	0,153
-451,182	322,689	0,057	0,079
-450,168	-131,505	-0,176	0,017
-449,153	-35,948	-0,107	0,042
-448,138	-167,136	0,082	-0,002
-447,124	-200,000	0,012	0,071
-446,109	175,254	0,046	0,049
-445,095	800,000	-0,006	0,020
-444,080	407,068	0,081	0,125
-443,065	687,506	-0,041	0,078
-442,051	800,000	0,024	-0,065
-441,036	800,000	-0,028	0,062
-440,022	-200,000	0,008	0,089
-439,007	-105,995	0,084	0,014
-437,992	-150,367	0,178	-0,010
-436,978	800,000	0,063	0,196
-435,963	-200,000	0,013	0,089
-434,949	507,356	0,059	0,100
-433,934	-73,168	-0,132	-0,035
-432,919	-200,000	-0,011	-0,060
-431,905	94,038	-0,040	-0,033
-430,890	-85,255	0,010	0,002
-429,876	-2,161	0,191	0,097
-428,861	-200,000	0,009	0,065
-427,846	22,363	0,107	0,064
-426,832	543,595	0,044	-0,077
-425,817	-16,553	-0,157	0,072
-424,803	101,774	0,109	0,092
-423,788	800,000	0,032	-0,085
-422,773	-200,000	-0,019	0,119
-421,759	-200,000	-0,003	-0,101
-420,744	281,172	0,057	-0,074
-419,730	422,686	0,011	0,017
-418,715	51,687	-0,096	-0,066
-417,701	-7,771	0,011	0,005
-416,686	-200,000	0,008	0,028
-415,671	800,000	-0,046	0,139
-414,657	353,856	-0,010	0,015
-413,642	152,617	0,077	-0,077
-412,628	78,882	0,062	-0,048
-411,613	-15,387	-0,119	-0,055
-410,598	16,496	-0,112	-0,064
-409,584	5,508	0,056	-0,030
-408,569	257,467	0,023	0,029
-407,555	800,000	0,037	-0,110
-406,540	-157,493	0,084	0,004
-405,525	-132,866	-0,132	0,012
-404,511	217,435	-0,117	-0,136
-403,496	724,357	-0,020	-0,040
-402,482	800,000	0,039	0,105
-401,467	13,838	0,111	0,063
-400,452	-5,730	0,013	0,007
-399,438	-118,512	0,079	0,010
-398,423	144,701	-0,081	0,079
-397,409	-41,255	0,069	-0,026
-396,394	66,470	-0,087	0,065
-395,379	800,000	0,054	0,118
-394,365	-200,000	-0,013	-0,056
-393,350	383,213	0,078	-0,117
-392,336	-93,710	0,113	-0,023
-391,321	-43,859	-0,053	0,019
-390,306	113,870	-0,046	0,040
-389,292	-200,000	0,005	0,095
-388,277	112,265	0,054	0,047
-387,263	-23,374	0,116	-0,050
-386,248	371,891	0,051	0,075
-385,233	-200,000	0,008	0,042
-384,219	-200,000	-0,010	0,113
-383,204	800,000	-0,053	-0,164
-382,190	-121,699	-0,039	0,005
-381,175	-200,000	-0,012	-0,046
-380,160	-51,426	0,094	0,032
-379,146	-200,000	-0,002	0,078
-378,131	549,102	0,071	0,123
-377,117	-200,000	0,022	-0,112
-376,102	-40,126	0,023	0,009
-375,088	-200,000	0,006	0,020
-374,073	800,000	0,046	-0,105
-373,058	-200,000	-0,012	0,065
-372,044	-122,702	0,030	-0,004
-371,029	105,183	-0,025	0,022
-370,015	230,181	-0,041	0,049
-369,000	-200,000	-0,027	0,118
-367,985	800,000	-0,047	0,104
-366,971	-106,228	0,016	-0,003
-365,956	-82,975	0,078	-0,018
-364,942	624,535	0,073	-0,134
-363,927	330,729	0,051	-0,071
-362,912	-101,831	0,129	0,022
-361,898	-200,000	-0,005	-0,063
-360,883	-135,905	-0,033	0,003
-359,869	-146,140	0,068	-0,004
-358,854	800,000	0,031	-0,079
-357,839	36,771	0,066	-0,042
-356,825	19,911	0,033	-0,019
-355,810	-32,690	-0,018	0,007
-354,796	409,792	0,075	0,116
-353,781	53,913	-0,098	0,068
-352,766	800,000	-0,037	-0,108
-351,752	-108,022	0,028	-0,004
-350,737	-200,000	0,004	-0,042
-349,723	-127,336	0,079	0,008
-348,708	-200,000	0,012	0,073
-347,693	91,715	0,044	-0,036
-346,679	146,801	0,032	0,031
-345,664	800,000	0,052	-0,157
-344,650	215,572	-0,057	-0,065
-343,635	-86,871	-0,087	-0,019
-342,620	64,198	0,019	-0,013
-341,606	800,000	0,050	-0,120
-340,591	287,816	0,036	-0,047
-339,577	-7,682	-0,132	0,065
-338,562	-200,000	-0,003	-0,025
-337,548	158,875	-0,048	-0,048
-336,533	310,794	0,046	-0,062
-335,518	-200,000	-0,006	0,020
-334,504	198,373	-0,028	-0,031
-333,489	800,000	-0,041	-0,084
-332,475	83,936	0,067	-0,053
-331,460	70,876	0,089	-0,066
-330,445	372,113	-0,038	0,055
-329,431	-200,000	0,010	-0,092
-328,416	-75,345	0,155	0,040
-327,402	-31,487	0,030	0,012
-326,387	199,421	0,093	-0,103
-325,372	747,232	0,021	-0,040
-324,358	452,917	-0,027	-0,043
-323,343	-73,591	0,116	-0,030
-322,329	-200,000	-0,012	0,147
-321,314	673,638	-0,071	-0,134
-320,299	-100,640	0,175	0,031
-319,285	-1,008	-0,085	0,043
-318,270	-15,990	-0,076	-0,035
-317,256	-200,000	0,013	-0,133
-316,241	-200,000	-0,007	0,091
-315,226	437,886	-0,070	0,110
-314,212	800,000	0,030	0,075
-313,197	-12,143	-0,078	-0,037
-312,183	403,118	-0,066	0,100
-311,168	-7,243	-0,065	-0,032
-310,153	31,854	-0,115	-0,072
-309,139	800,000	0,042	-0,115
-308,124	-109,604	0,092	-0,014
-307,110	195,405	-0,019	-0,020
-306,095	-200,000	-0,011	-0,038
-305,080	-45,418	-0,060	-0,021
-304,066	227,698	0,079	0,093
-303,051	-96,459	-0,141	-0,027
-302,037	61,511	0,066	-0,047
-301,022	368,031	0,067	0,098
-300,008	-76,489	0,089	0,023
-298,993	-143,240	-0,021	-0,001
-297,978	800,000	0,023	0,060
-296,964	791,604	0,066	-0,132
-295,949	-38,658	-0,163	0,062
-294,935	93,844	0,065	0,053
-293,920	800,000	0,053	-0,107
-292,905	36,492	0,044	-0,028
-291,891	111,615	0,125	0,109
-290,876	-64,535	-0,089	0,026
-289,862	-105,244	-0,142	0,023
-288,847	-200,000	-0,001	0,010
-287,832	-68,219	-0,132	-0,037
-286,818	39,112	0,071	0,046
-285,803	800,000	0,046	-0,093
-284,789	68,252	-0,014	-0,010
-283,774	-200,000	0,000	-0,070
-282,759	-200,000	0,023	0,091
-281,745	-165,804	0,134	-0,004
-280,730	-29,578	-0,211	-0,087
-279,716	252,136	0,049	-0,061
-278,701	-4,003	-0,007	-0,004
-277,686	-200,000	0,014	0,237
-276,672	800,000	0,024	-0,061
-275,657	165,715	0,108	-0,110
-274,643	-99,839	-0,160	0,029
-273,628	439,870	0,073	-0,115
-272,613	800,000	-0,019	0,041
-271,599	-131,882	-0,045	0,004
-270,584	-200,000	-0,035	0,153
-269,570	800,000	0,054	0,129
-268,555	-200,000	0,016	-0,089
-267,540	415,805	-0,067	0,103
-266,526	-59,086	-0,130	0,040
-265,511	44,339	0,126	-0,084
-264,497	800,000	-0,039	0,093
-263,482	448,569	0,004	-0,007
-262,467	800,000	-0,016	-0,044
-261,453	-200,000	0,007	0,037
-260,438	64,885	-0,029	-0,021
-259,424	-200,000	-0,015	0,083
-258,409	85,736	0,065	0,051
-257,395	527,691	-0,016	0,027
-256,380	408,594	0,056	0,086
-255,365	800,000	0,043	-0,104
-254,351	240,142	0,055	0,067
-253,336	278,362	-0,029	-0,038
-252,322	800,000	-0,065	-0,191
-251,307	157,337	-0,107	-0,107
-250,292	346,539	0,032	0,045
-249,278	-14,105	-0,087	0,040
-248,263	19,410	0,061	-0,035
-247,249	-200,000	0,016	0,087
-246,234	193,588	-0,041	0,044
-245,219	212,638	0,086	-0,098
-244,205	-200,000	-0,009	0,053
-243,190	299,999	-0,023	0,031
-242,176	-200,000	-0,003	0,102
-241,161	-77,812	0,154	0,038
-240,146	192,881	-0,022	-0,024
-239,132	-47,282	0,131	-0,046
-238,117	173,630	0,072	-0,075
-237,103	217,318	-0,127	-0,146
-236,088	-200,000	-0,002	0,020
-235,073	88,135	0,042	-0,034
-234,059	-134,111	0,137	0,012
-233,044	224,012	-0,032	-0,037
-232,030	100,475	-0,048	0,040
-231,015	174,430	-0,115	0,120
-230,000	-200,000	-0,008	-0,069
-228,986	-200,000	0,014	0,056
-227,971	4,141	0,238	0,125
-226,957	-200,000	-0,003	0,044
-225,942	55,994	0,038	-0,027
-224,927	359,795	0,046	-0,067
-223,913	456,181	-0,016	-0,026
-222,898	800,000	-0,038	-0,083
-221,884	2,981	-0,079	-0,041
-220,869	-82,386	0,015	-0,004
-219,855	589,775	0,029	0,051
-218,840	246,235	-0,101	0,123
-217,825	178,089	-0,037	0,039
-216,811	451,776	-0,079	-0,126
-215,796	-104,975	0,042	0,007
-214,782	-61,114	0,096	-0,029
-213,767	-51,631	0,048	0,016
-212,752	132,055	0,046	-0,043
-211,738	46,434	0,079	-0,053
-210,723	-200,000	0,005	-0,115
-209,709	800,000	0,007	-0,022
-208,694	329,966	0,013	-0,018
-207,679	800,000	0,036	-0,074
-206,665	27,365	-0,053	0,032
-205,650	-26,642	-0,081	-0,034
-204,636	800,000	0,008	0,023
-203,621	-200,000	0,013	-0,044
-202,606	-135,930	0,072	-0,006
-201,592	148,552	0,137	-0,134
-200,577	-121,654	0,083	-0,010
-199,563	-200,000	-0,002	0,076
-198,548	-92,355	0,072	-0,014
-197,533	-200,000	0,004	-0,015
-196,519	-200,000	-0,002	-0,010
-195,504	-200,000	-0,006	-0,055
-194,490	-121,521	0,021	0,002
-193,475	305,918	-0,049	-0,066
-192,460	-200,000	-0,025	-0,176
-191,446	-27,690	0,025	-0,010
-190,431	800,000	0,028	-0,077
-189,417	-200,000	0,005	0,109
-188,402	-200,000	0,029	-0,117
-187,387	49,460	-0,154	0,104
-186,373	160,655	0,140	-0,140
-185,358	-54,478	0,124	0,040
-184,344	800,000	-0,034	0,101
-183,329	-200,000	0,002	-0,073
-182,315	125,273	0,066	-0,060
-181,300	65,063	-0,028	-0,021
-180,285	-200,000	0,012	0,047
-179,271	218,800	-0,101	-0,117
-178,256	31,662	-0,066	0,041
-177,242	139,560	0,127	0,121
-176,227	186,399	0,062	0,066
-175,212	-200,000	-0,009	0,038
-174,198	-37,754	0,090	0,034
-173,183	-154,256	-0,060	0,003
-172,169	25,417	0,104	-0,062
-171,154	-81,943	-0,106	-0,025
-170,139	-23,199	-0,041	0,018
-169,125	-200,000	-0,014	-0,064
-168,110	-200,000	0,011	-0,051
-167,096	-112,900	0,021	0,003
-166,081	800,000	-0,032	0,072
-165,066	118,581	0,039	-0,035
-164,052	-65,124	-0,079	-0,023
-163,037	-200,000	0,017	-0,083
-162,023	52,324	-0,125	0,086
-161,008	-200,000	0,001	0,083
-159,993	-200,000	-0,015	0,139
-158,979	-95,315	0,108	0,021
-157,964	69,053	-0,054	-0,040
-156,950	286,590	0,087	0,113
-155,935	52,387	-0,076	0,052
-154,920	150,343	-0,017	-0,017
-153,906	2,244	0,136	0,071
-152,891	88,226	-0,105	0,084
-151,877	41,787	0,012	0,008
-150,862	-143,811	0,110	-0,007
-149,847	34,720	-0,052	0,033
-148,833	127,563	0,036	-0,033
-147,818	-200,000	-0,023	0,079
-146,804	735,724	-0,033	0,065
-145,789	-56,423	0,169	0,054
-144,775	408,180	0,043	0,066
-143,760	-200,000	0,014	-0,075
-142,745	242,521	-0,049	0,059
-141,731	-122,814	0,127	0,015
-140,716	0,133	0,165	0,084
-139,702	-161,842	-0,159	-0,006
-138,687	-42,058	0,221	0,081
-137,672	-200,000	-0,007	0,066
-136,658	42,971	-0,148	-0,097
-135,643	433,900	-0,010	-0,016
-134,629	164,039	-0,107	-0,109
-133,614	252,039	0,164	-0,201
-132,599	800,000	0,036	0,101
-131,585	-82,955	0,111	0,025
-130,570	-200,000	0,017	-0,088
-129,556	201,484	-0,072	0,080
-128,541	264,656	0,077	0,097
-127,526	-36,808	0,056	-0,021
-126,512	-200,000	-0,002	0,032
-125,497	-90,625	-0,043	0,009
-124,483	-15,201	0,076	0,035
-123,468	-2,945	-0,028	-0,014
-122,453	67,744	0,031	-0,023
-121,439	38,155	0,107	-0,068
-120,424	-80,082	-0,154	-0,037
-119,410	-158,600	-0,093	-0,004
