DTS Sentinel unit serial number:	SN410029Multiplexer serial number:	ORYXHardware model number:	OX2-SRSoftware version number:	ORYX F/W v4,00 Oryx Data Collector v3.7.2.0data status	okinstallation	B4 Nyhavnadifferential loss correction	single-endedforward channel	channel 2reverse channel	N/Adate	2023/12/16time	00:45:13forward acquisition time	300,00reverse acquisition time	0,00gamma	499,1914k internal	0,3128k external	0,3128temperature offset calibration	1,0000default loss term (dB/km)	0,3820temperature slope calibration	1,0000multiplexer offset coefficient	1,0000multiplexer slope coefficient	1,0000fibre end	0,00T internal ref (°C)	21,96T ext. ref 1 (°C)	6,87T ext. ref 2 (°C)	7,06length (m)	temperature (°C)	Stokes	anti-Stokes-744,400	800,000	0,010	-0,022
-743,385	-23,927	-0,266	0,118
-742,371	655,856	-0,075	0,145
-741,356	23,186	-0,203	0,124
-740,342	102,855	0,124	0,108
-739,327	-148,030	-0,196	0,012
-738,312	-91,805	0,156	0,033
-737,298	-167,365	-0,363	-0,011
-736,283	35,681	0,172	-0,112
-735,269	-83,154	-0,207	0,049
-734,254	-200,000	0,012	-0,091
-733,239	-62,693	-0,332	-0,102
-732,225	-200,000	0,008	0,067
-731,210	800,000	0,026	0,063
-730,196	-200,000	-0,002	0,088
-729,181	-29,009	-0,033	-0,014
-728,167	-103,713	0,094	0,016
-727,152	364,488	-0,030	0,045
-726,137	-86,583	0,031	-0,007
-725,123	800,000	-0,038	-0,088
-724,108	148,938	0,046	0,047
-723,094	12,988	-0,047	-0,027
-722,079	-200,000	0,004	-0,051
-721,064	48,562	-0,021	-0,014
-720,050	111,793	0,071	0,064
-719,035	5,623	0,058	0,032
-718,021	-90,859	-0,073	0,015
-717,006	-200,000	0,021	-0,132
-715,991	800,000	-0,045	0,118
-714,977	278,905	-0,080	0,106
-713,962	-61,944	0,013	0,004
-712,948	-81,981	-0,046	0,011
-711,933	-48,843	0,034	-0,012
-710,918	7,754	0,068	0,038
-709,904	800,000	-0,047	-0,106
-708,889	-88,973	-0,105	-0,023
-707,875	9,701	-0,011	-0,006
-706,860	16,528	0,102	0,060
-705,845	800,000	-0,018	0,054
-704,831	-200,000	0,034	0,156
-703,816	-200,000	-0,006	-0,103
-702,802	210,876	-0,019	0,022
-701,787	-79,453	0,013	-0,003
-700,772	-178,207	-0,059	0,001
-699,758	800,000	0,031	-0,071
-698,743	-171,890	0,029	0,001
-697,729	289,528	-0,054	0,073
-696,714	92,956	-0,066	0,055
-695,699	800,000	0,033	-0,092
-694,685	-3,607	-0,043	-0,022
-693,670	188,881	-0,042	0,046
-692,656	-127,950	0,038	0,004
-691,641	-110,508	0,088	-0,013
-690,627	-84,070	0,101	0,024
-689,612	-115,751	-0,084	0,012
-688,597	-20,433	0,074	-0,034
-687,583	-19,032	-0,125	0,058
-686,568	800,000	0,038	0,087
-685,554	117,518	-0,039	0,036
-684,539	9,927	-0,048	-0,027
-683,524	-75,285	0,022	-0,006
-682,510	800,000	0,016	-0,039
-681,495	-144,756	-0,062	-0,004
-680,481	-48,578	0,091	0,032
-679,466	800,000	-0,020	0,046
-678,451	800,000	0,044	-0,108
-677,437	-141,726	-0,139	-0,010
-676,422	466,222	-0,012	0,020
-675,408	-87,196	-0,023	0,005
-674,393	-45,062	0,029	-0,011
-673,378	-200,000	-0,011	0,050
-672,364	-200,000	-0,020	-0,097
-671,349	800,000	-0,023	-0,048
-670,335	241,014	-0,033	-0,041
-669,320	-139,908	-0,056	-0,004
-668,305	344,657	-0,029	0,043
-667,291	-39,535	-0,215	-0,083
-666,276	61,103	-0,081	0,060
-665,262	-90,780	-0,124	0,026
-664,247	658,297	-0,078	-0,149
-663,232	193,511	-0,032	-0,035
-662,218	-200,000	-0,002	0,027
-661,203	332,583	0,046	-0,066
-660,189	125,917	-0,021	-0,020
-659,174	286,620	0,028	-0,038
-658,159	245,890	-0,060	-0,076
-657,145	-112,814	-0,051	-0,007
-656,130	-200,000	0,007	-0,129
-655,116	-200,000	-0,005	0,124
-654,101	-70,612	0,192	0,054
-653,086	-63,759	-0,067	0,020
-652,072	-27,882	-0,088	-0,038
-651,057	61,468	-0,081	-0,060
-650,043	113,818	0,154	-0,139
-649,028	-107,119	-0,081	0,013
-648,014	85,070	-0,049	-0,040
-646,999	-36,469	-0,159	-0,063
-645,984	164,263	-0,016	0,016
-644,970	195,196	-0,083	-0,094
-643,955	800,000	0,024	0,073
-642,941	-200,000	0,009	0,072
-641,926	-82,560	-0,099	0,024
-640,911	-200,000	0,005	-0,098
-639,897	-61,885	-0,121	0,037
-638,882	108,110	-0,019	0,017
-637,868	800,000	0,027	-0,082
-636,853	98,129	-0,111	-0,095
-635,838	110,697	-0,017	0,015
-634,824	800,000	0,017	-0,035
-633,809	125,092	0,084	0,078
-632,795	-194,020	0,105	-0,001
-631,780	22,143	-0,096	-0,058
-630,765	-200,000	0,005	-0,065
-629,751	-36,366	-0,066	-0,026
-628,736	-18,842	-0,033	0,015
-627,722	800,000	-0,054	-0,126
-626,707	800,000	0,026	0,078
-625,692	800,000	0,035	-0,080
-624,678	-200,000	0,000	-0,061
-623,663	-200,000	0,054	0,178
-622,649	-23,671	-0,054	-0,024
-621,634	6,306	0,072	-0,039
-620,619	-116,359	0,080	-0,011
-619,605	-200,000	-0,001	0,037
-618,590	-62,348	-0,133	0,041
-617,576	255,182	0,067	-0,086
-616,561	538,128	0,035	-0,062
-615,546	617,107	-0,093	-0,173
-614,532	-129,897	-0,098	-0,010
-613,517	-200,000	0,027	0,114
-612,503	-88,794	-0,149	0,033
-611,488	321,511	-0,120	-0,169
-610,474	-14,167	-0,007	0,003
-609,459	454,535	0,006	-0,011
-608,444	800,000	-0,011	-0,027
-607,430	-200,000	-0,008	-0,035
-606,415	800,000	0,043	-0,103
-605,401	111,428	0,109	-0,097
-604,386	16,526	0,050	0,029
-603,371	-92,322	0,142	0,029
-602,357	-200,000	0,005	-0,078
-601,342	-136,032	-0,012	-0,001
-600,328	147,807	-0,046	-0,046
-599,313	-200,000	-0,034	-0,163
-598,298	129,174	0,039	-0,036
-597,284	764,650	0,042	0,084
-596,269	-55,795	-0,100	0,033
-595,255	800,000	0,065	0,152
-594,240	-67,006	-0,097	-0,028
-593,225	-200,000	0,013	-0,069
-592,211	733,983	-0,013	-0,027
-591,196	-200,000	-0,021	-0,163
-590,182	172,865	0,080	-0,085
-589,167	93,810	0,073	0,061
-588,152	-76,118	-0,042	0,011
-587,138	-46,179	0,066	-0,024
-586,123	800,000	0,008	-0,023
-585,109	-101,541	-0,109	-0,019
-584,094	-200,000	0,162	-0,001
-583,079	708,546	0,058	0,114
-582,065	-101,624	0,246	0,044
-581,050	363,964	0,024	-0,035
-580,036	-73,333	-0,087	0,023
-579,021	-165,585	0,125	0,004
-578,006	95,044	0,008	0,007
-576,992	696,858	-0,024	-0,046
-575,977	-200,000	0,004	-0,046
-574,963	-43,803	0,094	-0,035
-573,948	205,245	0,089	0,102
-572,934	8,245	-0,038	-0,021
-571,919	800,000	-0,051	0,126
-570,904	-55,383	-0,057	0,019
-569,890	-9,694	-0,065	0,032
-568,875	-15,378	-0,132	0,062
-567,861	800,000	0,034	0,103
-566,846	-200,000	-0,038	-0,146
-565,831	-200,000	0,006	-0,063
-564,817	71,627	-0,064	-0,049
-563,802	124,769	0,127	0,118
-562,788	-200,000	-0,021	-0,083
-561,773	-153,018	0,133	0,007
-560,758	-69,267	0,089	0,025
-559,744	-128,114	0,081	-0,009
-558,729	60,196	-0,094	0,069
-557,715	165,855	0,075	-0,079
-556,700	800,000	-0,031	-0,083
-555,685	-118,012	-0,105	-0,014
-554,671	-45,303	0,153	0,056
-553,656	800,000	0,078	-0,187
-552,642	1,333	-0,074	0,039
-551,627	309,974	-0,067	0,093
-550,612	-22,321	-0,020	-0,009
-549,598	800,000	-0,055	-0,157
-548,583	800,000	0,070	-0,152
-547,569	-200,000	-0,024	-0,145
-546,554	-26,523	-0,024	-0,011
-545,539	-131,844	0,038	0,004
-544,525	141,189	-0,112	0,109
-543,510	-28,587	-0,179	0,076
-542,496	-198,284	-0,191	0,001
-541,481	135,176	0,017	0,016
-540,466	-85,841	0,093	0,021
-539,452	60,897	-0,042	0,031
-538,437	-30,286	0,187	-0,078
-537,423	38,379	0,099	-0,065
-536,408	-92,973	-0,156	0,032
-535,393	-200,000	-0,000	0,128
-534,379	-65,831	-0,131	-0,039
-533,364	-113,279	0,151	0,022
-532,350	161,318	-0,130	0,134
-531,335	800,000	-0,011	-0,034
-530,321	-200,000	-0,004	0,065
-529,306	-22,931	-0,069	-0,031
-528,291	800,000	0,020	-0,052
-527,277	-46,667	-0,055	0,020
-526,262	800,000	0,040	0,127
-525,248	-200,000	0,002	-0,169
-524,233	800,000	0,085	-0,189
-523,218	-31,633	0,030	-0,012
-522,204	-120,403	-0,057	0,007
-521,189	-52,646	-0,101	-0,034
-520,175	425,936	0,046	-0,073
-519,160	-200,000	-0,019	-0,166
-518,145	19,294	0,042	-0,025
-517,131	-200,000	0,017	0,091
-516,116	-29,856	0,064	0,027
-515,102	-200,000	0,011	-0,057
-514,087	459,313	0,003	-0,005
-513,072	127,889	0,057	-0,053
-512,058	800,000	0,042	0,125
-511,043	-29,371	0,039	0,016
-510,029	177,548	-0,115	0,124
-509,014	138,709	-0,060	0,058
-507,999	-127,224	-0,084	0,009
-506,985	800,000	-0,051	0,105
-505,970	-37,766	0,036	0,014
-504,956	453,562	-0,049	-0,081
-503,941	-25,193	-0,063	-0,027
-502,926	-2,978	0,190	0,097
-501,912	-200,000	0,014	0,095
-500,897	355,645	-0,059	0,087
-499,883	-90,652	-0,033	0,007
-498,868	-91,216	0,049	-0,010
-497,853	-37,964	-0,157	-0,061
-496,839	795,378	0,032	-0,065
-495,824	-0,464	-0,081	-0,042
-494,810	317,623	-0,007	-0,010
-493,795	800,000	0,043	0,106
-492,781	680,486	0,044	-0,084
-491,766	-200,000	-0,019	0,085
-490,751	363,417	-0,048	0,072
-489,737	-200,000	-0,006	0,043
-488,722	-40,472	0,085	0,032
-487,708	78,184	0,030	0,023
-486,693	-200,000	0,015	-0,143
-485,678	-64,421	-0,176	0,052
-484,664	32,690	-0,059	0,038
-483,649	-60,200	0,109	0,034
-482,635	366,175	-0,005	-0,008
-481,620	22,043	-0,066	0,040
-480,605	-138,518	0,076	0,006
-479,591	-200,000	-0,016	0,099
-478,576	462,629	0,041	0,068
-477,562	-42,396	0,065	-0,024
-476,547	73,193	-0,065	-0,050
-475,532	-200,000	0,011	-0,035
-474,518	122,454	-0,024	-0,022
-473,503	-101,440	0,270	0,048
-472,489	38,417	-0,017	0,011
-471,474	225,033	-0,044	-0,053
-470,459	-200,000	-0,023	0,085
-469,445	24,695	-0,148	-0,090
-468,430	63,107	0,036	0,026
-467,416	717,142	0,025	0,049
-466,401	-200,000	0,021	0,075
-465,386	731,631	0,036	0,071
-464,372	61,130	-0,049	0,035
-463,357	-81,426	-0,020	-0,005
-462,343	394,212	-0,073	0,112
-461,328	-200,000	-0,007	-0,053
-460,313	40,568	0,064	0,042
-459,299	91,127	-0,026	0,022
-458,284	176,874	0,054	0,058
-457,270	800,000	-0,007	-0,022
-456,255	-200,000	-0,027	0,106
-455,241	213,758	0,055	0,065
-454,226	66,892	-0,045	-0,034
-453,211	-200,000	-0,003	-0,056
-452,197	76,194	0,119	-0,092
-451,182	-200,000	0,010	-0,084
-450,168	198,739	-0,014	0,016
-449,153	-90,269	-0,039	-0,008
-448,138	-200,000	-0,010	-0,077
-447,124	-200,000	-0,010	-0,047
-446,109	156,368	-0,018	0,018
-445,095	593,554	0,033	0,060
-444,080	271,500	0,041	0,053
-443,065	-11,590	0,087	0,042
-442,051	169,102	0,054	-0,057
-441,036	-200,000	0,009	0,044
-440,022	14,707	-0,077	-0,044
-439,007	23,166	-0,056	-0,034
-437,992	82,436	-0,037	0,029
-436,978	-200,000	-0,002	0,042
-435,963	-72,134	-0,159	-0,043
-434,949	286,835	0,080	0,107
-433,934	-164,330	0,101	-0,003
-432,919	800,000	-0,060	-0,153
-431,905	800,000	-0,058	-0,186
-430,890	30,755	-0,122	-0,076
-429,876	-200,000	0,010	0,169
-428,861	-57,901	0,072	0,023
-427,846	-200,000	-0,004	-0,031
-426,832	128,663	0,039	0,037
-425,817	13,984	0,042	0,024
-424,803	800,000	-0,029	-0,075
-423,788	303,952	-0,027	-0,038
-422,773	122,168	0,097	0,089
-421,759	800,000	-0,028	-0,063
-420,744	154,332	0,069	0,070
-419,730	-200,000	-0,041	0,161
-418,715	-200,000	-0,024	-0,083
-417,701	51,951	-0,065	-0,046
-416,686	800,000	-0,022	0,047
-415,671	800,000	0,027	0,066
-414,657	-112,847	0,053	-0,008
-413,642	-200,000	-0,037	0,181
-412,628	800,000	0,018	-0,038
-411,613	-200,000	0,023	-0,174
-410,598	-200,000	-0,012	-0,092
-409,584	-200,000	0,008	-0,149
-408,569	683,449	0,041	0,078
-407,555	800,000	0,042	-0,109
-406,540	-48,243	-0,110	0,039
-405,525	-162,422	0,132	-0,005
-404,511	265,653	0,030	-0,039
-403,496	-81,000	-0,126	-0,030
-402,482	-200,000	0,030	-0,167
-401,467	-98,762	0,116	0,022
-400,452	441,397	0,059	0,096
-399,438	-200,000	-0,005	0,058
-398,423	348,657	0,040	0,059
-397,409	800,000	0,036	-0,077
-396,394	214,286	-0,027	0,032
-395,379	-200,000	0,008	-0,061
-394,365	-200,000	0,003	-0,021
-393,350	246,942	0,032	-0,040
-392,336	263,686	-0,043	-0,055
-391,321	-200,000	0,006	0,068
-390,306	-200,000	-0,041	-0,200
-389,292	55,833	-0,078	0,056
-388,277	129,829	-0,045	0,042
-387,263	132,136	0,052	0,049
-386,248	-63,888	0,092	0,027
-385,233	-28,254	0,012	-0,005
-384,219	-200,000	0,001	0,095
-383,204	-200,000	-0,000	0,035
-382,190	24,561	0,038	-0,023
-381,175	126,046	0,056	0,052
-380,160	-176,352	0,071	0,001
-379,146	29,386	0,077	-0,048
-378,131	800,000	0,056	0,145
-377,117	-200,000	0,004	-0,042
-376,102	800,000	0,090	-0,218
-375,088	532,078	-0,025	0,043
-374,073	43,504	-0,058	0,039
-373,058	-57,540	0,040	0,013
-372,044	-95,109	-0,074	0,015
-371,029	97,049	0,047	0,040
-370,015	-200,000	0,002	0,087
-369,000	-119,982	-0,019	0,002
-367,985	-200,000	0,015	-0,062
-366,971	-200,000	0,025	-0,098
-365,956	58,175	0,040	-0,029
-364,942	-200,000	0,018	-0,144
-363,927	243,256	-0,018	0,022
-362,912	320,484	-0,028	0,039
-361,898	-30,235	0,127	-0,053
-360,883	-161,926	-0,110	0,004
-359,869	780,807	0,054	-0,109
-358,854	800,000	0,088	0,205
-357,839	-200,000	0,003	0,112
-356,825	-200,000	0,042	0,188
-355,810	370,126	0,043	0,065
-354,796	36,711	0,068	-0,044
-353,781	230,014	-0,053	-0,064
-352,766	-200,000	-0,018	0,085
-351,752	-56,348	-0,081	-0,026
-350,737	-137,046	-0,038	0,003
-349,723	-123,797	0,101	-0,012
-348,708	-87,605	0,014	0,003
-347,693	41,642	-0,075	0,049
-346,679	800,000	-0,027	-0,067
-345,664	128,070	0,059	-0,055
-344,650	800,000	-0,011	0,033
-343,635	-200,000	-0,013	-0,097
-342,620	800,000	0,054	-0,117
-341,606	-200,000	0,006	0,071
-340,591	800,000	0,008	-0,018
-339,577	800,000	0,061	0,125
-338,562	800,000	0,016	-0,037
-337,548	-135,261	-0,048	0,004
-336,533	-81,984	0,118	0,028
-335,518	224,874	-0,021	0,024
-334,504	165,356	0,065	0,067
-333,489	800,000	0,033	-0,068
-332,475	-142,151	-0,076	0,005
-331,460	-109,776	-0,139	-0,021
-330,445	800,000	-0,069	0,150
-329,431	-200,000	0,068	0,000
-328,416	800,000	0,022	0,050
-327,402	24,230	-0,071	-0,043
-326,387	126,232	0,093	0,086
-325,372	28,462	-0,142	-0,087
-324,358	-200,000	-0,019	-0,099
-323,343	-200,000	0,006	-0,091
-322,329	-149,604	-0,058	-0,003
-321,314	-132,147	-0,057	-0,005
-320,299	402,280	-0,044	0,069
-319,285	-200,000	-0,014	0,096
-318,270	536,586	0,064	-0,111
-317,256	-78,286	-0,106	0,026
-316,241	59,491	-0,092	0,067
-315,226	-175,797	0,094	-0,002
-314,212	83,150	0,055	-0,044
-313,197	800,000	0,085	0,246
-312,183	110,369	0,137	-0,121
-311,168	300,083	0,020	-0,027
-310,153	-97,649	0,062	-0,012
-309,139	-65,770	0,063	0,018
-308,124	-53,804	0,075	-0,025
-307,110	293,263	-0,039	-0,052
-306,095	-200,000	-0,014	0,089
-305,080	6,742	-0,118	0,064
-304,066	-200,000	0,015	-0,138
-303,051	571,232	-0,029	-0,053
-302,037	-200,000	-0,009	-0,055
-301,022	748,174	0,034	-0,068
-300,008	85,786	0,079	-0,063
-298,993	-200,000	-0,004	-0,042
-297,978	-200,000	0,010	0,043
-296,964	-200,000	-0,016	-0,097
-295,949	459,399	0,033	-0,054
-294,935	-85,353	0,096	0,022
-293,920	239,385	-0,058	0,071
-292,905	-65,392	0,068	-0,020
-291,891	-200,000	0,007	-0,100
-290,876	-175,597	0,058	0,001
-289,862	231,245	0,053	-0,063
-288,847	-162,813	0,053	0,002
-287,832	-200,000	0,011	-0,049
-286,818	-53,548	0,053	0,018
-285,803	45,819	0,055	0,037
-284,789	81,870	0,101	0,080
-283,774	-200,000	0,016	-0,058
-282,759	-200,000	-0,032	-0,143
-281,745	23,379	-0,056	0,034
-280,730	-200,000	-0,000	-0,063
-279,716	-200,000	-0,003	-0,140
-278,701	87,334	-0,042	-0,034
-277,686	800,000	0,040	0,109
-276,672	-200,000	-0,018	0,145
-275,657	43,828	0,095	0,064
-274,643	142,809	0,084	0,082
-273,628	80,190	-0,106	0,083
-272,613	-72,398	0,110	-0,030
-271,599	800,000	0,041	-0,097
-270,584	118,146	0,092	-0,083
-269,570	-200,000	-0,015	0,051
-268,555	800,000	0,009	-0,022
-267,540	26,415	-0,065	-0,040
-266,526	68,005	-0,060	-0,045
-265,511	800,000	-0,019	-0,052
-264,497	78,403	-0,008	0,007
-263,482	800,000	-0,028	0,081
-262,467	-152,948	-0,035	-0,002
-261,453	-39,500	-0,043	0,016
-260,438	66,915	-0,082	-0,061
-259,424	-47,347	-0,039	-0,014
-258,409	800,000	0,042	-0,130
-257,395	-2,118	-0,092	-0,047
-256,380	-36,455	0,032	0,013
-255,365	394,315	0,050	-0,076
-254,351	800,000	0,019	-0,048
-253,336	800,000	0,056	-0,139
-252,322	-200,000	0,004	-0,031
-251,307	-156,774	0,074	0,003
-250,292	3,912	-0,037	0,020
-249,278	75,144	-0,101	0,077
-248,263	-126,945	-0,184	0,019
-247,249	246,213	0,052	0,064
-246,234	800,000	0,032	-0,071
-245,219	503,364	-0,053	-0,089
-244,205	-45,855	-0,101	-0,036
-243,190	-200,000	-0,009	0,036
-242,176	-139,976	-0,025	-0,002
-241,161	-3,829	0,110	0,055
-240,146	114,837	0,038	0,034
-239,132	458,621	-0,043	0,070
-238,117	246,414	0,010	0,012
-237,103	800,000	-0,049	0,112
-236,088	800,000	0,017	0,050
-235,073	-63,839	-0,093	-0,028
-234,059	-28,825	0,064	-0,027
-233,044	-200,000	0,012	0,073
-232,030	22,021	-0,110	0,065
-231,015	800,000	0,011	-0,031
-230,000	-106,753	-0,093	0,015
-228,986	155,708	-0,013	0,014
-227,971	-200,000	0,017	0,080
-226,957	800,000	-0,025	0,061
-225,942	183,319	0,047	0,050
-224,927	-200,000	-0,019	0,082
-223,913	800,000	-0,048	0,116
-222,898	365,892	0,019	-0,028
-221,884	363,158	-0,022	0,032
-220,869	-104,427	0,168	0,028
-219,855	327,899	0,062	-0,087
-218,840	77,116	0,045	0,035
-217,825	-147,820	0,077	-0,005
-216,811	535,699	-0,072	-0,125
-215,796	-150,228	0,084	0,005
-214,782	-118,428	-0,067	-0,009
-213,767	-200,000	0,021	0,073
-212,752	-200,000	0,002	0,024
-211,738	-176,008	-0,090	-0,002
-210,723	-101,164	0,041	0,007
-209,709	800,000	0,032	0,068
-208,694	-200,000	0,003	-0,102
-207,679	-200,000	0,020	-0,248
-206,665	-166,130	-0,068	0,002
-205,650	4,815	0,173	0,092
-204,636	-200,000	-0,033	0,149
-203,621	-133,768	0,059	-0,005
-202,606	800,000	0,033	0,081
-201,592	-200,000	0,004	0,058
-200,577	-200,000	-0,003	-0,138
-199,563	-200,000	0,016	0,059
-198,548	190,032	0,013	0,015
-197,533	-200,000	-0,005	0,033
-196,519	-24,958	-0,132	0,057
-195,504	210,204	0,081	-0,092
-194,490	86,064	-0,169	-0,135
-193,475	-33,049	0,040	0,016
-192,460	116,714	-0,099	0,088
-191,446	800,000	-0,034	-0,088
-190,431	149,325	0,123	0,122
-189,417	154,177	-0,018	-0,018
-188,402	-200,000	0,011	0,074
-187,387	800,000	-0,056	0,150
-186,373	-34,132	0,113	0,045
-185,358	-38,632	0,059	-0,023
-184,344	-145,454	-0,047	0,003
-183,329	-200,000	-0,022	0,088
-182,315	800,000	0,032	0,077
-181,300	7,503	0,118	0,064
-180,285	-200,000	-0,025	-0,094
-179,271	30,310	0,039	-0,024
-178,256	-24,296	0,032	0,014
-177,242	291,896	-0,105	0,139
-176,227	583,691	0,023	-0,042
-175,212	-121,094	-0,041	-0,005
-174,198	-200,000	0,019	0,113
-173,183	90,134	-0,125	0,102
-172,169	-200,000	0,000	-0,066
-171,154	266,018	-0,028	0,036
-170,139	326,027	-0,031	-0,044
-169,125	114,234	0,029	-0,026
-168,110	101,628	-0,003	-0,002
-167,096	73,624	-0,050	-0,038
-166,081	-133,365	-0,140	-0,013
-165,066	42,731	-0,059	-0,039
-164,052	-200,000	0,018	0,111
-163,037	179,235	-0,096	0,103
-162,023	82,029	-0,103	0,081
-161,008	-3,072	0,091	-0,046
-159,993	75,949	-0,055	0,042
-158,979	800,000	0,018	0,049
-157,964	-25,159	-0,119	-0,051
-156,950	298,237	-0,065	-0,088
-155,935	162,028	0,037	0,037
-154,920	623,702	0,031	0,057
-153,906	-200,000	-0,015	0,151
-152,891	323,561	-0,077	0,108
-151,877	-194,464	0,157	0,001
-150,862	16,129	-0,046	-0,026
-149,847	183,628	0,019	0,021
-148,833	162,304	0,037	0,038
-147,818	-129,950	0,081	-0,008
-146,804	142,768	0,075	0,072
-145,789	-75,632	-0,077	0,020
-144,775	-76,657	-0,103	0,026
-143,760	662,898	-0,053	0,099
-142,745	329,269	-0,040	0,056
-141,731	-102,083	-0,082	0,014
-140,716	118,810	-0,086	0,077
-139,702	-200,000	-0,011	-0,109
-138,687	-50,029	-0,137	-0,047
-137,672	18,780	-0,110	0,064
-136,658	800,000	-0,028	0,085
-135,643	800,000	-0,045	0,099
-134,629	424,782	0,022	-0,035
-133,614	482,162	0,063	-0,105
-132,599	569,088	0,013	0,022
-131,585	-133,720	0,111	-0,010
-130,570	-63,301	0,006	0,002
-129,556	-200,000	-0,032	-0,178
-128,541	800,000	0,032	-0,087
-127,526	-138,896	-0,076	-0,006
-126,512	-200,000	0,002	0,048
-125,497	-200,000	0,008	-0,062
-124,483	-200,000	0,007	-0,101
-123,468	-29,905	0,085	0,035
-122,453	800,000	-0,043	0,107
-121,439	-200,000	0,003	-0,036
-120,424	430,512	0,027	-0,043
-119,410	-200,000	-0,025	0,126
-118,395	800,000	-0,034	-0,076
