DTS Sentinel unit serial number:	SN410029Multiplexer serial number:	ORYXHardware model number:	OX2-SRSoftware version number:	ORYX F/W v4,00 Oryx Data Collector v3.7.2.0data status	okinstallation	B4 Nyhavnadifferential loss correction	single-endedforward channel	channel 2reverse channel	N/Adate	2023/12/16time	10:40:13forward acquisition time	300,00reverse acquisition time	0,00gamma	499,1914k internal	0,3125k external	0,3125temperature offset calibration	1,0000default loss term (dB/km)	0,3820temperature slope calibration	1,0000multiplexer offset coefficient	1,0000multiplexer slope coefficient	1,0000fibre end	0,00T internal ref (°C)	23,39T ext. ref 1 (°C)	9,09T ext. ref 2 (°C)	9,25length (m)	temperature (°C)	Stokes	anti-Stokes-744,400	104,053	0,061	0,054
-743,385	3,172	-0,182	0,098
-742,371	43,752	0,021	-0,014
-741,356	147,181	-0,138	0,138
-740,342	428,905	-0,062	0,100
-739,327	-161,992	-0,125	-0,005
-738,312	116,929	-0,053	-0,048
-737,298	515,380	-0,121	0,211
-736,283	-200,000	0,012	0,137
-735,269	-44,049	-0,277	0,103
-734,254	-200,000	-0,029	-0,146
-733,239	-159,941	-0,393	-0,016
-732,225	-56,667	0,162	-0,053
-731,210	233,488	-0,074	0,090
-730,196	-89,081	0,086	-0,019
-729,181	-131,666	-0,104	-0,010
-728,167	469,283	-0,035	-0,059
-727,152	96,539	0,120	0,102
-726,137	32,455	-0,065	-0,042
-725,123	565,439	0,065	-0,118
-724,108	-148,045	-0,169	-0,010
-723,094	-103,904	-0,103	-0,018
-722,079	86,042	-0,068	-0,055
-721,064	-200,000	0,005	0,106
-720,050	-143,354	-0,118	-0,008
-719,035	158,495	0,020	-0,021
-718,021	263,938	0,010	0,013
-717,006	14,315	-0,207	-0,120
-715,991	-42,057	-0,102	-0,039
-714,977	-13,962	-0,067	-0,032
-713,962	-12,131	-0,057	-0,028
-712,948	793,899	0,095	-0,196
-711,933	-200,000	0,003	-0,035
-710,918	800,000	0,036	-0,112
-709,904	247,210	0,018	-0,023
-708,889	-104,236	-0,127	0,022
-707,875	-180,039	0,063	0,001
-706,860	-174,531	-0,064	0,001
-705,845	-98,853	-0,098	0,018
-704,831	275,910	-0,093	0,122
-703,816	-2,146	-0,085	0,044
-702,802	-140,223	0,032	-0,002
-701,787	-200,000	-0,012	-0,129
-700,772	-200,000	-0,038	-0,196
-699,758	-104,036	-0,138	-0,024
-698,743	56,613	0,065	0,047
-697,729	-76,587	-0,100	0,026
-696,714	-180,867	0,069	0,001
-695,699	-200,000	-0,033	-0,111
-694,685	11,674	0,072	0,041
-693,670	-200,000	0,063	-0,000
-692,656	-37,279	0,017	-0,007
-691,641	-127,817	-0,060	-0,006
-690,627	-200,000	-0,019	0,113
-689,612	800,000	0,025	-0,063
-688,597	-200,000	0,007	-0,043
-687,583	210,226	0,040	0,047
-686,568	800,000	0,014	-0,046
-685,554	184,007	-0,018	0,019
-684,539	-1,278	0,023	-0,012
-683,524	-45,668	-0,033	-0,012
-682,510	800,000	0,043	0,140
-681,495	-200,000	-0,011	-0,121
-680,481	12,641	-0,117	-0,067
-679,466	55,340	-0,101	-0,073
-678,451	800,000	0,037	0,105
-677,437	214,429	0,066	0,077
-676,422	16,044	0,112	-0,065
-675,408	-181,213	-0,053	0,001
-674,393	800,000	-0,027	-0,085
-673,378	-121,544	-0,132	-0,016
-672,364	-200,000	0,014	-0,056
-671,349	-200,000	-0,005	-0,057
-670,335	255,852	-0,034	0,043
-669,320	-200,000	-0,003	0,049
-668,305	157,761	-0,054	0,055
-667,291	706,355	-0,061	0,121
-666,276	-200,000	-0,009	-0,152
-665,262	800,000	-0,064	-0,140
-664,247	27,398	-0,009	-0,006
-663,232	46,870	-0,080	-0,055
-662,218	-52,291	0,065	0,022
-661,203	800,000	-0,020	0,054
-660,189	320,584	-0,089	-0,125
-659,174	-169,106	0,036	-0,001
-658,159	-57,269	-0,101	0,033
-657,145	31,999	-0,097	-0,062
-656,130	204,328	0,097	0,112
-655,116	-200,000	0,004	-0,025
-654,101	55,616	-0,068	0,049
-653,086	-62,781	-0,065	-0,020
-652,072	619,160	0,071	-0,132
-651,057	129,845	-0,053	-0,050
-650,043	548,894	0,120	-0,215
-649,028	76,939	-0,057	-0,045
-648,014	17,824	-0,130	0,077
-646,999	-200,000	-0,018	-0,108
-645,984	-200,000	-0,022	0,121
-644,970	311,563	0,009	0,012
-643,955	-73,264	-0,052	-0,014
-642,941	800,000	0,050	0,121
-641,926	50,094	0,049	-0,034
-640,911	-73,619	0,037	-0,010
-639,897	142,904	-0,107	-0,106
-638,882	-200,000	-0,019	0,065
-637,868	489,120	-0,049	0,084
-636,853	474,607	0,072	-0,121
-635,838	-67,976	-0,087	-0,025
-634,824	-76,412	-0,125	0,032
-633,809	253,180	0,022	0,028
-632,795	-200,000	0,006	0,176
-631,780	-57,152	-0,066	-0,021
-630,765	471,003	0,094	-0,157
-629,751	800,000	-0,080	-0,175
-628,736	100,987	-0,035	0,030
-627,722	800,000	0,019	-0,040
-626,707	-200,000	-0,003	0,010
-625,692	-82,584	0,119	0,028
-624,678	800,000	-0,053	0,128
-623,663	262,358	0,083	0,107
-622,649	208,017	-0,013	0,015
-621,634	-120,480	-0,189	-0,023
-620,619	-61,419	-0,091	0,028
-619,605	-200,000	-0,011	-0,156
-618,590	-26,818	0,142	0,061
-617,576	3,262	-0,022	-0,012
-616,561	301,727	-0,085	0,117
-615,546	93,877	-0,067	-0,056
-614,532	440,837	-0,099	-0,161
-613,517	30,595	-0,053	0,034
-612,503	282,273	-0,034	0,045
-611,488	93,159	-0,047	0,040
-610,474	223,114	0,035	0,042
-609,459	358,624	-0,020	-0,030
-608,444	-13,734	0,032	0,015
-607,430	-25,799	-0,077	-0,034
-606,415	46,972	-0,100	-0,069
-605,401	1,002	-0,059	0,031
-604,386	-104,491	-0,052	-0,009
-603,371	749,464	0,025	0,049
-602,357	-111,211	-0,086	-0,013
-601,342	239,905	0,065	-0,080
-600,328	675,734	-0,024	0,047
-599,313	-124,787	-0,066	0,007
-598,298	-82,453	-0,080	0,019
-597,284	549,597	0,025	-0,044
-596,269	-200,000	-0,009	0,052
-595,255	-200,000	-0,011	-0,125
-594,240	-77,251	-0,044	0,011
-593,225	-118,504	0,108	0,014
-592,211	-200,000	-0,006	-0,104
-591,196	-200,000	-0,003	-0,023
-590,182	-200,000	0,011	-0,060
-589,167	-39,862	0,105	-0,041
-588,152	215,421	-0,080	0,094
-587,138	-200,000	0,016	0,075
-586,123	81,826	0,065	-0,052
-585,109	111,021	-0,049	-0,043
-584,094	552,718	-0,047	0,085
-583,079	19,315	0,115	0,068
-582,065	-200,000	-0,004	-0,122
-581,050	-200,000	0,005	0,034
-580,036	-200,000	0,004	0,069
-579,021	-66,803	0,068	-0,020
-578,006	24,165	-0,088	-0,054
-576,992	-79,136	0,163	-0,041
-575,977	62,317	-0,011	-0,008
-574,963	-43,870	0,076	0,028
-573,948	-200,000	-0,000	-0,028
-572,934	-200,000	-0,080	0,000
-571,919	-143,386	0,065	0,005
-570,904	-171,205	-0,038	-0,001
-569,890	-23,528	-0,108	0,048
-568,875	800,000	-0,033	0,081
-567,861	119,358	0,034	0,031
-566,846	191,243	0,064	-0,072
-565,831	428,258	0,039	0,062
-564,817	713,252	-0,013	-0,026
-563,802	-50,475	-0,098	-0,034
-562,788	723,182	0,005	-0,011
-561,773	8,033	-0,116	0,064
-560,758	327,900	-0,027	-0,039
-559,744	6,610	0,074	0,041
-558,729	-133,594	0,050	0,005
-557,715	218,171	0,079	0,094
-556,700	612,132	-0,011	-0,021
-555,685	800,000	0,040	-0,117
-554,671	800,000	-0,058	0,130
-553,656	186,250	0,026	0,029
-552,642	800,000	-0,035	-0,087
-551,627	-7,942	-0,046	-0,023
-550,612	-200,000	0,001	-0,119
-549,598	64,789	-0,065	-0,049
-548,583	230,778	-0,025	0,030
-547,569	-200,000	-0,013	0,094
-546,554	111,198	0,064	0,057
-545,539	80,241	0,073	0,058
-544,525	-200,000	-0,031	-0,148
-543,510	309,770	0,020	0,028
-542,496	302,318	-0,051	-0,070
-541,481	-105,285	-0,081	0,013
-540,466	105,317	-0,136	0,119
-539,452	-108,371	0,126	-0,020
-538,437	-79,117	0,162	0,040
-537,423	-200,000	-0,009	-0,138
-536,408	-5,926	0,055	-0,028
-535,393	-109,682	-0,109	0,017
-534,379	-97,819	-0,041	-0,008
-533,364	779,838	-0,038	-0,078
-532,350	519,492	-0,029	-0,051
-531,335	-11,592	-0,075	0,036
-530,321	-200,000	0,006	0,102
-529,306	17,315	-0,100	-0,058
-528,291	-90,906	0,052	-0,011
-527,277	-200,000	0,015	0,118
-526,262	325,693	-0,091	-0,129
-525,248	-200,000	-0,024	-0,108
-524,233	3,817	0,124	-0,067
-523,218	165,413	-0,083	0,087
-522,204	800,000	0,016	0,038
-521,189	626,679	-0,027	-0,051
-520,175	72,594	-0,143	0,110
-519,160	388,870	0,044	0,068
-518,145	303,367	-0,016	0,023
-517,131	-200,000	-0,009	0,037
-516,116	110,213	0,036	0,032
-515,102	77,374	0,057	0,045
-514,087	-60,748	-0,084	0,026
-513,072	19,207	-0,057	-0,034
-512,058	-96,440	-0,187	0,036
-511,043	362,042	-0,072	0,107
-510,029	-95,993	0,115	-0,022
-509,014	-200,000	-0,001	-0,067
-507,999	-200,000	-0,002	0,099
-506,985	800,000	0,007	0,021
-505,970	344,105	-0,035	-0,051
-504,956	144,893	0,063	-0,062
-503,941	45,969	0,032	0,022
-502,926	266,405	0,125	-0,162
-501,912	-140,833	0,149	0,011
-500,897	171,654	-0,045	-0,048
-499,883	-200,000	-0,038	-0,162
-498,868	327,739	-0,030	-0,043
-497,853	-94,699	-0,119	-0,024
-496,839	157,600	0,070	-0,072
-495,824	203,331	0,041	0,047
-494,810	-200,000	0,019	0,127
-493,795	-200,000	-0,001	0,017
-492,781	-109,057	0,145	0,023
-491,766	-35,059	-0,094	-0,038
-490,751	5,534	-0,042	0,023
-489,737	800,000	0,037	-0,096
-488,722	-52,340	-0,147	0,050
-487,708	-126,667	-0,125	-0,013
-486,693	-150,861	0,065	-0,004
-485,678	293,042	-0,060	-0,081
-484,664	800,000	-0,046	-0,099
-483,649	-200,000	-0,004	0,025
-482,635	-132,541	-0,017	0,002
-481,620	21,414	-0,062	-0,037
-480,605	-84,692	0,091	-0,021
-479,591	-200,000	0,006	-0,087
-478,576	166,497	-0,093	-0,097
-477,562	197,752	-0,081	-0,092
-476,547	-170,057	-0,135	-0,003
-475,532	-200,000	0,052	-0,209
-474,518	-143,474	0,178	0,012
-473,503	-22,475	-0,011	0,005
-472,489	-200,000	-0,016	0,071
-471,474	-83,294	0,044	-0,010
-470,459	68,376	-0,032	0,024
-469,445	669,136	-0,021	-0,041
-468,430	-8,987	-0,030	-0,015
-467,416	-82,337	0,042	0,010
-466,401	39,214	-0,018	-0,012
-465,386	-24,333	0,052	-0,023
-464,372	800,000	0,040	0,097
-463,357	-200,000	-0,007	0,042
-462,343	-109,973	-0,141	-0,021
-461,328	50,085	0,115	-0,080
-460,313	1,669	-0,076	0,040
-459,299	-200,000	-0,019	0,102
-458,284	196,716	0,045	0,050
-457,270	48,273	-0,128	-0,088
-456,255	30,310	0,063	-0,039
-455,241	399,381	-0,061	0,095
-454,226	-72,308	-0,020	-0,005
-453,211	-200,000	-0,000	-0,085
-452,197	-200,000	0,011	0,044
-451,182	47,382	0,165	0,113
-450,168	198,717	0,035	-0,039
-449,153	800,000	-0,053	0,140
-448,138	800,000	-0,043	-0,098
-447,124	-94,328	0,151	0,030
-446,109	238,725	-0,025	-0,030
-445,095	-200,000	0,004	0,102
-444,080	-81,071	0,171	0,041
-443,065	800,000	-0,057	0,148
-442,051	579,305	0,042	-0,076
-441,036	-200,000	0,005	-0,098
-440,022	73,571	0,109	-0,084
-439,007	-200,000	0,022	-0,108
-437,992	-200,000	0,018	0,073
-436,978	-106,868	0,065	-0,010
-435,963	106,708	-0,081	0,071
-434,949	775,300	-0,047	0,094
-433,934	800,000	-0,050	0,132
-432,919	-17,288	0,086	-0,040
-431,905	800,000	0,050	-0,115
-430,890	-1,651	0,066	0,034
-429,876	595,218	0,084	0,153
-428,861	-200,000	-0,011	0,050
-427,846	44,653	-0,032	-0,022
-426,832	174,888	0,018	0,019
-425,817	-164,247	0,117	-0,004
-424,803	14,999	-0,053	-0,031
-423,788	800,000	-0,018	0,042
-422,773	-200,000	0,011	-0,039
-421,759	17,473	0,146	-0,085
-420,744	-24,509	0,077	0,033
-419,730	-111,397	-0,130	-0,019
-418,715	-200,000	0,009	-0,075
-417,701	294,121	-0,076	-0,102
-416,686	800,000	0,032	-0,075
-415,671	259,404	0,023	-0,030
-414,657	-192,163	0,180	0,001
-413,642	-200,000	-0,011	0,088
-412,628	-63,600	0,066	0,020
-411,613	-200,000	-0,015	0,107
-410,598	800,000	-0,052	0,128
-409,584	-200,000	0,005	-0,048
-408,569	36,097	0,065	-0,042
-407,555	250,573	0,014	-0,018
-406,540	800,000	-0,062	-0,168
-405,525	107,406	0,095	-0,083
-404,511	-33,734	-0,123	-0,050
-403,496	-200,000	-0,006	-0,065
-402,482	-200,000	-0,001	0,057
-401,467	770,215	-0,037	0,075
-400,452	-200,000	0,026	0,092
-399,438	-200,000	0,044	-0,159
-398,423	-200,000	-0,011	-0,103
-397,409	192,996	-0,060	0,067
-396,394	800,000	0,030	-0,087
-395,379	-105,543	-0,007	-0,001
-394,365	-200,000	0,008	-0,043
-393,350	399,936	-0,041	0,063
-392,336	-200,000	-0,008	-0,187
-391,321	-132,992	0,036	-0,003
-390,306	561,844	-0,041	0,073
-389,292	-120,265	-0,054	0,007
-388,277	302,422	0,034	0,047
-387,263	17,101	0,036	0,021
-386,248	43,299	0,158	0,106
-385,233	13,539	0,063	0,036
-384,219	800,000	-0,023	0,051
-383,204	-200,000	-0,008	-0,028
-382,190	11,933	-0,072	-0,040
-381,175	5,490	0,128	-0,069
-380,160	-87,543	-0,059	-0,013
-379,146	388,919	-0,045	0,069
-378,131	56,428	0,115	0,082
-377,117	-11,227	0,019	-0,009
-376,102	-112,370	-0,093	0,014
-375,088	-200,000	0,014	0,108
-374,073	-200,000	-0,000	0,080
-373,058	-200,000	0,022	0,248
-372,044	-200,000	-0,012	-0,043
-371,029	-79,934	0,023	0,006
-370,015	345,734	-0,044	0,064
-369,000	-200,000	-0,025	0,096
-367,985	-200,000	0,021	0,133
-366,971	114,213	0,058	-0,052
-365,956	-200,000	-0,015	0,119
-364,942	37,181	0,130	0,084
-363,927	-200,000	0,028	0,137
-362,912	800,000	-0,019	-0,055
-361,898	800,000	0,050	0,107
-360,883	-40,131	-0,101	-0,039
-359,869	-145,913	-0,043	-0,003
-358,854	-121,492	-0,101	-0,012
-357,839	55,861	0,065	0,046
-356,825	-109,644	0,019	-0,003
-355,810	-200,000	-0,021	0,129
-354,796	-50,245	0,017	0,006
-353,781	27,093	-0,063	0,039
-352,766	-200,000	0,015	0,078
-351,752	-144,026	0,030	-0,002
-350,737	544,104	0,083	-0,146
-349,723	-111,142	0,056	-0,008
-348,708	134,583	0,050	0,048
-347,693	-200,000	-0,026	-0,117
-346,679	800,000	-0,050	-0,141
-345,664	-200,000	0,012	-0,051
-344,650	-156,185	-0,076	0,003
-343,635	-200,000	-0,017	0,064
-342,620	800,000	0,055	0,150
-341,606	-185,952	0,149	-0,002
-340,591	800,000	0,026	0,070
-339,577	206,462	-0,058	-0,066
-338,562	-78,650	-0,130	-0,032
-337,548	160,702	0,050	-0,051
-336,533	6,320	0,106	-0,058
-335,518	-25,386	0,084	0,036
-334,504	-200,000	-0,002	0,059
-333,489	-200,000	-0,005	0,104
-332,475	-30,593	-0,065	-0,027
-331,460	-114,218	-0,108	-0,015
-330,445	800,000	-0,009	0,020
-329,431	-29,224	0,094	-0,039
-328,416	6,726	-0,072	-0,039
-327,402	14,578	0,081	-0,046
-326,387	371,183	-0,022	0,033
-325,372	202,715	-0,052	0,058
-324,358	800,000	-0,046	-0,103
-323,343	291,503	0,055	0,073
-322,329	428,307	0,077	-0,121
-321,314	800,000	-0,006	0,017
-320,299	-138,445	0,086	0,007
-319,285	469,820	-0,061	-0,101
-318,270	139,284	-0,074	-0,072
-317,256	800,000	-0,033	-0,066
-316,241	-143,656	0,049	-0,003
-315,226	-27,671	-0,074	0,031
-314,212	-26,098	0,056	0,024
-313,197	344,087	-0,016	-0,023
-312,183	-1,499	0,115	0,059
-311,168	-120,522	-0,080	-0,010
-310,153	90,966	0,071	-0,059
-309,139	524,726	-0,064	-0,111
-308,124	-200,000	0,006	0,051
-307,110	752,105	0,077	0,153
-306,095	800,000	0,067	-0,156
-305,080	-200,000	0,026	0,146
-304,066	57,569	-0,013	0,009
-303,051	176,567	-0,039	0,042
-302,037	-87,259	0,066	0,015
-301,022	223,709	0,038	0,045
-300,008	-133,903	0,089	0,008
-298,993	-200,000	0,027	0,092
-297,978	10,790	-0,076	-0,042
-296,964	-61,764	-0,055	-0,017
-295,949	219,103	-0,105	-0,123
-294,935	7,532	-0,096	-0,052
-293,920	-30,898	-0,104	-0,043
-292,905	75,505	0,078	0,060
-291,891	549,089	0,060	0,105
-290,876	-24,659	-0,104	0,045
-289,862	54,637	-0,105	0,074
-288,847	800,000	-0,052	-0,139
-287,832	548,786	0,074	-0,130
-286,818	149,816	-0,047	0,047
-285,803	-141,594	0,083	-0,006
-284,789	186,023	0,057	0,062
-283,774	-200,000	0,003	-0,018
-282,759	275,941	0,060	-0,078
-281,745	125,458	-0,092	0,085
-280,730	800,000	-0,022	-0,045
-279,716	44,225	-0,085	0,057
-278,701	33,975	0,057	-0,036
-277,686	-147,822	-0,063	-0,004
-276,672	-153,197	-0,119	0,006
-275,657	800,000	0,047	-0,096
-274,643	560,746	-0,013	-0,023
-273,628	-150,096	-0,041	-0,002
-272,613	111,114	-0,061	-0,054
-271,599	800,000	0,034	0,088
-270,584	-169,590	0,056	0,001
-269,570	502,639	-0,015	-0,025
-268,555	370,598	0,033	0,049
-267,540	445,208	0,029	-0,047
-266,526	800,000	0,048	-0,132
-265,511	800,000	0,012	-0,039
-264,497	426,519	-0,007	-0,012
-263,482	-140,288	0,289	0,022
-262,467	-200,000	-0,006	-0,065
-261,453	-200,000	-0,151	0,000
-260,438	-200,000	0,002	-0,067
-259,424	-200,000	-0,016	-0,127
-258,409	-200,000	0,003	-0,021
-257,395	-200,000	0,038	-0,156
-256,380	729,967	-0,045	-0,087
-255,365	5,517	0,117	-0,063
-254,351	-200,000	-0,005	0,112
-253,336	-116,972	-0,163	0,021
-252,322	101,627	0,017	0,015
-251,307	76,786	-0,035	0,027
-250,292	311,571	0,041	-0,057
-249,278	244,135	0,078	-0,095
-248,263	-200,000	0,021	0,076
-247,249	253,443	-0,042	-0,053
-246,234	-94,950	0,096	-0,019
-245,219	112,684	0,034	0,030
-244,205	-200,000	-0,023	-0,086
-243,190	577,315	0,051	0,092
-242,176	-174,667	-0,045	0,001
-241,161	800,000	0,025	0,063
-240,146	243,811	-0,079	0,097
-239,132	800,000	0,021	0,056
-238,117	-200,000	0,002	0,052
-237,103	50,560	0,100	0,069
-236,088	400,086	-0,020	-0,030
-235,073	83,271	0,096	-0,076
-234,059	-200,000	0,016	-0,081
-233,044	-20,978	0,083	-0,037
-232,030	163,358	-0,027	0,027
-231,015	800,000	-0,005	0,011
-230,000	-136,952	0,145	-0,012
-228,986	43,411	-0,114	0,076
-227,971	-10,752	0,134	-0,064
-226,957	501,699	-0,081	0,138
-225,942	290,671	0,071	0,095
-224,927	483,740	0,061	0,101
-223,913	686,525	0,012	-0,022
-222,898	800,000	-0,032	-0,077
-221,884	-5,732	-0,093	0,046
-220,869	-200,000	-0,012	-0,044
-219,855	800,000	0,021	-0,050
-218,840	579,525	0,080	-0,143
-217,825	-200,000	0,000	0,066
-216,811	-200,000	0,032	-0,122
-215,796	-51,736	-0,009	-0,003
-214,782	-200,000	0,007	0,037
-213,767	-13,319	0,132	-0,062
-212,752	360,116	-0,092	0,135
-211,738	-200,000	-0,022	0,086
-210,723	-200,000	0,011	0,073
-209,709	31,508	-0,069	0,043
-208,694	280,793	-0,033	-0,043
-207,679	47,994	-0,118	0,081
-206,665	336,181	-0,045	0,064
-205,650	-117,806	0,082	-0,011
-204,636	-200,000	-0,025	-0,090
-203,621	-131,529	-0,035	-0,003
-202,606	-35,204	-0,077	-0,030
-201,592	16,546	-0,134	0,077
-200,577	414,492	0,049	0,076
-199,563	800,000	-0,041	0,101
-198,548	16,768	0,077	-0,044
-197,533	262,111	-0,077	0,097
-196,519	302,178	-0,063	-0,086
-195,504	22,602	0,078	0,046
-194,490	61,517	-0,089	-0,065
-193,475	-99,475	-0,076	-0,014
-192,460	-200,000	-0,038	0,125
-191,446	800,000	-0,027	0,062
-190,431	48,860	0,102	-0,069
-189,417	-60,650	-0,048	-0,015
-188,402	84,276	0,052	-0,041
-187,387	83,716	0,029	-0,023
-186,373	112,706	0,100	-0,088
-185,358	-123,282	-0,126	-0,015
-184,344	-124,899	-0,057	-0,006
-183,329	97,813	0,097	-0,081
-182,315	-83,170	0,058	0,013
-181,300	-200,000	-0,034	-0,125
-180,285	-33,439	-0,135	0,054
-179,271	-45,870	-0,039	-0,014
-178,256	-145,427	-0,191	0,012
-177,242	35,967	0,017	0,011
-176,227	546,831	0,040	0,069
-175,212	263,790	0,084	0,107
-174,198	-15,520	0,057	-0,026
-173,183	800,000	-0,023	-0,047
-172,169	-139,573	0,090	0,007
-171,154	330,186	-0,079	0,111
-170,139	342,219	0,067	0,096
-169,125	45,698	0,132	0,088
-168,110	136,126	0,080	-0,076
-167,096	800,000	0,058	-0,134
-166,081	123,510	-0,009	-0,009
-165,066	-59,948	-0,038	0,012
-164,052	800,000	-0,035	-0,075
-163,037	517,040	-0,058	0,099
-162,023	-200,000	-0,019	0,096
-161,008	57,182	0,161	-0,114
-159,993	-200,000	0,006	0,035
-158,979	-12,266	-0,036	0,017
-157,964	737,191	-0,017	-0,034
-156,950	-200,000	-0,025	-0,137
-155,935	-78,973	0,054	0,013
-154,920	4,486	0,153	0,081
-153,906	84,346	0,084	0,067
-152,891	-116,916	0,191	0,025
-151,877	-200,000	0,025	0,155
-150,862	-200,000	0,035	-0,151
-149,847	677,610	0,047	0,089
-148,833	-200,000	-0,019	-0,070
-147,818	-57,912	0,015	0,005
-146,804	32,185	-0,060	-0,037
-145,789	-200,000	0,012	0,070
-144,775	-173,359	-0,077	0,002
-143,760	800,000	-0,021	0,054
-142,745	165,659	-0,076	-0,078
-141,731	117,438	0,096	-0,086
-140,716	52,378	0,048	-0,033
-139,702	274,693	0,070	0,091
-138,687	-13,646	-0,077	0,036
-137,672	309,045	0,097	0,132
-136,658	-28,892	-0,057	0,024
-135,643	-47,512	-0,142	0,050
-134,629	800,000	-0,060	-0,128
-133,614	-200,000	0,012	0,177
-132,599	-200,000	-0,022	0,117
-131,585	461,205	0,045	0,073
-130,570	-200,000	-0,003	-0,010
-129,556	165,512	-0,139	0,144
-128,541	-200,000	0,019	0,127
-127,526	114,757	0,158	-0,140
-126,512	800,000	0,030	0,088
-125,497	800,000	-0,028	-0,084
-124,483	38,826	0,080	0,052
-123,468	-200,000	-0,013	0,084
-122,453	-200,000	-0,007	-0,149
-121,439	158,838	-0,115	-0,116
-120,424	71,653	-0,014	-0,011
