DTS Sentinel unit serial number:	SN410029Multiplexer serial number:	ORYXHardware model number:	OX2-SRSoftware version number:	ORYX F/W v4,00 Oryx Data Collector v3.7.2.0data status	okinstallation	B4 Nyhavnadifferential loss correction	single-endedforward channel	channel 2reverse channel	N/Adate	2023/12/19time	12:05:13forward acquisition time	300,00reverse acquisition time	0,00gamma	499,1914k internal	0,3128k external	0,3128temperature offset calibration	1,0000default loss term (dB/km)	0,3820temperature slope calibration	1,0000multiplexer offset coefficient	1,0000multiplexer slope coefficient	1,0000fibre end	0,00T internal ref (°C)	19,66T ext. ref 1 (°C)	4,44T ext. ref 2 (°C)	4,40length (m)	temperature (°C)	Stokes	anti-Stokes-744,400	642,546	-0,091	-0,173
-743,385	-65,884	-0,295	0,087
-742,371	323,783	0,124	0,176
-741,356	-81,854	-0,255	0,062
-740,342	-75,794	0,096	-0,025
-739,327	-26,209	-0,197	0,086
-738,312	800,000	-0,021	0,059
-737,298	-77,900	-0,201	0,051
-736,283	196,289	0,146	-0,166
-735,269	-11,094	-0,176	0,086
-734,254	-62,023	0,049	0,015
-733,239	-100,971	-0,561	-0,101
-732,225	170,250	0,051	-0,054
-731,210	-200,000	0,019	-0,087
-730,196	-200,000	-0,026	-0,109
-729,181	445,225	-0,094	-0,155
-728,167	234,136	-0,045	-0,055
-727,152	-44,227	-0,055	-0,020
-726,137	-158,796	-0,166	0,007
-725,123	201,161	-0,102	-0,116
-724,108	442,844	-0,091	-0,148
-723,094	71,240	-0,115	-0,088
-722,079	0,833	0,090	-0,048
-721,064	-200,000	-0,002	0,012
-720,050	-200,000	-0,040	-0,166
-719,035	-200,000	-0,016	-0,091
-718,021	696,520	0,039	-0,077
-717,006	-17,805	-0,113	-0,053
-715,991	100,052	0,044	-0,038
-714,977	800,000	0,050	-0,151
-713,962	800,000	-0,025	0,054
-712,948	707,308	0,031	-0,062
-711,933	-200,000	0,001	-0,099
-710,918	292,173	-0,061	-0,082
-709,904	255,992	0,103	-0,132
-708,889	314,738	0,071	-0,099
-707,875	70,840	-0,109	-0,084
-706,860	261,176	0,037	-0,048
-705,845	526,616	0,018	0,032
-704,831	-7,370	0,061	-0,031
-703,816	497,808	0,052	-0,090
-702,802	-12,799	-0,018	0,009
-701,787	673,453	-0,033	-0,065
-700,772	-200,000	-0,019	-0,148
-699,758	111,895	0,028	-0,025
-698,743	800,000	0,032	0,096
-697,729	-45,344	0,066	-0,024
-696,714	-200,000	0,004	-0,114
-695,699	-200,000	-0,005	0,065
-694,685	-200,000	0,028	-0,099
-693,670	-125,707	-0,026	-0,003
-692,656	9,597	0,065	-0,037
-691,641	-200,000	0,004	0,064
-690,627	-42,289	0,104	0,039
-689,612	-115,736	0,024	-0,003
-688,597	-200,000	0,018	0,076
-687,583	800,000	0,028	-0,070
-686,568	478,479	-0,047	-0,079
-685,554	-41,107	-0,118	-0,045
-684,539	22,245	0,225	-0,136
-683,524	-200,000	0,014	0,066
-682,510	-200,000	-0,006	0,082
-681,495	100,268	-0,080	-0,069
-680,481	356,762	-0,080	-0,118
-679,466	-11,275	-0,092	-0,045
-678,451	-200,000	-0,043	-0,152
-677,437	82,774	-0,076	-0,061
-676,422	148,208	0,055	0,055
-675,408	225,662	-0,074	0,089
-674,393	204,954	0,102	-0,118
-673,378	-49,057	0,173	-0,061
-672,364	88,335	-0,137	0,113
-671,349	800,000	0,035	-0,098
-670,335	-87,427	0,072	-0,016
-669,320	-200,000	0,007	-0,036
-668,305	13,329	-0,008	0,005
-667,291	-200,000	0,015	-0,072
-666,276	180,790	-0,086	0,094
-665,262	-71,265	-0,152	-0,042
-664,247	54,772	-0,066	-0,047
-663,232	59,721	-0,095	0,069
-662,218	73,932	-0,109	0,085
-661,203	-19,005	-0,068	0,031
-660,189	40,949	0,101	-0,068
-659,174	-3,819	0,154	-0,079
-658,159	7,923	-0,088	-0,049
-657,145	-200,000	-0,039	-0,148
-656,130	48,398	-0,074	0,051
-655,116	216,670	-0,035	-0,042
-654,101	-200,000	-0,010	0,069
-653,086	-90,859	0,103	0,022
-652,072	800,000	-0,012	-0,035
-651,057	704,048	-0,057	-0,112
-650,043	-106,353	-0,094	0,015
-649,028	35,502	-0,062	-0,040
-648,014	13,216	0,038	0,022
-646,999	-103,708	0,010	-0,002
-645,984	201,168	-0,047	0,053
-644,970	-84,189	0,059	0,014
-643,955	-68,016	-0,177	-0,051
-642,941	18,110	-0,196	-0,115
-641,926	350,578	0,067	-0,098
-640,911	-96,992	0,085	0,016
-639,897	-200,000	-0,005	0,149
-638,882	-131,382	-0,101	-0,010
-637,868	-200,000	0,012	-0,046
-636,853	35,415	-0,092	-0,060
-635,838	-117,388	0,116	0,015
-634,824	800,000	0,025	0,061
-633,809	128,765	0,027	-0,025
-632,795	-200,000	0,010	-0,042
-631,780	-200,000	0,014	0,067
-630,765	203,226	-0,040	0,045
-629,751	260,494	-0,141	-0,181
-628,736	304,518	0,039	-0,054
-627,722	-200,000	0,009	-0,085
-626,707	80,038	-0,119	-0,095
-625,692	633,315	-0,026	0,048
-624,678	800,000	-0,019	-0,060
-623,663	-200,000	0,025	0,087
-622,649	210,309	-0,022	0,026
-621,634	800,000	-0,014	-0,029
-620,619	70,048	0,082	0,062
-619,605	-175,872	0,131	0,003
-618,590	12,965	-0,057	-0,033
-617,576	-150,936	-0,144	-0,008
-616,561	800,000	0,042	-0,114
-615,546	570,600	-0,090	0,162
-614,532	160,489	-0,066	0,069
-613,517	-191,046	-0,050	0,000
-612,503	277,744	-0,057	0,075
-611,488	-200,000	-0,128	-0,000
-610,474	747,927	-0,037	0,074
-609,459	800,000	-0,039	-0,084
-608,444	800,000	0,039	-0,114
-607,430	-200,000	-0,001	0,015
-606,415	-4,676	-0,055	-0,028
-605,401	16,401	0,056	-0,033
-604,386	388,652	0,051	0,078
-603,371	248,319	0,065	0,082
-602,357	-171,754	-0,114	0,003
-601,342	21,349	-0,069	0,041
-600,328	512,138	-0,046	0,079
-599,313	-19,494	-0,043	0,020
-598,298	593,788	-0,021	0,039
-597,284	-53,269	0,055	-0,019
-596,269	-200,000	-0,012	0,128
-595,255	-8,647	-0,084	0,042
-594,240	-28,238	-0,099	-0,042
-593,225	-200,000	0,026	0,130
-592,211	-120,126	-0,100	-0,013
-591,196	367,875	0,070	0,105
-590,182	279,815	-0,100	-0,133
-589,167	502,976	-0,068	0,116
-588,152	-79,913	-0,123	-0,030
-587,138	800,000	0,069	-0,155
-586,123	-24,463	-0,137	0,060
-585,109	-200,000	0,028	-0,119
-584,094	-200,000	-0,006	-0,102
-583,079	-123,725	-0,144	0,017
-582,065	-63,557	0,085	-0,026
-581,050	-166,719	0,110	0,003
-580,036	376,004	0,068	0,104
-579,021	-76,856	0,180	-0,046
-578,006	-19,363	-0,063	0,029
-576,992	333,034	-0,096	-0,138
-575,977	800,000	-0,012	0,027
-574,963	-200,000	0,004	0,073
-573,948	327,839	0,066	0,094
-572,934	800,000	-0,014	0,044
-571,919	-200,000	0,012	-0,092
-570,904	800,000	-0,031	-0,068
-569,890	800,000	-0,036	-0,115
-568,875	-109,486	-0,053	0,008
-567,861	155,386	0,006	-0,006
-566,846	471,232	-0,037	0,062
-565,831	-200,000	0,024	-0,128
-564,817	368,935	-0,106	-0,159
-563,802	462,593	0,028	-0,047
-562,788	-60,519	-0,031	-0,010
-561,773	587,608	0,092	-0,169
-560,758	-200,000	0,032	0,120
-559,744	11,817	0,036	-0,020
-558,729	414,905	-0,053	0,084
-557,715	364,315	0,029	0,044
-556,700	800,000	-0,033	-0,088
-555,685	800,000	-0,011	-0,029
-554,671	-13,415	-0,116	-0,055
-553,656	164,719	0,091	0,095
-552,642	169,148	0,153	-0,162
-551,627	-163,745	-0,069	-0,002
-550,612	-200,000	-0,014	0,047
-549,598	800,000	0,035	0,075
-548,583	794,318	-0,037	0,076
-547,569	297,398	0,063	-0,086
-546,554	-43,387	-0,028	0,010
-545,539	-45,007	0,080	-0,029
-544,525	119,778	-0,037	-0,034
-543,510	-200,000	-0,006	0,109
-542,496	800,000	-0,021	0,065
-541,481	-200,000	0,017	0,062
-540,466	800,000	0,019	0,057
-539,452	-200,000	0,025	0,086
-538,437	617,960	-0,024	-0,045
-537,423	-200,000	0,014	-0,077
-536,408	800,000	-0,033	0,094
-535,393	91,297	-0,036	-0,029
-534,379	125,475	-0,069	0,064
-533,364	-52,778	0,147	-0,050
-532,350	-39,956	0,107	0,041
-531,335	-200,000	-0,040	-0,132
-530,321	-200,000	0,025	0,130
-529,306	-200,000	0,025	-0,092
-528,291	-200,000	0,008	0,030
-527,277	-200,000	-0,030	-0,155
-526,262	-200,000	-0,024	-0,130
-525,248	12,449	-0,064	-0,036
-524,233	-156,998	0,089	-0,004
-523,218	-200,000	0,003	-0,049
-522,204	43,298	-0,046	0,031
-521,189	188,685	-0,121	0,134
-520,175	144,202	0,078	0,077
-519,160	800,000	-0,028	0,059
-518,145	-200,000	0,002	0,046
-517,131	93,199	0,079	0,066
-516,116	-174,606	-0,055	0,001
-515,102	-200,000	-0,029	0,228
-514,087	-105,456	0,035	0,006
-513,072	-47,244	-0,060	-0,021
-512,058	-200,000	0,008	-0,095
-511,043	130,839	-0,035	-0,033
-510,029	-200,000	-0,021	0,191
-509,014	146,018	0,101	0,100
-507,999	-200,000	0,002	-0,043
-506,985	-6,043	0,063	-0,032
-505,970	-200,000	0,021	-0,153
-504,956	-200,000	-0,031	0,161
-503,941	39,829	0,096	0,063
-502,926	-102,038	-0,051	-0,009
-501,912	226,025	0,071	0,085
-500,897	-87,504	-0,099	-0,022
-499,883	800,000	-0,028	0,063
-498,868	299,225	-0,073	-0,099
-497,853	255,314	-0,064	-0,081
-496,839	-200,000	-0,008	-0,060
-495,824	327,515	-0,038	0,053
-494,810	-200,000	0,016	0,076
-493,795	800,000	-0,041	0,121
-492,781	-180,976	-0,039	0,001
-491,766	800,000	-0,008	0,018
-490,751	-53,627	-0,051	-0,017
-489,737	-12,203	0,089	0,043
-488,722	481,281	0,061	0,102
-487,708	255,887	0,041	-0,052
-486,693	772,685	-0,056	0,114
-485,678	-20,200	0,065	0,029
-484,664	-113,316	-0,058	-0,008
-483,649	800,000	0,004	-0,012
-482,635	-38,352	0,048	-0,019
-481,620	800,000	0,028	0,080
-480,605	263,907	-0,043	0,055
-479,591	154,580	0,072	-0,073
-478,576	91,894	0,021	0,018
-477,562	-43,898	-0,123	0,045
-476,547	209,515	0,063	-0,073
-475,532	534,869	-0,021	-0,037
-474,518	-177,532	-0,057	0,001
-473,503	31,450	0,068	0,043
-472,489	236,903	-0,090	0,110
-471,474	202,803	0,086	0,098
-470,459	-200,000	0,009	-0,043
-469,445	-200,000	-0,001	0,132
-468,430	131,626	0,080	-0,076
-467,416	197,724	0,032	0,036
-466,401	-200,000	0,013	0,052
-465,386	-84,266	0,172	0,040
-464,372	57,317	-0,092	-0,066
-463,357	-200,000	0,010	-0,180
-462,343	-200,000	-0,040	-0,158
-461,328	-183,445	0,134	0,002
-460,313	160,806	0,062	0,063
-459,299	83,673	-0,050	0,040
-458,284	-195,267	-0,036	-0,000
-457,270	-200,000	-0,026	0,145
-456,255	800,000	0,037	-0,083
-455,241	-200,000	0,015	-0,124
-454,226	228,315	-0,018	0,021
-453,211	-86,162	0,155	-0,035
-452,197	-200,000	0,005	0,159
-451,182	10,152	-0,070	0,039
-450,168	-200,000	0,005	0,144
-449,153	6,011	-0,122	0,066
-448,138	-155,455	-0,051	0,002
-447,124	-68,229	-0,056	0,016
-446,109	-75,406	0,098	0,026
-445,095	-200,000	-0,009	0,128
-444,080	-200,000	-0,021	0,141
-443,065	-144,032	0,180	-0,012
-442,051	266,133	0,052	0,068
-441,036	-158,192	0,080	0,003
-440,022	57,951	-0,033	0,024
-439,007	230,546	-0,107	-0,129
-437,992	373,491	-0,065	0,097
-436,978	-66,137	0,075	0,022
-435,963	-71,183	0,109	-0,030
-434,949	-149,759	-0,088	-0,005
-433,934	-115,409	0,079	-0,011
-432,919	156,037	-0,072	-0,073
-431,905	800,000	0,028	-0,067
-430,890	516,750	0,099	-0,171
-429,876	105,126	0,052	0,045
-428,861	685,600	-0,014	-0,026
-427,846	-111,205	0,028	0,004
-426,832	-124,761	0,066	-0,007
-425,817	-200,000	-0,006	-0,133
-424,803	180,704	-0,040	0,043
-423,788	46,295	-0,088	-0,060
-422,773	85,574	0,048	-0,039
-421,759	69,759	-0,032	0,024
-420,744	-200,000	-0,005	-0,075
-419,730	800,000	-0,032	-0,092
-418,715	800,000	-0,007	0,015
-417,701	6,400	0,165	-0,090
-416,686	-200,000	0,013	-0,111
-415,671	-200,000	0,007	-0,103
-414,657	800,000	-0,028	0,057
-413,642	800,000	-0,019	-0,057
-412,628	49,292	-0,051	-0,035
-411,613	-200,000	-0,020	0,069
-410,598	-9,966	0,046	-0,022
-409,584	12,191	-0,119	0,067
-408,569	-31,443	-0,056	-0,023
-407,555	-200,000	0,027	0,102
-406,540	-106,150	-0,068	0,011
-405,525	181,605	-0,095	0,102
-404,511	453,675	-0,031	-0,051
-403,496	-37,830	0,108	0,042
-402,482	-34,710	0,054	-0,022
-401,467	-58,327	0,055	0,017
-400,452	800,000	0,009	-0,024
-399,438	-200,000	-0,021	-0,114
-398,423	-200,000	-0,019	-0,066
-397,409	-200,000	-0,015	-0,138
-396,394	800,000	0,037	-0,100
-395,379	800,000	0,039	-0,087
-394,365	-0,210	0,133	0,069
-393,350	800,000	-0,033	0,071
-392,336	50,032	0,083	0,058
-391,321	154,868	-0,055	0,056
-390,306	800,000	-0,049	-0,110
-389,292	-62,646	-0,107	0,032
-388,277	-113,096	-0,106	-0,015
-387,263	800,000	0,034	0,088
-386,248	410,800	-0,016	-0,025
-385,233	-132,875	0,132	0,012
-384,219	-200,000	0,010	-0,078
-383,204	-90,269	-0,045	0,010
-382,190	93,851	-0,047	-0,039
-381,175	473,059	0,084	0,140
-380,160	769,236	-0,029	0,058
-379,146	-200,000	-0,024	0,128
-378,131	-62,282	0,059	0,018
-377,117	-110,175	0,088	-0,013
-376,102	-61,341	-0,089	0,027
-375,088	62,356	-0,112	-0,082
-374,073	-200,000	-0,042	-0,187
-373,058	-43,923	-0,078	-0,029
-372,044	-109,003	0,130	-0,020
-371,029	-12,219	0,090	0,043
-370,015	800,000	-0,058	0,138
-369,000	264,447	-0,070	-0,090
-367,985	-97,362	-0,035	-0,007
-366,971	-71,041	0,138	0,038
-365,956	-200,000	0,005	-0,046
-364,942	-82,243	-0,044	-0,010
-363,927	-176,979	0,045	-0,001
-362,912	51,206	-0,016	0,011
-361,898	-200,000	0,005	-0,023
-360,883	-200,000	0,023	-0,082
-359,869	-200,000	0,002	-0,014
-358,854	-66,988	-0,018	0,005
-357,839	-200,000	0,010	0,170
-356,825	0,324	0,032	0,016
-355,810	296,915	0,039	0,053
-354,796	222,851	0,057	-0,068
-353,781	6,085	-0,105	-0,057
-352,766	166,505	-0,022	0,022
-351,752	-140,494	0,180	0,014
-350,737	-200,000	0,002	-0,008
-349,723	-116,416	0,046	0,006
-348,708	52,546	-0,063	-0,044
-347,693	366,282	0,020	-0,030
-346,679	72,827	-0,098	-0,075
-345,664	-9,561	0,092	0,045
-344,650	554,220	0,016	0,028
-343,635	134,442	0,098	-0,093
-342,620	-91,213	-0,068	-0,014
-341,606	146,255	0,059	0,058
-340,591	800,000	-0,043	-0,123
-339,577	-200,000	-0,021	0,080
-338,562	-142,121	-0,126	-0,009
-337,548	-55,244	-0,138	-0,045
-336,533	-57,960	0,083	-0,026
-335,518	199,798	0,082	0,092
-334,504	-54,075	-0,080	0,026
-333,489	800,000	-0,030	-0,066
-332,475	-200,000	0,023	-0,104
-331,460	159,219	-0,088	-0,090
-330,445	800,000	0,036	-0,101
-329,431	-200,000	0,007	-0,052
-328,416	-39,901	0,122	0,046
-327,402	-200,000	-0,024	0,128
-326,387	26,927	0,078	0,048
-325,372	77,800	-0,047	-0,037
-324,358	-139,954	-0,092	-0,007
-323,343	-40,167	-0,033	-0,013
-322,329	-51,165	0,059	0,020
-321,314	-200,000	-0,004	0,040
-320,299	-3,167	0,108	0,055
-319,285	31,278	0,061	0,038
-318,270	-113,522	0,150	-0,021
-317,256	-200,000	0,029	-0,153
-316,241	800,000	0,023	0,065
-315,226	324,059	-0,069	-0,096
-314,212	800,000	-0,018	-0,052
-313,197	800,000	0,045	0,128
-312,183	-141,869	0,059	0,004
-311,168	-200,000	-0,005	-0,064
-310,153	73,100	0,062	0,047
-309,139	-200,000	0,015	0,083
-308,124	24,661	0,062	0,037
-307,110	-200,000	0,004	0,026
-306,095	-200,000	0,008	0,071
-305,080	-90,832	-0,030	0,006
-304,066	292,595	-0,110	-0,147
-303,051	-98,502	0,032	-0,006
-302,037	21,833	-0,031	0,018
-301,022	-172,636	0,070	-0,002
-300,008	-37,511	-0,034	-0,013
-298,993	54,066	-0,025	-0,018
-297,978	265,881	-0,044	-0,057
-296,964	420,586	-0,076	-0,120
-295,949	-14,891	0,058	0,027
-294,935	-97,181	0,064	-0,012
-293,920	-181,572	-0,048	0,001
-292,905	135,318	-0,032	-0,030
-291,891	-200,000	0,029	-0,104
-290,876	371,399	0,054	0,080
-289,862	-200,000	-0,010	0,080
-288,847	152,652	-0,096	0,096
-287,832	-200,000	-0,007	-0,036
-286,818	-200,000	-0,040	-0,161
-285,803	-0,630	-0,030	-0,015
-284,789	-57,128	-0,167	0,054
-283,774	22,378	0,041	-0,024
-282,759	52,619	-0,013	-0,009
-281,745	-75,747	0,084	0,022
-280,730	129,084	-0,110	-0,103
-279,716	40,141	0,121	-0,079
-278,701	-197,094	0,107	-0,000
-277,686	171,294	0,077	0,081
-276,672	305,022	0,052	-0,071
-275,657	-200,000	-0,007	-0,049
-274,643	-200,000	-0,039	-0,138
-273,628	99,111	0,046	0,039
-272,613	-22,329	-0,034	0,015
-271,599	-200,000	0,005	0,244
-270,584	-145,762	-0,131	0,008
-269,570	-69,611	0,177	0,049
-268,555	35,387	-0,071	-0,045
-267,540	-200,000	-0,011	-0,124
-266,526	-81,058	-0,109	0,026
-265,511	-200,000	0,030	0,152
-264,497	139,976	-0,092	0,089
-263,482	12,409	0,101	0,056
-262,467	85,432	0,102	0,081
-261,453	-99,990	0,014	-0,003
-260,438	800,000	-0,017	-0,048
-259,424	-200,000	0,006	0,039
-258,409	-200,000	-0,018	-0,066
-257,395	800,000	0,005	-0,014
-256,380	386,354	-0,067	0,101
-255,365	148,398	0,125	0,124
-254,351	61,268	-0,060	0,044
-253,336	-200,000	-0,011	-0,039
-252,322	198,075	0,006	0,006
-251,307	146,648	-0,026	-0,026
-250,292	-200,000	-0,005	0,213
-249,278	-68,028	0,115	-0,032
-248,263	229,346	0,034	0,040
-247,249	-84,922	0,154	-0,035
-246,234	-200,000	0,001	-0,045
-245,219	-48,328	-0,081	0,028
-244,205	800,000	-0,019	0,060
-243,190	-16,448	-0,083	0,038
-242,176	289,856	0,075	0,099
-241,161	-200,000	0,038	-0,140
-240,146	151,156	-0,072	-0,072
-239,132	750,913	0,040	-0,079
-238,117	-96,629	-0,073	-0,014
-237,103	-4,791	0,096	0,048
-236,088	-155,674	-0,034	-0,002
-235,073	-16,981	-0,054	0,025
-234,059	575,393	-0,042	0,075
-233,044	100,503	-0,133	0,112
-232,030	437,315	-0,076	0,121
-231,015	-23,359	0,115	0,050
-230,000	13,854	-0,159	-0,090
-228,986	-195,636	-0,046	0,000
-227,971	-200,000	-0,005	-0,151
-226,957	-200,000	0,010	0,078
-225,942	203,113	-0,050	-0,056
-224,927	118,810	-0,017	-0,015
-223,913	-200,000	-0,005	0,064
-222,898	-142,315	-0,175	-0,012
-221,884	138,202	0,117	-0,112
-220,869	800,000	0,011	-0,029
-219,855	377,600	-0,027	0,040
-218,840	-200,000	0,006	0,112
-217,825	4,327	0,018	0,009
-216,811	145,708	-0,070	-0,068
-215,796	800,000	0,035	-0,103
-214,782	325,049	-0,089	-0,124
-213,767	-76,150	0,048	0,012
-212,752	93,460	-0,057	0,047
-211,738	-200,000	0,004	-0,023
-210,723	261,586	-0,066	0,083
-209,709	-150,164	0,114	0,006
-208,694	596,083	-0,031	-0,057
-207,679	800,000	-0,069	-0,153
-206,665	181,186	0,043	-0,046
-205,650	467,251	0,016	0,026
-204,636	31,844	0,124	-0,078
-203,621	36,132	0,026	-0,017
-202,606	44,749	0,086	0,058
-201,592	-200,000	0,011	0,099
-200,577	800,000	0,029	-0,079
-199,563	-76,977	-0,046	-0,012
-198,548	-27,568	0,101	0,042
-197,533	-50,439	0,038	0,013
-196,519	-35,030	0,035	0,014
-195,504	-37,319	0,193	0,075
-194,490	159,562	-0,070	-0,071
-193,475	-200,000	-0,016	-0,270
-192,460	140,194	0,071	0,069
-191,446	413,068	-0,069	0,107
-190,431	-200,000	-0,006	0,101
-189,417	800,000	-0,015	-0,039
-188,402	687,040	-0,019	-0,037
-187,387	136,754	0,122	-0,116
-186,373	-87,228	-0,035	-0,008
-185,358	-200,000	-0,005	-0,097
-184,344	206,278	-0,070	-0,079
-183,329	106,246	0,061	-0,053
-182,315	-200,000	-0,015	0,126
-181,300	-200,000	0,022	0,118
-180,285	800,000	-0,029	0,060
-179,271	-200,000	-0,002	0,074
-178,256	-67,488	-0,048	0,014
-177,242	10,515	0,093	0,052
-176,227	800,000	-0,025	-0,064
-175,212	-200,000	-0,007	0,050
-174,198	339,223	-0,037	-0,053
-173,183	-200,000	-0,039	-0,199
-172,169	121,793	0,090	-0,082
-171,154	-200,000	0,006	0,086
-170,139	-200,000	-0,003	-0,023
-169,125	378,483	0,075	0,111
-168,110	31,006	-0,016	-0,010
-167,096	163,608	0,032	0,033
-166,081	-200,000	0,015	-0,102
-165,066	800,000	0,038	-0,120
-164,052	-200,000	-0,013	-0,072
-163,037	-156,647	0,077	0,003
-162,023	498,272	0,091	0,154
-161,008	800,000	-0,073	0,156
-159,993	637,627	0,077	-0,143
-158,979	-200,000	0,014	-0,050
-157,964	32,550	-0,083	-0,052
-156,950	12,446	0,088	-0,049
-155,935	329,685	-0,058	0,081
-154,920	-200,000	-0,019	0,148
-153,906	585,638	0,051	0,091
-152,891	800,000	0,051	-0,117
-151,877	123,496	-0,050	0,046
-150,862	-200,000	0,004	0,013
-149,847	15,930	0,108	-0,062
-148,833	306,480	-0,045	-0,061
-147,818	800,000	0,018	-0,037
-146,804	-200,000	0,009	0,032
-145,789	170,874	-0,088	0,091
-144,775	-101,051	0,122	-0,022
-143,760	-77,596	-0,111	-0,028
-142,745	36,355	-0,080	-0,051
-141,731	100,797	0,065	0,055
-140,716	-12,377	0,069	0,033
-139,702	64,863	0,140	0,103
-138,687	-200,000	-0,027	0,095
-137,672	419,595	-0,033	-0,052
-136,658	203,468	-0,067	-0,076
-135,643	174,589	0,097	-0,102
-134,629	236,461	0,092	0,111
-133,614	281,054	0,009	0,012
-132,599	-77,511	-0,023	0,006
-131,585	-200,000	0,006	0,084
-130,570	-16,418	-0,043	-0,020
-129,556	-176,971	0,041	-0,001
-128,541	-20,985	-0,062	0,028
-127,526	320,733	-0,072	0,100
-126,512	-133,001	0,034	-0,003
-125,497	-194,305	0,109	-0,001
-124,483	466,983	-0,046	-0,075
-123,468	800,000	0,011	0,030
-122,453	-121,161	-0,173	0,021
-121,439	-38,232	-0,108	-0,041
-120,424	-200,000	0,058	-0,187
