DTS Sentinel unit serial number:	SN410029Multiplexer serial number:	ORYXHardware model number:	OX2-SRSoftware version number:	ORYX F/W v4,00 Oryx Data Collector v3.7.2.0data status	okinstallation	B4 Nyhavnadifferential loss correction	single-endedforward channel	channel 2reverse channel	N/Adate	2023/12/19time	01:45:13forward acquisition time	300,00reverse acquisition time	0,00gamma	499,1914k internal	0,3124k external	0,3124temperature offset calibration	1,0000default loss term (dB/km)	0,3820temperature slope calibration	1,0000multiplexer offset coefficient	1,0000multiplexer slope coefficient	1,0000fibre end	0,00T internal ref (°C)	21,50T ext. ref 1 (°C)	6,05T ext. ref 2 (°C)	6,10length (m)	temperature (°C)	Stokes	anti-Stokes-744,400	434,984	-0,048	-0,077
-743,385	9,243	-0,203	0,114
-742,371	263,596	0,033	-0,043
-741,356	64,647	-0,190	0,143
-740,342	43,439	0,105	-0,072
-739,327	128,850	-0,095	0,090
-738,312	130,657	-0,094	-0,090
-737,298	96,920	-0,155	0,132
-736,283	-148,558	0,147	0,009
-735,269	385,579	-0,164	0,253
-734,254	18,188	0,083	-0,049
-733,239	-140,178	-0,450	-0,035
-732,225	800,000	0,053	-0,136
-731,210	-29,859	-0,027	-0,011
-730,196	-200,000	-0,048	-0,180
-729,181	69,182	-0,136	0,104
-728,167	-10,784	-0,090	0,044
-727,152	-115,302	-0,086	-0,012
-726,137	-200,000	-0,010	-0,078
-725,123	-34,954	0,085	-0,034
-724,108	504,459	-0,110	-0,189
-723,094	680,591	-0,082	-0,160
-722,079	472,465	-0,066	-0,112
-721,064	-31,927	-0,123	-0,051
-720,050	-200,000	-0,054	0,188
-719,035	-42,124	-0,110	-0,041
-718,021	583,540	-0,037	-0,068
-717,006	192,876	-0,133	-0,149
-715,991	-185,690	-0,182	-0,002
-714,977	51,813	0,100	0,071
-713,962	-80,434	0,051	0,013
-712,948	-77,346	0,050	0,013
-711,933	800,000	0,040	-0,109
-710,918	-200,000	0,000	-0,057
-709,904	386,741	-0,075	-0,116
-708,889	12,758	-0,074	0,042
-707,875	54,730	-0,042	-0,030
-706,860	-18,279	-0,016	-0,007
-705,845	-156,328	0,037	0,002
-704,831	436,965	0,012	0,020
-703,816	-200,000	-0,016	-0,137
-702,802	397,253	0,088	-0,137
-701,787	609,816	-0,030	-0,055
-700,772	35,772	-0,191	-0,124
-699,758	573,211	-0,048	-0,088
-698,743	269,846	-0,033	0,043
-697,729	-116,374	-0,122	-0,017
-696,714	800,000	0,019	0,039
-695,699	800,000	-0,026	-0,078
-694,685	255,983	-0,040	-0,051
-693,670	768,602	0,047	-0,095
-692,656	273,383	0,053	-0,070
-691,641	22,088	-0,040	-0,024
-690,627	593,498	0,041	0,075
-689,612	-149,065	0,067	-0,004
-688,597	-121,563	-0,080	0,010
-687,583	250,330	-0,051	-0,065
-686,568	245,851	-0,098	-0,123
-685,554	61,119	-0,067	-0,049
-684,539	15,788	0,071	-0,041
-683,524	-74,099	0,040	-0,011
-682,510	-180,948	0,098	-0,001
-681,495	-112,657	-0,133	-0,019
-680,481	800,000	-0,049	0,120
-679,466	304,197	0,046	-0,063
-678,451	-200,000	0,009	0,033
-677,437	113,367	0,067	0,060
-676,422	8,497	0,081	0,045
-675,408	-200,000	-0,007	-0,164
-674,393	-48,997	-0,058	-0,021
-673,378	95,318	-0,069	-0,058
-672,364	100,757	-0,134	0,116
-671,349	15,468	-0,028	0,016
-670,335	-200,000	-0,011	0,038
-669,320	-47,164	-0,074	-0,027
-668,305	751,627	-0,073	-0,147
-667,291	0,319	0,097	0,051
-666,276	76,641	-0,065	-0,051
-665,262	604,277	0,028	-0,053
-664,247	40,413	0,064	-0,043
-663,232	-200,000	-0,015	-0,075
-662,218	107,206	0,125	0,110
-661,203	-200,000	0,012	0,048
-660,189	800,000	0,025	-0,060
-659,174	-21,243	-0,145	-0,066
-658,159	-9,723	0,077	-0,038
-657,145	800,000	0,010	-0,026
-656,130	-174,360	0,053	-0,001
-655,116	800,000	0,044	-0,112
-654,101	53,907	0,047	-0,034
-653,086	243,228	0,039	0,049
-652,072	361,169	-0,034	-0,050
-651,057	-200,000	0,010	-0,042
-650,043	-127,445	-0,110	0,012
-649,028	133,830	-0,043	0,042
-648,014	26,247	0,156	0,097
-646,999	-200,000	0,012	-0,103
-645,984	-200,000	-0,030	-0,101
-644,970	-125,793	-0,127	0,014
-643,955	800,000	0,043	0,096
-642,941	272,038	-0,096	-0,127
-641,926	-6,359	0,166	-0,084
-640,911	-43,478	0,071	-0,027
-639,897	800,000	-0,047	-0,110
-638,882	-149,310	0,066	-0,004
-637,868	-23,046	0,068	0,030
-636,853	-200,000	0,000	-0,085
-635,838	181,819	-0,020	0,022
-634,824	-87,051	-0,058	0,013
-633,809	137,571	0,007	0,007
-632,795	273,681	-0,058	-0,076
-631,780	-35,302	-0,093	0,037
-630,765	800,000	0,038	-0,084
-629,751	-71,859	-0,137	0,038
-628,736	-200,000	-0,010	-0,113
-627,722	-146,171	0,078	-0,005
-626,707	-83,326	-0,071	-0,017
-625,692	0,029	-0,032	-0,017
-624,678	800,000	-0,060	0,130
-623,663	800,000	0,041	0,099
-622,649	-38,632	0,046	-0,018
-621,634	-135,328	0,110	-0,010
-620,619	9,337	-0,114	-0,064
-619,605	149,777	-0,091	-0,091
-618,590	24,731	-0,126	0,077
-617,576	-43,251	-0,074	-0,028
-616,561	800,000	0,057	0,145
-615,546	-86,633	-0,029	-0,007
-614,532	120,423	-0,062	-0,057
-613,517	82,961	0,074	-0,060
-612,503	293,212	-0,028	0,038
-611,488	-200,000	-0,008	0,048
-610,474	-41,065	0,091	0,035
-609,459	14,089	0,076	0,044
-608,444	-200,000	-0,001	-0,083
-607,430	800,000	0,014	-0,036
-606,415	800,000	0,039	-0,083
-605,401	-200,000	0,008	0,054
-604,386	13,774	0,021	0,012
-603,371	84,700	-0,044	0,036
-602,357	-17,227	0,062	-0,029
-601,342	-120,281	-0,079	-0,010
-600,328	276,558	-0,036	-0,047
-599,313	87,969	-0,060	-0,049
-598,298	-200,000	0,021	-0,119
-597,284	120,812	0,030	0,028
-596,269	-1,954	-0,019	-0,010
-595,255	38,107	-0,120	-0,079
-594,240	389,672	-0,055	-0,084
-593,225	-200,000	-0,016	-0,053
-592,211	-103,539	-0,122	-0,021
-591,196	10,967	-0,055	-0,031
-590,182	-200,000	0,024	-0,125
-589,167	-145,945	-0,147	0,009
-588,152	-73,427	0,074	-0,020
-587,138	-48,497	0,066	0,023
-586,123	-73,504	0,042	-0,011
-585,109	182,361	-0,057	0,063
-584,094	-200,000	-0,006	-0,071
-583,079	800,000	-0,041	-0,100
-582,065	-64,511	0,148	-0,044
-581,050	-97,842	-0,078	0,015
-580,036	432,294	0,051	0,082
-579,021	-200,000	-0,017	-0,117
-578,006	-200,000	-0,016	-0,127
-576,992	-9,440	0,050	-0,025
-575,977	142,771	-0,087	-0,085
-574,963	800,000	0,037	0,081
-573,948	-41,813	0,082	0,031
-572,934	141,763	-0,122	-0,120
-571,919	616,920	-0,028	-0,052
-570,904	800,000	0,051	0,140
-569,890	-200,000	0,006	-0,117
-568,875	30,534	0,084	0,053
-567,861	-200,000	0,018	0,064
-566,846	97,694	0,062	0,053
-565,831	-200,000	0,056	0,195
-564,817	585,272	-0,063	-0,115
-563,802	-200,000	-0,040	-0,129
-562,788	-125,937	-0,069	-0,008
-561,773	337,462	0,089	-0,128
-560,758	292,816	0,023	-0,032
-559,744	800,000	0,022	0,061
-558,729	24,085	0,002	0,001
-557,715	64,503	0,108	-0,080
-556,700	568,652	-0,066	-0,120
-555,685	800,000	0,032	-0,092
-554,671	-8,136	-0,076	0,038
-553,656	800,000	0,037	0,095
-552,642	133,727	-0,037	0,036
-551,627	62,418	0,084	-0,062
-550,612	36,616	-0,027	-0,017
-549,598	-200,000	-0,009	0,087
-548,583	58,232	0,082	0,060
-547,569	678,040	0,061	-0,118
-546,554	163,257	0,050	-0,052
-545,539	-200,000	0,010	-0,042
-544,525	-42,965	-0,087	-0,032
-543,510	-19,604	-0,088	0,040
-542,496	53,219	-0,090	-0,063
-541,481	800,000	0,011	0,037
-540,466	-200,000	-0,028	0,095
-539,452	-48,670	0,164	-0,058
-538,437	-126,577	-0,071	0,008
-537,423	-200,000	-0,010	-0,084
-536,408	-200,000	0,004	0,043
-535,393	-108,776	-0,087	-0,014
-534,379	551,306	0,016	0,028
-533,364	12,850	0,042	0,024
-532,350	800,000	-0,022	-0,057
-531,335	-200,000	0,019	-0,066
-530,321	482,914	0,064	0,108
-529,306	46,575	-0,061	0,042
-528,291	800,000	-0,006	-0,018
-527,277	-200,000	-0,026	-0,138
-526,262	265,435	-0,090	-0,117
-525,248	-20,207	0,092	0,042
-524,233	-111,482	0,052	-0,008
-523,218	71,280	0,116	0,089
-522,204	254,800	-0,030	0,038
-521,189	6,299	-0,103	-0,056
-520,175	227,893	-0,103	0,124
-519,160	-200,000	-0,001	-0,051
-518,145	-200,000	0,007	0,039
-517,131	800,000	0,050	0,132
-516,116	800,000	0,038	-0,086
-515,102	51,841	0,064	0,045
-514,087	-200,000	-0,001	0,040
-513,072	-200,000	0,002	0,032
-512,058	157,209	-0,033	-0,034
-511,043	-47,682	0,073	-0,026
-510,029	-200,000	0,034	0,213
-509,014	-71,190	0,057	-0,016
-507,999	-107,283	-0,203	0,033
-506,985	264,172	0,013	0,016
-505,970	163,693	0,030	0,032
-504,956	76,098	-0,054	-0,042
-503,941	1,424	0,054	0,028
-502,926	665,837	-0,071	-0,136
-501,912	-53,881	0,084	0,028
-500,897	-85,721	0,082	0,019
-499,883	240,455	-0,051	-0,063
-498,868	87,476	0,064	-0,052
-497,853	182,456	-0,119	-0,130
-496,839	-200,000	0,046	-0,194
-495,824	175,378	-0,023	0,025
-494,810	176,390	-0,071	0,077
-493,795	22,195	-0,040	-0,024
-492,781	800,000	0,029	0,064
-491,766	800,000	0,074	-0,229
-490,751	-6,937	-0,020	-0,010
-489,737	-200,000	-0,024	0,085
-488,722	-46,402	0,107	0,039
-487,708	159,998	0,038	0,039
-486,693	-200,000	-0,008	0,058
-485,678	-200,000	0,012	-0,062
-484,664	-45,001	-0,170	-0,062
-483,649	-200,000	-0,009	0,103
-482,635	-53,166	-0,050	0,017
-481,620	328,204	0,045	0,064
-480,605	272,976	0,047	-0,062
-479,591	-134,476	0,051	-0,005
-478,576	-133,325	-0,222	0,020
-477,562	15,906	0,122	0,071
-476,547	-200,000	0,015	-0,053
-475,532	800,000	0,043	-0,108
-474,518	800,000	-0,059	0,130
-473,503	-200,000	-0,015	0,056
-472,489	177,793	0,078	0,083
-471,474	-200,000	0,014	-0,130
-470,459	-112,317	0,067	0,010
-469,445	-200,000	0,000	-0,113
-468,430	-15,379	-0,162	0,076
-467,416	2,100	0,051	0,027
-466,401	208,335	0,049	-0,056
-465,386	-200,000	0,032	0,107
-464,372	38,282	-0,051	0,034
-463,357	422,263	-0,007	-0,011
-462,343	-159,122	-0,075	-0,003
-461,328	-200,000	0,026	-0,117
-460,313	48,807	0,033	-0,023
-459,299	253,286	-0,074	0,094
-458,284	-96,971	-0,123	0,023
-457,270	-200,000	-0,015	-0,105
-456,255	800,000	0,015	-0,048
-455,241	-51,293	0,068	-0,023
-454,226	-200,000	0,017	-0,093
-453,211	8,914	-0,019	0,011
-452,197	14,694	-0,082	0,047
-451,182	800,000	0,062	0,145
-450,168	-133,033	-0,064	-0,006
-449,153	51,994	-0,076	0,053
-448,138	-200,000	-0,009	-0,158
-447,124	15,446	0,094	-0,054
-446,109	46,773	0,113	0,077
-445,095	72,323	-0,064	-0,049
-444,080	301,824	-0,009	-0,013
-443,065	443,937	-0,068	-0,110
-442,051	-200,000	0,038	-0,134
-441,036	-200,000	-0,014	-0,057
-440,022	448,507	-0,069	-0,112
-439,007	-200,000	0,033	0,126
-437,992	-5,916	0,083	0,042
-436,978	-20,387	-0,073	-0,033
-435,963	-200,000	-0,006	0,072
-434,949	-94,170	-0,078	0,016
-433,934	800,000	0,033	-0,072
-432,919	-76,458	0,053	0,014
-431,905	800,000	-0,059	-0,122
-430,890	38,826	0,129	0,085
-429,876	185,276	-0,139	0,152
-428,861	14,558	0,077	0,044
-427,846	-200,000	-0,014	-0,121
-426,832	74,350	-0,039	0,030
-425,817	-53,617	-0,089	0,030
-424,803	800,000	0,010	0,024
-423,788	-12,583	0,068	-0,032
-422,773	-85,785	0,044	-0,010
-421,759	-200,000	0,029	0,179
-420,744	322,961	-0,070	0,098
-419,730	660,684	-0,011	-0,021
-418,715	22,319	-0,080	-0,048
-417,701	800,000	-0,029	-0,091
-416,686	-16,059	0,072	-0,033
-415,671	-186,923	0,102	-0,001
-414,657	168,041	-0,090	-0,095
-413,642	-14,282	0,095	0,045
-412,628	-200,000	-0,019	-0,066
-411,613	800,000	-0,026	-0,065
-410,598	176,012	-0,134	0,143
-409,584	267,632	-0,027	-0,034
-408,569	-200,000	0,013	0,082
-407,555	2,231	-0,061	0,033
-406,540	421,169	-0,107	0,169
-405,525	-95,714	-0,176	0,034
-404,511	-48,289	0,052	0,018
-403,496	76,902	-0,101	0,079
-402,482	-200,000	-0,015	-0,079
-401,467	170,553	0,051	-0,054
-400,452	-25,480	-0,020	0,009
-399,438	-200,000	-0,017	0,095
-398,423	-183,455	-0,063	-0,001
-397,409	-200,000	0,007	0,053
-396,394	86,380	-0,076	0,062
-395,379	800,000	-0,026	-0,074
-394,365	800,000	0,055	0,162
-393,350	123,814	0,135	0,124
-392,336	624,496	0,048	0,089
-391,321	-200,000	-0,002	0,160
-390,306	303,080	-0,052	-0,071
-389,292	800,000	-0,037	0,109
-388,277	497,455	0,061	0,103
-387,263	-200,000	0,009	0,087
-386,248	163,175	0,038	-0,039
-385,233	203,451	0,069	0,079
-384,219	-200,000	0,023	0,118
-383,204	800,000	-0,058	-0,133
-382,190	-19,438	0,041	-0,018
-381,175	-200,000	-0,022	0,092
-380,160	-168,679	0,163	-0,004
-379,146	-73,316	-0,022	-0,006
-378,131	-14,444	-0,030	-0,014
-377,117	317,022	0,071	-0,100
-376,102	64,076	-0,028	-0,020
-375,088	-44,689	-0,163	-0,059
-374,073	147,602	0,080	-0,079
-373,058	294,972	-0,076	0,103
-372,044	-200,000	0,010	-0,038
-371,029	482,095	0,052	0,087
-370,015	800,000	0,035	0,090
-369,000	-134,695	0,029	-0,003
-367,985	-34,453	-0,091	0,036
-366,971	119,091	0,049	0,044
-365,956	800,000	0,078	0,170
-364,942	-52,532	-0,095	0,032
-363,927	539,606	0,013	0,023
-362,912	800,000	-0,018	0,052
-361,898	501,335	-0,091	-0,155
-360,883	-200,000	-0,006	-0,040
-359,869	275,741	-0,031	0,041
-358,854	383,387	-0,028	-0,042
-357,839	-200,000	0,009	0,034
-356,825	-34,963	0,219	0,087
-355,810	-13,100	-0,057	-0,027
-354,796	800,000	-0,039	0,083
-353,781	208,340	0,032	-0,037
-352,766	23,888	0,075	-0,045
-351,752	-53,702	-0,131	-0,044
-350,737	55,512	0,098	0,069
-349,723	800,000	0,050	0,127
-348,708	-200,000	-0,002	0,074
-347,693	461,920	0,053	-0,087
-346,679	140,973	0,068	-0,066
-345,664	-22,391	-0,076	-0,034
-344,650	-129,421	0,122	-0,012
-343,635	-71,904	0,013	-0,004
-342,620	-103,537	0,096	0,016
-341,606	-39,824	-0,079	-0,030
-340,591	92,598	0,063	0,052
-339,577	133,852	-0,048	-0,045
-338,562	-33,136	-0,070	-0,028
-337,548	800,000	-0,004	0,008
-336,533	800,000	-0,039	-0,080
-335,518	-200,000	-0,023	-0,121
-334,504	195,790	-0,036	0,040
-333,489	-87,265	0,094	0,021
-332,475	-200,000	-0,020	-0,185
-331,460	248,630	-0,064	0,080
-330,445	71,828	0,062	-0,047
-329,431	-37,405	0,116	0,045
-328,416	-200,000	-0,017	-0,148
-327,402	-38,523	0,135	0,052
-326,387	519,278	-0,087	-0,150
-325,372	-132,128	-0,081	0,008
-324,358	-150,717	-0,046	-0,003
-323,343	-200,000	-0,016	0,065
-322,329	800,000	0,022	0,053
-321,314	-27,145	0,025	-0,011
-320,299	-161,327	-0,100	-0,004
-319,285	-108,422	-0,059	-0,009
-318,270	800,000	-0,016	0,048
-317,256	85,437	-0,039	-0,031
-316,241	-200,000	-0,002	-0,109
-315,226	599,764	0,013	0,023
-314,212	800,000	0,070	0,164
-313,197	-200,000	0,008	0,104
-312,183	-200,000	-0,000	-0,009
-311,168	800,000	-0,013	-0,031
-310,153	800,000	-0,035	-0,075
-309,139	-200,000	0,019	-0,186
-308,124	327,679	0,074	-0,104
-307,110	97,531	0,088	0,074
-306,095	800,000	0,027	-0,084
-305,080	-200,000	0,014	0,079
-304,066	118,325	-0,104	-0,094
-303,051	-200,000	0,005	0,023
-302,037	800,000	0,023	-0,051
-301,022	-79,140	0,105	-0,026
-300,008	97,856	0,099	0,083
-298,993	800,000	0,053	-0,107
-297,978	800,000	0,021	0,068
-296,964	36,866	-0,070	-0,045
-295,949	83,230	-0,097	-0,077
-294,935	-94,025	0,118	-0,024
-293,920	-200,000	0,010	-0,053
-292,905	240,216	0,060	0,073
-291,891	-200,000	-0,006	0,102
-290,876	78,710	0,092	0,072
-289,862	-113,961	-0,091	-0,013
-288,847	-6,339	0,025	0,012
-287,832	-200,000	-0,010	0,044
-286,818	-200,000	-0,008	-0,104
-285,803	-31,007	0,050	0,020
-284,789	8,548	0,033	0,018
-283,774	-200,000	-0,001	0,085
-282,759	-117,730	0,004	0,001
-281,745	-130,917	-0,140	-0,014
-280,730	100,727	0,116	-0,099
-279,716	800,000	-0,021	0,056
-278,701	75,313	-0,115	0,088
-277,686	-19,885	0,056	0,025
-276,672	-200,000	0,023	-0,153
-275,657	403,111	-0,087	-0,134
-274,643	69,595	-0,055	0,042
-273,628	-200,000	0,006	0,048
-272,613	-63,994	0,110	0,033
-271,599	558,059	0,103	0,183
-270,584	356,800	-0,028	-0,041
-269,570	25,769	0,087	0,053
-268,555	-123,850	0,083	0,009
-267,540	800,000	-0,032	0,092
-266,526	-56,968	-0,088	-0,028
-265,511	176,713	-0,011	0,012
-264,497	75,345	0,061	0,047
-263,482	-200,000	-0,006	0,066
-262,467	-156,461	0,065	0,003
-261,453	-141,287	0,038	0,003
-260,438	-200,000	0,004	-0,023
-259,424	-200,000	-0,014	-0,141
-258,409	-162,468	0,180	-0,006
-257,395	134,889	-0,068	0,064
-256,380	-7,506	-0,037	0,018
-255,365	-3,212	-0,053	-0,027
-254,351	-14,477	0,047	-0,022
-253,336	-61,546	0,023	0,007
-252,322	-200,000	0,014	-0,048
-251,307	45,124	0,052	-0,035
-250,292	800,000	0,033	0,087
-249,278	-200,000	0,009	0,075
-248,263	225,973	0,150	0,178
-247,249	-200,000	-0,036	0,138
-246,234	60,660	-0,058	-0,042
-245,219	128,482	-0,068	-0,064
-244,205	625,363	0,001	0,002
-243,190	371,980	0,058	0,086
-242,176	540,840	0,080	-0,140
-241,161	171,229	-0,102	0,107
-240,146	148,542	-0,023	0,023
-239,132	-103,950	0,124	-0,021
-238,117	530,049	-0,079	-0,137
-237,103	-200,000	0,031	-0,178
-236,088	-169,950	0,079	0,002
-235,073	-200,000	-0,001	0,124
-234,059	800,000	0,030	-0,068
-233,044	-32,387	-0,124	-0,050
-232,030	705,686	0,048	-0,092
-231,015	-23,028	-0,078	0,034
-230,000	-200,000	-0,019	0,094
-228,986	-120,234	0,057	0,007
-227,971	38,319	0,042	-0,027
-226,957	800,000	0,048	0,120
-225,942	84,573	-0,104	-0,083
-224,927	-41,191	0,138	-0,052
-223,913	-200,000	-0,011	0,047
-222,898	800,000	-0,045	-0,093
-221,884	800,000	0,075	0,198
-220,869	-20,550	-0,088	0,039
-219,855	50,551	-0,110	-0,076
-218,840	22,870	-0,192	0,114
-217,825	-200,000	0,008	0,107
-216,811	-200,000	-0,005	0,082
-215,796	-16,753	-0,162	-0,074
-214,782	-95,048	-0,075	-0,015
-213,767	-200,000	0,031	-0,101
-212,752	-200,000	0,052	0,175
-211,738	-35,902	0,087	0,034
-210,723	274,090	-0,058	-0,075
-209,709	800,000	0,047	-0,124
-208,694	130,298	-0,097	0,091
-207,679	-200,000	-0,002	-0,029
-206,665	274,346	0,125	0,162
-205,650	-13,382	-0,144	-0,068
-204,636	-103,563	0,044	0,008
-203,621	800,000	-0,023	-0,052
-202,606	-163,267	-0,064	-0,002
-201,592	-200,000	0,015	0,053
-200,577	-200,000	-0,004	0,016
-199,563	262,855	0,016	-0,020
-198,548	800,000	0,017	0,041
-197,533	-81,143	0,082	0,020
-196,519	65,248	-0,039	-0,029
-195,504	255,740	-0,165	-0,207
-194,490	-36,319	0,079	-0,031
-193,475	-21,368	-0,064	-0,028
-192,460	800,000	0,068	0,139
-191,446	-200,000	0,004	-0,060
-190,431	505,056	-0,038	0,065
-189,417	231,085	-0,062	0,074
-188,402	224,340	-0,034	0,041
-187,387	-134,466	-0,142	0,013
-186,373	114,160	-0,036	0,032
-185,358	-200,000	0,010	0,228
-184,344	800,000	0,015	0,038
-183,329	249,042	0,019	-0,024
-182,315	68,436	0,012	0,009
-181,300	-48,881	-0,025	0,009
-180,285	101,968	0,095	-0,081
-179,271	-4,765	0,047	-0,024
-178,256	237,992	0,132	-0,160
-177,242	267,813	0,042	-0,054
-176,227	512,041	0,044	-0,075
-175,212	171,375	-0,017	0,018
-174,198	-200,000	-0,003	-0,020
-173,183	800,000	0,006	-0,018
-172,169	17,385	0,025	0,014
-171,154	-200,000	-0,009	-0,037
-170,139	-27,228	-0,144	0,061
-169,125	-5,312	0,055	-0,027
-168,110	728,615	0,018	-0,035
-167,096	393,371	0,063	0,097
-166,081	-161,652	-0,081	0,003
-165,066	-200,000	0,005	-0,142
-164,052	433,196	0,065	0,103
-163,037	297,441	0,047	0,063
-162,023	74,594	0,085	0,065
-161,008	783,069	-0,022	0,044
-159,993	450,588	0,144	0,232
-158,979	-1,985	-0,090	0,046
-157,964	17,410	-0,061	0,035
-156,950	-200,000	0,004	-0,037
-155,935	-36,921	0,115	-0,045
-154,920	375,784	0,012	0,018
-153,906	753,811	0,035	0,069
-152,891	-119,158	0,102	-0,013
-151,877	-121,710	-0,076	-0,009
-150,862	-98,668	-0,018	-0,003
-149,847	136,533	0,049	0,046
-148,833	-143,119	0,052	-0,004
-147,818	800,000	-0,056	0,178
-146,804	0,944	-0,062	0,032
-145,789	-0,601	0,140	0,072
-144,775	58,655	-0,056	-0,040
-143,760	6,469	0,113	-0,061
-142,745	800,000	-0,021	-0,057
-141,731	139,069	-0,012	-0,011
-140,716	800,000	0,031	0,074
-139,702	800,000	0,045	0,131
-138,687	-41,345	0,039	-0,015
-137,672	443,227	0,056	-0,089
-136,658	-200,000	-0,037	-0,206
-135,643	-187,889	-0,064	-0,001
-134,629	-145,142	-0,088	-0,006
-133,614	800,000	0,033	0,087
-132,599	103,351	0,031	0,027
-131,585	56,394	0,023	0,016
-130,570	-200,000	0,010	-0,129
-129,556	-200,000	-0,027	0,128
-128,541	-125,595	-0,065	-0,007
-127,526	739,090	-0,027	-0,053
-126,512	198,655	0,055	-0,061
-125,497	74,400	0,149	0,114
-124,483	387,845	0,016	-0,024
-123,468	-160,918	0,091	0,003
-122,453	-9,714	0,019	0,009
-121,439	-200,000	0,030	-0,159
-120,424	-163,432	0,085	0,003
-119,410	106,855	0,180	0,156
-118,395	-34,842	0,133	0,053
