DTS Sentinel unit serial number:	SN410029Multiplexer serial number:	ORYXHardware model number:	OX2-SRSoftware version number:	ORYX F/W v4,00 Oryx Data Collector v3.7.2.0data status	okinstallation	B4 Nyhavnadifferential loss correction	single-endedforward channel	channel 2reverse channel	N/Adate	2023/12/19time	02:20:13forward acquisition time	300,00reverse acquisition time	0,00gamma	499,1914k internal	0,3125k external	0,3125temperature offset calibration	1,0000default loss term (dB/km)	0,3820temperature slope calibration	1,0000multiplexer offset coefficient	1,0000multiplexer slope coefficient	1,0000fibre end	0,00T internal ref (°C)	21,31T ext. ref 1 (°C)	6,25T ext. ref 2 (°C)	6,39length (m)	temperature (°C)	Stokes	anti-Stokes-744,400	37,925	0,100	0,066
-743,385	-112,247	-0,209	0,031
-742,371	-103,160	0,084	0,015
-741,356	-39,189	-0,290	0,113
-740,342	553,711	-0,054	0,097
-739,327	-53,582	-0,284	0,096
-738,312	721,853	-0,050	-0,100
-737,298	88,654	-0,325	0,269
-736,283	800,000	0,016	0,040
-735,269	-84,897	-0,222	0,052
-734,254	502,691	0,053	-0,092
-733,239	-79,883	-0,437	-0,109
-732,225	-200,000	0,006	-0,058
-731,210	-27,296	0,096	0,042
-730,196	800,000	0,045	0,131
-729,181	365,368	0,056	0,085
-728,167	-41,282	-0,121	-0,046
-727,152	-24,126	-0,068	-0,030
-726,137	557,185	-0,064	-0,116
-725,123	-12,329	-0,050	-0,024
-724,108	-10,356	-0,062	0,031
-723,094	44,987	-0,080	-0,055
-722,079	-184,384	-0,149	-0,002
-721,064	-58,114	0,084	-0,027
-720,050	800,000	0,031	0,094
-719,035	-200,000	-0,003	-0,045
-718,021	-200,000	0,018	-0,102
-717,006	-200,000	0,016	-0,103
-715,991	175,372	-0,109	-0,118
-714,977	73,686	-0,113	-0,088
-713,962	215,568	-0,029	0,035
-712,948	169,476	0,075	-0,079
-711,933	89,507	-0,063	0,053
-710,918	-200,000	-0,016	-0,109
-709,904	-81,320	-0,038	-0,009
-708,889	530,774	0,123	-0,216
-707,875	-135,869	-0,175	0,015
-706,860	-200,000	0,013	0,172
-705,845	168,123	0,082	-0,086
-704,831	226,869	-0,039	0,047
-703,816	-143,712	-0,044	-0,003
-702,802	99,989	-0,062	0,053
-701,787	-135,175	-0,088	0,008
-700,772	-105,791	-0,083	0,014
-699,758	-200,000	0,004	0,049
-698,743	800,000	0,009	0,025
-697,729	-92,805	0,030	-0,006
-696,714	800,000	0,028	0,060
-695,699	-133,153	0,140	0,013
-694,685	639,025	-0,057	-0,108
-693,670	800,000	0,060	-0,166
-692,656	403,837	0,018	-0,029
-691,641	557,129	0,053	0,095
-690,627	-31,007	0,058	0,024
-689,612	-200,000	-0,006	0,099
-688,597	158,978	0,041	-0,043
-687,583	800,000	-0,065	-0,166
-686,568	-163,666	-0,114	-0,004
-685,554	-52,087	-0,141	0,048
-684,539	-20,808	0,169	0,077
-683,524	83,297	-0,030	0,024
-682,510	183,788	-0,044	-0,048
-681,495	311,719	-0,081	-0,114
-680,481	-200,000	-0,028	0,103
-679,466	163,638	0,089	-0,093
-678,451	-28,382	-0,074	0,032
-677,437	-79,690	0,033	0,008
-676,422	-143,741	0,132	0,009
-675,408	180,941	-0,098	0,107
-674,393	-200,000	0,005	-0,018
-673,378	-200,000	0,005	0,087
-672,364	232,147	-0,072	-0,088
-671,349	-200,000	0,011	0,130
-670,335	-200,000	0,013	0,131
-669,320	-26,480	0,049	0,021
-668,305	244,404	0,069	0,087
-667,291	16,107	0,106	0,062
-666,276	19,645	0,126	-0,075
-665,262	-200,000	-0,038	-0,126
-664,247	281,885	-0,109	-0,145
-663,232	115,754	0,058	-0,052
-662,218	-200,000	0,020	0,131
-661,203	-138,370	0,080	0,006
-660,189	-32,835	0,080	-0,033
-659,174	-200,000	-0,060	-0,200
-658,159	49,958	-0,146	0,102
-657,145	241,998	0,071	-0,089
-656,130	-156,941	-0,052	0,002
-655,116	31,341	0,070	-0,045
-654,101	-121,741	-0,015	0,002
-653,086	19,267	0,091	-0,054
-652,072	800,000	-0,056	-0,115
-651,057	-51,590	-0,092	0,032
-650,043	-52,357	-0,031	-0,011
-649,028	-46,042	-0,098	0,036
-648,014	235,670	0,050	-0,061
-646,999	-200,000	-0,017	0,124
-645,984	800,000	-0,063	0,154
-644,970	800,000	0,042	-0,107
-643,955	800,000	0,021	-0,047
-642,941	-31,221	-0,075	-0,031
-641,926	45,572	0,081	-0,055
-640,911	-200,000	-0,018	0,069
-639,897	-91,552	-0,109	0,023
-638,882	800,000	-0,025	0,079
-637,868	800,000	-0,012	0,029
-636,853	66,054	-0,161	-0,121
-635,838	-24,184	-0,129	0,057
-634,824	-200,000	-0,010	-0,035
-633,809	-200,000	-0,012	-0,086
-632,795	347,628	0,078	0,114
-631,780	800,000	-0,020	0,058
-630,765	-173,443	0,121	0,003
-629,751	-46,170	-0,122	-0,044
-628,736	-74,225	-0,136	0,036
-627,722	59,696	0,116	-0,085
-626,707	800,000	0,042	-0,099
-625,692	88,888	-0,061	0,050
-624,678	-106,146	-0,163	0,027
-623,663	-200,000	-0,006	-0,062
-622,649	-106,805	0,052	-0,008
-621,634	800,000	0,005	0,012
-620,619	-148,641	-0,087	0,005
-619,605	-96,974	-0,035	0,007
-618,590	-200,000	-0,005	-0,101
-617,576	349,613	0,016	-0,023
-616,561	-25,573	-0,063	-0,027
-615,546	149,513	0,140	-0,140
-614,532	290,533	-0,124	-0,168
-613,517	197,529	0,079	0,089
-612,503	341,542	-0,030	0,043
-611,488	274,489	0,096	-0,126
-610,474	169,896	-0,037	0,040
-609,459	21,313	0,092	-0,056
-608,444	800,000	0,032	0,075
-607,430	51,820	-0,234	-0,165
-606,415	-159,201	-0,054	0,002
-605,401	-34,262	0,098	-0,040
-604,386	-200,000	0,004	-0,042
-603,371	64,810	-0,037	0,028
-602,357	-200,000	0,005	0,039
-601,342	-200,000	0,000	0,007
-600,328	45,449	-0,134	0,091
-599,313	44,681	-0,176	-0,120
-598,298	-200,000	0,010	0,078
-597,284	637,999	0,046	0,088
-596,269	-200,000	-0,020	-0,108
-595,255	158,813	-0,084	0,086
-594,240	253,639	0,038	0,048
-593,225	-36,475	-0,207	-0,082
-592,211	-29,649	0,150	-0,063
-591,196	-200,000	-0,014	0,078
-590,182	-151,907	0,098	-0,005
-589,167	22,113	-0,137	0,083
-588,152	-200,000	-0,045	0,148
-587,138	449,686	0,069	0,113
-586,123	-200,000	-0,009	-0,061
-585,109	-65,193	-0,070	0,021
-584,094	-120,729	-0,075	0,009
-583,079	-61,447	0,051	-0,016
-582,065	800,000	-0,043	-0,122
-581,050	644,354	0,067	0,127
-580,036	82,458	0,066	0,053
-579,021	800,000	-0,030	0,083
-578,006	-83,332	-0,079	0,019
-576,992	-135,132	0,053	0,005
-575,977	-123,408	-0,090	0,011
-574,963	800,000	-0,057	0,164
-573,948	44,710	0,096	0,065
-572,934	32,386	-0,024	-0,015
-571,919	198,074	-0,019	0,021
-570,904	-200,000	0,043	-0,174
-569,890	120,841	0,114	-0,105
-568,875	62,146	0,143	0,106
-567,861	-200,000	0,005	0,114
-566,846	-200,000	-0,026	0,114
-565,831	410,038	0,094	-0,148
-564,817	-58,997	0,103	-0,033
-563,802	172,732	-0,071	-0,076
-562,788	800,000	0,070	-0,146
-561,773	-200,000	-0,027	0,178
-560,758	503,356	0,028	0,048
-559,744	718,631	0,026	-0,051
-558,729	-200,000	-0,014	-0,177
-557,715	-67,497	-0,020	-0,006
-556,700	-200,000	0,000	-0,098
-555,685	-200,000	0,034	-0,141
-554,671	-61,769	0,060	0,018
-553,656	800,000	0,086	0,199
-552,642	800,000	0,026	-0,084
-551,627	-160,134	-0,141	-0,006
-550,612	-200,000	0,013	-0,055
-549,598	-200,000	-0,019	-0,190
-548,583	-135,346	0,156	0,014
-547,569	73,364	-0,072	0,056
-546,554	239,373	0,065	-0,080
-545,539	104,257	-0,082	0,071
-544,525	-115,335	0,107	0,015
-543,510	-200,000	0,018	-0,213
-542,496	-200,000	-0,030	-0,151
-541,481	94,782	0,146	-0,123
-540,466	428,055	-0,063	-0,101
-539,452	328,489	0,030	-0,043
-538,437	-99,989	0,125	-0,023
-537,423	800,000	0,002	-0,008
-536,408	295,289	-0,079	0,107
-535,393	-200,000	0,030	-0,187
-534,379	800,000	-0,047	-0,135
-533,364	218,546	0,061	-0,072
-532,350	376,205	-0,046	-0,069
-531,335	-200,000	0,020	0,096
-530,321	-200,000	0,000	-0,051
-529,306	106,503	0,077	-0,068
-528,291	200,333	0,064	-0,073
-527,277	347,285	-0,091	-0,133
-526,262	-200,000	0,015	-0,125
-525,248	-117,151	-0,107	-0,014
-524,233	-116,899	0,096	-0,013
-523,218	199,047	0,091	0,103
-522,204	336,739	-0,050	-0,072
-521,189	800,000	0,044	0,102
-520,175	-200,000	-0,027	-0,103
-519,160	800,000	0,024	0,064
-518,145	635,923	0,047	0,088
-517,131	13,574	0,090	-0,051
-516,116	-198,537	0,152	0,001
-515,102	-200,000	-0,005	-0,122
-514,087	-100,381	0,092	0,017
-513,072	111,467	0,103	-0,092
-512,058	-200,000	-0,013	-0,128
-511,043	61,582	-0,037	0,027
-510,029	83,787	0,058	-0,047
-509,014	-31,318	-0,039	0,016
-507,999	-52,687	0,053	0,018
-506,985	54,202	-0,104	-0,074
-505,970	-200,000	0,025	-0,145
-504,956	800,000	-0,027	-0,084
-503,941	-117,731	-0,080	0,010
-502,926	2,684	-0,077	0,041
-501,912	-78,946	0,167	0,042
-500,897	267,036	-0,019	0,024
-499,883	238,739	-0,057	-0,071
-498,868	51,666	0,027	-0,019
-497,853	19,693	-0,050	0,030
-496,839	-74,991	-0,032	0,008
-495,824	-56,727	-0,088	0,028
-494,810	137,676	0,087	-0,084
-493,795	-200,000	0,008	0,057
-492,781	109,558	-0,026	0,023
-491,766	-95,047	-0,036	0,007
-490,751	19,930	-0,085	-0,050
-489,737	431,370	-0,036	0,058
-488,722	800,000	-0,055	0,153
-487,708	800,000	0,040	0,096
-486,693	-200,000	-0,051	0,182
-485,678	-52,211	-0,115	0,039
-484,664	22,927	-0,119	-0,072
-483,649	344,891	0,033	0,048
-482,635	-81,831	-0,063	0,015
-481,620	-52,786	0,153	-0,052
-480,605	-200,000	-0,013	0,048
-479,591	-74,353	-0,061	-0,016
-478,576	-62,752	-0,042	-0,013
-477,562	-200,000	0,000	-0,188
-476,547	135,927	-0,015	-0,014
-475,532	-200,000	-0,012	0,085
-474,518	215,288	0,049	0,057
-473,503	87,321	0,066	0,054
-472,489	-12,839	0,065	0,031
-471,474	32,774	0,085	0,054
-470,459	-200,000	0,014	0,054
-469,445	-200,000	0,000	-0,099
-468,430	800,000	0,052	-0,109
-467,416	34,473	-0,060	-0,038
-466,401	800,000	0,045	0,098
-465,386	176,230	-0,060	-0,064
-464,372	-200,000	-0,024	0,086
-463,357	589,818	0,025	0,045
-462,343	368,565	0,075	0,112
-461,328	-119,265	-0,084	0,011
-460,313	-200,000	-0,041	0,171
-459,299	421,824	0,099	0,158
-458,284	-200,000	-0,005	0,018
-457,270	-200,000	-0,004	-0,050
-456,255	-34,332	-0,115	0,046
-455,241	-31,003	-0,078	-0,032
-454,226	-200,000	-0,003	-0,102
-453,211	-35,077	-0,180	0,072
-452,197	-128,180	0,087	-0,009
-451,182	800,000	0,040	0,086
-450,168	800,000	-0,003	0,010
-449,153	157,984	-0,023	-0,024
-448,138	-200,000	0,008	-0,090
-447,124	-200,000	-0,016	-0,184
-446,109	28,834	-0,149	-0,093
-445,095	-51,081	0,121	0,042
-444,080	-200,000	0,026	-0,099
-443,065	800,000	0,056	-0,124
-442,051	-30,620	-0,138	-0,057
-441,036	-200,000	0,023	-0,090
-440,022	-200,000	-0,019	0,063
-439,007	321,841	0,048	-0,068
-437,992	-70,041	0,104	-0,029
-436,978	-64,049	0,077	0,023
-435,963	143,709	-0,006	0,006
-434,949	-82,760	-0,173	0,041
-433,934	156,317	-0,136	-0,139
-432,919	322,131	-0,051	-0,072
-431,905	-200,000	0,008	0,121
-430,890	-200,000	-0,025	-0,140
-429,876	-200,000	0,032	-0,141
-428,861	45,832	-0,149	0,101
-427,846	-21,523	0,141	0,063
-426,832	800,000	0,036	-0,081
-425,817	243,130	-0,088	0,109
-424,803	-200,000	-0,047	-0,211
-423,788	124,290	-0,140	-0,130
-422,773	187,445	0,075	0,082
-421,759	71,885	-0,074	-0,057
-420,744	241,551	0,027	0,034
-419,730	220,951	-0,062	-0,074
-418,715	-100,939	0,042	-0,007
-417,701	328,321	0,072	0,102
-416,686	595,529	0,063	-0,115
-415,671	-200,000	-0,001	0,174
-414,657	127,882	-0,116	-0,108
-413,642	-66,295	0,080	0,023
-412,628	-200,000	0,034	0,157
-411,613	20,146	-0,116	-0,069
-410,598	-200,000	0,021	0,073
-409,584	-38,928	-0,053	0,021
-408,569	-200,000	0,017	0,000
-407,555	800,000	0,016	0,048
-406,540	157,803	-0,048	-0,049
-405,525	-145,623	-0,072	-0,005
-404,511	41,986	-0,116	-0,077
-403,496	-6,056	0,100	-0,050
-402,482	712,284	0,046	0,090
-401,467	269,452	0,075	0,097
-400,452	-139,600	-0,083	0,006
-399,438	63,604	-0,032	0,024
-398,423	47,987	0,027	0,019
-397,409	-157,962	0,093	0,004
-396,394	-24,604	-0,152	0,066
-395,379	80,163	0,071	-0,056
-394,365	-27,089	0,107	0,046
-393,350	-200,000	0,012	0,087
-392,336	-200,000	0,009	0,074
-391,321	-200,000	-0,007	-0,068
-390,306	326,474	-0,046	0,065
-389,292	800,000	-0,022	-0,068
-388,277	-56,500	-0,159	0,051
-387,263	292,779	0,114	0,153
-386,248	351,501	-0,039	0,057
-385,233	-168,648	-0,034	0,001
-384,219	41,443	0,054	-0,036
-383,204	-97,587	-0,024	0,005
-382,190	-200,000	0,013	-0,064
-381,175	-200,000	-0,025	-0,100
-380,160	298,331	-0,014	-0,019
-379,146	0,126	0,103	0,054
-378,131	800,000	-0,052	-0,118
-377,117	-167,603	-0,059	0,002
-376,102	20,818	0,061	0,036
-375,088	800,000	0,055	-0,133
-374,073	465,888	0,014	0,023
-373,058	68,577	-0,051	-0,038
-372,044	-200,000	0,024	-0,080
-371,029	-17,232	0,177	0,082
-370,015	-160,211	0,095	-0,004
-369,000	-200,000	-0,013	-0,044
-367,985	113,401	-0,044	0,039
-366,971	269,295	-0,069	-0,089
-365,956	25,641	-0,099	-0,060
-364,942	800,000	0,038	0,103
-363,927	-71,649	0,138	-0,037
-362,912	-105,468	-0,114	0,019
-361,898	38,004	-0,093	-0,061
-360,883	352,237	-0,050	-0,073
-359,869	800,000	0,029	-0,066
-358,854	800,000	0,037	-0,096
-357,839	707,756	0,070	0,137
-356,825	92,094	-0,046	0,038
-355,810	800,000	0,036	0,073
-354,796	-166,815	-0,089	-0,003
-353,781	800,000	0,032	0,072
-352,766	800,000	0,008	-0,022
-351,752	-43,088	0,155	0,057
-350,737	64,308	0,117	0,086
-349,723	-164,558	0,125	0,004
-348,708	-129,523	-0,100	-0,010
-347,693	-200,000	0,008	-0,082
-346,679	-136,903	0,023	-0,002
-345,664	-85,263	0,023	0,005
-344,650	-66,426	-0,102	0,030
-343,635	265,477	-0,075	-0,097
-342,620	726,471	0,044	-0,087
-341,606	11,751	0,089	0,050
-340,591	-200,000	0,000	-0,113
-339,577	-103,066	-0,119	0,020
-338,562	183,679	0,079	0,085
-337,548	800,000	-0,020	0,042
-336,533	327,012	0,090	0,126
-335,518	800,000	-0,047	0,105
-334,504	663,076	0,085	0,161
-333,489	24,987	0,041	-0,025
-332,475	-75,535	-0,018	-0,005
-331,460	-30,164	-0,103	-0,043
-330,445	-62,762	-0,128	-0,039
-329,431	-200,000	0,004	-0,053
-328,416	241,885	0,074	0,091
-327,402	-200,000	-0,006	0,036
-326,387	-60,679	0,037	0,012
-325,372	-104,886	-0,151	-0,025
-324,358	-177,529	-0,140	0,002
-323,343	-200,000	-0,017	0,132
-322,329	-200,000	-0,023	0,132
-321,314	-174,302	-0,028	-0,001
-320,299	800,000	0,021	0,052
-319,285	-200,000	-0,010	-0,036
-318,270	-162,893	-0,058	0,002
-317,256	-200,000	-0,012	0,097
-316,241	-200,000	-0,031	0,149
-315,226	151,182	0,087	-0,087
-314,212	-200,000	0,016	0,107
-313,197	493,841	0,066	0,112
-312,183	-200,000	0,007	0,054
-311,168	800,000	-0,037	0,098
-310,153	161,936	-0,039	-0,040
-309,139	100,855	-0,077	0,065
-308,124	81,558	0,059	0,047
-307,110	29,422	-0,090	0,056
-306,095	-149,583	0,139	-0,008
-305,080	-200,000	-0,004	-0,111
-304,066	489,293	0,090	0,152
-303,051	785,268	-0,064	0,129
-302,037	108,312	0,037	-0,033
-301,022	202,856	0,085	-0,096
-300,008	-98,103	-0,009	0,002
-298,993	451,734	-0,072	0,117
-297,978	-119,777	-0,090	0,011
-296,964	-102,331	-0,100	0,017
-295,949	-200,000	-0,001	0,093
-294,935	-200,000	0,034	-0,152
-293,920	-38,832	-0,068	-0,026
-292,905	-101,057	0,160	0,028
-291,891	-60,335	0,152	0,047
-290,876	-200,000	0,026	0,086
-289,862	-47,685	-0,114	-0,040
-288,847	-131,089	-0,105	0,010
-287,832	-200,000	-0,030	-0,128
-286,818	800,000	0,032	0,072
-285,803	193,784	0,017	-0,019
-284,789	108,587	0,060	0,053
-283,774	-200,000	-0,001	0,125
-282,759	-200,000	-0,014	-0,064
-281,745	-85,983	-0,130	0,029
-280,730	42,645	0,094	-0,063
-279,716	-17,428	-0,068	0,031
-278,701	26,613	0,187	-0,114
-277,686	-200,000	-0,019	0,081
-276,672	800,000	0,054	0,145
-275,657	178,874	-0,081	0,087
-274,643	30,333	-0,068	0,042
-273,628	-200,000	-0,003	-0,085
-272,613	800,000	0,033	-0,070
-271,599	569,408	0,078	-0,139
-270,584	32,399	-0,056	-0,035
-269,570	-12,156	0,090	-0,043
-268,555	719,778	-0,077	0,151
-267,540	730,442	-0,059	-0,116
-266,526	127,496	-0,035	0,032
-265,511	-26,824	0,086	-0,037
-264,497	800,000	-0,015	0,033
-263,482	32,662	-0,033	-0,021
-262,467	-72,957	0,093	0,025
-261,453	-130,613	-0,083	-0,008
-260,438	-200,000	-0,007	-0,133
-259,424	-63,470	0,034	0,010
-258,409	714,582	-0,028	0,054
-257,395	-13,725	0,058	0,027
-256,380	-84,721	0,038	-0,009
-255,365	479,751	0,042	-0,069
-254,351	66,850	-0,122	0,091
-253,336	800,000	0,022	0,052
-252,322	-106,131	-0,140	-0,023
-251,307	-200,000	-0,002	0,075
-250,292	227,500	-0,067	0,080
-249,278	-35,530	0,188	0,074
-248,263	-200,000	0,008	-0,081
-247,249	206,307	0,059	0,068
-246,234	133,046	0,042	-0,040
-245,219	147,200	0,046	-0,045
-244,205	-200,000	0,002	-0,106
-243,190	-200,000	0,003	-0,054
-242,176	800,000	0,043	0,121
-241,161	800,000	0,032	0,091
-240,146	168,859	0,087	0,091
-239,132	-200,000	0,022	-0,075
-238,117	-100,699	-0,086	-0,015
-237,103	29,679	0,090	-0,056
-236,088	800,000	0,021	-0,047
-235,073	-200,000	0,015	0,209
-234,059	-36,342	0,073	-0,029
-233,044	246,489	0,032	0,039
-232,030	-102,276	-0,084	0,015
-231,015	165,743	-0,072	-0,075
-230,000	77,408	-0,175	0,136
-228,986	-200,000	-0,034	-0,127
-227,971	96,131	0,097	0,081
-226,957	55,256	0,150	0,105
-225,942	640,278	0,069	0,129
-224,927	257,839	-0,118	0,148
-223,913	-200,000	-0,028	-0,093
-222,898	36,491	-0,055	-0,035
-221,884	2,070	0,083	0,044
-220,869	267,582	0,031	-0,040
-219,855	15,518	-0,109	0,062
-218,840	-107,932	0,053	0,008
-217,825	800,000	-0,057	-0,136
-216,811	-95,522	0,068	0,013
-215,796	67,460	-0,057	0,042
-214,782	-117,744	-0,100	0,013
-213,767	297,476	-0,058	-0,078
-212,752	141,362	0,051	-0,049
-211,738	-37,137	-0,129	0,050
-210,723	-200,000	-0,003	-0,064
-209,709	800,000	0,017	0,036
-208,694	800,000	-0,039	-0,095
-207,679	-38,250	0,083	-0,032
-206,665	800,000	-0,022	-0,068
-205,650	12,941	0,128	0,072
-204,636	-108,740	0,089	0,014
-203,621	-200,000	-0,001	0,053
-202,606	-134,348	0,100	0,009
-201,592	-97,455	0,096	-0,018
-200,577	800,000	0,050	-0,119
-199,563	-200,000	0,015	0,144
-198,548	-8,808	0,165	0,080
-197,533	-200,000	0,033	-0,134
-196,519	407,776	0,028	0,043
-195,504	463,112	-0,064	-0,105
-194,490	800,000	-0,046	-0,141
-193,475	31,175	0,036	0,023
-192,460	-200,000	0,030	0,159
-191,446	-200,000	-0,002	0,067
-190,431	34,412	0,093	0,059
-189,417	-19,339	0,037	0,017
-188,402	537,058	0,061	-0,106
-187,387	624,114	0,080	-0,147
-186,373	182,513	-0,041	-0,044
-185,358	-200,000	0,015	0,064
-184,344	96,026	0,056	0,047
-183,329	392,579	-0,078	0,118
-182,315	333,603	0,051	-0,072
-181,300	-85,924	0,014	0,003
-180,285	-23,962	-0,080	0,035
-179,271	800,000	-0,003	0,007
-178,256	523,069	0,062	-0,106
-177,242	-96,749	0,179	0,034
-176,227	51,947	0,042	0,029
-175,212	488,604	-0,118	0,197
-174,198	800,000	0,041	-0,098
-173,183	246,682	0,032	-0,040
-172,169	-157,083	-0,061	0,003
-171,154	-200,000	0,016	-0,079
-170,139	-62,781	-0,068	-0,020
-169,125	629,691	-0,031	-0,057
-168,110	28,985	-0,069	0,042
-167,096	-128,918	-0,092	-0,009
-166,081	27,899	0,149	-0,091
-165,066	385,689	-0,031	0,047
-164,052	-22,694	-0,050	0,022
-163,037	125,778	0,097	0,089
-162,023	800,000	0,027	0,071
-161,008	287,095	-0,037	0,049
-159,993	-200,000	0,019	-0,081
-158,979	285,813	-0,109	0,143
-157,964	115,685	-0,093	0,083
-156,950	-18,076	-0,030	-0,013
-155,935	-4,168	0,161	-0,081
-154,920	-15,393	0,190	0,088
-153,906	202,076	-0,047	-0,052
-152,891	-51,941	-0,095	0,032
-151,877	-200,000	0,001	-0,058
-150,862	19,807	0,069	0,040
-149,847	156,175	0,030	0,030
-148,833	417,744	0,052	-0,081
-147,818	-63,773	0,084	0,025
-146,804	-27,419	0,082	-0,034
-145,789	-51,311	-0,124	0,042
-144,775	132,063	-0,017	0,016
-143,760	149,817	0,064	0,063
-142,745	-88,985	-0,090	0,019
-141,731	-172,894	-0,032	0,001
-140,716	6,396	0,140	-0,075
-139,702	214,265	-0,122	0,140
-138,687	504,274	0,048	0,081
-137,672	-200,000	0,022	0,093
-136,658	69,062	0,019	0,014
-135,643	8,667	0,056	-0,031
-134,629	634,764	-0,063	0,117
-133,614	-142,353	0,097	0,007
-132,599	-117,598	0,072	-0,009
-131,585	133,352	0,014	-0,014
-130,570	-200,000	-0,026	0,162
-129,556	-93,783	-0,090	-0,018
-128,541	800,000	0,049	-0,104
-127,526	291,179	0,059	0,078
-126,512	25,995	-0,076	0,046
-125,497	136,197	0,021	-0,020
-124,483	-200,000	-0,021	0,108
-123,468	-144,193	0,064	0,004
-122,453	-132,006	0,029	0,003
-121,439	-21,938	-0,084	-0,037
-120,424	755,779	0,045	0,089
-119,410	-28,963	-0,127	-0,053
-118,395	780,463	0,069	0,138
