DTS Sentinel unit serial number:	SN410029Multiplexer serial number:	ORYXHardware model number:	OX2-SRSoftware version number:	ORYX F/W v4,00 Oryx Data Collector v3.7.2.0data status	okinstallation	B4 Nyhavnadifferential loss correction	single-endedforward channel	channel 2reverse channel	N/Adate	2023/12/16time	08:40:13forward acquisition time	300,00reverse acquisition time	0,00gamma	499,1914k internal	0,3127k external	0,3127temperature offset calibration	1,0000default loss term (dB/km)	0,3820temperature slope calibration	1,0000multiplexer offset coefficient	1,0000multiplexer slope coefficient	1,0000fibre end	0,00T internal ref (°C)	22,65T ext. ref 1 (°C)	8,64T ext. ref 2 (°C)	8,78length (m)	temperature (°C)	Stokes	anti-Stokes-744,400	800,000	-0,032	-0,068
-743,385	56,221	-0,170	0,123
-742,371	106,109	0,116	-0,102
-741,356	-120,030	-0,081	0,010
-740,342	20,531	-0,069	-0,041
-739,327	-135,583	-0,290	0,025
-738,312	108,176	-0,081	0,072
-737,298	-156,921	-0,247	-0,011
-736,283	170,782	0,087	-0,092
-735,269	-72,402	-0,270	0,074
-734,254	47,691	0,070	-0,048
-733,239	-46,668	-0,286	-0,104
-732,225	208,414	0,067	-0,078
-731,210	127,926	0,004	-0,003
-730,196	-128,821	-0,029	0,003
-729,181	-104,671	-0,021	-0,004
-728,167	-18,889	-0,013	-0,006
-727,152	-108,298	-0,059	0,009
-726,137	-200,000	-0,014	-0,046
-725,123	-200,000	0,008	0,054
-724,108	222,973	-0,070	-0,084
-723,094	430,925	-0,055	-0,089
-722,079	403,248	-0,127	-0,199
-721,064	800,000	-0,025	-0,072
-720,050	-200,000	0,010	-0,113
-719,035	-145,158	-0,058	-0,004
-718,021	-25,126	0,012	0,005
-717,006	800,000	-0,051	-0,123
-715,991	423,835	-0,024	-0,039
-714,977	-41,298	-0,039	-0,015
-713,962	-75,255	0,085	0,022
-712,948	79,584	-0,132	0,105
-711,933	800,000	-0,027	-0,079
-710,918	-200,000	0,007	0,152
-709,904	-162,234	-0,286	-0,010
-708,889	53,467	-0,008	0,006
-707,875	-26,385	0,015	-0,007
-706,860	-119,357	0,103	0,013
-705,845	221,253	0,023	0,027
-704,831	437,088	-0,032	0,052
-703,816	-67,447	0,151	-0,044
-702,802	86,222	-0,106	0,087
-701,787	7,441	-0,059	0,033
-700,772	-200,000	-0,004	-0,084
-699,758	-75,388	-0,097	-0,026
-698,743	-29,510	0,103	0,044
-697,729	-200,000	0,009	-0,104
-696,714	-172,011	0,030	-0,001
-695,699	800,000	0,027	-0,084
-694,685	110,520	0,061	-0,055
-693,670	120,291	-0,120	-0,111
-692,656	190,099	-0,170	0,190
-691,641	210,761	-0,080	-0,094
-690,627	-13,594	-0,083	0,040
-689,612	-38,141	0,095	0,037
-688,597	-142,617	-0,070	0,005
-687,583	-200,000	-0,002	-0,156
-686,568	307,464	0,047	-0,066
-685,554	-125,538	-0,141	-0,016
-684,539	800,000	0,037	0,105
-683,524	-200,000	0,021	0,098
-682,510	-145,021	0,103	-0,007
-681,495	-200,000	0,015	-0,101
-680,481	800,000	-0,014	-0,030
-679,466	800,000	-0,019	-0,049
-678,451	518,780	-0,031	0,055
-677,437	-64,769	-0,116	0,035
-676,422	800,000	0,046	0,113
-675,408	175,648	0,060	-0,064
-674,393	-30,852	-0,075	-0,031
-673,378	800,000	0,025	-0,065
-672,364	-106,959	-0,026	0,004
-671,349	800,000	-0,024	-0,070
-670,335	319,947	0,044	0,062
-669,320	34,086	0,115	-0,074
-668,305	-200,000	-0,018	-0,122
-667,291	616,242	-0,052	0,097
-666,276	48,095	-0,095	-0,066
-665,262	-31,290	0,128	-0,053
-664,247	-200,000	0,053	-0,217
-663,232	-200,000	0,039	-0,150
-662,218	-104,064	0,038	0,007
-661,203	-200,000	0,022	0,135
-660,189	41,167	-0,183	0,123
-659,174	213,132	-0,051	-0,060
-658,159	-148,838	-0,136	-0,008
-657,145	470,785	-0,030	-0,050
-656,130	351,265	0,052	0,076
-655,116	-88,570	-0,099	0,022
-654,101	-200,000	-0,040	-0,161
-653,086	-200,000	0,033	0,114
-652,072	-72,768	-0,048	-0,013
-651,057	-200,000	0,050	-0,174
-650,043	800,000	0,032	-0,100
-649,028	67,782	-0,016	-0,012
-648,014	269,969	0,028	0,036
-646,999	-112,964	0,032	0,005
-645,984	35,916	-0,028	0,018
-644,970	110,206	-0,096	-0,085
-643,955	503,073	-0,056	-0,097
-642,941	800,000	-0,041	-0,108
-641,926	800,000	-0,024	-0,073
-640,911	-200,000	-0,002	0,115
-639,897	194,706	0,073	0,082
-638,882	546,079	-0,046	0,083
-637,868	228,135	0,044	0,054
-636,853	-31,939	0,063	-0,026
-635,838	-79,672	0,075	0,019
-634,824	-200,000	-0,006	0,064
-633,809	-200,000	-0,009	-0,051
-632,795	800,000	0,021	-0,067
-631,780	800,000	0,014	-0,029
-630,765	-35,078	-0,033	0,013
-629,751	-73,896	-0,105	0,028
-628,736	299,779	0,084	-0,115
-627,722	-90,468	0,041	-0,009
-626,707	384,443	-0,038	0,058
-625,692	298,730	-0,029	-0,039
-624,678	-91,544	0,170	-0,036
-623,663	191,706	-0,023	-0,025
-622,649	-125,205	0,056	-0,006
-621,634	-200,000	-0,026	-0,145
-620,619	250,278	-0,077	-0,097
-619,605	-200,000	0,019	-0,118
-618,590	111,952	-0,035	0,031
-617,576	-137,534	0,108	0,009
-616,561	41,678	-0,091	-0,061
-615,546	800,000	-0,040	0,111
-614,532	-153,322	-0,203	-0,010
-613,517	-0,166	-0,158	0,083
-612,503	-200,000	0,032	0,140
-611,488	407,228	-0,042	0,066
-610,474	-19,702	-0,064	-0,029
-609,459	22,426	0,070	0,042
-608,444	-134,078	0,070	0,006
-607,430	140,552	0,074	-0,072
-606,415	373,940	0,035	0,053
-605,401	800,000	-0,008	-0,017
-604,386	-85,449	0,022	0,005
-603,371	-200,000	0,018	-0,085
-602,357	-140,273	-0,023	-0,002
-601,342	-42,059	-0,153	-0,058
-600,328	-200,000	0,018	0,072
-599,313	-30,919	-0,096	-0,040
-598,298	568,768	0,029	-0,052
-597,284	169,520	0,099	-0,104
-596,269	-200,000	0,001	0,041
-595,255	-200,000	-0,023	0,117
-594,240	-111,320	-0,071	0,011
-593,225	-42,153	0,060	0,023
-592,211	-30,513	-0,035	0,014
-591,196	125,506	0,044	0,041
-590,182	30,219	-0,112	0,071
-589,167	35,086	0,052	0,033
-588,152	195,894	0,030	0,034
-587,138	-200,000	-0,008	-0,081
-586,123	-200,000	0,057	0,000
-585,109	256,784	-0,058	0,073
-584,094	800,000	0,028	-0,086
-583,079	25,931	-0,087	-0,054
-582,065	45,388	0,050	-0,034
-581,050	-200,000	0,043	0,143
-580,036	373,882	-0,081	0,122
-579,021	59,721	0,112	0,082
-578,006	-137,133	0,063	0,005
-576,992	259,680	-0,049	0,063
-575,977	518,055	-0,097	-0,169
-574,963	-78,947	0,078	0,019
-573,948	-47,722	-0,022	-0,008
-572,934	-31,013	0,145	-0,060
-571,919	66,694	-0,073	-0,055
-570,904	-33,021	-0,165	-0,068
-569,890	800,000	0,019	0,050
-568,875	-37,351	0,148	0,058
-567,861	-94,410	-0,165	0,033
-566,846	800,000	-0,005	0,013
-565,831	81,000	-0,088	-0,070
-564,817	27,368	0,103	0,064
-563,802	480,115	-0,089	0,150
-562,788	-82,781	-0,077	0,018
-561,773	82,405	-0,093	-0,074
-560,758	800,000	0,039	0,099
-559,744	-93,216	0,049	-0,010
-558,729	-131,240	0,109	-0,011
-557,715	-200,000	0,006	-0,077
-556,700	19,434	-0,083	0,049
-555,685	113,752	-0,037	0,033
-554,671	-200,000	0,001	-0,024
-553,656	800,000	0,029	-0,081
-552,642	-200,000	-0,000	-0,082
-551,627	-200,000	0,010	0,037
-550,612	259,412	-0,060	-0,076
-549,598	-47,245	-0,051	-0,018
-548,583	-108,413	-0,117	0,018
-547,569	-54,593	0,110	0,037
-546,554	145,209	-0,042	0,042
-545,539	379,462	0,053	0,080
-544,525	731,567	-0,035	0,069
-543,510	10,000	-0,013	0,007
-542,496	-26,230	-0,200	-0,086
-541,481	-200,000	-0,004	-0,019
-540,466	132,918	0,161	0,154
-539,452	374,415	0,091	0,137
-538,437	-200,000	0,007	0,061
-537,423	104,874	0,149	-0,129
-536,408	-49,053	-0,109	-0,038
-535,393	-200,000	-0,007	-0,081
-534,379	800,000	-0,050	0,150
-533,364	800,000	0,042	-0,105
-532,350	152,068	0,071	-0,072
-531,335	515,331	-0,080	0,138
-530,321	-200,000	0,012	0,053
-529,306	249,860	-0,022	-0,028
-528,291	-56,882	-0,106	-0,034
-527,277	383,651	0,105	0,161
-526,262	175,035	-0,034	-0,036
-525,248	-107,993	0,055	0,009
-524,233	26,465	0,036	0,022
-523,218	51,620	-0,022	0,016
-522,204	-200,000	0,038	-0,197
-521,189	311,679	-0,081	-0,113
-520,175	384,396	-0,010	0,016
-519,160	389,589	0,073	0,113
-518,145	43,886	0,070	-0,047
-517,131	-123,616	0,085	-0,010
-516,116	-21,466	-0,050	-0,022
-515,102	23,734	-0,068	-0,041
-514,087	-200,000	0,003	-0,069
-513,072	21,611	-0,132	-0,079
-512,058	800,000	-0,058	-0,127
-511,043	-105,811	-0,087	-0,014
-510,029	-200,000	-0,013	0,073
-509,014	-60,383	0,059	0,018
-507,999	800,000	-0,023	0,063
-506,985	325,889	-0,059	-0,084
-505,970	-89,954	0,114	0,024
-504,956	-53,838	-0,061	0,020
-503,941	340,006	0,066	0,095
-502,926	510,409	-0,033	-0,057
-501,912	800,000	0,018	-0,059
-500,897	225,120	0,045	-0,054
-499,883	-200,000	0,005	0,075
-498,868	14,057	0,067	-0,038
-497,853	44,323	-0,067	0,046
-496,839	800,000	-0,008	-0,026
-495,824	-113,417	0,084	0,012
-494,810	-200,000	-0,005	0,117
-493,795	-200,000	0,006	0,033
-492,781	-101,247	-0,194	-0,035
-491,766	185,950	0,062	-0,068
-490,751	-200,000	-0,002	-0,051
-489,737	35,626	0,055	0,036
-488,722	31,896	-0,089	0,056
-487,708	2,428	-0,036	-0,019
-486,693	-166,621	-0,131	0,004
-485,678	-142,877	0,074	-0,005
-484,664	-102,536	0,103	-0,018
-483,649	81,270	-0,027	0,022
-482,635	-200,000	0,006	-0,040
-481,620	-200,000	0,042	0,141
-480,605	-148,309	0,102	-0,006
-479,591	-200,000	0,013	-0,069
-478,576	-200,000	-0,026	0,098
-477,562	282,225	0,038	-0,051
-476,547	81,828	-0,067	-0,054
-475,532	65,575	-0,044	-0,033
-474,518	-200,000	0,011	0,151
-473,503	800,000	0,050	0,114
-472,489	-54,266	0,088	0,029
-471,474	-200,000	-0,026	-0,088
-470,459	-111,819	-0,180	0,027
-469,445	-200,000	-0,013	-0,146
-468,430	-200,000	0,005	-0,088
-467,416	-46,132	-0,050	0,018
-466,401	-116,857	0,060	-0,008
-465,386	-32,799	0,170	-0,069
-464,372	-90,808	0,036	-0,008
-463,357	684,766	-0,014	-0,027
-462,343	11,415	-0,061	0,035
-461,328	-200,000	0,003	-0,023
-460,313	800,000	-0,011	0,023
-459,299	800,000	0,059	0,146
-458,284	-62,336	0,088	-0,027
-457,270	374,541	-0,040	-0,061
-456,255	333,325	-0,058	-0,083
-455,241	-3,359	0,033	-0,017
-454,226	-200,000	-0,007	-0,056
-453,211	317,062	0,061	0,085
-452,197	211,012	0,077	0,089
-451,182	-200,000	0,033	-0,139
-450,168	791,111	-0,037	0,075
-449,153	590,760	-0,023	0,042
-448,138	165,205	-0,144	-0,149
-447,124	-76,567	-0,101	0,026
-446,109	-200,000	-0,021	0,179
-445,095	-101,416	0,177	0,031
-444,080	-200,000	0,004	0,127
-443,065	-200,000	0,004	0,159
-442,051	-28,917	0,036	0,015
-441,036	-38,512	-0,160	0,062
-440,022	800,000	0,040	0,111
-439,007	800,000	0,029	0,067
-437,992	54,335	0,100	0,071
-436,978	-200,000	0,015	-0,078
-435,963	29,505	0,129	-0,080
-434,949	595,688	-0,032	0,059
-433,934	172,467	-0,058	-0,061
-432,919	800,000	0,005	-0,016
-431,905	-168,946	0,086	0,002
-430,890	-28,119	-0,153	-0,065
-429,876	800,000	-0,045	0,132
-428,861	-200,000	0,009	0,098
-427,846	238,236	0,048	0,059
-426,832	-10,896	0,139	0,067
-425,817	249,796	-0,013	0,016
-424,803	-200,000	0,001	-0,058
-423,788	38,470	0,032	-0,021
-422,773	70,638	0,071	-0,054
-421,759	-114,802	-0,060	-0,008
-420,744	41,992	-0,037	-0,024
-419,730	284,847	-0,054	-0,071
-418,715	60,085	-0,047	-0,034
-417,701	65,527	0,160	0,119
-416,686	-200,000	-0,007	0,083
-415,671	-200,000	0,017	-0,064
-414,657	128,040	0,021	0,020
-413,642	-117,393	0,130	-0,017
-412,628	176,486	-0,037	-0,040
-411,613	20,091	-0,061	-0,036
-410,598	235,531	0,069	-0,084
-409,584	-21,583	-0,101	-0,045
-408,569	80,243	0,035	0,028
-407,555	-99,311	0,076	0,014
-406,540	-200,000	-0,015	-0,078
-405,525	274,578	-0,064	-0,083
-404,511	280,877	-0,062	0,082
-403,496	-148,758	0,056	0,003
-402,482	800,000	-0,036	0,113
-401,467	-72,506	0,098	0,026
-400,452	72,109	0,067	0,051
-399,438	-200,000	-0,005	0,044
-398,423	-200,000	-0,011	-0,192
-397,409	800,000	0,039	-0,108
-396,394	-149,255	-0,048	-0,003
-395,379	98,790	-0,152	-0,129
-394,365	-54,206	0,086	0,029
-393,350	383,317	0,057	0,086
-392,336	-34,935	0,099	0,040
-391,321	68,715	-0,096	0,072
-390,306	-200,000	-0,005	-0,027
-389,292	800,000	0,069	-0,144
-388,277	-200,000	0,035	-0,136
-387,263	252,530	0,074	0,093
-386,248	83,814	-0,065	-0,052
-385,233	163,497	0,120	0,124
-384,219	-65,512	-0,158	0,046
-383,204	177,731	0,041	-0,044
-382,190	-94,305	-0,093	-0,019
-381,175	37,731	0,066	0,043
-380,160	-186,392	0,152	0,002
-379,146	800,000	0,059	-0,157
-378,131	800,000	-0,059	0,138
-377,117	800,000	0,044	0,125
-376,102	-200,000	-0,015	-0,078
-375,088	800,000	0,043	-0,119
-374,073	-72,129	0,060	0,016
-373,058	-130,970	-0,084	-0,008
-372,044	-2,678	0,095	0,049
-371,029	-77,184	-0,108	-0,027
-370,015	800,000	0,055	0,132
-369,000	580,051	-0,016	-0,030
-367,985	-7,226	-0,008	-0,004
-366,971	321,722	-0,041	0,058
-365,956	167,363	-0,047	0,049
-364,942	-56,211	-0,121	-0,039
-363,927	-87,587	-0,083	-0,018
-362,912	85,240	0,113	-0,091
-361,898	320,588	-0,045	-0,063
-360,883	251,894	-0,094	-0,117
-359,869	713,496	-0,047	-0,092
-358,854	-200,000	-0,006	-0,136
-357,839	285,711	0,013	0,018
-356,825	285,260	0,005	0,007
-355,810	-160,057	0,161	-0,006
-354,796	800,000	-0,040	-0,107
-353,781	176,322	0,088	-0,094
-352,766	-107,479	-0,089	-0,014
-351,752	800,000	0,076	-0,191
-350,737	-200,000	0,109	-0,000
-349,723	-42,490	0,136	-0,051
-348,708	-200,000	0,063	0,000
-347,693	33,239	-0,126	-0,080
-346,679	145,569	0,037	0,036
-345,664	97,587	0,057	-0,048
-344,650	-60,708	0,090	-0,028
-343,635	464,255	0,098	0,161
-342,620	-200,000	-0,001	0,050
-341,606	-154,251	-0,108	-0,005
-340,591	420,978	0,071	-0,112
-339,577	-91,760	0,054	0,011
-338,562	-200,000	-0,022	0,081
-337,548	417,854	-0,063	0,099
-336,533	-113,244	0,076	0,011
-335,518	88,559	-0,082	0,067
-334,504	286,257	-0,063	0,084
-333,489	-48,852	-0,096	0,033
-332,475	257,855	0,074	-0,093
-331,460	103,965	-0,123	0,106
-330,445	800,000	-0,011	0,027
-329,431	800,000	0,059	0,143
-328,416	285,081	0,082	0,108
-327,402	-71,933	-0,010	-0,003
-326,387	-122,760	-0,072	0,008
-325,372	-200,000	-0,011	-0,052
-324,358	23,720	-0,131	-0,079
-323,343	800,000	0,086	-0,218
-322,329	800,000	0,062	0,138
-321,314	-160,518	-0,184	-0,007
-320,299	-200,000	-0,010	0,217
-319,285	208,651	0,128	0,146
-318,270	800,000	-0,055	0,128
-317,256	436,039	-0,116	0,185
-316,241	800,000	0,032	-0,091
-315,226	80,715	0,031	0,024
-314,212	179,108	-0,052	0,056
-313,197	800,000	0,037	0,096
-312,183	-9,444	-0,043	-0,021
-311,168	-200,000	-0,007	-0,086
-310,153	-44,495	0,041	0,015
-309,139	-33,247	0,098	0,040
-308,124	305,099	-0,068	0,092
-307,110	-200,000	-0,010	0,111
-306,095	-74,752	-0,123	0,032
-305,080	306,894	-0,036	-0,049
-304,066	167,000	0,077	0,080
-303,051	-77,929	0,197	-0,049
-302,037	800,000	-0,019	-0,047
-301,022	800,000	0,032	-0,083
-300,008	24,158	0,080	0,048
-298,993	227,783	0,049	0,058
-297,978	84,494	-0,004	0,004
-296,964	-29,028	0,013	0,005
-295,949	413,293	0,028	-0,044
-294,935	-107,452	-0,127	-0,020
-293,920	159,388	-0,046	0,047
-292,905	-186,540	0,037	0,000
-291,891	-188,645	-0,079	0,001
-290,876	800,000	0,049	0,099
-289,862	-200,000	-0,004	0,103
-288,847	392,530	-0,065	0,099
-287,832	-23,908	0,116	-0,051
-286,818	-200,000	0,001	-0,018
-285,803	634,143	0,032	-0,059
-284,789	-161,278	0,060	-0,002
-283,774	-136,640	0,021	-0,002
-282,759	237,564	-0,068	-0,082
-281,745	-200,000	0,012	-0,198
-280,730	-200,000	-0,004	0,032
-279,716	-39,337	-0,051	-0,020
-278,701	-200,000	0,021	0,113
-277,686	-200,000	-0,024	0,085
-276,672	351,705	-0,011	-0,016
-275,657	800,000	0,032	0,076
-274,643	194,944	0,083	-0,092
-273,628	-70,639	0,107	0,029
-272,613	-200,000	-0,003	-0,089
-271,599	65,894	-0,044	0,033
-270,584	491,630	0,072	-0,121
-269,570	800,000	0,031	-0,086
-268,555	296,575	-0,055	0,074
-267,540	245,313	-0,053	0,065
-266,526	-149,857	0,028	-0,002
-265,511	800,000	-0,046	-0,110
-264,497	165,847	-0,055	0,057
-263,482	-155,523	-0,048	-0,002
-262,467	800,000	0,008	-0,023
-261,453	-28,981	0,042	0,018
-260,438	-200,000	-0,015	-0,050
-259,424	-200,000	-0,043	-0,186
-258,409	800,000	0,053	-0,117
-257,395	5,009	0,079	0,042
-256,380	800,000	0,043	-0,095
-255,365	-200,000	0,011	-0,068
-254,351	20,162	0,035	-0,020
-253,336	298,669	0,083	0,112
-252,322	-105,717	-0,089	-0,015
-251,307	-200,000	-0,027	0,125
-250,292	-200,000	0,002	0,058
-249,278	220,737	-0,087	-0,102
-248,263	-91,027	0,182	-0,038
-247,249	742,982	0,021	0,042
-246,234	-133,900	-0,044	0,004
-245,219	-33,651	-0,087	0,035
-244,205	143,164	-0,116	0,113
-243,190	-200,000	-0,017	-0,056
-242,176	93,019	-0,128	0,105
-241,161	71,555	0,079	-0,060
-240,146	800,000	-0,016	-0,039
-239,132	-200,000	-0,005	0,039
-238,117	800,000	-0,081	-0,177
-237,103	-200,000	-0,028	-0,113
-236,088	-200,000	-0,002	-0,032
-235,073	-37,415	0,145	0,056
-234,059	-200,000	0,008	0,080
-233,044	294,215	-0,032	0,043
-232,030	151,756	-0,028	0,028
-231,015	209,651	0,010	0,011
-230,000	554,085	-0,078	-0,138
-228,986	-200,000	0,022	-0,091
-227,971	-200,000	0,006	-0,021
-226,957	-200,000	-0,019	0,211
-225,942	800,000	-0,021	-0,046
-224,927	113,673	0,057	0,050
-223,913	-64,874	-0,124	0,036
-222,898	129,103	-0,064	-0,060
-221,884	-200,000	-0,007	-0,044
-220,869	-182,471	-0,012	0,000
-219,855	-200,000	-0,006	-0,042
-218,840	-200,000	-0,023	-0,105
-217,825	800,000	-0,007	-0,018
-216,811	-50,448	0,069	-0,024
-215,796	185,472	-0,024	0,026
-214,782	800,000	0,043	-0,134
-213,767	-200,000	0,010	0,044
-212,752	-200,000	0,002	-0,029
-211,738	-48,399	0,102	0,035
-210,723	-166,549	-0,194	0,006
-209,709	-200,000	0,021	-0,192
-208,694	-147,093	-0,041	-0,003
-207,679	800,000	-0,039	-0,091
-206,665	166,395	0,086	0,089
-205,650	285,872	-0,031	0,041
-204,636	-60,997	-0,078	-0,024
-203,621	102,523	0,091	0,078
-202,606	64,894	-0,040	0,029
-201,592	-200,000	-0,015	-0,138
-200,577	108,570	-0,044	0,038
-199,563	145,347	0,036	0,035
-198,548	-14,344	-0,036	0,017
-197,533	163,828	0,057	-0,059
-196,519	-200,000	-0,001	0,020
-195,504	522,981	-0,064	-0,109
-194,490	-200,000	-0,023	-0,091
-193,475	-200,000	-0,018	-0,074
-192,460	69,956	0,052	-0,039
-191,446	443,845	0,052	0,084
-190,431	83,864	0,099	0,079
-189,417	195,751	-0,039	0,044
-188,402	216,228	-0,045	-0,052
-187,387	-50,838	-0,179	-0,061
-186,373	-7,725	-0,110	-0,054
-185,358	800,000	0,032	-0,092
-184,344	73,019	0,118	0,089
-183,329	-200,000	0,027	0,093
-182,315	-107,022	0,092	0,015
-181,300	536,952	-0,082	0,142
-180,285	800,000	0,018	0,046
-179,271	800,000	-0,016	0,034
-178,256	198,657	-0,047	-0,053
-177,242	-5,214	0,067	-0,033
-176,227	-1,168	0,039	0,020
-175,212	800,000	-0,055	0,160
-174,198	30,062	-0,097	0,060
-173,183	-0,311	0,067	-0,035
-172,169	-200,000	-0,008	0,056
-171,154	-59,397	-0,028	-0,009
-170,139	-200,000	0,098	0,000
-169,125	-76,119	-0,169	0,043
-168,110	-137,013	0,060	0,005
-167,096	312,430	0,062	-0,084
-166,081	48,487	0,024	0,017
-165,066	162,418	0,076	0,077
-164,052	513,040	0,070	-0,119
-163,037	-135,671	-0,084	-0,007
-162,023	195,727	-0,028	-0,031
-161,008	-200,000	0,004	0,051
-159,993	305,279	0,043	0,058
-158,979	354,403	0,016	0,024
-157,964	-164,475	0,032	-0,001
-156,950	130,779	-0,095	-0,088
-155,935	-200,000	0,040	-0,153
-154,920	136,654	0,052	0,049
-153,906	16,571	0,078	0,045
-152,891	372,810	-0,048	-0,071
-151,877	-2,704	0,056	0,029
-150,862	-135,636	0,099	0,008
-149,847	-39,902	-0,070	-0,026
-148,833	-102,344	0,041	-0,007
-147,818	800,000	-0,037	-0,105
-146,804	475,644	-0,067	0,110
-145,789	800,000	0,018	-0,038
-144,775	-77,005	-0,088	-0,022
-143,760	122,291	0,033	-0,030
-142,745	-200,000	0,016	0,083
-141,731	800,000	0,003	-0,007
-140,716	800,000	0,060	-0,145
-139,702	-124,825	0,193	0,021
-138,687	800,000	0,070	0,171
-137,672	-91,345	0,038	0,008
-136,658	134,348	-0,035	0,033
-135,643	128,538	-0,082	-0,076
-134,629	-200,000	0,018	0,085
-133,614	4,455	-0,110	-0,059
-132,599	461,392	0,050	0,081
-131,585	-143,473	0,202	-0,014
-130,570	800,000	0,034	-0,093
-129,556	-200,000	-0,016	-0,058
-128,541	183,797	-0,095	-0,102
-127,526	-151,753	-0,054	0,003
-126,512	247,352	-0,080	0,098
-125,497	-74,706	-0,119	0,031
-124,483	-98,062	0,072	-0,013
-123,468	800,000	-0,041	-0,094
-122,453	616,441	0,061	-0,112
-121,439	257,976	-0,121	-0,151
-120,424	-200,000	0,010	0,177
