DTS Sentinel unit serial number:	SN410029Multiplexer serial number:	ORYXHardware model number:	OX2-SRSoftware version number:	ORYX F/W v4,00 Oryx Data Collector v3.7.2.0data status	okinstallation	B4 Nyhavnadifferential loss correction	single-endedforward channel	channel 2reverse channel	N/Adate	2023/12/16time	08:30:13forward acquisition time	300,00reverse acquisition time	0,00gamma	499,1914k internal	0,3127k external	0,3127temperature offset calibration	1,0000default loss term (dB/km)	0,3820temperature slope calibration	1,0000multiplexer offset coefficient	1,0000multiplexer slope coefficient	1,0000fibre end	0,00T internal ref (°C)	22,57T ext. ref 1 (°C)	8,48T ext. ref 2 (°C)	8,62length (m)	temperature (°C)	Stokes	anti-Stokes-744,400	-200,000	-0,004	-0,061
-743,385	-60,120	-0,275	0,087
-742,371	193,119	-0,075	-0,084
-741,356	-135,675	-0,096	-0,008
-740,342	579,901	-0,070	0,127
-739,327	28,078	-0,206	0,129
-738,312	263,138	-0,022	-0,028
-737,298	71,364	-0,188	0,145
-736,283	800,000	0,090	0,232
-735,269	148,277	-0,177	0,178
-734,254	70,022	-0,072	-0,055
-733,239	-9,503	-0,322	-0,159
-732,225	169,937	-0,012	0,013
-731,210	82,193	-0,079	0,064
-730,196	54,416	-0,115	-0,082
-729,181	-139,954	-0,027	0,002
-728,167	468,297	0,019	-0,031
-727,152	68,846	-0,040	-0,031
-726,137	670,406	-0,027	0,052
-725,123	-80,129	-0,127	0,032
-724,108	-200,000	-0,014	-0,175
-723,094	-200,000	-0,017	-0,067
-722,079	-84,553	0,030	-0,007
-721,064	-91,020	0,061	-0,013
-720,050	800,000	0,027	-0,073
-719,035	367,087	0,057	-0,086
-718,021	-86,572	-0,072	-0,016
-717,006	800,000	-0,046	-0,107
-715,991	800,000	-0,092	-0,201
-714,977	-200,000	0,020	-0,112
-713,962	73,876	0,071	-0,055
-712,948	65,086	-0,093	0,070
-711,933	800,000	0,047	-0,113
-710,918	-143,854	-0,105	-0,007
-709,904	297,009	-0,019	0,025
-708,889	-57,445	-0,071	-0,023
-707,875	508,978	0,097	-0,167
-706,860	-200,000	0,020	-0,131
-705,845	-200,000	-0,010	-0,040
-704,831	469,113	-0,033	0,055
-703,816	-200,000	-0,008	-0,053
-702,802	-62,522	0,040	0,012
-701,787	-157,953	0,218	0,009
-700,772	-155,183	-0,057	0,003
-699,758	180,397	0,123	-0,134
-698,743	800,000	0,027	0,058
-697,729	800,000	0,062	-0,148
-696,714	-200,000	-0,020	0,071
-695,699	45,406	-0,077	-0,052
-694,685	-200,000	-0,015	-0,130
-693,670	800,000	-0,026	-0,077
-692,656	800,000	0,025	0,078
-691,641	-200,000	0,017	0,178
-690,627	241,511	-0,022	0,027
-689,612	354,359	-0,082	0,122
-688,597	-88,418	-0,115	0,025
-687,583	284,277	0,064	-0,086
-686,568	-49,013	-0,174	0,062
-685,554	285,872	-0,027	-0,037
-684,539	-200,000	0,004	-0,031
-683,524	800,000	-0,035	0,109
-682,510	-200,000	-0,010	-0,056
-681,495	385,425	-0,076	-0,117
-680,481	-200,000	-0,001	0,006
-679,466	800,000	-0,082	-0,215
-678,451	-200,000	-0,017	-0,075
-677,437	800,000	0,040	-0,119
-676,422	25,312	0,043	-0,027
-675,408	9,982	-0,016	0,009
-674,393	-141,580	0,070	-0,005
-673,378	-200,000	-0,000	-0,033
-672,364	-200,000	-0,006	0,035
-671,349	-175,846	-0,027	0,001
-670,335	143,190	0,061	-0,060
-669,320	93,546	-0,056	0,047
-668,305	-105,959	-0,053	0,009
-667,291	800,000	-0,027	-0,073
-666,276	311,732	0,048	-0,067
-665,262	104,894	-0,019	-0,017
-664,247	-200,000	0,017	-0,146
-663,232	800,000	-0,028	-0,061
-662,218	745,072	0,028	-0,057
-661,203	26,088	-0,082	0,051
-660,189	-200,000	-0,003	0,072
-659,174	800,000	0,012	-0,030
-658,159	800,000	-0,023	-0,059
-657,145	26,462	0,048	-0,030
-656,130	-200,000	0,029	-0,097
-655,116	-152,044	0,020	-0,001
-654,101	368,218	0,055	-0,083
-653,086	260,120	0,015	-0,020
-652,072	-200,000	0,022	-0,189
-651,057	-110,061	-0,141	0,022
-650,043	-144,025	-0,047	0,003
-649,028	-104,322	0,100	-0,017
-648,014	-62,771	-0,140	0,043
-646,999	-38,762	0,009	-0,004
-645,984	89,457	0,035	-0,029
-644,970	303,051	-0,092	0,126
-643,955	38,600	-0,123	-0,081
-642,941	50,581	-0,081	-0,057
-641,926	-147,555	-0,153	0,009
-640,911	-200,000	-0,008	0,079
-639,897	-72,813	0,127	0,034
-638,882	137,688	-0,043	-0,042
-637,868	-118,729	0,050	0,006
-636,853	145,024	-0,075	-0,074
-635,838	-20,996	-0,209	-0,094
-634,824	774,358	-0,033	0,067
-633,809	800,000	0,048	0,132
-632,795	-51,884	-0,037	-0,013
-631,780	-200,000	-0,003	0,036
-630,765	282,513	-0,051	-0,068
-629,751	73,417	0,023	-0,018
-628,736	-200,000	-0,012	-0,091
-627,722	-200,000	-0,001	-0,072
-626,707	-200,000	-0,036	0,171
-625,692	556,500	-0,017	0,031
-624,678	-200,000	0,031	-0,117
-623,663	71,263	-0,066	0,051
-622,649	16,055	-0,147	-0,085
-621,634	-163,698	0,085	0,003
-620,619	81,223	-0,064	-0,052
-619,605	78,153	-0,088	-0,069
-618,590	730,161	0,020	0,041
-617,576	22,436	0,021	0,013
-616,561	-200,000	0,015	0,063
-615,546	-119,234	-0,074	0,009
-614,532	542,247	-0,080	-0,142
-613,517	552,058	0,007	-0,012
-612,503	800,000	0,034	0,097
-611,488	8,544	0,192	0,107
-610,474	-116,220	0,117	0,016
-609,459	800,000	0,017	-0,052
-608,444	547,740	0,053	0,094
-607,430	384,859	-0,124	0,190
-606,415	-200,000	-0,015	-0,081
-605,401	800,000	0,017	0,045
-604,386	89,043	-0,059	0,049
-603,371	-17,291	0,108	-0,050
-602,357	15,409	-0,046	0,027
-601,342	203,868	0,025	0,029
-600,328	470,546	-0,088	-0,146
-599,313	260,471	0,057	-0,073
-598,298	64,473	-0,043	0,032
-597,284	-200,000	-0,008	0,026
-596,269	9,764	0,079	-0,044
-595,255	297,545	-0,086	0,117
-594,240	-11,039	-0,132	0,064
-593,225	800,000	-0,050	-0,146
-592,211	-5,168	-0,062	0,031
-591,196	-79,578	-0,095	0,024
-590,182	-100,509	0,015	0,003
-589,167	800,000	0,017	0,038
-588,152	599,185	0,028	-0,051
-587,138	-79,260	-0,110	-0,027
-586,123	-200,000	0,050	-0,183
-585,109	344,729	-0,066	-0,096
-584,094	-16,962	0,057	0,027
-583,079	-200,000	-0,017	0,101
-582,065	800,000	0,016	0,040
-581,050	-200,000	0,006	0,117
-580,036	-200,000	0,019	-0,093
-579,021	-200,000	0,017	-0,097
-578,006	-166,587	-0,083	-0,002
-576,992	-200,000	0,003	-0,028
-575,977	-53,362	0,066	-0,022
-574,963	-200,000	0,015	-0,164
-573,948	800,000	0,025	-0,059
-572,934	-168,652	0,208	0,006
-571,919	67,290	0,021	-0,016
-570,904	800,000	-0,003	0,008
-569,890	-47,077	-0,079	-0,028
-568,875	107,346	0,060	-0,053
-567,861	616,876	-0,031	0,057
-566,846	-1,349	-0,012	0,006
-565,831	-17,783	0,033	-0,015
-564,817	0,616	-0,121	-0,064
-563,802	279,849	-0,099	-0,131
-562,788	-177,279	0,048	0,001
-561,773	249,100	-0,012	0,016
-560,758	-1,545	0,087	0,045
-559,744	158,909	-0,110	0,113
-558,729	-200,000	-0,018	0,065
-557,715	-200,000	0,013	-0,054
-556,700	-200,000	0,004	0,082
-555,685	-200,000	0,003	0,127
-554,671	33,809	-0,019	0,012
-553,656	-200,000	0,034	0,205
-552,642	400,171	0,075	0,117
-551,627	56,684	-0,024	0,017
-550,612	91,790	0,035	0,029
-549,598	344,662	-0,048	0,070
-548,583	-13,117	-0,074	-0,035
-547,569	-52,279	0,090	-0,031
-546,554	-131,651	0,091	0,009
-545,539	620,956	0,082	0,152
-544,525	238,036	-0,105	0,129
-543,510	-200,000	0,003	-0,019
-542,496	-108,787	0,146	0,023
-541,481	800,000	-0,013	0,042
-540,466	-200,000	0,004	-0,044
-539,452	59,517	-0,063	-0,046
-538,437	1,682	0,077	0,041
-537,423	660,840	0,023	-0,044
-536,408	348,924	-0,054	-0,079
-535,393	11,941	-0,125	0,071
-534,379	-200,000	-0,007	-0,024
-533,364	-200,000	-0,015	0,119
-532,350	11,061	0,077	0,043
-531,335	101,449	-0,041	0,036
-530,321	120,999	0,051	0,047
-529,306	800,000	-0,054	0,130
-528,291	-200,000	-0,003	0,012
-527,277	12,756	-0,042	0,024
-526,262	559,389	0,007	-0,012
-525,248	-200,000	0,001	0,048
-524,233	-16,126	0,009	-0,004
-523,218	42,114	0,043	0,029
-522,204	-97,496	0,112	-0,021
-521,189	-46,842	0,056	-0,020
-520,175	-200,000	-0,013	-0,081
-519,160	-200,000	-0,035	-0,115
-518,145	182,514	0,056	-0,061
-517,131	-200,000	-0,034	0,146
-516,116	-16,763	-0,111	0,052
-515,102	-200,000	0,016	-0,125
-514,087	-19,690	0,083	0,038
-513,072	-4,341	-0,098	-0,050
-512,058	2,909	0,074	-0,039
-511,043	310,132	0,069	-0,095
-510,029	159,309	0,070	-0,072
-509,014	-103,137	0,056	0,010
-507,999	104,443	0,128	-0,111
-506,985	-200,000	0,001	0,033
-505,970	-37,942	-0,032	-0,013
-504,956	-121,249	0,059	-0,007
-503,941	800,000	-0,042	-0,127
-502,926	-96,439	0,089	-0,017
-501,912	12,466	-0,053	-0,030
-500,897	-40,814	-0,081	-0,031
-499,883	-34,443	-0,107	-0,043
-498,868	41,586	0,106	0,071
-497,853	173,596	-0,062	-0,066
-496,839	133,303	0,043	-0,041
-495,824	30,719	-0,025	-0,016
-494,810	64,860	0,077	0,057
-493,795	280,290	-0,060	0,079
-492,781	-80,382	0,063	-0,015
-491,766	245,077	0,038	0,047
-490,751	473,351	0,043	0,071
-489,737	45,859	-0,116	-0,079
-488,722	526,411	0,001	-0,002
-487,708	-129,054	-0,068	0,007
-486,693	540,811	-0,022	0,039
-485,678	261,186	-0,064	0,082
-484,664	800,000	0,026	0,056
-483,649	28,709	-0,034	0,021
-482,635	-200,000	0,005	0,139
-481,620	235,590	0,077	-0,094
-480,605	-170,280	0,081	-0,002
-479,591	78,822	0,077	-0,060
-478,576	12,540	0,042	0,024
-477,562	10,510	0,111	0,062
-476,547	800,000	0,040	-0,100
-475,532	354,758	-0,049	-0,072
-474,518	-3,005	0,093	-0,048
-473,503	4,150	0,011	-0,006
-472,489	-200,000	0,045	0,169
-471,474	800,000	-0,040	0,101
-470,459	-129,875	0,092	-0,009
-469,445	-161,143	-0,009	-0,000
-468,430	800,000	-0,037	-0,076
-467,416	753,293	0,040	0,079
-466,401	-200,000	-0,001	-0,065
-465,386	-200,000	-0,010	0,052
-464,372	279,671	-0,092	0,121
-463,357	356,418	-0,070	-0,103
-462,343	800,000	0,024	-0,054
-461,328	800,000	-0,046	-0,106
-460,313	-200,000	-0,005	0,046
-459,299	800,000	0,060	0,127
-458,284	-16,597	-0,060	0,028
-457,270	-93,397	-0,034	-0,007
-456,255	130,728	-0,051	-0,048
-455,241	22,041	-0,079	0,047
-454,226	-93,086	0,012	-0,002
-453,211	710,323	0,018	-0,035
-452,197	-200,000	0,006	0,064
-451,182	-64,663	-0,032	-0,009
-450,168	-5,051	-0,103	0,052
-449,153	-105,299	0,016	0,003
-448,138	187,396	0,108	-0,119
-447,124	-54,676	0,105	0,035
-446,109	774,246	0,037	0,074
-445,095	-190,055	0,013	-0,000
-444,080	-40,612	0,014	0,005
-443,065	-200,000	0,010	0,042
-442,051	651,067	-0,047	0,090
-441,036	11,186	-0,052	-0,029
-440,022	-49,657	-0,178	-0,062
-439,007	173,241	0,116	-0,123
-437,992	-7,938	0,112	-0,056
-436,978	-89,457	0,044	-0,009
-435,963	-36,043	-0,215	-0,085
-434,949	-126,591	0,066	-0,007
-433,934	-147,046	-0,075	0,005
-432,919	30,904	-0,081	0,051
-431,905	213,554	-0,046	0,054
-430,890	-90,319	0,104	0,022
-429,876	-10,558	0,049	-0,024
-428,861	258,876	-0,094	0,120
-427,846	347,524	-0,022	-0,032
-426,832	800,000	0,009	-0,027
-425,817	-200,000	0,036	-0,139
-424,803	-43,984	0,071	0,026
-423,788	-32,452	-0,047	-0,019
-422,773	-101,670	-0,133	0,023
-421,759	425,800	-0,085	0,135
-420,744	-116,566	-0,040	0,005
-419,730	27,761	-0,113	0,070
-418,715	170,105	-0,055	-0,058
-417,701	-40,336	0,074	-0,028
-416,686	-200,000	-0,009	0,070
-415,671	-200,000	0,002	0,029
-414,657	112,033	0,116	-0,103
-413,642	456,863	-0,052	0,085
-412,628	250,086	-0,027	-0,034
-411,613	-14,976	-0,034	-0,016
-410,598	95,927	-0,025	0,021
-409,584	44,472	-0,118	0,080
-408,569	184,445	0,056	0,061
-407,555	-30,380	0,199	0,082
-406,540	512,665	-0,021	0,036
-405,525	98,719	0,075	0,064
-404,511	-10,728	0,046	-0,022
-403,496	800,000	0,009	0,024
-402,482	-20,268	-0,182	0,082
-401,467	800,000	0,015	0,037
-400,452	275,083	0,005	0,007
-399,438	-200,000	-0,003	0,060
-398,423	16,586	0,082	-0,048
-397,409	68,891	0,058	-0,044
-396,394	800,000	0,025	0,077
-395,379	148,723	-0,054	-0,054
-394,365	23,911	-0,052	0,031
-393,350	800,000	0,013	0,036
-392,336	-29,212	0,100	0,042
-391,321	-200,000	-0,039	-0,143
-390,306	709,137	-0,034	-0,067
-389,292	-200,000	-0,050	-0,166
-388,277	278,068	0,064	-0,084
-387,263	347,081	-0,050	-0,072
-386,248	-61,331	-0,050	0,015
-385,233	686,110	-0,050	0,096
-384,219	512,371	0,018	0,031
-383,204	-200,000	-0,015	-0,183
-382,190	-200,000	0,031	-0,160
-381,175	-200,000	0,014	-0,135
-380,160	800,000	0,030	0,089
-379,146	-200,000	0,010	0,133
-378,131	-200,000	0,006	0,091
-377,117	-158,966	-0,151	-0,006
-376,102	213,856	-0,066	-0,077
-375,088	800,000	0,039	-0,105
-374,073	174,354	-0,097	0,103
-373,058	-143,072	0,116	0,008
-372,044	30,150	-0,130	0,081
-371,029	800,000	0,010	0,021
-370,015	188,914	-0,073	-0,080
-369,000	278,029	0,006	0,008
-367,985	-200,000	-0,035	-0,151
-366,971	278,296	-0,048	0,063
-365,956	-124,932	0,153	0,017
-364,942	406,020	0,028	0,043
-363,927	-200,000	0,032	0,201
-362,912	-200,000	0,017	-0,056
-361,898	551,983	-0,077	-0,137
-360,883	-200,000	-0,007	0,056
-359,869	800,000	0,027	-0,075
-358,854	-116,284	-0,198	0,027
-357,839	257,137	-0,033	-0,041
-356,825	800,000	-0,019	0,053
-355,810	256,137	-0,067	0,085
-354,796	-12,258	0,053	0,025
-353,781	-122,032	-0,071	0,008
-352,766	-200,000	-0,003	-0,044
-351,752	-200,000	-0,035	-0,140
-350,737	-200,000	-0,005	-0,086
-349,723	-200,000	0,001	0,159
-348,708	-156,850	0,078	0,003
-347,693	-200,000	-0,003	-0,018
-346,679	-0,720	-0,070	0,036
-345,664	800,000	-0,016	0,035
-344,650	-200,000	0,006	0,102
-343,635	-200,000	-0,014	-0,081
-342,620	44,307	-0,050	0,033
-341,606	527,057	0,017	0,030
-340,591	56,431	0,095	0,068
-339,577	-65,576	-0,051	-0,015
-338,562	-138,712	-0,089	0,007
-337,548	281,390	-0,033	-0,044
-336,533	127,301	-0,018	-0,016
-335,518	360,642	0,007	-0,011
-334,504	544,015	0,031	0,055
-333,489	670,480	0,048	-0,092
-332,475	-137,551	0,132	0,011
-331,460	-68,052	0,077	-0,022
-330,445	800,000	-0,032	-0,092
-329,431	-200,000	-0,000	0,084
-328,416	19,089	-0,029	0,017
-327,402	444,216	0,069	0,111
-326,387	800,000	-0,020	0,043
-325,372	800,000	-0,062	0,129
-324,358	-5,606	0,040	0,020
-323,343	-123,483	-0,118	-0,014
-322,329	-105,736	0,112	0,018
-321,314	-200,000	0,017	-0,058
-320,299	-200,000	0,002	0,093
-319,285	41,893	-0,085	0,057
-318,270	47,263	-0,092	-0,063
-317,256	37,575	-0,043	0,028
-316,241	-22,364	0,123	-0,055
-315,226	544,433	-0,050	-0,087
-314,212	5,356	-0,098	-0,053
-313,197	-164,582	-0,043	0,001
-312,183	445,730	0,068	0,110
-311,168	-200,000	-0,002	0,037
-310,153	800,000	0,057	0,154
-309,139	-46,088	-0,051	-0,018
-308,124	205,284	0,033	0,038
-307,110	800,000	-0,044	-0,094
-306,095	-53,707	-0,023	0,008
-305,080	442,376	-0,038	0,061
-304,066	800,000	-0,021	-0,048
-303,051	-200,000	0,035	-0,140
-302,037	800,000	0,023	0,059
-301,022	-43,245	0,104	-0,038
-300,008	-39,459	-0,117	-0,045
-298,993	800,000	0,017	-0,047
-297,978	622,394	-0,026	-0,048
-296,964	291,710	0,062	0,083
-295,949	-150,937	0,034	0,002
-294,935	-64,855	-0,165	-0,049
-293,920	-200,000	-0,009	-0,076
-292,905	346,984	0,080	-0,115
-291,891	-36,520	0,134	0,052
-290,876	274,898	-0,099	0,128
-289,862	-86,716	-0,071	0,016
-288,847	37,316	0,111	0,072
-287,832	-53,075	0,055	0,018
-286,818	-168,165	0,074	0,002
-285,803	-93,712	0,052	-0,010
-284,789	800,000	0,050	-0,121
-283,774	-200,000	-0,005	-0,153
-282,759	800,000	-0,025	0,053
-281,745	-200,000	-0,019	-0,061
-280,730	-43,386	-0,065	-0,024
-279,716	-136,337	0,136	-0,011
-278,701	-200,000	-0,019	-0,081
-277,686	597,714	0,014	0,026
-276,672	60,145	-0,039	-0,028
-275,657	200,313	0,034	-0,039
-274,643	25,979	-0,057	-0,034
-273,628	4,885	-0,045	-0,024
-272,613	-20,828	0,120	-0,054
-271,599	-29,085	0,015	-0,006
-270,584	-104,054	-0,063	0,011
-269,570	-187,511	-0,011	0,000
-268,555	486,055	-0,027	-0,045
-267,540	155,239	0,115	-0,115
-266,526	61,954	0,093	-0,068
-265,511	212,135	-0,062	-0,072
-264,497	-200,000	0,026	0,102
-263,482	709,151	-0,020	0,039
-262,467	-90,230	0,044	-0,009
-261,453	353,180	-0,002	-0,002
-260,438	167,974	-0,085	-0,088
-259,424	-83,381	-0,174	0,040
-258,409	-200,000	-0,004	-0,025
-257,395	-126,626	-0,105	-0,011
-256,380	800,000	0,020	-0,050
-255,365	354,902	-0,044	0,065
-254,351	-107,285	0,046	-0,007
-253,336	0,651	0,055	0,029
-252,322	-200,000	-0,011	-0,060
-251,307	13,369	-0,008	0,004
-250,292	-107,025	0,059	-0,009
-249,278	-52,977	-0,016	0,005
-248,263	315,342	0,053	-0,073
-247,249	255,973	0,012	0,015
-246,234	-13,934	0,121	0,057
-245,219	-200,000	0,004	-0,047
-244,205	-110,345	-0,091	-0,014
-243,190	-157,706	0,126	0,005
-242,176	29,503	0,153	0,094
-241,161	-11,017	0,096	0,046
-240,146	-200,000	-0,002	0,027
-239,132	-200,000	0,004	-0,108
-238,117	-72,048	0,150	-0,040
-237,103	-200,000	-0,039	-0,202
-236,088	464,919	-0,063	-0,103
-235,073	-127,757	0,083	0,009
-234,059	226,323	0,122	0,145
-233,044	-135,039	-0,040	-0,003
-232,030	387,117	0,035	-0,052
-231,015	6,544	0,055	-0,030
-230,000	41,221	-0,078	0,051
-228,986	-200,000	0,001	-0,130
-227,971	-200,000	0,039	-0,181
-226,957	800,000	-0,038	-0,090
-225,942	485,630	-0,078	0,130
-224,927	400,889	-0,046	0,070
-223,913	669,117	-0,065	-0,124
-222,898	500,941	-0,069	-0,116
-221,884	-19,037	0,058	0,026
-220,869	258,920	0,031	-0,038
-219,855	125,048	0,078	0,072
-218,840	-24,345	-0,106	-0,046
-217,825	50,135	0,086	-0,059
-216,811	-30,781	0,020	0,008
-215,796	800,000	-0,026	-0,061
-214,782	48,803	0,105	0,072
-213,767	800,000	0,023	0,053
-212,752	442,277	0,023	0,037
-211,738	79,615	-0,104	0,082
-210,723	200,784	-0,019	0,021
-209,709	-200,000	-0,023	-0,085
-208,694	-200,000	0,005	-0,060
-207,679	-200,000	0,022	0,123
-206,665	96,527	0,043	0,036
-205,650	-200,000	0,002	0,152
-204,636	94,795	0,104	0,086
-203,621	646,141	-0,075	0,141
-202,606	-19,130	-0,034	0,015
-201,592	236,713	0,112	0,135
-200,577	-84,396	0,060	-0,014
-199,563	-200,000	-0,022	-0,105
-198,548	-200,000	0,026	0,168
-197,533	-123,837	0,030	0,003
-196,519	800,000	-0,061	-0,141
-195,504	451,256	0,016	0,026
-194,490	414,256	-0,025	-0,038
-193,475	347,448	0,107	-0,153
-192,460	47,167	-0,058	0,039
-191,446	18,468	0,036	0,021
-190,431	-118,376	0,142	0,018
-189,417	-200,000	0,011	0,065
-188,402	241,855	0,048	-0,059
-187,387	659,123	-0,039	-0,073
-186,373	637,568	0,083	-0,154
-185,358	-200,000	0,008	-0,103
-184,344	397,816	0,056	0,085
-183,329	-200,000	0,026	0,107
-182,315	800,000	-0,018	-0,044
-181,300	213,279	-0,074	0,085
-180,285	623,017	0,094	-0,174
-179,271	-183,999	0,045	0,001
-178,256	800,000	0,061	-0,138
-177,242	800,000	-0,029	-0,063
-176,227	39,500	0,167	0,109
-175,212	29,732	-0,137	0,085
-174,198	169,671	-0,048	0,050
-173,183	800,000	0,019	-0,054
-172,169	-200,000	-0,017	0,096
-171,154	-162,179	-0,051	0,002
-170,139	-200,000	0,019	0,071
-169,125	261,033	0,076	0,096
-168,110	-89,563	0,103	-0,022
-167,096	800,000	0,027	0,064
-166,081	-200,000	0,003	0,052
-165,066	-200,000	-0,017	0,081
-164,052	109,600	-0,070	-0,061
-163,037	-200,000	-0,021	-0,118
-162,023	283,448	-0,067	0,087
-161,008	-155,864	0,017	-0,001
-159,993	-105,907	0,029	0,005
-158,979	717,938	-0,037	0,071
-157,964	-94,321	-0,104	-0,020
-156,950	35,098	0,049	-0,031
-155,935	800,000	0,032	-0,069
-154,920	-200,000	0,001	0,031
-153,906	-121,692	0,121	-0,014
-152,891	24,960	0,036	-0,021
-151,877	-200,000	0,016	-0,162
-150,862	800,000	-0,035	-0,110
-149,847	800,000	0,034	0,076
-148,833	-98,981	0,108	-0,020
-147,818	800,000	0,060	0,151
-146,804	95,947	0,069	0,057
-145,789	129,259	0,040	-0,037
-144,775	-111,694	0,110	-0,016
-143,760	-15,548	0,054	-0,025
-142,745	-132,446	0,228	-0,021
-141,731	-121,287	-0,011	0,001
-140,716	-23,132	-0,058	-0,025
-139,702	53,045	0,071	0,049
-138,687	-200,000	0,005	0,038
-137,672	88,267	-0,132	0,107
-136,658	44,659	0,042	-0,028
-135,643	800,000	-0,044	0,101
-134,629	-33,852	0,109	0,043
-133,614	-132,464	-0,060	0,005
-132,599	491,580	0,068	0,114
-131,585	-200,000	0,014	0,199
-130,570	148,851	0,133	-0,131
-129,556	-200,000	-0,038	-0,161
-128,541	-200,000	-0,008	0,069
-127,526	113,601	-0,070	-0,062
-126,512	19,431	0,062	0,036
-125,497	529,356	-0,059	0,101
-124,483	-46,154	0,076	0,027
-123,468	-115,338	0,095	-0,013
-122,453	-200,000	-0,005	-0,104
-121,439	442,295	-0,057	-0,091
-120,424	-68,650	-0,070	0,019
-119,410	-159,696	0,057	0,002
-118,395	800,000	0,050	0,107
