DTS Sentinel unit serial number:	SN410029Multiplexer serial number:	ORYXHardware model number:	OX2-SRSoftware version number:	ORYX F/W v4,00 Oryx Data Collector v3.7.2.0data status	okinstallation	B4 Nyhavnadifferential loss correction	single-endedforward channel	channel 2reverse channel	N/Adate	2023/12/15time	22:55:13forward acquisition time	300,00reverse acquisition time	0,00gamma	499,1914k internal	0,3130k external	0,3130temperature offset calibration	1,0000default loss term (dB/km)	0,3820temperature slope calibration	1,0000multiplexer offset coefficient	1,0000multiplexer slope coefficient	1,0000fibre end	0,00T internal ref (°C)	21,52T ext. ref 1 (°C)	6,63T ext. ref 2 (°C)	6,81length (m)	temperature (°C)	Stokes	anti-Stokes-744,400	-200,000	-0,016	-0,060
-743,385	39,341	-0,189	0,126
-742,371	44,543	0,089	0,061
-741,356	-55,026	-0,261	0,087
-740,342	299,931	-0,039	-0,054
-739,327	171,637	-0,252	0,269
-738,312	-51,967	-0,080	-0,027
-737,298	-35,690	-0,238	0,095
-736,283	-200,000	-0,010	0,064
-735,269	-39,045	-0,289	0,112
-734,254	58,233	0,091	0,066
-733,239	-158,191	-0,411	-0,018
-732,225	151,759	0,019	0,019
-731,210	-200,000	0,021	0,167
-730,196	2,197	0,053	-0,028
-729,181	-53,207	0,058	0,020
-728,167	-200,000	-0,004	0,063
-727,152	-200,000	0,031	-0,103
-726,137	63,986	-0,015	-0,012
-725,123	-149,588	-0,111	0,006
-724,108	91,590	-0,058	-0,049
-723,094	321,665	-0,087	-0,123
-722,079	135,861	-0,050	0,048
-721,064	-117,330	-0,089	-0,012
-720,050	-126,314	-0,096	0,011
-719,035	-200,000	0,000	0,038
-718,021	-87,883	-0,133	-0,029
-717,006	246,400	-0,104	-0,130
-715,991	0,324	-0,133	-0,071
-714,977	-150,895	-0,011	-0,001
-713,962	77,647	-0,076	0,060
-712,948	800,000	-0,050	0,112
-711,933	-89,545	-0,166	-0,036
-710,918	199,306	-0,040	-0,045
-709,904	239,603	-0,087	-0,107
-708,889	72,736	-0,040	-0,031
-707,875	-20,792	-0,096	-0,043
-706,860	4,130	0,024	0,013
-705,845	58,503	0,061	-0,044
-704,831	-73,916	0,073	0,020
-703,816	-51,556	-0,079	-0,027
-702,802	19,286	-0,060	0,036
-701,787	279,141	-0,055	0,073
-700,772	620,892	0,016	-0,030
-699,758	800,000	-0,079	-0,187
-698,743	-28,968	0,090	-0,038
-697,729	-75,331	0,101	0,027
-696,714	-200,000	0,007	0,112
-695,699	309,844	-0,100	0,139
-694,685	800,000	0,069	-0,187
-693,670	36,361	-0,057	0,038
-692,656	341,003	0,075	-0,109
-691,641	102,907	0,066	0,057
-690,627	-200,000	-0,039	-0,145
-689,612	-159,072	0,047	0,002
-688,597	132,977	-0,082	-0,079
-687,583	-200,000	0,031	0,138
-686,568	386,484	-0,038	-0,058
-685,554	800,000	-0,047	-0,100
-684,539	-41,387	0,179	-0,068
-683,524	-49,912	-0,051	-0,018
-682,510	-200,000	-0,002	0,080
-681,495	317,379	0,053	-0,074
-680,481	-32,677	0,055	-0,022
-679,466	-155,056	-0,145	-0,007
-678,451	135,271	0,078	-0,076
-677,437	-200,000	0,000	-0,022
-676,422	161,100	0,117	-0,121
-675,408	-200,000	-0,002	0,051
-674,393	214,254	-0,032	-0,037
-673,378	-139,911	0,112	0,009
-672,364	-91,884	-0,107	0,022
-671,349	-200,000	0,001	-0,134
-670,335	800,000	-0,031	0,071
-669,320	-135,909	0,139	-0,012
-668,305	-200,000	-0,003	0,160
-667,291	250,166	-0,036	0,045
-666,276	261,953	-0,068	-0,087
-665,262	292,797	-0,072	-0,097
-664,247	-47,768	-0,061	0,022
-663,232	-64,987	-0,004	0,001
-662,218	-200,000	-0,007	-0,115
-661,203	-200,000	0,015	-0,067
-660,189	-200,000	0,013	-0,053
-659,174	-72,936	-0,100	-0,027
-658,159	-200,000	0,010	-0,100
-657,145	-14,501	-0,063	-0,030
-656,130	278,272	0,057	-0,075
-655,116	186,467	0,068	0,075
-654,101	-200,000	-0,002	-0,169
-653,086	-200,000	-0,027	-0,095
-652,072	151,065	0,031	-0,031
-651,057	-200,000	-0,026	-0,138
-650,043	254,017	-0,075	-0,095
-649,028	-94,305	-0,066	-0,013
-648,014	-200,000	0,078	-0,000
-646,999	-200,000	-0,001	0,071
-645,984	592,647	-0,076	0,140
-644,970	-63,367	-0,142	-0,043
-643,955	-200,000	0,002	0,072
-642,941	-63,520	-0,120	-0,036
-641,926	-125,282	0,114	-0,013
-640,911	800,000	-0,034	0,107
-639,897	112,199	0,066	-0,059
-638,882	-200,000	0,001	0,054
-637,868	507,291	0,014	0,025
-636,853	-115,452	-0,087	0,012
-635,838	800,000	-0,071	-0,211
-634,824	-200,000	-0,016	-0,056
-633,809	-200,000	0,000	-0,009
-632,795	52,760	-0,067	0,047
-631,780	167,548	0,068	0,071
-630,765	71,222	-0,100	-0,077
-629,751	800,000	0,016	0,035
-628,736	-79,394	0,116	0,029
-627,722	587,984	-0,090	-0,164
-626,707	-200,000	-0,015	-0,136
-625,692	109,182	0,064	-0,057
-624,678	197,030	0,056	0,063
-623,663	-200,000	-0,004	0,073
-622,649	49,064	0,063	-0,044
-621,634	37,101	-0,072	-0,047
-620,619	146,142	-0,023	-0,023
-619,605	-200,000	-0,015	-0,088
-618,590	163,641	-0,066	-0,068
-617,576	142,196	0,095	-0,093
-616,561	65,912	-0,006	0,004
-615,546	28,930	-0,131	0,082
-614,532	-200,000	-0,011	-0,073
-613,517	-125,960	-0,097	-0,011
-612,503	248,799	0,060	0,076
-611,488	-113,393	0,057	-0,008
-610,474	20,356	-0,112	0,067
-609,459	574,651	0,079	0,143
-608,444	800,000	-0,048	0,103
-607,430	3,713	-0,092	-0,049
-606,415	-200,000	0,007	-0,201
-605,401	800,000	-0,057	0,136
-604,386	25,009	0,046	0,028
-603,371	-99,364	-0,086	0,016
-602,357	800,000	-0,022	-0,047
-601,342	-97,213	0,036	0,007
-600,328	276,241	0,087	0,114
-599,313	800,000	0,041	-0,130
-598,298	350,867	0,106	-0,155
-597,284	347,070	0,113	-0,165
-596,269	-200,000	0,013	-0,105
-595,255	-200,000	0,021	0,158
-594,240	197,576	0,082	0,093
-593,225	-162,352	-0,160	-0,006
-592,211	89,771	-0,049	-0,040
-591,196	66,087	0,044	-0,033
-590,182	-200,000	-0,012	-0,070
-589,167	61,861	0,041	0,031
-588,152	800,000	0,029	0,087
-587,138	-200,000	-0,028	-0,159
-586,123	328,497	-0,092	-0,131
-585,109	61,742	0,125	0,092
-584,094	-200,000	0,002	0,069
-583,079	800,000	-0,014	0,031
-582,065	800,000	0,028	-0,080
-581,050	27,455	-0,108	-0,067
-580,036	136,825	-0,083	-0,080
-579,021	-200,000	-0,009	-0,184
-578,006	233,042	-0,108	-0,131
-576,992	-120,774	-0,044	-0,005
-575,977	-200,000	-0,000	-0,174
-574,963	456,389	-0,006	-0,009
-573,948	800,000	0,031	0,083
-572,934	-200,000	0,001	-0,036
-571,919	-200,000	-0,012	0,090
-570,904	800,000	-0,051	0,111
-569,890	161,906	0,072	-0,075
-568,875	800,000	0,027	-0,057
-567,861	-74,514	0,076	-0,020
-566,846	186,828	-0,065	0,072
-565,831	297,092	-0,064	-0,087
-564,817	3,606	0,023	0,012
-563,802	-78,758	-0,008	-0,002
-562,788	-200,000	-0,000	-0,009
-561,773	90,060	0,098	0,081
-560,758	168,989	0,081	-0,085
-559,744	4,829	0,056	-0,030
-558,729	232,298	0,029	-0,036
-557,715	-157,356	-0,059	0,003
-556,700	412,728	0,059	-0,094
-555,685	81,538	-0,035	-0,028
-554,671	-200,000	0,038	-0,165
-553,656	-110,767	-0,110	0,017
-552,642	82,196	0,090	-0,072
-551,627	-200,000	-0,021	-0,159
-550,612	170,038	-0,085	-0,090
-549,598	-200,000	0,022	-0,146
-548,583	25,152	-0,045	-0,028
-547,569	43,135	-0,029	0,019
-546,554	800,000	-0,037	-0,086
-545,539	176,794	0,076	-0,082
-544,525	800,000	-0,049	-0,115
-543,510	-2,447	0,054	0,028
-542,496	-27,268	-0,085	-0,036
-541,481	-200,000	0,000	0,053
-540,466	67,734	0,075	-0,057
-539,452	234,276	0,034	-0,042
-538,437	-200,000	0,020	0,067
-537,423	-200,000	0,047	0,158
-536,408	-69,936	-0,035	0,010
-535,393	181,054	-0,041	0,044
-534,379	-1,569	-0,036	-0,019
-533,364	-109,519	-0,109	-0,017
-532,350	481,993	-0,019	-0,032
-531,335	800,000	0,011	-0,034
-530,321	210,606	-0,091	0,106
-529,306	-86,227	0,107	-0,024
-528,291	292,947	0,030	-0,041
-527,277	99,846	-0,054	0,047
-526,262	-200,000	-0,001	0,024
-525,248	634,513	0,027	-0,050
-524,233	800,000	0,050	0,116
-523,218	-200,000	-0,009	0,098
-522,204	18,967	-0,027	-0,016
-521,189	128,753	-0,087	-0,082
-520,175	-200,000	0,013	0,060
-519,160	-145,245	-0,071	-0,005
-518,145	82,955	0,045	-0,036
-517,131	318,386	-0,084	0,118
-516,116	-200,000	0,019	0,110
-515,102	-200,000	-0,006	0,112
-514,087	83,019	-0,131	-0,105
-513,072	800,000	-0,064	-0,165
-512,058	103,188	0,069	-0,060
-511,043	-88,694	0,019	-0,004
-510,029	-5,866	0,139	0,070
-509,014	-76,198	0,061	0,016
-507,999	373,426	-0,066	-0,100
-506,985	-152,400	-0,099	0,005
-505,970	800,000	-0,045	0,094
-504,956	800,000	-0,043	-0,139
-503,941	-17,261	0,036	0,017
-502,926	-200,000	-0,001	-0,073
-501,912	213,030	-0,066	0,077
-500,897	-89,428	0,059	0,013
-499,883	123,387	-0,066	0,061
-498,868	-200,000	-0,020	-0,124
-497,853	800,000	-0,078	0,165
-496,839	-200,000	0,009	-0,097
-495,824	800,000	-0,024	-0,067
-494,810	173,709	-0,077	-0,082
-493,795	800,000	-0,033	-0,093
-492,781	244,916	0,054	0,068
-491,766	-45,209	-0,070	-0,026
-490,751	-200,000	-0,008	-0,150
-489,737	800,000	-0,022	0,058
-488,722	35,372	0,130	0,084
-487,708	-200,000	0,023	0,084
-486,693	-200,000	-0,012	-0,046
-485,678	39,184	0,057	0,038
-484,664	800,000	0,026	-0,069
-483,649	-86,254	-0,019	0,004
-482,635	216,062	0,061	0,072
-481,620	498,535	0,025	-0,042
-480,605	292,663	-0,094	0,126
-479,591	-133,047	0,097	0,009
-478,576	103,781	0,045	-0,039
-477,562	800,000	0,023	-0,068
-476,547	-56,018	-0,031	-0,010
-475,532	41,719	0,131	-0,087
-474,518	141,214	0,065	0,063
-473,503	-200,000	-0,016	0,068
-472,489	-200,000	0,025	0,146
-471,474	800,000	-0,051	0,126
-470,459	800,000	0,013	0,043
-469,445	-87,950	-0,047	-0,010
-468,430	341,951	-0,035	-0,051
-467,416	132,638	0,097	0,092
-466,401	191,206	0,058	0,064
-465,386	195,375	0,062	0,069
-464,372	779,638	0,031	-0,062
-463,357	41,682	-0,142	0,095
-462,343	212,370	-0,078	-0,090
-461,328	-200,000	0,005	0,080
-460,313	-161,562	0,073	-0,003
-459,299	-114,804	0,224	0,031
-458,284	-200,000	0,008	0,107
-457,270	-48,134	0,044	0,016
-456,255	-33,590	0,082	-0,033
-455,241	-35,839	-0,026	0,010
-454,226	426,516	-0,030	0,047
-453,211	-9,126	0,082	0,040
-452,197	-200,000	-0,007	0,026
-451,182	-200,000	0,002	0,027
-450,168	-67,092	0,112	-0,032
-449,153	175,128	-0,088	0,093
-448,138	-157,484	0,202	-0,009
-447,124	628,558	-0,054	-0,101
-446,109	-200,000	-0,011	-0,114
-445,095	-97,564	0,105	-0,020
-444,080	-42,280	-0,030	-0,011
-443,065	-200,000	0,001	-0,041
-442,051	800,000	0,040	0,114
-441,036	-200,000	0,009	-0,058
-440,022	161,659	-0,028	-0,029
-439,007	129,066	-0,086	0,081
-437,992	37,415	-0,037	-0,024
-436,978	-149,924	0,049	-0,003
-435,963	612,006	-0,046	0,086
-434,949	49,863	0,062	0,043
-433,934	73,890	-0,155	-0,119
-432,919	-56,331	-0,088	0,028
-431,905	-73,416	-0,113	0,030
-430,890	98,725	0,051	-0,043
-429,876	181,077	0,014	0,015
-428,861	-3,016	-0,093	0,047
-427,846	-121,091	0,153	-0,019
-426,832	800,000	-0,036	-0,078
-425,817	-200,000	-0,001	-0,092
-424,803	663,216	0,040	-0,075
-423,788	-71,361	-0,073	-0,020
-422,773	-25,730	0,115	-0,049
-421,759	-64,003	-0,106	0,032
-420,744	800,000	0,073	-0,151
-419,730	800,000	-0,057	-0,123
-418,715	-200,000	0,026	0,113
-417,701	-113,597	0,106	0,015
-416,686	121,162	0,084	0,076
-415,671	-32,320	0,010	-0,004
-414,657	-200,000	0,016	0,113
-413,642	-200,000	-0,027	0,121
-412,628	-141,916	-0,080	-0,006
-411,613	-113,066	0,017	0,002
-410,598	-200,000	-0,031	0,134
-409,584	-53,068	0,101	-0,034
-408,569	800,000	0,009	-0,025
-407,555	12,097	-0,125	0,070
-406,540	-200,000	-0,025	-0,115
-405,525	-200,000	0,006	-0,138
-404,511	-200,000	-0,020	-0,152
-403,496	-200,000	-0,042	-0,156
-402,482	-18,330	0,045	-0,021
-401,467	800,000	0,034	-0,081
-400,452	106,340	0,084	0,073
-399,438	-26,851	0,032	-0,014
-398,423	-200,000	0,002	0,041
-397,409	-67,986	-0,067	-0,019
-396,394	35,494	-0,010	0,006
-395,379	37,853	0,032	0,021
-394,365	613,398	-0,032	0,060
-393,350	427,867	0,041	0,065
-392,336	279,635	0,076	-0,100
-391,321	800,000	-0,088	-0,182
-390,306	64,571	-0,090	0,067
-389,292	800,000	-0,050	0,111
-388,277	-200,000	0,058	-0,221
-387,263	7,849	0,113	-0,062
-386,248	27,738	0,071	-0,044
-385,233	-200,000	0,019	-0,151
-384,219	800,000	0,033	-0,077
-383,204	218,734	-0,087	-0,102
-382,190	-200,000	-0,005	-0,027
-381,175	116,875	-0,031	-0,028
-380,160	-117,687	0,100	0,013
-379,146	276,212	-0,025	0,032
-378,131	29,549	-0,083	0,052
-377,117	100,365	-0,087	0,074
-376,102	314,249	-0,052	-0,072
-375,088	533,751	-0,046	-0,081
-374,073	800,000	0,020	0,052
-373,058	-200,000	-0,029	0,141
-372,044	153,077	0,081	0,081
-371,029	-200,000	-0,002	0,101
-370,015	1,432	-0,047	0,025
-369,000	-200,000	0,007	0,045
-367,985	800,000	-0,101	0,218
-366,971	-200,000	-0,009	0,032
-365,956	-200,000	-0,006	-0,040
-364,942	-200,000	0,007	0,147
-363,927	-19,727	0,102	0,046
-362,912	800,000	0,020	-0,064
-361,898	800,000	0,076	-0,243
-360,883	324,464	0,055	0,077
-359,869	-32,176	0,041	0,017
-358,854	-200,000	0,007	-0,037
-357,839	800,000	0,027	0,084
-356,825	-33,483	-0,027	-0,011
-355,810	800,000	0,032	-0,065
-354,796	800,000	-0,036	-0,086
-353,781	-12,287	-0,085	0,041
-352,766	91,428	0,045	0,037
-351,752	-200,000	0,008	0,075
-350,737	-101,511	0,154	0,027
-349,723	-200,000	0,015	0,056
-348,708	-192,792	-0,052	-0,000
-347,693	800,000	-0,035	-0,100
-346,679	226,987	-0,074	-0,088
-345,664	-79,447	-0,112	-0,027
-344,650	-200,000	-0,017	-0,077
-343,635	800,000	-0,049	0,146
-342,620	-100,624	-0,111	0,020
-341,606	249,666	0,033	0,042
-340,591	-70,842	0,101	0,028
-339,577	-114,552	-0,070	-0,010
-338,562	73,333	-0,133	-0,102
-337,548	19,183	0,026	0,015
-336,533	76,980	0,086	0,067
-335,518	-182,081	0,172	0,002
-334,504	-200,000	-0,027	-0,103
-333,489	-200,000	-0,004	-0,025
-332,475	-75,500	-0,104	-0,027
-331,460	800,000	-0,110	-0,257
-330,445	-83,240	0,080	0,019
-329,431	-173,462	0,068	-0,001
-328,416	164,315	0,048	0,050
-327,402	-200,000	-0,052	0,171
-326,387	-200,000	0,020	0,107
-325,372	149,329	-0,018	0,018
-324,358	800,000	-0,035	0,102
-323,343	211,160	-0,041	0,048
-322,329	800,000	0,017	0,040
-321,314	547,938	-0,051	0,089
-320,299	20,984	0,078	-0,046
-319,285	-36,851	-0,074	-0,029
-318,270	243,779	0,024	0,029
-317,256	-200,000	-0,033	-0,128
-316,241	-76,363	-0,137	-0,035
-315,226	391,022	-0,024	0,036
-314,212	-36,025	0,119	0,047
-313,197	609,523	-0,046	0,084
-312,183	635,681	0,072	0,134
-311,168	-9,519	-0,019	0,009
-310,153	-16,699	0,049	0,023
-309,139	-200,000	0,002	0,099
-308,124	-62,281	0,084	0,025
-307,110	182,402	-0,068	0,073
-306,095	-72,838	-0,033	0,009
-305,080	27,500	0,073	-0,045
-304,066	18,629	-0,051	0,030
-303,051	800,000	-0,013	-0,029
-302,037	-18,936	0,074	-0,033
-301,022	119,961	-0,067	-0,061
-300,008	261,553	-0,093	0,118
-298,993	-200,000	0,022	0,102
-297,978	123,898	0,084	0,077
-296,964	-120,998	-0,142	-0,017
-295,949	-200,000	0,009	-0,044
-294,935	151,860	-0,052	0,052
-293,920	560,856	-0,042	0,074
-292,905	445,625	0,061	0,099
-291,891	135,708	-0,046	0,044
-290,876	352,644	0,016	-0,023
-289,862	-200,000	-0,016	-0,059
-288,847	800,000	0,022	-0,050
-287,832	800,000	0,046	-0,101
-286,818	-200,000	-0,009	-0,073
-285,803	127,994	0,108	0,100
-284,789	-200,000	-0,003	0,176
-283,774	800,000	-0,011	-0,032
-282,759	195,761	0,079	-0,088
-281,745	63,351	0,017	-0,013
-280,730	-13,016	0,151	-0,072
-279,716	-200,000	-0,014	0,050
-278,701	800,000	0,033	0,084
-277,686	72,863	-0,079	0,060
-276,672	6,540	0,108	-0,058
-275,657	-200,000	0,007	0,048
-274,643	-200,000	-0,033	0,143
-273,628	-8,848	-0,093	-0,045
-272,613	161,469	-0,012	-0,013
-271,599	-200,000	0,017	-0,119
-270,584	-200,000	0,004	0,021
-269,570	-1,995	-0,122	-0,062
-268,555	367,458	-0,089	0,131
-267,540	-107,168	0,157	-0,025
-266,526	741,963	-0,065	0,128
-265,511	-200,000	0,009	0,162
-264,497	-133,985	0,039	0,004
-263,482	45,113	-0,003	-0,002
-262,467	800,000	-0,038	-0,094
-261,453	236,068	-0,028	-0,033
-260,438	639,111	-0,027	0,051
-259,424	41,421	0,011	0,007
-258,409	48,400	-0,148	-0,101
-257,395	800,000	-0,020	0,055
-256,380	-200,000	0,017	0,088
-255,365	205,084	-0,058	-0,066
-254,351	-136,813	0,125	-0,010
-253,336	-200,000	0,000	0,006
-252,322	68,917	-0,091	-0,068
-251,307	-200,000	-0,014	-0,112
-250,292	32,945	0,129	-0,081
-249,278	-200,000	-0,024	0,098
-248,263	285,586	0,153	0,201
-247,249	38,767	-0,066	0,043
-246,234	-113,183	-0,182	0,026
-245,219	-162,828	0,096	0,003
-244,205	-104,175	-0,235	-0,039
-243,190	340,339	0,042	0,060
-242,176	440,506	0,063	-0,101
-241,161	44,188	0,107	-0,072
-240,146	-90,831	0,093	-0,019
-239,132	367,824	0,101	0,149
-238,117	55,816	0,104	-0,073
-237,103	94,109	-0,025	-0,020
-236,088	96,345	0,035	0,029
-235,073	101,347	0,055	0,047
-234,059	-200,000	0,015	0,114
-233,044	-200,000	0,017	0,147
-232,030	800,000	-0,013	-0,035
-231,015	-200,000	0,005	0,085
-230,000	111,046	-0,067	-0,058
-228,986	4,017	-0,057	0,030
-227,971	-71,664	0,074	-0,020
-226,957	-120,945	0,085	0,010
-225,942	476,916	-0,052	-0,086
-224,927	-73,202	-0,009	-0,002
-223,913	474,330	-0,040	-0,065
-222,898	129,901	0,081	0,075
-221,884	139,309	-0,083	0,080
-220,869	-64,002	0,081	-0,024
-219,855	-51,310	0,117	0,040
-218,840	-200,000	-0,005	0,169
-217,825	-72,888	0,056	-0,015
-216,811	281,246	0,058	0,076
-215,796	-139,027	-0,074	-0,006
-214,782	-89,550	-0,173	-0,037
-213,767	-108,639	0,048	0,008
-212,752	800,000	0,013	-0,039
-211,738	118,368	0,089	-0,080
-210,723	-200,000	0,018	0,235
-209,709	-200,000	-0,002	0,026
-208,694	276,283	-0,091	-0,118
-207,679	-115,279	-0,057	0,008
-206,665	107,211	0,076	0,066
-205,650	800,000	0,018	-0,046
-204,636	241,634	0,093	0,113
-203,621	2,708	-0,123	0,065
-202,606	-67,107	-0,002	-0,001
-201,592	-200,000	0,005	-0,065
-200,577	-148,252	-0,150	-0,009
-199,563	-200,000	-0,001	-0,048
-198,548	414,999	0,028	-0,043
-197,533	-200,000	-0,007	0,165
-196,519	125,155	0,048	-0,044
-195,504	26,122	0,088	-0,054
-194,490	-200,000	-0,014	0,084
-193,475	559,288	-0,090	0,160
-192,460	108,327	0,123	0,107
-191,446	-62,762	0,140	0,042
-190,431	127,188	0,029	0,027
-189,417	25,901	-0,091	0,055
-188,402	-35,381	-0,029	-0,011
-187,387	-89,023	-0,068	-0,015
-186,373	-89,760	-0,109	0,023
-185,358	-111,344	-0,036	0,005
-184,344	-200,000	0,006	0,154
-183,329	-200,000	-0,028	-0,124
-182,315	-39,957	0,123	-0,047
-181,300	-200,000	-0,013	-0,061
-180,285	-200,000	-0,004	-0,029
-179,271	-200,000	-0,003	-0,027
-178,256	190,294	0,012	-0,013
-177,242	76,627	0,078	-0,060
-176,227	-34,002	0,029	-0,011
-175,212	239,745	0,053	0,065
-174,198	41,327	0,062	0,041
-173,183	-91,663	-0,043	0,009
-172,169	-200,000	-0,027	-0,163
-171,154	1,933	-0,031	-0,016
-170,139	800,000	0,031	0,065
-169,125	-92,393	0,048	0,010
-168,110	800,000	-0,057	0,124
-167,096	138,673	0,091	-0,087
-166,081	63,410	-0,128	-0,093
-165,066	800,000	-0,056	-0,144
-164,052	-76,050	0,177	-0,045
-163,037	89,249	-0,082	0,066
-162,023	109,342	-0,114	-0,100
-161,008	145,852	-0,093	0,091
-159,993	-4,298	-0,009	0,005
-158,979	-15,890	0,049	0,022
-157,964	181,476	0,016	0,017
-156,950	-97,432	-0,105	-0,020
-155,935	-151,207	0,154	-0,008
-154,920	36,857	0,067	-0,043
-153,906	800,000	-0,025	0,061
-152,891	-64,074	0,104	-0,031
-151,877	-34,517	0,059	0,023
-150,862	547,519	0,098	0,171
-149,847	-7,681	-0,075	0,037
-148,833	-77,783	-0,099	-0,025
-147,818	87,540	-0,054	-0,043
-146,804	207,979	0,083	-0,095
-145,789	728,261	-0,063	-0,122
-144,775	256,823	0,033	0,042
-143,760	-14,378	-0,039	0,018
-142,745	338,168	-0,031	-0,043
-141,731	-200,000	-0,005	-0,088
-140,716	-200,000	-0,010	0,101
-139,702	-43,949	-0,095	0,035
-138,687	210,179	0,111	-0,127
-137,672	51,765	0,109	-0,075
-136,658	-200,000	-0,008	-0,089
-135,643	-86,029	-0,027	0,006
-134,629	-21,448	-0,127	0,056
-133,614	-35,131	0,039	-0,015
-132,599	168,595	0,092	0,096
-131,585	-69,704	0,168	-0,046
-130,570	87,530	0,054	0,043
-129,556	-200,000	0,012	0,041
-128,541	-200,000	0,001	-0,075
-127,526	-200,000	-0,013	-0,046
-126,512	800,000	0,005	-0,013
-125,497	-0,582	-0,029	0,015
-124,483	-168,548	-0,082	0,002
-123,468	267,873	-0,055	0,070
-122,453	7,087	0,115	0,062
-121,439	-135,551	-0,055	-0,005
-120,424	-97,828	-0,089	-0,017
-119,410	-200,000	-0,024	0,088
