DTS Sentinel unit serial number:	SN410029Multiplexer serial number:	ORYXHardware model number:	OX2-SRSoftware version number:	ORYX F/W v4,00 Oryx Data Collector v3.7.2.0data status	okinstallation	B4 Nyhavnadifferential loss correction	single-endedforward channel	channel 2reverse channel	N/Adate	2023/12/18time	18:30:13forward acquisition time	300,00reverse acquisition time	0,00gamma	499,1914k internal	0,3124k external	0,3124temperature offset calibration	1,0000default loss term (dB/km)	0,3820temperature slope calibration	1,0000multiplexer offset coefficient	1,0000multiplexer slope coefficient	1,0000fibre end	0,00T internal ref (°C)	21,94T ext. ref 1 (°C)	7,19T ext. ref 2 (°C)	7,30length (m)	temperature (°C)	Stokes	anti-Stokes-744,400	100,404	0,039	-0,034
-743,385	129,181	-0,179	0,171
-742,371	437,830	0,036	0,059
-741,356	174,893	-0,204	0,220
-740,342	800,000	0,044	-0,093
-739,327	-2,970	-0,284	0,147
-738,312	-36,445	-0,066	-0,026
-737,298	273,486	-0,149	0,196
-736,283	219,357	0,055	-0,065
-735,269	145,635	-0,216	0,216
-734,254	800,000	0,021	0,052
-733,239	-52,696	-0,350	-0,120
-732,225	-138,204	0,159	-0,013
-731,210	-139,483	0,047	0,004
-730,196	375,637	-0,048	-0,073
-729,181	800,000	0,029	-0,060
-728,167	-200,000	-0,002	-0,010
-727,152	169,701	-0,022	-0,023
-726,137	-64,423	0,067	0,020
-725,123	-58,843	0,139	-0,045
-724,108	74,536	-0,109	-0,085
-723,094	64,108	-0,129	-0,096
-722,079	800,000	-0,082	-0,253
-721,064	4,437	0,095	-0,052
-720,050	466,929	0,026	-0,043
-719,035	-5,611	0,092	0,047
-718,021	-72,661	-0,116	0,032
-717,006	800,000	0,043	-0,121
-715,991	22,562	-0,101	-0,061
-714,977	-200,000	0,009	-0,181
-713,962	-190,466	-0,028	0,000
-712,948	-102,365	-0,124	0,022
-711,933	-30,947	-0,088	0,037
-710,918	-75,398	0,086	0,023
-709,904	-200,000	-0,038	-0,141
-708,889	40,794	-0,043	-0,029
-707,875	-200,000	0,008	0,108
-706,860	51,154	-0,084	-0,059
-705,845	-200,000	0,001	-0,083
-704,831	458,256	-0,055	0,092
-703,816	-200,000	0,037	-0,167
-702,802	334,691	-0,046	-0,066
-701,787	800,000	0,057	-0,120
-700,772	-200,000	0,062	0,212
-699,758	-200,000	0,002	-0,065
-698,743	800,000	-0,036	-0,080
-697,729	800,000	0,016	0,048
-696,714	71,228	-0,012	0,009
-695,699	112,100	-0,073	-0,065
-694,685	535,136	-0,079	-0,140
-693,670	800,000	0,037	-0,090
-692,656	-200,000	0,033	-0,166
-691,641	-200,000	0,001	0,040
-690,627	-77,362	-0,085	-0,022
-689,612	18,851	0,104	0,062
-688,597	184,335	-0,024	0,026
-687,583	-200,000	0,001	-0,091
-686,568	77,282	-0,097	0,077
-685,554	-84,625	0,042	-0,010
-684,539	-200,000	-0,003	0,036
-683,524	800,000	-0,030	0,082
-682,510	37,877	-0,114	0,075
-681,495	-134,670	0,110	-0,010
-680,481	106,235	0,065	0,057
-679,466	-60,591	0,022	-0,007
-678,451	800,000	0,036	-0,081
-677,437	309,710	0,042	0,059
-676,422	513,427	0,071	-0,123
-675,408	-175,132	0,118	-0,002
-674,393	51,632	0,083	-0,058
-673,378	800,000	-0,034	-0,071
-672,364	45,785	0,055	-0,038
-671,349	38,879	0,064	-0,042
-670,335	-200,000	0,014	-0,104
-669,320	800,000	-0,034	-0,101
-668,305	30,337	-0,080	0,050
-667,291	-123,094	0,054	0,006
-666,276	-200,000	-0,003	-0,101
-665,262	800,000	-0,060	-0,170
-664,247	-200,000	0,020	-0,200
-663,232	-200,000	-0,015	-0,061
-662,218	418,165	-0,114	-0,181
-661,203	-80,664	-0,141	0,035
-660,189	-116,271	0,176	-0,024
-659,174	-103,667	-0,007	0,001
-658,159	-200,000	-0,002	-0,104
-657,145	-133,194	-0,127	0,012
-656,130	41,882	-0,084	0,056
-655,116	-200,000	0,030	0,097
-654,101	382,497	-0,018	0,028
-653,086	386,599	-0,038	0,058
-652,072	302,393	-0,082	-0,112
-651,057	-200,000	-0,044	-0,200
-650,043	-119,070	-0,106	0,014
-649,028	-47,159	0,123	0,044
-648,014	-166,305	0,011	0,000
-646,999	238,035	0,041	-0,051
-645,984	300,681	-0,031	0,042
-644,970	80,259	-0,116	-0,092
-643,955	800,000	-0,021	-0,058
-642,941	202,173	-0,055	-0,063
-641,926	335,487	-0,022	-0,032
-640,911	715,925	-0,030	0,059
-639,897	-20,646	0,059	-0,027
-638,882	-67,511	-0,047	-0,014
-637,868	-200,000	-0,005	-0,076
-636,853	308,497	-0,119	-0,166
-635,838	34,727	-0,117	-0,076
-634,824	-79,860	0,068	0,017
-633,809	173,460	0,067	-0,072
-632,795	59,486	0,127	-0,093
-631,780	-74,397	-0,117	-0,031
-630,765	-69,894	0,113	-0,032
-629,751	67,826	0,052	-0,040
-628,736	-98,935	0,042	-0,008
-627,722	505,360	-0,073	-0,126
-626,707	-90,765	-0,038	0,008
-625,692	-185,270	0,157	0,002
-624,678	2,337	-0,083	-0,045
-623,663	800,000	0,051	0,133
-622,649	520,932	0,025	0,044
-621,634	53,713	-0,052	-0,037
-620,619	89,804	-0,066	0,055
-619,605	-92,393	0,164	-0,034
-618,590	-15,426	0,089	-0,042
-617,576	259,693	0,084	0,108
-616,561	-200,000	-0,037	0,126
-615,546	-200,000	-0,025	-0,089
-614,532	-200,000	-0,027	-0,164
-613,517	-200,000	-0,020	-0,098
-612,503	-65,350	-0,048	-0,014
-611,488	800,000	-0,016	0,048
-610,474	173,102	0,050	-0,053
-609,459	-200,000	-0,011	-0,089
-608,444	-39,487	-0,077	-0,030
-607,430	-200,000	-0,041	-0,159
-606,415	351,576	0,037	-0,055
-605,401	-157,766	-0,148	0,006
-604,386	289,671	0,109	0,148
-603,371	-114,373	0,078	0,011
-602,357	-200,000	-0,011	0,182
-601,342	496,351	-0,022	0,037
-600,328	-200,000	-0,002	-0,107
-599,313	-133,023	0,053	-0,005
-598,298	-130,614	-0,071	-0,007
-597,284	-75,276	0,063	0,017
-596,269	800,000	0,018	-0,049
-595,255	80,943	-0,031	0,025
-594,240	94,127	0,053	-0,044
-593,225	-200,000	0,023	0,099
-592,211	26,810	-0,085	-0,052
-591,196	-23,012	-0,148	0,066
-590,182	566,677	0,057	0,103
-589,167	-38,184	0,089	-0,035
-588,152	-200,000	-0,004	0,138
-587,138	156,678	-0,105	-0,107
-586,123	59,563	-0,075	-0,055
-585,109	-34,084	-0,044	-0,018
-584,094	46,332	-0,094	0,064
-583,079	39,936	-0,061	0,041
-582,065	145,344	-0,026	0,026
-581,050	151,115	-0,068	-0,069
-580,036	-200,000	0,002	-0,107
-579,021	145,463	-0,067	-0,066
-578,006	317,660	-0,029	-0,040
-576,992	309,571	-0,062	0,087
-575,977	-20,840	0,090	0,041
-574,963	-200,000	-0,013	0,056
-573,948	-78,313	-0,110	-0,028
-572,934	-94,295	0,062	-0,013
-571,919	110,999	-0,053	0,047
-570,904	800,000	0,012	-0,033
-569,890	-25,388	-0,119	-0,052
-568,875	47,004	-0,030	0,021
-567,861	-140,502	-0,018	-0,001
-566,846	-162,669	0,098	0,003
-565,831	171,492	-0,037	-0,040
-564,817	-20,085	0,019	-0,009
-563,802	15,231	-0,124	0,071
-562,788	43,024	-0,052	0,035
-561,773	-148,039	-0,120	0,007
-560,758	117,880	-0,097	0,088
-559,744	-72,794	0,128	-0,035
-558,729	-23,462	-0,039	-0,017
-557,715	800,000	-0,036	-0,090
-556,700	13,188	-0,036	-0,021
-555,685	-79,332	0,082	-0,020
-554,671	-200,000	0,039	0,000
-553,656	-83,265	0,134	-0,032
-552,642	-114,623	0,066	-0,009
-551,627	294,726	0,020	-0,028
-550,612	-115,538	-0,064	-0,009
-549,598	-163,979	-0,080	-0,003
-548,583	226,438	0,054	0,065
-547,569	-152,629	0,044	-0,002
-546,554	-102,071	-0,179	0,032
-545,539	-32,290	-0,069	-0,028
-544,525	167,064	0,106	0,112
-543,510	33,277	0,087	0,056
-542,496	800,000	0,032	-0,080
-541,481	-64,288	-0,078	-0,023
-540,466	-200,000	0,008	0,145
-539,452	355,453	0,033	-0,049
-538,437	-77,856	0,023	-0,006
-537,423	-200,000	0,003	-0,011
-536,408	800,000	0,047	-0,104
-535,393	800,000	0,070	-0,158
-534,379	-69,549	-0,074	0,021
-533,364	-86,564	-0,034	0,008
-532,350	-200,000	0,016	-0,057
-531,335	158,632	-0,084	0,086
-530,321	-200,000	-0,002	-0,071
-529,306	25,423	0,057	-0,035
-528,291	-46,868	-0,068	0,024
-527,277	50,456	0,050	-0,035
-526,262	277,469	0,104	0,137
-525,248	72,821	-0,052	-0,040
-524,233	-70,016	-0,098	0,027
-523,218	204,748	0,046	0,053
-522,204	93,514	-0,078	0,065
-521,189	800,000	-0,009	0,026
-520,175	256,964	-0,012	0,015
-519,160	191,297	-0,075	-0,084
-518,145	-200,000	-0,001	-0,021
-517,131	293,910	0,107	0,145
-516,116	800,000	0,049	0,112
-515,102	245,402	0,083	0,104
-514,087	309,435	-0,080	-0,110
-513,072	32,307	-0,101	-0,064
-512,058	191,897	-0,062	-0,069
-511,043	-200,000	-0,019	-0,091
-510,029	44,821	0,014	-0,010
-509,014	-9,098	0,142	-0,070
-507,999	511,445	0,049	0,084
-506,985	-1,230	0,048	-0,025
-505,970	286,068	-0,108	-0,144
-504,956	-172,902	-0,067	-0,002
-503,941	800,000	-0,026	-0,064
-502,926	272,317	0,076	-0,100
-501,912	-26,772	-0,032	0,014
-500,897	128,845	-0,059	-0,056
-499,883	160,221	-0,077	0,080
-498,868	-20,640	-0,060	-0,027
-497,853	432,830	0,077	-0,124
-496,839	-52,805	-0,066	-0,022
-495,824	116,455	0,034	0,031
-494,810	-68,342	0,165	0,047
-493,795	281,092	0,019	-0,026
-492,781	377,420	-0,076	0,116
-491,766	-151,281	-0,175	-0,009
-490,751	-102,841	0,213	0,037
-489,737	-35,118	0,050	0,020
-488,722	-111,519	0,058	0,009
-487,708	74,469	-0,052	-0,040
-486,693	800,000	-0,050	0,115
-485,678	-200,000	-0,001	-0,092
-484,664	800,000	0,044	0,117
-483,649	-68,014	-0,030	0,008
-482,635	764,138	0,057	-0,115
-481,620	8,824	0,013	0,007
-480,605	340,382	0,016	0,024
-479,591	98,149	0,050	-0,043
-478,576	-1,686	0,103	-0,053
-477,562	-93,044	-0,095	-0,019
-476,547	-200,000	0,002	-0,055
-475,532	-48,858	0,206	0,073
-474,518	-18,709	0,046	0,021
-473,503	13,388	0,039	-0,022
-472,489	-122,425	0,071	-0,008
-471,474	800,000	0,030	0,063
-470,459	490,494	-0,048	0,080
-469,445	-58,449	-0,142	-0,045
-468,430	800,000	0,043	0,099
-467,416	-200,000	-0,019	0,079
-466,401	-200,000	-0,002	-0,040
-465,386	-142,805	0,119	0,008
-464,372	800,000	-0,053	-0,124
-463,357	160,410	-0,082	-0,084
-462,343	-149,494	-0,122	0,007
-461,328	800,000	0,030	-0,081
-460,313	-69,542	0,143	0,040
-459,299	355,569	0,033	-0,048
-458,284	6,215	-0,055	0,030
-457,270	211,456	0,052	-0,061
-456,255	800,000	-0,052	-0,110
-455,241	60,929	-0,097	0,071
-454,226	-200,000	0,007	-0,044
-453,211	761,926	-0,024	0,048
-452,197	-149,307	-0,009	-0,001
-451,182	-200,000	0,027	0,128
-450,168	8,302	0,015	-0,009
-449,153	351,621	0,024	0,036
-448,138	-200,000	-0,009	-0,032
-447,124	114,936	0,111	-0,100
-446,109	263,192	0,035	-0,045
-445,095	-58,092	0,179	-0,057
-444,080	-200,000	0,009	0,038
-443,065	101,824	-0,053	0,046
-442,051	254,817	0,022	0,028
-441,036	-53,907	-0,106	0,035
-440,022	79,175	-0,088	-0,070
-439,007	800,000	-0,025	-0,072
-437,992	-105,749	0,174	0,029
-436,978	800,000	-0,014	-0,043
-435,963	800,000	0,033	-0,095
-434,949	-29,500	-0,005	-0,002
-433,934	315,453	-0,029	0,041
-432,919	-30,061	-0,059	-0,025
-431,905	133,452	0,068	-0,065
-430,890	-157,047	-0,085	-0,004
-429,876	-163,223	0,084	0,003
-428,861	-200,000	0,062	-0,242
-427,846	-200,000	-0,001	-0,049
-426,832	140,403	0,137	-0,133
-425,817	70,113	-0,092	0,070
-424,803	64,049	0,041	-0,030
-423,788	-200,000	-0,018	0,083
-422,773	-47,902	0,148	-0,052
-421,759	800,000	-0,062	-0,158
-420,744	232,759	0,078	0,094
-419,730	-149,682	-0,134	-0,008
-418,715	124,259	-0,030	-0,028
-417,701	-200,000	-0,017	-0,102
-416,686	654,532	0,069	0,130
-415,671	459,647	-0,069	0,114
-414,657	-90,329	0,113	-0,024
-413,642	-18,511	-0,091	0,042
-412,628	-38,305	-0,020	0,008
-411,613	240,506	-0,025	-0,030
-410,598	-137,388	-0,039	-0,003
-409,584	701,533	-0,022	-0,043
-408,569	93,197	0,109	0,091
-407,555	-146,087	0,110	0,007
-406,540	603,063	0,058	0,107
-405,525	-200,000	-0,016	0,072
-404,511	800,000	-0,051	-0,153
-403,496	800,000	0,044	-0,138
-402,482	18,974	-0,095	0,056
-401,467	-86,325	-0,125	-0,028
-400,452	-200,000	-0,002	0,027
-399,438	800,000	-0,006	-0,016
-398,423	-200,000	0,002	-0,018
-397,409	390,933	0,042	0,064
-396,394	-34,895	0,106	0,042
-395,379	800,000	-0,044	0,119
-394,365	186,867	-0,081	0,089
-393,350	-110,272	0,075	-0,011
-392,336	-19,775	-0,007	-0,003
-391,321	-15,995	0,191	0,089
-390,306	351,733	-0,046	-0,068
-389,292	354,242	-0,041	-0,060
-388,277	-17,689	-0,075	-0,035
-387,263	-152,405	0,089	0,005
-386,248	-200,000	-0,024	-0,113
-385,233	-200,000	-0,017	0,131
-384,219	619,459	0,042	0,078
-383,204	-200,000	-0,002	-0,016
-382,190	800,000	-0,023	0,053
-381,175	-57,447	0,094	0,030
-380,160	-83,530	-0,053	0,012
-379,146	800,000	-0,088	0,239
-378,131	-46,502	0,099	0,035
-377,117	110,595	0,120	0,106
-376,102	346,329	0,042	0,061
-375,088	68,611	0,066	-0,049
-374,073	800,000	-0,038	0,100
-373,058	-200,000	0,002	0,035
-372,044	99,178	0,035	-0,030
-371,029	-95,103	0,105	-0,021
-370,015	76,532	-0,087	0,068
-369,000	475,418	-0,031	0,051
-367,985	-42,632	-0,024	-0,009
-366,971	-32,681	-0,029	0,012
-365,956	-200,000	0,033	-0,141
-364,942	-39,240	-0,096	-0,037
-363,927	186,218	0,058	-0,064
-362,912	800,000	0,041	0,112
-361,898	327,025	0,055	-0,078
-360,883	12,862	-0,079	-0,045
-359,869	209,630	0,027	0,032
-358,854	800,000	0,014	0,042
-357,839	800,000	0,026	0,075
-356,825	616,112	0,053	0,098
-355,810	-200,000	-0,013	0,059
-354,796	-200,000	-0,017	-0,133
-353,781	-200,000	0,036	-0,127
-352,766	102,556	-0,069	-0,059
-351,752	-200,000	0,010	-0,067
-350,737	-194,048	0,054	-0,000
-349,723	800,000	0,059	0,137
-348,708	-151,649	-0,134	-0,007
-347,693	14,534	-0,086	-0,049
-346,679	-68,305	-0,209	-0,059
-345,664	-98,414	-0,129	-0,024
-344,650	-118,620	-0,045	0,006
-343,635	-200,000	-0,009	0,044
-342,620	637,578	-0,051	0,095
-341,606	142,660	0,135	0,132
-340,591	-200,000	-0,014	-0,051
-339,577	22,274	-0,238	0,142
-338,562	243,231	-0,096	0,119
-337,548	139,034	0,078	-0,076
-336,533	-128,451	0,090	-0,009
-335,518	800,000	-0,019	0,043
-334,504	257,829	0,056	-0,071
-333,489	161,201	0,103	0,105
-332,475	-200,000	-0,006	-0,076
-331,460	-200,000	0,001	0,046
-330,445	44,443	0,130	-0,088
-329,431	298,338	0,112	0,151
-328,416	66,579	-0,062	0,046
-327,402	-200,000	-0,014	0,057
-326,387	-200,000	-0,001	-0,003
-325,372	534,225	0,067	0,117
-324,358	144,303	-0,088	0,086
-323,343	800,000	0,007	-0,021
-322,329	76,289	0,050	-0,039
-321,314	-163,709	0,116	0,004
-320,299	-200,000	-0,002	0,041
-319,285	-200,000	-0,007	-0,055
-318,270	800,000	0,051	-0,104
-317,256	-28,960	0,111	-0,046
-316,241	48,574	0,115	0,079
-315,226	-200,000	0,028	0,160
-314,212	180,070	0,056	0,060
-313,197	-101,460	0,168	0,030
-312,183	-105,763	-0,012	0,002
-311,168	-200,000	-0,012	-0,140
-310,153	-200,000	0,002	-0,111
-309,139	-200,000	0,013	-0,110
-308,124	50,509	0,061	0,042
-307,110	-12,721	-0,079	0,037
-306,095	-93,488	0,178	0,036
-305,080	154,832	-0,073	-0,074
-304,066	147,475	0,101	0,100
-303,051	-200,000	-0,008	0,107
-302,037	-200,000	0,010	-0,033
-301,022	-104,505	0,067	-0,011
-300,008	379,526	-0,106	0,160
-298,993	-200,000	0,027	-0,103
-297,978	-200,000	-0,022	0,126
-296,964	189,271	-0,073	-0,081
-295,949	-28,360	0,095	-0,040
-294,935	-200,000	-0,000	-0,101
-293,920	-182,084	0,016	0,000
-292,905	-200,000	-0,040	0,139
-291,891	7,206	0,069	0,037
-290,876	-200,000	0,024	0,098
-289,862	800,000	0,008	-0,022
-288,847	-88,811	-0,137	0,029
-287,832	9,535	-0,063	-0,035
-286,818	187,526	-0,040	0,044
-285,803	800,000	0,065	0,140
-284,789	40,702	0,187	0,123
-283,774	130,447	-0,063	-0,059
-282,759	800,000	0,073	0,153
-281,745	174,731	0,032	0,034
-280,730	-140,097	-0,063	0,005
-279,716	346,732	-0,036	0,052
-278,701	-200,000	0,009	0,204
-277,686	800,000	0,006	0,019
-276,672	-200,000	-0,001	0,014
-275,657	-56,805	-0,100	0,032
-274,643	800,000	-0,012	0,026
-273,628	800,000	0,043	-0,126
-272,613	-87,671	-0,056	-0,012
-271,599	-79,951	-0,058	-0,014
-270,584	-102,686	0,143	-0,025
-269,570	-200,000	-0,007	0,039
-268,555	-200,000	-0,014	-0,100
-267,540	94,521	-0,030	-0,025
-266,526	457,444	-0,114	-0,185
-265,511	-33,399	-0,016	-0,006
-264,497	228,190	0,032	0,039
-263,482	39,081	-0,039	0,025
-262,467	494,201	-0,026	0,045
-261,453	-149,443	-0,115	0,007
-260,438	-117,293	0,089	-0,012
-259,424	-187,724	-0,116	0,001
-258,409	150,134	-0,073	-0,072
-257,395	800,000	-0,013	-0,041
-256,380	-200,000	0,016	0,144
-255,365	-200,000	-0,002	0,175
-254,351	147,387	-0,025	0,024
-253,336	800,000	0,026	-0,081
-252,322	-200,000	0,012	-0,071
-251,307	-200,000	-0,001	0,041
-250,292	800,000	-0,045	-0,091
-249,278	244,895	0,039	0,048
-248,263	416,140	0,061	0,095
-247,249	649,104	0,061	-0,115
-246,234	118,339	-0,173	0,156
-245,219	183,529	-0,007	0,007
-244,205	271,915	-0,064	0,083
-243,190	-61,862	-0,047	-0,014
-242,176	-101,236	0,008	-0,001
-241,161	-200,000	-0,000	-0,072
-240,146	-200,000	-0,008	-0,091
-239,132	-165,427	0,103	-0,003
-238,117	-124,792	-0,217	-0,024
-237,103	105,462	0,079	-0,068
-236,088	800,000	0,063	0,152
-235,073	-21,651	0,073	-0,032
-234,059	-60,847	-0,075	-0,023
-233,044	-200,000	-0,006	0,000
-232,030	-2,274	-0,050	-0,025
-231,015	-193,239	-0,034	-0,000
-230,000	-200,000	-0,015	-0,092
-228,986	-7,970	-0,083	-0,041
-227,971	-200,000	-0,004	-0,041
-226,957	-11,218	0,058	-0,028
-225,942	30,554	-0,050	0,031
-224,927	194,426	0,035	0,039
-223,913	391,179	0,055	0,083
-222,898	354,722	-0,019	0,028
-221,884	23,826	-0,066	0,040
-220,869	-200,000	0,027	0,172
-219,855	164,440	0,103	0,106
-218,840	-200,000	0,008	0,096
-217,825	-200,000	-0,015	0,116
-216,811	-154,828	-0,146	0,007
-215,796	-8,329	-0,051	-0,025
-214,782	-132,526	-0,068	-0,006
-213,767	-200,000	-0,007	0,157
-212,752	-15,697	0,111	0,052
-211,738	41,578	0,054	-0,036
-210,723	-46,443	0,112	0,040
-209,709	-200,000	-0,016	-0,107
-208,694	-8,973	-0,075	0,036
-207,679	-200,000	-0,012	-0,091
-206,665	-42,750	-0,097	-0,036
-205,650	-200,000	0,008	0,065
-204,636	794,160	0,029	-0,058
-203,621	-200,000	0,004	-0,206
-202,606	367,874	0,008	0,011
-201,592	265,699	0,057	0,072
-200,577	-66,780	-0,048	0,014
-199,563	-21,383	0,044	-0,019
-198,548	-34,386	0,142	-0,056
-197,533	33,097	-0,045	0,029
-196,519	-46,191	0,090	0,032
-195,504	119,482	-0,140	0,126
-194,490	-5,064	-0,014	0,007
-193,475	576,773	-0,032	0,057
-192,460	304,295	-0,034	0,046
-191,446	-30,717	0,222	-0,091
-190,431	610,514	-0,059	0,107
-189,417	800,000	-0,035	0,075
-188,402	247,668	-0,062	-0,077
-187,387	-200,000	0,040	-0,183
-186,373	-200,000	-0,068	-0,000
-185,358	4,318	0,032	-0,017
-184,344	-121,090	0,134	0,016
-183,329	23,401	0,088	-0,052
-182,315	800,000	0,065	0,154
-181,300	-55,170	-0,050	-0,016
-180,285	377,993	-0,047	-0,070
-179,271	-120,914	0,024	0,003
-178,256	800,000	-0,019	0,040
-177,242	-144,006	0,043	-0,003
-176,227	-200,000	-0,002	-0,010
-175,212	-37,606	-0,049	0,019
-174,198	278,432	-0,087	-0,113
-173,183	-200,000	0,026	-0,118
-172,169	133,727	-0,065	-0,061
-171,154	101,980	0,036	-0,030
-170,139	-145,886	-0,100	0,006
-169,125	76,706	0,041	-0,032
-168,110	81,301	0,079	0,062
-167,096	-16,658	0,067	0,031
-166,081	-148,387	-0,084	-0,005
-165,066	305,129	-0,011	0,015
-164,052	-39,939	-0,047	0,018
-163,037	-150,190	-0,025	-0,001
-162,023	-149,122	-0,086	0,005
-161,008	-200,000	0,004	-0,039
-159,993	-124,934	-0,055	-0,006
-158,979	-200,000	-0,010	0,051
-157,964	117,300	-0,104	-0,094
-156,950	500,201	0,054	-0,091
-155,935	564,506	0,092	-0,164
-154,920	13,655	-0,108	-0,061
-153,906	-64,702	0,091	0,027
-152,891	-200,000	-0,015	-0,103
-151,877	800,000	0,023	-0,066
-150,862	-200,000	0,018	-0,083
-149,847	-86,751	-0,200	0,044
-148,833	-200,000	-0,036	-0,150
-147,818	-200,000	0,023	-0,164
-146,804	658,335	-0,049	0,092
-145,789	196,624	0,039	0,043
-144,775	453,583	-0,056	-0,091
-143,760	-200,000	0,006	-0,076
-142,745	-83,964	0,067	-0,015
-141,731	-56,932	-0,176	0,056
-140,716	718,949	-0,024	-0,046
-139,702	182,767	-0,060	0,065
-138,687	800,000	0,050	0,110
-137,672	-200,000	-0,011	-0,129
-136,658	-200,000	-0,019	-0,110
-135,643	-50,217	-0,024	-0,008
-134,629	127,225	-0,053	0,049
-133,614	153,038	0,108	-0,108
-132,599	800,000	0,040	-0,101
-131,585	-200,000	0,018	0,068
-130,570	-124,979	-0,066	0,007
-129,556	104,538	-0,097	0,083
-128,541	342,044	-0,100	0,142
-127,526	228,816	0,085	0,101
-126,512	56,704	0,086	0,061
-125,497	52,575	0,059	0,041
-124,483	354,476	0,035	0,051
-123,468	-97,419	0,100	0,019
-122,453	800,000	-0,039	-0,082
-121,439	85,347	-0,043	-0,034
-120,424	496,213	0,057	-0,095
