DTS Sentinel unit serial number:	SN410029Multiplexer serial number:	ORYXHardware model number:	OX2-SRSoftware version number:	ORYX F/W v4,00 Oryx Data Collector v3.7.2.0data status	okinstallation	B4 Nyhavnadifferential loss correction	single-endedforward channel	channel 2reverse channel	N/Adate	2023/12/15time	15:35:13forward acquisition time	300,00reverse acquisition time	0,00gamma	499,1914k internal	0,3153k external	0,3153temperature offset calibration	1,0000default loss term (dB/km)	0,3820temperature slope calibration	1,0000multiplexer offset coefficient	1,0000multiplexer slope coefficient	1,0000fibre end	0,00T internal ref (°C)	16,50T ext. ref 1 (°C)	2,78T ext. ref 2 (°C)	2,91length (m)	temperature (°C)	Stokes	anti-Stokes-744,400	-48,577	0,166	-0,059
-743,385	-148,667	-0,306	0,018
-742,371	0,105	0,070	0,037
-741,356	-52,068	-0,335	0,114
-740,342	-200,000	-0,033	0,122
-739,327	-128,931	-0,243	0,025
-738,312	-200,000	0,009	0,037
-737,298	-139,302	-0,323	0,025
-736,283	-200,000	-0,004	-0,121
-735,269	171,100	-0,134	0,141
-734,254	-102,813	-0,059	0,010
-733,239	-17,528	-0,357	-0,165
-732,225	-84,840	0,127	0,029
-731,210	37,808	-0,054	0,035
-730,196	-164,181	-0,049	0,002
-729,181	-200,000	0,008	0,090
-728,167	800,000	-0,052	-0,115
-727,152	-200,000	0,010	-0,120
-726,137	-34,190	-0,093	-0,037
-725,123	800,000	0,045	-0,128
-724,108	83,810	-0,143	-0,115
-723,094	372,601	-0,085	-0,129
-722,079	800,000	-0,026	-0,062
-721,064	514,736	-0,044	-0,076
-720,050	110,726	-0,066	-0,059
-719,035	-86,507	-0,129	-0,029
-718,021	244,456	-0,074	-0,092
-717,006	-200,000	-0,005	0,018
-715,991	-61,683	-0,168	-0,052
-714,977	-100,660	-0,101	0,018
-713,962	-200,000	0,001	-0,045
-712,948	-200,000	-0,029	0,134
-711,933	748,737	-0,089	0,178
-710,918	685,197	-0,021	0,041
-709,904	-19,361	-0,148	-0,067
-708,889	163,110	-0,093	-0,097
-707,875	-200,000	-0,058	-0,193
-706,860	220,967	0,066	0,078
-705,845	291,319	0,063	0,085
-704,831	-94,771	0,054	0,011
-703,816	79,907	-0,164	-0,130
-702,802	-200,000	-0,009	-0,140
-701,787	140,230	-0,047	0,046
-700,772	-46,896	0,114	-0,041
-699,758	-12,267	-0,061	-0,029
-698,743	-14,914	0,066	0,031
-697,729	-200,000	0,001	-0,055
-696,714	159,879	-0,054	0,055
-695,699	-200,000	-0,007	0,042
-694,685	262,476	-0,011	0,015
-693,670	-90,620	-0,093	-0,020
-692,656	-200,000	-0,004	-0,079
-691,641	212,567	-0,090	-0,105
-690,627	82,405	0,065	-0,052
-689,612	254,952	0,045	-0,057
-688,597	-83,734	0,063	-0,015
-687,583	42,379	-0,085	-0,057
-686,568	-73,281	-0,030	-0,008
-685,554	67,717	-0,074	0,056
-684,539	41,170	0,103	-0,068
-683,524	320,768	-0,081	0,113
-682,510	-27,045	0,075	0,032
-681,495	486,204	-0,029	0,048
-680,481	800,000	-0,025	-0,056
-679,466	632,495	-0,014	-0,027
-678,451	-54,661	-0,071	0,024
-677,437	0,839	0,010	-0,005
-676,422	-200,000	0,006	0,108
-675,408	227,428	0,075	0,090
-674,393	-200,000	-0,037	-0,123
-673,378	115,893	-0,172	-0,155
-672,364	126,575	-0,047	-0,043
-671,349	800,000	-0,023	0,061
-670,335	-200,000	0,013	-0,142
-669,320	10,531	-0,054	0,030
-668,305	2,531	0,046	-0,024
-667,291	540,970	-0,061	0,108
-666,276	127,098	-0,066	0,061
-665,262	254,293	-0,063	-0,080
-664,247	134,407	-0,096	-0,092
-663,232	70,517	0,087	0,067
-662,218	-200,000	0,009	-0,086
-661,203	-93,220	-0,090	-0,018
-660,189	651,903	-0,023	-0,044
-659,174	-95,337	-0,244	0,048
-658,159	-44,596	-0,070	0,026
-657,145	-200,000	-0,009	-0,086
-656,130	800,000	0,040	-0,086
-655,116	273,131	0,016	0,020
-654,101	47,561	0,029	-0,020
-653,086	291,134	0,061	0,082
-652,072	-200,000	0,020	-0,116
-651,057	176,661	-0,023	-0,024
-650,043	3,822	0,096	0,051
-649,028	800,000	-0,051	-0,143
-648,014	418,797	-0,050	0,080
-646,999	-200,000	-0,002	-0,080
-645,984	-83,529	0,052	0,012
-644,970	-94,300	-0,098	0,019
-643,955	-200,000	0,018	-0,066
-642,941	-200,000	-0,005	0,092
-641,926	234,991	0,089	-0,108
-640,911	-74,188	-0,036	-0,009
-639,897	310,461	0,075	-0,104
-638,882	-156,385	-0,059	-0,003
-637,868	800,000	-0,056	0,131
-636,853	279,786	0,045	-0,059
-635,838	-200,000	-0,028	-0,150
-634,824	111,516	-0,100	-0,089
-633,809	-200,000	-0,013	-0,107
-632,795	12,315	0,081	-0,046
-631,780	412,513	-0,029	0,046
-630,765	800,000	0,051	-0,120
-629,751	-167,892	-0,109	-0,003
-628,736	369,806	0,103	-0,154
-627,722	-200,000	-0,016	-0,055
-626,707	-112,917	-0,082	0,012
-625,692	-81,484	0,038	-0,009
-624,678	-200,000	-0,001	0,147
-623,663	-200,000	0,004	0,028
-622,649	713,333	0,023	-0,046
-621,634	79,733	0,065	-0,051
-620,619	-120,027	-0,055	-0,007
-619,605	-123,121	0,126	-0,015
-618,590	512,656	-0,031	0,053
-617,576	421,455	0,064	0,100
-616,561	201,729	0,058	0,066
-615,546	-134,462	-0,121	0,011
-614,532	800,000	-0,024	-0,074
-613,517	800,000	-0,044	-0,119
-612,503	293,353	-0,113	-0,151
-611,488	662,389	-0,059	0,111
-610,474	-84,437	-0,166	-0,038
-609,459	-42,183	0,083	0,031
-608,444	800,000	0,043	-0,095
-607,430	160,296	-0,107	-0,109
-606,415	-52,909	-0,169	0,057
-605,401	101,490	-0,011	0,010
-604,386	6,529	0,120	-0,066
-603,371	610,952	0,034	0,063
-602,357	-200,000	-0,016	0,058
-601,342	442,644	0,015	0,025
-600,328	1,660	-0,111	-0,059
-599,313	160,742	0,146	-0,150
-598,298	560,982	-0,051	-0,091
-597,284	-200,000	0,010	-0,051
-596,269	-200,000	0,019	0,067
-595,255	139,740	-0,041	0,040
-594,240	800,000	0,032	-0,080
-593,225	-71,001	-0,094	0,026
-592,211	69,394	-0,039	-0,030
-591,196	400,589	0,029	0,044
-590,182	356,927	-0,048	-0,070
-589,167	20,542	0,072	-0,043
-588,152	581,038	0,040	-0,072
-587,138	-68,704	-0,068	0,019
-586,123	-200,000	0,003	0,079
-585,109	-200,000	0,008	0,029
-584,094	800,000	0,045	-0,102
-583,079	800,000	0,055	0,142
-582,065	245,234	0,031	-0,039
-581,050	130,273	-0,097	-0,092
-580,036	800,000	0,049	0,107
-579,021	-200,000	-0,006	-0,042
-578,006	454,830	-0,035	0,057
-576,992	-200,000	0,006	0,112
-575,977	-200,000	0,048	0,198
-574,963	-8,813	-0,046	-0,023
-573,948	149,154	-0,044	0,043
-572,934	36,830	-0,037	0,024
-571,919	77,230	0,112	0,087
-570,904	-113,749	0,046	0,007
-569,890	-126,379	0,080	0,009
-568,875	800,000	-0,043	-0,119
-567,861	-200,000	0,015	-0,084
-566,846	81,542	-0,055	-0,043
-565,831	-200,000	0,013	0,123
-564,817	-66,056	0,014	-0,004
-563,802	-200,000	-0,031	-0,116
-562,788	251,388	-0,086	-0,107
-561,773	130,462	-0,038	-0,035
-560,758	-200,000	0,012	0,093
-559,744	-130,027	-0,048	0,005
-558,729	-200,000	0,038	0,140
-557,715	69,071	-0,048	0,036
-556,700	-200,000	-0,005	0,041
-555,685	563,203	0,080	-0,142
-554,671	53,268	-0,100	-0,070
-553,656	-165,653	-0,111	-0,003
-552,642	26,180	0,171	0,104
-551,627	800,000	-0,015	-0,042
-550,612	-82,531	0,084	-0,020
-549,598	800,000	0,022	-0,052
-548,583	-200,000	0,010	-0,112
-547,569	118,879	-0,054	-0,049
-546,554	-102,223	0,133	-0,023
-545,539	356,336	0,026	-0,039
-544,525	97,191	0,035	-0,029
-543,510	634,316	-0,018	-0,034
-542,496	800,000	0,048	-0,117
-541,481	-116,922	-0,038	-0,005
-540,466	-200,000	0,013	-0,079
-539,452	760,550	0,061	-0,121
-538,437	-120,307	0,215	0,026
-537,423	800,000	-0,026	-0,070
-536,408	-200,000	-0,009	0,127
-535,393	185,442	0,046	-0,050
-534,379	-113,561	-0,089	0,013
-533,364	-200,000	-0,001	-0,093
-532,350	-162,715	-0,109	0,004
-531,335	103,959	-0,058	-0,050
-530,321	800,000	0,032	-0,096
-529,306	-115,818	0,057	0,008
-528,291	-122,469	-0,045	0,005
-527,277	800,000	-0,032	0,093
-526,262	-200,000	-0,009	-0,037
-525,248	-170,886	0,111	0,003
-524,233	-83,669	0,138	-0,032
-523,218	-200,000	-0,016	0,085
-522,204	-149,388	0,143	-0,008
-521,189	43,666	-0,124	-0,083
-520,175	118,386	-0,057	-0,051
-519,160	692,619	0,024	0,046
-518,145	91,225	0,036	0,030
-517,131	-48,715	0,154	-0,054
-516,116	-96,578	-0,110	0,021
-515,102	-200,000	-0,006	-0,061
-514,087	-200,000	0,000	-0,083
-513,072	-157,418	-0,122	-0,005
-512,058	-104,299	-0,077	-0,013
-511,043	675,016	-0,093	-0,178
-510,029	800,000	-0,050	0,104
-509,014	-200,000	-0,012	0,093
-507,999	0,095	-0,080	-0,042
-506,985	-200,000	0,003	-0,072
-505,970	-200,000	-0,001	-0,076
-504,956	800,000	-0,033	0,078
-503,941	102,537	-0,051	-0,043
-502,926	-200,000	0,008	-0,144
-501,912	154,537	-0,080	-0,081
-500,897	-200,000	-0,001	0,042
-499,883	130,986	0,115	0,108
-498,868	-200,000	-0,024	-0,152
-497,853	-200,000	0,021	0,073
-496,839	800,000	0,020	-0,054
-495,824	136,707	-0,020	0,019
-494,810	-200,000	0,037	0,121
-493,795	-200,000	0,006	-0,122
-492,781	275,422	0,023	0,029
-491,766	292,735	-0,014	-0,018
-490,751	-200,000	0,021	-0,119
-489,737	-200,000	0,010	0,070
-488,722	800,000	0,013	-0,028
-487,708	-4,356	0,020	0,010
-486,693	800,000	-0,024	-0,061
-485,678	635,852	0,066	-0,123
-484,664	-200,000	0,028	-0,098
-483,649	169,049	0,017	0,018
-482,635	-123,982	-0,030	0,003
-481,620	-18,972	0,177	0,080
-480,605	171,637	-0,043	0,045
-479,591	13,598	0,125	0,071
-478,576	14,851	0,035	0,020
-477,562	-200,000	-0,006	-0,037
-476,547	-65,019	-0,110	0,032
-475,532	-55,290	-0,102	-0,033
-474,518	-200,000	-0,005	-0,050
-473,503	-35,798	-0,029	-0,012
-472,489	163,447	0,103	0,106
-471,474	-200,000	-0,011	0,051
-470,459	-130,146	-0,058	-0,006
-469,445	-200,000	0,002	0,128
-468,430	207,040	-0,076	0,087
-467,416	109,298	-0,135	0,118
-466,401	-52,273	-0,031	-0,010
-465,386	564,876	0,034	-0,061
-464,372	-200,000	-0,006	0,076
-463,357	-200,000	0,005	-0,154
-462,343	340,372	-0,066	-0,095
-461,328	-19,861	-0,056	0,025
-460,313	-53,381	0,151	0,050
-459,299	-200,000	0,005	-0,047
-458,284	185,934	0,115	0,125
-457,270	-63,627	-0,046	0,014
-456,255	-200,000	0,027	0,158
-455,241	627,462	-0,077	0,142
-454,226	177,057	-0,056	0,060
-453,211	-74,707	0,083	0,022
-452,197	800,000	0,054	0,137
-451,182	800,000	-0,019	0,041
-450,168	-200,000	0,001	0,030
-449,153	800,000	0,043	0,102
-448,138	656,109	-0,082	-0,155
-447,124	-200,000	-0,031	-0,109
-446,109	370,623	-0,033	-0,050
-445,095	-200,000	0,011	0,088
-444,080	-200,000	-0,002	-0,140
-443,065	-200,000	0,002	-0,026
-442,051	-94,922	0,039	0,008
-441,036	118,532	0,062	-0,056
-440,022	146,052	-0,084	-0,082
-439,007	-200,000	0,013	0,106
-437,992	-200,000	0,005	-0,043
-436,978	104,130	-0,119	-0,102
-435,963	800,000	0,045	0,109
-434,949	122,875	0,163	-0,149
-433,934	-200,000	-0,019	0,094
-432,919	-26,999	0,034	0,014
-431,905	436,635	0,055	0,087
-430,890	729,591	-0,079	0,155
-429,876	-94,714	-0,113	0,022
-428,861	-142,559	-0,073	-0,005
-427,846	18,863	0,143	0,083
-426,832	800,000	-0,030	0,076
-425,817	800,000	-0,015	0,038
-424,803	-42,888	-0,018	0,007
-423,788	70,882	0,106	0,080
-422,773	800,000	0,026	-0,065
-421,759	152,007	0,113	0,112
-420,744	800,000	0,019	0,044
-419,730	-34,162	-0,089	-0,035
-418,715	-157,752	0,050	-0,002
-417,701	705,465	0,028	0,053
-416,686	156,985	0,053	-0,054
-415,671	-200,000	0,015	0,072
-414,657	-89,209	-0,104	-0,022
-413,642	-200,000	-0,027	0,094
-412,628	8,327	-0,139	-0,076
-411,613	313,133	-0,054	-0,074
-410,598	128,146	0,079	-0,073
-409,584	29,600	0,082	-0,051
-408,569	-200,000	0,005	-0,063
-407,555	-200,000	-0,012	-0,055
-406,540	-59,893	-0,160	-0,050
-405,525	800,000	-0,029	-0,072
-404,511	-198,181	-0,146	-0,001
-403,496	188,724	-0,079	0,086
-402,482	167,342	-0,009	-0,009
-401,467	151,763	0,087	0,086
-400,452	-50,098	0,011	0,004
-399,438	-90,125	-0,037	0,008
-398,423	-200,000	0,006	0,027
-397,409	78,465	-0,035	-0,027
-396,394	-18,746	0,013	0,006
-395,379	-143,474	0,106	0,007
-394,365	-200,000	-0,027	0,143
-393,350	-52,398	0,063	0,021
-392,336	-4,364	0,065	0,033
-391,321	-200,000	-0,017	-0,071
-390,306	721,032	-0,036	-0,069
-389,292	-198,999	0,222	-0,001
-388,277	-200,000	0,001	-0,025
-387,263	-27,852	0,071	0,030
-386,248	-23,469	-0,168	0,073
-385,233	-149,292	0,030	0,002
-384,219	413,051	0,050	-0,077
-383,204	-200,000	-0,010	-0,078
-382,190	723,038	-0,028	-0,055
-381,175	-127,349	-0,039	0,004
-380,160	55,335	-0,014	-0,010
-379,146	-105,392	0,070	0,011
-378,131	-200,000	-0,007	-0,062
-377,117	103,783	-0,153	0,131
-376,102	439,827	0,055	-0,088
-375,088	800,000	-0,012	0,031
-374,073	800,000	-0,026	-0,078
-373,058	-200,000	0,033	0,108
-372,044	-119,806	-0,056	0,007
-371,029	-200,000	-0,011	0,112
-370,015	767,752	0,033	0,065
-369,000	33,151	-0,076	0,048
-367,985	-126,097	-0,103	-0,011
-366,971	-45,139	-0,090	0,033
-365,956	-200,000	-0,004	0,035
-364,942	-200,000	0,036	0,000
-363,927	173,152	0,065	0,068
-362,912	56,783	-0,096	-0,068
-361,898	413,276	0,041	0,064
-360,883	188,449	-0,047	0,052
-359,869	146,886	0,029	-0,028
-358,854	-200,000	0,146	-0,000
-357,839	-200,000	-0,006	-0,053
-356,825	800,000	-0,002	0,004
-355,810	483,373	0,074	0,123
-354,796	-136,653	-0,083	-0,007
-353,781	-148,806	-0,161	0,009
-352,766	298,626	0,087	-0,117
-351,752	-54,453	0,054	-0,018
-350,737	0,743	0,220	0,114
-349,723	-17,842	0,083	-0,038
-348,708	-85,704	0,107	0,024
-347,693	-200,000	0,008	0,038
-346,679	-200,000	0,010	0,035
-345,664	346,684	0,045	-0,064
-344,650	31,163	-0,038	-0,024
-343,635	167,726	0,063	0,065
-342,620	-200,000	-0,009	-0,072
-341,606	-200,000	0,001	0,075
-340,591	-200,000	-0,021	0,101
-339,577	-52,633	0,049	-0,016
-338,562	205,746	-0,023	-0,026
-337,548	78,576	-0,144	0,112
-336,533	-12,870	0,159	0,075
-335,518	-200,000	-0,004	0,018
-334,504	-14,894	0,124	0,058
-333,489	40,296	-0,078	-0,051
-332,475	-5,745	0,088	-0,044
-331,460	185,105	0,010	-0,011
-330,445	-200,000	0,021	0,112
-329,431	-138,926	0,097	-0,008
-328,416	142,824	-0,118	-0,114
-327,402	-200,000	0,004	0,167
-326,387	-85,792	0,088	-0,020
-325,372	613,562	-0,038	-0,069
-324,358	582,545	-0,009	-0,016
-323,343	-7,305	-0,130	0,064
-322,329	14,537	0,089	-0,051
-321,314	-90,139	0,122	0,026
-320,299	-200,000	-0,014	-0,046
-319,285	-42,497	-0,049	-0,018
-318,270	-200,000	-0,009	-0,151
-317,256	322,534	-0,030	-0,041
-316,241	-20,991	-0,019	-0,008
-315,226	-104,575	-0,127	-0,021
-314,212	-200,000	0,015	-0,067
-313,197	800,000	0,041	0,087
-312,183	55,830	0,017	-0,012
-311,168	-150,438	-0,043	-0,002
-310,153	-200,000	0,006	-0,034
-309,139	12,213	-0,026	-0,014
-308,124	609,337	-0,026	-0,047
-307,110	-112,441	-0,075	0,011
-306,095	-200,000	0,026	0,127
-305,080	-135,322	0,118	-0,010
-304,066	-200,000	-0,031	-0,113
-303,051	800,000	0,002	-0,004
-302,037	-87,379	0,028	-0,006
-301,022	-26,075	0,115	0,049
-300,008	-77,789	-0,084	0,021
-298,993	-90,358	-0,102	0,021
-297,978	-110,656	0,058	-0,009
-296,964	626,991	-0,035	-0,064
-295,949	800,000	-0,026	0,079
-294,935	100,479	0,042	-0,036
-293,920	-200,000	0,003	-0,100
-292,905	800,000	-0,052	0,123
-291,891	800,000	-0,056	0,171
-290,876	800,000	0,035	0,095
-289,862	266,908	0,102	0,130
-288,847	-4,211	-0,051	-0,026
-287,832	422,264	-0,033	-0,052
-286,818	714,089	-0,019	-0,036
-285,803	89,725	0,035	-0,028
-284,789	92,240	-0,073	0,060
-283,774	182,211	0,089	0,096
-282,759	7,297	-0,066	0,036
-281,745	314,302	-0,044	-0,060
-280,730	101,749	-0,087	0,073
-279,716	460,598	0,031	-0,051
-278,701	-141,923	0,173	-0,012
-277,686	-200,000	0,003	0,064
-276,672	303,159	-0,021	0,028
-275,657	84,734	0,094	-0,075
-274,643	283,649	0,021	-0,027
-273,628	32,993	0,061	-0,038
-272,613	771,017	0,043	-0,084
-271,599	640,878	0,062	0,115
-270,584	270,615	-0,121	-0,155
-269,570	392,247	0,016	-0,024
-268,555	800,000	-0,031	-0,072
-267,540	800,000	-0,005	-0,017
-266,526	61,356	0,021	0,015
-265,511	74,211	-0,111	0,085
-264,497	17,175	0,103	-0,059
-263,482	11,873	0,078	-0,043
-262,467	800,000	-0,015	-0,038
-261,453	800,000	0,005	-0,014
-260,438	113,746	-0,104	0,092
-259,424	275,832	0,010	-0,012
-258,409	800,000	-0,057	-0,167
-257,395	-56,720	-0,126	0,040
-256,380	-98,608	0,076	0,014
-255,365	211,898	-0,113	0,129
-254,351	-200,000	0,009	0,048
-253,336	-114,091	0,040	-0,006
-252,322	482,566	0,057	-0,094
-251,307	46,513	-0,132	-0,089
-250,292	544,072	-0,067	0,117
-249,278	526,462	0,049	0,083
-248,263	54,564	0,123	0,086
-247,249	-120,713	-0,047	0,006
-246,234	267,411	-0,056	-0,071
-245,219	-168,326	-0,162	-0,004
-244,205	316,945	-0,036	-0,050
-243,190	99,518	0,040	-0,034
-242,176	-106,496	-0,040	-0,006
-241,161	-85,234	-0,110	-0,025
-240,146	-100,674	0,114	-0,020
-239,132	137,804	0,038	0,036
-238,117	58,629	-0,070	0,050
-237,103	-104,255	0,087	0,014
-236,088	-72,045	0,064	0,017
-235,073	0,184	0,067	0,034
-234,059	-115,173	0,165	0,022
-233,044	800,000	0,054	0,146
-232,030	533,888	0,023	-0,039
-231,015	-74,958	-0,071	0,018
-230,000	388,024	-0,022	0,033
-228,986	-115,300	-0,036	-0,005
-227,971	175,504	0,031	-0,032
-226,957	205,648	0,033	0,037
-225,942	800,000	0,040	0,125
-224,927	106,578	0,139	0,119
-223,913	-200,000	0,001	0,096
-222,898	559,024	-0,064	-0,112
-221,884	2,771	-0,026	0,014
-220,869	29,966	0,053	0,033
-219,855	-77,787	0,057	-0,014
-218,840	-8,099	0,070	-0,034
-217,825	535,796	0,087	0,149
-216,811	57,776	-0,117	0,082
-215,796	27,639	-0,123	-0,075
-214,782	-126,697	-0,143	0,015
-213,767	-124,445	0,074	-0,008
-212,752	557,019	0,039	-0,068
-211,738	-200,000	-0,009	0,135
-210,723	296,921	-0,068	-0,091
-209,709	800,000	-0,028	0,085
-208,694	260,222	-0,058	0,073
-207,679	-102,394	-0,047	-0,008
-206,665	82,823	0,045	-0,035
-205,650	-91,204	0,134	-0,028
-204,636	120,605	-0,155	0,139
-203,621	-95,871	-0,050	-0,010
-202,606	-200,000	-0,016	0,081
-201,592	-59,460	-0,062	0,019
-200,577	800,000	-0,054	-0,151
-199,563	-55,802	0,124	0,040
-198,548	73,676	0,076	-0,058
-197,533	-32,731	0,033	-0,013
-196,519	8,906	0,048	0,026
-195,504	-200,000	-0,007	0,136
-194,490	112,279	-0,103	0,090
-193,475	241,634	0,043	-0,052
-192,460	-62,823	-0,013	0,004
-191,446	235,900	-0,040	0,048
-190,431	800,000	0,005	0,012
-189,417	-200,000	0,045	-0,160
-188,402	-200,000	-0,003	-0,009
-187,387	800,000	-0,039	-0,096
-186,373	-36,238	0,110	0,043
-185,358	452,849	0,029	0,046
-184,344	800,000	0,047	-0,138
-183,329	172,011	0,034	-0,035
-182,315	48,252	0,136	0,092
-181,300	111,364	0,015	-0,013
-180,285	800,000	-0,022	0,049
-179,271	-23,054	-0,142	-0,062
-178,256	-200,000	0,027	-0,091
-177,242	11,738	0,056	0,031
-176,227	240,628	-0,100	-0,121
-175,212	-73,914	0,037	-0,010
-174,198	-200,000	-0,019	0,076
-173,183	58,310	-0,059	-0,042
-172,169	169,810	-0,095	0,098
-171,154	800,000	-0,004	0,012
-170,139	365,110	0,105	-0,153
-169,125	290,105	-0,081	0,107
-168,110	767,390	-0,039	0,076
-167,096	-200,000	-0,037	0,135
-166,081	455,124	0,057	0,092
-165,066	17,669	0,077	-0,044
-164,052	388,180	0,056	-0,085
-163,037	-200,000	0,026	-0,218
-162,023	-138,570	-0,055	0,004
-161,008	-177,605	0,040	0,001
-159,993	138,536	-0,075	-0,071
-158,979	45,537	0,042	0,028
-157,964	298,796	0,040	0,054
-156,950	-200,000	-0,022	0,076
-155,935	101,557	-0,049	0,041
-154,920	-200,000	0,012	-0,053
-153,906	800,000	-0,060	0,130
-152,891	427,237	0,038	0,059
-151,877	-134,527	-0,024	0,002
-150,862	-200,000	-0,011	-0,108
-149,847	-122,272	-0,054	-0,006
-148,833	-200,000	0,010	0,039
-147,818	-200,000	0,016	-0,056
-146,804	-103,059	0,050	-0,008
-145,789	52,925	-0,062	-0,043
-144,775	-200,000	-0,085	0,000
-143,760	800,000	-0,027	-0,066
-142,745	-200,000	-0,007	-0,042
-141,731	800,000	-0,059	0,147
-140,716	-121,476	0,124	-0,015
-139,702	-200,000	0,025	0,120
-138,687	89,565	0,077	0,062
-137,672	-105,327	0,029	0,005
-136,658	-67,031	-0,007	0,002
-135,643	41,784	-0,020	-0,013
-134,629	-65,927	0,090	0,026
-133,614	-28,456	0,018	0,007
-132,599	538,592	0,005	-0,008
-131,585	81,928	0,072	-0,056
-130,570	800,000	0,019	0,041
-129,556	31,206	0,060	-0,037
-128,541	-86,709	0,046	0,010
-127,526	-137,615	-0,042	-0,003
-126,512	32,655	-0,040	-0,025
-125,497	800,000	-0,005	0,014
-124,483	100,692	0,104	0,087
-123,468	87,519	-0,114	0,091
-122,453	800,000	-0,068	-0,153
-121,439	-151,608	0,093	-0,005
-120,424	379,307	-0,116	-0,172
