DTS Sentinel unit serial number:	SN410029Multiplexer serial number:	ORYXHardware model number:	OX2-SRSoftware version number:	ORYX F/W v4,00 Oryx Data Collector v3.7.2.0data status	okinstallation	B4 Nyhavnadifferential loss correction	single-endedforward channel	channel 2reverse channel	N/Adate	2023/12/16time	09:20:13forward acquisition time	300,00reverse acquisition time	0,00gamma	499,1914k internal	0,3126k external	0,3126temperature offset calibration	1,0000default loss term (dB/km)	0,3820temperature slope calibration	1,0000multiplexer offset coefficient	1,0000multiplexer slope coefficient	1,0000fibre end	0,00T internal ref (°C)	22,97T ext. ref 1 (°C)	8,80T ext. ref 2 (°C)	8,99length (m)	temperature (°C)	Stokes	anti-Stokes-744,400	339,904	0,075	-0,110
-743,385	-30,741	-0,121	0,051
-742,371	303,548	0,051	0,071
-741,356	-10,790	-0,259	0,127
-740,342	56,493	0,066	-0,047
-739,327	397,077	-0,169	0,264
-738,312	-200,000	0,019	-0,104
-737,298	-114,715	-0,194	-0,027
-736,283	-200,000	0,112	-0,000
-735,269	-23,439	-0,175	0,078
-734,254	800,000	0,028	-0,078
-733,239	-102,255	-0,448	-0,079
-732,225	-200,000	0,040	-0,172
-731,210	-103,326	-0,128	0,022
-730,196	16,642	0,127	-0,074
-729,181	-5,500	-0,066	-0,034
-728,167	111,132	-0,105	-0,094
-727,152	8,379	0,048	0,027
-726,137	-47,551	-0,133	0,048
-725,123	-200,000	-0,036	-0,137
-724,108	459,664	-0,073	-0,121
-723,094	126,978	-0,118	-0,111
-722,079	170,315	-0,084	-0,090
-721,064	14,958	0,079	-0,046
-720,050	-46,894	-0,160	-0,058
-719,035	-200,000	-0,005	-0,077
-718,021	-55,265	-0,079	0,026
-717,006	-140,084	-0,103	0,008
-715,991	77,153	-0,042	-0,034
-714,977	-158,195	0,077	-0,003
-713,962	127,386	-0,021	-0,020
-712,948	800,000	0,042	-0,118
-711,933	-2,528	-0,145	0,075
-710,918	-77,269	-0,056	0,014
-709,904	-118,569	-0,017	0,002
-708,889	20,350	-0,115	-0,069
-707,875	-55,227	-0,244	-0,081
-706,860	85,277	0,024	-0,020
-705,845	246,020	-0,093	0,116
-704,831	516,216	0,056	0,098
-703,816	348,331	-0,035	0,052
-702,802	551,710	-0,088	0,157
-701,787	192,745	0,050	-0,056
-700,772	43,918	0,089	0,060
-699,758	135,867	-0,116	-0,112
-698,743	-157,376	-0,190	0,008
-697,729	-16,947	0,067	-0,031
-696,714	-2,788	0,015	0,008
-695,699	800,000	0,027	-0,076
-694,685	800,000	-0,018	-0,050
-693,670	247,250	-0,044	-0,056
-692,656	681,686	0,046	0,090
-691,641	-112,809	0,077	-0,011
-690,627	-200,000	-0,006	-0,134
-689,612	89,136	0,074	-0,061
-688,597	-104,969	-0,102	0,017
-687,583	800,000	-0,013	-0,038
-686,568	800,000	-0,033	-0,098
-685,554	-200,000	-0,003	-0,026
-684,539	179,360	-0,030	0,033
-683,524	-77,447	0,041	-0,011
-682,510	-76,400	0,095	0,025
-681,495	800,000	0,040	0,093
-680,481	-98,585	-0,083	-0,016
-679,466	800,000	0,009	0,028
-678,451	-5,764	-0,038	-0,019
-677,437	-34,668	-0,065	0,026
-676,422	-200,000	0,044	-0,163
-675,408	1,558	0,044	-0,023
-674,393	-200,000	0,008	0,038
-673,378	291,526	-0,052	-0,071
-672,364	-200,000	-0,010	-0,139
-671,349	70,919	-0,041	0,032
-670,335	42,520	-0,133	0,090
-669,320	-137,388	-0,049	-0,004
-668,305	800,000	-0,014	-0,041
-667,291	-200,000	0,005	0,019
-666,276	-200,000	-0,020	0,078
-665,262	800,000	-0,049	-0,103
-664,247	-200,000	-0,020	0,095
-663,232	-115,672	0,097	0,013
-662,218	-161,697	0,173	-0,006
-661,203	-200,000	0,004	-0,016
-660,189	-124,752	-0,140	0,016
-659,174	-200,000	-0,011	-0,047
-658,159	359,310	-0,069	-0,103
-657,145	228,440	-0,061	0,074
-656,130	-200,000	-0,048	-0,179
-655,116	-55,018	0,095	0,032
-654,101	258,060	-0,057	0,073
-653,086	-36,529	-0,140	-0,056
-652,072	-200,000	-0,047	-0,215
-651,057	50,448	0,048	-0,033
-650,043	-200,000	-0,014	-0,153
-649,028	43,462	0,128	0,087
-648,014	800,000	0,065	-0,136
-646,999	322,289	0,054	0,076
-645,984	427,487	-0,074	0,118
-644,970	800,000	-0,017	-0,046
-643,955	638,195	0,021	0,039
-642,941	520,477	-0,110	-0,193
-641,926	7,043	-0,007	-0,004
-640,911	-200,000	-0,007	-0,065
-639,897	-200,000	-0,005	0,067
-638,882	-200,000	-0,007	0,045
-637,868	685,415	-0,027	0,052
-636,853	-70,155	-0,049	0,014
-635,838	-38,294	-0,055	-0,022
-634,824	-57,700	0,053	0,017
-633,809	800,000	0,033	0,086
-632,795	-146,116	0,119	-0,008
-631,780	-200,000	-0,007	0,082
-630,765	284,985	0,010	-0,013
-629,751	-200,000	-0,025	-0,114
-628,736	-200,000	-0,006	-0,035
-627,722	-200,000	0,012	-0,141
-626,707	671,557	-0,031	0,060
-625,692	-145,588	-0,042	-0,003
-624,678	-140,953	-0,031	0,002
-623,663	-200,000	-0,010	-0,121
-622,649	353,636	-0,079	-0,116
-621,634	72,915	0,047	0,037
-620,619	81,866	-0,045	-0,036
-619,605	-200,000	0,026	-0,087
-618,590	236,703	-0,044	0,054
-617,576	112,941	0,101	-0,091
-616,561	-52,261	0,091	-0,031
-615,546	-119,829	-0,158	-0,020
-614,532	-33,311	0,011	-0,004
-613,517	-200,000	-0,022	-0,116
-612,503	-200,000	0,015	-0,063
-611,488	-200,000	-0,012	0,075
-610,474	303,990	0,048	-0,066
-609,459	-75,777	-0,148	-0,039
-608,444	331,254	-0,014	0,020
-607,430	54,522	-0,079	-0,056
-606,415	124,417	-0,156	-0,145
-605,401	-200,000	-0,012	-0,050
-604,386	6,426	-0,062	0,034
-603,371	493,653	0,018	-0,031
-602,357	-93,802	0,087	-0,018
-601,342	-164,088	-0,223	0,008
-600,328	800,000	-0,026	0,079
-599,313	145,931	-0,157	-0,156
-598,298	-200,000	-0,037	-0,122
-597,284	62,155	0,118	-0,087
-596,269	-74,327	-0,099	0,026
-595,255	-57,110	0,034	-0,011
-594,240	3,534	0,018	-0,010
-593,225	183,096	0,004	-0,004
-592,211	-200,000	-0,020	-0,149
-591,196	-185,859	0,116	0,001
-590,182	60,477	-0,023	-0,017
-589,167	-200,000	0,007	0,075
-588,152	0,318	-0,104	0,055
-587,138	-138,883	-0,029	0,002
-586,123	-126,627	-0,143	0,015
-585,109	347,350	0,045	-0,066
-584,094	-200,000	0,001	-0,151
-583,079	-131,494	0,135	0,013
-582,065	-137,037	0,040	-0,003
-581,050	53,205	0,064	0,046
-580,036	-32,645	0,098	0,040
-579,021	150,542	-0,067	-0,067
-578,006	-114,947	-0,087	-0,012
-576,992	-200,000	-0,013	0,117
-575,977	49,862	0,104	-0,072
-574,963	-67,751	-0,014	0,004
-573,948	-40,180	0,081	-0,031
-572,934	177,755	-0,063	-0,068
-571,919	97,460	0,042	-0,035
-570,904	-127,521	-0,067	0,007
-569,890	536,946	-0,029	-0,051
-568,875	-79,305	-0,039	0,010
-567,861	800,000	0,030	0,074
-566,846	800,000	0,040	-0,115
-565,831	-200,000	-0,004	0,110
-564,817	-32,008	0,084	-0,035
-563,802	-121,944	-0,139	0,017
-562,788	-150,246	-0,089	-0,005
-561,773	-135,079	0,064	0,006
-560,758	800,000	0,057	0,148
-559,744	-79,894	-0,032	0,008
-558,729	51,790	-0,085	-0,060
-557,715	800,000	-0,017	-0,040
-556,700	61,660	-0,025	-0,018
-555,685	40,045	-0,066	0,044
-554,671	217,683	0,058	-0,068
-553,656	121,319	-0,017	-0,016
-552,642	-104,753	0,106	0,018
-551,627	104,070	-0,045	0,039
-550,612	369,810	-0,043	-0,064
-549,598	-106,436	-0,112	0,018
-548,583	-62,503	0,030	0,009
-547,569	-97,812	0,057	0,011
-546,554	-25,484	0,182	0,079
-545,539	-19,421	-0,103	0,047
-544,525	-114,774	0,086	0,012
-543,510	-101,068	-0,012	-0,002
-542,496	547,541	0,052	-0,092
-541,481	356,524	0,049	-0,073
-540,466	233,042	0,055	0,067
-539,452	-58,091	0,068	0,022
-538,437	-200,000	0,012	0,143
-537,423	-89,262	0,124	-0,027
-536,408	-93,389	0,077	-0,016
-535,393	800,000	0,058	-0,171
-534,379	-200,000	0,033	-0,165
-533,364	-22,703	0,060	-0,027
-532,350	26,554	-0,061	-0,037
-531,335	800,000	0,043	-0,124
-530,321	-200,000	-0,022	0,112
-529,306	60,981	-0,098	0,072
-528,291	-13,649	-0,043	-0,021
-527,277	-200,000	0,003	-0,198
-526,262	800,000	-0,032	-0,102
-525,248	647,191	-0,032	-0,060
-524,233	-153,532	-0,081	0,004
-523,218	-62,293	0,094	-0,029
-522,204	-200,000	0,010	-0,037
-521,189	-200,000	-0,002	-0,056
-520,175	174,039	-0,044	-0,047
-519,160	-94,347	0,123	0,025
-518,145	-200,000	0,025	0,116
-517,131	-15,003	0,117	-0,055
-516,116	-103,265	0,046	0,008
-515,102	-169,388	0,087	0,002
-514,087	800,000	0,032	-0,082
-513,072	77,354	-0,070	-0,055
-512,058	37,314	-0,042	-0,028
-511,043	-139,253	0,098	0,008
-510,029	-141,628	0,142	-0,010
-509,014	197,037	-0,027	-0,030
-507,999	144,740	-0,028	0,028
-506,985	204,812	-0,030	0,034
-505,970	-87,867	-0,145	-0,032
-504,956	-27,561	0,059	-0,025
-503,941	-200,000	0,002	-0,082
-502,926	17,431	-0,077	0,045
-501,912	90,542	0,112	0,093
-500,897	406,829	0,015	0,024
-499,883	-163,783	-0,142	0,005
-498,868	-57,729	-0,064	-0,021
-497,853	-4,812	-0,064	0,032
-496,839	40,961	0,075	0,050
-495,824	-200,000	0,004	0,054
-494,810	-8,984	0,095	0,047
-493,795	-200,000	0,013	-0,107
-492,781	-200,000	0,001	-0,053
-491,766	249,040	-0,083	-0,104
-490,751	43,605	0,020	0,013
-489,737	-200,000	-0,020	-0,068
-488,722	143,762	-0,100	-0,098
-487,708	-30,184	0,040	0,017
-486,693	-200,000	0,003	0,043
-485,678	-200,000	-0,004	0,018
-484,664	91,561	0,018	-0,015
-483,649	333,900	0,025	-0,035
-482,635	-160,066	0,146	0,006
-481,620	-200,000	-0,002	-0,045
-480,605	-200,000	-0,001	0,062
-479,591	-200,000	0,008	0,076
-478,576	-200,000	0,010	-0,073
-477,562	-200,000	-0,001	0,054
-476,547	791,088	-0,021	-0,044
-475,532	-6,613	-0,054	0,027
-474,518	-200,000	0,010	0,115
-473,503	-177,792	-0,034	-0,001
-472,489	-83,756	0,137	0,032
-471,474	800,000	-0,021	0,057
-470,459	-93,526	0,040	-0,008
-469,445	93,727	-0,109	-0,091
-468,430	-200,000	-0,020	-0,100
-467,416	-167,880	0,086	-0,002
-466,401	-57,625	0,034	-0,011
-465,386	17,393	0,065	-0,038
-464,372	-200,000	-0,017	0,166
-463,357	-88,908	0,018	0,004
-462,343	-118,605	-0,176	0,023
-461,328	800,000	-0,030	-0,087
-460,313	-51,303	0,128	0,044
-459,299	360,940	0,043	-0,063
-458,284	132,284	0,053	-0,050
-457,270	3,920	-0,053	0,029
-456,255	-200,000	0,013	-0,074
-455,241	-93,957	-0,104	0,021
-454,226	-65,767	0,033	-0,010
-453,211	-200,000	0,002	-0,053
-452,197	800,000	-0,027	-0,079
-451,182	-110,585	0,124	-0,019
-450,168	800,000	-0,038	0,088
-449,153	-100,309	0,132	0,024
-448,138	-71,432	0,060	0,016
-447,124	142,899	0,075	0,073
-446,109	-200,000	0,019	-0,063
-445,095	761,711	0,062	0,125
-444,080	31,752	-0,099	0,062
-443,065	418,658	0,015	0,024
-442,051	-200,000	-0,008	-0,062
-441,036	-200,000	0,019	-0,063
-440,022	387,470	0,019	-0,029
-439,007	-200,000	0,001	0,032
-437,992	129,692	0,138	0,130
-436,978	4,806	0,121	0,065
-435,963	-200,000	-0,012	0,056
-434,949	-200,000	-0,015	0,076
-433,934	170,625	0,043	0,045
-432,919	-200,000	0,020	0,072
-431,905	800,000	0,052	-0,150
-430,890	508,900	0,019	-0,032
-429,876	239,796	0,077	0,095
-428,861	-200,000	-0,006	0,119
-427,846	-41,862	0,037	-0,014
-426,832	800,000	-0,039	0,103
-425,817	-200,000	0,030	0,149
-424,803	-200,000	0,001	0,095
-423,788	800,000	0,036	-0,116
-422,773	356,434	-0,037	0,054
-421,759	-200,000	-0,025	0,105
-420,744	98,154	0,059	-0,050
-419,730	-122,377	-0,078	0,009
-418,715	-200,000	-0,038	-0,124
-417,701	-83,319	0,068	-0,016
-416,686	22,827	-0,054	0,032
-415,671	-129,393	0,193	0,019
-414,657	91,654	-0,048	-0,039
-413,642	126,560	-0,040	-0,037
-412,628	75,599	-0,131	0,101
-411,613	-200,000	-0,010	0,069
-410,598	242,972	0,078	-0,096
-409,584	51,825	-0,083	0,058
-408,569	-200,000	0,002	-0,052
-407,555	-200,000	0,017	-0,181
-406,540	50,226	-0,016	-0,011
-405,525	64,080	-0,070	-0,052
-404,511	616,944	0,033	-0,061
-403,496	224,428	-0,076	-0,091
-402,482	-0,432	0,136	-0,071
-401,467	80,477	0,035	0,028
-400,452	675,611	-0,067	0,128
-399,438	287,945	-0,062	0,083
-398,423	-95,681	0,084	0,016
-397,409	432,586	0,042	-0,067
-396,394	73,917	0,022	-0,017
-395,379	17,410	-0,115	-0,067
-394,365	-200,000	0,011	0,070
-393,350	242,258	0,081	0,099
-392,336	-73,121	0,087	0,023
-391,321	-97,288	-0,105	-0,020
-390,306	15,743	-0,035	-0,020
-389,292	51,570	-0,056	-0,039
-388,277	-87,323	0,114	0,025
-387,263	-200,000	0,010	0,048
-386,248	235,228	-0,077	0,093
-385,233	17,997	-0,109	0,064
-384,219	-200,000	-0,002	0,032
-383,204	418,838	0,037	-0,058
-382,190	-179,630	-0,170	-0,003
-381,175	-200,000	0,028	0,181
-380,160	414,445	0,107	0,169
-379,146	197,870	0,064	0,072
-378,131	248,113	0,053	0,066
-377,117	-106,667	0,145	0,023
-376,102	-200,000	-0,001	0,059
-375,088	215,642	-0,033	-0,038
-374,073	-200,000	0,005	0,103
-373,058	800,000	0,037	0,105
-372,044	337,913	-0,059	0,085
-371,029	-160,180	0,026	0,001
-370,015	-200,000	0,000	-0,080
-369,000	165,503	-0,024	-0,024
-367,985	-200,000	-0,038	-0,169
-366,971	-140,653	0,096	-0,007
-365,956	-200,000	0,016	-0,136
-364,942	-200,000	-0,001	-0,013
-363,927	-200,000	-0,007	0,039
-362,912	21,147	-0,009	-0,005
-361,898	800,000	-0,060	-0,132
-360,883	325,087	0,016	-0,023
-359,869	800,000	0,044	0,110
-358,854	28,631	0,053	0,033
-357,839	61,946	0,088	0,064
-356,825	800,000	0,058	0,137
-355,810	800,000	0,050	0,115
-354,796	28,284	-0,026	0,016
-353,781	279,208	-0,044	0,057
-352,766	258,777	0,020	-0,025
-351,752	-200,000	-0,003	-0,088
-350,737	-4,287	0,113	0,057
-349,723	85,461	0,061	0,049
-348,708	-200,000	-0,018	0,069
-347,693	-9,717	-0,073	-0,035
-346,679	-173,634	-0,034	-0,001
-345,664	-27,507	-0,037	0,016
-344,650	797,937	0,005	-0,009
-343,635	-137,520	0,077	0,006
-342,620	-69,036	0,085	-0,024
-341,606	77,797	-0,038	-0,030
-340,591	155,730	-0,075	-0,076
-339,577	-8,932	0,045	0,022
-338,562	-29,815	-0,092	0,038
-337,548	800,000	0,027	-0,069
-336,533	205,524	-0,116	-0,132
-335,518	-58,143	0,085	0,027
-334,504	76,931	-0,136	0,106
-333,489	484,649	0,030	0,051
-332,475	420,059	0,011	-0,017
-331,460	195,019	-0,124	0,138
-330,445	800,000	0,016	-0,035
-329,431	-200,000	-0,028	-0,112
-328,416	343,745	0,071	0,102
-327,402	-32,490	0,055	0,023
-326,387	-200,000	0,004	0,163
-325,372	310,597	-0,038	0,052
-324,358	222,463	-0,070	-0,083
-323,343	800,000	0,015	-0,044
-322,329	-82,754	0,143	0,034
-321,314	508,264	0,091	0,155
-320,299	79,413	-0,038	0,030
-319,285	-200,000	-0,002	0,099
-318,270	101,198	0,051	-0,044
-317,256	800,000	0,014	-0,035
-316,241	147,678	-0,023	-0,022
-315,226	-200,000	0,033	-0,111
-314,212	405,869	0,071	0,110
-313,197	-200,000	0,021	0,178
-312,183	366,924	-0,140	0,207
-311,168	-93,590	-0,062	0,012
-310,153	800,000	-0,028	-0,062
-309,139	-200,000	0,006	-0,107
-308,124	197,636	-0,067	0,075
-307,110	-200,000	0,001	-0,049
-306,095	244,410	0,028	-0,034
-305,080	-200,000	-0,004	0,089
-304,066	-200,000	-0,011	-0,060
-303,051	-104,138	-0,067	-0,011
-302,037	119,457	-0,026	-0,024
-301,022	110,349	-0,051	-0,045
-300,008	-200,000	0,019	0,078
-298,993	-23,014	-0,129	0,057
-297,978	-200,000	0,018	0,175
-296,964	6,157	0,083	0,045
-295,949	92,038	-0,112	-0,093
-294,935	-187,732	-0,063	-0,001
-293,920	-200,000	0,027	-0,115
-292,905	14,993	0,066	-0,038
-291,891	271,503	-0,048	-0,062
-290,876	9,243	0,060	0,033
-289,862	800,000	0,031	0,076
-288,847	659,979	0,027	-0,052
-287,832	40,925	-0,050	-0,033
-286,818	-168,759	0,186	-0,005
-285,803	117,881	0,063	-0,057
-284,789	-200,000	-0,034	0,118
-283,774	-141,152	-0,087	0,006
-282,759	-200,000	-0,033	-0,142
-281,745	229,515	-0,125	-0,150
-280,730	79,755	-0,064	-0,051
-279,716	58,030	0,015	0,010
-278,701	-200,000	-0,025	0,112
-277,686	449,736	-0,038	-0,062
-276,672	617,697	-0,047	0,086
-275,657	262,713	-0,058	0,074
-274,643	123,663	-0,130	-0,119
-273,628	478,378	-0,058	-0,096
-272,613	800,000	-0,017	-0,038
-271,599	22,207	0,074	0,044
-270,584	605,710	0,127	0,231
-269,570	-92,275	-0,117	0,024
-268,555	-113,649	0,059	-0,008
-267,540	-44,303	-0,046	-0,017
-266,526	-135,246	-0,061	-0,005
-265,511	95,935	0,076	-0,063
-264,497	-131,890	0,032	0,003
-263,482	800,000	-0,006	0,017
-262,467	28,587	0,035	0,022
-261,453	800,000	-0,034	-0,089
-260,438	630,160	-0,039	-0,072
-259,424	203,382	-0,043	0,049
-258,409	351,877	0,069	-0,100
-257,395	-105,380	-0,176	-0,029
-256,380	800,000	0,032	0,073
-255,365	-22,648	0,038	0,017
-254,351	800,000	-0,007	0,019
-253,336	-200,000	-0,004	-0,078
-252,322	21,594	-0,029	0,017
-251,307	-200,000	0,012	-0,120
-250,292	-200,000	-0,008	-0,045
-249,278	22,192	0,087	0,052
-248,263	44,778	0,065	0,044
-247,249	239,410	0,056	-0,068
-246,234	217,874	-0,072	-0,084
-245,219	-71,749	-0,158	-0,043
-244,205	200,789	-0,064	0,072
-243,190	89,103	-0,116	0,094
-242,176	-138,940	0,090	0,007
-241,161	170,940	0,056	0,059
-240,146	-200,000	-0,020	-0,137
-239,132	5,283	-0,113	-0,061
-238,117	-157,460	0,202	-0,009
-237,103	-200,000	-0,018	0,066
-236,088	-139,428	-0,114	-0,009
-235,073	800,000	0,053	0,112
-234,059	-200,000	-0,030	0,291
-233,044	63,796	0,051	0,037
-232,030	142,613	0,038	0,037
-231,015	366,567	0,048	-0,071
-230,000	-200,000	-0,001	-0,065
-228,986	-51,815	0,027	-0,009
-227,971	1,770	0,047	-0,024
-226,957	800,000	0,075	0,153
-225,942	-86,217	-0,142	0,032
-224,927	-200,000	0,008	0,041
-223,913	177,007	0,016	-0,017
-222,898	-200,000	0,016	-0,169
-221,884	84,331	-0,043	-0,035
-220,869	-200,000	0,020	-0,063
-219,855	30,805	-0,075	0,047
-218,840	-63,241	-0,152	0,045
-217,825	-30,745	0,107	0,044
-216,811	-136,534	-0,098	0,008
-215,796	285,488	0,090	-0,118
-214,782	212,291	0,055	-0,063
-213,767	-200,000	0,023	-0,084
-212,752	800,000	-0,008	-0,018
-211,738	253,099	0,037	0,047
-210,723	-116,757	0,136	-0,018
-209,709	-200,000	-0,006	-0,119
-208,694	243,590	-0,104	-0,128
-207,679	-200,000	-0,008	0,050
-206,665	116,039	0,042	-0,038
-205,650	233,154	-0,088	-0,105
-204,636	785,217	0,037	0,074
-203,621	65,126	0,092	0,068
-202,606	371,030	-0,046	0,068
-201,592	-200,000	-0,010	-0,068
-200,577	250,180	0,050	-0,062
-199,563	-39,610	-0,134	0,051
-198,548	705,534	0,064	0,124
-197,533	-21,904	0,040	-0,018
-196,519	62,626	0,069	0,050
-195,504	-125,630	-0,119	-0,013
-194,490	-71,533	-0,052	0,014
-193,475	259,797	-0,051	-0,064
-192,460	292,217	0,066	0,087
-191,446	311,984	-0,093	0,128
-190,431	367,097	0,064	0,095
-189,417	178,679	-0,045	0,048
-188,402	-200,000	0,006	0,033
-187,387	-200,000	0,013	-0,103
-186,373	14,444	-0,173	0,098
-185,358	-122,400	0,104	-0,012
-184,344	-200,000	-0,021	0,133
-183,329	181,099	0,058	0,062
-182,315	-200,000	0,042	-0,138
-181,300	-200,000	-0,021	-0,073
-180,285	-200,000	-0,025	0,103
-179,271	-101,538	-0,056	0,010
-178,256	-28,381	0,035	-0,015
-177,242	18,251	0,072	-0,042
-176,227	66,867	0,061	0,045
-175,212	-50,211	-0,029	0,010
-174,198	-168,240	-0,124	-0,003
-173,183	-67,036	-0,020	0,006
-172,169	-200,000	0,000	-0,113
-171,154	-124,882	-0,089	0,010
-170,139	-200,000	0,039	0,134
-169,125	-157,659	0,049	-0,002
-168,110	-48,584	0,098	-0,034
-167,096	40,275	-0,054	-0,036
-166,081	174,761	-0,083	0,088
-165,066	-60,109	0,004	-0,001
-164,052	-200,000	0,038	-0,141
-163,037	64,839	0,129	0,095
-162,023	800,000	0,050	0,150
-161,008	800,000	0,040	0,105
-159,993	-200,000	-0,009	0,121
-158,979	-163,669	-0,226	-0,008
-157,964	-200,000	-0,001	0,062
-156,950	800,000	0,072	-0,189
-155,935	229,045	-0,049	-0,058
-154,920	800,000	0,008	0,025
-153,906	-118,844	-0,076	-0,010
-152,891	-111,280	-0,126	-0,019
-151,877	-100,433	-0,095	0,017
-150,862	-200,000	0,005	0,052
-149,847	-200,000	-0,008	0,026
-148,833	-83,230	-0,010	-0,002
-147,818	-200,000	0,016	-0,056
-146,804	800,000	0,018	-0,037
-145,789	800,000	-0,018	0,057
-144,775	213,462	-0,039	-0,045
-143,760	542,004	-0,078	-0,136
-142,745	-200,000	-0,038	0,134
-141,731	375,141	-0,084	0,124
-140,716	-44,187	0,212	-0,077
-139,702	765,998	0,021	-0,042
-138,687	77,108	-0,077	0,059
-137,672	208,191	-0,150	0,171
-136,658	-114,610	-0,038	-0,005
-135,643	32,541	-0,130	-0,081
-134,629	58,643	-0,045	0,032
-133,614	29,988	0,109	-0,067
-132,599	531,805	0,038	0,066
-131,585	-75,701	-0,044	0,011
-130,570	-200,000	0,025	0,102
-129,556	-200,000	-0,052	-0,168
-128,541	407,274	-0,035	-0,055
-127,526	78,004	0,137	-0,106
-126,512	109,643	-0,056	-0,049
-125,497	-183,454	0,152	0,002
-124,483	186,893	-0,066	-0,072
-123,468	638,527	0,035	0,064
-122,453	22,654	-0,079	0,047
-121,439	517,752	-0,059	-0,101
-120,424	-64,411	0,087	0,026
