DTS Sentinel unit serial number:	SN410029Multiplexer serial number:	ORYXHardware model number:	OX2-SRSoftware version number:	ORYX F/W v4,00 Oryx Data Collector v3.7.2.0data status	okinstallation	B4 Nyhavnadifferential loss correction	single-endedforward channel	channel 2reverse channel	N/Adate	2023/12/19time	10:40:13forward acquisition time	300,00reverse acquisition time	0,00gamma	499,1914k internal	0,3127k external	0,3127temperature offset calibration	1,0000default loss term (dB/km)	0,3820temperature slope calibration	1,0000multiplexer offset coefficient	1,0000multiplexer slope coefficient	1,0000fibre end	0,00T internal ref (°C)	20,01T ext. ref 1 (°C)	4,73T ext. ref 2 (°C)	4,69length (m)	temperature (°C)	Stokes	anti-Stokes-744,400	315,136	0,051	-0,072
-743,385	-171,651	-0,244	-0,006
-742,371	800,000	0,061	0,161
-741,356	7,913	-0,186	0,103
-740,342	-57,551	0,111	0,036
-739,327	41,766	-0,148	0,100
-738,312	-200,000	-0,014	0,060
-737,298	24,370	-0,347	0,213
-736,283	-95,752	-0,051	0,010
-735,269	-25,860	-0,180	-0,079
-734,254	800,000	0,069	-0,160
-733,239	-1,535	-0,412	-0,215
-732,225	-9,996	0,113	-0,056
-731,210	-4,544	0,059	0,030
-730,196	633,124	-0,042	0,080
-729,181	238,971	-0,071	0,088
-728,167	77,089	-0,025	0,019
-727,152	-121,974	-0,129	-0,016
-726,137	121,501	0,138	-0,128
-725,123	-19,704	-0,146	0,067
-724,108	47,789	-0,055	-0,038
-723,094	94,958	-0,090	-0,076
-722,079	800,000	-0,017	-0,041
-721,064	175,107	-0,088	0,094
-720,050	-135,692	0,080	0,007
-719,035	-200,000	-0,001	-0,099
-718,021	43,955	-0,082	0,056
-717,006	-99,441	-0,158	-0,029
-715,991	-166,667	-0,051	-0,002
-714,977	-110,592	-0,119	-0,018
-713,962	-200,000	-0,002	-0,045
-712,948	-87,051	0,049	-0,011
-711,933	57,708	0,022	0,016
-710,918	474,744	-0,013	0,022
-709,904	7,513	-0,041	-0,023
-708,889	-200,000	0,003	-0,059
-707,875	-200,000	0,025	-0,161
-706,860	-155,076	0,008	0,000
-705,845	770,168	0,055	-0,113
-704,831	652,735	-0,066	0,126
-703,816	292,694	0,041	0,056
-702,802	-99,982	-0,056	-0,010
-701,787	218,499	0,147	-0,175
-700,772	-200,000	0,023	-0,177
-699,758	7,341	-0,123	-0,068
-698,743	800,000	0,097	0,204
-697,729	643,254	-0,025	0,047
-696,714	800,000	0,043	-0,107
-695,699	-200,000	0,021	0,081
-694,685	99,144	-0,038	0,033
-693,670	-33,394	-0,068	-0,028
-692,656	-116,682	-0,066	-0,009
-691,641	800,000	0,052	-0,115
-690,627	800,000	0,033	-0,074
-689,612	65,956	0,114	-0,086
-688,597	291,907	0,004	-0,006
-687,583	-200,000	0,009	-0,126
-686,568	88,819	-0,118	-0,097
-685,554	-200,000	0,006	-0,046
-684,539	-200,000	-0,052	0,199
-683,524	13,538	0,074	0,042
-682,510	-37,058	-0,087	0,035
-681,495	-120,631	0,075	-0,009
-680,481	64,438	-0,069	-0,052
-679,466	-29,124	-0,062	-0,026
-678,451	-129,020	-0,115	-0,012
-677,437	79,388	-0,062	0,049
-676,422	-200,000	0,002	-0,120
-675,408	76,890	-0,089	0,070
-674,393	-69,506	0,030	0,009
-673,378	1,469	-0,144	-0,077
-672,364	-15,142	0,080	-0,038
-671,349	28,782	-0,095	-0,059
-670,335	-83,667	-0,136	0,032
-669,320	800,000	0,033	-0,071
-668,305	-68,745	-0,037	-0,010
-667,291	2,704	-0,019	0,010
-666,276	94,347	0,085	-0,071
-665,262	-78,528	-0,070	0,018
-664,247	800,000	-0,045	0,093
-663,232	800,000	0,065	0,197
-662,218	172,572	0,101	-0,108
-661,203	284,963	-0,059	0,078
-660,189	384,375	0,048	0,073
-659,174	-146,825	0,114	0,007
-658,159	800,000	0,022	-0,051
-657,145	-200,000	-0,012	-0,104
-656,130	-25,533	-0,093	-0,040
-655,116	-200,000	0,023	0,108
-654,101	-130,942	0,146	0,014
-653,086	800,000	-0,037	0,106
-652,072	663,330	-0,037	0,071
-651,057	-130,997	-0,074	0,007
-650,043	-200,000	0,014	0,073
-649,028	-119,818	0,073	-0,009
-648,014	-200,000	-0,037	0,192
-646,999	219,950	0,023	0,028
-645,984	111,945	0,165	-0,148
-644,970	360,228	-0,082	-0,122
-643,955	48,178	-0,159	-0,110
-642,941	-134,110	0,040	-0,004
-641,926	-130,739	-0,005	0,001
-640,911	800,000	0,027	0,076
-639,897	-200,000	-0,004	-0,034
-638,882	-160,345	0,019	0,001
-637,868	800,000	-0,044	-0,096
-636,853	518,008	-0,079	-0,137
-635,838	-66,678	-0,055	0,016
-634,824	247,438	-0,037	0,046
-633,809	-118,936	-0,030	-0,004
-632,795	-20,929	0,111	0,050
-631,780	-200,000	-0,012	-0,081
-630,765	375,167	0,093	-0,142
-629,751	-200,000	-0,034	-0,174
-628,736	-200,000	-0,005	-0,018
-627,722	-8,346	0,084	-0,042
-626,707	-200,000	-0,007	-0,025
-625,692	34,525	-0,077	0,050
-624,678	-200,000	-0,005	0,072
-623,663	102,007	-0,090	-0,078
-622,649	162,411	-0,040	-0,041
-621,634	-200,000	0,012	0,048
-620,619	800,000	0,025	-0,057
-619,605	800,000	0,017	-0,035
-618,590	-34,551	0,056	-0,023
-617,576	-128,872	0,140	0,014
-616,561	307,656	-0,075	0,104
-615,546	-139,657	0,076	0,006
-614,532	-200,000	0,016	-0,092
-613,517	-200,000	0,020	-0,155
-612,503	-92,029	0,028	-0,006
-611,488	-200,000	0,001	-0,042
-610,474	-155,871	0,026	-0,001
-609,459	-96,829	0,020	0,004
-608,444	-41,256	-0,066	-0,025
-607,430	-129,377	-0,167	-0,017
-606,415	-171,187	0,047	0,001
-605,401	-101,652	-0,165	0,029
-604,386	-125,358	-0,134	-0,015
-603,371	443,788	-0,043	0,070
-602,357	191,209	-0,038	0,042
-601,342	-33,815	-0,103	-0,042
-600,328	28,330	0,043	-0,027
-599,313	-200,000	-0,012	0,112
-598,298	-109,058	0,177	-0,028
-597,284	-132,242	0,046	-0,004
-596,269	800,000	0,038	0,097
-595,255	438,217	-0,075	0,122
-594,240	229,327	-0,024	-0,029
-593,225	-48,014	-0,123	0,044
-592,211	113,744	0,108	-0,097
-591,196	85,875	-0,069	0,056
-590,182	-65,133	-0,050	0,015
-589,167	-200,000	0,020	0,084
-588,152	240,606	0,056	-0,069
-587,138	272,149	0,054	-0,071
-586,123	-45,888	-0,097	0,035
-585,109	533,280	-0,036	0,063
-584,094	-185,562	-0,027	0,000
-583,079	-200,000	0,049	0,179
-582,065	-200,000	-0,005	0,210
-581,050	12,606	0,095	0,054
-580,036	182,470	-0,047	-0,051
-579,021	369,750	-0,056	-0,085
-578,006	218,579	-0,076	-0,090
-576,992	643,152	-0,043	0,082
-575,977	-88,187	0,064	0,014
-574,963	-66,208	0,062	0,018
-573,948	-67,602	-0,108	0,031
-572,934	199,064	-0,025	0,028
-571,919	-8,411	-0,060	0,030
-570,904	268,379	-0,086	-0,112
-569,890	584,191	-0,031	-0,056
-568,875	121,953	-0,057	0,052
-567,861	-48,904	0,010	-0,004
-566,846	749,487	0,059	0,118
-565,831	2,580	0,038	0,020
-564,817	-70,917	-0,090	-0,025
-563,802	-67,853	0,080	-0,023
-562,788	22,125	-0,057	0,034
-561,773	800,000	0,011	0,035
-560,758	-57,801	0,084	0,027
-559,744	147,985	0,048	-0,048
-558,729	-47,451	0,097	0,035
-557,715	11,279	-0,047	-0,027
-556,700	-50,337	0,151	-0,052
-555,685	-72,394	-0,134	-0,036
-554,671	800,000	-0,006	0,017
-553,656	800,000	-0,015	0,031
-552,642	-200,000	0,005	0,050
-551,627	-15,814	-0,054	-0,025
-550,612	800,000	0,021	-0,055
-549,598	800,000	-0,073	-0,207
-548,583	-48,099	-0,180	0,064
-547,569	800,000	0,019	-0,057
-546,554	29,629	0,059	0,037
-545,539	-200,000	0,005	0,123
-544,525	-200,000	-0,011	0,051
-543,510	76,288	-0,059	-0,046
-542,496	192,500	0,040	-0,045
-541,481	-169,887	-0,051	-0,001
-540,466	800,000	0,032	0,104
-539,452	86,508	-0,100	-0,082
-538,437	-200,000	-0,040	0,182
-537,423	74,097	0,055	0,043
-536,408	161,429	-0,017	-0,017
-535,393	99,340	-0,091	0,077
-534,379	-110,284	-0,094	0,014
-533,364	-200,000	-0,016	-0,053
-532,350	330,036	0,068	0,097
-531,335	477,849	0,035	0,059
-530,321	-189,268	0,043	-0,000
-529,306	800,000	-0,033	-0,075
-528,291	22,863	-0,039	-0,024
-527,277	-200,000	-0,002	0,044
-526,262	166,977	0,055	0,058
-525,248	-200,000	0,046	0,174
-524,233	800,000	0,043	-0,089
-523,218	6,779	0,153	0,084
-522,204	-83,184	-0,208	-0,049
-521,189	-46,161	-0,137	0,050
-520,175	277,042	0,062	-0,081
-519,160	61,860	-0,050	-0,037
-518,145	-200,000	0,006	-0,021
-517,131	491,329	0,017	-0,029
-516,116	-113,322	-0,010	0,001
-515,102	38,840	0,111	0,073
-514,087	-200,000	0,035	0,156
-513,072	-83,591	-0,189	-0,044
-512,058	-15,825	-0,064	0,030
-511,043	-146,051	0,202	-0,013
-510,029	-13,197	0,062	-0,030
-509,014	437,229	-0,031	0,049
-507,999	800,000	-0,033	0,090
-506,985	209,199	-0,115	0,133
-505,970	245,690	-0,051	-0,064
-504,956	-200,000	-0,014	-0,134
-503,941	458,273	-0,054	0,088
-502,926	800,000	0,050	-0,150
-501,912	568,577	-0,056	0,100
-500,897	-24,942	-0,035	0,015
-499,883	-200,000	0,010	-0,049
-498,868	-192,612	-0,005	0,000
-497,853	41,928	-0,148	-0,099
-496,839	180,065	0,037	-0,040
-495,824	-131,034	-0,119	-0,012
-494,810	226,147	-0,062	0,075
-493,795	-39,032	0,030	0,012
-492,781	-200,000	-0,025	0,120
-491,766	287,211	0,027	-0,036
-490,751	5,736	-0,121	0,066
-489,737	276,786	-0,063	0,082
-488,722	9,472	0,080	-0,044
-487,708	-91,467	0,041	0,009
-486,693	607,589	0,051	0,095
-485,678	129,283	0,016	-0,015
-484,664	800,000	0,019	-0,055
-483,649	800,000	-0,026	0,055
-482,635	-200,000	-0,004	-0,020
-481,620	-200,000	0,006	0,071
-480,605	77,799	0,024	-0,019
-479,591	-84,215	0,062	0,014
-478,576	71,165	-0,074	0,057
-477,562	-200,000	0,001	0,072
-476,547	-111,244	-0,061	0,009
-475,532	-200,000	-0,002	-0,136
-474,518	348,435	-0,035	-0,051
-473,503	-54,011	-0,040	-0,013
-472,489	403,763	0,122	0,189
-471,474	53,827	-0,056	0,039
-470,459	-200,000	-0,014	-0,100
-469,445	800,000	-0,066	-0,180
-468,430	105,310	-0,077	-0,067
-467,416	167,635	0,047	0,049
-466,401	-200,000	0,000	-0,019
-465,386	-200,000	0,000	0,009
-464,372	545,071	0,071	0,125
-463,357	-200,000	0,028	-0,099
-462,343	-200,000	0,003	0,011
-461,328	-187,127	0,084	0,001
-460,313	-39,378	-0,070	0,027
-459,299	-75,500	0,039	0,010
-458,284	225,811	-0,040	-0,047
-457,270	-200,000	0,003	0,030
-456,255	-40,816	0,033	-0,012
-455,241	94,741	-0,046	-0,039
-454,226	67,391	-0,044	-0,033
-453,211	302,974	0,066	-0,090
-452,197	-200,000	0,044	0,145
-451,182	-200,000	0,013	0,167
-450,168	-78,934	-0,052	0,013
-449,153	-126,131	-0,145	0,016
-448,138	343,148	-0,070	-0,102
-447,124	252,619	-0,060	0,076
-446,109	-30,293	-0,075	0,031
-445,095	-31,432	0,068	0,028
-444,080	800,000	-0,043	-0,099
-443,065	-74,268	-0,153	0,040
-442,051	-200,000	-0,004	0,021
-441,036	59,697	0,134	-0,097
-440,022	-200,000	0,027	-0,114
-439,007	688,100	0,021	-0,041
-437,992	116,238	0,129	0,116
-436,978	-11,803	-0,049	-0,024
-435,963	-200,000	0,009	-0,122
-434,949	553,183	-0,050	0,088
-433,934	-200,000	0,011	0,045
-432,919	-200,000	-0,063	-0,246
-431,905	-200,000	-0,005	-0,158
-430,890	-28,661	0,059	0,025
-429,876	552,283	0,026	0,047
-428,861	561,050	-0,086	-0,153
-427,846	-200,000	-0,002	-0,072
-426,832	-123,299	-0,026	0,003
-425,817	266,377	0,091	-0,117
-424,803	-97,271	0,034	0,006
-423,788	-200,000	0,012	-0,055
-422,773	28,686	0,061	0,038
-421,759	-200,000	-0,027	0,102
-420,744	-43,609	-0,062	0,023
-419,730	-200,000	-0,021	0,074
-418,715	67,452	-0,136	0,102
-417,701	-200,000	0,023	-0,155
-416,686	341,111	-0,032	0,046
-415,671	-137,902	0,041	0,003
-414,657	-150,074	-0,134	0,008
-413,642	1,570	-0,030	-0,016
-412,628	-200,000	0,015	0,098
-411,613	423,587	-0,051	0,081
-410,598	800,000	-0,019	-0,057
-409,584	800,000	-0,006	-0,015
-408,569	800,000	0,037	0,085
-407,555	140,660	-0,075	-0,073
-406,540	-6,933	0,024	-0,012
-405,525	429,289	-0,034	-0,054
-404,511	-200,000	-0,032	-0,157
-403,496	216,305	0,098	0,114
-402,482	-8,822	0,102	0,050
-401,467	100,816	-0,074	0,063
-400,452	-35,869	-0,066	-0,026
-399,438	547,243	0,098	-0,172
-398,423	164,320	-0,077	0,079
-397,409	476,936	-0,094	-0,157
-396,394	124,697	-0,041	-0,038
-395,379	800,000	0,013	-0,042
-394,365	-57,857	-0,132	0,042
-393,350	73,558	0,036	0,028
-392,336	162,757	0,092	0,095
-391,321	-52,052	0,055	0,019
-390,306	-200,000	0,013	-0,129
-389,292	47,997	-0,114	0,078
-388,277	-200,000	-0,001	-0,168
-387,263	-86,918	-0,069	-0,015
-386,248	-200,000	0,014	0,121
-385,233	56,429	-0,026	0,018
-384,219	-101,873	0,145	-0,026
-383,204	-114,904	-0,079	0,011
-382,190	18,079	-0,198	-0,116
-381,175	489,765	0,032	-0,053
-380,160	-129,062	0,146	-0,015
-379,146	800,000	-0,059	-0,166
-378,131	-200,000	0,013	-0,087
-377,117	800,000	0,013	0,028
-376,102	-4,217	0,067	-0,034
-375,088	67,013	0,062	0,046
-374,073	-5,057	0,088	0,044
-373,058	-200,000	0,024	0,082
-372,044	-200,000	0,009	0,083
-371,029	137,233	-0,040	0,038
-370,015	-200,000	-0,036	-0,143
-369,000	30,169	-0,105	-0,065
-367,985	-200,000	-0,006	-0,121
-366,971	800,000	0,006	0,013
-365,956	19,530	0,055	0,032
-364,942	77,859	-0,097	0,075
-363,927	-200,000	-0,016	0,057
-362,912	-200,000	0,021	0,097
-361,898	-192,489	-0,075	0,001
-360,883	93,587	-0,094	-0,078
-359,869	-200,000	0,015	0,056
-358,854	-200,000	0,007	0,074
-357,839	800,000	0,024	0,061
-356,825	-200,000	-0,006	0,129
-355,810	131,694	0,042	0,040
-354,796	-200,000	-0,011	-0,071
-353,781	505,480	-0,054	-0,092
-352,766	800,000	0,028	-0,079
-351,752	-200,000	0,006	-0,034
-350,737	800,000	0,045	0,129
-349,723	113,029	-0,021	-0,019
-348,708	268,943	0,037	0,047
-347,693	-94,387	0,026	-0,005
-346,679	13,112	0,074	0,042
-345,664	800,000	0,049	-0,127
-344,650	-200,000	-0,020	-0,164
-343,635	-77,591	0,062	-0,016
-342,620	-200,000	-0,035	0,177
-341,606	-137,146	0,091	-0,007
-340,591	800,000	0,015	-0,041
-339,577	-200,000	-0,005	-0,149
-338,562	81,259	0,022	0,017
-337,548	-200,000	-0,004	-0,030
-336,533	-200,000	0,002	0,033
-335,518	800,000	0,048	0,102
-334,504	-119,590	-0,093	0,012
-333,489	528,681	-0,032	0,056
-332,475	251,764	0,075	-0,093
-331,460	-200,000	0,049	-0,210
-330,445	800,000	-0,041	-0,105
-329,431	249,448	0,079	-0,098
-328,416	153,515	-0,152	0,152
-327,402	-140,083	0,178	-0,014
-326,387	-200,000	0,014	0,050
-325,372	642,165	0,021	0,039
-324,358	-27,737	-0,095	-0,040
-323,343	-46,876	0,030	-0,011
-322,329	-200,000	-0,015	0,090
-321,314	-200,000	0,007	-0,036
-320,299	-61,716	-0,156	-0,047
-319,285	-140,282	0,108	0,008
-318,270	-200,000	0,027	0,167
-317,256	-3,435	0,006	-0,003
-316,241	-200,000	0,028	-0,141
-315,226	524,546	0,050	-0,087
-314,212	542,708	-0,069	-0,121
-313,197	-200,000	0,029	0,115
-312,183	-105,750	0,070	0,012
-311,168	-62,428	0,067	-0,020
-310,153	-133,420	-0,155	-0,014
-309,139	533,264	-0,033	-0,058
-308,124	580,237	-0,044	-0,079
-307,110	237,926	0,039	0,047
-306,095	-200,000	0,005	0,017
-305,080	-42,590	-0,148	0,055
-304,066	800,000	0,023	-0,069
-303,051	-200,000	-0,011	-0,092
-302,037	800,000	0,049	-0,110
-301,022	293,187	-0,058	0,078
-300,008	-100,601	-0,108	0,019
-298,993	-110,915	-0,034	-0,005
-297,978	31,611	0,060	0,038
-296,964	-21,722	-0,062	0,027
-295,949	800,000	-0,003	-0,006
-294,935	190,873	-0,056	0,062
-293,920	274,765	-0,015	0,019
-292,905	90,634	0,100	-0,082
-291,891	77,713	0,104	0,081
-290,876	572,269	-0,027	0,049
-289,862	-131,499	0,190	-0,018
-288,847	-139,368	0,130	-0,010
-287,832	458,562	-0,100	0,164
-286,818	258,478	0,089	0,113
-285,803	248,829	0,059	0,073
-284,789	7,419	0,198	0,108
-283,774	-135,616	-0,144	-0,012
-282,759	-200,000	-0,029	0,167
-281,745	246,253	0,042	-0,052
-280,730	75,352	0,085	-0,065
-279,716	-200,000	0,000	0,010
-278,701	-85,893	0,105	-0,024
-277,686	-168,199	0,114	-0,003
-276,672	800,000	-0,018	-0,037
-275,657	59,309	0,039	0,028
-274,643	-106,879	0,067	-0,011
-273,628	-200,000	-0,017	-0,076
-272,613	269,926	0,042	0,055
-271,599	-72,538	-0,028	-0,007
-270,584	-200,000	0,017	0,107
-269,570	-116,319	-0,035	-0,005
-268,555	153,650	-0,033	0,033
-267,540	87,220	-0,068	0,055
-266,526	-200,000	-0,024	-0,231
-265,511	-159,611	-0,043	0,002
-264,497	800,000	-0,049	0,115
-263,482	-45,020	0,183	0,066
-262,467	-200,000	0,004	-0,061
-261,453	-1,539	-0,061	-0,031
-260,438	-42,040	-0,121	0,045
-259,424	20,183	0,227	0,133
-258,409	-45,474	-0,109	-0,039
-257,395	-10,100	0,065	-0,031
-256,380	-200,000	0,021	0,095
-255,365	-151,952	0,024	0,001
-254,351	800,000	-0,009	-0,022
-253,336	267,868	-0,033	-0,042
-252,322	-19,470	-0,046	-0,021
-251,307	-200,000	-0,056	0,000
-250,292	-55,384	-0,199	0,065
-249,278	481,073	0,092	0,154
-248,263	800,000	0,031	0,072
-247,249	-40,573	0,177	0,067
-246,234	-124,699	-0,176	-0,020
-245,219	-200,000	-0,007	-0,030
-244,205	-2,257	-0,057	0,029
-243,190	119,287	-0,118	-0,106
-242,176	-71,077	0,169	0,046
-241,161	159,351	0,126	-0,128
-240,146	-200,000	0,024	0,099
-239,132	-200,000	-0,018	0,066
-238,117	800,000	-0,015	0,036
-237,103	800,000	0,011	-0,028
-236,088	291,741	0,074	0,099
-235,073	-138,563	0,020	0,002
-234,059	-200,000	-0,017	0,072
-233,044	800,000	-0,011	-0,034
-232,030	55,239	0,039	-0,028
-231,015	-198,880	-0,131	0,001
-230,000	39,239	0,117	-0,076
-228,986	220,595	0,081	0,095
-227,971	-200,000	-0,021	0,151
-226,957	431,375	0,043	0,068
-225,942	-200,000	0,003	-0,215
-224,927	-53,807	0,037	-0,012
-223,913	-68,071	-0,100	-0,028
-222,898	25,277	-0,084	-0,051
-221,884	-42,259	-0,090	0,034
-220,869	134,259	0,083	0,078
-219,855	109,238	-0,041	0,036
-218,840	483,015	0,005	-0,009
-217,825	787,105	0,056	-0,113
-216,811	-127,323	-0,114	0,012
-215,796	-33,529	-0,022	0,009
-214,782	800,000	0,055	-0,138
-213,767	-200,000	0,015	-0,106
-212,752	-116,374	0,096	0,013
-211,738	-62,993	-0,074	-0,022
-210,723	-24,573	0,104	0,045
-209,709	-63,364	0,057	0,017
-208,694	-200,000	0,005	0,020
-207,679	204,504	-0,035	-0,040
-206,665	800,000	0,020	0,046
-205,650	-67,480	0,062	0,018
-204,636	-57,504	-0,111	-0,035
-203,621	-200,000	0,009	0,174
-202,606	-3,805	-0,063	-0,032
-201,592	800,000	0,039	-0,089
-200,577	-116,511	-0,095	-0,013
-199,563	65,200	0,132	-0,097
-198,548	167,818	0,046	-0,048
-197,533	-131,007	0,047	-0,004
-196,519	800,000	0,017	0,052
-195,504	-200,000	0,003	0,074
-194,490	-200,000	-0,010	-0,105
-193,475	-84,349	-0,063	0,014
-192,460	-200,000	0,031	-0,104
-191,446	-61,712	-0,042	-0,013
-190,431	-114,102	0,114	0,016
-189,417	-96,277	0,044	0,008
-188,402	460,268	-0,015	0,024
-187,387	-45,670	0,043	-0,016
-186,373	95,313	0,044	0,037
-185,358	-200,000	-0,000	-0,004
-184,344	-159,488	0,161	-0,006
-183,329	111,685	0,147	-0,130
-182,315	-200,000	0,000	-0,111
-181,300	377,933	-0,115	-0,171
-180,285	800,000	0,057	-0,121
-179,271	104,862	0,042	-0,036
-178,256	800,000	-0,031	-0,064
-177,242	-76,325	0,088	-0,022
-176,227	285,843	0,038	-0,049
-175,212	800,000	-0,008	0,019
-174,198	-200,000	0,022	0,125
-173,183	800,000	0,023	-0,057
-172,169	10,030	-0,096	0,053
-171,154	115,419	-0,078	-0,069
-170,139	-200,000	0,003	-0,053
-169,125	-200,000	-0,016	0,070
-168,110	153,876	0,116	0,116
-167,096	67,633	0,108	-0,080
-166,081	-61,050	-0,110	0,034
-165,066	719,132	0,034	0,067
-164,052	-64,525	0,067	-0,020
-163,037	26,635	0,104	0,063
-162,023	395,374	0,036	0,055
-161,008	-177,524	0,021	-0,000
-159,993	800,000	0,014	0,029
-158,979	-55,377	0,127	-0,041
-157,964	-200,000	-0,017	0,144
-156,950	-9,345	-0,080	-0,039
-155,935	-76,733	0,215	0,054
-154,920	-155,869	0,084	-0,004
-153,906	223,496	0,131	0,153
-152,891	800,000	0,031	0,088
-151,877	765,078	0,039	0,077
-150,862	146,343	-0,022	-0,022
-149,847	-161,275	0,036	-0,001
-148,833	-200,000	0,022	0,106
-147,818	187,959	0,037	-0,040
-146,804	280,272	0,134	-0,174
-145,789	-38,266	-0,169	0,065
-144,775	-200,000	0,006	-0,158
-143,760	-200,000	-0,013	-0,045
-142,745	-100,242	-0,114	0,020
-141,731	-12,147	-0,042	-0,020
-140,716	736,037	0,075	-0,146
-139,702	-88,941	0,161	0,034
-138,687	-200,000	0,000	0,152
-137,672	-200,000	0,022	-0,085
-136,658	-28,663	-0,147	-0,061
-135,643	7,812	0,083	-0,045
-134,629	32,831	-0,062	-0,039
-133,614	-200,000	-0,009	-0,037
-132,599	-200,000	0,016	0,054
-131,585	246,764	0,070	0,085
-130,570	13,335	-0,069	0,039
-129,556	-23,697	-0,087	-0,038
-128,541	130,217	-0,079	-0,074
-127,526	-155,630	-0,043	-0,002
-126,512	194,963	0,069	0,076
-125,497	-200,000	0,000	-0,076
-124,483	-200,000	-0,003	0,031
-123,468	-119,029	0,084	-0,011
-122,453	71,822	0,132	0,099
-121,439	800,000	-0,064	-0,172
-120,424	800,000	0,039	-0,081
-119,410	30,082	0,033	0,021
