DTS Sentinel unit serial number:	SN410029Multiplexer serial number:	ORYXHardware model number:	OX2-SRSoftware version number:	ORYX F/W v4,00 Oryx Data Collector v3.7.2.0data status	okinstallation	B4 Nyhavnadifferential loss correction	single-endedforward channel	channel 2reverse channel	N/Adate	2023/12/15time	22:35:13forward acquisition time	300,00reverse acquisition time	0,00gamma	499,1914k internal	0,3131k external	0,3131temperature offset calibration	1,0000default loss term (dB/km)	0,3820temperature slope calibration	1,0000multiplexer offset coefficient	1,0000multiplexer slope coefficient	1,0000fibre end	0,00T internal ref (°C)	21,41T ext. ref 1 (°C)	6,66T ext. ref 2 (°C)	6,82length (m)	temperature (°C)	Stokes	anti-Stokes-744,400	278,359	-0,037	0,049
-743,385	-38,811	-0,238	0,093
-742,371	-80,012	0,148	-0,037
-741,356	-75,799	-0,149	-0,039
-740,342	-19,551	0,101	0,046
-739,327	-141,171	-0,243	-0,018
-738,312	-117,740	-0,045	0,006
-737,298	96,161	-0,215	0,182
-736,283	437,553	0,033	0,053
-735,269	51,024	-0,189	0,133
-734,254	461,996	0,030	0,050
-733,239	-110,961	-0,407	-0,062
-732,225	-200,000	0,006	-0,073
-731,210	537,611	0,100	0,177
-730,196	-12,487	-0,071	0,035
-729,181	800,000	-0,034	0,076
-728,167	-200,000	-0,030	-0,102
-727,152	587,781	-0,016	-0,029
-726,137	17,642	-0,200	-0,118
-725,123	-63,514	-0,117	-0,036
-724,108	-119,070	-0,190	-0,024
-723,094	376,703	-0,097	-0,148
-722,079	3,855	0,054	-0,029
-721,064	188,619	0,040	0,044
-720,050	-62,743	-0,132	-0,040
-719,035	54,418	-0,049	-0,035
-718,021	150,418	-0,048	0,048
-717,006	-96,225	-0,078	0,015
-715,991	-67,816	-0,037	-0,011
-714,977	398,600	0,033	-0,051
-713,962	800,000	-0,042	-0,129
-712,948	-147,475	-0,072	-0,004
-711,933	-200,000	-0,034	-0,114
-710,918	47,953	0,103	-0,071
-709,904	-77,727	-0,101	-0,026
-708,889	224,182	-0,106	0,128
-707,875	672,630	-0,083	-0,160
-706,860	-2,878	-0,074	0,039
-705,845	-134,330	0,096	0,009
-704,831	43,535	-0,222	0,151
-703,816	-54,904	-0,070	0,023
-702,802	-200,000	0,007	0,093
-701,787	200,235	-0,070	-0,080
-700,772	-53,551	-0,078	-0,026
-699,758	444,684	0,060	-0,098
-698,743	54,361	0,086	-0,061
-697,729	82,936	-0,073	0,059
-696,714	48,422	-0,068	-0,047
-695,699	-37,859	0,063	-0,025
-694,685	163,231	-0,059	0,061
-693,670	-20,262	-0,097	-0,044
-692,656	-195,260	0,034	0,000
-691,641	-150,063	-0,112	-0,006
-690,627	-200,000	0,012	0,166
-689,612	-200,000	0,006	0,055
-688,597	-66,337	0,053	0,016
-687,583	-40,569	-0,087	-0,033
-686,568	362,503	0,104	0,155
-685,554	-200,000	-0,032	0,119
-684,539	-200,000	0,017	0,127
-683,524	-200,000	0,005	0,125
-682,510	-62,197	0,033	-0,010
-681,495	-60,765	-0,042	-0,013
-680,481	177,298	-0,036	-0,039
-679,466	-25,969	0,037	-0,016
-678,451	-124,902	-0,019	-0,002
-677,437	-61,318	0,019	0,006
-676,422	-166,816	0,049	0,001
-675,408	-103,098	0,005	-0,001
-674,393	-128,150	-0,037	0,004
-673,378	151,331	-0,151	-0,153
-672,364	-38,930	-0,127	0,049
-671,349	240,139	0,081	0,100
-670,335	-4,905	-0,063	-0,032
-669,320	-46,295	0,159	-0,058
-668,305	204,291	0,102	0,118
-667,291	28,697	-0,116	-0,073
-666,276	-122,037	-0,085	-0,010
-665,262	-200,000	0,028	-0,124
-664,247	-108,549	0,103	0,016
-663,232	167,764	-0,105	-0,110
-662,218	-150,492	0,198	-0,011
-661,203	-200,000	0,018	-0,101
-660,189	44,614	-0,110	0,075
-659,174	102,342	0,070	-0,061
-658,159	5,297	-0,086	0,047
-657,145	-95,351	-0,151	-0,030
-656,130	-16,642	0,024	0,011
-655,116	35,700	-0,012	-0,008
-654,101	44,926	-0,043	0,030
-653,086	53,223	0,049	-0,035
-652,072	-109,655	0,066	0,010
-651,057	128,762	0,071	-0,067
-650,043	-200,000	-0,002	0,024
-649,028	87,380	0,058	-0,048
-648,014	160,338	0,014	0,015
-646,999	161,875	0,112	0,117
-645,984	-200,000	-0,010	0,067
-644,970	103,279	-0,011	-0,010
-643,955	-200,000	0,010	-0,041
-642,941	-100,744	-0,115	-0,021
-641,926	-58,719	0,137	-0,044
-640,911	58,227	-0,034	0,025
-639,897	171,654	0,090	0,095
-638,882	309,829	0,070	0,098
-637,868	-40,416	-0,066	-0,025
-636,853	11,443	-0,086	-0,049
-635,838	-87,784	0,082	-0,018
-634,824	89,512	0,092	-0,076
-633,809	800,000	-0,027	-0,071
-632,795	-200,000	-0,008	-0,081
-631,780	6,971	-0,078	-0,043
-630,765	183,077	0,054	-0,059
-629,751	-144,873	0,179	-0,012
-628,736	800,000	-0,034	-0,082
-627,722	-142,561	0,074	0,005
-626,707	100,922	0,022	0,019
-625,692	46,789	0,106	-0,073
-624,678	-123,135	-0,051	0,006
-623,663	-139,293	-0,174	-0,014
-622,649	-24,709	-0,038	-0,017
-621,634	106,502	0,031	-0,027
-620,619	-200,000	-0,007	-0,031
-619,605	23,175	-0,084	-0,051
-618,590	40,794	-0,047	-0,031
-617,576	-200,000	-0,009	-0,062
-616,561	139,654	-0,094	-0,091
-615,546	-200,000	0,003	-0,014
-614,532	-71,966	-0,044	0,012
-613,517	800,000	0,037	-0,080
-612,503	106,357	-0,074	0,065
-611,488	300,839	0,106	-0,145
-610,474	340,812	-0,091	0,132
-609,459	-26,634	0,088	0,038
-608,444	9,163	-0,084	-0,047
-607,430	85,030	-0,023	-0,019
-606,415	161,267	0,024	0,025
-605,401	240,081	-0,063	-0,078
-604,386	384,135	0,055	-0,084
-603,371	481,810	-0,085	0,144
-602,357	1,514	0,151	0,080
-601,342	-72,356	0,182	0,049
-600,328	-200,000	-0,021	-0,093
-599,313	-200,000	-0,005	0,033
-598,298	102,081	-0,029	-0,025
-597,284	-101,738	0,137	-0,024
-596,269	800,000	0,043	0,113
-595,255	19,052	-0,035	0,021
-594,240	544,153	0,056	0,099
-593,225	27,403	-0,106	-0,065
-592,211	43,094	0,026	-0,017
-591,196	-137,386	0,076	-0,006
-590,182	81,783	0,048	0,038
-589,167	800,000	-0,036	-0,081
-588,152	237,546	-0,094	-0,115
-587,138	93,840	-0,093	-0,078
-586,123	706,624	-0,089	-0,175
-585,109	452,722	0,019	-0,031
-584,094	-200,000	-0,033	-0,193
-583,079	800,000	0,025	0,066
-582,065	-118,191	0,038	0,005
-581,050	287,740	0,110	0,147
-580,036	0,416	-0,042	0,022
-579,021	-55,953	-0,081	-0,027
-578,006	800,000	-0,040	-0,093
-576,992	-200,000	0,013	-0,090
-575,977	267,717	0,078	0,101
-574,963	800,000	0,041	0,108
-573,948	158,184	0,042	0,043
-572,934	-200,000	0,011	0,077
-571,919	185,551	-0,019	-0,021
-570,904	118,297	-0,086	0,079
-569,890	-108,614	-0,054	0,008
-568,875	142,447	0,067	-0,066
-567,861	800,000	0,074	0,155
-566,846	185,304	-0,032	-0,035
-565,831	-200,000	-0,011	0,138
-564,817	82,473	-0,046	-0,037
-563,802	27,182	-0,067	-0,041
-562,788	-70,487	0,008	-0,002
-561,773	47,001	-0,037	-0,025
-560,758	465,697	-0,087	0,144
-559,744	-105,318	-0,075	-0,012
-558,729	210,954	0,034	-0,040
-557,715	-117,255	-0,079	-0,010
-556,700	800,000	-0,017	0,045
-555,685	-200,000	-0,000	-0,135
-554,671	184,419	0,103	-0,113
-553,656	800,000	0,040	0,083
-552,642	381,309	-0,078	0,119
-551,627	-200,000	0,031	0,156
-550,612	57,860	0,074	-0,054
-549,598	-14,469	0,110	-0,052
-548,583	171,704	-0,067	-0,071
-547,569	401,374	0,038	0,059
-546,554	-200,000	0,038	0,153
-545,539	-200,000	-0,015	-0,093
-544,525	-166,332	-0,049	0,001
-543,510	1,043	0,070	0,037
-542,496	130,164	-0,019	-0,018
-541,481	494,118	-0,056	-0,095
-540,466	304,443	0,011	0,016
-539,452	-89,426	0,189	0,041
-538,437	297,656	0,100	-0,136
-537,423	72,085	0,063	-0,048
-536,408	-159,295	-0,113	-0,005
-535,393	-200,000	0,005	-0,135
-534,379	266,543	-0,097	-0,126
-533,364	-102,826	-0,200	-0,035
-532,350	188,262	0,099	0,110
-531,335	449,733	0,019	-0,030
-530,321	-31,732	0,094	-0,039
-529,306	800,000	0,044	0,110
-528,291	-72,208	-0,183	-0,050
-527,277	235,321	0,075	-0,091
-526,262	-200,000	0,031	-0,117
-525,248	-75,474	0,061	-0,016
-524,233	-200,000	-0,023	0,166
-523,218	-200,000	0,013	0,077
-522,204	122,740	0,109	0,101
-521,189	-92,201	-0,145	0,030
-520,175	800,000	-0,046	-0,107
-519,160	-200,000	-0,003	-0,134
-518,145	244,229	-0,033	-0,040
-517,131	-200,000	0,002	0,076
-516,116	-74,800	0,070	-0,019
-515,102	-94,879	-0,080	0,016
-514,087	-44,692	0,188	-0,069
-513,072	221,808	-0,108	-0,128
-512,058	800,000	-0,087	0,178
-511,043	-200,000	-0,045	0,159
-510,029	-95,236	-0,068	0,013
-509,014	-200,000	0,014	0,090
-507,999	-29,509	0,092	0,039
-506,985	258,150	-0,033	0,042
-505,970	-200,000	0,015	-0,058
-504,956	-127,214	0,112	0,012
-503,941	254,229	0,030	-0,038
-502,926	-200,000	-0,035	-0,160
-501,912	-108,321	-0,048	0,008
-500,897	-94,195	0,004	-0,001
-499,883	385,224	0,055	-0,084
-498,868	800,000	0,060	0,150
-497,853	800,000	0,011	-0,035
-496,839	-200,000	0,002	0,054
-495,824	-200,000	0,009	0,080
-494,810	-8,380	-0,165	0,081
-493,795	-0,787	-0,037	-0,019
-492,781	-63,224	0,051	0,015
-491,766	-200,000	0,009	0,087
-490,751	159,084	0,048	0,049
-489,737	-109,794	-0,029	0,004
-488,722	800,000	-0,061	0,179
-487,708	-200,000	-0,014	0,074
-486,693	-200,000	-0,026	0,208
-485,678	-200,000	0,018	0,071
-484,664	800,000	-0,026	-0,067
-483,649	-53,788	-0,072	-0,024
-482,635	-200,000	0,006	-0,019
-481,620	-90,496	-0,171	0,036
-480,605	-200,000	0,011	-0,078
-479,591	43,836	-0,096	0,065
-478,576	332,274	-0,041	0,059
-477,562	66,681	0,053	-0,040
-476,547	-200,000	0,015	0,054
-475,532	-191,027	-0,193	-0,001
-474,518	241,997	0,053	0,066
-473,503	-126,197	0,149	-0,016
-472,489	-200,000	0,007	-0,060
-471,474	154,599	-0,072	-0,073
-470,459	800,000	0,081	0,174
-469,445	-200,000	0,015	-0,102
-468,430	334,423	-0,051	-0,072
-467,416	-105,464	-0,045	-0,007
-466,401	3,731	-0,077	0,041
-465,386	205,375	-0,034	0,038
-464,372	394,356	-0,096	0,148
-463,357	-55,439	-0,052	-0,017
-462,343	-200,000	-0,019	-0,069
-461,328	-200,000	-0,009	-0,071
-460,313	-200,000	-0,007	-0,064
-459,299	-72,801	-0,152	-0,041
-458,284	-200,000	-0,013	-0,063
-457,270	199,410	-0,068	-0,077
-456,255	800,000	-0,062	-0,136
-455,241	5,381	-0,092	-0,050
-454,226	-88,239	0,015	-0,003
-453,211	80,547	-0,035	-0,028
-452,197	-95,772	0,097	0,019
-451,182	224,882	0,066	0,078
-450,168	800,000	0,046	0,102
-449,153	246,620	0,038	0,047
-448,138	-200,000	0,032	-0,135
-447,124	800,000	-0,044	0,116
-446,109	-38,840	0,112	-0,043
-445,095	244,253	-0,124	0,153
-444,080	-134,918	0,087	-0,008
-443,065	33,341	0,073	0,047
-442,051	69,679	-0,023	-0,018
-441,036	199,952	0,092	-0,104
-440,022	-200,000	-0,038	-0,161
-439,007	-21,539	0,081	0,036
-437,992	192,218	0,096	-0,107
-436,978	800,000	0,059	0,186
-435,963	550,824	0,054	0,095
-434,949	-200,000	-0,006	-0,065
-433,934	70,732	-0,117	-0,089
-432,919	111,650	0,093	-0,082
-431,905	-200,000	-0,007	0,093
-430,890	183,599	0,066	-0,072
-429,876	300,551	-0,025	-0,034
-428,861	-200,000	-0,008	-0,071
-427,846	-147,016	0,098	-0,006
-426,832	-200,000	0,010	-0,108
-425,817	248,709	-0,098	-0,122
-424,803	72,946	-0,114	-0,088
-423,788	-200,000	0,010	0,071
-422,773	426,384	-0,074	0,118
-421,759	71,054	0,036	-0,027
-420,744	151,407	0,043	-0,043
-419,730	-200,000	-0,006	-0,099
-418,715	-200,000	-0,002	0,064
-417,701	550,418	-0,066	0,116
-416,686	-103,092	-0,060	0,010
-415,671	-101,519	-0,104	0,018
-414,657	-200,000	-0,021	0,083
-413,642	435,522	-0,085	-0,137
-412,628	773,086	0,048	-0,097
-411,613	-200,000	-0,001	0,050
-410,598	-53,215	-0,094	-0,031
-409,584	-87,668	-0,087	-0,019
-408,569	800,000	-0,048	0,132
-407,555	9,352	0,091	0,051
-406,540	-200,000	-0,013	0,124
-405,525	800,000	-0,009	0,023
-404,511	-22,392	-0,087	-0,038
-403,496	91,740	0,010	-0,008
-402,482	-34,689	0,129	0,051
-401,467	-93,120	0,077	0,016
-400,452	-6,783	-0,048	0,024
-399,438	-34,288	-0,136	-0,055
-398,423	-80,245	0,136	0,033
-397,409	-41,979	0,030	0,011
-396,394	800,000	0,025	0,070
-395,379	411,623	-0,071	-0,112
-394,365	-110,675	0,061	-0,009
-393,350	21,342	-0,117	0,070
-392,336	-200,000	0,011	0,104
-391,321	-68,222	0,064	0,018
-390,306	-200,000	0,015	-0,075
-389,292	-45,913	-0,119	-0,043
-388,277	410,067	0,021	-0,033
-387,263	-15,728	0,041	-0,019
-386,248	-70,888	0,059	-0,016
-385,233	34,153	0,020	-0,013
-384,219	-138,776	-0,143	-0,011
-383,204	-111,347	0,027	-0,004
-382,190	-200,000	0,002	-0,108
-381,175	341,255	0,028	-0,041
-380,160	-27,681	0,169	0,071
-379,146	-200,000	0,012	0,046
-378,131	321,224	0,030	-0,042
-377,117	-89,568	0,169	0,036
-376,102	800,000	0,003	0,007
-375,088	-200,000	-0,001	0,108
-374,073	-200,000	-0,033	-0,120
-373,058	-110,379	0,155	0,023
-372,044	227,899	0,027	0,032
-371,029	-200,000	0,016	0,067
-370,015	-10,943	0,069	0,033
-369,000	-200,000	-0,003	-0,082
-367,985	-6,962	-0,111	-0,055
-366,971	-200,000	0,011	0,068
-365,956	-200,000	-0,027	0,116
-364,942	-200,000	0,010	0,070
-363,927	-178,324	0,140	0,002
-362,912	653,636	-0,017	-0,032
-361,898	800,000	-0,053	-0,114
-360,883	800,000	0,020	-0,058
-359,869	185,639	0,059	0,064
-358,854	85,191	-0,123	0,099
-357,839	413,710	0,021	-0,032
-356,825	-41,075	0,176	0,066
-355,810	-91,602	-0,123	-0,025
-354,796	-200,000	-0,004	-0,050
-353,781	34,561	-0,158	0,101
-352,766	-57,071	0,110	-0,035
-351,752	81,890	0,055	-0,044
-350,737	142,906	-0,090	-0,088
-349,723	-200,000	-0,008	0,120
-348,708	800,000	0,065	0,177
-347,693	800,000	-0,034	-0,071
-346,679	322,787	-0,067	-0,094
-345,664	-200,000	0,018	-0,058
-344,650	-200,000	-0,004	0,034
-343,635	800,000	0,040	0,105
-342,620	33,870	0,010	0,006
-341,606	390,957	0,027	-0,042
-340,591	800,000	-0,033	-0,076
-339,577	-200,000	0,030	-0,206
-338,562	173,084	-0,068	-0,072
-337,548	-200,000	0,025	0,085
-336,533	800,000	0,023	0,055
-335,518	-200,000	-0,003	-0,121
-334,504	-153,556	-0,087	0,004
-333,489	61,116	0,066	0,048
-332,475	-75,613	-0,147	-0,038
-331,460	-82,862	-0,044	-0,010
-330,445	779,289	-0,035	-0,070
-329,431	-200,000	0,021	0,100
-328,416	-200,000	-0,003	0,118
-327,402	388,833	-0,017	-0,025
-326,387	17,802	0,102	-0,059
-325,372	-200,000	-0,004	-0,038
-324,358	800,000	0,031	-0,066
-323,343	90,207	-0,047	0,038
-322,329	88,358	0,044	0,036
-321,314	-23,703	0,084	0,037
-320,299	-118,383	-0,091	-0,012
-319,285	-44,046	0,120	0,044
-318,270	99,082	-0,067	0,056
-317,256	142,812	0,021	0,021
-316,241	112,388	-0,070	-0,062
-315,226	115,280	0,046	0,041
-314,212	114,746	0,051	-0,045
-313,197	255,206	0,075	0,094
-312,183	129,651	-0,061	0,057
-311,168	749,033	0,045	-0,089
-310,153	-72,504	0,103	0,028
-309,139	-200,000	0,014	0,069
-308,124	333,924	0,061	-0,087
-307,110	-200,000	0,000	0,214
-306,095	-200,000	0,020	0,219
-305,080	-120,209	-0,088	-0,011
-304,066	669,133	0,045	-0,085
-303,051	-200,000	0,004	0,015
-302,037	-148,807	0,139	0,008
-301,022	-200,000	0,015	0,060
-300,008	261,619	0,047	-0,059
-298,993	67,726	0,154	0,115
-297,978	-200,000	-0,004	-0,087
-296,964	800,000	0,030	-0,064
-295,949	134,310	0,060	-0,057
-294,935	91,382	-0,023	-0,019
-293,920	-88,501	-0,083	0,018
-292,905	-200,000	-0,005	0,046
-291,891	167,476	0,119	0,123
-290,876	-200,000	0,011	0,113
-289,862	800,000	-0,002	0,006
-288,847	176,563	-0,042	-0,045
-287,832	37,697	-0,083	-0,054
-286,818	-200,000	-0,005	0,043
-285,803	593,725	0,070	0,126
-284,789	-146,491	0,043	0,003
-283,774	-200,000	-0,047	0,156
-282,759	-98,673	0,063	-0,012
-281,745	-200,000	0,011	0,060
-280,730	2,799	-0,120	0,063
-279,716	741,506	0,043	0,084
-278,701	-140,324	0,015	0,001
-277,686	-104,947	0,100	-0,017
-276,672	34,385	-0,055	0,035
-275,657	201,643	-0,039	0,043
-274,643	-173,778	0,022	-0,000
-273,628	-200,000	0,008	-0,105
-272,613	-200,000	-0,022	0,084
-271,599	311,037	0,099	0,135
-270,584	-42,060	-0,076	0,028
-269,570	424,685	-0,030	-0,048
-268,555	800,000	-0,038	-0,113
-267,540	800,000	-0,019	-0,049
-266,526	-200,000	-0,013	-0,056
-265,511	-28,564	-0,192	-0,080
-264,497	-69,749	-0,066	0,018
-263,482	-44,418	0,047	-0,017
-262,467	62,318	0,079	0,058
-261,453	800,000	0,022	-0,048
-260,438	-71,083	-0,058	0,016
-259,424	800,000	0,023	-0,072
-258,409	19,744	-0,022	0,013
-257,395	28,627	0,036	-0,022
-256,380	-100,264	0,096	-0,017
-255,365	800,000	0,003	-0,008
-254,351	-200,000	-0,001	0,051
-253,336	82,543	-0,078	0,061
-252,322	-62,329	0,122	0,037
-251,307	321,728	0,057	0,079
-250,292	185,054	-0,080	0,087
-249,278	-88,296	0,015	0,003
-248,263	-20,515	0,028	0,012
-247,249	800,000	0,029	0,091
-246,234	-38,188	0,019	-0,007
-245,219	274,966	0,037	-0,048
-244,205	-72,506	-0,096	0,026
-243,190	-100,168	-0,103	-0,018
-242,176	800,000	-0,043	-0,104
-241,161	-85,201	-0,065	0,015
-240,146	9,089	-0,069	-0,038
-239,132	-44,828	0,030	-0,011
-238,117	66,481	-0,060	0,045
-237,103	800,000	0,076	-0,159
-236,088	127,512	-0,084	-0,078
-235,073	159,162	-0,047	-0,047
-234,059	-11,436	0,063	0,030
-233,044	800,000	0,008	-0,021
-232,030	-149,062	-0,134	-0,008
-231,015	260,014	-0,025	-0,032
-230,000	9,186	0,071	0,039
-228,986	388,456	-0,084	0,127
-227,971	-196,549	-0,075	-0,000
-226,957	264,147	0,022	0,028
-225,942	800,000	0,040	0,119
-224,927	121,472	-0,034	0,031
-223,913	-106,695	-0,068	-0,011
-222,898	-5,783	0,123	0,061
-221,884	-83,351	-0,081	-0,019
-220,869	72,618	0,103	-0,078
-219,855	-197,910	0,145	0,001
-218,840	800,000	-0,061	0,135
-217,825	18,549	-0,090	0,052
-216,811	-200,000	-0,048	-0,176
-215,796	-200,000	0,005	-0,089
-214,782	800,000	-0,035	-0,071
-213,767	800,000	-0,039	-0,098
-212,752	88,512	-0,068	0,055
-211,738	800,000	0,048	0,134
-210,723	800,000	0,038	-0,082
-209,709	-44,260	-0,055	0,020
-208,694	459,334	-0,038	0,061
-207,679	-11,302	0,077	-0,037
-206,665	131,331	0,044	0,041
-205,650	-200,000	0,010	-0,052
-204,636	-200,000	0,015	-0,071
-203,621	407,580	-0,041	-0,063
-202,606	-200,000	0,006	-0,077
-201,592	519,524	-0,058	0,100
-200,577	-101,781	-0,087	-0,015
-199,563	92,884	0,033	-0,027
-198,548	123,390	0,089	-0,081
-197,533	-41,787	0,101	-0,037
-196,519	626,776	-0,014	0,027
-195,504	-136,521	-0,090	-0,007
-194,490	-16,991	-0,019	-0,009
-193,475	-200,000	-0,006	-0,059
-192,460	55,911	0,003	0,002
-191,446	652,838	0,071	0,133
-190,431	800,000	0,035	0,100
-189,417	49,243	-0,067	-0,045
-188,402	167,807	0,075	-0,078
-187,387	-45,898	-0,058	-0,021
-186,373	248,373	-0,105	-0,129
-185,358	-92,522	0,036	0,007
-184,344	-113,213	0,091	-0,013
-183,329	-200,000	0,011	0,106
-182,315	-80,666	-0,024	-0,006
-181,300	320,576	-0,017	-0,023
-180,285	368,642	-0,023	0,034
-179,271	332,325	-0,076	-0,107
-178,256	20,634	-0,016	0,010
-177,242	-200,000	0,002	-0,168
-176,227	-200,000	-0,005	0,024
-175,212	701,217	0,042	-0,082
-174,198	396,668	-0,046	0,070
-173,183	28,146	0,026	0,016
-172,169	800,000	-0,029	0,081
-171,154	185,733	0,058	-0,063
-170,139	230,030	0,067	-0,080
-169,125	-165,369	0,153	-0,005
-168,110	51,641	0,115	-0,080
-167,096	-200,000	-0,000	-0,069
-166,081	800,000	-0,032	-0,080
-165,066	-68,241	-0,112	-0,032
-164,052	-146,739	0,093	-0,006
-163,037	380,191	0,104	-0,155
-162,023	-200,000	0,025	0,142
-161,008	-68,315	0,160	0,045
-159,993	-200,000	0,005	0,058
-158,979	-26,161	-0,190	-0,081
-157,964	-200,000	-0,017	0,054
-156,950	-200,000	-0,039	-0,180
-155,935	-200,000	-0,007	0,084
-154,920	279,263	-0,147	0,191
-153,906	-98,399	-0,039	0,007
-152,891	-17,555	0,036	0,016
-151,877	6,007	-0,028	-0,015
-150,862	-200,000	-0,001	0,062
-149,847	674,221	0,055	-0,105
-148,833	-5,787	-0,084	0,041
-147,818	319,832	0,064	0,088
-146,804	800,000	0,059	0,132
-145,789	800,000	0,070	0,200
-144,775	-200,000	-0,008	0,060
-143,760	-200,000	-0,004	-0,025
-142,745	-71,747	0,116	0,031
-141,731	-49,816	-0,120	-0,041
-140,716	-33,124	0,098	-0,039
-139,702	-200,000	-0,014	0,078
-138,687	-11,126	0,143	0,068
-137,672	69,375	0,052	0,039
-136,658	94,183	-0,040	-0,033
-135,643	-200,000	-0,036	-0,127
-134,629	800,000	0,018	-0,042
-133,614	68,150	0,085	-0,063
-132,599	14,209	0,030	0,017
-131,585	32,850	-0,071	0,044
-130,570	397,685	-0,063	-0,097
-129,556	323,908	-0,059	-0,082
-128,541	-118,615	-0,113	-0,014
-127,526	-56,277	-0,117	0,038
-126,512	124,564	-0,125	0,114
-125,497	286,103	0,102	0,134
-124,483	-133,852	0,029	0,003
-123,468	-83,431	-0,127	-0,029
-122,453	-34,490	-0,066	-0,026
-121,439	-200,000	-0,009	-0,071
-120,424	81,513	-0,154	-0,121
-119,410	-169,369	-0,066	0,002
