DTS Sentinel unit serial number:	SN410029Multiplexer serial number:	ORYXHardware model number:	OX2-SRSoftware version number:	ORYX F/W v4,00 Oryx Data Collector v3.7.2.0data status	okinstallation	B4 Nyhavnadifferential loss correction	single-endedforward channel	channel 2reverse channel	N/Adate	2023/12/18time	19:40:13forward acquisition time	300,00reverse acquisition time	0,00gamma	499,1914k internal	0,3124k external	0,3124temperature offset calibration	1,0000default loss term (dB/km)	0,3820temperature slope calibration	1,0000multiplexer offset coefficient	1,0000multiplexer slope coefficient	1,0000fibre end	0,00T internal ref (°C)	21,87T ext. ref 1 (°C)	7,07T ext. ref 2 (°C)	7,12length (m)	temperature (°C)	Stokes	anti-Stokes-744,400	800,000	-0,049	-0,153
-743,385	6,364	-0,137	0,076
-742,371	457,042	0,008	-0,013
-741,356	75,624	-0,179	0,141
-740,342	-200,000	-0,026	0,090
-739,327	400,712	-0,134	0,210
-738,312	204,171	0,062	-0,072
-737,298	20,024	-0,173	0,104
-736,283	162,911	-0,021	-0,022
-735,269	-40,741	-0,230	0,088
-734,254	442,263	0,024	-0,039
-733,239	-160,842	-0,513	-0,020
-732,225	26,747	0,163	-0,102
-731,210	187,675	-0,042	0,046
-730,196	692,816	0,001	0,001
-729,181	234,790	-0,084	0,103
-728,167	41,727	-0,057	-0,039
-727,152	800,000	0,011	-0,029
-726,137	800,000	-0,013	0,035
-725,123	245,830	-0,118	-0,148
-724,108	-36,143	-0,058	-0,023
-723,094	23,776	-0,052	-0,032
-722,079	1,795	-0,133	-0,071
-721,064	-200,000	-0,022	-0,138
-720,050	-72,282	-0,099	-0,027
-719,035	800,000	-0,012	0,033
-718,021	287,269	-0,077	-0,104
-717,006	-187,999	0,042	-0,000
-715,991	800,000	-0,052	-0,157
-714,977	-200,000	-0,024	-0,142
-713,962	800,000	-0,091	-0,225
-712,948	800,000	0,082	-0,260
-711,933	146,961	-0,074	-0,074
-710,918	58,989	0,080	0,058
-709,904	56,433	-0,081	-0,058
-708,889	800,000	-0,087	-0,250
-707,875	-112,903	-0,076	-0,011
-706,860	800,000	0,060	-0,128
-705,845	800,000	-0,028	-0,061
-704,831	22,581	-0,055	0,034
-703,816	-200,000	0,005	0,033
-702,802	4,640	-0,024	-0,013
-701,787	-200,000	-0,010	0,039
-700,772	159,264	-0,099	0,103
-699,758	87,697	0,108	-0,089
-698,743	223,681	-0,036	0,043
-697,729	-200,000	-0,033	-0,214
-696,714	-200,000	0,015	-0,073
-695,699	-35,522	-0,117	-0,047
-694,685	19,356	-0,059	0,035
-693,670	230,241	-0,055	-0,067
-692,656	-200,000	-0,002	-0,113
-691,641	60,663	-0,092	0,067
-690,627	211,628	0,064	-0,075
-689,612	-200,000	0,017	-0,097
-688,597	800,000	0,023	-0,056
-687,583	800,000	-0,020	-0,057
-686,568	-200,000	-0,008	-0,046
-685,554	-200,000	0,026	-0,105
-684,539	-56,640	0,031	0,010
-683,524	214,418	-0,052	-0,062
-682,510	-4,388	-0,046	-0,024
-681,495	-43,138	-0,012	-0,005
-680,481	176,156	0,054	-0,058
-679,466	800,000	-0,035	-0,079
-678,451	296,471	-0,100	-0,137
-677,437	-100,126	-0,082	0,015
-676,422	129,971	0,105	0,099
-675,408	-14,408	-0,078	-0,037
-674,393	89,596	0,059	-0,049
-673,378	-17,218	-0,144	-0,067
-672,364	220,023	-0,042	-0,050
-671,349	-200,000	-0,032	-0,187
-670,335	-11,717	-0,073	0,036
-669,320	800,000	0,053	-0,111
-668,305	800,000	0,042	-0,093
-667,291	352,737	-0,031	-0,045
-666,276	800,000	-0,058	-0,159
-665,262	164,618	-0,038	0,039
-664,247	411,486	0,032	0,051
-663,232	-180,817	0,008	-0,000
-662,218	108,230	-0,039	-0,034
-661,203	191,311	-0,046	0,051
-660,189	-200,000	-0,008	0,095
-659,174	211,833	0,035	0,041
-658,159	300,776	-0,054	-0,074
-657,145	-67,456	-0,038	-0,011
-656,130	105,080	0,030	-0,026
-655,116	22,106	0,108	0,065
-654,101	-200,000	0,028	0,098
-653,086	-89,722	-0,120	-0,026
-652,072	-200,000	0,015	-0,052
-651,057	199,390	-0,072	0,082
-650,043	115,007	0,039	-0,035
-649,028	-38,280	-0,044	-0,017
-648,014	177,727	0,043	0,046
-646,999	-200,000	-0,009	-0,172
-645,984	-96,212	-0,052	0,010
-644,970	-114,887	-0,049	0,007
-643,955	-107,715	-0,089	-0,014
-642,941	-42,786	-0,092	-0,034
-641,926	-25,917	-0,016	0,007
-640,911	40,293	-0,089	0,059
-639,897	488,681	0,019	-0,032
-638,882	-200,000	0,018	0,205
-637,868	-200,000	0,003	0,035
-636,853	-200,000	0,005	0,021
-635,838	201,818	-0,088	-0,101
-634,824	607,306	-0,080	-0,149
-633,809	800,000	-0,048	-0,117
-632,795	260,410	0,028	0,035
-631,780	-166,856	-0,038	0,001
-630,765	-200,000	0,025	-0,125
-629,751	-200,000	-0,012	-0,062
-628,736	-160,916	0,132	0,005
-627,722	-121,067	-0,038	-0,005
-626,707	-109,691	0,170	0,026
-625,692	-67,119	0,204	-0,059
-624,678	93,786	-0,151	0,127
-623,663	-56,784	-0,081	0,026
-622,649	62,526	0,057	0,042
-621,634	24,625	-0,083	-0,051
-620,619	-4,187	-0,041	0,021
-619,605	425,218	0,022	0,036
-618,590	139,392	0,074	0,072
-617,576	-200,000	0,003	0,014
-616,561	-104,439	-0,139	0,024
-615,546	-155,532	0,054	-0,003
-614,532	235,174	0,071	-0,087
-613,517	-200,000	-0,002	-0,025
-612,503	800,000	0,036	0,089
-611,488	800,000	-0,045	0,116
-610,474	32,066	-0,058	0,037
-609,459	-152,353	0,049	-0,003
-608,444	411,483	-0,028	-0,044
-607,430	189,755	0,110	-0,122
-606,415	-200,000	-0,013	-0,084
-605,401	7,698	-0,080	-0,044
-604,386	235,875	-0,082	-0,101
-603,371	254,820	-0,049	-0,062
-602,357	175,628	0,070	-0,075
-601,342	763,563	0,033	-0,067
-600,328	64,039	-0,207	-0,154
-599,313	316,095	0,049	-0,069
-598,298	-179,382	0,067	0,001
-597,284	405,596	0,010	0,015
-596,269	-38,068	-0,158	0,062
-595,255	-200,000	-0,042	0,142
-594,240	-159,270	0,090	0,004
-593,225	-200,000	-0,008	0,068
-592,211	43,577	0,135	0,091
-591,196	-37,607	0,064	-0,025
-590,182	183,805	0,028	-0,030
-589,167	800,000	0,049	0,107
-588,152	-200,000	0,035	0,167
-587,138	-74,954	-0,153	-0,040
-586,123	18,874	0,021	-0,013
-585,109	3,591	-0,086	-0,046
-584,094	-200,000	-0,015	-0,116
-583,079	-54,564	0,109	0,036
-582,065	189,268	-0,131	0,146
-581,050	148,380	0,033	-0,033
-580,036	-53,941	-0,128	-0,043
-579,021	-126,065	-0,255	-0,028
-578,006	197,914	-0,082	-0,093
-576,992	437,752	-0,088	-0,142
-575,977	800,000	-0,015	0,036
-574,963	69,153	-0,082	-0,062
-573,948	-200,000	0,027	0,121
-572,934	503,334	-0,045	0,078
-571,919	-200,000	0,020	-0,125
-570,904	-8,838	-0,189	-0,094
-569,890	-126,698	0,128	-0,014
-568,875	39,428	0,090	-0,060
-567,861	-11,216	0,100	-0,049
-566,846	47,523	0,061	-0,042
-565,831	39,458	0,040	0,027
-564,817	-25,123	-0,099	0,043
-563,802	115,881	0,064	-0,058
-562,788	-200,000	-0,058	0,192
-561,773	520,854	0,037	-0,065
-560,758	-153,304	0,072	-0,004
-559,744	-65,645	0,038	-0,011
-558,729	17,055	0,098	0,057
-557,715	800,000	-0,031	0,077
-556,700	-200,000	-0,029	-0,124
-555,685	-200,000	0,012	-0,062
-554,671	631,630	-0,023	0,042
-553,656	73,584	0,093	0,072
-552,642	69,598	0,087	0,066
-551,627	-27,574	0,037	-0,016
-550,612	800,000	-0,014	-0,035
-549,598	-61,748	0,014	-0,004
-548,583	180,901	0,049	0,053
-547,569	-200,000	-0,021	-0,074
-546,554	800,000	0,014	0,034
-545,539	-31,335	0,064	0,026
-544,525	507,113	0,078	-0,135
-543,510	-200,000	-0,006	0,108
-542,496	227,974	0,050	0,060
-541,481	800,000	0,041	-0,106
-540,466	110,900	0,057	-0,050
-539,452	-200,000	0,008	0,042
-538,437	-84,005	0,198	0,046
-537,423	134,705	0,065	0,063
-536,408	-92,288	0,074	-0,015
-535,393	181,878	-0,045	-0,049
-534,379	800,000	-0,034	0,101
-533,364	-128,383	0,117	0,012
-532,350	-200,000	-0,026	0,091
-531,335	68,221	0,026	-0,020
-530,321	-200,000	-0,019	0,072
-529,306	-124,655	0,160	-0,018
-528,291	509,265	0,039	-0,068
-527,277	283,775	-0,070	-0,094
-526,262	-200,000	-0,035	-0,195
-525,248	48,653	0,013	-0,009
-524,233	800,000	-0,024	-0,068
-523,218	-200,000	-0,005	-0,093
-522,204	-200,000	0,016	-0,081
-521,189	800,000	-0,077	-0,161
-520,175	252,133	-0,129	-0,163
-519,160	-200,000	-0,023	0,198
-518,145	55,109	0,094	0,067
-517,131	800,000	-0,043	-0,135
-516,116	-113,464	0,093	-0,013
-515,102	-123,361	-0,078	0,009
-514,087	625,230	-0,036	-0,068
-513,072	-200,000	-0,037	-0,158
-512,058	-200,000	0,008	-0,041
-511,043	362,066	0,017	0,025
-510,029	-200,000	-0,003	-0,022
-509,014	800,000	0,027	0,077
-507,999	136,312	0,047	-0,045
-506,985	-24,712	0,115	-0,050
-505,970	406,910	-0,047	-0,074
-504,956	40,720	0,057	0,038
-503,941	-93,005	-0,050	0,010
-502,926	161,099	0,003	0,003
-501,912	-200,000	-0,027	0,120
-500,897	100,612	0,076	-0,066
-499,883	800,000	-0,028	-0,063
-498,868	-164,997	-0,047	-0,002
-497,853	800,000	-0,046	-0,115
-496,839	179,965	0,048	-0,052
-495,824	589,256	0,063	0,114
-494,810	-75,801	-0,016	0,004
-493,795	-127,389	-0,036	-0,004
-492,781	-28,347	-0,203	0,086
-491,766	30,725	-0,118	-0,075
-490,751	17,891	0,104	-0,061
-489,737	800,000	0,020	-0,050
-488,722	-108,220	-0,011	0,002
-487,708	-200,000	0,030	0,171
-486,693	-200,000	0,013	0,081
-485,678	506,160	-0,057	-0,097
-484,664	-200,000	0,009	0,034
-483,649	-200,000	0,013	0,069
-482,635	800,000	0,058	0,133
-481,620	800,000	0,018	-0,049
-480,605	-200,000	0,005	0,070
-479,591	276,877	0,056	0,073
-478,576	-161,160	0,009	-0,000
-477,562	-200,000	0,026	0,135
-476,547	-37,559	-0,029	-0,011
-475,532	88,972	-0,049	-0,040
-474,518	-200,000	-0,002	-0,064
-473,503	-200,000	-0,025	0,096
-472,489	-200,000	0,014	-0,086
-471,474	54,211	-0,027	0,019
-470,459	800,000	0,030	0,089
-469,445	-200,000	-0,001	-0,024
-468,430	-200,000	-0,005	0,110
-467,416	51,568	-0,047	-0,033
-466,401	-200,000	-0,002	-0,024
-465,386	-36,044	0,067	0,027
-464,372	-29,864	-0,089	0,037
-463,357	-103,004	-0,014	-0,002
-462,343	60,216	-0,131	-0,096
-461,328	335,633	-0,105	-0,151
-460,313	-200,000	0,015	-0,124
-459,299	245,789	0,042	-0,052
-458,284	333,066	-0,042	0,060
-457,270	-200,000	-0,043	0,164
-456,255	154,389	-0,035	0,036
-455,241	-37,692	-0,117	0,046
-454,226	23,438	0,064	0,039
-453,211	-90,908	0,180	-0,038
-452,197	793,922	0,016	0,033
-451,182	-200,000	0,000	0,025
-450,168	800,000	-0,042	-0,114
-449,153	800,000	-0,009	0,022
-448,138	30,885	-0,081	-0,051
-447,124	-15,493	-0,192	-0,090
-446,109	-134,106	0,021	-0,002
-445,095	588,022	0,103	0,188
-444,080	-130,768	0,121	-0,012
-443,065	44,308	-0,044	0,029
-442,051	-200,000	0,000	0,064
-441,036	800,000	-0,040	-0,125
-440,022	-159,323	-0,149	0,006
-439,007	127,875	0,009	0,008
-437,992	174,010	-0,050	-0,053
-436,978	-28,481	0,070	0,029
-435,963	359,187	0,078	-0,116
-434,949	-200,000	-0,042	0,147
-433,934	-75,834	-0,065	0,017
-432,919	-200,000	0,031	0,162
-431,905	800,000	-0,055	0,165
-430,890	64,527	0,173	-0,128
-429,876	31,763	0,020	0,013
-428,861	-200,000	0,008	0,056
-427,846	14,286	0,067	0,038
-426,832	-136,637	-0,034	0,003
-425,817	800,000	0,021	-0,054
-424,803	-200,000	-0,037	0,182
-423,788	800,000	-0,023	0,051
-422,773	-200,000	-0,030	0,147
-421,759	-126,074	0,099	0,011
-420,744	-134,892	0,031	-0,003
-419,730	-9,173	0,112	-0,055
-418,715	186,350	-0,064	-0,070
-417,701	258,846	-0,038	0,049
-416,686	-19,208	0,154	-0,070
-415,671	34,842	-0,007	-0,004
-414,657	22,966	-0,080	-0,048
-413,642	-200,000	-0,010	0,094
-412,628	-200,000	-0,002	0,111
-411,613	-53,514	0,129	0,043
-410,598	-200,000	-0,001	0,068
-409,584	-200,000	0,012	-0,071
-408,569	533,032	-0,089	-0,156
-407,555	-132,099	0,237	0,022
-406,540	60,421	0,020	0,014
-405,525	178,040	0,045	0,048
-404,511	23,410	-0,141	-0,085
-403,496	-125,951	0,118	0,013
-402,482	800,000	-0,035	0,086
-401,467	-200,000	-0,010	0,102
-400,452	52,919	0,133	0,094
-399,438	-200,000	-0,002	0,025
-398,423	291,661	0,107	0,144
-397,409	31,353	-0,021	0,013
-396,394	576,467	-0,048	-0,087
-395,379	800,000	0,037	0,078
-394,365	10,616	0,125	0,070
-393,350	371,227	-0,118	0,176
-392,336	-200,000	-0,020	-0,152
-391,321	195,278	0,042	-0,047
-390,306	523,882	-0,062	-0,108
-389,292	246,893	-0,114	-0,142
-388,277	-21,357	-0,120	-0,054
-387,263	115,533	0,077	-0,069
-386,248	800,000	-0,040	0,102
-385,233	800,000	-0,039	0,091
-384,219	-11,974	-0,029	0,014
-383,204	-200,000	-0,005	0,106
-382,190	-200,000	-0,066	0,226
-381,175	-200,000	-0,011	-0,051
-380,160	63,479	0,034	-0,025
-379,146	800,000	0,051	0,130
-378,131	342,990	-0,068	0,098
-377,117	-200,000	-0,019	-0,094
-376,102	800,000	0,031	0,085
-375,088	-51,450	-0,063	0,021
-374,073	-134,854	0,188	-0,016
-373,058	-200,000	0,026	0,123
-372,044	414,727	0,042	-0,065
-371,029	-144,275	0,085	-0,006
-370,015	-142,203	-0,091	-0,007
-369,000	19,149	-0,033	-0,019
-367,985	-122,463	-0,081	0,010
-366,971	-200,000	-0,007	-0,044
-365,956	-200,000	0,009	0,083
-364,942	65,447	0,055	0,040
-363,927	-126,593	0,151	0,016
-362,912	157,099	0,113	0,115
-361,898	118,484	-0,095	0,086
-360,883	-200,000	0,008	-0,146
-359,869	220,076	-0,082	-0,096
-358,854	168,041	0,064	-0,067
-357,839	800,000	-0,035	0,109
-356,825	206,300	0,030	0,034
-355,810	104,516	0,036	-0,031
-354,796	-200,000	-0,012	0,213
-353,781	-200,000	0,003	-0,035
-352,766	-200,000	-0,021	0,087
-351,752	328,254	0,059	0,084
-350,737	-200,000	0,032	0,155
-349,723	278,308	0,075	0,099
-348,708	36,912	-0,085	-0,055
-347,693	-60,078	-0,130	-0,040
-346,679	374,224	0,043	-0,064
-345,664	52,939	-0,067	-0,047
-344,650	216,296	0,011	0,013
-343,635	-200,000	-0,002	0,019
-342,620	659,832	-0,016	0,030
-341,606	696,011	0,049	-0,095
-340,591	800,000	-0,034	0,104
-339,577	-39,830	-0,077	-0,030
-338,562	-200,000	0,005	0,037
-337,548	315,539	0,103	-0,143
-336,533	800,000	0,021	-0,060
-335,518	-10,183	0,110	-0,054
-334,504	-15,987	0,071	-0,033
-333,489	-200,000	0,007	0,024
-332,475	-53,283	-0,097	0,032
-331,460	-200,000	0,037	0,152
-330,445	346,932	0,099	-0,143
-329,431	57,187	-0,035	-0,025
-328,416	800,000	0,010	0,024
-327,402	103,819	0,057	0,049
-326,387	23,966	-0,097	0,059
-325,372	-163,431	-0,071	-0,002
-324,358	800,000	-0,031	-0,076
-323,343	800,000	-0,012	0,032
-322,329	27,722	0,067	-0,042
-321,314	-125,912	0,087	0,010
-320,299	-11,456	-0,147	0,070
-319,285	-200,000	-0,018	0,128
-318,270	88,462	0,103	0,084
-317,256	-200,000	-0,001	-0,050
-316,241	800,000	-0,023	0,066
-315,226	-7,457	0,045	0,022
-314,212	-182,742	0,076	-0,001
-313,197	300,247	-0,045	0,061
-312,183	-124,245	0,058	0,007
-311,168	-200,000	-0,006	-0,046
-310,153	-54,217	0,087	-0,029
-309,139	-200,000	-0,022	-0,133
-308,124	-200,000	-0,004	-0,123
-307,110	-200,000	-0,025	0,085
-306,095	235,400	-0,020	0,024
-305,080	-200,000	-0,022	0,081
-304,066	383,218	-0,037	0,055
-303,051	5,349	-0,027	-0,015
-302,037	80,829	-0,130	-0,103
-301,022	147,031	-0,030	-0,030
-300,008	-30,163	-0,102	0,042
-298,993	455,385	-0,111	0,182
-297,978	-200,000	0,002	-0,116
-296,964	240,311	-0,053	-0,065
-295,949	356,278	0,052	0,076
-294,935	800,000	0,085	0,203
-293,920	8,995	-0,066	-0,036
-292,905	-105,027	0,139	0,023
-291,891	-200,000	-0,039	0,156
-290,876	343,562	-0,075	0,108
-289,862	-200,000	0,028	-0,133
-288,847	-200,000	0,001	-0,220
-287,832	167,891	-0,051	-0,054
-286,818	-101,353	0,124	0,022
-285,803	-19,455	-0,050	-0,023
-284,789	-200,000	0,017	0,137
-283,774	-79,607	-0,075	-0,018
-282,759	-200,000	0,017	-0,099
-281,745	46,348	-0,031	-0,021
-280,730	-102,817	0,031	0,005
-279,716	-61,000	-0,037	-0,011
-278,701	-68,355	0,104	-0,029
-277,686	-182,614	0,059	-0,001
-276,672	-135,269	0,093	-0,008
-275,657	800,000	-0,038	-0,081
-274,643	709,901	-0,024	-0,047
-273,628	-60,487	-0,113	-0,035
-272,613	-66,158	0,131	0,038
-271,599	-25,177	-0,129	0,056
-270,584	20,982	0,128	0,076
-269,570	-200,000	0,006	-0,070
-268,555	100,455	-0,039	0,034
-267,540	800,000	0,019	-0,055
-266,526	-200,000	-0,031	-0,150
-265,511	301,334	-0,046	0,062
-264,497	800,000	0,019	0,049
-263,482	-200,000	-0,007	0,068
-262,467	-200,000	-0,018	0,098
-261,453	55,362	0,078	-0,055
-260,438	201,115	-0,068	-0,077
-259,424	-200,000	0,008	-0,096
-258,409	784,782	0,073	-0,147
-257,395	56,181	0,118	-0,083
-256,380	-200,000	-0,018	-0,120
-255,365	744,785	-0,037	0,074
-254,351	171,326	-0,144	0,151
-253,336	124,193	0,127	0,117
-252,322	52,609	-0,106	0,074
-251,307	800,000	0,047	0,140
-250,292	-100,315	0,229	-0,041
-249,278	-173,010	0,123	-0,003
-248,263	111,261	0,060	0,053
-247,249	95,595	-0,060	-0,050
-246,234	-200,000	0,016	-0,130
-245,219	124,658	0,014	0,013
-244,205	-200,000	0,001	0,012
-243,190	37,222	-0,107	0,069
-242,176	458,453	-0,049	0,080
-241,161	800,000	0,010	0,027
-240,146	-63,758	-0,159	0,047
-239,132	-150,600	0,112	-0,006
-238,117	-46,653	0,216	-0,077
-237,103	60,405	-0,109	-0,079
-236,088	-200,000	0,026	-0,150
-235,073	168,455	-0,120	-0,124
-234,059	-163,358	0,105	0,004
-233,044	-200,000	-0,004	0,045
-232,030	800,000	-0,026	0,071
-231,015	-19,701	-0,082	-0,037
-230,000	-200,000	0,029	-0,137
-228,986	-39,723	-0,166	-0,063
-227,971	36,633	-0,056	0,036
-226,957	-157,069	0,077	-0,003
-225,942	-61,941	0,144	-0,044
-224,927	-200,000	0,005	-0,082
-223,913	-182,545	-0,063	-0,001
-222,898	333,070	-0,089	-0,126
-221,884	301,420	-0,048	-0,065
-220,869	800,000	-0,060	0,145
-219,855	-55,169	0,087	-0,028
-218,840	98,184	-0,010	0,009
-217,825	173,701	-0,071	-0,075
-216,811	478,271	-0,044	-0,073
-215,796	279,933	-0,052	-0,068
-214,782	-151,358	-0,147	-0,008
-213,767	167,409	-0,063	-0,065
-212,752	538,643	-0,043	0,075
-211,738	29,832	0,060	0,037
-210,723	108,590	-0,044	0,038
-209,709	-2,625	0,069	-0,035
-208,694	8,261	-0,108	0,059
-207,679	16,532	-0,107	-0,061
-206,665	31,610	0,111	-0,069
-205,650	33,718	0,072	0,046
-204,636	6,453	-0,047	-0,025
-203,621	-154,262	0,088	0,004
-202,606	477,012	0,046	-0,075
-201,592	-160,052	0,112	0,004
-200,577	49,682	-0,076	-0,052
-199,563	800,000	-0,054	0,158
-198,548	89,845	0,095	0,078
-197,533	-200,000	0,001	0,075
-196,519	-200,000	-0,005	-0,108
-195,504	361,139	-0,038	-0,055
-194,490	-61,384	-0,102	-0,031
-193,475	-80,235	-0,021	0,005
-192,460	800,000	-0,010	-0,026
-191,446	800,000	-0,028	-0,065
-190,431	312,866	0,080	-0,109
-189,417	800,000	-0,025	-0,061
-188,402	-128,003	-0,096	-0,010
-187,387	132,459	0,063	-0,059
-186,373	196,835	-0,043	0,048
-185,358	800,000	-0,029	0,077
-184,344	1,588	0,151	-0,079
-183,329	-200,000	-0,008	-0,032
-182,315	83,373	0,099	0,079
-181,300	136,586	-0,076	-0,073
-180,285	-200,000	0,007	0,041
-179,271	179,243	0,081	0,087
-178,256	676,315	-0,024	0,046
-177,242	-200,000	-0,005	0,036
-176,227	-200,000	0,004	0,118
-175,212	-200,000	-0,035	-0,126
-174,198	-61,673	-0,075	-0,023
-173,183	-200,000	-0,033	-0,174
-172,169	27,978	0,033	0,020
-171,154	204,429	0,055	0,062
-170,139	-153,851	0,027	-0,001
-169,125	-200,000	0,000	0,060
-168,110	126,586	0,055	0,051
-167,096	251,098	0,034	-0,043
-166,081	-86,831	0,054	-0,012
-165,066	-167,942	-0,040	0,001
-164,052	238,492	0,105	0,127
-163,037	800,000	0,030	0,093
-162,023	800,000	0,012	-0,032
-161,008	-200,000	0,005	-0,021
-159,993	-200,000	-0,008	-0,085
-158,979	800,000	-0,042	-0,091
-157,964	-85,075	-0,026	-0,006
-156,950	-78,719	-0,100	0,025
-155,935	-200,000	-0,003	-0,013
-154,920	-200,000	-0,006	0,089
-153,906	251,535	-0,061	-0,076
-152,891	-200,000	-0,007	-0,025
-151,877	-127,760	-0,068	-0,007
-150,862	-200,000	-0,003	0,137
-149,847	-200,000	0,029	-0,178
-148,833	-200,000	0,028	0,093
-147,818	78,453	0,102	-0,079
-146,804	800,000	0,040	-0,084
-145,789	-200,000	0,011	0,039
-144,775	-200,000	0,007	-0,025
-143,760	304,064	-0,017	-0,023
-142,745	-200,000	0,014	-0,074
-141,731	188,436	-0,067	0,073
-140,716	13,457	0,024	0,014
-139,702	-8,506	-0,115	0,056
-138,687	-137,371	-0,051	-0,004
-137,672	800,000	-0,019	0,042
-136,658	-121,996	0,037	-0,004
-135,643	313,035	0,024	-0,032
-134,629	-76,774	-0,036	-0,009
-133,614	-75,638	0,048	0,012
-132,599	-126,400	-0,027	0,003
-131,585	-52,919	0,159	0,053
-130,570	800,000	-0,070	0,145
-129,556	47,044	0,054	0,036
-128,541	674,146	0,040	-0,076
-127,526	120,828	0,093	0,084
-126,512	-200,000	-0,006	0,073
-125,497	4,960	0,030	0,016
-124,483	293,799	-0,045	0,059
-123,468	70,563	0,097	-0,073
-122,453	-82,562	-0,064	-0,015
-121,439	790,615	0,034	0,068
-120,424	67,460	0,025	0,019
