DTS Sentinel unit serial number:	SN410029Multiplexer serial number:	ORYXHardware model number:	OX2-SRSoftware version number:	ORYX F/W v4,00 Oryx Data Collector v3.7.2.0data status	okinstallation	B4 Nyhavnadifferential loss correction	single-endedforward channel	channel 2reverse channel	N/Adate	2023/12/15time	20:00:13forward acquisition time	300,00reverse acquisition time	0,00gamma	499,1914k internal	0,3137k external	0,3137temperature offset calibration	1,0000default loss term (dB/km)	0,3820temperature slope calibration	1,0000multiplexer offset coefficient	1,0000multiplexer slope coefficient	1,0000fibre end	0,00T internal ref (°C)	20,26T ext. ref 1 (°C)	5,84T ext. ref 2 (°C)	6,01length (m)	temperature (°C)	Stokes	anti-Stokes-744,400	-200,000	0,006	0,045
-743,385	-56,560	-0,122	0,040
-742,371	-200,000	-0,010	-0,138
-741,356	496,953	-0,090	0,154
-740,342	-200,000	0,004	-0,041
-739,327	2,219	-0,200	0,107
-738,312	31,964	0,042	-0,027
-737,298	-62,998	-0,341	0,104
-736,283	178,604	0,019	-0,021
-735,269	114,014	-0,111	0,100
-734,254	-112,311	0,167	0,024
-733,239	-46,357	-0,411	-0,149
-732,225	169,123	0,125	0,133
-731,210	539,678	0,032	-0,056
-730,196	111,685	-0,120	-0,108
-729,181	-200,000	-0,018	-0,135
-728,167	800,000	-0,086	-0,196
-727,152	21,072	-0,135	-0,081
-726,137	-144,959	-0,089	-0,006
-725,123	404,524	0,010	-0,016
-724,108	-200,000	-0,018	-0,296
-723,094	-200,000	-0,046	-0,171
-722,079	-65,112	-0,052	-0,016
-721,064	-200,000	-0,025	-0,205
-720,050	294,885	-0,050	-0,067
-719,035	487,077	-0,047	0,079
-718,021	118,603	-0,037	-0,034
-717,006	-149,322	-0,218	0,013
-715,991	73,563	-0,106	-0,083
-714,977	800,000	-0,059	0,131
-713,962	-200,000	-0,002	-0,040
-712,948	-200,000	0,021	-0,137
-711,933	800,000	-0,021	-0,059
-710,918	69,459	0,024	0,018
-709,904	800,000	-0,039	-0,092
-708,889	235,534	-0,094	-0,115
-707,875	67,530	-0,079	-0,060
-706,860	800,000	0,021	0,057
-705,845	-68,092	-0,154	-0,044
-704,831	169,346	-0,110	0,116
-703,816	318,085	0,041	-0,058
-702,802	-200,000	-0,021	-0,105
-701,787	-123,336	-0,110	0,013
-700,772	-200,000	0,003	-0,098
-699,758	-104,123	-0,049	-0,008
-698,743	523,760	0,065	0,113
-697,729	770,502	-0,051	-0,104
-696,714	-200,000	-0,004	-0,087
-695,699	56,095	-0,031	-0,022
-694,685	21,287	0,030	0,018
-693,670	1,633	0,070	-0,037
-692,656	800,000	-0,025	-0,068
-691,641	152,336	0,067	-0,067
-690,627	-200,000	0,000	0,088
-689,612	-190,091	0,015	-0,000
-688,597	360,078	0,034	-0,051
-687,583	293,163	-0,078	-0,105
-686,568	-200,000	-0,015	-0,106
-685,554	-200,000	0,027	-0,136
-684,539	-130,149	0,057	0,006
-683,524	-132,600	0,113	-0,011
-682,510	89,217	0,097	-0,080
-681,495	-51,524	0,061	-0,021
-680,481	24,321	-0,037	-0,022
-679,466	-131,443	-0,057	-0,006
-678,451	89,683	-0,066	0,055
-677,437	146,945	-0,052	-0,052
-676,422	200,010	0,097	0,110
-675,408	-200,000	-0,024	0,194
-674,393	800,000	-0,045	-0,104
-673,378	132,642	0,012	0,012
-672,364	208,775	-0,005	-0,006
-671,349	64,762	-0,038	0,028
-670,335	329,831	0,040	0,057
-669,320	-183,920	0,170	-0,002
-668,305	-139,863	-0,149	-0,012
-667,291	-200,000	-0,001	-0,114
-666,276	591,988	-0,011	-0,020
-665,262	-200,000	-0,026	-0,088
-664,247	382,934	-0,068	-0,104
-663,232	135,629	-0,091	-0,088
-662,218	57,821	0,077	-0,055
-661,203	-17,110	-0,104	0,048
-660,189	-40,304	-0,129	-0,050
-659,174	-34,637	-0,032	0,013
-658,159	-200,000	0,015	-0,095
-657,145	-71,102	-0,069	-0,019
-656,130	11,770	-0,034	0,019
-655,116	4,834	0,109	0,059
-654,101	77,471	0,102	-0,080
-653,086	-190,164	-0,188	0,001
-652,072	-200,000	0,001	0,020
-651,057	-197,963	-0,105	-0,000
-650,043	104,808	0,081	-0,071
-649,028	324,425	0,042	-0,060
-648,014	133,348	0,089	-0,085
-646,999	65,182	-0,083	-0,062
-645,984	361,040	0,044	0,065
-644,970	-74,916	-0,085	-0,022
-643,955	-118,378	-0,097	0,013
-642,941	331,431	-0,112	-0,160
-641,926	-200,000	-0,010	-0,137
-640,911	529,266	-0,094	-0,165
-639,897	4,458	0,136	-0,073
-638,882	312,411	0,030	-0,041
-637,868	-64,696	-0,049	-0,014
-636,853	-200,000	0,012	-0,054
-635,838	800,000	-0,023	-0,057
-634,824	-200,000	0,004	-0,095
-633,809	-200,000	-0,015	-0,064
-632,795	800,000	0,029	0,092
-631,780	800,000	0,038	-0,080
-630,765	-200,000	-0,022	-0,187
-629,751	-200,000	-0,010	-0,156
-628,736	523,022	-0,037	-0,064
-627,722	-80,172	0,119	-0,029
-626,707	-95,764	-0,055	-0,011
-625,692	95,881	0,082	0,069
-624,678	23,308	0,114	0,069
-623,663	-200,000	-0,007	0,084
-622,649	24,957	0,035	-0,021
-621,634	-34,197	-0,098	-0,039
-620,619	581,066	0,043	-0,077
-619,605	800,000	0,026	-0,073
-618,590	-48,087	0,131	-0,047
-617,576	270,907	0,072	0,093
-616,561	9,556	-0,040	0,022
-615,546	-57,572	0,081	0,026
-614,532	175,062	-0,156	-0,167
-613,517	216,406	-0,037	0,044
-612,503	-125,241	-0,016	0,002
-611,488	57,846	0,091	-0,066
-610,474	177,238	-0,069	0,074
-609,459	268,425	-0,056	0,072
-608,444	169,503	0,067	-0,070
-607,430	-200,000	0,004	-0,030
-606,415	-102,866	-0,065	-0,011
-605,401	800,000	0,044	-0,127
-604,386	20,133	0,072	0,043
-603,371	-78,866	0,180	-0,045
-602,357	234,139	-0,077	0,094
-601,342	348,442	-0,058	-0,085
-600,328	800,000	-0,051	-0,116
-599,313	636,610	0,048	-0,091
-598,298	427,447	0,023	0,036
-597,284	-200,000	-0,015	0,091
-596,269	800,000	-0,013	0,042
-595,255	-92,778	0,088	-0,018
-594,240	-200,000	0,025	0,113
-593,225	800,000	-0,026	-0,069
-592,211	-200,000	0,001	-0,073
-591,196	-200,000	-0,013	0,050
-590,182	21,168	0,042	-0,025
-589,167	-200,000	0,000	0,003
-588,152	-200,000	0,012	0,051
-587,138	70,665	-0,074	0,056
-586,123	-64,418	0,023	-0,007
-585,109	-55,658	-0,049	-0,016
-584,094	349,308	0,083	0,122
-583,079	25,892	0,081	-0,050
-582,065	800,000	-0,044	-0,092
-581,050	-4,664	0,036	0,018
-580,036	-77,732	-0,187	-0,047
-579,021	195,620	-0,036	0,041
-578,006	800,000	0,015	-0,048
-576,992	-200,000	-0,007	-0,034
-575,977	556,501	0,061	0,109
-574,963	-61,237	0,135	-0,042
-573,948	-13,320	0,084	0,040
-572,934	121,359	0,056	0,052
-571,919	-104,572	-0,070	0,012
-570,904	77,036	0,043	-0,034
-569,890	-34,293	-0,038	-0,015
-568,875	138,223	-0,018	-0,018
-567,861	800,000	-0,034	0,093
-566,846	-200,000	0,016	-0,072
-565,831	-43,977	-0,144	-0,053
-564,817	26,169	-0,029	0,018
-563,802	-151,287	0,064	-0,003
-562,788	-200,000	0,017	-0,093
-561,773	-200,000	-0,037	-0,144
-560,758	13,966	0,082	0,047
-559,744	-200,000	0,034	0,146
-558,729	800,000	-0,017	0,052
-557,715	-200,000	0,007	-0,027
-556,700	282,646	-0,083	-0,110
-555,685	34,214	-0,113	0,073
-554,671	16,646	0,120	0,070
-553,656	306,319	-0,102	-0,140
-552,642	681,598	0,067	-0,129
-551,627	800,000	-0,072	-0,156
-550,612	320,926	0,045	0,063
-549,598	-47,877	-0,134	0,048
-548,583	-118,280	-0,119	0,015
-547,569	93,839	0,085	-0,071
-546,554	-200,000	0,022	0,080
-545,539	-200,000	-0,017	-0,062
-544,525	105,681	-0,107	0,093
-543,510	764,111	-0,020	0,040
-542,496	800,000	-0,064	-0,131
-541,481	-118,282	0,030	0,004
-540,466	275,803	0,028	0,037
-539,452	19,894	0,025	0,015
-538,437	800,000	-0,020	0,047
-537,423	-70,117	-0,059	0,016
-536,408	164,009	0,025	0,026
-535,393	245,872	0,035	-0,044
-534,379	127,222	-0,049	0,046
-533,364	-200,000	0,008	0,050
-532,350	300,456	0,081	0,111
-531,335	-33,748	0,099	-0,040
-530,321	-200,000	0,008	-0,089
-529,306	191,861	-0,063	0,070
-528,291	171,608	-0,048	-0,050
-527,277	9,896	-0,136	0,076
-526,262	282,108	-0,046	-0,061
-525,248	800,000	0,015	-0,035
-524,233	37,749	0,064	0,042
-523,218	-33,833	0,058	0,024
-522,204	116,635	-0,079	-0,072
-521,189	-41,376	-0,061	-0,023
-520,175	-200,000	-0,032	0,115
-519,160	800,000	-0,044	-0,092
-518,145	61,593	0,027	0,020
-517,131	-200,000	-0,041	-0,165
-516,116	562,242	-0,028	-0,051
-515,102	325,788	0,078	0,110
-514,087	-40,710	0,018	-0,007
-513,072	149,443	0,057	-0,057
-512,058	-139,174	0,030	-0,002
-511,043	133,389	-0,084	0,080
-510,029	-200,000	-0,018	0,060
-509,014	-42,985	-0,128	0,047
-507,999	-200,000	-0,007	0,140
-506,985	21,257	-0,076	0,045
-505,970	20,724	0,072	-0,043
-504,956	800,000	-0,041	-0,086
-503,941	-23,342	0,114	0,050
-502,926	-149,006	0,130	-0,008
-501,912	-16,350	0,081	0,038
-500,897	5,243	0,094	-0,051
-499,883	350,836	0,079	0,115
-498,868	267,190	-0,046	-0,060
-497,853	800,000	-0,040	-0,111
-496,839	71,213	-0,080	-0,061
-495,824	-22,497	0,073	0,032
-494,810	-200,000	-0,017	0,071
-493,795	-6,960	-0,059	0,030
-492,781	256,709	-0,077	-0,097
-491,766	140,218	-0,110	-0,106
-490,751	-200,000	-0,001	0,016
-489,737	800,000	-0,033	-0,068
-488,722	-59,530	0,077	-0,024
-487,708	751,598	-0,054	0,107
-486,693	-200,000	-0,006	-0,024
-485,678	-144,258	0,100	-0,007
-484,664	-200,000	-0,025	0,165
-483,649	-200,000	0,001	-0,088
-482,635	-200,000	-0,018	0,086
-481,620	-200,000	0,005	0,123
-480,605	-200,000	0,016	-0,052
-479,591	739,740	0,093	0,184
-478,576	226,787	-0,034	0,041
-477,562	800,000	-0,058	-0,181
-476,547	-96,820	-0,071	0,013
-475,532	73,882	-0,148	0,114
-474,518	346,255	-0,057	0,083
-473,503	105,819	-0,019	0,016
-472,489	-120,116	0,031	-0,004
-471,474	-42,129	-0,070	-0,026
-470,459	578,866	0,016	-0,029
-469,445	-200,000	-0,017	0,144
-468,430	-56,664	0,079	0,025
-467,416	-52,757	-0,061	0,021
-466,401	-123,649	-0,113	0,013
-465,386	-137,507	0,113	-0,009
-464,372	800,000	0,015	-0,048
-463,357	-200,000	0,040	-0,155
-462,343	-47,275	-0,083	0,030
-461,328	16,182	-0,055	0,032
-460,313	93,326	0,048	-0,039
-459,299	800,000	-0,020	-0,044
-458,284	-28,334	0,070	0,029
-457,270	-131,760	0,146	0,014
-456,255	-200,000	0,011	0,092
-455,241	256,052	-0,057	0,072
-454,226	-200,000	0,024	0,084
-453,211	706,029	0,045	-0,088
-452,197	151,172	0,124	0,123
-451,182	-56,580	-0,064	-0,021
-450,168	595,174	0,034	-0,062
-449,153	-200,000	0,011	0,065
-448,138	800,000	0,020	0,056
-447,124	-25,433	0,086	0,037
-446,109	-153,273	-0,125	-0,006
-445,095	800,000	0,035	0,088
-444,080	800,000	0,048	-0,144
-443,065	188,114	-0,028	0,030
-442,051	-200,000	-0,001	0,036
-441,036	166,141	-0,059	-0,061
-440,022	470,242	-0,053	-0,088
-439,007	800,000	-0,019	0,052
-437,992	53,347	0,120	0,084
-436,978	-200,000	0,027	0,125
-435,963	-176,381	-0,059	-0,001
-434,949	-110,813	-0,053	-0,008
-433,934	59,291	0,059	0,042
-432,919	-102,262	-0,059	0,010
-431,905	-200,000	0,003	-0,043
-430,890	-200,000	-0,014	-0,099
-429,876	-6,043	-0,035	0,018
-428,861	663,080	0,034	-0,064
-427,846	-200,000	-0,028	-0,104
-426,832	-200,000	0,001	-0,133
-425,817	-200,000	-0,128	0,000
-424,803	-200,000	-0,012	0,050
-423,788	104,269	0,077	-0,067
-422,773	50,118	0,099	0,068
-421,759	182,703	-0,059	0,063
-420,744	-200,000	0,014	-0,074
-419,730	-172,781	0,139	0,003
-418,715	103,841	0,051	0,044
-417,701	31,512	0,058	0,036
-416,686	-200,000	0,000	-0,015
-415,671	-200,000	0,011	0,067
-414,657	-107,091	0,072	-0,012
-413,642	800,000	0,043	-0,130
-412,628	800,000	-0,040	-0,096
-411,613	800,000	0,018	-0,048
-410,598	286,679	-0,027	0,036
-409,584	-200,000	-0,036	0,186
-408,569	563,122	0,034	0,060
-407,555	-200,000	0,009	0,090
-406,540	800,000	-0,060	0,143
-405,525	-200,000	-0,008	0,046
-404,511	602,678	-0,049	-0,089
-403,496	800,000	-0,026	-0,067
-402,482	47,454	-0,025	0,017
-401,467	-64,016	0,089	0,026
-400,452	20,436	0,033	-0,019
-399,438	-65,448	0,071	-0,021
-398,423	800,000	0,020	0,059
-397,409	203,922	0,046	-0,053
-396,394	-200,000	-0,034	0,151
-395,379	800,000	-0,009	0,027
-394,365	55,865	-0,059	-0,042
-393,350	-36,105	-0,013	0,005
-392,336	113,374	0,048	-0,043
-391,321	-153,091	-0,098	0,005
-390,306	-84,109	-0,126	0,029
-389,292	-87,358	0,040	0,009
-388,277	26,274	-0,119	0,072
-387,263	549,254	0,072	0,127
-386,248	-200,000	0,005	0,107
-385,233	-200,000	0,002	0,137
-384,219	-141,663	0,031	-0,002
-383,204	-116,456	0,093	-0,012
-382,190	-98,325	-0,073	0,014
-381,175	147,423	0,044	-0,044
-380,160	-37,617	-0,022	0,009
-379,146	-200,000	-0,014	-0,058
-378,131	-200,000	-0,011	-0,116
-377,117	-200,000	-0,010	0,059
-376,102	799,013	-0,039	-0,080
-375,088	-46,582	0,124	0,044
-374,073	23,922	-0,117	0,070
-373,058	-78,527	0,058	-0,014
-372,044	135,481	0,091	0,086
-371,029	-98,323	0,098	-0,018
-370,015	-200,000	0,018	0,063
-369,000	-141,581	-0,069	-0,005
-367,985	189,079	0,038	0,041
-366,971	800,000	-0,007	0,014
-365,956	-158,819	-0,093	0,004
-364,942	800,000	-0,024	-0,066
-363,927	-200,000	0,015	-0,077
-362,912	800,000	0,029	0,067
-361,898	591,632	-0,049	0,089
-360,883	-75,325	0,036	-0,009
-359,869	-200,000	-0,029	-0,100
-358,854	71,834	0,059	0,045
-357,839	226,984	0,097	-0,116
-356,825	42,653	0,053	-0,035
-355,810	174,905	0,074	0,078
-354,796	-200,000	-0,008	0,090
-353,781	-200,000	0,011	0,083
-352,766	-82,183	0,064	0,015
-351,752	457,232	-0,104	-0,170
-350,737	800,000	0,011	-0,027
-349,723	-200,000	0,033	-0,114
-348,708	800,000	0,036	0,074
-347,693	800,000	-0,074	0,171
-346,679	-200,000	0,057	-0,258
-345,664	-200,000	0,006	-0,059
-344,650	383,181	0,027	0,040
-343,635	156,602	0,045	-0,045
-342,620	800,000	0,084	0,178
-341,606	180,173	0,120	0,129
-340,591	-37,804	0,017	-0,006
-339,577	800,000	-0,022	0,053
-338,562	305,577	-0,063	0,086
-337,548	198,810	0,046	0,051
-336,533	525,119	0,077	0,132
-335,518	323,528	-0,047	-0,066
-334,504	169,900	-0,066	0,069
-333,489	-200,000	-0,007	0,030
-332,475	-200,000	-0,010	-0,159
-331,460	-200,000	-0,015	-0,170
-330,445	34,325	-0,099	0,063
-329,431	-110,761	0,038	-0,006
-328,416	800,000	-0,025	-0,055
-327,402	800,000	0,017	-0,040
-326,387	-199,447	0,034	-0,000
-325,372	-200,000	0,006	0,036
-324,358	800,000	-0,040	-0,104
-323,343	619,738	-0,069	-0,127
-322,329	-200,000	-0,009	0,037
-321,314	13,933	-0,050	-0,028
-320,299	180,727	0,020	-0,021
-319,285	800,000	-0,041	-0,107
-318,270	-86,019	0,084	-0,019
-317,256	-59,669	-0,074	-0,023
-316,241	276,441	0,011	-0,014
-315,226	360,926	-0,046	-0,067
-314,212	51,098	0,023	0,016
-313,197	-200,000	0,006	0,038
-312,183	-92,526	-0,113	-0,023
-311,168	52,612	0,156	-0,108
-310,153	-102,953	0,089	-0,015
-309,139	-200,000	-0,011	0,049
-308,124	-29,560	0,106	0,044
-307,110	52,557	0,108	0,075
-306,095	311,414	-0,138	0,190
-305,080	-200,000	0,005	-0,024
-304,066	-169,813	0,076	-0,002
-303,051	1,974	-0,061	-0,032
-302,037	-61,586	-0,054	-0,016
-301,022	-138,283	0,057	0,005
-300,008	46,905	0,037	-0,025
-298,993	81,008	0,031	-0,024
-297,978	-116,836	-0,059	-0,008
-296,964	-200,000	0,007	-0,024
-295,949	-200,000	0,020	-0,131
-294,935	84,758	-0,118	0,094
-293,920	9,138	0,066	-0,036
-292,905	186,883	0,070	0,076
-291,891	-200,000	-0,002	-0,058
-290,876	-168,960	-0,035	-0,001
-289,862	363,058	-0,023	0,034
-288,847	-13,363	-0,088	-0,041
-287,832	-10,248	0,070	0,034
-286,818	88,372	0,101	-0,082
-285,803	-4,558	0,101	-0,051
-284,789	-200,000	0,050	0,166
-283,774	-122,734	-0,115	0,013
-282,759	-14,647	-0,081	-0,038
-281,745	800,000	0,035	-0,110
-280,730	-49,310	-0,028	-0,010
-279,716	-98,004	0,070	-0,013
-278,701	293,965	0,015	-0,020
-277,686	240,610	0,040	-0,049
-276,672	800,000	0,030	0,064
-275,657	-21,234	-0,131	-0,058
-274,643	-200,000	-0,089	0,000
-273,628	41,234	-0,085	-0,056
-272,613	150,466	0,048	0,048
-271,599	-165,652	0,087	0,003
-270,584	-77,506	-0,061	0,015
-269,570	-200,000	-0,002	0,027
-268,555	-76,790	0,071	-0,018
-267,540	-27,583	-0,095	-0,040
-266,526	-41,895	-0,110	-0,041
-265,511	-74,124	-0,029	-0,007
-264,497	256,686	0,066	0,083
-263,482	331,973	0,097	-0,136
-262,467	-15,206	0,052	-0,024
-261,453	36,321	0,172	0,110
-260,438	-91,821	-0,092	0,019
-259,424	-92,845	-0,051	0,010
-258,409	-43,487	0,042	0,015
-257,395	-122,991	0,074	-0,009
-256,380	-200,000	-0,014	0,059
-255,365	800,000	0,060	0,168
-254,351	-200,000	-0,015	0,124
-253,336	-200,000	-0,036	0,122
-252,322	-110,576	-0,166	0,025
-251,307	273,552	0,028	-0,037
-250,292	-107,919	0,106	0,017
-249,278	-200,000	-0,010	0,100
-248,263	97,627	0,086	-0,072
-247,249	800,000	0,035	0,075
-246,234	-200,000	-0,031	-0,112
-245,219	83,122	-0,160	-0,127
-244,205	-118,795	-0,109	0,014
-243,190	-200,000	-0,028	-0,092
-242,176	800,000	0,060	-0,154
-241,161	-79,617	-0,121	-0,029
-240,146	-200,000	-0,036	-0,121
-239,132	225,591	-0,045	-0,053
-238,117	800,000	0,009	-0,023
-237,103	127,274	-0,097	-0,090
-236,088	-30,160	0,035	0,014
-235,073	290,712	0,078	0,103
-234,059	778,980	-0,030	0,060
-233,044	800,000	0,024	0,073
-232,030	-33,843	0,038	0,015
-231,015	-200,000	0,009	-0,041
-230,000	210,232	0,014	-0,016
-228,986	529,588	0,088	0,151
-227,971	150,433	-0,033	-0,033
-226,957	482,891	0,026	-0,042
-225,942	13,634	0,118	-0,067
-224,927	-24,473	-0,054	0,023
-223,913	-178,403	-0,083	-0,001
-222,898	-200,000	-0,007	0,056
-221,884	-76,000	0,125	-0,032
-220,869	-13,536	-0,083	0,039
-219,855	-200,000	0,029	0,142
-218,840	-117,518	0,052	0,007
-217,825	800,000	0,037	-0,091
-216,811	169,189	-0,056	0,058
-215,796	-63,593	0,106	-0,031
-214,782	-200,000	-0,002	0,067
-213,767	-200,000	-0,011	-0,056
-212,752	63,725	0,068	0,050
-211,738	-200,000	0,025	0,146
-210,723	327,247	0,081	-0,114
-209,709	561,551	-0,045	-0,080
-208,694	-119,670	-0,065	0,008
-207,679	-4,681	0,079	-0,040
-206,665	800,000	-0,052	0,114
-205,650	-200,000	-0,021	0,100
-204,636	-91,750	0,043	0,009
-203,621	800,000	0,023	0,064
-202,606	224,069	-0,035	-0,041
-201,592	219,562	0,014	-0,016
-200,577	43,478	-0,076	-0,051
-199,563	551,058	-0,040	0,071
-198,548	-38,599	0,129	-0,049
-197,533	-200,000	0,011	0,108
-196,519	-5,352	0,044	0,022
-195,504	800,000	-0,044	-0,135
-194,490	-0,216	-0,139	0,072
-193,475	-143,775	-0,071	0,005
-192,460	-52,917	-0,105	-0,035
-191,446	-48,425	-0,096	-0,034
-190,431	-200,000	0,060	0,222
-189,417	800,000	-0,005	-0,014
-188,402	800,000	0,029	-0,089
-187,387	48,299	-0,043	0,029
-186,373	729,981	-0,036	-0,071
-185,358	800,000	0,011	-0,024
-184,344	-61,172	0,093	0,028
-183,329	486,112	-0,142	0,236
-182,315	-200,000	-0,011	0,070
-181,300	96,293	-0,103	0,085
-180,285	107,405	-0,122	-0,106
-179,271	180,461	-0,075	-0,080
-178,256	-200,000	0,017	-0,060
-177,242	-126,206	0,160	-0,017
-176,227	-0,642	0,052	0,027
-175,212	165,364	-0,089	0,091
-174,198	-2,010	-0,081	0,041
-173,183	362,905	0,031	-0,045
-172,169	-3,824	-0,057	-0,029
-171,154	-74,793	-0,117	0,030
-170,139	-191,859	0,096	-0,001
-169,125	16,458	-0,133	-0,076
-168,110	-102,126	0,074	-0,013
-167,096	-28,601	0,105	0,044
-166,081	87,588	0,082	-0,065
-165,066	163,974	-0,127	-0,129
-164,052	-200,000	0,033	0,170
-163,037	-86,327	0,114	0,025
-162,023	306,541	-0,089	-0,121
-161,008	-200,000	0,007	-0,045
-159,993	-75,418	0,093	0,024
-158,979	94,823	0,043	-0,035
-157,964	5,236	-0,056	-0,030
-156,950	-62,999	-0,139	-0,041
-155,935	-200,000	-0,026	0,113
-154,920	249,080	0,112	0,138
-153,906	183,641	0,114	0,123
-152,891	261,966	-0,109	0,138
-151,877	-47,048	0,076	0,027
-150,862	591,404	-0,035	-0,062
-149,847	89,827	0,081	-0,066
-148,833	424,775	-0,069	-0,109
-147,818	492,514	0,052	0,087
-146,804	553,313	-0,024	0,042
-145,789	-200,000	0,002	0,103
-144,775	75,758	0,036	-0,028
-143,760	-26,676	-0,023	-0,010
-142,745	-200,000	0,012	0,079
-141,731	800,000	0,040	-0,109
-140,716	184,531	0,093	0,100
-139,702	97,635	-0,074	-0,062
-138,687	39,920	0,039	0,026
-137,672	-64,358	-0,261	-0,076
-136,658	-200,000	0,044	-0,144
-135,643	424,761	0,015	0,023
-134,629	-147,229	-0,056	-0,003
-133,614	-50,927	-0,199	-0,067
-132,599	-63,814	0,054	0,016
-131,585	203,954	0,059	0,067
-130,570	163,274	0,118	-0,120
-129,556	13,147	-0,128	-0,072
-128,541	-75,556	-0,068	-0,017
-127,526	800,000	-0,011	0,024
-126,512	-113,280	-0,105	0,015
-125,497	-200,000	-0,028	0,132
-124,483	92,359	0,121	0,099
-123,468	62,627	-0,141	0,102
-122,453	800,000	-0,022	-0,056
-121,439	-200,000	-0,007	0,079
-120,424	-200,000	0,009	0,032
-119,410	-200,000	0,008	0,040
