DTS Sentinel unit serial number:	SN410029Multiplexer serial number:	ORYXHardware model number:	OX2-SRSoftware version number:	ORYX F/W v4,00 Oryx Data Collector v3.7.2.0data status	okinstallation	B4 Nyhavnadifferential loss correction	single-endedforward channel	channel 2reverse channel	N/Adate	2023/12/19time	00:10:13forward acquisition time	300,00reverse acquisition time	0,00gamma	499,1914k internal	0,3123k external	0,3123temperature offset calibration	1,0000default loss term (dB/km)	0,3820temperature slope calibration	1,0000multiplexer offset coefficient	1,0000multiplexer slope coefficient	1,0000fibre end	0,00T internal ref (°C)	22,22T ext. ref 1 (°C)	7,05T ext. ref 2 (°C)	7,08length (m)	temperature (°C)	Stokes	anti-Stokes-744,400	-200,000	0,012	-0,082
-743,385	-20,880	-0,278	0,126
-742,371	-200,000	-0,006	-0,188
-741,356	23,390	-0,206	0,126
-740,342	-105,177	0,208	0,035
-739,327	5,720	-0,229	0,126
-738,312	-200,000	0,009	-0,114
-737,298	44,479	-0,249	0,170
-736,283	24,205	0,064	0,039
-735,269	33,918	-0,164	0,106
-734,254	-200,000	0,006	0,070
-733,239	-118,124	-0,326	0,043
-732,225	169,107	0,059	0,063
-731,210	-109,900	0,051	-0,008
-730,196	-200,000	-0,012	-0,118
-729,181	-20,379	0,091	-0,042
-728,167	-200,000	-0,002	0,016
-727,152	180,729	0,045	-0,049
-726,137	800,000	-0,059	0,133
-725,123	31,601	-0,050	0,032
-724,108	-200,000	-0,010	-0,034
-723,094	704,999	0,059	-0,117
-722,079	-82,290	-0,087	-0,021
-721,064	272,230	0,116	-0,153
-720,050	-200,000	-0,016	-0,146
-719,035	-21,277	0,109	-0,049
-718,021	208,993	-0,052	-0,061
-717,006	459,542	-0,081	-0,134
-715,991	800,000	-0,016	-0,037
-714,977	276,904	-0,024	0,032
-713,962	800,000	-0,021	0,044
-712,948	19,131	-0,097	0,058
-711,933	333,734	-0,115	-0,166
-710,918	-200,000	0,001	-0,025
-709,904	800,000	0,035	-0,080
-708,889	-142,538	-0,089	0,006
-707,875	800,000	-0,056	-0,157
-706,860	329,534	-0,063	-0,091
-705,845	231,369	-0,008	0,010
-704,831	1,524	-0,143	0,076
-703,816	-167,923	-0,094	-0,003
-702,802	180,264	-0,047	0,051
-701,787	-200,000	0,023	-0,100
-700,772	-70,941	-0,020	0,006
-699,758	242,954	-0,022	-0,028
-698,743	-116,730	0,007	0,001
-697,729	172,432	0,035	0,037
-696,714	-57,706	0,056	0,018
-695,699	800,000	-0,035	0,110
-694,685	39,973	-0,063	0,042
-693,670	-200,000	-0,007	0,061
-692,656	-59,591	0,163	0,052
-691,641	606,017	0,028	-0,052
-690,627	224,472	-0,042	0,051
-689,612	-200,000	0,034	0,119
-688,597	-8,656	0,078	-0,039
-687,583	379,767	-0,042	-0,064
-686,568	800,000	-0,025	-0,064
-685,554	-111,133	0,067	-0,010
-684,539	-79,490	0,015	-0,004
-683,524	106,836	0,057	-0,050
-682,510	-50,058	-0,029	0,010
-681,495	41,175	-0,056	-0,038
-680,481	96,600	-0,106	-0,090
-679,466	-36,974	-0,112	-0,045
-678,451	-200,000	0,011	-0,093
-677,437	-174,096	-0,041	0,001
-676,422	69,065	0,066	-0,051
-675,408	-63,019	0,123	0,038
-674,393	-200,000	-0,035	0,146
-673,378	604,979	-0,041	0,076
-672,364	89,869	-0,087	-0,072
-671,349	554,818	-0,018	-0,032
-670,335	147,294	-0,045	-0,046
-669,320	-200,000	0,018	0,070
-668,305	153,256	0,015	0,015
-667,291	-42,753	-0,090	0,034
-666,276	67,145	-0,091	-0,069
-665,262	-200,000	-0,049	0,170
-664,247	318,797	0,005	0,007
-663,232	107,946	0,053	-0,047
-662,218	-29,760	0,103	0,044
-661,203	-200,000	-0,005	0,027
-660,189	-200,000	-0,011	-0,053
-659,174	800,000	-0,042	0,097
-658,159	713,550	-0,072	-0,142
-657,145	-69,859	-0,124	0,035
-656,130	-50,779	0,107	0,037
-655,116	-48,379	0,061	0,022
-654,101	-54,494	0,125	-0,042
-653,086	800,000	-0,038	0,094
-652,072	0,038	-0,021	0,011
-651,057	-76,791	0,023	-0,006
-650,043	800,000	0,015	-0,043
-649,028	-5,743	0,040	0,020
-648,014	800,000	-0,007	0,016
-646,999	-23,373	-0,082	-0,036
-645,984	320,750	0,047	0,067
-644,970	63,320	-0,038	0,029
-643,955	189,684	-0,115	0,128
-642,941	-98,517	-0,075	0,014
-641,926	-200,000	-0,005	0,134
-640,911	-200,000	-0,015	-0,072
-639,897	-147,248	0,057	-0,004
-638,882	-145,729	0,106	0,007
-637,868	-95,851	0,114	-0,022
-636,853	-82,215	-0,061	0,015
-635,838	-15,811	-0,095	-0,045
-634,824	-200,000	0,012	0,066
-633,809	800,000	0,060	0,137
-632,795	140,064	0,061	0,060
-631,780	-34,892	-0,103	0,041
-630,765	-8,742	-0,123	0,061
-629,751	-200,000	-0,044	-0,170
-628,736	24,636	-0,116	-0,071
-627,722	516,823	0,068	0,119
-626,707	-82,270	0,091	0,022
-625,692	-200,000	-0,023	-0,077
-624,678	-200,000	-0,007	-0,045
-623,663	-156,047	0,088	-0,004
-622,649	-200,000	-0,009	-0,112
-621,634	-200,000	-0,023	0,086
-620,619	-200,000	-0,000	-0,060
-619,605	235,503	-0,056	-0,068
-618,590	354,502	-0,036	-0,054
-617,576	-142,976	0,080	0,006
-616,561	460,677	-0,045	-0,074
-615,546	800,000	0,026	-0,059
-614,532	-138,729	-0,107	0,009
-613,517	78,647	-0,098	-0,077
-612,503	394,033	-0,048	0,074
-611,488	-118,079	0,100	-0,013
-610,474	-164,853	0,096	-0,003
-609,459	-88,633	0,038	0,008
-608,444	721,774	0,048	0,095
-607,430	-117,245	-0,209	-0,028
-606,415	-200,000	-0,005	-0,069
-605,401	9,351	0,088	-0,049
-604,386	-25,828	0,093	-0,040
-603,371	14,212	0,109	-0,063
-602,357	-3,589	0,068	0,035
-601,342	153,013	0,050	-0,051
-600,328	-146,554	0,073	0,005
-599,313	-66,090	-0,060	-0,018
-598,298	44,050	0,055	-0,037
-597,284	-168,009	-0,075	-0,002
-596,269	0,421	0,083	-0,044
-595,255	9,090	0,146	0,082
-594,240	-58,097	-0,131	-0,042
-593,225	38,303	-0,052	-0,034
-592,211	-127,514	-0,008	0,001
-591,196	-200,000	-0,016	0,098
-590,182	741,291	0,030	-0,061
-589,167	-95,118	0,060	0,012
-588,152	-200,000	0,017	0,082
-587,138	69,084	-0,120	-0,092
-586,123	758,189	-0,038	-0,078
-585,109	168,992	-0,044	-0,046
-584,094	133,305	-0,100	-0,096
-583,079	800,000	0,025	-0,080
-582,065	-174,747	-0,052	-0,001
-581,050	-200,000	0,019	0,102
-580,036	231,351	0,043	-0,053
-579,021	457,590	0,035	-0,057
-578,006	-14,568	-0,065	0,031
-576,992	-75,846	0,122	0,032
-575,977	-200,000	-0,010	0,094
-574,963	-200,000	-0,001	-0,024
-573,948	437,185	-0,062	0,101
-572,934	151,678	-0,058	0,059
-571,919	140,358	-0,073	-0,072
-570,904	-130,601	-0,072	-0,007
-569,890	800,000	-0,057	-0,118
-568,875	548,644	0,020	0,036
-567,861	-35,343	-0,112	-0,045
-566,846	-145,260	-0,035	-0,002
-565,831	123,352	0,033	0,030
-564,817	-90,654	-0,084	0,018
-563,802	0,331	-0,094	-0,050
-562,788	451,041	-0,016	-0,026
-561,773	76,601	0,124	-0,097
-560,758	255,367	0,044	0,056
-559,744	-89,719	-0,077	0,017
-558,729	700,678	-0,052	-0,102
-557,715	290,252	-0,112	-0,151
-556,700	566,051	-0,059	-0,106
-555,685	800,000	-0,037	-0,077
-554,671	-38,337	0,069	-0,027
-553,656	236,574	-0,074	0,091
-552,642	-19,548	0,025	0,011
-551,627	800,000	-0,023	-0,072
-550,612	-99,883	0,051	0,009
-549,598	-5,267	0,063	-0,032
-548,583	549,064	0,055	0,098
-547,569	-200,000	0,021	-0,125
-546,554	48,092	0,021	-0,015
-545,539	515,292	0,045	-0,079
-544,525	122,164	0,065	0,060
-543,510	15,146	0,059	-0,034
-542,496	-108,262	-0,104	0,016
-541,481	-200,000	0,002	-0,069
-540,466	-152,484	0,080	-0,004
-539,452	360,495	0,079	0,117
-538,437	679,041	0,018	-0,035
-537,423	-7,358	-0,145	-0,072
-536,408	-200,000	-0,020	0,135
-535,393	-141,870	0,043	-0,003
-534,379	178,896	-0,065	-0,070
-533,364	-22,948	-0,090	0,040
-532,350	28,279	-0,047	-0,030
-531,335	776,087	-0,060	0,122
-530,321	218,416	0,012	-0,015
-529,306	-200,000	0,002	0,057
-528,291	47,677	-0,098	-0,067
-527,277	-112,605	-0,036	0,005
-526,262	800,000	0,041	0,092
-525,248	115,627	0,156	0,141
-524,233	47,870	0,098	-0,067
-523,218	-85,084	-0,064	-0,015
-522,204	-200,000	0,001	0,082
-521,189	364,013	-0,064	0,095
-520,175	-66,455	-0,161	-0,047
-519,160	800,000	0,007	-0,019
-518,145	-79,449	0,148	-0,037
-517,131	-23,709	0,052	0,023
-516,116	131,383	0,020	-0,019
-515,102	800,000	-0,041	-0,097
-514,087	-200,000	0,012	-0,055
-513,072	800,000	-0,085	-0,211
-512,058	117,985	-0,037	0,034
-511,043	800,000	0,028	-0,060
-510,029	86,812	0,049	0,040
-509,014	64,014	0,048	-0,035
-507,999	-111,891	0,120	-0,018
-506,985	211,633	-0,159	-0,185
-505,970	-5,478	-0,037	0,019
-504,956	693,332	0,029	0,057
-503,941	215,565	-0,060	-0,070
-502,926	-22,757	0,051	-0,023
-501,912	800,000	0,021	0,056
-500,897	-200,000	0,005	0,164
-499,883	-200,000	0,027	-0,119
-498,868	-200,000	-0,008	-0,130
-497,853	-19,063	-0,024	0,011
-496,839	372,786	0,067	0,101
-495,824	14,932	0,070	-0,040
-494,810	800,000	-0,048	0,112
-493,795	74,694	0,105	0,082
-492,781	207,903	0,069	0,080
-491,766	110,934	-0,114	-0,101
-490,751	-135,634	-0,079	-0,007
-489,737	203,413	0,078	-0,089
-488,722	25,835	0,047	-0,029
-487,708	-200,000	0,032	0,191
-486,693	-200,000	-0,004	0,143
-485,678	162,939	-0,090	0,094
-484,664	110,652	-0,091	0,081
-483,649	-8,797	0,032	0,016
-482,635	-70,959	-0,124	-0,034
-481,620	800,000	0,077	0,176
-480,605	437,687	-0,053	0,085
-479,591	-12,188	-0,069	0,033
-478,576	-200,000	-0,015	0,060
-477,562	800,000	-0,026	-0,056
-476,547	56,425	-0,111	0,080
-475,532	33,871	0,048	0,031
-474,518	-32,040	0,019	-0,008
-473,503	-83,049	-0,080	-0,019
-472,489	623,980	0,043	-0,080
-471,474	47,612	-0,060	-0,041
-470,459	61,144	-0,049	-0,036
-469,445	-99,091	0,099	-0,018
-468,430	125,296	-0,071	0,066
-467,416	-200,000	-0,017	0,076
-466,401	-37,330	0,083	0,033
-465,386	800,000	0,028	0,070
-464,372	165,939	-0,048	0,051
-463,357	-200,000	-0,012	0,043
-462,343	-200,000	-0,031	-0,136
-461,328	-47,939	-0,097	0,034
-460,313	-200,000	0,003	0,094
-459,299	11,818	0,133	0,075
-458,284	-200,000	0,009	0,090
-457,270	4,495	-0,066	-0,036
-456,255	-37,173	0,064	-0,025
-455,241	-33,643	-0,119	-0,048
-454,226	142,681	0,053	-0,052
-453,211	25,042	0,032	0,020
-452,197	63,044	0,069	0,051
-451,182	-35,110	-0,066	-0,026
-450,168	-48,027	0,073	0,026
-449,153	136,583	-0,107	-0,103
-448,138	800,000	-0,052	-0,109
-447,124	-200,000	0,026	-0,115
-446,109	-200,000	0,008	-0,094
-445,095	83,833	0,074	0,059
-444,080	-17,283	0,091	-0,042
-443,065	-84,158	-0,093	-0,022
-442,051	340,667	-0,097	0,139
-441,036	-157,045	0,030	0,001
-440,022	-200,000	-0,027	0,130
-439,007	767,586	-0,044	-0,088
-437,992	25,415	0,080	-0,049
-436,978	-30,711	-0,046	-0,019
-435,963	-33,387	-0,069	-0,028
-434,949	97,720	-0,091	0,077
-433,934	31,024	0,087	-0,055
-432,919	68,903	-0,039	-0,030
-431,905	-200,000	-0,014	-0,097
-430,890	76,383	-0,103	0,080
-429,876	-200,000	0,007	0,071
-428,861	800,000	0,054	0,140
-427,846	-38,442	-0,106	0,041
-426,832	776,719	-0,006	0,012
-425,817	-17,898	-0,089	-0,041
-424,803	-52,099	0,079	0,027
-423,788	-106,415	0,072	-0,012
-422,773	-27,256	-0,107	0,046
-421,759	24,662	0,077	-0,047
-420,744	-200,000	-0,008	-0,097
-419,730	800,000	-0,049	-0,122
-418,715	-50,715	-0,150	-0,052
-417,701	-200,000	0,004	0,084
-416,686	-56,912	0,129	0,042
-415,671	-200,000	-0,003	0,019
-414,657	688,113	-0,022	0,043
-413,642	263,057	-0,060	0,077
-412,628	-61,177	-0,143	0,044
-411,613	-175,374	-0,137	0,003
-410,598	-200,000	-0,004	-0,112
-409,584	-41,343	0,107	0,040
-408,569	800,000	0,023	0,075
-407,555	-30,836	0,080	-0,033
-406,540	-200,000	-0,002	-0,011
-405,525	-60,014	0,075	-0,024
-404,511	-146,434	0,066	0,004
-403,496	-200,000	-0,012	0,057
-402,482	-200,000	0,017	0,171
-401,467	-24,854	-0,102	0,044
-400,452	-144,270	0,173	0,012
-399,438	374,499	0,052	0,078
-398,423	79,600	-0,079	-0,063
-397,409	157,970	0,048	-0,049
-396,394	733,496	-0,022	-0,044
-395,379	-200,000	-0,048	-0,173
-394,365	-5,902	0,067	0,034
-393,350	24,184	-0,016	-0,010
-392,336	-200,000	0,006	0,090
-391,321	-176,967	-0,119	-0,002
-390,306	54,541	-0,096	0,068
-389,292	-41,607	0,133	0,050
-388,277	-200,000	0,000	0,014
-387,263	-63,979	0,117	-0,035
-386,248	800,000	-0,040	0,106
-385,233	28,977	0,035	0,022
-384,219	-173,910	0,110	-0,002
-383,204	-200,000	0,028	-0,137
-382,190	-29,248	-0,036	-0,015
-381,175	404,868	0,040	-0,062
-380,160	306,274	-0,064	0,088
-379,146	246,478	0,085	0,105
-378,131	-50,430	0,093	-0,032
-377,117	-157,552	0,052	-0,002
-376,102	800,000	-0,018	-0,047
-375,088	-132,516	-0,109	0,010
-374,073	-200,000	-0,071	-0,000
-373,058	224,926	0,035	-0,042
-372,044	-154,675	0,091	0,004
-371,029	-200,000	0,023	0,164
-370,015	-43,876	-0,052	-0,019
-369,000	-200,000	-0,014	-0,092
-367,985	-200,000	-0,040	-0,168
-366,971	-200,000	-0,010	-0,157
-365,956	70,193	0,055	0,041
-364,942	800,000	-0,014	-0,033
-363,927	-102,493	0,191	-0,033
-362,912	503,394	0,045	0,076
-361,898	23,917	0,040	-0,024
-360,883	-68,278	0,235	0,067
-359,869	94,293	-0,036	-0,030
-358,854	3,938	0,014	-0,007
-357,839	-200,000	-0,001	-0,086
-356,825	360,277	0,046	-0,068
-355,810	-200,000	0,022	-0,152
-354,796	-153,941	0,127	0,006
-353,781	-53,653	-0,178	-0,059
-352,766	20,986	-0,045	-0,027
-351,752	-141,587	-0,051	0,004
-350,737	-38,635	0,160	0,062
-349,723	213,690	-0,026	-0,031
-348,708	-10,059	0,112	-0,055
-347,693	369,153	-0,089	0,132
-346,679	-200,000	-0,013	-0,148
-345,664	-26,830	0,053	0,022
-344,650	64,798	-0,079	0,059
-343,635	209,756	0,071	-0,081
-342,620	455,289	0,053	-0,087
-341,606	-163,163	-0,057	0,002
-340,591	159,235	-0,060	-0,061
-339,577	800,000	-0,006	0,017
-338,562	-200,000	0,016	-0,154
-337,548	44,145	0,113	-0,076
-336,533	22,704	0,077	-0,046
-335,518	237,277	0,059	0,071
-334,504	-111,612	-0,056	0,008
-333,489	-200,000	0,003	0,073
-332,475	-46,632	0,048	0,017
-331,460	800,000	0,012	-0,035
-330,445	-200,000	0,010	0,084
-329,431	-81,059	0,039	-0,009
-328,416	369,469	0,028	0,042
-327,402	-200,000	0,013	0,079
-326,387	-200,000	-0,020	0,072
-325,372	-200,000	-0,007	-0,124
-324,358	-200,000	-0,031	-0,112
-323,343	-57,446	0,116	-0,037
-322,329	800,000	-0,038	0,094
-321,314	12,971	-0,048	-0,027
-320,299	110,795	0,045	-0,040
-319,285	-200,000	0,009	0,121
-318,270	-200,000	0,018	-0,063
-317,256	330,929	-0,050	0,071
-316,241	-36,814	0,145	0,057
-315,226	800,000	-0,040	-0,085
-314,212	130,061	0,117	0,110
-313,197	139,302	0,023	0,022
-312,183	800,000	0,019	-0,046
-311,168	-57,432	0,067	0,021
-310,153	-83,751	-0,026	-0,006
-309,139	50,589	0,039	-0,027
-308,124	293,339	0,015	-0,020
-307,110	-102,803	0,126	0,022
-306,095	677,887	0,047	-0,089
-305,080	152,288	-0,029	0,029
-304,066	-73,646	-0,015	-0,004
-303,051	142,718	-0,032	0,032
-302,037	-200,000	-0,007	-0,047
-301,022	-200,000	-0,012	0,083
-300,008	-149,396	0,071	-0,004
-298,993	160,275	0,032	-0,033
-297,978	505,413	-0,065	-0,110
-296,964	-160,762	-0,061	-0,002
-295,949	-23,543	-0,091	0,040
-294,935	214,034	-0,071	0,082
-293,920	656,222	0,087	0,165
-292,905	235,234	0,043	-0,052
-291,891	-200,000	-0,007	0,036
-290,876	71,308	-0,094	0,072
-289,862	-200,000	-0,016	-0,180
-288,847	449,354	-0,078	-0,126
-287,832	74,869	-0,058	0,045
-286,818	7,187	-0,014	0,008
-285,803	38,835	0,036	-0,024
-284,789	-18,738	0,027	-0,012
-283,774	269,337	-0,011	-0,014
-282,759	176,655	0,052	0,055
-281,745	342,430	0,078	0,112
-280,730	15,460	-0,042	0,024
-279,716	-30,161	0,082	0,034
-278,701	800,000	-0,016	0,048
-277,686	-200,000	0,053	0,251
-276,672	-200,000	0,004	0,044
-275,657	-42,260	-0,111	-0,041
-274,643	-200,000	0,027	-0,147
-273,628	39,440	0,128	0,084
-272,613	26,058	-0,050	0,030
-271,599	-200,000	-0,025	0,139
-270,584	-200,000	-0,005	0,074
-269,570	-41,062	0,115	0,043
-268,555	-73,055	0,012	0,003
-267,540	-0,333	0,054	0,028
-266,526	486,104	-0,036	0,061
-265,511	95,365	-0,005	0,004
-264,497	-102,427	0,047	-0,008
-263,482	-181,604	0,171	-0,002
-262,467	800,000	0,056	0,170
-261,453	800,000	-0,045	0,099
-260,438	-118,807	0,111	-0,014
-259,424	129,605	-0,057	-0,053
-258,409	-200,000	0,017	-0,090
-257,395	143,920	-0,045	-0,044
-256,380	-48,520	0,030	-0,011
-255,365	-121,691	0,083	0,010
-254,351	58,481	0,151	-0,108
-253,336	92,888	0,080	-0,066
-252,322	-200,000	0,003	-0,048
-251,307	-87,383	-0,195	0,043
-250,292	-17,624	0,116	0,053
-249,278	-111,837	0,125	-0,018
-248,263	-200,000	-0,004	-0,089
-247,249	-200,000	-0,000	-0,031
-246,234	-200,000	-0,014	-0,102
-245,219	26,548	-0,139	-0,085
-244,205	184,996	0,111	-0,120
-243,190	-188,054	-0,070	-0,001
-242,176	322,714	-0,050	0,070
-241,161	268,572	0,030	0,038
-240,146	24,637	-0,194	0,117
-239,132	800,000	-0,021	0,049
-238,117	800,000	-0,086	-0,202
-237,103	135,816	-0,106	-0,101
-236,088	800,000	0,036	0,082
-235,073	569,498	0,076	-0,135
-234,059	798,219	0,021	-0,043
-233,044	-200,000	-0,038	0,137
-232,030	-78,124	-0,031	-0,008
-231,015	-125,897	-0,058	0,006
-230,000	-4,567	0,045	-0,022
-228,986	295,739	0,042	0,057
-227,971	-200,000	-0,018	0,061
-226,957	53,241	0,064	0,045
-225,942	-34,024	-0,017	-0,007
-224,927	418,847	0,071	0,112
-223,913	196,897	-0,092	-0,103
-222,898	51,425	0,011	-0,008
-221,884	-185,144	0,162	-0,002
-220,869	-54,096	-0,091	0,030
-219,855	-200,000	0,002	-0,090
-218,840	-200,000	-0,017	0,129
-217,825	-0,626	-0,099	-0,051
-216,811	-151,526	-0,083	-0,004
-215,796	110,867	-0,050	0,044
-214,782	-6,537	0,035	0,017
-213,767	-125,993	0,117	-0,013
-212,752	506,117	0,060	0,102
-211,738	-152,833	-0,097	-0,005
-210,723	-200,000	-0,011	0,071
-209,709	67,438	-0,091	0,068
-208,694	-14,400	-0,038	-0,018
-207,679	-115,330	-0,049	-0,007
-206,665	-165,047	0,109	0,003
-205,650	-11,426	0,043	0,021
-204,636	-200,000	-0,006	-0,101
-203,621	220,907	0,048	-0,056
-202,606	800,000	0,031	0,070
-201,592	-200,000	-0,030	-0,118
-200,577	-58,540	-0,044	0,014
-199,563	-40,984	-0,035	-0,013
-198,548	-131,230	0,079	0,008
-197,533	-200,000	-0,001	-0,010
-196,519	800,000	0,034	0,074
-195,504	-16,935	0,110	-0,051
-194,490	-200,000	0,000	0,010
-193,475	-115,856	-0,113	-0,015
-192,460	87,447	-0,056	0,046
-191,446	-200,000	0,039	0,155
-190,431	-200,000	-0,018	0,178
-189,417	-71,733	0,098	0,027
-188,402	800,000	-0,027	-0,069
-187,387	-200,000	0,029	-0,097
-186,373	465,089	-0,063	0,103
-185,358	128,732	-0,062	-0,058
-184,344	-113,077	0,151	0,021
-183,329	316,239	-0,094	-0,130
-182,315	-200,000	-0,019	0,075
-181,300	443,860	-0,061	-0,097
-180,285	-94,641	-0,015	-0,003
-179,271	158,181	0,067	0,068
-178,256	800,000	-0,011	-0,031
-177,242	-200,000	-0,004	0,082
-176,227	-200,000	0,007	-0,034
-175,212	-76,121	0,145	-0,037
-174,198	89,024	-0,041	0,033
-173,183	-189,971	-0,086	0,001
-172,169	-81,967	-0,183	0,043
-171,154	-200,000	0,013	0,072
-170,139	96,833	-0,075	0,063
-169,125	-6,148	0,023	-0,011
-168,110	586,730	0,075	-0,135
-167,096	800,000	-0,041	-0,090
-166,081	-200,000	-0,012	-0,120
-165,066	800,000	-0,040	0,092
-164,052	40,483	-0,012	0,008
-163,037	800,000	0,049	0,108
-162,023	-200,000	-0,025	0,084
-161,008	-200,000	-0,000	0,027
-159,993	82,799	-0,012	0,010
-158,979	153,657	-0,076	0,076
-157,964	-200,000	-0,022	-0,148
-156,950	-200,000	-0,001	-0,044
-155,935	43,919	-0,040	-0,027
-154,920	38,924	0,074	0,048
-153,906	-75,559	-0,119	-0,031
-152,891	800,000	0,030	-0,065
-151,877	-117,180	0,138	-0,018
-150,862	-60,199	-0,089	-0,027
-149,847	800,000	-0,012	0,032
-148,833	-200,000	-0,012	0,127
-147,818	130,535	0,023	0,021
-146,804	217,410	-0,032	0,037
-145,789	36,101	-0,065	0,041
-144,775	-200,000	-0,009	-0,061
-143,760	-200,000	0,009	-0,096
-142,745	-130,271	0,077	-0,008
-141,731	-200,000	0,022	0,072
-140,716	198,675	0,077	0,086
-139,702	335,010	0,076	0,108
-138,687	-200,000	-0,010	0,076
-137,672	-200,000	-0,042	0,155
-136,658	-200,000	0,094	0,000
-135,643	800,000	-0,055	-0,148
-134,629	-42,629	-0,077	0,029
-133,614	34,185	0,072	-0,046
-132,599	-76,091	0,024	-0,006
-131,585	376,264	0,041	0,061
-130,570	504,787	-0,101	0,172
-129,556	5,314	-0,090	-0,048
-128,541	-111,492	-0,107	0,016
-127,526	406,803	0,036	-0,056
-126,512	92,798	0,032	-0,026
-125,497	-200,000	-0,002	0,024
-124,483	800,000	0,037	0,094
-123,468	-200,000	0,005	0,081
-122,453	-79,042	0,043	-0,011
-121,439	192,022	0,051	0,056
-120,424	-200,000	0,004	-0,052
-119,410	-14,988	-0,112	-0,052
