DTS Sentinel unit serial number:	SN410029Multiplexer serial number:	ORYXHardware model number:	OX2-SRSoftware version number:	ORYX F/W v4,00 Oryx Data Collector v3.7.2.0data status	okinstallation	B4 Nyhavnadifferential loss correction	single-endedforward channel	channel 2reverse channel	N/Adate	2023/12/16time	07:05:13forward acquisition time	300,00reverse acquisition time	0,00gamma	499,1914k internal	0,3127k external	0,3127temperature offset calibration	1,0000default loss term (dB/km)	0,3820temperature slope calibration	1,0000multiplexer offset coefficient	1,0000multiplexer slope coefficient	1,0000fibre end	0,00T internal ref (°C)	22,32T ext. ref 1 (°C)	7,56T ext. ref 2 (°C)	7,76length (m)	temperature (°C)	Stokes	anti-Stokes-744,400	-107,902	-0,030	0,005
-743,385	-170,200	-0,151	0,004
-742,371	-132,548	0,154	-0,015
-741,356	95,923	-0,181	0,154
-740,342	-200,000	0,010	0,066
-739,327	4,340	-0,293	0,159
-738,312	24,445	0,039	-0,024
-737,298	-6,864	-0,298	0,150
-736,283	168,175	0,040	-0,042
-735,269	3,854	-0,256	0,139
-734,254	1,967	-0,089	-0,048
-733,239	72,094	-0,227	-0,175
-732,225	-2,789	0,180	-0,093
-731,210	636,946	-0,091	0,172
-730,196	228,638	-0,042	-0,051
-729,181	-101,166	-0,207	-0,037
-728,167	-33,172	-0,051	-0,021
-727,152	-200,000	-0,017	0,106
-726,137	-200,000	-0,010	0,040
-725,123	-31,274	-0,036	0,015
-724,108	21,314	-0,042	-0,025
-723,094	149,999	-0,062	-0,063
-722,079	-1,305	-0,139	0,073
-721,064	-200,000	-0,016	-0,143
-720,050	-124,456	0,074	-0,008
-719,035	701,237	-0,040	0,079
-718,021	349,208	-0,079	-0,117
-717,006	800,000	-0,012	-0,027
-715,991	98,950	-0,124	-0,106
-714,977	800,000	0,025	0,071
-713,962	49,125	-0,029	-0,020
-712,948	800,000	-0,034	-0,080
-711,933	0,039	-0,074	-0,039
-710,918	800,000	0,059	-0,139
-709,904	652,130	-0,052	-0,099
-708,889	153,538	-0,015	-0,015
-707,875	524,036	0,062	-0,109
-706,860	224,249	0,035	0,042
-705,845	-166,572	-0,073	-0,002
-704,831	-200,000	0,042	0,189
-703,816	14,656	-0,174	-0,101
-702,802	-99,226	-0,182	-0,034
-701,787	134,396	-0,143	-0,138
-700,772	-78,963	-0,059	0,015
-699,758	362,826	-0,039	-0,059
-698,743	502,157	-0,056	0,097
-697,729	288,338	0,090	-0,121
-696,714	-200,000	0,005	0,043
-695,699	257,375	0,072	-0,092
-694,685	-90,878	-0,103	-0,022
-693,670	328,263	-0,075	-0,107
-692,656	403,567	0,083	0,130
-691,641	-123,323	0,087	-0,010
-690,627	-87,840	0,089	0,020
-689,612	-29,430	0,054	0,023
-688,597	-73,761	-0,075	-0,020
-687,583	800,000	0,043	-0,105
-686,568	194,232	-0,064	0,072
-685,554	13,171	0,023	-0,013
-684,539	-159,260	0,134	0,005
-683,524	-148,214	-0,078	0,005
-682,510	-200,000	0,036	-0,123
-681,495	-39,767	-0,029	0,011
-680,481	-11,309	-0,121	-0,059
-679,466	-171,853	-0,088	0,002
-678,451	-200,000	0,035	-0,135
-677,437	359,050	-0,061	0,091
-676,422	-61,460	-0,077	-0,024
-675,408	-102,397	0,052	-0,009
-674,393	-200,000	-0,005	-0,105
-673,378	558,816	-0,062	-0,112
-672,364	13,832	0,101	-0,058
-671,349	-40,274	-0,082	-0,031
-670,335	-200,000	0,004	0,168
-669,320	116,513	0,136	0,124
-668,305	0,837	-0,044	0,023
-667,291	-166,389	-0,047	0,001
-666,276	88,696	-0,010	0,008
-665,262	-91,613	-0,037	-0,008
-664,247	577,805	0,004	-0,008
-663,232	-57,654	-0,053	-0,017
-662,218	-200,000	0,020	-0,075
-661,203	800,000	-0,004	-0,009
-660,189	-106,992	-0,039	-0,006
-659,174	-68,027	-0,106	-0,030
-658,159	-200,000	-0,032	0,181
-657,145	570,938	0,036	-0,066
-656,130	800,000	0,045	0,113
-655,116	-200,000	-0,019	-0,131
-654,101	63,579	-0,101	0,075
-653,086	656,272	0,029	-0,055
-652,072	100,090	0,034	0,030
-651,057	-200,000	0,016	-0,085
-650,043	-200,000	0,026	-0,104
-649,028	-200,000	0,004	0,061
-648,014	800,000	0,043	0,133
-646,999	182,057	-0,050	-0,055
-645,984	-26,637	-0,021	0,009
-644,970	-200,000	0,002	-0,061
-643,955	6,916	-0,173	-0,096
-642,941	63,939	-0,041	0,030
-641,926	84,282	0,024	0,020
-640,911	-200,000	0,004	-0,119
-639,897	9,912	0,104	-0,058
-638,882	-200,000	-0,001	-0,046
-637,868	240,315	-0,068	-0,084
-636,853	-30,465	-0,055	0,023
-635,838	17,380	-0,170	-0,100
-634,824	-117,359	-0,079	0,011
-633,809	252,570	0,016	-0,020
-632,795	22,941	0,035	-0,021
-631,780	205,066	-0,094	-0,108
-630,765	800,000	0,029	0,087
-629,751	-31,750	0,024	0,010
-628,736	-200,000	-0,001	-0,049
-627,722	-167,690	-0,199	-0,006
-626,707	-200,000	-0,042	-0,172
-625,692	-88,916	0,061	-0,013
-624,678	800,000	-0,008	-0,021
-623,663	349,497	0,065	0,095
-622,649	-200,000	-0,015	-0,088
-621,634	283,586	-0,058	-0,078
-620,619	14,737	0,077	0,045
-619,605	-200,000	-0,034	0,120
-618,590	-200,000	0,016	0,098
-617,576	53,421	0,095	-0,068
-616,561	249,042	-0,027	-0,034
-615,546	-41,298	0,086	-0,033
-614,532	278,050	0,036	-0,048
-613,517	800,000	0,037	-0,077
-612,503	-164,669	-0,146	0,005
-611,488	-4,249	-0,036	0,019
-610,474	-77,220	0,033	0,008
-609,459	800,000	-0,053	-0,121
-608,444	288,415	0,029	-0,039
-607,430	-200,000	-0,051	0,000
-606,415	630,073	-0,056	-0,105
-605,401	-62,369	0,017	0,005
-604,386	194,071	0,089	-0,100
-603,371	800,000	0,030	0,067
-602,357	-141,450	-0,081	0,006
-601,342	88,455	0,111	0,091
-600,328	114,589	-0,112	-0,101
-599,313	-176,389	0,057	0,001
-598,298	800,000	0,025	0,075
-597,284	-118,872	0,064	0,008
-596,269	32,432	0,052	0,033
-595,255	84,232	0,009	0,007
-594,240	-200,000	0,005	0,149
-593,225	87,502	0,035	0,029
-592,211	-175,538	-0,174	-0,003
-591,196	140,810	0,128	-0,125
-590,182	50,487	0,047	0,033
-589,167	76,995	0,101	0,080
-588,152	788,719	-0,015	0,030
-587,138	800,000	-0,069	-0,175
-586,123	-200,000	-0,025	0,110
-585,109	-200,000	0,009	0,154
-584,094	21,516	0,026	-0,016
-583,079	-0,894	0,057	0,030
-582,065	-200,000	-0,002	0,029
-581,050	-200,000	-0,029	0,151
-580,036	655,530	0,088	0,169
-579,021	433,549	-0,128	0,206
-578,006	-200,000	0,010	0,036
-576,992	-57,481	0,036	0,012
-575,977	-200,000	0,003	-0,038
-574,963	12,121	0,229	0,130
-573,948	13,617	-0,037	-0,021
-572,934	-200,000	0,045	-0,171
-571,919	-200,000	-0,016	-0,076
-570,904	614,003	-0,046	0,086
-569,890	800,000	-0,024	0,074
-568,875	78,816	0,088	0,070
-567,861	415,158	-0,060	0,094
-566,846	-200,000	-0,015	0,112
-565,831	386,245	0,053	0,082
-564,817	-22,403	-0,061	0,027
-563,802	-179,329	0,023	0,000
-562,788	581,477	-0,074	0,135
-561,773	800,000	-0,032	0,073
-560,758	-118,936	0,151	-0,019
-559,744	800,000	-0,023	-0,062
-558,729	180,999	-0,076	0,083
-557,715	121,156	0,070	0,065
-556,700	-123,573	-0,082	-0,010
-555,685	-200,000	0,035	0,223
-554,671	-63,598	-0,214	-0,065
-553,656	-34,921	-0,139	0,056
-552,642	-200,000	0,001	-0,012
-551,627	-22,065	-0,065	0,029
-550,612	-127,038	0,087	-0,009
-549,598	250,791	-0,021	-0,027
-548,583	-200,000	-0,003	0,037
-547,569	71,745	0,078	-0,060
-546,554	800,000	-0,033	0,090
-545,539	363,454	0,037	-0,055
-544,525	-200,000	0,016	0,105
-543,510	39,183	-0,004	-0,002
-542,496	-99,335	-0,054	0,010
-541,481	-111,546	-0,199	0,030
-540,466	654,557	0,073	-0,140
-539,452	-65,921	0,151	-0,044
-538,437	800,000	-0,030	0,085
-537,423	121,936	0,023	-0,021
-536,408	313,894	0,053	-0,074
-535,393	184,567	-0,137	-0,151
-534,379	58,639	-0,076	-0,055
-533,364	-200,000	-0,006	-0,108
-532,350	66,485	-0,126	0,094
-531,335	790,635	0,033	-0,068
-530,321	-200,000	-0,024	-0,128
-529,306	800,000	0,015	-0,034
-528,291	2,054	-0,072	-0,038
-527,277	-200,000	-0,032	0,164
-526,262	144,240	-0,080	0,079
-525,248	63,186	0,115	-0,085
-524,233	-109,933	-0,159	0,024
-523,218	-200,000	-0,001	0,148
-522,204	-6,127	-0,070	0,035
-521,189	-91,362	0,106	-0,022
-520,175	-65,212	-0,166	-0,049
-519,160	17,146	-0,038	0,022
-518,145	-84,821	0,129	0,030
-517,131	55,938	0,085	0,061
-516,116	-200,000	0,006	0,168
-515,102	697,910	-0,047	0,091
-514,087	-57,418	0,044	0,014
-513,072	800,000	-0,085	-0,186
-512,058	40,353	-0,143	0,095
-511,043	-32,021	0,133	-0,055
-510,029	-83,878	-0,103	0,024
-509,014	42,153	0,123	-0,083
-507,999	-49,871	0,098	-0,034
-506,985	496,654	-0,060	0,103
-505,970	-40,825	-0,091	-0,035
-504,956	406,494	0,036	0,057
-503,941	45,100	-0,040	-0,027
-502,926	-76,070	0,044	0,011
-501,912	607,265	-0,021	0,039
-500,897	-9,753	0,053	0,026
-499,883	-200,000	-0,016	-0,071
-498,868	-66,539	0,081	0,024
-497,853	-68,321	0,051	-0,015
-496,839	-136,899	-0,173	0,014
-495,824	21,315	0,076	-0,045
-494,810	-200,000	0,018	0,159
-493,795	-129,563	0,063	0,006
-492,781	16,616	0,119	-0,069
-491,766	484,043	0,049	0,082
-490,751	-76,698	-0,082	-0,021
-489,737	179,547	0,044	-0,047
-488,722	-165,106	-0,059	0,002
-487,708	-116,842	-0,079	-0,011
-486,693	-4,139	-0,051	-0,026
-485,678	800,000	0,026	-0,073
-484,664	-126,800	-0,190	-0,020
-483,649	-200,000	0,013	-0,115
-482,635	-109,118	0,093	-0,014
-481,620	-200,000	0,002	0,065
-480,605	-200,000	-0,034	0,166
-479,591	800,000	0,086	0,254
-478,576	800,000	-0,036	0,103
-477,562	-89,412	0,165	-0,036
-476,547	-200,000	0,001	0,154
-475,532	-200,000	0,002	0,104
-474,518	800,000	0,063	0,151
-473,503	19,861	0,096	0,057
-472,489	-200,000	0,004	0,059
-471,474	-200,000	-0,011	-0,056
-470,459	395,483	-0,006	-0,010
-469,445	249,142	0,024	-0,030
-468,430	-115,330	0,145	0,020
-467,416	-200,000	-0,016	0,145
-466,401	-24,879	-0,101	0,044
-465,386	800,000	-0,025	0,052
-464,372	-5,735	-0,047	-0,024
-463,357	-200,000	0,005	-0,189
-462,343	800,000	0,054	-0,125
-461,328	-149,417	0,097	0,006
-460,313	6,284	0,078	0,042
-459,299	-151,667	-0,081	-0,004
-458,284	-200,000	-0,006	0,062
-457,270	516,417	-0,011	0,020
-456,255	28,081	-0,118	-0,073
-455,241	160,930	-0,065	-0,067
-454,226	269,317	0,030	-0,039
-453,211	800,000	0,013	-0,040
-452,197	61,930	0,150	0,110
-451,182	800,000	0,101	0,222
-450,168	800,000	0,055	0,174
-449,153	-133,061	-0,071	0,007
-448,138	366,077	0,055	0,082
-447,124	-41,031	-0,004	0,002
-446,109	132,771	0,032	0,030
-445,095	800,000	0,064	0,153
-444,080	732,766	0,045	0,089
-443,065	800,000	0,054	-0,134
-442,051	-200,000	-0,037	0,180
-441,036	434,851	-0,065	-0,104
-440,022	136,201	0,135	-0,130
-439,007	56,377	0,029	-0,021
-437,992	800,000	0,031	0,084
-436,978	-83,259	0,140	0,033
-435,963	-200,000	-0,000	0,081
-434,949	376,513	-0,049	-0,073
-433,934	26,731	-0,077	-0,048
-432,919	-200,000	-0,006	-0,238
-431,905	174,035	0,116	-0,123
-430,890	18,237	0,135	-0,079
-429,876	-138,546	0,045	0,004
-428,861	787,066	0,027	0,054
-427,846	-18,030	-0,049	-0,023
-426,832	-200,000	0,015	0,134
-425,817	55,640	0,121	-0,086
-424,803	-47,661	0,012	0,004
-423,788	-200,000	-0,017	-0,090
-422,773	-200,000	0,024	-0,129
-421,759	466,547	-0,080	0,132
-420,744	33,000	0,145	0,092
-419,730	-58,112	0,054	-0,017
-418,715	-200,000	-0,022	-0,087
-417,701	800,000	-0,003	-0,007
-416,686	-120,480	0,043	0,005
-415,671	800,000	-0,008	0,020
-414,657	186,484	-0,101	0,111
-413,642	-39,496	-0,065	0,025
-412,628	215,957	-0,039	-0,045
-411,613	-103,752	-0,094	0,016
-410,598	-122,922	0,069	0,008
-409,584	59,822	0,062	0,045
-408,569	-77,450	0,066	-0,017
-407,555	-7,021	0,203	0,101
-406,540	800,000	-0,026	0,053
-405,525	-115,825	0,088	-0,012
-404,511	-104,105	-0,110	0,019
-403,496	327,565	-0,052	-0,073
-402,482	-36,600	0,084	0,033
-401,467	-76,889	0,013	-0,003
-400,452	152,295	0,044	0,044
-399,438	121,835	-0,113	0,104
-398,423	-127,094	-0,078	0,008
-397,409	-10,286	-0,097	0,047
-396,394	701,686	0,077	-0,149
-395,379	80,141	0,037	0,029
-394,365	-109,170	-0,134	0,021
-393,350	-200,000	-0,013	0,097
-392,336	-127,088	0,098	-0,010
-391,321	800,000	-0,021	-0,044
-390,306	-200,000	-0,009	-0,063
-389,292	-122,672	-0,048	-0,006
-388,277	84,951	0,047	0,038
-387,263	-200,000	0,020	0,089
-386,248	739,809	0,051	0,101
-385,233	800,000	0,021	0,044
-384,219	1,195	0,052	0,027
-383,204	54,923	-0,061	0,043
-382,190	130,588	0,036	0,034
-381,175	28,786	0,080	0,050
-380,160	-200,000	0,018	-0,132
-379,146	-200,000	0,001	-0,082
-378,131	269,163	-0,039	0,051
-377,117	-21,730	-0,068	0,030
-376,102	-185,035	-0,039	-0,000
-375,088	15,663	0,099	-0,057
-374,073	-26,484	-0,140	0,060
-373,058	182,318	0,029	-0,032
-372,044	24,106	0,020	0,012
-371,029	-200,000	0,001	-0,077
-370,015	800,000	-0,013	-0,029
-369,000	120,806	0,081	0,074
-367,985	478,975	-0,020	-0,034
-366,971	800,000	-0,100	-0,231
-365,956	-52,039	0,093	0,032
-364,942	439,694	-0,055	0,088
-363,927	800,000	-0,049	0,128
-362,912	-35,293	-0,081	0,032
-361,898	14,503	-0,069	-0,039
-360,883	105,767	-0,115	-0,100
-359,869	800,000	-0,043	-0,095
-358,854	223,683	-0,042	0,050
-357,839	-200,000	-0,009	0,042
-356,825	325,477	0,034	0,048
-355,810	89,820	-0,065	0,053
-354,796	123,364	-0,126	-0,116
-353,781	111,058	-0,161	-0,142
-352,766	144,241	-0,089	-0,087
-351,752	800,000	-0,035	-0,075
-350,737	-96,862	-0,093	0,018
-349,723	106,912	-0,035	0,031
-348,708	-30,810	-0,070	0,029
-347,693	-200,000	0,019	-0,067
-346,679	173,195	0,047	-0,050
-345,664	800,000	-0,026	-0,077
-344,650	800,000	-0,025	0,069
-343,635	800,000	0,034	-0,109
-342,620	800,000	0,053	0,155
-341,606	-109,461	0,192	0,029
-340,591	800,000	0,027	-0,057
-339,577	-36,211	-0,217	-0,086
-338,562	18,133	-0,068	-0,040
-337,548	-75,497	-0,027	-0,007
-336,533	439,331	0,049	0,079
-335,518	-200,000	0,018	0,076
-334,504	290,320	0,049	-0,065
-333,489	-200,000	0,016	0,055
-332,475	182,170	0,077	-0,083
-331,460	800,000	-0,039	-0,112
-330,445	-200,000	0,011	-0,087
-329,431	-16,181	0,078	-0,036
-328,416	-200,000	0,026	0,144
-327,402	140,982	-0,081	-0,079
-326,387	-200,000	-0,002	-0,015
-325,372	-88,695	-0,057	0,012
-324,358	-166,794	-0,096	0,003
-323,343	280,058	-0,024	-0,032
-322,329	-200,000	-0,013	-0,067
-321,314	800,000	-0,028	0,063
-320,299	-33,416	-0,082	-0,033
-319,285	184,441	-0,019	0,021
-318,270	46,939	0,092	-0,062
-317,256	-45,942	-0,084	-0,030
-316,241	85,463	0,060	-0,048
-315,226	-102,864	0,066	0,011
-314,212	14,225	0,075	0,042
-313,197	311,297	0,098	0,135
-312,183	-200,000	0,008	0,060
-311,168	-28,594	-0,070	-0,029
-310,153	-29,451	0,034	-0,014
-309,139	361,008	-0,032	-0,047
-308,124	58,735	0,095	-0,068
-307,110	800,000	0,030	-0,072
-306,095	138,032	-0,015	0,014
-305,080	-148,530	-0,071	0,004
-304,066	68,471	-0,051	-0,039
-303,051	-115,002	0,076	0,010
-302,037	448,997	-0,086	-0,140
-301,022	-62,755	0,104	-0,031
-300,008	-200,000	0,008	0,066
-298,993	-200,000	0,027	-0,095
-297,978	415,946	0,027	-0,042
-296,964	-57,433	0,086	-0,027
-295,949	220,247	-0,059	0,069
-294,935	100,074	-0,127	0,108
-293,920	-63,376	-0,059	-0,018
-292,905	-200,000	0,008	-0,107
-291,891	-14,679	-0,056	0,026
-290,876	800,000	0,026	-0,057
-289,862	800,000	-0,049	-0,107
-288,847	-200,000	0,006	-0,138
-287,832	-49,741	-0,152	0,053
-286,818	-109,934	0,121	0,018
-285,803	-106,691	-0,057	-0,009
-284,789	117,112	-0,090	-0,081
-283,774	-34,369	0,040	0,016
-282,759	118,481	0,079	-0,071
-281,745	6,651	0,053	0,029
-280,730	-200,000	0,014	-0,106
-279,716	800,000	0,019	-0,045
-278,701	108,957	-0,134	0,117
-277,686	177,591	0,070	0,075
-276,672	-7,989	0,128	0,063
-275,657	-28,241	0,065	-0,027
-274,643	774,560	-0,052	-0,104
-273,628	-125,496	0,042	-0,005
-272,613	334,755	-0,031	-0,043
-271,599	-81,449	0,110	-0,026
-270,584	-96,926	0,092	0,017
-269,570	137,917	0,094	-0,090
-268,555	57,567	-0,108	0,077
-267,540	-200,000	0,021	0,099
-266,526	676,646	-0,044	-0,085
-265,511	20,292	0,036	0,021
-264,497	-109,912	0,030	-0,005
-263,482	-24,833	0,090	0,039
-262,467	74,518	0,114	0,087
-261,453	800,000	0,037	-0,080
-260,438	155,980	0,046	0,046
-259,424	800,000	0,025	0,078
-258,409	130,881	0,039	-0,037
-257,395	-14,317	0,089	0,042
-256,380	674,568	0,008	-0,015
-255,365	-63,299	0,090	-0,027
-254,351	800,000	-0,018	-0,057
-253,336	5,522	-0,171	-0,092
-252,322	-53,612	-0,032	-0,011
-251,307	196,395	-0,066	-0,074
-250,292	383,181	-0,093	0,140
-249,278	719,629	-0,044	0,086
-248,263	253,685	0,009	0,011
-247,249	444,327	-0,010	-0,017
-246,234	-101,592	-0,086	0,015
-245,219	225,262	-0,043	-0,051
-244,205	-200,000	-0,013	0,052
-243,190	211,407	0,027	-0,031
-242,176	800,000	0,054	0,158
-241,161	100,177	-0,028	0,023
-240,146	-56,700	0,041	0,013
-239,132	572,408	-0,046	0,081
-238,117	800,000	-0,076	0,160
-237,103	-57,522	-0,048	-0,015
-236,088	-117,708	0,146	0,019
-235,073	-40,955	0,129	-0,048
-234,059	-92,755	0,061	0,012
-233,044	257,729	0,072	-0,090
-232,030	-200,000	0,022	-0,115
-231,015	82,663	-0,112	-0,089
-230,000	697,749	-0,059	-0,113
-228,986	41,395	0,144	-0,095
-227,971	78,052	0,087	0,067
-226,957	-13,213	0,166	0,078
-225,942	-52,548	-0,139	0,047
-224,927	800,000	-0,038	-0,120
-223,913	204,720	0,104	-0,118
-222,898	545,167	-0,098	-0,172
-221,884	-25,260	0,075	-0,032
-220,869	-60,438	-0,148	0,046
-219,855	97,207	-0,064	0,053
-218,840	473,710	-0,059	0,097
-217,825	44,338	0,034	0,023
-216,811	50,205	-0,115	-0,079
-215,796	62,101	0,059	-0,043
-214,782	-200,000	-0,013	0,046
-213,767	-9,243	0,093	0,045
-212,752	764,596	0,020	-0,041
-211,738	414,134	-0,018	0,028
-210,723	546,809	-0,034	0,060
-209,709	105,366	-0,115	-0,099
-208,694	338,333	0,016	-0,023
-207,679	-136,750	-0,089	-0,007
-206,665	250,503	-0,052	-0,064
-205,650	50,541	0,067	-0,046
-204,636	10,115	0,099	0,055
-203,621	-56,122	-0,039	0,013
-202,606	356,937	0,070	-0,103
-201,592	-200,000	0,011	-0,085
-200,577	-200,000	0,000	-0,029
-199,563	290,861	-0,028	0,038
-198,548	59,963	-0,091	-0,065
-197,533	800,000	-0,053	0,115
-196,519	-200,000	0,013	-0,235
-195,504	52,458	-0,063	-0,044
-194,490	-200,000	0,020	0,123
-193,475	60,143	0,029	-0,021
-192,460	33,990	0,055	-0,035
-191,446	-200,000	-0,009	-0,036
-190,431	46,764	0,176	0,119
-189,417	800,000	-0,041	0,098
-188,402	-200,000	-0,002	0,019
-187,387	-44,575	-0,066	0,024
-186,373	-34,163	-0,036	0,014
-185,358	-56,722	0,154	-0,049
-184,344	-200,000	0,022	-0,171
-183,329	-46,617	-0,054	-0,019
-182,315	-65,686	0,076	-0,022
-181,300	93,636	-0,082	0,068
-180,285	-13,665	-0,036	0,017
-179,271	-102,880	0,155	-0,027
-178,256	-200,000	0,006	-0,093
-177,242	-80,814	-0,068	-0,016
-176,227	725,123	0,067	-0,130
-175,212	45,325	0,034	0,023
-174,198	-34,944	0,035	-0,014
-173,183	-200,000	0,015	-0,082
-172,169	-200,000	-0,007	-0,085
-171,154	-38,640	-0,134	0,051
-170,139	117,395	-0,096	-0,086
-169,125	-129,541	0,061	0,006
-168,110	243,293	-0,018	0,022
-167,096	42,611	-0,033	-0,022
-166,081	-147,481	-0,033	-0,002
-165,066	489,978	0,018	0,030
-164,052	46,193	0,070	0,047
-163,037	-73,205	-0,135	0,036
-162,023	-110,260	0,046	-0,007
-161,008	-200,000	0,062	-0,211
-159,993	800,000	-0,047	0,111
-158,979	260,682	0,049	-0,062
-157,964	-152,143	-0,078	0,004
-156,950	800,000	0,049	0,113
-155,935	625,676	-0,047	-0,087
-154,920	-143,012	0,039	0,003
-153,906	12,658	-0,056	0,031
-152,891	-133,326	0,079	-0,007
-151,877	-84,972	0,132	-0,030
-150,862	-111,572	-0,096	0,014
-149,847	193,919	0,039	0,043
-148,833	-200,000	-0,004	0,015
-147,818	800,000	0,069	0,174
-146,804	-117,207	-0,031	-0,004
-145,789	333,853	0,005	-0,007
-144,775	-200,000	-0,047	-0,163
-143,760	-200,000	0,002	0,079
-142,745	67,756	0,119	0,089
-141,731	387,200	0,032	-0,048
-140,716	-34,271	-0,073	0,029
-139,702	21,331	0,108	0,064
-138,687	-200,000	0,023	-0,176
-137,672	800,000	-0,036	-0,092
-136,658	172,377	-0,052	-0,054
-135,643	800,000	0,060	-0,138
-134,629	800,000	-0,014	0,037
-133,614	257,701	0,088	0,110
-132,599	408,732	0,050	0,077
-131,585	-200,000	0,009	-0,041
-130,570	72,130	-0,110	-0,083
-129,556	-200,000	0,013	-0,062
-128,541	-62,682	-0,085	0,025
-127,526	185,549	-0,080	-0,086
-126,512	23,237	0,104	-0,062
-125,497	-85,087	0,148	-0,033
-124,483	511,000	-0,053	0,089
-123,468	105,362	0,060	-0,051
-122,453	198,233	-0,055	0,061
-121,439	-200,000	-0,050	-0,199
-120,424	138,563	-0,100	-0,096
-119,410	-170,521	0,119	0,003
-118,395	687,025	-0,013	-0,024
