DTS Sentinel unit serial number:	SN410029Multiplexer serial number:	ORYXHardware model number:	OX2-SRSoftware version number:	ORYX F/W v4,00 Oryx Data Collector v3.7.2.0data status	okinstallation	B4 Nyhavnadifferential loss correction	single-endedforward channel	channel 2reverse channel	N/Adate	2023/12/19time	07:50:13forward acquisition time	300,00reverse acquisition time	0,00gamma	499,1914k internal	0,3125k external	0,3125temperature offset calibration	1,0000default loss term (dB/km)	0,3820temperature slope calibration	1,0000multiplexer offset coefficient	1,0000multiplexer slope coefficient	1,0000fibre end	0,00T internal ref (°C)	21,07T ext. ref 1 (°C)	5,72T ext. ref 2 (°C)	5,79length (m)	temperature (°C)	Stokes	anti-Stokes-744,400	-200,000	0,001	-0,033
-743,385	328,424	-0,103	0,148
-742,371	-200,000	0,012	0,105
-741,356	-59,629	-0,235	0,075
-740,342	-200,000	-0,004	0,104
-739,327	2,914	-0,312	0,168
-738,312	81,513	0,070	-0,056
-737,298	-98,865	-0,242	0,045
-736,283	-97,527	-0,157	-0,030
-735,269	800,000	0,053	0,168
-734,254	-155,853	0,052	0,002
-733,239	-163,731	-0,375	-0,013
-732,225	-101,312	0,075	-0,014
-731,210	0,941	0,042	0,023
-730,196	109,700	-0,155	0,138
-729,181	-142,957	-0,114	-0,008
-728,167	169,259	-0,066	0,070
-727,152	356,616	-0,048	-0,071
-726,137	-19,032	-0,104	-0,048
-725,123	-29,348	0,076	0,032
-724,108	173,064	-0,188	-0,202
-723,094	442,462	0,035	-0,057
-722,079	-200,000	-0,013	-0,111
-721,064	-16,784	0,042	-0,020
-720,050	-200,000	-0,013	-0,130
-719,035	-80,197	-0,047	-0,012
-718,021	-200,000	0,002	-0,030
-717,006	55,668	0,101	-0,073
-715,991	-10,360	-0,047	-0,023
-714,977	-63,195	-0,145	-0,044
-713,962	-52,995	0,042	-0,014
-712,948	-200,000	-0,019	0,071
-711,933	28,616	-0,027	0,017
-710,918	-146,647	-0,087	-0,006
-709,904	-28,434	-0,147	-0,063
-708,889	190,751	-0,069	0,077
-707,875	132,485	-0,104	0,100
-706,860	297,133	0,046	-0,063
-705,845	-158,979	0,035	0,001
-704,831	800,000	-0,023	0,061
-703,816	-68,731	-0,184	0,052
-702,802	-88,844	0,111	0,024
-701,787	-9,973	-0,180	-0,089
-700,772	-200,000	-0,024	-0,097
-699,758	107,697	0,041	0,036
-698,743	613,434	0,011	0,021
-697,729	-200,000	-0,006	0,033
-696,714	-9,037	-0,068	-0,034
-695,699	196,948	-0,040	-0,045
-694,685	26,395	-0,085	-0,053
-693,670	800,000	-0,021	0,059
-692,656	-131,067	0,118	0,012
-691,641	-11,669	-0,161	-0,078
-690,627	335,508	0,023	0,033
-689,612	-111,528	0,078	0,012
-688,597	-200,000	0,001	-0,003
-687,583	-149,542	-0,188	-0,011
-686,568	54,549	0,100	0,072
-685,554	-90,702	0,148	-0,031
-684,539	62,554	0,109	0,081
-683,524	7,312	0,049	-0,027
-682,510	165,871	-0,044	0,047
-681,495	-200,000	-0,021	-0,120
-680,481	-145,765	-0,031	0,002
-679,466	534,707	-0,052	-0,093
-678,451	-200,000	-0,026	0,095
-677,437	-200,000	-0,010	-0,048
-676,422	-200,000	-0,015	-0,056
-675,408	-77,577	0,131	-0,033
-674,393	-200,000	0,042	-0,174
-673,378	249,045	0,082	-0,104
-672,364	108,068	-0,191	-0,169
-671,349	309,571	-0,023	0,032
-670,335	187,490	-0,033	0,037
-669,320	-200,000	-0,017	0,055
-668,305	499,736	-0,031	0,053
-667,291	450,683	0,025	-0,042
-666,276	-29,568	-0,155	-0,066
-665,262	167,429	-0,085	-0,090
-664,247	-71,118	-0,048	0,013
-663,232	-1,796	0,056	-0,029
-662,218	-126,105	-0,087	-0,010
-661,203	128,410	0,072	-0,068
-660,189	-200,000	-0,033	0,108
-659,174	299,865	-0,060	0,083
-658,159	185,158	-0,076	-0,084
-657,145	61,911	-0,057	0,042
-656,130	800,000	0,028	0,076
-655,116	144,330	-0,038	0,038
-654,101	-175,197	-0,139	0,003
-653,086	155,768	0,147	0,150
-652,072	91,495	-0,058	-0,048
-651,057	124,104	-0,050	-0,046
-650,043	-200,000	0,028	-0,096
-649,028	71,128	-0,025	0,019
-648,014	23,931	0,061	-0,037
-646,999	-200,000	-0,001	-0,057
-645,984	12,726	0,078	0,044
-644,970	87,480	-0,132	-0,108
-643,955	116,050	0,081	-0,073
-642,941	800,000	-0,056	-0,135
-641,926	-34,224	-0,110	-0,045
-640,911	139,751	0,025	0,024
-639,897	-176,077	-0,106	0,002
-638,882	734,731	-0,040	0,081
-637,868	-200,000	-0,015	0,144
-636,853	-117,791	-0,138	0,018
-635,838	800,000	0,015	-0,033
-634,824	122,843	0,115	-0,106
-633,809	-48,103	0,078	-0,028
-632,795	-179,253	0,016	0,000
-631,780	-200,000	-0,004	0,104
-630,765	3,120	-0,067	0,036
-629,751	800,000	-0,035	-0,087
-628,736	800,000	-0,034	-0,084
-627,722	518,717	-0,040	0,070
-626,707	324,954	0,013	0,018
-625,692	-200,000	0,020	0,072
-624,678	-63,223	-0,126	0,038
-623,663	-144,089	-0,040	-0,003
-622,649	-49,533	0,028	-0,010
-621,634	-200,000	0,024	0,138
-620,619	-6,487	-0,088	-0,044
-619,605	-123,677	0,139	0,016
-618,590	15,971	-0,006	0,004
-617,576	-200,000	-0,040	0,133
-616,561	-200,000	-0,035	-0,132
-615,546	241,705	-0,050	0,062
-614,532	-116,860	-0,033	0,004
-613,517	128,042	-0,082	0,078
-612,503	426,356	-0,042	0,067
-611,488	133,352	0,049	0,047
-610,474	263,454	-0,050	-0,064
-609,459	161,684	-0,084	-0,088
-608,444	800,000	0,072	0,187
-607,430	-112,301	-0,126	0,018
-606,415	13,678	-0,170	-0,097
-605,401	203,879	-0,067	-0,077
-604,386	159,240	0,035	-0,036
-603,371	800,000	0,056	-0,149
-602,357	560,278	0,058	-0,104
-601,342	22,116	0,054	-0,033
-600,328	5,902	-0,107	0,058
-599,313	800,000	-0,033	-0,074
-598,298	-98,614	0,099	0,019
-597,284	-200,000	-0,009	0,138
-596,269	143,660	0,052	0,051
-595,255	761,747	0,044	0,089
-594,240	-200,000	-0,009	-0,065
-593,225	800,000	-0,006	-0,016
-592,211	-200,000	-0,036	-0,157
-591,196	-87,885	0,150	-0,033
-590,182	161,195	0,051	-0,053
-589,167	370,148	-0,065	0,098
-588,152	-53,078	0,078	0,027
-587,138	383,996	0,045	-0,069
-586,123	800,000	-0,031	-0,081
-585,109	-46,999	-0,165	-0,059
-584,094	-200,000	-0,008	0,093
-583,079	-87,439	0,074	0,017
-582,065	238,497	-0,053	0,065
-581,050	800,000	-0,016	0,053
-580,036	131,076	0,070	-0,066
-579,021	64,992	-0,061	-0,046
-578,006	-43,674	-0,066	-0,024
-576,992	95,898	0,051	-0,043
-575,977	38,336	-0,196	-0,129
-574,963	-137,157	0,116	-0,010
-573,948	800,000	-0,067	0,155
-572,934	-120,016	-0,169	0,021
-571,919	800,000	-0,071	-0,149
-570,904	-200,000	-0,025	-0,145
-569,890	-85,514	-0,138	-0,031
-568,875	319,715	0,073	0,103
-567,861	37,156	-0,029	-0,019
-566,846	56,165	0,060	-0,043
-565,831	5,994	-0,114	-0,062
-564,817	-200,000	0,017	-0,083
-563,802	61,344	0,058	0,043
-562,788	-20,963	-0,100	-0,045
-561,773	61,553	0,062	0,046
-560,758	-161,450	0,049	0,002
-559,744	-200,000	0,001	-0,056
-558,729	218,814	0,085	0,101
-557,715	-69,985	-0,068	-0,019
-556,700	-200,000	-0,021	0,088
-555,685	-200,000	-0,020	-0,190
-554,671	6,163	0,067	-0,037
-553,656	-46,951	-0,049	-0,018
-552,642	-200,000	-0,002	-0,060
-551,627	800,000	-0,019	0,041
-550,612	-37,651	-0,104	-0,041
-549,598	800,000	0,026	-0,075
-548,583	294,812	-0,031	-0,042
-547,569	-22,275	0,185	-0,083
-546,554	136,254	-0,116	0,112
-545,539	-200,000	0,002	0,026
-544,525	175,885	0,133	-0,142
-543,510	-200,000	-0,024	-0,163
-542,496	243,544	-0,035	0,043
-541,481	-200,000	-0,071	-0,243
-540,466	267,928	-0,077	-0,100
-539,452	153,764	-0,040	0,041
-538,437	48,739	0,052	0,036
-537,423	20,370	0,053	-0,032
-536,408	-94,138	-0,172	-0,035
-535,393	51,011	-0,105	-0,074
-534,379	380,437	0,061	-0,093
-533,364	30,091	-0,074	-0,046
-532,350	311,818	0,147	-0,205
-531,335	-51,678	0,019	0,007
-530,321	-200,000	0,023	0,109
-529,306	-200,000	-0,032	0,154
-528,291	106,426	-0,089	0,078
-527,277	-200,000	0,028	-0,093
-526,262	-200,000	-0,021	-0,082
-525,248	800,000	-0,035	0,080
-524,233	800,000	0,045	0,137
-523,218	-59,281	0,112	0,035
-522,204	332,464	-0,113	-0,162
-521,189	-69,141	-0,067	-0,019
-520,175	164,185	-0,023	-0,024
-519,160	-200,000	-0,015	-0,117
-518,145	-200,000	-0,003	0,107
-517,131	436,439	-0,048	0,078
-516,116	296,657	-0,045	0,061
-515,102	375,627	0,033	0,050
-514,087	-15,554	-0,045	0,021
-513,072	-200,000	-0,013	-0,124
-512,058	-52,234	-0,209	-0,071
-511,043	-35,344	0,032	0,013
-510,029	44,045	-0,130	0,088
-509,014	-200,000	0,066	0,000
-507,999	-200,000	0,016	-0,075
-506,985	176,219	-0,022	0,024
-505,970	-43,159	-0,117	-0,043
-504,956	800,000	-0,026	0,068
-503,941	277,680	-0,032	0,042
-502,926	40,582	0,053	-0,035
-501,912	475,608	0,057	0,095
-500,897	207,216	-0,016	-0,019
-499,883	12,255	-0,060	-0,034
-498,868	44,433	0,024	-0,016
-497,853	-200,000	-0,008	-0,073
-496,839	-89,832	0,090	0,019
-495,824	-124,916	0,175	0,020
-494,810	195,141	-0,040	-0,045
-493,795	800,000	0,101	0,245
-492,781	293,108	-0,090	0,121
-491,766	-10,393	-0,079	0,038
-490,751	800,000	-0,046	0,112
-489,737	-200,000	0,018	0,074
-488,722	-118,431	0,086	0,011
-487,708	-74,099	0,115	0,031
-486,693	-200,000	-0,007	-0,033
-485,678	-50,382	-0,028	-0,010
-484,664	-200,000	0,023	-0,125
-483,649	148,649	-0,114	-0,114
-482,635	800,000	0,061	0,177
-481,620	-104,361	0,041	0,007
-480,605	93,489	0,092	-0,077
-479,591	-65,198	-0,041	0,012
-478,576	-67,204	-0,035	-0,010
-477,562	800,000	0,028	-0,066
-476,547	-200,000	-0,014	-0,171
-475,532	800,000	-0,062	-0,143
-474,518	800,000	0,031	0,097
-473,503	103,720	-0,119	-0,103
-472,489	14,121	-0,043	-0,025
-471,474	-200,000	0,009	-0,051
-470,459	-13,805	-0,033	-0,016
-469,445	-147,802	-0,115	0,007
-468,430	-200,000	0,007	0,049
-467,416	437,933	0,016	0,026
-466,401	-4,259	-0,030	-0,015
-465,386	337,587	-0,046	-0,066
-464,372	161,455	-0,065	-0,067
-463,357	-137,160	0,160	0,013
-462,343	800,000	0,012	-0,037
-461,328	56,582	0,062	0,044
-460,313	-200,000	-0,001	-0,133
-459,299	68,461	-0,082	0,062
-458,284	773,978	0,053	0,107
-457,270	800,000	-0,012	-0,031
-456,255	-200,000	0,032	-0,124
-455,241	43,793	-0,125	-0,084
-454,226	-98,038	-0,097	0,018
-453,211	-172,782	-0,143	0,003
-452,197	-200,000	0,015	-0,122
-451,182	144,023	-0,047	0,046
-450,168	800,000	0,008	-0,024
-449,153	800,000	0,010	-0,032
-448,138	-85,627	-0,096	-0,022
-447,124	622,121	0,035	-0,065
-446,109	800,000	-0,045	-0,099
-445,095	28,536	-0,053	0,033
-444,080	-54,032	0,179	0,060
-443,065	-38,041	0,065	-0,025
-442,051	-63,394	-0,039	-0,012
-441,036	191,023	0,115	-0,127
-440,022	-173,771	0,108	0,002
-439,007	800,000	0,044	0,136
-437,992	73,642	0,166	0,128
-436,978	14,444	-0,060	-0,034
-435,963	346,160	0,033	-0,048
-434,949	364,933	0,006	-0,009
-433,934	-101,921	-0,058	0,010
-432,919	-166,417	-0,093	-0,003
-431,905	-146,781	-0,122	0,008
-430,890	97,795	-0,042	-0,035
-429,876	800,000	-0,045	0,095
-428,861	800,000	0,055	0,112
-427,846	800,000	-0,031	-0,081
-426,832	394,228	0,032	-0,050
-425,817	-200,000	0,023	-0,093
-424,803	231,069	0,058	0,070
-423,788	800,000	0,014	-0,040
-422,773	800,000	-0,043	0,111
-421,759	-200,000	0,003	-0,026
-420,744	800,000	-0,055	-0,131
-419,730	538,930	0,049	-0,086
-418,715	-73,977	-0,111	-0,029
-417,701	460,708	0,041	-0,068
-416,686	-200,000	-0,007	-0,078
-415,671	-35,073	0,056	0,022
-414,657	800,000	0,045	0,122
-413,642	155,273	0,094	0,095
-412,628	25,335	0,078	-0,047
-411,613	-49,385	-0,073	-0,025
-410,598	-200,000	0,002	-0,187
-409,584	800,000	0,039	-0,111
-408,569	-92,414	0,012	0,002
-407,555	636,895	-0,019	0,037
-406,540	800,000	-0,010	0,031
-405,525	-89,395	0,031	-0,007
-404,511	370,038	-0,024	-0,036
-403,496	-37,837	0,063	0,024
-402,482	379,502	0,065	-0,098
-401,467	-71,547	0,036	0,010
-400,452	38,039	-0,097	0,063
-399,438	800,000	0,017	-0,042
-398,423	-200,000	-0,007	0,110
-397,409	-29,847	-0,060	0,025
-396,394	-200,000	-0,000	-0,113
-395,379	590,377	0,038	-0,068
-394,365	-200,000	-0,034	-0,131
-393,350	-78,519	0,048	0,012
-392,336	85,613	0,094	0,076
-391,321	800,000	0,036	0,094
-390,306	38,682	0,087	0,057
-389,292	462,645	-0,057	-0,093
-388,277	-117,857	0,100	-0,013
-387,263	-66,449	0,094	0,027
-386,248	-200,000	-0,010	0,034
-385,233	-122,392	0,036	0,004
-384,219	-200,000	0,002	0,078
-383,204	36,380	0,106	0,069
-382,190	307,446	-0,044	-0,060
-381,175	-172,386	0,172	0,004
-380,160	-200,000	0,023	0,108
-379,146	-48,992	-0,042	-0,015
-378,131	-200,000	-0,003	-0,036
-377,117	-2,755	0,052	0,027
-376,102	75,244	0,035	-0,027
-375,088	-200,000	-0,016	-0,067
-374,073	-200,000	-0,022	-0,104
-373,058	392,988	0,036	0,055
-372,044	34,363	0,043	0,028
-371,029	-14,285	0,136	-0,064
-370,015	-134,963	0,009	-0,001
-369,000	-62,992	0,031	0,009
-367,985	330,366	0,047	-0,066
-366,971	-11,281	-0,069	-0,033
-365,956	-145,190	-0,034	0,002
-364,942	94,591	0,054	-0,045
-363,927	169,510	0,054	-0,056
-362,912	518,084	0,043	0,074
-361,898	-200,000	-0,001	0,008
-360,883	800,000	0,054	-0,120
-359,869	-200,000	0,021	0,131
-358,854	-117,530	-0,101	0,013
-357,839	-200,000	-0,011	0,142
-356,825	-200,000	0,041	0,142
-355,810	-176,285	0,087	-0,002
-354,796	-61,854	-0,104	-0,032
-353,781	-200,000	0,001	-0,029
-352,766	800,000	-0,011	0,033
-351,752	-107,031	0,115	-0,018
-350,737	58,384	0,036	-0,026
-349,723	-200,000	0,008	-0,085
-348,708	117,507	-0,083	0,075
-347,693	264,089	-0,052	0,067
-346,679	133,443	-0,031	-0,030
-345,664	14,423	-0,032	0,018
-344,650	18,231	-0,145	0,085
-343,635	30,509	0,124	0,078
-342,620	253,554	0,141	0,177
-341,606	-200,000	-0,015	0,091
-340,591	543,444	-0,032	-0,056
-339,577	-16,334	0,043	-0,020
-338,562	24,165	0,102	0,062
-337,548	-200,000	-0,008	-0,042
-336,533	-93,567	0,128	-0,026
-335,518	-6,100	0,095	-0,047
-334,504	-15,153	-0,059	-0,027
-333,489	-36,714	-0,076	0,030
-332,475	-164,936	-0,106	0,003
-331,460	140,681	-0,118	-0,114
-330,445	87,248	0,055	-0,045
-329,431	-137,206	-0,049	-0,004
-328,416	-200,000	-0,003	0,119
-327,402	235,435	0,034	-0,042
-326,387	333,369	-0,120	0,170
-325,372	-200,000	-0,038	-0,143
-324,358	299,542	-0,044	0,060
-323,343	-60,350	0,063	-0,020
-322,329	254,588	0,086	0,108
-321,314	-10,500	-0,053	-0,026
-320,299	125,104	-0,081	0,074
-319,285	-200,000	-0,026	0,100
-318,270	346,211	-0,072	-0,104
-317,256	182,326	0,046	0,049
-316,241	-200,000	-0,029	-0,116
-315,226	150,775	0,109	0,108
-314,212	655,700	-0,059	0,112
-313,197	29,111	0,056	0,035
-312,183	-200,000	-0,016	0,075
-311,168	800,000	-0,036	0,093
-310,153	291,287	0,056	0,075
-309,139	56,424	-0,173	-0,123
-308,124	31,772	0,060	0,038
-307,110	-178,816	-0,087	-0,001
-306,095	74,112	0,125	0,096
-305,080	123,887	-0,089	-0,082
-304,066	-200,000	0,022	-0,085
-303,051	800,000	0,030	0,065
-302,037	192,439	0,075	0,083
-301,022	-97,409	0,098	-0,018
-300,008	-200,000	0,016	0,118
-298,993	448,565	0,027	0,044
-297,978	31,157	-0,058	0,036
-296,964	-200,000	0,019	0,118
-295,949	-200,000	-0,014	0,071
-294,935	243,835	0,035	-0,044
-293,920	-200,000	0,005	0,042
-292,905	-127,608	-0,042	0,004
-291,891	-200,000	0,014	0,123
-290,876	257,551	0,034	0,043
-289,862	-51,651	-0,114	0,039
-288,847	235,285	-0,023	0,028
-287,832	-0,709	0,030	-0,016
-286,818	574,239	0,055	0,099
-285,803	86,756	-0,076	-0,061
-284,789	237,844	0,080	0,097
-283,774	800,000	-0,045	0,137
-282,759	96,664	0,086	0,072
-281,745	-200,000	0,018	-0,072
-280,730	-200,000	-0,001	-0,139
-279,716	-200,000	-0,010	-0,155
-278,701	524,014	0,018	-0,031
-277,686	-9,516	0,108	0,053
-276,672	800,000	-0,014	0,033
-275,657	-200,000	-0,005	0,082
-274,643	241,572	0,088	-0,108
-273,628	91,439	-0,029	0,024
-272,613	113,039	0,031	0,028
-271,599	286,194	0,116	-0,154
-270,584	800,000	-0,014	-0,034
-269,570	-200,000	0,074	-0,247
-268,555	-144,734	0,055	0,004
-267,540	407,279	-0,054	-0,083
-266,526	169,119	0,087	-0,091
-265,511	376,153	-0,067	0,100
-264,497	800,000	0,019	0,044
-263,482	-69,841	0,049	-0,013
-262,467	-55,077	0,054	-0,018
-261,453	-200,000	-0,019	-0,150
-260,438	-104,942	0,096	-0,016
-259,424	800,000	-0,052	0,119
-258,409	-200,000	0,010	-0,063
-257,395	428,439	-0,067	-0,105
-256,380	193,188	-0,024	-0,027
-255,365	800,000	-0,028	0,073
-254,351	-23,923	0,161	0,070
-253,336	-55,081	0,028	-0,009
-252,322	142,229	-0,080	-0,078
-251,307	-68,476	0,036	0,010
-250,292	-112,958	-0,065	-0,009
-249,278	1,431	-0,160	0,084
-248,263	-200,000	0,017	0,097
-247,249	60,155	-0,096	-0,070
-246,234	-200,000	-0,018	-0,074
-245,219	-95,998	0,151	0,029
-244,205	800,000	0,053	0,151
-243,190	242,053	-0,034	-0,042
-242,176	539,615	0,020	-0,036
-241,161	-200,000	0,015	0,151
-240,146	113,245	-0,099	-0,087
-239,132	251,011	-0,088	-0,110
-238,117	24,994	-0,134	0,081
-237,103	-74,227	0,047	0,012
-236,088	-200,000	0,023	-0,112
-235,073	9,917	0,119	-0,066
-234,059	-200,000	0,013	-0,049
-233,044	800,000	0,041	0,097
-232,030	-128,991	-0,031	-0,003
-231,015	-200,000	-0,007	-0,128
-230,000	35,560	-0,096	-0,061
-228,986	-29,205	-0,140	-0,058
-227,971	-200,000	-0,032	0,161
-226,957	605,581	0,041	0,076
-225,942	-6,991	0,062	0,031
-224,927	-200,000	0,014	0,066
-223,913	68,543	-0,091	-0,068
-222,898	-200,000	-0,011	0,127
-221,884	-47,473	0,054	0,019
-220,869	-200,000	0,048	0,255
-219,855	800,000	0,031	-0,085
-218,840	342,711	0,095	0,136
-217,825	-92,726	0,158	0,032
-216,811	299,253	-0,036	-0,049
-215,796	-200,000	0,002	-0,029
-214,782	-74,634	0,158	0,041
-213,767	102,132	0,057	0,049
-212,752	800,000	0,010	0,029
-211,738	14,763	0,058	-0,033
-210,723	104,368	-0,096	0,083
-209,709	800,000	0,018	0,047
-208,694	64,506	-0,050	-0,037
-207,679	322,681	-0,064	0,089
-206,665	443,145	-0,069	0,111
-205,650	-154,410	0,027	0,001
-204,636	-43,999	-0,165	0,060
-203,621	325,837	-0,087	0,122
-202,606	31,524	0,043	0,027
-201,592	-30,530	-0,024	-0,010
-200,577	223,499	-0,026	-0,031
-199,563	14,988	0,094	0,054
-198,548	800,000	0,065	0,189
-197,533	252,252	-0,018	-0,022
-196,519	800,000	0,051	0,107
-195,504	494,782	0,032	-0,054
-194,490	-122,426	0,161	0,019
-193,475	160,196	-0,124	-0,126
-192,460	-23,241	0,107	0,047
-191,446	-130,963	-0,075	0,007
-190,431	800,000	0,026	0,082
-189,417	9,717	-0,122	-0,068
-188,402	238,455	0,066	0,080
-187,387	616,762	-0,022	0,041
-186,373	142,243	-0,097	0,093
-185,358	69,646	0,144	-0,108
-184,344	-186,513	0,145	-0,001
-183,329	800,000	0,062	0,131
-182,315	-122,070	0,103	0,012
-181,300	-200,000	0,012	0,146
-180,285	-78,548	-0,059	0,015
-179,271	-200,000	-0,007	-0,050
-178,256	-107,050	0,024	0,004
-177,242	103,991	0,063	-0,054
-176,227	515,279	-0,069	-0,117
-175,212	172,855	0,076	0,079
-174,198	-200,000	0,043	-0,168
-173,183	48,097	0,046	-0,032
-172,169	-160,361	0,181	-0,007
-171,154	662,446	-0,071	-0,134
-170,139	800,000	-0,011	-0,025
-169,125	399,937	-0,047	0,072
-168,110	-200,000	0,001	-0,020
-167,096	24,681	-0,120	0,072
-166,081	800,000	-0,030	0,092
-165,066	800,000	-0,002	0,004
-164,052	-200,000	-0,004	-0,023
-163,037	-200,000	0,016	0,115
-162,023	154,301	-0,025	0,025
-161,008	-64,982	0,052	0,015
-159,993	800,000	0,042	-0,129
-158,979	-115,748	0,047	-0,006
-157,964	800,000	-0,004	0,010
-156,950	95,204	-0,029	-0,024
-155,935	-57,057	-0,093	-0,030
-154,920	-114,780	0,119	-0,016
-153,906	-200,000	0,004	0,186
-152,891	-200,000	0,008	0,031
-151,877	-51,912	-0,032	0,011
-150,862	-200,000	-0,030	0,121
-149,847	-3,521	-0,138	-0,069
-148,833	724,554	-0,045	-0,088
-147,818	584,755	-0,019	0,035
-146,804	800,000	0,056	0,148
-145,789	-200,000	0,002	0,089
-144,775	220,570	-0,025	-0,030
-143,760	-102,611	-0,061	0,011
-142,745	94,327	-0,130	-0,107
-141,731	-174,079	-0,044	-0,001
-140,716	27,409	0,120	-0,073
-139,702	800,000	0,020	0,049
-138,687	342,123	-0,028	-0,040
-137,672	314,192	0,089	-0,122
-136,658	-200,000	-0,005	-0,078
-135,643	-200,000	0,017	0,060
-134,629	-200,000	-0,005	-0,063
-133,614	-173,401	-0,063	-0,001
-132,599	15,634	0,052	0,029
-131,585	86,698	0,075	0,060
-130,570	800,000	0,036	-0,087
-129,556	-200,000	0,013	-0,127
-128,541	-27,186	0,092	0,039
-127,526	309,353	0,045	-0,061
-126,512	-200,000	-0,012	0,051
-125,497	-121,309	0,127	0,015
-124,483	31,163	-0,042	-0,026
-123,468	165,205	0,108	-0,111
-122,453	-200,000	-0,050	-0,162
-121,439	-200,000	-0,039	-0,200
-120,424	-147,722	-0,133	0,008
-119,410	653,081	-0,059	-0,110
