DTS Sentinel unit serial number:	SN410029Multiplexer serial number:	ORYXHardware model number:	OX2-SRSoftware version number:	ORYX F/W v4,00 Oryx Data Collector v3.7.2.0data status	okinstallation	B4 Nyhavnadifferential loss correction	single-endedforward channel	channel 2reverse channel	N/Adate	2023/12/15time	15:45:13forward acquisition time	300,00reverse acquisition time	0,00gamma	499,1914k internal	0,3151k external	0,3151temperature offset calibration	1,0000default loss term (dB/km)	0,3820temperature slope calibration	1,0000multiplexer offset coefficient	1,0000multiplexer slope coefficient	1,0000fibre end	0,00T internal ref (°C)	16,71T ext. ref 1 (°C)	2,98T ext. ref 2 (°C)	3,08length (m)	temperature (°C)	Stokes	anti-Stokes-744,400	67,452	0,058	0,044
-743,385	-194,490	-0,373	0,002
-742,371	278,797	0,124	0,164
-741,356	-176,901	-0,256	-0,005
-740,342	26,975	0,123	0,076
-739,327	-161,288	-0,242	-0,009
-738,312	-149,734	0,126	-0,007
-737,298	-163,252	-0,419	0,015
-736,283	-162,140	0,138	0,005
-735,269	-76,007	-0,236	0,061
-734,254	388,945	0,031	0,047
-733,239	-109,781	-0,486	-0,075
-732,225	-104,916	0,142	0,024
-731,210	-62,506	0,024	0,007
-730,196	800,000	0,013	-0,033
-729,181	-91,630	-0,094	0,020
-728,167	689,783	0,048	-0,093
-727,152	-96,459	0,060	-0,012
-726,137	443,419	0,058	-0,095
-725,123	800,000	-0,043	0,133
-724,108	800,000	0,010	0,033
-723,094	800,000	-0,047	-0,107
-722,079	319,227	0,033	-0,046
-721,064	397,365	0,047	0,073
-720,050	757,588	-0,057	-0,114
-719,035	-94,989	0,055	-0,011
-718,021	800,000	-0,044	0,093
-717,006	-200,000	0,001	0,010
-715,991	-200,000	-0,026	-0,110
-714,977	-117,211	-0,058	0,008
-713,962	800,000	0,034	-0,101
-712,948	-84,538	-0,121	-0,028
-711,933	-186,117	0,014	0,000
-710,918	64,252	0,032	-0,024
-709,904	-200,000	-0,028	-0,246
-708,889	519,761	0,109	-0,190
-707,875	163,729	0,022	0,023
-706,860	-200,000	-0,010	-0,051
-705,845	-200,000	-0,011	0,039
-704,831	-89,573	0,077	0,017
-703,816	-88,992	-0,045	-0,010
-702,802	800,000	-0,061	-0,141
-701,787	585,331	-0,089	-0,162
-700,772	125,116	0,058	-0,054
-699,758	-200,000	-0,006	-0,048
-698,743	800,000	0,067	0,193
-697,729	-8,408	-0,047	0,023
-696,714	653,531	-0,031	-0,060
-695,699	358,597	0,076	-0,112
-694,685	-2,479	0,104	-0,053
-693,670	77,148	-0,128	-0,100
-692,656	-200,000	0,003	-0,116
-691,641	190,070	-0,095	-0,105
-690,627	598,522	0,023	0,042
-689,612	232,105	-0,092	0,111
-688,597	73,754	-0,127	-0,098
-687,583	34,581	-0,123	0,079
-686,568	800,000	-0,009	0,021
-685,554	164,376	-0,038	-0,039
-684,539	-190,143	0,044	-0,000
-683,524	800,000	0,059	0,155
-682,510	510,475	-0,039	0,068
-681,495	35,434	0,051	0,033
-680,481	-178,099	-0,150	0,003
-679,466	-200,000	0,017	-0,066
-678,451	462,858	-0,025	0,041
-677,437	-198,470	-0,088	0,000
-676,422	-83,924	0,075	0,017
-675,408	79,483	0,119	0,094
-674,393	119,580	-0,176	-0,160
-673,378	-157,157	-0,052	0,002
-672,364	800,000	-0,017	-0,038
-671,349	-200,000	0,029	-0,195
-670,335	-200,000	-0,005	-0,050
-669,320	115,607	-0,066	-0,060
-668,305	128,054	-0,042	0,039
-667,291	-200,000	0,014	0,068
-666,276	800,000	-0,033	-0,078
-665,262	317,419	-0,035	-0,049
-664,247	800,000	-0,036	-0,076
-663,232	-60,060	0,085	-0,027
-662,218	-57,149	-0,208	0,067
-661,203	23,931	0,065	0,039
-660,189	35,347	0,049	-0,032
-659,174	-200,000	-0,016	-0,093
-658,159	48,346	0,113	-0,078
-657,145	800,000	-0,104	-0,218
-656,130	53,820	0,041	0,029
-655,116	154,972	-0,063	0,064
-654,101	11,062	0,088	0,049
-653,086	-200,000	-0,015	-0,054
-652,072	506,422	-0,049	-0,085
-651,057	-200,000	-0,025	-0,150
-650,043	-45,082	-0,092	-0,033
-649,028	-126,518	-0,080	0,009
-648,014	-200,000	0,009	-0,052
-646,999	-130,039	0,049	0,005
-645,984	152,187	0,030	-0,030
-644,970	175,082	-0,125	0,133
-643,955	-200,000	0,006	-0,026
-642,941	800,000	-0,049	-0,127
-641,926	700,807	0,020	0,039
-640,911	-200,000	0,008	0,129
-639,897	211,213	0,060	0,070
-638,882	-112,952	-0,073	0,011
-637,868	92,220	-0,074	0,061
-636,853	-200,000	0,001	0,063
-635,838	480,904	0,051	0,085
-634,824	113,469	-0,046	0,041
-633,809	800,000	0,062	-0,134
-632,795	800,000	-0,058	0,129
-631,780	10,309	0,040	-0,023
-630,765	-86,945	-0,120	-0,027
-629,751	-75,283	-0,056	-0,015
-628,736	35,796	-0,094	-0,061
-627,722	-5,782	-0,036	0,018
-626,707	-200,000	0,001	0,049
-625,692	800,000	-0,050	0,117
-624,678	3,911	0,007	0,003
-623,663	-9,859	-0,095	0,046
-622,649	-108,780	-0,186	-0,029
-621,634	163,596	0,020	-0,020
-620,619	-154,711	-0,125	-0,006
-619,605	800,000	-0,037	0,083
-618,590	-31,056	0,045	-0,018
-617,576	-49,387	-0,045	0,016
-616,561	-200,000	-0,036	0,118
-615,546	800,000	-0,044	-0,112
-614,532	213,712	-0,110	-0,128
-613,517	-111,398	0,078	0,012
-612,503	-200,000	-0,013	-0,126
-611,488	-73,790	0,058	0,015
-610,474	-200,000	0,035	-0,222
-609,459	-200,000	-0,009	0,077
-608,444	-92,721	0,103	-0,021
-607,430	14,751	-0,108	-0,062
-606,415	211,163	-0,083	0,096
-605,401	231,317	-0,045	0,054
-604,386	-151,590	0,092	0,005
-603,371	-34,239	0,097	0,039
-602,357	-200,000	0,031	-0,151
-601,342	346,220	-0,034	0,049
-600,328	311,468	-0,139	-0,191
-599,313	-85,068	-0,033	0,007
-598,298	800,000	-0,050	-0,127
-597,284	-200,000	0,003	-0,077
-596,269	164,879	-0,046	-0,047
-595,255	800,000	0,029	0,072
-594,240	268,337	0,070	-0,090
-593,225	-27,850	-0,167	-0,071
-592,211	800,000	0,050	0,138
-591,196	-200,000	-0,014	0,083
-590,182	646,099	0,082	-0,154
-589,167	-200,000	0,003	-0,018
-588,152	-161,514	0,050	0,002
-587,138	-200,000	0,002	0,007
-586,123	53,059	-0,080	-0,056
-585,109	-36,632	0,080	-0,031
-584,094	413,528	0,067	-0,105
-583,079	-13,985	-0,091	-0,043
-582,065	14,685	0,092	0,053
-581,050	-30,568	0,144	0,060
-580,036	800,000	0,040	-0,111
-579,021	189,745	-0,111	0,123
-578,006	-200,000	0,006	-0,102
-576,992	800,000	0,012	-0,034
-575,977	-44,487	-0,023	-0,008
-574,963	800,000	0,025	0,080
-573,948	338,565	0,095	0,135
-572,934	-200,000	-0,002	-0,011
-571,919	137,629	-0,243	-0,233
-570,904	-113,190	-0,095	-0,014
-569,890	321,925	0,059	-0,083
-568,875	24,575	0,050	-0,030
-567,861	-121,278	0,161	0,019
-566,846	168,090	0,044	-0,046
-565,831	87,413	0,082	-0,066
-564,817	-200,000	-0,019	-0,105
-563,802	800,000	-0,067	-0,206
-562,788	317,241	-0,057	-0,080
-561,773	232,819	-0,105	0,127
-560,758	316,283	0,078	0,108
-559,744	245,752	0,031	0,039
-558,729	153,679	0,016	0,016
-557,715	228,066	-0,051	-0,061
-556,700	800,000	-0,040	-0,091
-555,685	-200,000	0,014	0,092
-554,671	596,372	0,023	-0,042
-553,656	150,975	-0,055	-0,055
-552,642	-200,000	0,023	0,079
-551,627	461,730	-0,013	-0,022
-550,612	305,694	0,054	0,074
-549,598	109,868	-0,081	0,071
-548,583	341,983	-0,030	-0,044
-547,569	62,615	0,064	0,047
-546,554	47,191	-0,036	-0,024
-545,539	-26,772	0,072	-0,031
-544,525	104,025	-0,095	-0,082
-543,510	-200,000	0,042	-0,147
-542,496	-200,000	-0,005	-0,059
-541,481	-200,000	0,006	0,029
-540,466	128,183	0,030	-0,028
-539,452	800,000	-0,037	0,093
-538,437	73,084	0,081	0,062
-537,423	-200,000	-0,002	0,068
-536,408	-200,000	0,011	0,160
-535,393	-81,884	-0,045	-0,011
-534,379	-200,000	-0,002	-0,027
-533,364	295,949	-0,038	-0,051
-532,350	-37,810	-0,068	-0,026
-531,335	219,648	-0,049	-0,057
-530,321	-200,000	0,015	-0,052
-529,306	-98,855	-0,131	0,024
-528,291	800,000	-0,132	-0,281
-527,277	-74,212	-0,035	-0,009
-526,262	785,020	-0,015	0,030
-525,248	-200,000	0,001	-0,031
-524,233	108,570	0,046	-0,040
-523,218	331,733	0,012	0,017
-522,204	-49,967	-0,072	0,025
-521,189	800,000	-0,081	-0,171
-520,175	260,069	0,011	-0,015
-519,160	-107,564	-0,089	-0,014
-518,145	77,501	0,086	0,067
-517,131	-131,247	0,081	-0,008
-516,116	605,606	0,047	-0,085
-515,102	-131,238	-0,121	0,012
-514,087	-200,000	0,004	0,021
-513,072	81,623	-0,091	0,072
-512,058	-127,677	0,156	-0,016
-511,043	410,205	0,049	0,076
-510,029	-103,145	-0,123	0,021
-509,014	65,867	0,049	0,037
-507,999	-113,172	0,155	0,022
-506,985	-200,000	0,010	-0,118
-505,970	-54,182	0,028	-0,009
-504,956	106,535	-0,050	0,044
-503,941	-74,048	0,117	-0,031
-502,926	-200,000	-0,008	0,044
-501,912	80,315	-0,096	-0,076
-500,897	-115,978	0,057	-0,008
-499,883	-54,867	0,078	-0,026
-498,868	-200,000	0,003	-0,015
-497,853	-93,686	-0,082	0,016
-496,839	-111,993	0,116	0,017
-495,824	-200,000	-0,013	-0,122
-494,810	-72,847	0,030	0,008
-493,795	-25,213	0,077	-0,033
-492,781	-200,000	-0,001	0,084
-491,766	-47,226	0,068	0,024
-490,751	800,000	-0,058	-0,125
-489,737	-200,000	0,001	-0,060
-488,722	-200,000	-0,013	-0,046
-487,708	210,264	0,013	-0,014
-486,693	82,163	0,019	0,015
-485,678	48,100	-0,095	-0,065
-484,664	-169,669	-0,153	-0,004
-483,649	601,279	-0,037	0,068
-482,635	-200,000	-0,010	-0,047
-481,620	487,753	0,044	0,073
-480,605	356,359	0,020	-0,030
-479,591	800,000	0,008	0,022
-478,576	117,379	-0,065	-0,059
-477,562	800,000	-0,017	-0,055
-476,547	4,510	-0,036	0,019
-475,532	-200,000	-0,012	0,143
-474,518	-80,745	0,079	0,019
-473,503	452,630	0,039	0,063
-472,489	45,074	-0,041	0,028
-471,474	-41,518	0,139	-0,052
-470,459	-200,000	-0,008	-0,072
-469,445	-104,981	-0,060	0,010
-468,430	66,447	-0,070	-0,052
-467,416	61,006	-0,103	0,075
-466,401	-116,871	0,087	-0,012
-465,386	-33,497	-0,093	0,037
-464,372	159,748	-0,074	0,075
-463,357	-200,000	-0,016	0,084
-462,343	80,690	-0,096	0,076
-461,328	-200,000	0,013	-0,073
-460,313	182,666	0,061	0,066
-459,299	-107,947	-0,155	0,024
-458,284	-200,000	-0,011	-0,093
-457,270	53,909	-0,065	-0,046
-456,255	-93,124	-0,109	0,022
-455,241	-200,000	-0,168	0,000
-454,226	-68,982	0,088	-0,024
-453,211	-200,000	-0,012	-0,090
-452,197	800,000	-0,026	0,064
-451,182	116,612	0,081	0,073
-450,168	28,269	-0,026	0,016
-449,153	34,921	0,066	0,042
-448,138	97,794	-0,057	-0,047
-447,124	-200,000	-0,008	-0,067
-446,109	800,000	0,040	-0,110
-445,095	77,724	-0,081	0,063
-444,080	74,902	0,170	0,130
-443,065	800,000	0,079	0,173
-442,051	-27,762	-0,155	0,065
-441,036	122,899	0,030	-0,027
-440,022	800,000	0,044	-0,114
-439,007	57,764	0,133	0,095
-437,992	284,394	0,055	-0,072
-436,978	163,376	0,031	0,032
-435,963	740,090	-0,113	0,223
-434,949	95,944	-0,078	0,065
-433,934	-200,000	0,001	0,178
-432,919	16,835	-0,084	-0,048
-431,905	98,916	-0,032	0,027
-430,890	525,047	-0,030	0,052
-429,876	800,000	0,024	0,074
-428,861	-200,000	-0,021	0,130
-427,846	604,322	-0,011	-0,020
-426,832	-22,637	-0,102	0,045
-425,817	-180,682	-0,025	0,000
-424,803	107,738	-0,095	-0,083
-423,788	72,032	-0,032	0,024
-422,773	448,500	0,095	0,153
-421,759	32,525	0,031	-0,020
-420,744	76,665	0,102	0,078
-419,730	-156,316	-0,070	0,003
-418,715	154,708	0,085	-0,086
-417,701	-55,720	0,196	-0,063
-416,686	-145,392	-0,137	-0,009
-415,671	22,004	-0,049	-0,029
-414,657	-200,000	0,001	0,050
-413,642	-136,207	-0,029	-0,002
-412,628	268,415	-0,065	-0,083
-411,613	51,814	-0,088	-0,061
-410,598	259,234	0,044	-0,056
-409,584	184,076	0,047	-0,051
-408,569	26,500	-0,048	0,029
-407,555	242,163	0,071	0,087
-406,540	-0,866	-0,049	-0,025
-405,525	800,000	0,024	-0,062
-404,511	387,761	-0,009	0,014
-403,496	-200,000	-0,006	-0,066
-402,482	-41,145	0,059	0,022
-401,467	83,534	0,025	0,020
-400,452	213,491	-0,039	-0,045
-399,438	16,508	0,160	0,092
-398,423	-200,000	0,009	-0,072
-397,409	-77,093	-0,179	-0,045
-396,394	709,534	-0,047	0,091
-395,379	107,300	-0,053	0,046
-394,365	-61,514	-0,087	0,026
-393,350	-25,884	-0,055	-0,024
-392,336	330,896	0,067	-0,094
-391,321	233,483	0,064	0,077
-390,306	-97,776	-0,132	-0,025
-389,292	170,251	-0,041	0,043
-388,277	5,763	-0,073	0,039
-387,263	121,424	-0,036	0,032
-386,248	218,566	0,031	0,036
-385,233	-200,000	-0,009	0,087
-384,219	-200,000	0,009	0,034
-383,204	800,000	-0,033	-0,100
-382,190	-200,000	0,022	-0,117
-381,175	445,574	-0,026	0,041
-380,160	-200,000	-0,022	-0,170
-379,146	263,667	0,067	-0,085
-378,131	-200,000	0,011	-0,055
-377,117	-200,000	0,012	0,094
-376,102	-200,000	-0,003	-0,088
-375,088	-57,029	-0,196	0,063
-374,073	-163,572	-0,069	0,002
-373,058	486,704	-0,078	-0,130
-372,044	-74,937	0,072	-0,019
-371,029	-105,627	-0,134	0,022
-370,015	-44,869	0,043	-0,015
-369,000	800,000	0,044	-0,100
-367,985	-64,919	-0,045	-0,013
-366,971	800,000	0,035	0,082
-365,956	-200,000	0,010	0,126
-364,942	-200,000	0,010	0,052
-363,927	-5,291	-0,096	-0,048
-362,912	-192,931	0,079	-0,001
-361,898	-56,176	-0,023	-0,007
-360,883	-78,108	-0,095	-0,024
-359,869	-200,000	-0,039	-0,126
-358,854	127,544	0,107	0,099
-357,839	-132,185	0,156	0,015
-356,825	-44,940	0,063	0,023
-355,810	-200,000	0,017	0,114
-354,796	16,463	-0,152	-0,087
-353,781	-87,401	0,135	0,030
-352,766	-45,235	-0,093	-0,033
-351,752	-200,000	0,011	-0,061
-350,737	-58,438	0,128	0,040
-349,723	320,112	0,021	0,029
-348,708	-200,000	0,030	0,098
-347,693	800,000	0,019	-0,057
-346,679	258,751	0,086	-0,109
-345,664	160,315	0,066	-0,067
-344,650	-200,000	0,013	-0,063
-343,635	-17,418	0,090	-0,041
-342,620	-200,000	-0,001	0,142
-341,606	9,360	0,021	0,011
-340,591	186,539	-0,034	0,037
-339,577	-27,080	0,058	0,024
-338,562	-200,000	-0,005	-0,033
-337,548	800,000	-0,036	0,092
-336,533	-200,000	0,021	0,071
-335,518	378,301	0,077	0,115
-334,504	280,618	-0,066	-0,086
-333,489	-200,000	0,004	0,041
-332,475	-200,000	0,001	0,070
-331,460	1,887	-0,091	0,048
-330,445	260,758	-0,050	0,063
-329,431	102,283	0,032	0,027
-328,416	-127,588	0,103	-0,011
-327,402	124,874	0,009	0,008
-326,387	-200,000	0,017	0,084
-325,372	800,000	0,054	-0,161
-324,358	-200,000	0,019	-0,091
-323,343	589,344	-0,037	-0,067
-322,329	-88,904	0,103	0,022
-321,314	-171,863	-0,043	-0,001
-320,299	-100,806	0,157	0,028
-319,285	-18,944	-0,158	-0,071
-318,270	-200,000	0,003	0,055
-317,256	757,789	-0,040	0,079
-316,241	800,000	-0,044	-0,125
-315,226	-200,000	0,000	-0,051
-314,212	-33,769	0,083	-0,033
-313,197	333,312	0,041	-0,058
-312,183	800,000	0,041	-0,088
-311,168	-28,094	-0,074	-0,031
-310,153	-52,772	0,138	0,046
-309,139	-125,574	0,063	-0,007
-308,124	-200,000	0,037	0,154
-307,110	209,545	0,082	-0,093
-306,095	-129,816	0,214	0,021
-305,080	50,318	-0,057	-0,039
-304,066	564,580	0,013	-0,024
-303,051	355,932	0,054	-0,079
-302,037	232,816	0,040	0,048
-301,022	149,324	0,064	-0,063
-300,008	105,453	-0,076	0,065
-298,993	-109,655	0,120	0,018
-297,978	528,683	0,010	-0,018
-296,964	-200,000	-0,022	0,107
-295,949	453,577	-0,072	-0,116
-294,935	268,314	0,029	0,036
-293,920	252,031	-0,124	0,153
-292,905	-75,056	0,216	-0,056
-291,891	455,415	0,042	-0,068
-290,876	-24,883	-0,074	0,032
-289,862	508,919	-0,028	-0,048
-288,847	82,849	-0,083	-0,066
-287,832	379,548	0,034	0,050
-286,818	339,897	-0,063	0,089
-285,803	-171,199	0,080	-0,002
-284,789	177,180	0,137	0,144
-283,774	8,585	0,034	0,019
-282,759	-40,387	-0,047	-0,018
-281,745	-169,144	0,083	0,002
-280,730	800,000	-0,031	-0,092
-279,716	-37,046	0,036	-0,014
-278,701	-124,698	0,136	-0,015
-277,686	264,883	0,062	-0,078
-276,672	549,119	0,038	0,067
-275,657	35,783	0,075	0,048
-274,643	-200,000	-0,019	-0,081
-273,628	-200,000	-0,018	0,060
-272,613	800,000	0,024	0,049
-271,599	-53,190	-0,042	-0,014
-270,584	34,244	0,128	0,081
-269,570	-27,048	-0,042	0,018
-268,555	-97,068	0,165	0,031
-267,540	-39,569	-0,088	-0,033
-266,526	-154,086	-0,118	0,006
-265,511	-69,952	0,122	-0,033
-264,497	748,667	0,050	-0,098
-263,482	278,406	0,036	-0,047
-262,467	800,000	0,049	0,098
-261,453	10,993	0,070	0,039
-260,438	192,583	-0,032	-0,035
-259,424	-146,768	-0,133	-0,008
-258,409	110,918	-0,043	-0,038
-257,395	-200,000	0,017	-0,148
-256,380	100,242	0,110	0,092
-255,365	190,591	-0,059	0,064
-254,351	128,486	-0,101	0,093
-253,336	-200,000	0,022	0,081
-252,322	-200,000	0,010	0,054
-251,307	363,882	-0,062	-0,090
-250,292	800,000	-0,049	0,105
-249,278	-200,000	0,055	0,232
-248,263	-141,356	0,051	-0,004
-247,249	-172,335	0,132	-0,003
-246,234	40,025	0,036	0,023
-245,219	800,000	-0,043	-0,114
-244,205	-2,433	-0,092	-0,047
-243,190	-164,290	-0,148	-0,005
-242,176	315,552	0,027	0,037
-241,161	-200,000	0,002	-0,074
-240,146	15,926	-0,111	0,063
-239,132	241,662	-0,088	0,106
-238,117	-149,412	-0,143	0,008
-237,103	-200,000	-0,011	0,051
-236,088	-148,190	-0,033	0,002
-235,073	91,016	0,115	-0,094
-234,059	-200,000	0,041	-0,135
-233,044	111,461	0,086	0,075
-232,030	-84,628	-0,098	-0,022
-231,015	-200,000	0,013	0,097
-230,000	111,252	-0,049	-0,043
-228,986	-5,493	-0,219	-0,108
-227,971	-200,000	-0,008	0,075
-226,957	478,481	0,092	0,151
-225,942	96,456	0,074	-0,061
-224,927	-102,121	-0,143	-0,025
-223,913	78,051	-0,039	0,030
-222,898	-200,000	0,020	0,073
-221,884	-93,481	-0,169	-0,034
-220,869	80,130	0,088	0,069
-219,855	234,386	0,087	-0,104
-218,840	800,000	0,063	-0,137
-217,825	16,913	-0,033	0,019
-216,811	-200,000	-0,011	0,098
-215,796	-200,000	-0,011	-0,071
-214,782	176,272	0,083	0,087
-213,767	-200,000	-0,027	0,125
-212,752	206,865	0,066	0,074
-211,738	800,000	-0,050	0,104
-210,723	428,215	0,043	0,067
-209,709	-113,746	0,167	-0,023
-208,694	-90,812	-0,063	-0,013
-207,679	-200,000	-0,013	-0,043
-206,665	800,000	0,043	0,112
-205,650	8,629	-0,102	-0,055
-204,636	-200,000	-0,009	-0,074
-203,621	-30,535	-0,180	0,073
-202,606	206,985	0,012	0,013
-201,592	52,417	-0,126	-0,087
-200,577	-113,394	-0,055	-0,008
-199,563	356,984	0,054	0,079
-198,548	45,452	0,136	-0,091
-197,533	-132,033	0,129	-0,012
-196,519	35,317	0,040	-0,025
-195,504	-200,000	0,038	0,218
-194,490	-200,000	-0,004	0,092
-193,475	-98,763	-0,099	-0,018
-192,460	-104,621	0,097	0,016
-191,446	33,804	0,082	0,052
-190,431	-200,000	0,004	-0,080
-189,417	-147,612	0,180	0,011
-188,402	-200,000	0,019	-0,081
-187,387	-74,350	-0,117	0,030
-186,373	-166,426	-0,028	-0,001
-185,358	-200,000	0,025	-0,113
-184,344	-200,000	-0,000	-0,098
-183,329	-23,082	0,202	0,088
-182,315	-49,058	0,171	-0,059
-181,300	430,370	0,034	-0,053
-180,285	762,840	0,020	0,039
-179,271	74,683	-0,141	-0,107
-178,256	800,000	0,020	0,046
-177,242	102,212	0,089	0,075
-176,227	800,000	-0,043	0,133
-175,212	550,418	0,031	-0,054
-174,198	-200,000	-0,003	0,051
-173,183	136,253	0,082	-0,077
-172,169	-200,000	0,012	-0,148
-171,154	-200,000	-0,045	-0,151
-170,139	129,936	0,057	0,053
-169,125	167,764	-0,047	-0,048
-168,110	-30,226	0,080	-0,033
-167,096	163,091	0,068	0,069
-166,081	-122,664	0,063	-0,007
-165,066	800,000	0,079	-0,176
-164,052	293,143	-0,022	0,030
-163,037	109,326	0,073	-0,063
-162,023	213,931	0,101	0,116
-161,008	373,439	0,014	-0,021
-159,993	-200,000	-0,045	0,000
-158,979	315,180	-0,041	0,056
-157,964	-200,000	-0,023	0,108
-156,950	-200,000	0,027	0,152
-155,935	536,153	0,036	0,061
-154,920	-1,010	-0,044	-0,022
-153,906	-117,205	0,147	0,019
-152,891	-16,314	-0,059	0,027
-151,877	563,485	0,054	-0,094
-150,862	266,804	0,048	-0,060
-149,847	-200,000	-0,014	-0,116
-148,833	-73,872	-0,060	0,016
-147,818	-200,000	0,009	-0,074
-146,804	-200,000	0,006	-0,066
-145,789	-118,774	0,157	-0,020
-144,775	-189,230	0,146	-0,001
-143,760	-17,376	-0,117	-0,053
-142,745	-75,410	-0,113	-0,029
-141,731	-147,447	-0,066	-0,004
-140,716	-45,127	-0,040	0,014
-139,702	-152,081	0,133	-0,007
-138,687	-57,298	0,142	0,045
-137,672	-200,000	0,013	0,086
-136,658	-155,005	-0,187	0,009
-135,643	409,219	-0,035	-0,054
-134,629	-133,513	-0,084	-0,007
-133,614	120,068	0,138	-0,124
-132,599	127,441	0,049	0,045
-131,585	-200,000	0,017	0,058
-130,570	296,896	0,086	-0,115
-129,556	-11,566	-0,147	-0,070
-128,541	800,000	-0,062	-0,163
-127,526	62,646	-0,064	-0,046
-126,512	24,049	0,121	-0,072
-125,497	800,000	0,017	0,035
-124,483	-10,785	0,061	-0,029
-123,468	212,448	-0,046	0,052
-122,453	-98,072	-0,017	-0,003
-121,439	-100,571	-0,074	0,013
-120,424	205,092	0,048	0,054
-119,410	-200,000	-0,021	0,074
