DTS Sentinel unit serial number:	SN410029Multiplexer serial number:	ORYXHardware model number:	OX2-SRSoftware version number:	ORYX F/W v4,00 Oryx Data Collector v3.7.2.0data status	okinstallation	B4 Nyhavnadifferential loss correction	single-endedforward channel	channel 2reverse channel	N/Adate	2023/12/16time	09:40:13forward acquisition time	300,00reverse acquisition time	0,00gamma	499,1914k internal	0,3126k external	0,3126temperature offset calibration	1,0000default loss term (dB/km)	0,3820temperature slope calibration	1,0000multiplexer offset coefficient	1,0000multiplexer slope coefficient	1,0000fibre end	0,00T internal ref (°C)	23,09T ext. ref 1 (°C)	8,81T ext. ref 2 (°C)	8,99length (m)	temperature (°C)	Stokes	anti-Stokes-744,400	-31,709	0,022	-0,009
-743,385	115,399	-0,159	0,145
-742,371	-200,000	0,029	-0,197
-741,356	-47,642	-0,117	0,042
-740,342	-73,391	0,147	0,040
-739,327	5,359	-0,153	0,084
-738,312	800,000	0,015	-0,046
-737,298	-105,411	-0,182	-0,031
-736,283	-123,251	0,151	0,018
-735,269	-19,397	-0,257	0,118
-734,254	-66,201	-0,080	-0,024
-733,239	-95,612	-0,391	-0,077
-732,225	-136,631	0,132	0,011
-731,210	303,960	0,031	-0,043
-730,196	-200,000	0,025	-0,174
-729,181	607,490	-0,012	-0,023
-728,167	-75,602	0,068	-0,018
-727,152	-23,842	-0,127	0,056
-726,137	-98,138	-0,025	0,005
-725,123	-36,289	0,051	-0,020
-724,108	-200,000	-0,019	0,065
-723,094	-1,102	-0,097	0,051
-722,079	-200,000	-0,020	-0,078
-721,064	-51,373	0,080	0,028
-720,050	-120,414	-0,045	-0,006
-719,035	-200,000	-0,006	-0,040
-718,021	800,000	-0,019	-0,060
-717,006	768,531	-0,062	-0,127
-715,991	-200,000	0,015	-0,137
-714,977	25,290	-0,087	-0,053
-713,962	432,805	0,048	0,078
-712,948	225,207	-0,049	-0,059
-711,933	62,175	0,081	0,060
-710,918	-200,000	0,005	0,020
-709,904	-200,000	0,011	0,039
-708,889	478,271	-0,041	-0,070
-707,875	-200,000	-0,037	-0,172
-706,860	-187,675	0,041	0,000
-705,845	-200,000	-0,033	0,174
-704,831	54,102	0,066	0,047
-703,816	-200,000	-0,001	0,072
-702,802	-200,000	0,015	0,107
-701,787	159,590	0,062	0,065
-700,772	800,000	0,073	-0,199
-699,758	800,000	0,047	-0,132
-698,743	-200,000	0,011	0,059
-697,729	800,000	0,050	0,152
-696,714	423,854	0,053	-0,086
-695,699	122,042	-0,090	0,083
-694,685	313,011	-0,081	0,113
-693,670	729,630	-0,025	0,050
-692,656	-200,000	0,006	-0,133
-691,641	-156,268	0,023	-0,001
-690,627	-122,416	0,155	-0,019
-689,612	800,000	0,015	-0,043
-688,597	-166,908	-0,078	0,002
-687,583	-14,339	-0,136	-0,065
-686,568	-89,436	-0,077	-0,017
-685,554	-200,000	-0,007	-0,093
-684,539	331,428	-0,083	0,120
-683,524	51,597	0,173	-0,122
-682,510	99,348	-0,052	-0,045
-681,495	405,972	-0,040	0,063
-680,481	-93,600	-0,136	0,028
-679,466	-99,069	-0,125	-0,023
-678,451	96,112	0,111	-0,094
-677,437	800,000	0,029	-0,063
-676,422	-10,690	-0,086	-0,042
-675,408	319,967	0,071	0,100
-674,393	-20,416	-0,082	-0,037
-673,378	-141,186	-0,098	-0,007
-672,364	-98,382	-0,083	-0,016
-671,349	800,000	-0,053	-0,151
-670,335	-200,000	-0,024	-0,162
-669,320	-129,726	-0,068	0,007
-668,305	0,329	0,043	0,023
-667,291	-200,000	0,001	-0,007
-666,276	-48,684	0,034	0,012
-665,262	-200,000	0,006	-0,030
-664,247	180,853	-0,117	-0,127
-663,232	-200,000	-0,010	-0,045
-662,218	-173,613	0,146	-0,003
-661,203	-82,752	-0,124	-0,029
-660,189	50,558	0,066	0,046
-659,174	21,241	0,044	-0,026
-658,159	-9,740	-0,048	-0,023
-657,145	628,983	-0,065	-0,123
-656,130	-17,355	-0,056	0,026
-655,116	-24,385	-0,164	0,072
-654,101	-200,000	-0,013	0,109
-653,086	-70,672	-0,012	0,003
-652,072	-182,852	-0,103	-0,001
-651,057	57,774	-0,098	0,071
-650,043	56,564	-0,138	-0,100
-649,028	-200,000	-0,022	-0,118
-648,014	-200,000	-0,003	-0,014
-646,999	800,000	-0,050	0,115
-645,984	443,033	0,045	0,073
-644,970	-45,398	0,038	0,014
-643,955	-200,000	-0,025	0,163
-642,941	-200,000	-0,012	0,068
-641,926	106,775	0,064	-0,057
-640,911	256,257	0,042	-0,053
-639,897	-200,000	-0,006	0,104
-638,882	206,990	-0,110	-0,128
-637,868	-70,649	0,122	0,034
-636,853	-78,170	0,022	-0,006
-635,838	191,136	-0,102	-0,114
-634,824	-80,040	-0,130	-0,032
-633,809	-157,167	-0,084	0,004
-632,795	595,936	0,076	0,140
-631,780	579,827	-0,069	0,126
-630,765	-36,929	-0,066	0,026
-629,751	800,000	-0,032	0,068
-628,736	800,000	0,026	-0,059
-627,722	123,783	0,100	-0,093
-626,707	-115,463	0,138	-0,019
-625,692	-94,643	-0,033	-0,007
-624,678	91,996	-0,021	-0,017
-623,663	-200,000	-0,007	-0,064
-622,649	-200,000	0,010	-0,066
-621,634	731,364	0,070	0,139
-620,619	421,997	-0,022	0,036
-619,605	219,274	-0,062	-0,073
-618,590	158,674	0,031	0,032
-617,576	311,421	-0,035	-0,049
-616,561	-63,825	0,009	0,003
-615,546	-156,884	0,084	0,004
-614,532	52,438	-0,056	0,040
-613,517	-55,979	0,048	-0,016
-612,503	561,524	0,043	0,078
-611,488	226,205	0,011	0,013
-610,474	15,655	0,036	-0,021
-609,459	104,784	-0,050	-0,044
-608,444	-200,000	-0,021	-0,107
-607,430	-200,000	0,007	0,043
-606,415	167,081	-0,031	-0,033
-605,401	357,256	0,080	-0,119
-604,386	-125,715	0,077	-0,008
-603,371	158,883	0,043	0,044
-602,357	800,000	0,005	0,015
-601,342	-131,882	0,014	-0,001
-600,328	-128,900	-0,088	0,009
-599,313	46,518	0,098	-0,067
-598,298	-113,948	0,038	-0,005
-597,284	159,573	0,031	0,031
-596,269	-200,000	-0,040	-0,133
-595,255	524,001	-0,057	0,100
-594,240	616,832	-0,067	-0,125
-593,225	800,000	-0,045	-0,098
-592,211	158,647	0,138	0,142
-591,196	408,877	-0,083	-0,130
-590,182	-119,145	-0,077	-0,010
-589,167	123,877	-0,064	0,059
-588,152	-38,894	0,078	0,030
-587,138	-81,080	0,047	-0,011
-586,123	800,000	-0,006	-0,014
-585,109	-65,975	-0,112	0,033
-584,094	-18,816	-0,065	-0,030
-583,079	-200,000	-0,002	0,058
-582,065	-9,267	0,042	-0,021
-581,050	-200,000	0,017	-0,070
-580,036	-200,000	-0,018	-0,094
-579,021	-72,436	-0,179	0,049
-578,006	-200,000	-0,034	-0,224
-576,992	134,049	0,093	-0,089
-575,977	-200,000	0,005	-0,088
-574,963	-97,021	-0,079	0,015
-573,948	610,438	-0,030	-0,056
-572,934	-200,000	0,032	-0,107
-571,919	259,389	-0,038	-0,048
-570,904	-119,802	0,047	-0,006
-569,890	302,269	0,079	0,109
-568,875	321,046	0,097	-0,137
-567,861	391,014	-0,016	-0,025
-566,846	-200,000	-0,007	-0,092
-565,831	60,374	0,029	0,021
-564,817	-162,181	-0,090	-0,003
-563,802	-132,535	-0,080	0,007
-562,788	218,584	-0,044	0,053
-561,773	114,939	0,010	0,009
-560,758	-69,440	-0,039	0,011
-559,744	800,000	0,041	0,103
-558,729	636,213	0,058	0,110
-557,715	800,000	-0,051	0,134
-556,700	-157,402	0,058	-0,003
-555,685	16,452	-0,113	-0,066
-554,671	128,623	-0,080	-0,076
-553,656	-50,715	0,142	-0,049
-552,642	334,759	0,111	0,159
-551,627	327,050	-0,049	0,070
-550,612	-200,000	-0,011	-0,069
-549,598	-124,481	-0,176	-0,020
-548,583	150,436	-0,109	0,109
-547,569	-92,187	-0,090	-0,019
-546,554	-104,447	-0,035	-0,006
-545,539	205,669	0,036	0,041
-544,525	-151,540	0,075	-0,004
-543,510	27,407	-0,094	-0,058
-542,496	-70,741	0,011	0,003
-541,481	98,633	0,081	-0,069
-540,466	-95,500	0,022	0,004
-539,452	-0,009	0,064	0,034
-538,437	-97,820	0,140	0,026
-537,423	323,358	-0,025	-0,036
-536,408	800,000	-0,028	-0,083
-535,393	-200,000	-0,036	-0,134
-534,379	484,001	-0,015	0,025
-533,364	352,214	-0,037	-0,054
-532,350	-118,395	-0,044	-0,006
-531,335	-126,426	0,170	0,019
-530,321	-200,000	0,000	-0,098
-529,306	243,018	0,047	0,058
-528,291	-136,258	-0,180	0,015
-527,277	529,126	-0,032	-0,056
-526,262	25,968	0,024	-0,015
-525,248	-19,315	-0,060	0,027
-524,233	-22,781	-0,091	0,040
-523,218	-19,511	-0,049	-0,022
-522,204	-49,705	-0,035	0,012
-521,189	104,882	0,039	0,034
-520,175	800,000	-0,056	-0,114
-519,160	-96,252	0,134	-0,026
-518,145	-83,935	-0,063	0,015
-517,131	-8,012	-0,109	-0,054
-516,116	800,000	0,043	0,107
-515,102	438,234	-0,045	0,073
-514,087	-110,371	0,135	-0,020
-513,072	-16,249	-0,097	0,045
-512,058	-83,063	-0,144	-0,034
-511,043	-200,000	0,010	-0,126
-510,029	-200,000	-0,003	0,033
-509,014	-145,876	-0,079	0,005
-507,999	-98,031	0,085	0,016
-506,985	84,355	-0,057	0,046
-505,970	-142,344	0,109	0,008
-504,956	68,126	-0,145	-0,110
-503,941	-200,000	0,002	-0,031
-502,926	800,000	0,014	-0,038
-501,912	-105,777	0,159	-0,026
-500,897	-20,221	-0,062	-0,028
-499,883	-90,541	0,025	0,005
-498,868	-102,622	-0,089	-0,015
-497,853	634,272	-0,044	0,082
-496,839	88,535	0,048	-0,040
-495,824	-78,815	0,015	0,004
-494,810	-200,000	-0,011	-0,080
-493,795	0,532	0,052	0,027
-492,781	198,495	-0,027	0,030
-491,766	25,580	-0,088	-0,054
-490,751	-76,115	-0,108	-0,028
-489,737	-117,570	-0,094	-0,012
-488,722	555,275	0,051	-0,092
-487,708	17,132	0,074	0,043
-486,693	3,053	-0,110	0,059
-485,678	-180,715	-0,063	0,001
-484,664	-170,378	-0,130	-0,003
-483,649	-200,000	0,011	-0,059
-482,635	359,145	0,032	-0,047
-481,620	47,199	0,044	-0,030
-480,605	800,000	0,024	-0,060
-479,591	800,000	-0,092	0,200
-478,576	299,951	-0,084	0,115
-477,562	-92,888	-0,062	-0,013
-476,547	160,810	-0,102	-0,105
-475,532	-21,874	0,101	0,045
-474,518	-21,795	0,210	-0,094
-473,503	-134,015	-0,016	0,001
-472,489	800,000	-0,070	-0,166
-471,474	-200,000	0,004	-0,101
-470,459	16,509	0,022	0,013
-469,445	427,536	0,105	-0,168
-468,430	160,671	-0,041	0,042
-467,416	-4,758	0,017	-0,009
-466,401	-66,650	-0,113	0,033
-465,386	-200,000	0,004	0,097
-464,372	18,924	0,029	-0,017
-463,357	465,326	0,080	-0,133
-462,343	-92,568	-0,056	0,011
-461,328	-200,000	-0,020	-0,065
-460,313	800,000	-0,056	-0,135
-459,299	33,052	0,061	0,039
-458,284	-87,211	-0,103	0,023
-457,270	37,238	-0,036	0,024
-456,255	-105,060	0,087	0,015
-455,241	0,535	0,074	-0,039
-454,226	-146,623	-0,064	-0,004
-453,211	-200,000	0,011	-0,065
-452,197	148,793	-0,076	0,075
-451,182	800,000	-0,034	-0,086
-450,168	-1,122	0,112	0,058
-449,153	35,926	-0,072	-0,047
-448,138	-200,000	0,005	0,023
-447,124	-102,777	-0,086	-0,015
-446,109	-8,142	0,042	-0,021
-445,095	-102,770	0,050	0,009
-444,080	-200,000	0,002	-0,016
-443,065	800,000	0,015	0,043
-442,051	-200,000	-0,006	0,064
-441,036	352,498	0,037	-0,054
-440,022	37,230	0,105	-0,068
-439,007	612,263	0,029	-0,054
-437,992	-200,000	0,004	-0,098
-436,978	280,734	-0,063	0,083
-435,963	206,919	0,066	0,076
-434,949	6,935	0,083	-0,046
-433,934	-52,861	-0,173	-0,058
-432,919	-61,170	-0,038	0,012
-431,905	-130,601	0,026	-0,003
-430,890	-200,000	0,016	0,150
-429,876	439,420	-0,015	-0,024
-428,861	183,263	0,039	0,043
-427,846	-36,443	0,087	0,034
-426,832	-155,344	-0,192	-0,009
-425,817	-200,000	0,011	-0,064
-424,803	-59,210	0,096	0,030
-423,788	-200,000	-0,001	-0,046
-422,773	-200,000	-0,014	0,074
-421,759	36,602	0,004	0,003
-420,744	-106,795	0,089	-0,014
-419,730	420,509	-0,017	0,027
-418,715	-200,000	-0,004	-0,036
-417,701	-76,962	-0,030	0,008
-416,686	-54,817	-0,037	0,012
-415,671	-200,000	0,008	0,078
-414,657	372,166	-0,027	-0,041
-413,642	-107,681	0,043	-0,007
-412,628	-93,157	-0,116	-0,024
-411,613	800,000	-0,072	-0,228
-410,598	-200,000	0,008	-0,131
-409,584	-108,133	0,127	0,020
-408,569	67,647	0,087	-0,066
-407,555	-200,000	0,028	0,157
-406,540	-68,548	0,059	-0,017
-405,525	-200,000	0,048	0,208
-404,511	27,708	-0,101	-0,063
-403,496	-59,164	-0,062	0,020
-402,482	2,436	0,009	-0,005
-401,467	20,932	-0,055	0,033
-400,452	-86,540	0,055	0,012
-399,438	86,790	0,108	-0,087
-398,423	800,000	-0,007	0,020
-397,409	-200,000	0,016	-0,114
-396,394	270,107	-0,048	0,062
-395,379	-200,000	0,017	0,090
-394,365	-90,259	0,067	-0,014
-393,350	6,612	0,017	0,009
-392,336	-96,556	-0,096	-0,018
-391,321	59,944	0,062	-0,045
-390,306	64,704	-0,023	-0,017
-389,292	100,963	-0,043	-0,037
-388,277	-200,000	0,002	0,071
-387,263	239,714	0,018	-0,022
-386,248	-200,000	-0,007	-0,091
-385,233	57,708	0,082	-0,059
-384,219	-200,000	0,016	-0,121
-383,204	81,263	-0,105	0,083
-382,190	-106,492	0,112	0,018
-381,175	-50,533	0,195	0,067
-380,160	-200,000	0,015	0,071
-379,146	-200,000	0,019	0,100
-378,131	-159,861	-0,037	0,001
-377,117	800,000	0,066	0,183
-376,102	-81,740	-0,135	-0,032
-375,088	-79,864	0,099	-0,024
-374,073	401,220	0,049	0,076
-373,058	800,000	-0,011	0,023
-372,044	-200,000	-0,009	-0,050
-371,029	800,000	0,041	0,120
-370,015	359,808	-0,057	0,084
-369,000	800,000	0,020	0,058
-367,985	800,000	-0,045	0,096
-366,971	-3,345	0,083	-0,042
-365,956	261,259	-0,044	-0,056
-364,942	800,000	0,029	0,070
-363,927	-104,315	-0,136	0,023
-362,912	27,106	0,121	0,075
-361,898	-200,000	0,024	-0,104
-360,883	265,743	0,056	-0,071
-359,869	-200,000	-0,002	0,038
-358,854	-25,134	0,094	0,041
-357,839	800,000	0,033	-0,095
-356,825	-3,941	0,072	-0,036
-355,810	800,000	0,016	-0,039
-354,796	-200,000	-0,006	-0,031
-353,781	147,998	-0,148	-0,147
-352,766	13,449	0,103	-0,058
-351,752	800,000	0,034	-0,077
-350,737	12,265	0,005	0,003
-349,723	51,289	0,102	-0,071
-348,708	168,281	-0,017	0,018
-347,693	800,000	-0,027	-0,072
-346,679	-25,578	-0,038	0,016
-345,664	-166,727	-0,150	-0,004
-344,650	-200,000	-0,032	-0,109
-343,635	-115,231	0,056	0,008
-342,620	638,360	0,037	0,069
-341,606	800,000	0,031	0,064
-340,591	26,771	-0,095	-0,058
-339,577	3,203	-0,014	0,007
-338,562	83,198	0,023	0,018
-337,548	800,000	-0,042	0,117
-336,533	67,373	-0,148	-0,110
-335,518	800,000	-0,050	0,131
-334,504	-99,882	-0,109	0,020
-333,489	-200,000	0,010	0,034
-332,475	545,869	0,077	0,135
-331,460	88,620	-0,085	0,069
-330,445	398,398	0,035	0,053
-329,431	59,829	-0,080	0,058
-328,416	-31,181	-0,065	0,027
-327,402	-10,499	0,099	-0,048
-326,387	51,850	-0,097	0,067
-325,372	46,842	-0,072	0,049
-324,358	-81,505	-0,042	-0,010
-323,343	285,108	0,053	-0,071
-322,329	-200,000	-0,015	0,125
-321,314	-200,000	0,000	-0,059
-320,299	78,596	0,145	0,113
-319,285	276,694	0,094	0,122
-318,270	-21,153	-0,093	-0,042
-317,256	-200,000	0,008	0,086
-316,241	73,629	0,136	-0,104
-315,226	77,002	-0,012	0,010
-314,212	142,937	-0,108	0,105
-313,197	294,969	0,124	0,166
-312,183	-77,742	0,084	0,021
-311,168	94,183	-0,029	-0,024
-310,153	36,222	0,062	0,040
-309,139	759,143	-0,048	0,096
-308,124	-200,000	-0,012	0,079
-307,110	-81,724	0,053	-0,013
-306,095	-83,334	0,093	-0,022
-305,080	308,337	0,057	-0,079
-304,066	-39,177	-0,059	-0,022
-303,051	360,341	-0,050	-0,074
-302,037	800,000	-0,018	-0,054
-301,022	-5,668	-0,157	0,078
-300,008	-12,533	0,069	0,033
-298,993	800,000	0,022	0,051
-297,978	620,584	-0,005	0,009
-296,964	-25,617	-0,126	0,054
-295,949	800,000	-0,012	0,031
-294,935	-118,931	-0,130	0,016
-293,920	138,946	-0,097	0,093
-292,905	163,839	0,164	0,169
-291,891	-200,000	0,044	0,144
-290,876	-175,863	-0,049	0,001
-289,862	-200,000	0,011	0,129
-288,847	-47,002	-0,034	-0,012
-287,832	-48,572	-0,027	-0,009
-286,818	-200,000	-0,020	-0,091
-285,803	800,000	0,041	0,128
-284,789	-200,000	-0,008	0,066
-283,774	213,476	-0,048	0,056
-282,759	-24,097	0,026	0,011
-281,745	-200,000	0,101	-0,000
-280,730	-200,000	-0,021	-0,078
-279,716	-92,968	-0,082	-0,017
-278,701	-200,000	0,011	0,126
-277,686	-71,876	-0,034	0,009
-276,672	-111,158	-0,175	0,026
-275,657	-105,465	0,084	0,014
-274,643	318,605	0,032	0,045
-273,628	800,000	-0,030	0,072
-272,613	-200,000	-0,008	-0,110
-271,599	-141,502	0,024	0,002
-270,584	411,957	-0,056	0,088
-269,570	800,000	0,040	0,083
-268,555	120,104	-0,042	-0,038
-267,540	85,701	-0,089	-0,072
-266,526	59,808	0,075	-0,054
-265,511	272,234	0,094	-0,121
-264,497	-200,000	0,009	-0,040
-263,482	223,550	0,042	0,049
-262,467	-66,865	0,052	-0,015
-261,453	-35,129	0,036	0,014
-260,438	-133,878	-0,069	0,006
-259,424	20,970	0,066	-0,039
-258,409	9,346	0,077	-0,042
-257,395	-58,173	-0,040	0,013
-256,380	-27,367	-0,033	-0,014
-255,365	51,039	-0,049	-0,034
-254,351	-172,599	0,069	-0,002
-253,336	-179,020	-0,091	-0,001
-252,322	124,408	-0,040	-0,037
-251,307	714,252	-0,052	-0,100
-250,292	327,916	0,041	-0,058
-249,278	800,000	-0,023	0,057
-248,263	-10,217	0,127	-0,062
-247,249	104,918	-0,069	0,060
-246,234	-70,498	-0,062	0,017
-245,219	143,798	0,054	-0,053
-244,205	-110,687	-0,164	-0,024
-243,190	155,970	0,053	0,054
-242,176	-15,097	0,150	-0,070
-241,161	-200,000	0,022	0,103
-240,146	800,000	0,045	0,118
-239,132	-177,063	0,009	-0,000
-238,117	-70,169	0,107	0,030
-237,103	-200,000	-0,022	-0,141
-236,088	800,000	-0,033	0,093
-235,073	469,216	-0,062	0,101
-234,059	-70,066	0,086	-0,024
-233,044	800,000	0,039	-0,113
-232,030	-141,349	0,125	-0,009
-231,015	800,000	-0,039	0,098
-230,000	800,000	-0,019	-0,060
-228,986	-200,000	-0,030	0,115
-227,971	-30,234	0,132	-0,055
-226,957	800,000	-0,070	0,220
-225,942	39,519	0,061	0,040
-224,927	-11,622	-0,039	-0,019
-223,913	-187,395	0,075	0,001
-222,898	-200,000	-0,011	0,053
-221,884	179,524	-0,044	0,047
-220,869	-132,136	-0,046	-0,004
-219,855	-0,045	-0,125	-0,065
-218,840	600,535	0,076	-0,139
-217,825	52,239	0,073	-0,051
-216,811	-200,000	-0,003	-0,071
-215,796	-200,000	-0,028	-0,092
-214,782	-49,117	0,124	-0,043
-213,767	-117,849	0,172	-0,022
-212,752	568,286	0,088	-0,157
-211,738	-53,248	0,089	-0,030
-210,723	-48,394	0,048	0,017
-209,709	22,548	-0,023	-0,014
-208,694	84,584	-0,147	-0,117
-207,679	177,295	-0,089	-0,095
-206,665	800,000	0,019	0,048
-205,650	775,704	0,048	0,096
-204,636	4,775	0,114	0,061
-203,621	800,000	0,024	0,064
-202,606	-200,000	-0,010	-0,070
-201,592	623,905	0,064	-0,117
-200,577	-163,017	-0,061	-0,002
-199,563	-111,234	-0,047	0,007
-198,548	800,000	-0,035	-0,081
-197,533	511,896	0,039	0,066
-196,519	800,000	0,050	0,109
-195,504	-69,850	-0,247	-0,068
-194,490	-156,989	-0,149	0,007
-193,475	-142,314	-0,057	-0,004
-192,460	800,000	-0,041	0,085
-191,446	271,602	-0,072	0,093
-190,431	-200,000	-0,001	0,074
-189,417	592,259	0,061	0,110
-188,402	-26,719	0,071	-0,030
-187,387	211,335	0,062	0,071
-186,373	329,660	0,050	-0,070
-185,358	-200,000	-0,004	-0,051
-184,344	-135,880	0,009	0,001
-183,329	-200,000	0,012	0,062
-182,315	-200,000	0,003	-0,046
-181,300	-135,315	-0,121	0,010
-180,285	-5,724	0,075	-0,037
-179,271	127,935	0,052	-0,048
-178,256	-158,991	0,033	-0,001
-177,242	-200,000	0,009	-0,040
-176,227	448,745	0,039	0,063
-175,212	-200,000	-0,036	0,154
-174,198	-25,634	0,028	0,012
-173,183	-148,612	0,049	-0,003
-172,169	459,423	-0,027	0,044
-171,154	17,327	0,094	-0,054
-170,139	-108,525	0,058	-0,009
-169,125	192,322	0,096	0,105
-168,110	-200,000	0,013	0,051
-167,096	800,000	-0,009	0,019
-166,081	367,211	0,034	-0,050
-165,066	-200,000	0,021	-0,078
-164,052	-38,463	-0,046	-0,018
-163,037	-200,000	0,000	-0,005
-162,023	-200,000	0,024	0,128
-161,008	-58,960	-0,101	-0,031
-159,993	-200,000	0,018	-0,063
-158,979	-90,192	-0,086	-0,018
-157,964	-200,000	-0,027	-0,183
-156,950	91,856	0,075	-0,061
-155,935	432,165	0,027	-0,043
-154,920	800,000	0,072	0,175
-153,906	45,088	0,089	0,060
-152,891	80,975	0,097	0,076
-151,877	84,765	0,056	-0,044
-150,862	-200,000	-0,008	-0,093
-149,847	318,982	0,038	-0,052
-148,833	-200,000	0,001	-0,067
-147,818	-39,601	0,168	0,064
-146,804	-200,000	-0,015	-0,112
-145,789	-200,000	-0,020	0,208
-144,775	800,000	-0,038	-0,093
-143,760	-32,705	0,079	-0,032
-142,745	-45,794	-0,174	-0,062
-141,731	800,000	0,045	-0,099
-140,716	-88,566	0,083	0,018
-139,702	263,433	0,018	0,023
-138,687	800,000	-0,028	0,066
-137,672	705,719	-0,053	0,102
-136,658	-15,605	0,067	-0,031
-135,643	8,002	0,074	0,040
-134,629	-136,887	0,028	-0,002
-133,614	-68,871	0,021	-0,006
-132,599	800,000	0,049	0,128
-131,585	-200,000	0,021	0,159
-130,570	800,000	-0,009	-0,021
-129,556	289,707	0,027	-0,035
-128,541	363,834	0,043	0,063
-127,526	-23,239	-0,076	0,033
-126,512	-200,000	0,031	-0,103
-125,497	63,935	0,011	0,008
-124,483	66,498	0,072	0,053
-123,468	-115,224	-0,066	0,009
-122,453	275,658	-0,085	0,109
-121,439	-200,000	-0,007	-0,038
-120,424	-200,000	0,030	-0,114
-119,410	268,267	0,076	-0,097
