DTS Sentinel unit serial number:	SN410029Multiplexer serial number:	ORYXHardware model number:	OX2-SRSoftware version number:	ORYX F/W v4,00 Oryx Data Collector v3.7.2.0data status	okinstallation	B4 Nyhavnadifferential loss correction	single-endedforward channel	channel 2reverse channel	N/Adate	2023/12/19time	02:30:13forward acquisition time	300,00reverse acquisition time	0,00gamma	499,1914k internal	0,3125k external	0,3125temperature offset calibration	1,0000default loss term (dB/km)	0,3820temperature slope calibration	1,0000multiplexer offset coefficient	1,0000multiplexer slope coefficient	1,0000fibre end	0,00T internal ref (°C)	21,29T ext. ref 1 (°C)	6,28T ext. ref 2 (°C)	6,41length (m)	temperature (°C)	Stokes	anti-Stokes-744,400	-79,407	-0,035	0,009
-743,385	-137,145	-0,220	0,018
-742,371	5,524	0,105	-0,058
-741,356	347,821	-0,130	0,191
-740,342	-200,000	0,004	-0,133
-739,327	-80,834	-0,328	0,081
-738,312	70,980	0,016	0,012
-737,298	-88,990	-0,215	-0,047
-736,283	-96,639	0,111	-0,022
-735,269	204,007	-0,170	0,196
-734,254	800,000	0,043	-0,092
-733,239	0,435	-0,328	-0,174
-732,225	-14,806	0,048	0,023
-731,210	80,349	0,058	0,046
-730,196	2,895	-0,079	0,043
-729,181	165,645	0,061	-0,064
-728,167	-22,221	-0,103	0,046
-727,152	-59,788	0,091	0,029
-726,137	-113,934	-0,092	-0,013
-725,123	115,857	-0,051	0,047
-724,108	20,550	-0,149	-0,089
-723,094	176,586	-0,162	-0,175
-722,079	713,624	-0,018	0,035
-721,064	-16,564	-0,095	-0,045
-720,050	-200,000	0,021	-0,133
-719,035	-108,454	-0,226	-0,036
-718,021	-66,890	-0,260	0,076
-717,006	800,000	-0,040	0,104
-715,991	-45,914	-0,097	0,035
-714,977	-200,000	0,024	-0,082
-713,962	118,236	0,039	0,036
-712,948	168,759	0,098	0,104
-711,933	112,659	0,043	-0,038
-710,918	50,528	0,131	0,092
-709,904	800,000	-0,030	-0,070
-708,889	516,217	0,055	-0,097
-707,875	314,405	-0,093	-0,131
-706,860	-46,186	0,052	0,019
-705,845	-200,000	0,022	0,097
-704,831	207,321	0,044	-0,051
-703,816	-200,000	0,000	0,072
-702,802	370,355	0,047	0,072
-701,787	-200,000	-0,007	0,064
-700,772	162,700	0,059	-0,061
-699,758	800,000	-0,014	-0,029
-698,743	402,227	-0,037	0,058
-697,729	800,000	0,048	-0,108
-696,714	800,000	0,028	0,058
-695,699	-26,808	-0,149	-0,064
-694,685	23,662	0,108	-0,066
-693,670	800,000	-0,047	-0,108
-692,656	-0,012	0,040	-0,021
-691,641	-0,597	-0,148	-0,078
-690,627	86,968	0,097	-0,079
-689,612	-5,872	0,081	0,041
-688,597	-75,162	-0,169	0,045
-687,583	501,450	-0,011	-0,018
-686,568	-135,740	-0,098	0,008
-685,554	-62,258	-0,102	0,031
-684,539	274,570	0,038	0,050
-683,524	19,796	0,043	0,026
-682,510	170,213	-0,038	0,041
-681,495	-200,000	-0,045	-0,155
-680,481	-156,517	-0,085	0,004
-679,466	-200,000	0,002	-0,101
-678,451	-200,000	-0,081	-0,000
-677,437	-200,000	0,007	-0,029
-676,422	800,000	-0,036	0,082
-675,408	236,652	0,013	0,017
-674,393	-75,940	0,098	0,026
-673,378	-37,672	-0,285	-0,112
-672,364	-200,000	-0,015	-0,058
-671,349	179,749	-0,100	-0,109
-670,335	-200,000	0,008	0,031
-669,320	-186,315	0,097	-0,001
-668,305	800,000	0,005	0,015
-667,291	-200,000	0,006	-0,107
-666,276	800,000	-0,067	-0,190
-665,262	756,781	0,039	-0,079
-664,247	352,685	0,031	-0,046
-663,232	-200,000	-0,013	-0,106
-662,218	-200,000	-0,014	0,072
-661,203	183,185	0,069	0,076
-660,189	800,000	-0,027	0,082
-659,174	60,892	-0,027	-0,020
-658,159	-161,541	0,064	-0,002
-657,145	-200,000	-0,004	-0,145
-656,130	-200,000	0,014	0,050
-655,116	60,855	-0,030	-0,022
-654,101	-127,593	-0,066	-0,007
-653,086	-74,538	-0,112	0,030
-652,072	345,032	-0,059	-0,087
-651,057	-200,000	-0,008	-0,056
-650,043	34,171	-0,113	-0,073
-649,028	-200,000	0,011	0,069
-648,014	293,241	0,100	-0,136
-646,999	-200,000	0,025	0,136
-645,984	180,982	-0,020	0,022
-644,970	288,733	0,079	0,106
-643,955	-200,000	-0,011	0,054
-642,941	-60,705	-0,065	0,020
-641,926	-57,079	-0,139	0,045
-640,911	-107,302	0,028	0,004
-639,897	800,000	0,002	0,004
-638,882	-115,778	-0,077	-0,011
-637,868	685,635	-0,034	0,067
-636,853	-200,000	-0,019	0,084
-635,838	-200,000	0,000	0,043
-634,824	800,000	-0,074	-0,186
-633,809	1,084	-0,050	0,027
-632,795	-102,767	0,026	-0,004
-631,780	-98,653	0,063	0,012
-630,765	421,947	0,049	0,079
-629,751	-18,003	-0,136	0,063
-628,736	800,000	0,014	-0,040
-627,722	158,008	0,058	-0,059
-626,707	55,054	0,071	0,051
-625,692	144,997	0,065	-0,065
-624,678	599,447	-0,013	0,024
-623,663	-100,120	-0,055	0,010
-622,649	800,000	-0,026	0,071
-621,634	71,449	0,080	0,061
-620,619	-107,477	-0,144	0,023
-619,605	15,498	0,085	0,050
-618,590	39,689	0,149	0,099
-617,576	800,000	0,070	0,150
-616,561	40,218	-0,041	-0,027
-615,546	60,959	-0,067	-0,049
-614,532	419,838	-0,044	-0,070
-613,517	84,649	-0,095	-0,077
-612,503	569,727	0,062	-0,112
-611,488	-200,000	-0,028	0,108
-610,474	-30,287	-0,040	-0,017
-609,459	605,608	-0,043	-0,080
-608,444	274,872	0,020	0,027
-607,430	68,091	-0,050	0,038
-606,415	-200,000	-0,004	-0,016
-605,401	-24,315	-0,060	-0,026
-604,386	145,381	-0,013	-0,013
-603,371	480,566	0,025	0,042
-602,357	18,219	0,036	-0,021
-601,342	-106,974	-0,100	0,016
-600,328	-200,000	0,003	0,062
-599,313	335,233	-0,047	-0,067
-598,298	375,780	0,089	0,135
-597,284	338,680	-0,074	0,107
-596,269	-200,000	0,003	-0,103
-595,255	-171,899	-0,122	0,003
-594,240	-200,000	0,011	-0,074
-593,225	-200,000	-0,016	-0,095
-592,211	-123,670	0,092	0,011
-591,196	-15,233	-0,159	0,075
-590,182	-112,294	0,024	-0,003
-589,167	-108,634	-0,046	-0,007
-588,152	66,787	0,082	0,062
-587,138	200,990	-0,032	-0,036
-586,123	602,575	-0,026	-0,048
-585,109	212,046	-0,039	0,046
-584,094	-200,000	-0,004	-0,029
-583,079	-200,000	0,003	-0,025
-582,065	-194,067	0,120	0,001
-581,050	800,000	-0,005	-0,013
-580,036	-55,463	-0,064	-0,021
-579,021	-200,000	-0,003	-0,087
-578,006	-44,579	-0,101	-0,037
-576,992	561,464	0,025	-0,045
-575,977	87,427	0,012	-0,010
-574,963	-121,298	-0,048	0,006
-573,948	-29,349	0,080	0,034
-572,934	-18,153	-0,055	0,025
-571,919	29,451	0,070	0,044
-570,904	88,151	0,044	0,036
-569,890	800,000	-0,048	-0,118
-568,875	-76,608	0,075	-0,019
-567,861	-67,667	0,121	0,035
-566,846	-104,492	0,122	-0,021
-565,831	360,314	-0,059	-0,088
-564,817	18,736	0,077	0,046
-563,802	-200,000	0,017	-0,104
-562,788	-93,529	0,034	0,007
-561,773	-200,000	0,015	0,102
-560,758	78,710	0,062	-0,049
-559,744	-200,000	0,026	0,109
-558,729	-200,000	0,001	-0,004
-557,715	-200,000	0,011	-0,117
-556,700	502,395	-0,010	-0,017
-555,685	109,853	0,119	0,106
-554,671	-200,000	-0,010	-0,101
-553,656	275,308	0,016	-0,021
-552,642	36,878	0,063	0,041
-551,627	207,942	0,030	0,035
-550,612	800,000	0,018	0,057
-549,598	-141,611	-0,099	-0,007
-548,583	-68,445	-0,145	-0,041
-547,569	49,870	-0,129	-0,089
-546,554	89,190	-0,041	0,034
-545,539	-59,819	0,083	-0,026
-544,525	800,000	0,036	-0,110
-543,510	800,000	0,015	-0,034
-542,496	735,448	0,014	0,028
-541,481	219,633	-0,039	-0,046
-540,466	318,024	-0,025	-0,035
-539,452	-200,000	-0,006	0,020
-538,437	-155,293	0,072	-0,003
-537,423	-53,270	0,041	0,014
-536,408	800,000	-0,039	-0,100
-535,393	510,373	0,025	-0,043
-534,379	-43,297	-0,196	-0,073
-533,364	115,128	-0,070	-0,063
-532,350	-93,574	0,058	0,012
-531,335	227,444	-0,072	-0,087
-530,321	62,012	0,023	0,017
-529,306	-28,419	-0,156	-0,066
-528,291	-200,000	0,036	-0,137
-527,277	-148,045	-0,144	0,009
-526,262	-162,968	-0,222	-0,008
-525,248	-95,001	0,099	-0,020
-524,233	463,545	-0,039	0,065
-523,218	19,524	-0,025	-0,015
-522,204	-200,000	-0,017	-0,095
-521,189	-111,226	-0,211	0,032
-520,175	377,983	-0,031	0,048
-519,160	17,008	-0,146	-0,085
-518,145	-60,090	0,133	0,042
-517,131	-200,000	-0,035	0,119
-516,116	800,000	0,094	0,233
-515,102	-200,000	0,011	0,042
-514,087	-54,665	0,026	-0,009
-513,072	-183,811	0,074	-0,001
-512,058	-149,899	-0,047	0,003
-511,043	785,114	0,039	-0,079
-510,029	-25,735	0,129	-0,056
-509,014	618,009	-0,034	0,064
-507,999	197,258	0,107	0,121
-506,985	-153,719	-0,059	-0,003
-505,970	800,000	-0,058	-0,119
-504,956	281,031	-0,027	-0,035
-503,941	-70,318	0,028	-0,008
-502,926	7,045	0,013	-0,007
-501,912	350,818	0,047	0,069
-500,897	-72,635	-0,127	0,034
-499,883	-0,224	-0,120	0,063
-498,868	276,968	0,051	-0,067
-497,853	800,000	0,014	-0,038
-496,839	238,047	0,006	-0,007
-495,824	-200,000	0,030	-0,108
-494,810	229,263	-0,030	0,036
-493,795	-187,139	0,096	0,001
-492,781	105,200	-0,113	0,099
-491,766	-25,475	0,088	0,038
-490,751	-200,000	0,038	-0,170
-489,737	-123,884	0,053	-0,006
-488,722	800,000	-0,073	-0,178
-487,708	-25,260	0,155	-0,067
-486,693	161,080	0,055	0,057
-485,678	244,909	-0,033	-0,041
-484,664	126,695	-0,085	0,079
-483,649	35,999	-0,022	0,015
-482,635	-62,916	0,047	-0,014
-481,620	800,000	0,015	-0,044
-480,605	87,733	-0,061	-0,049
-479,591	-92,780	0,056	-0,011
-478,576	403,209	0,080	-0,124
-477,562	-200,000	0,021	-0,109
-476,547	81,431	0,052	-0,041
-475,532	-42,766	0,022	0,008
-474,518	-200,000	0,049	0,181
-473,503	-200,000	0,044	0,164
-472,489	800,000	-0,046	-0,097
-471,474	800,000	0,031	0,073
-470,459	-24,240	0,045	0,020
-469,445	185,973	0,069	-0,076
-468,430	-97,308	0,093	0,018
-467,416	58,935	0,219	0,158
-466,401	141,242	0,141	0,137
-465,386	800,000	-0,087	0,280
-464,372	-141,176	-0,024	-0,002
-463,357	-200,000	-0,013	0,058
-462,343	-77,618	0,108	-0,027
-461,328	-200,000	0,005	-0,061
-460,313	108,709	-0,122	0,108
-459,299	572,894	0,023	-0,042
-458,284	158,558	-0,070	-0,071
-457,270	-200,000	-0,003	-0,054
-456,255	-200,000	0,020	-0,124
-455,241	-45,234	-0,077	0,028
-454,226	-200,000	-0,027	-0,114
-453,211	-187,696	0,168	0,002
-452,197	87,780	-0,036	-0,029
-451,182	800,000	0,046	0,148
-450,168	67,597	0,052	-0,039
-449,153	775,312	-0,052	-0,104
-448,138	127,394	-0,065	-0,060
-447,124	124,864	0,169	-0,157
-446,109	-200,000	0,004	0,105
-445,095	-156,231	-0,085	0,004
-444,080	498,195	0,040	0,069
-443,065	39,178	0,070	0,046
-442,051	800,000	0,033	0,088
-441,036	-124,103	-0,029	0,003
-440,022	-200,000	-0,009	-0,030
-439,007	-200,000	-0,011	-0,067
-437,992	800,000	-0,050	-0,102
-436,978	-17,201	-0,068	0,031
-435,963	599,651	0,043	-0,079
-434,949	-7,185	-0,028	-0,014
-433,934	-58,479	-0,068	0,021
-432,919	-9,389	-0,074	-0,036
-431,905	528,662	-0,044	0,076
-430,890	260,442	-0,044	0,055
-429,876	-200,000	0,004	0,086
-428,861	-200,000	-0,005	0,023
-427,846	-200,000	0,012	0,071
-426,832	800,000	-0,010	-0,020
-425,817	-117,937	-0,122	-0,016
-424,803	132,562	0,059	-0,056
-423,788	94,379	-0,122	0,102
-422,773	39,497	0,103	0,068
-421,759	-53,967	0,058	-0,019
-420,744	43,872	-0,136	0,091
-419,730	-129,199	0,070	-0,007
-418,715	-200,000	-0,010	0,037
-417,701	-200,000	-0,013	0,103
-416,686	698,246	0,070	0,136
-415,671	118,727	0,107	0,097
-414,657	-35,492	0,072	0,029
-413,642	800,000	0,055	-0,154
-412,628	-200,000	-0,004	-0,158
-411,613	-107,062	-0,109	-0,018
-410,598	-128,242	-0,055	-0,006
-409,584	783,228	-0,036	0,073
-408,569	800,000	0,012	0,033
-407,555	-22,601	0,062	0,027
-406,540	-200,000	0,025	0,179
-405,525	-200,000	-0,008	-0,063
-404,511	713,501	0,057	-0,112
-403,496	-184,875	0,061	-0,001
-402,482	800,000	-0,033	0,078
-401,467	800,000	-0,017	0,053
-400,452	-71,253	0,103	-0,028
-399,438	-92,213	0,090	0,019
-398,423	178,164	-0,016	0,017
-397,409	218,458	-0,036	0,042
-396,394	4,485	-0,090	-0,049
-395,379	-33,111	0,101	0,041
-394,365	1,556	0,079	-0,042
-393,350	791,457	-0,021	-0,042
-392,336	-46,302	-0,046	-0,016
-391,321	94,755	0,060	0,050
-390,306	600,250	-0,018	-0,032
-389,292	-91,714	0,086	-0,018
-388,277	800,000	-0,010	-0,031
-387,263	146,687	0,046	-0,046
-386,248	-3,708	-0,066	0,033
-385,233	-55,147	0,199	0,065
-384,219	800,000	-0,037	-0,087
-383,204	529,588	-0,042	-0,074
-382,190	800,000	-0,050	-0,120
-381,175	-200,000	-0,006	-0,076
-380,160	-84,674	0,117	0,027
-379,146	-17,412	0,081	0,037
-378,131	122,101	0,029	0,027
-377,117	-200,000	0,008	-0,037
-376,102	-200,000	-0,003	-0,031
-375,088	366,714	0,062	-0,092
-374,073	-150,059	-0,074	-0,004
-373,058	-60,445	-0,123	-0,038
-372,044	-200,000	-0,010	0,146
-371,029	800,000	0,041	0,127
-370,015	702,246	0,034	-0,065
-369,000	-115,280	0,049	-0,007
-367,985	-133,058	-0,014	-0,001
-366,971	800,000	-0,029	-0,067
-365,956	95,051	-0,049	0,041
-364,942	-61,538	-0,096	0,030
-363,927	224,487	0,018	0,022
-362,912	-200,000	0,053	-0,173
-361,898	170,841	0,068	-0,072
-360,883	523,381	0,038	-0,065
-359,869	36,514	-0,056	0,036
-358,854	-200,000	-0,005	-0,041
-357,839	800,000	0,037	0,115
-356,825	-142,521	0,034	-0,002
-355,810	-200,000	-0,016	0,057
-354,796	-71,947	-0,058	0,016
-353,781	-80,981	0,050	0,012
-352,766	762,550	0,018	-0,036
-351,752	159,189	-0,066	0,067
-350,737	15,189	0,142	0,081
-349,723	-68,144	0,099	-0,028
-348,708	84,308	0,052	0,041
-347,693	86,900	-0,075	-0,060
-346,679	-200,000	-0,015	-0,069
-345,664	435,550	-0,063	-0,102
-344,650	705,206	-0,029	0,056
-343,635	192,805	0,016	-0,018
-342,620	113,601	0,148	0,132
-341,606	311,288	-0,070	0,097
-340,591	33,015	-0,053	0,033
-339,577	88,172	-0,065	-0,053
-338,562	13,987	0,013	-0,007
-337,548	456,664	0,054	-0,089
-336,533	-132,840	0,055	-0,005
-335,518	266,945	-0,009	0,012
-334,504	-200,000	0,012	0,066
-333,489	-200,000	-0,009	0,078
-332,475	-125,575	-0,038	-0,004
-331,460	-168,195	-0,065	0,002
-330,445	745,097	0,024	-0,047
-329,431	168,933	-0,060	0,063
-328,416	61,809	0,060	-0,044
-327,402	-55,790	0,134	-0,044
-326,387	-200,000	0,012	-0,051
-325,372	217,452	-0,080	-0,093
-324,358	522,521	-0,129	-0,223
-323,343	737,375	0,037	-0,072
-322,329	-200,000	0,016	-0,092
-321,314	-185,148	0,042	-0,000
-320,299	800,000	-0,058	0,161
-319,285	-200,000	0,018	-0,103
-318,270	800,000	-0,013	-0,028
-317,256	-34,151	-0,056	0,023
-316,241	477,863	0,033	0,054
-315,226	-120,371	0,088	0,011
-314,212	800,000	0,022	-0,060
-313,197	-55,453	0,106	-0,035
-312,183	186,346	0,040	-0,044
-311,168	-109,828	-0,098	0,015
-310,153	738,759	-0,005	-0,011
-309,139	540,358	0,046	-0,081
-308,124	420,884	-0,091	-0,144
-307,110	-117,215	0,091	-0,012
-306,095	800,000	-0,017	0,040
-305,080	280,657	-0,047	-0,061
-304,066	-200,000	-0,006	0,037
-303,051	359,729	0,020	0,030
-302,037	-119,278	-0,120	0,015
-301,022	112,032	-0,068	-0,060
-300,008	-200,000	0,015	0,094
-298,993	-200,000	0,022	0,108
-297,978	-109,380	0,092	0,014
-296,964	-8,567	0,066	-0,032
-295,949	-190,985	-0,067	0,000
-294,935	-200,000	-0,016	-0,070
-293,920	-200,000	-0,000	-0,117
-292,905	75,957	0,117	0,091
-291,891	771,803	0,060	0,121
-290,876	-200,000	-0,023	0,155
-289,862	800,000	0,023	-0,058
-288,847	693,254	-0,023	0,044
-287,832	19,282	-0,108	0,064
-286,818	209,130	0,072	-0,083
-285,803	290,640	-0,028	0,038
-284,789	-55,763	-0,052	0,017
-283,774	-200,000	-0,020	0,068
-282,759	-200,000	-0,002	-0,021
-281,745	85,777	-0,076	-0,061
-280,730	-64,748	0,073	-0,022
-279,716	589,948	0,021	0,038
-278,701	137,139	0,114	-0,109
-277,686	-62,109	0,017	0,005
-276,672	665,865	0,042	-0,080
-275,657	-200,000	0,028	0,104
-274,643	-84,691	-0,038	-0,009
-273,628	-200,000	0,018	-0,069
-272,613	-76,333	0,139	0,035
-271,599	39,477	-0,099	0,065
-270,584	-200,000	0,006	0,067
-269,570	-200,000	-0,024	0,102
-268,555	-200,000	0,006	-0,044
-267,540	800,000	-0,041	-0,095
-266,526	-200,000	-0,022	0,076
-265,511	800,000	-0,045	-0,096
-264,497	288,572	-0,070	0,093
-263,482	167,245	0,066	0,069
-262,467	-200,000	0,012	0,138
-261,453	-160,072	-0,034	-0,001
-260,438	84,070	-0,054	-0,043
-259,424	-200,000	0,013	-0,127
-258,409	-144,527	-0,193	0,013
-257,395	45,448	-0,017	0,011
-256,380	-200,000	0,014	-0,103
-255,365	486,747	0,084	0,141
-254,351	-67,073	0,031	-0,009
-253,336	-104,116	-0,079	0,013
-252,322	216,308	0,024	0,027
-251,307	123,846	-0,068	-0,062
-250,292	76,862	-0,076	-0,059
-249,278	-155,232	-0,130	-0,006
-248,263	-93,337	0,132	0,026
-247,249	409,271	-0,035	0,055
-246,234	800,000	-0,022	-0,070
-245,219	-200,000	0,006	-0,039
-244,205	-120,006	-0,111	0,014
-243,190	-177,838	-0,073	0,001
-242,176	-17,539	-0,026	0,012
-241,161	-141,086	0,109	-0,008
-240,146	-15,343	0,069	-0,032
-239,132	800,000	0,050	0,109
-238,117	-101,255	-0,145	-0,026
-237,103	347,430	-0,017	0,024
-236,088	-155,149	0,082	0,004
-235,073	121,522	0,024	-0,022
-234,059	706,690	-0,081	0,157
-233,044	593,019	0,065	0,117
-232,030	-200,000	-0,030	0,126
-231,015	59,392	-0,095	0,068
-230,000	-96,956	-0,068	0,013
-228,986	-147,232	0,010	0,001
-227,971	800,000	-0,031	0,064
-226,957	800,000	0,023	0,072
-225,942	-0,126	0,046	0,024
-224,927	-2,175	0,043	0,022
-223,913	370,680	-0,015	-0,022
-222,898	-200,000	0,004	0,054
-221,884	67,800	-0,087	0,065
-220,869	-200,000	0,006	-0,056
-219,855	-200,000	0,014	-0,089
-218,840	88,593	-0,054	-0,044
-217,825	-200,000	-0,003	-0,098
-216,811	-60,209	0,146	-0,045
-215,796	-153,198	0,082	-0,004
-214,782	481,812	0,012	-0,020
-213,767	462,011	0,077	-0,125
-212,752	-110,551	0,089	0,013
-211,738	66,409	-0,079	-0,058
-210,723	-37,648	-0,107	-0,041
-209,709	36,690	-0,067	0,043
-208,694	-1,198	-0,058	0,030
-207,679	148,323	0,042	-0,042
-206,665	-99,050	0,122	-0,022
-205,650	109,890	0,065	-0,057
-204,636	53,347	0,038	-0,026
-203,621	299,130	-0,017	-0,023
-202,606	35,176	-0,088	0,056
-201,592	-84,781	0,111	-0,025
-200,577	-9,789	-0,155	-0,075
-199,563	-32,745	0,085	0,034
-198,548	-82,667	0,014	0,003
-197,533	48,165	0,030	-0,020
-196,519	101,452	0,135	-0,115
-195,504	-122,453	-0,091	-0,011
-194,490	72,547	-0,072	-0,055
-193,475	-200,000	-0,015	0,051
-192,460	662,150	-0,018	0,035
-191,446	-200,000	0,033	-0,112
-190,431	242,092	0,015	0,018
-189,417	800,000	-0,006	-0,017
-188,402	90,368	-0,040	0,032
-187,387	-198,844	-0,147	-0,001
-186,373	96,711	0,143	0,119
-185,358	-71,213	-0,032	-0,009
-184,344	323,082	0,030	0,041
-183,329	-72,840	0,060	0,016
-182,315	-1,687	0,091	0,047
-181,300	-200,000	0,017	-0,105
-180,285	-200,000	-0,006	-0,036
-179,271	-137,495	-0,018	-0,001
-178,256	-200,000	0,001	-0,021
-177,242	266,599	0,081	0,104
-176,227	-31,177	0,039	0,016
-175,212	-200,000	-0,007	0,098
-174,198	-200,000	0,007	-0,027
-173,183	-200,000	-0,006	0,023
-172,169	-19,614	-0,087	-0,039
-171,154	-200,000	-0,005	-0,082
-170,139	-55,567	-0,030	0,010
-169,125	-186,280	-0,098	-0,001
-168,110	385,866	0,023	0,034
-167,096	59,132	0,009	-0,007
-166,081	29,022	0,034	-0,021
-165,066	415,684	-0,074	-0,115
-164,052	24,577	-0,072	0,043
-163,037	800,000	0,051	0,121
-162,023	-85,732	-0,147	0,033
-161,008	-200,000	-0,001	-0,038
-159,993	53,318	-0,064	-0,045
-158,979	-200,000	-0,018	-0,095
-157,964	-17,346	-0,089	0,040
-156,950	800,000	0,020	0,054
-155,935	-49,166	0,041	-0,014
-154,920	800,000	-0,053	0,116
-153,906	52,749	0,079	0,055
-152,891	-108,589	-0,085	-0,013
-151,877	251,277	-0,018	0,022
-150,862	800,000	0,031	-0,064
-149,847	-200,000	0,016	-0,105
-148,833	-36,943	-0,126	-0,049
-147,818	635,541	0,080	-0,148
-146,804	-69,917	-0,110	-0,030
-145,789	-45,997	0,075	0,027
-144,775	800,000	-0,015	0,049
-143,760	-200,000	-0,006	0,168
-142,745	395,426	-0,071	0,108
-141,731	34,324	-0,121	0,077
-140,716	174,567	0,157	0,166
-139,702	-200,000	-0,064	0,216
-138,687	-200,000	-0,018	0,116
-137,672	-200,000	0,008	0,066
-136,658	-200,000	0,002	-0,148
-135,643	4,782	0,103	-0,055
-134,629	800,000	-0,034	-0,088
-133,614	-200,000	-0,007	0,040
-132,599	-13,882	0,047	-0,022
-131,585	34,169	0,082	-0,052
-130,570	-80,986	-0,247	0,059
-129,556	738,697	0,035	-0,069
-128,541	35,195	-0,078	-0,049
-127,526	-200,000	0,037	-0,124
-126,512	-163,046	-0,067	-0,002
-125,497	-124,065	0,160	0,018
-124,483	800,000	-0,035	0,087
-123,468	341,113	0,076	0,108
-122,453	408,604	-0,053	0,082
-121,439	-200,000	0,047	0,178
-120,424	-131,038	-0,096	0,009
-119,410	-122,203	0,166	-0,019
