DTS Sentinel unit serial number:	SN410029Multiplexer serial number:	ORYXHardware model number:	OX2-SRSoftware version number:	ORYX F/W v4,00 Oryx Data Collector v3.7.2.0data status	okinstallation	B4 Nyhavnadifferential loss correction	single-endedforward channel	channel 2reverse channel	N/Adate	2023/12/16time	13:45:13forward acquisition time	300,00reverse acquisition time	0,00gamma	499,1914k internal	0,3125k external	0,3125temperature offset calibration	1,0000default loss term (dB/km)	0,3820temperature slope calibration	1,0000multiplexer offset coefficient	1,0000multiplexer slope coefficient	1,0000fibre end	0,00T internal ref (°C)	25,01T ext. ref 1 (°C)	11,27T ext. ref 2 (°C)	11,47length (m)	temperature (°C)	Stokes	anti-Stokes-744,400	-84,110	0,068	0,016
-743,385	-45,034	-0,158	0,058
-742,371	-87,863	0,115	-0,026
-741,356	13,062	-0,250	0,144
-740,342	-86,981	-0,230	0,052
-739,327	628,013	-0,081	0,152
-738,312	-200,000	0,073	-0,264
-737,298	-29,497	-0,134	0,057
-736,283	-200,000	0,034	-0,205
-735,269	202,785	-0,094	0,109
-734,254	75,834	0,081	-0,064
-733,239	-200,000	-0,382	-0,001
-732,225	-131,133	0,150	-0,015
-731,210	540,802	-0,027	0,048
-730,196	800,000	-0,006	-0,018
-729,181	446,542	0,056	-0,091
-728,167	-148,506	-0,104	-0,006
-727,152	-9,801	-0,083	0,041
-726,137	85,284	-0,160	-0,130
-725,123	360,023	0,071	-0,106
-724,108	800,000	0,033	-0,107
-723,094	-62,704	-0,156	-0,048
-722,079	800,000	0,028	-0,090
-721,064	-200,000	-0,036	0,150
-720,050	18,666	0,055	0,032
-719,035	-200,000	-0,022	-0,080
-718,021	236,052	-0,062	-0,076
-717,006	-200,000	0,003	-0,024
-715,991	341,790	-0,077	-0,112
-714,977	336,516	0,047	-0,068
-713,962	800,000	-0,035	0,086
-712,948	-121,637	-0,103	0,013
-711,933	-59,227	0,150	-0,048
-710,918	259,214	0,034	-0,044
-709,904	-88,275	-0,185	-0,041
-708,889	95,434	-0,021	0,018
-707,875	187,714	-0,070	-0,078
-706,860	26,729	-0,072	0,045
-705,845	615,331	-0,056	-0,104
-704,831	-200,000	0,020	0,131
-703,816	800,000	-0,037	-0,109
-702,802	106,365	-0,077	-0,068
-701,787	390,551	-0,094	-0,146
-700,772	269,655	0,094	-0,124
-699,758	492,647	0,064	-0,109
-698,743	-3,470	0,107	0,055
-697,729	-72,811	0,059	-0,016
-696,714	151,509	0,021	0,021
-695,699	438,515	-0,036	0,058
-694,685	-200,000	0,024	0,095
-693,670	515,116	-0,035	-0,060
-692,656	800,000	0,033	0,091
-691,641	542,954	-0,065	0,116
-690,627	-200,000	-0,008	0,044
-689,612	-200,000	-0,005	0,066
-688,597	12,908	0,064	0,037
-687,583	514,523	-0,112	-0,195
-686,568	-39,321	-0,146	-0,057
-685,554	-200,000	-0,001	-0,024
-684,539	125,404	-0,033	0,031
-683,524	51,477	0,120	-0,085
-682,510	153,662	0,030	-0,030
-681,495	395,043	0,052	-0,080
-680,481	-53,650	-0,060	-0,020
-679,466	-15,628	-0,015	0,007
-678,451	94,652	-0,103	-0,087
-677,437	265,750	0,072	0,094
-676,422	-200,000	-0,009	0,151
-675,408	-101,908	0,097	0,017
-674,393	-200,000	-0,040	-0,207
-673,378	-171,204	0,095	0,002
-672,364	-200,000	0,019	-0,067
-671,349	-200,000	-0,037	-0,124
-670,335	-200,000	0,004	-0,033
-669,320	101,523	0,055	-0,048
-668,305	-101,078	-0,040	-0,007
-667,291	-200,000	0,002	0,112
-666,276	-200,000	0,044	0,149
-665,262	-200,000	-0,000	0,005
-664,247	356,577	0,102	0,152
-663,232	776,677	-0,052	0,107
-662,218	134,383	-0,036	0,035
-661,203	248,808	0,069	0,087
-660,189	-101,980	0,040	0,007
-659,174	800,000	-0,056	-0,129
-658,159	-135,668	-0,167	0,015
-657,145	-200,000	-0,006	-0,105
-656,130	-168,724	0,213	-0,006
-655,116	-38,031	-0,073	0,029
-654,101	800,000	0,033	-0,087
-653,086	321,704	-0,035	-0,049
-652,072	501,601	0,022	0,038
-651,057	-46,114	-0,047	0,017
-650,043	800,000	0,046	-0,140
-649,028	-41,085	0,068	-0,026
-648,014	689,261	-0,051	0,099
-646,999	-65,072	0,072	-0,021
-645,984	-200,000	0,010	0,130
-644,970	-200,000	-0,015	0,062
-643,955	389,731	0,069	-0,107
-642,941	110,093	0,049	0,043
-641,926	386,434	-0,038	-0,058
-640,911	-200,000	-0,001	0,007
-639,897	160,779	-0,026	0,027
-638,882	303,238	-0,038	0,053
-637,868	-41,260	0,056	0,021
-636,853	-6,882	-0,108	-0,054
-635,838	-73,357	0,053	-0,014
-634,824	122,871	-0,143	-0,133
-633,809	-31,524	0,033	0,014
-632,795	62,251	0,070	0,052
-631,780	577,793	0,054	0,098
-630,765	-47,708	-0,115	0,041
-629,751	-200,000	-0,030	-0,185
-628,736	-178,566	-0,132	-0,002
-627,722	-200,000	-0,005	-0,117
-626,707	-49,301	-0,036	0,013
-625,692	24,950	-0,089	-0,055
-624,678	-200,000	0,007	0,084
-623,663	-200,000	0,039	0,144
-622,649	27,448	-0,076	-0,047
-621,634	36,799	-0,113	0,074
-620,619	-200,000	-0,007	-0,069
-619,605	43,382	0,112	-0,076
-618,590	-200,000	-0,009	-0,115
-617,576	800,000	0,075	0,173
-616,561	713,779	0,039	0,076
-615,546	-200,000	0,002	0,029
-614,532	-108,400	-0,089	-0,014
-613,517	-65,052	0,084	0,025
-612,503	-0,454	-0,070	-0,037
-611,488	49,722	0,043	0,030
-610,474	42,429	-0,051	0,034
-609,459	800,000	-0,013	0,027
-608,444	406,748	-0,025	-0,040
-607,430	181,525	-0,084	-0,092
-606,415	132,696	0,056	-0,053
-605,401	800,000	-0,040	-0,090
-604,386	110,122	-0,119	-0,106
-603,371	-69,624	-0,062	0,018
-602,357	74,220	0,049	0,038
-601,342	-157,693	-0,095	-0,004
-600,328	180,250	-0,068	-0,074
-599,313	-200,000	0,020	0,081
-598,298	-200,000	-0,014	-0,207
-597,284	561,712	-0,038	0,069
-596,269	-153,064	-0,062	0,003
-595,255	96,122	0,080	-0,068
-594,240	746,180	0,070	-0,139
-593,225	-90,506	0,067	0,014
-592,211	800,000	0,041	-0,120
-591,196	13,474	-0,093	0,053
-590,182	539,385	0,082	0,146
-589,167	800,000	-0,042	0,123
-588,152	-101,290	-0,093	-0,017
-587,138	46,396	0,038	0,026
-586,123	-69,994	-0,020	0,006
-585,109	-200,000	0,008	0,081
-584,094	99,517	-0,038	-0,033
-583,079	800,000	0,032	-0,084
-582,065	-200,000	-0,002	0,107
-581,050	244,653	-0,132	0,164
-580,036	-200,000	-0,009	0,032
-579,021	800,000	-0,059	-0,149
-578,006	-128,075	-0,093	-0,010
-576,992	-19,210	-0,114	-0,052
-575,977	-25,456	-0,073	0,032
-574,963	-20,759	-0,097	-0,044
-573,948	-200,000	-0,028	0,140
-572,934	11,238	0,089	-0,050
-571,919	-200,000	0,011	-0,052
-570,904	-200,000	0,025	-0,093
-569,890	189,143	-0,084	-0,093
-568,875	800,000	-0,032	-0,076
-567,861	220,916	0,054	-0,064
-566,846	125,067	0,150	-0,140
-565,831	208,691	-0,085	-0,099
-564,817	800,000	0,021	-0,064
-563,802	87,381	-0,129	-0,106
-562,788	800,000	-0,016	-0,047
-561,773	-143,364	0,067	-0,005
-560,758	36,792	-0,032	0,021
-559,744	-200,000	0,002	-0,169
-558,729	800,000	-0,047	0,112
-557,715	77,751	0,069	-0,054
-556,700	-23,520	0,031	0,014
-555,685	169,206	0,102	-0,108
-554,671	74,743	-0,065	-0,051
-553,656	-85,869	-0,041	0,009
-552,642	800,000	0,006	0,021
-551,627	291,794	0,031	0,042
-550,612	-148,117	0,150	0,009
-549,598	-77,441	-0,113	-0,029
-548,583	-200,000	0,024	-0,122
-547,569	101,488	0,023	0,020
-546,554	702,187	0,066	0,129
-545,539	-151,810	0,171	0,009
-544,525	-200,000	-0,020	0,074
-543,510	-200,000	-0,005	0,040
-542,496	-127,175	0,115	-0,012
-541,481	800,000	-0,037	-0,085
-540,466	-141,633	0,083	0,006
-539,452	132,778	0,069	0,066
-538,437	-56,200	0,040	-0,013
-537,423	800,000	-0,017	0,042
-536,408	-55,245	-0,043	0,014
-535,393	-148,946	0,006	-0,000
-534,379	800,000	-0,027	-0,084
-533,364	51,025	-0,073	-0,051
-532,350	-200,000	-0,007	0,063
-531,335	5,656	-0,066	-0,036
-530,321	-119,274	0,087	0,011
-529,306	23,380	-0,049	-0,030
-528,291	-98,198	-0,066	0,012
-527,277	-69,402	-0,025	-0,007
-526,262	800,000	0,036	-0,098
-525,248	-94,961	0,068	0,014
-524,233	-89,234	0,126	-0,027
-523,218	-51,060	0,108	-0,037
-522,204	800,000	0,055	0,122
-521,189	470,285	0,015	0,025
-520,175	-144,186	0,068	0,005
-519,160	-200,000	-0,031	-0,109
-518,145	387,253	-0,033	-0,051
-517,131	-18,472	-0,124	0,057
-516,116	-56,719	0,022	-0,007
-515,102	-200,000	0,034	0,124
-514,087	-50,051	-0,117	0,041
-513,072	2,754	0,019	0,010
-512,058	800,000	0,009	-0,027
-511,043	-153,843	0,034	0,002
-510,029	6,898	0,052	0,028
-509,014	154,746	0,047	-0,047
-507,999	139,940	0,087	0,085
-506,985	239,542	0,035	0,043
-505,970	34,207	0,044	0,029
-504,956	173,754	0,022	-0,023
-503,941	109,639	0,094	0,083
-502,926	-200,000	0,006	0,087
-501,912	-74,684	0,030	-0,008
-500,897	157,732	-0,068	0,070
-499,883	800,000	0,013	0,038
-498,868	-91,698	-0,065	-0,014
-497,853	246,487	0,023	0,028
-496,839	37,949	0,121	0,079
-495,824	800,000	0,017	0,036
-494,810	800,000	-0,052	0,146
-493,795	212,301	0,089	-0,103
-492,781	800,000	0,028	-0,084
-491,766	106,935	-0,085	-0,074
-490,751	-178,297	0,023	0,000
-489,737	-145,438	-0,069	0,005
-488,722	667,890	0,024	0,045
-487,708	800,000	-0,024	0,069
-486,693	-137,360	0,005	0,000
-485,678	800,000	0,006	0,014
-484,664	-200,000	-0,018	-0,072
-483,649	800,000	-0,092	-0,203
-482,635	284,158	-0,032	0,042
-481,620	-67,599	0,058	-0,017
-480,605	68,431	0,072	0,054
-479,591	12,891	-0,017	-0,010
-478,576	-200,000	-0,014	-0,058
-477,562	800,000	0,033	-0,080
-476,547	21,059	-0,037	-0,022
-475,532	-27,376	-0,108	0,046
-474,518	-120,576	0,014	0,002
-473,503	-200,000	0,001	-0,092
-472,489	136,419	-0,058	-0,056
-471,474	204,829	-0,052	-0,060
-470,459	-61,801	-0,182	-0,056
-469,445	-200,000	-0,003	0,018
-468,430	-105,607	-0,094	0,015
-467,416	28,983	0,074	0,046
-466,401	-200,000	0,001	-0,080
-465,386	752,473	-0,042	0,084
-464,372	127,436	-0,085	-0,080
-463,357	41,200	0,006	-0,004
-462,343	318,195	-0,014	-0,020
-461,328	-200,000	-0,006	-0,075
-460,313	47,547	0,119	0,082
-459,299	72,566	-0,116	0,089
-458,284	800,000	0,020	0,056
-457,270	-51,110	-0,008	0,003
-456,255	203,151	-0,075	-0,085
-455,241	-18,363	0,075	-0,034
-454,226	800,000	-0,032	-0,079
-453,211	540,647	0,040	-0,071
-452,197	-200,000	-0,040	0,155
-451,182	548,802	0,084	-0,149
-450,168	602,227	0,071	-0,130
-449,153	166,939	-0,105	0,110
-448,138	-198,045	-0,116	0,000
-447,124	-44,466	-0,117	-0,043
-446,109	800,000	0,077	0,161
-445,095	-106,838	0,029	0,005
-444,080	303,631	0,064	0,087
-443,065	-72,641	-0,102	0,027
-442,051	123,666	0,053	0,049
-441,036	68,440	0,087	0,065
-440,022	800,000	0,039	-0,118
-439,007	-77,995	0,032	-0,008
-437,992	-200,000	-0,004	0,079
-436,978	211,215	0,048	-0,056
-435,963	-93,413	0,103	-0,021
-434,949	522,055	-0,002	0,004
-433,934	-29,260	-0,061	-0,025
-432,919	161,239	0,064	0,066
-431,905	56,304	-0,075	-0,054
-430,890	-20,708	0,066	-0,030
-429,876	-59,575	-0,049	0,015
-428,861	-200,000	-0,022	-0,143
-427,846	-21,245	-0,013	0,006
-426,832	-200,000	-0,025	0,119
-425,817	-92,474	-0,010	-0,002
-424,803	-80,251	-0,129	-0,032
-423,788	-200,000	-0,012	0,177
-422,773	-200,000	0,009	-0,132
-421,759	313,951	0,031	-0,043
-420,744	-24,528	0,158	0,069
-419,730	-6,123	-0,056	-0,028
-418,715	-0,350	0,085	0,044
-417,701	-127,882	-0,154	-0,016
-416,686	133,187	0,061	-0,058
-415,671	800,000	0,029	0,089
-414,657	-95,595	0,035	0,007
-413,642	232,521	-0,071	0,086
-412,628	-66,550	-0,087	0,025
-411,613	497,613	0,072	-0,122
-410,598	-120,845	-0,050	0,006
-409,584	30,248	-0,081	-0,051
-408,569	270,702	0,042	0,055
-407,555	-200,000	-0,005	0,266
-406,540	113,522	0,020	0,017
-405,525	12,684	0,139	0,079
-404,511	692,741	0,003	-0,006
-403,496	-200,000	-0,007	-0,150
-402,482	59,721	-0,079	-0,057
-401,467	-83,332	0,133	0,031
-400,452	800,000	-0,005	-0,013
-399,438	-91,761	0,090	-0,019
-398,423	-130,925	0,073	-0,007
-397,409	478,116	-0,026	-0,044
-396,394	184,791	-0,059	-0,064
-395,379	-30,602	0,141	-0,058
-394,365	376,456	-0,067	0,101
-393,350	-200,000	0,004	0,085
-392,336	-200,000	0,001	0,108
-391,321	81,056	0,158	0,125
-390,306	-40,410	-0,094	-0,036
-389,292	-191,003	0,036	-0,000
-388,277	486,303	-0,017	0,028
-387,263	-200,000	-0,012	-0,047
-386,248	800,000	0,022	-0,052
-385,233	800,000	0,026	0,075
-384,219	-63,953	-0,005	0,001
-383,204	-200,000	-0,026	-0,116
-382,190	171,732	-0,040	0,042
-381,175	800,000	-0,029	0,091
-380,160	55,092	0,005	0,004
-379,146	-140,683	-0,017	-0,001
-378,131	-200,000	0,001	0,021
-377,117	-141,195	0,156	-0,011
-376,102	72,665	-0,137	-0,105
-375,088	800,000	0,040	-0,103
-374,073	792,487	0,026	-0,053
-373,058	800,000	-0,020	0,057
-372,044	-196,479	0,164	-0,001
-371,029	47,207	0,047	-0,032
-370,015	-158,645	-0,127	0,005
-369,000	-200,000	-0,014	0,109
-367,985	225,461	-0,043	0,051
-366,971	-200,000	-0,017	0,082
-365,956	-200,000	0,036	-0,204
-364,942	-131,970	-0,103	-0,010
-363,927	69,556	0,065	0,049
-362,912	745,790	-0,019	0,037
-361,898	173,739	0,014	0,014
-360,883	-200,000	0,016	-0,143
-359,869	-200,000	-0,004	0,020
-358,854	27,932	-0,076	-0,047
-357,839	272,805	0,049	0,064
-356,825	800,000	0,047	0,107
-355,810	268,745	0,039	0,050
-354,796	227,455	-0,073	0,088
-353,781	129,647	-0,032	0,030
-352,766	366,573	-0,077	-0,114
-351,752	586,413	0,046	0,084
-350,737	-3,461	0,050	0,025
-349,723	-200,000	-0,018	0,077
-348,708	143,273	0,062	0,061
-347,693	-17,469	0,048	-0,022
-346,679	321,009	-0,046	0,064
-345,664	800,000	0,042	-0,104
-344,650	205,221	-0,088	-0,100
-343,635	434,479	0,048	0,077
-342,620	34,153	0,105	0,067
-341,606	-200,000	-0,028	0,158
-340,591	-8,824	-0,074	0,036
-339,577	800,000	0,067	-0,164
-338,562	-93,499	-0,071	0,014
-337,548	-200,000	0,018	-0,130
-336,533	-200,000	0,016	0,134
-335,518	34,110	-0,079	0,050
-334,504	392,806	0,044	0,067
-333,489	223,365	0,057	0,068
-332,475	387,086	0,044	0,067
-331,460	-62,478	-0,073	0,022
-330,445	125,739	0,065	-0,060
-329,431	255,751	0,100	-0,125
-328,416	-162,323	-0,053	0,002
-327,402	800,000	0,057	-0,124
-326,387	-200,000	0,009	-0,046
-325,372	157,973	-0,055	-0,056
-324,358	729,943	-0,041	-0,082
-323,343	337,571	-0,028	-0,040
-322,329	-129,663	0,068	-0,007
-321,314	58,505	-0,081	0,058
-320,299	-113,202	-0,140	0,020
-319,285	131,061	0,076	0,071
-318,270	73,229	0,009	-0,007
-317,256	191,163	-0,048	-0,053
-316,241	455,192	0,035	0,056
-315,226	-75,420	-0,071	0,018
-314,212	275,926	-0,085	0,111
-313,197	238,535	-0,059	0,071
-312,183	-200,000	0,043	0,149
-311,168	-127,941	-0,101	0,011
-310,153	800,000	0,013	-0,036
-309,139	800,000	-0,033	-0,070
-308,124	273,926	-0,074	-0,096
-307,110	-200,000	0,039	0,143
-306,095	-200,000	-0,002	0,055
-305,080	440,536	0,078	0,125
-304,066	15,547	0,050	-0,029
-303,051	211,812	-0,131	-0,152
-302,037	-148,272	0,026	0,002
-301,022	213,046	0,101	-0,117
-300,008	-200,000	0,008	0,027
-298,993	177,056	0,058	0,062
-297,978	123,142	-0,037	0,034
-296,964	800,000	-0,038	0,101
-295,949	-123,037	0,050	-0,006
-294,935	497,764	-0,078	-0,132
-293,920	67,268	0,071	-0,053
-292,905	-200,000	0,017	-0,065
-291,891	46,731	0,067	-0,046
-290,876	31,778	0,095	0,060
-289,862	-36,588	0,094	0,037
-288,847	396,504	0,022	-0,033
-287,832	-200,000	0,010	-0,090
-286,818	133,422	-0,087	0,082
-285,803	-7,175	0,078	0,039
-284,789	-118,198	0,040	-0,005
-283,774	-171,781	-0,099	-0,002
-282,759	-200,000	0,032	0,125
-281,745	204,454	0,082	0,093
-280,730	506,866	0,032	0,054
-279,716	227,400	0,010	0,012
-278,701	572,297	0,058	0,103
-277,686	22,795	-0,008	-0,005
-276,672	193,042	-0,080	0,088
-275,657	746,013	0,063	0,126
-274,643	-150,444	-0,167	0,009
-273,628	800,000	-0,022	0,065
-272,613	122,820	0,018	-0,016
-271,599	-200,000	0,039	-0,158
-270,584	-59,751	0,097	-0,030
-269,570	-200,000	-0,007	0,070
-268,555	-200,000	0,010	0,091
-267,540	243,137	0,078	-0,095
-266,526	-71,198	-0,077	-0,021
-265,511	-200,000	0,053	-0,171
-264,497	13,947	0,057	-0,033
-263,482	120,974	-0,084	0,077
-262,467	390,527	0,018	-0,028
-261,453	-154,549	-0,082	-0,004
-260,438	615,311	-0,063	-0,116
-259,424	23,570	-0,127	0,076
-258,409	16,316	0,094	-0,054
-257,395	734,403	0,043	-0,085
-256,380	-200,000	0,004	-0,079
-255,365	-200,000	0,006	0,157
-254,351	16,377	0,086	0,050
-253,336	-200,000	0,020	0,072
-252,322	-123,507	-0,079	0,009
-251,307	-20,575	-0,041	-0,018
-250,292	-78,616	0,095	0,024
-249,278	-87,337	0,142	0,031
-248,263	-47,050	0,088	0,031
-247,249	-200,000	-0,001	0,057
-246,234	22,326	0,053	0,032
-245,219	-78,471	0,035	-0,009
-244,205	-85,729	-0,092	-0,021
-243,190	21,460	-0,146	0,086
-242,176	333,214	-0,063	-0,089
-241,161	-72,794	0,065	-0,017
-240,146	344,291	0,064	0,092
-239,132	99,633	0,024	-0,020
-238,117	39,087	-0,099	-0,065
-237,103	-51,622	-0,097	0,033
-236,088	-86,003	-0,101	-0,023
-235,073	800,000	0,009	0,020
-234,059	-200,000	-0,009	0,047
-233,044	800,000	0,067	0,138
-232,030	-72,716	0,026	0,007
-231,015	-200,000	0,033	-0,157
-230,000	-64,022	-0,126	-0,037
-228,986	800,000	0,036	-0,079
-227,971	-200,000	0,007	-0,038
-226,957	587,679	0,113	0,203
-225,942	-87,488	-0,111	-0,024
-224,927	67,461	0,034	-0,025
-223,913	-200,000	0,000	-0,091
-222,898	-82,868	-0,087	0,020
-221,884	-200,000	0,020	-0,104
-220,869	-62,248	0,092	0,028
-219,855	-125,535	-0,107	-0,012
-218,840	-200,000	0,000	-0,108
-217,825	383,430	-0,072	0,109
-216,811	1,679	0,023	0,012
-215,796	163,740	-0,073	0,075
-214,782	-200,000	-0,023	-0,086
-213,767	56,618	0,110	-0,078
-212,752	-200,000	-0,005	0,122
-211,738	65,924	-0,050	-0,037
-210,723	-23,833	0,084	0,036
-209,709	-122,134	0,005	0,001
-208,694	-73,180	0,150	0,040
-207,679	69,732	0,117	-0,088
-206,665	138,015	0,051	-0,049
-205,650	-93,734	-0,110	-0,022
-204,636	-200,000	0,019	-0,074
-203,621	127,949	0,099	0,092
-202,606	102,979	0,039	-0,033
-201,592	-200,000	0,022	0,129
-200,577	-147,799	-0,080	0,005
-199,563	74,640	0,064	-0,049
-198,548	800,000	0,056	0,132
-197,533	390,750	-0,041	0,063
-196,519	211,450	0,131	-0,150
-195,504	-3,363	-0,040	0,020
-194,490	800,000	-0,069	-0,160
-193,475	218,611	-0,031	-0,037
-192,460	-200,000	-0,003	-0,040
-191,446	5,116	0,095	0,051
-190,431	768,789	-0,010	-0,020
-189,417	0,152	-0,059	-0,030
-188,402	-200,000	0,032	-0,127
-187,387	777,336	-0,055	-0,110
-186,373	-45,175	0,082	-0,030
-185,358	-3,800	-0,121	-0,061
-184,344	-27,554	-0,061	-0,026
-183,329	-49,138	-0,093	-0,032
-182,315	39,078	0,092	-0,060
-181,300	-41,310	-0,040	-0,015
-180,285	1,949	0,074	-0,039
-179,271	-134,808	-0,064	0,006
-178,256	387,127	0,087	-0,131
-177,242	142,362	0,069	-0,067
-176,227	800,000	-0,020	-0,059
-175,212	-200,000	0,002	0,029
-174,198	-51,850	-0,130	0,044
-173,183	-200,000	-0,028	0,119
-172,169	-161,588	-0,066	0,002
-171,154	800,000	0,014	-0,032
-170,139	158,290	0,024	-0,024
-169,125	386,475	0,067	0,100
-168,110	-200,000	0,002	-0,022
-167,096	433,446	0,019	0,030
-166,081	-22,453	0,155	-0,068
-165,066	-49,896	-0,049	-0,017
-164,052	800,000	0,025	0,071
-163,037	-200,000	0,012	-0,039
-162,023	-51,915	-0,091	0,031
-161,008	-13,110	0,126	-0,059
-159,993	75,559	0,061	0,047
-158,979	32,771	-0,086	0,054
-157,964	800,000	-0,055	0,148
-156,950	-200,000	-0,011	0,162
-155,935	-13,406	-0,128	0,060
-154,920	200,684	-0,037	0,042
-153,906	123,918	-0,079	0,072
-152,891	-108,135	0,112	0,017
-151,877	-90,402	-0,070	-0,015
-150,862	-84,043	-0,174	-0,040
-149,847	-5,911	-0,060	-0,030
-148,833	720,677	0,010	-0,019
-147,818	-200,000	0,000	0,043
-146,804	789,086	0,044	0,088
-145,789	248,502	-0,117	0,144
-144,775	240,405	-0,022	0,027
-143,760	19,558	-0,147	-0,086
-142,745	-200,000	0,017	-0,122
-141,731	415,081	-0,046	-0,071
-140,716	84,519	0,025	0,020
-139,702	-200,000	0,006	0,122
-138,687	-20,456	0,070	-0,031
-137,672	-200,000	0,032	-0,130
-136,658	22,183	0,092	-0,054
-135,643	495,833	-0,052	0,086
-134,629	140,702	-0,077	-0,074
-133,614	-31,667	0,173	-0,070
-132,599	-150,883	-0,113	0,006
-131,585	721,753	0,055	0,107
-130,570	-6,713	-0,044	0,021
-129,556	-4,411	-0,091	-0,045
-128,541	357,609	0,035	-0,050
-127,526	-200,000	0,018	-0,083
-126,512	239,074	-0,010	0,012
-125,497	14,028	0,174	0,098
-124,483	631,276	-0,058	0,107
-123,468	-89,607	-0,069	0,015
-122,453	-94,848	0,067	-0,013
-121,439	2,681	-0,159	-0,083
-120,424	800,000	-0,046	-0,124
-119,410	800,000	-0,044	-0,090
-118,395	542,309	-0,115	0,200
