DTS Sentinel unit serial number:	SN410029Multiplexer serial number:	ORYXHardware model number:	OX2-SRSoftware version number:	ORYX F/W v4,00 Oryx Data Collector v3.7.2.0data status	okinstallation	B4 Nyhavnadifferential loss correction	single-endedforward channel	channel 2reverse channel	N/Adate	2023/12/16time	03:10:13forward acquisition time	300,00reverse acquisition time	0,00gamma	499,1914k internal	0,3128k external	0,3128temperature offset calibration	1,0000default loss term (dB/km)	0,3820temperature slope calibration	1,0000multiplexer offset coefficient	1,0000multiplexer slope coefficient	1,0000fibre end	0,00T internal ref (°C)	21,97T ext. ref 1 (°C)	6,99T ext. ref 2 (°C)	7,19length (m)	temperature (°C)	Stokes	anti-Stokes-744,400	-15,656	-0,023	-0,011
-743,385	682,747	-0,088	0,171
-742,371	-63,754	0,159	0,048
-741,356	119,672	-0,199	0,184
-740,342	-6,859	0,150	0,076
-739,327	347,962	-0,124	0,183
-738,312	-43,715	-0,114	0,043
-737,298	373,251	-0,085	0,129
-736,283	-0,081	0,086	-0,045
-735,269	-91,192	-0,248	0,052
-734,254	800,000	0,044	0,095
-733,239	-31,864	-0,366	-0,152
-732,225	81,628	0,028	-0,022
-731,210	-56,213	0,103	0,034
-730,196	-14,329	-0,142	-0,068
-729,181	-60,612	-0,059	-0,019
-728,167	373,316	-0,036	0,055
-727,152	-81,417	-0,063	-0,015
-726,137	800,000	-0,040	-0,108
-725,123	-199,903	-0,140	0,001
-724,108	136,451	-0,086	-0,083
-723,094	348,280	0,068	-0,100
-722,079	800,000	0,034	-0,094
-721,064	-78,449	-0,084	-0,021
-720,050	-152,767	0,052	0,003
-719,035	-140,024	-0,037	0,003
-718,021	800,000	-0,006	-0,014
-717,006	9,935	-0,247	-0,139
-715,991	800,000	-0,037	-0,096
-714,977	54,554	0,076	-0,054
-713,962	154,420	-0,100	-0,102
-712,948	-200,000	0,035	0,151
-711,933	-84,783	0,066	-0,015
-710,918	800,000	0,046	-0,119
-709,904	280,240	-0,074	-0,098
-708,889	-59,414	-0,115	-0,037
-707,875	-151,318	-0,074	0,004
-706,860	-113,158	0,020	-0,003
-705,845	-200,000	0,010	-0,083
-704,831	-104,697	-0,081	0,014
-703,816	17,319	0,022	0,013
-702,802	-200,000	-0,008	0,041
-701,787	-50,205	0,021	0,007
-700,772	-84,746	-0,073	-0,017
-699,758	233,863	-0,109	-0,134
-698,743	13,300	-0,095	-0,055
-697,729	272,344	0,049	0,064
-696,714	-200,000	0,016	0,109
-695,699	10,587	-0,072	-0,041
-694,685	224,040	-0,048	-0,058
-693,670	244,053	-0,116	-0,145
-692,656	800,000	0,023	-0,074
-691,641	290,293	0,031	-0,041
-690,627	-128,926	0,189	-0,019
-689,612	18,024	-0,013	0,008
-688,597	-200,000	-0,004	0,019
-687,583	-29,631	-0,116	0,049
-686,568	51,121	-0,080	0,056
-685,554	-200,000	-0,006	-0,082
-684,539	800,000	0,061	0,170
-683,524	-200,000	-0,007	0,107
-682,510	-102,343	-0,049	0,009
-681,495	174,619	-0,122	-0,131
-680,481	-200,000	0,002	0,151
-679,466	-200,000	-0,027	0,097
-678,451	-2,385	0,048	0,025
-677,437	-200,000	-0,021	0,164
-676,422	19,572	-0,072	-0,043
-675,408	-200,000	0,011	0,206
-674,393	800,000	-0,036	0,077
-673,378	-58,666	0,092	-0,029
-672,364	422,403	-0,039	0,062
-671,349	800,000	0,044	-0,142
-670,335	123,829	0,099	-0,092
-669,320	-200,000	0,002	0,074
-668,305	-168,250	0,028	-0,001
-667,291	119,410	-0,012	-0,011
-666,276	25,820	-0,078	-0,048
-665,262	270,457	-0,120	-0,156
-664,247	471,324	0,033	-0,055
-663,232	133,438	0,062	-0,060
-662,218	-200,000	-0,029	0,165
-661,203	-43,425	0,111	0,041
-660,189	-25,553	-0,100	0,044
-659,174	-57,764	0,048	0,016
-658,159	-12,559	-0,103	-0,050
-657,145	245,660	-0,025	0,031
-656,130	-200,000	-0,004	-0,138
-655,116	565,505	0,064	0,116
-654,101	-200,000	-0,002	-0,069
-653,086	-200,000	0,023	0,097
-652,072	-88,608	-0,114	-0,025
-651,057	-32,977	-0,274	-0,112
-650,043	-104,028	0,038	-0,007
-649,028	-200,000	0,007	-0,114
-648,014	-110,248	-0,055	-0,008
-646,999	309,502	0,047	0,066
-645,984	263,103	0,050	0,064
-644,970	320,702	0,063	-0,089
-643,955	-96,582	0,031	-0,006
-642,941	-28,778	-0,186	-0,079
-641,926	-200,000	-0,012	-0,120
-640,911	44,177	0,060	-0,040
-639,897	-200,000	-0,004	0,064
-638,882	800,000	-0,038	0,089
-637,868	-158,489	0,061	0,003
-636,853	5,305	-0,061	-0,033
-635,838	-69,747	-0,139	-0,039
-634,824	184,818	-0,112	-0,123
-633,809	-92,794	0,091	-0,019
-632,795	100,004	0,069	-0,059
-631,780	-185,995	-0,027	0,000
-630,765	-127,597	-0,082	0,009
-629,751	-33,476	0,063	0,026
-628,736	-84,269	-0,096	0,022
-627,722	-200,000	0,010	0,126
-626,707	-93,823	0,086	-0,017
-625,692	-88,294	-0,101	0,022
-624,678	-20,843	-0,176	0,080
-623,663	-79,799	-0,049	0,012
-622,649	293,915	0,064	-0,087
-621,634	-189,834	-0,075	0,001
-620,619	-200,000	-0,032	-0,105
-619,605	-200,000	0,002	0,025
-618,590	415,843	0,070	-0,111
-617,576	-200,000	0,007	-0,067
-616,561	353,493	-0,017	-0,026
-615,546	-107,893	-0,054	-0,009
-614,532	185,902	-0,071	-0,078
-613,517	800,000	-0,050	-0,141
-612,503	310,660	-0,076	-0,106
-611,488	384,685	0,036	0,055
-610,474	275,696	-0,065	0,085
-609,459	-200,000	-0,005	0,024
-608,444	-200,000	-0,008	-0,027
-607,430	9,442	-0,115	-0,064
-606,415	-101,621	-0,123	-0,022
-605,401	-200,000	-0,006	0,031
-604,386	-79,327	-0,066	0,016
-603,371	18,506	0,154	-0,091
-602,357	-139,884	-0,093	-0,007
-601,342	433,306	-0,002	-0,003
-600,328	-88,923	0,085	-0,018
-599,313	-47,254	-0,068	0,024
-598,298	28,857	-0,080	-0,050
-597,284	-200,000	0,024	0,114
-596,269	-96,233	-0,081	0,016
-595,255	685,550	0,049	-0,095
-594,240	42,097	-0,086	-0,057
-593,225	-101,444	-0,115	0,021
-592,211	214,372	-0,093	-0,109
-591,196	-123,447	-0,165	-0,019
-590,182	-10,869	0,114	0,056
-589,167	-200,000	0,043	0,145
-588,152	-160,006	0,058	0,002
-587,138	-200,000	-0,026	0,285
-586,123	73,123	-0,050	-0,039
-585,109	90,202	-0,039	-0,032
-584,094	-200,000	0,023	0,080
-583,079	-200,000	-0,004	0,036
-582,065	-200,000	0,001	-0,031
-581,050	590,135	-0,038	-0,070
-580,036	-63,737	0,093	0,028
-579,021	800,000	0,017	-0,035
-578,006	-82,803	-0,025	-0,006
-576,992	-122,384	0,076	0,009
-575,977	-79,406	0,171	0,042
-574,963	800,000	0,032	0,074
-573,948	-68,689	-0,157	0,045
-572,934	-108,569	0,238	-0,037
-571,919	-200,000	0,013	0,104
-570,904	-191,066	-0,111	0,001
-569,890	-200,000	0,014	-0,129
-568,875	-23,274	0,023	-0,010
-567,861	-116,328	-0,079	-0,011
-566,846	-36,887	0,043	0,017
-565,831	166,354	-0,092	-0,096
-564,817	-68,195	-0,074	0,021
-563,802	137,401	0,057	-0,055
-562,788	-30,190	-0,140	0,058
-561,773	-200,000	0,013	0,092
-560,758	9,923	0,096	-0,054
-559,744	-200,000	-0,001	-0,013
-558,729	67,668	-0,074	0,056
-557,715	56,706	-0,038	0,027
-556,700	-158,207	-0,109	0,005
-555,685	-59,266	-0,104	-0,033
-554,671	-23,273	0,069	-0,031
-553,656	-51,345	-0,066	0,023
-552,642	72,357	0,066	0,051
-551,627	148,167	-0,008	-0,008
-550,612	-200,000	0,005	-0,030
-549,598	114,196	-0,128	-0,115
-548,583	153,634	0,058	-0,059
-547,569	167,529	-0,028	0,030
-546,554	154,533	0,027	-0,027
-545,539	80,868	0,077	0,061
-544,525	-18,137	0,074	0,034
-543,510	-169,428	0,076	-0,002
-542,496	-114,434	-0,126	-0,018
-541,481	-165,243	-0,163	0,005
-540,466	380,139	-0,021	0,031
-539,452	800,000	0,042	0,086
-538,437	-36,508	0,037	0,015
-537,423	30,069	-0,053	-0,033
-536,408	-200,000	0,023	0,092
-535,393	166,268	-0,074	-0,077
-534,379	-200,000	0,004	0,036
-533,364	-61,854	-0,089	0,027
-532,350	800,000	0,086	0,176
-531,335	399,033	0,081	0,126
-530,321	-72,316	-0,175	-0,048
-529,306	-200,000	0,014	0,076
-528,291	800,000	0,064	-0,175
-527,277	166,836	-0,093	0,098
-526,262	-3,085	0,024	0,012
-525,248	-200,000	-0,019	-0,072
-524,233	800,000	0,009	0,030
-523,218	-53,866	0,171	-0,057
-522,204	79,117	-0,100	-0,079
-521,189	-147,922	0,034	0,002
-520,175	800,000	-0,068	-0,191
-519,160	346,392	0,055	-0,080
-518,145	800,000	-0,071	-0,158
-517,131	-200,000	0,009	0,038
-516,116	13,904	0,027	0,015
-515,102	-200,000	0,138	0,000
-514,087	-109,548	-0,079	0,012
-513,072	305,079	0,082	-0,113
-512,058	800,000	0,016	0,039
-511,043	11,762	0,068	0,038
-510,029	-78,999	-0,080	-0,020
-509,014	-34,889	0,097	0,039
-507,999	722,520	-0,068	-0,135
-506,985	4,032	-0,017	0,009
-505,970	238,540	0,097	0,119
-504,956	800,000	-0,072	0,169
-503,941	800,000	-0,018	-0,039
-502,926	-116,169	0,156	0,021
-501,912	800,000	-0,040	0,122
-500,897	-137,425	0,146	0,012
-499,883	-200,000	0,010	-0,111
-498,868	461,930	0,004	-0,007
-497,853	-70,054	-0,113	-0,031
-496,839	1,923	-0,121	0,064
-495,824	-200,000	-0,024	-0,098
-494,810	-52,444	-0,030	0,010
-493,795	-33,256	-0,071	0,029
-492,781	4,662	-0,047	0,025
-491,766	-144,699	0,017	-0,001
-490,751	800,000	0,030	-0,087
-489,737	-29,186	-0,084	-0,035
-488,722	203,902	0,069	0,079
-487,708	-200,000	-0,001	0,059
-486,693	-200,000	-0,003	0,146
-485,678	-200,000	-0,009	-0,081
-484,664	-200,000	0,006	0,049
-483,649	269,292	0,039	-0,050
-482,635	-136,106	0,015	-0,001
-481,620	88,835	-0,070	-0,057
-480,605	-116,516	0,084	0,011
-479,591	-28,857	0,043	0,018
-478,576	60,057	-0,010	-0,008
-477,562	-2,457	0,057	-0,029
-476,547	11,088	-0,103	-0,058
-475,532	-69,967	-0,084	0,023
-474,518	120,360	0,067	0,061
-473,503	165,705	-0,046	0,048
-472,489	68,312	0,123	0,092
-471,474	369,939	0,033	0,049
-470,459	-136,351	0,130	-0,011
-469,445	-5,640	-0,092	-0,046
-468,430	800,000	-0,011	0,033
-467,416	-149,521	0,090	0,005
-466,401	246,974	-0,048	0,059
-465,386	261,145	0,087	0,111
-464,372	223,913	0,034	-0,040
-463,357	72,740	-0,112	-0,086
-462,343	-37,221	-0,142	-0,056
-461,328	337,292	0,020	0,029
-460,313	69,974	-0,059	0,045
-459,299	-162,800	0,183	0,006
-458,284	-54,290	0,039	0,013
-457,270	110,917	0,121	0,107
-456,255	24,768	-0,070	-0,043
-455,241	148,609	0,090	-0,090
-454,226	146,909	0,096	0,095
-453,211	800,000	-0,011	0,027
-452,197	-107,800	0,044	0,007
-451,182	708,478	0,053	0,103
-450,168	-200,000	-0,011	-0,097
-449,153	348,736	-0,053	-0,078
-448,138	800,000	0,065	-0,172
-447,124	-200,000	0,021	-0,123
-446,109	800,000	0,021	-0,051
-445,095	-51,997	-0,124	0,042
-444,080	728,127	0,085	-0,168
-443,065	144,921	0,076	-0,075
-442,051	-128,341	0,011	0,001
-441,036	-200,000	-0,002	-0,159
-440,022	-200,000	0,015	-0,064
-439,007	-72,186	0,007	0,002
-437,992	162,417	0,043	-0,044
-436,978	-14,506	0,062	-0,029
-435,963	-26,103	0,021	0,009
-434,949	-160,394	0,038	0,001
-433,934	-200,000	-0,022	0,188
-432,919	-17,813	-0,125	-0,058
-431,905	45,697	-0,067	0,045
-430,890	380,470	0,054	0,082
-429,876	800,000	-0,044	0,122
-428,861	720,155	-0,030	0,060
-427,846	-116,985	-0,146	-0,019
-426,832	800,000	-0,017	-0,052
-425,817	800,000	-0,039	-0,116
-424,803	-200,000	0,017	-0,075
-423,788	73,636	-0,052	0,040
-422,773	-200,000	-0,018	0,186
-421,759	-200,000	-0,014	0,046
-420,744	-200,000	0,001	0,047
-419,730	-7,181	-0,073	0,036
-418,715	595,111	0,020	0,037
-417,701	-59,012	0,048	-0,015
-416,686	259,548	0,093	-0,118
-415,671	45,512	-0,060	0,041
-414,657	-140,729	0,023	0,002
-413,642	-200,000	-0,018	-0,094
-412,628	-200,000	-0,007	0,044
-411,613	-200,000	0,000	0,019
-410,598	-200,000	0,024	-0,092
-409,584	92,670	0,042	0,035
-408,569	-200,000	0,035	0,116
-407,555	132,458	0,057	0,054
-406,540	-32,287	0,119	-0,049
-405,525	86,024	0,122	-0,098
-404,511	-200,000	0,017	-0,174
-403,496	205,631	0,086	-0,098
-402,482	-52,450	-0,086	-0,029
-401,467	-200,000	0,011	-0,104
-400,452	-200,000	-0,016	0,072
-399,438	375,925	0,068	0,102
-398,423	79,747	0,018	0,014
-397,409	-130,296	-0,051	-0,005
-396,394	800,000	-0,008	0,024
-395,379	-200,000	0,021	-0,069
-394,365	701,318	0,035	0,067
-393,350	-120,013	-0,149	-0,019
-392,336	-71,084	0,124	0,034
-391,321	-117,118	-0,060	0,008
-390,306	-200,000	-0,005	0,031
-389,292	125,709	-0,108	0,100
-388,277	-200,000	-0,006	-0,029
-387,263	-49,993	0,104	0,036
-386,248	87,930	0,093	0,076
-385,233	-200,000	-0,001	0,042
-384,219	-71,672	-0,065	0,018
-383,204	-200,000	0,014	-0,059
-382,190	-200,000	-0,000	-0,036
-381,175	800,000	0,026	0,054
-380,160	8,473	0,061	-0,034
-379,146	536,171	0,041	0,071
-378,131	448,857	0,058	0,094
-377,117	-176,840	0,082	-0,001
-376,102	213,720	-0,042	0,048
-375,088	316,905	0,016	0,022
-374,073	200,105	-0,104	-0,118
-373,058	-73,141	0,146	0,039
-372,044	-77,154	0,008	0,002
-371,029	-74,836	-0,131	-0,034
-370,015	173,983	-0,061	-0,064
-369,000	-87,298	-0,064	-0,014
-367,985	-200,000	-0,019	-0,087
-366,971	-200,000	0,039	0,125
-365,956	-82,867	0,175	0,041
-364,942	224,333	-0,048	-0,057
-363,927	-164,274	-0,132	-0,004
-362,912	-200,000	-0,005	-0,097
-361,898	-34,747	-0,048	0,019
-360,883	9,275	0,031	0,017
-359,869	-122,059	-0,038	-0,004
-358,854	800,000	0,038	-0,103
-357,839	-29,878	0,164	-0,068
-356,825	10,136	-0,034	0,019
-355,810	52,205	-0,024	-0,017
-354,796	-102,653	-0,167	0,029
-353,781	-73,037	-0,101	0,027
-352,766	800,000	0,062	0,146
-351,752	-200,000	0,025	0,169
-350,737	46,260	0,125	0,085
-349,723	-129,346	0,089	-0,009
-348,708	17,340	0,040	-0,023
-347,693	-50,218	0,052	0,018
-346,679	29,660	-0,064	-0,040
-345,664	-200,000	-0,001	-0,081
-344,650	-200,000	0,029	-0,146
-343,635	-200,000	-0,007	0,033
-342,620	800,000	0,023	0,047
-341,606	-45,455	-0,037	-0,013
-340,591	-96,537	-0,085	-0,016
-339,577	53,655	-0,094	-0,066
-338,562	103,098	-0,133	-0,114
-337,548	-200,000	0,009	-0,090
-336,533	10,291	0,044	0,024
-335,518	-200,000	0,003	0,106
-334,504	243,322	0,076	0,093
-333,489	-56,805	0,118	-0,038
-332,475	237,979	-0,023	-0,028
-331,460	39,344	-0,101	-0,066
-330,445	8,545	0,080	-0,044
-329,431	524,337	-0,077	-0,133
-328,416	-200,000	0,008	0,063
-327,402	-74,905	0,018	0,005
-326,387	-200,000	-0,013	-0,086
-325,372	76,258	-0,067	-0,052
-324,358	443,088	0,023	0,037
-323,343	-200,000	0,007	0,057
-322,329	800,000	-0,045	0,118
-321,314	52,050	-0,137	0,095
-320,299	-200,000	-0,026	0,086
-319,285	72,334	0,108	0,082
-318,270	90,478	-0,047	-0,038
-317,256	392,211	-0,068	0,104
-316,241	800,000	0,011	-0,027
-315,226	-141,930	-0,125	-0,009
-314,212	-200,000	0,014	0,136
-313,197	-69,640	0,053	0,015
-312,183	296,618	-0,046	-0,062
-311,168	641,398	-0,054	0,101
-310,153	10,584	0,069	0,038
-309,139	-115,219	-0,105	-0,014
-308,124	-63,716	-0,144	-0,043
-307,110	15,646	0,125	0,071
-306,095	11,894	0,080	0,045
-305,080	105,250	-0,049	-0,042
-304,066	10,180	0,049	-0,027
-303,051	472,669	-0,029	0,048
-302,037	211,251	0,042	0,048
-301,022	-200,000	0,027	-0,114
-300,008	446,557	-0,020	-0,033
-298,993	-200,000	0,042	0,171
-297,978	-200,000	0,020	0,117
-296,964	522,983	0,055	-0,095
-295,949	-200,000	0,024	-0,133
-294,935	-121,346	-0,077	-0,009
-293,920	-40,000	0,086	0,033
-292,905	-79,512	0,111	0,027
-291,891	-116,733	-0,003	0,000
-290,876	-200,000	-0,003	0,049
-289,862	-114,031	-0,109	0,015
-288,847	-82,424	-0,151	-0,036
-287,832	-71,324	-0,037	0,010
-286,818	-104,471	-0,038	-0,006
-285,803	-200,000	-0,008	0,029
-284,789	368,185	-0,017	-0,025
-283,774	-77,704	0,079	0,020
-282,759	-200,000	0,011	0,078
-281,745	-200,000	-0,002	-0,046
-280,730	548,987	0,093	-0,163
-279,716	704,788	0,041	0,079
-278,701	-98,956	0,261	-0,048
-277,686	-63,490	-0,048	-0,014
-276,672	-200,000	0,018	0,060
-275,657	208,828	0,087	0,100
-274,643	-200,000	-0,000	-0,014
-273,628	-19,059	-0,079	-0,036
-272,613	29,515	0,140	0,087
-271,599	208,308	-0,059	0,068
-270,584	94,563	0,102	0,085
-269,570	72,340	0,073	0,056
-268,555	-116,620	-0,196	-0,026
-267,540	-26,502	0,135	0,058
-266,526	-57,838	-0,083	-0,026
-265,511	-35,131	0,131	0,052
-264,497	-119,982	-0,048	-0,006
-263,482	-45,194	0,106	0,038
-262,467	-1,331	0,080	0,041
-261,453	-98,047	-0,073	0,014
-260,438	-173,437	-0,163	0,004
-259,424	-200,000	-0,013	0,042
-258,409	195,677	-0,063	0,070
-257,395	800,000	0,027	-0,078
-256,380	-200,000	-0,009	0,054
-255,365	-161,291	0,182	-0,007
-254,351	445,686	0,009	-0,014
-253,336	200,224	-0,086	-0,096
-252,322	75,846	0,040	-0,031
-251,307	195,008	-0,034	-0,038
-250,292	321,750	0,055	-0,077
-249,278	-131,141	0,122	0,012
-248,263	6,857	0,104	0,056
-247,249	139,884	0,015	-0,015
-246,234	-84,659	0,153	-0,035
-245,219	97,280	-0,072	0,060
-244,205	202,241	-0,018	0,020
-243,190	233,156	-0,029	-0,035
-242,176	58,154	0,101	-0,072
-241,161	-6,109	-0,132	-0,066
-240,146	800,000	0,027	-0,061
-239,132	-200,000	0,001	-0,032
-238,117	236,640	0,038	0,046
-237,103	-80,284	-0,133	-0,032
-236,088	-67,985	0,077	-0,022
-235,073	6,527	0,098	-0,053
-234,059	-200,000	0,042	-0,165
-233,044	686,019	0,034	-0,066
-232,030	-52,981	-0,062	0,021
-231,015	-15,037	0,072	-0,033
-230,000	-200,000	-0,006	-0,077
-228,986	-45,923	-0,070	0,025
-227,971	-37,888	-0,020	-0,008
-226,957	-65,014	-0,012	-0,004
-225,942	1,978	-0,076	0,040
-224,927	-31,959	-0,094	0,038
-223,913	58,729	0,029	-0,021
-222,898	800,000	-0,023	-0,054
-221,884	-200,000	0,016	0,090
-220,869	-200,000	0,017	0,111
-219,855	-118,701	0,103	-0,013
-218,840	105,240	-0,048	0,041
-217,825	-88,307	0,178	0,039
-216,811	302,898	0,060	-0,081
-215,796	101,698	-0,053	0,045
-214,782	41,111	0,054	-0,036
-213,767	-44,203	-0,088	-0,032
-212,752	20,154	0,063	-0,037
-211,738	86,524	-0,133	0,107
-210,723	2,713	0,017	-0,009
-209,709	-49,661	0,017	0,006
-208,694	800,000	0,009	0,022
-207,679	-82,533	-0,089	0,021
-206,665	800,000	-0,024	-0,053
-205,650	-121,675	-0,144	-0,017
-204,636	-142,701	0,073	0,005
-203,621	150,035	0,048	0,048
-202,606	423,256	0,013	-0,021
-201,592	8,310	0,050	-0,028
-200,577	-67,452	0,024	0,007
-199,563	219,280	0,050	-0,059
-198,548	-200,000	-0,004	0,092
-197,533	800,000	0,008	-0,021
-196,519	-26,334	-0,124	-0,053
-195,504	-82,848	-0,079	0,019
-194,490	347,780	-0,049	0,071
-193,475	-65,827	0,035	0,010
-192,460	-45,760	-0,102	-0,037
-191,446	-200,000	-0,000	-0,023
-190,431	734,902	0,043	0,084
-189,417	-200,000	0,039	0,136
-188,402	464,464	0,066	0,109
-187,387	-63,533	0,099	0,029
-186,373	800,000	-0,029	-0,080
-185,358	567,257	0,015	-0,027
-184,344	15,680	0,029	-0,017
-183,329	-183,608	0,038	-0,000
-182,315	-29,370	0,070	0,029
-181,300	-27,871	0,159	0,067
-180,285	-78,772	0,062	-0,015
-179,271	-144,392	-0,138	-0,009
-178,256	39,246	0,071	0,046
-177,242	182,136	0,049	-0,053
-176,227	34,633	0,046	-0,029
-175,212	342,533	0,006	0,008
-174,198	27,021	-0,105	-0,064
-173,183	462,151	-0,035	-0,058
-172,169	800,000	-0,033	-0,078
-171,154	315,783	-0,105	-0,145
-170,139	-200,000	-0,007	-0,128
-169,125	-200,000	0,007	0,076
-168,110	800,000	0,016	0,046
-167,096	375,229	0,041	0,062
-166,081	346,784	0,060	0,086
-165,066	-200,000	0,016	-0,056
-164,052	-3,581	-0,122	-0,062
-163,037	1,573	-0,039	0,020
-162,023	60,526	0,056	0,040
-161,008	-39,582	-0,034	0,013
-159,993	317,200	-0,032	0,045
-158,979	66,500	-0,079	-0,058
-157,964	-200,000	0,002	0,015
-156,950	-200,000	0,015	-0,088
-155,935	221,570	0,073	0,086
-154,920	116,138	0,077	0,069
-153,906	-47,214	0,073	0,026
-152,891	585,006	0,050	0,089
-151,877	-116,399	0,078	0,010
-150,862	-200,000	0,009	-0,137
-149,847	-113,638	0,017	-0,002
-148,833	72,326	-0,043	-0,032
-147,818	27,785	-0,176	-0,107
-146,804	-200,000	0,019	-0,070
-145,789	-2,013	0,032	-0,016
-144,775	-200,000	-0,077	-0,000
-143,760	129,089	-0,039	0,036
-142,745	107,566	-0,017	-0,015
-141,731	-200,000	0,022	-0,081
-140,716	316,005	0,124	-0,171
-139,702	37,302	-0,075	-0,048
-138,687	-73,349	0,098	0,026
-137,672	-200,000	-0,022	0,177
-136,658	-200,000	-0,001	0,108
-135,643	-106,313	0,107	0,017
-134,629	39,672	-0,009	0,006
-133,614	-69,653	0,170	0,047
-132,599	435,264	-0,048	0,076
-131,585	28,687	-0,084	-0,052
-130,570	243,286	-0,045	-0,054
-129,556	-89,402	-0,063	-0,013
-128,541	663,786	-0,042	-0,079
-127,526	-142,009	-0,137	-0,010
-126,512	-200,000	0,022	0,168
-125,497	222,716	-0,019	-0,023
-124,483	309,942	-0,038	-0,052
-123,468	-200,000	-0,003	-0,043
-122,453	-200,000	-0,025	-0,170
-121,439	-27,928	0,036	0,015
-120,424	54,338	-0,060	-0,042
-119,410	-98,745	0,086	0,016
-118,395	-40,325	-0,057	-0,022
