DTS Sentinel unit serial number:	SN410029Multiplexer serial number:	ORYXHardware model number:	OX2-SRSoftware version number:	ORYX F/W v4,00 Oryx Data Collector v3.7.2.0data status	okinstallation	B4 Nyhavnadifferential loss correction	single-endedforward channel	channel 2reverse channel	N/Adate	2023/12/15time	21:45:13forward acquisition time	300,00reverse acquisition time	0,00gamma	499,1914k internal	0,3133k external	0,3133temperature offset calibration	1,0000default loss term (dB/km)	0,3820temperature slope calibration	1,0000multiplexer offset coefficient	1,0000multiplexer slope coefficient	1,0000fibre end	0,00T internal ref (°C)	21,07T ext. ref 1 (°C)	6,52T ext. ref 2 (°C)	6,66length (m)	temperature (°C)	Stokes	anti-Stokes-744,400	-63,558	0,029	-0,009
-743,385	-35,257	-0,205	0,083
-742,371	-59,806	-0,087	0,027
-741,356	-28,583	-0,266	0,113
-740,342	-136,975	0,137	-0,011
-739,327	269,427	-0,068	0,089
-738,312	-200,000	0,004	-0,139
-737,298	-129,092	-0,264	-0,027
-736,283	413,473	0,042	-0,067
-735,269	-112,511	-0,252	0,037
-734,254	456,517	0,044	0,073
-733,239	-24,897	-0,420	-0,185
-732,225	-133,978	0,198	-0,018
-731,210	-36,670	0,035	0,014
-730,196	-200,000	-0,017	-0,085
-729,181	405,935	0,037	0,058
-728,167	800,000	0,073	-0,184
-727,152	184,526	0,043	-0,047
-726,137	74,116	-0,083	0,065
-725,123	-25,164	-0,093	0,041
-724,108	209,893	-0,154	-0,180
-723,094	-200,000	-0,018	-0,132
-722,079	56,361	0,141	-0,102
-721,064	338,281	0,024	0,034
-720,050	-200,000	-0,019	-0,073
-719,035	401,316	-0,119	-0,187
-718,021	181,179	-0,114	-0,125
-717,006	-200,000	-0,016	-0,083
-715,991	-200,000	0,023	-0,139
-714,977	-62,366	-0,096	-0,030
-713,962	-86,936	-0,042	0,009
-712,948	-200,000	-0,021	-0,105
-711,933	129,706	0,029	0,028
-710,918	18,718	0,030	-0,018
-709,904	-147,347	0,135	-0,008
-708,889	-93,518	-0,181	-0,037
-707,875	-200,000	-0,013	0,182
-706,860	-200,000	0,017	0,111
-705,845	30,533	0,051	0,033
-704,831	7,288	-0,078	0,043
-703,816	-200,000	0,007	-0,039
-702,802	9,341	0,141	0,079
-701,787	21,753	-0,167	-0,101
-700,772	23,931	-0,068	0,041
-699,758	-138,414	-0,078	-0,006
-698,743	-30,387	-0,035	-0,014
-697,729	-188,196	-0,051	-0,000
-696,714	-55,794	-0,119	-0,039
-695,699	-200,000	-0,046	-0,174
-694,685	-200,000	-0,024	-0,121
-693,670	800,000	-0,042	0,104
-692,656	-200,000	-0,005	0,079
-691,641	-133,927	-0,067	0,006
-690,627	-101,553	0,096	0,017
-689,612	652,658	-0,089	0,170
-688,597	35,236	-0,045	0,029
-687,583	800,000	-0,050	0,145
-686,568	105,934	-0,131	0,115
-685,554	262,706	0,049	0,063
-684,539	800,000	-0,021	0,055
-683,524	-200,000	0,006	-0,037
-682,510	-200,000	0,005	0,081
-681,495	62,546	0,041	-0,030
-680,481	-81,579	-0,074	-0,018
-679,466	22,144	-0,159	-0,096
-678,451	-52,973	-0,083	-0,028
-677,437	131,884	0,051	0,049
-676,422	80,492	0,034	-0,027
-675,408	384,376	-0,075	0,114
-674,393	-42,036	-0,090	0,034
-673,378	800,000	0,038	-0,119
-672,364	-100,473	-0,161	0,029
-671,349	800,000	-0,037	0,092
-670,335	-200,000	0,039	-0,150
-669,320	-161,151	-0,107	0,004
-668,305	-132,928	-0,005	-0,000
-667,291	118,098	-0,102	0,093
-666,276	-167,791	-0,030	0,001
-665,262	82,211	0,132	-0,106
-664,247	800,000	0,016	0,050
-663,232	148,815	-0,091	-0,092
-662,218	-94,600	0,039	0,008
-661,203	800,000	0,012	0,038
-660,189	198,163	-0,024	0,027
-659,174	7,519	-0,059	-0,033
-658,159	800,000	-0,032	-0,104
-657,145	-200,000	0,003	0,048
-656,130	-145,874	0,017	0,001
-655,116	-200,000	0,001	0,068
-654,101	800,000	-0,082	0,178
-653,086	800,000	0,015	-0,037
-652,072	7,312	0,064	0,035
-651,057	-200,000	-0,052	-0,194
-650,043	75,365	-0,098	-0,077
-649,028	-200,000	0,013	0,065
-648,014	-200,000	0,009	0,069
-646,999	590,785	-0,081	0,149
-645,984	250,213	0,045	0,057
-644,970	246,065	0,075	0,094
-643,955	800,000	-0,041	-0,086
-642,941	-81,579	-0,118	0,028
-641,926	32,501	0,061	-0,039
-640,911	-78,137	0,057	-0,014
-639,897	432,191	0,063	0,102
-638,882	800,000	-0,041	0,129
-637,868	-75,350	0,053	-0,014
-636,853	-130,309	0,088	0,009
-635,838	800,000	0,038	0,092
-634,824	-200,000	0,007	0,044
-633,809	10,909	-0,106	0,060
-632,795	-200,000	-0,013	-0,105
-631,780	112,633	0,077	-0,069
-630,765	79,032	-0,066	-0,053
-629,751	136,280	0,083	-0,081
-628,736	7,361	-0,181	-0,100
-627,722	800,000	-0,041	-0,088
-626,707	-114,606	0,158	0,022
-625,692	-42,272	-0,096	0,036
-624,678	-200,000	0,005	-0,091
-623,663	11,806	0,043	0,024
-622,649	117,463	-0,101	-0,092
-621,634	-200,000	-0,002	-0,101
-620,619	-200,000	0,002	-0,082
-619,605	-200,000	0,019	-0,194
-618,590	205,414	0,064	0,074
-617,576	800,000	-0,070	0,155
-616,561	-112,652	0,015	-0,002
-615,546	800,000	0,020	-0,053
-614,532	-200,000	-0,018	-0,081
-613,517	650,441	-0,034	-0,064
-612,503	153,876	-0,107	0,109
-611,488	279,697	0,028	-0,037
-610,474	-200,000	-0,028	-0,107
-609,459	800,000	-0,028	-0,085
-608,444	-200,000	0,036	-0,134
-607,430	-200,000	-0,026	-0,318
-606,415	-117,368	-0,175	-0,023
-605,401	-200,000	-0,000	0,033
-604,386	-200,000	-0,016	0,132
-603,371	-133,740	-0,050	0,005
-602,357	25,669	-0,048	0,029
-601,342	800,000	-0,014	0,040
-600,328	191,306	0,047	-0,053
-599,313	506,798	-0,052	-0,089
-598,298	25,774	-0,051	0,032
-597,284	-200,000	0,034	0,112
-596,269	226,326	0,039	0,047
-595,255	-11,667	0,075	-0,036
-594,240	-148,381	-0,133	0,008
-593,225	800,000	-0,097	-0,217
-592,211	-200,000	0,010	-0,187
-591,196	-200,000	0,007	0,090
-590,182	2,475	0,116	-0,062
-589,167	-24,826	0,178	0,078
-588,152	337,368	-0,012	0,017
-587,138	-200,000	-0,006	0,024
-586,123	-133,299	0,022	0,002
-585,109	175,961	-0,031	0,033
-584,094	227,888	0,024	0,029
-583,079	82,850	0,033	0,026
-582,065	570,956	-0,021	-0,038
-581,050	-200,000	-0,031	0,139
-580,036	-200,000	0,024	0,188
-579,021	410,362	-0,033	0,051
-578,006	1,299	-0,063	0,034
-576,992	800,000	-0,050	0,104
-575,977	800,000	0,004	-0,011
-574,963	800,000	0,051	-0,104
-573,948	291,889	-0,033	-0,044
-572,934	726,214	-0,088	-0,174
-571,919	-34,179	-0,063	-0,026
-570,904	-66,800	0,055	-0,016
-569,890	-62,689	0,060	-0,018
-568,875	-18,543	0,023	-0,011
-567,861	-200,000	-0,003	0,017
-566,846	29,944	0,028	-0,018
-565,831	389,183	0,038	0,059
-564,817	-42,810	-0,048	0,018
-563,802	-200,000	0,012	-0,068
-562,788	52,669	-0,019	-0,013
-561,773	135,276	0,104	0,100
-560,758	-45,315	0,128	0,047
-559,744	-193,348	-0,064	0,000
-558,729	-200,000	-0,003	-0,051
-557,715	800,000	0,025	-0,075
-556,700	80,330	-0,122	-0,097
-555,685	32,476	-0,113	-0,072
-554,671	-200,000	0,005	-0,118
-553,656	-125,301	-0,015	-0,002
-552,642	5,865	0,074	0,040
-551,627	-66,901	-0,060	0,017
-550,612	75,012	-0,115	-0,089
-549,598	-39,067	0,033	-0,013
-548,583	59,326	-0,080	-0,058
-547,569	76,695	0,064	0,050
-546,554	-200,000	-0,035	0,115
-545,539	202,578	0,006	0,006
-544,525	-200,000	0,011	0,062
-543,510	-200,000	-0,007	0,053
-542,496	-44,198	0,090	-0,033
-541,481	-71,228	-0,102	0,028
-540,466	93,634	-0,047	-0,039
-539,452	75,312	0,097	0,076
-538,437	-200,000	0,015	0,051
-537,423	800,000	-0,023	0,048
-536,408	-191,860	0,029	0,000
-535,393	-33,684	0,053	-0,021
-534,379	126,489	0,083	0,077
-533,364	800,000	-0,020	0,051
-532,350	602,474	0,030	0,055
-531,335	800,000	0,055	0,122
-530,321	8,355	0,057	0,032
-529,306	579,084	-0,047	-0,085
-528,291	39,054	0,039	-0,025
-527,277	104,169	-0,032	0,028
-526,262	326,086	-0,044	0,063
-525,248	-200,000	-0,006	0,069
-524,233	-200,000	-0,022	0,150
-523,218	800,000	-0,057	0,154
-522,204	202,224	0,096	0,109
-521,189	-104,777	-0,038	-0,006
-520,175	38,615	-0,103	-0,068
-519,160	316,387	-0,095	-0,133
-518,145	-200,000	-0,018	-0,065
-517,131	800,000	0,046	-0,143
-516,116	-24,887	0,041	0,018
-515,102	475,255	-0,050	0,084
-514,087	-200,000	-0,002	-0,050
-513,072	-200,000	-0,004	0,046
-512,058	-200,000	0,006	0,029
-511,043	-200,000	0,028	-0,112
-510,029	417,406	-0,068	0,107
-509,014	-200,000	0,000	0,073
-507,999	-61,318	0,042	0,013
-506,985	-120,884	0,114	0,014
-505,970	-154,490	0,051	-0,002
-504,956	-113,325	-0,046	-0,007
-503,941	-200,000	0,022	0,123
-502,926	-200,000	0,013	0,065
-501,912	-35,943	-0,090	0,036
-500,897	-11,229	0,058	0,028
-499,883	-70,468	-0,029	-0,008
-498,868	298,000	0,006	-0,009
-497,853	-200,000	-0,063	-0,235
-496,839	94,330	-0,056	0,047
-495,824	-115,085	-0,120	0,017
-494,810	-138,439	-0,015	-0,001
-493,795	-41,117	-0,049	-0,018
-492,781	-80,035	-0,101	0,025
-491,766	-200,000	0,017	-0,226
-490,751	74,395	0,084	0,065
-489,737	-60,656	-0,049	-0,015
-488,722	480,131	0,020	-0,034
-487,708	-200,000	-0,002	-0,039
-486,693	-200,000	0,006	-0,110
-485,678	-200,000	-0,004	0,087
-484,664	800,000	0,034	-0,107
-483,649	-200,000	0,001	-0,027
-482,635	-85,573	0,149	0,034
-481,620	-37,210	-0,095	-0,037
-480,605	616,047	-0,054	0,100
-479,591	800,000	-0,020	-0,045
-478,576	-146,393	0,239	-0,015
-477,562	394,852	-0,078	0,119
-476,547	-84,527	-0,070	-0,016
-475,532	-200,000	-0,029	-0,149
-474,518	165,856	0,130	-0,135
-473,503	699,967	0,043	0,083
-472,489	137,050	0,057	-0,054
-471,474	90,463	0,082	0,067
-470,459	-200,000	-0,006	0,021
-469,445	800,000	0,025	-0,079
-468,430	12,274	-0,043	-0,025
-467,416	182,223	-0,092	-0,100
-466,401	800,000	0,055	-0,167
-465,386	800,000	0,025	0,054
-464,372	-45,027	-0,141	0,051
-463,357	-200,000	-0,001	-0,012
-462,343	445,542	0,058	-0,094
-461,328	-24,689	-0,078	-0,034
-460,313	-200,000	0,022	-0,091
-459,299	106,659	-0,079	0,069
-458,284	-200,000	0,000	0,146
-457,270	-200,000	-0,022	0,106
-456,255	139,213	0,042	0,040
-455,241	94,346	-0,082	-0,068
-454,226	-200,000	-0,041	0,166
-453,211	-29,912	-0,030	-0,013
-452,197	-104,440	0,070	-0,012
-451,182	-200,000	0,019	-0,066
-450,168	-200,000	0,002	0,039
-449,153	-200,000	-0,008	-0,113
-448,138	800,000	0,033	-0,090
-447,124	22,693	0,146	0,087
-446,109	-13,700	-0,031	0,015
-445,095	-99,454	0,037	-0,007
-444,080	-74,790	0,039	0,010
-443,065	183,220	-0,041	-0,045
-442,051	608,944	-0,071	-0,131
-441,036	-200,000	-0,039	-0,153
-440,022	-77,091	-0,079	0,020
-439,007	382,015	0,035	0,053
-437,992	-16,920	0,044	-0,020
-436,978	-50,051	0,046	-0,016
-435,963	-200,000	0,000	0,059
-434,949	22,721	0,091	0,055
-433,934	-200,000	0,028	-0,115
-432,919	28,136	-0,049	-0,030
-431,905	264,331	-0,035	0,045
-430,890	-200,000	0,010	-0,101
-429,876	800,000	0,031	0,084
-428,861	21,127	0,081	0,048
-427,846	-162,325	0,088	-0,003
-426,832	25,146	0,137	-0,083
-425,817	34,870	-0,066	-0,042
-424,803	-200,000	0,003	0,070
-423,788	97,086	-0,058	0,049
-422,773	115,170	-0,046	0,041
-421,759	41,729	0,088	0,059
-420,744	-89,581	-0,029	-0,006
-419,730	123,671	-0,074	-0,068
-418,715	800,000	-0,013	0,038
-417,701	13,415	-0,214	0,122
-416,686	-139,132	-0,002	-0,000
-415,671	24,476	0,028	-0,017
-414,657	32,947	-0,018	0,011
-413,642	-200,000	-0,034	0,117
-412,628	-24,920	0,058	-0,025
-411,613	800,000	0,069	-0,213
-410,598	-200,000	0,001	0,048
-409,584	48,114	0,157	0,108
-408,569	800,000	-0,071	0,210
-407,555	800,000	-0,007	-0,015
-406,540	34,115	0,127	0,081
-405,525	155,935	-0,048	0,048
-404,511	228,534	-0,035	-0,041
-403,496	-200,000	0,002	-0,147
-402,482	224,337	0,101	-0,120
-401,467	800,000	-0,049	0,104
-400,452	-200,000	-0,001	-0,023
-399,438	-200,000	0,004	-0,105
-398,423	120,653	0,079	0,072
-397,409	93,890	-0,020	-0,017
-396,394	-130,087	-0,208	-0,021
-395,379	-200,000	-0,017	-0,106
-394,365	-137,260	0,079	0,006
-393,350	-15,696	-0,089	-0,042
-392,336	535,463	0,023	-0,040
-391,321	277,754	-0,011	0,015
-390,306	-200,000	-0,005	0,058
-389,292	800,000	-0,038	-0,087
-388,277	-200,000	-0,004	-0,116
-387,263	-200,000	0,023	-0,142
-386,248	136,300	-0,064	-0,061
-385,233	-112,218	0,215	-0,031
-384,219	-200,000	-0,019	0,076
-383,204	74,570	0,062	-0,048
-382,190	800,000	-0,024	-0,064
-381,175	-6,222	0,078	0,039
-380,160	-200,000	0,011	0,120
-379,146	-107,011	-0,050	-0,008
-378,131	-129,431	0,173	0,017
-377,117	-200,000	-0,003	0,097
-376,102	-98,905	0,125	0,023
-375,088	-92,934	-0,081	-0,016
-374,073	44,267	-0,047	0,031
-373,058	-200,000	0,022	0,093
-372,044	-200,000	0,005	-0,072
-371,029	4,028	-0,074	0,040
-370,015	-107,202	0,105	0,017
-369,000	232,102	0,047	0,057
-367,985	718,354	-0,035	-0,069
-366,971	510,063	0,053	-0,090
-365,956	225,572	-0,045	-0,054
-364,942	194,586	0,058	0,065
-363,927	704,715	0,082	0,159
-362,912	-69,691	-0,108	0,030
-361,898	-12,705	0,083	-0,040
-360,883	-165,731	-0,196	-0,006
-359,869	-200,000	0,012	-0,044
-358,854	28,634	0,071	0,044
-357,839	-135,769	0,061	0,005
-356,825	196,856	-0,032	0,036
-355,810	-41,964	-0,056	-0,021
-354,796	35,924	0,050	-0,032
-353,781	-72,203	-0,040	0,011
-352,766	-96,704	-0,085	0,016
-351,752	-200,000	-0,003	-0,061
-350,737	-177,104	0,086	-0,002
-349,723	800,000	-0,020	0,064
-348,708	-52,037	-0,121	0,041
-347,693	83,422	0,056	0,045
-346,679	227,193	0,080	-0,095
-345,664	337,269	-0,016	0,023
-344,650	-200,000	-0,008	-0,069
-343,635	-161,454	0,076	0,003
-342,620	-200,000	0,014	0,073
-341,606	376,911	-0,050	0,075
-340,591	-2,014	0,127	-0,065
-339,577	23,499	-0,105	-0,063
-338,562	-163,674	-0,161	-0,005
-337,548	-53,452	-0,026	0,009
-336,533	504,424	-0,043	0,073
-335,518	147,271	0,109	0,107
-334,504	93,595	0,047	0,039
-333,489	-200,000	0,029	-0,155
-332,475	81,395	-0,074	-0,059
-331,460	-6,328	-0,081	0,040
-330,445	-9,883	-0,064	-0,031
-329,431	-200,000	-0,008	0,101
-328,416	-9,789	0,134	0,065
-327,402	-134,705	0,120	-0,010
-326,387	144,240	-0,040	0,039
-325,372	1,426	0,062	0,033
-324,358	800,000	0,036	0,100
-323,343	800,000	0,034	-0,109
-322,329	-200,000	-0,018	-0,124
-321,314	-200,000	0,005	0,164
-320,299	-200,000	-0,004	0,114
-319,285	-98,042	-0,046	0,009
-318,270	183,179	-0,025	-0,027
-317,256	-25,821	-0,023	0,010
-316,241	290,648	-0,107	-0,143
-315,226	-114,860	0,111	0,015
-314,212	-200,000	0,001	0,097
-313,197	-200,000	0,002	0,083
-312,183	-142,418	-0,112	-0,008
-311,168	111,051	0,063	-0,055
-310,153	-152,347	-0,176	-0,009
-309,139	-6,182	0,083	0,041
-308,124	800,000	0,026	-0,055
-307,110	-104,839	-0,126	-0,021
-306,095	-200,000	0,021	0,086
-305,080	-84,940	-0,058	-0,013
-304,066	-61,608	-0,165	0,050
-303,051	-89,086	-0,143	0,031
-302,037	-200,000	0,009	-0,148
-301,022	138,101	-0,038	-0,037
-300,008	800,000	0,007	0,015
-298,993	-51,429	-0,108	-0,037
-297,978	302,904	0,052	0,070
-296,964	-146,699	-0,162	-0,010
-295,949	-200,000	-0,014	-0,056
-294,935	-129,317	-0,084	0,008
-293,920	-171,146	0,057	0,001
-292,905	144,071	0,051	0,050
-291,891	83,819	0,094	-0,075
-290,876	66,070	0,061	0,045
-289,862	-88,276	-0,105	-0,023
-288,847	-72,831	0,157	-0,042
-287,832	-91,851	-0,202	-0,041
-286,818	146,210	-0,087	-0,085
-285,803	-200,000	-0,003	0,080
-284,789	-92,525	0,030	0,006
-283,774	-110,994	0,027	-0,004
-282,759	326,917	0,045	-0,064
-281,745	-25,621	0,033	-0,014
-280,730	188,106	-0,020	0,022
-279,716	-37,317	-0,023	0,009
-278,701	205,282	-0,082	0,093
-277,686	-33,600	0,143	0,058
-276,672	-181,086	-0,099	-0,001
-275,657	111,133	-0,020	0,018
-274,643	-200,000	-0,005	-0,065
-273,628	-200,000	-0,040	-0,182
-272,613	57,838	-0,038	-0,027
-271,599	-42,170	0,099	0,037
-270,584	375,130	-0,055	-0,083
-269,570	-200,000	0,011	0,148
-268,555	-200,000	-0,015	-0,133
-267,540	213,943	0,063	0,073
-266,526	-79,012	-0,087	0,021
-265,511	662,823	0,032	0,061
-264,497	374,424	0,096	0,143
-263,482	-178,053	-0,075	0,001
-262,467	171,549	0,027	0,028
-261,453	143,765	-0,038	0,037
-260,438	-200,000	-0,015	0,083
-259,424	232,948	0,074	0,089
-258,409	30,085	-0,066	-0,041
-257,395	106,383	0,027	-0,023
-256,380	28,304	0,067	0,041
-255,365	423,569	-0,049	-0,077
-254,351	-124,087	-0,044	0,005
-253,336	-200,000	-0,002	0,010
-252,322	81,894	-0,078	-0,061
-251,307	-49,043	-0,102	0,035
-250,292	-121,516	0,008	-0,001
-249,278	-200,000	-0,003	0,045
-248,263	800,000	0,040	-0,093
-247,249	-37,776	0,145	-0,056
-246,234	696,246	-0,040	-0,078
-245,219	-33,711	0,134	0,054
-244,205	61,678	0,083	-0,060
-243,190	417,454	-0,099	-0,154
-242,176	-200,000	0,012	-0,040
-241,161	-162,241	0,053	0,002
-240,146	6,526	0,035	-0,019
-239,132	-85,877	0,064	0,014
-238,117	256,910	-0,082	0,103
-237,103	290,477	-0,061	0,080
-236,088	179,750	0,019	0,020
-235,073	-80,893	0,022	-0,005
-234,059	-89,653	-0,070	-0,015
-233,044	-200,000	0,027	0,132
-232,030	-90,266	-0,113	-0,024
-231,015	800,000	0,007	-0,016
-230,000	-90,130	-0,203	-0,043
-228,986	-6,965	-0,015	-0,007
-227,971	-73,307	0,089	0,023
-226,957	-51,973	0,060	-0,020
-225,942	-200,000	-0,008	0,067
-224,927	-200,000	-0,012	-0,100
-223,913	8,772	0,090	-0,049
-222,898	0,462	0,096	-0,050
-221,884	-200,000	-0,023	0,082
-220,869	222,411	-0,026	0,030
-219,855	17,752	-0,082	-0,047
-218,840	192,537	0,017	-0,019
-217,825	-121,320	0,104	-0,012
-216,811	-86,438	0,035	-0,008
-215,796	-200,000	0,038	-0,209
-214,782	-200,000	0,030	-0,230
-213,767	253,428	0,116	0,145
-212,752	800,000	0,021	0,062
-211,738	-66,985	0,032	0,009
-210,723	-200,000	0,018	-0,061
-209,709	800,000	-0,041	0,094
-208,694	-147,951	-0,066	0,004
-207,679	-200,000	0,009	0,050
-206,665	-115,181	0,107	0,015
-205,650	234,534	0,095	0,114
-204,636	163,112	0,076	0,077
-203,621	-79,814	-0,129	-0,031
-202,606	27,502	-0,101	0,062
-201,592	-200,000	0,005	-0,057
-200,577	41,535	0,102	-0,067
-199,563	-141,246	0,137	0,010
-198,548	-116,341	0,120	0,016
-197,533	-56,112	0,087	0,028
-196,519	800,000	0,024	0,051
-195,504	-59,717	-0,113	0,035
-194,490	-101,956	0,059	0,010
-193,475	800,000	-0,003	-0,010
-192,460	-200,000	0,001	-0,081
-191,446	72,414	-0,046	0,035
-190,431	-67,870	0,069	-0,020
-189,417	-200,000	0,029	0,098
-188,402	-54,443	-0,073	-0,024
-187,387	-68,188	-0,112	0,032
-186,373	250,405	0,028	-0,035
-185,358	223,263	0,126	0,147
-184,344	-89,281	0,132	0,028
-183,329	-85,461	-0,091	0,020
-182,315	205,700	0,112	0,126
-181,300	800,000	-0,049	0,110
-180,285	337,090	-0,030	0,042
-179,271	-19,840	-0,076	0,034
-178,256	101,040	-0,076	-0,064
-177,242	-66,258	0,211	-0,061
-176,227	628,539	0,043	0,080
-175,212	35,068	-0,077	0,049
-174,198	387,276	-0,031	-0,047
-173,183	-15,148	0,118	-0,055
-172,169	-44,340	-0,132	0,048
-171,154	-29,468	0,145	0,060
-170,139	-73,021	-0,114	-0,030
-169,125	-51,502	0,064	-0,022
-168,110	-200,000	0,022	0,150
-167,096	61,549	0,065	0,047
-166,081	-200,000	0,001	-0,007
-165,066	33,699	0,047	0,030
-164,052	-82,359	-0,082	-0,019
-163,037	98,319	0,024	-0,020
-162,023	-200,000	0,007	0,027
-161,008	-200,000	0,004	0,016
-159,993	579,398	0,021	-0,037
-158,979	-74,680	-0,074	-0,019
-157,964	311,745	0,106	-0,145
-156,950	141,983	-0,086	0,083
-155,935	-200,000	-0,012	-0,050
-154,920	69,816	-0,005	0,004
-153,906	-156,689	0,034	0,001
-152,891	800,000	-0,036	-0,081
-151,877	-101,545	-0,171	0,030
-150,862	460,132	-0,036	-0,059
-149,847	-84,736	-0,130	-0,029
-148,833	800,000	-0,018	-0,043
-147,818	800,000	0,042	0,115
-146,804	-4,867	0,049	0,024
-145,789	-146,980	0,105	0,006
-144,775	375,715	0,050	-0,074
-143,760	70,332	-0,056	-0,042
-142,745	-200,000	-0,004	0,045
-141,731	-15,801	0,077	-0,035
-140,716	55,555	-0,005	-0,004
-139,702	-64,459	-0,065	0,019
-138,687	37,257	-0,077	0,049
-137,672	-153,761	-0,065	-0,003
-136,658	-134,253	-0,101	-0,009
-135,643	303,112	0,046	-0,062
-134,629	-144,277	-0,062	-0,004
-133,614	486,413	0,026	0,042
-132,599	-191,117	0,102	0,001
-131,585	-145,006	-0,137	0,009
-130,570	-200,000	0,032	0,118
-129,556	-56,379	0,075	0,024
-128,541	35,486	-0,149	-0,095
-127,526	800,000	0,033	-0,072
-126,512	-121,015	-0,027	-0,003
-125,497	-124,944	0,019	0,002
-124,483	66,882	-0,010	-0,008
-123,468	-106,914	-0,053	-0,008
-122,453	-200,000	0,004	-0,166
-121,439	590,507	0,031	0,056
-120,424	47,098	-0,120	0,081
-119,410	-200,000	-0,020	-0,072
