DTS Sentinel unit serial number:	SN410029Multiplexer serial number:	ORYXHardware model number:	OX2-SRSoftware version number:	ORYX F/W v4,00 Oryx Data Collector v3.7.2.0data status	okinstallation	B4 Nyhavnadifferential loss correction	single-endedforward channel	channel 2reverse channel	N/Adate	2023/12/19time	05:05:13forward acquisition time	300,00reverse acquisition time	0,00gamma	499,1914k internal	0,3127k external	0,3127temperature offset calibration	1,0000default loss term (dB/km)	0,3820temperature slope calibration	1,0000multiplexer offset coefficient	1,0000multiplexer slope coefficient	1,0000fibre end	0,00T internal ref (°C)	20,99T ext. ref 1 (°C)	6,16T ext. ref 2 (°C)	6,13length (m)	temperature (°C)	Stokes	anti-Stokes-744,400	383,668	-0,094	-0,145
-743,385	-8,727	-0,230	0,114
-742,371	414,161	0,086	0,137
-741,356	-47,833	-0,222	0,080
-740,342	-75,969	0,100	-0,026
-739,327	2,540	-0,363	0,195
-738,312	182,940	-0,048	-0,053
-737,298	-58,952	-0,262	-0,084
-736,283	223,630	-0,060	0,073
-735,269	-200,000	-0,061	0,268
-734,254	800,000	-0,027	-0,058
-733,239	-55,470	-0,323	-0,107
-732,225	-9,082	0,087	0,043
-731,210	80,057	-0,065	0,052
-730,196	339,265	-0,114	-0,165
-729,181	-34,828	0,073	0,030
-728,167	-46,212	0,115	0,042
-727,152	-200,000	-0,029	-0,114
-726,137	800,000	0,050	-0,142
-725,123	-200,000	-0,006	-0,144
-724,108	73,281	0,107	-0,083
-723,094	-200,000	0,000	-0,102
-722,079	229,863	-0,011	0,013
-721,064	127,871	-0,055	-0,052
-720,050	-200,000	-0,012	-0,120
-719,035	377,202	0,039	0,060
-718,021	5,704	-0,058	-0,032
-717,006	301,343	-0,084	-0,116
-715,991	220,839	0,077	-0,092
-714,977	-200,000	0,030	-0,104
-713,962	-165,473	-0,100	-0,003
-712,948	-162,471	0,073	-0,003
-711,933	800,000	-0,007	-0,024
-710,918	-200,000	0,013	-0,071
-709,904	27,925	-0,082	-0,051
-708,889	135,054	-0,076	-0,074
-707,875	800,000	-0,055	-0,119
-706,860	16,375	-0,020	0,012
-705,845	96,617	0,042	0,036
-704,831	575,975	0,013	-0,024
-703,816	185,597	0,141	0,155
-702,802	-200,000	-0,023	0,097
-701,787	-11,318	-0,065	-0,032
-700,772	-75,076	-0,047	0,012
-699,758	16,140	0,098	0,057
-698,743	-200,000	0,006	-0,061
-697,729	-104,538	-0,090	-0,015
-696,714	56,759	-0,070	0,050
-695,699	-111,774	0,064	-0,010
-694,685	27,680	-0,059	-0,037
-693,670	195,852	-0,056	-0,064
-692,656	381,360	-0,051	-0,078
-691,641	-66,950	0,070	0,020
-690,627	90,388	0,076	-0,063
-689,612	800,000	-0,050	0,126
-688,597	-200,000	0,008	0,142
-687,583	53,316	0,061	-0,044
-686,568	-200,000	0,004	-0,024
-685,554	311,241	-0,049	0,069
-684,539	-52,279	0,087	-0,030
-683,524	-103,855	0,025	-0,004
-682,510	-21,945	-0,059	0,026
-681,495	-170,108	-0,052	-0,001
-680,481	-82,328	-0,187	-0,045
-679,466	-200,000	0,016	-0,190
-678,451	-3,498	-0,039	-0,020
-677,437	198,826	0,078	-0,089
-676,422	170,896	0,072	0,077
-675,408	-47,917	0,043	-0,015
-674,393	116,486	-0,097	-0,089
-673,378	-60,864	0,033	-0,010
-672,364	800,000	-0,016	-0,037
-671,349	7,150	0,015	0,008
-670,335	-200,000	-0,031	0,129
-669,320	-52,772	0,050	-0,017
-668,305	39,621	0,133	-0,089
-667,291	148,623	-0,049	-0,050
-666,276	269,844	-0,013	0,017
-665,262	322,902	-0,068	0,096
-664,247	232,747	0,043	-0,052
-663,232	800,000	0,002	-0,005
-662,218	800,000	0,004	-0,009
-661,203	-155,656	-0,117	-0,005
-660,189	-200,000	0,023	0,124
-659,174	693,274	0,025	0,050
-658,159	-200,000	0,015	-0,082
-657,145	183,670	-0,062	-0,068
-656,130	600,704	0,056	-0,103
-655,116	-34,378	-0,107	0,043
-654,101	-60,790	-0,043	0,013
-653,086	76,955	-0,113	0,089
-652,072	-3,855	0,071	0,037
-651,057	294,633	-0,113	-0,154
-650,043	-36,686	0,102	0,040
-649,028	800,000	-0,024	-0,060
-648,014	140,365	0,048	0,047
-646,999	-42,533	-0,055	0,021
-645,984	57,091	-0,050	0,036
-644,970	-143,400	-0,146	0,010
-643,955	126,762	0,128	-0,120
-642,941	-126,914	0,069	0,007
-641,926	30,806	-0,110	-0,070
-640,911	157,208	0,055	0,056
-639,897	-200,000	0,029	0,184
-638,882	-200,000	-0,032	0,108
-637,868	35,958	-0,088	-0,057
-636,853	-200,000	-0,100	0,000
-635,838	157,192	0,069	0,071
-634,824	-200,000	-0,007	-0,092
-633,809	16,738	0,057	0,033
-632,795	464,055	0,018	0,031
-631,780	-60,689	0,139	0,043
-630,765	207,371	-0,060	0,070
-629,751	-200,000	0,002	0,067
-628,736	242,296	0,086	-0,107
-627,722	800,000	0,015	0,049
-626,707	-200,000	-0,009	-0,064
-625,692	27,755	0,056	-0,035
-624,678	-135,747	-0,024	-0,002
-623,663	297,207	-0,034	0,046
-622,649	800,000	0,012	0,029
-621,634	-200,000	-0,002	-0,152
-620,619	-200,000	0,020	-0,109
-619,605	-139,400	-0,018	-0,001
-618,590	93,066	0,081	0,068
-617,576	-25,357	0,088	-0,038
-616,561	-95,392	0,101	0,020
-615,546	-200,000	0,001	-0,114
-614,532	91,647	-0,146	-0,121
-613,517	-103,142	0,135	0,023
-612,503	160,910	-0,048	-0,049
-611,488	-34,328	0,119	0,048
-610,474	110,974	-0,113	0,101
-609,459	800,000	-0,017	-0,044
-608,444	351,472	0,032	0,046
-607,430	216,076	0,104	-0,123
-606,415	133,661	-0,079	-0,076
-605,401	-142,884	0,171	-0,012
-604,386	85,943	0,075	-0,061
-603,371	-200,000	-0,001	0,047
-602,357	-200,000	0,029	0,097
-601,342	-200,000	-0,006	-0,057
-600,328	-200,000	-0,017	-0,129
-599,313	-139,409	-0,115	-0,009
-598,298	-200,000	0,003	-0,085
-597,284	-8,133	-0,058	-0,029
-596,269	388,150	0,040	-0,061
-595,255	94,892	-0,090	0,076
-594,240	-107,601	-0,070	0,011
-593,225	157,395	-0,019	0,020
-592,211	350,717	-0,140	-0,205
-591,196	-139,974	-0,013	-0,001
-590,182	800,000	0,012	-0,040
-589,167	-41,263	0,043	-0,016
-588,152	322,056	0,014	0,019
-587,138	800,000	-0,033	0,077
-586,123	-49,463	0,096	0,034
-585,109	-200,000	0,001	-0,112
-584,094	37,270	0,066	0,043
-583,079	251,781	0,042	0,053
-582,065	800,000	0,050	-0,121
-581,050	-124,196	-0,106	-0,012
-580,036	121,587	-0,080	0,074
-579,021	800,000	0,020	-0,061
-578,006	-166,079	-0,114	-0,004
-576,992	361,672	-0,024	-0,036
-575,977	17,738	-0,036	0,021
-574,963	-139,511	0,131	0,010
-573,948	27,585	0,067	-0,041
-572,934	-97,929	0,055	0,010
-571,919	-86,048	-0,166	-0,038
-570,904	-113,311	0,122	-0,018
-569,890	133,362	0,031	-0,030
-568,875	-200,000	-0,029	-0,115
-567,861	800,000	0,047	0,147
-566,846	-81,046	0,042	-0,010
-565,831	-200,000	-0,011	0,065
-564,817	73,160	0,099	-0,077
-563,802	201,463	0,109	-0,124
-562,788	401,401	-0,042	-0,065
-561,773	262,917	-0,053	0,068
-560,758	155,495	0,045	0,046
-559,744	-167,909	-0,104	0,003
-558,729	-115,530	-0,100	0,014
-557,715	521,987	0,024	-0,042
-556,700	-200,000	-0,018	-0,092
-555,685	-25,642	-0,067	0,029
-554,671	-18,286	-0,121	0,056
-553,656	-111,306	-0,069	-0,010
-552,642	-22,163	0,087	0,039
-551,627	-200,000	0,007	0,114
-550,612	4,407	-0,074	-0,040
-549,598	-177,092	-0,063	-0,001
-548,583	-200,000	-0,033	-0,145
-547,569	800,000	0,046	-0,104
-546,554	61,340	0,034	-0,025
-545,539	-91,149	0,087	0,018
-544,525	385,261	0,085	0,130
-543,510	-130,423	0,022	-0,002
-542,496	-119,981	0,186	-0,023
-541,481	-62,390	-0,048	-0,015
-540,466	314,620	0,026	0,036
-539,452	-86,151	0,164	0,037
-538,437	-200,000	-0,006	0,039
-537,423	-154,061	0,154	0,008
-536,408	140,618	0,002	-0,002
-535,393	-200,000	-0,012	-0,072
-534,379	-200,000	-0,045	-0,165
-533,364	-200,000	0,002	0,025
-532,350	6,838	-0,043	0,023
-531,335	800,000	-0,014	-0,040
-530,321	116,884	0,065	0,059
-529,306	-154,728	0,073	-0,004
-528,291	800,000	-0,024	-0,055
-527,277	-115,351	-0,167	0,023
-526,262	-37,321	0,161	0,063
-525,248	-31,764	-0,153	-0,063
-524,233	75,412	0,080	0,062
-523,218	-44,134	0,062	-0,023
-522,204	-25,854	-0,039	0,017
-521,189	-200,000	-0,006	0,058
-520,175	242,411	0,051	-0,063
-519,160	-195,811	0,075	-0,000
-518,145	781,679	0,032	0,065
-517,131	354,972	-0,038	-0,055
-516,116	57,809	-0,063	-0,045
-515,102	800,000	0,055	0,116
-514,087	-107,174	-0,056	-0,009
-513,072	87,855	-0,016	-0,013
-512,058	76,273	0,076	0,060
-511,043	2,260	-0,039	0,021
-510,029	97,197	-0,105	0,089
-509,014	43,920	0,109	0,074
-507,999	-120,949	-0,063	0,008
-506,985	800,000	-0,079	-0,189
-505,970	529,905	-0,045	0,078
-504,956	95,239	-0,048	-0,040
-503,941	28,724	-0,086	0,053
-502,926	800,000	-0,044	0,103
-501,912	-58,045	0,061	0,020
-500,897	-200,000	0,002	0,050
-499,883	-200,000	-0,019	0,085
-498,868	-200,000	0,009	-0,052
-497,853	-200,000	0,025	0,087
-496,839	-27,308	0,126	0,054
-495,824	519,493	0,049	0,085
-494,810	-16,922	0,159	0,074
-493,795	800,000	0,066	0,167
-492,781	-200,000	0,006	0,115
-491,766	691,288	-0,026	0,051
-490,751	295,190	-0,083	-0,113
-489,737	324,089	-0,056	-0,078
-488,722	-200,000	0,018	0,069
-487,708	-200,000	0,026	0,130
-486,693	-11,333	-0,059	0,029
-485,678	266,244	0,024	0,031
-484,664	-200,000	0,002	-0,045
-483,649	-200,000	0,004	0,054
-482,635	800,000	-0,017	0,038
-481,620	430,815	0,100	0,160
-480,605	-200,000	0,007	-0,097
-479,591	238,006	-0,041	-0,051
-478,576	573,713	-0,011	-0,020
-477,562	-200,000	-0,007	-0,038
-476,547	-200,000	-0,002	0,035
-475,532	85,542	-0,026	0,021
-474,518	299,773	-0,033	0,045
-473,503	157,932	0,053	0,054
-472,489	168,670	-0,014	-0,015
-471,474	301,007	0,058	0,079
-470,459	-193,474	-0,132	-0,001
-469,445	382,887	0,031	-0,047
-468,430	-200,000	0,007	0,180
-467,416	651,695	0,028	0,053
-466,401	-15,976	0,199	0,093
-465,386	-60,024	0,069	0,022
-464,372	-200,000	0,029	0,109
-463,357	-20,036	-0,111	0,050
-462,343	402,750	-0,120	-0,187
-461,328	800,000	0,049	-0,124
-460,313	800,000	-0,025	-0,052
-459,299	-5,846	-0,064	-0,032
-458,284	-91,767	0,146	-0,030
-457,270	-109,224	0,190	0,029
-456,255	39,836	-0,072	-0,048
-455,241	64,209	-0,163	-0,121
-454,226	52,896	-0,116	-0,082
-453,211	-80,983	0,068	-0,016
-452,197	-56,712	-0,099	-0,032
-451,182	-23,469	0,166	-0,073
-450,168	800,000	-0,013	-0,038
-449,153	-1,482	-0,080	-0,041
-448,138	-200,000	0,005	-0,027
-447,124	-200,000	0,007	-0,063
-446,109	-200,000	0,014	0,129
-445,095	-128,262	0,042	-0,004
-444,080	340,041	0,085	0,122
-443,065	-200,000	-0,011	0,094
-442,051	159,110	-0,103	-0,106
-441,036	6,670	-0,085	-0,046
-440,022	127,202	-0,058	-0,054
-439,007	800,000	0,048	-0,137
-437,992	-200,000	-0,005	-0,080
-436,978	-91,495	0,092	-0,019
-435,963	-181,215	0,034	-0,000
-434,949	-200,000	-0,007	0,062
-433,934	-0,088	0,135	-0,071
-432,919	53,198	0,009	0,006
-431,905	800,000	0,034	-0,085
-430,890	-200,000	-0,016	0,056
-429,876	800,000	-0,016	0,049
-428,861	186,906	-0,027	-0,030
-427,846	741,637	0,027	0,053
-426,832	250,388	0,090	-0,113
-425,817	-93,183	0,030	-0,006
-424,803	-200,000	-0,003	-0,184
-423,788	105,745	0,096	0,083
-422,773	-2,163	0,039	0,020
-421,759	38,974	0,075	-0,049
-420,744	800,000	0,056	-0,130
-419,730	318,999	0,041	-0,058
-418,715	-39,001	0,116	-0,045
-417,701	-106,091	-0,121	0,020
-416,686	141,653	-0,024	-0,023
-415,671	800,000	0,029	0,083
-414,657	714,126	0,049	-0,096
-413,642	222,701	-0,099	0,118
-412,628	228,867	-0,059	-0,071
-411,613	210,294	-0,063	-0,073
-410,598	-177,099	-0,026	-0,000
-409,584	64,921	-0,085	0,063
-408,569	662,474	0,016	0,030
-407,555	-200,000	-0,002	-0,054
-406,540	-84,172	-0,118	0,027
-405,525	-200,000	-0,012	-0,050
-404,511	-51,941	-0,178	-0,060
-403,496	-19,036	0,165	0,075
-402,482	541,176	-0,033	-0,058
-401,467	580,761	0,013	0,024
-400,452	-62,173	0,097	0,030
-399,438	168,268	0,063	0,066
-398,423	-93,659	-0,087	-0,017
-397,409	66,235	0,040	0,030
-396,394	-105,642	-0,080	-0,013
-395,379	-144,902	-0,079	-0,005
-394,365	800,000	0,055	-0,135
-393,350	-68,050	-0,069	-0,019
-392,336	800,000	0,033	-0,099
-391,321	-200,000	0,006	0,042
-390,306	-27,576	0,101	-0,043
-389,292	-111,027	0,083	-0,012
-388,277	210,005	-0,025	-0,029
-387,263	594,686	0,063	0,116
-386,248	3,222	-0,163	0,087
-385,233	57,626	-0,120	0,086
-384,219	800,000	0,016	0,050
-383,204	800,000	-0,032	-0,086
-382,190	14,449	-0,035	0,020
-381,175	-19,872	0,109	-0,049
-380,160	-37,891	0,081	0,031
-379,146	-200,000	0,009	0,128
-378,131	-200,000	0,013	0,098
-377,117	800,000	-0,053	0,129
-376,102	800,000	-0,058	-0,151
-375,088	800,000	-0,043	0,097
-374,073	-200,000	-0,000	0,010
-373,058	-106,599	0,094	-0,015
-372,044	-168,144	-0,095	0,003
-371,029	465,250	0,074	0,122
-370,015	51,549	-0,090	-0,063
-369,000	-200,000	-0,003	-0,109
-367,985	-27,874	-0,041	0,017
-366,971	372,814	-0,023	0,035
-365,956	403,031	-0,035	-0,055
-364,942	-56,495	0,028	0,009
-363,927	-59,145	0,200	0,063
-362,912	-26,647	0,136	0,058
-361,898	-200,000	-0,004	0,051
-360,883	67,121	-0,089	-0,067
-359,869	476,640	-0,065	0,109
-358,854	-64,655	-0,055	-0,016
-357,839	33,698	0,074	0,047
-356,825	-17,452	0,092	0,042
-355,810	-130,333	-0,123	0,012
-354,796	-200,000	-0,006	0,034
-353,781	-182,179	-0,085	0,001
-352,766	446,783	0,057	-0,092
-351,752	7,682	0,078	0,043
-350,737	-200,000	-0,004	0,032
-349,723	144,454	0,081	-0,080
-348,708	39,965	0,017	-0,011
-347,693	-200,000	-0,021	0,148
-346,679	348,225	0,066	0,096
-345,664	-200,000	-0,003	0,063
-344,650	80,741	-0,069	-0,054
-343,635	669,272	-0,029	-0,056
-342,620	-130,344	-0,038	-0,004
-341,606	-200,000	0,006	-0,032
-340,591	22,251	0,097	0,058
-339,577	-171,666	0,047	-0,001
-338,562	677,062	-0,073	-0,139
-337,548	28,496	-0,113	0,070
-336,533	261,656	-0,068	0,087
-335,518	75,405	0,063	0,049
-334,504	-200,000	-0,020	-0,069
-333,489	31,356	-0,035	-0,022
-332,475	510,647	0,035	0,060
-331,460	-22,940	0,180	0,079
-330,445	800,000	0,041	-0,092
-329,431	563,016	-0,054	-0,096
-328,416	-66,937	-0,022	0,006
-327,402	-94,678	0,117	0,023
-326,387	77,032	0,141	-0,110
-325,372	52,465	-0,016	-0,011
-324,358	-48,094	0,088	0,031
-323,343	30,871	-0,088	-0,055
-322,329	-200,000	-0,018	0,093
-321,314	713,413	-0,059	0,115
-320,299	223,596	0,023	-0,027
-319,285	-200,000	-0,016	-0,059
-318,270	144,350	-0,090	-0,088
-317,256	-69,503	-0,087	0,024
-316,241	800,000	-0,050	-0,161
-315,226	224,520	-0,047	0,056
-314,212	92,228	0,113	0,093
-313,197	18,452	0,158	0,092
-312,183	188,077	0,029	0,032
-311,168	139,780	-0,076	-0,073
-310,153	800,000	-0,058	-0,165
-309,139	568,608	-0,059	0,105
-308,124	-136,010	0,152	0,013
-307,110	-63,242	-0,070	0,021
-306,095	800,000	0,056	0,134
-305,080	-53,791	-0,075	-0,025
-304,066	-200,000	-0,001	0,076
-303,051	178,381	0,032	0,034
-302,037	-75,284	-0,147	-0,038
-301,022	38,212	0,051	-0,033
-300,008	92,443	0,109	0,090
-298,993	10,886	-0,052	-0,029
-297,978	-3,847	0,070	0,035
-296,964	-18,339	0,069	0,031
-295,949	800,000	0,039	-0,103
-294,935	-200,000	0,013	-0,080
-293,920	29,683	0,123	-0,077
-292,905	-81,394	-0,147	-0,035
-291,891	-150,863	0,181	-0,010
-290,876	-155,810	-0,032	-0,001
-289,862	-200,000	-0,001	-0,089
-288,847	-200,000	-0,000	-0,061
-287,832	-39,121	-0,048	0,018
-286,818	-14,745	0,148	-0,069
-285,803	800,000	-0,025	0,053
-284,789	372,970	-0,088	-0,131
-283,774	-111,144	0,141	-0,021
-282,759	-52,943	-0,061	-0,020
-281,745	-91,192	-0,021	0,004
-280,730	-200,000	-0,029	-0,109
-279,716	-100,257	-0,086	-0,015
-278,701	72,197	-0,041	0,031
-277,686	-45,722	0,064	-0,023
-276,672	-200,000	-0,006	0,058
-275,657	800,000	-0,065	-0,206
-274,643	800,000	-0,068	-0,159
-273,628	-4,653	-0,038	0,019
-272,613	343,858	0,051	-0,074
-271,599	166,014	-0,059	0,061
-270,584	800,000	-0,022	0,071
-269,570	800,000	0,054	0,119
-268,555	800,000	0,015	0,046
-267,540	800,000	-0,037	-0,103
-266,526	25,987	0,025	-0,015
-265,511	-200,000	0,003	-0,017
-264,497	-65,894	0,053	0,016
-263,482	-200,000	0,001	-0,027
-262,467	40,764	0,032	0,021
-261,453	-110,192	0,137	0,021
-260,438	145,292	-0,043	0,042
-259,424	237,694	-0,082	-0,100
-258,409	-119,104	-0,076	-0,010
-257,395	-93,920	-0,083	0,017
-256,380	-7,991	-0,088	0,043
-255,365	630,116	0,006	0,012
-254,351	-200,000	-0,023	0,224
-253,336	-200,000	0,040	-0,139
-252,322	226,801	-0,159	0,189
-251,307	-200,000	-0,010	-0,135
-250,292	78,109	-0,031	-0,024
-249,278	-116,958	0,094	-0,012
-248,263	319,060	-0,067	0,093
-247,249	72,913	-0,046	-0,035
-246,234	-71,329	-0,070	-0,019
-245,219	-6,373	0,057	-0,028
-244,205	51,020	-0,056	-0,039
-243,190	50,261	0,048	-0,033
-242,176	-15,711	0,067	-0,031
-241,161	102,887	-0,045	0,038
-240,146	15,017	-0,003	0,002
-239,132	257,935	-0,094	-0,118
-238,117	-99,791	0,050	0,009
-237,103	-200,000	0,013	-0,140
-236,088	-43,622	-0,102	0,037
-235,073	-200,000	0,018	0,132
-234,059	-200,000	-0,021	0,148
-233,044	-200,000	0,006	0,051
-232,030	271,179	-0,057	-0,074
-231,015	-57,482	-0,142	-0,045
-230,000	800,000	-0,038	-0,096
-228,986	-167,264	-0,050	0,001
-227,971	-88,909	0,082	-0,018
-226,957	-2,960	0,077	-0,039
-225,942	-200,000	0,005	0,146
-224,927	16,424	-0,125	0,072
-223,913	19,664	0,016	0,009
-222,898	-35,367	0,068	0,027
-221,884	32,393	-0,050	-0,032
-220,869	350,328	0,079	0,114
-219,855	-200,000	-0,005	0,061
-218,840	688,103	-0,071	0,136
-217,825	-58,052	-0,038	-0,012
-216,811	-99,509	-0,151	-0,027
-215,796	-176,743	0,075	0,001
-214,782	-25,912	0,080	-0,034
-213,767	-51,874	0,107	0,036
-212,752	157,147	0,110	0,111
-211,738	800,000	-0,037	-0,085
-210,723	144,478	0,107	0,104
-209,709	800,000	-0,070	0,214
-208,694	-159,689	-0,116	0,005
-207,679	-200,000	-0,019	-0,105
-206,665	-8,231	0,094	0,046
-205,650	-198,497	0,124	0,000
-204,636	661,607	0,076	0,143
-203,621	-54,177	-0,071	-0,023
-202,606	20,100	-0,135	0,079
-201,592	-39,420	-0,077	-0,029
-200,577	-200,000	0,016	0,060
-199,563	-91,508	-0,028	-0,006
-198,548	-111,443	0,028	0,004
-197,533	-11,828	0,086	0,041
-196,519	275,049	-0,080	0,103
-195,504	545,984	-0,043	-0,074
-194,490	172,623	-0,055	-0,058
-193,475	593,010	0,036	-0,064
-192,460	-200,000	0,013	-0,105
-191,446	317,913	0,062	0,085
-190,431	-76,687	0,016	-0,004
-189,417	-90,236	0,072	-0,015
-188,402	62,585	-0,064	0,046
-187,387	800,000	-0,032	-0,099
-186,373	126,789	0,029	-0,027
-185,358	758,866	-0,055	-0,110
-184,344	42,031	-0,082	0,054
-183,329	-92,039	-0,045	-0,009
-182,315	-131,938	0,048	-0,004
-181,300	800,000	-0,058	-0,125
-180,285	203,553	0,107	0,121
-179,271	-200,000	-0,014	-0,076
-178,256	-200,000	-0,001	-0,027
-177,242	20,631	-0,006	-0,003
-176,227	-200,000	-0,020	0,075
-175,212	-200,000	-0,019	0,173
-174,198	397,990	-0,041	-0,063
-173,183	171,533	0,006	0,007
-172,169	-200,000	0,006	-0,234
-171,154	59,764	-0,040	0,029
-170,139	-9,387	-0,114	0,055
-169,125	65,899	0,102	0,076
-168,110	-200,000	-0,042	0,149
-167,096	7,700	-0,166	0,090
-166,081	187,263	0,075	-0,082
-165,066	-39,587	-0,057	0,022
-164,052	-200,000	-0,026	-0,116
-163,037	800,000	-0,083	0,168
-162,023	-200,000	-0,020	0,102
-161,008	-70,295	0,055	-0,015
-159,993	-140,458	-0,147	0,011
-158,979	85,273	0,050	-0,040
-157,964	-103,540	-0,159	-0,027
-156,950	306,513	0,086	-0,117
-155,935	448,564	0,035	0,056
-154,920	-200,000	-0,004	-0,061
-153,906	-200,000	0,004	-0,064
-152,891	-55,178	-0,066	-0,022
-151,877	412,153	-0,049	-0,075
-150,862	53,032	0,050	-0,035
-149,847	26,991	-0,057	-0,035
-148,833	-32,654	-0,027	-0,011
-147,818	-0,241	0,073	-0,038
-146,804	-200,000	0,006	0,059
-145,789	231,889	0,051	-0,061
-144,775	-200,000	-0,032	0,112
-143,760	-83,398	0,032	-0,007
-142,745	-200,000	-0,002	-0,037
-141,731	298,349	0,073	-0,098
-140,716	413,756	0,033	0,051
-139,702	-134,490	-0,153	-0,013
-138,687	200,718	0,082	0,092
-137,672	-172,522	-0,093	0,002
-136,658	86,834	0,044	0,036
-135,643	512,747	-0,052	-0,088
-134,629	-200,000	0,016	0,113
-133,614	-12,708	0,066	-0,031
-132,599	-200,000	0,048	0,000
-131,585	-8,936	0,051	-0,025
-130,570	800,000	0,013	-0,040
-129,556	800,000	-0,044	0,108
-128,541	325,482	0,071	0,099
-127,526	-38,287	0,034	0,013
-126,512	370,527	-0,008	0,011
-125,497	62,391	-0,101	0,073
-124,483	-134,965	0,062	0,005
-123,468	-119,174	-0,115	-0,014
-122,453	-200,000	-0,005	0,030
-121,439	800,000	-0,022	0,066
-120,424	800,000	-0,042	-0,093
-119,410	-112,966	-0,092	-0,013
