DTS Sentinel unit serial number:	SN410029Multiplexer serial number:	ORYXHardware model number:	OX2-SRSoftware version number:	ORYX F/W v4,00 Oryx Data Collector v3.7.2.0data status	okinstallation	B4 Nyhavnadifferential loss correction	single-endedforward channel	channel 2reverse channel	N/Adate	2023/12/15time	16:35:13forward acquisition time	300,00reverse acquisition time	0,00gamma	499,1914k internal	0,3145k external	0,3145temperature offset calibration	1,0000default loss term (dB/km)	0,3820temperature slope calibration	1,0000multiplexer offset coefficient	1,0000multiplexer slope coefficient	1,0000fibre end	0,00T internal ref (°C)	17,57T ext. ref 1 (°C)	3,52T ext. ref 2 (°C)	3,67length (m)	temperature (°C)	Stokes	anti-Stokes-744,400	174,642	0,161	0,173
-743,385	-114,103	-0,295	0,042
-742,371	324,951	0,054	0,076
-741,356	-149,849	-0,330	0,019
-740,342	-14,018	0,144	-0,068
-739,327	-55,292	-0,170	0,056
-738,312	800,000	0,048	-0,131
-737,298	-156,854	-0,318	0,014
-736,283	195,774	0,156	-0,176
-735,269	-177,693	-0,232	-0,004
-734,254	800,000	-0,024	0,073
-733,239	-124,897	-0,491	-0,055
-732,225	800,000	0,027	0,066
-731,210	619,250	0,047	0,087
-730,196	-143,081	0,057	-0,004
-729,181	-182,679	0,028	0,000
-728,167	71,441	-0,067	-0,051
-727,152	142,888	-0,075	-0,074
-726,137	800,000	0,048	0,136
-725,123	136,322	-0,121	-0,117
-724,108	191,144	-0,111	-0,123
-723,094	9,973	-0,154	-0,086
-722,079	-19,738	-0,050	-0,023
-721,064	27,849	-0,113	0,071
-720,050	-1,707	0,067	0,035
-719,035	-106,824	-0,122	0,020
-718,021	362,615	-0,030	-0,044
-717,006	800,000	-0,056	-0,116
-715,991	-200,000	-0,006	-0,132
-714,977	384,125	-0,031	0,047
-713,962	800,000	0,004	-0,010
-712,948	800,000	0,061	-0,129
-711,933	-21,003	0,027	0,012
-710,918	-75,145	-0,066	0,017
-709,904	117,379	-0,063	-0,057
-708,889	19,431	-0,114	0,068
-707,875	615,499	-0,070	0,131
-706,860	-55,254	-0,126	-0,042
-705,845	-111,066	-0,040	-0,006
-704,831	28,002	-0,035	0,022
-703,816	-48,002	0,057	-0,020
-702,802	-95,937	-0,097	-0,019
-701,787	218,246	-0,114	-0,135
-700,772	-31,902	0,020	-0,008
-699,758	95,132	-0,055	-0,046
-698,743	138,699	0,074	0,072
-697,729	84,627	0,038	0,031
-696,714	133,585	0,007	0,007
-695,699	-37,744	0,003	-0,001
-694,685	200,740	-0,037	-0,042
-693,670	196,307	-0,097	-0,109
-692,656	147,582	0,075	-0,075
-691,641	-90,060	-0,101	-0,021
-690,627	-15,212	0,045	-0,021
-689,612	54,626	-0,045	-0,032
-688,597	325,685	0,031	0,044
-687,583	800,000	0,047	-0,121
-686,568	195,233	-0,088	-0,099
-685,554	619,564	0,032	0,060
-684,539	-200,000	-0,009	-0,063
-683,524	387,681	-0,055	-0,085
-682,510	-44,854	0,164	-0,060
-681,495	800,000	-0,020	0,059
-680,481	144,696	0,051	0,050
-679,466	-90,439	-0,067	-0,014
-678,451	-200,000	0,013	-0,052
-677,437	280,499	-0,068	-0,089
-676,422	370,876	-0,037	-0,056
-675,408	-200,000	0,012	-0,049
-674,393	-131,347	-0,024	-0,002
-673,378	800,000	0,064	-0,145
-672,364	-104,802	-0,090	-0,015
-671,349	-32,530	-0,115	0,047
-670,335	800,000	0,015	-0,031
-669,320	-123,863	-0,028	0,003
-668,305	800,000	0,019	-0,057
-667,291	-13,570	0,071	0,034
-666,276	316,044	-0,077	-0,107
-665,262	43,832	-0,065	-0,044
-664,247	-147,643	-0,125	0,008
-663,232	800,000	0,043	-0,112
-662,218	352,346	-0,047	0,069
-661,203	52,799	-0,058	-0,041
-660,189	49,795	-0,072	-0,050
-659,174	800,000	0,050	0,160
-658,159	-62,090	-0,149	0,046
-657,145	83,436	0,050	-0,040
-656,130	-70,579	-0,013	0,004
-655,116	320,808	0,071	0,100
-654,101	-78,730	-0,097	-0,024
-653,086	9,844	-0,073	0,041
-652,072	-11,180	-0,184	0,089
-651,057	-63,198	-0,167	-0,051
-650,043	-117,017	-0,058	-0,008
-649,028	-200,000	-0,018	0,064
-648,014	-49,079	-0,059	0,021
-646,999	-49,918	-0,108	-0,038
-645,984	800,000	0,050	-0,106
-644,970	589,292	-0,040	0,073
-643,955	-29,158	-0,094	0,040
-642,941	217,845	-0,053	-0,062
-641,926	-108,586	-0,166	0,026
-640,911	-142,523	-0,118	0,008
-639,897	-99,669	-0,046	0,008
-638,882	-78,998	-0,125	0,031
-637,868	38,822	-0,112	-0,073
-636,853	-158,042	-0,129	-0,005
-635,838	-200,000	-0,030	-0,225
-634,824	333,885	0,053	0,075
-633,809	-136,511	-0,042	0,004
-632,795	-67,108	0,067	-0,019
-631,780	132,091	-0,062	-0,059
-630,765	-73,250	-0,107	-0,029
-629,751	483,614	0,088	-0,148
-628,736	39,943	-0,054	0,035
-627,722	249,179	-0,054	0,067
-626,707	-42,425	-0,119	-0,044
-625,692	394,326	0,052	0,080
-624,678	-36,746	-0,090	-0,035
-623,663	-151,185	0,118	0,006
-622,649	391,246	0,011	0,017
-621,634	1,550	0,084	0,044
-620,619	800,000	-0,014	-0,040
-619,605	139,500	-0,023	0,022
-618,590	-200,000	0,025	-0,123
-617,576	243,635	0,087	-0,108
-616,561	396,027	-0,104	-0,160
-615,546	800,000	-0,029	0,064
-614,532	103,314	-0,092	-0,080
-613,517	-200,000	0,022	0,097
-612,503	-52,345	-0,107	-0,036
-611,488	746,993	0,039	0,078
-610,474	-200,000	0,007	0,104
-609,459	264,593	-0,043	0,056
-608,444	183,120	-0,014	0,015
-607,430	-57,724	-0,090	0,029
-606,415	-200,000	-0,036	-0,119
-605,401	25,590	-0,114	0,070
-604,386	177,727	0,078	-0,083
-603,371	514,994	-0,047	0,081
-602,357	-200,000	0,039	-0,202
-601,342	-113,502	-0,085	-0,012
-600,328	800,000	-0,076	-0,179
-599,313	33,269	-0,018	-0,011
-598,298	-15,650	-0,145	-0,068
-597,284	-48,640	0,106	-0,037
-596,269	-119,874	0,068	-0,009
-595,255	71,217	0,063	0,048
-594,240	800,000	-0,043	-0,098
-593,225	71,008	-0,078	-0,059
-592,211	522,632	0,017	0,030
-591,196	57,447	-0,056	-0,040
-590,182	46,566	-0,036	0,024
-589,167	403,229	0,075	0,116
-588,152	-200,000	0,026	-0,100
-587,138	800,000	-0,042	0,107
-586,123	-200,000	0,009	-0,043
-585,109	177,350	-0,035	0,038
-584,094	31,265	-0,068	-0,043
-583,079	419,207	0,024	-0,039
-582,065	800,000	0,061	0,150
-581,050	-200,000	-0,027	0,094
-580,036	33,609	0,063	-0,040
-579,021	-101,048	0,014	-0,002
-578,006	-200,000	0,008	-0,042
-576,992	181,051	-0,085	-0,093
-575,977	-12,474	0,139	0,066
-574,963	-88,288	0,185	-0,040
-573,948	17,491	-0,159	0,093
-572,934	105,810	0,060	-0,052
-571,919	-124,084	-0,079	0,009
-570,904	800,000	0,031	-0,094
-569,890	238,794	0,049	0,060
-568,875	-25,424	0,040	0,017
-567,861	61,047	0,051	-0,037
-566,846	-26,180	0,161	0,069
-565,831	11,680	0,088	-0,050
-564,817	-200,000	0,019	-0,084
-563,802	555,979	-0,054	-0,096
-562,788	324,636	-0,025	-0,035
-561,773	98,000	0,114	0,096
-560,758	-28,466	0,107	-0,045
-559,744	-200,000	-0,020	-0,066
-558,729	314,033	-0,112	0,156
-557,715	445,749	0,028	-0,045
-556,700	-6,638	0,020	0,010
-555,685	800,000	0,028	0,057
-554,671	191,906	-0,127	0,141
-553,656	-13,903	-0,067	0,032
-552,642	800,000	0,056	0,119
-551,627	-101,947	-0,153	0,027
-550,612	-178,539	0,100	0,002
-549,598	-200,000	0,000	-0,047
-548,583	157,166	-0,019	-0,019
-547,569	-8,463	-0,026	-0,013
-546,554	116,824	0,044	-0,039
-545,539	125,939	-0,060	0,055
-544,525	-200,000	0,006	0,027
-543,510	800,000	-0,054	0,138
-542,496	22,495	-0,131	-0,079
-541,481	367,541	0,055	-0,082
-540,466	562,520	0,083	-0,148
-539,452	-200,000	0,014	0,067
-538,437	44,657	0,123	0,083
-537,423	800,000	-0,044	0,109
-536,408	-57,564	-0,073	-0,023
-535,393	237,222	-0,037	-0,045
-534,379	800,000	0,064	-0,136
-533,364	800,000	0,057	-0,133
-532,350	-200,000	-0,001	0,047
-531,335	39,540	-0,091	0,060
-530,321	100,030	-0,026	-0,022
-529,306	800,000	0,031	0,069
-528,291	-75,964	-0,134	-0,035
-527,277	446,285	-0,035	-0,057
-526,262	-23,548	0,096	-0,042
-525,248	309,493	0,034	0,047
-524,233	168,565	0,136	0,143
-523,218	-20,262	-0,022	0,010
-522,204	98,653	-0,081	-0,068
-521,189	-31,025	-0,213	-0,088
-520,175	-13,253	0,097	-0,046
-519,160	-30,717	-0,070	0,029
-518,145	800,000	0,026	-0,057
-517,131	800,000	-0,037	0,114
-516,116	-47,587	0,016	-0,006
-515,102	20,308	-0,035	-0,021
-514,087	93,286	-0,055	0,046
-513,072	344,930	-0,055	0,079
-512,058	665,385	0,037	-0,070
-511,043	388,577	0,025	0,039
-510,029	103,087	0,053	-0,045
-509,014	-161,841	0,032	-0,001
-507,999	215,872	0,056	0,066
-506,985	-200,000	0,004	0,048
-505,970	84,616	0,030	-0,024
-504,956	644,337	-0,019	-0,036
-503,941	-200,000	-0,027	-0,097
-502,926	463,181	0,038	0,062
-501,912	-159,176	0,102	0,004
-500,897	-20,809	-0,016	0,007
-499,883	-200,000	-0,027	0,136
-498,868	-87,446	-0,173	0,038
-497,853	800,000	0,026	-0,053
-496,839	-84,679	-0,039	-0,009
-495,824	-35,423	-0,093	0,037
-494,810	800,000	-0,015	0,041
-493,795	724,250	-0,025	-0,049
-492,781	179,612	0,053	-0,057
-491,766	800,000	-0,054	-0,116
-490,751	-200,000	-0,024	-0,102
-489,737	239,074	-0,076	-0,093
-488,722	-6,947	-0,096	-0,048
-487,708	-17,175	-0,079	0,036
-486,693	-200,000	0,000	0,049
-485,678	800,000	-0,006	-0,015
-484,664	38,879	-0,173	-0,113
-483,649	-200,000	-0,017	-0,115
-482,635	544,211	0,026	0,046
-481,620	800,000	0,030	0,067
-480,605	-35,165	0,116	0,046
-479,591	127,926	-0,042	0,039
-478,576	-200,000	0,006	0,027
-477,562	-200,000	0,019	-0,165
-476,547	-200,000	0,012	-0,094
-475,532	800,000	0,012	-0,032
-474,518	101,727	0,041	-0,035
-473,503	223,323	0,074	0,088
-472,489	7,749	0,080	0,044
-471,474	151,542	-0,078	0,078
-470,459	-29,938	0,032	0,013
-469,445	-97,333	-0,061	-0,012
-468,430	-200,000	0,045	0,222
-467,416	6,267	0,040	-0,022
-466,401	-200,000	0,009	-0,142
-465,386	285,972	0,089	-0,117
-464,372	41,098	0,052	-0,034
-463,357	-1,995	-0,022	0,011
-462,343	-200,000	-0,038	0,193
-461,328	-20,571	-0,072	0,032
-460,313	-200,000	-0,027	-0,134
-459,299	654,465	-0,011	-0,021
-458,284	-200,000	0,054	0,223
-457,270	273,682	0,005	-0,006
-456,255	-166,943	-0,161	-0,005
-455,241	296,143	-0,060	-0,081
-454,226	235,726	-0,027	0,033
-453,211	253,760	0,050	0,063
-452,197	18,981	0,102	0,060
-451,182	800,000	0,001	-0,004
-450,168	173,789	-0,080	0,084
-449,153	117,598	0,064	0,058
-448,138	362,979	-0,017	-0,025
-447,124	-145,440	0,039	0,003
-446,109	800,000	-0,008	-0,026
-445,095	93,092	-0,051	0,042
-444,080	-5,976	0,135	0,068
-443,065	800,000	-0,042	0,108
-442,051	467,233	0,043	0,071
-441,036	581,856	-0,057	0,103
-440,022	330,879	0,133	-0,188
-439,007	-66,949	0,200	0,057
-437,992	50,088	0,056	0,039
-436,978	-28,363	0,175	-0,073
-435,963	196,982	0,056	-0,062
-434,949	236,364	0,010	-0,012
-433,934	-112,000	0,098	-0,014
-432,919	800,000	-0,018	-0,056
-431,905	91,717	-0,108	0,089
-430,890	-200,000	0,014	-0,085
-429,876	-200,000	0,005	-0,113
-428,861	800,000	0,052	0,153
-427,846	137,045	0,036	-0,034
-426,832	-200,000	0,015	-0,068
-425,817	-129,896	-0,168	0,017
-424,803	611,009	-0,085	-0,156
-423,788	-200,000	-0,026	-0,088
-422,773	-200,000	0,006	0,043
-421,759	-147,664	0,095	-0,006
-420,744	-200,000	0,017	0,113
-419,730	800,000	0,034	-0,091
-418,715	232,853	-0,076	-0,092
-417,701	623,906	-0,030	0,056
-416,686	-200,000	-0,000	0,219
-415,671	-123,356	0,119	-0,014
-414,657	158,752	-0,019	0,019
-413,642	-200,000	-0,112	-0,000
-412,628	-44,471	0,043	0,015
-411,613	183,650	-0,076	-0,082
-410,598	289,332	0,042	-0,055
-409,584	800,000	-0,014	0,033
-408,569	-95,411	0,119	0,023
-407,555	143,930	0,028	-0,027
-406,540	-200,000	0,010	-0,092
-405,525	216,671	0,018	-0,021
-404,511	258,654	-0,099	-0,125
-403,496	-82,801	0,115	0,027
-402,482	-25,676	-0,122	0,052
-401,467	-40,446	0,078	0,029
-400,452	-22,689	0,118	0,052
-399,438	-121,919	-0,050	0,006
-398,423	-200,000	0,009	-0,123
-397,409	-200,000	0,001	0,019
-396,394	217,083	-0,066	0,077
-395,379	-200,000	-0,014	-0,188
-394,365	-200,000	-0,013	-0,099
-393,350	450,952	0,018	-0,029
-392,336	543,058	-0,019	0,033
-391,321	-200,000	-0,002	-0,117
-390,306	-200,000	-0,003	-0,024
-389,292	-18,332	0,132	0,060
-388,277	800,000	-0,039	-0,106
-387,263	-103,835	-0,031	0,005
-386,248	800,000	0,065	0,141
-385,233	296,673	0,055	0,074
-384,219	10,932	0,023	0,013
-383,204	470,774	-0,061	-0,100
-382,190	-200,000	-0,011	-0,087
-381,175	-120,494	0,025	0,003
-380,160	-200,000	0,003	-0,072
-379,146	-200,000	-0,002	-0,078
-378,131	-200,000	0,005	0,093
-377,117	182,427	-0,047	-0,050
-376,102	244,214	-0,062	-0,076
-375,088	800,000	-0,021	-0,066
-374,073	59,387	0,054	0,038
-373,058	-34,640	0,131	0,052
-372,044	154,841	0,032	0,032
-371,029	55,083	-0,016	-0,011
-370,015	190,764	0,081	0,089
-369,000	667,583	0,012	0,023
-367,985	800,000	0,017	0,054
-366,971	143,824	0,042	-0,041
-365,956	361,524	0,054	-0,079
-364,942	-55,772	0,073	-0,024
-363,927	364,820	-0,065	0,096
-362,912	203,328	-0,070	-0,079
-361,898	-54,053	0,081	-0,027
-360,883	-2,097	-0,027	-0,014
-359,869	-200,000	-0,002	0,037
-358,854	658,336	0,020	0,038
-357,839	800,000	-0,007	-0,019
-356,825	176,509	0,031	0,033
-355,810	-55,593	-0,116	0,038
-354,796	77,100	-0,007	0,006
-353,781	151,292	-0,032	-0,032
-352,766	-117,189	0,017	-0,002
-351,752	800,000	0,013	0,040
-350,737	-57,810	-0,012	0,004
-349,723	-200,000	-0,023	0,087
-348,708	107,914	0,077	0,067
-347,693	277,559	-0,044	-0,058
-346,679	-200,000	-0,007	-0,068
-345,664	124,891	0,061	-0,056
-344,650	-200,000	0,026	-0,137
-343,635	-200,000	-0,022	-0,110
-342,620	-200,000	-0,010	0,060
-341,606	130,859	0,038	-0,036
-340,591	800,000	0,037	-0,107
-339,577	157,316	-0,047	-0,048
-338,562	-200,000	0,016	0,090
-337,548	-41,105	-0,160	0,060
-336,533	315,188	0,121	0,167
-335,518	-200,000	-0,006	0,024
-334,504	246,867	-0,023	0,028
-333,489	36,167	-0,098	0,063
-332,475	800,000	-0,027	0,082
-331,460	-113,918	0,081	-0,011
-330,445	-15,612	0,053	-0,025
-329,431	572,522	0,056	-0,099
-328,416	187,699	0,079	0,086
-327,402	-32,613	-0,092	-0,037
-326,387	-107,110	-0,098	-0,016
-325,372	354,303	0,084	-0,122
-324,358	37,942	-0,136	-0,088
-323,343	-96,513	-0,113	-0,022
-322,329	-75,489	0,037	0,010
-321,314	563,138	0,074	0,132
-320,299	103,547	0,095	0,081
-319,285	85,252	0,121	0,097
-318,270	-200,000	0,025	-0,084
-317,256	-177,638	-0,078	0,001
-316,241	-142,346	-0,093	0,007
-315,226	-172,160	0,115	0,003
-314,212	372,809	0,017	0,025
-313,197	-84,246	0,161	0,037
-312,183	-200,000	-0,007	0,029
-311,168	111,284	-0,025	0,022
-310,153	-83,547	-0,072	-0,017
-309,139	-200,000	-0,016	0,065
-308,124	-55,072	-0,123	-0,040
-307,110	62,206	0,080	0,058
-306,095	-76,302	0,134	-0,034
-305,080	240,522	-0,051	0,062
-304,066	182,794	-0,034	-0,036
-303,051	-63,917	-0,028	-0,008
-302,037	-14,606	-0,048	0,022
-301,022	-81,861	0,087	-0,021
-300,008	-139,747	0,165	0,013
-298,993	11,029	0,024	0,013
-297,978	-34,706	0,070	-0,028
-296,964	104,876	0,023	0,020
-295,949	336,577	-0,067	-0,095
-294,935	-200,000	-0,011	0,065
-293,920	36,369	0,087	-0,056
-292,905	10,882	0,007	0,004
-291,891	-200,000	-0,047	0,222
-290,876	-63,585	0,107	-0,032
-289,862	119,878	0,033	0,030
-288,847	-200,000	0,016	0,058
-287,832	800,000	0,017	-0,035
-286,818	-200,000	-0,012	0,081
-285,803	-115,262	0,145	0,020
-284,789	-24,011	0,138	-0,060
-283,774	245,395	-0,046	-0,057
-282,759	89,596	-0,079	0,064
-281,745	-101,243	-0,118	-0,021
-280,730	800,000	-0,061	-0,134
-279,716	-200,000	0,011	0,078
-278,701	14,167	0,111	-0,063
-277,686	676,031	-0,073	-0,138
-276,672	311,085	-0,074	-0,100
-275,657	154,141	0,075	-0,075
-274,643	-175,822	-0,111	-0,002
-273,628	-164,464	0,069	-0,002
-272,613	213,229	-0,079	-0,091
-271,599	205,081	-0,070	0,079
-270,584	189,877	0,059	0,064
-269,570	139,747	-0,093	0,089
-268,555	128,755	-0,083	0,077
-267,540	187,566	-0,065	0,070
-266,526	124,829	0,090	-0,083
-265,511	25,976	-0,041	0,025
-264,497	385,647	0,058	-0,088
-263,482	-200,000	-0,020	0,063
-262,467	800,000	0,062	0,188
-261,453	-200,000	-0,036	0,165
-260,438	-27,505	0,088	0,037
-259,424	60,421	0,092	-0,066
-258,409	-200,000	-0,006	-0,090
-257,395	-200,000	0,003	-0,017
-256,380	800,000	0,010	-0,029
-255,365	-200,000	0,012	0,129
-254,351	-143,427	-0,017	-0,001
-253,336	-200,000	0,001	-0,140
-252,322	-200,000	-0,024	0,104
-251,307	-200,000	-0,001	-0,050
-250,292	-200,000	-0,026	0,096
-249,278	254,799	-0,064	0,079
-248,263	-200,000	0,004	0,093
-247,249	30,747	0,055	0,034
-246,234	-101,567	-0,047	0,008
-245,219	130,539	-0,139	-0,129
-244,205	-44,046	-0,070	-0,025
-243,190	-88,590	-0,042	0,009
-242,176	718,615	-0,027	0,053
-241,161	-85,097	0,071	0,016
-240,146	230,044	0,014	-0,016
-239,132	800,000	-0,024	-0,065
-238,117	800,000	-0,070	-0,197
-237,103	222,764	0,058	-0,068
-236,088	-184,749	-0,072	-0,001
-235,073	-1,094	0,065	0,033
-234,059	-99,881	-0,110	-0,020
-233,044	55,629	0,028	-0,020
-232,030	-93,850	-0,029	-0,006
-231,015	373,368	0,111	-0,164
-230,000	50,799	-0,157	0,108
-228,986	-118,689	-0,042	-0,005
-227,971	398,909	-0,041	-0,062
-226,957	-31,332	0,161	0,066
-225,942	-200,000	-0,013	0,083
-224,927	-200,000	0,027	0,097
-223,913	-200,000	-0,036	-0,122
-222,898	-115,429	0,203	0,027
-221,884	-91,205	-0,058	-0,012
-220,869	296,091	0,014	0,018
-219,855	-80,222	0,080	-0,019
-218,840	308,843	-0,038	0,051
-217,825	-8,727	-0,063	0,031
-216,811	800,000	-0,059	-0,123
-215,796	800,000	-0,032	-0,090
-214,782	-29,282	0,165	-0,068
-213,767	98,458	-0,043	-0,036
-212,752	0,183	0,093	0,048
-211,738	41,492	0,044	-0,029
-210,723	242,422	-0,018	0,022
-209,709	758,928	-0,016	0,031
-208,694	-70,217	0,110	0,030
-207,679	-53,698	-0,080	0,026
-206,665	101,080	0,052	0,044
-205,650	-114,655	0,026	-0,004
-204,636	-200,000	-0,014	0,139
-203,621	798,833	-0,014	0,029
-202,606	457,736	-0,104	0,169
-201,592	22,712	-0,151	-0,089
-200,577	800,000	0,025	0,065
-199,563	-200,000	0,027	0,114
-198,548	-200,000	-0,041	0,143
-197,533	205,373	0,098	0,111
-196,519	15,932	0,021	-0,012
-195,504	61,971	0,022	0,016
-194,490	-87,824	0,034	-0,007
-193,475	-200,000	-0,004	-0,097
-192,460	-163,933	0,104	-0,003
-191,446	307,153	0,047	-0,064
-190,431	477,282	0,030	-0,049
-189,417	-5,370	-0,137	-0,068
-188,402	-51,913	-0,046	-0,015
-187,387	-48,893	-0,056	0,019
-186,373	76,098	0,104	0,080
-185,358	-137,667	-0,029	-0,002
-184,344	121,343	0,098	0,088
-183,329	-200,000	-0,044	0,173
-182,315	-82,310	0,055	0,013
-181,300	-4,438	-0,074	-0,037
-180,285	-59,196	0,064	0,020
-179,271	-124,737	0,151	0,017
-178,256	800,000	0,038	0,100
-177,242	-200,000	-0,011	0,047
-176,227	-86,153	0,150	0,033
-175,212	63,733	0,142	0,104
-174,198	800,000	-0,003	0,010
-173,183	-52,889	-0,094	-0,031
-172,169	800,000	-0,013	0,028
-171,154	20,850	0,107	0,063
-170,139	-200,000	0,024	0,080
-169,125	4,451	0,161	0,085
-168,110	144,607	-0,085	0,082
-167,096	800,000	0,031	-0,090
-166,081	205,360	-0,116	-0,131
-165,066	800,000	0,026	-0,057
-164,052	314,369	-0,038	-0,051
-163,037	165,314	0,024	-0,024
-162,023	151,398	-0,036	-0,036
-161,008	800,000	-0,018	0,046
-159,993	55,332	-0,077	0,054
-158,979	-126,967	-0,057	0,006
-157,964	-50,397	0,055	0,019
-156,950	743,823	-0,038	-0,074
-155,935	-146,157	0,103	-0,006
-154,920	-85,460	0,050	-0,011
-153,906	-200,000	-0,005	-0,043
-152,891	771,366	-0,032	0,064
-151,877	-102,187	0,119	0,021
-150,862	-111,439	0,114	0,017
-149,847	800,000	-0,021	-0,057
-148,833	-122,668	-0,068	0,008
-147,818	416,180	-0,035	0,055
-146,804	-200,000	-0,012	0,102
-145,789	165,148	0,095	0,097
-144,775	-1,389	-0,101	0,051
-143,760	-5,161	-0,161	-0,080
-142,745	103,865	-0,072	-0,061
-141,731	-107,245	0,055	0,009
-140,716	-200,000	0,017	-0,065
-139,702	-110,903	0,161	0,024
-138,687	-200,000	0,014	0,047
-137,672	352,513	-0,085	0,122
-136,658	175,924	0,069	0,072
-135,643	40,633	-0,004	0,003
-134,629	-151,940	-0,134	0,007
-133,614	30,384	-0,023	0,014
-132,599	642,363	0,030	0,056
-131,585	-101,436	0,054	-0,009
-130,570	-200,000	-0,011	0,302
-129,556	596,692	0,058	-0,104
-128,541	20,479	-0,075	-0,043
-127,526	-14,068	0,109	0,051
-126,512	50,559	0,092	-0,063
-125,497	-200,000	-0,037	-0,136
-124,483	-125,264	-0,059	0,006
-123,468	-83,047	0,124	0,029
-122,453	-44,127	-0,074	0,027
-121,439	800,000	0,030	-0,079
-120,424	16,621	-0,093	-0,053
-119,410	193,690	0,024	-0,027
-118,395	155,665	0,206	0,206
