DTS Sentinel unit serial number:	SN410029Multiplexer serial number:	ORYXHardware model number:	OX2-SRSoftware version number:	ORYX F/W v4,00 Oryx Data Collector v3.7.2.0data status	okinstallation	B4 Nyhavnadifferential loss correction	single-endedforward channel	channel 2reverse channel	N/Adate	2023/12/16time	02:35:13forward acquisition time	300,00reverse acquisition time	0,00gamma	499,1914k internal	0,3128k external	0,3128temperature offset calibration	1,0000default loss term (dB/km)	0,3820temperature slope calibration	1,0000multiplexer offset coefficient	1,0000multiplexer slope coefficient	1,0000fibre end	0,00T internal ref (°C)	21,94T ext. ref 1 (°C)	7,12T ext. ref 2 (°C)	7,30length (m)	temperature (°C)	Stokes	anti-Stokes-744,400	269,093	-0,025	0,033
-743,385	86,763	-0,193	0,159
-742,371	-4,834	0,196	-0,100
-741,356	118,641	-0,142	0,130
-740,342	16,461	-0,040	0,023
-739,327	-125,200	-0,291	-0,033
-738,312	18,578	0,085	-0,051
-737,298	-106,366	-0,234	-0,038
-736,283	-38,054	0,057	0,022
-735,269	-16,753	-0,145	0,068
-734,254	-27,455	0,222	0,096
-733,239	-105,006	-0,478	-0,081
-732,225	800,000	0,046	-0,126
-731,210	-92,590	0,021	0,004
-730,196	-200,000	0,007	-0,023
-729,181	92,040	0,069	-0,057
-728,167	800,000	0,054	0,117
-727,152	201,113	-0,089	-0,103
-726,137	-200,000	0,005	-0,076
-725,123	-65,209	0,031	0,009
-724,108	637,086	0,032	-0,061
-723,094	-200,000	-0,032	-0,134
-722,079	215,553	-0,075	-0,089
-721,064	235,959	0,071	0,088
-720,050	656,380	-0,043	-0,082
-719,035	-70,854	0,043	-0,012
-718,021	-58,973	-0,150	0,048
-717,006	5,323	-0,108	-0,059
-715,991	-134,915	-0,194	0,017
-714,977	716,131	-0,071	-0,141
-713,962	800,000	-0,039	-0,092
-712,948	-200,000	-0,010	-0,058
-711,933	242,031	0,087	-0,108
-710,918	87,009	-0,027	-0,022
-709,904	-155,133	-0,138	0,007
-708,889	800,000	-0,042	-0,108
-707,875	394,044	-0,118	-0,183
-706,860	-200,000	-0,025	0,152
-705,845	105,569	0,158	-0,138
-704,831	-154,575	-0,038	-0,002
-703,816	15,821	-0,054	-0,032
-702,802	-183,695	-0,067	0,001
-701,787	175,051	-0,057	-0,061
-700,772	-94,104	-0,141	-0,028
-699,758	800,000	0,021	-0,060
-698,743	164,051	-0,070	0,073
-697,729	723,372	-0,059	0,118
-696,714	-200,000	0,002	0,152
-695,699	-200,000	0,004	0,097
-694,685	-44,957	0,059	0,022
-693,670	278,518	0,061	-0,081
-692,656	677,467	0,029	-0,057
-691,641	90,866	0,030	0,025
-690,627	-200,000	-0,032	0,207
-689,612	251,767	-0,050	-0,063
-688,597	800,000	-0,021	-0,070
-687,583	310,904	-0,076	-0,107
-686,568	-62,361	-0,047	0,014
-685,554	800,000	0,049	-0,118
-684,539	-112,547	-0,114	-0,017
-683,524	-19,557	0,086	-0,039
-682,510	80,918	0,090	0,072
-681,495	-60,324	0,056	0,018
-680,481	101,143	-0,026	-0,022
-679,466	-147,122	-0,175	0,011
-678,451	-83,737	-0,189	-0,044
-677,437	-45,570	-0,120	-0,044
-676,422	800,000	0,074	0,172
-675,408	394,555	0,059	-0,092
-674,393	800,000	-0,015	-0,047
-673,378	218,247	-0,040	-0,047
-672,364	-200,000	-0,015	-0,089
-671,349	6,936	-0,162	-0,089
-670,335	800,000	0,035	0,083
-669,320	-200,000	0,003	-0,041
-668,305	74,589	0,044	0,034
-667,291	214,661	-0,071	0,084
-666,276	800,000	0,050	-0,132
-665,262	241,788	0,064	-0,080
-664,247	375,262	0,006	0,009
-663,232	-200,000	0,004	-0,064
-662,218	800,000	-0,033	-0,105
-661,203	-200,000	0,004	0,136
-660,189	43,405	0,037	0,025
-659,174	314,434	0,049	-0,068
-658,159	390,198	-0,075	-0,116
-657,145	-51,317	-0,153	-0,053
-656,130	-84,981	-0,081	-0,019
-655,116	-200,000	-0,012	-0,069
-654,101	369,858	-0,018	-0,026
-653,086	-57,252	-0,112	-0,036
-652,072	-71,817	-0,041	-0,011
-651,057	-81,649	-0,164	-0,040
-650,043	-200,000	0,007	0,045
-649,028	-100,528	-0,109	0,020
-648,014	115,498	-0,024	0,021
-646,999	-75,409	-0,124	0,033
-645,984	-110,719	0,111	-0,017
-644,970	80,911	-0,029	0,023
-643,955	-8,731	-0,116	-0,058
-642,941	303,200	-0,020	0,027
-641,926	-200,000	0,051	-0,189
-640,911	-47,848	0,076	-0,027
-639,897	-200,000	0,027	0,119
-638,882	-177,308	-0,200	0,004
-637,868	61,310	0,134	0,098
-636,853	-200,000	-0,006	0,051
-635,838	29,960	-0,054	-0,034
-634,824	-35,160	0,039	-0,016
-633,809	29,597	-0,019	-0,012
-632,795	171,393	0,037	-0,040
-631,780	-188,711	0,118	0,001
-630,765	-200,000	-0,007	-0,061
-629,751	-9,455	-0,095	0,047
-628,736	-200,000	0,005	0,065
-627,722	-200,000	-0,006	0,128
-626,707	-200,000	0,004	0,086
-625,692	-76,186	0,120	0,031
-624,678	728,211	-0,025	-0,050
-623,663	-5,672	-0,076	-0,039
-622,649	-200,000	0,036	-0,121
-621,634	-200,000	0,000	0,006
-620,619	-46,861	-0,043	0,015
-619,605	-200,000	0,020	-0,115
-618,590	800,000	-0,032	0,099
-617,576	-29,414	0,042	0,018
-616,561	-18,822	-0,092	0,042
-615,546	136,159	0,049	-0,047
-614,532	800,000	-0,036	-0,077
-613,517	-172,120	0,048	-0,001
-612,503	-56,437	0,054	0,018
-611,488	-10,560	0,096	0,047
-610,474	-142,918	-0,042	-0,003
-609,459	71,191	-0,024	0,019
-608,444	150,354	-0,064	-0,064
-607,430	572,245	-0,117	-0,212
-606,415	800,000	-0,069	-0,195
-605,401	160,638	0,025	0,026
-604,386	-200,000	-0,009	0,084
-603,371	-200,000	0,044	-0,160
-602,357	-200,000	0,002	0,037
-601,342	259,072	-0,056	0,071
-600,328	223,356	0,043	0,051
-599,313	-20,830	0,055	-0,025
-598,298	-166,870	0,048	0,001
-597,284	-137,233	-0,099	-0,008
-596,269	-200,000	0,003	0,027
-595,255	800,000	0,049	0,153
-594,240	354,602	-0,028	0,041
-593,225	-69,796	0,050	-0,014
-592,211	137,133	0,032	-0,031
-591,196	-200,000	-0,038	-0,141
-590,182	-200,000	0,004	-0,044
-589,167	220,109	-0,052	0,061
-588,152	616,901	0,055	0,102
-587,138	530,630	0,062	0,108
-586,123	-17,419	-0,114	-0,053
-585,109	138,671	-0,099	-0,096
-584,094	-200,000	-0,029	-0,122
-583,079	800,000	-0,023	0,058
-582,065	50,799	0,046	-0,032
-581,050	356,036	0,073	-0,107
-580,036	9,044	-0,103	-0,057
-579,021	-71,948	0,041	-0,011
-578,006	800,000	0,044	0,117
-576,992	-200,000	0,006	0,040
-575,977	-115,621	-0,043	-0,006
-574,963	-0,144	0,087	0,046
-573,948	-103,797	0,127	0,022
-572,934	-200,000	0,030	-0,102
-571,919	-77,075	-0,101	0,026
-570,904	-56,489	-0,132	0,043
-569,890	370,745	0,114	-0,171
-568,875	-200,000	-0,011	0,072
-567,861	31,832	0,109	-0,069
-566,846	-200,000	0,001	0,139
-565,831	10,982	0,015	0,009
-564,817	-200,000	0,004	0,074
-563,802	11,690	-0,029	-0,016
-562,788	-200,000	0,002	-0,052
-561,773	85,848	0,030	-0,024
-560,758	101,945	0,127	0,110
-559,744	-127,898	0,094	0,010
-558,729	764,527	0,058	0,118
-557,715	-15,099	-0,219	-0,103
-556,700	132,912	-0,044	-0,042
-555,685	800,000	0,024	0,053
-554,671	-200,000	-0,009	0,078
-553,656	-39,686	0,111	-0,043
-552,642	38,560	0,070	0,046
-551,627	644,832	0,034	-0,064
-550,612	-200,000	0,026	-0,098
-549,598	-35,715	-0,118	-0,047
-548,583	38,742	-0,056	-0,037
-547,569	-16,952	0,089	0,041
-546,554	602,172	0,084	0,154
-545,539	-5,955	-0,186	0,094
-544,525	121,472	-0,084	-0,077
-543,510	800,000	0,033	-0,077
-542,496	-134,020	-0,051	-0,005
-541,481	800,000	-0,014	0,039
-540,466	-200,000	-0,000	-0,063
-539,452	192,979	0,083	0,092
-538,437	-14,175	0,089	-0,042
-537,423	759,012	-0,022	-0,043
-536,408	-200,000	-0,010	-0,108
-535,393	202,335	-0,095	-0,109
-534,379	800,000	0,024	-0,049
-533,364	-200,000	-0,002	0,025
-532,350	-200,000	-0,032	-0,114
-531,335	40,087	0,045	-0,030
-530,321	-77,161	0,090	-0,023
-529,306	-15,726	-0,148	-0,069
-528,291	800,000	-0,066	-0,145
-527,277	-200,000	0,050	-0,182
-526,262	800,000	-0,053	0,147
-525,248	1,609	0,075	-0,040
-524,233	301,432	0,013	0,017
-523,218	85,604	-0,013	0,010
-522,204	-66,579	0,112	0,033
-521,189	-200,000	0,026	-0,137
-520,175	344,170	-0,069	-0,101
-519,160	-200,000	0,051	0,000
-518,145	452,665	-0,018	0,030
-517,131	244,522	0,018	-0,022
-516,116	-111,012	0,110	0,016
-515,102	248,072	-0,156	0,195
-514,087	256,514	-0,083	-0,105
-513,072	-200,000	-0,021	0,083
-512,058	-200,000	0,006	0,155
-511,043	-200,000	0,011	-0,047
-510,029	-7,987	-0,068	-0,034
-509,014	-43,870	0,067	0,025
-507,999	123,548	-0,042	-0,038
-506,985	-200,000	0,015	0,084
-505,970	67,718	-0,076	-0,057
-504,956	538,959	-0,047	0,082
-503,941	800,000	0,028	0,071
-502,926	217,045	0,014	0,016
-501,912	-170,039	0,100	0,003
-500,897	192,554	0,123	-0,137
-499,883	602,121	0,026	0,047
-498,868	800,000	-0,017	-0,051
-497,853	44,206	-0,080	0,054
-496,839	800,000	0,005	-0,012
-495,824	713,144	-0,019	0,037
-494,810	-11,939	-0,054	-0,026
-493,795	-149,691	-0,076	-0,004
-492,781	800,000	-0,044	0,140
-491,766	446,405	0,046	0,075
-490,751	800,000	-0,024	0,077
-489,737	125,154	-0,058	-0,054
-488,722	51,123	0,053	0,037
-487,708	520,658	0,087	0,151
-486,693	3,127	-0,055	0,029
-485,678	82,563	-0,100	-0,080
-484,664	-200,000	0,003	-0,104
-483,649	-115,546	-0,111	-0,015
-482,635	800,000	-0,052	-0,152
-481,620	-200,000	0,037	0,148
-480,605	119,003	0,138	0,126
-479,591	270,485	-0,082	-0,107
-478,576	800,000	0,007	-0,016
-477,562	43,243	-0,081	-0,054
-476,547	800,000	0,014	0,043
-475,532	800,000	-0,023	-0,060
-474,518	51,840	0,062	-0,043
-473,503	-200,000	0,021	0,131
-472,489	-200,000	-0,011	0,151
-471,474	-200,000	0,009	-0,081
-470,459	-98,475	-0,020	0,004
-469,445	50,632	0,053	-0,037
-468,430	-200,000	-0,043	-0,157
-467,416	-100,010	-0,108	-0,020
-466,401	12,697	0,042	0,024
-465,386	800,000	-0,027	0,060
-464,372	-29,884	-0,123	0,051
-463,357	222,934	0,040	-0,047
-462,343	70,823	0,087	0,066
-461,328	-200,000	-0,018	-0,187
-460,313	800,000	0,017	-0,052
-459,299	-200,000	0,018	0,197
-458,284	-200,000	0,007	0,036
-457,270	-200,000	0,009	-0,151
-456,255	-24,032	0,120	-0,053
-455,241	-200,000	-0,000	-0,119
-454,226	-200,000	-0,019	-0,115
-453,211	23,865	0,168	-0,102
-452,197	-200,000	0,007	0,025
-451,182	400,286	-0,022	-0,033
-450,168	800,000	0,046	-0,113
-449,153	800,000	-0,019	-0,059
-448,138	-200,000	-0,024	0,176
-447,124	-200,000	-0,007	-0,097
-446,109	570,835	-0,029	-0,052
-445,095	646,856	-0,058	-0,109
-444,080	29,880	-0,066	0,041
-443,065	800,000	-0,025	0,077
-442,051	-40,989	-0,043	-0,016
-441,036	-103,007	-0,042	0,007
-440,022	-83,029	0,045	0,011
-439,007	-50,333	-0,126	-0,043
-437,992	-133,636	0,151	-0,014
-436,978	800,000	-0,044	-0,110
-435,963	-6,629	-0,056	0,028
-434,949	-200,000	0,000	0,084
-433,934	800,000	-0,059	-0,137
-432,919	800,000	-0,052	-0,124
-431,905	47,109	0,071	-0,049
-430,890	42,499	0,123	0,082
-429,876	-200,000	-0,011	0,055
-428,861	87,449	0,104	0,085
-427,846	136,044	0,040	0,038
-426,832	-77,576	-0,106	-0,027
-425,817	-107,086	-0,064	-0,010
-424,803	252,156	-0,017	0,022
-423,788	-200,000	0,014	-0,126
-422,773	-200,000	0,002	0,032
-421,759	-118,088	0,082	0,011
-420,744	53,601	-0,023	0,016
-419,730	-20,236	-0,045	-0,020
-418,715	79,866	0,060	0,048
-417,701	-200,000	0,012	-0,041
-416,686	391,830	0,044	0,068
-415,671	-35,467	0,138	-0,055
-414,657	249,730	0,046	-0,057
-413,642	-150,012	-0,044	0,003
-412,628	50,665	0,038	-0,026
-411,613	30,362	0,020	-0,013
-410,598	285,513	-0,118	-0,156
-409,584	-71,729	-0,098	0,027
-408,569	96,549	-0,103	0,086
-407,555	800,000	0,038	0,102
-406,540	800,000	0,034	-0,090
-405,525	101,300	0,125	0,107
-404,511	-66,338	0,078	-0,022
-403,496	800,000	-0,024	0,054
-402,482	-134,784	-0,087	0,008
-401,467	-42,327	0,079	-0,029
-400,452	-18,643	0,221	0,101
-399,438	92,385	-0,096	0,079
-398,423	-107,318	-0,060	0,010
-397,409	52,451	-0,082	0,057
-396,394	-70,327	-0,080	-0,022
-395,379	-200,000	0,013	0,104
-394,365	68,166	0,049	-0,037
-393,350	-200,000	0,004	0,096
-392,336	158,155	0,085	0,087
-391,321	422,675	0,067	-0,105
-390,306	-85,077	-0,098	-0,022
-389,292	-75,744	-0,060	-0,016
-388,277	-125,499	0,043	-0,005
-387,263	8,597	-0,081	0,045
-386,248	45,808	0,024	0,017
-385,233	-132,170	-0,100	-0,009
-384,219	-200,000	0,001	-0,087
-383,204	215,232	0,045	-0,053
-382,190	681,408	-0,046	-0,089
-381,175	446,413	-0,075	0,122
-380,160	618,773	-0,065	0,120
-379,146	74,632	0,102	0,079
-378,131	-200,000	0,048	0,181
-377,117	-46,091	0,182	-0,065
-376,102	-200,000	-0,001	-0,046
-375,088	-200,000	0,028	-0,122
-374,073	11,280	0,099	0,056
-373,058	-200,000	-0,002	0,217
-372,044	248,985	0,084	0,104
-371,029	212,234	0,027	-0,031
-370,015	-62,358	0,093	0,028
-369,000	-173,618	-0,130	-0,003
-367,985	230,516	-0,018	-0,022
-366,971	71,652	0,110	0,084
-365,956	-200,000	-0,008	-0,070
-364,942	-200,000	-0,018	-0,076
-363,927	-54,015	0,119	-0,039
-362,912	-70,728	0,025	-0,007
-361,898	213,309	-0,023	-0,027
-360,883	-25,727	-0,068	-0,029
-359,869	-200,000	-0,005	-0,051
-358,854	-200,000	-0,003	-0,091
-357,839	-200,000	0,006	-0,068
-356,825	145,761	-0,066	0,065
-355,810	-200,000	0,017	0,069
-354,796	800,000	0,038	0,086
-353,781	407,621	0,021	0,032
-352,766	-200,000	-0,012	0,056
-351,752	-200,000	-0,005	0,020
-350,737	800,000	0,053	-0,124
-349,723	18,858	-0,039	-0,023
-348,708	-200,000	0,007	0,100
-347,693	468,374	-0,062	-0,102
-346,679	670,784	-0,061	-0,117
-345,664	148,466	0,028	-0,028
-344,650	-7,505	-0,111	0,055
-343,635	-200,000	0,014	0,085
-342,620	2,716	0,091	0,048
-341,606	-71,123	0,047	0,013
-340,591	191,661	0,053	-0,058
-339,577	-179,676	-0,267	-0,004
-338,562	62,334	-0,048	-0,035
-337,548	800,000	-0,045	-0,125
-336,533	-200,000	-0,004	0,089
-335,518	-200,000	-0,011	-0,059
-334,504	-200,000	0,000	-0,016
-333,489	-193,458	0,075	-0,000
-332,475	88,832	0,030	-0,024
-331,460	70,397	-0,049	0,037
-330,445	38,257	-0,037	-0,024
-329,431	-103,935	0,009	0,002
-328,416	22,732	-0,122	0,073
-327,402	-150,621	-0,102	0,006
-326,387	-200,000	-0,057	-0,199
-325,372	124,662	0,039	0,036
-324,358	252,838	-0,136	-0,170
-323,343	92,940	-0,038	-0,031
-322,329	-63,064	0,056	-0,017
-321,314	-200,000	-0,029	0,166
-320,299	800,000	0,037	0,098
-319,285	-200,000	-0,000	0,119
-318,270	-200,000	-0,000	-0,055
-317,256	-200,000	-0,030	0,138
-316,241	-200,000	0,001	0,119
-315,226	-200,000	0,012	0,126
-314,212	800,000	0,054	0,111
-313,197	701,686	0,080	0,154
-312,183	-113,699	-0,149	0,021
-311,168	-62,404	0,042	0,013
-310,153	800,000	-0,043	0,137
-309,139	-154,687	0,080	-0,004
-308,124	-184,165	-0,072	-0,001
-307,110	-200,000	-0,006	0,057
-306,095	-19,355	0,063	0,029
-305,080	185,947	0,141	0,153
-304,066	-185,592	-0,148	-0,002
-303,051	73,770	-0,081	0,062
-302,037	20,043	-0,097	0,057
-301,022	-200,000	-0,003	-0,030
-300,008	246,868	0,043	-0,054
-298,993	-194,127	0,043	-0,000
-297,978	299,896	-0,057	0,077
-296,964	-133,750	0,236	-0,021
-295,949	122,009	0,069	0,063
-294,935	39,397	0,039	-0,025
-293,920	-137,810	-0,257	0,021
-292,905	-59,577	-0,041	-0,013
-291,891	-77,134	0,072	-0,018
-290,876	-154,478	0,105	0,005
-289,862	135,658	-0,055	-0,053
-288,847	140,078	-0,064	-0,061
-287,832	157,970	-0,110	-0,112
-286,818	23,782	-0,025	0,015
-285,803	162,771	-0,046	-0,047
-284,789	60,167	0,105	0,075
-283,774	242,990	-0,047	-0,057
-282,759	244,956	-0,020	0,025
-281,745	16,043	0,040	-0,023
-280,730	-200,000	-0,020	0,068
-279,716	-132,530	-0,053	-0,005
-278,701	-200,000	0,024	-0,086
-277,686	134,827	0,141	0,134
-276,672	800,000	0,063	-0,171
-275,657	-200,000	-0,004	-0,056
-274,643	181,438	-0,092	0,099
-273,628	-150,975	0,098	0,005
-272,613	105,176	-0,121	-0,104
-271,599	496,563	0,059	-0,100
-270,584	-200,000	-0,053	0,183
-269,570	71,320	0,043	-0,033
-268,555	800,000	0,050	-0,130
-267,540	-48,334	-0,084	-0,029
-266,526	106,630	-0,045	-0,039
-265,511	800,000	-0,019	-0,052
-264,497	341,331	-0,020	-0,029
-263,482	-190,300	0,164	-0,001
-262,467	54,420	-0,101	-0,071
-261,453	53,099	0,038	0,027
-260,438	-200,000	0,016	-0,111
-259,424	-58,185	0,092	-0,029
-258,409	-80,973	-0,148	0,035
-257,395	-162,779	0,044	0,002
-256,380	74,635	-0,025	0,019
-255,365	-200,000	0,016	0,119
-254,351	-65,011	0,084	0,024
-253,336	49,219	-0,040	0,027
-252,322	800,000	-0,003	-0,007
-251,307	188,372	0,032	-0,035
-250,292	-126,058	-0,067	0,007
-249,278	378,004	0,127	-0,191
-248,263	456,609	0,057	0,093
-247,249	-184,413	0,067	0,001
-246,234	-71,332	0,063	0,017
-245,219	800,000	0,041	0,109
-244,205	510,062	0,053	0,091
-243,190	135,515	-0,009	0,009
-242,176	-200,000	-0,007	0,079
-241,161	-156,688	0,148	-0,007
-240,146	105,661	0,109	0,094
-239,132	23,434	0,091	0,055
-238,117	199,688	-0,053	0,060
-237,103	384,003	-0,074	0,112
-236,088	-70,486	-0,071	-0,019
-235,073	800,000	0,076	0,191
-234,059	-200,000	-0,017	0,102
-233,044	800,000	0,047	0,142
-232,030	-200,000	0,006	0,026
-231,015	108,727	-0,104	0,090
-230,000	-200,000	0,007	-0,095
-228,986	10,064	0,035	0,019
-227,971	800,000	-0,046	-0,096
-226,957	-161,501	0,131	-0,005
-225,942	-58,596	-0,033	-0,010
-224,927	-22,652	-0,140	-0,062
-223,913	-90,129	-0,134	-0,028
-222,898	-200,000	-0,011	0,057
-221,884	800,000	0,004	0,011
-220,869	34,074	0,059	-0,038
-219,855	-83,584	0,086	-0,020
-218,840	-200,000	-0,019	0,129
-217,825	532,751	0,010	0,017
-216,811	-200,000	0,011	-0,071
-215,796	-194,709	-0,162	-0,001
-214,782	800,000	0,011	0,027
-213,767	26,649	0,065	-0,040
-212,752	-70,486	-0,130	0,036
-211,738	-0,866	0,121	-0,062
-210,723	-200,000	0,002	0,016
-209,709	-200,000	0,006	0,024
-208,694	375,241	-0,048	-0,071
-207,679	-0,285	-0,040	0,021
-206,665	800,000	0,042	0,088
-205,650	800,000	0,032	0,090
-204,636	-200,000	-0,005	-0,025
-203,621	-64,863	-0,023	-0,007
-202,606	129,059	-0,064	-0,060
-201,592	800,000	-0,025	-0,055
-200,577	-200,000	0,026	-0,142
-199,563	-200,000	-0,006	0,064
-198,548	-131,661	0,049	-0,005
-197,533	23,264	0,037	-0,022
-196,519	-200,000	0,000	-0,003
-195,504	-200,000	0,006	-0,092
-194,490	95,096	0,081	0,067
-193,475	31,421	-0,059	0,037
-192,460	-177,775	0,184	0,003
-191,446	-200,000	0,011	0,053
-190,431	-200,000	-0,001	-0,128
-189,417	272,256	-0,064	-0,082
-188,402	-200,000	0,035	0,134
-187,387	-200,000	-0,013	-0,137
-186,373	-182,332	-0,050	0,001
-185,358	495,550	-0,040	-0,067
-184,344	778,291	-0,038	-0,076
-183,329	-200,000	0,021	0,104
-182,315	800,000	0,044	0,096
-181,300	-200,000	0,002	-0,101
-180,285	515,683	-0,016	-0,028
-179,271	242,255	-0,069	-0,084
-178,256	367,861	0,004	-0,006
-177,242	-45,442	-0,059	-0,021
-176,227	554,915	0,042	0,073
-175,212	63,093	0,059	0,043
-174,198	-119,627	0,122	0,015
-173,183	260,992	0,019	0,024
-172,169	-9,243	0,063	-0,031
-171,154	330,050	-0,105	-0,148
-170,139	251,359	-0,094	-0,117
-169,125	-200,000	-0,012	0,061
-168,110	-51,381	-0,051	0,017
-167,096	-54,635	-0,059	0,019
-166,081	295,348	-0,074	-0,099
-165,066	-200,000	0,031	-0,111
-164,052	-200,000	0,008	-0,034
-163,037	-90,355	-0,070	-0,015
-162,023	582,240	0,009	0,016
-161,008	460,065	0,048	0,078
-159,993	186,717	0,023	-0,025
-158,979	-61,071	0,099	0,030
-157,964	83,166	0,089	-0,070
-156,950	-200,000	-0,003	-0,059
-155,935	-200,000	-0,001	0,009
-154,920	274,282	0,096	0,124
-153,906	-61,922	-0,016	0,005
-152,891	-200,000	0,001	0,061
-151,877	800,000	-0,047	-0,100
-150,862	640,019	0,069	-0,128
-149,847	23,835	0,070	0,042
-148,833	800,000	0,012	-0,035
-147,818	-200,000	-0,004	-0,049
-146,804	-140,459	0,185	0,014
-145,789	-46,403	0,074	-0,026
-144,775	32,535	0,132	-0,083
-143,760	385,898	0,054	-0,081
-142,745	800,000	0,017	0,043
-141,731	535,067	-0,052	0,091
-140,716	-120,869	0,116	-0,014
-139,702	43,562	-0,075	0,050
-138,687	4,611	0,087	-0,046
-137,672	6,255	-0,111	-0,060
-136,658	97,387	-0,139	-0,116
-135,643	-133,207	-0,154	0,014
-134,629	-91,987	-0,040	0,008
-133,614	-68,824	0,129	0,036
-132,599	-200,000	0,001	0,048
-131,585	317,192	-0,031	0,042
-130,570	608,210	0,033	-0,060
-129,556	138,588	-0,110	0,105
-128,541	151,622	0,132	-0,130
-127,526	-117,053	0,067	-0,009
-126,512	634,887	-0,047	0,087
-125,497	623,978	0,039	-0,072
-124,483	231,093	-0,083	-0,099
-123,468	-20,477	0,115	0,051
-122,453	733,183	-0,034	-0,067
-121,439	-200,000	0,011	-0,092
-120,424	303,366	-0,044	-0,059
-119,410	86,252	0,023	0,018
