DTS Sentinel unit serial number:	SN410029Multiplexer serial number:	ORYXHardware model number:	OX2-SRSoftware version number:	ORYX F/W v4,00 Oryx Data Collector v3.7.2.0data status	okinstallation	B4 Nyhavnadifferential loss correction	single-endedforward channel	channel 2reverse channel	N/Adate	2023/12/19time	05:40:13forward acquisition time	300,00reverse acquisition time	0,00gamma	499,1914k internal	0,3127k external	0,3127temperature offset calibration	1,0000default loss term (dB/km)	0,3820temperature slope calibration	1,0000multiplexer offset coefficient	1,0000multiplexer slope coefficient	1,0000fibre end	0,00T internal ref (°C)	21,02T ext. ref 1 (°C)	6,24T ext. ref 2 (°C)	6,36length (m)	temperature (°C)	Stokes	anti-Stokes-744,400	292,118	0,098	-0,133
-743,385	121,184	-0,114	0,105
-742,371	289,890	0,039	0,052
-741,356	5,005	-0,123	0,067
-740,342	-117,467	0,120	0,016
-739,327	-93,992	-0,186	0,038
-738,312	130,223	0,170	-0,162
-737,298	44,249	-0,107	0,073
-736,283	68,074	-0,093	-0,070
-735,269	-61,631	-0,155	0,048
-734,254	223,458	0,142	0,171
-733,239	4,198	-0,469	-0,255
-732,225	-44,463	0,072	-0,027
-731,210	-112,685	-0,139	-0,020
-730,196	60,061	0,087	-0,064
-729,181	800,000	-0,090	-0,217
-728,167	-200,000	0,010	-0,150
-727,152	-200,000	-0,005	0,092
-726,137	-200,000	0,006	-0,043
-725,123	800,000	-0,042	-0,119
-724,108	348,473	-0,065	-0,096
-723,094	800,000	-0,048	-0,135
-722,079	800,000	-0,047	-0,127
-721,064	-120,566	0,010	0,001
-720,050	-200,000	-0,015	0,184
-719,035	153,871	0,062	-0,063
-718,021	800,000	-0,049	0,103
-717,006	800,000	-0,004	-0,010
-715,991	-200,000	-0,043	-0,189
-714,977	231,838	-0,095	-0,116
-713,962	-200,000	-0,006	-0,085
-712,948	800,000	0,018	-0,056
-711,933	-200,000	0,005	0,078
-710,918	635,591	-0,004	0,007
-709,904	-103,251	-0,079	0,014
-708,889	-146,629	-0,037	0,002
-707,875	-200,000	0,009	-0,054
-706,860	-46,544	0,029	0,010
-705,845	265,630	0,037	0,048
-704,831	-200,000	0,007	0,049
-703,816	-46,840	-0,198	-0,071
-702,802	-59,420	-0,172	-0,055
-701,787	-27,813	-0,106	0,045
-700,772	-116,151	-0,119	0,016
-699,758	228,290	0,072	-0,087
-698,743	46,180	-0,084	0,058
-697,729	800,000	0,013	0,038
-696,714	600,152	0,039	-0,073
-695,699	61,660	-0,116	-0,086
-694,685	-200,000	0,000	0,034
-693,670	21,007	-0,078	0,047
-692,656	-200,000	-0,034	0,126
-691,641	-3,654	0,011	-0,005
-690,627	-200,000	0,005	0,034
-689,612	-200,000	0,004	0,080
-688,597	12,492	-0,108	-0,062
-687,583	-200,000	-0,007	0,053
-686,568	348,824	0,014	-0,021
-685,554	89,866	-0,086	-0,072
-684,539	800,000	0,032	0,087
-683,524	4,413	-0,037	0,020
-682,510	634,716	0,042	-0,079
-681,495	-133,904	0,052	-0,005
-680,481	800,000	-0,035	-0,110
-679,466	-200,000	-0,010	-0,116
-678,451	684,817	-0,036	0,070
-677,437	171,441	-0,018	-0,019
-676,422	-200,000	0,000	-0,016
-675,408	278,323	0,061	0,082
-674,393	107,425	0,042	0,037
-673,378	-200,000	-0,047	-0,221
-672,364	-200,000	0,002	0,009
-671,349	-200,000	0,007	-0,094
-670,335	70,007	-0,024	-0,018
-669,320	-36,080	-0,046	0,018
-668,305	243,852	0,019	0,023
-667,291	-200,000	0,009	-0,205
-666,276	-200,000	-0,015	0,054
-665,262	179,421	-0,095	-0,103
-664,247	749,348	-0,064	-0,129
-663,232	-72,615	0,148	-0,040
-662,218	-58,291	-0,103	-0,033
-661,203	-27,539	-0,047	0,020
-660,189	291,027	0,096	-0,130
-659,174	17,133	-0,022	0,013
-658,159	-200,000	-0,007	-0,064
-657,145	-165,370	-0,122	-0,004
-656,130	141,445	-0,029	-0,028
-655,116	800,000	0,026	-0,064
-654,101	-200,000	-0,020	-0,091
-653,086	-200,000	-0,002	-0,020
-652,072	361,674	0,089	-0,133
-651,057	124,469	-0,014	-0,013
-650,043	-125,604	-0,075	0,008
-649,028	-200,000	0,004	-0,020
-648,014	170,406	0,034	0,036
-646,999	-76,147	0,126	-0,033
-645,984	123,341	-0,040	0,037
-644,970	-200,000	-0,005	-0,022
-643,955	-46,383	-0,128	-0,047
-642,941	261,631	-0,053	-0,068
-641,926	-166,436	-0,035	0,001
-640,911	223,585	0,020	-0,024
-639,897	-33,603	-0,053	-0,022
-638,882	-200,000	-0,019	0,063
-637,868	-4,945	-0,075	-0,038
-636,853	-56,178	-0,085	-0,028
-635,838	800,000	0,017	-0,055
-634,824	299,714	0,036	0,049
-633,809	711,896	-0,039	-0,078
-632,795	-153,171	0,178	-0,009
-631,780	444,044	0,026	0,043
-630,765	800,000	-0,012	-0,029
-629,751	-121,701	-0,062	0,008
-628,736	-33,150	-0,054	0,022
-627,722	553,790	-0,034	0,061
-626,707	-105,637	-0,044	0,007
-625,692	-200,000	0,002	0,179
-624,678	-87,965	0,099	0,022
-623,663	800,000	-0,008	0,016
-622,649	-125,654	-0,076	0,008
-621,634	-36,875	-0,068	0,027
-620,619	49,452	-0,058	0,040
-619,605	147,523	0,039	0,039
-618,590	-1,686	-0,036	-0,019
-617,576	-200,000	0,005	-0,037
-616,561	-200,000	0,004	0,023
-615,546	231,210	-0,092	-0,112
-614,532	-200,000	-0,010	-0,063
-613,517	-200,000	0,003	0,036
-612,503	-113,907	-0,096	-0,014
-611,488	276,385	0,088	0,116
-610,474	-36,452	0,041	0,016
-609,459	398,304	0,069	-0,107
-608,444	127,640	0,072	0,068
-607,430	-200,000	0,006	0,074
-606,415	-200,000	-0,008	0,150
-605,401	-2,226	-0,048	0,025
-604,386	72,037	-0,020	0,015
-603,371	-200,000	-0,016	0,093
-602,357	-24,548	-0,021	-0,009
-601,342	132,297	-0,091	-0,087
-600,328	193,274	0,055	-0,062
-599,313	3,279	-0,082	-0,044
-598,298	-127,816	-0,130	0,014
-597,284	-200,000	0,001	0,026
-596,269	0,281	0,129	-0,068
-595,255	79,400	-0,084	-0,067
-594,240	-164,711	0,030	0,001
-593,225	-200,000	-0,018	0,080
-592,211	-118,514	-0,059	0,008
-591,196	90,704	0,053	-0,044
-590,182	-21,260	0,244	0,110
-589,167	116,902	-0,086	0,078
-588,152	-200,000	0,002	0,117
-587,138	-200,000	0,011	0,139
-586,123	-200,000	-0,013	-0,102
-585,109	-57,275	-0,004	0,001
-584,094	-200,000	0,009	0,064
-583,079	194,309	-0,068	-0,076
-582,065	-200,000	0,036	0,135
-581,050	84,305	-0,071	0,058
-580,036	-50,174	0,047	0,017
-579,021	11,665	-0,056	0,032
-578,006	-200,000	0,044	0,169
-576,992	12,226	0,051	0,029
-575,977	-84,045	0,095	-0,022
-574,963	-26,824	0,089	-0,038
-573,948	134,452	-0,091	0,087
-572,934	68,662	-0,022	-0,016
-571,919	-200,000	-0,010	-0,044
-570,904	800,000	-0,034	-0,095
-569,890	-34,918	-0,028	0,011
-568,875	-89,847	0,111	-0,024
-567,861	186,833	0,031	-0,034
-566,846	800,000	-0,024	0,049
-565,831	-200,000	-0,000	-0,061
-564,817	-105,871	-0,169	0,028
-563,802	-18,711	-0,077	-0,035
-562,788	193,750	-0,059	-0,067
-561,773	130,338	0,066	0,063
-560,758	-104,560	0,119	-0,020
-559,744	119,387	-0,081	0,074
-558,729	-170,569	0,060	0,001
-557,715	40,259	-0,107	0,071
-556,700	-84,030	0,090	-0,021
-555,685	-45,143	-0,109	-0,040
-554,671	-200,000	-0,000	-0,144
-553,656	800,000	0,042	-0,113
-552,642	-10,896	0,113	0,055
-551,627	-200,000	0,024	0,091
-550,612	-68,073	-0,153	-0,044
-549,598	387,673	-0,022	0,034
-548,583	-55,794	-0,112	0,037
-547,569	188,634	-0,025	0,028
-546,554	-200,000	-0,001	0,035
-545,539	-3,889	0,093	-0,048
-544,525	526,309	-0,028	0,050
-543,510	-200,000	0,039	-0,174
-542,496	11,970	-0,198	-0,112
-541,481	800,000	0,012	-0,037
-540,466	800,000	0,036	-0,103
-539,452	-200,000	0,009	-0,109
-538,437	397,720	-0,025	0,038
-537,423	-25,508	-0,063	-0,027
-536,408	230,204	0,081	-0,098
-535,393	384,164	-0,089	-0,136
-534,379	64,133	-0,047	-0,035
-533,364	84,201	0,014	-0,011
-532,350	-200,000	-0,009	-0,093
-531,335	146,025	0,040	0,039
-530,321	155,227	0,055	0,056
-529,306	-103,950	-0,039	-0,007
-528,291	-200,000	-0,041	-0,157
-527,277	-200,000	-0,019	-0,099
-526,262	800,000	0,020	0,045
-525,248	-46,333	0,069	-0,025
-524,233	-94,499	0,100	0,020
-523,218	391,413	0,048	-0,073
-522,204	137,884	0,121	-0,117
-521,189	414,995	-0,067	-0,106
-520,175	-141,767	-0,100	0,007
-519,160	264,391	0,028	0,037
-518,145	-200,000	-0,027	0,090
-517,131	542,672	0,100	0,177
-516,116	-122,536	-0,082	-0,010
-515,102	24,634	-0,076	0,046
-514,087	-200,000	0,016	0,121
-513,072	639,357	-0,042	0,079
-512,058	-175,029	0,075	0,001
-511,043	412,902	0,071	-0,111
-510,029	605,786	-0,033	0,060
-509,014	800,000	-0,089	0,253
-507,999	-92,811	0,015	-0,003
-506,985	60,549	-0,075	0,055
-505,970	67,958	0,080	-0,060
-504,956	47,959	-0,059	0,041
-503,941	175,057	-0,098	0,105
-502,926	288,208	0,050	-0,067
-501,912	-200,000	-0,009	-0,141
-500,897	224,343	0,092	0,110
-499,883	502,475	-0,009	-0,015
-498,868	144,487	-0,050	-0,049
-497,853	-160,311	-0,017	-0,001
-496,839	346,472	-0,048	-0,070
-495,824	-200,000	0,002	0,005
-494,810	471,039	-0,030	-0,051
-493,795	-88,972	0,101	-0,022
-492,781	-200,000	-0,017	-0,067
-491,766	-200,000	0,005	-0,130
-490,751	-85,519	-0,083	-0,019
-489,737	800,000	-0,006	0,019
-488,722	-200,000	-0,001	0,068
-487,708	-200,000	-0,005	-0,016
-486,693	-200,000	0,020	0,074
-485,678	41,536	-0,046	0,031
-484,664	-12,461	-0,092	-0,044
-483,649	-60,731	-0,093	-0,029
-482,635	127,987	0,040	0,038
-481,620	54,423	-0,056	-0,040
-480,605	-200,000	0,017	-0,118
-479,591	-200,000	0,011	-0,055
-478,576	-90,081	0,019	0,004
-477,562	800,000	-0,024	-0,055
-476,547	344,522	-0,045	0,065
-475,532	289,434	-0,086	0,116
-474,518	-200,000	-0,029	0,099
-473,503	-61,290	0,158	-0,049
-472,489	314,668	0,067	-0,093
-471,474	443,360	0,030	0,048
-470,459	-84,516	-0,041	-0,010
-469,445	229,345	-0,076	-0,091
-468,430	186,778	0,111	-0,122
-467,416	60,449	-0,065	-0,048
-466,401	800,000	-0,026	-0,056
-465,386	-99,220	-0,036	0,007
-464,372	-200,000	-0,005	-0,126
-463,357	213,120	0,012	0,014
-462,343	236,037	0,038	0,047
-461,328	18,306	0,035	0,020
-460,313	800,000	-0,025	-0,075
-459,299	235,274	0,108	-0,132
-458,284	-200,000	0,012	0,071
-457,270	92,675	-0,017	-0,014
-456,255	-200,000	-0,006	-0,073
-455,241	26,719	0,066	-0,041
-454,226	78,615	0,043	-0,033
-453,211	592,961	0,055	0,101
-452,197	-200,000	0,022	-0,106
-451,182	26,879	-0,100	0,062
-450,168	331,805	0,055	0,078
-449,153	154,426	-0,110	-0,111
-448,138	800,000	-0,032	-0,097
-447,124	304,151	-0,024	-0,033
-446,109	-200,000	0,014	-0,163
-445,095	-35,807	0,206	-0,082
-444,080	-200,000	0,005	0,098
-443,065	-200,000	0,041	0,233
-442,051	521,079	0,087	-0,150
-441,036	-36,834	-0,177	-0,070
-440,022	-9,537	-0,068	0,033
-439,007	174,163	-0,027	0,029
-437,992	-200,000	-0,001	0,104
-436,978	800,000	-0,016	0,052
-435,963	43,286	-0,100	0,067
-434,949	-79,404	0,071	-0,018
-433,934	145,156	-0,063	0,062
-432,919	165,726	-0,048	-0,050
-431,905	604,020	-0,078	-0,143
-430,890	-200,000	0,005	0,045
-429,876	528,162	0,075	-0,130
-428,861	-200,000	-0,035	-0,212
-427,846	40,507	-0,097	0,064
-426,832	800,000	-0,005	0,015
-425,817	287,512	0,079	-0,106
-424,803	-45,812	0,026	-0,009
-423,788	-200,000	0,127	0,000
-422,773	38,396	0,027	-0,017
-421,759	146,158	-0,066	0,065
-420,744	256,769	-0,047	0,060
-419,730	-54,447	-0,135	0,045
-418,715	-58,375	-0,085	0,027
-417,701	-62,694	0,105	-0,032
-416,686	-55,671	0,147	-0,048
-415,671	192,800	-0,032	0,036
-414,657	800,000	0,022	-0,065
-413,642	800,000	-0,052	0,106
-412,628	-37,124	0,049	0,019
-411,613	-200,000	-0,019	-0,066
-410,598	487,256	0,012	-0,020
-409,584	-200,000	-0,024	0,163
-408,569	-100,158	-0,022	0,004
-407,555	446,720	0,064	-0,104
-406,540	31,382	-0,104	0,066
-405,525	-200,000	-0,001	0,005
-404,511	-6,644	0,057	0,028
-403,496	-118,486	-0,051	0,007
-402,482	129,922	0,059	0,055
-401,467	51,591	-0,078	-0,054
-400,452	316,174	0,115	0,159
-399,438	-58,136	-0,043	0,014
-398,423	70,141	-0,061	-0,046
-397,409	-59,079	-0,025	-0,008
-396,394	-200,000	0,039	-0,128
-395,379	-137,558	0,085	-0,007
-394,365	-200,000	0,007	0,081
-393,350	194,737	0,082	0,091
-392,336	127,207	0,031	0,029
-391,321	173,866	0,021	0,022
-390,306	-200,000	0,049	-0,195
-389,292	-122,888	-0,079	0,009
-388,277	-200,000	-0,009	-0,092
-387,263	-200,000	0,005	-0,122
-386,248	-60,833	0,110	0,034
-385,233	-200,000	0,001	0,126
-384,219	-200,000	-0,009	0,047
-383,204	-12,347	0,080	0,038
-382,190	-36,724	0,124	0,049
-381,175	236,611	-0,102	-0,125
-380,160	449,669	0,039	-0,063
-379,146	170,021	-0,098	0,103
-378,131	616,511	-0,027	-0,049
-377,117	334,885	0,041	0,058
-376,102	800,000	-0,031	0,066
-375,088	215,158	-0,116	-0,135
-374,073	-23,941	0,052	0,023
-373,058	-200,000	0,014	-0,069
-372,044	-200,000	-0,004	-0,086
-371,029	346,652	-0,019	-0,027
-370,015	681,200	-0,072	-0,138
-369,000	-146,463	0,050	-0,003
-367,985	724,292	0,026	-0,051
-366,971	-3,855	-0,058	0,030
-365,956	-68,904	0,074	0,021
-364,942	597,057	0,012	-0,022
-363,927	-62,857	0,070	0,021
-362,912	800,000	0,031	-0,092
-361,898	-200,000	-0,003	0,182
-360,883	-200,000	-0,013	0,052
-359,869	-80,118	-0,023	-0,006
-358,854	-200,000	-0,032	0,173
-357,839	-55,639	0,021	-0,007
-356,825	800,000	-0,018	0,048
-355,810	89,254	0,075	-0,061
-354,796	19,223	0,028	-0,016
-353,781	-63,204	-0,118	0,035
-352,766	106,707	0,052	0,045
-351,752	-200,000	0,014	0,071
-350,737	498,272	0,030	0,051
-349,723	-80,677	-0,078	0,019
-348,708	452,964	0,039	-0,063
-347,693	20,629	-0,105	0,062
-346,679	-102,507	-0,059	0,010
-345,664	-46,101	0,083	0,030
-344,650	-177,976	0,101	0,002
-343,635	-46,224	0,087	0,031
-342,620	-143,042	0,059	-0,004
-341,606	330,979	0,030	-0,043
-340,591	-151,755	-0,179	-0,010
-339,577	-200,000	-0,010	0,033
-338,562	800,000	-0,025	-0,069
-337,548	-80,450	0,077	-0,019
-336,533	800,000	-0,006	0,014
-335,518	800,000	0,019	0,049
-334,504	93,459	0,007	0,005
-333,489	-200,000	-0,001	0,039
-332,475	800,000	0,036	-0,110
-331,460	800,000	0,030	-0,082
-330,445	-200,000	-0,029	-0,186
-329,431	54,127	0,067	0,047
-328,416	100,409	-0,009	-0,008
-327,402	800,000	-0,052	0,109
-326,387	-93,652	-0,094	0,019
-325,372	-200,000	-0,011	0,082
-324,358	-32,317	0,172	-0,070
-323,343	365,793	0,101	0,150
-322,329	800,000	0,047	0,120
-321,314	45,559	0,046	0,031
-320,299	474,497	0,019	0,032
-319,285	215,725	-0,045	-0,052
-318,270	-200,000	0,018	-0,142
-317,256	800,000	0,016	-0,037
-316,241	500,517	-0,028	-0,047
-315,226	73,770	0,097	0,074
-314,212	800,000	0,044	0,099
-313,197	-82,010	-0,051	0,012
-312,183	800,000	-0,052	0,107
-311,168	800,000	0,041	-0,112
-310,153	-200,000	0,009	-0,054
-309,139	800,000	0,028	-0,062
-308,124	-8,649	-0,102	-0,050
-307,110	-8,779	0,070	-0,034
-306,095	91,191	0,044	0,036
-305,080	-84,830	-0,046	0,010
-304,066	293,951	-0,086	-0,115
-303,051	160,671	-0,012	-0,012
-302,037	-49,221	-0,063	0,022
-301,022	-159,719	-0,090	0,004
-300,008	-83,049	0,096	0,022
-298,993	800,000	-0,043	-0,105
-297,978	800,000	-0,030	-0,086
-296,964	765,552	0,032	-0,063
-295,949	-200,000	-0,014	0,141
-294,935	385,991	-0,056	-0,084
-293,920	-110,295	0,219	-0,033
-292,905	-200,000	-0,007	0,061
-291,891	11,703	-0,062	0,035
-290,876	33,648	0,092	0,059
-289,862	-135,507	-0,111	-0,010
-288,847	-73,344	0,007	0,002
-287,832	800,000	0,058	-0,136
-286,818	40,232	0,052	-0,034
-285,803	-200,000	-0,011	0,061
-284,789	41,065	0,091	-0,060
-283,774	800,000	-0,040	0,094
-282,759	132,400	0,073	0,069
-281,745	-87,318	-0,140	0,031
-280,730	-88,565	-0,055	0,012
-279,716	-79,881	0,029	0,007
-278,701	-200,000	-0,012	0,093
-277,686	800,000	-0,009	-0,029
-276,672	185,105	0,052	0,057
-275,657	453,129	-0,030	-0,048
-274,643	258,889	-0,046	-0,058
-273,628	-183,248	-0,044	-0,001
-272,613	-200,000	0,002	-0,034
-271,599	800,000	0,025	-0,081
-270,584	16,917	0,024	-0,014
-269,570	465,516	-0,041	0,067
-268,555	499,264	-0,030	0,051
-267,540	-200,000	0,018	-0,084
-266,526	-200,000	-0,026	-0,107
-265,511	54,634	-0,103	0,073
-264,497	228,423	0,114	0,136
-263,482	725,209	0,029	0,057
-262,467	800,000	0,071	0,187
-261,453	343,034	-0,069	0,099
-260,438	-61,429	-0,135	-0,041
-259,424	-7,360	0,120	-0,059
-258,409	50,756	-0,142	-0,098
-257,395	-76,336	0,104	0,027
-256,380	-200,000	-0,003	0,034
-255,365	334,167	0,017	0,024
-254,351	-108,699	-0,082	0,013
-253,336	800,000	0,046	-0,095
-252,322	182,388	-0,056	0,060
-251,307	469,848	0,060	0,099
-250,292	-20,590	0,084	-0,038
-249,278	-200,000	0,026	0,118
-248,263	-142,302	0,120	-0,009
-247,249	134,064	-0,056	-0,053
-246,234	-200,000	-0,008	-0,058
-245,219	297,381	0,057	-0,077
-244,205	-85,245	0,036	0,008
-243,190	-200,000	0,009	0,051
-242,176	-48,570	-0,155	0,054
-241,161	74,630	0,080	0,061
-240,146	-91,282	0,164	-0,034
-239,132	195,760	-0,061	-0,068
-238,117	-200,000	-0,015	-0,136
-237,103	-100,614	-0,054	-0,010
-236,088	-200,000	0,002	-0,034
-235,073	-14,696	-0,077	0,036
-234,059	-200,000	-0,005	0,056
-233,044	10,962	-0,148	-0,082
-232,030	-87,058	0,051	0,011
-231,015	-96,761	-0,062	-0,012
-230,000	-16,156	-0,055	0,025
-228,986	-200,000	-0,002	0,009
-227,971	-200,000	0,015	-0,062
-226,957	-200,000	0,069	0,253
-225,942	-18,096	-0,082	0,037
-224,927	167,835	-0,054	0,056
-223,913	-60,688	-0,106	-0,033
-222,898	128,980	-0,126	-0,117
-221,884	800,000	-0,037	0,082
-220,869	-200,000	0,032	-0,140
-219,855	71,183	0,072	-0,055
-218,840	800,000	-0,010	-0,028
-217,825	-96,741	0,054	0,010
-216,811	252,918	0,065	0,081
-215,796	238,195	0,033	-0,040
-214,782	69,632	-0,061	0,046
-213,767	95,089	-0,067	0,056
-212,752	61,923	0,144	0,105
-211,738	541,970	-0,029	0,051
-210,723	401,706	-0,113	0,173
-209,709	-129,883	-0,129	0,013
-208,694	800,000	-0,077	-0,163
-207,679	800,000	0,060	-0,131
-206,665	295,640	-0,036	-0,048
-205,650	800,000	0,019	-0,059
-204,636	-200,000	0,014	0,124
-203,621	-177,787	-0,064	-0,001
-202,606	-200,000	0,014	-0,071
-201,592	113,036	0,088	-0,077
-200,577	270,277	-0,030	-0,039
-199,563	148,529	0,076	0,075
-198,548	57,498	0,047	0,034
-197,533	147,418	0,057	0,056
-196,519	-139,384	0,060	0,005
-195,504	800,000	-0,045	-0,112
-194,490	-53,777	-0,118	0,039
-193,475	311,789	0,015	-0,021
-192,460	18,346	0,068	0,039
-191,446	638,455	0,070	0,131
-190,431	800,000	-0,047	0,121
-189,417	800,000	-0,030	0,089
-188,402	800,000	0,044	-0,092
-187,387	-129,138	0,041	-0,004
-186,373	-42,569	0,118	0,044
-185,358	17,065	0,066	-0,038
-184,344	127,022	0,063	0,058
-183,329	-200,000	0,002	-0,173
-182,315	800,000	0,021	-0,057
-181,300	379,471	0,014	-0,021
-180,285	-200,000	0,003	0,102
-179,271	32,331	-0,021	0,013
-178,256	-73,040	0,103	-0,027
-177,242	-138,206	-0,031	0,002
-176,227	-200,000	-0,002	0,038
-175,212	800,000	0,031	-0,068
-174,198	64,146	-0,072	0,053
-173,183	48,212	-0,079	0,053
-172,169	800,000	0,048	-0,104
-171,154	400,052	-0,054	0,083
-170,139	-78,257	0,110	0,027
-169,125	-200,000	0,005	0,129
-168,110	267,547	-0,098	0,126
-167,096	193,334	-0,026	0,028
-166,081	-78,415	0,034	-0,009
-165,066	-200,000	0,010	0,037
-164,052	800,000	0,033	-0,075
-163,037	88,314	0,115	0,093
-162,023	-28,843	0,087	-0,036
-161,008	222,840	0,065	0,077
-159,993	388,716	0,146	0,220
-158,979	-135,217	-0,159	-0,014
-157,964	-200,000	-0,026	-0,217
-156,950	-200,000	0,001	0,094
-155,935	132,689	0,055	-0,052
-154,920	-7,829	0,109	-0,053
-153,906	39,490	0,137	-0,089
-152,891	-200,000	0,005	0,143
-151,877	800,000	-0,046	0,140
-150,862	-76,168	-0,167	-0,043
-149,847	800,000	0,041	-0,126
-148,833	-108,047	0,031	0,005
-147,818	3,503	0,143	0,075
-146,804	193,924	-0,027	0,030
-145,789	-110,781	0,092	0,014
-144,775	48,710	-0,121	-0,082
-143,760	-200,000	-0,001	0,090
-142,745	48,143	0,159	0,108
-141,731	317,501	0,093	-0,128
-140,716	800,000	0,028	0,084
-139,702	-157,427	-0,070	-0,003
-138,687	800,000	0,064	0,179
-137,672	-200,000	-0,004	-0,036
-136,658	243,323	-0,039	-0,048
-135,643	-200,000	-0,056	-0,195
-134,629	800,000	-0,055	0,138
-133,614	32,444	-0,129	0,081
-132,599	-148,584	0,115	-0,007
-131,585	-200,000	0,001	-0,017
-130,570	247,150	-0,014	-0,018
-129,556	800,000	0,034	-0,097
-128,541	-200,000	0,005	0,052
-127,526	69,544	-0,038	-0,028
-126,512	300,727	0,042	0,056
-125,497	18,608	0,058	0,034
-124,483	800,000	-0,033	0,088
-123,468	344,100	-0,022	0,032
-122,453	-200,000	-0,013	0,107
-121,439	380,775	0,070	0,105
-120,424	800,000	-0,039	0,080
-119,410	-93,937	0,196	0,039
