DTS Sentinel unit serial number:	SN410029Multiplexer serial number:	ORYXHardware model number:	OX2-SRSoftware version number:	ORYX F/W v4,00 Oryx Data Collector v3.7.2.0data status	okinstallation	B4 Nyhavnadifferential loss correction	single-endedforward channel	channel 2reverse channel	N/Adate	2023/12/19time	13:40:13forward acquisition time	300,00reverse acquisition time	0,00gamma	499,1914k internal	0,3127k external	0,3127temperature offset calibration	1,0000default loss term (dB/km)	0,3820temperature slope calibration	1,0000multiplexer offset coefficient	1,0000multiplexer slope coefficient	1,0000fibre end	0,00T internal ref (°C)	19,39T ext. ref 1 (°C)	4,44T ext. ref 2 (°C)	4,43length (m)	temperature (°C)	Stokes	anti-Stokes-744,400	98,856	0,089	-0,076
-743,385	-129,688	-0,303	0,031
-742,371	9,502	0,108	-0,061
-741,356	-36,209	-0,341	0,136
-740,342	-145,273	0,194	-0,013
-739,327	3,936	-0,202	0,110
-738,312	-74,725	-0,137	-0,036
-737,298	-109,680	-0,347	0,054
-736,283	9,954	0,076	0,043
-735,269	-22,081	-0,178	0,080
-734,254	198,249	-0,023	-0,027
-733,239	-65,105	-0,294	-0,088
-732,225	108,681	0,145	0,129
-731,210	800,000	-0,015	0,046
-730,196	-200,000	0,018	0,076
-729,181	800,000	-0,025	-0,053
-728,167	800,000	0,025	0,064
-727,152	-80,716	-0,090	0,022
-726,137	32,311	-0,096	-0,061
-725,123	-46,770	-0,124	0,045
-724,108	-166,694	-0,079	-0,002
-723,094	408,541	-0,100	-0,158
-722,079	14,484	-0,088	-0,051
-721,064	149,687	0,101	0,101
-720,050	-200,000	0,012	-0,116
-719,035	-110,134	-0,118	-0,018
-718,021	-200,000	-0,007	0,047
-717,006	-47,924	-0,060	-0,022
-715,991	-15,390	-0,028	0,013
-714,977	176,555	0,022	-0,024
-713,962	-200,000	-0,011	-0,047
-712,948	20,614	0,089	0,053
-711,933	-200,000	-0,003	-0,014
-710,918	31,810	-0,053	-0,034
-709,904	145,306	-0,072	-0,072
-708,889	-152,870	-0,102	0,005
-707,875	-200,000	0,003	-0,013
-706,860	7,751	-0,066	0,036
-705,845	-40,194	0,088	0,034
-704,831	-19,735	-0,072	0,033
-703,816	-10,273	-0,024	-0,012
-702,802	-200,000	0,001	0,033
-701,787	143,204	0,032	0,031
-700,772	546,243	-0,049	-0,087
-699,758	-200,000	0,003	0,086
-698,743	-36,845	0,039	-0,015
-697,729	-200,000	0,052	-0,184
-696,714	92,978	0,056	-0,047
-695,699	-200,000	-0,011	-0,051
-694,685	-99,560	-0,055	-0,010
-693,670	81,043	-0,053	-0,043
-692,656	-200,000	0,009	-0,088
-691,641	119,689	-0,031	-0,029
-690,627	-48,690	0,030	0,011
-689,612	-67,357	-0,047	-0,014
-688,597	-200,000	0,018	-0,077
-687,583	800,000	0,016	-0,043
-686,568	26,504	-0,107	0,066
-685,554	170,084	-0,056	-0,060
-684,539	369,422	-0,062	-0,094
-683,524	369,219	-0,053	0,081
-682,510	-24,441	-0,061	-0,027
-681,495	366,673	0,012	0,018
-680,481	800,000	-0,066	-0,142
-679,466	-200,000	0,008	-0,068
-678,451	123,681	-0,054	-0,050
-677,437	2,764	0,134	0,072
-676,422	283,389	-0,079	0,106
-675,408	800,000	0,018	-0,049
-674,393	800,000	-0,013	0,036
-673,378	-120,487	-0,056	0,007
-672,364	800,000	-0,039	-0,081
-671,349	-79,043	-0,068	-0,017
-670,335	272,126	0,034	-0,044
-669,320	-13,389	-0,010	-0,005
-668,305	570,491	0,056	-0,102
-667,291	-200,000	-0,019	-0,118
-666,276	-200,000	-0,026	-0,085
-665,262	10,249	-0,059	-0,033
-664,247	-154,640	-0,049	0,002
-663,232	129,326	0,096	0,091
-662,218	477,972	0,049	0,082
-661,203	-49,914	-0,099	0,035
-660,189	-200,000	-0,018	0,080
-659,174	194,383	-0,068	0,076
-658,159	188,133	0,052	-0,058
-657,145	800,000	-0,033	-0,068
-656,130	-200,000	0,033	-0,188
-655,116	65,712	-0,053	0,040
-654,101	515,686	-0,096	0,167
-653,086	-43,189	-0,150	-0,056
-652,072	800,000	-0,021	-0,052
-651,057	-200,000	-0,005	-0,119
-650,043	158,628	-0,092	-0,095
-649,028	800,000	-0,016	-0,039
-648,014	50,477	0,062	-0,044
-646,999	-200,000	0,000	0,008
-645,984	-85,689	0,034	0,008
-644,970	-63,641	-0,105	0,032
-643,955	193,520	-0,037	-0,041
-642,941	-200,000	0,011	-0,074
-641,926	-200,000	-0,049	0,167
-640,911	359,072	0,021	0,032
-639,897	174,024	0,051	0,055
-638,882	162,502	0,010	-0,011
-637,868	688,329	-0,037	-0,072
-636,853	-8,437	-0,077	-0,038
-635,838	-132,223	-0,088	0,008
-634,824	-200,000	-0,009	-0,061
-633,809	800,000	0,048	0,129
-632,795	741,836	-0,025	0,051
-631,780	56,807	0,048	-0,035
-630,765	147,981	-0,079	-0,079
-629,751	-200,000	-0,029	-0,192
-628,736	37,338	-0,128	-0,084
-627,722	461,622	-0,102	-0,170
-626,707	-200,000	0,033	0,141
-625,692	-87,443	-0,059	0,013
-624,678	-176,344	0,023	-0,000
-623,663	464,851	0,013	0,022
-622,649	716,383	-0,060	-0,119
-621,634	701,258	-0,075	-0,147
-620,619	-200,000	0,015	0,119
-619,605	177,449	0,044	0,048
-618,590	60,489	0,047	-0,035
-617,576	304,814	0,087	0,121
-616,561	-11,506	-0,165	0,080
-615,546	125,570	-0,088	-0,082
-614,532	-200,000	-0,039	-0,139
-613,517	-7,066	-0,119	-0,060
-612,503	-36,562	0,143	-0,057
-611,488	-200,000	-0,039	-0,164
-610,474	106,165	-0,040	-0,035
-609,459	235,542	0,089	0,108
-608,444	143,138	0,016	0,016
-607,430	-57,918	0,052	0,017
-606,415	628,313	0,045	-0,084
-605,401	-59,536	0,099	0,031
-604,386	35,903	-0,077	-0,050
-603,371	-200,000	0,011	0,143
-602,357	45,641	0,093	-0,063
-601,342	699,015	-0,034	-0,067
-600,328	-112,466	0,058	-0,008
-599,313	560,268	-0,037	-0,066
-598,298	28,599	-0,042	0,026
-597,284	749,705	-0,017	0,034
-596,269	-200,000	-0,003	0,062
-595,255	-68,854	-0,095	-0,027
-594,240	-113,767	-0,054	-0,008
-593,225	56,584	0,034	-0,024
-592,211	800,000	0,058	-0,140
-591,196	115,673	0,058	-0,052
-590,182	-63,793	-0,053	-0,016
-589,167	796,667	0,058	-0,118
-588,152	-200,000	0,009	0,050
-587,138	-200,000	0,002	-0,126
-586,123	111,800	-0,090	-0,080
-585,109	-200,000	0,029	-0,124
-584,094	115,513	-0,122	0,110
-583,079	800,000	-0,043	-0,130
-582,065	800,000	0,067	-0,148
-581,050	-200,000	0,006	0,125
-580,036	-200,000	0,006	-0,115
-579,021	-200,000	-0,014	-0,095
-578,006	-200,000	0,020	-0,098
-576,992	-128,952	-0,192	0,020
-575,977	176,589	-0,109	0,118
-574,963	800,000	-0,024	0,064
-573,948	-68,663	-0,051	-0,015
-572,934	800,000	-0,017	0,054
-571,919	-89,897	0,012	0,003
-570,904	-200,000	0,001	-0,071
-569,890	139,274	0,025	-0,024
-568,875	369,556	0,042	-0,063
-567,861	457,922	0,036	-0,060
-566,846	-24,542	0,114	-0,050
-565,831	-200,000	0,012	-0,069
-564,817	-3,385	-0,084	-0,043
-563,802	-200,000	0,011	-0,043
-562,788	-172,847	0,019	0,000
-561,773	227,225	-0,037	0,045
-560,758	233,715	0,074	-0,090
-559,744	539,125	0,022	0,038
-558,729	-125,093	0,033	-0,004
-557,715	105,606	0,053	-0,046
-556,700	-53,176	-0,155	-0,052
-555,685	-200,000	0,002	-0,019
-554,671	119,176	0,046	-0,042
-553,656	-105,945	-0,029	-0,005
-552,642	14,271	0,089	-0,051
-551,627	60,925	0,046	-0,034
-550,612	800,000	-0,034	-0,109
-549,598	-122,146	-0,079	0,010
-548,583	345,365	-0,019	0,028
-547,569	79,296	-0,034	-0,027
-546,554	-40,266	0,068	-0,026
-545,539	69,313	0,078	0,059
-544,525	111,664	-0,063	0,056
-543,510	122,967	0,019	-0,017
-542,496	83,286	-0,117	-0,094
-541,481	-200,000	0,009	-0,074
-540,466	-141,330	-0,080	-0,006
-539,452	41,724	0,070	-0,047
-538,437	-73,105	-0,146	-0,039
-537,423	-1,623	-0,021	0,011
-536,408	-63,350	0,087	-0,026
-535,393	800,000	-0,010	-0,031
-534,379	-200,000	0,027	0,093
-533,364	53,264	-0,030	-0,021
-532,350	-200,000	-0,013	-0,098
-531,335	-90,867	0,068	-0,014
-530,321	136,990	-0,099	0,096
-529,306	542,330	-0,006	0,011
-528,291	-88,392	0,062	-0,014
-527,277	-200,000	0,018	-0,058
-526,262	188,042	-0,052	-0,057
-525,248	800,000	-0,044	0,094
-524,233	110,900	-0,029	0,026
-523,218	-79,656	-0,051	0,013
-522,204	-39,594	0,108	0,042
-521,189	-47,904	-0,043	-0,015
-520,175	261,411	0,069	-0,088
-519,160	-200,000	-0,005	-0,066
-518,145	87,697	0,063	-0,052
-517,131	-14,269	0,090	0,043
-516,116	-83,044	0,077	-0,018
-515,102	89,257	-0,083	0,069
-514,087	-200,000	0,035	-0,127
-513,072	800,000	-0,046	0,149
-512,058	406,693	0,038	0,059
-511,043	194,653	0,129	-0,144
-510,029	266,827	-0,061	0,079
-509,014	800,000	0,022	0,070
-507,999	-1,412	-0,081	-0,042
-506,985	-200,000	-0,001	-0,088
-505,970	-7,502	-0,083	0,041
-504,956	184,747	0,106	-0,116
-503,941	741,567	-0,036	0,072
-502,926	-200,000	0,011	0,134
-501,912	155,953	-0,087	0,089
-500,897	48,643	-0,033	0,023
-499,883	631,751	0,017	0,033
-498,868	206,801	-0,144	0,166
-497,853	-200,000	0,022	-0,081
-496,839	-82,717	-0,093	-0,022
-495,824	91,753	0,073	0,061
-494,810	-53,425	0,121	-0,041
-493,795	10,777	0,087	0,049
-492,781	-122,118	-0,038	0,005
-491,766	312,380	-0,084	0,116
-490,751	411,041	-0,036	-0,056
-489,737	-35,550	-0,061	0,024
-488,722	324,449	0,064	0,091
-487,708	624,785	0,029	0,054
-486,693	-200,000	-0,011	0,074
-485,678	615,931	0,046	-0,086
-484,664	-200,000	-0,005	0,084
-483,649	174,615	-0,059	0,063
-482,635	-200,000	0,036	-0,202
-481,620	-200,000	0,028	-0,133
-480,605	-89,276	0,027	0,006
-479,591	722,495	-0,066	0,130
-478,576	493,611	0,037	0,062
-477,562	309,262	-0,138	-0,190
-476,547	-200,000	0,008	-0,101
-475,532	800,000	0,048	0,127
-474,518	-200,000	0,148	-0,000
-473,503	78,519	-0,038	-0,030
-472,489	-200,000	0,000	0,102
-471,474	-79,002	0,015	-0,004
-470,459	220,051	-0,106	-0,126
-469,445	-200,000	-0,010	0,084
-468,430	47,670	-0,110	-0,075
-467,416	-115,172	-0,090	-0,012
-466,401	-87,040	-0,085	0,019
-465,386	-54,026	0,046	0,015
-464,372	-200,000	-0,001	-0,040
-463,357	250,357	0,078	-0,097
-462,343	-126,170	-0,079	0,009
-461,328	-9,680	0,159	-0,078
-460,313	-200,000	0,004	-0,059
-459,299	800,000	0,051	-0,112
-458,284	90,981	0,032	0,027
-457,270	273,890	0,111	0,145
-456,255	787,825	0,035	-0,070
-455,241	420,114	-0,036	-0,058
-454,226	-61,220	0,040	0,012
-453,211	35,803	0,070	0,045
-452,197	236,276	0,050	0,060
-451,182	338,778	-0,069	0,099
-450,168	238,841	0,108	0,132
-449,153	130,527	-0,103	0,097
-448,138	404,121	0,061	-0,094
-447,124	-200,000	-0,044	-0,179
-446,109	-200,000	-0,011	-0,120
-445,095	-200,000	-0,019	-0,132
-444,080	-138,720	0,165	0,013
-443,065	-141,980	-0,157	-0,011
-442,051	169,328	-0,080	0,085
-441,036	-200,000	-0,017	-0,067
-440,022	762,243	-0,083	-0,166
-439,007	-200,000	0,011	-0,080
-437,992	-92,202	-0,016	0,003
-436,978	-15,513	0,085	-0,040
-435,963	800,000	0,023	0,069
-434,949	-200,000	0,013	-0,079
-433,934	-200,000	0,010	0,078
-432,919	-77,448	-0,176	0,044
-431,905	338,921	0,028	-0,041
-430,890	-14,599	0,052	0,025
-429,876	322,513	0,029	-0,041
-428,861	344,005	-0,037	0,054
-427,846	37,091	-0,092	-0,060
-426,832	-153,321	-0,098	0,005
-425,817	800,000	0,028	0,075
-424,803	38,138	0,052	-0,034
-423,788	154,859	-0,031	0,031
-422,773	-200,000	0,006	0,081
-421,759	91,366	-0,085	0,070
-420,744	480,629	-0,071	0,119
-419,730	658,796	-0,037	-0,071
-418,715	-102,017	-0,056	0,010
-417,701	-200,000	-0,003	-0,125
-416,686	-169,820	0,105	-0,003
-415,671	24,294	-0,012	-0,007
-414,657	-200,000	0,016	0,084
-413,642	-6,633	-0,069	0,034
-412,628	-37,641	-0,034	0,013
-411,613	-102,766	-0,125	-0,022
-410,598	90,829	0,022	0,018
-409,584	-149,194	0,086	-0,005
-408,569	518,174	0,051	0,087
-407,555	20,674	0,046	0,027
-406,540	-56,651	0,076	0,025
-405,525	88,032	-0,069	-0,056
-404,511	67,551	0,055	0,041
-403,496	-200,000	-0,001	-0,182
-402,482	-1,875	0,071	0,037
-401,467	-200,000	0,030	0,107
-400,452	-200,000	0,001	0,106
-399,438	797,614	0,034	0,068
-398,423	2,384	-0,055	-0,029
-397,409	3,347	0,026	0,014
-396,394	-121,240	-0,060	0,007
-395,379	-200,000	-0,013	0,203
-394,365	118,506	0,121	-0,110
-393,350	714,775	0,028	-0,054
-392,336	-200,000	0,000	0,168
-391,321	308,324	-0,053	0,073
-390,306	-91,800	-0,102	0,021
-389,292	-22,276	-0,054	-0,024
-388,277	-102,451	0,082	0,014
-387,263	800,000	-0,039	0,112
-386,248	-200,000	-0,003	-0,074
-385,233	68,699	0,029	0,022
-384,219	800,000	-0,031	0,084
-383,204	800,000	-0,006	-0,017
-382,190	-82,936	-0,080	-0,019
-381,175	-200,000	-0,011	0,044
-380,160	97,340	-0,076	0,064
-379,146	636,311	0,043	0,081
-378,131	100,088	0,098	0,083
-377,117	-200,000	0,011	0,075
-376,102	-126,126	0,090	-0,010
-375,088	-200,000	-0,035	-0,131
-374,073	92,540	-0,139	-0,115
-373,058	-118,750	0,054	0,007
-372,044	-107,298	-0,078	0,013
-371,029	800,000	-0,027	0,076
-370,015	-52,857	-0,039	0,013
-369,000	12,653	-0,140	-0,079
-367,985	-122,746	-0,044	0,005
-366,971	-48,162	-0,016	0,006
-365,956	-200,000	0,035	-0,140
-364,942	-131,801	-0,098	0,009
-363,927	315,973	-0,032	0,045
-362,912	-200,000	0,011	0,122
-361,898	314,977	-0,071	0,099
-360,883	800,000	-0,014	0,032
-359,869	37,857	-0,086	-0,056
-358,854	-200,000	0,019	0,244
-357,839	310,598	0,074	0,103
-356,825	-200,000	-0,010	-0,084
-355,810	3,548	0,074	0,039
-354,796	194,533	-0,041	0,046
-353,781	199,225	0,036	-0,041
-352,766	-200,000	-0,009	0,043
-351,752	100,483	0,054	-0,046
-350,737	250,814	0,079	-0,099
-349,723	749,992	0,008	-0,016
-348,708	-200,000	-0,012	-0,154
-347,693	-92,499	-0,170	0,035
-346,679	-105,526	0,121	-0,020
-345,664	7,459	0,077	-0,042
-344,650	331,658	0,009	0,012
-343,635	-191,812	-0,186	-0,001
-342,620	710,929	-0,062	0,121
-341,606	118,963	0,087	0,079
-340,591	13,052	-0,118	0,067
-339,577	616,806	0,022	-0,041
-338,562	-200,000	-0,003	-0,127
-337,548	-200,000	0,007	-0,047
-336,533	-53,699	0,112	-0,037
-335,518	-200,000	0,015	0,133
-334,504	-65,430	0,056	0,017
-333,489	-200,000	-0,002	-0,021
-332,475	-200,000	0,054	-0,177
-331,460	-200,000	-0,011	-0,104
-330,445	800,000	0,018	0,054
-329,431	-93,712	0,061	0,012
-328,416	27,387	0,081	0,050
-327,402	62,256	-0,030	0,022
-326,387	-200,000	0,004	0,036
-325,372	-79,501	-0,068	0,017
-324,358	-200,000	0,010	0,098
-323,343	348,447	0,053	0,077
-322,329	-19,964	-0,063	0,028
-321,314	-200,000	0,001	-0,008
-320,299	-200,000	0,020	0,083
-319,285	103,509	0,021	0,018
-318,270	599,965	-0,036	-0,065
-317,256	-200,000	0,031	-0,106
-316,241	-168,935	-0,048	-0,001
-315,226	-23,786	0,131	-0,057
-314,212	468,927	0,097	0,161
-313,197	-30,559	-0,100	-0,041
-312,183	95,084	0,066	-0,055
-311,168	-200,000	0,001	-0,199
-310,153	711,416	-0,024	-0,046
-309,139	330,533	0,049	-0,069
-308,124	-65,384	0,055	0,016
-307,110	800,000	0,078	0,218
-306,095	800,000	-0,020	0,059
-305,080	82,946	0,002	0,001
-304,066	-200,000	0,013	0,080
-303,051	-23,110	-0,079	0,035
-302,037	-200,000	-0,017	-0,088
-301,022	112,722	0,098	0,086
-300,008	771,136	-0,050	0,100
-298,993	-11,593	-0,041	0,020
-297,978	242,809	-0,024	0,030
-296,964	-36,077	0,036	0,014
-295,949	-200,000	-0,002	-0,036
-294,935	45,535	-0,029	-0,020
-293,920	101,151	0,027	0,023
-292,905	82,488	0,016	-0,012
-291,891	800,000	0,037	0,089
-290,876	1,731	0,077	-0,040
-289,862	516,924	0,015	-0,025
-288,847	68,903	-0,024	-0,018
-287,832	-200,000	-0,009	0,035
-286,818	-115,737	-0,045	0,006
-285,803	800,000	0,038	0,086
-284,789	-59,542	0,084	-0,026
-283,774	190,988	-0,087	0,095
-282,759	31,468	-0,079	0,050
-281,745	-112,284	-0,147	-0,021
-280,730	-200,000	-0,013	0,135
-279,716	-199,322	-0,057	-0,000
-278,701	800,000	0,046	-0,123
-277,686	452,313	-0,074	0,120
-276,672	154,610	-0,048	-0,048
-275,657	-134,059	0,165	-0,015
-274,643	800,000	-0,016	0,038
-273,628	18,729	-0,041	-0,024
-272,613	-63,942	0,117	-0,035
-271,599	-6,415	0,082	-0,040
-270,584	-200,000	0,011	0,072
-269,570	-31,806	0,105	0,043
-268,555	-175,349	-0,094	-0,002
-267,540	730,188	-0,027	-0,054
-266,526	159,179	-0,071	0,072
-265,511	-200,000	-0,030	-0,106
-264,497	789,531	-0,072	-0,145
-263,482	224,386	0,109	-0,128
-262,467	594,702	-0,054	0,098
-261,453	65,167	0,055	-0,041
-260,438	275,977	0,036	0,047
-259,424	-200,000	-0,008	-0,111
-258,409	-124,023	0,080	-0,009
-257,395	800,000	-0,041	0,088
-256,380	-3,747	0,215	-0,109
-255,365	59,824	0,043	-0,031
-254,351	-6,550	-0,113	-0,056
-253,336	-200,000	-0,002	-0,026
-252,322	-34,042	-0,124	-0,049
-251,307	-85,527	-0,078	0,017
-250,292	-138,671	0,040	-0,003
-249,278	-135,009	0,137	0,012
-248,263	800,000	-0,039	-0,112
-247,249	-63,389	-0,077	0,023
-246,234	800,000	0,030	-0,091
-245,219	162,708	0,101	-0,104
-244,205	-160,923	0,131	0,005
-243,190	143,783	-0,064	0,063
-242,176	332,010	-0,025	0,036
-241,161	-77,135	0,130	0,033
-240,146	-200,000	0,033	0,141
-239,132	-20,847	-0,029	0,013
-238,117	48,792	0,057	0,039
-237,103	548,690	0,015	-0,026
-236,088	-69,520	0,102	0,028
-235,073	-5,651	-0,030	0,015
-234,059	52,702	0,080	-0,056
-233,044	311,538	0,084	0,115
-232,030	9,904	0,109	-0,060
-231,015	-200,000	0,001	-0,014
-230,000	204,424	-0,082	0,093
-228,986	-200,000	0,007	0,089
-227,971	800,000	0,029	0,072
-226,957	151,407	0,180	0,179
-225,942	339,782	0,028	-0,040
-224,927	25,938	-0,064	-0,039
-223,913	209,228	0,028	0,032
-222,898	-200,000	-0,003	0,042
-221,884	50,189	-0,116	-0,080
-220,869	-154,876	0,123	-0,006
-219,855	800,000	0,048	0,120
-218,840	-26,320	-0,072	0,031
-217,825	18,380	0,081	0,047
-216,811	-135,806	0,123	-0,010
-215,796	243,247	-0,044	-0,054
-214,782	159,957	-0,116	-0,118
-213,767	185,527	0,061	0,067
-212,752	104,681	0,097	0,083
-211,738	110,660	0,155	0,136
-210,723	-200,000	0,024	0,114
-209,709	-200,000	0,014	-0,080
-208,694	800,000	-0,022	-0,067
-207,679	78,554	-0,042	0,033
-206,665	28,548	-0,047	0,029
-205,650	39,506	-0,079	0,051
-204,636	-133,682	0,147	0,013
-203,621	800,000	-0,060	-0,132
-202,606	-200,000	-0,011	0,058
-201,592	-14,905	0,014	0,007
-200,577	-200,000	-0,004	0,028
-199,563	722,393	0,089	0,173
-198,548	-111,593	0,134	0,020
-197,533	116,432	-0,077	0,069
-196,519	396,955	0,003	-0,005
-195,504	100,323	0,081	0,068
-194,490	183,996	-0,112	0,120
-193,475	183,159	-0,097	-0,104
-192,460	40,986	-0,067	-0,044
-191,446	-200,000	0,008	-0,045
-190,431	126,369	-0,055	0,051
-189,417	269,906	-0,059	0,076
-188,402	-39,823	-0,084	0,032
-187,387	-200,000	-0,011	-0,120
-186,373	142,173	-0,058	-0,056
-185,358	726,799	0,011	0,022
-184,344	90,747	0,049	-0,040
-183,329	-200,000	-0,023	0,125
-182,315	26,402	-0,025	0,015
-181,300	76,597	0,078	-0,060
-180,285	-51,280	0,083	0,028
-179,271	800,000	0,046	0,129
-178,256	800,000	0,036	0,077
-177,242	-22,549	-0,026	0,011
-176,227	85,997	0,016	0,013
-175,212	-200,000	0,029	0,106
-174,198	-134,078	0,066	-0,006
-173,183	68,547	-0,133	-0,099
-172,169	800,000	-0,089	-0,183
-171,154	800,000	-0,049	0,125
-170,139	513,937	-0,020	-0,033
-169,125	-200,000	0,009	0,125
-168,110	800,000	0,062	0,132
-167,096	-11,654	-0,028	0,013
-166,081	2,656	0,014	0,008
-165,066	99,774	0,130	0,109
-164,052	800,000	0,041	-0,085
-163,037	662,685	0,057	0,108
-162,023	18,332	-0,080	-0,046
-161,008	348,550	0,006	0,009
-159,993	800,000	0,017	0,049
-158,979	-164,355	0,109	-0,004
-157,964	-200,000	0,021	-0,127
-156,950	-129,523	-0,078	-0,008
-155,935	431,508	-0,065	-0,103
-154,920	67,964	0,159	-0,118
-153,906	-200,000	-0,001	0,010
-152,891	-38,177	-0,012	-0,004
-151,877	-149,281	0,083	0,005
-150,862	800,000	-0,027	0,075
-149,847	800,000	-0,035	0,104
-148,833	64,572	-0,098	-0,071
-147,818	45,870	0,093	-0,063
-146,804	36,671	-0,114	0,073
-145,789	79,872	-0,028	-0,021
-144,775	592,425	-0,063	-0,113
-143,760	-44,787	0,040	-0,015
-142,745	-200,000	0,003	0,057
-141,731	514,577	0,065	0,111
-140,716	45,712	-0,050	0,034
-139,702	-200,000	0,018	0,111
-138,687	735,041	-0,045	0,087
-137,672	-200,000	0,000	0,036
-136,658	1,679	-0,017	0,009
-135,643	-200,000	-0,007	0,038
-134,629	-200,000	0,006	-0,024
-133,614	-32,847	0,200	-0,080
-132,599	800,000	-0,037	0,093
-131,585	-200,000	0,003	0,078
-130,570	-200,000	0,005	0,087
-129,556	-200,000	-0,020	0,083
-128,541	634,876	0,061	0,113
-127,526	4,074	-0,133	0,071
-126,512	-200,000	0,004	-0,029
-125,497	-200,000	-0,016	0,096
-124,483	529,066	0,025	-0,043
-123,468	-200,000	-0,024	-0,164
-122,453	800,000	-0,035	-0,084
-121,439	-153,197	-0,121	-0,006
-120,424	4,700	-0,115	-0,061
-119,410	-39,709	-0,028	-0,011
-118,395	800,000	0,032	-0,098
