DTS Sentinel unit serial number:	SN410029Multiplexer serial number:	ORYXHardware model number:	OX2-SRSoftware version number:	ORYX F/W v4,00 Oryx Data Collector v3.7.2.0data status	okinstallation	B4 Nyhavnadifferential loss correction	single-endedforward channel	channel 2reverse channel	N/Adate	2023/12/19time	03:10:13forward acquisition time	300,00reverse acquisition time	0,00gamma	499,1914k internal	0,3125k external	0,3125temperature offset calibration	1,0000default loss term (dB/km)	0,3820temperature slope calibration	1,0000multiplexer offset coefficient	1,0000multiplexer slope coefficient	1,0000fibre end	0,00T internal ref (°C)	21,18T ext. ref 1 (°C)	6,00T ext. ref 2 (°C)	6,01length (m)	temperature (°C)	Stokes	anti-Stokes-744,400	-38,525	-0,029	-0,012
-743,385	-72,769	-0,221	0,060
-742,371	66,790	0,096	-0,072
-741,356	204,846	-0,150	0,174
-740,342	265,730	0,054	0,071
-739,327	260,615	-0,212	0,274
-738,312	-200,000	0,030	-0,126
-737,298	-117,695	-0,310	0,041
-736,283	98,933	0,108	-0,093
-735,269	-106,173	-0,237	0,039
-734,254	-1,745	-0,122	-0,064
-733,239	-90,656	-0,293	-0,062
-732,225	72,160	0,103	-0,080
-731,210	241,306	-0,118	0,147
-730,196	24,329	-0,043	-0,026
-729,181	-200,000	-0,007	-0,097
-728,167	211,614	0,034	-0,040
-727,152	275,529	-0,035	0,046
-726,137	133,807	-0,081	-0,078
-725,123	60,994	-0,135	-0,100
-724,108	-23,786	-0,171	-0,076
-723,094	-125,606	-0,105	-0,012
-722,079	-200,000	-0,030	-0,142
-721,064	304,500	-0,043	-0,059
-720,050	6,948	-0,100	-0,055
-719,035	800,000	-0,011	-0,026
-718,021	-23,086	-0,059	0,026
-717,006	371,256	-0,132	-0,200
-715,991	800,000	-0,095	-0,253
-714,977	-200,000	0,005	0,061
-713,962	-28,966	-0,107	-0,046
-712,948	-200,000	0,006	0,128
-711,933	-200,000	-0,006	-0,026
-710,918	-200,000	-0,015	-0,062
-709,904	708,171	0,060	-0,119
-708,889	800,000	-0,042	-0,125
-707,875	-139,388	-0,204	0,016
-706,860	67,001	0,093	-0,071
-705,845	-200,000	0,001	-0,042
-704,831	-141,371	-0,068	-0,005
-703,816	-36,783	0,099	0,039
-702,802	-52,968	-0,167	-0,057
-701,787	-200,000	0,034	-0,129
-700,772	-200,000	-0,030	-0,156
-699,758	-200,000	-0,001	0,121
-698,743	-74,696	0,221	-0,059
-697,729	451,876	-0,072	0,118
-696,714	286,911	-0,102	0,137
-695,699	695,500	-0,048	-0,093
-694,685	800,000	0,011	-0,031
-693,670	-200,000	0,003	-0,082
-692,656	342,566	0,061	-0,089
-691,641	-200,000	-0,016	-0,086
-690,627	-200,000	0,011	0,047
-689,612	43,070	-0,114	-0,077
-688,597	-105,745	-0,205	-0,034
-687,583	800,000	0,049	-0,124
-686,568	-200,000	-0,010	-0,062
-685,554	-140,637	-0,047	-0,004
-684,539	-143,107	0,135	-0,010
-683,524	800,000	-0,071	0,159
-682,510	409,107	0,085	0,134
-681,495	-200,000	-0,003	-0,029
-680,481	-149,827	-0,073	-0,004
-679,466	-26,101	0,061	0,026
-678,451	181,435	0,103	-0,113
-677,437	-200,000	-0,013	0,113
-676,422	362,437	-0,101	-0,151
-675,408	-146,745	-0,010	-0,001
-674,393	-107,004	-0,164	0,027
-673,378	66,904	-0,059	0,045
-672,364	470,323	0,059	0,100
-671,349	223,066	-0,067	0,080
-670,335	-29,338	0,033	0,014
-669,320	-200,000	0,031	0,000
-668,305	-200,000	0,033	0,109
-667,291	-200,000	0,023	0,124
-666,276	42,026	-0,161	0,108
-665,262	-200,000	-0,048	-0,163
-664,247	-98,478	-0,131	-0,025
-663,232	171,540	-0,024	-0,026
-662,218	-99,933	-0,115	-0,021
-661,203	46,494	-0,131	-0,090
-660,189	800,000	-0,025	-0,061
-659,174	-200,000	-0,016	-0,078
-658,159	119,957	-0,104	-0,095
-657,145	44,168	-0,070	0,048
-656,130	-77,264	-0,134	-0,034
-655,116	-200,000	-0,005	0,027
-654,101	-95,915	-0,037	-0,007
-653,086	800,000	-0,023	-0,065
-652,072	-2,108	-0,128	-0,066
-651,057	121,102	-0,111	0,102
-650,043	324,499	-0,063	-0,090
-649,028	-108,687	-0,110	0,017
-648,014	558,173	-0,028	0,051
-646,999	788,719	0,028	-0,056
-645,984	69,184	-0,084	0,064
-644,970	800,000	-0,002	0,005
-643,955	-200,000	0,001	-0,071
-642,941	800,000	-0,045	-0,099
-641,926	70,388	0,016	0,012
-640,911	-10,116	0,060	-0,029
-639,897	166,865	0,150	-0,158
-638,882	94,847	-0,089	-0,075
-637,868	43,682	0,031	0,021
-636,853	800,000	-0,012	-0,036
-635,838	211,050	-0,099	-0,116
-634,824	320,767	0,033	0,047
-633,809	-200,000	-0,003	0,135
-632,795	389,569	0,039	0,060
-631,780	-200,000	-0,031	-0,160
-630,765	620,655	-0,064	-0,120
-629,751	800,000	-0,070	-0,210
-628,736	61,468	-0,069	-0,051
-627,722	-200,000	0,004	0,026
-626,707	-35,976	0,043	0,017
-625,692	672,193	-0,017	0,033
-624,678	694,356	-0,034	-0,066
-623,663	-200,000	0,023	0,103
-622,649	8,550	-0,120	0,067
-621,634	-155,023	-0,114	-0,005
-620,619	237,779	-0,024	0,029
-619,605	381,516	-0,031	0,048
-618,590	-200,000	-0,014	0,129
-617,576	572,313	-0,035	0,063
-616,561	-156,965	0,073	0,003
-615,546	-122,607	-0,069	0,008
-614,532	462,165	-0,013	-0,022
-613,517	319,766	-0,033	0,046
-612,503	800,000	0,075	0,167
-611,488	338,842	0,053	0,076
-610,474	158,648	0,152	0,157
-609,459	-88,214	0,084	0,018
-608,444	687,734	0,056	-0,109
-607,430	70,281	-0,121	-0,093
-606,415	-46,456	-0,082	0,030
-605,401	612,193	0,052	-0,096
-604,386	32,304	0,039	0,025
-603,371	-200,000	-0,010	-0,045
-602,357	8,820	-0,120	0,067
-601,342	51,981	-0,122	-0,086
-600,328	106,498	0,023	0,020
-599,313	-200,000	0,001	-0,089
-598,298	800,000	-0,025	0,068
-597,284	267,068	0,087	0,113
-596,269	698,403	-0,038	0,074
-595,255	353,325	-0,069	-0,101
-594,240	130,592	-0,120	-0,114
-593,225	-200,000	0,028	-0,136
-592,211	800,000	-0,034	0,085
-591,196	-200,000	-0,015	0,161
-590,182	16,762	0,041	-0,024
-589,167	-200,000	0,007	0,128
-588,152	-200,000	0,007	0,027
-587,138	-33,385	0,182	-0,074
-586,123	-92,540	-0,042	0,009
-585,109	800,000	0,084	0,181
-584,094	300,096	0,055	-0,075
-583,079	-200,000	-0,009	0,167
-582,065	74,853	-0,064	0,050
-581,050	-200,000	-0,004	0,084
-580,036	-200,000	0,004	0,144
-579,021	307,292	-0,028	-0,038
-578,006	2,202	-0,086	-0,046
-576,992	158,864	-0,040	0,041
-575,977	79,900	-0,038	0,031
-574,963	17,183	0,089	0,052
-573,948	-128,544	0,090	-0,009
-572,934	-30,108	-0,060	0,025
-571,919	-200,000	-0,011	-0,048
-570,904	-97,298	-0,177	-0,034
-569,890	-200,000	-0,012	-0,124
-568,875	800,000	0,027	-0,065
-567,861	-200,000	-0,028	0,110
-566,846	-200,000	0,010	-0,041
-565,831	-98,471	-0,086	-0,016
-564,817	28,269	-0,085	-0,053
-563,802	322,170	0,063	0,089
-562,788	87,644	-0,076	-0,062
-561,773	-200,000	0,001	0,067
-560,758	573,478	0,037	0,068
-559,744	288,351	-0,105	0,141
-558,729	-125,293	0,168	-0,019
-557,715	397,671	-0,071	0,110
-556,700	27,950	-0,085	-0,053
-555,685	-50,516	-0,106	0,037
-554,671	-18,983	-0,020	-0,009
-553,656	176,866	0,051	0,055
-552,642	-200,000	0,033	0,160
-551,627	-200,000	-0,014	-0,143
-550,612	-13,149	0,097	0,047
-549,598	-200,000	-0,025	-0,088
-548,583	169,406	-0,099	-0,105
-547,569	45,808	-0,104	-0,071
-546,554	107,084	-0,019	0,017
-545,539	-1,063	0,146	-0,076
-544,525	-33,599	-0,037	-0,015
-543,510	800,000	-0,019	0,047
-542,496	161,539	-0,040	-0,041
-541,481	392,360	0,037	-0,057
-540,466	-131,967	0,071	0,007
-539,452	800,000	0,021	-0,063
-538,437	-119,924	-0,014	0,002
-537,423	-200,000	0,042	0,148
-536,408	35,881	-0,070	0,046
-535,393	152,206	-0,071	0,071
-534,379	800,000	-0,010	0,029
-533,364	333,276	0,037	-0,053
-532,350	-200,000	0,002	0,110
-531,335	20,963	-0,038	-0,022
-530,321	-44,048	0,125	-0,046
-529,306	-200,000	0,010	0,108
-528,291	-106,306	0,066	0,011
-527,277	-200,000	0,004	-0,057
-526,262	-200,000	-0,011	-0,119
-525,248	720,505	-0,021	-0,042
-524,233	279,468	0,066	-0,087
-523,218	800,000	-0,040	-0,084
-522,204	-11,788	0,030	0,015
-521,189	-132,842	-0,112	-0,010
-520,175	-134,000	0,041	0,004
-519,160	-62,864	0,140	0,043
-518,145	-200,000	0,030	-0,170
-517,131	-185,161	0,183	-0,002
-516,116	243,826	-0,012	-0,016
-515,102	-200,000	-0,004	-0,065
-514,087	-200,000	-0,012	-0,059
-513,072	187,563	-0,137	0,151
-512,058	129,220	0,082	-0,078
-511,043	21,624	0,159	-0,095
-510,029	297,462	-0,033	0,045
-509,014	-89,227	-0,086	-0,019
-507,999	-126,938	-0,066	-0,007
-506,985	95,830	-0,072	0,061
-505,970	167,631	-0,095	-0,099
-504,956	18,428	-0,045	0,026
-503,941	298,048	0,087	0,118
-502,926	50,284	0,072	0,050
-501,912	800,000	0,040	0,123
-500,897	-66,200	-0,038	0,011
-499,883	582,972	0,002	-0,004
-498,868	-129,856	-0,139	-0,014
-497,853	233,386	-0,079	-0,097
-496,839	-131,787	0,044	0,004
-495,824	-200,000	0,020	0,109
-494,810	800,000	0,003	-0,007
-493,795	226,803	-0,140	0,168
-492,781	800,000	-0,033	-0,071
-491,766	465,307	-0,064	-0,106
-490,751	235,035	-0,027	-0,033
-489,737	-200,000	0,017	-0,090
-488,722	800,000	0,051	-0,120
-487,708	800,000	-0,039	0,124
-486,693	800,000	-0,039	-0,082
-485,678	527,178	-0,006	0,011
-484,664	-200,000	0,033	0,110
-483,649	142,988	-0,132	-0,130
-482,635	-200,000	0,002	-0,060
-481,620	794,241	0,051	0,104
-480,605	-54,953	0,098	0,032
-479,591	-56,603	-0,062	-0,020
-478,576	54,027	0,098	-0,069
-477,562	431,759	-0,048	-0,077
-476,547	-200,000	0,004	-0,078
-475,532	217,152	-0,054	-0,063
-474,518	42,533	0,102	0,068
-473,503	122,251	0,039	-0,036
-472,489	-200,000	0,016	-0,120
-471,474	117,237	0,022	-0,019
-470,459	396,376	-0,074	-0,115
-469,445	-42,204	-0,064	-0,024
-468,430	-1,160	0,017	0,009
-467,416	610,582	-0,035	0,065
-466,401	-200,000	-0,013	0,164
-465,386	800,000	0,027	-0,073
-464,372	143,121	0,067	-0,065
-463,357	48,562	-0,118	-0,081
-462,343	-53,089	-0,108	-0,036
-461,328	-200,000	-0,013	-0,043
-460,313	50,209	-0,018	-0,012
-459,299	-200,000	-0,025	-0,094
-458,284	800,000	0,072	0,181
-457,270	154,264	-0,081	0,082
-456,255	-200,000	-0,005	0,051
-455,241	-200,000	-0,012	-0,066
-454,226	-200,000	0,007	-0,058
-453,211	-28,749	-0,076	0,032
-452,197	800,000	0,017	0,054
-451,182	-160,830	0,044	0,002
-450,168	666,824	0,082	-0,157
-449,153	168,386	0,022	-0,023
-448,138	39,552	-0,056	-0,037
-447,124	-80,412	-0,086	-0,021
-446,109	-153,253	0,117	-0,006
-445,095	36,632	0,062	0,040
-444,080	164,718	0,030	-0,031
-443,065	278,996	0,045	-0,060
-442,051	-200,000	0,007	0,160
-441,036	571,673	-0,059	0,107
-440,022	-200,000	0,008	0,050
-439,007	193,898	-0,054	0,060
-437,992	-200,000	0,003	0,039
-436,978	-138,528	0,055	-0,004
-435,963	480,125	-0,107	-0,179
-434,949	714,810	-0,071	0,140
-433,934	-200,000	0,005	-0,103
-432,919	37,217	0,051	-0,033
-431,905	67,724	0,049	-0,036
-430,890	-10,540	0,079	-0,038
-429,876	-200,000	-0,005	0,075
-428,861	-200,000	0,004	0,133
-427,846	-34,031	-0,144	0,058
-426,832	-85,769	-0,038	-0,009
-425,817	800,000	0,038	-0,099
-424,803	-200,000	0,000	-0,076
-423,788	469,728	0,059	-0,097
-422,773	-200,000	0,038	0,164
-421,759	-200,000	0,004	0,019
-420,744	-120,089	-0,109	-0,014
-419,730	36,373	-0,100	0,064
-418,715	800,000	-0,006	0,016
-417,701	-200,000	-0,036	0,169
-416,686	800,000	-0,040	0,082
-415,671	78,375	0,085	0,067
-414,657	800,000	0,024	0,058
-413,642	617,203	0,034	0,063
-412,628	128,155	-0,020	-0,019
-411,613	677,698	-0,023	0,045
-410,598	-200,000	-0,020	-0,102
-409,584	800,000	0,013	-0,035
-408,569	96,925	-0,143	-0,120
-407,555	-200,000	0,003	0,112
-406,540	407,938	0,012	0,018
-405,525	360,504	0,048	0,070
-404,511	-200,000	0,001	-0,062
-403,496	114,265	0,129	-0,116
-402,482	190,129	-0,112	0,124
-401,467	-200,000	-0,003	-0,026
-400,452	126,016	0,033	-0,031
-399,438	441,664	0,045	0,073
-398,423	-200,000	-0,003	0,102
-397,409	-37,627	-0,128	-0,050
-396,394	-172,063	0,067	0,002
-395,379	61,770	0,012	0,009
-394,365	174,111	-0,063	0,067
-393,350	305,840	0,062	0,085
-392,336	-200,000	0,006	0,049
-391,321	-184,904	-0,086	-0,001
-390,306	22,221	0,045	0,027
-389,292	-200,000	-0,017	0,067
-388,277	-200,000	0,007	-0,089
-387,263	-200,000	0,029	0,160
-386,248	-200,000	-0,006	-0,038
-385,233	-200,000	0,000	-0,019
-384,219	350,571	-0,075	-0,109
-383,204	-26,535	0,080	-0,034
-382,190	545,878	0,077	0,136
-381,175	301,432	0,040	0,055
-380,160	-159,221	0,100	0,004
-379,146	-200,000	0,005	0,100
-378,131	548,576	-0,030	0,052
-377,117	183,000	-0,050	-0,055
-376,102	-58,721	-0,023	-0,007
-375,088	236,474	0,050	0,061
-374,073	-101,460	-0,031	0,005
-373,058	663,716	-0,024	-0,045
-372,044	15,618	-0,123	-0,071
-371,029	313,870	-0,085	-0,117
-370,015	245,990	0,045	0,056
-369,000	-200,000	-0,001	-0,025
-367,985	-39,736	-0,117	-0,045
-366,971	-200,000	0,005	0,076
-365,956	-111,027	0,083	0,012
-364,942	-35,399	0,114	-0,045
-363,927	800,000	-0,081	0,170
-362,912	62,988	-0,065	0,047
-361,898	-200,000	-0,012	0,048
-360,883	797,025	0,027	0,055
-359,869	-11,789	-0,090	-0,043
-358,854	800,000	-0,017	0,044
-357,839	800,000	0,019	-0,046
-356,825	-88,552	0,144	-0,031
-355,810	49,190	-0,101	-0,069
-354,796	-126,287	-0,105	0,011
-353,781	-200,000	0,013	-0,055
-352,766	800,000	-0,066	-0,143
-351,752	-109,588	0,066	-0,010
-350,737	-142,929	0,079	-0,006
-349,723	717,050	0,028	0,055
-348,708	-16,262	0,061	-0,028
-347,693	-200,000	-0,003	0,035
-346,679	-43,225	-0,087	-0,032
-345,664	-15,079	0,062	0,029
-344,650	10,300	-0,045	-0,025
-343,635	-20,922	0,107	0,048
-342,620	-21,871	0,101	-0,045
-341,606	800,000	-0,009	0,023
-340,591	427,919	0,029	-0,046
-339,577	14,777	0,019	0,011
-338,562	387,024	-0,070	-0,106
-337,548	126,350	0,064	-0,059
-336,533	97,967	-0,057	-0,048
-335,518	-193,442	-0,060	0,000
-334,504	260,795	0,077	0,097
-333,489	-200,000	-0,006	-0,038
-332,475	-200,000	-0,046	-0,192
-331,460	449,145	0,058	-0,094
-330,445	301,842	0,024	-0,032
-329,431	-32,428	0,064	-0,026
-328,416	410,003	0,055	-0,085
-327,402	-200,000	0,001	0,114
-326,387	-200,000	-0,002	0,069
-325,372	-68,334	0,004	0,001
-324,358	-109,891	-0,222	0,034
-323,343	38,039	-0,057	-0,037
-322,329	519,593	0,073	0,127
-321,314	-200,000	0,002	0,054
-320,299	111,832	0,064	0,056
-319,285	-69,042	-0,189	0,053
-318,270	800,000	-0,026	0,066
-317,256	148,865	0,023	0,023
-316,241	-54,645	0,126	0,042
-315,226	-200,000	0,005	-0,045
-314,212	800,000	0,053	-0,119
-313,197	-200,000	0,002	0,094
-312,183	77,312	-0,050	-0,039
-311,168	-200,000	-0,011	0,145
-310,153	800,000	0,011	-0,032
-309,139	-101,019	-0,060	0,011
-308,124	800,000	-0,038	-0,113
-307,110	101,851	0,122	0,104
-306,095	-200,000	0,021	0,081
-305,080	800,000	0,034	-0,088
-304,066	-45,016	-0,058	0,021
-303,051	800,000	-0,009	0,020
-302,037	750,691	0,080	-0,159
-301,022	-162,917	0,110	0,004
-300,008	800,000	-0,028	0,091
-298,993	-134,423	-0,017	-0,001
-297,978	800,000	0,009	-0,025
-296,964	175,266	-0,080	0,085
-295,949	-69,147	-0,073	0,021
-294,935	614,139	0,049	-0,090
-293,920	108,136	-0,045	-0,039
-292,905	33,128	0,115	0,073
-291,891	-200,000	-0,014	-0,048
-290,876	205,465	0,182	0,207
-289,862	-7,491	-0,110	0,054
-288,847	800,000	-0,063	-0,185
-287,832	94,855	-0,156	-0,130
-286,818	-200,000	0,010	-0,083
-285,803	79,291	0,059	-0,047
-284,789	32,815	-0,055	0,035
-283,774	98,897	-0,069	-0,058
-282,759	-9,823	-0,128	0,062
-281,745	-138,616	-0,107	-0,008
-280,730	-37,845	-0,159	0,061
-279,716	179,274	-0,029	-0,031
-278,701	74,208	0,144	0,111
-277,686	338,374	0,040	-0,057
-276,672	341,300	-0,039	0,056
-275,657	309,712	-0,024	0,033
-274,643	75,194	-0,123	-0,095
-273,628	-200,000	0,003	0,022
-272,613	-200,000	-0,002	-0,072
-271,599	-200,000	0,006	-0,087
-270,584	-200,000	0,024	0,083
-269,570	-197,604	-0,075	-0,000
-268,555	204,011	0,046	0,052
-267,540	-112,598	0,002	-0,000
-266,526	-75,861	0,114	-0,029
-265,511	-200,000	0,013	0,087
-264,497	-24,177	0,038	-0,017
-263,482	-200,000	0,047	-0,165
-262,467	-200,000	0,009	-0,051
-261,453	-151,665	-0,055	0,003
-260,438	-64,987	0,218	-0,064
-259,424	-82,907	-0,159	-0,037
-258,409	27,745	0,163	-0,100
-257,395	-200,000	0,006	-0,050
-256,380	-20,603	-0,039	-0,018
-255,365	800,000	0,043	0,118
-254,351	17,856	0,163	-0,095
-253,336	-42,338	0,079	0,029
-252,322	-200,000	0,013	-0,108
-251,307	800,000	-0,047	-0,122
-250,292	87,548	0,075	0,061
-249,278	407,660	0,031	0,048
-248,263	35,212	0,108	0,069
-247,249	800,000	-0,017	-0,042
-246,234	-200,000	0,013	-0,170
-245,219	-67,147	-0,139	-0,040
-244,205	-38,924	0,054	0,021
-243,190	-50,354	0,219	0,075
-242,176	358,364	0,062	0,090
-241,161	-200,000	0,017	0,153
-240,146	-32,027	0,048	0,020
-239,132	-200,000	0,047	0,153
-238,117	800,000	-0,052	-0,112
-237,103	-85,197	-0,061	0,014
-236,088	800,000	0,020	0,050
-235,073	32,576	-0,052	0,033
-234,059	-2,241	0,145	-0,074
-233,044	-200,000	-0,006	0,139
-232,030	-200,000	-0,004	0,050
-231,015	653,530	-0,055	0,103
-230,000	269,730	-0,095	-0,122
-228,986	-75,978	0,072	0,019
-227,971	-200,000	0,009	0,098
-226,957	371,819	-0,025	-0,038
-225,942	93,029	-0,027	-0,022
-224,927	-29,874	0,063	0,026
-223,913	-101,838	-0,124	-0,022
-222,898	-179,223	0,102	-0,002
-221,884	236,193	-0,077	0,093
-220,869	-20,814	-0,109	-0,049
-219,855	-157,565	0,066	0,003
-218,840	-200,000	0,010	-0,054
-217,825	-200,000	-0,005	0,077
-216,811	166,925	0,128	0,132
-215,796	-27,807	-0,082	0,035
-214,782	-24,977	0,075	0,032
-213,767	-26,911	-0,061	-0,026
-212,752	42,638	-0,093	0,061
-211,738	-134,575	-0,048	0,004
-210,723	-200,000	0,000	-0,066
-209,709	-200,000	0,001	0,021
-208,694	-200,000	0,002	-0,037
-207,679	-0,753	0,072	0,037
-206,665	800,000	-0,049	0,124
-205,650	783,281	0,081	-0,162
-204,636	800,000	0,022	-0,054
-203,621	201,152	0,037	-0,041
-202,606	-200,000	-0,008	0,059
-201,592	462,219	0,083	-0,136
-200,577	58,317	-0,096	-0,069
-199,563	46,804	0,055	-0,037
-198,548	594,438	0,031	-0,056
-197,533	-125,398	0,160	0,018
-196,519	2,168	0,109	0,057
-195,504	-83,394	-0,035	-0,008
-194,490	-200,000	-0,005	-0,133
-193,475	-200,000	0,009	-0,085
-192,460	-63,455	0,158	-0,047
-191,446	800,000	-0,047	0,112
-190,431	137,816	-0,024	-0,023
-189,417	61,050	0,113	0,082
-188,402	9,372	0,063	-0,035
-187,387	-8,938	0,062	0,030
-186,373	198,382	-0,017	0,020
-185,358	-200,000	-0,022	-0,124
-184,344	73,222	-0,086	0,065
-183,329	-2,291	0,150	0,076
-182,315	-200,000	0,023	0,079
-181,300	170,063	0,038	0,039
-180,285	271,354	0,043	-0,055
-179,271	800,000	-0,028	-0,064
-178,256	-155,858	0,114	0,005
-177,242	-87,409	0,033	0,007
-176,227	-200,000	0,001	0,033
-175,212	151,508	0,026	-0,026
-174,198	-66,106	-0,079	-0,023
-173,183	-200,000	0,003	0,077
-172,169	51,724	0,046	-0,032
-171,154	283,970	-0,035	-0,046
-170,139	-200,000	0,005	-0,047
-169,125	621,581	-0,062	-0,113
-168,110	-200,000	0,015	-0,055
-167,096	-200,000	-0,017	-0,061
-166,081	-200,000	-0,014	-0,078
-165,066	54,485	-0,074	0,052
-164,052	-114,832	0,093	0,013
-163,037	-200,000	-0,002	-0,021
-162,023	800,000	0,053	-0,138
-161,008	-0,579	0,079	-0,040
-159,993	-67,240	0,142	-0,040
-158,979	16,504	-0,063	-0,036
-157,964	-200,000	0,003	-0,031
-156,950	800,000	0,053	0,114
-155,935	-123,807	0,158	0,018
-154,920	-136,516	-0,060	-0,005
-153,906	385,172	-0,053	0,079
-152,891	132,397	0,016	0,015
-151,877	-200,000	-0,053	0,189
-150,862	99,782	0,030	0,025
-149,847	413,181	0,003	0,005
-148,833	44,284	-0,078	-0,052
-147,818	-71,525	0,125	0,034
-146,804	264,438	0,045	0,057
-145,789	42,981	-0,011	0,007
-144,775	-130,945	0,110	-0,011
-143,760	-200,000	-0,010	-0,035
-142,745	800,000	-0,057	-0,139
-141,731	-200,000	-0,014	0,050
-140,716	216,117	-0,064	0,074
-139,702	34,710	0,060	0,038
-138,687	-163,967	-0,044	0,001
-137,672	-146,919	0,121	-0,007
-136,658	168,090	-0,080	-0,083
-135,643	-200,000	0,028	0,152
-134,629	-176,542	-0,139	-0,003
-133,614	60,981	-0,142	-0,103
-132,599	-200,000	-0,003	-0,094
-131,585	-200,000	-0,000	0,006
-130,570	800,000	-0,060	0,130
-129,556	144,039	-0,063	-0,061
-128,541	-55,849	0,113	0,037
-127,526	233,680	0,063	-0,076
-126,512	-200,000	0,046	-0,240
-125,497	-14,630	0,141	-0,066
-124,483	76,126	-0,042	0,032
-123,468	118,910	0,051	0,046
-122,453	-200,000	0,015	0,054
-121,439	-200,000	0,022	0,119
-120,424	73,077	0,043	0,033
