DTS Sentinel unit serial number:	SN410029Multiplexer serial number:	ORYXHardware model number:	OX2-SRSoftware version number:	ORYX F/W v4,00 Oryx Data Collector v3.7.2.0data status	okinstallation	B4 Nyhavnadifferential loss correction	single-endedforward channel	channel 2reverse channel	N/Adate	2023/12/16time	14:00:13forward acquisition time	300,00reverse acquisition time	0,00gamma	499,1914k internal	0,3125k external	0,3125temperature offset calibration	1,0000default loss term (dB/km)	0,3820temperature slope calibration	1,0000multiplexer offset coefficient	1,0000multiplexer slope coefficient	1,0000fibre end	0,00T internal ref (°C)	25,17T ext. ref 1 (°C)	11,35T ext. ref 2 (°C)	11,54length (m)	temperature (°C)	Stokes	anti-Stokes-744,400	-200,000	0,024	-0,089
-743,385	-33,185	-0,142	0,059
-742,371	264,077	0,096	0,125
-741,356	-73,133	-0,197	0,054
-740,342	-72,422	-0,030	-0,008
-739,327	187,652	-0,122	0,136
-738,312	-200,000	0,002	-0,019
-737,298	-39,411	-0,141	0,055
-736,283	800,000	-0,052	-0,151
-735,269	-72,170	-0,189	0,052
-734,254	-200,000	-0,005	-0,018
-733,239	-128,694	-0,263	-0,027
-732,225	-200,000	0,020	0,099
-731,210	-35,316	-0,074	0,030
-730,196	115,756	-0,119	-0,108
-729,181	-37,079	-0,033	-0,013
-728,167	-158,863	0,034	0,001
-727,152	-170,368	0,157	-0,004
-726,137	45,932	0,071	-0,049
-725,123	-200,000	0,001	-0,027
-724,108	-200,000	-0,017	-0,113
-723,094	-200,000	-0,018	-0,098
-722,079	30,041	-0,086	-0,055
-721,064	-32,150	0,057	0,023
-720,050	93,279	-0,052	0,044
-719,035	172,284	-0,051	-0,055
-718,021	-120,487	-0,200	0,025
-717,006	49,458	-0,083	-0,058
-715,991	331,710	0,048	0,070
-714,977	-163,214	-0,194	0,007
-713,962	43,192	-0,067	-0,045
-712,948	-144,167	0,118	0,008
-711,933	86,463	-0,066	-0,054
-710,918	446,849	0,018	-0,029
-709,904	118,390	-0,086	-0,079
-708,889	423,939	-0,056	0,090
-707,875	72,642	0,022	-0,017
-706,860	525,976	-0,006	-0,011
-705,845	-200,000	0,041	0,143
-704,831	800,000	-0,028	0,067
-703,816	-200,000	0,008	0,065
-702,802	637,479	-0,022	-0,041
-701,787	646,718	0,047	-0,090
-700,772	-12,583	0,062	0,030
-699,758	311,287	-0,062	0,086
-698,743	210,398	0,069	0,081
-697,729	-53,818	0,072	0,024
-696,714	82,537	-0,040	-0,032
-695,699	255,057	-0,118	-0,151
-694,685	800,000	-0,038	-0,091
-693,670	-148,367	0,058	0,003
-692,656	800,000	0,029	0,061
-691,641	11,713	-0,019	0,011
-690,627	-200,000	-0,030	0,105
-689,612	-34,878	-0,158	-0,064
-688,597	-200,000	-0,003	-0,071
-687,583	285,332	0,069	0,093
-686,568	-55,991	0,062	-0,020
-685,554	132,273	-0,031	0,029
-684,539	800,000	-0,017	-0,049
-683,524	800,000	0,039	0,123
-682,510	-200,000	-0,006	0,097
-681,495	-200,000	-0,031	0,111
-680,481	-137,296	-0,069	0,006
-679,466	-120,442	-0,145	-0,018
-678,451	-94,842	0,059	0,012
-677,437	-108,416	0,112	-0,018
-676,422	51,108	-0,101	0,071
-675,408	-30,387	0,063	-0,026
-674,393	-200,000	0,011	-0,127
-673,378	800,000	-0,014	-0,031
-672,364	800,000	0,050	-0,105
-671,349	261,476	-0,071	-0,092
-670,335	-26,886	0,075	-0,033
-669,320	-125,849	0,077	-0,009
-668,305	-57,798	0,038	0,012
-667,291	-138,090	-0,059	0,005
-666,276	23,293	-0,067	0,041
-665,262	227,425	-0,021	-0,025
-664,247	251,902	-0,139	-0,176
-663,232	243,173	0,030	-0,038
-662,218	-200,000	0,005	0,064
-661,203	-200,000	0,024	0,080
-660,189	-50,983	-0,097	0,033
-659,174	-31,404	-0,061	0,026
-658,159	245,206	-0,054	0,068
-657,145	199,795	0,021	-0,024
-656,130	-200,000	0,007	-0,116
-655,116	3,619	0,020	0,011
-654,101	-198,385	0,103	0,000
-653,086	-200,000	0,001	-0,030
-652,072	-145,393	-0,143	0,009
-651,057	88,040	0,011	0,009
-650,043	389,054	-0,111	-0,171
-649,028	-157,367	0,077	0,003
-648,014	800,000	0,007	-0,017
-646,999	800,000	-0,040	0,089
-645,984	223,423	-0,091	-0,109
-644,970	229,689	-0,034	-0,041
-643,955	229,619	-0,050	-0,061
-642,941	-53,915	-0,119	-0,040
-641,926	176,487	-0,068	0,073
-640,911	34,625	0,111	-0,072
-639,897	-200,000	0,013	0,091
-638,882	-33,663	-0,060	0,025
-637,868	-123,202	-0,116	-0,014
-636,853	541,201	-0,092	-0,163
-635,838	234,318	-0,064	-0,078
-634,824	-139,987	-0,107	0,008
-633,809	-200,000	0,041	-0,138
-632,795	92,387	-0,088	-0,073
-631,780	800,000	-0,055	0,121
-630,765	800,000	-0,082	-0,170
-629,751	-200,000	0,011	-0,107
-628,736	-188,974	-0,134	-0,001
-627,722	141,904	-0,066	-0,065
-626,707	-60,268	0,045	-0,014
-625,692	-200,000	-0,001	-0,053
-624,678	186,096	0,011	0,012
-623,663	800,000	0,022	-0,059
-622,649	-24,512	-0,103	-0,045
-621,634	34,214	-0,041	-0,026
-620,619	-34,073	-0,117	-0,047
-619,605	-200,000	0,025	-0,220
-618,590	-124,852	-0,094	0,011
-617,576	607,170	0,029	0,054
-616,561	406,628	-0,039	-0,061
-615,546	116,401	0,084	-0,076
-614,532	800,000	-0,022	-0,053
-613,517	5,493	-0,137	-0,075
-612,503	800,000	0,037	0,096
-611,488	9,124	0,104	-0,058
-610,474	-200,000	-0,006	0,051
-609,459	214,810	-0,069	-0,081
-608,444	800,000	-0,010	-0,022
-607,430	73,114	-0,101	-0,078
-606,415	29,065	0,133	-0,083
-605,401	305,771	0,035	-0,049
-604,386	-200,000	0,007	-0,067
-603,371	99,904	-0,038	0,033
-602,357	-200,000	0,005	-0,038
-601,342	203,443	0,025	-0,029
-600,328	68,484	0,071	0,054
-599,313	-200,000	0,001	-0,051
-598,298	87,522	-0,082	-0,067
-597,284	-200,000	0,014	-0,047
-596,269	-200,000	0,012	0,210
-595,255	800,000	-0,035	-0,075
-594,240	9,906	-0,025	-0,014
-593,225	-56,554	-0,087	-0,028
-592,211	-200,000	-0,008	-0,149
-591,196	173,065	0,097	0,103
-590,182	-200,000	0,000	0,006
-589,167	-40,330	0,027	0,010
-588,152	-163,841	0,036	0,001
-587,138	800,000	-0,040	-0,099
-586,123	-200,000	0,007	0,098
-585,109	735,383	-0,049	-0,097
-584,094	-200,000	-0,029	-0,147
-583,079	162,894	0,046	0,048
-582,065	-200,000	-0,017	0,102
-581,050	-200,000	0,004	0,080
-580,036	164,093	-0,121	-0,126
-579,021	-200,000	-0,001	-0,007
-578,006	-200,000	0,042	-0,139
-576,992	-0,525	-0,096	-0,050
-575,977	-17,155	-0,048	-0,023
-574,963	-58,327	0,077	-0,025
-573,948	-200,000	0,004	-0,024
-572,934	128,090	0,050	0,047
-571,919	-73,095	0,089	0,024
-570,904	86,082	-0,067	-0,054
-569,890	73,494	0,058	-0,045
-568,875	-57,694	0,101	-0,033
-567,861	20,388	-0,122	0,073
-566,846	800,000	-0,072	0,157
-565,831	800,000	-0,055	0,132
-564,817	61,836	-0,079	0,058
-563,802	-77,712	-0,060	0,015
-562,788	-62,832	-0,041	-0,012
-561,773	-42,605	-0,148	0,055
-560,758	-76,069	0,077	0,020
-559,744	-200,000	-0,004	0,034
-558,729	800,000	-0,033	-0,086
-557,715	-200,000	0,001	-0,153
-556,700	2,313	-0,153	-0,081
-555,685	-9,358	-0,140	-0,069
-554,671	69,125	0,041	0,031
-553,656	-118,751	-0,022	-0,003
-552,642	-152,418	0,134	-0,007
-551,627	-112,411	-0,115	0,017
-550,612	34,325	-0,136	-0,087
-549,598	-23,322	0,076	-0,033
-548,583	788,899	0,090	-0,183
-547,569	-82,482	-0,059	0,014
-546,554	73,525	0,053	-0,041
-545,539	-116,753	0,135	-0,018
-544,525	-131,559	0,102	-0,010
-543,510	712,643	-0,029	0,058
-542,496	-200,000	-0,014	-0,088
-541,481	800,000	0,057	-0,133
-540,466	157,379	-0,040	0,041
-539,452	-200,000	0,005	0,042
-538,437	30,896	-0,053	-0,033
-537,423	-87,218	0,145	0,032
-536,408	-139,827	-0,068	0,005
-535,393	-124,834	-0,029	0,003
-534,379	19,891	-0,113	0,067
-533,364	751,292	-0,027	0,055
-532,350	70,199	0,072	-0,055
-531,335	126,495	0,126	-0,118
-530,321	423,567	0,056	-0,090
-529,306	-200,000	-0,025	-0,087
-528,291	-104,607	0,086	0,015
-527,277	800,000	-0,039	0,119
-526,262	8,770	-0,069	-0,039
-525,248	-200,000	-0,016	0,091
-524,233	-74,537	0,080	0,021
-523,218	32,571	0,101	0,065
-522,204	144,827	0,051	-0,050
-521,189	123,573	0,052	0,049
-520,175	800,000	-0,029	0,091
-519,160	-200,000	0,016	-0,085
-518,145	670,506	0,091	0,175
-517,131	41,724	-0,090	-0,060
-516,116	591,488	-0,061	-0,111
-515,102	464,392	-0,029	0,047
-514,087	719,818	0,041	0,081
-513,072	227,248	-0,066	-0,079
-512,058	-186,526	-0,063	0,001
-511,043	-63,319	-0,015	0,005
-510,029	-40,894	0,049	0,019
-509,014	522,658	-0,047	-0,082
-507,999	56,425	0,067	-0,048
-506,985	46,574	-0,123	-0,084
-505,970	800,000	0,051	-0,119
-504,956	0,209	-0,088	0,046
-503,941	800,000	-0,019	0,047
-502,926	-200,000	0,013	-0,144
-501,912	385,752	0,064	-0,098
-500,897	126,360	0,004	0,004
-499,883	-200,000	0,000	0,013
-498,868	414,313	-0,031	-0,050
-497,853	-200,000	0,008	-0,092
-496,839	-38,489	-0,059	0,023
-495,824	400,075	0,024	-0,036
-494,810	201,069	0,056	0,064
-493,795	582,951	0,044	0,081
-492,781	82,959	-0,068	-0,055
-491,766	-151,551	-0,175	0,009
-490,751	8,980	-0,172	-0,095
-489,737	5,158	-0,113	0,061
-488,722	236,199	0,054	0,066
-487,708	-30,454	0,073	-0,031
-486,693	-54,798	-0,117	0,039
-485,678	568,174	-0,049	-0,088
-484,664	284,830	-0,087	0,116
-483,649	-175,315	0,066	-0,001
-482,635	-200,000	-0,011	-0,051
-481,620	-200,000	0,034	0,207
-480,605	-127,347	0,096	0,010
-479,591	-141,930	0,137	0,010
-478,576	47,270	-0,039	0,027
-477,562	-200,000	-0,014	0,053
-476,547	12,185	-0,056	0,032
-475,532	346,318	-0,084	0,122
-474,518	-200,000	-0,012	-0,079
-473,503	244,573	-0,041	-0,051
-472,489	233,728	-0,027	-0,033
-471,474	-49,431	0,163	-0,057
-470,459	-105,893	-0,062	-0,010
-469,445	-89,138	0,054	-0,012
-468,430	-119,610	0,164	-0,021
-467,416	800,000	0,031	-0,093
-466,401	492,044	0,017	0,029
-465,386	283,967	0,029	-0,038
-464,372	206,943	0,051	0,058
-463,357	-87,609	0,066	-0,015
-462,343	-103,538	-0,168	-0,029
-461,328	800,000	0,023	-0,052
-460,313	-124,157	0,186	0,021
-459,299	-133,537	0,159	-0,014
-458,284	-153,334	0,156	-0,008
-457,270	24,403	-0,053	-0,032
-456,255	-100,284	0,054	0,010
-455,241	-111,961	0,179	0,026
-454,226	800,000	0,030	-0,092
-453,211	-200,000	0,010	-0,058
-452,197	64,318	-0,056	-0,042
-451,182	-200,000	0,014	0,052
-450,168	9,378	0,066	0,037
-449,153	-200,000	0,010	0,042
-448,138	-97,476	-0,121	0,023
-447,124	295,209	-0,068	0,092
-446,109	800,000	-0,049	0,127
-445,095	47,566	0,134	0,092
-444,080	494,325	0,041	-0,069
-443,065	-27,763	0,080	0,034
-442,051	-200,000	0,001	0,080
-441,036	800,000	-0,068	0,174
-440,022	-20,360	-0,121	-0,055
-439,007	-16,455	-0,033	0,015
-437,992	-59,594	-0,128	0,040
-436,978	-200,000	0,008	0,141
-435,963	-200,000	-0,020	0,074
-434,949	59,425	-0,123	-0,089
-433,934	24,411	-0,036	-0,022
-432,919	-17,058	-0,028	-0,013
-431,905	145,604	-0,071	0,070
-430,890	344,218	-0,017	-0,024
-429,876	247,330	0,055	0,068
-428,861	554,312	-0,005	0,008
-427,846	800,000	0,037	-0,083
-426,832	-200,000	-0,006	0,027
-425,817	-200,000	-0,017	-0,108
-424,803	132,469	0,027	-0,026
-423,788	168,667	0,136	0,143
-422,773	-200,000	-0,043	0,175
-421,759	101,889	0,107	-0,092
-420,744	-80,516	0,049	0,012
-419,730	210,590	0,136	0,158
-418,715	-43,436	0,010	-0,004
-417,701	-200,000	-0,013	-0,047
-416,686	-200,000	-0,013	0,074
-415,671	800,000	-0,024	0,074
-414,657	-126,793	0,053	0,006
-413,642	-68,543	0,126	0,036
-412,628	-28,945	-0,080	0,033
-411,613	108,668	-0,120	-0,105
-410,598	800,000	-0,049	0,105
-409,584	-72,420	-0,025	0,007
-408,569	38,208	0,113	0,074
-407,555	70,206	-0,059	0,044
-406,540	509,520	0,021	0,036
-405,525	88,722	-0,022	0,018
-404,511	8,417	-0,052	-0,028
-403,496	160,632	0,072	-0,074
-402,482	402,354	0,100	-0,155
-401,467	800,000	-0,039	-0,116
-400,452	800,000	0,027	0,083
-399,438	-59,916	-0,098	0,031
-398,423	394,127	-0,014	-0,022
-397,409	170,055	-0,087	0,092
-396,394	-57,420	-0,006	-0,002
-395,379	-189,663	0,102	-0,001
-394,365	-96,989	0,080	0,015
-393,350	225,131	0,102	0,121
-392,336	-119,287	-0,092	-0,012
-391,321	182,767	-0,044	0,048
-390,306	-200,000	0,025	-0,145
-389,292	-119,430	0,094	0,012
-388,277	39,921	-0,060	0,039
-387,263	-122,863	-0,098	-0,012
-386,248	-72,375	0,137	0,037
-385,233	800,000	-0,010	-0,030
-384,219	-47,379	-0,169	0,060
-383,204	148,458	-0,092	-0,091
-382,190	27,048	-0,026	-0,016
-381,175	-200,000	-0,004	-0,019
-380,160	-129,038	0,068	0,007
-379,146	800,000	0,073	0,155
-378,131	-200,000	-0,010	0,108
-377,117	-108,526	0,074	0,012
-376,102	-102,247	-0,117	0,021
-375,088	-200,000	-0,002	-0,042
-374,073	590,624	0,035	-0,064
-373,058	-74,397	-0,024	0,006
-372,044	86,588	0,060	-0,048
-371,029	-52,176	-0,045	0,015
-370,015	22,676	0,050	0,030
-369,000	653,921	-0,042	0,079
-367,985	-138,727	-0,123	-0,010
-366,971	-200,000	0,040	0,131
-365,956	270,902	-0,134	0,174
-364,942	-12,959	0,082	0,039
-363,927	-200,000	0,015	0,061
-362,912	-200,000	-0,025	0,105
-361,898	-76,829	0,055	0,014
-360,883	-83,434	0,035	-0,008
-359,869	-200,000	-0,016	0,138
-358,854	79,678	0,086	-0,068
-357,839	-66,551	0,075	0,022
-356,825	284,945	0,074	0,098
-355,810	-86,662	0,017	-0,004
-354,796	-200,000	-0,016	-0,061
-353,781	178,725	-0,106	-0,114
-352,766	258,910	0,056	-0,071
-351,752	-44,621	-0,136	-0,050
-350,737	59,911	0,079	-0,057
-349,723	92,600	0,044	-0,037
-348,708	-51,067	0,007	0,002
-347,693	612,476	0,035	-0,064
-346,679	-20,732	-0,235	-0,105
-345,664	-102,668	-0,042	0,007
-344,650	-200,000	-0,017	-0,102
-343,635	632,900	0,008	0,015
-342,620	-95,381	-0,010	-0,002
-341,606	-8,247	0,066	0,033
-340,591	356,987	-0,054	-0,079
-339,577	223,436	-0,059	0,070
-338,562	-50,685	-0,163	-0,056
-337,548	-99,609	0,102	0,019
-336,533	-200,000	0,003	0,064
-335,518	800,000	0,023	0,068
-334,504	379,277	-0,020	-0,031
-333,489	-200,000	-0,001	0,078
-332,475	-200,000	0,016	0,062
-331,460	34,819	-0,009	0,006
-330,445	75,461	-0,017	0,013
-329,431	-134,562	0,087	0,008
-328,416	-200,000	0,004	-0,041
-327,402	309,795	-0,035	-0,048
-326,387	-82,936	0,089	-0,021
-325,372	-96,462	-0,115	0,022
-324,358	-99,433	-0,114	-0,021
-323,343	-200,000	-0,012	-0,191
-322,329	-200,000	0,003	-0,011
-321,314	800,000	0,035	0,105
-320,299	731,547	0,043	0,085
-319,285	501,505	0,025	0,042
-318,270	-200,000	-0,011	-0,193
-317,256	-92,797	-0,166	-0,034
-316,241	800,000	-0,038	0,101
-315,226	608,845	0,045	-0,082
-314,212	612,445	0,051	0,094
-313,197	800,000	-0,018	-0,038
-312,183	-200,000	0,036	-0,136
-311,168	-200,000	-0,044	0,142
-310,153	800,000	0,023	-0,050
-309,139	-200,000	-0,035	-0,152
-308,124	31,624	0,101	-0,063
-307,110	-77,095	0,023	0,006
-306,095	48,901	0,091	0,063
-305,080	-200,000	-0,004	0,058
-304,066	204,933	-0,029	-0,034
-303,051	-32,128	-0,067	0,027
-302,037	800,000	0,081	0,192
-301,022	218,413	0,123	-0,144
-300,008	800,000	-0,022	0,056
-298,993	-148,668	0,083	0,005
-297,978	-142,091	0,095	0,007
-296,964	83,479	-0,079	0,063
-295,949	800,000	-0,029	0,069
-294,935	-150,340	0,156	-0,009
-293,920	-200,000	0,019	0,098
-292,905	-200,000	0,001	0,048
-291,891	800,000	0,018	-0,052
-290,876	-200,000	0,004	0,031
-289,862	-104,675	0,054	-0,009
-288,847	636,681	-0,074	-0,138
-287,832	387,354	-0,029	-0,044
-286,818	-52,748	0,204	-0,069
-285,803	61,226	0,168	0,122
-284,789	-200,000	-0,023	0,164
-283,774	-80,793	0,091	0,022
-282,759	154,986	-0,030	-0,031
-281,745	2,767	-0,103	0,054
-280,730	60,702	-0,048	0,035
-279,716	72,831	0,115	0,088
-278,701	800,000	-0,024	-0,060
-277,686	-49,831	0,183	0,063
-276,672	-200,000	-0,005	-0,122
-275,657	61,193	0,185	-0,134
-274,643	330,621	-0,065	-0,091
-273,628	-200,000	-0,032	0,109
-272,613	-26,330	0,206	0,088
-271,599	-35,305	0,026	-0,010
-270,584	-112,958	0,044	0,006
-269,570	-77,356	0,108	0,027
-268,555	-200,000	-0,001	0,137
-267,540	89,747	-0,006	0,005
-266,526	-200,000	-0,028	-0,098
-265,511	402,805	-0,037	-0,057
-264,497	-27,032	-0,100	-0,043
-263,482	206,561	0,095	0,108
-262,467	243,715	-0,078	0,096
-261,453	92,915	0,060	0,049
-260,438	54,985	-0,059	-0,042
-259,424	435,254	0,061	-0,097
-258,409	184,381	0,068	-0,074
-257,395	185,380	0,042	0,045
-256,380	-200,000	-0,028	-0,094
-255,365	326,121	-0,054	0,076
-254,351	111,476	-0,108	0,095
-253,336	-200,000	0,023	-0,101
-252,322	-118,132	-0,036	0,005
-251,307	-116,468	0,010	-0,001
-250,292	-121,459	0,138	0,017
-249,278	800,000	0,026	0,081
-248,263	800,000	-0,052	0,106
-247,249	-34,704	0,035	-0,014
-246,234	188,170	-0,104	0,114
-245,219	-96,571	-0,091	0,017
-244,205	691,150	-0,023	-0,043
-243,190	-14,561	-0,134	-0,063
-242,176	800,000	0,030	0,076
-241,161	45,029	-0,067	0,045
-240,146	-22,054	0,096	-0,042
-239,132	-150,955	0,053	-0,003
-238,117	178,165	0,013	-0,014
-237,103	312,033	0,040	-0,055
-236,088	800,000	-0,044	-0,125
-235,073	-200,000	0,023	0,168
-234,059	219,964	-0,016	0,019
-233,044	-200,000	0,006	0,096
-232,030	30,021	0,109	0,067
-231,015	-200,000	-0,010	0,041
-230,000	-200,000	0,004	-0,087
-228,986	800,000	-0,094	-0,198
-227,971	-154,948	0,080	0,004
-226,957	185,198	0,042	0,046
-225,942	72,922	0,035	0,027
-224,927	800,000	0,069	0,167
-223,913	375,750	0,052	-0,078
-222,898	20,069	-0,074	-0,043
-221,884	133,341	0,101	-0,096
-220,869	-200,000	-0,020	-0,091
-219,855	-150,066	0,114	0,006
-218,840	-77,438	0,036	0,009
-217,825	238,481	-0,034	0,041
-216,811	-72,910	0,088	-0,023
-215,796	58,044	-0,069	-0,050
-214,782	164,228	0,090	0,093
-213,767	58,533	0,053	0,038
-212,752	165,199	0,066	0,068
-211,738	33,844	-0,113	0,072
-210,723	172,761	0,029	-0,031
-209,709	800,000	0,021	0,055
-208,694	-40,039	-0,090	-0,034
-207,679	487,218	0,037	-0,061
-206,665	800,000	0,034	0,088
-205,650	139,722	0,044	-0,042
-204,636	-200,000	-0,018	-0,063
-203,621	446,777	-0,110	0,177
-202,606	-200,000	0,012	0,096
-201,592	282,076	-0,068	-0,090
-200,577	-200,000	-0,042	-0,161
-199,563	-200,000	0,024	0,097
-198,548	156,913	0,166	0,168
-197,533	800,000	-0,032	-0,090
-196,519	-14,529	0,109	-0,051
-195,504	800,000	-0,058	0,151
-194,490	800,000	-0,049	-0,100
-193,475	-200,000	-0,028	-0,106
-192,460	556,633	0,067	0,118
-191,446	800,000	-0,040	-0,081
-190,431	-11,337	-0,041	0,020
-189,417	189,908	0,103	0,113
-188,402	-200,000	-0,001	0,085
-187,387	-37,725	-0,056	0,021
-186,373	257,959	0,005	0,006
-185,358	154,040	0,042	0,042
-184,344	-98,075	0,077	-0,014
-183,329	185,523	0,034	0,036
-182,315	787,814	-0,049	-0,099
-181,300	-200,000	-0,032	0,111
-180,285	20,117	0,124	0,073
-179,271	-200,000	-0,010	0,124
-178,256	38,334	-0,137	-0,089
-177,242	-200,000	0,010	0,049
-176,227	37,364	0,022	-0,014
-175,212	87,702	-0,102	0,082
-174,198	-135,843	0,088	0,007
-173,183	-200,000	0,003	-0,014
-172,169	643,406	0,021	-0,039
-171,154	-49,499	0,155	0,054
-170,139	800,000	0,020	-0,056
-169,125	9,567	0,086	-0,048
-168,110	-200,000	-0,018	-0,060
-167,096	-41,741	-0,105	0,039
-166,081	-200,000	-0,007	-0,137
-165,066	-99,451	-0,131	-0,024
-164,052	800,000	0,042	-0,091
-163,037	800,000	0,016	-0,037
-162,023	-155,263	0,081	-0,004
-161,008	-22,657	0,091	-0,040
-159,993	679,296	-0,098	0,187
-158,979	111,026	-0,130	0,114
-157,964	76,463	-0,068	-0,052
-156,950	126,754	-0,048	0,044
-155,935	-4,477	-0,057	-0,028
-154,920	611,578	0,056	0,102
-153,906	-200,000	0,049	0,193
-152,891	-46,953	-0,076	-0,027
-151,877	-200,000	-0,001	0,034
-150,862	480,950	0,012	-0,020
-149,847	139,027	-0,106	0,101
-148,833	800,000	0,022	-0,063
-147,818	800,000	-0,030	0,093
-146,804	197,285	0,028	0,031
-145,789	74,349	0,045	0,034
-144,775	169,233	-0,136	-0,141
-143,760	800,000	-0,067	-0,162
-142,745	255,399	0,046	-0,057
-141,731	154,705	-0,033	0,033
-140,716	21,328	0,063	0,037
-139,702	337,047	0,098	-0,138
-138,687	-40,996	-0,060	-0,022
-137,672	13,769	0,142	-0,080
-136,658	800,000	-0,036	-0,074
-135,643	-200,000	-0,019	-0,108
-134,629	-110,867	-0,073	-0,011
-133,614	-127,291	-0,065	0,007
-132,599	41,387	-0,092	-0,061
-131,585	-34,694	0,077	-0,031
-130,570	-200,000	0,009	-0,184
-129,556	800,000	0,038	-0,103
-128,541	-200,000	0,016	0,109
-127,526	-80,998	-0,040	0,010
-126,512	130,623	-0,012	0,011
-125,497	800,000	0,039	0,110
-124,483	-200,000	-0,027	0,105
-123,468	270,896	-0,114	0,146
-122,453	113,318	0,025	-0,022
-121,439	-180,554	0,043	-0,001
-120,424	587,244	-0,087	-0,156
-119,410	150,730	0,125	-0,123
