DTS Sentinel unit serial number:	SN410029Multiplexer serial number:	ORYXHardware model number:	OX2-SRSoftware version number:	ORYX F/W v4,00 Oryx Data Collector v3.7.2.0data status	okinstallation	B4 Nyhavnadifferential loss correction	single-endedforward channel	channel 2reverse channel	N/Adate	2023/12/18time	17:55:13forward acquisition time	300,00reverse acquisition time	0,00gamma	499,1914k internal	0,3124k external	0,3124temperature offset calibration	1,0000default loss term (dB/km)	0,3820temperature slope calibration	1,0000multiplexer offset coefficient	1,0000multiplexer slope coefficient	1,0000fibre end	0,00T internal ref (°C)	21,83T ext. ref 1 (°C)	7,21T ext. ref 2 (°C)	7,22length (m)	temperature (°C)	Stokes	anti-Stokes-744,400	517,640	-0,099	-0,173
-743,385	-170,019	-0,292	0,008
-742,371	-114,130	0,032	0,005
-741,356	41,172	-0,160	0,108
-740,342	-16,681	0,161	-0,076
-739,327	89,705	-0,221	0,184
-738,312	-200,000	-0,045	-0,175
-737,298	-63,755	-0,257	-0,078
-736,283	48,323	-0,010	0,007
-735,269	-200,000	-0,064	0,219
-734,254	-95,603	0,017	0,003
-733,239	-141,430	-0,453	-0,034
-732,225	144,929	0,034	0,033
-731,210	282,168	0,058	0,078
-730,196	13,121	0,021	-0,012
-729,181	-98,958	0,104	-0,019
-728,167	-171,969	0,224	0,005
-727,152	-134,803	0,074	0,007
-726,137	40,988	-0,056	-0,037
-725,123	800,000	-0,030	0,064
-724,108	-92,795	-0,176	-0,036
-723,094	-159,958	0,070	-0,003
-722,079	-200,000	-0,009	-0,139
-721,064	235,518	-0,082	-0,101
-720,050	800,000	-0,022	-0,071
-719,035	541,891	0,035	0,062
-718,021	-97,409	-0,120	0,023
-717,006	800,000	0,006	-0,019
-715,991	-200,000	0,003	-0,071
-714,977	-200,000	-0,009	0,089
-713,962	-54,067	-0,132	0,045
-712,948	-0,234	-0,069	-0,037
-711,933	183,623	0,089	-0,098
-710,918	-200,000	0,003	0,043
-709,904	-59,554	-0,012	-0,004
-708,889	-134,212	-0,113	0,010
-707,875	-13,261	-0,107	0,051
-706,860	22,708	-0,084	-0,051
-705,845	413,919	0,036	-0,056
-704,831	518,685	0,040	0,071
-703,816	23,408	-0,015	-0,009
-702,802	49,895	-0,024	0,017
-701,787	-34,051	-0,083	-0,034
-700,772	486,278	-0,075	-0,127
-699,758	86,105	-0,064	0,052
-698,743	-5,996	0,127	0,064
-697,729	-200,000	0,016	0,131
-696,714	-128,027	-0,056	-0,006
-695,699	-200,000	-0,029	-0,114
-694,685	-98,609	-0,065	0,012
-693,670	383,439	-0,066	-0,101
-692,656	27,222	0,114	-0,071
-691,641	-56,089	0,092	-0,030
-690,627	-116,246	0,063	0,009
-689,612	-200,000	0,001	-0,044
-688,597	-200,000	0,004	-0,015
-687,583	470,642	-0,098	-0,164
-686,568	370,766	-0,042	-0,064
-685,554	-142,038	0,067	0,005
-684,539	690,066	-0,056	-0,109
-683,524	-93,625	-0,064	0,013
-682,510	529,094	-0,027	0,048
-681,495	521,209	0,049	-0,085
-680,481	-52,151	-0,145	0,050
-679,466	800,000	0,021	-0,059
-678,451	13,674	0,061	0,035
-677,437	-95,929	-0,111	-0,022
-676,422	-18,049	0,033	-0,016
-675,408	-104,170	-0,076	0,013
-674,393	-200,000	0,024	-0,081
-673,378	-100,811	-0,054	-0,010
-672,364	69,189	-0,112	0,086
-671,349	-118,690	-0,141	-0,018
-670,335	-128,480	0,144	-0,015
-669,320	800,000	0,027	0,082
-668,305	124,243	-0,037	0,035
-667,291	-200,000	0,025	-0,149
-666,276	800,000	-0,048	-0,108
-665,262	95,511	0,016	0,013
-664,247	-200,000	0,021	-0,104
-663,232	800,000	-0,024	-0,055
-662,218	800,000	-0,061	-0,148
-661,203	150,584	0,119	-0,120
-660,189	182,253	-0,028	0,031
-659,174	218,122	0,036	-0,042
-658,159	-89,273	0,090	-0,020
-657,145	178,629	0,030	-0,032
-656,130	34,120	-0,109	0,070
-655,116	-200,000	-0,003	0,074
-654,101	-97,061	0,096	-0,019
-653,086	79,584	-0,095	-0,076
-652,072	-3,428	-0,148	0,076
-651,057	142,062	-0,102	0,100
-650,043	-200,000	-0,015	-0,073
-649,028	-200,000	-0,015	-0,069
-648,014	412,022	0,065	0,103
-646,999	442,250	0,097	-0,158
-645,984	-113,379	0,105	0,015
-644,970	574,974	0,034	-0,061
-643,955	-130,880	-0,067	0,007
-642,941	109,035	-0,040	-0,036
-641,926	0,845	-0,094	-0,050
-640,911	335,420	0,026	0,037
-639,897	230,491	-0,034	-0,042
-638,882	31,039	0,082	0,052
-637,868	346,242	-0,047	-0,068
-636,853	-48,934	-0,089	0,032
-635,838	800,000	-0,009	0,026
-634,824	404,660	-0,014	0,021
-633,809	-200,000	-0,010	-0,110
-632,795	-200,000	0,019	-0,093
-631,780	121,689	-0,107	0,099
-630,765	800,000	0,027	0,062
-629,751	165,405	-0,037	-0,038
-628,736	11,971	0,052	-0,030
-627,722	91,511	-0,101	-0,084
-626,707	800,000	-0,052	0,117
-625,692	800,000	0,068	0,172
-624,678	-200,000	0,019	0,071
-623,663	151,627	0,088	0,089
-622,649	308,193	0,056	-0,078
-621,634	800,000	0,013	-0,041
-620,619	-17,518	-0,018	-0,009
-619,605	17,127	-0,040	-0,024
-618,590	121,731	-0,079	0,073
-617,576	800,000	-0,026	0,065
-616,561	800,000	-0,030	0,081
-615,546	800,000	0,011	0,025
-614,532	203,961	-0,025	0,028
-613,517	35,952	0,033	0,022
-612,503	90,369	-0,079	0,065
-611,488	486,197	0,050	-0,085
-610,474	-62,588	0,068	0,021
-609,459	-33,871	-0,119	0,048
-608,444	-200,000	0,007	-0,081
-607,430	167,876	-0,046	-0,049
-606,415	-200,000	0,025	-0,189
-605,401	800,000	-0,024	-0,061
-604,386	381,752	-0,028	-0,043
-603,371	-94,254	0,072	0,014
-602,357	395,473	-0,016	-0,025
-601,342	-85,060	-0,115	-0,026
-600,328	69,293	0,066	-0,050
-599,313	-200,000	0,030	-0,129
-598,298	-80,002	-0,048	0,012
-597,284	417,385	0,040	0,063
-596,269	221,666	0,052	-0,063
-595,255	-67,717	0,082	-0,024
-594,240	-200,000	0,139	0,000
-593,225	-75,082	-0,127	0,033
-592,211	-135,541	-0,144	0,013
-591,196	8,431	-0,031	0,017
-590,182	-200,000	-0,001	0,110
-589,167	-72,863	-0,060	0,016
-588,152	-200,000	-0,019	-0,146
-587,138	800,000	-0,051	-0,144
-586,123	-200,000	-0,005	-0,066
-585,109	-200,000	0,010	0,059
-584,094	-200,000	-0,028	0,096
-583,079	-200,000	-0,003	0,072
-582,065	83,191	0,153	0,123
-581,050	800,000	-0,033	0,090
-580,036	800,000	0,021	0,052
-579,021	113,081	-0,076	0,068
-578,006	240,183	-0,106	-0,131
-576,992	102,956	0,065	0,056
-575,977	-200,000	-0,007	-0,062
-574,963	183,175	0,057	-0,062
-573,948	800,000	-0,019	-0,048
-572,934	101,697	0,098	-0,085
-571,919	358,953	-0,069	0,102
-570,904	162,607	-0,106	-0,110
-569,890	800,000	-0,025	0,055
-568,875	266,820	0,029	0,037
-567,861	-101,833	0,055	-0,010
-566,846	80,836	-0,047	-0,038
-565,831	-200,000	0,018	-0,075
-564,817	121,767	-0,123	0,114
-563,802	78,302	-0,053	-0,042
-562,788	-12,980	-0,062	0,030
-561,773	-149,698	-0,053	0,003
-560,758	-200,000	0,029	-0,140
-559,744	-28,541	-0,106	0,045
-558,729	18,232	-0,117	0,069
-557,715	-200,000	-0,003	-0,039
-556,700	106,622	-0,083	-0,073
-555,685	-200,000	-0,007	-0,081
-554,671	800,000	0,064	-0,149
-553,656	-200,000	-0,001	0,054
-552,642	-80,196	-0,069	-0,017
-551,627	-65,120	0,110	0,033
-550,612	-200,000	0,031	-0,110
-549,598	273,699	-0,086	-0,113
-548,583	800,000	0,022	-0,047
-547,569	116,011	0,085	0,077
-546,554	800,000	-0,024	0,053
-545,539	-200,000	0,019	-0,073
-544,525	-200,000	-0,003	0,124
-543,510	-200,000	-0,013	-0,064
-542,496	-63,901	-0,065	-0,020
-541,481	352,980	0,058	0,085
-540,466	800,000	0,038	0,087
-539,452	-98,813	0,094	-0,017
-538,437	193,351	-0,044	-0,049
-537,423	163,390	-0,097	-0,101
-536,408	-46,426	-0,107	-0,039
-535,393	800,000	0,011	0,025
-534,379	-122,548	0,046	-0,005
-533,364	-108,300	0,062	0,010
-532,350	800,000	-0,021	0,052
-531,335	60,183	-0,050	0,037
-530,321	-74,386	-0,177	0,047
-529,306	-200,000	0,030	-0,118
-528,291	800,000	0,034	-0,096
-527,277	-200,000	0,032	-0,135
-526,262	89,248	-0,016	-0,013
-525,248	800,000	-0,083	0,189
-524,233	161,205	-0,047	-0,049
-523,218	-200,000	0,005	0,096
-522,204	-153,730	-0,025	-0,001
-521,189	-200,000	-0,020	0,073
-520,175	-22,714	0,076	0,034
-519,160	-76,179	-0,080	-0,021
-518,145	-200,000	0,006	0,048
-517,131	5,800	0,166	0,091
-516,116	-12,326	0,073	-0,035
-515,102	557,310	0,040	-0,071
-514,087	-200,000	0,015	-0,087
-513,072	-200,000	0,001	-0,075
-512,058	216,013	-0,018	-0,022
-511,043	403,578	0,022	0,034
-510,029	800,000	0,070	0,227
-509,014	-45,898	0,024	0,009
-507,999	-149,423	-0,073	0,004
-506,985	228,425	-0,027	-0,032
-505,970	-103,262	-0,077	-0,013
-504,956	128,620	-0,062	0,058
-503,941	798,690	-0,021	-0,042
-502,926	800,000	0,064	0,144
-501,912	-200,000	0,007	0,057
-500,897	-47,105	-0,027	0,010
-499,883	37,458	-0,040	-0,026
-498,868	-133,985	-0,108	-0,010
-497,853	-32,148	-0,109	0,045
-496,839	-43,553	-0,112	0,042
-495,824	58,750	0,047	-0,034
-494,810	72,998	-0,091	-0,070
-493,795	800,000	-0,061	0,171
-492,781	105,123	-0,145	-0,127
-491,766	-200,000	-0,026	-0,189
-490,751	270,334	0,049	-0,063
-489,737	800,000	0,017	0,039
-488,722	384,951	-0,045	0,068
-487,708	-200,000	0,003	0,032
-486,693	800,000	-0,024	0,072
-485,678	800,000	-0,055	-0,114
-484,664	55,816	0,016	-0,012
-483,649	-56,534	0,067	0,022
-482,635	2,609	-0,089	-0,047
-481,620	129,111	-0,168	0,158
-480,605	54,809	0,080	-0,057
-479,591	-122,502	0,036	0,004
-478,576	800,000	0,029	0,062
-477,562	-66,123	0,081	0,024
-476,547	-200,000	0,023	-0,124
-475,532	-200,000	-0,028	0,163
-474,518	-200,000	0,011	0,038
-473,503	800,000	0,046	0,148
-472,489	800,000	-0,018	0,051
-471,474	-45,404	-0,096	0,035
-470,459	-155,927	-0,038	0,002
-469,445	-200,000	-0,006	0,029
-468,430	-133,337	0,064	0,006
-467,416	240,582	0,078	-0,096
-466,401	8,651	-0,019	-0,011
-465,386	118,044	0,033	0,030
-464,372	800,000	0,032	-0,088
-463,357	348,385	0,057	0,083
-462,343	391,641	0,042	0,064
-461,328	-146,539	-0,147	0,009
-460,313	-95,591	0,166	-0,032
-459,299	-25,532	0,109	-0,047
-458,284	-58,429	0,048	0,015
-457,270	-79,687	-0,132	0,032
-456,255	-67,292	-0,040	-0,012
-455,241	-136,249	0,066	-0,006
-454,226	116,926	0,130	-0,117
-453,211	-109,340	-0,119	-0,018
-452,197	420,583	-0,024	-0,038
-451,182	-13,248	0,080	0,038
-450,168	-15,347	0,086	0,040
-449,153	188,507	-0,015	0,016
-448,138	359,091	-0,065	-0,096
-447,124	31,985	-0,035	-0,022
-446,109	-32,005	0,100	0,041
-445,095	245,809	0,042	-0,052
-444,080	-200,000	-0,011	0,111
-443,065	-19,538	-0,054	-0,024
-442,051	112,308	-0,064	0,057
-441,036	-200,000	-0,046	-0,162
-440,022	108,351	-0,037	-0,033
-439,007	-200,000	0,021	0,119
-437,992	-126,928	0,075	0,008
-436,978	69,921	-0,055	0,042
-435,963	-8,055	0,140	0,069
-434,949	365,316	-0,054	-0,080
-433,934	-33,837	0,078	-0,031
-432,919	193,978	-0,051	-0,057
-431,905	-200,000	0,018	-0,108
-430,890	28,621	0,101	-0,062
-429,876	113,401	0,061	-0,055
-428,861	219,185	0,093	-0,109
-427,846	520,004	-0,047	-0,082
-426,832	-200,000	-0,012	0,065
-425,817	-108,464	-0,067	0,010
-424,803	287,408	0,040	0,054
-423,788	235,976	0,040	0,049
-422,773	-84,450	-0,066	0,015
-421,759	-200,000	0,027	0,116
-420,744	313,544	0,135	-0,187
-419,730	200,029	-0,103	-0,116
-418,715	186,846	-0,064	-0,070
-417,701	-200,000	0,013	-0,204
-416,686	-33,823	0,050	0,020
-415,671	397,328	-0,023	-0,035
-414,657	144,056	0,058	0,057
-413,642	123,010	-0,033	0,030
-412,628	150,412	0,062	-0,062
-411,613	474,594	0,049	-0,082
-410,598	106,218	0,155	-0,135
-409,584	800,000	-0,060	-0,174
-408,569	-128,435	0,122	-0,013
-407,555	-44,678	0,118	0,043
-406,540	-96,445	-0,111	0,021
-405,525	-200,000	0,012	-0,084
-404,511	-200,000	0,003	-0,178
-403,496	-0,823	-0,092	-0,048
-402,482	-101,050	-0,043	-0,008
-401,467	800,000	-0,039	0,084
-400,452	-192,302	0,052	0,000
-399,438	-108,059	-0,050	0,008
-398,423	149,836	-0,175	-0,175
-397,409	376,918	0,100	-0,150
-396,394	281,293	-0,120	-0,158
-395,379	81,244	-0,054	-0,043
-394,365	39,499	0,082	-0,054
-393,350	-90,922	-0,072	0,015
-392,336	-200,000	0,018	0,100
-391,321	-37,773	-0,065	0,025
-390,306	60,609	0,097	0,070
-389,292	-23,745	-0,090	-0,039
-388,277	160,336	-0,034	0,035
-387,263	-107,728	0,067	0,011
-386,248	800,000	0,042	0,132
-385,233	800,000	0,053	0,141
-384,219	551,909	0,015	0,026
-383,204	-200,000	0,006	-0,043
-382,190	800,000	0,035	-0,101
-381,175	167,920	-0,028	0,030
-380,160	-158,985	0,126	-0,005
-379,146	-200,000	0,018	0,141
-378,131	292,921	0,091	0,123
-377,117	125,912	-0,074	0,068
-376,102	308,593	-0,029	-0,039
-375,088	-147,725	-0,146	-0,009
-374,073	-68,104	0,069	-0,020
-373,058	800,000	0,085	0,227
-372,044	800,000	0,059	-0,131
-371,029	312,291	0,057	0,079
-370,015	20,253	0,033	0,020
-369,000	-149,632	-0,047	0,003
-367,985	616,935	-0,027	0,049
-366,971	634,852	-0,010	-0,019
-365,956	457,541	0,029	0,047
-364,942	164,664	0,064	-0,067
-363,927	-200,000	-0,016	0,127
-362,912	122,378	0,067	0,061
-361,898	371,832	-0,092	-0,138
-360,883	800,000	0,032	0,082
-359,869	-200,000	-0,000	-0,032
-358,854	-87,487	-0,064	0,014
-357,839	-157,621	0,060	-0,003
-356,825	-200,000	-0,008	-0,052
-355,810	6,446	0,100	-0,054
-354,796	-200,000	0,001	0,040
-353,781	-167,432	-0,068	0,002
-352,766	-145,169	0,072	-0,005
-351,752	-169,360	-0,101	-0,003
-350,737	-91,024	0,051	0,011
-349,723	-23,954	0,116	0,051
-348,708	45,432	0,038	0,025
-347,693	-200,000	0,014	-0,081
-346,679	-148,024	-0,189	-0,011
-345,664	399,893	0,012	-0,018
-344,650	-9,549	0,162	-0,079
-343,635	-151,871	0,035	0,002
-342,620	742,977	-0,010	0,020
-341,606	800,000	-0,017	-0,047
-340,591	590,477	0,079	-0,143
-339,577	17,540	0,051	-0,029
-338,562	166,431	0,077	-0,080
-337,548	239,144	0,080	-0,098
-336,533	-31,370	0,090	-0,037
-335,518	-200,000	0,018	0,175
-334,504	-16,706	-0,085	-0,039
-333,489	-44,826	-0,049	0,018
-332,475	113,195	-0,046	-0,041
-331,460	800,000	-0,031	-0,066
-330,445	120,817	-0,086	0,078
-329,431	125,564	0,064	-0,060
-328,416	404,758	-0,032	0,049
-327,402	85,621	0,103	0,083
-326,387	5,508	0,149	0,081
-325,372	359,463	-0,028	-0,041
-324,358	-200,000	0,027	-0,113
-323,343	-200,000	-0,010	-0,138
-322,329	238,290	0,072	0,088
-321,314	-200,000	-0,012	0,157
-320,299	16,451	-0,168	0,097
-319,285	-3,266	0,092	0,047
-318,270	419,710	-0,063	0,100
-317,256	105,466	0,091	-0,079
-316,241	445,131	-0,088	-0,143
-315,226	-200,000	0,008	0,094
-314,212	800,000	0,045	-0,095
-313,197	-200,000	-0,005	0,121
-312,183	410,937	0,067	-0,104
-311,168	109,692	0,015	0,013
-310,153	400,571	0,079	-0,122
-309,139	584,251	-0,063	0,113
-308,124	-58,237	-0,016	-0,005
-307,110	73,587	0,089	0,068
-306,095	-84,407	0,068	0,016
-305,080	-152,629	-0,052	-0,003
-304,066	-51,831	0,030	-0,010
-303,051	79,336	0,068	-0,054
-302,037	564,805	0,067	0,119
-301,022	-200,000	-0,008	-0,058
-300,008	280,653	-0,084	0,110
-298,993	800,000	0,010	0,023
-297,978	422,062	0,022	0,035
-296,964	41,334	0,029	0,019
-295,949	-134,375	-0,031	0,003
-294,935	-95,904	-0,053	-0,010
-293,920	-109,058	0,050	-0,008
-292,905	-161,171	0,038	0,001
-291,891	86,484	0,058	-0,047
-290,876	736,364	-0,045	0,088
-289,862	551,706	0,041	0,071
-288,847	-14,355	-0,158	-0,074
-287,832	-147,690	-0,086	0,005
-286,818	800,000	0,040	-0,096
-285,803	800,000	-0,052	-0,136
-284,789	800,000	0,038	-0,117
-283,774	-37,227	0,088	0,034
-282,759	513,135	-0,036	-0,062
-281,745	-77,426	-0,145	-0,036
-280,730	-73,886	-0,084	-0,022
-279,716	-92,155	0,033	-0,007
-278,701	-200,000	-0,010	-0,134
-277,686	-200,000	0,001	0,053
-276,672	74,316	-0,063	-0,048
-275,657	559,968	-0,036	0,064
-274,643	-200,000	-0,012	-0,059
-273,628	800,000	-0,038	-0,081
-272,613	-140,794	0,188	0,014
-271,599	-200,000	0,043	0,182
-270,584	-200,000	0,022	0,084
-269,570	-200,000	0,001	0,135
-268,555	325,946	-0,095	-0,133
-267,540	-200,000	-0,002	0,031
-266,526	-200,000	0,005	-0,086
-265,511	-41,523	0,070	0,026
-264,497	176,311	0,096	-0,102
-263,482	650,442	-0,052	0,098
-262,467	86,803	0,044	0,036
-261,453	63,023	-0,045	-0,033
-260,438	230,880	0,040	-0,049
-259,424	65,937	-0,080	0,060
-258,409	38,248	0,076	0,049
-257,395	800,000	0,051	0,128
-256,380	452,590	0,069	-0,112
-255,365	-200,000	0,008	0,027
-254,351	-200,000	-0,009	0,092
-253,336	-65,860	0,024	-0,007
-252,322	-43,447	-0,085	0,031
-251,307	800,000	-0,060	-0,193
-250,292	-40,902	0,114	-0,043
-249,278	-200,000	0,003	0,017
-248,263	-200,000	-0,007	0,167
-247,249	-101,954	0,077	-0,013
-246,234	52,348	0,127	0,089
-245,219	-200,000	0,033	-0,182
-244,205	161,367	0,076	0,078
-243,190	-113,594	-0,159	0,022
-242,176	90,729	0,013	0,011
-241,161	350,660	-0,063	0,091
-240,146	-172,818	0,076	-0,002
-239,132	60,864	0,006	0,005
-238,117	-69,898	-0,136	-0,038
-237,103	756,514	-0,047	-0,094
-236,088	-29,755	-0,057	0,024
-235,073	513,545	-0,050	0,086
-234,059	-184,135	0,075	0,001
-233,044	800,000	0,047	0,107
-232,030	137,566	-0,015	-0,015
-231,015	800,000	-0,038	0,119
-230,000	800,000	-0,044	-0,123
-228,986	800,000	-0,029	-0,092
-227,971	-200,000	0,008	0,145
-226,957	800,000	-0,041	-0,101
-225,942	-53,697	0,158	-0,052
-224,927	800,000	0,021	0,042
-223,913	334,505	-0,069	0,098
-222,898	187,200	0,067	-0,073
-221,884	-200,000	0,009	-0,044
-220,869	-5,411	0,151	0,076
-219,855	-130,516	-0,071	-0,007
-218,840	-44,566	0,066	-0,024
-217,825	-88,551	-0,028	0,006
-216,811	800,000	0,058	-0,133
-215,796	800,000	-0,065	-0,190
-214,782	85,082	-0,089	-0,071
-213,767	-185,582	0,188	-0,002
-212,752	800,000	-0,079	0,172
-211,738	800,000	0,019	-0,050
-210,723	-92,355	-0,077	0,016
-209,709	800,000	0,033	0,069
-208,694	-200,000	-0,017	0,095
-207,679	-200,000	0,009	-0,044
-206,665	800,000	0,050	-0,102
-205,650	597,381	-0,066	0,119
-204,636	156,725	0,246	0,248
-203,621	-7,427	-0,116	0,057
-202,606	-200,000	-0,035	-0,123
-201,592	52,391	-0,081	-0,056
-200,577	-2,804	-0,071	-0,036
-199,563	317,179	0,092	-0,128
-198,548	800,000	0,052	0,106
-197,533	-102,128	0,078	0,014
-196,519	299,024	0,066	-0,089
-195,504	83,636	-0,153	-0,122
-194,490	800,000	-0,088	-0,253
-193,475	515,864	-0,044	-0,075
-192,460	756,987	0,047	0,094
-191,446	-62,368	0,161	0,049
-190,431	234,929	-0,082	0,099
-189,417	400,754	0,090	0,138
-188,402	800,000	0,014	0,032
-187,387	-41,241	0,109	0,041
-186,373	120,856	-0,066	-0,060
-185,358	-109,650	0,148	-0,022
-184,344	-200,000	-0,003	0,152
-183,329	-200,000	0,006	0,058
-182,315	73,999	0,060	0,046
-181,300	800,000	-0,078	0,174
-180,285	-11,203	-0,187	0,090
-179,271	-113,137	-0,077	0,011
-178,256	217,312	-0,065	-0,075
-177,242	74,784	-0,116	0,089
-176,227	20,077	0,083	-0,049
-175,212	-200,000	0,001	0,038
-174,198	800,000	0,025	0,054
-173,183	24,685	-0,084	0,050
-172,169	269,272	0,056	-0,072
-171,154	-39,728	0,073	-0,028
-170,139	278,075	0,114	0,149
-169,125	800,000	-0,024	0,053
-168,110	-200,000	-0,008	0,041
-167,096	-24,857	0,090	-0,039
-166,081	800,000	-0,010	0,026
-165,066	482,911	-0,100	0,166
-164,052	-27,973	-0,045	0,019
-163,037	-200,000	-0,005	0,097
-162,023	165,722	0,107	0,110
-161,008	90,986	-0,132	0,108
-159,993	-47,755	-0,265	0,093
-158,979	-200,000	-0,012	0,042
-157,964	-200,000	-0,024	-0,095
-156,950	235,839	-0,008	0,010
-155,935	-200,000	-0,000	-0,053
-154,920	-36,164	0,111	0,043
-153,906	29,342	-0,046	-0,028
-152,891	-200,000	-0,003	0,128
-151,877	-110,139	-0,048	0,007
-150,862	-200,000	-0,003	0,103
-149,847	166,094	-0,082	-0,084
-148,833	-129,338	-0,104	0,010
-147,818	-130,520	-0,105	0,010
-146,804	293,826	0,027	0,036
-145,789	-200,000	0,036	0,151
-144,775	-200,000	0,002	-0,096
-143,760	-33,049	0,039	-0,016
-142,745	-165,210	-0,198	-0,006
-141,731	-109,954	0,039	-0,006
-140,716	-38,348	0,087	0,033
-139,702	-32,206	0,025	-0,010
-138,687	43,773	0,065	-0,043
-137,672	318,481	0,046	-0,064
-136,658	132,780	-0,118	-0,111
-135,643	52,193	0,057	-0,040
-134,629	13,676	-0,095	-0,054
-133,614	-45,749	-0,022	-0,008
-132,599	-175,434	0,029	0,001
-131,585	85,644	0,073	-0,058
-130,570	-200,000	0,027	0,108
-129,556	-200,000	-0,022	-0,166
-128,541	-124,969	-0,165	0,018
-127,526	800,000	-0,046	0,114
-126,512	800,000	0,038	0,076
-125,497	128,731	0,106	0,098
-124,483	-7,186	-0,061	0,030
-123,468	214,085	-0,053	-0,061
-122,453	-124,303	0,063	0,007
-121,439	-200,000	-0,008	-0,036
-120,424	128,227	0,136	-0,126
-119,410	-94,962	0,042	0,008
