DTS Sentinel unit serial number:	SN410029Multiplexer serial number:	ORYXHardware model number:	OX2-SRSoftware version number:	ORYX F/W v4,00 Oryx Data Collector v3.7.2.0data status	okinstallation	B4 Nyhavnadifferential loss correction	single-endedforward channel	channel 2reverse channel	N/Adate	2023/12/16time	06:20:13forward acquisition time	300,00reverse acquisition time	0,00gamma	499,1914k internal	0,3127k external	0,3127temperature offset calibration	1,0000default loss term (dB/km)	0,3820temperature slope calibration	1,0000multiplexer offset coefficient	1,0000multiplexer slope coefficient	1,0000fibre end	0,00T internal ref (°C)	22,26T ext. ref 1 (°C)	7,57T ext. ref 2 (°C)	7,70length (m)	temperature (°C)	Stokes	anti-Stokes-744,400	-95,007	-0,100	-0,020
-743,385	211,414	-0,137	0,161
-742,371	36,448	-0,062	0,041
-741,356	-14,622	-0,144	0,068
-740,342	-129,815	0,225	0,023
-739,327	65,370	-0,174	0,131
-738,312	33,549	0,048	-0,031
-737,298	-57,980	-0,233	0,075
-736,283	-200,000	-0,002	-0,017
-735,269	-28,648	-0,219	0,093
-734,254	145,729	0,042	0,042
-733,239	-90,505	-0,377	-0,081
-732,225	-31,713	0,303	0,126
-731,210	-55,430	0,061	0,020
-730,196	-23,208	-0,138	-0,062
-729,181	260,822	-0,084	-0,108
-728,167	-138,981	0,113	-0,009
-727,152	-200,000	-0,010	0,043
-726,137	800,000	-0,036	-0,089
-725,123	73,410	-0,083	0,065
-724,108	-200,000	0,008	-0,261
-723,094	121,850	-0,079	-0,073
-722,079	-35,079	0,076	-0,031
-721,064	800,000	-0,023	0,058
-720,050	-99,941	-0,202	-0,037
-719,035	184,907	0,079	-0,087
-718,021	201,173	-0,032	0,037
-717,006	380,965	-0,056	-0,085
-715,991	-200,000	-0,067	-0,251
-714,977	-200,000	-0,009	-0,199
-713,962	38,698	0,093	0,061
-712,948	-200,000	-0,011	-0,093
-711,933	57,559	-0,152	-0,110
-710,918	298,823	-0,082	-0,113
-709,904	-46,084	0,071	0,026
-708,889	-200,000	0,103	0,000
-707,875	-142,452	-0,139	0,010
-706,860	800,000	-0,074	-0,155
-705,845	-13,062	0,059	0,028
-704,831	-80,452	0,183	-0,045
-703,816	254,925	0,035	0,044
-702,802	41,516	0,123	-0,083
-701,787	78,891	-0,093	-0,074
-700,772	-115,939	0,087	0,012
-699,758	778,531	-0,035	0,071
-698,743	-82,249	-0,077	-0,018
-697,729	-200,000	0,031	0,140
-696,714	70,161	-0,059	0,045
-695,699	-200,000	-0,008	0,077
-694,685	389,419	0,043	-0,067
-693,670	-200,000	0,001	-0,097
-692,656	127,849	0,143	-0,135
-691,641	-4,036	0,083	-0,043
-690,627	225,188	0,017	-0,020
-689,612	106,186	-0,079	-0,070
-688,597	324,198	-0,063	0,089
-687,583	-79,902	0,168	0,042
-686,568	-7,346	-0,056	-0,028
-685,554	-88,361	0,088	0,019
-684,539	-93,942	0,135	-0,027
-683,524	-8,291	0,143	0,071
-682,510	-111,634	0,076	-0,011
-681,495	89,803	-0,045	0,038
-680,481	-200,000	-0,050	-0,174
-679,466	800,000	0,028	-0,081
-678,451	-200,000	0,000	-0,130
-677,437	-159,920	0,123	0,005
-676,422	-200,000	0,052	0,192
-675,408	-200,000	-0,008	0,054
-674,393	800,000	-0,032	-0,092
-673,378	142,240	-0,099	-0,098
-672,364	167,259	-0,065	-0,069
-671,349	-121,752	-0,164	0,020
-670,335	800,000	0,032	-0,095
-669,320	418,377	-0,017	0,026
-668,305	647,207	0,049	0,092
-667,291	800,000	0,034	0,079
-666,276	-49,762	-0,138	0,048
-665,262	-37,220	-0,112	-0,044
-664,247	14,686	-0,059	-0,034
-663,232	156,700	0,063	-0,064
-662,218	473,248	0,038	0,063
-661,203	184,852	0,061	0,067
-660,189	800,000	0,057	0,178
-659,174	-101,765	-0,163	-0,029
-658,159	800,000	-0,026	-0,066
-657,145	-107,947	0,010	0,002
-656,130	186,626	0,087	-0,097
-655,116	-200,000	-0,010	0,074
-654,101	180,123	0,079	0,086
-653,086	-200,000	-0,001	-0,006
-652,072	-87,821	0,066	0,015
-651,057	16,449	-0,092	-0,054
-650,043	-151,454	0,052	0,003
-649,028	800,000	-0,042	0,114
-648,014	-153,962	0,037	-0,002
-646,999	-164,893	0,088	-0,003
-645,984	-140,715	-0,089	-0,007
-644,970	-147,458	-0,085	-0,005
-643,955	-200,000	-0,021	-0,159
-642,941	76,365	-0,152	-0,119
-641,926	-200,000	0,018	-0,096
-640,911	499,326	-0,032	-0,055
-639,897	42,168	-0,070	-0,047
-638,882	162,081	0,076	-0,079
-637,868	-200,000	0,021	0,154
-636,853	302,479	0,019	0,026
-635,838	112,689	0,010	0,009
-634,824	34,647	-0,085	0,055
-633,809	-56,488	0,092	0,030
-632,795	-31,492	-0,076	0,031
-631,780	800,000	-0,037	0,110
-630,765	-72,701	0,011	0,003
-629,751	-200,000	0,003	0,081
-628,736	800,000	0,031	-0,068
-627,722	-200,000	0,002	-0,027
-626,707	-200,000	0,031	-0,106
-625,692	444,231	-0,033	0,054
-624,678	-127,629	0,072	0,008
-623,663	-47,680	-0,113	0,040
-622,649	80,592	0,074	-0,059
-621,634	-200,000	0,035	-0,125
-620,619	-200,000	0,022	-0,112
-619,605	247,647	0,048	-0,060
-618,590	-200,000	0,016	-0,060
-617,576	-12,242	-0,082	0,040
-616,561	431,132	-0,081	-0,130
-615,546	-200,000	0,020	0,123
-614,532	-151,750	-0,100	-0,005
-613,517	171,168	-0,013	-0,013
-612,503	-200,000	0,005	-0,033
-611,488	-200,000	0,003	0,137
-610,474	-200,000	0,007	-0,078
-609,459	-64,623	-0,034	-0,010
-608,444	-71,031	0,081	-0,023
-607,430	-18,110	0,028	-0,013
-606,415	199,493	-0,056	-0,063
-605,401	-25,264	0,054	-0,024
-604,386	43,424	0,069	0,047
-603,371	-200,000	-0,015	0,050
-602,357	216,361	-0,040	-0,047
-601,342	-23,950	-0,052	-0,023
-600,328	-107,168	-0,207	-0,033
-599,313	96,347	-0,146	-0,124
-598,298	-53,306	0,069	-0,023
-597,284	89,562	-0,018	0,015
-596,269	-200,000	0,018	-0,108
-595,255	420,538	-0,032	-0,051
-594,240	-115,487	-0,087	0,012
-593,225	72,060	-0,046	-0,035
-592,211	-29,040	-0,034	0,014
-591,196	800,000	0,037	-0,086
-590,182	498,228	0,011	0,019
-589,167	95,668	0,079	0,067
-588,152	-55,878	-0,082	-0,027
-587,138	-158,221	-0,119	0,005
-586,123	514,513	-0,035	0,062
-585,109	124,323	-0,131	-0,122
-584,094	-200,000	-0,005	0,020
-583,079	800,000	0,017	-0,043
-582,065	43,885	0,051	0,035
-581,050	-200,000	-0,029	-0,110
-580,036	-200,000	0,002	-0,045
-579,021	800,000	0,030	-0,088
-578,006	-138,566	-0,059	-0,005
-576,992	-200,000	0,010	-0,086
-575,977	176,855	0,011	0,012
-574,963	-29,014	-0,053	-0,022
-573,948	-119,139	0,086	0,011
-572,934	-200,000	0,084	-0,000
-571,919	-2,727	-0,057	-0,029
-570,904	-200,000	0,023	-0,100
-569,890	-200,000	0,004	-0,100
-568,875	199,208	0,065	-0,074
-567,861	-153,139	-0,109	-0,006
-566,846	-200,000	-0,011	0,078
-565,831	-200,000	-0,040	0,134
-564,817	800,000	-0,058	-0,160
-563,802	800,000	-0,016	-0,051
-562,788	-70,672	-0,158	-0,044
-561,773	11,725	0,054	-0,031
-560,758	-200,000	0,019	0,119
-559,744	-98,428	0,104	0,019
-558,729	-81,990	-0,157	-0,038
-557,715	-200,000	-0,009	-0,040
-556,700	102,979	-0,100	0,087
-555,685	800,000	-0,022	-0,062
-554,671	-200,000	0,022	-0,117
-553,656	717,096	-0,102	0,201
-552,642	-200,000	-0,025	-0,089
-551,627	-0,878	-0,143	-0,075
-550,612	-200,000	-0,013	-0,063
-549,598	401,710	0,024	0,037
-548,583	-146,012	-0,084	-0,005
-547,569	-129,637	-0,070	0,007
-546,554	-200,000	0,002	0,034
-545,539	-32,796	0,153	0,063
-544,525	-200,000	-0,001	-0,129
-543,510	-42,897	0,193	-0,072
-542,496	783,159	0,009	-0,018
-541,481	19,058	-0,094	0,055
-540,466	265,725	0,047	0,061
-539,452	-23,134	0,090	0,040
-538,437	-200,000	-0,016	0,148
-537,423	382,723	0,072	0,110
-536,408	-165,204	-0,115	-0,004
-535,393	-8,094	0,068	0,034
-534,379	281,744	0,050	0,067
-533,364	-25,915	-0,055	0,024
-532,350	122,652	0,046	0,042
-531,335	178,890	0,094	0,102
-530,321	-200,000	0,002	0,007
-529,306	46,301	-0,037	-0,025
-528,291	276,203	0,046	-0,061
-527,277	-200,000	0,011	0,064
-526,262	-189,001	-0,102	-0,001
-525,248	-154,847	-0,069	-0,003
-524,233	-59,542	-0,089	-0,028
-523,218	201,070	0,093	0,106
-522,204	287,220	0,075	0,100
-521,189	-134,796	-0,156	-0,014
-520,175	137,931	-0,026	0,026
-519,160	489,282	0,046	-0,077
-518,145	169,179	-0,031	-0,032
-517,131	92,371	-0,063	-0,052
-516,116	-200,000	0,004	-0,119
-515,102	-200,000	0,000	0,077
-514,087	-65,172	-0,007	-0,002
-513,072	-200,000	-0,001	0,118
-512,058	-200,000	-0,010	-0,085
-511,043	73,056	-0,029	0,022
-510,029	-200,000	-0,008	0,059
-509,014	794,240	0,048	0,097
-507,999	174,872	0,029	0,031
-506,985	63,727	-0,054	-0,040
-505,970	-64,311	-0,044	0,013
-504,956	492,801	-0,023	-0,039
-503,941	-200,000	-0,014	-0,107
-502,926	-200,000	-0,011	0,097
-501,912	436,002	0,036	0,058
-500,897	341,700	-0,056	-0,080
-499,883	-200,000	0,007	-0,093
-498,868	400,404	-0,063	-0,097
-497,853	800,000	-0,034	-0,090
-496,839	362,866	0,040	0,059
-495,824	-132,661	0,176	0,016
-494,810	-135,772	-0,052	0,004
-493,795	-200,000	-0,007	0,128
-492,781	668,381	-0,038	-0,073
-491,766	-86,712	0,104	-0,023
-490,751	515,241	0,059	-0,102
-489,737	457,588	-0,051	-0,084
-488,722	800,000	0,054	-0,170
-487,708	253,607	0,060	0,075
-486,693	800,000	0,043	0,114
-485,678	-44,733	-0,037	-0,014
-484,664	800,000	0,076	-0,187
-483,649	-200,000	-0,022	0,079
-482,635	-200,000	-0,046	-0,163
-481,620	-200,000	0,013	0,054
-480,605	768,259	0,019	-0,039
-479,591	251,342	-0,024	0,030
-478,576	310,133	0,080	-0,111
-477,562	-200,000	0,014	-0,087
-476,547	44,487	-0,124	-0,084
-475,532	377,768	0,041	0,062
-474,518	-200,000	0,014	0,136
-473,503	-200,000	0,018	0,133
-472,489	800,000	0,031	0,066
-471,474	757,543	0,043	0,086
-470,459	-34,020	-0,065	0,026
-469,445	-200,000	-0,011	0,037
-468,430	482,541	0,009	-0,015
-467,416	-75,376	0,105	0,027
-466,401	-71,441	0,052	0,014
-465,386	82,684	0,021	0,017
-464,372	-200,000	-0,022	0,070
-463,357	-43,625	-0,101	0,037
-462,343	800,000	-0,017	-0,046
-461,328	545,708	0,024	-0,043
-460,313	-106,451	0,063	0,010
-459,299	-161,222	-0,189	0,007
-458,284	-43,429	-0,103	0,038
-457,270	-34,306	0,111	-0,045
-456,255	448,998	-0,041	0,067
-455,241	-17,641	0,041	-0,019
-454,226	-72,580	0,138	-0,037
-453,211	-32,949	0,096	0,039
-452,197	800,000	-0,024	0,055
-451,182	-101,576	0,234	0,041
-450,168	800,000	-0,024	-0,063
-449,153	-200,000	0,007	-0,192
-448,138	40,792	-0,092	0,061
-447,124	30,615	-0,093	0,058
-446,109	-96,726	-0,015	0,003
-445,095	-89,791	0,016	0,003
-444,080	-200,000	0,013	0,218
-443,065	-183,660	-0,060	0,001
-442,051	-125,895	-0,119	-0,013
-441,036	-79,739	-0,061	-0,015
-440,022	-200,000	0,006	-0,054
-439,007	-199,301	-0,110	0,000
-437,992	-200,000	-0,003	0,040
-436,978	-72,215	0,178	-0,048
-435,963	-62,284	0,056	0,017
-434,949	116,808	-0,126	0,113
-433,934	97,711	0,054	-0,045
-432,919	-35,858	-0,065	0,026
-431,905	-200,000	-0,038	-0,188
-430,890	-69,439	-0,070	-0,020
-429,876	-38,073	0,027	-0,011
-428,861	731,875	0,055	-0,108
-427,846	-200,000	0,018	0,099
-426,832	-30,283	-0,082	0,034
-425,817	-200,000	0,005	-0,069
-424,803	715,519	0,054	-0,105
-423,788	-121,019	0,211	-0,026
-422,773	-56,518	0,088	-0,029
-421,759	800,000	-0,006	-0,019
-420,744	58,892	0,136	0,098
-419,730	20,834	-0,160	-0,095
-418,715	522,280	-0,036	-0,063
-417,701	-126,408	0,088	0,010
-416,686	251,611	-0,057	0,071
-415,671	800,000	-0,044	0,103
-414,657	800,000	0,071	0,155
-413,642	119,390	-0,023	0,021
-412,628	368,072	-0,046	0,068
-411,613	-200,000	-0,027	-0,132
-410,598	-55,983	0,050	0,016
-409,584	287,450	0,063	0,084
-408,569	-102,822	0,111	-0,019
-407,555	-200,000	0,004	-0,031
-406,540	-42,993	0,134	0,050
-405,525	-200,000	-0,017	0,160
-404,511	-159,182	-0,058	0,002
-403,496	800,000	-0,034	-0,077
-402,482	-61,463	0,101	0,031
-401,467	265,565	0,067	0,086
-400,452	-83,128	0,048	0,011
-399,438	-200,000	0,018	0,115
-398,423	800,000	0,036	0,081
-397,409	-29,088	-0,059	-0,025
-396,394	162,804	-0,024	0,025
-395,379	65,270	0,069	0,051
-394,365	-200,000	0,020	-0,094
-393,350	76,021	-0,057	-0,044
-392,336	-200,000	0,023	0,107
-391,321	-166,383	-0,116	-0,003
-390,306	800,000	0,023	-0,065
-389,292	-146,495	0,102	0,006
-388,277	51,499	0,082	-0,057
-387,263	-133,763	0,145	0,013
-386,248	55,693	-0,118	0,084
-385,233	12,487	0,093	0,053
-384,219	124,733	-0,061	-0,056
-383,204	-200,000	-0,035	-0,113
-382,190	-162,317	-0,105	0,004
-381,175	-200,000	0,013	-0,087
-380,160	72,361	0,164	0,125
-379,146	357,989	-0,070	0,102
-378,131	113,658	0,041	-0,036
-377,117	95,689	-0,050	0,042
-376,102	-122,334	0,076	0,009
-375,088	-66,065	0,058	0,017
-374,073	424,436	0,066	0,105
-373,058	-118,877	-0,028	0,004
-372,044	62,097	0,038	0,028
-371,029	719,476	0,051	0,100
-370,015	-200,000	-0,035	0,135
-369,000	224,799	0,022	0,026
-367,985	-34,391	-0,107	0,043
-366,971	-121,576	0,076	0,009
-365,956	8,407	0,110	0,060
-364,942	-64,690	0,181	0,053
-363,927	184,066	0,090	0,098
-362,912	283,630	0,051	-0,068
-361,898	-200,000	-0,016	-0,062
-360,883	207,520	-0,079	0,091
-359,869	39,159	0,042	-0,028
-358,854	-61,909	0,131	0,040
-357,839	198,679	0,053	0,059
-356,825	-200,000	0,003	-0,052
-355,810	59,868	0,075	-0,054
-354,796	85,618	-0,002	0,002
-353,781	68,355	-0,114	-0,086
-352,766	21,783	-0,133	0,079
-351,752	151,048	0,103	-0,103
-350,737	-177,402	0,082	-0,001
-349,723	-107,601	0,104	0,017
-348,708	-58,316	0,039	0,012
-347,693	65,820	0,118	0,087
-346,679	800,000	-0,057	-0,153
-345,664	800,000	-0,059	-0,152
-344,650	-66,582	0,231	0,067
-343,635	-200,000	0,019	-0,082
-342,620	-102,930	0,095	-0,016
-341,606	-13,475	0,047	0,022
-340,591	800,000	-0,041	-0,083
-339,577	800,000	0,028	-0,069
-338,562	800,000	-0,040	-0,123
-337,548	-200,000	0,011	0,085
-336,533	337,403	-0,044	0,063
-335,518	666,444	0,058	0,110
-334,504	800,000	-0,050	0,135
-333,489	209,552	-0,042	0,048
-332,475	-138,397	-0,084	0,007
-331,460	-101,353	0,051	0,009
-330,445	389,646	-0,036	0,055
-329,431	-173,143	0,098	0,002
-328,416	462,868	0,117	0,192
-327,402	-132,202	-0,140	0,013
-326,387	-34,079	0,149	-0,060
-325,372	-95,091	-0,123	-0,024
-324,358	27,388	-0,108	0,066
-323,343	137,271	-0,010	0,010
-322,329	800,000	-0,081	0,167
-321,314	-200,000	0,027	0,108
-320,299	-200,000	0,012	0,107
-319,285	-184,073	0,080	0,001
-318,270	-200,000	0,009	-0,031
-317,256	800,000	0,039	-0,105
-316,241	-158,073	0,030	0,001
-315,226	498,171	-0,085	0,144
-314,212	-200,000	-0,015	0,074
-313,197	161,439	-0,006	-0,006
-312,183	-165,321	0,066	-0,002
-311,168	299,915	-0,068	0,092
-310,153	263,562	-0,035	-0,045
-309,139	-97,998	-0,106	-0,020
-308,124	800,000	0,035	-0,081
-307,110	-200,000	0,015	-0,097
-306,095	-177,657	0,102	-0,002
-305,080	-48,553	-0,092	0,032
-304,066	104,693	0,079	-0,068
-303,051	-200,000	0,022	0,106
-302,037	-76,698	0,047	0,012
-301,022	800,000	-0,036	-0,096
-300,008	800,000	0,038	-0,094
-298,993	800,000	0,023	-0,048
-297,978	136,464	-0,058	0,055
-296,964	-71,890	-0,089	0,024
-295,949	85,141	-0,063	0,051
-294,935	-200,000	0,008	0,043
-293,920	-91,706	0,068	-0,014
-292,905	18,390	-0,118	-0,069
-291,891	-133,112	0,159	-0,015
-290,876	-163,578	0,305	0,010
-289,862	-200,000	-0,020	-0,100
-288,847	-200,000	-0,009	0,041
-287,832	109,027	-0,123	-0,108
-286,818	-200,000	0,022	0,088
-285,803	111,836	0,073	-0,064
-284,789	-0,910	0,105	-0,054
-283,774	-200,000	-0,003	0,043
-282,759	756,334	0,014	0,027
-281,745	800,000	-0,033	0,070
-280,730	-200,000	-0,021	-0,080
-279,716	-200,000	-0,033	-0,133
-278,701	234,366	-0,062	0,075
-277,686	-119,532	0,086	0,011
-276,672	70,062	0,108	0,081
-275,657	165,112	0,072	0,075
-274,643	237,837	0,042	0,051
-273,628	11,778	-0,069	-0,039
-272,613	536,785	0,059	-0,102
-271,599	-200,000	-0,021	0,068
-270,584	800,000	0,082	-0,190
-269,570	-200,000	0,010	0,067
-268,555	-83,157	-0,109	-0,025
-267,540	-17,367	-0,072	-0,033
-266,526	-101,840	-0,059	0,010
-265,511	-77,486	0,102	0,026
-264,497	-95,631	-0,035	-0,007
-263,482	800,000	-0,035	-0,091
-262,467	338,547	0,088	0,125
-261,453	394,225	0,044	-0,067
-260,438	-200,000	-0,014	-0,085
-259,424	-200,000	0,028	-0,098
-258,409	-200,000	-0,002	-0,105
-257,395	42,917	-0,073	-0,048
-256,380	-200,000	-0,001	0,091
-255,365	800,000	0,050	0,160
-254,351	14,749	-0,144	0,082
-253,336	23,340	0,055	-0,033
-252,322	-200,000	0,008	-0,127
-251,307	800,000	-0,033	0,083
-250,292	-62,686	0,025	-0,008
-249,278	146,620	-0,036	-0,036
-248,263	16,358	-0,080	0,046
-247,249	-200,000	0,007	-0,093
-246,234	384,140	0,039	0,059
-245,219	-200,000	-0,000	0,012
-244,205	228,037	0,088	-0,105
-243,190	68,563	-0,041	-0,031
-242,176	-200,000	-0,002	0,108
-241,161	-200,000	-0,020	0,070
-240,146	277,486	-0,005	0,007
-239,132	800,000	0,039	-0,104
-238,117	-106,139	0,155	-0,025
-237,103	800,000	-0,025	-0,076
-236,088	243,402	0,047	0,057
-235,073	-200,000	0,002	0,094
-234,059	800,000	0,033	-0,080
-233,044	89,369	-0,036	-0,029
-232,030	-38,201	0,028	-0,011
-231,015	800,000	-0,030	0,063
-230,000	-42,610	-0,065	-0,024
-228,986	18,122	-0,116	-0,067
-227,971	45,222	0,009	0,006
-226,957	-52,893	-0,063	0,021
-225,942	17,316	0,123	0,071
-224,927	800,000	-0,035	-0,103
-223,913	-23,851	-0,021	0,009
-222,898	800,000	0,006	0,016
-221,884	299,803	0,042	0,057
-220,869	218,095	0,064	0,075
-219,855	90,631	0,043	0,035
-218,840	800,000	-0,045	0,117
-217,825	387,550	0,067	-0,102
-216,811	711,109	0,061	0,118
-215,796	7,146	-0,083	-0,045
-214,782	-74,342	-0,085	0,022
-213,767	-200,000	0,015	-0,049
-212,752	70,771	0,029	-0,022
-211,738	225,828	-0,018	0,022
-210,723	121,103	0,078	-0,071
-209,709	-200,000	0,025	-0,088
-208,694	800,000	-0,024	0,063
-207,679	739,359	-0,062	-0,122
-206,665	800,000	0,028	-0,088
-205,650	-142,541	-0,215	-0,015
-204,636	-19,278	-0,064	-0,029
-203,621	635,732	-0,019	0,035
-202,606	-25,368	-0,154	0,066
-201,592	40,991	-0,081	-0,053
-200,577	800,000	0,083	-0,174
-199,563	63,329	0,012	-0,009
-198,548	60,467	-0,117	0,084
-197,533	-200,000	0,005	0,132
-196,519	403,962	-0,035	0,054
-195,504	800,000	-0,012	0,031
-194,490	172,750	0,073	-0,077
-193,475	96,824	-0,068	-0,057
-192,460	-185,687	-0,055	-0,001
-191,446	-200,000	0,024	-0,081
-190,431	166,960	-0,019	0,019
-189,417	800,000	-0,019	-0,039
-188,402	-200,000	0,012	-0,057
-187,387	-49,889	-0,133	0,046
-186,373	327,690	0,020	0,028
-185,358	452,661	0,014	0,023
-184,344	-68,325	-0,071	-0,020
-183,329	36,105	0,011	0,007
-182,315	-65,792	-0,112	0,032
-181,300	58,963	0,033	-0,024
-180,285	103,225	0,024	-0,020
-179,271	-200,000	0,000	-0,090
-178,256	261,231	-0,033	0,042
-177,242	26,534	-0,058	0,035
-176,227	14,126	-0,059	0,033
-175,212	273,765	-0,116	-0,149
-174,198	115,965	-0,015	-0,013
-173,183	-200,000	-0,013	-0,119
-172,169	800,000	-0,025	0,064
-171,154	-156,248	-0,209	0,009
-170,139	-77,894	0,080	0,020
-169,125	800,000	0,070	0,188
-168,110	-164,355	-0,018	-0,001
-167,096	-33,276	-0,235	0,094
-166,081	-97,120	0,027	0,005
-165,066	-67,203	0,091	-0,026
-164,052	207,531	0,058	-0,066
-163,037	455,271	-0,051	0,083
-162,023	-110,937	0,076	0,011
-161,008	-200,000	-0,022	0,145
-159,993	-53,922	0,102	0,034
-158,979	24,336	-0,078	0,047
-157,964	595,588	0,065	0,117
-156,950	-37,723	0,140	0,054
-155,935	-9,771	-0,034	-0,016
-154,920	125,205	0,150	-0,138
-153,906	-78,778	-0,132	0,033
-152,891	394,749	0,048	-0,073
-151,877	-63,802	-0,028	-0,008
-150,862	101,558	-0,072	0,061
-149,847	22,746	-0,140	-0,083
-148,833	-25,369	0,091	0,039
-147,818	-176,426	0,115	0,002
-146,804	72,419	0,102	0,077
-145,789	-167,465	-0,078	0,002
-144,775	800,000	-0,048	0,125
-143,760	403,923	0,065	-0,100
-142,745	312,023	0,066	-0,090
-141,731	-179,504	-0,065	-0,001
-140,716	-176,026	0,148	0,003
-139,702	-41,649	0,046	0,017
-138,687	-60,086	-0,036	0,011
-137,672	284,370	0,060	0,078
-136,658	800,000	0,057	-0,123
-135,643	357,422	-0,054	0,078
-134,629	-157,526	-0,106	-0,005
-133,614	-200,000	0,006	0,243
-132,599	301,434	0,047	0,063
-131,585	800,000	0,038	0,078
-130,570	-53,539	-0,016	0,005
-129,556	-121,268	0,142	-0,017
-128,541	-82,123	-0,063	0,015
-127,526	137,586	-0,076	0,072
-126,512	15,912	0,031	-0,018
-125,497	-200,000	-0,028	0,236
-124,483	78,265	0,009	-0,007
-123,468	-200,000	-0,001	-0,040
-122,453	105,082	-0,090	-0,077
-121,439	92,808	0,021	-0,017
-120,424	787,970	0,048	-0,095
-119,410	142,095	0,057	-0,055
