DTS Sentinel unit serial number:	SN410029Multiplexer serial number:	ORYXHardware model number:	OX2-SRSoftware version number:	ORYX F/W v4,00 Oryx Data Collector v3.7.2.0data status	okinstallation	B4 Nyhavnadifferential loss correction	single-endedforward channel	channel 2reverse channel	N/Adate	2023/12/18time	22:20:13forward acquisition time	300,00reverse acquisition time	0,00gamma	499,1914k internal	0,3124k external	0,3124temperature offset calibration	1,0000default loss term (dB/km)	0,3820temperature slope calibration	1,0000multiplexer offset coefficient	1,0000multiplexer slope coefficient	1,0000fibre end	0,00T internal ref (°C)	21,87T ext. ref 1 (°C)	7,20T ext. ref 2 (°C)	7,18length (m)	temperature (°C)	Stokes	anti-Stokes-744,400	-200,000	-0,008	-0,139
-743,385	64,743	-0,196	0,147
-742,371	-59,520	0,118	0,037
-741,356	73,882	-0,202	0,158
-740,342	-200,000	-0,012	-0,064
-739,327	-44,043	-0,214	0,080
-738,312	382,677	-0,015	0,023
-737,298	-101,403	-0,210	0,038
-736,283	194,896	-0,052	-0,059
-735,269	-17,584	-0,276	0,129
-734,254	-10,468	-0,128	0,063
-733,239	-39,611	-0,312	-0,121
-732,225	-27,581	0,210	-0,090
-731,210	800,000	0,046	0,130
-730,196	-200,000	0,001	-0,080
-729,181	135,788	-0,036	0,035
-728,167	800,000	0,037	0,089
-727,152	-92,090	-0,055	0,012
-726,137	800,000	0,029	-0,090
-725,123	83,603	-0,140	-0,114
-724,108	-200,000	-0,017	-0,091
-723,094	-33,045	-0,074	0,030
-722,079	8,030	-0,076	-0,042
-721,064	13,789	0,026	-0,015
-720,050	21,419	0,031	0,018
-719,035	238,286	0,022	-0,027
-718,021	800,000	-0,026	-0,076
-717,006	535,528	-0,058	-0,103
-715,991	-18,763	-0,141	0,065
-714,977	260,850	0,041	0,053
-713,962	-200,000	0,024	-0,150
-712,948	800,000	0,041	-0,090
-711,933	-174,688	-0,036	-0,001
-710,918	-51,215	-0,157	-0,055
-709,904	-200,000	-0,010	-0,118
-708,889	641,171	-0,104	-0,198
-707,875	368,391	0,083	-0,125
-706,860	-200,000	-0,002	-0,114
-705,845	800,000	-0,061	-0,139
-704,831	800,000	0,005	0,015
-703,816	135,313	-0,043	-0,041
-702,802	800,000	0,037	-0,095
-701,787	-72,117	-0,302	-0,083
-700,772	86,728	-0,038	-0,031
-699,758	-200,000	0,063	-0,237
-698,743	800,000	0,017	0,037
-697,729	-27,948	0,027	-0,012
-696,714	65,021	-0,045	-0,033
-695,699	263,459	-0,041	-0,053
-694,685	40,440	-0,115	-0,077
-693,670	110,696	-0,039	-0,035
-692,656	649,161	0,048	-0,093
-691,641	-200,000	0,018	0,068
-690,627	-153,050	0,060	-0,003
-689,612	-139,464	0,085	-0,007
-688,597	58,312	-0,079	-0,058
-687,583	105,159	-0,099	0,087
-686,568	330,202	0,100	-0,144
-685,554	-70,755	-0,107	0,030
-684,539	-200,000	0,012	-0,084
-683,524	800,000	-0,038	0,088
-682,510	-4,403	0,094	0,048
-681,495	-200,000	0,012	0,054
-680,481	103,917	-0,095	0,083
-679,466	800,000	-0,055	-0,175
-678,451	800,000	-0,068	-0,223
-677,437	-200,000	-0,000	0,054
-676,422	800,000	-0,030	0,075
-675,408	173,344	-0,023	0,025
-674,393	430,407	0,028	-0,045
-673,378	-138,314	-0,141	-0,011
-672,364	-153,471	-0,118	0,006
-671,349	47,476	-0,009	-0,006
-670,335	33,235	-0,064	-0,041
-669,320	-200,000	0,041	0,160
-668,305	28,033	-0,037	-0,023
-667,291	-200,000	-0,005	0,097
-666,276	170,413	-0,097	0,104
-665,262	-87,183	-0,070	-0,016
-664,247	41,288	-0,027	0,018
-663,232	6,449	-0,073	0,040
-662,218	-200,000	0,035	0,271
-661,203	-162,223	0,106	-0,004
-660,189	187,411	-0,027	0,030
-659,174	612,795	-0,032	-0,060
-658,159	83,216	-0,059	-0,048
-657,145	-5,709	-0,062	-0,031
-656,130	-59,206	0,134	-0,043
-655,116	132,742	0,118	-0,113
-654,101	-99,806	-0,087	0,016
-653,086	27,853	-0,040	-0,025
-652,072	43,651	-0,096	-0,065
-651,057	459,340	-0,054	-0,090
-650,043	140,163	-0,117	-0,114
-649,028	-34,383	0,100	-0,040
-648,014	-13,673	-0,120	0,057
-646,999	346,313	0,029	0,042
-645,984	-52,392	0,065	0,022
-644,970	800,000	-0,059	0,142
-643,955	155,492	-0,039	0,040
-642,941	-100,024	-0,105	0,019
-641,926	800,000	-0,051	-0,117
-640,911	52,352	0,079	-0,056
-639,897	58,833	-0,082	-0,060
-638,882	-200,000	-0,008	0,056
-637,868	166,455	0,026	0,028
-636,853	-200,000	-0,005	-0,068
-635,838	-86,212	-0,200	-0,045
-634,824	-96,392	0,172	0,033
-633,809	199,426	0,053	0,061
-632,795	164,030	-0,046	0,048
-631,780	800,000	0,029	0,072
-630,765	137,200	0,108	-0,105
-629,751	48,588	-0,021	0,014
-628,736	-50,542	-0,066	0,023
-627,722	17,486	-0,097	0,057
-626,707	-84,969	0,103	-0,024
-625,692	-19,227	-0,057	-0,026
-624,678	-200,000	-0,010	0,073
-623,663	55,659	-0,003	-0,002
-622,649	-200,000	-0,005	-0,093
-621,634	800,000	-0,033	-0,090
-620,619	530,743	-0,058	-0,102
-619,605	-16,986	-0,054	0,025
-618,590	-149,998	0,169	-0,010
-617,576	50,068	0,020	0,014
-616,561	765,645	0,032	-0,064
-615,546	-86,428	0,158	-0,036
-614,532	800,000	0,055	0,117
-613,517	71,634	-0,120	-0,092
-612,503	-87,687	0,002	0,000
-611,488	-200,000	-0,032	0,264
-610,474	800,000	-0,016	0,037
-609,459	-200,000	0,006	-0,057
-608,444	-123,055	-0,083	0,010
-607,430	800,000	0,037	-0,087
-606,415	562,122	-0,047	-0,085
-605,401	-52,260	0,066	0,022
-604,386	-200,000	0,012	0,066
-603,371	-137,110	0,116	-0,010
-602,357	-129,332	-0,170	0,017
-601,342	550,225	-0,103	-0,183
-600,328	158,214	-0,096	-0,098
-599,313	-200,000	0,006	-0,071
-598,298	-24,081	0,122	-0,054
-597,284	-200,000	0,043	0,226
-596,269	-200,000	0,025	0,129
-595,255	-200,000	-0,013	-0,079
-594,240	-38,100	0,050	0,019
-593,225	135,472	0,094	-0,090
-592,211	-129,742	-0,113	0,011
-591,196	41,880	0,074	-0,050
-590,182	80,333	-0,075	0,060
-589,167	-185,954	0,127	0,001
-588,152	-200,000	-0,012	-0,042
-587,138	-200,000	-0,036	0,128
-586,123	315,391	-0,100	-0,140
-585,109	318,293	-0,098	0,137
-584,094	239,239	-0,029	0,036
-583,079	257,234	-0,086	-0,110
-582,065	16,206	-0,159	0,093
-581,050	-33,559	-0,089	0,036
-580,036	-51,114	-0,076	-0,026
-579,021	-200,000	-0,013	-0,103
-578,006	-67,658	0,133	-0,038
-576,992	347,409	0,067	0,098
-575,977	800,000	-0,040	-0,119
-574,963	346,513	-0,086	-0,126
-573,948	127,605	0,095	0,089
-572,934	598,377	-0,059	0,108
-571,919	51,212	0,095	-0,066
-570,904	408,389	0,039	-0,061
-569,890	-138,098	0,095	0,008
-568,875	-62,597	-0,062	0,019
-567,861	800,000	-0,025	0,075
-566,846	15,084	-0,037	0,021
-565,831	32,981	0,106	-0,068
-564,817	800,000	-0,019	0,059
-563,802	71,579	-0,059	0,046
-562,788	800,000	0,065	-0,138
-561,773	-107,916	0,053	-0,008
-560,758	4,186	-0,055	0,030
-559,744	-200,000	0,011	-0,063
-558,729	76,560	-0,083	0,065
-557,715	292,180	-0,039	-0,053
-556,700	-163,552	0,039	0,001
-555,685	-200,000	0,002	-0,029
-554,671	-87,184	0,055	0,012
-553,656	-91,151	-0,102	0,021
-552,642	-64,077	0,049	-0,015
-551,627	313,645	-0,068	0,094
-550,612	-71,374	-0,070	-0,019
-549,598	-200,000	-0,034	-0,151
-548,583	192,560	0,091	-0,102
-547,569	-200,000	0,036	-0,147
-546,554	-200,000	-0,047	0,184
-545,539	377,683	-0,044	0,066
-544,525	800,000	0,016	-0,038
-543,510	800,000	-0,086	-0,185
-542,496	388,436	0,025	0,038
-541,481	800,000	-0,023	-0,060
-540,466	-143,906	0,094	0,006
-539,452	-104,232	0,066	0,011
-538,437	197,887	0,052	0,059
-537,423	-99,814	0,108	-0,020
-536,408	153,084	-0,139	-0,140
-535,393	-67,104	-0,043	-0,012
-534,379	-44,323	-0,109	0,040
-533,364	708,243	-0,027	-0,053
-532,350	220,997	0,035	0,042
-531,335	-115,709	0,052	-0,007
-530,321	-200,000	-0,021	0,160
-529,306	153,012	-0,109	0,110
-528,291	20,685	-0,096	-0,057
-527,277	-41,375	0,110	-0,042
-526,262	800,000	0,016	0,035
-525,248	-200,000	0,029	0,143
-524,233	-22,687	0,072	-0,032
-523,218	-200,000	-0,003	0,068
-522,204	-200,000	-0,001	0,020
-521,189	369,318	0,034	-0,051
-520,175	-18,395	-0,137	-0,063
-519,160	-200,000	-0,005	0,031
-518,145	69,173	0,074	-0,056
-517,131	-64,752	-0,028	0,008
-516,116	-9,268	-0,036	-0,018
-515,102	-92,174	0,096	0,020
-514,087	194,837	-0,114	-0,128
-513,072	645,908	-0,043	-0,082
-512,058	-200,000	-0,003	0,027
-511,043	56,421	-0,054	-0,039
-510,029	692,952	0,074	0,144
-509,014	-200,000	0,007	-0,081
-507,999	65,705	-0,021	-0,016
-506,985	-200,000	-0,005	0,034
-505,970	-200,000	-0,001	0,032
-504,956	236,415	-0,062	0,076
-503,941	-141,340	0,232	-0,017
-502,926	-37,698	-0,091	0,035
-501,912	264,219	0,037	0,047
-500,897	-51,374	0,151	-0,052
-499,883	22,033	-0,050	0,030
-498,868	-63,773	0,080	0,024
-497,853	-46,941	-0,132	-0,047
-496,839	337,394	-0,040	-0,057
-495,824	800,000	-0,029	-0,078
-494,810	38,929	-0,047	0,031
-493,795	-144,898	0,134	0,009
-492,781	800,000	-0,036	-0,094
-491,766	-41,770	-0,049	0,019
-490,751	250,974	0,086	-0,108
-489,737	-47,356	-0,050	0,018
-488,722	-97,828	0,131	0,025
-487,708	-131,331	0,063	-0,006
-486,693	-200,000	0,013	0,083
-485,678	-200,000	-0,014	0,056
-484,664	800,000	0,017	-0,043
-483,649	22,875	-0,036	-0,022
-482,635	-87,404	-0,060	-0,013
-481,620	238,335	-0,008	-0,010
-480,605	-92,949	0,034	-0,007
-479,591	-36,140	0,011	-0,004
-478,576	226,167	0,021	0,025
-477,562	-200,000	-0,018	0,076
-476,547	509,910	0,005	-0,009
-475,532	64,417	0,010	0,007
-474,518	198,642	-0,082	0,093
-473,503	372,889	0,098	0,147
-472,489	-58,936	0,064	-0,020
-471,474	-200,000	-0,016	0,064
-470,459	800,000	-0,010	-0,030
-469,445	707,926	-0,028	-0,055
-468,430	198,383	-0,081	0,092
-467,416	-43,930	0,075	0,028
-466,401	-200,000	0,005	-0,058
-465,386	389,051	0,043	-0,066
-464,372	599,417	0,010	-0,018
-463,357	-74,286	-0,104	0,028
-462,343	118,337	0,086	0,078
-461,328	152,487	0,088	-0,089
-460,313	-200,000	0,008	-0,037
-459,299	302,919	0,069	-0,095
-458,284	-70,189	-0,044	-0,012
-457,270	-200,000	0,005	-0,062
-456,255	-156,052	-0,151	0,007
-455,241	9,505	0,115	0,064
-454,226	-40,002	-0,053	0,020
-453,211	-175,272	-0,128	0,003
-452,197	800,000	-0,034	-0,071
-451,182	298,373	0,080	0,108
-450,168	100,121	-0,129	0,110
-449,153	800,000	-0,023	0,065
-448,138	21,901	0,096	-0,058
-447,124	-200,000	-0,001	0,006
-446,109	-200,000	0,001	-0,029
-445,095	202,847	0,053	0,060
-444,080	-76,533	0,116	0,030
-443,065	170,354	0,025	-0,027
-442,051	-200,000	-0,013	-0,114
-441,036	-200,000	-0,029	-0,098
-440,022	193,585	-0,059	0,066
-439,007	247,993	-0,065	-0,081
-437,992	800,000	-0,027	-0,083
-436,978	-100,201	0,043	-0,008
-435,963	800,000	0,028	0,067
-434,949	242,136	0,086	-0,106
-433,934	-63,023	-0,039	0,012
-432,919	800,000	0,027	0,086
-431,905	800,000	-0,016	-0,033
-430,890	92,734	-0,052	-0,043
-429,876	-200,000	0,024	0,103
-428,861	800,000	0,013	-0,038
-427,846	-185,761	-0,021	0,000
-426,832	355,620	-0,051	-0,075
-425,817	476,880	0,081	-0,135
-424,803	800,000	0,024	-0,052
-423,788	-174,914	-0,070	0,001
-422,773	-38,733	0,136	-0,052
-421,759	-40,945	-0,021	-0,008
-420,744	211,340	0,062	-0,072
-419,730	-27,438	-0,105	-0,045
-418,715	-104,157	0,101	-0,017
-417,701	-132,468	-0,110	-0,010
-416,686	-24,252	-0,081	-0,035
-415,671	-61,115	-0,067	0,021
-414,657	-137,326	0,115	-0,009
-413,642	792,866	0,078	-0,159
-412,628	-159,048	0,046	0,002
-411,613	-44,256	-0,138	-0,051
-410,598	-200,000	-0,021	0,073
-409,584	-21,312	0,126	0,057
-408,569	-200,000	0,154	0,000
-407,555	-200,000	-0,013	0,157
-406,540	-200,000	-0,012	0,110
-405,525	800,000	0,070	-0,152
-404,511	-12,879	0,112	-0,053
-403,496	370,540	-0,042	0,062
-402,482	53,328	-0,065	-0,046
-401,467	84,293	-0,082	0,066
-400,452	50,022	0,084	-0,058
-399,438	729,569	-0,050	-0,099
-398,423	-200,000	0,010	-0,060
-397,409	800,000	0,061	-0,175
-396,394	-200,000	-0,000	-0,027
-395,379	-200,000	0,026	-0,153
-394,365	-116,000	0,135	0,018
-393,350	70,637	0,031	0,024
-392,336	-148,286	0,148	0,009
-391,321	-118,850	-0,159	0,020
-390,306	216,428	0,113	0,132
-389,292	-200,000	-0,003	0,070
-388,277	531,666	0,013	0,023
-387,263	-20,440	-0,108	-0,049
-386,248	-183,689	0,207	-0,003
-385,233	-154,350	-0,065	0,003
-384,219	-42,992	0,058	0,021
-383,204	-200,000	0,007	-0,115
-382,190	-200,000	0,030	-0,118
-381,175	82,718	-0,070	0,056
-380,160	112,094	0,032	-0,028
-379,146	-200,000	0,045	0,152
-378,131	-200,000	-0,042	0,239
-377,117	647,307	-0,070	0,132
-376,102	2,291	-0,133	0,070
-375,088	40,437	-0,014	-0,009
-374,073	-200,000	-0,035	0,114
-373,058	800,000	0,008	0,023
-372,044	-200,000	-0,005	-0,082
-371,029	-96,381	0,101	0,019
-370,015	583,590	-0,021	0,038
-369,000	228,307	0,029	-0,035
-367,985	800,000	0,037	-0,086
-366,971	-200,000	-0,001	-0,111
-365,956	-53,391	0,058	-0,019
-364,942	-46,640	-0,074	0,027
-363,927	-83,343	-0,080	0,019
-362,912	-42,421	0,150	0,056
-361,898	800,000	0,057	0,131
-360,883	-98,980	-0,077	-0,014
-359,869	-77,242	0,056	0,014
-358,854	-139,729	0,080	0,006
-357,839	121,347	-0,069	0,063
-356,825	-160,312	0,070	0,003
-355,810	-200,000	0,004	0,017
-354,796	800,000	0,035	0,096
-353,781	-200,000	-0,017	0,154
-352,766	43,492	-0,092	0,061
-351,752	115,035	0,021	0,019
-350,737	-54,039	0,084	0,028
-349,723	-200,000	-0,004	-0,098
-348,708	-152,890	0,091	-0,005
-347,693	-200,000	-0,010	0,049
-346,679	24,568	-0,048	-0,029
-345,664	225,535	0,081	-0,096
-344,650	-83,573	-0,101	0,023
-343,635	24,229	0,031	-0,019
-342,620	-89,128	0,046	0,010
-341,606	60,957	-0,034	0,025
-340,591	-16,766	-0,079	0,037
-339,577	29,056	-0,067	0,042
-338,562	-200,000	-0,022	-0,091
-337,548	441,456	-0,045	0,072
-336,533	800,000	0,017	0,052
-335,518	114,444	-0,041	0,037
-334,504	1,028	0,040	0,021
-333,489	-200,000	0,009	-0,096
-332,475	149,874	-0,075	0,075
-331,460	359,631	-0,017	0,025
-330,445	50,808	-0,059	0,041
-329,431	164,484	-0,038	-0,039
-328,416	-200,000	-0,007	0,026
-327,402	379,170	0,010	0,015
-326,387	-149,569	0,091	0,005
-325,372	-200,000	-0,018	-0,092
-324,358	-102,788	-0,102	-0,018
-323,343	-16,395	-0,113	-0,053
-322,329	-200,000	-0,007	0,108
-321,314	-200,000	-0,011	0,066
-320,299	-128,701	0,020	-0,002
-319,285	291,484	-0,116	0,155
-318,270	-54,194	0,112	0,037
-317,256	-200,000	0,016	-0,066
-316,241	40,553	-0,108	0,071
-315,226	218,071	0,045	-0,053
-314,212	85,921	0,012	-0,010
-313,197	-200,000	-0,006	0,087
-312,183	56,462	-0,142	-0,101
-311,168	800,000	-0,046	-0,102
-310,153	445,831	0,033	-0,053
-309,139	-141,376	-0,122	-0,009
-308,124	-105,378	0,176	-0,029
-307,110	-200,000	-0,010	-0,072
-306,095	116,856	-0,036	0,032
-305,080	800,000	0,024	0,068
-304,066	214,528	0,096	-0,112
-303,051	-24,843	-0,184	0,080
-302,037	-200,000	0,012	-0,117
-301,022	63,887	0,145	-0,107
-300,008	87,335	0,110	0,089
-298,993	49,403	-0,084	0,058
-297,978	352,813	0,031	0,045
-296,964	-46,323	-0,063	-0,023
-295,949	56,918	0,037	-0,026
-294,935	141,407	-0,035	-0,034
-293,920	800,000	-0,025	0,078
-292,905	-66,051	0,104	0,030
-291,891	-74,612	0,077	0,020
-290,876	800,000	-0,035	0,088
-289,862	-109,709	0,016	0,002
-288,847	-134,481	-0,097	0,009
-287,832	-200,000	-0,013	-0,047
-286,818	227,746	-0,005	0,005
-285,803	82,828	0,039	-0,031
-284,789	-200,000	-0,030	-0,129
-283,774	573,180	-0,027	-0,048
-282,759	800,000	0,023	-0,072
-281,745	800,000	0,011	-0,028
-280,730	53,644	0,090	0,063
-279,716	-200,000	0,009	-0,103
-278,701	800,000	0,054	-0,145
-277,686	-200,000	0,029	0,140
-276,672	653,974	0,075	0,142
-275,657	240,830	-0,015	-0,018
-274,643	24,989	0,092	-0,056
-273,628	-73,250	-0,128	0,034
-272,613	-200,000	-0,022	-0,178
-271,599	-200,000	-0,010	0,073
-270,584	-118,387	0,087	0,011
-269,570	800,000	0,036	0,088
-268,555	23,000	-0,056	-0,033
-267,540	-99,915	-0,122	-0,022
-266,526	341,691	0,055	0,080
-265,511	374,116	-0,042	-0,062
-264,497	-200,000	-0,022	-0,083
-263,482	-200,000	0,007	0,048
-262,467	800,000	0,043	0,117
-261,453	36,262	-0,103	0,066
-260,438	800,000	-0,046	0,113
-259,424	714,402	0,043	-0,083
-258,409	-200,000	0,007	0,067
-257,395	635,586	0,067	0,125
-256,380	800,000	0,079	0,186
-255,365	-200,000	0,019	0,172
-254,351	96,822	-0,086	0,072
-253,336	737,780	-0,008	0,016
-252,322	206,834	0,049	0,056
-251,307	-200,000	-0,001	0,011
-250,292	-200,000	-0,010	-0,060
-249,278	173,832	0,024	-0,025
-248,263	-84,865	0,013	-0,003
-247,249	-115,535	0,006	-0,001
-246,234	273,420	-0,018	-0,023
-245,219	-200,000	-0,012	-0,069
-244,205	-119,787	-0,136	0,017
-243,190	-105,580	0,101	-0,017
-242,176	-50,109	-0,091	0,031
-241,161	-50,754	0,126	0,043
-240,146	607,666	0,055	0,101
-239,132	96,818	-0,153	-0,128
-238,117	-125,602	-0,122	0,013
-237,103	795,969	-0,067	0,135
-236,088	-93,825	0,078	-0,015
-235,073	-200,000	0,003	0,012
-234,059	-200,000	0,016	-0,151
-233,044	518,851	0,081	0,139
-232,030	-94,851	-0,055	0,011
-231,015	-200,000	0,003	-0,049
-230,000	800,000	-0,057	-0,150
-228,986	800,000	0,028	-0,063
-227,971	-68,059	0,081	0,023
-226,957	136,868	0,067	0,064
-225,942	-74,621	0,045	-0,012
-224,927	302,855	0,011	-0,014
-223,913	29,163	-0,078	-0,048
-222,898	48,752	-0,111	-0,076
-221,884	-200,000	-0,019	0,130
-220,869	22,624	0,100	0,060
-219,855	324,950	-0,045	0,064
-218,840	-66,279	0,031	0,009
-217,825	-200,000	-0,017	0,058
-216,811	600,548	-0,046	-0,085
-215,796	696,777	0,042	-0,081
-214,782	59,801	0,112	0,080
-213,767	461,662	0,051	-0,084
-212,752	-200,000	-0,008	0,106
-211,738	-200,000	0,035	0,152
-210,723	800,000	-0,030	0,089
-209,709	-0,408	0,046	-0,024
-208,694	-11,247	-0,115	-0,055
-207,679	-200,000	-0,024	-0,124
-206,665	-101,250	0,106	-0,019
-205,650	540,624	-0,028	-0,048
-204,636	152,784	0,168	0,168
-203,621	-200,000	-0,006	-0,029
-202,606	800,000	0,021	0,056
-201,592	-126,521	-0,043	0,005
-200,577	-52,158	0,055	0,019
-199,563	122,683	0,062	0,057
-198,548	190,556	-0,045	-0,049
-197,533	662,937	-0,051	0,096
-196,519	11,325	-0,085	-0,047
-195,504	-200,000	0,012	-0,096
-194,490	-200,000	0,017	0,065
-193,475	229,097	-0,045	-0,053
-192,460	-67,717	0,099	0,028
-191,446	-200,000	0,006	0,056
-190,431	494,737	-0,055	-0,092
-189,417	-119,439	0,054	0,007
-188,402	439,970	-0,028	-0,045
-187,387	182,917	0,015	-0,016
-186,373	-138,808	0,045	-0,004
-185,358	-200,000	0,011	-0,072
-184,344	-200,000	0,003	0,022
-183,329	481,207	0,042	-0,070
-182,315	-142,513	-0,097	0,007
-181,300	79,601	-0,093	0,073
-180,285	-118,030	-0,087	-0,011
-179,271	283,578	-0,037	-0,049
-178,256	-200,000	0,009	0,092
-177,242	-77,292	0,123	-0,031
-176,227	-46,761	0,107	0,038
-175,212	-200,000	-0,005	0,049
-174,198	-200,000	-0,012	-0,104
-173,183	274,521	-0,035	-0,045
-172,169	800,000	-0,059	-0,151
-171,154	-112,776	-0,080	0,011
-170,139	173,345	0,045	0,048
-169,125	500,335	-0,063	0,106
-168,110	230,276	-0,055	0,066
-167,096	43,348	-0,101	-0,067
-166,081	-140,561	0,039	-0,003
-165,066	65,627	-0,077	-0,057
-164,052	2,786	0,073	-0,039
-163,037	-3,001	0,043	0,022
-162,023	-200,000	0,002	-0,023
-161,008	-141,598	-0,147	-0,011
-159,993	-117,771	0,068	0,009
-158,979	24,647	-0,113	-0,068
-157,964	-200,000	0,014	-0,066
-156,950	262,494	0,094	-0,119
-155,935	-178,000	-0,095	-0,002
-154,920	-200,000	-0,006	-0,078
-153,906	63,793	0,061	0,045
-152,891	-158,721	0,125	0,005
-151,877	-94,517	0,131	-0,026
-150,862	800,000	-0,039	0,085
-149,847	632,359	-0,026	-0,048
-148,833	-200,000	-0,020	0,072
-147,818	-90,854	0,118	-0,025
-146,804	-200,000	-0,003	0,182
-145,789	104,059	0,061	0,052
-144,775	800,000	0,015	0,040
-143,760	196,830	0,044	-0,049
-142,745	800,000	-0,018	-0,056
-141,731	-25,140	-0,159	-0,068
-140,716	-200,000	-0,019	-0,089
-139,702	215,723	0,057	0,066
-138,687	37,679	0,102	-0,066
-137,672	-200,000	-0,016	0,099
-136,658	-162,811	-0,113	0,004
-135,643	56,087	-0,085	0,060
-134,629	-16,741	-0,055	-0,025
-133,614	800,000	0,086	0,199
-132,599	800,000	0,013	-0,028
-131,585	-200,000	0,002	0,024
-130,570	93,120	-0,078	-0,064
-129,556	232,353	0,003	-0,003
-128,541	-200,000	0,018	-0,074
-127,526	740,322	-0,024	-0,048
-126,512	78,169	-0,026	0,020
-125,497	144,329	0,118	0,115
-124,483	-31,407	-0,073	-0,030
-123,468	-24,947	0,032	0,014
-122,453	-51,978	0,088	-0,030
-121,439	-200,000	0,012	-0,076
-120,424	204,316	-0,075	-0,084
