DTS Sentinel unit serial number:	SN410029Multiplexer serial number:	ORYXHardware model number:	OX2-SRSoftware version number:	ORYX F/W v4,00 Oryx Data Collector v3.7.2.0data status	okinstallation	B4 Nyhavnadifferential loss correction	single-endedforward channel	channel 2reverse channel	N/Adate	2023/12/19time	07:55:14forward acquisition time	300,00reverse acquisition time	0,00gamma	499,1914k internal	0,3125k external	0,3125temperature offset calibration	1,0000default loss term (dB/km)	0,3820temperature slope calibration	1,0000multiplexer offset coefficient	1,0000multiplexer slope coefficient	1,0000fibre end	0,00T internal ref (°C)	21,03T ext. ref 1 (°C)	5,63T ext. ref 2 (°C)	5,69length (m)	temperature (°C)	Stokes	anti-Stokes-744,400	-200,000	-0,002	0,069
-743,385	-10,262	-0,383	0,189
-742,371	-128,150	0,027	-0,003
-741,356	41,637	-0,205	0,138
-740,342	56,854	0,100	-0,073
-739,327	800,000	-0,082	0,185
-738,312	-200,000	-0,006	-0,060
-737,298	-38,100	-0,290	0,114
-736,283	-122,524	-0,039	0,005
-735,269	-140,300	-0,081	-0,006
-734,254	409,094	0,094	-0,148
-733,239	-116,642	-0,417	0,057
-732,225	-124,643	0,131	0,015
-731,210	40,663	0,099	0,066
-730,196	62,579	0,013	0,010
-729,181	-101,176	0,073	0,013
-728,167	593,063	-0,085	-0,157
-727,152	64,322	-0,036	-0,027
-726,137	800,000	0,028	0,059
-725,123	205,569	-0,098	-0,113
-724,108	800,000	-0,025	-0,070
-723,094	333,116	-0,017	-0,024
-722,079	-200,000	-0,021	-0,221
-721,064	40,383	0,024	-0,016
-720,050	-200,000	0,108	0,000
-719,035	55,396	-0,037	0,026
-718,021	322,666	-0,041	-0,058
-717,006	368,372	-0,042	0,063
-715,991	31,267	-0,031	0,020
-714,977	81,056	0,044	0,035
-713,962	167,426	0,062	0,066
-712,948	-200,000	-0,000	0,011
-711,933	342,050	-0,099	0,144
-710,918	-200,000	-0,003	-0,040
-709,904	-59,694	0,196	-0,062
-708,889	800,000	-0,028	-0,085
-707,875	-114,132	-0,111	-0,016
-706,860	-2,508	0,085	-0,044
-705,845	-200,000	0,010	-0,078
-704,831	269,554	0,097	0,127
-703,816	-75,085	-0,071	0,019
-702,802	271,421	-0,056	-0,073
-701,787	800,000	0,008	-0,026
-700,772	-200,000	0,020	-0,065
-699,758	800,000	0,044	0,104
-698,743	-200,000	0,013	-0,106
-697,729	354,488	-0,054	0,079
-696,714	-200,000	-0,001	0,059
-695,699	91,283	-0,072	0,060
-694,685	-56,134	-0,092	0,030
-693,670	17,700	-0,039	-0,023
-692,656	366,770	0,025	-0,037
-691,641	-1,823	0,054	-0,028
-690,627	485,130	-0,005	-0,008
-689,612	-200,000	-0,036	0,181
-688,597	800,000	-0,060	-0,125
-687,583	800,000	-0,030	-0,096
-686,568	800,000	-0,057	-0,167
-685,554	-88,714	-0,134	-0,029
-684,539	-66,028	0,027	-0,008
-683,524	-17,691	-0,180	-0,084
-682,510	-200,000	-0,010	0,113
-681,495	-12,409	0,057	0,028
-680,481	-200,000	-0,005	-0,166
-679,466	397,069	-0,035	-0,054
-678,451	-63,359	0,100	0,030
-677,437	800,000	0,035	-0,073
-676,422	148,125	0,099	0,099
-675,408	27,258	-0,172	0,107
-674,393	800,000	-0,017	0,042
-673,378	172,731	-0,120	-0,129
-672,364	-64,606	-0,113	-0,034
-671,349	800,000	0,054	-0,116
-670,335	-91,851	0,057	0,012
-669,320	-164,540	-0,165	-0,005
-668,305	-65,755	0,206	-0,061
-667,291	-200,000	0,001	0,085
-666,276	267,377	0,069	-0,090
-665,262	-117,622	-0,118	-0,016
-664,247	-147,968	-0,079	-0,005
-663,232	-200,000	0,010	-0,046
-662,218	-56,233	0,110	0,036
-661,203	231,666	0,059	-0,072
-660,189	215,767	-0,060	-0,071
-659,174	-200,000	0,014	-0,103
-658,159	-200,000	-0,021	-0,176
-657,145	800,000	-0,036	-0,105
-656,130	-134,730	0,007	-0,001
-655,116	-140,528	0,108	0,008
-654,101	-200,000	-0,003	0,062
-653,086	-200,000	0,000	-0,090
-652,072	-8,567	-0,068	-0,034
-651,057	49,855	-0,050	-0,035
-650,043	-200,000	0,005	-0,021
-649,028	544,010	-0,060	0,107
-648,014	-200,000	0,038	0,126
-646,999	-200,000	0,032	0,130
-645,984	-192,482	0,073	-0,000
-644,970	-200,000	0,001	-0,066
-643,955	-163,929	-0,148	-0,005
-642,941	-169,433	-0,052	-0,001
-641,926	751,019	0,055	-0,111
-640,911	-87,967	0,129	0,028
-639,897	102,866	-0,026	0,023
-638,882	-39,489	-0,086	-0,033
-637,868	187,487	-0,077	-0,085
-636,853	-64,665	-0,058	0,017
-635,838	262,944	-0,103	0,133
-634,824	800,000	-0,038	-0,119
-633,809	5,590	0,038	-0,021
-632,795	91,568	-0,071	-0,060
-631,780	-200,000	0,005	0,055
-630,765	-200,000	0,019	0,087
-629,751	52,336	0,067	-0,048
-628,736	13,556	0,103	-0,059
-627,722	800,000	0,035	-0,078
-626,707	-200,000	-0,012	0,133
-625,692	-200,000	0,024	-0,109
-624,678	46,673	0,053	-0,036
-623,663	-200,000	-0,007	-0,051
-622,649	-34,840	0,056	-0,023
-621,634	304,609	0,046	0,064
-620,619	298,770	0,014	0,019
-619,605	-85,327	-0,059	-0,014
-618,590	56,860	0,068	0,049
-617,576	369,890	0,063	0,094
-616,561	29,356	0,141	-0,088
-615,546	-156,445	-0,218	-0,010
-614,532	800,000	0,004	-0,012
-613,517	-46,937	-0,146	-0,052
-612,503	-10,644	0,077	0,038
-611,488	690,686	-0,026	0,051
-610,474	4,190	-0,100	0,054
-609,459	-142,336	-0,023	-0,002
-608,444	615,061	-0,096	-0,180
-607,430	454,771	-0,028	-0,046
-606,415	-200,000	0,014	-0,119
-605,401	-42,911	-0,076	0,028
-604,386	-68,646	0,080	0,023
-603,371	-124,461	-0,051	-0,006
-602,357	-200,000	-0,017	0,061
-601,342	-200,000	-0,048	-0,170
-600,328	58,069	-0,045	-0,033
-599,313	-200,000	0,016	0,129
-598,298	54,557	0,027	-0,019
-597,284	284,936	-0,041	0,054
-596,269	800,000	0,010	-0,026
-595,255	680,617	0,039	-0,076
-594,240	116,001	-0,137	-0,124
-593,225	65,753	-0,132	0,099
-592,211	-72,015	0,136	0,037
-591,196	-154,497	-0,085	0,004
-590,182	-134,177	0,085	0,008
-589,167	-52,496	0,090	0,031
-588,152	-169,286	-0,070	0,002
-587,138	213,896	-0,004	-0,005
-586,123	169,215	-0,033	-0,035
-585,109	-200,000	0,011	-0,056
-584,094	34,688	-0,043	-0,028
-583,079	800,000	-0,053	0,138
-582,065	-200,000	-0,038	-0,132
-581,050	800,000	-0,030	-0,073
-580,036	-200,000	-0,007	-0,119
-579,021	644,919	0,071	-0,135
-578,006	124,702	-0,082	0,076
-576,992	-108,715	0,086	-0,013
-575,977	458,017	0,071	-0,117
-574,963	91,850	-0,031	0,026
-573,948	800,000	0,012	0,028
-572,934	199,947	-0,120	0,136
-571,919	-6,985	0,039	-0,020
-570,904	-200,000	0,013	0,083
-569,890	-73,340	-0,044	-0,012
-568,875	-183,866	0,032	-0,000
-567,861	124,987	-0,037	-0,035
-566,846	-88,082	0,099	0,022
-565,831	-200,000	-0,010	0,080
-564,817	800,000	-0,061	-0,131
-563,802	343,277	-0,107	-0,156
-562,788	-187,627	0,095	0,001
-561,773	-26,788	-0,060	-0,026
-560,758	-100,222	-0,075	0,014
-559,744	353,337	0,052	0,076
-558,729	-61,472	-0,024	0,007
-557,715	-200,000	-0,016	-0,152
-556,700	454,025	-0,017	-0,027
-555,685	-200,000	0,006	-0,040
-554,671	-119,637	-0,063	-0,008
-553,656	-200,000	-0,005	0,093
-552,642	-49,381	0,115	0,040
-551,627	800,000	0,031	0,082
-550,612	-200,000	-0,004	-0,069
-549,598	-19,641	-0,081	0,037
-548,583	-200,000	0,000	-0,139
-547,569	185,619	0,138	-0,151
-546,554	401,477	-0,036	-0,056
-545,539	-69,463	0,014	-0,004
-544,525	628,250	0,062	-0,117
-543,510	344,933	-0,121	0,176
-542,496	173,322	-0,044	0,047
-541,481	3,011	-0,023	-0,012
-540,466	169,353	0,081	-0,085
-539,452	85,827	-0,080	-0,065
-538,437	399,885	0,054	0,084
-537,423	800,000	0,045	0,117
-536,408	94,692	-0,053	0,045
-535,393	537,941	-0,054	-0,095
-534,379	227,588	-0,132	-0,159
-533,364	373,909	0,025	-0,038
-532,350	542,936	0,038	-0,068
-531,335	800,000	-0,057	0,132
-530,321	-50,389	0,027	-0,009
-529,306	-200,000	0,005	0,083
-528,291	800,000	-0,025	-0,074
-527,277	-200,000	-0,031	-0,216
-526,262	231,663	0,026	0,032
-525,248	-200,000	0,020	-0,146
-524,233	43,158	0,075	0,050
-523,218	25,567	-0,104	0,064
-522,204	265,488	0,024	0,031
-521,189	58,663	0,086	-0,062
-520,175	-200,000	0,006	-0,053
-519,160	-38,115	0,089	-0,035
-518,145	800,000	-0,014	0,029
-517,131	104,761	0,089	0,077
-516,116	579,751	-0,083	0,150
-515,102	185,787	-0,109	0,119
-514,087	800,000	0,051	0,135
-513,072	-64,625	-0,049	-0,015
-512,058	-35,677	0,132	-0,053
-511,043	35,557	0,049	0,032
-510,029	-64,058	-0,073	-0,022
-509,014	-19,563	-0,032	-0,015
-507,999	-200,000	-0,008	-0,095
-506,985	-96,817	-0,040	0,008
-505,970	-59,840	0,078	0,025
-504,956	800,000	0,031	0,079
-503,941	-100,757	0,100	-0,018
-502,926	229,760	0,056	0,068
-501,912	800,000	-0,003	-0,008
-500,897	263,236	0,034	0,044
-499,883	159,529	0,058	-0,060
-498,868	800,000	0,036	-0,111
-497,853	-134,186	0,051	-0,005
-496,839	36,046	0,093	-0,060
-495,824	84,497	0,135	0,109
-494,810	800,000	0,029	0,061
-493,795	-200,000	0,005	0,057
-492,781	-53,109	-0,050	-0,017
-491,766	-200,000	0,007	0,032
-490,751	800,000	-0,073	-0,165
-489,737	371,354	-0,072	-0,108
-488,722	85,914	0,034	0,028
-487,708	-90,003	0,132	-0,028
-486,693	74,153	-0,020	0,016
-485,678	-80,165	0,055	0,013
-484,664	91,829	-0,017	0,014
-483,649	-200,000	-0,006	-0,096
-482,635	-200,000	0,035	0,145
-481,620	574,745	-0,011	0,019
-480,605	-137,562	0,107	0,009
-479,591	-110,865	0,171	0,026
-478,576	-180,334	-0,067	0,001
-477,562	-200,000	0,021	-0,104
-476,547	-161,861	-0,180	0,007
-475,532	-200,000	-0,012	-0,042
-474,518	-19,855	-0,047	-0,021
-473,503	-95,958	0,097	0,019
-472,489	596,934	-0,070	-0,128
-471,474	-127,593	-0,142	-0,015
-470,459	139,362	0,049	0,048
-469,445	218,748	-0,071	-0,084
-468,430	-85,661	-0,079	0,018
-467,416	143,844	-0,030	-0,029
-466,401	-200,000	0,006	0,118
-465,386	800,000	0,062	0,139
-464,372	231,533	-0,135	0,163
-463,357	-38,600	-0,104	0,040
-462,343	14,130	-0,023	-0,013
-461,328	-153,466	-0,053	0,003
-460,313	241,472	-0,069	0,085
-459,299	77,179	0,167	-0,131
-458,284	-91,114	0,090	0,019
-457,270	221,169	-0,036	0,043
-456,255	401,449	-0,047	0,073
-455,241	384,227	0,014	0,022
-454,226	-126,471	0,112	-0,012
-453,211	64,593	-0,028	-0,021
-452,197	-31,602	0,099	-0,041
-451,182	-25,503	-0,074	0,032
-450,168	105,541	-0,043	0,037
-449,153	-106,527	-0,021	-0,003
-448,138	-200,000	0,006	0,020
-447,124	-200,000	0,005	-0,120
-446,109	32,457	0,162	0,103
-445,095	0,877	0,124	-0,065
-444,080	-200,000	0,005	-0,035
-443,065	70,954	0,128	0,098
-442,051	-200,000	0,010	0,041
-441,036	-74,707	-0,136	-0,036
-440,022	-156,207	0,051	-0,002
-439,007	307,086	0,022	0,030
-437,992	-63,764	-0,058	0,017
-436,978	224,806	0,082	-0,098
-435,963	197,901	-0,086	0,097
-434,949	800,000	-0,039	0,083
-433,934	3,486	-0,135	0,072
-432,919	74,996	0,040	-0,031
-431,905	-33,128	-0,112	-0,046
-430,890	-200,000	0,002	0,013
-429,876	-73,731	0,042	0,011
-428,861	-200,000	-0,014	0,045
-427,846	101,738	0,087	-0,074
-426,832	61,882	0,083	-0,061
-425,817	211,186	-0,030	-0,034
-424,803	39,574	-0,110	-0,073
-423,788	-45,368	0,125	-0,046
-422,773	314,965	-0,024	-0,033
-421,759	313,051	-0,039	0,054
-420,744	-200,000	0,016	0,157
-419,730	-200,000	0,005	-0,045
-418,715	691,849	-0,074	-0,143
-417,701	129,303	-0,106	-0,099
-416,686	59,523	-0,096	0,070
-415,671	-1,364	0,052	0,027
-414,657	435,735	0,106	0,171
-413,642	-0,171	-0,094	-0,049
-412,628	-200,000	-0,010	-0,070
-411,613	121,797	-0,136	-0,125
-410,598	62,881	-0,103	-0,076
-409,584	11,834	-0,039	-0,022
-408,569	-200,000	-0,001	-0,015
-407,555	125,124	0,019	-0,018
-406,540	308,024	0,018	-0,025
-405,525	98,115	-0,034	0,029
-404,511	-200,000	0,002	-0,011
-403,496	26,176	0,035	-0,021
-402,482	167,087	-0,088	0,092
-401,467	-175,397	0,081	-0,002
-400,452	800,000	-0,052	-0,131
-399,438	10,741	0,127	0,071
-398,423	-200,000	0,025	0,084
-397,409	-74,992	-0,103	0,027
-396,394	257,929	0,058	-0,074
-395,379	110,322	0,094	0,083
-394,365	212,039	0,074	0,086
-393,350	-200,000	0,017	0,066
-392,336	152,677	-0,122	0,122
-391,321	-138,707	0,171	0,014
-390,306	22,577	-0,064	0,038
-389,292	567,806	-0,066	-0,118
-388,277	-200,000	0,008	0,094
-387,263	800,000	0,054	0,160
-386,248	-29,003	0,025	-0,010
-385,233	-23,696	0,154	0,068
-384,219	-94,430	0,204	0,041
-383,204	800,000	-0,056	-0,120
-382,190	159,298	-0,049	0,050
-381,175	153,153	-0,023	0,023
-380,160	-55,154	0,152	-0,050
-379,146	32,791	0,040	0,025
-378,131	500,302	-0,060	0,101
-377,117	-200,000	-0,004	-0,167
-376,102	-200,000	-0,018	0,073
-375,088	-200,000	0,022	0,127
-374,073	-58,720	-0,097	-0,031
-373,058	-77,514	0,070	-0,018
-372,044	-170,254	0,083	-0,002
-371,029	-74,276	0,059	0,016
-370,015	-128,306	0,106	-0,011
-369,000	39,737	-0,121	-0,079
-367,985	800,000	0,038	-0,083
-366,971	800,000	0,032	0,076
-365,956	-200,000	0,023	0,086
-364,942	-200,000	-0,010	0,039
-363,927	-200,000	-0,004	0,096
-362,912	421,345	0,077	-0,122
-361,898	800,000	-0,029	0,088
-360,883	152,981	0,100	-0,101
-359,869	-83,464	-0,174	0,041
-358,854	196,143	-0,052	-0,058
-357,839	66,766	-0,050	-0,038
-356,825	-58,780	0,062	-0,020
-355,810	-200,000	0,004	0,123
-354,796	79,254	-0,130	0,102
-353,781	154,375	0,094	0,095
-352,766	-200,000	0,002	-0,017
-351,752	137,782	0,045	0,044
-350,737	-200,000	0,004	0,101
-349,723	-73,381	0,145	0,039
-348,708	102,496	0,085	-0,073
-347,693	-200,000	0,031	-0,108
-346,679	-98,116	-0,064	-0,012
-345,664	-200,000	0,007	-0,119
-344,650	-64,226	0,054	-0,016
-343,635	-200,000	0,022	0,073
-342,620	546,233	0,067	0,118
-341,606	596,318	-0,065	-0,118
-340,591	49,487	-0,118	0,082
-339,577	-123,337	-0,138	-0,016
-338,562	296,610	0,018	0,025
-337,548	92,517	-0,029	0,024
-336,533	-200,000	0,039	-0,192
-335,518	-100,845	0,128	0,023
-334,504	-200,000	0,002	0,063
-333,489	-27,927	-0,023	-0,010
-332,475	-102,460	-0,080	0,014
-331,460	800,000	-0,026	-0,063
-330,445	-200,000	0,015	-0,081
-329,431	-200,000	0,002	-0,101
-328,416	619,033	0,028	-0,052
-327,402	290,661	0,011	0,014
-326,387	-107,629	0,075	-0,012
-325,372	800,000	0,044	-0,097
-324,358	366,811	0,052	-0,077
-323,343	-195,062	-0,028	0,000
-322,329	-200,000	-0,002	-0,085
-321,314	-200,000	0,022	0,104
-320,299	-200,000	0,008	0,092
-319,285	250,969	-0,037	0,047
-318,270	26,940	-0,050	-0,031
-317,256	232,961	-0,121	-0,145
-316,241	-200,000	-0,022	-0,188
-315,226	800,000	0,037	-0,114
-314,212	-59,382	-0,039	0,012
-313,197	800,000	0,033	0,087
-312,183	624,836	0,033	0,061
-311,168	229,893	-0,103	-0,124
-310,153	-43,547	-0,109	0,040
-309,139	26,041	-0,144	0,088
-308,124	-38,524	-0,142	-0,055
-307,110	-79,041	-0,054	-0,013
-306,095	800,000	-0,008	-0,020
-305,080	800,000	0,030	0,091
-304,066	-200,000	0,005	-0,029
-303,051	800,000	-0,013	0,033
-302,037	274,840	0,028	0,036
-301,022	800,000	-0,031	0,097
-300,008	46,618	0,111	-0,075
-298,993	415,491	0,044	0,069
-297,978	800,000	-0,039	-0,092
-296,964	800,000	-0,060	-0,154
-295,949	-39,549	-0,139	0,053
-294,935	-99,597	-0,140	-0,026
-293,920	800,000	-0,005	-0,011
-292,905	-49,316	-0,064	0,022
-291,891	82,587	0,071	-0,056
-290,876	800,000	-0,009	0,021
-289,862	64,914	0,023	0,017
-288,847	-164,171	-0,060	0,002
-287,832	391,771	-0,044	0,067
-286,818	800,000	-0,029	0,068
-285,803	-200,000	-0,045	0,232
-284,789	-80,765	0,062	-0,015
-283,774	800,000	0,038	0,092
-282,759	263,559	0,024	0,030
-281,745	11,803	0,107	-0,060
-280,730	-15,044	-0,046	-0,021
-279,716	-147,691	-0,108	0,007
-278,701	274,921	-0,032	-0,041
-277,686	-0,063	0,169	0,088
-276,672	324,084	-0,007	0,010
-275,657	-83,288	-0,090	0,021
-274,643	-166,315	0,052	0,002
-273,628	-48,295	0,056	0,020
-272,613	-58,382	0,030	0,009
-271,599	-200,000	0,057	0,194
-270,584	-200,000	0,015	0,062
-269,570	-31,152	0,075	0,031
-268,555	-200,000	0,028	0,127
-267,540	21,793	0,134	-0,080
-266,526	-80,446	-0,048	-0,012
-265,511	-200,000	0,002	0,103
-264,497	469,921	-0,032	-0,052
-263,482	78,201	0,089	-0,069
-262,467	-104,552	0,115	0,019
-261,453	800,000	-0,030	0,090
-260,438	-9,322	0,062	-0,030
-259,424	12,928	-0,104	0,059
-258,409	-200,000	-0,017	0,150
-257,395	65,074	-0,025	-0,019
-256,380	359,495	-0,021	0,030
-255,365	-200,000	0,013	0,066
-254,351	347,075	0,016	0,023
-253,336	-60,741	-0,118	-0,036
-252,322	91,446	-0,053	-0,044
-251,307	431,684	0,053	-0,085
-250,292	-85,434	0,029	-0,007
-249,278	-96,532	0,090	-0,017
-248,263	-113,271	0,140	0,020
-247,249	-200,000	-0,021	0,142
-246,234	13,132	0,050	0,028
-245,219	-1,330	-0,040	0,021
-244,205	-200,000	-0,016	0,092
-243,190	-200,000	0,016	0,120
-242,176	197,428	0,007	-0,008
-241,161	-200,000	-0,003	0,043
-240,146	-200,000	-0,003	-0,053
-239,132	-45,688	-0,222	-0,080
-238,117	-97,137	0,114	0,022
-237,103	-22,198	-0,043	0,019
-236,088	129,514	0,111	0,103
-235,073	-186,514	0,142	0,001
-234,059	569,265	-0,058	0,103
-233,044	248,082	-0,006	-0,008
-232,030	800,000	-0,024	0,051
-231,015	800,000	-0,018	-0,043
-230,000	28,516	-0,115	-0,071
-228,986	492,139	0,091	-0,152
-227,971	89,678	-0,089	-0,072
-226,957	-112,980	0,211	0,030
-225,942	800,000	-0,010	0,024
-224,927	-85,792	-0,040	0,009
-223,913	-200,000	0,009	-0,076
-222,898	117,821	-0,041	-0,037
-221,884	94,632	-0,166	-0,137
-220,869	-15,479	0,068	0,032
-219,855	-200,000	0,014	0,102
-218,840	-39,013	-0,029	-0,011
-217,825	23,702	-0,080	0,048
-216,811	-200,000	-0,008	-0,106
-215,796	-200,000	-0,001	-0,099
-214,782	-200,000	0,026	-0,124
-213,767	58,778	0,123	-0,088
-212,752	-4,574	-0,006	-0,003
-211,738	136,423	0,054	-0,052
-210,723	-200,000	0,004	-0,027
-209,709	-200,000	0,009	-0,120
-208,694	24,683	-0,058	-0,035
-207,679	-90,625	0,063	0,013
-206,665	-68,422	0,138	0,039
-205,650	-53,567	-0,042	0,014
-204,636	37,158	0,131	0,085
-203,621	-200,000	-0,012	0,096
-202,606	-8,432	0,147	0,072
-201,592	225,185	-0,039	0,046
-200,577	-115,223	-0,223	0,030
-199,563	-200,000	-0,005	0,136
-198,548	562,974	-0,053	-0,095
-197,533	-200,000	-0,011	0,142
-196,519	130,964	0,095	0,089
-195,504	174,817	-0,023	0,025
-194,490	-122,771	-0,173	0,020
-193,475	1,239	-0,056	0,029
-192,460	-181,105	-0,056	0,001
-191,446	800,000	0,029	0,068
-190,431	-200,000	-0,018	0,079
-189,417	123,702	0,052	0,048
-188,402	45,364	-0,081	0,054
-187,387	800,000	-0,035	-0,095
-186,373	-4,844	-0,178	-0,089
-185,358	800,000	-0,057	0,135
-184,344	-83,999	0,127	-0,029
-183,329	-126,006	-0,123	-0,013
-182,315	132,764	0,115	-0,108
-181,300	-129,919	0,038	-0,004
-180,285	47,421	0,048	0,033
-179,271	800,000	-0,021	-0,064
-178,256	-101,960	0,010	-0,002
-177,242	-58,467	0,027	-0,008
-176,227	-128,350	0,032	-0,003
-175,212	-102,458	0,122	-0,021
-174,198	-93,860	-0,044	-0,009
-173,183	35,023	0,101	-0,065
-172,169	800,000	-0,027	-0,067
-171,154	-200,000	0,002	-0,024
-170,139	-104,016	-0,124	0,021
-169,125	366,752	0,046	0,068
-168,110	-55,134	-0,048	0,016
-167,096	655,928	0,045	-0,085
-166,081	800,000	-0,045	-0,098
-165,066	-200,000	-0,011	-0,042
-164,052	-200,000	-0,034	0,110
-163,037	-71,016	-0,037	-0,010
-162,023	215,491	0,044	-0,051
-161,008	-200,000	0,001	-0,076
-159,993	-200,000	-0,012	-0,041
-158,979	-200,000	0,055	-0,192
-157,964	-200,000	0,005	0,085
-156,950	-200,000	-0,011	-0,076
-155,935	800,000	-0,020	0,040
-154,920	182,921	0,008	-0,009
-153,906	-45,810	0,065	0,023
-152,891	-114,954	0,167	0,023
-151,877	357,919	0,068	-0,099
-150,862	-42,617	-0,058	-0,021
-149,847	-153,160	-0,113	0,006
-148,833	137,351	-0,040	-0,038
-147,818	800,000	0,017	0,038
-146,804	441,816	0,033	0,053
-145,789	-84,207	-0,083	0,019
-144,775	217,552	0,041	0,047
-143,760	-157,796	0,078	-0,003
-142,745	800,000	0,027	-0,083
-141,731	-200,000	0,001	-0,013
-140,716	800,000	-0,022	0,064
-139,702	43,647	0,045	0,030
-138,687	-120,807	0,105	-0,013
-137,672	100,676	-0,030	-0,026
-136,658	800,000	-0,045	-0,096
-135,643	-200,000	-0,018	-0,099
-134,629	-6,114	0,124	0,061
-133,614	-82,464	0,090	0,021
-132,599	388,995	0,069	-0,105
-131,585	317,880	-0,017	-0,023
-130,570	-32,718	-0,045	0,018
-129,556	800,000	0,044	-0,102
-128,541	725,733	-0,021	-0,040
-127,526	-200,000	-0,005	0,065
-126,512	-180,043	0,039	0,001
-125,497	269,087	-0,046	0,059
-124,483	-200,000	0,010	0,071
-123,468	51,070	0,020	-0,014
-122,453	-60,847	-0,062	-0,019
-121,439	252,990	-0,059	0,073
-120,424	492,913	0,057	0,095
-119,410	-200,000	0,012	0,043
