DTS Sentinel unit serial number:	SN410029Multiplexer serial number:	ORYXHardware model number:	OX2-SRSoftware version number:	ORYX F/W v4,00 Oryx Data Collector v3.7.2.0data status	okinstallation	B4 Nyhavnadifferential loss correction	single-endedforward channel	channel 2reverse channel	N/Adate	2023/12/16time	05:55:13forward acquisition time	300,00reverse acquisition time	0,00gamma	499,1914k internal	0,3128k external	0,3128temperature offset calibration	1,0000default loss term (dB/km)	0,3820temperature slope calibration	1,0000multiplexer offset coefficient	1,0000multiplexer slope coefficient	1,0000fibre end	0,00T internal ref (°C)	22,22T ext. ref 1 (°C)	7,48T ext. ref 2 (°C)	7,67length (m)	temperature (°C)	Stokes	anti-Stokes-744,400	45,529	0,094	-0,064
-743,385	-5,174	-0,105	0,054
-742,371	-57,571	0,137	0,044
-741,356	800,000	-0,104	0,291
-740,342	-48,694	0,063	0,023
-739,327	-78,950	-0,201	0,051
-738,312	-200,000	0,012	0,084
-737,298	149,738	-0,136	0,137
-736,283	552,312	0,046	-0,083
-735,269	50,804	-0,279	0,197
-734,254	152,044	-0,051	-0,052
-733,239	-127,907	-0,448	-0,047
-732,225	93,577	-0,067	0,057
-731,210	800,000	-0,020	0,056
-730,196	90,233	0,063	-0,052
-729,181	-160,577	-0,206	0,008
-728,167	185,345	-0,020	0,022
-727,152	-76,145	0,159	-0,042
-726,137	-200,000	-0,001	0,008
-725,123	-200,000	0,018	-0,102
-724,108	334,777	-0,066	-0,095
-723,094	-116,793	-0,043	0,006
-722,079	291,337	0,038	0,051
-721,064	28,715	0,092	0,058
-720,050	425,421	0,072	0,116
-719,035	122,194	0,067	0,062
-718,021	-200,000	-0,032	-0,144
-717,006	-200,000	-0,008	-0,061
-715,991	800,000	-0,017	-0,046
-714,977	245,049	0,039	-0,049
-713,962	84,833	-0,150	-0,122
-712,948	-81,089	0,150	-0,037
-711,933	-140,823	0,068	-0,005
-710,918	770,098	0,073	-0,148
-709,904	800,000	-0,040	-0,130
-708,889	800,000	-0,035	-0,099
-707,875	-49,519	-0,090	-0,032
-706,860	771,062	0,004	0,009
-705,845	-64,857	0,177	-0,053
-704,831	47,875	0,068	0,047
-703,816	51,227	0,037	0,026
-702,802	800,000	0,059	0,131
-701,787	263,588	0,079	-0,102
-700,772	442,378	0,030	-0,049
-699,758	41,222	0,047	-0,032
-698,743	-169,287	0,114	0,003
-697,729	-200,000	-0,005	0,093
-696,714	-200,000	-0,089	-0,000
-695,699	110,617	-0,075	0,067
-694,685	279,624	-0,068	-0,090
-693,670	-200,000	-0,034	-0,141
-692,656	-76,806	-0,158	0,041
-691,641	-200,000	0,003	-0,019
-690,627	800,000	-0,030	0,083
-689,612	67,780	0,037	0,028
-688,597	171,666	-0,041	0,044
-687,583	581,417	0,049	-0,089
-686,568	-68,245	0,061	-0,017
-685,554	-155,200	-0,062	-0,003
-684,539	800,000	-0,040	0,096
-683,524	442,020	0,057	-0,094
-682,510	79,364	0,057	0,045
-681,495	423,253	-0,079	-0,126
-680,481	-109,525	-0,119	0,018
-679,466	-40,866	0,107	-0,041
-678,451	-200,000	0,007	0,052
-677,437	-191,296	-0,083	0,001
-676,422	-22,228	-0,110	-0,049
-675,408	-200,000	-0,006	-0,025
-674,393	-200,000	-0,019	0,062
-673,378	20,050	-0,206	-0,123
-672,364	800,000	-0,058	-0,120
-671,349	-40,961	-0,080	0,031
-670,335	-146,979	-0,062	0,004
-669,320	467,256	-0,056	-0,093
-668,305	800,000	0,039	0,103
-667,291	680,700	0,064	-0,125
-666,276	216,207	-0,038	0,045
-665,262	567,409	0,097	-0,176
-664,247	-93,231	-0,115	-0,024
-663,232	222,750	-0,070	0,084
-662,218	173,597	0,070	0,075
-661,203	27,175	-0,014	0,009
-660,189	800,000	-0,006	-0,016
-659,174	27,457	-0,120	-0,075
-658,159	13,358	-0,206	-0,118
-657,145	-36,358	0,104	-0,041
-656,130	800,000	0,008	-0,022
-655,116	-61,987	0,162	-0,050
-654,101	-200,000	0,018	0,100
-653,086	-200,000	0,006	-0,051
-652,072	209,777	-0,134	-0,157
-651,057	-120,944	-0,049	-0,006
-650,043	-22,740	-0,094	-0,042
-649,028	780,194	-0,041	0,084
-648,014	19,889	0,106	-0,063
-646,999	-200,000	0,002	-0,109
-645,984	800,000	-0,022	0,055
-644,970	-108,560	-0,042	0,007
-643,955	-157,901	-0,171	0,007
-642,941	339,302	-0,061	-0,088
-641,926	-200,000	0,009	-0,071
-640,911	7,396	-0,121	-0,067
-639,897	-200,000	-0,011	0,062
-638,882	-34,778	0,073	-0,029
-637,868	-200,000	0,019	0,119
-636,853	-104,673	-0,170	-0,029
-635,838	-200,000	-0,040	-0,185
-634,824	-197,888	0,083	-0,000
-633,809	52,536	0,038	0,027
-632,795	234,741	0,059	-0,073
-631,780	-98,459	-0,015	-0,003
-630,765	96,772	-0,127	0,108
-629,751	-68,650	-0,107	-0,031
-628,736	39,682	0,077	0,051
-627,722	-71,030	0,174	0,048
-626,707	126,100	-0,041	-0,038
-625,692	21,466	-0,069	0,042
-624,678	-200,000	0,022	-0,125
-623,663	800,000	0,013	-0,035
-622,649	800,000	0,034	-0,076
-621,634	395,561	0,023	-0,035
-620,619	-46,055	-0,079	-0,029
-619,605	-16,665	0,129	0,060
-618,590	-37,495	-0,088	0,035
-617,576	-200,000	0,008	-0,038
-616,561	-29,112	0,159	-0,067
-615,546	61,030	0,019	-0,014
-614,532	-156,298	-0,132	0,006
-613,517	102,865	0,016	-0,014
-612,503	619,017	-0,043	-0,081
-611,488	-200,000	-0,005	-0,066
-610,474	800,000	0,017	0,042
-609,459	145,828	-0,085	0,085
-608,444	-200,000	-0,011	-0,086
-607,430	-200,000	0,001	0,017
-606,415	-36,304	-0,042	-0,017
-605,401	12,802	-0,113	0,065
-604,386	-200,000	0,037	0,195
-603,371	-200,000	0,014	0,057
-602,357	-98,234	-0,173	-0,033
-601,342	0,123	0,040	-0,021
-600,328	800,000	0,036	-0,111
-599,313	-4,157	0,070	-0,036
-598,298	741,034	0,030	-0,061
-597,284	-13,885	0,071	0,034
-596,269	-13,894	-0,056	-0,027
-595,255	-174,391	-0,105	0,002
-594,240	14,431	0,087	-0,050
-593,225	181,833	-0,115	-0,125
-592,211	800,000	-0,020	0,048
-591,196	544,926	-0,088	0,156
-590,182	76,237	-0,036	0,028
-589,167	191,173	0,112	-0,125
-588,152	360,146	0,030	-0,045
-587,138	707,075	0,025	0,049
-586,123	-141,592	-0,048	-0,003
-585,109	123,228	0,053	-0,049
-584,094	69,373	0,088	-0,067
-583,079	-93,343	0,080	-0,016
-582,065	30,812	0,060	-0,038
-581,050	-67,889	-0,016	0,005
-580,036	-200,000	0,039	-0,129
-579,021	107,732	-0,066	-0,058
-578,006	203,443	-0,040	-0,046
-576,992	-200,000	-0,007	-0,043
-575,977	800,000	-0,031	0,064
-574,963	-200,000	0,009	0,119
-573,948	151,376	0,020	-0,020
-572,934	800,000	-0,039	-0,097
-571,919	-128,460	-0,114	-0,012
-570,904	356,277	-0,050	0,074
-569,890	196,966	-0,086	-0,097
-568,875	-26,473	-0,069	-0,030
-567,861	-200,000	0,003	0,094
-566,846	-6,255	0,132	0,066
-565,831	18,346	0,036	0,021
-564,817	-165,445	-0,044	-0,001
-563,802	373,494	-0,024	-0,037
-562,788	83,694	0,032	0,026
-561,773	-200,000	0,019	0,113
-560,758	-200,000	0,044	0,000
-559,744	-200,000	-0,004	0,064
-558,729	6,186	-0,022	-0,012
-557,715	140,293	-0,082	-0,080
-556,700	-31,812	-0,024	-0,010
-555,685	-200,000	-0,014	0,079
-554,671	-200,000	-0,015	-0,167
-553,656	800,000	0,067	-0,144
-552,642	-86,564	0,055	-0,012
-551,627	-154,861	-0,096	0,005
-550,612	715,635	-0,019	-0,037
-549,598	536,679	-0,077	-0,136
-548,583	-109,144	0,049	-0,008
-547,569	-67,825	0,097	0,028
-546,554	800,000	-0,060	-0,162
-545,539	-48,400	0,170	0,060
-544,525	207,384	-0,113	-0,130
-543,510	800,000	0,091	-0,188
-542,496	466,725	-0,108	-0,179
-541,481	325,386	-0,121	-0,172
-540,466	-71,752	0,034	-0,009
-539,452	-161,303	0,058	-0,002
-538,437	-200,000	-0,012	-0,042
-537,423	-77,626	0,117	-0,030
-536,408	71,563	0,041	0,032
-535,393	88,963	-0,070	-0,058
-534,379	165,479	-0,046	-0,049
-533,364	800,000	-0,032	0,098
-532,350	94,238	-0,066	-0,055
-531,335	93,637	0,082	-0,068
-530,321	110,740	-0,138	-0,122
-529,306	800,000	0,035	0,097
-528,291	54,848	-0,019	-0,013
-527,277	-10,053	-0,070	0,034
-526,262	-82,562	-0,027	-0,006
-525,248	-46,711	0,025	0,009
-524,233	-200,000	0,019	0,195
-523,218	-155,928	-0,060	0,003
-522,204	-44,864	-0,076	-0,028
-521,189	389,033	-0,069	0,106
-520,175	44,757	-0,031	0,021
-519,160	-42,353	-0,123	-0,046
-518,145	-200,000	0,011	0,061
-517,131	-93,657	0,054	-0,011
-516,116	37,345	0,072	0,047
-515,102	-200,000	0,032	-0,114
-514,087	-200,000	-0,019	-0,068
-513,072	1,390	-0,086	-0,045
-512,058	156,065	0,101	0,103
-511,043	-58,314	0,132	0,042
-510,029	-14,020	0,042	-0,020
-509,014	-200,000	-0,013	0,158
-507,999	-46,276	-0,056	-0,020
-506,985	367,597	-0,049	-0,073
-505,970	52,679	0,131	-0,092
-504,956	134,839	-0,104	-0,100
-503,941	800,000	0,013	0,026
-502,926	239,761	-0,036	0,044
-501,912	-200,000	0,009	0,066
-500,897	-200,000	0,024	-0,110
-499,883	123,491	-0,040	-0,037
-498,868	800,000	-0,039	-0,104
-497,853	-147,311	-0,015	-0,001
-496,839	289,863	-0,087	-0,116
-495,824	152,811	0,102	0,103
-494,810	800,000	-0,027	0,055
-493,795	256,669	-0,090	0,114
-492,781	-116,523	0,069	-0,009
-491,766	20,292	-0,035	-0,020
-490,751	-200,000	0,038	-0,141
-489,737	-200,000	0,002	-0,042
-488,722	-21,048	0,116	0,052
-487,708	627,831	-0,068	-0,128
-486,693	-40,325	-0,098	0,037
-485,678	-163,182	0,105	-0,004
-484,664	-200,000	0,022	-0,153
-483,649	-200,000	0,010	-0,090
-482,635	467,724	0,026	-0,043
-481,620	10,796	0,078	-0,044
-480,605	264,516	-0,047	-0,061
-479,591	143,917	-0,040	0,039
-478,576	-81,487	-0,049	0,012
-477,562	-94,030	-0,134	0,027
-476,547	-200,000	-0,010	-0,121
-475,532	-54,075	-0,039	-0,013
-474,518	-26,943	-0,174	0,075
-473,503	800,000	0,022	-0,058
-472,489	-200,000	0,009	0,051
-471,474	44,509	-0,063	0,042
-470,459	-157,390	-0,164	-0,007
-469,445	800,000	-0,041	-0,100
-468,430	623,746	0,028	0,052
-467,416	-88,926	-0,034	0,007
-466,401	-76,672	0,062	-0,016
-465,386	-200,000	-0,004	0,116
-464,372	-60,995	-0,045	0,014
-463,357	-63,988	-0,095	-0,028
-462,343	256,350	0,019	-0,024
-461,328	-25,662	-0,019	0,008
-460,313	-200,000	0,025	-0,098
-459,299	76,671	0,051	0,040
-458,284	1,848	0,054	0,029
-457,270	106,607	-0,110	0,096
-456,255	87,392	-0,069	-0,056
-455,241	-200,000	-0,006	0,050
-454,226	31,635	0,054	-0,034
-453,211	272,988	-0,104	0,136
-452,197	669,457	0,008	0,015
-451,182	419,880	0,045	0,071
-450,168	-200,000	0,006	0,081
-449,153	-159,108	0,044	-0,002
-448,138	-54,455	-0,057	-0,019
-447,124	219,912	-0,082	-0,097
-446,109	800,000	0,013	0,042
-445,095	265,115	-0,064	0,082
-444,080	-200,000	0,017	0,164
-443,065	308,575	0,034	0,046
-442,051	285,995	0,034	0,045
-441,036	-27,866	-0,089	0,038
-440,022	345,812	0,062	-0,090
-439,007	290,724	0,054	0,073
-437,992	37,399	0,050	0,032
-436,978	-39,372	0,131	-0,050
-435,963	-32,589	-0,058	-0,024
-434,949	800,000	-0,033	0,074
-433,934	-55,561	-0,037	-0,012
-432,919	116,467	-0,049	-0,044
-431,905	-50,776	0,024	-0,008
-430,890	716,029	-0,036	-0,071
-429,876	455,863	0,111	-0,182
-428,861	-92,664	0,049	0,010
-427,846	316,102	0,024	-0,033
-426,832	800,000	-0,031	0,076
-425,817	755,793	-0,042	-0,084
-424,803	-200,000	0,045	-0,155
-423,788	-200,000	0,025	0,089
-422,773	800,000	-0,049	0,148
-421,759	101,587	-0,087	0,074
-420,744	143,299	-0,073	0,072
-419,730	164,123	0,014	0,014
-418,715	-200,000	0,033	-0,148
-417,701	-171,868	-0,054	0,001
-416,686	-145,701	0,030	-0,002
-415,671	-160,484	0,108	0,004
-414,657	-146,343	0,041	0,003
-413,642	-200,000	-0,008	-0,115
-412,628	-71,080	-0,067	-0,018
-411,613	-200,000	-0,024	-0,121
-410,598	-47,754	-0,126	-0,044
-409,584	349,351	-0,083	0,121
-408,569	-200,000	-0,001	0,080
-407,555	5,010	-0,036	0,020
-406,540	-34,887	-0,078	0,031
-405,525	-84,432	-0,103	0,024
-404,511	604,355	0,018	0,032
-403,496	-200,000	-0,032	-0,107
-402,482	350,755	0,094	0,137
-401,467	-59,473	0,084	-0,026
-400,452	112,943	-0,024	-0,022
-399,438	31,712	0,121	0,076
-398,423	800,000	-0,012	-0,029
-397,409	-199,029	0,149	-0,001
-396,394	200,739	-0,009	-0,010
-395,379	350,789	-0,047	0,068
-394,365	-200,000	0,024	0,089
-393,350	632,292	-0,022	-0,041
-392,336	105,390	0,050	0,043
-391,321	345,115	-0,096	0,139
-390,306	-47,994	0,089	-0,032
-389,292	85,385	0,076	0,061
-388,277	183,074	0,030	-0,032
-387,263	-98,247	0,118	-0,022
-386,248	387,223	0,060	-0,091
-385,233	-200,000	0,047	0,174
-384,219	-200,000	0,005	0,164
-383,204	-200,000	0,020	-0,085
-382,190	-200,000	0,002	-0,090
-381,175	19,611	-0,075	0,044
-380,160	800,000	0,011	-0,035
-379,146	234,766	0,095	0,115
-378,131	-118,663	0,045	-0,006
-377,117	800,000	-0,068	-0,143
-376,102	-200,000	-0,014	-0,217
-375,088	-200,000	0,003	-0,104
-374,073	92,426	0,019	0,016
-373,058	-200,000	0,030	0,258
-372,044	-200,000	0,009	0,049
-371,029	-200,000	0,011	-0,074
-370,015	113,282	0,051	0,046
-369,000	-200,000	0,012	0,055
-367,985	-200,000	-0,003	-0,058
-366,971	-83,966	-0,060	0,014
-365,956	49,404	0,023	-0,016
-364,942	192,471	0,089	0,099
-363,927	-200,000	0,023	0,092
-362,912	248,415	0,083	0,103
-361,898	-200,000	-0,040	0,000
-360,883	204,266	-0,116	0,131
-359,869	-200,000	-0,025	0,092
-358,854	-200,000	-0,023	-0,076
-357,839	-126,848	0,120	0,013
-356,825	-115,288	0,157	0,022
-355,810	-35,323	-0,056	-0,022
-354,796	-94,017	0,109	0,022
-353,781	336,017	-0,060	-0,085
-352,766	-200,000	-0,023	-0,094
-351,752	800,000	0,033	-0,083
-350,737	800,000	-0,012	-0,033
-349,723	296,062	0,093	0,126
-348,708	800,000	0,015	-0,041
-347,693	38,338	0,063	-0,041
-346,679	-200,000	0,013	-0,213
-345,664	82,190	-0,101	-0,080
-344,650	469,380	-0,017	0,028
-343,635	-200,000	0,016	-0,156
-342,620	-93,168	0,093	-0,019
-341,606	-66,350	0,056	0,016
-340,591	-143,093	-0,051	0,004
-339,577	-8,189	0,052	0,025
-338,562	403,990	0,058	-0,090
-337,548	702,512	-0,042	-0,081
-336,533	-143,411	-0,053	0,004
-335,518	-200,000	0,002	-0,044
-334,504	9,224	0,042	0,023
-333,489	-111,508	0,024	-0,004
-332,475	800,000	-0,055	0,116
-331,460	609,421	-0,080	-0,146
-330,445	-0,421	-0,057	-0,030
-329,431	178,966	0,052	0,056
-328,416	-200,000	0,045	-0,163
-327,402	-163,332	0,051	0,002
-326,387	800,000	-0,056	0,176
-325,372	-23,646	-0,071	-0,031
-324,358	-200,000	-0,014	0,080
-323,343	6,021	-0,025	-0,014
-322,329	800,000	0,070	0,157
-321,314	-200,000	-0,001	0,121
-320,299	-101,121	0,033	-0,006
-319,285	301,743	0,073	0,099
-318,270	-128,020	-0,069	0,007
-317,256	42,898	0,093	-0,062
-316,241	-165,313	-0,071	0,002
-315,226	-200,000	0,001	0,033
-314,212	-66,231	0,095	0,028
-313,197	6,241	-0,122	0,066
-312,183	-186,727	0,111	-0,001
-311,168	-200,000	-0,009	0,042
-310,153	800,000	-0,042	-0,110
-309,139	-8,469	0,027	0,013
-308,124	800,000	-0,016	-0,047
-307,110	599,740	0,030	0,055
-306,095	330,172	0,077	0,109
-305,080	-55,174	0,116	-0,038
-304,066	-200,000	0,008	0,083
-303,051	-17,336	-0,074	0,034
-302,037	-72,362	-0,184	0,050
-301,022	800,000	-0,041	-0,110
-300,008	-132,730	0,065	0,006
-298,993	-93,462	0,104	0,021
-297,978	-93,945	0,068	-0,014
-296,964	-78,154	-0,036	-0,009
-295,949	-167,900	-0,132	-0,004
-294,935	106,221	-0,037	-0,032
-293,920	119,633	0,079	-0,072
-292,905	416,011	0,096	0,150
-291,891	800,000	0,066	-0,141
-290,876	180,043	0,073	0,079
-289,862	800,000	0,007	0,022
-288,847	800,000	0,025	0,078
-287,832	-22,663	0,025	-0,011
-286,818	157,221	-0,032	0,033
-285,803	800,000	0,025	-0,079
-284,789	800,000	-0,017	0,041
-283,774	152,615	0,060	0,060
-282,759	-140,755	-0,114	0,008
-281,745	-200,000	-0,016	-0,084
-280,730	693,928	-0,063	0,121
-279,716	-23,225	-0,079	-0,035
-278,701	151,362	-0,021	-0,020
-277,686	800,000	-0,022	-0,047
-276,672	800,000	0,046	0,145
-275,657	-23,501	0,129	0,056
-274,643	341,159	0,075	-0,107
-273,628	216,106	-0,140	-0,163
-272,613	41,567	-0,099	-0,065
-271,599	-8,402	-0,087	0,042
-270,584	-70,217	0,088	-0,024
-269,570	724,109	0,087	-0,170
-268,555	762,083	0,014	-0,027
-267,540	-200,000	0,028	0,164
-266,526	-115,059	-0,041	0,006
-265,511	322,009	-0,105	0,146
-264,497	800,000	0,016	0,039
-263,482	800,000	0,026	0,054
-262,467	110,912	-0,092	0,080
-261,453	-200,000	-0,009	0,115
-260,438	800,000	0,054	-0,116
-259,424	-21,230	-0,087	-0,039
-258,409	800,000	-0,040	0,100
-257,395	214,385	0,043	0,050
-256,380	-157,146	0,096	-0,004
-255,365	-200,000	-0,005	0,148
-254,351	-200,000	0,007	0,047
-253,336	-200,000	-0,004	-0,016
-252,322	800,000	-0,011	0,026
-251,307	419,239	-0,064	0,100
-250,292	-200,000	-0,008	0,027
-249,278	147,504	0,065	-0,064
-248,263	-124,996	0,083	-0,009
-247,249	-4,347	0,144	-0,072
-246,234	-144,323	-0,067	-0,005
-245,219	-200,000	0,006	0,020
-244,205	251,072	-0,080	-0,100
-243,190	87,906	0,064	-0,051
-242,176	-200,000	-0,026	-0,089
-241,161	800,000	0,031	0,090
-240,146	13,093	0,119	0,067
-239,132	-91,375	0,084	0,017
-238,117	84,045	0,054	0,043
-237,103	-132,939	-0,248	-0,023
-236,088	-200,000	-0,004	-0,070
-235,073	-200,000	0,007	0,081
-234,059	-86,280	0,083	0,018
-233,044	99,943	0,021	0,018
-232,030	146,530	-0,058	0,057
-231,015	425,915	-0,057	0,090
-230,000	800,000	0,041	-0,085
-228,986	-200,000	-0,003	-0,021
-227,971	25,525	0,163	-0,099
-226,957	763,188	-0,045	0,090
-225,942	-200,000	-0,001	0,056
-224,927	800,000	-0,036	0,091
-223,913	-16,291	-0,045	0,021
-222,898	-200,000	-0,005	0,050
-221,884	-200,000	-0,007	0,048
-220,869	142,892	0,055	0,054
-219,855	-17,843	0,056	-0,025
-218,840	-200,000	-0,025	0,206
-217,825	198,111	-0,033	-0,036
-216,811	-33,042	0,063	-0,026
-215,796	-3,366	0,028	-0,014
-214,782	437,623	-0,029	0,046
-213,767	-105,772	-0,106	-0,017
-212,752	429,434	0,041	0,065
-211,738	-70,968	0,028	-0,008
-210,723	-61,333	-0,218	-0,066
-209,709	-12,572	-0,017	0,008
-208,694	-92,845	0,092	0,019
-207,679	-200,000	0,004	-0,078
-206,665	-178,345	0,134	0,002
-205,650	797,850	0,075	0,152
-204,636	-200,000	-0,013	-0,086
-203,621	-200,000	0,002	0,085
-202,606	-200,000	-0,006	0,061
-201,592	800,000	0,041	-0,084
-200,577	-160,108	-0,076	-0,003
-199,563	-113,960	0,102	-0,014
-198,548	-190,978	0,034	-0,000
-197,533	45,996	0,076	0,051
-196,519	-200,000	-0,001	0,022
-195,504	106,581	-0,054	-0,047
-194,490	107,619	-0,087	-0,076
-193,475	446,864	-0,073	-0,117
-192,460	800,000	0,087	-0,190
-191,446	256,849	-0,026	0,032
-190,431	196,055	0,081	0,090
-189,417	422,268	-0,048	0,076
-188,402	-86,407	-0,115	0,026
-187,387	285,967	-0,042	-0,055
-186,373	800,000	-0,056	-0,119
-185,358	139,902	0,015	-0,015
-184,344	-200,000	0,007	-0,147
-183,329	28,195	0,035	-0,021
-182,315	-200,000	0,003	0,100
-181,300	-200,000	-0,030	-0,112
-180,285	-200,000	0,003	0,051
-179,271	192,330	-0,071	-0,079
-178,256	663,180	0,032	0,060
-177,242	367,636	-0,061	0,090
-176,227	-200,000	0,002	0,188
-175,212	-200,000	-0,029	0,173
-174,198	-31,382	0,063	-0,026
-173,183	-128,658	-0,074	0,007
-172,169	72,439	0,085	-0,064
-171,154	-178,465	0,217	0,004
-170,139	-173,219	-0,122	0,003
-169,125	363,392	0,039	0,057
-168,110	521,957	0,065	0,112
-167,096	-200,000	-0,000	0,092
-166,081	-39,603	0,045	0,017
-165,066	282,570	-0,029	-0,038
-164,052	-200,000	0,001	0,093
-163,037	-36,023	0,123	-0,048
-162,023	800,000	0,024	0,069
-161,008	90,189	0,053	0,043
-159,993	36,102	0,116	0,074
-158,979	-96,731	-0,160	-0,030
-157,964	84,265	0,040	0,031
-156,950	-200,000	0,005	-0,057
-155,935	42,105	0,068	0,045
-154,920	-200,000	0,011	0,101
-153,906	187,821	0,137	0,149
-152,891	160,137	0,061	-0,062
-151,877	-96,753	-0,076	0,014
-150,862	213,685	-0,046	-0,053
-149,847	26,369	0,094	0,057
-148,833	129,033	-0,013	0,012
-147,818	241,586	0,055	0,067
-146,804	-200,000	0,003	0,149
-145,789	67,320	0,058	0,043
-144,775	-200,000	-0,006	-0,059
-143,760	657,048	0,035	0,065
-142,745	221,055	-0,088	0,103
-141,731	282,880	0,018	0,024
-140,716	146,080	0,061	-0,059
-139,702	43,053	0,108	-0,072
-138,687	-161,166	0,121	-0,005
-137,672	280,890	0,068	0,088
-136,658	-71,142	-0,076	-0,021
-135,643	-18,978	0,070	0,032
-134,629	-66,401	0,108	0,031
-133,614	-200,000	-0,016	0,055
-132,599	-172,558	0,086	-0,002
-131,585	-75,009	-0,053	-0,014
-130,570	-130,539	0,009	-0,001
-129,556	-3,383	-0,071	-0,036
-128,541	-200,000	0,026	0,093
-127,526	116,400	-0,103	-0,092
-126,512	143,668	-0,036	0,035
-125,497	-145,843	0,142	0,009
-124,483	110,641	0,056	-0,049
-123,468	-74,502	0,102	0,027
-122,453	-104,576	-0,146	0,024
-121,439	-15,977	0,013	-0,006
-120,424	378,690	-0,076	-0,113
-119,410	-56,969	-0,078	-0,025
