DTS Sentinel unit serial number:	SN410029Multiplexer serial number:	ORYXHardware model number:	OX2-SRSoftware version number:	ORYX F/W v4,00 Oryx Data Collector v3.7.2.0data status	okinstallation	B4 Nyhavnadifferential loss correction	single-endedforward channel	channel 2reverse channel	N/Adate	2023/12/15time	19:05:13forward acquisition time	300,00reverse acquisition time	0,00gamma	499,1914k internal	0,3138k external	0,3138temperature offset calibration	1,0000default loss term (dB/km)	0,3820temperature slope calibration	1,0000multiplexer offset coefficient	1,0000multiplexer slope coefficient	1,0000fibre end	0,00T internal ref (°C)	19,61T ext. ref 1 (°C)	5,32T ext. ref 2 (°C)	5,51length (m)	temperature (°C)	Stokes	anti-Stokes-744,400	-181,379	0,076	-0,001
-743,385	-56,608	-0,222	0,073
-742,371	308,998	0,104	0,144
-741,356	99,547	-0,225	0,193
-740,342	-17,830	0,068	0,031
-739,327	11,528	-0,328	0,186
-738,312	-32,918	0,125	0,051
-737,298	-96,886	-0,190	0,037
-736,283	-108,668	0,083	0,013
-735,269	-111,114	-0,326	0,049
-734,254	-148,938	0,114	0,007
-733,239	28,226	-0,411	-0,257
-732,225	97,456	0,090	0,076
-731,210	58,787	0,004	0,003
-730,196	800,000	0,027	-0,088
-729,181	205,185	-0,084	-0,096
-728,167	-200,000	0,013	0,069
-727,152	-45,170	0,119	0,044
-726,137	232,461	0,005	-0,006
-725,123	115,287	-0,133	-0,120
-724,108	800,000	-0,056	-0,160
-723,094	1,345	-0,182	-0,097
-722,079	-44,787	0,146	-0,054
-721,064	90,699	-0,053	-0,044
-720,050	-38,144	0,054	-0,021
-719,035	-200,000	0,017	0,066
-718,021	-123,445	0,073	0,009
-717,006	247,970	-0,089	0,111
-715,991	-200,000	-0,022	0,091
-714,977	601,118	-0,058	-0,107
-713,962	-200,000	-0,011	-0,169
-712,948	-116,922	0,191	0,026
-711,933	-46,098	-0,144	0,052
-710,918	11,664	0,033	0,019
-709,904	-19,683	-0,115	-0,052
-708,889	54,892	-0,151	-0,108
-707,875	-63,825	-0,177	-0,053
-706,860	101,933	0,098	0,085
-705,845	245,667	0,068	0,085
-704,831	-42,576	0,023	-0,009
-703,816	259,717	-0,043	-0,055
-702,802	351,963	-0,040	0,060
-701,787	-200,000	0,021	-0,109
-700,772	-200,000	0,004	-0,057
-699,758	14,875	0,033	0,019
-698,743	-200,000	-0,005	0,042
-697,729	-200,000	-0,002	-0,008
-696,714	-200,000	0,005	0,042
-695,699	-200,000	0,010	0,036
-694,685	54,779	0,119	-0,085
-693,670	800,000	-0,035	-0,079
-692,656	-200,000	0,014	0,054
-691,641	-200,000	-0,007	0,126
-690,627	319,919	0,077	0,109
-689,612	-200,000	0,023	0,118
-688,597	-200,000	-0,000	-0,103
-687,583	572,143	0,034	-0,061
-686,568	-200,000	-0,026	-0,105
-685,554	140,104	0,049	-0,048
-684,539	148,881	0,032	0,032
-683,524	630,758	-0,056	0,106
-682,510	-154,077	-0,076	0,004
-681,495	-96,149	-0,162	-0,032
-680,481	-178,396	-0,060	-0,001
-679,466	-200,000	-0,003	-0,057
-678,451	-164,407	-0,102	-0,003
-677,437	252,485	0,047	0,059
-676,422	-67,725	-0,021	0,006
-675,408	-200,000	-0,004	0,107
-674,393	682,882	-0,056	-0,109
-673,378	-50,282	-0,096	-0,033
-672,364	-84,703	-0,109	0,025
-671,349	-200,000	-0,008	-0,097
-670,335	-200,000	-0,012	-0,103
-669,320	248,568	0,107	0,134
-668,305	309,815	0,083	0,116
-667,291	19,340	-0,098	0,058
-666,276	-65,147	0,066	-0,020
-665,262	215,772	-0,060	-0,071
-664,247	-200,000	-0,006	0,055
-663,232	418,883	-0,047	-0,075
-662,218	4,668	-0,029	-0,015
-661,203	-139,892	-0,127	0,010
-660,189	-129,607	-0,095	0,010
-659,174	-88,665	-0,161	0,035
-658,159	-200,000	0,004	-0,090
-657,145	-4,836	-0,179	0,091
-656,130	-88,625	0,126	0,028
-655,116	-107,805	-0,104	-0,017
-654,101	-200,000	0,034	0,172
-653,086	5,003	-0,222	0,120
-652,072	0,979	-0,029	0,016
-651,057	469,477	-0,086	-0,143
-650,043	-11,219	0,140	0,068
-649,028	-200,000	-0,012	-0,042
-648,014	-172,684	-0,127	0,003
-646,999	-200,000	-0,018	-0,115
-645,984	-200,000	-0,010	0,036
-644,970	-200,000	0,008	0,043
-643,955	-200,000	0,022	-0,169
-642,941	-25,039	-0,176	-0,077
-641,926	29,380	-0,162	-0,102
-640,911	800,000	0,031	-0,078
-639,897	446,496	-0,044	-0,071
-638,882	491,982	0,037	-0,063
-637,868	184,931	0,045	0,049
-636,853	-96,377	-0,039	0,008
-635,838	-147,068	-0,077	0,005
-634,824	-200,000	-0,034	-0,137
-633,809	800,000	-0,089	0,186
-632,795	-18,116	0,153	-0,071
-631,780	-200,000	-0,008	-0,131
-630,765	187,158	-0,104	0,114
-629,751	105,308	0,083	-0,073
-628,736	-200,000	-0,036	-0,230
-627,722	-92,903	0,048	0,010
-626,707	73,499	-0,053	-0,041
-625,692	800,000	-0,019	0,042
-624,678	-200,000	-0,004	-0,013
-623,663	-200,000	0,005	-0,030
-622,649	176,230	-0,051	-0,054
-621,634	-200,000	0,015	-0,080
-620,619	352,356	-0,118	-0,173
-619,605	-170,579	0,089	0,002
-618,590	-19,813	0,042	0,019
-617,576	-123,484	0,064	0,007
-616,561	394,316	0,021	0,032
-615,546	370,703	-0,036	0,054
-614,532	739,934	0,038	-0,076
-613,517	508,022	0,014	-0,025
-612,503	800,000	-0,014	0,043
-611,488	269,125	-0,058	0,075
-610,474	271,640	0,046	0,060
-609,459	800,000	-0,013	-0,040
-608,444	52,462	-0,081	-0,057
-607,430	17,951	-0,151	-0,089
-606,415	-55,873	-0,021	-0,007
-605,401	-200,000	-0,001	0,075
-604,386	56,546	-0,103	-0,074
-603,371	624,621	-0,019	0,035
-602,357	30,243	-0,105	-0,066
-601,342	800,000	-0,045	-0,118
-600,328	800,000	0,029	-0,068
-599,313	92,423	-0,169	-0,141
-598,298	408,848	-0,061	-0,096
-597,284	-104,516	0,053	-0,009
-596,269	-200,000	0,013	-0,067
-595,255	-199,266	0,131	0,000
-594,240	471,130	-0,087	0,145
-593,225	800,000	0,023	-0,048
-592,211	424,283	-0,044	0,070
-591,196	225,071	-0,039	-0,047
-590,182	800,000	0,026	-0,081
-589,167	-200,000	-0,023	0,102
-588,152	268,636	-0,035	0,046
-587,138	-200,000	0,008	-0,145
-586,123	121,199	-0,144	-0,132
-585,109	782,981	0,026	-0,052
-584,094	108,670	-0,038	-0,033
-583,079	-200,000	0,017	0,068
-582,065	762,291	-0,044	0,089
-581,050	-200,000	0,038	0,130
-580,036	338,728	-0,024	-0,035
-579,021	-54,784	-0,069	-0,023
-578,006	-200,000	0,015	-0,117
-576,992	306,239	0,048	-0,066
-575,977	-200,000	-0,008	0,099
-574,963	458,568	-0,031	-0,052
-573,948	-200,000	0,010	0,044
-572,934	-200,000	0,005	0,024
-571,919	-50,299	0,056	0,020
-570,904	429,074	-0,031	0,050
-569,890	233,374	-0,098	0,119
-568,875	-22,321	-0,012	0,005
-567,861	-200,000	0,016	-0,068
-566,846	-200,000	0,003	0,144
-565,831	96,162	0,122	-0,103
-564,817	-200,000	-0,020	-0,125
-563,802	798,167	0,091	-0,186
-562,788	102,876	0,019	-0,017
-561,773	-200,000	-0,013	0,068
-560,758	800,000	0,060	0,123
-559,744	536,392	-0,044	0,077
-558,729	539,033	-0,051	0,089
-557,715	800,000	-0,030	0,063
-556,700	-8,782	-0,025	0,012
-555,685	176,485	-0,072	-0,077
-554,671	-200,000	0,033	0,178
-553,656	127,527	-0,078	0,073
-552,642	184,556	-0,035	-0,038
-551,627	-200,000	0,011	-0,132
-550,612	-200,000	-0,006	-0,043
-549,598	-146,346	-0,070	0,004
-548,583	168,800	-0,132	0,138
-547,569	-136,766	0,076	0,006
-546,554	19,109	-0,056	-0,033
-545,539	800,000	0,065	0,148
-544,525	-200,000	0,001	0,020
-543,510	-200,000	-0,018	-0,068
-542,496	-200,000	-0,011	-0,040
-541,481	180,638	0,052	0,056
-540,466	95,436	0,123	0,103
-539,452	800,000	-0,029	0,088
-538,437	-200,000	0,002	-0,047
-537,423	23,092	-0,123	-0,074
-536,408	257,131	-0,068	-0,087
-535,393	-34,735	0,051	-0,020
-534,379	-139,135	-0,118	-0,009
-533,364	52,734	0,025	0,018
-532,350	175,884	-0,098	0,105
-531,335	273,212	-0,112	0,146
-530,321	360,289	0,060	0,089
-529,306	-83,399	-0,046	0,011
-528,291	11,497	-0,089	0,050
-527,277	-90,543	-0,085	-0,018
-526,262	-25,367	0,082	0,036
-525,248	22,175	0,039	0,024
-524,233	35,863	0,068	0,044
-523,218	155,853	-0,034	0,035
-522,204	136,751	-0,064	0,062
-521,189	-200,000	-0,001	-0,097
-520,175	-57,931	-0,205	0,066
-519,160	122,964	0,107	0,099
-518,145	104,067	0,131	-0,114
-517,131	-200,000	0,009	-0,085
-516,116	800,000	-0,004	0,010
-515,102	82,274	0,074	0,059
-514,087	-10,534	-0,142	-0,069
-513,072	298,441	0,016	0,022
-512,058	355,696	-0,113	-0,166
-511,043	-200,000	0,022	-0,091
-510,029	-33,106	0,127	-0,052
-509,014	26,447	-0,048	-0,029
-507,999	-200,000	0,011	0,037
-506,985	800,000	0,023	0,055
-505,970	328,224	0,042	-0,060
-504,956	-200,000	0,002	-0,069
-503,941	-200,000	0,003	-0,137
-502,926	-88,342	0,105	-0,023
-501,912	43,465	-0,074	0,050
-500,897	-200,000	0,021	-0,162
-499,883	178,852	0,102	-0,110
-498,868	-82,177	-0,086	-0,021
-497,853	-191,537	-0,070	0,000
-496,839	-67,474	-0,149	0,043
-495,824	-111,128	0,043	0,006
-494,810	301,369	0,059	0,080
-493,795	-159,964	-0,067	-0,003
-492,781	536,477	-0,076	-0,133
-491,766	-200,000	-0,013	0,112
-490,751	-200,000	0,045	0,155
-489,737	-200,000	0,007	-0,037
-488,722	-72,108	0,084	0,023
-487,708	-200,000	-0,009	0,047
-486,693	-200,000	-0,012	-0,054
-485,678	-14,588	-0,039	0,019
-484,664	126,994	-0,061	-0,056
-483,649	467,098	0,061	-0,101
-482,635	800,000	-0,061	-0,126
-481,620	318,782	0,037	0,051
-480,605	720,867	0,026	0,051
-479,591	-128,252	0,160	0,017
-478,576	86,317	-0,104	0,084
-477,562	800,000	0,031	0,085
-476,547	470,100	-0,008	-0,013
-475,532	5,832	-0,065	-0,035
-474,518	308,294	0,061	0,084
-473,503	128,735	0,071	-0,066
-472,489	45,640	0,041	-0,028
-471,474	28,992	-0,018	0,011
-470,459	800,000	0,020	-0,048
-469,445	357,810	0,084	-0,123
-468,430	137,692	-0,021	0,020
-467,416	499,829	0,058	0,099
-466,401	-38,053	-0,005	0,002
-465,386	776,240	0,112	0,226
-464,372	800,000	0,010	-0,027
-463,357	-180,666	-0,063	0,001
-462,343	-128,271	-0,070	-0,007
-461,328	199,020	-0,113	-0,127
-460,313	-200,000	0,012	-0,073
-459,299	27,827	0,093	0,057
-458,284	-34,594	0,066	0,026
-457,270	-86,911	0,110	0,024
-456,255	-136,199	-0,130	-0,011
-455,241	-200,000	0,026	-0,097
-454,226	-112,247	0,099	-0,014
-453,211	-84,010	0,135	-0,031
-452,197	-92,293	0,063	0,013
-451,182	417,272	-0,027	0,042
-450,168	800,000	0,016	-0,040
-449,153	88,162	0,072	0,058
-448,138	-200,000	0,019	-0,093
-447,124	-8,656	0,070	-0,034
-446,109	-140,323	0,086	0,006
-445,095	800,000	0,043	0,110
-444,080	-36,178	0,170	0,067
-443,065	-200,000	0,027	0,164
-442,051	486,959	0,028	-0,046
-441,036	-200,000	-0,025	-0,099
-440,022	-200,000	0,000	-0,030
-439,007	-132,863	0,026	0,002
-437,992	-200,000	0,004	-0,014
-436,978	-200,000	0,016	-0,097
-435,963	-195,306	-0,061	-0,000
-434,949	107,691	-0,089	0,078
-433,934	27,113	-0,029	0,018
-432,919	800,000	-0,020	-0,043
-431,905	281,260	-0,057	0,075
-430,890	168,211	0,082	0,085
-429,876	-200,000	0,028	0,099
-428,861	-52,131	0,087	0,030
-427,846	-79,004	-0,086	-0,021
-426,832	-200,000	0,018	-0,062
-425,817	289,771	0,017	-0,023
-424,803	800,000	0,033	-0,105
-423,788	-88,517	0,054	-0,012
-422,773	-200,000	-0,002	-0,012
-421,759	-6,028	0,035	0,017
-420,744	758,697	0,014	0,028
-419,730	-200,000	0,013	-0,143
-418,715	800,000	-0,037	-0,115
-417,701	337,064	0,064	0,091
-416,686	577,684	0,062	-0,112
-415,671	-200,000	-0,026	0,124
-414,657	549,551	-0,020	0,036
-413,642	800,000	0,035	0,075
-412,628	-40,001	0,140	0,053
-411,613	-200,000	-0,014	-0,056
-410,598	-62,088	0,094	0,029
-409,584	32,110	0,042	-0,027
-408,569	800,000	-0,039	0,093
-407,555	92,688	-0,055	0,045
-406,540	-200,000	0,012	-0,164
-405,525	-15,860	-0,080	-0,037
-404,511	-200,000	0,002	-0,006
-403,496	-13,208	-0,120	-0,057
-402,482	-88,749	0,180	-0,039
-401,467	54,189	0,083	0,059
-400,452	-200,000	-0,032	0,124
-399,438	-34,437	-0,087	0,035
-398,423	800,000	-0,029	0,077
-397,409	-147,419	0,081	0,005
-396,394	-42,704	-0,095	0,035
-395,379	-200,000	0,004	0,067
-394,365	101,318	0,111	0,094
-393,350	160,284	0,073	0,075
-392,336	-163,808	0,107	-0,004
-391,321	-67,670	-0,153	0,043
-390,306	-26,037	0,223	0,096
-389,292	-20,114	0,099	-0,044
-388,277	-105,577	0,071	0,012
-387,263	-200,000	-0,021	0,135
-386,248	274,216	0,025	0,033
-385,233	16,744	-0,040	0,023
-384,219	572,921	0,029	0,051
-383,204	-200,000	-0,017	-0,135
-382,190	800,000	-0,048	-0,101
-381,175	25,208	-0,034	0,021
-380,160	-110,537	-0,134	0,020
-379,146	28,584	0,062	0,038
-378,131	-52,788	0,051	0,017
-377,117	36,114	-0,035	-0,022
-376,102	-200,000	0,009	-0,049
-375,088	-200,000	0,008	0,059
-374,073	-18,802	0,111	-0,050
-373,058	9,293	0,016	0,009
-372,044	-200,000	-0,031	0,116
-371,029	334,545	-0,061	0,086
-370,015	-1,740	-0,117	0,060
-369,000	187,164	0,089	-0,097
-367,985	-47,062	0,079	-0,028
-366,971	800,000	0,023	-0,059
-365,956	-200,000	0,014	0,099
-364,942	-93,090	0,018	0,004
-363,927	197,228	0,014	-0,016
-362,912	800,000	-0,011	0,032
-361,898	191,957	0,061	-0,067
-360,883	254,234	-0,031	-0,038
-359,869	-50,915	-0,116	0,040
-358,854	326,384	0,129	0,182
-357,839	59,426	0,168	0,121
-356,825	64,816	0,050	0,037
-355,810	-97,523	0,127	-0,024
-354,796	800,000	-0,044	-0,092
-353,781	35,419	0,050	-0,032
-352,766	50,428	-0,126	-0,087
-351,752	18,872	-0,031	0,018
-350,737	-200,000	0,013	0,051
-349,723	-127,912	-0,038	-0,004
-348,708	189,966	0,089	0,098
-347,693	800,000	-0,041	-0,104
-346,679	217,269	-0,065	-0,076
-345,664	172,286	-0,064	0,068
-344,650	128,270	-0,101	0,094
-343,635	-66,594	0,108	0,031
-342,620	748,565	-0,065	0,128
-341,606	18,919	0,100	-0,059
-340,591	160,260	0,098	-0,100
-339,577	-79,790	-0,139	-0,034
-338,562	160,915	0,059	0,060
-337,548	-115,787	-0,158	-0,021
-336,533	120,934	0,104	0,095
-335,518	-200,000	0,008	0,054
-334,504	800,000	0,032	0,073
-333,489	800,000	0,031	-0,069
-332,475	-178,417	0,072	0,001
-331,460	160,486	-0,043	0,044
-330,445	-200,000	0,050	-0,179
-329,431	-30,853	0,058	-0,024
-328,416	-155,541	0,157	0,007
-327,402	800,000	-0,035	0,072
-326,387	-29,078	-0,080	-0,033
-325,372	145,934	-0,101	-0,099
-324,358	-19,968	0,036	-0,016
-323,343	426,842	-0,017	-0,027
-322,329	800,000	-0,024	0,052
-321,314	150,489	0,063	-0,062
-320,299	381,860	-0,114	0,171
-319,285	-59,612	0,107	-0,033
-318,270	18,618	-0,056	-0,033
-317,256	-63,212	-0,160	-0,048
-316,241	-200,000	0,012	-0,043
-315,226	575,262	-0,019	0,035
-314,212	800,000	0,011	0,033
-313,197	92,860	0,032	-0,027
-312,183	-92,699	0,139	0,028
-311,168	-200,000	-0,032	-0,143
-310,153	-107,576	0,036	0,006
-309,139	185,560	-0,105	-0,114
-308,124	-142,102	0,109	-0,008
-307,110	391,591	-0,127	-0,193
-306,095	-84,691	0,149	0,034
-305,080	641,826	-0,043	0,080
-304,066	800,000	0,045	-0,131
-303,051	-200,000	-0,000	-0,076
-302,037	35,585	0,064	0,041
-301,022	-53,445	0,026	-0,009
-300,008	-200,000	-0,017	0,074
-298,993	800,000	0,058	0,125
-297,978	132,763	0,089	0,084
-296,964	-200,000	-0,027	-0,183
-295,949	-200,000	-0,006	-0,050
-294,935	800,000	0,043	0,136
-293,920	748,968	0,052	-0,103
-292,905	-200,000	0,010	-0,054
-291,891	64,484	0,074	0,054
-290,876	-34,272	0,086	0,034
-289,862	160,897	0,065	-0,067
-288,847	800,000	-0,035	-0,083
-287,832	173,395	0,009	0,010
-286,818	-200,000	0,014	-0,056
-285,803	13,230	0,039	-0,022
-284,789	-62,718	-0,048	-0,015
-283,774	-15,706	0,076	-0,035
-282,759	230,745	-0,080	0,096
-281,745	247,116	-0,053	-0,065
-280,730	800,000	0,058	-0,172
-279,716	-200,000	0,024	-0,104
-278,701	-71,181	0,084	-0,023
-277,686	-200,000	0,000	0,154
-276,672	-128,211	0,095	0,010
-275,657	-85,955	-0,097	0,022
-274,643	3,633	-0,080	-0,042
-273,628	-200,000	-0,026	-0,105
-272,613	48,721	0,083	0,057
-271,599	800,000	0,007	0,017
-270,584	600,883	0,036	0,065
-269,570	800,000	-0,040	0,117
-268,555	36,547	0,030	-0,019
-267,540	337,945	-0,040	-0,056
-266,526	-87,030	-0,076	0,017
-265,511	7,824	-0,019	-0,010
-264,497	-10,540	-0,084	0,041
-263,482	-104,447	-0,098	-0,016
-262,467	253,955	0,013	0,017
-261,453	-2,455	-0,164	0,083
-260,438	57,157	-0,036	0,025
-259,424	652,310	0,042	-0,079
-258,409	-70,745	-0,185	-0,050
-257,395	-164,103	0,118	-0,004
-256,380	235,391	0,095	0,115
-255,365	325,382	0,086	-0,120
-254,351	462,657	-0,098	0,160
-253,336	-200,000	-0,004	0,070
-252,322	234,388	-0,075	-0,090
-251,307	-200,000	0,006	-0,064
-250,292	-28,461	0,097	-0,040
-249,278	196,012	0,032	0,036
-248,263	217,971	0,067	0,077
-247,249	439,175	-0,098	0,157
-246,234	-87,480	-0,085	-0,019
-245,219	171,163	0,023	0,024
-244,205	-47,155	-0,072	0,025
-243,190	1,357	0,052	0,027
-242,176	540,723	0,059	0,102
-241,161	84,687	-0,075	0,060
-240,146	-200,000	-0,006	0,064
-239,132	-200,000	0,015	0,090
-238,117	554,959	0,047	-0,082
-237,103	23,743	-0,012	0,007
-236,088	-200,000	-0,006	0,062
-235,073	-68,525	0,065	0,018
-234,059	192,857	0,094	0,104
-233,044	800,000	0,052	0,136
-232,030	294,948	-0,098	0,130
-231,015	244,108	-0,053	0,064
-230,000	-200,000	-0,059	0,000
-228,986	143,237	-0,022	-0,021
-227,971	-95,124	0,086	-0,017
-226,957	-160,756	-0,040	0,002
-225,942	-200,000	-0,048	0,161
-224,927	95,558	0,130	-0,108
-223,913	472,094	0,090	-0,148
-222,898	-200,000	-0,021	-0,138
-221,884	-0,679	0,041	-0,021
-220,869	-22,545	0,115	0,050
-219,855	6,971	-0,052	-0,028
-218,840	800,000	0,054	0,136
-217,825	-200,000	-0,003	-0,049
-216,811	800,000	0,085	-0,183
-215,796	-50,197	-0,031	-0,011
-214,782	66,951	-0,042	0,031
-213,767	127,288	-0,071	0,066
-212,752	256,288	0,069	0,086
-211,738	-182,837	0,039	0,000
-210,723	-49,546	-0,025	-0,009
-209,709	-55,049	-0,105	-0,034
-208,694	771,070	-0,019	-0,037
-207,679	-200,000	0,010	-0,062
-206,665	197,026	-0,046	0,051
-205,650	14,793	0,060	-0,034
-204,636	800,000	0,050	0,133
-203,621	-200,000	0,020	0,069
-202,606	569,965	-0,011	-0,019
-201,592	-27,462	0,037	0,015
-200,577	-200,000	-0,028	0,180
-199,563	497,518	-0,081	-0,135
-198,548	-167,783	0,050	-0,001
-197,533	-69,169	0,192	-0,053
-196,519	240,494	-0,071	0,086
-195,504	-90,758	-0,113	-0,023
-194,490	800,000	0,010	0,030
-193,475	119,957	-0,081	-0,073
-192,460	800,000	0,037	-0,111
-191,446	313,905	-0,049	0,067
-190,431	315,687	-0,069	-0,094
-189,417	-78,357	-0,050	-0,012
-188,402	529,836	0,038	0,065
-187,387	-111,888	0,029	0,004
-186,373	800,000	-0,004	-0,009
-185,358	95,188	0,059	0,049
-184,344	-200,000	-0,009	-0,062
-183,329	-200,000	0,034	0,199
-182,315	-200,000	0,007	0,141
-181,300	-92,283	-0,109	0,022
-180,285	162,853	0,084	-0,086
-179,271	631,201	-0,055	-0,101
-178,256	252,376	0,032	-0,040
-177,242	800,000	-0,020	-0,063
-176,227	15,985	0,034	0,019
-175,212	-200,000	-0,010	0,085
-174,198	-86,107	-0,089	0,020
-173,183	77,103	-0,047	-0,036
-172,169	-155,085	-0,049	-0,002
-171,154	-200,000	0,000	0,028
-170,139	-200,000	-0,008	0,032
-169,125	176,414	0,040	0,042
-168,110	576,227	-0,012	-0,021
-167,096	203,393	-0,066	-0,074
-166,081	-13,004	-0,114	-0,054
-165,066	64,216	-0,069	-0,050
-164,052	298,807	-0,072	-0,096
-163,037	29,123	0,060	-0,037
-162,023	-125,019	0,044	-0,005
-161,008	-70,671	0,096	-0,026
-159,993	-200,000	-0,018	0,128
-158,979	-9,626	-0,025	0,012
-157,964	74,764	-0,040	-0,031
-156,950	-200,000	0,033	0,107
-155,935	-200,000	0,013	0,164
-154,920	-120,304	-0,217	-0,026
-153,906	-12,987	-0,004	0,002
-152,891	74,439	0,081	0,062
-151,877	-162,809	0,134	-0,005
-150,862	339,178	0,055	-0,078
-149,847	-200,000	0,010	0,034
-148,833	-200,000	-0,019	-0,240
-147,818	15,719	-0,082	0,046
-146,804	120,787	0,055	0,050
-145,789	46,409	0,057	0,038
-144,775	328,416	-0,077	-0,107
-143,760	-200,000	0,022	-0,088
-142,745	800,000	-0,042	-0,120
-141,731	-200,000	-0,002	0,077
-140,716	60,652	0,091	-0,065
-139,702	-73,965	-0,112	-0,029
-138,687	307,826	-0,036	0,049
-137,672	-200,000	-0,011	0,087
-136,658	-200,000	0,014	-0,053
-135,643	611,823	0,064	0,116
-134,629	-69,153	-0,102	-0,028
-133,614	800,000	-0,036	0,098
-132,599	800,000	0,015	-0,037
-131,585	-94,883	0,115	-0,022
-130,570	88,802	0,026	0,021
-129,556	5,614	-0,073	-0,039
-128,541	-200,000	0,009	0,092
-127,526	800,000	-0,084	0,186
-126,512	800,000	0,020	0,052
-125,497	-200,000	-0,004	-0,107
-124,483	34,822	-0,062	-0,039
-123,468	130,043	-0,092	0,086
-122,453	159,081	0,032	-0,033
-121,439	294,431	0,012	-0,016
-120,424	124,701	-0,059	-0,054
-119,410	-200,000	0,011	0,114
-118,395	-54,127	-0,065	0,021
