DTS Sentinel unit serial number:	SN410029Multiplexer serial number:	ORYXHardware model number:	OX2-SRSoftware version number:	ORYX F/W v4,00 Oryx Data Collector v3.7.2.0data status	okinstallation	B4 Nyhavnadifferential loss correction	single-endedforward channel	channel 2reverse channel	N/Adate	2023/12/15time	15:40:13forward acquisition time	300,00reverse acquisition time	0,00gamma	499,1914k internal	0,3152k external	0,3152temperature offset calibration	1,0000default loss term (dB/km)	0,3820temperature slope calibration	1,0000multiplexer offset coefficient	1,0000multiplexer slope coefficient	1,0000fibre end	0,00T internal ref (°C)	16,60T ext. ref 1 (°C)	2,85T ext. ref 2 (°C)	2,97length (m)	temperature (°C)	Stokes	anti-Stokes-744,400	343,853	0,072	0,105
-743,385	-3,782	-0,222	0,113
-742,371	-136,986	0,210	-0,018
-741,356	-69,829	-0,242	-0,068
-740,342	-200,000	0,032	0,127
-739,327	30,803	-0,141	0,089
-738,312	62,628	0,122	0,090
-737,298	-112,563	-0,304	-0,044
-736,283	265,258	0,080	0,103
-735,269	-105,236	-0,225	-0,038
-734,254	149,550	0,086	0,086
-733,239	-90,769	-0,386	-0,082
-732,225	175,224	0,077	0,083
-731,210	108,472	0,052	0,046
-730,196	-101,937	0,080	-0,014
-729,181	521,134	-0,022	-0,038
-728,167	14,877	0,074	-0,043
-727,152	4,728	-0,070	-0,038
-726,137	-200,000	0,017	-0,150
-725,123	544,236	-0,062	-0,109
-724,108	-141,767	-0,150	-0,011
-723,094	413,296	-0,057	-0,089
-722,079	65,943	-0,074	0,055
-721,064	-157,144	-0,119	-0,005
-720,050	-200,000	0,027	0,095
-719,035	-200,000	0,017	0,141
-718,021	1,318	-0,082	-0,044
-717,006	30,617	-0,154	-0,097
-715,991	-32,750	-0,308	-0,126
-714,977	800,000	-0,036	-0,100
-713,962	-122,722	-0,089	-0,011
-712,948	62,555	-0,028	0,021
-711,933	-200,000	-0,001	-0,004
-710,918	-46,910	-0,077	-0,028
-709,904	800,000	-0,052	-0,143
-708,889	457,579	0,075	-0,123
-707,875	120,065	-0,147	-0,135
-706,860	-67,098	-0,078	-0,023
-705,845	90,457	0,022	-0,018
-704,831	-68,065	0,141	-0,040
-703,816	171,082	0,032	-0,034
-702,802	-200,000	0,011	-0,072
-701,787	-102,891	-0,170	-0,030
-700,772	-118,832	0,134	-0,017
-699,758	265,254	0,062	-0,080
-698,743	-200,000	-0,015	0,081
-697,729	-200,000	-0,014	0,079
-696,714	114,801	-0,114	0,103
-695,699	691,053	-0,038	0,074
-694,685	279,630	0,106	0,140
-693,670	-200,000	-0,013	-0,167
-692,656	-200,000	-0,005	-0,035
-691,641	-172,043	0,071	-0,002
-690,627	-4,292	0,162	-0,082
-689,612	-200,000	-0,028	-0,154
-688,597	-88,184	-0,071	0,016
-687,583	800,000	-0,045	-0,093
-686,568	79,473	-0,017	0,013
-685,554	-200,000	-0,025	-0,205
-684,539	94,069	-0,089	0,074
-683,524	-200,000	0,011	-0,144
-682,510	-200,000	-0,013	0,046
-681,495	-136,901	0,105	-0,009
-680,481	-149,724	-0,058	-0,003
-679,466	-13,936	-0,095	-0,045
-678,451	800,000	0,008	0,018
-677,437	-104,428	-0,117	-0,020
-676,422	82,751	0,073	0,058
-675,408	17,969	-0,077	0,045
-674,393	-80,129	-0,013	-0,003
-673,378	518,732	-0,054	-0,094
-672,364	42,494	-0,049	-0,033
-671,349	800,000	-0,038	0,080
-670,335	-200,000	0,004	-0,075
-669,320	-10,391	0,094	0,046
-668,305	301,609	-0,102	0,139
-667,291	800,000	0,061	-0,138
-666,276	-61,846	-0,069	-0,021
-665,262	-15,920	-0,015	-0,007
-664,247	-200,000	0,019	-0,177
-663,232	-200,000	-0,014	-0,094
-662,218	-95,992	0,055	-0,011
-661,203	-3,120	0,062	-0,032
-660,189	122,277	-0,156	0,143
-659,174	483,812	0,048	-0,080
-658,159	275,850	-0,032	-0,042
-657,145	-90,046	-0,183	0,039
-656,130	683,892	0,086	-0,166
-655,116	521,398	-0,036	0,063
-654,101	-200,000	0,055	-0,219
-653,086	40,105	0,063	0,041
-652,072	32,566	-0,149	0,095
-651,057	69,931	-0,044	0,033
-650,043	90,251	0,069	-0,057
-649,028	142,636	-0,068	-0,066
-648,014	531,252	-0,033	0,057
-646,999	446,805	0,024	0,038
-645,984	227,271	0,018	0,021
-644,970	800,000	-0,024	0,061
-643,955	-4,490	-0,102	-0,052
-642,941	-200,000	0,001	-0,039
-641,926	-200,000	-0,001	0,058
-640,911	38,195	0,069	0,045
-639,897	134,743	0,040	-0,038
-638,882	-144,262	-0,043	0,003
-637,868	-40,961	-0,140	0,053
-636,853	800,000	0,015	-0,041
-635,838	235,520	-0,098	-0,119
-634,824	-200,000	0,017	-0,103
-633,809	-49,585	0,096	0,034
-632,795	24,096	-0,028	0,017
-631,780	67,112	-0,072	0,054
-630,765	391,888	0,022	0,034
-629,751	166,808	-0,006	0,006
-628,736	494,878	0,067	-0,114
-627,722	800,000	-0,031	-0,096
-626,707	-68,768	0,030	-0,009
-625,692	-200,000	-0,009	0,103
-624,678	-101,150	0,075	0,013
-623,663	130,326	-0,063	0,059
-622,649	-190,618	-0,145	-0,001
-621,634	17,657	0,151	0,088
-620,619	89,616	-0,020	0,016
-619,605	-200,000	-0,004	0,046
-618,590	643,687	-0,021	0,039
-617,576	-104,108	-0,122	0,021
-616,561	540,513	-0,006	0,010
-615,546	-200,000	0,003	-0,011
-614,532	-131,242	-0,078	-0,007
-613,517	-28,708	0,108	0,045
-612,503	648,737	0,075	-0,141
-611,488	-200,000	0,004	-0,125
-610,474	403,160	-0,100	0,155
-609,459	-103,751	-0,084	0,014
-608,444	-126,858	0,081	-0,009
-607,430	-127,635	-0,109	0,011
-606,415	42,566	0,004	0,003
-605,401	68,130	-0,008	-0,006
-604,386	395,456	-0,047	0,072
-603,371	-15,938	0,068	-0,032
-602,357	228,836	0,105	0,126
-601,342	30,436	-0,064	-0,040
-600,328	-123,616	-0,125	-0,014
-599,313	247,875	-0,059	-0,074
-598,298	227,018	-0,031	-0,037
-597,284	333,852	0,058	0,082
-596,269	-200,000	0,001	0,061
-595,255	142,783	-0,026	0,025
-594,240	-200,000	-0,031	-0,145
-593,225	-200,000	0,013	-0,045
-592,211	800,000	0,047	-0,117
-591,196	3,210	0,015	0,008
-590,182	76,932	-0,065	-0,051
-589,167	19,115	-0,043	0,025
-588,152	-118,621	0,184	0,024
-587,138	-14,433	-0,054	0,025
-586,123	800,000	-0,025	0,070
-585,109	800,000	0,055	0,176
-584,094	-87,235	-0,064	0,014
-583,079	-65,978	0,130	-0,038
-582,065	-200,000	-0,019	0,111
-581,050	-200,000	0,033	0,126
-580,036	800,000	0,037	0,108
-579,021	-122,544	-0,098	-0,012
-578,006	-200,000	-0,034	-0,110
-576,992	-200,000	0,062	0,207
-575,977	80,642	0,030	-0,023
-574,963	49,622	-0,031	-0,021
-573,948	800,000	-0,050	0,133
-572,934	-39,597	0,103	0,039
-571,919	47,140	-0,026	-0,018
-570,904	-200,000	0,026	-0,154
-569,890	-200,000	-0,011	0,036
-568,875	610,339	0,011	0,020
-567,861	76,091	0,034	-0,026
-566,846	120,481	-0,101	-0,092
-565,831	-79,201	0,050	-0,012
-564,817	23,519	-0,073	-0,044
-563,802	-200,000	0,026	0,174
-562,788	644,405	-0,034	-0,064
-561,773	-200,000	0,038	-0,142
-560,758	-200,000	-0,007	0,074
-559,744	710,105	0,080	-0,155
-558,729	-26,409	-0,020	0,009
-557,715	316,110	0,049	0,068
-556,700	-67,219	-0,013	-0,004
-555,685	-200,000	0,009	0,043
-554,671	48,003	0,088	0,060
-553,656	-89,894	0,076	0,016
-552,642	-129,153	0,006	-0,001
-551,627	39,467	0,032	0,021
-550,612	91,750	-0,018	-0,015
-549,598	-146,691	0,031	0,002
-548,583	-27,352	0,058	-0,025
-547,569	85,939	0,045	0,036
-546,554	-18,048	-0,023	0,010
-545,539	-159,058	-0,089	0,004
-544,525	800,000	0,048	-0,104
-543,510	468,303	-0,036	-0,060
-542,496	800,000	0,049	-0,108
-541,481	-200,000	-0,013	-0,049
-540,466	217,908	-0,102	0,119
-539,452	648,301	-0,004	0,008
-538,437	-200,000	0,022	-0,087
-537,423	399,849	-0,019	-0,030
-536,408	601,242	-0,077	0,141
-535,393	11,042	-0,109	-0,061
-534,379	355,435	-0,082	-0,120
-533,364	211,514	0,065	0,075
-532,350	-181,788	0,130	0,002
-531,335	-200,000	-0,019	0,235
-530,321	-143,994	-0,077	0,005
-529,306	289,553	0,053	-0,071
-528,291	14,111	-0,083	-0,047
-527,277	-200,000	-0,011	-0,055
-526,262	-200,000	-0,002	0,156
-525,248	800,000	-0,046	-0,150
-524,233	67,066	0,017	-0,013
-523,218	14,239	0,108	0,061
-522,204	-200,000	0,009	0,074
-521,189	-129,784	-0,089	-0,009
-520,175	150,249	-0,013	-0,013
-519,160	-26,582	-0,111	-0,047
-518,145	-0,891	0,010	-0,005
-517,131	324,223	0,032	0,045
-516,116	800,000	0,018	0,057
-515,102	-200,000	-0,018	-0,111
-514,087	401,012	0,099	-0,153
-513,072	-200,000	0,012	-0,046
-512,058	-170,942	0,078	0,002
-511,043	248,429	0,052	0,065
-510,029	82,261	0,045	0,035
-509,014	-162,152	0,083	0,003
-507,999	-141,723	0,077	0,006
-506,985	-200,000	0,010	-0,123
-505,970	46,367	-0,078	0,053
-504,956	800,000	-0,021	0,060
-503,941	-200,000	-0,027	0,158
-502,926	-97,854	-0,036	-0,007
-501,912	-65,859	0,044	-0,013
-500,897	65,579	0,060	0,045
-499,883	-133,016	0,003	0,000
-498,868	-15,504	-0,058	-0,027
-497,853	464,080	-0,030	0,049
-496,839	242,740	0,019	-0,023
-495,824	-109,171	0,028	-0,004
-494,810	-200,000	0,025	0,166
-493,795	-2,160	0,037	0,019
-492,781	-140,350	0,081	0,006
-491,766	125,389	-0,071	0,065
-490,751	51,755	0,041	-0,028
-489,737	-122,934	0,087	0,010
-488,722	-107,502	0,065	-0,010
-487,708	-200,000	0,020	0,103
-486,693	-137,815	0,098	-0,008
-485,678	-23,791	-0,093	-0,041
-484,664	-52,454	0,025	0,008
-483,649	-200,000	0,019	-0,091
-482,635	4,299	-0,055	-0,029
-481,620	171,398	0,076	-0,080
-480,605	329,532	0,085	0,120
-479,591	800,000	-0,026	0,054
-478,576	-134,524	-0,107	-0,009
-477,562	-200,000	-0,000	0,040
-476,547	-200,000	0,016	-0,094
-475,532	643,366	0,068	0,127
-474,518	-156,969	0,120	0,005
-473,503	20,339	-0,026	-0,015
-472,489	-84,096	0,115	0,026
-471,474	-119,984	0,059	0,007
-470,459	-200,000	0,012	0,062
-469,445	-73,913	-0,089	0,023
-468,430	-176,866	0,139	-0,003
-467,416	-52,367	-0,098	-0,033
-466,401	-200,000	0,007	-0,084
-465,386	-200,000	-0,024	-0,101
-464,372	502,588	0,042	0,071
-463,357	178,111	-0,079	-0,085
-462,343	-200,000	0,008	0,120
-461,328	79,364	-0,080	0,062
-460,313	-110,679	0,098	-0,015
-459,299	201,954	0,049	-0,056
-458,284	-200,000	-0,000	0,200
-457,270	21,790	-0,066	0,039
-456,255	-8,824	-0,100	-0,049
-455,241	800,000	0,079	-0,170
-454,226	-44,863	-0,049	-0,018
-453,211	243,406	-0,084	0,104
-452,197	400,079	-0,008	-0,013
-451,182	-22,646	0,112	-0,049
-450,168	-146,187	-0,019	-0,001
-449,153	-101,553	-0,074	-0,013
-448,138	800,000	-0,045	0,114
-447,124	721,052	0,045	-0,088
-446,109	206,884	0,050	-0,057
-445,095	-172,470	0,102	-0,002
-444,080	45,356	0,013	0,009
-443,065	-200,000	0,041	0,132
-442,051	-135,182	-0,123	0,011
-441,036	800,000	-0,020	-0,049
-440,022	133,849	0,047	-0,044
-439,007	-200,000	0,006	-0,135
-437,992	20,290	0,049	-0,029
-436,978	-58,632	0,047	-0,015
-435,963	800,000	-0,006	-0,020
-434,949	800,000	-0,029	0,064
-433,934	42,853	0,013	-0,009
-432,919	-200,000	0,009	-0,084
-431,905	-53,128	-0,034	-0,011
-430,890	-17,389	-0,069	-0,032
-429,876	343,808	0,042	0,060
-428,861	800,000	-0,037	-0,088
-427,846	-114,221	0,077	-0,011
-426,832	61,246	0,074	-0,054
-425,817	699,200	-0,020	0,039
-424,803	498,959	-0,040	0,067
-423,788	800,000	-0,034	0,078
-422,773	-200,000	-0,019	0,064
-421,759	-200,000	-0,014	0,147
-420,744	-200,000	0,003	-0,130
-419,730	225,316	0,055	0,065
-418,715	350,129	0,045	-0,066
-417,701	800,000	-0,047	-0,111
-416,686	64,975	0,072	0,053
-415,671	-200,000	0,027	0,134
-414,657	800,000	-0,044	0,136
-413,642	-156,515	-0,100	-0,004
-412,628	84,426	-0,057	0,046
-411,613	-39,557	-0,083	0,032
-410,598	-200,000	0,016	-0,108
-409,584	227,809	0,051	0,061
-408,569	740,276	0,033	0,066
-407,555	-200,000	0,014	0,108
-406,540	-200,000	0,020	0,155
-405,525	800,000	0,021	0,059
-404,511	-200,000	-0,003	0,074
-403,496	43,549	-0,118	-0,078
-402,482	-4,549	0,038	0,019
-401,467	17,225	0,106	0,061
-400,452	-66,207	0,093	0,027
-399,438	-126,665	-0,158	0,017
-398,423	687,728	-0,067	0,129
-397,409	35,209	-0,099	-0,063
-396,394	-98,200	0,060	0,011
-395,379	-200,000	-0,000	0,043
-394,365	-99,372	0,028	0,005
-393,350	96,961	0,044	0,037
-392,336	-200,000	-0,034	0,172
-391,321	9,501	-0,077	-0,042
-390,306	800,000	0,054	-0,130
-389,292	231,129	-0,050	0,059
-388,277	5,866	-0,053	-0,028
-387,263	11,364	-0,112	-0,062
-386,248	-200,000	0,007	0,119
-385,233	-200,000	0,012	0,062
-384,219	-115,840	-0,083	0,011
-383,204	769,420	0,023	-0,046
-382,190	-97,219	-0,115	-0,022
-381,175	-55,134	0,066	-0,022
-380,160	5,597	-0,198	-0,106
-379,146	-111,414	0,110	-0,016
-378,131	-45,901	0,175	-0,063
-377,117	800,000	-0,029	-0,068
-376,102	-200,000	0,022	0,129
-375,088	-200,000	0,006	0,035
-374,073	-193,564	0,043	-0,000
-373,058	-43,695	0,033	-0,012
-372,044	83,692	-0,094	-0,075
-371,029	705,265	0,063	0,123
-370,015	-200,000	-0,004	-0,099
-369,000	-79,614	-0,126	0,031
-367,985	-200,000	-0,009	-0,049
-366,971	37,413	-0,033	0,022
-365,956	-200,000	-0,014	-0,214
-364,942	725,597	0,048	0,093
-363,927	-200,000	0,002	0,039
-362,912	-1,617	0,099	0,050
-361,898	5,294	-0,112	-0,060
-360,883	-200,000	-0,066	-0,212
-359,869	800,000	0,040	0,087
-358,854	720,661	0,013	-0,025
-357,839	167,344	0,077	0,080
-356,825	-200,000	-0,028	-0,135
-355,810	-19,612	0,085	0,038
-354,796	-83,529	0,044	0,010
-353,781	63,036	-0,053	0,039
-352,766	-200,000	-0,032	-0,108
-351,752	-104,914	0,045	0,007
-350,737	-29,164	0,086	0,036
-349,723	-200,000	0,024	0,106
-348,708	-80,538	-0,041	0,010
-347,693	44,441	0,087	-0,058
-346,679	-96,342	-0,144	0,027
-345,664	-110,929	-0,038	0,006
-344,650	800,000	-0,032	0,090
-343,635	-59,856	-0,032	0,010
-342,620	-49,815	0,071	0,024
-341,606	19,045	-0,158	0,092
-340,591	-74,359	0,096	0,025
-339,577	-200,000	-0,013	0,055
-338,562	-44,575	0,065	0,024
-337,548	622,283	0,055	-0,101
-336,533	11,840	0,099	0,055
-335,518	-62,495	0,067	0,020
-334,504	800,000	0,018	-0,056
-333,489	-200,000	-0,004	0,020
-332,475	-200,000	0,011	-0,050
-331,460	-102,841	-0,078	-0,013
-330,445	-36,352	-0,103	0,040
-329,431	800,000	-0,036	0,095
-328,416	-87,589	0,056	0,012
-327,402	133,800	0,074	-0,070
-326,387	-62,768	0,071	-0,021
-325,372	-200,000	0,023	-0,102
-324,358	32,760	0,025	0,016
-323,343	800,000	0,015	-0,036
-322,329	-200,000	0,040	0,137
-321,314	-200,000	0,036	0,121
-320,299	114,229	0,080	0,070
-319,285	6,538	-0,094	-0,051
-318,270	499,907	0,012	-0,020
-317,256	-146,975	-0,073	0,004
-316,241	0,304	-0,101	-0,052
-315,226	-200,000	0,006	0,065
-314,212	-46,124	0,127	0,045
-313,197	-0,271	0,114	0,059
-312,183	146,797	0,045	-0,044
-311,168	800,000	0,017	-0,039
-310,153	-11,105	-0,213	0,101
-309,139	-16,131	0,063	-0,029
-308,124	-200,000	-0,024	-0,085
-307,110	52,989	0,050	0,035
-306,095	72,645	-0,034	0,026
-305,080	-200,000	0,022	-0,080
-304,066	-42,520	0,161	-0,059
-303,051	160,771	0,026	-0,027
-302,037	-56,274	-0,061	-0,019
-301,022	-200,000	-0,010	0,040
-300,008	-200,000	-0,018	0,089
-298,993	132,610	0,033	0,031
-297,978	-90,864	-0,067	0,014
-296,964	-190,472	0,020	-0,000
-295,949	-17,852	-0,095	-0,043
-294,935	543,786	-0,009	0,016
-293,920	800,000	-0,025	0,054
-292,905	218,475	0,039	-0,045
-291,891	220,399	-0,062	-0,072
-290,876	-200,000	0,030	-0,158
-289,862	-16,416	-0,067	-0,031
-288,847	462,828	0,029	-0,048
-287,832	-137,989	0,051	-0,004
-286,818	79,339	-0,053	-0,041
-285,803	-200,000	-0,003	0,027
-284,789	-102,442	0,146	-0,025
-283,774	-200,000	-0,000	0,101
-282,759	-91,267	-0,096	-0,020
-281,745	-59,308	0,003	0,001
-280,730	-200,000	-0,029	-0,099
-279,716	672,981	0,060	-0,114
-278,701	-11,377	-0,049	0,023
-277,686	-27,999	0,124	0,052
-276,672	46,670	0,016	-0,011
-275,657	69,950	-0,014	0,011
-274,643	50,372	0,125	0,086
-273,628	731,129	0,020	-0,039
-272,613	-144,853	0,110	-0,007
-271,599	-200,000	-0,035	-0,118
-270,584	263,534	0,095	0,120
-269,570	-200,000	-0,003	0,052
-268,555	-198,484	-0,069	0,000
-267,540	119,878	0,071	0,064
-266,526	124,274	-0,037	-0,034
-265,511	37,602	0,138	-0,089
-264,497	30,339	0,032	-0,020
-263,482	244,842	-0,014	-0,017
-262,467	800,000	-0,016	0,037
-261,453	-200,000	0,000	-0,170
-260,438	-200,000	0,013	0,076
-259,424	800,000	-0,039	-0,088
-258,409	-91,464	0,099	-0,020
-257,395	-110,714	-0,030	-0,004
-256,380	-42,095	0,057	-0,021
-255,365	-200,000	0,014	0,056
-254,351	114,939	0,012	0,011
-253,336	67,560	-0,104	0,077
-252,322	19,349	-0,007	0,004
-251,307	88,439	-0,070	0,056
-250,292	58,414	-0,062	0,044
-249,278	-22,397	0,099	0,043
-248,263	-39,021	0,031	-0,012
-247,249	-106,473	0,076	0,012
-246,234	96,414	-0,092	0,077
-245,219	-166,742	0,087	0,003
-244,205	82,430	-0,026	-0,020
-243,190	151,891	-0,144	-0,142
-242,176	174,552	-0,049	-0,052
-241,161	681,290	-0,043	0,081
-240,146	-45,280	0,073	-0,026
-239,132	199,144	0,005	-0,006
-238,117	-99,815	-0,082	0,015
-237,103	-8,869	-0,015	0,007
-236,088	-200,000	0,008	0,044
-235,073	523,470	0,040	0,069
-234,059	19,742	0,077	0,045
-233,044	-200,000	-0,017	-0,065
-232,030	81,726	0,099	-0,077
-231,015	284,874	-0,048	-0,062
-230,000	-5,552	-0,045	-0,022
-228,986	373,850	-0,120	-0,177
-227,971	-200,000	-0,013	-0,094
-226,957	-200,000	-0,005	-0,050
-225,942	-56,853	-0,058	-0,018
-224,927	800,000	-0,016	-0,049
-223,913	-200,000	0,032	-0,118
-222,898	-79,948	-0,052	-0,012
-221,884	-31,783	-0,052	0,021
-220,869	800,000	0,029	-0,075
-219,855	-200,000	0,061	0,208
-218,840	121,914	0,132	0,119
-217,825	-63,742	0,056	0,016
-216,811	682,331	0,045	-0,085
-215,796	-82,113	0,017	-0,004
-214,782	547,843	-0,080	-0,140
-213,767	-44,126	0,122	-0,044
-212,752	-160,598	0,095	-0,004
-211,738	-200,000	0,001	0,030
-210,723	74,912	-0,146	0,111
-209,709	-52,459	0,082	-0,027
-208,694	16,341	0,044	-0,025
-207,679	2,807	0,035	0,019
-206,665	-119,837	-0,067	-0,008
-205,650	238,071	0,027	0,032
-204,636	-87,366	0,043	-0,009
-203,621	-200,000	-0,207	-0,000
-202,606	20,060	-0,052	-0,030
-201,592	605,935	-0,075	0,136
-200,577	-82,646	-0,140	-0,033
-199,563	116,693	-0,142	-0,126
-198,548	-200,000	0,014	-0,060
-197,533	188,154	0,035	0,038
-196,519	-99,746	-0,080	-0,014
-195,504	-200,000	-0,004	0,015
-194,490	-13,292	-0,039	-0,018
-193,475	800,000	-0,014	-0,041
-192,460	-200,000	-0,016	0,184
-191,446	-2,862	0,082	0,041
-190,431	411,192	0,021	0,033
-189,417	800,000	0,041	0,124
-188,402	-200,000	0,008	-0,074
-187,387	800,000	0,027	0,076
-186,373	73,988	0,072	-0,055
-185,358	-146,668	-0,057	0,004
-184,344	-200,000	-0,017	-0,067
-183,329	-200,000	0,003	0,039
-182,315	-200,000	0,003	-0,070
-181,300	6,683	0,084	-0,045
-180,285	-141,188	-0,042	-0,003
-179,271	-200,000	-0,068	-0,267
-178,256	-53,453	-0,146	-0,048
-177,242	-113,309	0,038	0,005
-176,227	-200,000	-0,008	-0,079
-175,212	800,000	0,026	-0,059
-174,198	-16,453	-0,090	0,041
-173,183	800,000	0,035	-0,076
-172,169	96,221	0,072	-0,060
-171,154	35,763	-0,117	0,074
-170,139	90,296	-0,036	-0,029
-169,125	235,244	0,064	-0,077
-168,110	-145,942	-0,081	-0,005
-167,096	-200,000	-0,021	-0,195
-166,081	-5,394	0,022	-0,011
-165,066	-200,000	0,022	-0,167
-164,052	-200,000	-0,013	-0,094
-163,037	-46,769	-0,066	-0,023
-162,023	191,353	-0,035	0,038
-161,008	-200,000	-0,006	0,046
-159,993	60,675	-0,099	-0,071
-158,979	-108,049	-0,110	-0,017
-157,964	-200,000	-0,022	0,093
-156,950	89,916	-0,143	-0,116
-155,935	170,389	0,127	-0,131
-154,920	-200,000	0,002	-0,023
-153,906	800,000	0,049	0,134
-152,891	-73,186	0,064	-0,017
-151,877	800,000	-0,027	-0,061
-150,862	-13,615	0,064	-0,030
-149,847	584,271	0,065	0,116
-148,833	-200,000	-0,011	0,055
-147,818	-200,000	0,015	-0,220
-146,804	1,567	-0,046	0,024
-145,789	800,000	0,025	0,066
-144,775	33,977	-0,063	-0,039
-143,760	-200,000	0,009	0,071
-142,745	-200,000	-0,016	-0,102
-141,731	238,432	0,018	0,021
-140,716	-146,030	0,107	-0,007
-139,702	146,033	0,070	-0,068
-138,687	145,949	-0,059	0,057
-137,672	158,885	0,096	0,096
-136,658	-200,000	-0,007	-0,063
-135,643	22,094	-0,148	-0,087
-134,629	-200,000	0,010	-0,103
-133,614	800,000	0,036	-0,075
-132,599	62,355	-0,035	0,025
-131,585	-157,438	0,098	0,004
-130,570	-45,981	-0,038	0,013
-129,556	-50,121	-0,103	-0,035
-128,541	293,416	0,028	0,036
-127,526	-200,000	-0,063	0,000
-126,512	-200,000	0,012	0,157
-125,497	-111,819	-0,130	0,019
-124,483	46,962	-0,113	0,076
-123,468	-106,614	-0,074	0,012
-122,453	216,536	0,063	-0,072
-121,439	-200,000	-0,007	0,042
-120,424	162,898	-0,077	-0,078
-119,410	800,000	-0,019	0,048
