DTS Sentinel unit serial number:	SN410029Multiplexer serial number:	ORYXHardware model number:	OX2-SRSoftware version number:	ORYX F/W v4,00 Oryx Data Collector v3.7.2.0data status	okinstallation	B4 Nyhavnadifferential loss correction	single-endedforward channel	channel 2reverse channel	N/Adate	2023/12/16time	01:55:13forward acquisition time	300,00reverse acquisition time	0,00gamma	499,1914k internal	0,3129k external	0,3129temperature offset calibration	1,0000default loss term (dB/km)	0,3820temperature slope calibration	1,0000multiplexer offset coefficient	1,0000multiplexer slope coefficient	1,0000fibre end	0,00T internal ref (°C)	21,94T ext. ref 1 (°C)	7,17T ext. ref 2 (°C)	7,37length (m)	temperature (°C)	Stokes	anti-Stokes-744,400	800,000	0,050	-0,114
-743,385	-127,254	-0,235	0,025
-742,371	-107,200	0,060	0,010
-741,356	361,017	-0,217	0,325
-740,342	-200,000	0,044	0,204
-739,327	240,481	-0,123	0,153
-738,312	800,000	-0,052	-0,168
-737,298	1,801	-0,164	0,088
-736,283	-200,000	0,001	0,061
-735,269	-67,452	-0,240	0,070
-734,254	-123,016	-0,081	0,010
-733,239	-10,104	-0,357	-0,176
-732,225	-50,331	0,094	-0,033
-731,210	627,468	0,064	0,120
-730,196	139,225	0,027	-0,026
-729,181	85,922	-0,079	0,065
-728,167	-200,000	-0,032	-0,122
-727,152	-53,630	-0,095	0,032
-726,137	-200,000	-0,032	0,170
-725,123	-200,000	-0,001	-0,044
-724,108	800,000	0,033	-0,102
-723,094	-200,000	0,017	-0,093
-722,079	-18,875	-0,127	-0,058
-721,064	-200,000	-0,005	-0,097
-720,050	-200,000	0,037	-0,199
-719,035	13,342	0,083	-0,048
-718,021	34,863	-0,157	-0,102
-717,006	800,000	-0,030	-0,068
-715,991	-137,565	-0,143	-0,012
-714,977	800,000	0,081	-0,255
-713,962	-200,000	-0,023	-0,081
-712,948	185,919	-0,042	-0,046
-711,933	-200,000	0,004	0,039
-710,918	3,335	-0,061	0,033
-709,904	218,400	-0,103	-0,123
-708,889	55,295	0,085	-0,061
-707,875	800,000	0,006	0,019
-706,860	411,963	-0,043	0,068
-705,845	-200,000	0,013	0,068
-704,831	33,598	0,177	0,114
-703,816	-96,506	0,007	-0,001
-702,802	773,839	-0,023	-0,047
-701,787	-200,000	0,006	0,058
-700,772	83,520	0,122	0,098
-699,758	-200,000	0,021	0,072
-698,743	4,441	0,055	0,030
-697,729	-47,593	-0,059	0,021
-696,714	-161,986	-0,155	0,006
-695,699	-200,000	-0,003	0,103
-694,685	-200,000	-0,008	-0,129
-693,670	-118,496	-0,226	0,029
-692,656	442,809	0,068	0,110
-691,641	32,873	0,034	-0,022
-690,627	800,000	0,043	-0,094
-689,612	-95,801	-0,153	0,030
-688,597	-200,000	-0,011	0,106
-687,583	-200,000	-0,003	-0,064
-686,568	-200,000	-0,019	-0,070
-685,554	-5,100	-0,085	-0,043
-684,539	177,928	0,051	-0,055
-683,524	220,413	0,102	0,121
-682,510	800,000	-0,051	0,121
-681,495	287,344	-0,051	0,069
-680,481	800,000	-0,030	-0,080
-679,466	-2,090	-0,022	0,011
-678,451	800,000	0,020	0,042
-677,437	-65,122	0,073	-0,022
-676,422	-200,000	0,002	-0,064
-675,408	-13,634	-0,040	-0,019
-674,393	-123,723	-0,044	-0,005
-673,378	-200,000	0,001	0,050
-672,364	33,379	-0,099	0,063
-671,349	22,112	-0,096	0,058
-670,335	35,187	0,059	-0,038
-669,320	-72,199	-0,080	-0,022
-668,305	-63,282	-0,041	0,012
-667,291	800,000	-0,078	0,165
-666,276	-46,683	-0,164	-0,059
-665,262	-200,000	0,007	-0,125
-664,247	-200,000	-0,018	-0,178
-663,232	-200,000	-0,033	-0,163
-662,218	387,227	0,015	-0,022
-661,203	34,844	0,052	-0,033
-660,189	50,667	-0,136	-0,095
-659,174	268,759	-0,008	0,010
-658,159	174,470	-0,084	-0,090
-657,145	371,889	0,072	-0,109
-656,130	183,118	-0,084	-0,092
-655,116	-200,000	0,018	0,068
-654,101	800,000	0,015	-0,032
-653,086	11,502	0,041	-0,023
-652,072	98,079	0,054	-0,046
-651,057	354,558	-0,106	-0,156
-650,043	347,635	-0,060	-0,088
-649,028	555,421	-0,062	-0,112
-648,014	197,362	0,053	0,060
-646,999	29,375	0,127	-0,080
-645,984	-125,937	-0,102	0,011
-644,970	167,839	0,080	0,085
-643,955	243,195	-0,026	-0,032
-642,941	-105,921	-0,059	-0,010
-641,926	800,000	0,006	-0,014
-640,911	-105,420	-0,057	0,010
-639,897	-103,816	0,105	-0,018
-638,882	-200,000	-0,015	0,049
-637,868	-104,822	-0,170	0,029
-636,853	800,000	-0,029	-0,093
-635,838	-200,000	0,033	-0,128
-634,824	800,000	0,056	-0,152
-633,809	622,615	-0,028	-0,052
-632,795	-200,000	0,051	-0,168
-631,780	-200,000	0,011	-0,120
-630,765	208,630	-0,069	0,081
-629,751	740,972	-0,037	-0,075
-628,736	18,799	-0,156	-0,092
-627,722	-88,894	-0,019	-0,004
-626,707	90,925	-0,070	-0,058
-625,692	800,000	-0,063	0,160
-624,678	93,636	0,144	0,121
-623,663	-200,000	0,016	-0,059
-622,649	-0,089	-0,027	0,014
-621,634	-200,000	0,012	-0,119
-620,619	-200,000	0,024	0,196
-619,605	-200,000	0,005	0,059
-618,590	-103,686	-0,117	-0,020
-617,576	219,272	0,144	-0,171
-616,561	-99,359	-0,062	0,011
-615,546	381,932	-0,021	-0,031
-614,532	-38,496	-0,109	-0,042
-613,517	-162,029	-0,082	0,003
-612,503	253,928	0,035	0,044
-611,488	285,729	-0,088	0,117
-610,474	-37,965	-0,051	0,020
-609,459	-62,481	0,048	-0,015
-608,444	-159,854	0,033	-0,001
-607,430	-200,000	-0,004	0,046
-606,415	164,800	-0,050	-0,052
-605,401	226,999	0,073	0,088
-604,386	-200,000	-0,023	0,138
-603,371	-200,000	-0,014	0,089
-602,357	-84,522	0,152	-0,035
-601,342	-114,941	0,063	0,009
-600,328	772,205	-0,072	-0,146
-599,313	173,176	0,012	-0,013
-598,298	27,779	-0,185	-0,115
-597,284	-200,000	-0,012	-0,099
-596,269	-200,000	-0,034	-0,138
-595,255	-200,000	0,010	0,102
-594,240	-200,000	0,027	-0,093
-593,225	134,109	-0,096	0,092
-592,211	771,404	-0,050	-0,102
-591,196	187,601	0,018	0,020
-590,182	387,330	-0,061	0,094
-589,167	72,662	0,122	0,094
-588,152	73,458	-0,060	0,047
-587,138	800,000	0,038	0,115
-586,123	130,749	-0,008	-0,008
-585,109	539,443	0,019	-0,034
-584,094	-200,000	0,032	-0,127
-583,079	199,236	-0,125	0,141
-582,065	-82,916	-0,071	0,017
-581,050	-200,000	0,012	0,056
-580,036	66,002	0,056	-0,042
-579,021	679,704	-0,075	-0,145
-578,006	-200,000	0,011	-0,042
-576,992	736,516	0,057	0,113
-575,977	-122,070	0,073	0,009
-574,963	-28,449	-0,028	0,012
-573,948	-200,000	-0,005	-0,083
-572,934	32,296	0,026	0,016
-571,919	281,308	-0,058	-0,077
-570,904	-96,495	-0,013	-0,003
-569,890	-79,094	0,073	-0,018
-568,875	81,405	0,074	-0,059
-567,861	-108,665	0,115	-0,018
-566,846	50,203	0,136	-0,095
-565,831	-23,880	-0,119	-0,053
-564,817	-200,000	0,009	0,091
-563,802	38,690	-0,070	-0,046
-562,788	-26,501	-0,135	-0,058
-561,773	-178,084	-0,053	-0,001
-560,758	142,707	-0,082	0,080
-559,744	-87,096	-0,036	0,008
-558,729	-200,000	0,004	0,032
-557,715	800,000	-0,049	-0,109
-556,700	12,302	-0,199	-0,113
-555,685	-56,043	0,080	-0,026
-554,671	-121,149	0,066	-0,008
-553,656	-200,000	-0,018	-0,150
-552,642	-128,290	-0,020	-0,002
-551,627	96,427	0,120	0,102
-550,612	317,783	-0,084	0,118
-549,598	-200,000	-0,014	-0,146
-548,583	800,000	0,045	0,125
-547,569	800,000	-0,057	0,118
-546,554	234,442	0,043	-0,053
-545,539	562,071	0,055	0,099
-544,525	-0,423	-0,034	0,018
-543,510	-200,000	-0,030	0,100
-542,496	33,075	0,057	0,036
-541,481	22,961	-0,026	-0,016
-540,466	-147,817	0,155	-0,009
-539,452	-99,312	0,118	-0,022
-538,437	-126,497	0,089	-0,010
-537,423	28,289	-0,016	0,010
-536,408	379,940	0,084	-0,127
-535,393	62,677	0,043	0,031
-534,379	-149,946	-0,189	-0,011
-533,364	-88,126	-0,077	0,017
-532,350	304,463	0,037	-0,051
-531,335	121,948	-0,075	0,069
-530,321	-19,658	0,023	0,010
-529,306	-87,418	-0,141	-0,031
-528,291	113,684	0,040	-0,036
-527,277	-61,371	0,154	-0,048
-526,262	2,463	0,063	-0,033
-525,248	-1,193	0,150	0,078
-524,233	-200,000	0,027	0,093
-523,218	-200,000	-0,009	0,113
-522,204	-200,000	0,005	0,077
-521,189	78,656	0,024	-0,019
-520,175	3,463	-0,040	-0,021
-519,160	7,052	-0,094	-0,052
-518,145	-104,180	0,093	0,016
-517,131	-200,000	0,011	-0,078
-516,116	364,124	-0,032	-0,047
-515,102	800,000	-0,042	0,106
-514,087	-32,052	-0,066	-0,027
-513,072	-42,028	-0,071	-0,026
-512,058	800,000	-0,035	-0,094
-511,043	-200,000	-0,002	-0,007
-510,029	-29,437	-0,056	-0,024
-509,014	447,537	0,054	0,088
-507,999	146,711	0,050	0,050
-506,985	-108,079	-0,043	0,007
-505,970	-121,175	-0,180	-0,022
-504,956	565,558	0,011	-0,019
-503,941	800,000	-0,031	-0,085
-502,926	654,804	-0,049	0,093
-501,912	-126,014	0,071	0,008
-500,897	-100,496	0,069	0,012
-499,883	65,919	-0,116	-0,087
-498,868	28,474	0,041	-0,026
-497,853	511,825	0,028	-0,049
-496,839	332,765	-0,057	0,082
-495,824	-200,000	-0,021	0,076
-494,810	-122,718	-0,015	0,002
-493,795	420,970	0,062	0,099
-492,781	-61,373	-0,072	0,022
-491,766	58,690	0,082	-0,059
-490,751	232,180	-0,049	-0,059
-489,737	-54,582	-0,066	-0,022
-488,722	-35,839	0,170	0,067
-487,708	-68,417	-0,024	-0,007
-486,693	42,374	0,049	0,033
-485,678	117,309	-0,105	0,095
-484,664	-200,000	-0,003	-0,053
-483,649	800,000	0,070	-0,165
-482,635	800,000	-0,021	0,051
-481,620	-145,211	-0,060	0,004
-480,605	-200,000	0,001	-0,019
-479,591	-39,632	0,059	0,022
-478,576	230,694	0,037	-0,045
-477,562	99,193	-0,139	0,119
-476,547	-200,000	0,035	-0,172
-475,532	177,097	-0,091	0,098
-474,518	-11,184	-0,131	0,064
-473,503	-66,618	-0,030	-0,009
-472,489	191,490	0,023	-0,026
-471,474	-18,191	0,058	0,027
-470,459	548,111	0,027	0,047
-469,445	69,932	-0,023	-0,017
-468,430	419,090	0,040	0,063
-467,416	47,832	0,238	0,163
-466,401	800,000	0,039	0,110
-465,386	-200,000	-0,012	0,042
-464,372	-38,113	0,040	0,016
-463,357	-200,000	-0,053	-0,213
-462,343	489,409	-0,076	-0,129
-461,328	166,734	0,024	0,025
-460,313	-200,000	0,019	0,069
-459,299	16,601	0,166	0,096
-458,284	-200,000	-0,023	0,118
-457,270	-200,000	0,004	0,027
-456,255	69,015	-0,109	-0,083
-455,241	800,000	0,023	-0,054
-454,226	187,196	-0,065	0,072
-453,211	-140,507	0,035	-0,003
-452,197	164,991	-0,102	0,106
-451,182	-189,825	-0,063	0,001
-450,168	-83,595	-0,153	0,036
-449,153	-134,122	0,078	0,007
-448,138	-26,936	0,025	0,011
-447,124	133,191	-0,053	-0,050
-446,109	54,891	-0,079	0,056
-445,095	-7,175	-0,051	0,025
-444,080	258,309	-0,028	-0,035
-443,065	-200,000	0,048	0,200
-442,051	-16,872	0,037	0,017
-441,036	-5,861	-0,042	0,021
-440,022	800,000	0,015	0,036
-439,007	-24,115	0,090	-0,039
-437,992	-65,484	0,039	0,011
-436,978	-85,311	0,036	0,008
-435,963	133,249	-0,128	0,121
-434,949	332,819	-0,038	-0,054
-433,934	404,735	-0,095	-0,148
-432,919	800,000	0,030	-0,080
-431,905	-80,489	0,117	-0,028
-430,890	102,317	-0,026	0,023
-429,876	-110,002	-0,047	0,007
-428,861	78,009	0,148	-0,116
-427,846	-200,000	-0,016	0,064
-426,832	800,000	-0,060	0,146
-425,817	-41,003	-0,047	-0,018
-424,803	140,445	-0,079	0,076
-423,788	800,000	0,027	0,085
-422,773	800,000	-0,033	-0,076
-421,759	7,010	0,158	0,086
-420,744	-200,000	-0,027	-0,160
-419,730	-200,000	-0,003	-0,013
-418,715	-116,116	-0,057	0,008
-417,701	58,053	0,122	0,087
-416,686	350,798	-0,051	-0,074
-415,671	-41,949	0,028	-0,011
-414,657	136,687	-0,073	0,070
-413,642	-200,000	-0,006	0,086
-412,628	800,000	-0,041	0,115
-411,613	12,846	0,097	0,055
-410,598	-200,000	-0,019	0,093
-409,584	-200,000	0,023	-0,093
-408,569	-200,000	-0,009	0,090
-407,555	800,000	0,062	0,154
-406,540	800,000	0,011	0,031
-405,525	-134,317	-0,052	0,005
-404,511	329,112	-0,028	0,040
-403,496	800,000	-0,005	0,015
-402,482	800,000	-0,080	-0,192
-401,467	162,400	-0,037	0,038
-400,452	-200,000	0,009	0,034
-399,438	9,974	0,054	-0,030
-398,423	148,771	-0,045	-0,045
-397,409	52,962	-0,107	0,075
-396,394	216,255	-0,051	-0,059
-395,379	-200,000	0,000	-0,001
-394,365	-64,962	0,198	0,058
-393,350	206,542	-0,041	-0,047
-392,336	293,615	-0,034	0,046
-391,321	44,572	0,078	-0,053
-390,306	261,326	-0,118	-0,151
-389,292	183,959	-0,047	-0,051
-388,277	395,269	0,046	-0,071
-387,263	-200,000	0,016	0,075
-386,248	800,000	0,009	0,023
-385,233	476,122	0,005	-0,009
-384,219	-24,227	0,097	0,042
-383,204	800,000	0,026	-0,074
-382,190	-200,000	-0,003	0,097
-381,175	241,353	-0,070	-0,086
-380,160	67,329	0,060	-0,045
-379,146	800,000	-0,009	-0,026
-378,131	275,200	0,055	0,071
-377,117	29,902	-0,142	0,089
-376,102	-200,000	0,005	-0,055
-375,088	-5,628	0,077	0,038
-374,073	-200,000	-0,012	-0,097
-373,058	115,477	0,031	0,028
-372,044	84,568	-0,018	0,015
-371,029	129,285	0,104	-0,098
-370,015	-200,000	0,001	0,063
-369,000	6,228	0,110	-0,060
-367,985	129,213	-0,103	-0,097
-366,971	53,373	0,045	0,031
-365,956	527,154	0,046	0,079
-364,942	-101,294	-0,047	-0,008
-363,927	-103,758	0,042	0,007
-362,912	558,537	-0,057	0,102
-361,898	-81,937	-0,172	-0,041
-360,883	-200,000	-0,002	-0,084
-359,869	778,913	-0,045	-0,091
-358,854	26,862	0,104	0,063
-357,839	-55,784	0,098	-0,032
-356,825	237,921	0,066	-0,080
-355,810	-24,995	-0,061	-0,026
-354,796	50,232	-0,090	-0,062
-353,781	800,000	-0,003	-0,006
-352,766	283,551	-0,033	0,043
-351,752	38,145	-0,108	0,070
-350,737	800,000	0,047	0,136
-349,723	-200,000	-0,001	0,143
-348,708	-200,000	0,010	0,136
-347,693	-31,390	-0,117	-0,048
-346,679	674,319	-0,090	0,172
-345,664	-115,196	-0,141	0,019
-344,650	-70,830	0,078	-0,022
-343,635	-200,000	0,000	-0,107
-342,620	800,000	0,029	0,086
-341,606	-168,050	0,047	-0,001
-340,591	92,923	0,010	-0,008
-339,577	388,632	-0,028	0,042
-338,562	-66,581	-0,054	0,016
-337,548	-17,017	0,078	-0,036
-336,533	175,075	-0,023	-0,024
-335,518	-200,000	-0,001	0,008
-334,504	150,421	0,094	-0,093
-333,489	166,059	-0,091	0,094
-332,475	-43,643	-0,147	-0,054
-331,460	78,644	-0,069	-0,054
-330,445	-200,000	-0,007	0,096
-329,431	-200,000	-0,002	-0,169
-328,416	760,498	0,058	-0,116
-327,402	187,301	-0,073	-0,080
-326,387	-114,040	0,127	-0,018
-325,372	335,334	-0,075	0,107
-324,358	135,690	-0,048	-0,046
-323,343	800,000	0,048	0,138
-322,329	-200,000	0,001	0,085
-321,314	30,265	0,037	0,023
-320,299	-79,121	-0,062	0,015
-319,285	36,465	-0,060	0,039
-318,270	-32,407	-0,014	-0,006
-317,256	-144,385	0,131	-0,009
-316,241	115,383	0,097	-0,087
-315,226	-200,000	0,008	0,143
-314,212	800,000	0,023	0,070
-313,197	208,234	0,045	0,051
-312,183	-200,000	0,010	-0,070
-311,168	96,201	0,106	-0,089
-310,153	-200,000	-0,001	0,074
-309,139	800,000	-0,036	-0,074
-308,124	-46,156	0,019	0,007
-307,110	-200,000	-0,010	-0,082
-306,095	800,000	-0,051	0,136
-305,080	465,312	-0,065	-0,107
-304,066	120,432	-0,127	-0,116
-303,051	-33,667	-0,043	0,017
-302,037	21,344	0,075	0,044
-301,022	-79,882	0,066	-0,016
-300,008	207,179	0,042	0,048
-298,993	-150,527	-0,023	0,001
-297,978	-22,147	0,106	-0,047
-296,964	-200,000	0,003	0,045
-295,949	-200,000	-0,015	-0,122
-294,935	-129,519	-0,079	-0,008
-293,920	-200,000	-0,030	-0,115
-292,905	66,864	-0,016	-0,012
-291,891	-73,846	0,131	-0,035
-290,876	54,621	0,070	0,050
-289,862	411,836	-0,091	-0,142
-288,847	-200,000	-0,007	-0,038
-287,832	-42,263	0,103	-0,038
-286,818	-200,000	0,000	-0,006
-285,803	-22,026	0,178	0,079
-284,789	351,459	0,093	0,134
-283,774	-23,921	0,080	0,035
-282,759	33,091	-0,088	0,056
-281,745	329,310	0,044	0,062
-280,730	-94,658	0,072	-0,014
-279,716	-200,000	0,006	-0,110
-278,701	800,000	0,047	-0,138
-277,686	229,454	0,044	-0,053
-276,672	800,000	0,017	-0,038
-275,657	-68,055	0,043	0,012
-274,643	13,570	0,089	0,051
-273,628	-200,000	-0,036	-0,157
-272,613	91,070	0,019	-0,016
-271,599	800,000	-0,019	0,061
-270,584	800,000	-0,046	-0,129
-269,570	-148,403	0,182	0,011
-268,555	800,000	0,030	0,069
-267,540	237,887	0,133	-0,162
-266,526	800,000	-0,039	0,084
-265,511	68,875	0,023	-0,018
-264,497	-111,332	0,114	-0,017
-263,482	39,969	0,071	0,046
-262,467	800,000	0,039	0,086
-261,453	-123,687	0,066	-0,008
-260,438	-200,000	-0,013	0,068
-259,424	128,026	0,022	-0,020
-258,409	-98,583	0,114	-0,021
-257,395	-4,295	0,072	0,036
-256,380	-142,976	-0,038	-0,003
-255,365	-2,573	-0,086	0,044
-254,351	-200,000	-0,007	0,054
-253,336	-89,994	-0,076	-0,016
-252,322	-200,000	-0,008	-0,059
-251,307	800,000	0,057	0,159
-250,292	-200,000	-0,034	-0,141
-249,278	-200,000	-0,009	0,094
-248,263	800,000	0,018	0,046
-247,249	7,914	0,084	-0,046
-246,234	237,674	0,040	-0,049
-245,219	-100,772	-0,095	-0,017
-244,205	-3,449	0,138	-0,070
-243,190	800,000	-0,043	0,097
-242,176	-102,424	0,022	0,004
-241,161	66,397	0,140	-0,103
-240,146	-13,873	0,143	0,067
-239,132	-200,000	0,004	0,109
-238,117	18,642	-0,080	-0,047
-237,103	-200,000	-0,011	-0,115
-236,088	800,000	-0,039	0,101
-235,073	-200,000	0,005	0,120
-234,059	-200,000	-0,002	0,061
-233,044	-53,668	0,080	-0,027
-232,030	-117,716	-0,110	-0,014
-231,015	45,849	0,020	-0,013
-230,000	-200,000	-0,011	-0,205
-228,986	-25,327	0,051	-0,022
-227,971	169,278	0,036	0,038
-226,957	-53,295	-0,134	-0,044
-225,942	-91,316	-0,038	-0,008
-224,927	-115,484	-0,082	-0,011
-223,913	-200,000	0,022	0,075
-222,898	-12,988	-0,145	-0,068
-221,884	-70,309	-0,005	-0,001
-220,869	-21,813	0,057	0,025
-219,855	-54,675	0,035	0,011
-218,840	140,065	0,051	0,049
-217,825	-23,874	0,027	-0,012
-216,811	-200,000	-0,005	-0,032
-215,796	39,011	-0,083	-0,054
-214,782	800,000	0,053	-0,141
-213,767	-22,297	-0,091	0,040
-212,752	800,000	0,013	0,029
-211,738	-105,323	-0,114	-0,019
-210,723	-56,477	-0,094	-0,030
-209,709	-200,000	0,007	-0,108
-208,694	778,086	-0,068	-0,136
-207,679	174,657	-0,084	-0,089
-206,665	188,583	-0,052	-0,057
-205,650	-186,264	0,160	-0,002
-204,636	800,000	-0,018	-0,042
-203,621	-131,635	0,093	-0,009
-202,606	502,052	-0,076	0,129
-201,592	800,000	0,017	-0,044
-200,577	-200,000	-0,018	-0,059
-199,563	181,164	0,049	-0,052
-198,548	85,279	0,078	-0,062
-197,533	-59,650	0,111	0,034
-196,519	800,000	-0,045	0,120
-195,504	-40,949	-0,144	-0,054
-194,490	71,360	-0,036	0,027
-193,475	146,747	0,136	0,133
-192,460	4,211	-0,125	0,066
-191,446	-200,000	0,012	0,067
-190,431	164,746	0,164	0,169
-189,417	800,000	0,048	0,110
-188,402	608,379	-0,082	0,150
-187,387	409,017	-0,065	-0,100
-186,373	195,056	0,003	0,003
-185,358	-200,000	-0,003	-0,027
-184,344	-200,000	-0,003	-0,041
-183,329	-164,538	0,126	0,004
-182,315	800,000	-0,034	-0,102
-181,300	-87,011	0,110	0,024
-180,285	-120,241	-0,185	0,023
-179,271	684,475	0,046	-0,088
-178,256	321,803	-0,059	0,082
-177,242	210,083	-0,006	0,006
-176,227	13,184	-0,041	0,023
-175,212	-98,272	-0,087	-0,016
-174,198	-55,822	0,147	-0,047
-173,183	-200,000	0,012	-0,089
-172,169	-43,938	0,041	0,015
-171,154	-200,000	0,023	-0,148
-170,139	-172,691	-0,090	0,002
-169,125	-200,000	-0,019	0,094
-168,110	32,764	0,097	-0,061
-167,096	-97,175	0,075	-0,014
-166,081	329,559	0,028	-0,039
-165,066	800,000	-0,033	-0,095
-164,052	-139,115	-0,119	-0,009
-163,037	-9,636	-0,073	0,035
-162,023	171,736	0,075	-0,078
-161,008	800,000	0,033	0,070
-159,993	-131,827	0,087	0,008
-158,979	-77,878	-0,071	0,018
-157,964	800,000	-0,052	0,124
-156,950	-67,299	0,064	-0,018
-155,935	-69,058	0,096	-0,027
-154,920	503,990	0,055	0,094
-153,906	-200,000	-0,003	0,082
-152,891	800,000	-0,046	0,101
-151,877	96,766	0,092	-0,076
-150,862	4,720	-0,153	0,082
-149,847	504,210	-0,046	0,077
-148,833	724,313	-0,069	0,135
-147,818	800,000	0,031	-0,084
-146,804	-94,194	0,055	0,011
-145,789	800,000	0,034	-0,077
-144,775	737,111	-0,019	-0,036
-143,760	-200,000	-0,018	0,096
-142,745	800,000	-0,052	-0,111
-141,731	39,444	-0,046	-0,030
-140,716	616,481	-0,045	0,083
-139,702	-128,677	-0,058	0,006
-138,687	800,000	0,053	0,145
-137,672	-200,000	0,007	0,117
-136,658	472,637	0,003	-0,005
-135,643	-200,000	-0,024	-0,156
-134,629	800,000	0,028	0,074
-133,614	328,591	-0,074	0,103
-132,599	47,509	-0,033	0,022
-131,585	-116,210	0,297	0,040
-130,570	-53,771	-0,077	0,025
-129,556	249,832	-0,023	0,029
-128,541	-200,000	-0,024	-0,183
-127,526	-4,266	-0,127	-0,064
-126,512	173,150	0,056	0,059
-125,497	-81,652	0,051	0,012
-124,483	-200,000	-0,019	0,070
-123,468	16,787	0,032	-0,018
-122,453	492,395	-0,043	-0,071
-121,439	-200,000	-0,009	-0,032
-120,424	800,000	0,051	-0,151
-119,410	-78,984	0,085	-0,021
