DTS Sentinel unit serial number:	SN410029Multiplexer serial number:	ORYXHardware model number:	OX2-SRSoftware version number:	ORYX F/W v4,00 Oryx Data Collector v3.7.2.0data status	okinstallation	B4 Nyhavnadifferential loss correction	single-endedforward channel	channel 2reverse channel	N/Adate	2023/12/16time	09:10:13forward acquisition time	300,00reverse acquisition time	0,00gamma	499,1914k internal	0,3126k external	0,3126temperature offset calibration	1,0000default loss term (dB/km)	0,3820temperature slope calibration	1,0000multiplexer offset coefficient	1,0000multiplexer slope coefficient	1,0000fibre end	0,00T internal ref (°C)	22,89T ext. ref 1 (°C)	8,81T ext. ref 2 (°C)	8,97length (m)	temperature (°C)	Stokes	anti-Stokes-744,400	-200,000	-0,001	-0,094
-743,385	10,125	-0,105	0,059
-742,371	82,809	-0,133	0,108
-741,356	341,046	-0,084	0,123
-740,342	51,914	0,107	-0,076
-739,327	-55,004	-0,331	0,110
-738,312	-148,463	-0,046	0,003
-737,298	-46,582	-0,233	0,085
-736,283	-200,000	-0,010	-0,077
-735,269	-200,000	-0,007	0,063
-734,254	800,000	-0,024	0,055
-733,239	-182,102	-0,293	-0,004
-732,225	-107,990	0,044	0,007
-731,210	98,610	-0,076	-0,066
-730,196	-200,000	-0,032	-0,142
-729,181	25,762	-0,144	-0,089
-728,167	-200,000	-0,029	0,129
-727,152	-9,183	-0,120	-0,060
-726,137	484,960	0,018	0,031
-725,123	583,285	-0,045	-0,082
-724,108	139,109	-0,069	-0,068
-723,094	40,049	0,013	-0,009
-722,079	-128,518	-0,164	-0,017
-721,064	800,000	0,013	0,036
-720,050	-50,514	-0,062	0,022
-719,035	787,235	-0,015	-0,031
-718,021	800,000	-0,065	-0,137
-717,006	-48,811	-0,082	0,029
-715,991	-200,000	0,005	-0,029
-714,977	800,000	-0,045	-0,098
-713,962	-200,000	-0,018	-0,126
-712,948	614,166	-0,017	-0,033
-711,933	800,000	-0,014	0,039
-710,918	-200,000	0,030	-0,119
-709,904	635,047	-0,075	-0,141
-708,889	-200,000	-0,005	-0,110
-707,875	46,488	-0,108	-0,074
-706,860	642,308	0,009	0,017
-705,845	113,268	0,067	-0,060
-704,831	-200,000	-0,011	0,132
-703,816	-200,000	-0,009	0,034
-702,802	-28,474	-0,087	0,037
-701,787	31,735	-0,102	-0,065
-700,772	-132,324	-0,189	-0,018
-699,758	36,189	-0,100	0,065
-698,743	-91,209	-0,029	-0,006
-697,729	800,000	0,025	0,052
-696,714	-18,770	-0,009	-0,004
-695,699	-20,721	-0,151	0,068
-694,685	443,774	-0,017	-0,029
-693,670	521,512	-0,064	-0,113
-692,656	-83,869	-0,035	0,008
-691,641	800,000	0,010	-0,027
-690,627	800,000	0,042	0,088
-689,612	-200,000	0,005	0,038
-688,597	435,106	-0,046	-0,075
-687,583	-167,521	-0,016	-0,000
-686,568	-138,576	0,058	-0,005
-685,554	800,000	0,025	0,080
-684,539	-12,964	0,063	-0,030
-683,524	-200,000	0,008	0,041
-682,510	800,000	-0,045	0,102
-681,495	73,077	-0,087	-0,067
-680,481	131,989	-0,053	-0,051
-679,466	-110,097	-0,078	0,012
-678,451	-30,265	-0,068	-0,028
-677,437	426,220	-0,078	0,126
-676,422	-200,000	0,125	-0,000
-675,408	470,071	0,077	0,129
-674,393	-123,210	-0,035	-0,004
-673,378	-160,473	-0,168	0,007
-672,364	162,332	-0,068	-0,071
-671,349	291,787	-0,036	-0,048
-670,335	333,836	-0,074	-0,106
-669,320	139,497	0,043	-0,042
-668,305	-200,000	0,031	0,122
-667,291	196,448	-0,073	0,083
-666,276	302,631	0,011	-0,015
-665,262	-75,249	-0,193	0,051
-664,247	-89,859	0,112	-0,024
-663,232	-200,000	0,009	0,125
-662,218	416,881	0,083	0,132
-661,203	-200,000	-0,016	-0,064
-660,189	-178,040	0,114	-0,002
-659,174	-200,000	0,007	-0,048
-658,159	-25,976	-0,162	-0,070
-657,145	-21,102	-0,068	-0,031
-656,130	-169,242	-0,125	-0,003
-655,116	714,791	-0,058	-0,115
-654,101	59,771	0,060	-0,044
-653,086	9,250	0,063	0,035
-652,072	309,538	0,022	-0,031
-651,057	-27,721	-0,030	-0,013
-650,043	9,386	-0,036	-0,020
-649,028	370,295	-0,061	-0,092
-648,014	88,392	0,109	0,090
-646,999	-200,000	0,008	0,040
-645,984	293,795	0,012	0,017
-644,970	800,000	0,011	0,029
-643,955	-200,000	-0,003	-0,061
-642,941	-60,888	-0,007	0,002
-641,926	-16,283	0,112	-0,053
-640,911	-21,879	-0,053	-0,024
-639,897	-156,373	-0,047	0,002
-638,882	168,398	-0,050	-0,053
-637,868	-75,080	-0,089	0,023
-636,853	40,269	-0,045	0,030
-635,838	-131,420	-0,155	-0,015
-634,824	-19,058	0,039	-0,018
-633,809	-19,276	-0,117	0,054
-632,795	45,118	0,090	0,061
-631,780	467,710	0,045	-0,075
-630,765	-147,102	-0,040	-0,003
-629,751	104,936	0,043	0,037
-628,736	800,000	-0,025	-0,057
-627,722	46,942	0,084	-0,058
-626,707	-200,000	0,016	0,063
-625,692	21,202	-0,064	0,038
-624,678	-200,000	0,033	0,162
-623,663	25,982	0,182	-0,113
-622,649	-24,172	0,041	-0,018
-621,634	-121,744	-0,176	0,021
-620,619	-97,220	0,068	-0,013
-619,605	800,000	-0,048	-0,105
-618,590	-80,370	0,078	0,019
-617,576	-91,523	-0,075	-0,016
-616,561	-20,894	0,056	-0,025
-615,546	255,397	0,051	-0,064
-614,532	423,586	-0,068	-0,109
-613,517	47,187	-0,139	0,096
-612,503	800,000	-0,045	0,131
-611,488	125,981	-0,061	0,057
-610,474	7,132	0,056	-0,031
-609,459	599,049	0,049	-0,090
-608,444	-62,132	-0,091	0,028
-607,430	-105,378	0,067	0,011
-606,415	800,000	-0,064	-0,142
-605,401	-200,000	0,054	-0,181
-604,386	-81,558	-0,103	-0,025
-603,371	-92,772	0,107	0,022
-602,357	-200,000	0,002	-0,061
-601,342	800,000	-0,003	-0,008
-600,328	407,937	-0,049	-0,078
-599,313	19,581	-0,033	-0,019
-598,298	-121,793	0,149	0,018
-597,284	-200,000	0,011	0,058
-596,269	-200,000	0,041	0,000
-595,255	800,000	0,009	0,023
-594,240	553,267	-0,074	-0,132
-593,225	-200,000	-0,005	-0,024
-592,211	800,000	-0,003	-0,010
-591,196	-144,797	-0,041	-0,003
-590,182	-191,108	-0,038	0,000
-589,167	474,004	-0,034	0,057
-588,152	82,021	-0,065	0,052
-587,138	18,705	-0,087	-0,051
-586,123	103,034	-0,073	-0,064
-585,109	584,274	0,070	-0,128
-584,094	-67,258	-0,033	0,009
-583,079	-39,244	0,116	0,045
-582,065	112,767	0,091	0,082
-581,050	77,406	0,033	-0,026
-580,036	546,337	-0,074	0,132
-579,021	-200,000	-0,095	0,000
-578,006	-200,000	0,003	-0,071
-576,992	-78,130	-0,072	-0,018
-575,977	-200,000	-0,002	-0,011
-574,963	800,000	-0,068	0,144
-573,948	-124,111	0,066	0,008
-572,934	188,008	0,057	0,063
-571,919	-200,000	-0,125	0,000
-570,904	-200,000	-0,001	0,044
-569,890	138,518	0,116	-0,112
-568,875	302,968	-0,061	-0,084
-567,861	-200,000	-0,001	-0,123
-566,846	76,260	-0,063	0,050
-565,831	-14,515	-0,116	-0,055
-564,817	53,249	-0,022	-0,015
-563,802	-66,741	-0,045	-0,013
-562,788	-129,527	-0,165	0,017
-561,773	324,779	0,018	-0,026
-560,758	-200,000	0,016	0,122
-559,744	-87,420	0,065	0,015
-558,729	552,333	-0,026	-0,047
-557,715	-45,479	-0,049	-0,018
-556,700	800,000	-0,017	-0,055
-555,685	734,474	0,025	0,049
-554,671	-115,861	0,089	0,012
-553,656	-200,000	-0,013	0,075
-552,642	129,175	0,049	-0,046
-551,627	-164,375	-0,047	-0,002
-550,612	337,093	0,022	-0,032
-549,598	182,848	-0,023	-0,025
-548,583	241,367	0,094	-0,116
-547,569	68,571	-0,041	0,031
-546,554	230,280	0,104	0,126
-545,539	404,787	0,058	-0,091
-544,525	-200,000	0,008	-0,104
-543,510	-65,669	0,008	-0,002
-542,496	197,169	-0,091	-0,103
-541,481	-200,000	-0,007	-0,069
-540,466	-31,531	-0,113	-0,047
-539,452	104,129	0,069	0,060
-538,437	-200,000	0,002	0,065
-537,423	547,101	0,031	0,056
-536,408	406,561	0,020	0,032
-535,393	654,047	0,039	-0,074
-534,379	340,660	0,105	-0,152
-533,364	-108,287	-0,093	0,015
-532,350	-200,000	-0,004	0,086
-531,335	76,141	-0,016	-0,012
-530,321	661,227	0,022	0,042
-529,306	469,832	-0,036	-0,060
-528,291	170,264	0,059	-0,063
-527,277	274,701	-0,106	-0,139
-526,262	146,192	-0,070	0,069
-525,248	-200,000	0,027	0,097
-524,233	76,948	0,018	0,014
-523,218	800,000	0,033	0,076
-522,204	27,708	0,048	-0,030
-521,189	-200,000	-0,000	0,055
-520,175	-122,731	-0,072	-0,009
-519,160	-200,000	-0,007	-0,040
-518,145	-200,000	-0,004	0,049
-517,131	6,892	0,081	-0,045
-516,116	21,243	0,096	0,057
-515,102	800,000	-0,056	-0,128
-514,087	-19,977	-0,034	-0,015
-513,072	-59,459	-0,024	0,008
-512,058	302,911	-0,058	-0,079
-511,043	-85,316	0,209	-0,048
-510,029	277,576	0,042	-0,055
-509,014	61,586	0,068	-0,049
-507,999	-98,959	0,055	0,010
-506,985	282,153	-0,079	-0,105
-505,970	800,000	0,043	0,093
-504,956	-200,000	0,015	0,079
-503,941	-60,603	-0,034	0,010
-502,926	-200,000	0,011	0,137
-501,912	-22,749	0,151	0,067
-500,897	350,610	-0,039	0,057
-499,883	-39,320	-0,034	0,013
-498,868	-27,807	-0,056	0,024
-497,853	800,000	0,032	-0,092
-496,839	-70,754	-0,163	-0,045
-495,824	-200,000	0,003	0,106
-494,810	365,141	-0,025	-0,038
-493,795	-135,556	0,048	-0,004
-492,781	-150,329	-0,069	0,004
-491,766	502,355	-0,057	0,098
-490,751	135,170	-0,007	-0,006
-489,737	-200,000	0,002	0,060
-488,722	-200,000	0,024	0,260
-487,708	644,222	-0,055	0,103
-486,693	-200,000	0,018	0,062
-485,678	124,813	0,061	0,057
-484,664	1,299	0,020	0,010
-483,649	526,558	0,064	-0,111
-482,635	800,000	-0,027	0,070
-481,620	147,507	-0,087	-0,087
-480,605	-24,014	0,106	-0,047
-479,591	589,530	-0,003	-0,005
-478,576	113,852	-0,073	0,065
-477,562	54,620	-0,131	0,093
-476,547	-200,000	0,020	-0,090
-475,532	9,917	0,044	0,025
-474,518	91,239	0,113	0,093
-473,503	-200,000	-0,033	-0,124
-472,489	318,766	0,066	0,092
-471,474	78,341	0,043	0,034
-470,459	-200,000	0,029	-0,095
-469,445	-200,000	0,000	0,055
-468,430	528,120	0,065	-0,114
-467,416	-200,000	0,019	-0,106
-466,401	-200,000	-0,010	0,037
-465,386	800,000	-0,023	0,051
-464,372	-156,621	-0,052	0,002
-463,357	-85,908	-0,160	0,036
-462,343	-200,000	-0,024	-0,101
-461,328	-18,274	-0,113	-0,052
-460,313	-95,878	0,080	0,016
-459,299	-157,291	-0,143	0,006
-458,284	380,758	-0,028	-0,043
-457,270	-200,000	0,020	0,105
-456,255	437,410	-0,028	-0,046
-455,241	-41,149	0,024	0,009
-454,226	-200,000	-0,009	0,117
-453,211	800,000	0,052	-0,137
-452,197	-200,000	-0,042	0,141
-451,182	800,000	0,064	0,148
-450,168	800,000	-0,058	-0,119
-449,153	800,000	-0,057	-0,126
-448,138	-24,434	0,087	-0,038
-447,124	314,858	0,031	0,042
-446,109	436,426	-0,023	0,037
-445,095	-193,916	0,088	0,001
-444,080	800,000	-0,006	-0,016
-443,065	-200,000	-0,001	0,043
-442,051	116,161	-0,036	-0,032
-441,036	-200,000	0,000	0,023
-440,022	-22,649	-0,103	-0,046
-439,007	2,565	0,061	0,032
-437,992	183,179	0,033	0,035
-436,978	-200,000	0,011	0,074
-435,963	-83,064	-0,033	0,008
-434,949	-200,000	-0,010	-0,181
-433,934	-57,522	0,063	-0,020
-432,919	800,000	-0,022	-0,054
-431,905	369,999	0,026	-0,038
-430,890	643,535	0,031	-0,058
-429,876	-200,000	-0,008	0,043
-428,861	152,288	-0,033	0,033
-427,846	-12,931	-0,115	-0,055
-426,832	800,000	0,003	0,008
-425,817	32,050	-0,117	0,074
-424,803	800,000	-0,031	-0,070
-423,788	-71,417	-0,199	0,054
-422,773	-72,148	-0,040	-0,011
-421,759	372,823	-0,061	-0,091
-420,744	-200,000	-0,029	0,095
-419,730	-150,596	0,229	-0,013
-418,715	0,258	-0,088	0,046
-417,701	800,000	-0,029	-0,064
-416,686	635,288	-0,013	-0,024
-415,671	268,426	0,043	-0,056
-414,657	-30,443	-0,098	0,041
-413,642	-170,079	0,094	-0,002
-412,628	-93,019	-0,084	-0,017
-411,613	-49,744	-0,038	0,013
-410,598	-162,131	0,044	0,002
-409,584	160,029	-0,092	-0,095
-408,569	-41,529	0,210	-0,079
-407,555	582,165	-0,012	-0,022
-406,540	396,273	0,035	0,053
-405,525	-200,000	0,008	0,033
-404,511	-171,298	-0,112	-0,003
-403,496	197,836	0,048	-0,054
-402,482	291,883	0,058	0,078
-401,467	-29,191	0,069	0,029
-400,452	-9,235	0,095	0,047
-399,438	34,118	0,037	0,024
-398,423	-66,099	-0,090	0,026
-397,409	-42,902	0,025	0,009
-396,394	800,000	-0,024	-0,057
-395,379	219,127	-0,033	-0,038
-394,365	-136,460	-0,032	-0,003
-393,350	-200,000	0,006	0,020
-392,336	248,128	0,036	0,045
-391,321	61,845	0,036	0,027
-390,306	-118,249	-0,139	0,018
-389,292	-200,000	-0,013	-0,071
-388,277	-184,726	0,067	-0,001
-387,263	-108,475	-0,036	0,006
-386,248	-200,000	-0,009	0,091
-385,233	193,727	0,131	0,146
-384,219	-200,000	0,008	-0,054
-383,204	3,867	-0,049	0,026
-382,190	59,602	0,036	-0,026
-381,175	800,000	-0,053	-0,145
-380,160	252,799	0,039	0,049
-379,146	548,181	-0,008	-0,013
-378,131	-200,000	-0,031	-0,114
-377,117	241,757	-0,060	0,074
-376,102	-82,533	0,047	0,011
-375,088	357,666	-0,064	-0,094
-374,073	15,376	0,130	-0,075
-373,058	-37,421	0,133	0,052
-372,044	800,000	0,115	0,238
-371,029	-200,000	0,034	-0,119
-370,015	-168,097	-0,096	0,003
-369,000	100,667	-0,039	0,033
-367,985	-200,000	0,040	-0,180
-366,971	-200,000	0,045	-0,154
-365,956	4,281	0,046	-0,025
-364,942	-200,000	0,007	0,083
-363,927	20,407	0,151	0,089
-362,912	-23,602	0,133	-0,058
-361,898	800,000	-0,011	-0,030
-360,883	200,798	-0,034	-0,038
-359,869	-200,000	0,020	-0,149
-358,854	-104,642	0,108	0,018
-357,839	-100,076	0,016	0,003
-356,825	-200,000	-0,009	0,135
-355,810	376,866	0,035	-0,052
-354,796	-200,000	-0,012	0,039
-353,781	56,655	-0,073	0,052
-352,766	-54,308	-0,025	-0,008
-351,752	-200,000	0,016	0,083
-350,737	221,587	0,149	0,176
-349,723	531,778	0,029	0,050
-348,708	-200,000	0,022	0,161
-347,693	-137,663	-0,074	0,006
-346,679	41,921	0,065	-0,043
-345,664	-200,000	-0,008	-0,080
-344,650	-200,000	0,003	-0,059
-343,635	133,031	-0,068	-0,064
-342,620	174,865	0,166	0,176
-341,606	-138,631	0,022	-0,002
-340,591	-12,107	-0,052	-0,025
-339,577	-200,000	0,001	-0,018
-338,562	800,000	-0,021	-0,046
-337,548	265,200	-0,036	-0,046
-336,533	-35,719	-0,032	-0,012
-335,518	74,645	0,056	-0,043
-334,504	-99,148	-0,124	-0,023
-333,489	120,647	0,084	-0,077
-332,475	36,830	-0,037	-0,024
-331,460	325,240	-0,064	-0,089
-330,445	-153,305	-0,020	-0,001
-329,431	106,067	0,028	-0,024
-328,416	-200,000	-0,006	0,180
-327,402	141,238	0,120	0,117
-326,387	-55,157	-0,151	0,049
-325,372	800,000	0,046	-0,135
-324,358	-65,812	0,048	0,014
-323,343	-200,000	0,015	-0,110
-322,329	800,000	0,011	0,031
-321,314	-200,000	-0,020	-0,073
-320,299	317,959	0,040	0,055
-319,285	-51,446	-0,048	0,016
-318,270	-200,000	0,006	-0,082
-317,256	-110,454	0,075	0,011
-316,241	23,882	-0,032	0,019
-315,226	-48,923	-0,097	0,034
-314,212	96,251	0,141	0,118
-313,197	-196,808	-0,026	-0,000
-312,183	800,000	0,059	-0,128
-311,168	-200,000	0,001	-0,087
-310,153	-5,985	-0,061	-0,030
-309,139	800,000	-0,046	-0,124
-308,124	83,747	-0,053	0,042
-307,110	-200,000	-0,006	0,202
-306,095	-200,000	0,013	0,057
-305,080	-111,760	0,032	0,005
-304,066	-200,000	0,003	-0,029
-303,051	422,109	0,019	-0,030
-302,037	300,112	-0,091	0,123
-301,022	-178,243	0,059	-0,001
-300,008	291,429	0,062	0,083
-298,993	-21,453	0,204	0,091
-297,978	201,247	-0,089	0,100
-296,964	800,000	0,029	0,073
-295,949	646,618	-0,079	-0,148
-294,935	39,546	-0,127	-0,083
-293,920	135,448	-0,087	-0,083
-292,905	492,376	-0,027	0,046
-291,891	-58,357	0,089	0,028
-290,876	-32,151	-0,072	-0,029
-289,862	800,000	0,054	-0,121
-288,847	649,805	0,050	-0,094
-287,832	-200,000	-0,017	-0,062
-286,818	564,538	0,021	-0,037
-285,803	202,762	-0,032	-0,036
-284,789	-200,000	0,011	0,082
-283,774	-52,076	0,101	-0,034
-282,759	-12,961	-0,107	-0,051
-281,745	-66,405	0,080	-0,023
-280,730	-114,303	-0,028	0,004
-279,716	367,074	-0,101	0,150
-278,701	31,994	0,032	-0,020
-277,686	-200,000	-0,004	-0,077
-276,672	57,578	0,059	0,042
-275,657	7,915	-0,167	-0,091
-274,643	800,000	-0,016	-0,035
-273,628	-166,400	0,081	0,002
-272,613	-200,000	-0,005	0,053
-271,599	800,000	0,031	-0,093
-270,584	68,515	0,113	0,085
-269,570	-189,000	-0,046	0,000
-268,555	117,257	0,105	0,094
-267,540	-200,000	-0,002	-0,052
-266,526	-16,977	-0,095	0,044
-265,511	800,000	0,041	0,096
-264,497	196,916	0,076	0,085
-263,482	800,000	0,035	0,072
-262,467	800,000	0,022	0,069
-261,453	-16,139	0,081	0,037
-260,438	317,666	-0,035	-0,049
-259,424	160,342	0,050	-0,051
-258,409	256,761	0,031	-0,039
-257,395	-140,266	0,060	0,004
-256,380	-0,228	-0,148	0,077
-255,365	-32,390	0,091	0,037
-254,351	-200,000	0,001	0,106
-253,336	645,991	-0,017	-0,031
-252,322	800,000	0,052	-0,122
-251,307	-111,256	-0,123	-0,018
-250,292	-7,088	-0,119	-0,059
-249,278	-200,000	0,013	0,054
-248,263	408,647	0,039	0,060
-247,249	278,349	-0,048	0,063
-246,234	106,504	-0,030	-0,026
-245,219	-200,000	-0,055	0,179
-244,205	750,979	-0,049	-0,096
-243,190	800,000	-0,034	-0,083
-242,176	-23,071	0,090	-0,039
-241,161	800,000	-0,050	0,123
-240,146	-70,768	0,138	-0,038
-239,132	-93,350	-0,091	-0,018
-238,117	102,489	-0,127	-0,108
-237,103	-94,003	0,033	0,007
-236,088	800,000	-0,023	0,057
-235,073	-200,000	-0,006	-0,183
-234,059	-4,797	0,055	-0,028
-233,044	-200,000	0,032	0,116
-232,030	-175,823	0,062	0,001
-231,015	157,980	0,039	0,040
-230,000	-36,317	-0,093	0,037
-228,986	480,797	0,052	0,086
-227,971	-89,569	-0,062	0,013
-226,957	-186,194	0,067	-0,001
-225,942	31,704	-0,024	0,015
-224,927	-48,098	0,138	-0,048
-223,913	-200,000	-0,010	0,074
-222,898	800,000	-0,033	-0,074
-221,884	-106,820	-0,063	-0,010
-220,869	800,000	-0,027	0,066
-219,855	-200,000	0,071	0,000
-218,840	-134,678	0,164	-0,014
-217,825	547,192	-0,032	0,057
-216,811	-200,000	0,013	-0,079
-215,796	33,253	0,073	-0,046
-214,782	-148,962	-0,100	0,006
-213,767	800,000	0,058	0,118
-212,752	267,311	0,042	-0,054
-211,738	745,133	0,079	0,156
-210,723	800,000	0,089	0,183
-209,709	-15,122	-0,198	0,092
-208,694	164,003	-0,048	-0,050
-207,679	490,262	0,022	-0,037
-206,665	223,285	-0,039	-0,045
-205,650	-200,000	-0,007	-0,061
-204,636	-78,870	0,145	0,036
-203,621	78,856	-0,051	0,040
-202,606	181,051	0,067	-0,072
-201,592	-200,000	-0,022	0,075
-200,577	-31,889	0,095	0,039
-199,563	-76,508	0,103	0,026
-198,548	-99,606	0,167	0,030
-197,533	-99,227	0,080	-0,015
-196,519	-61,778	-0,141	-0,043
-195,504	30,586	-0,109	-0,068
-194,490	800,000	-0,018	0,042
-193,475	-114,734	-0,118	0,016
-192,460	158,812	-0,039	0,039
-191,446	-178,861	0,021	-0,000
-190,431	211,197	0,053	0,061
-189,417	126,794	-0,074	0,069
-188,402	-162,627	-0,033	0,001
-187,387	800,000	0,040	-0,110
-186,373	78,591	-0,031	0,024
-185,358	-35,635	-0,104	0,041
-184,344	-87,245	-0,159	0,035
-183,329	-103,487	0,155	0,026
-182,315	-59,935	-0,054	-0,017
-181,300	-200,000	-0,014	-0,071
-180,285	-200,000	-0,014	-0,047
-179,271	-184,976	-0,124	0,001
-178,256	-200,000	0,005	-0,067
-177,242	-49,624	0,089	0,031
-176,227	-200,000	-0,017	-0,070
-175,212	800,000	-0,010	0,023
-174,198	508,496	0,018	0,030
-173,183	103,816	-0,051	-0,044
-172,169	-200,000	-0,008	0,027
-171,154	800,000	0,007	-0,016
-170,139	111,683	0,034	-0,030
-169,125	549,770	-0,032	0,057
-168,110	69,455	-0,073	0,055
-167,096	800,000	-0,051	0,117
-166,081	241,886	-0,077	-0,094
-165,066	-103,778	-0,108	-0,018
-164,052	222,494	0,017	0,020
-163,037	-200,000	0,000	-0,068
-162,023	76,120	0,100	0,077
-161,008	-87,213	0,070	0,015
-159,993	-19,287	-0,038	-0,017
-158,979	43,416	0,037	-0,024
-157,964	-51,879	-0,064	0,022
-156,950	585,859	0,085	-0,153
-155,935	800,000	0,048	-0,112
-154,920	200,469	0,084	0,094
-153,906	800,000	0,033	0,083
-152,891	-200,000	0,023	0,109
-151,877	800,000	-0,015	0,035
-150,862	-200,000	0,041	0,153
-149,847	-80,340	-0,195	0,047
-148,833	-8,248	0,102	0,050
-147,818	68,297	-0,011	0,008
-146,804	800,000	0,013	0,026
-145,789	82,492	0,057	0,045
-144,775	-102,606	-0,075	-0,013
-143,760	-54,565	-0,022	-0,007
-142,745	800,000	0,019	-0,043
-141,731	45,113	0,155	0,104
-140,716	-16,860	-0,070	-0,032
-139,702	185,527	0,096	0,104
-138,687	-200,000	-0,027	0,185
-137,672	-68,514	-0,046	-0,013
-136,658	800,000	-0,038	-0,090
-135,643	-9,270	-0,088	0,043
-134,629	-200,000	0,000	0,083
-133,614	-7,005	0,067	0,033
-132,599	69,939	0,045	-0,033
-131,585	136,783	0,079	0,075
-130,570	-200,000	-0,007	0,000
-129,556	800,000	0,033	-0,078
-128,541	415,334	0,073	0,114
-127,526	419,379	-0,017	0,027
-126,512	278,697	-0,053	0,068
-125,497	738,446	-0,040	0,079
-124,483	800,000	0,013	-0,035
-123,468	-62,764	0,097	-0,029
-122,453	-127,309	-0,156	0,016
-121,439	143,573	0,026	-0,026
-120,424	-200,000	-0,010	-0,039
-119,410	327,649	0,028	-0,040
