DTS Sentinel unit serial number:	SN410029Multiplexer serial number:	ORYXHardware model number:	OX2-SRSoftware version number:	ORYX F/W v4,00 Oryx Data Collector v3.7.2.0data status	okinstallation	B4 Nyhavnadifferential loss correction	single-endedforward channel	channel 2reverse channel	N/Adate	2023/12/15time	19:15:13forward acquisition time	300,00reverse acquisition time	0,00gamma	499,1914k internal	0,3138k external	0,3138temperature offset calibration	1,0000default loss term (dB/km)	0,3820temperature slope calibration	1,0000multiplexer offset coefficient	1,0000multiplexer slope coefficient	1,0000fibre end	0,00T internal ref (°C)	19,73T ext. ref 1 (°C)	5,40T ext. ref 2 (°C)	5,59length (m)	temperature (°C)	Stokes	anti-Stokes-744,400	298,377	-0,026	0,036
-743,385	-113,269	-0,209	-0,030
-742,371	-200,000	-0,014	0,077
-741,356	-69,030	-0,135	-0,038
-740,342	-200,000	-0,052	-0,185
-739,327	-16,767	-0,163	0,076
-738,312	-129,905	0,081	-0,008
-737,298	5,666	-0,323	0,176
-736,283	-71,986	-0,069	0,019
-735,269	-8,359	-0,136	0,068
-734,254	105,945	0,084	0,073
-733,239	-60,493	-0,421	-0,132
-732,225	-200,000	0,003	-0,115
-731,210	800,000	0,009	0,030
-730,196	-41,978	0,070	0,027
-729,181	236,290	-0,114	-0,140
-728,167	327,719	0,048	0,068
-727,152	-200,000	0,019	-0,081
-726,137	-94,866	0,035	0,007
-725,123	-174,874	-0,063	-0,001
-724,108	302,615	-0,114	-0,157
-723,094	-114,343	0,066	0,009
-722,079	5,937	0,035	0,019
-721,064	-82,946	-0,006	0,001
-720,050	-200,000	-0,013	0,047
-719,035	-113,969	0,100	0,014
-718,021	221,859	-0,033	0,039
-717,006	-200,000	0,018	-0,062
-715,991	217,135	-0,182	-0,215
-714,977	259,666	0,035	-0,045
-713,962	-200,000	-0,012	-0,081
-712,948	9,796	0,110	0,061
-711,933	-119,537	-0,056	-0,007
-710,918	288,356	-0,059	0,080
-709,904	-49,087	-0,040	-0,014
-708,889	-39,963	-0,145	0,056
-707,875	256,598	-0,071	-0,090
-706,860	-72,823	0,045	-0,012
-705,845	-200,000	0,015	0,148
-704,831	-128,162	-0,065	-0,007
-703,816	-84,103	0,094	-0,022
-702,802	18,252	-0,044	-0,026
-701,787	-43,548	-0,111	0,041
-700,772	800,000	-0,023	-0,049
-699,758	800,000	-0,022	-0,050
-698,743	-107,159	0,133	0,022
-697,729	137,556	0,074	0,072
-696,714	800,000	-0,042	-0,098
-695,699	-118,481	-0,081	0,011
-694,685	70,522	0,081	-0,062
-693,670	22,727	-0,033	-0,020
-692,656	-200,000	0,002	0,013
-691,641	-200,000	-0,013	0,089
-690,627	4,117	0,066	0,036
-689,612	-200,000	-0,007	0,064
-688,597	-28,579	-0,082	-0,035
-687,583	800,000	-0,027	-0,085
-686,568	59,639	-0,081	-0,059
-685,554	-68,866	-0,072	-0,020
-684,539	-20,730	-0,054	0,024
-683,524	-32,618	0,071	-0,029
-682,510	334,024	-0,088	0,126
-681,495	-200,000	-0,006	-0,102
-680,481	-75,103	-0,100	0,026
-679,466	-8,392	-0,063	0,031
-678,451	-200,000	-0,008	-0,042
-677,437	-105,316	-0,117	-0,019
-676,422	16,137	0,114	-0,066
-675,408	673,835	-0,054	0,105
-674,393	140,298	-0,064	-0,063
-673,378	-110,857	-0,162	0,024
-672,364	-55,110	-0,016	0,005
-671,349	800,000	-0,049	-0,118
-670,335	-90,946	0,046	-0,010
-669,320	-143,675	0,085	-0,006
-668,305	-200,000	-0,016	0,151
-667,291	800,000	0,091	-0,241
-666,276	800,000	0,050	-0,108
-665,262	-200,000	-0,009	0,048
-664,247	-62,617	-0,085	-0,026
-663,232	-81,412	0,097	-0,024
-662,218	800,000	-0,008	-0,022
-661,203	261,629	0,065	-0,083
-660,189	364,151	-0,042	-0,062
-659,174	-86,478	-0,104	-0,023
-658,159	-200,000	-0,008	-0,043
-657,145	-84,220	-0,087	-0,020
-656,130	800,000	0,024	0,060
-655,116	-200,000	0,110	0,000
-654,101	-14,174	-0,022	0,010
-653,086	-143,401	0,156	0,011
-652,072	41,413	0,061	0,040
-651,057	800,000	0,016	-0,043
-650,043	63,526	-0,069	0,051
-649,028	94,989	-0,023	-0,020
-648,014	443,851	-0,053	-0,086
-646,999	395,710	-0,042	-0,066
-645,984	130,740	-0,036	0,034
-644,970	458,546	0,020	0,033
-643,955	0,030	-0,117	0,061
-642,941	-200,000	0,019	-0,229
-641,926	377,427	0,048	0,072
-640,911	-200,000	-0,027	0,107
-639,897	73,485	0,103	-0,080
-638,882	-200,000	-0,029	0,122
-637,868	531,218	0,054	0,094
-636,853	-200,000	0,008	0,033
-635,838	677,946	-0,035	-0,067
-634,824	299,903	0,039	0,053
-633,809	14,055	0,105	-0,060
-632,795	642,950	-0,048	-0,092
-631,780	-200,000	-0,017	0,061
-630,765	178,628	-0,025	0,027
-629,751	389,903	-0,054	0,084
-628,736	800,000	-0,025	-0,060
-627,722	-200,000	0,016	0,094
-626,707	45,858	-0,143	-0,097
-625,692	-200,000	-0,010	0,065
-624,678	294,763	-0,051	-0,068
-623,663	-121,418	-0,100	-0,012
-622,649	-114,696	-0,074	-0,010
-621,634	-138,481	-0,039	0,003
-620,619	-187,888	-0,037	-0,000
-619,605	-200,000	0,019	-0,087
-618,590	-42,840	-0,071	0,026
-617,576	567,022	-0,028	0,050
-616,561	106,155	-0,061	-0,053
-615,546	-154,206	-0,111	0,005
-614,532	111,144	-0,080	-0,071
-613,517	793,094	0,045	-0,092
-612,503	7,204	0,066	-0,037
-611,488	57,387	-0,041	-0,029
-610,474	696,265	-0,012	0,024
-609,459	800,000	-0,013	0,037
-608,444	-200,000	0,021	0,086
-607,430	799,014	0,013	0,026
-606,415	-100,388	-0,061	-0,011
-605,401	-17,705	0,089	0,041
-604,386	-200,000	0,004	0,033
-603,371	-119,456	0,136	-0,017
-602,357	-200,000	0,007	0,055
-601,342	800,000	-0,014	0,029
-600,328	23,743	-0,108	-0,066
-599,313	-58,629	0,063	0,020
-598,298	362,613	-0,011	-0,016
-597,284	-27,978	0,071	-0,030
-596,269	69,324	0,162	0,123
-595,255	382,231	-0,067	0,101
-594,240	157,981	-0,106	-0,108
-593,225	20,565	-0,045	0,027
-592,211	-18,244	0,093	0,043
-591,196	800,000	0,033	-0,094
-590,182	405,683	0,092	-0,143
-589,167	-99,960	0,059	0,011
-588,152	-103,810	-0,094	0,016
-587,138	281,374	-0,036	0,048
-586,123	-122,141	-0,164	0,020
-585,109	17,173	-0,063	0,037
-584,094	-84,688	0,136	-0,031
-583,079	-200,000	-0,019	-0,094
-582,065	38,568	0,117	0,077
-581,050	-64,126	-0,062	-0,018
-580,036	51,870	-0,102	-0,072
-579,021	100,953	0,021	0,018
-578,006	299,903	-0,040	-0,054
-576,992	-200,000	-0,005	0,052
-575,977	41,228	0,133	-0,088
-574,963	208,086	0,088	0,101
-573,948	800,000	0,068	0,141
-572,934	800,000	0,043	-0,100
-571,919	-200,000	-0,007	-0,040
-570,904	140,770	-0,133	-0,130
-569,890	459,428	-0,043	-0,071
-568,875	-200,000	0,028	0,115
-567,861	800,000	-0,004	-0,011
-566,846	737,547	0,056	0,112
-565,831	62,241	-0,075	-0,055
-564,817	146,126	-0,103	0,102
-563,802	459,443	-0,040	-0,067
-562,788	-200,000	-0,024	-0,182
-561,773	57,480	0,046	-0,033
-560,758	368,713	0,066	0,099
-559,744	800,000	-0,017	0,037
-558,729	158,533	0,085	-0,087
-557,715	-24,552	-0,278	0,122
-556,700	57,565	-0,090	-0,065
-555,685	239,601	0,091	-0,111
-554,671	800,000	-0,055	-0,124
-553,656	147,617	0,012	0,012
-552,642	800,000	0,027	-0,062
-551,627	9,663	-0,113	-0,063
-550,612	375,670	0,103	0,155
-549,598	800,000	-0,036	-0,109
-548,583	-200,000	-0,019	-0,201
-547,569	-155,340	-0,014	-0,001
-546,554	1,918	-0,071	0,038
-545,539	800,000	0,046	0,104
-544,525	-103,386	-0,089	-0,015
-543,510	-200,000	0,002	0,028
-542,496	353,630	0,036	0,053
-541,481	-200,000	0,092	0,000
-540,466	-139,475	-0,022	-0,002
-539,452	800,000	-0,046	0,144
-538,437	-200,000	0,004	0,080
-537,423	-200,000	-0,023	0,116
-536,408	-173,482	0,125	0,003
-535,393	-200,000	-0,003	-0,015
-534,379	-200,000	-0,020	-0,074
-533,364	207,697	-0,058	-0,067
-532,350	-122,561	-0,115	-0,014
-531,335	296,804	0,044	-0,059
-530,321	88,923	0,060	-0,049
-529,306	382,206	-0,097	-0,148
-528,291	-104,384	-0,109	-0,018
-527,277	-30,218	-0,052	-0,022
-526,262	518,077	0,046	0,080
-525,248	-200,000	0,007	0,052
-524,233	372,188	-0,047	-0,070
-523,218	1,582	0,146	0,077
-522,204	-101,689	-0,103	0,018
-521,189	-23,447	-0,095	-0,042
-520,175	209,408	-0,030	-0,034
-519,160	-200,000	0,020	0,073
-518,145	-31,337	-0,041	0,017
-517,131	-200,000	-0,040	-0,144
-516,116	-121,703	0,050	0,006
-515,102	-200,000	-0,005	-0,031
-514,087	-149,111	-0,223	-0,013
-513,072	352,529	-0,080	0,117
-512,058	391,482	0,040	-0,061
-511,043	569,358	0,014	0,026
-510,029	256,559	-0,021	0,027
-509,014	248,422	0,029	0,036
-507,999	-38,719	-0,051	-0,020
-506,985	268,058	-0,070	-0,090
-505,970	46,405	-0,181	-0,123
-504,956	-107,662	-0,108	-0,017
-503,941	-200,000	0,006	0,124
-502,926	-200,000	-0,004	0,054
-501,912	7,783	0,008	0,004
-500,897	40,855	0,134	-0,089
-499,883	800,000	0,047	-0,124
-498,868	-200,000	-0,012	-0,149
-497,853	439,524	-0,111	-0,178
-496,839	-77,205	-0,050	-0,013
-495,824	210,283	-0,077	-0,089
-494,810	-200,000	-0,001	0,093
-493,795	559,278	0,007	-0,013
-492,781	-200,000	-0,027	-0,163
-491,766	88,420	-0,039	0,032
-490,751	42,052	0,026	0,017
-489,737	-119,614	-0,063	-0,008
-488,722	-107,137	-0,101	-0,016
-487,708	-200,000	0,002	0,081
-486,693	54,916	0,084	0,060
-485,678	-91,234	0,072	0,015
-484,664	594,727	-0,048	-0,087
-483,649	-200,000	0,017	-0,092
-482,635	-200,000	-0,020	-0,073
-481,620	-200,000	-0,004	0,012
-480,605	-200,000	0,017	0,101
-479,591	157,308	-0,068	0,069
-478,576	800,000	-0,033	-0,088
-477,562	330,113	-0,105	-0,148
-476,547	-200,000	0,029	-0,102
-475,532	-200,000	-0,012	-0,111
-474,518	-96,911	-0,058	-0,011
-473,503	800,000	0,047	0,109
-472,489	-170,314	-0,038	0,001
-471,474	149,248	0,086	-0,085
-470,459	800,000	0,037	0,107
-469,445	-200,000	-0,042	-0,188
-468,430	800,000	0,020	0,047
-467,416	190,871	0,082	0,091
-466,401	370,134	0,041	-0,061
-465,386	-146,146	-0,032	-0,002
-464,372	231,787	-0,058	-0,070
-463,357	61,578	0,038	0,028
-462,343	-76,988	0,123	0,031
-461,328	-70,927	0,179	-0,049
-460,313	152,257	-0,090	-0,090
-459,299	-154,980	0,085	0,004
-458,284	440,036	0,066	-0,106
-457,270	-115,605	0,103	0,014
-456,255	451,590	0,036	0,058
-455,241	-200,000	-0,009	-0,044
-454,226	800,000	-0,016	-0,034
-453,211	32,608	0,074	0,047
-452,197	800,000	-0,037	0,081
-451,182	590,408	0,006	0,010
-450,168	-127,014	0,023	0,002
-449,153	-200,000	0,004	0,028
-448,138	383,034	-0,017	-0,025
-447,124	-119,936	0,057	-0,007
-446,109	99,342	-0,081	-0,069
-445,095	-166,641	0,142	0,004
-444,080	-15,937	0,108	0,050
-443,065	259,262	0,003	0,003
-442,051	-133,959	-0,066	0,006
-441,036	800,000	-0,055	-0,163
-440,022	123,991	-0,115	-0,106
-439,007	-200,000	-0,013	-0,078
-437,992	-200,000	0,011	0,110
-436,978	-200,000	-0,016	0,064
-435,963	-200,000	0,001	-0,037
-434,949	344,048	0,016	-0,023
-433,934	548,136	-0,045	-0,080
-432,919	16,684	-0,101	-0,058
-431,905	800,000	0,045	-0,107
-430,890	800,000	0,022	0,061
-429,876	89,295	0,024	-0,020
-428,861	-179,913	-0,104	-0,002
-427,846	-29,513	0,075	0,031
-426,832	-200,000	0,004	-0,104
-425,817	55,214	-0,186	-0,131
-424,803	800,000	0,042	-0,109
-423,788	375,895	0,118	-0,177
-422,773	-30,493	0,106	-0,044
-421,759	-69,058	-0,166	0,046
-420,744	-200,000	-0,008	-0,052
-419,730	800,000	0,006	-0,020
-418,715	-124,088	-0,161	-0,018
-417,701	0,609	-0,073	-0,038
-416,686	149,430	0,134	0,133
-415,671	133,524	0,138	0,131
-414,657	193,854	0,047	0,052
-413,642	-73,821	-0,068	0,018
-412,628	30,857	-0,136	0,085
-411,613	-143,488	0,057	-0,004
-410,598	800,000	-0,032	-0,091
-409,584	-200,000	-0,016	-0,096
-408,569	800,000	0,016	-0,038
-407,555	147,708	-0,082	0,081
-406,540	-43,257	-0,056	-0,021
-405,525	-72,155	0,109	-0,029
-404,511	453,919	-0,068	-0,110
-403,496	-125,814	0,062	-0,007
-402,482	-134,823	0,045	-0,004
-401,467	-200,000	0,027	0,138
-400,452	-200,000	0,018	-0,154
-399,438	-132,719	-0,024	0,002
-398,423	339,518	0,080	0,114
-397,409	-64,483	-0,047	0,014
-396,394	-96,882	-0,091	0,017
-395,379	454,315	0,029	-0,047
-394,365	307,003	-0,145	0,198
-393,350	800,000	-0,066	0,148
-392,336	347,116	-0,018	0,026
-391,321	-63,744	0,034	0,010
-390,306	-50,497	0,076	-0,026
-389,292	342,994	0,078	-0,113
-388,277	-200,000	-0,001	-0,117
-387,263	117,848	0,087	0,079
-386,248	-200,000	0,042	0,157
-385,233	1,589	0,153	0,081
-384,219	800,000	-0,078	0,168
-383,204	-200,000	0,017	0,108
-382,190	-200,000	-0,009	-0,133
-381,175	-200,000	0,011	-0,057
-380,160	97,262	-0,091	-0,076
-379,146	5,416	0,053	-0,029
-378,131	270,912	0,102	0,131
-377,117	-111,996	0,081	-0,012
-376,102	-200,000	0,002	-0,051
-375,088	-14,556	0,110	-0,052
-374,073	32,016	0,076	-0,048
-373,058	76,411	0,130	-0,101
-372,044	-200,000	-0,003	0,035
-371,029	11,356	-0,064	-0,036
-370,015	264,203	0,035	0,045
-369,000	800,000	0,042	0,110
-367,985	-200,000	0,003	0,062
-366,971	109,037	0,041	-0,036
-365,956	179,320	0,030	-0,032
-364,942	-15,970	0,048	-0,022
-363,927	-131,869	-0,167	-0,016
-362,912	-8,873	0,123	0,060
-361,898	-200,000	-0,010	0,055
-360,883	-80,258	-0,070	0,017
-359,869	-8,012	0,053	-0,026
-358,854	-107,735	0,144	-0,023
-357,839	300,328	-0,042	0,057
-356,825	631,703	0,073	0,135
-355,810	286,693	-0,082	0,109
-354,796	-60,720	-0,100	-0,031
-353,781	800,000	0,024	0,074
-352,766	129,763	0,017	-0,016
-351,752	-3,390	0,061	0,031
-350,737	39,704	0,037	-0,024
-349,723	-72,966	0,150	0,040
-348,708	-109,389	0,133	-0,020
-347,693	-162,094	0,064	0,002
-346,679	-51,020	-0,067	-0,023
-345,664	10,372	-0,051	0,028
-344,650	-147,501	-0,057	0,003
-343,635	-140,442	-0,018	0,001
-342,620	81,715	0,042	0,033
-341,606	751,083	0,034	-0,067
-340,591	86,391	-0,035	-0,028
-339,577	-19,006	0,062	-0,028
-338,562	56,490	-0,040	0,029
-337,548	-200,000	0,007	-0,036
-336,533	45,854	-0,098	0,066
-335,518	33,271	0,081	0,051
-334,504	800,000	0,041	0,085
-333,489	-200,000	0,005	0,076
-332,475	-18,040	0,056	-0,026
-331,460	-200,000	-0,006	-0,174
-330,445	40,051	0,096	-0,063
-329,431	-199,800	-0,085	-0,000
-328,416	44,524	0,039	0,026
-327,402	-74,751	-0,029	0,008
-326,387	-200,000	0,072	0,238
-325,372	180,423	-0,083	-0,089
-324,358	-106,643	-0,071	-0,011
-323,343	150,376	0,092	0,092
-322,329	800,000	-0,037	0,114
-321,314	158,567	-0,033	-0,033
-320,299	515,141	0,017	-0,029
-319,285	-40,958	0,048	-0,018
-318,270	553,119	-0,054	-0,095
-317,256	117,531	0,106	-0,095
-316,241	94,569	0,012	0,010
-315,226	84,670	-0,123	-0,098
-314,212	39,336	0,073	0,048
-313,197	800,000	0,011	-0,025
-312,183	-200,000	0,012	0,125
-311,168	-35,467	0,034	0,013
-310,153	88,641	0,085	-0,069
-309,139	-71,664	0,004	0,001
-308,124	-131,239	0,039	-0,004
-307,110	-200,000	0,004	0,038
-306,095	-200,000	0,022	0,145
-305,080	-21,906	-0,066	0,029
-304,066	528,089	-0,019	0,033
-303,051	-200,000	-0,020	-0,074
-302,037	5,113	-0,102	-0,055
-301,022	-48,458	-0,064	0,022
-300,008	-200,000	-0,006	0,059
-298,993	227,229	0,063	-0,075
-297,978	-131,194	0,032	-0,003
-296,964	-200,000	0,029	0,104
-295,949	-189,940	-0,124	-0,001
-294,935	-103,101	0,044	-0,008
-293,920	144,602	0,084	0,081
-292,905	378,325	0,077	0,116
-291,891	153,526	0,085	0,085
-290,876	800,000	0,022	0,060
-289,862	-200,000	0,015	-0,052
-288,847	51,454	0,010	-0,007
-287,832	-200,000	0,014	-0,083
-286,818	-45,925	-0,062	-0,022
-285,803	-85,761	0,062	0,014
-284,789	179,161	0,101	0,108
-283,774	800,000	-0,026	0,075
-282,759	-86,141	-0,065	-0,015
-281,745	-200,000	0,002	0,088
-280,730	-39,899	-0,018	0,007
-279,716	-149,727	-0,109	0,006
-278,701	-200,000	0,006	-0,070
-277,686	-123,845	0,129	0,015
-276,672	-80,695	-0,087	0,021
-275,657	800,000	0,092	-0,188
-274,643	-44,956	0,024	-0,009
-273,628	610,855	0,079	0,144
-272,613	-52,725	0,059	0,020
-271,599	62,709	0,045	-0,032
-270,584	800,000	-0,018	0,040
-269,570	800,000	0,090	-0,204
-268,555	130,529	0,127	0,119
-267,540	694,099	0,007	0,014
-266,526	-144,760	0,140	0,009
-265,511	800,000	-0,016	-0,040
-264,497	-200,000	0,027	0,120
-263,482	127,562	0,086	0,080
-262,467	111,704	0,126	0,110
-261,453	-200,000	0,027	0,117
-260,438	-86,719	0,010	0,002
-259,424	-40,142	0,044	-0,017
-258,409	-200,000	-0,017	0,076
-257,395	-200,000	-0,015	0,047
-256,380	-200,000	0,017	0,080
-255,365	171,945	-0,079	0,083
-254,351	800,000	-0,049	-0,109
-253,336	106,835	-0,149	-0,129
-252,322	800,000	0,019	0,048
-251,307	-25,858	-0,082	-0,035
-250,292	-200,000	-0,010	-0,102
-249,278	42,218	0,025	0,017
-248,263	-103,566	0,087	-0,015
-247,249	141,469	-0,047	0,045
-246,234	800,000	0,034	0,101
-245,219	-170,088	-0,082	-0,002
-244,205	332,430	0,008	-0,011
-243,190	-9,409	0,017	0,008
-242,176	171,126	0,063	0,066
-241,161	-124,400	0,050	0,006
-240,146	75,338	-0,030	-0,023
-239,132	537,933	0,059	0,102
-238,117	-176,738	-0,156	0,003
-237,103	356,443	-0,056	0,082
-236,088	-200,000	-0,010	-0,053
-235,073	164,326	0,084	0,086
-234,059	-114,965	0,064	0,009
-233,044	-200,000	0,019	0,072
-232,030	49,587	0,050	-0,034
-231,015	132,352	0,060	-0,056
-230,000	-200,000	-0,004	-0,089
-228,986	-200,000	0,021	0,132
-227,971	800,000	0,010	-0,030
-226,957	-172,057	0,126	0,003
-225,942	-70,194	0,029	0,008
-224,927	55,874	-0,059	0,042
-223,913	-45,406	0,079	0,028
-222,898	-37,785	-0,031	-0,012
-221,884	-47,602	0,073	-0,026
-220,869	99,372	0,096	-0,081
-219,855	-200,000	0,014	0,064
-218,840	407,677	0,045	0,070
-217,825	-104,966	-0,079	0,013
-216,811	-164,557	-0,101	-0,003
-215,796	-200,000	-0,006	0,047
-214,782	23,938	-0,076	-0,045
-213,767	-48,110	0,121	-0,042
-212,752	67,537	-0,055	0,041
-211,738	239,614	0,014	0,017
-210,723	379,945	-0,095	0,141
-209,709	39,464	-0,059	0,038
-208,694	705,580	-0,029	0,056
-207,679	-34,549	-0,055	0,022
-206,665	18,393	0,065	-0,038
-205,650	-85,902	0,050	-0,011
-204,636	800,000	-0,027	0,062
-203,621	-200,000	0,046	-0,195
-202,606	162,348	-0,104	-0,106
-201,592	-141,109	0,009	-0,001
-200,577	800,000	-0,018	-0,037
-199,563	-200,000	0,014	0,094
-198,548	3,961	0,149	0,079
-197,533	-45,587	-0,056	-0,020
-196,519	155,569	-0,054	0,054
-195,504	-49,947	-0,085	-0,029
-194,490	84,622	-0,064	0,051
-193,475	-120,779	-0,091	-0,011
-192,460	-200,000	0,015	-0,058
-191,446	800,000	0,045	0,105
-190,431	335,297	0,026	-0,037
-189,417	517,333	0,054	0,093
-188,402	-128,632	-0,115	-0,012
-187,387	-200,000	-0,013	0,050
-186,373	37,049	-0,056	0,036
-185,358	-200,000	-0,056	-0,216
-184,344	-200,000	-0,001	-0,180
-183,329	532,376	-0,031	0,054
-182,315	-40,084	0,172	-0,065
-181,300	397,204	0,048	-0,073
-180,285	800,000	-0,027	0,074
-179,271	91,207	-0,008	0,007
-178,256	800,000	0,077	-0,169
-177,242	-148,197	0,055	-0,003
-176,227	-200,000	-0,023	0,160
-175,212	69,168	-0,035	0,026
-174,198	16,600	0,174	0,099
-173,183	-200,000	-0,028	-0,123
-172,169	198,213	-0,134	-0,149
-171,154	-15,501	-0,052	0,024
-170,139	-200,000	0,004	-0,026
-169,125	130,089	0,041	0,038
-168,110	199,743	0,087	0,097
-167,096	800,000	0,033	0,069
-166,081	66,562	-0,083	-0,061
-165,066	-200,000	-0,002	-0,020
-164,052	375,369	-0,047	0,069
-163,037	800,000	-0,009	0,019
-162,023	-16,619	-0,053	-0,024
-161,008	26,705	-0,066	0,040
-159,993	257,141	-0,052	0,065
-158,979	97,352	-0,085	0,070
-157,964	115,294	-0,059	0,052
-156,950	38,328	-0,016	-0,010
-155,935	-200,000	-0,013	0,095
-154,920	-93,324	0,127	0,025
-153,906	122,358	0,106	-0,096
-152,891	261,775	-0,107	0,135
-151,877	265,212	0,084	0,106
-150,862	180,428	-0,080	-0,085
-149,847	-100,138	0,093	-0,017
-148,833	-200,000	0,008	0,092
-147,818	-200,000	-0,036	-0,157
-146,804	101,333	0,058	0,049
-145,789	800,000	-0,014	-0,042
-144,775	76,287	0,128	0,098
-143,760	248,131	0,066	-0,081
-142,745	-123,079	-0,075	0,009
-141,731	58,779	-0,081	0,057
-140,716	85,771	0,150	0,120
-139,702	-200,000	-0,000	0,065
-138,687	-143,486	0,235	0,016
-137,672	-200,000	-0,023	-0,080
-136,658	174,270	-0,034	-0,036
-135,643	216,554	-0,024	-0,028
-134,629	-126,704	-0,004	0,000
-133,614	-200,000	-0,031	0,132
-132,599	-73,555	-0,075	0,020
-131,585	124,777	0,030	-0,027
-130,570	-61,354	-0,071	-0,022
-129,556	80,921	-0,105	-0,082
-128,541	141,564	0,084	0,080
-127,526	800,000	0,057	-0,141
-126,512	76,420	-0,057	-0,044
-125,497	-104,869	0,086	0,014
-124,483	800,000	-0,045	-0,106
-123,468	-153,249	0,024	-0,001
-122,453	343,474	-0,115	-0,164
-121,439	-78,179	0,157	-0,039
-120,424	198,772	0,045	-0,049
-119,410	506,057	0,047	-0,079
