DTS Sentinel unit serial number:	SN410029Multiplexer serial number:	ORYXHardware model number:	OX2-SRSoftware version number:	ORYX F/W v4,00 Oryx Data Collector v3.7.2.0data status	okinstallation	B4 Nyhavnadifferential loss correction	single-endedforward channel	channel 2reverse channel	N/Adate	2023/12/15time	18:45:13forward acquisition time	300,00reverse acquisition time	0,00gamma	499,1914k internal	0,3138k external	0,3138temperature offset calibration	1,0000default loss term (dB/km)	0,3820temperature slope calibration	1,0000multiplexer offset coefficient	1,0000multiplexer slope coefficient	1,0000fibre end	0,00T internal ref (°C)	19,32T ext. ref 1 (°C)	5,31T ext. ref 2 (°C)	5,45length (m)	temperature (°C)	Stokes	anti-Stokes-744,400	-50,200	0,023	-0,008
-743,385	-38,098	-0,234	0,092
-742,371	800,000	-0,022	-0,055
-741,356	-142,619	-0,163	-0,012
-740,342	76,332	-0,075	0,059
-739,327	-19,245	-0,141	0,064
-738,312	-97,449	0,021	0,004
-737,298	-165,081	-0,157	-0,005
-736,283	800,000	0,039	0,122
-735,269	55,816	-0,175	0,126
-734,254	800,000	0,061	0,130
-733,239	-24,687	-0,434	-0,191
-732,225	-38,069	0,144	-0,056
-731,210	337,372	-0,157	0,227
-730,196	-125,999	-0,066	-0,007
-729,181	-94,782	-0,135	0,027
-728,167	-1,857	0,161	-0,083
-727,152	800,000	-0,015	0,033
-726,137	-139,928	-0,150	0,012
-725,123	-131,177	-0,175	-0,017
-724,108	50,852	-0,009	-0,006
-723,094	54,296	-0,065	-0,046
-722,079	571,608	-0,106	-0,192
-721,064	747,977	-0,019	0,038
-720,050	-123,227	-0,096	-0,011
-719,035	800,000	-0,019	-0,056
-718,021	-41,307	-0,041	-0,015
-717,006	-200,000	-0,040	-0,182
-715,991	-200,000	-0,003	-0,077
-714,977	800,000	-0,101	-0,221
-713,962	-39,603	-0,015	-0,006
-712,948	288,303	0,045	0,060
-711,933	733,734	-0,052	-0,104
-710,918	98,222	-0,089	-0,076
-709,904	40,807	-0,033	-0,022
-708,889	343,831	-0,049	-0,071
-707,875	168,823	-0,056	-0,059
-706,860	-104,311	0,053	-0,009
-705,845	-200,000	-0,027	0,099
-704,831	-200,000	-0,004	0,019
-703,816	73,088	0,075	-0,058
-702,802	-200,000	-0,016	-0,061
-701,787	-26,755	0,055	-0,024
-700,772	105,012	-0,039	0,034
-699,758	-200,000	-0,013	-0,190
-698,743	-200,000	0,021	0,107
-697,729	800,000	-0,019	-0,053
-696,714	-108,785	0,059	-0,009
-695,699	100,391	0,042	0,036
-694,685	17,713	-0,104	-0,061
-693,670	-42,318	0,076	0,029
-692,656	586,091	0,050	0,091
-691,641	381,476	0,019	-0,029
-690,627	171,153	0,020	-0,022
-689,612	-200,000	0,006	0,022
-688,597	273,981	0,023	-0,031
-687,583	4,006	-0,074	-0,040
-686,568	-14,748	-0,134	-0,063
-685,554	68,775	0,080	0,061
-684,539	-200,000	-0,026	0,089
-683,524	800,000	0,064	-0,187
-682,510	800,000	0,012	0,032
-681,495	-200,000	-0,007	-0,084
-680,481	-139,052	-0,096	-0,008
-679,466	652,695	-0,059	-0,112
-678,451	-54,661	-0,085	-0,028
-677,437	-76,344	0,026	0,007
-676,422	514,801	0,018	-0,032
-675,408	-200,000	0,014	-0,047
-674,393	376,909	-0,087	0,132
-673,378	31,060	-0,079	0,050
-672,364	-200,000	-0,001	-0,116
-671,349	-200,000	0,027	-0,105
-670,335	-200,000	-0,013	0,104
-669,320	43,647	-0,066	-0,045
-668,305	27,886	-0,064	-0,040
-667,291	111,328	-0,070	0,062
-666,276	299,786	-0,066	-0,090
-665,262	-27,507	-0,201	-0,086
-664,247	-142,733	0,116	-0,008
-663,232	641,497	-0,045	-0,086
-662,218	94,903	0,131	0,110
-661,203	102,372	-0,050	0,043
-660,189	-30,578	-0,165	0,069
-659,174	15,166	-0,152	-0,088
-658,159	-84,631	-0,094	-0,022
-657,145	-200,000	-0,004	-0,099
-656,130	-200,000	-0,008	-0,095
-655,116	-196,367	0,089	0,000
-654,101	-200,000	-0,003	-0,022
-653,086	56,531	-0,033	0,023
-652,072	-127,143	0,033	-0,004
-651,057	-200,000	-0,014	-0,075
-650,043	151,180	-0,119	0,120
-649,028	-200,000	0,001	0,038
-648,014	-114,931	0,057	-0,008
-646,999	191,771	-0,026	0,029
-645,984	-64,582	-0,064	0,019
-644,970	-57,636	-0,139	-0,045
-643,955	-35,084	-0,041	-0,016
-642,941	-160,558	-0,014	-0,001
-641,926	-200,000	-0,027	-0,110
-640,911	-80,334	0,085	0,021
-639,897	800,000	0,027	0,086
-638,882	204,984	-0,038	-0,044
-637,868	-36,845	0,087	-0,034
-636,853	-22,170	-0,096	0,043
-635,838	-8,732	0,072	0,036
-634,824	800,000	0,013	-0,038
-633,809	545,405	-0,014	-0,024
-632,795	119,938	-0,083	-0,076
-631,780	800,000	0,090	-0,207
-630,765	-200,000	-0,006	0,067
-629,751	-200,000	0,007	-0,024
-628,736	-200,000	0,008	0,027
-627,722	-5,060	0,081	-0,041
-626,707	-150,255	0,048	-0,003
-625,692	800,000	0,007	-0,023
-624,678	-60,346	0,095	-0,030
-623,663	-200,000	0,017	0,229
-622,649	-132,267	-0,193	-0,018
-621,634	317,848	-0,023	0,032
-620,619	755,630	-0,040	-0,080
-619,605	-200,000	-0,017	-0,061
-618,590	541,822	-0,033	-0,058
-617,576	-200,000	-0,000	0,077
-616,561	-16,267	0,114	0,053
-615,546	190,340	-0,034	0,038
-614,532	-81,236	-0,021	-0,005
-613,517	-105,667	-0,016	0,003
-612,503	-7,238	-0,086	0,043
-611,488	72,983	-0,085	0,066
-610,474	800,000	0,022	0,070
-609,459	334,296	0,046	0,066
-608,444	-117,264	-0,035	-0,005
-607,430	800,000	-0,047	-0,120
-606,415	31,435	0,042	-0,027
-605,401	800,000	-0,035	-0,076
-604,386	800,000	0,026	-0,079
-603,371	68,157	0,078	0,059
-602,357	-37,279	0,078	0,031
-601,342	-200,000	-0,017	-0,134
-600,328	800,000	0,022	0,045
-599,313	460,353	-0,056	-0,092
-598,298	-181,701	0,101	-0,001
-597,284	134,196	0,013	-0,012
-596,269	361,352	0,073	0,109
-595,255	70,417	-0,032	-0,024
-594,240	-200,000	0,049	-0,189
-593,225	-62,943	-0,047	0,014
-592,211	397,646	-0,019	0,029
-591,196	154,165	-0,070	0,071
-590,182	-200,000	0,011	0,040
-589,167	269,533	0,051	-0,066
-588,152	278,983	0,081	0,107
-587,138	591,101	0,025	-0,046
-586,123	-79,970	-0,102	-0,025
-585,109	157,424	-0,027	-0,027
-584,094	-21,072	0,043	-0,020
-583,079	-184,558	0,018	0,000
-582,065	453,247	0,046	-0,076
-581,050	6,859	0,053	-0,029
-580,036	-47,986	0,141	-0,050
-579,021	18,255	-0,091	-0,053
-578,006	792,526	-0,077	-0,156
-576,992	-90,735	0,072	-0,015
-575,977	-45,021	-0,067	0,025
-574,963	47,278	-0,098	-0,067
-573,948	-200,000	0,017	0,169
-572,934	113,841	0,102	0,091
-571,919	-200,000	-0,002	-0,097
-570,904	-150,116	0,056	-0,003
-569,890	184,192	-0,050	-0,055
-568,875	-200,000	0,032	-0,120
-567,861	31,664	0,100	0,063
-566,846	16,858	0,061	0,036
-565,831	-200,000	-0,051	-0,191
-564,817	538,892	0,011	0,019
-563,802	-62,509	-0,057	0,017
-562,788	800,000	-0,022	0,055
-561,773	-67,229	-0,086	0,025
-560,758	275,183	0,023	0,030
-559,744	97,609	-0,043	-0,036
-558,729	207,745	0,090	0,103
-557,715	-200,000	0,003	0,048
-556,700	-200,000	-0,028	-0,101
-555,685	-200,000	0,011	-0,104
-554,671	800,000	0,029	0,074
-553,656	-200,000	-0,015	0,062
-552,642	73,088	-0,094	0,073
-551,627	-127,865	-0,104	0,011
-550,612	-200,000	-0,008	-0,093
-549,598	-106,939	0,033	-0,005
-548,583	-101,499	-0,110	-0,019
-547,569	40,188	0,041	-0,027
-546,554	800,000	0,033	0,070
-545,539	25,135	0,021	-0,013
-544,525	-41,380	0,080	-0,030
-543,510	484,877	0,058	0,098
-542,496	800,000	-0,024	-0,056
-541,481	186,705	-0,089	0,098
-540,466	-200,000	-0,002	-0,095
-539,452	800,000	0,041	-0,112
-538,437	-153,853	-0,061	0,003
-537,423	-53,969	-0,034	0,011
-536,408	206,650	-0,123	0,142
-535,393	-200,000	0,032	-0,199
-534,379	157,668	-0,094	-0,096
-533,364	67,254	-0,064	-0,048
-532,350	-34,345	0,063	-0,025
-531,335	-18,091	-0,097	0,045
-530,321	-119,964	-0,019	0,002
-529,306	-68,280	0,022	0,006
-528,291	409,959	-0,048	-0,076
-527,277	-60,079	0,084	-0,026
-526,262	800,000	-0,053	0,150
-525,248	105,368	0,053	0,046
-524,233	-69,332	0,070	0,020
-523,218	-200,000	-0,029	0,195
-522,204	-76,236	-0,249	0,064
-521,189	-200,000	0,026	-0,101
-520,175	129,803	-0,082	0,077
-519,160	-200,000	0,023	-0,094
-518,145	300,135	0,034	0,046
-517,131	-10,125	0,047	0,023
-516,116	-12,638	0,059	0,028
-515,102	-81,299	-0,055	0,013
-514,087	1,543	-0,075	0,040
-513,072	502,384	0,053	-0,090
-512,058	58,402	0,033	0,024
-511,043	800,000	-0,029	-0,081
-510,029	391,977	-0,021	-0,032
-509,014	-142,998	0,099	-0,007
-507,999	765,316	0,042	-0,085
-506,985	-133,016	0,088	0,008
-505,970	-132,491	-0,141	0,013
-504,956	-200,000	-0,041	-0,146
-503,941	18,127	0,094	0,055
-502,926	723,183	0,034	-0,066
-501,912	790,874	0,020	0,041
-500,897	298,840	0,042	0,057
-499,883	689,874	0,009	0,017
-498,868	-134,586	0,079	-0,007
-497,853	-43,546	-0,107	-0,039
-496,839	-79,701	0,167	0,041
-495,824	-34,056	0,060	-0,024
-494,810	670,614	0,060	0,115
-493,795	69,213	0,064	0,048
-492,781	199,756	-0,113	-0,127
-491,766	184,429	-0,046	-0,050
-490,751	205,812	-0,076	-0,086
-489,737	800,000	0,045	0,093
-488,722	-200,000	0,016	0,075
-487,708	800,000	0,029	0,093
-486,693	800,000	0,049	0,134
-485,678	-76,111	-0,121	-0,031
-484,664	170,758	-0,072	-0,076
-483,649	348,834	0,052	-0,076
-482,635	147,004	-0,057	0,056
-481,620	773,745	-0,029	-0,058
-480,605	-89,169	-0,114	-0,025
-479,591	800,000	0,019	0,041
-478,576	-30,874	-0,091	0,037
-477,562	-68,546	-0,035	0,010
-476,547	-200,000	0,008	0,034
-475,532	-111,761	0,054	0,008
-474,518	527,086	-0,018	0,031
-473,503	171,558	-0,101	-0,106
-472,489	217,308	0,046	0,054
-471,474	163,692	0,041	-0,043
-470,459	-125,996	-0,175	0,019
-469,445	264,698	-0,014	-0,018
-468,430	-200,000	-0,011	-0,082
-467,416	-116,269	0,075	0,010
-466,401	1,898	0,079	0,041
-465,386	93,024	0,119	0,098
-464,372	-12,035	-0,155	-0,074
-463,357	320,934	-0,074	-0,103
-462,343	-200,000	0,001	-0,142
-461,328	72,444	-0,108	-0,082
-460,313	781,062	-0,058	-0,117
-459,299	9,749	0,067	0,037
-458,284	-73,995	0,111	-0,029
-457,270	800,000	-0,007	0,022
-456,255	702,928	0,072	-0,140
-455,241	215,467	0,012	0,013
-454,226	115,810	-0,053	-0,047
-453,211	-150,143	-0,029	-0,002
-452,197	-52,294	0,122	0,041
-451,182	18,730	0,029	0,017
-450,168	-200,000	-0,004	0,067
-449,153	800,000	-0,013	0,029
-448,138	-52,552	-0,119	0,040
-447,124	-106,506	-0,107	0,017
-446,109	-47,377	-0,109	0,039
-445,095	800,000	0,018	-0,040
-444,080	47,193	-0,099	0,067
-443,065	71,148	-0,107	-0,081
-442,051	384,428	-0,026	-0,039
-441,036	335,638	-0,088	-0,126
-440,022	-110,778	0,082	-0,012
-439,007	-200,000	-0,004	-0,084
-437,992	-13,846	-0,049	0,023
-436,978	10,523	0,124	0,069
-435,963	-105,716	0,107	-0,018
-434,949	-200,000	0,007	-0,137
-433,934	800,000	-0,082	-0,205
-432,919	-57,209	-0,040	0,013
-431,905	800,000	-0,027	0,071
-430,890	-200,000	0,005	0,058
-429,876	-52,385	0,224	0,075
-428,861	-200,000	0,011	0,097
-427,846	-27,147	0,014	0,006
-426,832	-45,035	0,147	-0,053
-425,817	19,678	0,074	0,043
-424,803	56,988	-0,035	0,025
-423,788	-200,000	0,001	-0,011
-422,773	-102,261	0,044	0,008
-421,759	-49,191	0,035	0,012
-420,744	-112,795	0,066	-0,010
-419,730	-185,136	0,010	0,000
-418,715	800,000	0,019	0,061
-417,701	94,175	-0,045	0,037
-416,686	800,000	0,023	0,061
-415,671	113,043	-0,015	-0,013
-414,657	575,479	-0,075	0,135
-413,642	-200,000	-0,008	0,047
-412,628	-200,000	-0,010	-0,050
-411,613	-34,924	-0,147	0,059
-410,598	60,643	0,155	-0,112
-409,584	-82,679	0,096	-0,023
-408,569	-200,000	0,003	-0,056
-407,555	121,669	0,136	0,124
-406,540	800,000	0,016	0,035
-405,525	211,424	0,044	-0,051
-404,511	118,187	-0,028	-0,025
-403,496	-153,577	0,039	0,002
-402,482	-128,665	-0,111	-0,011
-401,467	-200,000	-0,016	-0,102
-400,452	800,000	0,047	0,106
-399,438	29,360	0,090	0,056
-398,423	294,247	-0,080	0,108
-397,409	-200,000	-0,009	-0,111
-396,394	-182,762	-0,041	0,001
-395,379	77,296	0,067	0,052
-394,365	282,388	-0,059	-0,078
-393,350	-200,000	-0,023	-0,172
-392,336	-16,464	-0,036	0,016
-391,321	-46,201	-0,149	0,053
-390,306	157,236	-0,035	-0,036
-389,292	-200,000	0,008	-0,112
-388,277	252,673	0,063	-0,079
-387,263	-200,000	0,014	0,047
-386,248	102,821	0,091	0,078
-385,233	-200,000	-0,009	0,042
-384,219	296,684	-0,051	0,068
-383,204	-44,922	-0,131	0,047
-382,190	-159,178	0,123	-0,005
-381,175	11,143	0,051	-0,028
-380,160	-200,000	-0,001	-0,078
-379,146	197,838	-0,118	0,132
-378,131	322,184	0,044	-0,062
-377,117	-72,903	-0,090	-0,024
-376,102	-93,426	-0,117	-0,024
-375,088	327,026	-0,093	0,131
-374,073	83,514	-0,068	-0,054
-373,058	-200,000	0,054	-0,184
-372,044	233,631	0,034	0,041
-371,029	22,185	-0,077	-0,046
-370,015	169,436	0,072	-0,075
-369,000	800,000	-0,025	-0,067
-367,985	-99,551	0,061	-0,011
-366,971	-200,000	-0,001	0,096
-365,956	-145,934	-0,086	0,006
-364,942	800,000	-0,070	-0,149
-363,927	163,863	0,137	0,141
-362,912	-200,000	0,034	-0,123
-361,898	800,000	-0,050	0,107
-360,883	507,725	-0,018	-0,030
-359,869	4,148	0,109	-0,058
-358,854	121,864	0,043	-0,039
-357,839	33,076	0,013	0,008
-356,825	-200,000	-0,001	-0,021
-355,810	90,785	0,130	0,106
-354,796	764,715	0,086	0,172
-353,781	-81,784	-0,090	-0,021
-352,766	64,586	0,071	-0,052
-351,752	-144,572	-0,052	0,003
-350,737	-43,598	0,019	-0,007
-349,723	-200,000	-0,009	-0,029
-348,708	137,504	0,029	-0,028
-347,693	-26,276	-0,018	0,008
-346,679	-200,000	-0,011	-0,138
-345,664	0,111	-0,094	-0,049
-344,650	-46,799	-0,075	0,027
-343,635	-15,742	0,137	0,064
-342,620	484,028	-0,021	-0,034
-341,606	184,159	-0,013	-0,014
-340,591	-132,642	0,105	0,010
-339,577	299,444	0,041	0,055
-338,562	195,922	0,060	-0,067
-337,548	234,102	-0,061	-0,073
-336,533	37,461	0,071	0,046
-335,518	800,000	-0,017	-0,048
-334,504	800,000	0,035	0,077
-333,489	-200,000	-0,008	0,135
-332,475	140,353	0,053	0,051
-331,460	-200,000	0,015	0,076
-330,445	197,177	0,056	0,062
-329,431	352,776	-0,035	-0,051
-328,416	800,000	-0,068	0,141
-327,402	126,764	0,051	0,047
-326,387	237,798	-0,104	-0,126
-325,372	-156,248	0,050	0,002
-324,358	-200,000	-0,024	-0,129
-323,343	358,402	0,016	-0,024
-322,329	130,891	-0,024	0,023
-321,314	-200,000	0,017	-0,062
-320,299	-127,604	0,120	0,013
-319,285	-96,931	0,097	-0,018
-318,270	82,650	0,079	-0,063
-317,256	112,813	0,023	-0,021
-316,241	800,000	0,016	0,051
-315,226	-200,000	0,018	-0,061
-314,212	227,919	-0,070	0,083
-313,197	-180,580	-0,089	-0,001
-312,183	143,539	0,080	-0,078
-311,168	249,130	-0,021	-0,026
-310,153	-158,897	-0,122	-0,005
-309,139	35,984	0,017	-0,011
-308,124	641,142	0,040	0,074
-307,110	-168,577	0,072	-0,002
-306,095	44,235	-0,037	-0,025
-305,080	-46,439	0,041	0,014
-304,066	478,184	-0,030	0,049
-303,051	-12,123	-0,104	-0,049
-302,037	87,093	0,112	-0,090
-301,022	42,107	0,021	0,014
-300,008	62,918	0,050	0,036
-298,993	800,000	-0,030	-0,075
-297,978	749,212	-0,046	0,091
-296,964	-200,000	-0,005	0,081
-295,949	-102,562	0,121	0,021
-294,935	-133,589	0,007	-0,001
-293,920	-200,000	0,004	0,026
-292,905	19,582	0,091	0,053
-291,891	800,000	0,046	-0,127
-290,876	112,364	0,090	0,079
-289,862	29,134	-0,026	0,016
-288,847	-158,842	0,151	-0,006
-287,832	-44,551	-0,100	0,036
-286,818	128,590	0,068	-0,063
-285,803	-200,000	0,009	0,048
-284,789	-200,000	-0,016	0,059
-283,774	-131,229	0,081	-0,008
-282,759	192,850	-0,052	0,057
-281,745	-200,000	0,022	-0,085
-280,730	-103,375	0,071	-0,012
-279,716	562,791	-0,021	-0,038
-278,701	122,125	-0,045	0,041
-277,686	-200,000	0,003	0,024
-276,672	-200,000	-0,015	0,095
-275,657	-200,000	0,018	0,075
-274,643	800,000	-0,036	-0,112
-273,628	800,000	0,012	-0,035
-272,613	800,000	0,012	-0,032
-271,599	-200,000	-0,010	-0,081
-270,584	-200,000	0,001	-0,025
-269,570	256,244	0,096	0,120
-268,555	50,017	0,045	0,031
-267,540	143,085	-0,057	0,055
-266,526	14,160	0,176	0,100
-265,511	-66,877	0,026	-0,007
-264,497	-54,861	-0,096	0,031
-263,482	271,182	-0,073	0,093
-262,467	-200,000	0,008	0,071
-261,453	63,699	-0,115	0,084
-260,438	-116,281	0,062	-0,008
-259,424	341,359	0,074	-0,105
-258,409	-200,000	-0,016	-0,121
-257,395	402,772	0,059	0,090
-256,380	187,251	0,027	0,029
-255,365	-104,213	-0,039	-0,007
-254,351	-19,683	0,048	0,022
-253,336	96,523	0,142	0,119
-252,322	-144,913	-0,114	-0,007
-251,307	-200,000	-0,027	-0,161
-250,292	413,101	-0,070	-0,108
-249,278	800,000	-0,028	0,080
-248,263	-200,000	-0,002	0,070
-247,249	36,215	-0,033	0,021
-246,234	800,000	-0,048	-0,142
-245,219	503,504	-0,015	-0,026
-244,205	171,749	-0,017	0,017
-243,190	-70,187	-0,094	0,026
-242,176	-1,469	-0,156	0,080
-241,161	-200,000	0,004	0,028
-240,146	-118,146	-0,077	-0,010
-239,132	-105,715	0,052	-0,009
-238,117	482,771	0,076	-0,126
-237,103	573,807	0,109	-0,195
-236,088	800,000	0,035	-0,080
-235,073	-200,000	0,005	0,027
-234,059	46,497	0,039	0,026
-233,044	800,000	0,016	0,038
-232,030	77,503	0,028	0,022
-231,015	800,000	0,014	-0,031
-230,000	579,014	-0,078	-0,139
-228,986	166,517	0,028	0,029
-227,971	-200,000	0,008	0,048
-226,957	397,578	0,030	0,045
-225,942	-200,000	0,025	0,160
-224,927	800,000	-0,059	0,127
-223,913	-200,000	0,010	0,083
-222,898	-98,997	-0,082	0,015
-221,884	329,446	-0,024	0,034
-220,869	32,998	-0,031	0,020
-219,855	191,554	0,102	0,112
-218,840	800,000	-0,047	0,115
-217,825	-153,297	-0,056	0,003
-216,811	-125,622	-0,051	-0,006
-215,796	38,535	-0,206	-0,133
-214,782	228,772	-0,059	0,071
-213,767	229,969	0,086	-0,103
-212,752	260,366	0,094	0,118
-211,738	-114,545	0,135	-0,019
-210,723	120,580	0,051	0,046
-209,709	-200,000	-0,003	0,053
-208,694	263,415	-0,090	-0,114
-207,679	800,000	-0,046	-0,104
-206,665	-163,797	-0,107	0,004
-205,650	-78,441	0,072	-0,018
-204,636	-78,090	-0,104	0,026
-203,621	4,829	0,068	0,036
-202,606	800,000	-0,060	-0,138
-201,592	-89,193	-0,133	-0,028
-200,577	-86,605	0,075	0,017
-199,563	-200,000	-0,004	0,069
-198,548	-50,156	0,034	-0,012
-197,533	355,047	0,063	-0,092
-196,519	-200,000	0,020	-0,083
-195,504	-200,000	0,001	0,031
-194,490	619,318	0,093	0,171
-193,475	-200,000	-0,041	0,144
-192,460	800,000	-0,055	0,134
-191,446	-5,970	0,064	-0,032
-190,431	268,368	0,036	0,046
-189,417	118,375	0,030	-0,027
-188,402	800,000	-0,007	-0,017
-187,387	69,826	-0,028	-0,021
-186,373	103,615	-0,023	-0,019
-185,358	-76,532	-0,133	0,034
-184,344	181,167	0,053	-0,056
-183,329	3,473	-0,101	-0,053
-182,315	384,819	-0,019	-0,028
-181,300	800,000	0,040	0,081
-180,285	248,041	-0,074	0,091
-179,271	-133,441	-0,155	0,014
-178,256	92,622	-0,046	0,038
-177,242	-99,341	0,033	-0,006
-176,227	-92,156	-0,072	-0,015
-175,212	800,000	0,022	0,057
-174,198	-87,218	0,047	0,010
-173,183	296,628	-0,035	0,046
-172,169	664,856	0,023	0,044
-171,154	-52,203	-0,064	0,021
-170,139	447,319	-0,070	0,111
-169,125	164,203	-0,086	-0,088
-168,110	-200,000	0,001	-0,068
-167,096	545,999	0,047	0,082
-166,081	10,049	-0,151	-0,083
-165,066	84,679	0,049	-0,039
-164,052	8,959	0,104	0,057
-163,037	-179,986	0,050	-0,001
-162,023	-138,086	0,145	-0,012
-161,008	36,989	0,189	0,121
-159,993	118,430	0,112	0,100
-158,979	-171,648	-0,193	0,005
-157,964	311,365	-0,078	0,107
-156,950	-62,225	0,040	-0,012
-155,935	315,555	0,052	0,071
-154,920	-200,000	-0,003	-0,042
-153,906	-139,379	-0,027	0,002
-152,891	-127,927	0,042	-0,004
-151,877	32,044	-0,085	0,053
-150,862	-70,217	0,013	0,004
-149,847	32,352	-0,029	0,018
-148,833	174,823	0,109	0,115
-147,818	-131,803	-0,074	-0,007
-146,804	94,733	0,038	0,031
-145,789	61,910	-0,035	0,025
-144,775	-104,372	-0,060	-0,010
-143,760	79,817	0,065	-0,050
-142,745	-166,684	0,055	0,002
-141,731	40,188	0,088	-0,057
-140,716	-84,697	-0,105	-0,024
-139,702	603,760	-0,026	-0,047
-138,687	-200,000	-0,010	-0,120
-137,672	800,000	-0,041	-0,102
-136,658	35,643	-0,205	-0,130
-135,643	172,610	-0,036	-0,038
-134,629	247,835	0,050	0,062
-133,614	-7,900	-0,085	-0,041
-132,599	-32,489	0,045	-0,018
-131,585	-200,000	0,001	0,002
-130,570	70,867	-0,029	0,022
-129,556	767,827	0,014	-0,027
-128,541	800,000	0,034	-0,083
-127,526	-200,000	0,003	0,070
-126,512	800,000	-0,017	0,035
-125,497	-200,000	0,008	0,038
-124,483	227,287	-0,042	0,049
-123,468	611,757	-0,063	0,115
-122,453	85,393	0,088	-0,070
-121,439	-152,596	0,098	-0,005
-120,424	-200,000	0,001	-0,014
-119,410	181,630	0,044	-0,047
