DTS Sentinel unit serial number:	SN410029Multiplexer serial number:	ORYXHardware model number:	OX2-SRSoftware version number:	ORYX F/W v4,00 Oryx Data Collector v3.7.2.0data status	okinstallation	B4 Nyhavnadifferential loss correction	single-endedforward channel	channel 2reverse channel	N/Adate	2023/12/18time	15:45:13forward acquisition time	300,00reverse acquisition time	0,00gamma	499,1914k internal	0,3143k external	0,3143temperature offset calibration	1,0000default loss term (dB/km)	0,3820temperature slope calibration	1,0000multiplexer offset coefficient	1,0000multiplexer slope coefficient	1,0000fibre end	0,00T internal ref (°C)	17,06T ext. ref 1 (°C)	7,32T ext. ref 2 (°C)	7,46length (m)	temperature (°C)	Stokes	anti-Stokes-744,400	713,377	0,061	0,120
-743,385	11,964	-0,271	0,154
-742,371	-160,568	0,169	0,007
-741,356	227,752	-0,097	0,117
-740,342	7,214	-0,045	0,025
-739,327	-151,187	-0,261	-0,014
-738,312	87,768	-0,036	-0,030
-737,298	-27,246	-0,268	0,115
-736,283	12,840	0,099	-0,056
-735,269	-14,379	-0,173	0,082
-734,254	143,405	-0,072	0,071
-733,239	-37,722	-0,303	-0,119
-732,225	-98,802	0,183	-0,034
-731,210	-175,055	-0,092	-0,002
-730,196	800,000	0,010	-0,030
-729,181	522,795	-0,031	-0,054
-728,167	126,394	-0,086	-0,081
-727,152	-200,000	-0,020	0,137
-726,137	-102,217	-0,097	-0,017
-725,123	95,756	0,069	-0,058
-724,108	800,000	-0,088	-0,194
-723,094	-60,903	-0,078	-0,024
-722,079	800,000	-0,022	-0,051
-721,064	-195,724	-0,024	-0,000
-720,050	-84,978	0,101	-0,023
-719,035	-200,000	-0,000	-0,012
-718,021	-200,000	0,005	0,049
-717,006	-126,257	-0,185	0,020
-715,991	800,000	-0,043	-0,100
-714,977	-200,000	0,015	-0,090
-713,962	800,000	0,031	-0,084
-712,948	177,617	-0,066	-0,071
-711,933	5,830	0,053	0,029
-710,918	800,000	-0,041	-0,087
-709,904	68,160	0,048	-0,037
-708,889	-60,887	-0,007	-0,002
-707,875	-137,248	0,062	0,005
-706,860	-103,384	0,032	0,006
-705,845	-200,000	0,012	0,157
-704,831	-200,000	-0,004	0,018
-703,816	16,532	0,078	-0,045
-702,802	-200,000	0,010	0,035
-701,787	-138,362	-0,069	0,006
-700,772	150,628	0,096	-0,097
-699,758	800,000	0,037	-0,091
-698,743	-200,000	-0,022	-0,087
-697,729	-200,000	0,016	-0,190
-696,714	37,073	0,038	0,025
-695,699	-200,000	0,007	0,077
-694,685	623,204	-0,059	-0,111
-693,670	-200,000	-0,014	-0,069
-692,656	318,808	-0,059	-0,083
-691,641	-69,166	0,175	0,049
-690,627	-25,635	0,021	-0,009
-689,612	-200,000	-0,030	-0,127
-688,597	-200,000	-0,017	-0,110
-687,583	63,811	-0,098	-0,073
-686,568	376,210	-0,014	-0,022
-685,554	800,000	-0,035	-0,079
-684,539	11,738	0,130	0,074
-683,524	-200,000	0,006	-0,036
-682,510	-200,000	-0,017	-0,167
-681,495	-82,302	-0,057	0,014
-680,481	141,845	-0,142	-0,139
-679,466	800,000	-0,060	-0,186
-678,451	-200,000	0,030	0,106
-677,437	211,440	-0,079	0,092
-676,422	200,536	0,040	-0,045
-675,408	463,040	-0,042	-0,070
-674,393	800,000	0,021	-0,062
-673,378	-72,759	0,051	-0,014
-672,364	306,833	0,036	-0,050
-671,349	-200,000	0,004	-0,138
-670,335	-200,000	-0,006	-0,043
-669,320	-200,000	0,001	-0,044
-668,305	-140,860	-0,106	0,008
-667,291	-70,739	-0,063	0,017
-666,276	-200,000	-0,053	-0,179
-665,262	-200,000	-0,027	-0,097
-664,247	16,514	0,054	-0,031
-663,232	32,567	0,072	-0,046
-662,218	13,701	-0,084	-0,048
-661,203	514,812	0,056	0,097
-660,189	42,262	0,009	-0,006
-659,174	-113,447	-0,224	-0,032
-658,159	-200,000	0,007	-0,119
-657,145	514,090	0,023	-0,040
-656,130	-200,000	-0,000	-0,008
-655,116	800,000	0,025	-0,075
-654,101	-200,000	-0,004	-0,028
-653,086	-200,000	0,038	-0,129
-652,072	-200,000	0,000	0,088
-651,057	-200,000	0,023	-0,142
-650,043	-200,000	-0,017	-0,114
-649,028	348,720	-0,092	-0,134
-648,014	790,389	-0,071	-0,145
-646,999	106,379	0,044	-0,038
-645,984	-200,000	0,021	-0,090
-644,970	406,492	-0,105	-0,164
-643,955	-200,000	0,008	0,053
-642,941	24,469	-0,178	-0,108
-641,926	-162,164	-0,151	0,005
-640,911	-93,739	-0,122	-0,025
-639,897	190,767	-0,064	0,071
-638,882	781,450	-0,026	0,053
-637,868	390,835	-0,032	-0,050
-636,853	-200,000	-0,031	-0,133
-635,838	446,378	0,092	-0,150
-634,824	-200,000	0,002	0,121
-633,809	216,896	0,024	0,028
-632,795	542,467	0,044	-0,078
-631,780	-93,502	0,102	0,021
-630,765	-58,793	0,039	0,012
-629,751	3,629	-0,020	-0,011
-628,736	-200,000	0,007	-0,073
-627,722	-23,122	0,042	0,018
-626,707	242,073	0,016	-0,020
-625,692	-200,000	0,014	0,081
-624,678	111,862	-0,070	-0,063
-623,663	-104,232	-0,047	0,008
-622,649	-92,551	-0,154	-0,032
-621,634	161,354	-0,066	-0,068
-620,619	150,291	-0,050	-0,050
-619,605	800,000	0,012	-0,026
-618,590	-200,000	-0,007	-0,094
-617,576	-13,324	-0,061	-0,029
-616,561	-6,643	0,056	0,028
-615,546	205,757	0,040	-0,046
-614,532	-200,000	0,000	-0,037
-613,517	-2,094	-0,189	-0,097
-612,503	344,090	-0,058	0,084
-611,488	-65,718	0,064	0,019
-610,474	-200,000	-0,028	0,132
-609,459	178,526	-0,073	0,078
-608,444	599,979	-0,062	-0,114
-607,430	256,561	0,035	-0,044
-606,415	289,973	0,006	-0,008
-605,401	-111,450	-0,042	0,006
-604,386	800,000	0,044	0,104
-603,371	800,000	-0,002	-0,004
-602,357	57,210	0,191	0,137
-601,342	280,482	0,076	-0,101
-600,328	-1,381	-0,104	-0,054
-599,313	270,312	-0,047	0,061
-598,298	800,000	0,015	0,048
-597,284	800,000	0,025	0,076
-596,269	-52,323	-0,107	-0,036
-595,255	450,759	0,024	0,039
-594,240	-100,557	-0,048	-0,009
-593,225	218,255	-0,126	-0,148
-592,211	-196,174	0,035	0,000
-591,196	278,950	0,008	-0,011
-590,182	-60,045	0,139	-0,044
-589,167	-129,216	0,034	-0,003
-588,152	368,447	0,062	-0,093
-587,138	-23,555	-0,173	-0,076
-586,123	168,960	-0,084	-0,088
-585,109	96,483	-0,107	-0,090
-584,094	-141,982	0,125	-0,009
-583,079	-60,068	0,136	0,043
-582,065	398,016	-0,081	0,125
-581,050	-38,445	0,071	0,028
-580,036	394,227	-0,041	0,063
-579,021	-200,000	0,007	0,061
-578,006	76,244	-0,031	0,024
-576,992	-150,493	0,144	0,008
-575,977	-32,920	0,015	0,006
-574,963	800,000	-0,016	-0,052
-573,948	-64,607	0,213	-0,063
-572,934	-56,995	-0,061	0,020
-571,919	97,913	-0,122	-0,104
-570,904	240,954	0,030	-0,037
-569,890	103,895	-0,070	-0,061
-568,875	-200,000	0,021	-0,085
-567,861	440,827	0,023	-0,037
-566,846	-200,000	0,018	0,091
-565,831	448,182	0,054	-0,087
-564,817	137,851	-0,007	-0,007
-563,802	46,470	0,066	-0,045
-562,788	785,278	-0,020	-0,041
-561,773	107,358	-0,013	0,011
-560,758	-105,602	0,060	-0,010
-559,744	643,096	-0,010	-0,019
-558,729	800,000	0,006	-0,019
-557,715	-200,000	0,003	0,084
-556,700	427,935	-0,058	0,093
-555,685	261,849	-0,052	-0,067
-554,671	-200,000	-0,003	-0,050
-553,656	-200,000	0,011	-0,100
-552,642	-85,282	0,050	0,011
-551,627	-200,000	-0,000	-0,042
-550,612	-200,000	0,009	-0,163
-549,598	0,229	-0,137	-0,072
-548,583	-200,000	0,018	-0,118
-547,569	-117,836	-0,060	-0,008
-546,554	-115,758	-0,102	0,014
-545,539	709,277	-0,091	0,177
-544,525	-200,000	0,021	0,093
-543,510	304,482	-0,031	0,043
-542,496	-200,000	-0,018	0,073
-541,481	-200,000	-0,005	-0,077
-540,466	-114,232	-0,140	-0,020
-539,452	208,327	0,005	0,006
-538,437	9,825	-0,043	-0,024
-537,423	284,796	0,068	-0,091
-536,408	43,567	-0,045	-0,030
-535,393	800,000	-0,051	0,115
-534,379	-56,109	0,097	0,032
-533,364	30,200	0,053	-0,033
-532,350	-200,000	-0,009	0,094
-531,335	-36,917	-0,069	0,027
-530,321	-96,753	0,022	-0,004
-529,306	-78,571	-0,054	-0,013
-528,291	-117,189	0,060	0,008
-527,277	456,907	-0,019	0,032
-526,262	262,225	0,132	-0,168
-525,248	-141,219	0,040	-0,003
-524,233	-200,000	-0,004	0,060
-523,218	181,573	-0,060	-0,065
-522,204	-106,753	-0,023	-0,004
-521,189	800,000	0,037	-0,080
-520,175	112,204	-0,112	0,100
-519,160	172,006	-0,027	0,028
-518,145	-196,126	0,112	-0,001
-517,131	-66,638	0,125	-0,036
-516,116	45,582	0,079	-0,054
-515,102	-200,000	-0,004	-0,120
-514,087	765,681	-0,021	-0,042
-513,072	177,129	-0,087	0,093
-512,058	-33,560	0,130	-0,053
-511,043	8,755	-0,133	-0,073
-510,029	-170,514	0,126	-0,003
-509,014	-133,123	0,206	0,019
-507,999	-109,922	-0,124	0,019
-506,985	-200,000	0,010	0,048
-505,970	254,021	-0,059	-0,075
-504,956	800,000	-0,046	0,106
-503,941	800,000	0,028	0,068
-502,926	-98,514	-0,050	0,009
-501,912	122,545	0,079	0,073
-500,897	-57,326	-0,065	0,021
-499,883	258,831	-0,053	-0,067
-498,868	368,942	-0,061	-0,090
-497,853	-200,000	-0,003	-0,125
-496,839	278,946	0,037	-0,049
-495,824	800,000	-0,060	0,171
-494,810	-200,000	-0,023	-0,138
-493,795	-151,236	0,092	0,005
-492,781	-142,627	-0,105	0,007
-491,766	-99,102	-0,107	-0,020
-490,751	-200,000	-0,009	-0,107
-489,737	541,430	-0,072	-0,127
-488,722	730,196	0,080	-0,158
-487,708	-16,852	0,103	0,047
-486,693	-119,312	-0,036	-0,005
-485,678	25,264	0,114	0,069
-484,664	237,144	-0,049	-0,060
-483,649	-200,000	0,014	-0,055
-482,635	54,221	-0,061	-0,043
-481,620	-144,744	0,088	-0,006
-480,605	131,973	0,063	0,059
-479,591	-200,000	-0,019	0,088
-478,576	-63,963	0,093	-0,028
-477,562	-94,910	-0,166	0,033
-476,547	213,718	0,101	-0,118
-475,532	491,037	-0,021	0,036
-474,518	-200,000	0,003	0,065
-473,503	-200,000	0,024	0,094
-472,489	-200,000	0,029	0,100
-471,474	800,000	0,021	0,066
-470,459	-200,000	0,003	-0,052
-469,445	-200,000	0,034	0,200
-468,430	114,990	-0,070	0,062
-467,416	-88,238	-0,211	0,046
-466,401	-200,000	0,025	0,169
-465,386	800,000	-0,008	-0,024
-464,372	-135,059	0,075	0,007
-463,357	-118,943	0,114	0,014
-462,343	-200,000	0,009	0,162
-461,328	183,718	-0,032	0,035
-460,313	67,386	-0,049	0,036
-459,299	-165,765	0,055	0,002
-458,284	669,537	0,021	0,041
-457,270	327,154	0,058	0,081
-456,255	-57,050	-0,081	-0,026
-455,241	56,775	0,053	0,038
-454,226	-200,000	0,015	0,154
-453,211	438,105	0,055	0,088
-452,197	800,000	-0,040	0,092
-451,182	-200,000	0,004	0,132
-450,168	538,524	-0,040	0,070
-449,153	324,183	-0,093	0,130
-448,138	168,775	0,071	0,074
-447,124	800,000	0,026	0,082
-446,109	141,018	-0,073	0,070
-445,095	800,000	0,035	0,075
-444,080	48,734	-0,138	0,095
-443,065	356,454	-0,032	0,047
-442,051	-50,639	0,018	0,006
-441,036	-121,302	0,059	0,007
-440,022	800,000	-0,037	-0,090
-439,007	157,184	-0,076	0,077
-437,992	-200,000	0,004	0,038
-436,978	93,705	0,115	0,095
-435,963	302,102	0,037	0,050
-434,949	-68,792	0,056	-0,016
-433,934	217,955	-0,101	-0,118
-432,919	206,303	0,042	-0,048
-431,905	-200,000	-0,024	-0,122
-430,890	792,300	-0,022	0,045
-429,876	800,000	-0,028	0,082
-428,861	-17,495	-0,051	0,023
-427,846	-200,000	0,002	-0,051
-426,832	-84,758	-0,191	0,043
-425,817	-200,000	-0,000	0,020
-424,803	-40,999	0,066	0,025
-423,788	-200,000	-0,006	0,023
-422,773	-200,000	-0,011	-0,047
-421,759	-200,000	0,019	0,080
-420,744	256,178	0,005	0,007
-419,730	-181,821	-0,058	-0,001
-418,715	340,368	-0,049	-0,070
-417,701	-200,000	-0,007	0,087
-416,686	49,604	0,013	0,009
-415,671	-93,781	0,006	0,001
-414,657	195,483	0,103	-0,115
-413,642	-200,000	0,020	0,074
-412,628	-149,962	0,029	0,002
-411,613	800,000	-0,025	-0,059
-410,598	-36,849	0,045	-0,018
-409,584	16,644	-0,094	-0,054
-408,569	227,197	0,069	0,082
-407,555	295,622	-0,050	-0,067
-406,540	163,804	0,104	-0,107
-405,525	-88,970	0,100	0,021
-404,511	800,000	-0,046	-0,108
-403,496	-200,000	-0,013	-0,067
-402,482	800,000	-0,046	0,095
-401,467	-200,000	0,003	0,097
-400,452	-200,000	-0,009	0,180
-399,438	-200,000	-0,003	0,053
-398,423	394,978	0,026	0,039
-397,409	800,000	-0,045	-0,119
-396,394	244,759	-0,062	-0,076
-395,379	800,000	0,025	-0,053
-394,365	-200,000	-0,011	0,146
-393,350	621,015	-0,067	0,124
-392,336	-102,692	0,091	0,016
-391,321	-139,653	0,047	-0,004
-390,306	-79,224	-0,072	-0,018
-389,292	-200,000	-0,028	0,107
-388,277	-90,693	-0,090	-0,019
-387,263	800,000	-0,019	0,055
-386,248	150,476	0,032	-0,032
-385,233	358,541	0,014	0,020
-384,219	-200,000	-0,001	-0,039
-383,204	-68,810	0,149	-0,042
-382,190	-16,938	-0,075	0,034
-381,175	800,000	-0,029	0,092
-380,160	-200,000	0,009	-0,038
-379,146	-112,275	0,113	-0,016
-378,131	28,256	0,061	0,037
-377,117	140,545	-0,062	-0,060
-376,102	217,277	0,050	-0,059
-375,088	241,685	-0,062	-0,076
-374,073	-56,995	0,123	0,039
-373,058	308,822	0,061	-0,083
-372,044	-63,367	0,047	0,014
-371,029	297,777	-0,054	0,072
-370,015	-48,393	-0,039	-0,014
-369,000	31,235	-0,074	0,046
-367,985	-200,000	-0,006	0,039
-366,971	-164,687	-0,042	0,001
-365,956	-200,000	0,008	-0,044
-364,942	10,792	0,079	0,044
-363,927	-200,000	-0,008	-0,078
-362,912	76,930	0,116	0,089
-361,898	256,606	0,051	-0,064
-360,883	121,799	-0,088	-0,080
-359,869	260,164	0,029	-0,037
-358,854	1,865	0,117	0,061
-357,839	-113,685	0,054	-0,008
-356,825	-50,820	0,104	0,036
-355,810	118,174	-0,076	-0,068
-354,796	450,081	0,084	0,135
-353,781	165,081	0,033	0,034
-352,766	209,007	-0,022	-0,025
-351,752	196,282	-0,075	0,084
-350,737	-174,769	0,190	-0,004
-349,723	-200,000	0,009	0,108
-348,708	580,192	0,064	-0,114
-347,693	-26,437	0,093	-0,040
-346,679	-200,000	-0,006	-0,035
-345,664	114,296	0,061	-0,054
-344,650	-200,000	0,026	0,094
-343,635	-200,000	0,026	0,215
-342,620	-200,000	0,005	-0,109
-341,606	-63,221	0,083	0,025
-340,591	800,000	0,032	0,074
-339,577	614,471	-0,047	0,087
-338,562	80,780	0,048	0,037
-337,548	-62,544	-0,019	0,006
-336,533	-200,000	0,012	0,076
-335,518	-200,000	0,028	0,174
-334,504	195,908	-0,059	-0,066
-333,489	261,317	-0,014	-0,017
-332,475	435,673	0,050	-0,080
-331,460	-200,000	-0,014	0,071
-330,445	596,239	0,016	0,029
-329,431	365,799	0,037	0,055
-328,416	-200,000	-0,015	0,120
-327,402	-23,482	0,062	0,027
-326,387	800,000	-0,042	0,109
-325,372	696,065	-0,046	0,089
-324,358	-200,000	0,007	-0,060
-323,343	-200,000	0,002	-0,132
-322,329	106,292	-0,081	0,070
-321,314	-200,000	-0,034	0,191
-320,299	800,000	0,040	0,094
-319,285	473,010	0,035	-0,057
-318,270	271,023	-0,168	-0,216
-317,256	27,051	-0,094	-0,057
-316,241	26,812	0,156	-0,095
-315,226	227,945	-0,015	0,018
-314,212	13,423	0,097	-0,054
-313,197	-124,802	0,047	0,005
-312,183	26,694	0,117	-0,071
-311,168	-200,000	-0,023	-0,079
-310,153	-200,000	0,005	-0,076
-309,139	800,000	-0,024	-0,075
-308,124	-200,000	0,035	-0,169
-307,110	-75,628	0,107	0,027
-306,095	800,000	-0,036	0,082
-305,080	353,763	0,015	0,021
-304,066	8,688	0,090	0,049
-303,051	-83,900	-0,047	-0,011
-302,037	-200,000	-0,009	-0,177
-301,022	-200,000	-0,009	-0,068
-300,008	-119,296	0,078	0,010
-298,993	-193,449	-0,056	-0,000
-297,978	800,000	0,010	-0,027
-296,964	-3,929	-0,112	-0,056
-295,949	-200,000	-0,024	-0,088
-294,935	169,082	-0,107	0,112
-293,920	800,000	0,067	0,161
-292,905	62,768	0,170	-0,124
-291,891	144,099	0,086	-0,084
-290,876	118,346	-0,099	0,089
-289,862	800,000	0,055	-0,118
-288,847	84,770	-0,095	0,076
-287,832	-5,768	0,048	0,024
-286,818	-200,000	-0,001	-0,059
-285,803	800,000	0,044	-0,138
-284,789	-200,000	0,008	-0,035
-283,774	800,000	0,067	0,195
-282,759	-200,000	-0,020	0,106
-281,745	800,000	0,090	-0,200
-280,730	558,842	-0,013	-0,023
-279,716	-38,148	0,069	0,026
-278,701	800,000	-0,044	-0,113
-277,686	13,621	0,052	-0,029
-276,672	-200,000	-0,012	0,073
-275,657	-63,101	-0,061	0,018
-274,643	-200,000	-0,026	-0,100
-273,628	-76,222	-0,100	0,025
-272,613	-54,209	0,050	-0,017
-271,599	-200,000	0,007	-0,078
-270,584	-125,451	0,141	-0,015
-269,570	426,051	0,039	0,061
-268,555	269,058	-0,105	0,134
-267,540	27,347	-0,096	0,058
-266,526	-153,958	-0,075	0,004
-265,511	27,513	-0,044	-0,027
-264,497	-124,962	0,103	-0,011
-263,482	-200,000	-0,026	0,213
-262,467	-84,833	0,110	0,025
-261,453	426,727	-0,043	0,068
-260,438	800,000	0,054	-0,120
-259,424	-21,617	0,048	-0,021
-258,409	-200,000	-0,014	-0,086
-257,395	699,615	-0,014	-0,027
-256,380	-4,821	0,058	0,029
-255,365	-37,709	0,127	-0,049
-254,351	5,334	-0,073	-0,039
-253,336	-149,061	0,090	0,005
-252,322	127,693	0,074	-0,068
-251,307	-179,548	0,107	-0,002
-250,292	-200,000	0,009	0,152
-249,278	262,460	-0,057	0,071
-248,263	125,823	0,048	0,044
-247,249	299,444	0,080	0,107
-246,234	-9,498	0,081	0,039
-245,219	613,619	-0,005	0,009
-244,205	-39,010	-0,149	-0,057
-243,190	251,583	0,116	-0,144
-242,176	94,929	-0,089	0,074
-241,161	-144,506	-0,159	0,011
-240,146	10,342	-0,091	0,050
-239,132	-200,000	-0,002	-0,034
-238,117	90,813	0,176	0,143
-237,103	35,901	-0,060	0,038
-236,088	-153,670	0,004	0,000
-235,073	322,439	-0,100	0,138
-234,059	-148,396	0,021	-0,001
-233,044	-5,152	0,047	0,023
-232,030	800,000	0,005	-0,013
-231,015	69,842	0,028	0,021
-230,000	-200,000	-0,044	-0,176
-228,986	-150,089	0,079	0,004
-227,971	22,673	-0,061	-0,036
-226,957	83,911	0,069	0,054
-225,942	-151,733	0,111	-0,006
-224,927	-173,754	0,099	-0,002
-223,913	-62,288	0,015	-0,005
-222,898	-200,000	-0,001	-0,006
-221,884	800,000	0,054	-0,137
-220,869	-200,000	-0,016	-0,088
-219,855	-27,878	0,033	-0,014
-218,840	90,281	0,033	0,027
-217,825	663,565	0,059	-0,111
-216,811	8,809	-0,116	-0,063
-215,796	412,634	-0,020	0,032
-214,782	800,000	-0,027	-0,059
-213,767	102,781	0,120	-0,102
-212,752	800,000	0,010	-0,027
-211,738	800,000	-0,031	-0,090
-210,723	-107,916	0,126	0,020
-209,709	173,827	0,087	-0,091
-208,694	800,000	0,032	-0,082
-207,679	-200,000	-0,007	0,046
-206,665	800,000	-0,018	-0,043
-205,650	792,826	0,009	-0,018
-204,636	-200,000	0,018	0,057
-203,621	-26,502	0,111	0,047
-202,606	329,733	-0,083	-0,116
-201,592	800,000	-0,026	-0,063
-200,577	-200,000	0,001	-0,026
-199,563	24,846	-0,095	0,057
-198,548	-200,000	0,055	0,226
-197,533	412,413	0,038	0,059
-196,519	95,920	0,045	-0,037
-195,504	-18,295	-0,026	0,012
-194,490	-12,066	0,084	0,040
-193,475	-200,000	-0,017	-0,191
-192,460	99,938	0,177	0,149
-191,446	69,462	-0,027	0,020
-190,431	800,000	-0,016	-0,034
-189,417	800,000	0,049	-0,101
-188,402	74,162	-0,187	0,142
-187,387	88,557	-0,053	-0,043
-186,373	7,337	-0,070	-0,038
-185,358	-86,350	-0,135	0,030
-184,344	-200,000	-0,010	0,048
-183,329	137,597	-0,042	0,040
-182,315	-200,000	-0,060	0,219
-181,300	-200,000	0,004	0,066
-180,285	-200,000	-0,013	-0,140
-179,271	440,438	-0,082	-0,130
-178,256	-130,442	-0,022	0,002
-177,242	728,834	-0,035	-0,067
-176,227	800,000	-0,030	0,087
-175,212	-0,745	0,052	0,026
-174,198	-73,243	0,031	0,008
-173,183	51,764	-0,037	-0,026
-172,169	-150,877	-0,093	-0,005
-171,154	38,911	-0,062	-0,040
-170,139	254,811	0,066	-0,082
-169,125	52,057	-0,100	0,069
-168,110	-97,381	-0,093	0,017
-167,096	800,000	0,028	-0,059
-166,081	100,031	-0,042	0,036
-165,066	89,580	-0,105	-0,085
-164,052	134,411	0,085	0,080
-163,037	19,626	-0,047	0,027
-162,023	-62,758	-0,056	0,017
-161,008	-200,000	-0,024	-0,095
-159,993	800,000	-0,078	0,167
-158,979	250,827	-0,011	0,013
-157,964	581,002	-0,044	-0,079
-156,950	-200,000	-0,026	0,089
-155,935	97,582	-0,060	0,050
-154,920	-200,000	0,008	-0,235
-153,906	67,044	0,104	0,077
-152,891	4,907	-0,063	0,034
-151,877	-200,000	0,008	0,065
-150,862	118,990	-0,146	-0,131
-149,847	-31,366	0,131	0,053
-148,833	197,014	-0,058	0,064
-147,818	233,194	-0,029	0,035
-146,804	222,995	0,051	0,060
-145,789	134,528	0,025	-0,023
-144,775	-11,921	-0,093	0,044
-143,760	-43,898	-0,088	0,032
-142,745	-200,000	0,003	0,031
-141,731	357,883	0,083	-0,121
-140,716	-65,502	0,091	0,026
-139,702	100,454	0,091	0,076
-138,687	404,366	0,072	0,110
-137,672	-101,570	0,113	0,020
-136,658	-103,635	0,101	0,017
-135,643	-200,000	-0,029	-0,133
-134,629	62,567	0,065	-0,047
-133,614	49,316	0,105	0,071
-132,599	-200,000	0,006	-0,054
-131,585	20,419	0,117	0,068
-130,570	-2,790	0,060	0,030
-129,556	-13,550	-0,104	-0,049
-128,541	-141,232	0,094	-0,007
-127,526	-12,124	-0,128	-0,060
-126,512	-200,000	-0,016	0,085
-125,497	-73,463	0,186	-0,049
-124,483	15,925	0,090	0,051
-123,468	112,571	-0,120	-0,105
-122,453	800,000	-0,037	-0,111
-121,439	-200,000	-0,014	-0,055
-120,424	-170,424	-0,121	0,003
