DTS Sentinel unit serial number:	SN410029Multiplexer serial number:	ORYXHardware model number:	OX2-SRSoftware version number:	ORYX F/W v4,00 Oryx Data Collector v3.7.2.0data status	okinstallation	B4 Nyhavnadifferential loss correction	single-endedforward channel	channel 2reverse channel	N/Adate	2023/12/19time	00:40:13forward acquisition time	300,00reverse acquisition time	0,00gamma	499,1914k internal	0,3123k external	0,3123temperature offset calibration	1,0000default loss term (dB/km)	0,3820temperature slope calibration	1,0000multiplexer offset coefficient	1,0000multiplexer slope coefficient	1,0000fibre end	0,00T internal ref (°C)	22,04T ext. ref 1 (°C)	6,48T ext. ref 2 (°C)	6,48length (m)	temperature (°C)	Stokes	anti-Stokes-744,400	800,000	0,061	-0,164
-743,385	-121,473	-0,269	0,033
-742,371	-49,486	0,114	-0,040
-741,356	159,612	-0,194	0,202
-740,342	-86,708	0,040	-0,009
-739,327	0,619	-0,280	0,149
-738,312	154,183	0,124	-0,127
-737,298	-70,642	-0,145	0,040
-736,283	511,645	0,058	-0,101
-735,269	-2,216	-0,248	0,130
-734,254	800,000	0,036	-0,079
-733,239	-134,315	-0,489	-0,044
-732,225	-135,572	0,091	-0,008
-731,210	-200,000	-0,002	-0,072
-730,196	374,713	0,019	-0,030
-729,181	-200,000	0,018	0,071
-728,167	11,872	-0,074	0,042
-727,152	-34,750	-0,017	-0,007
-726,137	-99,786	-0,061	0,011
-725,123	0,882	-0,097	-0,051
-724,108	-200,000	0,010	0,084
-723,094	-77,895	-0,080	-0,020
-722,079	131,405	-0,067	-0,064
-721,064	58,820	-0,014	-0,010
-720,050	-1,129	0,107	0,056
-719,035	-92,779	-0,160	-0,033
-718,021	353,231	-0,075	-0,111
-717,006	800,000	0,065	-0,136
-715,991	800,000	-0,066	-0,138
-714,977	70,778	-0,048	0,037
-713,962	-200,000	-0,024	-0,095
-712,948	-122,956	-0,126	-0,015
-711,933	44,499	-0,089	0,061
-710,918	248,190	0,073	-0,092
-709,904	-33,515	0,080	0,033
-708,889	800,000	-0,028	-0,066
-707,875	-68,697	-0,090	-0,026
-706,860	47,445	-0,057	-0,040
-705,845	-198,416	0,098	0,000
-704,831	-61,172	-0,059	0,019
-703,816	-64,875	-0,085	0,026
-702,802	-132,320	-0,063	0,006
-701,787	243,814	-0,081	-0,101
-700,772	94,484	-0,061	-0,052
-699,758	-86,583	0,055	0,012
-698,743	-85,679	0,046	0,010
-697,729	16,143	-0,122	-0,071
-696,714	323,701	0,056	0,079
-695,699	454,103	0,073	0,121
-694,685	-200,000	-0,007	-0,031
-693,670	-173,868	-0,084	0,002
-692,656	79,086	-0,106	-0,085
-691,641	-200,000	-0,000	-0,058
-690,627	-11,482	0,114	0,056
-689,612	-12,678	-0,158	0,076
-688,597	-200,000	0,030	-0,118
-687,583	-44,403	-0,073	0,027
-686,568	-200,000	0,020	-0,103
-685,554	198,675	0,088	-0,101
-684,539	-200,000	0,012	-0,110
-683,524	45,638	-0,030	0,021
-682,510	-5,986	-0,121	-0,061
-681,495	101,446	-0,106	-0,092
-680,481	800,000	0,020	0,050
-679,466	-54,417	-0,129	-0,043
-678,451	-200,000	0,033	-0,190
-677,437	-20,920	-0,052	-0,024
-676,422	236,163	-0,066	-0,081
-675,408	800,000	0,058	-0,140
-674,393	155,155	-0,046	-0,047
-673,378	-126,930	-0,066	0,007
-672,364	800,000	-0,030	-0,089
-671,349	300,509	-0,115	-0,158
-670,335	607,212	0,041	-0,076
-669,320	-144,476	-0,047	0,003
-668,305	-115,878	-0,155	0,021
-667,291	680,830	-0,014	0,028
-666,276	177,704	-0,050	0,054
-665,262	559,634	0,021	-0,038
-664,247	-200,000	0,014	-0,100
-663,232	-126,195	-0,048	-0,005
-662,218	-133,381	0,046	-0,004
-661,203	-200,000	-0,004	-0,064
-660,189	710,657	-0,022	0,043
-659,174	210,955	-0,027	0,032
-658,159	-69,720	-0,038	-0,011
-657,145	744,347	0,016	-0,033
-656,130	-200,000	0,018	-0,140
-655,116	238,298	0,020	0,025
-654,101	51,946	-0,115	0,081
-653,086	17,887	0,052	0,031
-652,072	-200,000	0,000	0,060
-651,057	-200,000	-0,010	0,102
-650,043	800,000	-0,022	-0,063
-649,028	800,000	-0,016	0,038
-648,014	-200,000	-0,019	-0,086
-646,999	209,789	-0,073	0,086
-645,984	4,002	0,099	-0,054
-644,970	42,167	-0,092	-0,062
-643,955	800,000	-0,041	0,107
-642,941	-200,000	-0,021	0,126
-641,926	680,548	-0,087	-0,169
-640,911	-200,000	0,000	-0,029
-639,897	45,310	0,050	0,034
-638,882	800,000	0,043	0,103
-637,868	88,259	-0,025	-0,021
-636,853	-16,622	-0,112	-0,053
-635,838	-78,888	-0,094	0,023
-634,824	800,000	0,028	0,068
-633,809	-0,471	0,066	-0,035
-632,795	72,197	-0,117	-0,091
-631,780	800,000	-0,045	-0,128
-630,765	439,452	-0,012	0,019
-629,751	-76,237	0,033	0,009
-628,736	-150,995	-0,020	-0,001
-627,722	-200,000	-0,017	-0,091
-626,707	-200,000	0,009	-0,056
-625,692	54,842	0,020	-0,014
-624,678	-200,000	-0,026	-0,150
-623,663	-200,000	-0,002	-0,085
-622,649	132,895	-0,068	-0,065
-621,634	-200,000	-0,019	-0,126
-620,619	-200,000	-0,005	0,042
-619,605	-25,548	0,116	-0,051
-618,590	-60,629	0,133	0,042
-617,576	-200,000	0,020	0,105
-616,561	-178,787	0,155	0,003
-615,546	-200,000	-0,011	0,053
-614,532	-96,445	-0,042	-0,008
-613,517	22,001	-0,073	-0,044
-612,503	-96,857	0,110	0,021
-611,488	-200,000	0,047	-0,164
-610,474	-72,573	0,069	0,019
-609,459	175,418	-0,100	0,107
-608,444	-51,623	-0,100	-0,034
-607,430	15,338	-0,032	-0,019
-606,415	366,428	-0,043	-0,065
-605,401	-200,000	0,012	0,052
-604,386	708,986	0,048	-0,095
-603,371	204,764	0,031	0,036
-602,357	212,503	-0,098	-0,114
-601,342	800,000	-0,039	0,084
-600,328	-200,000	0,005	-0,098
-599,313	800,000	0,030	0,083
-598,298	-200,000	-0,004	0,048
-597,284	800,000	0,037	-0,077
-596,269	-23,456	0,104	0,046
-595,255	-10,700	-0,141	0,069
-594,240	405,475	-0,041	-0,065
-593,225	-59,946	-0,076	0,024
-592,211	-34,798	-0,053	-0,022
-591,196	-43,615	0,100	0,037
-590,182	-90,940	0,084	0,018
-589,167	-96,003	-0,036	-0,007
-588,152	64,998	0,071	0,053
-587,138	420,822	-0,057	0,091
-586,123	47,750	-0,143	-0,099
-585,109	697,820	-0,035	0,068
-584,094	11,948	-0,052	0,029
-583,079	-139,727	0,099	-0,008
-582,065	-200,000	-0,005	-0,040
-581,050	800,000	0,055	0,170
-580,036	103,346	-0,082	-0,072
-579,021	-197,228	-0,110	0,001
-578,006	800,000	-0,018	-0,052
-576,992	-200,000	-0,003	-0,132
-575,977	160,385	0,093	0,096
-574,963	800,000	0,074	0,154
-573,948	-117,929	-0,073	0,010
-572,934	24,221	-0,053	-0,032
-571,919	163,571	0,091	-0,095
-570,904	-200,000	0,003	-0,117
-569,890	800,000	-0,053	-0,114
-568,875	-200,000	-0,019	0,108
-567,861	113,589	0,036	-0,032
-566,846	-10,251	0,048	0,024
-565,831	108,574	-0,075	-0,066
-564,817	-200,000	0,038	0,167
-563,802	768,784	-0,046	-0,092
-562,788	46,673	-0,084	-0,057
-561,773	-137,650	-0,090	-0,007
-560,758	-16,079	0,074	-0,035
-559,744	-200,000	-0,003	-0,035
-558,729	-67,476	0,017	0,005
-557,715	-134,521	0,107	-0,010
-556,700	49,477	-0,049	0,034
-555,685	201,386	-0,071	0,081
-554,671	689,723	0,053	0,103
-553,656	-99,493	0,130	0,024
-552,642	190,229	0,107	0,119
-551,627	-200,000	0,000	0,074
-550,612	48,706	-0,037	-0,025
-549,598	122,833	-0,030	-0,027
-548,583	128,532	0,142	-0,134
-547,569	339,910	-0,035	0,050
-546,554	393,882	0,048	-0,075
-545,539	56,490	0,044	0,032
-544,525	144,304	0,151	0,149
-543,510	-89,978	-0,090	0,019
-542,496	-154,242	0,095	-0,005
-541,481	87,839	0,054	0,044
-540,466	-21,940	0,083	0,037
-539,452	94,454	0,061	0,051
-538,437	-200,000	0,021	0,115
-537,423	200,587	-0,079	-0,090
-536,408	800,000	-0,036	-0,117
-535,393	-200,000	0,024	-0,142
-534,379	-200,000	0,010	0,076
-533,364	591,101	0,016	0,030
-532,350	8,273	0,085	0,047
-531,335	800,000	-0,017	0,054
-530,321	800,000	0,035	0,098
-529,306	139,853	-0,097	0,094
-528,291	800,000	0,061	-0,163
-527,277	701,410	0,104	-0,203
-526,262	-74,663	-0,091	-0,024
-525,248	3,846	-0,096	0,052
-524,233	117,636	0,055	0,050
-523,218	-107,520	-0,050	-0,008
-522,204	21,781	-0,124	0,074
-521,189	217,876	-0,044	0,052
-520,175	-70,018	-0,109	-0,030
-519,160	63,057	0,046	0,034
-518,145	-134,153	0,166	-0,015
-517,131	43,187	0,099	0,066
-516,116	-53,746	-0,103	0,035
-515,102	800,000	0,008	-0,021
-514,087	277,539	-0,037	-0,049
-513,072	74,891	-0,075	-0,058
-512,058	800,000	0,020	-0,051
-511,043	-200,000	0,025	-0,107
-510,029	800,000	0,072	-0,155
-509,014	-134,570	0,007	0,001
-507,999	274,865	-0,083	0,109
-506,985	-82,644	-0,088	-0,021
-505,970	67,222	0,074	-0,056
-504,956	128,832	-0,020	0,019
-503,941	-100,115	0,077	-0,014
-502,926	-40,142	0,074	0,028
-501,912	-113,350	-0,059	-0,008
-500,897	429,316	-0,040	0,064
-499,883	-12,259	-0,148	-0,071
-498,868	-158,296	0,025	0,001
-497,853	140,413	-0,050	0,049
-496,839	758,595	-0,020	0,040
-495,824	-200,000	0,018	0,097
-494,810	-200,000	0,025	0,153
-493,795	97,461	0,054	-0,046
-492,781	359,445	0,058	-0,086
-491,766	-74,317	-0,059	-0,016
-490,751	-41,911	0,045	0,017
-489,737	316,549	0,019	-0,026
-488,722	501,784	-0,055	0,094
-487,708	-200,000	0,012	0,111
-486,693	585,421	0,080	0,146
-485,678	-70,878	0,068	-0,019
-484,664	519,690	-0,059	-0,102
-483,649	190,390	-0,060	-0,067
-482,635	-26,017	0,115	-0,050
-481,620	-200,000	0,004	0,025
-480,605	800,000	-0,044	-0,097
-479,591	-22,135	0,104	-0,046
-478,576	195,172	-0,029	0,033
-477,562	-200,000	0,009	-0,043
-476,547	512,426	-0,019	-0,033
-475,532	79,003	0,091	0,072
-474,518	340,601	-0,039	-0,056
-473,503	163,157	-0,046	-0,048
-472,489	-200,000	-0,003	-0,129
-471,474	800,000	-0,047	-0,110
-470,459	-19,058	-0,050	-0,023
-469,445	-74,941	-0,059	-0,015
-468,430	189,010	0,065	0,071
-467,416	-200,000	0,006	0,033
-466,401	73,450	-0,081	0,062
-465,386	-34,758	-0,061	-0,024
-464,372	32,775	0,108	0,069
-463,357	-200,000	-0,010	0,136
-462,343	-91,102	0,060	0,013
-461,328	-200,000	-0,035	-0,221
-460,313	-200,000	-0,004	0,099
-459,299	-84,224	-0,112	0,026
-458,284	-54,464	0,075	-0,025
-457,270	-22,460	-0,069	0,031
-456,255	-200,000	0,008	-0,093
-455,241	800,000	0,028	-0,085
-454,226	-79,207	0,063	-0,016
-453,211	60,353	-0,062	0,045
-452,197	-119,954	0,079	-0,010
-451,182	334,942	0,050	0,072
-450,168	115,648	0,148	0,134
-449,153	19,383	-0,096	0,057
-448,138	59,954	-0,150	-0,109
-447,124	-124,926	0,060	0,007
-446,109	-200,000	-0,033	-0,126
-445,095	0,082	-0,045	-0,023
-444,080	800,000	-0,028	0,083
-443,065	228,018	-0,048	0,058
-442,051	-67,722	0,091	-0,026
-441,036	-200,000	-0,049	-0,207
-440,022	800,000	0,036	-0,094
-439,007	51,508	-0,092	0,064
-437,992	800,000	0,042	-0,118
-436,978	-200,000	0,006	0,147
-435,963	239,282	-0,075	0,092
-434,949	-64,814	0,030	0,009
-433,934	211,123	-0,102	-0,119
-432,919	-101,497	0,057	0,010
-431,905	-162,649	-0,089	-0,003
-430,890	1,261	0,074	0,039
-429,876	-53,811	0,078	-0,026
-428,861	800,000	0,046	-0,108
-427,846	-47,895	-0,064	0,023
-426,832	800,000	-0,045	-0,144
-425,817	18,701	0,078	-0,046
-424,803	22,581	0,122	-0,073
-423,788	189,118	0,043	0,047
-422,773	-105,128	-0,112	0,019
-421,759	-200,000	0,020	0,065
-420,744	-200,000	0,005	0,151
-419,730	-11,900	0,031	0,015
-418,715	-28,321	-0,079	0,034
-417,701	-200,000	0,003	-0,077
-416,686	-200,000	0,011	0,065
-415,671	-104,755	0,072	0,012
-414,657	-131,348	-0,061	-0,006
-413,642	28,634	-0,124	0,077
-412,628	-141,130	-0,128	0,009
-411,613	-68,837	-0,050	-0,014
-410,598	-101,101	0,081	-0,015
-409,584	580,123	0,013	-0,023
-408,569	248,398	-0,075	0,093
-407,555	-74,447	-0,057	-0,015
-406,540	119,947	0,106	-0,097
-405,525	800,000	0,014	-0,029
-404,511	-17,024	-0,037	-0,017
-403,496	423,635	-0,092	-0,145
-402,482	-200,000	0,027	-0,115
-401,467	-200,000	-0,007	-0,047
-400,452	56,087	0,176	0,126
-399,438	-200,000	-0,006	0,199
-398,423	188,859	-0,018	0,020
-397,409	-68,803	0,146	-0,041
-396,394	264,082	-0,076	0,098
-395,379	-66,670	-0,030	0,009
-394,365	-200,000	0,025	-0,087
-393,350	-200,000	-0,007	-0,142
-392,336	-85,369	0,100	0,023
-391,321	131,861	0,104	0,099
-390,306	-95,615	-0,115	0,022
-389,292	4,985	-0,089	0,048
-388,277	89,998	-0,124	0,102
-387,263	791,072	0,024	0,048
-386,248	-72,411	0,139	0,038
-385,233	391,681	-0,108	0,166
-384,219	95,202	-0,089	0,075
-383,204	74,612	-0,048	-0,037
-382,190	-176,471	-0,097	0,002
-381,175	27,784	-0,064	-0,040
-380,160	9,613	-0,106	-0,059
-379,146	436,594	0,019	-0,031
-378,131	-167,206	0,098	-0,003
-377,117	-122,566	-0,092	0,011
-376,102	555,930	-0,041	-0,073
-375,088	-87,424	0,067	0,015
-374,073	-200,000	-0,017	-0,076
-373,058	-150,302	0,079	0,004
-372,044	-200,000	0,026	0,161
-371,029	800,000	0,025	-0,073
-370,015	-200,000	0,038	0,188
-369,000	48,882	0,042	0,029
-367,985	-29,596	-0,113	0,047
-366,971	800,000	-0,014	-0,034
-365,956	-112,396	0,155	-0,022
-364,942	440,012	-0,075	0,121
-363,927	358,346	-0,126	0,186
-362,912	-30,048	0,181	0,075
-361,898	-174,306	-0,055	0,001
-360,883	-79,725	-0,141	0,035
-359,869	-133,207	0,064	-0,006
-358,854	306,792	0,096	0,131
-357,839	-16,701	0,078	-0,036
-356,825	-200,000	-0,010	0,035
-355,810	-9,241	-0,033	-0,016
-354,796	64,397	0,047	0,035
-353,781	-200,000	-0,007	0,097
-352,766	61,870	-0,081	-0,059
-351,752	462,109	-0,047	-0,077
-350,737	-200,000	0,037	0,169
-349,723	800,000	0,058	0,159
-348,708	364,003	-0,075	0,111
-347,693	238,104	-0,111	0,135
-346,679	-50,110	0,071	-0,025
-345,664	129,806	-0,026	0,024
-344,650	-200,000	0,023	-0,083
-343,635	42,848	0,065	-0,044
-342,620	45,638	0,066	-0,045
-341,606	-38,993	-0,088	-0,034
-340,591	800,000	-0,018	-0,056
-339,577	84,978	-0,016	0,013
-338,562	31,146	0,076	-0,048
-337,548	240,676	0,090	-0,110
-336,533	-200,000	0,016	0,112
-335,518	185,522	-0,055	0,060
-334,504	347,521	0,093	0,134
-333,489	512,218	0,046	-0,078
-332,475	-200,000	-0,014	0,074
-331,460	92,326	-0,069	-0,057
-330,445	-43,895	-0,080	-0,030
-329,431	800,000	0,029	-0,092
-328,416	-20,843	0,063	0,028
-327,402	-89,627	0,103	0,022
-326,387	-200,000	0,013	0,166
-325,372	-173,729	-0,088	-0,002
-324,358	-26,825	-0,097	-0,041
-323,343	1,451	-0,188	-0,099
-322,329	-99,271	-0,062	0,011
-321,314	800,000	0,041	-0,090
-320,299	-111,817	0,083	0,012
-319,285	800,000	-0,044	0,097
-318,270	-91,876	0,029	0,006
-317,256	-16,189	-0,047	-0,022
-316,241	223,029	-0,058	0,069
-315,226	66,889	0,071	0,053
-314,212	-5,886	-0,041	0,020
-313,197	-200,000	-0,004	0,023
-312,183	143,683	0,093	0,091
-311,168	153,464	-0,126	-0,127
-310,153	134,707	-0,117	-0,111
-309,139	235,199	-0,076	-0,093
-308,124	64,566	-0,035	-0,026
-307,110	-145,165	0,145	0,009
-306,095	41,828	0,082	0,054
-305,080	-122,503	-0,123	-0,015
-304,066	-200,000	0,006	-0,025
-303,051	321,302	0,028	-0,040
-302,037	-71,129	-0,009	0,002
-301,022	-200,000	-0,005	-0,044
-300,008	-200,000	-0,004	0,089
-298,993	-11,729	0,022	0,010
-297,978	144,668	-0,069	-0,068
-296,964	-25,508	0,017	0,007
-295,949	-200,000	-0,014	0,106
-294,935	-55,144	0,035	-0,011
-293,920	-33,302	0,158	0,064
-292,905	-8,635	-0,027	0,013
-291,891	-200,000	0,023	-0,088
-290,876	-18,247	0,137	0,063
-289,862	800,000	-0,042	0,109
-288,847	-200,000	0,030	-0,130
-287,832	800,000	0,043	0,090
-286,818	800,000	-0,031	0,063
-285,803	-145,852	-0,081	-0,005
-284,789	800,000	0,067	0,156
-283,774	108,473	0,056	-0,049
-282,759	69,339	0,046	-0,035
-281,745	-200,000	-0,019	-0,079
-280,730	363,465	-0,120	-0,178
-279,716	-200,000	0,020	-0,065
-278,701	-200,000	-0,021	-0,099
-277,686	800,000	0,063	0,130
-276,672	405,365	0,061	-0,094
-275,657	-200,000	0,013	0,124
-274,643	-200,000	-0,007	0,059
-273,628	-14,356	-0,096	0,045
-272,613	171,657	0,089	-0,093
-271,599	-200,000	0,002	-0,046
-270,584	142,828	-0,036	-0,035
-269,570	-76,873	0,064	0,016
-268,555	44,048	-0,064	0,043
-267,540	64,335	0,094	-0,069
-266,526	800,000	-0,056	-0,165
-265,511	594,222	0,021	0,038
-264,497	800,000	-0,039	0,079
-263,482	292,211	0,116	0,155
-262,467	-74,657	0,065	0,017
-261,453	-64,829	-0,114	0,034
-260,438	99,915	-0,040	0,034
-259,424	187,062	0,066	-0,072
-258,409	800,000	-0,069	-0,158
-257,395	73,657	-0,104	0,080
-256,380	-90,641	0,091	-0,019
-255,365	800,000	0,051	0,116
-254,351	-200,000	0,002	0,092
-253,336	83,715	0,010	0,008
-252,322	800,000	-0,050	-0,114
-251,307	8,003	0,086	-0,047
-250,292	142,756	-0,096	0,093
-249,278	-53,516	-0,063	0,021
-248,263	116,972	0,035	0,031
-247,249	-49,940	0,124	0,043
-246,234	123,685	-0,073	0,067
-245,219	295,081	-0,032	-0,043
-244,205	113,484	0,066	0,059
-243,190	-78,347	0,061	0,015
-242,176	185,025	0,131	0,142
-241,161	-63,957	0,054	-0,016
-240,146	255,350	-0,032	0,041
-239,132	69,577	-0,072	-0,054
-238,117	-70,176	0,138	0,038
-237,103	287,695	-0,086	0,114
-236,088	81,927	0,105	0,083
-235,073	364,812	-0,029	-0,042
-234,059	79,415	-0,055	0,043
-233,044	800,000	0,080	0,177
-232,030	596,805	-0,107	0,195
-231,015	179,822	0,037	-0,040
-230,000	173,934	-0,119	-0,126
-228,986	-177,042	-0,071	0,001
-227,971	-5,304	0,115	0,058
-226,957	-200,000	-0,024	-0,150
-225,942	-97,296	0,041	0,008
-224,927	44,509	0,073	-0,049
-223,913	-32,662	-0,012	0,005
-222,898	176,843	-0,095	0,102
-221,884	-89,937	-0,082	-0,017
-220,869	-125,497	-0,059	0,006
-219,855	-159,204	0,103	0,004
-218,840	-29,416	0,008	0,003
-217,825	-59,835	0,075	-0,023
-216,811	800,000	-0,025	0,059
-215,796	-119,935	-0,047	-0,006
-214,782	7,594	0,069	-0,037
-213,767	-200,000	-0,009	-0,066
-212,752	-200,000	-0,011	-0,197
-211,738	342,998	0,070	0,100
-210,723	232,540	0,083	0,100
-209,709	-200,000	0,004	0,101
-208,694	800,000	-0,033	-0,082
-207,679	-200,000	0,013	-0,126
-206,665	100,874	0,014	-0,012
-205,650	-11,535	-0,063	-0,030
-204,636	172,675	-0,103	0,108
-203,621	800,000	0,085	-0,210
-202,606	-10,287	-0,052	-0,025
-201,592	-125,449	-0,110	0,012
-200,577	-25,572	-0,021	0,009
-199,563	800,000	0,070	-0,151
-198,548	-200,000	-0,004	0,020
-197,533	-200,000	0,027	0,102
-196,519	38,379	-0,041	-0,027
-195,504	279,969	-0,058	-0,076
-194,490	-125,822	0,078	-0,008
-193,475	-42,643	0,017	-0,006
-192,460	543,980	0,029	-0,050
-191,446	67,621	0,036	0,027
-190,431	-200,000	-0,003	0,066
-189,417	687,518	0,051	-0,098
-188,402	16,826	-0,034	-0,020
-187,387	800,000	-0,009	-0,023
-186,373	562,442	-0,097	-0,173
-185,358	-40,061	0,061	-0,023
-184,344	110,532	-0,051	0,044
-183,329	319,162	-0,018	-0,025
-182,315	800,000	0,008	0,020
-181,300	-90,843	-0,012	-0,002
-180,285	128,558	0,083	-0,077
-179,271	-18,340	0,179	0,081
-178,256	28,987	-0,034	-0,021
-177,242	-133,597	0,160	-0,014
-176,227	-127,420	0,064	-0,007
-175,212	-51,877	0,076	0,026
-174,198	-69,488	-0,086	0,024
-173,183	237,861	0,109	-0,132
-172,169	800,000	-0,060	-0,144
-171,154	117,289	-0,024	-0,021
-170,139	-200,000	-0,000	-0,002
-169,125	-146,131	0,063	0,004
-168,110	-200,000	0,020	-0,111
-167,096	800,000	0,016	0,046
-166,081	800,000	-0,043	0,131
-165,066	-28,331	-0,145	-0,061
-164,052	-200,000	0,014	-0,094
-163,037	-83,684	-0,097	-0,022
-162,023	4,001	0,123	-0,065
-161,008	800,000	-0,048	0,130
-159,993	-33,930	-0,047	-0,019
-158,979	-47,852	-0,075	0,026
-157,964	16,570	-0,031	-0,018
-156,950	800,000	0,027	-0,059
-155,935	-200,000	0,023	-0,149
-154,920	800,000	-0,024	-0,070
-153,906	396,373	0,046	-0,070
-152,891	467,319	0,011	-0,018
-151,877	-73,359	-0,044	0,012
-150,862	312,193	-0,014	0,019
-149,847	800,000	-0,039	0,104
-148,833	739,501	-0,025	-0,049
-147,818	41,136	-0,045	-0,029
-146,804	-133,510	0,116	0,010
-145,789	-141,154	0,154	-0,011
-144,775	36,630	-0,085	-0,054
-143,760	-192,106	0,043	0,000
-142,745	-64,311	0,028	-0,008
-141,731	-200,000	-0,021	0,207
-140,716	-200,000	-0,002	-0,027
-139,702	-73,069	-0,148	0,039
-138,687	-36,147	0,141	-0,055
-137,672	-200,000	0,044	0,159
-136,658	-28,137	0,061	-0,025
-135,643	-79,034	-0,022	0,005
-134,629	133,425	0,047	-0,044
-133,614	261,176	-0,152	0,192
-132,599	367,828	0,051	0,075
-131,585	39,682	0,141	-0,092
-130,570	324,394	-0,118	-0,164
-129,556	154,306	-0,051	-0,051
-128,541	-43,446	-0,117	0,043
-127,526	-176,826	-0,109	-0,002
-126,512	-200,000	-0,012	-0,089
-125,497	279,230	0,071	-0,093
-124,483	-85,373	0,132	0,030
-123,468	-124,997	0,150	-0,017
-122,453	-200,000	-0,025	-0,179
-121,439	50,870	-0,075	0,052
-120,424	318,446	-0,048	-0,067
-119,410	254,862	0,138	0,172
-118,395	-37,645	0,088	0,034
