DTS Sentinel unit serial number:	SN410029Multiplexer serial number:	ORYXHardware model number:	OX2-SRSoftware version number:	ORYX F/W v4,00 Oryx Data Collector v3.7.2.0data status	okinstallation	B4 Nyhavnadifferential loss correction	single-endedforward channel	channel 2reverse channel	N/Adate	2023/12/15time	16:15:13forward acquisition time	300,00reverse acquisition time	0,00gamma	499,1914k internal	0,3147k external	0,3147temperature offset calibration	1,0000default loss term (dB/km)	0,3820temperature slope calibration	1,0000multiplexer offset coefficient	1,0000multiplexer slope coefficient	1,0000fibre end	0,00T internal ref (°C)	17,21T ext. ref 1 (°C)	3,12T ext. ref 2 (°C)	3,23length (m)	temperature (°C)	Stokes	anti-Stokes-744,400	-195,658	0,091	0,000
-743,385	185,239	-0,232	0,255
-742,371	-200,000	-0,007	0,131
-741,356	-72,819	-0,246	0,067
-740,342	34,022	0,184	0,118
-739,327	-184,834	-0,210	-0,002
-738,312	-108,956	0,029	0,005
-737,298	-127,987	-0,192	-0,020
-736,283	67,550	0,061	-0,046
-735,269	-147,469	-0,189	0,012
-734,254	573,575	0,085	0,154
-733,239	-54,912	-0,347	-0,115
-732,225	-11,210	0,143	-0,069
-731,210	-7,354	0,092	0,046
-730,196	-200,000	-0,005	0,064
-729,181	800,000	0,016	0,038
-728,167	26,938	0,045	-0,028
-727,152	138,213	0,066	-0,064
-726,137	-50,118	-0,248	-0,086
-725,123	89,046	-0,046	0,038
-724,108	-168,406	-0,185	-0,005
-723,094	359,232	-0,122	-0,181
-722,079	-91,944	-0,114	0,024
-721,064	108,505	-0,048	0,043
-720,050	800,000	-0,048	0,117
-719,035	331,676	-0,043	0,062
-718,021	18,213	0,036	0,021
-717,006	800,000	-0,033	-0,070
-715,991	-20,732	-0,107	-0,049
-714,977	-44,583	0,159	-0,058
-713,962	-145,030	-0,068	-0,004
-712,948	-200,000	-0,015	0,097
-711,933	800,000	-0,051	0,149
-710,918	146,705	-0,094	0,093
-709,904	76,516	-0,184	-0,144
-708,889	-200,000	0,028	-0,097
-707,875	800,000	-0,056	0,131
-706,860	-200,000	-0,051	0,259
-705,845	-73,612	-0,033	-0,009
-704,831	-200,000	-0,002	-0,046
-703,816	14,069	-0,018	0,010
-702,802	428,255	-0,038	0,061
-701,787	-161,807	-0,025	-0,001
-700,772	45,636	0,070	-0,048
-699,758	136,512	-0,045	-0,043
-698,743	800,000	-0,030	0,088
-697,729	59,840	0,080	0,058
-696,714	397,231	0,054	-0,083
-695,699	-200,000	-0,025	-0,146
-694,685	-112,057	0,117	0,017
-693,670	84,149	-0,123	-0,099
-692,656	-9,769	-0,074	0,036
-691,641	800,000	0,032	-0,074
-690,627	-54,583	-0,097	0,032
-689,612	261,648	-0,066	-0,085
-688,597	279,584	0,047	-0,062
-687,583	800,000	-0,006	0,020
-686,568	158,232	-0,089	0,092
-685,554	-200,000	0,011	-0,061
-684,539	-200,000	-0,007	-0,051
-683,524	-6,779	0,158	-0,079
-682,510	502,611	-0,068	0,117
-681,495	789,784	-0,030	-0,062
-680,481	800,000	-0,015	0,038
-679,466	203,157	-0,120	0,137
-678,451	800,000	0,024	0,052
-677,437	378,966	-0,033	-0,050
-676,422	-200,000	0,012	-0,102
-675,408	-100,040	0,093	-0,017
-674,393	-200,000	0,022	-0,149
-673,378	68,664	-0,094	-0,071
-672,364	152,809	-0,052	0,053
-671,349	125,113	-0,046	-0,043
-670,335	-23,573	0,020	0,009
-669,320	-17,883	-0,122	0,056
-668,305	-84,716	0,065	0,015
-667,291	180,412	-0,081	0,088
-666,276	-200,000	-0,005	-0,134
-665,262	-94,213	-0,126	-0,025
-664,247	-200,000	0,010	-0,112
-663,232	800,000	0,036	0,084
-662,218	-200,000	-0,001	0,151
-661,203	800,000	0,011	-0,027
-660,189	-79,789	-0,036	-0,009
-659,174	577,076	-0,049	0,089
-658,159	202,159	-0,092	-0,104
-657,145	248,390	-0,127	-0,159
-656,130	-111,627	0,127	0,019
-655,116	135,118	0,013	-0,012
-654,101	158,508	0,067	0,068
-653,086	-159,273	0,086	0,003
-652,072	-200,000	0,006	-0,045
-651,057	5,499	-0,167	0,091
-650,043	192,210	0,023	-0,026
-649,028	-200,000	-0,022	0,074
-648,014	800,000	0,043	0,111
-646,999	-102,576	-0,129	-0,022
-645,984	38,092	0,102	0,067
-644,970	74,033	-0,093	-0,072
-643,955	179,975	0,076	-0,083
-642,941	262,479	-0,107	-0,138
-641,926	-200,000	0,030	0,129
-640,911	-63,382	-0,155	0,047
-639,897	475,779	0,048	0,080
-638,882	278,882	-0,033	0,044
-637,868	-200,000	0,007	-0,160
-636,853	57,021	0,047	-0,034
-635,838	-30,445	0,133	-0,055
-634,824	800,000	-0,048	-0,106
-633,809	56,801	0,054	-0,039
-632,795	-200,000	0,005	-0,052
-631,780	225,245	-0,049	0,058
-630,765	593,644	0,024	0,043
-629,751	307,889	0,053	-0,073
-628,736	113,153	-0,011	0,010
-627,722	-120,240	0,112	-0,014
-626,707	-31,205	-0,110	-0,046
-625,692	208,881	0,047	-0,055
-624,678	-200,000	0,022	-0,083
-623,663	163,784	-0,085	0,088
-622,649	-167,694	0,100	-0,003
-621,634	2,126	0,098	-0,052
-620,619	176,852	-0,087	-0,093
-619,605	-3,938	0,076	0,039
-618,590	-66,087	0,032	-0,009
-617,576	100,122	-0,013	-0,011
-616,561	-200,000	-0,001	0,018
-615,546	-200,000	0,027	-0,099
-614,532	3,839	-0,135	0,072
-613,517	11,760	-0,080	-0,045
-612,503	800,000	-0,074	0,164
-611,488	343,076	0,064	-0,093
-610,474	-1,934	0,037	-0,019
-609,459	-200,000	0,000	0,029
-608,444	-94,164	0,042	-0,008
-607,430	-49,018	0,079	-0,028
-606,415	191,682	0,060	0,066
-605,401	-98,462	-0,044	-0,008
-604,386	145,910	-0,044	0,043
-603,371	414,613	-0,039	0,062
-602,357	414,645	-0,032	0,051
-601,342	-151,049	0,087	0,005
-600,328	-200,000	0,035	-0,125
-599,313	800,000	0,021	-0,062
-598,298	297,380	-0,018	-0,025
-597,284	55,760	0,062	0,044
-596,269	-200,000	-0,004	-0,058
-595,255	683,810	-0,048	0,092
-594,240	-151,360	-0,113	0,006
-593,225	-115,467	-0,115	-0,016
-592,211	176,170	0,061	0,065
-591,196	157,493	-0,071	0,073
-590,182	-100,491	0,151	-0,027
-589,167	8,540	0,012	-0,007
-588,152	-139,603	0,055	-0,004
-587,138	372,510	-0,041	-0,061
-586,123	-69,500	-0,068	-0,019
-585,109	800,000	0,027	-0,060
-584,094	800,000	-0,031	-0,087
-583,079	-200,000	-0,025	0,194
-582,065	681,678	-0,046	-0,089
-581,050	-92,364	-0,085	-0,017
-580,036	-200,000	0,011	-0,082
-579,021	-130,591	0,032	-0,003
-578,006	-6,955	-0,187	-0,093
-576,992	800,000	0,037	-0,095
-575,977	800,000	0,023	-0,047
-574,963	-14,703	0,064	0,030
-573,948	-87,891	0,091	-0,020
-572,934	-63,462	0,119	0,036
-571,919	-200,000	0,000	0,073
-570,904	800,000	-0,015	-0,046
-569,890	-113,373	0,051	0,007
-568,875	-200,000	-0,009	0,031
-567,861	-200,000	-0,023	0,077
-566,846	-6,000	0,044	0,022
-565,831	14,463	-0,051	0,029
-564,817	800,000	0,035	0,093
-563,802	-35,875	-0,061	0,024
-562,788	-200,000	0,019	-0,064
-561,773	800,000	-0,055	0,114
-560,758	68,363	0,089	0,067
-559,744	-165,103	-0,066	-0,002
-558,729	220,005	0,083	0,098
-557,715	41,007	-0,030	0,020
-556,700	-18,414	-0,120	-0,055
-555,685	29,957	-0,073	0,046
-554,671	-200,000	-0,042	0,148
-553,656	128,428	0,037	0,034
-552,642	-85,997	-0,072	-0,016
-551,627	148,204	-0,051	-0,050
-550,612	800,000	0,013	0,040
-549,598	800,000	-0,037	-0,112
-548,583	-112,091	-0,049	0,007
-547,569	-45,920	-0,094	-0,034
-546,554	-150,267	0,139	0,008
-545,539	85,587	0,114	-0,092
-544,525	-70,353	0,078	0,022
-543,510	411,948	0,020	-0,031
-542,496	-113,613	0,112	-0,016
-541,481	-47,618	0,103	-0,037
-540,466	800,000	0,015	-0,042
-539,452	-200,000	-0,022	-0,082
-538,437	141,023	0,060	0,058
-537,423	341,763	-0,041	-0,059
-536,408	800,000	0,034	-0,087
-535,393	-45,934	-0,166	-0,060
-534,379	-130,662	0,130	0,013
-533,364	800,000	0,019	-0,046
-532,350	-200,000	-0,026	0,140
-531,335	608,311	0,054	0,099
-530,321	18,583	0,041	0,024
-529,306	-118,369	0,046	0,006
-528,291	-200,000	0,013	-0,091
-527,277	-200,000	-0,021	-0,096
-526,262	-196,479	0,164	-0,001
-525,248	-9,245	0,012	0,006
-524,233	-200,000	-0,002	-0,040
-523,218	-200,000	0,034	0,134
-522,204	221,973	-0,046	0,054
-521,189	-200,000	0,000	-0,130
-520,175	758,961	-0,036	-0,071
-519,160	578,968	-0,051	0,092
-518,145	297,214	0,053	0,072
-517,131	14,362	-0,032	-0,018
-516,116	800,000	0,024	0,056
-515,102	-67,787	0,070	0,020
-514,087	800,000	0,019	0,057
-513,072	-40,656	-0,019	0,007
-512,058	-140,361	-0,255	-0,019
-511,043	-200,000	0,028	0,099
-510,029	-200,000	-0,006	-0,109
-509,014	-94,547	0,113	-0,022
-507,999	589,628	-0,022	0,040
-506,985	45,167	-0,087	0,059
-505,970	645,949	0,030	-0,056
-504,956	172,173	0,071	-0,075
-503,941	-118,017	-0,156	0,020
-502,926	-200,000	0,018	0,119
-501,912	-152,533	0,145	-0,007
-500,897	-26,600	-0,045	0,019
-499,883	-200,000	-0,011	-0,071
-498,868	-153,454	-0,092	-0,005
-497,853	800,000	0,035	-0,080
-496,839	-85,014	0,096	0,022
-495,824	-200,000	-0,010	0,178
-494,810	424,893	-0,036	0,057
-493,795	250,335	0,080	0,099
-492,781	-200,000	0,011	0,063
-491,766	-85,960	-0,122	-0,027
-490,751	-200,000	0,014	-0,050
-489,737	14,470	0,110	-0,063
-488,722	33,846	0,141	-0,089
-487,708	84,937	-0,129	-0,103
-486,693	91,497	-0,026	-0,021
-485,678	-200,000	-0,018	-0,083
-484,664	-105,113	-0,121	-0,020
-483,649	-27,795	0,034	-0,015
-482,635	137,391	0,037	0,035
-481,620	117,534	-0,046	0,042
-480,605	-80,128	0,054	-0,013
-479,591	397,091	0,077	0,118
-478,576	800,000	-0,023	-0,050
-477,562	212,085	-0,084	-0,097
-476,547	-200,000	0,009	0,119
-475,532	-11,921	-0,064	0,031
-474,518	100,896	0,051	-0,044
-473,503	2,841	0,098	-0,052
-472,489	-7,829	0,026	0,013
-471,474	800,000	-0,045	0,143
-470,459	-200,000	0,023	0,141
-469,445	14,510	-0,083	0,048
-468,430	-130,621	-0,084	-0,008
-467,416	-200,000	0,012	0,070
-466,401	595,158	-0,059	0,108
-465,386	2,200	-0,023	-0,012
-464,372	110,687	0,074	0,065
-463,357	-81,394	-0,050	-0,012
-462,343	-200,000	0,007	-0,111
-461,328	-200,000	-0,021	0,074
-460,313	2,309	-0,069	0,036
-459,299	247,819	0,088	0,108
-458,284	575,059	0,071	0,128
-457,270	-166,050	-0,038	0,001
-456,255	8,851	-0,045	-0,025
-455,241	-10,414	-0,072	-0,035
-454,226	57,596	-0,035	-0,025
-453,211	503,898	-0,015	0,026
-452,197	800,000	-0,016	-0,037
-451,182	-152,460	0,166	-0,009
-450,168	800,000	0,024	-0,052
-449,153	-90,977	-0,088	-0,018
-448,138	135,427	0,042	-0,040
-447,124	800,000	0,024	-0,053
-446,109	96,267	0,064	-0,054
-445,095	-200,000	0,027	0,088
-444,080	73,409	-0,048	0,037
-443,065	-200,000	-0,025	0,141
-442,051	266,906	-0,047	0,060
-441,036	-130,238	-0,080	0,008
-440,022	208,102	-0,034	-0,039
-439,007	800,000	-0,007	-0,017
-437,992	715,684	0,059	-0,115
-436,978	58,970	-0,138	0,099
-435,963	211,309	-0,042	0,048
-434,949	-65,314	-0,088	0,026
-433,934	16,689	-0,069	-0,040
-432,919	-5,612	-0,089	0,044
-431,905	156,260	-0,081	0,082
-430,890	-66,321	0,046	0,013
-429,876	-10,053	-0,028	-0,014
-428,861	-1,989	0,085	-0,044
-427,846	800,000	0,029	0,072
-426,832	-99,600	-0,209	-0,038
-425,817	56,854	0,071	-0,050
-424,803	-200,000	-0,027	0,094
-423,788	19,371	0,114	0,067
-422,773	-200,000	-0,003	0,109
-421,759	76,329	0,080	-0,062
-420,744	800,000	0,046	0,097
-419,730	25,338	-0,065	-0,039
-418,715	-106,730	-0,022	-0,003
-417,701	-73,212	0,012	0,003
-416,686	290,531	0,024	-0,032
-415,671	-200,000	0,014	0,130
-414,657	182,064	-0,034	-0,036
-413,642	24,289	-0,025	-0,015
-412,628	17,171	-0,095	0,055
-411,613	-11,012	-0,103	0,049
-410,598	153,077	0,020	0,020
-409,584	-200,000	-0,005	0,029
-408,569	18,188	0,034	-0,020
-407,555	-99,220	0,028	-0,005
-406,540	20,958	-0,099	0,058
-405,525	-64,695	0,049	-0,014
-404,511	-23,620	0,026	0,011
-403,496	-47,607	-0,048	0,017
-402,482	15,297	-0,014	0,008
-401,467	155,242	0,025	-0,025
-400,452	330,720	-0,096	-0,135
-399,438	800,000	-0,056	-0,115
-398,423	-200,000	0,003	0,044
-397,409	-66,379	0,119	-0,034
-396,394	190,571	-0,025	0,027
-395,379	18,028	0,050	-0,029
-394,365	179,699	-0,038	0,040
-393,350	-54,487	0,073	-0,024
-392,336	38,378	0,137	-0,089
-391,321	142,187	-0,062	0,061
-390,306	530,870	-0,062	-0,108
-389,292	39,879	0,023	-0,015
-388,277	340,465	-0,092	0,131
-387,263	-3,372	0,151	-0,077
-386,248	75,088	-0,010	-0,007
-385,233	800,000	-0,056	0,140
-384,219	0,403	-0,124	-0,064
-383,204	-200,000	-0,011	-0,040
-382,190	-45,650	-0,095	0,034
-381,175	153,698	-0,041	-0,041
-380,160	36,677	-0,071	0,045
-379,146	800,000	-0,025	-0,073
-378,131	-33,133	0,164	-0,066
-377,117	-29,512	-0,116	-0,048
-376,102	800,000	0,035	-0,104
-375,088	-200,000	0,009	-0,106
-374,073	12,079	-0,101	-0,057
-373,058	153,312	0,071	-0,071
-372,044	309,342	0,014	0,019
-371,029	-75,009	-0,141	0,037
-370,015	-91,975	0,041	-0,008
-369,000	14,580	0,055	-0,031
-367,985	147,185	-0,070	-0,069
-366,971	70,826	0,080	0,061
-365,956	800,000	0,069	0,157
-364,942	-192,646	0,076	-0,000
-363,927	-6,832	0,150	-0,074
-362,912	54,383	0,010	-0,007
-361,898	-17,811	-0,070	-0,032
-360,883	-200,000	-0,001	0,062
-359,869	208,605	-0,074	0,085
-358,854	-33,966	-0,083	0,033
-357,839	-131,354	0,056	0,005
-356,825	29,317	-0,042	0,026
-355,810	545,112	0,013	-0,023
-354,796	11,303	-0,041	0,023
-353,781	-12,542	-0,098	-0,046
-352,766	-95,213	-0,126	0,024
-351,752	632,982	-0,047	0,088
-350,737	-114,777	0,034	0,005
-349,723	-75,662	-0,057	0,015
-348,708	185,264	-0,081	0,088
-347,693	476,096	-0,077	-0,127
-346,679	-73,498	-0,027	-0,007
-345,664	-200,000	0,025	-0,159
-344,650	73,048	-0,046	-0,035
-343,635	135,281	0,054	-0,051
-342,620	-157,499	-0,157	0,007
-341,606	1,344	-0,137	-0,072
-340,591	8,455	-0,137	-0,075
-339,577	-200,000	0,016	0,060
-338,562	-75,361	-0,070	0,018
-337,548	-4,324	-0,011	-0,005
-336,533	-200,000	-0,015	0,061
-335,518	243,336	0,107	0,131
-334,504	-32,803	0,039	-0,016
-333,489	261,806	-0,043	-0,055
-332,475	6,672	-0,089	-0,048
-331,460	-31,232	-0,099	0,040
-330,445	-200,000	0,009	0,040
-329,431	-68,236	0,168	0,047
-328,416	378,275	0,072	0,108
-327,402	148,114	0,084	-0,082
-326,387	20,569	-0,032	-0,019
-325,372	-200,000	-0,005	0,121
-324,358	584,345	0,065	-0,117
-323,343	-63,074	0,124	-0,037
-322,329	420,798	-0,049	-0,076
-321,314	-60,590	0,098	0,030
-320,299	-200,000	0,010	0,065
-319,285	75,072	0,099	0,076
-318,270	800,000	-0,017	0,046
-317,256	-123,004	-0,170	-0,020
-316,241	-18,116	0,115	0,052
-315,226	368,104	0,043	0,063
-314,212	178,891	0,087	0,092
-313,197	-97,555	0,158	0,030
-312,183	245,043	0,098	0,120
-311,168	-36,039	-0,108	-0,042
-310,153	70,113	0,016	-0,012
-309,139	-200,000	-0,026	-0,084
-308,124	-38,941	0,026	0,010
-307,110	-200,000	-0,002	0,044
-306,095	239,776	-0,062	-0,076
-305,080	-133,736	0,055	-0,005
-304,066	-200,000	-0,021	0,087
-303,051	-187,863	-0,062	-0,001
-302,037	0,003	-0,085	-0,044
-301,022	-34,002	0,068	-0,027
-300,008	800,000	0,050	0,147
-298,993	-50,398	-0,057	-0,019
-297,978	-32,882	-0,063	0,025
-296,964	145,162	0,041	0,040
-295,949	267,959	-0,077	-0,099
-294,935	747,528	0,031	-0,061
-293,920	-84,935	0,070	0,016
-292,905	505,264	0,011	0,019
-291,891	26,553	0,126	-0,076
-290,876	87,180	-0,068	-0,055
-289,862	65,229	0,056	-0,041
-288,847	92,110	0,057	-0,046
-287,832	489,857	0,025	0,042
-286,818	258,606	-0,081	-0,102
-285,803	-200,000	0,051	0,000
-284,789	38,789	0,050	-0,032
-283,774	511,548	-0,061	0,103
-282,759	-66,243	0,127	-0,036
-281,745	-77,068	0,038	0,009
-280,730	-200,000	0,002	-0,041
-279,716	52,938	-0,058	0,040
-278,701	-200,000	-0,016	0,193
-277,686	-100,647	0,099	0,018
-276,672	-200,000	-0,036	0,142
-275,657	9,968	0,115	-0,063
-274,643	502,806	-0,045	0,076
-273,628	218,069	-0,008	0,009
-272,613	-200,000	0,006	0,027
-271,599	199,306	0,061	-0,068
-270,584	-185,123	0,065	0,001
-269,570	240,788	-0,057	-0,069
-268,555	-106,379	-0,107	0,017
-267,540	-200,000	0,010	-0,083
-266,526	-200,000	-0,016	-0,164
-265,511	-55,718	0,175	0,056
-264,497	36,569	0,057	-0,036
-263,482	-71,373	0,148	-0,040
-262,467	-200,000	-0,006	0,092
-261,453	800,000	-0,048	0,108
-260,438	-0,328	-0,110	0,056
-259,424	-8,682	0,095	0,046
-258,409	5,860	-0,117	-0,063
-257,395	800,000	-0,025	0,078
-256,380	96,509	0,107	0,089
-255,365	61,590	0,032	0,023
-254,351	248,624	0,017	0,021
-253,336	-77,725	0,124	-0,031
-252,322	46,270	0,071	-0,048
-251,307	181,330	-0,093	0,099
-250,292	-7,384	0,013	0,006
-249,278	114,845	-0,089	0,079
-248,263	-78,740	0,016	-0,004
-247,249	-151,854	0,096	0,005
-246,234	-200,000	0,009	0,138
-245,219	800,000	0,050	0,126
-244,205	-102,866	-0,034	-0,006
-243,190	9,389	-0,036	0,019
-242,176	94,974	0,108	0,089
-241,161	-2,693	0,031	0,016
-240,146	-102,770	-0,065	-0,011
-239,132	480,171	0,090	0,148
-238,117	-200,000	-0,004	-0,068
-237,103	-200,000	-0,008	-0,133
-236,088	-179,683	-0,117	0,002
-235,073	-56,033	0,146	-0,047
-234,059	11,662	0,115	-0,064
-233,044	800,000	0,016	-0,035
-232,030	-200,000	-0,005	-0,063
-231,015	78,545	-0,073	-0,056
-230,000	800,000	-0,063	-0,132
-228,986	232,957	-0,023	-0,027
-227,971	-200,000	0,027	0,000
-226,957	-116,317	0,108	0,014
-225,942	-200,000	0,018	-0,091
-224,927	-58,147	-0,038	0,012
-223,913	104,800	0,114	-0,097
-222,898	-67,188	-0,117	0,033
-221,884	-145,474	-0,132	0,008
-220,869	-12,881	0,109	-0,051
-219,855	-47,615	0,037	-0,013
-218,840	-80,933	-0,131	-0,031
-217,825	-200,000	-0,007	-0,041
-216,811	4,379	-0,099	0,052
-215,796	367,648	0,073	-0,106
-214,782	-139,177	-0,197	0,015
-213,767	-129,270	0,040	-0,004
-212,752	45,851	-0,046	0,031
-211,738	-98,476	0,066	-0,012
-210,723	796,175	0,032	-0,064
-209,709	-160,861	-0,146	0,005
-208,694	-111,393	0,037	-0,005
-207,679	800,000	-0,055	-0,152
-206,665	161,498	-0,014	0,014
-205,650	-1,242	0,019	0,010
-204,636	-85,855	0,097	0,022
-203,621	800,000	0,017	-0,048
-202,606	737,178	0,052	0,102
-201,592	60,838	-0,167	-0,120
-200,577	87,311	0,077	-0,062
-199,563	727,682	0,044	0,086
-198,548	76,389	0,086	-0,066
-197,533	229,987	-0,050	0,059
-196,519	671,014	0,052	-0,097
-195,504	-200,000	-0,002	0,083
-194,490	93,793	0,050	-0,041
-193,475	278,628	-0,050	-0,065
-192,460	174,050	0,096	0,101
-191,446	535,769	-0,027	-0,047
-190,431	59,886	-0,003	0,002
-189,417	-104,107	0,036	0,006
-188,402	-12,965	0,242	0,114
-187,387	59,559	0,107	-0,076
-186,373	-162,023	0,086	0,003
-185,358	73,881	0,037	0,028
-184,344	125,209	0,021	0,019
-183,329	-22,046	0,070	0,031
-182,315	-41,761	-0,039	-0,014
-181,300	800,000	0,012	-0,024
-180,285	41,770	0,060	0,039
-179,271	-22,020	-0,014	-0,006
-178,256	-138,796	-0,170	0,013
-177,242	55,962	0,046	0,032
-176,227	-129,449	0,095	0,009
-175,212	-20,071	-0,062	-0,027
-174,198	29,646	0,064	-0,039
-173,183	69,211	-0,155	-0,115
-172,169	300,347	-0,127	-0,170
-171,154	800,000	-0,031	-0,090
-170,139	800,000	0,033	-0,096
-169,125	-200,000	-0,001	0,099
-168,110	49,878	0,080	-0,054
-167,096	12,572	-0,136	0,075
-166,081	-200,000	-0,009	-0,045
-165,066	800,000	-0,044	-0,107
-164,052	571,544	-0,034	-0,061
-163,037	53,598	-0,059	-0,041
-162,023	513,248	0,044	-0,074
-161,008	445,081	-0,031	-0,050
-159,993	-38,761	-0,142	0,054
-158,979	800,000	0,024	-0,065
-157,964	48,786	-0,040	-0,027
-156,950	-200,000	-0,009	0,042
-155,935	-200,000	0,014	0,114
-154,920	800,000	0,038	-0,095
-153,906	218,516	0,049	0,057
-152,891	-200,000	0,010	0,047
-151,877	703,272	0,036	0,069
-150,862	-124,746	0,068	0,008
-149,847	-119,393	0,107	-0,013
-148,833	157,711	-0,024	0,024
-147,818	-133,699	-0,046	-0,004
-146,804	394,413	0,060	0,091
-145,789	800,000	-0,036	-0,096
-144,775	-76,759	-0,069	-0,017
-143,760	800,000	-0,020	-0,057
-142,745	-67,312	-0,041	-0,012
-141,731	760,014	0,065	-0,128
-140,716	191,629	-0,107	-0,117
-139,702	456,072	0,035	0,056
-138,687	-27,036	0,010	0,004
-137,672	157,480	-0,106	0,106
-136,658	82,330	-0,062	0,048
-135,643	446,570	0,017	0,027
-134,629	46,695	-0,040	0,027
-133,614	166,939	0,037	0,038
-132,599	118,714	-0,043	-0,038
-131,585	18,611	0,041	0,024
-130,570	-48,012	0,098	-0,034
-129,556	-77,997	-0,156	-0,039
-128,541	194,585	0,009	0,010
-127,526	162,972	-0,056	0,057
-126,512	-60,012	0,137	0,042
-125,497	800,000	-0,087	0,179
-124,483	-131,728	0,088	-0,008
-123,468	-200,000	0,026	0,113
-122,453	278,075	0,007	-0,009
-121,439	-200,000	-0,007	-0,093
-120,424	12,609	0,017	-0,010
-119,410	99,738	-0,137	-0,115
-118,395	55,477	0,028	0,020
-117,380	706,183	-0,050	0,096
