DTS Sentinel unit serial number:	SN410029Multiplexer serial number:	ORYXHardware model number:	OX2-SRSoftware version number:	ORYX F/W v4,00 Oryx Data Collector v3.7.2.0data status	okinstallation	B4 Nyhavnadifferential loss correction	single-endedforward channel	channel 2reverse channel	N/Adate	2023/12/19time	10:15:13forward acquisition time	300,00reverse acquisition time	0,00gamma	499,1914k internal	0,3128k external	0,3128temperature offset calibration	1,0000default loss term (dB/km)	0,3820temperature slope calibration	1,0000multiplexer offset coefficient	1,0000multiplexer slope coefficient	1,0000fibre end	0,00T internal ref (°C)	20,16T ext. ref 1 (°C)	4,96T ext. ref 2 (°C)	4,90length (m)	temperature (°C)	Stokes	anti-Stokes-744,400	800,000	-0,020	0,056
-743,385	-57,361	-0,274	0,089
-742,371	-105,988	0,083	0,014
-741,356	79,723	-0,209	0,167
-740,342	-200,000	0,003	0,021
-739,327	-149,633	-0,244	-0,014
-738,312	800,000	0,068	-0,189
-737,298	78,337	-0,157	0,125
-736,283	-77,869	0,108	-0,028
-735,269	-47,692	-0,137	0,049
-734,254	356,451	0,046	0,068
-733,239	36,248	-0,438	-0,287
-732,225	-120,828	0,178	0,022
-731,210	-56,380	0,080	0,026
-730,196	-173,688	0,030	0,001
-729,181	-200,000	0,011	0,047
-728,167	-200,000	0,015	-0,149
-727,152	-80,368	-0,075	-0,018
-726,137	800,000	-0,020	-0,050
-725,123	-32,236	-0,223	0,092
-724,108	-97,001	0,035	-0,007
-723,094	-32,171	-0,223	-0,092
-722,079	-92,061	-0,084	0,017
-721,064	43,780	0,039	-0,026
-720,050	-200,000	0,010	-0,130
-719,035	-89,214	-0,103	-0,022
-718,021	767,587	-0,059	0,120
-717,006	318,508	0,033	-0,047
-715,991	0,357	-0,088	-0,046
-714,977	-200,000	-0,004	-0,105
-713,962	28,011	0,084	-0,053
-712,948	800,000	-0,039	-0,110
-711,933	-54,965	-0,076	-0,025
-710,918	-60,367	-0,057	-0,018
-709,904	-130,222	-0,159	-0,016
-708,889	464,089	0,043	-0,071
-707,875	40,766	-0,096	0,065
-706,860	65,797	0,054	0,040
-705,845	-200,000	-0,003	0,169
-704,831	-78,713	-0,047	0,012
-703,816	161,473	0,026	-0,027
-702,802	41,364	-0,084	-0,056
-701,787	30,151	0,192	-0,121
-700,772	556,954	0,038	-0,067
-699,758	608,838	0,010	0,019
-698,743	256,201	0,027	-0,034
-697,729	800,000	0,041	0,085
-696,714	800,000	0,016	-0,043
-695,699	273,245	-0,044	-0,057
-694,685	-200,000	0,010	0,039
-693,670	602,679	-0,058	-0,108
-692,656	-200,000	0,005	-0,077
-691,641	297,264	-0,029	0,040
-690,627	800,000	0,064	0,174
-689,612	14,807	-0,054	-0,031
-688,597	97,861	-0,047	-0,040
-687,583	136,903	-0,076	-0,074
-686,568	-145,495	0,053	-0,004
-685,554	208,904	-0,059	-0,068
-684,539	-200,000	0,000	0,007
-683,524	-32,164	0,044	0,018
-682,510	471,607	0,064	0,107
-681,495	-200,000	-0,009	0,040
-680,481	-93,526	-0,040	0,008
-679,466	800,000	-0,021	-0,046
-678,451	800,000	-0,042	0,119
-677,437	157,208	0,018	0,018
-676,422	-200,000	-0,018	-0,083
-675,408	-111,542	0,070	0,010
-674,393	-39,472	0,126	0,049
-673,378	-100,548	-0,119	0,022
-672,364	250,495	-0,107	-0,135
-671,349	25,542	-0,027	0,016
-670,335	-91,731	-0,155	0,032
-669,320	297,046	-0,040	0,054
-668,305	28,189	0,014	0,009
-667,291	800,000	-0,070	-0,204
-666,276	-4,362	0,083	-0,043
-665,262	52,428	-0,202	-0,143
-664,247	377,232	0,011	-0,016
-663,232	307,278	-0,050	0,069
-662,218	-34,426	-0,110	-0,044
-661,203	-5,509	-0,069	-0,035
-660,189	800,000	-0,037	-0,094
-659,174	122,806	-0,055	-0,051
-658,159	800,000	0,010	0,024
-657,145	128,819	0,041	-0,039
-656,130	26,591	0,046	-0,029
-655,116	-200,000	-0,014	0,063
-654,101	800,000	0,059	0,134
-653,086	-15,799	-0,029	-0,014
-652,072	-200,000	0,019	-0,091
-651,057	-27,904	-0,066	-0,028
-650,043	445,892	-0,075	-0,123
-649,028	97,302	0,054	0,046
-648,014	-41,609	0,128	-0,049
-646,999	800,000	0,060	-0,136
-645,984	-85,562	-0,257	0,059
-644,970	-84,520	0,099	0,023
-643,955	-150,541	-0,086	-0,005
-642,941	-200,000	-0,031	-0,160
-641,926	800,000	-0,022	-0,064
-640,911	762,452	-0,019	0,038
-639,897	-138,337	0,054	-0,004
-638,882	-179,658	-0,145	-0,002
-637,868	89,987	-0,043	-0,036
-636,853	-16,317	0,085	-0,040
-635,838	539,059	0,031	0,054
-634,824	-200,000	0,013	-0,126
-633,809	800,000	0,062	0,174
-632,795	35,956	-0,044	0,029
-631,780	47,184	0,023	-0,016
-630,765	-200,000	-0,010	0,056
-629,751	-34,876	-0,010	-0,004
-628,736	21,494	-0,190	-0,114
-627,722	770,147	0,011	-0,023
-626,707	-200,000	0,011	-0,102
-625,692	49,535	-0,074	0,051
-624,678	21,548	-0,108	-0,065
-623,663	305,890	0,006	-0,009
-622,649	-200,000	-0,036	-0,230
-621,634	-200,000	-0,029	0,094
-620,619	89,647	-0,048	-0,039
-619,605	800,000	0,018	0,044
-618,590	-85,935	0,028	0,006
-617,576	-200,000	-0,016	0,098
-616,561	43,989	-0,039	-0,026
-615,546	53,209	-0,128	-0,091
-614,532	243,099	-0,041	-0,050
-613,517	30,057	0,071	-0,045
-612,503	800,000	-0,032	-0,073
-611,488	-200,000	0,018	0,075
-610,474	-40,149	-0,109	-0,042
-609,459	277,044	-0,082	0,108
-608,444	170,800	0,087	-0,092
-607,430	-200,000	-0,019	-0,158
-606,415	-125,835	-0,031	0,003
-605,401	318,538	-0,037	0,053
-604,386	95,344	0,048	0,040
-603,371	-200,000	0,017	-0,107
-602,357	-200,000	0,023	-0,088
-601,342	-171,518	-0,061	-0,001
-600,328	34,412	-0,087	-0,056
-599,313	-165,625	0,067	0,002
-598,298	-34,913	0,106	0,043
-597,284	-200,000	0,003	-0,078
-596,269	92,359	-0,037	-0,031
-595,255	310,212	0,071	-0,099
-594,240	-200,000	0,006	-0,036
-593,225	508,452	-0,033	-0,058
-592,211	67,081	-0,049	0,037
-591,196	-80,391	0,209	0,051
-590,182	800,000	-0,065	-0,135
-589,167	-67,068	0,141	0,041
-588,152	-169,770	-0,075	-0,002
-587,138	-38,433	-0,030	-0,012
-586,123	-200,000	0,018	0,064
-585,109	-9,468	-0,145	0,071
-584,094	495,533	0,023	-0,039
-583,079	686,481	0,046	-0,090
-582,065	-200,000	-0,007	0,180
-581,050	449,527	0,063	0,103
-580,036	-108,486	0,146	-0,023
-579,021	614,311	-0,034	-0,063
-578,006	82,144	0,059	0,047
-576,992	15,873	-0,084	0,049
-575,977	131,568	-0,074	-0,071
-574,963	164,641	-0,112	0,117
-573,948	-200,000	0,002	0,105
-572,934	233,599	0,036	-0,044
-571,919	-200,000	-0,017	-0,067
-570,904	-200,000	-0,012	0,069
-569,890	139,538	0,014	-0,013
-568,875	53,030	0,125	-0,088
-567,861	181,940	0,038	0,041
-566,846	56,498	-0,050	0,036
-565,831	-200,000	-0,011	0,057
-564,817	800,000	0,056	-0,146
-563,802	800,000	0,053	-0,158
-562,788	221,130	-0,065	0,077
-561,773	-200,000	0,018	0,123
-560,758	447,396	-0,052	0,085
-559,744	-69,077	0,091	0,026
-558,729	-200,000	0,024	0,111
-557,715	153,340	-0,101	-0,102
-556,700	325,282	-0,059	-0,084
-555,685	800,000	-0,010	-0,024
-554,671	-59,360	0,141	-0,045
-553,656	-106,557	0,089	-0,014
-552,642	464,068	0,109	0,181
-551,627	112,243	-0,083	0,074
-550,612	-81,963	-0,043	-0,010
-549,598	-171,714	0,091	0,002
-548,583	-97,765	-0,063	-0,012
-547,569	431,898	-0,053	-0,085
-546,554	200,413	0,040	0,045
-545,539	128,082	-0,055	0,052
-544,525	51,160	-0,077	-0,054
-543,510	-200,000	-0,000	-0,092
-542,496	-200,000	0,006	0,027
-541,481	485,762	0,045	-0,077
-540,466	21,441	0,091	0,055
-539,452	421,217	-0,024	-0,039
-538,437	-200,000	-0,041	0,190
-537,423	216,966	-0,065	0,076
-536,408	800,000	-0,028	0,073
-535,393	69,529	-0,065	0,049
-534,379	-30,097	-0,020	0,008
-533,364	-200,000	0,000	-0,065
-532,350	-200,000	0,020	-0,076
-531,335	99,282	-0,070	0,059
-530,321	-57,952	-0,076	0,024
-529,306	-11,352	0,094	0,045
-528,291	800,000	-0,030	0,074
-527,277	-30,190	-0,072	0,030
-526,262	-200,000	-0,005	-0,028
-525,248	240,550	-0,020	0,024
-524,233	23,779	0,117	-0,071
-523,218	-200,000	-0,180	0,001
-522,204	-85,377	-0,182	-0,042
-521,189	164,445	0,015	-0,015
-520,175	352,217	-0,090	-0,132
-519,160	8,327	-0,082	0,045
-518,145	-200,000	0,034	-0,162
-517,131	800,000	0,064	-0,149
-516,116	800,000	-0,042	0,117
-515,102	-200,000	0,021	0,079
-514,087	800,000	-0,058	0,168
-513,072	347,498	-0,094	-0,137
-512,058	232,254	-0,026	-0,031
-511,043	-200,000	-0,009	0,076
-510,029	-69,363	-0,115	0,032
-509,014	456,111	-0,063	0,103
-507,999	-200,000	0,001	0,098
-506,985	-200,000	0,011	-0,037
-505,970	351,017	-0,052	-0,076
-504,956	113,544	-0,107	0,096
-503,941	51,196	0,046	-0,032
-502,926	-59,563	-0,095	0,030
-501,912	-200,000	-0,003	-0,071
-500,897	800,000	-0,068	-0,163
-499,883	49,242	-0,077	-0,053
-498,868	24,009	0,054	-0,033
-497,853	751,115	0,013	-0,026
-496,839	124,818	0,058	-0,054
-495,824	-51,361	0,019	0,007
-494,810	-28,900	0,154	0,065
-493,795	-200,000	-0,002	0,106
-492,781	800,000	-0,065	0,152
-491,766	20,282	-0,144	-0,086
-490,751	492,754	-0,021	0,035
-489,737	-35,828	0,040	0,016
-488,722	2,792	-0,110	0,059
-487,708	140,358	0,207	0,202
-486,693	19,666	-0,016	0,009
-485,678	53,062	0,043	-0,030
-484,664	-165,867	0,115	-0,004
-483,649	-200,000	-0,004	0,057
-482,635	800,000	-0,033	-0,093
-481,620	146,654	-0,060	0,059
-480,605	-200,000	0,019	0,092
-479,591	800,000	-0,018	0,045
-478,576	300,727	0,084	-0,114
-477,562	-200,000	-0,026	0,092
-476,547	-200,000	-0,036	0,133
-475,532	27,711	0,080	-0,049
-474,518	-200,000	-0,001	-0,005
-473,503	278,504	0,028	-0,037
-472,489	-161,493	-0,032	0,001
-471,474	202,564	-0,049	0,056
-470,459	800,000	-0,011	0,031
-469,445	242,094	0,052	0,064
-468,430	773,042	0,014	-0,028
-467,416	-190,906	0,080	-0,001
-466,401	70,038	0,071	-0,054
-465,386	408,626	-0,109	-0,171
-464,372	190,284	0,094	-0,105
-463,357	-138,180	0,113	-0,009
-462,343	259,036	-0,100	-0,128
-461,328	-102,216	-0,171	-0,030
-460,313	-59,192	-0,037	0,012
-459,299	200,322	-0,041	0,046
-458,284	-153,592	0,067	-0,003
-457,270	-200,000	0,029	-0,108
-456,255	417,603	-0,068	-0,108
-455,241	-27,551	0,111	0,047
-454,226	-200,000	-0,006	0,049
-453,211	-74,051	0,036	0,009
-452,197	224,163	0,051	0,060
-451,182	-101,971	0,179	-0,031
-450,168	-200,000	-0,003	-0,061
-449,153	124,647	0,120	-0,111
-448,138	-52,832	0,063	0,021
-447,124	2,076	-0,070	-0,037
-446,109	342,726	0,042	0,061
-445,095	62,855	0,084	-0,062
-444,080	404,369	0,045	-0,070
-443,065	59,706	0,010	0,007
-442,051	-88,556	-0,153	-0,033
-441,036	-44,131	-0,069	0,025
-440,022	-200,000	0,018	-0,060
-439,007	538,049	-0,042	0,073
-437,992	800,000	-0,017	-0,038
-436,978	198,676	0,026	-0,030
-435,963	-200,000	0,002	0,013
-434,949	-154,150	-0,028	0,001
-433,934	-200,000	-0,004	-0,104
-432,919	779,782	-0,036	0,073
-431,905	-50,223	-0,122	-0,042
-430,890	-30,799	-0,048	0,020
-429,876	800,000	-0,031	0,092
-428,861	261,656	0,054	0,069
-427,846	95,783	-0,101	0,085
-426,832	-25,086	0,075	-0,032
-425,817	585,703	0,040	-0,072
-424,803	330,118	0,029	-0,041
-423,788	800,000	-0,024	-0,056
-422,773	-123,661	-0,130	-0,015
-421,759	-200,000	0,031	0,140
-420,744	-200,000	0,029	-0,138
-419,730	800,000	-0,019	-0,054
-418,715	800,000	0,021	0,063
-417,701	-200,000	0,001	-0,046
-416,686	-200,000	0,019	-0,063
-415,671	185,334	0,029	-0,032
-414,657	800,000	0,060	0,128
-413,642	497,283	-0,012	0,020
-412,628	-200,000	0,005	-0,118
-411,613	-85,268	0,057	-0,013
-410,598	302,828	-0,093	0,127
-409,584	571,271	0,034	-0,062
-408,569	-187,945	-0,030	-0,000
-407,555	-200,000	0,029	0,172
-406,540	-200,000	0,006	-0,068
-405,525	163,636	0,049	-0,051
-404,511	800,000	-0,064	-0,151
-403,496	-125,341	-0,069	-0,008
-402,482	-92,932	-0,087	-0,018
-401,467	800,000	0,055	0,136
-400,452	-131,617	0,117	-0,011
-399,438	800,000	-0,016	-0,035
-398,423	-5,982	0,066	0,033
-397,409	-200,000	0,000	-0,008
-396,394	459,476	0,056	-0,092
-395,379	-185,791	0,111	-0,001
-394,365	-200,000	-0,020	-0,075
-393,350	-22,197	-0,024	0,010
-392,336	-200,000	-0,020	0,067
-391,321	800,000	-0,037	-0,092
-390,306	800,000	-0,051	-0,137
-389,292	-22,994	-0,111	-0,049
-388,277	60,124	0,084	0,061
-387,263	88,249	0,061	-0,050
-386,248	-200,000	0,001	0,064
-385,233	-68,574	-0,162	0,046
-384,219	-100,101	0,019	0,004
-383,204	135,504	-0,064	-0,061
-382,190	-200,000	-0,023	-0,101
-381,175	-60,424	-0,130	0,040
-380,160	-19,583	-0,105	0,048
-379,146	-184,826	0,104	0,001
-378,131	-5,259	0,094	0,047
-377,117	234,911	0,048	0,058
-376,102	235,225	-0,064	0,078
-375,088	409,084	-0,092	-0,144
-374,073	-188,087	-0,123	0,001
-373,058	-148,387	0,100	0,006
-372,044	122,079	0,118	0,108
-371,029	599,343	-0,038	-0,069
-370,015	80,717	0,048	0,038
-369,000	389,932	0,112	-0,171
-367,985	467,566	-0,072	-0,119
-366,971	-113,040	-0,056	-0,008
-365,956	41,283	-0,084	0,056
-364,942	-86,221	0,091	-0,020
-363,927	-200,000	0,013	-0,064
-362,912	800,000	-0,051	0,110
-361,898	161,631	0,052	0,054
-360,883	-47,458	-0,046	0,016
-359,869	-200,000	0,006	0,065
-358,854	143,883	-0,018	0,018
-357,839	530,853	0,035	-0,061
-356,825	-61,551	-0,047	0,014
-355,810	-200,000	-0,004	0,146
-354,796	762,022	-0,014	-0,029
-353,781	-102,739	0,090	0,016
-352,766	300,888	-0,030	0,041
-351,752	-139,742	-0,120	0,009
-350,737	-53,239	0,130	-0,043
-349,723	-200,000	0,019	0,104
-348,708	-200,000	0,007	0,065
-347,693	99,154	-0,121	-0,103
-346,679	40,373	-0,063	0,041
-345,664	127,101	-0,080	0,075
-344,650	-89,830	0,058	-0,012
-343,635	95,259	0,132	0,110
-342,620	470,392	0,011	0,018
-341,606	-124,959	0,034	0,004
-340,591	-44,425	0,067	-0,025
-339,577	26,128	-0,015	0,009
-338,562	-167,798	0,157	-0,004
-337,548	-200,000	-0,030	-0,182
-336,533	70,583	-0,065	0,049
-335,518	230,709	0,129	-0,155
-334,504	219,028	-0,078	0,091
-333,489	-92,981	-0,082	0,017
-332,475	17,463	-0,127	0,074
-331,460	506,268	0,061	-0,104
-330,445	800,000	0,016	0,046
-329,431	206,685	0,039	-0,044
-328,416	31,929	0,070	0,044
-327,402	-120,376	0,045	-0,006
-326,387	800,000	-0,051	0,134
-325,372	0,288	0,025	-0,013
-324,358	-200,000	0,016	0,095
-323,343	29,065	0,082	0,051
-322,329	-200,000	-0,030	-0,135
-321,314	800,000	-0,015	-0,038
-320,299	-200,000	0,019	0,094
-319,285	-200,000	0,014	0,160
-318,270	54,481	0,111	0,078
-317,256	506,005	0,025	-0,042
-316,241	178,334	-0,050	-0,054
-315,226	470,039	0,025	-0,041
-314,212	-200,000	-0,000	0,042
-313,197	93,302	0,079	-0,066
-312,183	-200,000	0,003	0,063
-311,168	-52,906	-0,084	-0,028
-310,153	-17,265	-0,050	-0,023
-309,139	344,379	0,062	-0,089
-308,124	325,075	0,054	-0,075
-307,110	-74,139	0,122	-0,032
-306,095	66,384	0,137	0,102
-305,080	-111,495	-0,071	0,011
-304,066	-8,953	-0,081	-0,040
-303,051	800,000	0,078	0,172
-302,037	-200,000	0,000	0,040
-301,022	4,711	0,028	0,015
-300,008	11,549	-0,089	0,050
-298,993	-156,420	-0,100	-0,004
-297,978	-16,506	0,111	0,051
-296,964	102,580	0,092	0,078
-295,949	-119,677	-0,036	-0,005
-294,935	-200,000	-0,010	0,052
-293,920	56,115	0,142	0,101
-292,905	-200,000	0,001	0,050
-291,891	-200,000	0,004	0,058
-290,876	326,747	0,136	0,191
-289,862	4,992	-0,055	0,030
-288,847	6,283	0,039	-0,021
-287,832	-200,000	0,015	-0,126
-286,818	-123,898	-0,184	0,021
-285,803	54,414	-0,090	0,063
-284,789	80,586	0,049	0,038
-283,774	-7,143	0,088	0,044
-282,759	-200,000	-0,003	-0,079
-281,745	800,000	-0,019	-0,043
-280,730	68,659	-0,103	-0,077
-279,716	800,000	-0,056	-0,121
-278,701	53,592	-0,127	-0,089
-277,686	293,375	0,071	0,095
-276,672	-22,371	-0,087	-0,038
-275,657	-128,559	0,060	0,006
-274,643	-200,000	-0,004	-0,035
-273,628	162,526	-0,105	0,108
-272,613	147,700	0,050	0,050
-271,599	-98,444	0,196	0,036
-270,584	52,402	-0,126	-0,087
-269,570	-180,343	0,138	-0,002
-268,555	-200,000	-0,002	0,052
-267,540	386,322	0,117	0,178
-266,526	-200,000	-0,012	0,071
-265,511	134,503	-0,024	-0,023
-264,497	-127,321	-0,114	0,012
-263,482	534,412	0,057	0,100
-262,467	110,283	0,097	0,085
-261,453	68,887	0,103	0,077
-260,438	-200,000	-0,009	0,091
-259,424	-74,168	0,097	0,025
-258,409	800,000	-0,013	-0,037
-257,395	97,107	0,096	0,080
-256,380	285,306	-0,087	0,114
-255,365	5,404	0,041	0,022
-254,351	-123,852	0,035	0,004
-253,336	-200,000	0,021	-0,098
-252,322	107,150	0,069	-0,060
-251,307	-200,000	-0,011	0,042
-250,292	-200,000	-0,012	-0,114
-249,278	-100,512	-0,123	0,022
-248,263	800,000	0,028	0,089
-247,249	-200,000	-0,036	-0,134
-246,234	-86,339	-0,042	0,009
-245,219	-200,000	0,006	0,058
-244,205	88,856	-0,077	-0,063
-243,190	-123,775	0,126	0,014
-242,176	466,300	-0,016	-0,027
-241,161	147,081	-0,047	-0,046
-240,146	219,986	0,015	0,018
-239,132	800,000	-0,039	0,095
-238,117	-200,000	-0,007	-0,093
-237,103	-200,000	0,046	-0,000
-236,088	-200,000	-0,035	-0,181
-235,073	800,000	-0,006	-0,012
-234,059	-200,000	-0,001	0,009
-233,044	-200,000	-0,012	-0,053
-232,030	-200,000	-0,006	-0,040
-231,015	76,495	-0,030	0,023
-230,000	-0,174	-0,150	0,077
-228,986	587,622	-0,056	0,100
-227,971	-10,692	0,153	0,073
-226,957	292,267	0,048	0,063
-225,942	800,000	-0,026	0,074
-224,927	637,027	-0,021	-0,039
-223,913	431,600	-0,066	-0,105
-222,898	-200,000	0,005	-0,100
-221,884	-200,000	0,009	-0,146
-220,869	548,647	0,014	0,025
-219,855	-200,000	-0,005	0,094
-218,840	3,287	0,073	0,039
-217,825	-200,000	-0,024	-0,087
-216,811	-32,130	-0,063	-0,026
-215,796	-200,000	0,029	-0,214
-214,782	-37,799	0,015	0,006
-213,767	800,000	0,049	-0,125
-212,752	-14,635	0,070	-0,033
-211,738	212,693	-0,077	0,088
-210,723	-103,560	0,046	0,008
-209,709	-89,142	0,035	0,008
-208,694	62,667	-0,039	-0,028
-207,679	246,011	0,017	0,021
-206,665	-169,118	-0,106	0,003
-205,650	800,000	0,047	0,118
-204,636	800,000	-0,043	0,092
-203,621	-93,463	0,098	0,020
-202,606	521,770	-0,063	-0,108
-201,592	521,209	0,030	-0,052
-200,577	11,368	-0,087	0,048
-199,563	133,862	0,098	0,092
-198,548	358,615	-0,102	0,149
-197,533	-200,000	0,040	0,131
-196,519	800,000	-0,067	0,159
-195,504	98,321	-0,038	0,032
-194,490	-200,000	0,011	-0,069
-193,475	35,571	-0,148	-0,094
-192,460	-69,304	0,052	-0,014
-191,446	260,453	-0,089	-0,112
-190,431	-200,000	0,004	-0,032
-189,417	-200,000	-0,017	-0,142
-188,402	-37,496	0,023	0,009
-187,387	800,000	0,011	-0,026
-186,373	-49,163	-0,024	-0,008
-185,358	-200,000	-0,016	-0,154
-184,344	-119,228	0,083	0,010
-183,329	265,481	0,037	0,047
-182,315	169,566	-0,072	0,075
-181,300	110,628	-0,082	-0,072
-180,285	-27,421	0,063	0,027
-179,271	-152,603	-0,086	-0,004
-178,256	193,861	0,161	0,177
-177,242	45,750	0,069	-0,046
-176,227	122,129	-0,040	-0,036
-175,212	8,764	0,012	-0,007
-174,198	-173,142	-0,173	0,004
-173,183	442,780	-0,058	-0,093
-172,169	-200,000	0,024	-0,100
-171,154	232,762	0,024	-0,029
-170,139	236,779	0,014	-0,017
-169,125	213,541	0,195	0,224
-168,110	632,038	0,043	-0,080
-167,096	-143,995	-0,076	0,005
-166,081	305,479	-0,061	-0,083
-165,066	800,000	0,032	0,087
-164,052	-57,093	0,130	0,041
-163,037	800,000	0,027	-0,085
-162,023	-132,110	0,038	0,004
-161,008	93,093	0,057	0,047
-159,993	-200,000	0,004	0,021
-158,979	-200,000	-0,062	-0,000
-157,964	-119,859	0,097	-0,012
-156,950	-12,714	0,067	0,032
-155,935	155,593	0,110	0,110
-154,920	-20,456	0,119	0,053
-153,906	115,516	0,101	-0,089
-152,891	70,255	0,154	-0,116
-151,877	616,396	-0,088	-0,161
-150,862	328,003	-0,040	0,056
-149,847	247,622	-0,075	0,093
-148,833	-55,463	0,176	0,057
-147,818	800,000	0,054	-0,121
-146,804	131,151	0,067	0,062
-145,789	-91,051	0,124	0,026
-144,775	20,224	-0,038	-0,022
-143,760	-98,555	-0,095	-0,017
-142,745	57,830	0,041	0,029
-141,731	800,000	-0,019	-0,062
-140,716	800,000	-0,057	0,128
-139,702	193,604	0,087	0,096
-138,687	-200,000	-0,018	0,256
-137,672	717,713	-0,057	-0,111
-136,658	763,357	-0,031	0,061
-135,643	-123,313	-0,053	-0,006
-134,629	155,178	0,031	0,031
-133,614	-200,000	0,004	0,125
-132,599	-200,000	-0,014	0,053
-131,585	800,000	-0,040	0,116
-130,570	208,520	0,106	-0,120
-129,556	800,000	-0,058	-0,124
-128,541	-200,000	0,016	-0,084
-127,526	97,044	-0,072	0,060
-126,512	-200,000	-0,013	0,064
-125,497	213,584	0,064	-0,074
-124,483	-32,352	-0,020	-0,008
-123,468	540,348	-0,031	0,054
-122,453	493,247	0,031	0,052
-121,439	800,000	-0,065	0,141
-120,424	-200,000	0,015	-0,129
-119,410	-37,539	-0,043	-0,017
-118,395	40,835	-0,080	-0,052
