DTS Sentinel unit serial number:	SN410029Multiplexer serial number:	ORYXHardware model number:	OX2-SRSoftware version number:	ORYX F/W v4,00 Oryx Data Collector v3.7.2.0data status	okinstallation	B4 Nyhavnadifferential loss correction	single-endedforward channel	channel 2reverse channel	N/Adate	2023/12/19time	00:45:13forward acquisition time	300,00reverse acquisition time	0,00gamma	499,1914k internal	0,3123k external	0,3123temperature offset calibration	1,0000default loss term (dB/km)	0,3820temperature slope calibration	1,0000multiplexer offset coefficient	1,0000multiplexer slope coefficient	1,0000fibre end	0,00T internal ref (°C)	22,01T ext. ref 1 (°C)	6,39T ext. ref 2 (°C)	6,40length (m)	temperature (°C)	Stokes	anti-Stokes-744,400	255,643	-0,086	-0,111
-743,385	26,948	-0,130	0,081
-742,371	7,288	-0,042	0,023
-741,356	-87,267	-0,223	0,050
-740,342	-200,000	0,024	0,199
-739,327	-2,000	-0,204	0,107
-738,312	101,107	0,013	-0,011
-737,298	-122,434	-0,255	0,031
-736,283	-135,410	-0,058	-0,005
-735,269	-12,886	-0,264	0,128
-734,254	31,978	0,110	-0,071
-733,239	-85,154	-0,362	-0,084
-732,225	503,630	0,043	-0,075
-731,210	14,774	0,186	-0,108
-730,196	650,708	-0,062	-0,119
-729,181	-18,540	0,080	-0,037
-728,167	800,000	-0,018	-0,058
-727,152	456,812	-0,037	-0,061
-726,137	-72,710	-0,128	-0,035
-725,123	204,914	-0,056	0,064
-724,108	137,844	-0,066	-0,065
-723,094	511,719	-0,051	-0,089
-722,079	80,389	0,062	-0,050
-721,064	438,209	0,104	-0,169
-720,050	17,625	-0,051	0,030
-719,035	800,000	-0,043	0,091
-718,021	634,539	-0,037	-0,070
-717,006	336,964	0,077	-0,112
-715,991	-145,497	-0,077	0,005
-714,977	431,980	0,041	-0,067
-713,962	800,000	0,058	-0,154
-712,948	-93,836	-0,125	0,025
-711,933	134,507	-0,037	0,036
-710,918	276,376	0,044	0,058
-709,904	-23,287	-0,066	0,030
-708,889	800,000	-0,050	-0,136
-707,875	117,407	-0,115	-0,105
-706,860	800,000	0,027	-0,067
-705,845	-200,000	0,027	-0,155
-704,831	188,802	0,105	0,118
-703,816	800,000	0,034	-0,084
-702,802	693,363	-0,030	-0,059
-701,787	-200,000	-0,019	-0,142
-700,772	-85,165	0,107	-0,025
-699,758	-200,000	-0,019	-0,101
-698,743	800,000	-0,008	0,022
-697,729	-70,376	0,014	-0,004
-696,714	8,278	0,087	0,049
-695,699	140,032	-0,062	0,061
-694,685	-116,936	-0,147	0,020
-693,670	582,844	0,034	0,063
-692,656	159,736	0,058	-0,060
-691,641	-200,000	0,004	-0,041
-690,627	344,360	0,069	-0,101
-689,612	-105,016	0,111	-0,019
-688,597	5,847	-0,041	-0,022
-687,583	-200,000	0,020	-0,079
-686,568	-60,661	-0,050	0,016
-685,554	-11,857	0,119	-0,058
-684,539	-25,604	0,131	0,057
-683,524	-200,000	0,011	0,065
-682,510	-200,000	0,005	0,028
-681,495	388,215	-0,057	-0,088
-680,481	800,000	0,022	0,065
-679,466	-200,000	0,004	-0,048
-678,451	70,809	-0,086	0,066
-677,437	533,390	0,040	0,070
-676,422	4,606	-0,063	-0,034
-675,408	28,050	0,084	-0,052
-674,393	-200,000	0,022	-0,182
-673,378	465,853	0,005	0,009
-672,364	474,435	-0,041	-0,069
-671,349	415,610	-0,049	-0,078
-670,335	-106,338	0,088	-0,015
-669,320	-50,891	-0,022	0,008
-668,305	-17,670	-0,017	0,008
-667,291	-200,000	-0,000	0,143
-666,276	37,044	0,156	-0,102
-665,262	-70,419	-0,075	0,021
-664,247	41,694	-0,078	-0,052
-663,232	-136,530	-0,125	-0,011
-662,218	-200,000	-0,006	0,051
-661,203	-200,000	0,019	0,078
-660,189	-200,000	0,015	-0,055
-659,174	800,000	-0,051	-0,148
-658,159	49,367	-0,085	-0,060
-657,145	479,892	-0,098	-0,165
-656,130	85,654	0,030	0,025
-655,116	243,000	0,079	0,099
-654,101	-180,459	0,090	0,001
-653,086	792,810	0,012	0,025
-652,072	-200,000	-0,004	-0,036
-651,057	241,872	-0,112	-0,139
-650,043	-7,140	-0,068	-0,034
-649,028	483,520	-0,024	0,041
-648,014	800,000	0,021	-0,052
-646,999	366,538	0,050	0,075
-645,984	-200,000	0,000	0,088
-644,970	-70,528	-0,077	-0,022
-643,955	-0,539	-0,070	0,037
-642,941	385,612	-0,163	0,251
-641,926	-6,606	0,128	0,064
-640,911	-77,298	-0,062	0,016
-639,897	-111,747	-0,027	0,004
-638,882	-200,000	-0,005	-0,025
-637,868	25,091	-0,048	-0,029
-636,853	800,000	0,045	-0,103
-635,838	-101,326	-0,269	0,048
-634,824	3,770	0,076	0,041
-633,809	368,719	-0,057	-0,086
-632,795	-57,717	0,103	0,033
-631,780	702,948	0,003	-0,007
-630,765	536,955	-0,035	-0,061
-629,751	-200,000	0,018	-0,071
-628,736	800,000	-0,017	-0,041
-627,722	-200,000	0,006	-0,196
-626,707	316,646	-0,070	0,099
-625,692	-115,712	0,068	-0,009
-624,678	-121,271	0,066	-0,008
-623,663	800,000	0,038	0,088
-622,649	-200,000	-0,002	-0,061
-621,634	420,429	-0,059	-0,094
-620,619	1,211	0,147	-0,078
-619,605	172,740	0,079	-0,084
-618,590	800,000	0,022	-0,054
-617,576	190,565	0,039	0,043
-616,561	-200,000	0,026	-0,095
-615,546	-100,271	-0,136	0,025
-614,532	278,209	-0,033	-0,043
-613,517	-18,582	-0,046	0,021
-612,503	-127,749	-0,108	0,011
-611,488	-200,000	0,028	0,101
-610,474	102,573	0,008	0,007
-609,459	-107,151	-0,132	-0,021
-608,444	-200,000	0,013	-0,186
-607,430	-200,000	0,004	-0,138
-606,415	341,427	-0,080	-0,117
-605,401	122,024	-0,106	-0,098
-604,386	800,000	-0,029	0,068
-603,371	275,495	0,039	0,051
-602,357	-200,000	0,002	-0,065
-601,342	25,659	-0,171	0,106
-600,328	307,553	0,002	0,003
-599,313	-200,000	-0,000	0,042
-598,298	350,066	-0,054	0,079
-597,284	-32,615	0,112	0,046
-596,269	557,830	0,078	-0,140
-595,255	-2,634	0,048	-0,025
-594,240	481,553	-0,065	0,110
-593,225	800,000	-0,032	0,102
-592,211	-200,000	0,013	-0,072
-591,196	248,162	0,037	0,046
-590,182	27,821	0,051	0,032
-589,167	712,176	0,031	0,060
-588,152	-7,358	-0,136	-0,068
-587,138	-200,000	-0,004	0,025
-586,123	-94,209	-0,118	-0,024
-585,109	800,000	-0,009	0,024
-584,094	416,835	-0,067	0,107
-583,079	800,000	0,025	-0,053
-582,065	-78,646	-0,098	-0,025
-581,050	4,997	0,140	0,076
-580,036	64,816	0,045	-0,034
-579,021	800,000	0,013	0,033
-578,006	-104,134	-0,085	0,014
-576,992	162,707	-0,089	-0,092
-575,977	34,266	0,123	-0,079
-574,963	64,287	0,070	0,052
-573,948	82,573	-0,069	0,055
-572,934	246,477	0,022	-0,027
-571,919	-130,192	-0,130	-0,013
-570,904	71,568	-0,151	-0,116
-569,890	-184,830	-0,132	0,002
-568,875	-71,571	-0,091	0,025
-567,861	1,717	0,082	0,044
-566,846	83,356	-0,082	0,066
-565,831	240,829	-0,019	-0,023
-564,817	118,981	0,063	-0,057
-563,802	211,050	-0,059	0,069
-562,788	-133,419	-0,111	-0,010
-561,773	638,199	0,082	0,156
-560,758	-40,270	-0,123	0,047
-559,744	-200,000	-0,001	0,115
-558,729	491,078	0,109	0,185
-557,715	-154,899	-0,065	0,003
-556,700	800,000	-0,070	-0,165
-555,685	-200,000	0,022	0,085
-554,671	800,000	-0,008	-0,023
-553,656	-200,000	-0,004	-0,065
-552,642	74,627	-0,146	0,113
-551,627	-200,000	0,011	-0,037
-550,612	219,208	-0,091	-0,108
-549,598	-39,356	0,075	-0,029
-548,583	296,521	-0,055	-0,074
-547,569	800,000	-0,026	-0,060
-546,554	-52,507	-0,141	-0,048
-545,539	253,139	-0,033	0,041
-544,525	-102,397	0,091	-0,016
-543,510	-40,970	-0,083	-0,032
-542,496	-10,309	-0,108	0,053
-541,481	631,028	0,058	-0,109
-540,466	108,507	-0,031	-0,027
-539,452	-200,000	0,002	0,025
-538,437	800,000	0,074	-0,157
-537,423	-200,000	-0,011	0,191
-536,408	73,805	0,053	-0,041
-535,393	800,000	-0,024	-0,066
-534,379	289,255	-0,056	-0,075
-533,364	-3,063	0,055	-0,028
-532,350	36,442	-0,025	0,016
-531,335	258,573	0,059	-0,075
-530,321	358,829	-0,025	0,038
-529,306	410,991	0,074	0,116
-528,291	82,876	-0,085	0,068
-527,277	800,000	-0,070	0,147
-526,262	726,556	0,063	-0,125
-525,248	276,273	-0,080	-0,105
-524,233	112,638	0,063	0,056
-523,218	277,194	-0,023	-0,030
-522,204	8,310	-0,046	0,025
-521,189	800,000	0,042	-0,111
-520,175	-103,348	0,089	-0,015
-519,160	-82,176	0,048	0,011
-518,145	51,945	-0,034	-0,024
-517,131	-93,451	-0,095	0,019
-516,116	226,885	-0,041	0,049
-515,102	242,812	0,102	-0,127
-514,087	792,636	0,038	0,078
-513,072	31,864	-0,060	-0,038
-512,058	1,211	-0,056	0,030
-511,043	454,778	0,028	0,046
-510,029	-22,014	0,025	-0,011
-509,014	156,156	0,036	-0,036
-507,999	-98,044	0,106	0,020
-506,985	14,479	-0,115	0,066
-505,970	73,965	-0,010	-0,008
-504,956	-200,000	-0,015	-0,072
-503,941	-200,000	-0,006	0,036
-502,926	-153,677	0,084	-0,004
-501,912	800,000	-0,041	0,131
-500,897	48,302	0,075	0,052
-499,883	54,512	-0,088	-0,062
-498,868	92,596	-0,149	-0,124
-497,853	23,477	0,052	0,032
-496,839	-200,000	0,005	-0,035
-495,824	-112,818	0,059	0,009
-494,810	-124,791	-0,140	-0,016
-493,795	734,680	0,009	0,017
-492,781	-200,000	-0,010	0,049
-491,766	-97,601	-0,086	0,016
-490,751	-200,000	0,019	0,137
-489,737	800,000	0,024	0,058
-488,722	-22,193	-0,040	0,018
-487,708	-77,644	-0,191	-0,049
-486,693	-71,499	0,060	-0,016
-485,678	295,003	-0,035	-0,047
-484,664	113,501	-0,048	-0,043
-483,649	140,710	0,076	-0,074
-482,635	-200,000	-0,017	-0,071
-481,620	-91,808	0,114	0,024
-480,605	-200,000	-0,020	-0,068
-479,591	397,733	-0,040	-0,061
-478,576	87,980	0,028	-0,023
-477,562	65,904	-0,056	0,042
-476,547	-19,026	-0,125	-0,057
-475,532	-200,000	-0,008	-0,027
-474,518	-200,000	0,012	0,087
-473,503	800,000	0,030	0,062
-472,489	-37,360	0,093	0,036
-471,474	190,299	0,079	0,087
-470,459	120,200	-0,081	0,074
-469,445	800,000	0,072	0,165
-468,430	672,450	0,045	-0,086
-467,416	-79,177	0,064	-0,016
-466,401	-7,181	0,121	0,060
-465,386	302,826	-0,084	0,115
-464,372	-200,000	0,003	0,017
-463,357	-37,863	-0,046	0,018
-462,343	-77,554	-0,202	-0,051
-461,328	800,000	0,020	0,043
-460,313	-31,873	0,017	0,007
-459,299	422,004	0,052	-0,083
-458,284	32,012	0,045	0,029
-457,270	105,767	-0,112	0,097
-456,255	232,559	0,037	-0,045
-455,241	225,007	-0,041	0,049
-454,226	-3,203	0,109	-0,056
-453,211	326,742	-0,042	0,059
-452,197	246,362	0,046	-0,057
-451,182	-145,029	0,053	0,004
-450,168	-200,000	-0,004	0,064
-449,153	-200,000	-0,006	0,074
-448,138	800,000	-0,015	-0,036
-447,124	231,493	0,028	0,033
-446,109	4,755	-0,188	-0,101
-445,095	-5,748	-0,050	0,025
-444,080	87,554	-0,023	-0,018
-443,065	-50,028	0,046	-0,016
-442,051	434,861	-0,014	-0,023
-441,036	-200,000	-0,027	-0,147
-440,022	-200,000	-0,052	-0,208
-439,007	190,520	-0,055	0,061
-437,992	-200,000	0,018	0,099
-436,978	105,367	0,041	0,036
-435,963	19,994	0,113	0,067
-434,949	73,149	-0,146	-0,113
-433,934	-200,000	0,014	0,101
-432,919	7,264	-0,082	-0,045
-431,905	800,000	-0,073	-0,155
-430,890	800,000	-0,035	-0,087
-429,876	-200,000	-0,012	0,087
-428,861	663,620	-0,028	-0,054
-427,846	-200,000	0,016	-0,127
-426,832	800,000	-0,040	0,110
-425,817	-93,938	-0,054	-0,011
-424,803	-200,000	-0,018	-0,084
-423,788	-31,318	0,149	-0,062
-422,773	-77,129	0,077	0,019
-421,759	-200,000	0,001	0,080
-420,744	180,022	-0,045	-0,048
-419,730	-144,658	0,034	-0,002
-418,715	-200,000	0,034	-0,145
-417,701	-200,000	0,003	0,053
-416,686	-49,031	-0,098	-0,034
-415,671	311,416	-0,074	0,103
-414,657	-50,549	0,146	0,050
-413,642	348,962	-0,032	-0,046
-412,628	-155,303	-0,095	0,004
-411,613	64,199	0,081	0,060
-410,598	65,570	0,063	-0,047
-409,584	255,899	0,065	-0,083
-408,569	-63,975	0,161	-0,048
-407,555	265,122	0,099	0,127
-406,540	310,613	-0,050	0,069
-405,525	86,107	-0,079	-0,064
-404,511	155,248	-0,044	-0,044
-403,496	-200,000	-0,021	0,099
-402,482	284,328	0,058	-0,077
-401,467	800,000	0,011	-0,027
-400,452	11,398	0,094	-0,053
-399,438	-200,000	-0,013	0,126
-398,423	800,000	-0,066	-0,147
-397,409	-60,150	-0,106	-0,033
-396,394	800,000	-0,015	-0,049
-395,379	-48,765	-0,017	0,006
-394,365	329,182	0,087	0,123
-393,350	-200,000	0,005	0,023
-392,336	-200,000	0,028	0,127
-391,321	191,073	0,114	-0,126
-390,306	590,975	-0,039	-0,071
-389,292	-101,915	-0,090	0,016
-388,277	179,557	0,037	0,040
-387,263	84,106	0,033	0,026
-386,248	508,563	0,068	0,117
-385,233	-81,442	0,029	0,007
-384,219	-7,333	0,157	0,078
-383,204	-47,068	-0,073	-0,026
-382,190	238,935	0,054	0,066
-381,175	-200,000	-0,018	0,113
-380,160	-2,830	-0,021	-0,011
-379,146	729,975	-0,040	-0,079
-378,131	800,000	0,047	0,150
-377,117	-13,550	0,058	-0,027
-376,102	69,529	-0,056	0,042
-375,088	-200,000	-0,011	0,142
-374,073	366,823	-0,024	0,035
-373,058	800,000	-0,081	-0,167
-372,044	-27,808	-0,025	-0,011
-371,029	-78,938	0,023	0,006
-370,015	198,711	-0,064	-0,072
-369,000	482,948	-0,054	-0,091
-367,985	-200,000	-0,002	-0,033
-366,971	43,456	-0,009	0,006
-365,956	96,485	0,071	0,060
-364,942	-76,091	-0,073	-0,019
-363,927	20,005	0,104	-0,061
-362,912	-121,492	0,147	0,018
-361,898	-200,000	-0,008	-0,172
-360,883	-200,000	-0,010	-0,066
-359,869	800,000	-0,030	-0,062
-358,854	133,912	-0,034	-0,033
-357,839	743,115	0,021	-0,042
-356,825	271,773	0,099	-0,128
-355,810	-200,000	-0,012	0,105
-354,796	387,270	-0,042	-0,064
-353,781	-200,000	0,005	-0,039
-352,766	-200,000	-0,003	-0,082
-351,752	158,547	0,085	-0,087
-350,737	-62,229	0,079	0,024
-349,723	800,000	0,003	0,007
-348,708	-200,000	-0,035	0,130
-347,693	93,309	0,127	-0,106
-346,679	-200,000	-0,023	-0,078
-345,664	253,447	-0,094	-0,118
-344,650	-55,839	0,046	0,015
-343,635	-200,000	-0,028	0,119
-342,620	800,000	0,040	0,088
-341,606	-200,000	0,015	0,059
-340,591	-200,000	-0,003	0,100
-339,577	-68,083	0,057	-0,016
-338,562	377,555	-0,042	-0,063
-337,548	800,000	-0,028	-0,074
-336,533	350,800	0,072	-0,105
-335,518	-97,277	0,222	0,042
-334,504	-73,987	-0,018	0,005
-333,489	109,339	-0,059	0,052
-332,475	-200,000	0,015	-0,088
-331,460	308,932	0,102	0,140
-330,445	496,205	-0,038	-0,064
-329,431	-50,119	-0,111	0,038
-328,416	59,471	0,179	0,129
-327,402	86,429	0,086	-0,070
-326,387	800,000	-0,037	0,102
-325,372	-137,178	0,044	0,004
-324,358	-200,000	-0,021	-0,148
-323,343	233,806	0,053	0,065
-322,329	247,257	0,033	0,041
-321,314	-193,999	0,064	0,000
-320,299	-93,913	0,071	0,014
-319,285	323,804	-0,015	0,022
-318,270	-200,000	-0,015	0,066
-317,256	118,614	-0,028	-0,026
-316,241	-119,187	0,086	-0,011
-315,226	125,515	0,024	-0,022
-314,212	-200,000	-0,002	0,154
-313,197	800,000	-0,024	0,074
-312,183	164,773	0,051	-0,052
-311,168	58,565	-0,057	-0,041
-310,153	-68,289	-0,063	0,018
-309,139	139,878	-0,051	-0,049
-308,124	113,689	0,055	0,049
-307,110	800,000	0,088	0,183
-306,095	-200,000	0,002	0,016
-305,080	46,281	0,037	-0,025
-304,066	305,323	-0,057	0,078
-303,051	16,498	0,006	-0,003
-302,037	100,936	-0,054	0,046
-301,022	145,294	0,083	0,081
-300,008	289,097	0,036	0,048
-298,993	-57,070	0,077	-0,025
-297,978	432,308	0,030	0,047
-296,964	-33,441	-0,090	-0,036
-295,949	428,909	-0,031	-0,049
-294,935	800,000	0,022	-0,061
-293,920	-200,000	-0,038	0,149
-292,905	185,580	0,076	0,083
-291,891	134,315	0,146	0,138
-290,876	-200,000	-0,007	0,193
-289,862	-165,587	-0,173	-0,005
-288,847	-61,899	-0,045	-0,014
-287,832	-35,590	-0,100	-0,040
-286,818	-200,000	0,015	0,129
-285,803	490,720	0,057	0,097
-284,789	449,239	0,091	0,147
-283,774	347,743	-0,068	0,098
-282,759	39,845	0,024	-0,016
-281,745	-73,753	-0,046	0,012
-280,730	-82,127	-0,157	0,037
-279,716	34,600	0,108	0,069
-278,701	800,000	-0,042	-0,091
-277,686	99,263	-0,049	0,041
-276,672	800,000	-0,020	0,055
-275,657	268,109	0,087	-0,112
-274,643	543,890	0,070	-0,123
-273,628	-108,167	-0,167	0,026
-272,613	-200,000	0,002	-0,083
-271,599	-200,000	-0,010	-0,037
-270,584	31,881	-0,043	-0,027
-269,570	-18,365	0,213	-0,097
-268,555	-86,998	0,072	-0,016
-267,540	144,030	0,136	0,132
-266,526	25,875	-0,080	-0,049
-265,511	578,079	-0,030	0,054
-264,497	59,344	0,131	0,094
-263,482	48,624	0,082	0,056
-262,467	741,959	0,031	-0,062
-261,453	800,000	-0,053	0,143
-260,438	-151,548	0,064	0,003
-259,424	793,368	0,043	0,087
-258,409	417,409	-0,101	0,158
-257,395	-200,000	-0,016	0,054
-256,380	800,000	0,025	0,074
-255,365	800,000	-0,050	0,130
-254,351	-200,000	0,020	0,095
-253,336	297,602	0,065	-0,087
-252,322	-200,000	-0,008	-0,093
-251,307	-18,657	0,036	0,016
-250,292	497,810	0,106	-0,179
-249,278	-169,935	0,185	-0,005
-248,263	410,550	-0,058	0,090
-247,249	-77,891	-0,028	0,007
-246,234	-200,000	0,004	-0,058
-245,219	90,837	0,131	-0,107
-244,205	304,066	-0,016	-0,022
-243,190	-200,000	0,003	0,077
-242,176	-89,215	0,120	-0,026
-241,161	800,000	-0,035	0,089
-240,146	-200,000	0,015	-0,088
-239,132	68,692	0,057	-0,042
-238,117	142,710	-0,079	-0,077
-237,103	800,000	0,065	-0,152
-236,088	800,000	0,033	0,081
-235,073	784,535	-0,058	-0,117
-234,059	-200,000	0,009	-0,143
-233,044	-40,209	0,079	-0,030
-232,030	800,000	0,035	0,084
-231,015	-86,709	0,079	-0,017
-230,000	-5,381	0,077	-0,039
-228,986	800,000	0,029	-0,079
-227,971	-56,825	-0,092	0,030
-226,957	115,845	-0,061	0,054
-225,942	48,156	0,007	0,005
-224,927	-13,567	-0,043	-0,020
-223,913	268,494	0,044	-0,057
-222,898	573,776	0,052	-0,092
-221,884	-101,487	-0,068	-0,012
-220,869	-200,000	0,011	-0,045
-219,855	-105,648	0,160	0,026
-218,840	-200,000	-0,029	0,096
-217,825	800,000	-0,052	0,153
-216,811	567,449	0,026	0,046
-215,796	183,740	-0,081	-0,088
-214,782	-200,000	-0,003	0,124
-213,767	535,712	-0,055	0,095
-212,752	-70,055	-0,061	0,017
-211,738	800,000	-0,055	0,156
-210,723	65,235	0,134	0,099
-209,709	57,494	-0,045	-0,032
-208,694	160,038	-0,062	-0,063
-207,679	569,057	0,061	-0,109
-206,665	-143,195	0,112	0,008
-205,650	800,000	0,051	0,117
-204,636	-37,308	0,113	-0,044
-203,621	-22,619	0,109	0,048
-202,606	-200,000	0,045	-0,170
-201,592	800,000	0,064	-0,142
-200,577	169,303	-0,094	0,098
-199,563	800,000	-0,010	-0,031
-198,548	467,535	0,070	0,116
-197,533	-147,528	-0,090	-0,005
-196,519	28,191	0,077	-0,047
-195,504	522,154	-0,008	0,015
-194,490	352,688	-0,049	-0,071
-193,475	203,411	-0,082	-0,093
-192,460	-87,283	0,096	-0,021
-191,446	41,401	0,088	0,058
-190,431	-200,000	0,009	-0,097
-189,417	800,000	-0,024	0,057
-188,402	-99,207	0,118	-0,021
-187,387	-200,000	0,032	-0,105
-186,373	-14,816	-0,073	0,034
-185,358	-46,569	0,089	-0,032
-184,344	73,436	0,048	-0,036
-183,329	-140,574	0,105	-0,008
-182,315	714,485	0,039	0,077
-181,300	19,829	-0,090	0,053
-180,285	369,130	-0,059	-0,087
-179,271	-166,622	-0,071	0,002
-178,256	190,847	0,103	-0,113
-177,242	-200,000	-0,009	-0,065
-176,227	-200,000	-0,004	0,044
-175,212	-160,611	-0,086	-0,003
-174,198	-91,770	-0,135	-0,028
-173,183	800,000	-0,077	-0,211
-172,169	-200,000	-0,024	-0,199
-171,154	176,924	0,132	-0,141
-170,139	-83,600	-0,048	0,011
-169,125	-180,522	0,077	0,001
-168,110	-200,000	-0,004	0,151
-167,096	-90,845	-0,109	0,023
-166,081	199,373	-0,053	0,059
-165,066	-111,218	-0,011	0,002
-164,052	-200,000	0,002	-0,106
-163,037	-2,250	-0,016	0,008
-162,023	800,000	0,025	-0,052
-161,008	-5,823	0,093	0,046
-159,993	-80,133	-0,047	-0,011
-158,979	-200,000	0,006	-0,097
-157,964	72,762	-0,113	0,086
-156,950	-66,379	0,090	-0,026
-155,935	153,685	-0,053	0,053
-154,920	-200,000	-0,000	-0,062
-153,906	14,011	-0,063	0,036
-152,891	395,913	-0,031	0,047
-151,877	-5,621	-0,109	-0,054
-150,862	-42,562	-0,094	-0,035
-149,847	-22,370	-0,150	0,066
-148,833	369,646	0,058	-0,087
-147,818	127,033	0,062	-0,057
-146,804	-200,000	-0,015	0,126
-145,789	-200,000	-0,020	0,162
-144,775	-78,758	-0,018	-0,004
-143,760	-44,018	-0,056	-0,020
-142,745	93,732	0,069	-0,057
-141,731	20,906	0,097	-0,057
-140,716	-101,286	0,128	0,023
-139,702	468,279	0,030	0,049
-138,687	144,364	-0,062	0,060
-137,672	800,000	0,050	-0,134
-136,658	-77,460	0,110	-0,028
-135,643	-136,531	0,035	-0,003
-134,629	-200,000	0,030	-0,122
-133,614	800,000	0,011	0,026
-132,599	150,501	0,084	-0,083
-131,585	-200,000	0,004	-0,027
-130,570	-109,453	0,124	-0,019
-129,556	4,967	0,026	-0,014
-128,541	191,762	-0,012	0,014
-127,526	507,337	0,051	0,087
-126,512	800,000	0,035	0,093
-125,497	-181,990	0,064	0,001
-124,483	-109,371	-0,098	-0,015
-123,468	83,802	0,026	0,021
-122,453	800,000	-0,074	-0,218
-121,439	-21,592	-0,102	-0,045
-120,424	-63,256	-0,014	-0,004
-119,410	102,807	0,035	0,030
-118,395	437,239	-0,109	0,173
