DTS Sentinel unit serial number:	SN410029Multiplexer serial number:	ORYXHardware model number:	OX2-SRSoftware version number:	ORYX F/W v4,00 Oryx Data Collector v3.7.2.0data status	okinstallation	B4 Nyhavnadifferential loss correction	single-endedforward channel	channel 2reverse channel	N/Adate	2023/12/16time	02:05:14forward acquisition time	300,00reverse acquisition time	0,00gamma	499,1914k internal	0,3128k external	0,3128temperature offset calibration	1,0000default loss term (dB/km)	0,3820temperature slope calibration	1,0000multiplexer offset coefficient	1,0000multiplexer slope coefficient	1,0000fibre end	0,00T internal ref (°C)	21,94T ext. ref 1 (°C)	7,18T ext. ref 2 (°C)	7,38length (m)	temperature (°C)	Stokes	anti-Stokes-744,400	-200,000	-0,016	-0,064
-743,385	107,665	-0,229	0,202
-742,371	570,135	0,024	0,043
-741,356	-91,949	-0,271	0,057
-740,342	288,771	0,113	0,153
-739,327	766,396	-0,134	0,273
-738,312	665,491	-0,019	0,037
-737,298	-69,660	-0,313	0,088
-736,283	50,113	0,154	-0,108
-735,269	264,301	-0,103	0,133
-734,254	-38,713	0,118	0,046
-733,239	-17,852	-0,439	-0,204
-732,225	-65,260	0,238	-0,071
-731,210	-200,000	0,008	0,075
-730,196	168,451	0,107	0,114
-729,181	-42,812	0,044	0,017
-728,167	-200,000	0,013	-0,046
-727,152	-200,000	0,003	-0,041
-726,137	800,000	-0,072	0,172
-725,123	-200,000	-0,016	-0,133
-724,108	341,095	-0,048	-0,070
-723,094	-62,489	-0,110	-0,034
-722,079	800,000	-0,045	-0,126
-721,064	-200,000	0,010	0,082
-720,050	-44,845	0,131	0,048
-719,035	-101,836	-0,061	0,011
-718,021	-200,000	-0,008	0,049
-717,006	-76,023	-0,170	-0,044
-715,991	230,518	-0,029	-0,036
-714,977	199,855	-0,058	-0,066
-713,962	-87,694	0,077	0,017
-712,948	-44,931	0,087	-0,032
-711,933	800,000	0,034	-0,099
-710,918	-200,000	0,014	-0,078
-709,904	572,386	-0,034	-0,061
-708,889	-200,000	0,030	-0,111
-707,875	69,858	-0,182	-0,140
-706,860	300,381	-0,027	-0,037
-705,845	61,758	-0,013	0,010
-704,831	-200,000	0,009	-0,105
-703,816	256,770	-0,087	0,111
-702,802	561,232	-0,072	-0,130
-701,787	-200,000	0,007	-0,159
-700,772	740,947	-0,048	0,097
-699,758	488,436	-0,074	-0,126
-698,743	800,000	-0,041	0,104
-697,729	-152,713	-0,054	-0,003
-696,714	479,661	0,027	-0,045
-695,699	30,095	0,012	-0,007
-694,685	-200,000	-0,021	-0,101
-693,670	800,000	-0,041	-0,102
-692,656	298,755	-0,042	-0,058
-691,641	800,000	-0,020	-0,063
-690,627	-96,339	-0,088	0,017
-689,612	759,225	0,028	0,057
-688,597	136,562	-0,088	0,085
-687,583	-200,000	-0,010	-0,103
-686,568	85,058	-0,111	-0,091
-685,554	229,350	-0,074	-0,089
-684,539	-178,872	0,139	0,002
-683,524	-37,451	0,074	0,029
-682,510	-41,411	-0,053	0,020
-681,495	234,915	-0,043	-0,053
-680,481	-200,000	0,010	-0,066
-679,466	-171,950	0,054	-0,001
-678,451	800,000	-0,041	-0,129
-677,437	-200,000	0,015	-0,069
-676,422	-200,000	-0,011	0,068
-675,408	81,954	0,049	0,040
-674,393	152,896	-0,027	-0,028
-673,378	-110,411	-0,111	0,017
-672,364	-95,723	0,039	0,008
-671,349	-34,937	-0,046	0,019
-670,335	800,000	0,034	0,110
-669,320	-98,729	0,046	-0,009
-668,305	-132,477	-0,038	0,004
-667,291	-200,000	0,003	0,074
-666,276	-68,232	-0,081	-0,023
-665,262	-200,000	-0,020	-0,107
-664,247	-200,000	-0,014	0,089
-663,232	-200,000	0,004	-0,055
-662,218	649,512	-0,054	0,103
-661,203	-64,596	0,073	-0,022
-660,189	-200,000	-0,016	-0,106
-659,174	-200,000	-0,267	0,001
-658,159	-60,397	-0,099	0,031
-657,145	-36,744	0,038	-0,015
-656,130	-200,000	-0,015	-0,135
-655,116	79,363	0,079	-0,063
-654,101	-200,000	-0,001	-0,014
-653,086	429,015	0,053	-0,085
-652,072	312,620	-0,061	-0,085
-651,057	17,052	0,096	-0,056
-650,043	119,652	-0,063	0,058
-649,028	-200,000	-0,022	0,084
-648,014	139,275	0,108	-0,105
-646,999	47,099	-0,085	-0,059
-645,984	-100,514	0,046	-0,008
-644,970	-109,048	-0,075	0,012
-643,955	-83,988	-0,164	-0,038
-642,941	748,377	-0,066	0,133
-641,926	184,218	0,023	0,025
-640,911	5,916	-0,072	0,039
-639,897	-13,040	-0,100	0,048
-638,882	-200,000	0,017	0,079
-637,868	-144,041	0,057	0,004
-636,853	515,672	-0,054	0,093
-635,838	10,161	-0,117	-0,066
-634,824	-113,410	0,122	0,018
-633,809	-102,976	-0,102	0,018
-632,795	270,671	-0,026	-0,034
-631,780	800,000	-0,002	-0,006
-630,765	-111,101	-0,083	-0,013
-629,751	-57,085	-0,051	-0,017
-628,736	68,193	0,085	-0,064
-627,722	599,572	-0,022	-0,040
-626,707	-200,000	-0,012	-0,071
-625,692	800,000	-0,049	0,123
-624,678	-59,929	0,081	-0,025
-623,663	305,168	-0,061	-0,084
-622,649	367,259	0,047	-0,071
-621,634	-200,000	0,027	-0,195
-620,619	-200,000	0,035	-0,122
-619,605	243,060	0,034	0,042
-618,590	-19,045	-0,008	0,004
-617,576	-200,000	0,004	-0,154
-616,561	-134,289	-0,068	0,006
-615,546	58,395	-0,116	-0,084
-614,532	-89,946	-0,041	-0,009
-613,517	-27,916	0,022	-0,009
-612,503	357,426	0,038	-0,056
-611,488	-200,000	-0,007	-0,063
-610,474	692,837	0,041	0,081
-609,459	177,817	0,055	-0,059
-608,444	800,000	-0,030	-0,062
-607,430	130,912	-0,074	-0,070
-606,415	42,729	-0,018	0,012
-605,401	30,249	0,025	-0,016
-604,386	15,625	0,042	-0,024
-603,371	-200,000	-0,014	0,104
-602,357	30,472	0,093	0,059
-601,342	696,892	0,023	0,045
-600,328	-200,000	-0,005	0,074
-599,313	-65,809	-0,066	-0,019
-598,298	-200,000	-0,001	-0,098
-597,284	75,069	0,118	0,092
-596,269	36,594	0,071	0,046
-595,255	63,983	-0,104	-0,077
-594,240	135,628	-0,056	-0,054
-593,225	-48,343	-0,175	0,062
-592,211	-21,677	-0,010	-0,004
-591,196	-130,827	-0,063	0,006
-590,182	79,986	-0,091	0,072
-589,167	-40,972	-0,106	0,040
-588,152	541,147	0,085	0,150
-587,138	-66,185	0,084	0,025
-586,123	-96,702	0,134	0,026
-585,109	800,000	0,022	0,072
-584,094	800,000	0,034	-0,078
-583,079	-8,958	0,164	0,081
-582,065	-4,048	0,087	-0,044
-581,050	800,000	0,010	0,026
-580,036	-20,525	0,100	0,045
-579,021	800,000	-0,030	0,070
-578,006	-4,487	0,108	-0,055
-576,992	-200,000	0,016	-0,139
-575,977	-33,137	-0,034	0,014
-574,963	-67,941	0,191	0,055
-573,948	730,312	-0,080	0,158
-572,934	56,565	0,039	-0,028
-571,919	-7,311	-0,203	0,101
-570,904	230,111	0,020	0,024
-569,890	48,260	-0,065	0,045
-568,875	102,506	0,047	0,040
-567,861	800,000	0,028	0,086
-566,846	-82,343	0,090	0,021
-565,831	61,983	0,131	-0,097
-564,817	-200,000	-0,005	-0,069
-563,802	-200,000	-0,008	-0,208
-562,788	4,605	0,211	0,114
-561,773	-101,089	0,095	-0,017
-560,758	-200,000	0,028	0,102
-559,744	109,240	-0,052	0,046
-558,729	-200,000	0,036	0,242
-557,715	-200,000	0,002	0,122
-556,700	256,312	0,024	-0,030
-555,685	-200,000	0,012	-0,097
-554,671	-109,737	0,085	-0,013
-553,656	50,410	0,097	0,067
-552,642	367,130	-0,055	0,082
-551,627	800,000	0,047	0,131
-550,612	233,645	-0,052	-0,063
-549,598	32,891	-0,102	0,065
-548,583	130,547	-0,039	-0,037
-547,569	271,239	0,083	-0,109
-546,554	-102,117	-0,077	-0,013
-545,539	-200,000	0,040	0,139
-544,525	-200,000	-0,005	0,067
-543,510	-101,506	0,126	0,022
-542,496	395,916	0,057	-0,088
-541,481	26,638	-0,018	-0,011
-540,466	-200,000	0,035	0,119
-539,452	363,493	0,064	-0,095
-538,437	-116,382	0,024	-0,003
-537,423	-147,749	0,046	0,003
-536,408	-200,000	-0,022	-0,088
-535,393	-200,000	-0,005	-0,037
-534,379	-1,973	-0,093	0,048
-533,364	-200,000	-0,004	-0,053
-532,350	-7,150	-0,031	0,015
-531,335	-200,000	0,008	-0,027
-530,321	-197,393	0,076	0,000
-529,306	-166,401	-0,104	0,003
-528,291	-200,000	-0,005	0,047
-527,277	800,000	-0,063	-0,131
-526,262	221,380	0,064	-0,077
-525,248	574,324	0,059	0,106
-524,233	-200,000	0,047	0,170
-523,218	250,513	0,038	-0,047
-522,204	-200,000	-0,041	0,147
-521,189	-200,000	0,014	-0,166
-520,175	-1,257	-0,238	0,124
-519,160	800,000	0,024	0,070
-518,145	-127,765	0,079	-0,008
-517,131	-96,033	-0,077	0,015
-516,116	-129,566	-0,104	-0,010
-515,102	-151,596	-0,063	0,003
-514,087	-43,775	-0,079	0,029
-513,072	26,848	-0,133	0,082
-512,058	128,089	-0,033	0,031
-511,043	21,271	0,110	0,066
-510,029	800,000	-0,041	0,116
-509,014	202,449	-0,026	-0,029
-507,999	-63,224	-0,027	0,008
-506,985	800,000	0,028	-0,080
-505,970	393,356	-0,037	-0,057
-504,956	-200,000	-0,030	-0,149
-503,941	32,164	-0,020	-0,012
-502,926	-200,000	-0,002	0,110
-501,912	199,626	0,035	0,040
-500,897	-42,803	0,176	0,066
-499,883	-200,000	0,042	-0,180
-498,868	-6,670	-0,084	-0,042
-497,853	800,000	0,030	-0,095
-496,839	360,532	-0,029	-0,043
-495,824	234,160	0,111	-0,135
-494,810	525,464	0,050	-0,086
-493,795	-30,618	-0,035	0,014
-492,781	8,696	0,048	-0,026
-491,766	162,386	-0,019	-0,019
-490,751	159,282	0,033	0,034
-489,737	230,539	0,083	-0,100
-488,722	-19,032	0,022	-0,010
-487,708	800,000	0,037	-0,104
-486,693	796,933	0,033	-0,067
-485,678	-144,700	-0,045	-0,003
-484,664	66,086	0,053	-0,040
-483,649	-200,000	0,014	-0,164
-482,635	-200,000	0,009	0,095
-481,620	366,405	-0,068	0,101
-480,605	-200,000	-0,004	0,051
-479,591	-87,154	0,056	-0,012
-478,576	-200,000	0,009	-0,082
-477,562	-60,860	-0,068	-0,021
-476,547	-200,000	-0,014	-0,104
-475,532	-75,369	0,111	-0,029
-474,518	365,221	-0,034	0,050
-473,503	124,191	-0,054	-0,050
-472,489	800,000	0,007	0,018
-471,474	-200,000	-0,009	0,044
-470,459	567,320	-0,036	-0,065
-469,445	90,248	0,084	-0,069
-468,430	-29,219	-0,099	-0,042
-467,416	800,000	0,021	-0,058
-466,401	-94,023	0,131	0,026
-465,386	-6,678	0,050	0,025
-464,372	154,320	-0,074	0,074
-463,357	165,870	-0,053	-0,055
-462,343	444,250	-0,045	0,073
-461,328	42,708	0,097	-0,065
-460,313	800,000	-0,047	0,103
-459,299	582,935	-0,087	0,158
-458,284	-5,512	-0,083	-0,042
-457,270	-135,916	0,103	-0,009
-456,255	170,396	-0,037	0,039
-455,241	429,850	-0,012	-0,018
-454,226	324,590	0,079	-0,112
-453,211	133,416	0,047	-0,045
-452,197	28,921	0,152	-0,094
-451,182	800,000	0,015	0,033
-450,168	-135,549	0,035	-0,003
-449,153	306,619	-0,043	0,059
-448,138	-200,000	0,039	-0,227
-447,124	-144,496	0,172	-0,012
-446,109	393,222	0,059	-0,091
-445,095	-155,123	-0,084	-0,004
-444,080	-161,993	0,027	0,001
-443,065	81,431	-0,126	0,100
-442,051	-64,056	-0,155	0,046
-441,036	67,755	-0,145	-0,109
-440,022	97,422	-0,183	-0,154
-439,007	23,613	0,066	0,040
-437,992	83,533	-0,047	-0,038
-436,978	-72,618	-0,134	0,036
-435,963	-200,000	0,005	0,036
-434,949	258,261	-0,096	0,121
-433,934	-200,000	-0,012	-0,092
-432,919	-200,000	0,004	0,023
-431,905	-21,732	0,013	-0,006
-430,890	-200,000	0,002	0,007
-429,876	482,041	-0,055	0,092
-428,861	-103,564	0,092	-0,016
-427,846	689,105	-0,045	0,087
-426,832	-135,333	-0,146	0,013
-425,817	379,887	0,064	-0,096
-424,803	47,089	0,057	0,039
-423,788	159,029	-0,036	0,037
-422,773	54,976	-0,069	-0,049
-421,759	-3,325	-0,047	-0,024
-420,744	167,954	0,032	-0,034
-419,730	35,607	-0,073	0,047
-418,715	245,633	-0,022	-0,027
-417,701	800,000	0,055	-0,152
-416,686	123,068	0,087	-0,080
-415,671	-59,328	-0,083	-0,026
-414,657	58,231	0,083	0,059
-413,642	800,000	-0,020	-0,043
-412,628	-200,000	0,040	-0,149
-411,613	-200,000	-0,013	-0,088
-410,598	540,823	-0,070	-0,123
-409,584	509,954	0,027	0,047
-408,569	-30,528	-0,050	-0,021
-407,555	800,000	0,042	0,121
-406,540	11,346	0,048	0,027
-405,525	333,300	0,070	0,099
-404,511	-59,799	-0,078	0,024
-403,496	-200,000	-0,031	-0,146
-402,482	-200,000	-0,011	-0,063
-401,467	9,882	-0,059	-0,033
-400,452	800,000	-0,040	-0,120
-399,438	-31,036	0,089	0,037
-398,423	554,206	0,048	0,086
-397,409	-200,000	0,009	-0,134
-396,394	800,000	-0,033	0,101
-395,379	-68,512	0,133	0,038
-394,365	-200,000	-0,006	0,032
-393,350	-17,029	0,075	-0,035
-392,336	505,951	0,041	-0,070
-391,321	-129,785	0,103	0,010
-390,306	59,112	0,057	0,041
-389,292	-18,628	-0,122	-0,056
-388,277	-35,182	0,115	0,046
-387,263	25,564	-0,074	0,045
-386,248	191,808	-0,016	0,018
-385,233	526,523	0,086	0,149
-384,219	-200,000	0,002	0,184
-383,204	-200,000	-0,021	-0,088
-382,190	133,077	-0,023	-0,022
-381,175	800,000	0,015	0,039
-380,160	40,929	0,206	0,136
-379,146	151,809	0,096	-0,096
-378,131	-9,500	0,056	0,027
-377,117	-200,000	-0,076	-0,000
-376,102	-101,502	-0,098	-0,017
-375,088	94,019	-0,029	-0,024
-374,073	-181,415	0,032	0,000
-373,058	-66,201	-0,052	-0,015
-372,044	-60,447	0,122	-0,038
-371,029	390,503	-0,063	-0,096
-370,015	251,013	0,098	0,123
-369,000	800,000	-0,039	0,085
-367,985	606,144	-0,033	-0,060
-366,971	278,404	-0,020	0,027
-365,956	800,000	-0,034	0,080
-364,942	800,000	0,056	0,142
-363,927	800,000	0,027	-0,058
-362,912	119,212	0,069	-0,063
-361,898	150,272	0,055	-0,055
-360,883	800,000	-0,006	-0,015
-359,869	-161,662	-0,038	-0,001
-358,854	-147,639	0,048	0,003
-357,839	-200,000	-0,033	0,118
-356,825	-52,793	0,060	0,020
-355,810	158,084	0,069	-0,070
-354,796	800,000	-0,063	-0,146
-353,781	270,735	-0,026	-0,033
-352,766	464,253	-0,066	-0,109
-351,752	-166,190	-0,074	-0,002
-350,737	800,000	-0,032	0,082
-349,723	-17,117	-0,088	0,041
-348,708	1,236	-0,055	-0,029
-347,693	-147,584	0,013	0,001
-346,679	-200,000	0,023	0,098
-345,664	-200,000	0,017	0,057
-344,650	-88,318	-0,098	0,021
-343,635	800,000	0,054	0,128
-342,620	-44,476	0,053	-0,019
-341,606	-79,099	-0,020	0,005
-340,591	623,147	0,098	-0,181
-339,577	122,711	0,016	-0,014
-338,562	-121,206	0,132	0,016
-337,548	68,168	0,054	-0,041
-336,533	607,091	-0,074	0,135
-335,518	32,617	0,045	0,029
-334,504	-119,590	-0,035	0,004
-333,489	304,064	0,018	0,025
-332,475	147,713	-0,051	-0,050
-331,460	-189,498	-0,080	0,001
-330,445	-124,283	0,052	0,006
-329,431	-175,378	-0,100	0,002
-328,416	-141,473	-0,114	0,008
-327,402	64,509	0,047	0,034
-326,387	-82,712	-0,069	0,016
-325,372	-28,368	-0,102	0,043
-324,358	-106,377	0,055	0,009
-323,343	-138,982	-0,155	0,012
-322,329	18,711	-0,105	-0,061
-321,314	800,000	0,037	0,106
-320,299	307,713	-0,060	0,082
-319,285	-0,443	-0,142	-0,074
-318,270	-96,164	0,099	-0,019
-317,256	-170,582	-0,056	-0,001
-316,241	-158,793	-0,056	0,002
-315,226	-200,000	-0,004	-0,026
-314,212	224,588	0,088	0,104
-313,197	-200,000	0,007	0,072
-312,183	-120,134	-0,120	0,015
-311,168	-54,123	-0,117	-0,039
-310,153	181,283	-0,050	0,054
-309,139	176,386	0,103	0,110
-308,124	-26,599	-0,096	0,041
-307,110	740,834	0,029	0,057
-306,095	-49,992	0,035	0,012
-305,080	33,177	-0,043	-0,027
-304,066	532,732	-0,035	-0,060
-303,051	158,461	0,067	-0,068
-302,037	15,709	-0,117	0,067
-301,022	-160,825	0,011	-0,000
-300,008	-200,000	0,004	-0,043
-298,993	184,961	-0,039	-0,042
-297,978	-73,080	0,097	0,026
-296,964	800,000	0,019	-0,043
-295,949	165,261	-0,087	0,090
-294,935	434,334	-0,010	-0,015
-293,920	43,885	-0,018	-0,012
-292,905	56,785	-0,031	0,022
-291,891	-33,923	0,123	0,049
-290,876	-199,402	0,141	-0,001
-289,862	183,688	-0,012	0,013
-288,847	-178,625	0,052	-0,001
-287,832	-63,544	0,067	0,020
-286,818	-35,491	-0,104	-0,041
-285,803	-112,835	0,099	-0,014
-284,789	-21,127	0,035	0,016
-283,774	210,094	0,057	0,065
-282,759	-200,000	0,026	0,134
-281,745	54,027	-0,064	-0,045
-280,730	730,250	-0,080	-0,157
-279,716	59,656	0,069	-0,050
-278,701	800,000	0,038	0,113
-277,686	800,000	-0,010	0,026
-276,672	446,609	-0,032	-0,052
-275,657	-175,264	0,100	0,002
-274,643	198,545	-0,040	-0,044
-273,628	378,664	0,040	-0,059
-272,613	296,506	-0,059	-0,079
-271,599	-63,520	-0,072	0,021
-270,584	85,592	0,047	0,038
-269,570	49,086	-0,012	-0,008
-268,555	-200,000	0,020	0,100
-267,540	2,507	-0,093	-0,049
-266,526	-200,000	-0,003	-0,106
-265,511	40,185	-0,074	0,049
-264,497	-77,888	0,114	0,029
-263,482	101,471	0,084	0,071
-262,467	-200,000	-0,001	0,044
-261,453	541,629	-0,096	-0,168
-260,438	320,942	0,021	-0,029
-259,424	387,916	0,096	-0,145
-258,409	580,764	-0,032	0,058
-257,395	-1,764	-0,029	0,015
-256,380	-200,000	0,003	-0,100
-255,365	-110,011	-0,052	-0,008
-254,351	800,000	0,029	-0,063
-253,336	485,889	0,014	0,024
-252,322	174,935	0,072	-0,077
-251,307	-115,645	-0,219	-0,030
-250,292	-196,456	0,086	-0,000
-249,278	-200,000	0,024	0,115
-248,263	-200,000	0,002	0,071
-247,249	-56,317	0,039	-0,013
-246,234	-200,000	0,023	-0,162
-245,219	-113,222	-0,090	0,013
-244,205	303,281	-0,003	-0,004
-243,190	-200,000	0,010	0,034
-242,176	-200,000	-0,021	0,082
-241,161	105,692	0,034	-0,029
-240,146	171,281	-0,011	-0,012
-239,132	-11,219	-0,086	0,041
-238,117	299,698	-0,047	-0,063
-237,103	-60,378	-0,198	-0,061
-236,088	413,727	-0,083	-0,129
-235,073	106,589	-0,090	-0,078
-234,059	3,665	0,082	0,043
-233,044	773,810	0,051	0,102
-232,030	-44,977	-0,011	-0,004
-231,015	800,000	-0,033	0,083
-230,000	66,963	0,046	0,034
-228,986	-93,247	0,017	0,003
-227,971	191,559	0,006	-0,007
-226,957	800,000	0,038	0,088
-225,942	-54,768	0,185	0,061
-224,927	411,191	0,035	0,054
-223,913	-118,238	-0,156	0,020
-222,898	81,011	0,087	-0,069
-221,884	389,336	0,082	0,124
-220,869	521,931	-0,057	0,098
-219,855	71,621	-0,006	-0,004
-218,840	-102,239	0,142	-0,025
-217,825	66,790	-0,045	-0,033
-216,811	102,721	0,066	0,056
-215,796	588,482	-0,055	0,100
-214,782	20,467	-0,127	-0,074
-213,767	-86,273	0,014	-0,003
-212,752	-200,000	-0,004	0,063
-211,738	5,403	-0,086	-0,046
-210,723	-8,575	0,095	-0,046
-209,709	800,000	0,026	0,067
-208,694	130,173	-0,011	-0,010
-207,679	110,696	0,013	-0,012
-206,665	40,069	0,055	0,036
-205,650	-200,000	-0,007	0,057
-204,636	-200,000	0,027	0,171
-203,621	426,674	0,067	-0,105
-202,606	800,000	-0,027	0,059
-201,592	-200,000	0,004	-0,057
-200,577	39,361	-0,072	0,047
-199,563	-145,959	0,022	-0,001
-198,548	-38,399	0,053	-0,020
-197,533	541,559	0,013	0,023
-196,519	-113,634	0,146	-0,020
-195,504	508,030	0,026	-0,044
-194,490	-157,340	-0,103	0,004
-193,475	143,700	-0,081	0,079
-192,460	-75,474	-0,072	-0,018
-191,446	138,503	0,117	-0,112
-190,431	7,209	-0,168	0,091
-189,417	800,000	0,049	-0,112
-188,402	-88,061	0,183	-0,040
-187,387	-200,000	0,004	-0,098
-186,373	800,000	0,036	-0,079
-185,358	80,484	0,104	-0,081
-184,344	63,226	0,108	0,079
-183,329	548,888	-0,059	0,103
-182,315	-13,509	0,032	0,015
-181,300	29,088	-0,030	-0,018
-180,285	62,945	-0,115	-0,084
-179,271	64,491	0,046	0,034
-178,256	37,188	0,148	-0,095
-177,242	-104,087	-0,084	0,014
-176,227	75,821	0,091	0,070
-175,212	82,073	0,061	0,048
-174,198	-200,000	-0,014	-0,077
-173,183	129,496	-0,111	-0,104
-172,169	100,631	-0,060	0,051
-171,154	-200,000	-0,015	0,051
-170,139	355,595	0,014	0,020
-169,125	245,269	-0,011	-0,013
-168,110	800,000	-0,009	0,018
-167,096	67,162	-0,070	-0,052
-166,081	109,220	0,047	-0,041
-165,066	311,773	0,020	0,027
-164,052	-200,000	-0,007	-0,128
-163,037	800,000	0,040	0,090
-162,023	374,974	0,112	0,166
-161,008	-43,163	-0,034	0,013
-159,993	-48,078	-0,062	0,022
-158,979	459,032	-0,026	-0,042
-157,964	800,000	-0,028	-0,059
-156,950	210,074	-0,047	-0,053
-155,935	503,459	-0,044	0,075
-154,920	-200,000	0,024	-0,097
-153,906	422,839	-0,075	0,117
-152,891	-200,000	0,003	0,061
-151,877	306,588	-0,077	0,104
-150,862	-200,000	0,006	-0,053
-149,847	3,885	0,015	-0,008
-148,833	148,351	-0,104	-0,102
-147,818	800,000	0,006	0,015
-146,804	397,697	-0,072	0,110
-145,789	-116,371	0,014	0,002
-144,775	33,838	0,119	-0,075
-143,760	-56,724	-0,127	0,041
-142,745	-41,847	-0,027	0,010
-141,731	-116,398	0,136	-0,018
-140,716	114,598	0,058	0,052
-139,702	11,073	-0,061	-0,034
-138,687	290,021	-0,041	0,054
-137,672	53,839	-0,019	-0,013
-136,658	204,076	-0,064	0,072
-135,643	800,000	-0,043	0,106
-134,629	-200,000	0,001	0,088
-133,614	-200,000	0,035	0,122
-132,599	-200,000	-0,027	0,129
-131,585	800,000	0,037	-0,096
-130,570	-200,000	-0,007	-0,040
-129,556	-200,000	0,005	-0,050
-128,541	-82,412	-0,192	-0,045
-127,526	185,524	0,059	-0,063
-126,512	212,463	0,079	0,090
-125,497	-144,310	0,051	0,003
-124,483	22,998	-0,061	0,037
-123,468	507,645	0,088	0,149
-122,453	-200,000	0,068	-0,227
-121,439	-51,126	-0,144	0,049
-120,424	-200,000	-0,021	0,165
-119,410	-94,942	0,132	-0,026
-118,395	-0,690	0,083	0,043
