DTS Sentinel unit serial number:	SN410029Multiplexer serial number:	ORYXHardware model number:	OX2-SRSoftware version number:	ORYX F/W v4,00 Oryx Data Collector v3.7.2.0data status	okinstallation	B4 Nyhavnadifferential loss correction	single-endedforward channel	channel 2reverse channel	N/Adate	2023/12/16time	11:45:13forward acquisition time	300,00reverse acquisition time	0,00gamma	499,1914k internal	0,3126k external	0,3126temperature offset calibration	1,0000default loss term (dB/km)	0,3820temperature slope calibration	1,0000multiplexer offset coefficient	1,0000multiplexer slope coefficient	1,0000fibre end	0,00T internal ref (°C)	23,87T ext. ref 1 (°C)	9,68T ext. ref 2 (°C)	9,88length (m)	temperature (°C)	Stokes	anti-Stokes-744,400	-161,806	0,054	0,002
-743,385	-10,060	-0,212	0,105
-742,371	-200,000	0,019	-0,072
-741,356	-54,136	-0,136	0,046
-740,342	8,737	0,051	-0,028
-739,327	-20,919	-0,261	0,119
-738,312	52,000	-0,082	-0,058
-737,298	-56,684	-0,212	0,069
-736,283	-200,000	0,019	-0,126
-735,269	125,211	-0,165	0,155
-734,254	80,467	0,070	-0,056
-733,239	-69,184	-0,390	-0,111
-732,225	114,063	0,051	-0,046
-731,210	-41,176	0,060	0,023
-730,196	138,835	-0,058	0,057
-729,181	321,780	0,019	0,027
-728,167	223,053	-0,069	-0,083
-727,152	134,370	0,036	-0,035
-726,137	49,970	-0,045	0,032
-725,123	-200,000	0,006	0,040
-724,108	89,030	-0,088	-0,073
-723,094	782,773	-0,091	-0,185
-722,079	167,558	-0,028	0,030
-721,064	-200,000	0,008	-0,049
-720,050	-200,000	0,004	-0,117
-719,035	-200,000	-0,002	-0,158
-718,021	800,000	-0,034	-0,072
-717,006	499,887	-0,107	-0,185
-715,991	800,000	0,021	-0,062
-714,977	38,199	0,010	0,007
-713,962	238,683	-0,018	0,022
-712,948	649,345	0,067	-0,128
-711,933	-200,000	0,031	0,128
-710,918	6,683	-0,021	0,011
-709,904	147,919	-0,101	-0,102
-708,889	-200,000	-0,017	0,070
-707,875	60,751	0,061	-0,045
-706,860	49,533	-0,072	-0,050
-705,845	144,168	0,065	-0,065
-704,831	-200,000	-0,013	0,175
-703,816	-167,940	-0,119	0,003
-702,802	-24,473	0,004	-0,002
-701,787	-40,327	-0,163	-0,063
-700,772	28,139	-0,112	-0,070
-699,758	-200,000	-0,017	-0,057
-698,743	612,718	-0,021	0,040
-697,729	-5,277	0,083	0,042
-696,714	-200,000	-0,028	-0,155
-695,699	130,409	-0,033	-0,032
-694,685	45,497	0,032	-0,022
-693,670	800,000	-0,007	-0,018
-692,656	-95,029	0,136	-0,027
-691,641	-34,592	-0,191	-0,077
-690,627	-200,000	-0,004	0,063
-689,612	130,243	0,057	-0,054
-688,597	-200,000	-0,000	-0,153
-687,583	-26,759	-0,111	0,048
-686,568	425,711	0,085	0,137
-685,554	-152,605	-0,115	0,006
-684,539	130,533	0,093	-0,088
-683,524	169,006	0,065	0,069
-682,510	447,105	-0,060	0,098
-681,495	-177,984	-0,040	-0,001
-680,481	-200,000	-0,007	-0,118
-679,466	-91,521	-0,051	0,011
-678,451	800,000	-0,018	-0,041
-677,437	-200,000	0,000	-0,091
-676,422	9,842	0,073	0,041
-675,408	342,217	-0,028	0,041
-674,393	-1,481	-0,102	0,053
-673,378	40,038	-0,115	0,076
-672,364	394,731	-0,052	-0,081
-671,349	74,679	-0,096	-0,075
-670,335	800,000	0,020	-0,062
-669,320	684,321	0,023	0,044
-668,305	-13,597	-0,124	0,060
-667,291	67,490	-0,124	-0,094
-666,276	800,000	0,022	-0,052
-665,262	-200,000	0,009	-0,055
-664,247	250,424	-0,098	-0,124
-663,232	88,895	0,018	-0,015
-662,218	200,035	-0,058	0,067
-661,203	-200,000	0,012	-0,055
-660,189	115,070	0,017	-0,015
-659,174	-200,000	0,024	-0,116
-658,159	323,898	-0,049	0,070
-657,145	800,000	0,029	-0,085
-656,130	43,043	0,088	-0,060
-655,116	137,520	0,063	-0,061
-654,101	382,881	0,014	0,021
-653,086	-130,959	0,109	-0,011
-652,072	-44,525	-0,128	-0,047
-651,057	-73,568	-0,255	-0,068
-650,043	198,625	-0,091	-0,104
-649,028	-200,000	-0,006	-0,041
-648,014	47,763	0,012	0,008
-646,999	800,000	0,027	0,079
-645,984	68,639	0,067	-0,051
-644,970	11,673	-0,137	0,078
-643,955	-1,686	-0,036	0,019
-642,941	84,854	-0,039	0,032
-641,926	413,156	0,072	-0,113
-640,911	-62,215	0,151	0,046
-639,897	-20,761	0,069	0,031
-638,882	-200,000	0,001	0,060
-637,868	800,000	0,041	0,127
-636,853	-200,000	0,027	-0,134
-635,838	-200,000	0,014	0,085
-634,824	-200,000	0,003	-0,052
-633,809	800,000	-0,035	0,074
-632,795	-200,000	0,004	0,023
-631,780	136,518	0,049	-0,048
-630,765	104,865	-0,135	-0,118
-629,751	-200,000	-0,003	-0,174
-628,736	-200,000	-0,017	-0,061
-627,722	-23,623	0,066	0,029
-626,707	-3,638	-0,166	-0,085
-625,692	32,527	0,055	0,035
-624,678	200,637	0,049	0,056
-623,663	-150,923	-0,159	0,009
-622,649	-200,000	-0,007	-0,025
-621,634	376,676	-0,066	-0,101
-620,619	-200,000	0,001	-0,126
-619,605	607,552	0,074	-0,138
-618,590	-107,446	-0,106	0,017
-617,576	800,000	0,055	-0,154
-616,561	800,000	-0,058	0,130
-615,546	478,375	-0,026	0,043
-614,532	-200,000	-0,029	-0,298
-613,517	340,639	0,022	-0,032
-612,503	800,000	0,031	0,075
-611,488	-200,000	-0,018	-0,064
-610,474	-76,121	0,098	-0,025
-609,459	-96,925	-0,056	-0,011
-608,444	-112,690	-0,089	0,013
-607,430	-200,000	0,015	-0,120
-606,415	-88,051	-0,122	0,027
-605,401	178,447	0,100	-0,108
-604,386	800,000	0,014	0,042
-603,371	118,988	-0,074	0,067
-602,357	48,145	-0,037	0,025
-601,342	-17,441	-0,127	-0,059
-600,328	497,853	0,020	0,033
-599,313	38,486	-0,156	-0,103
-598,298	24,367	0,043	0,026
-597,284	171,745	0,072	0,077
-596,269	-27,268	0,066	0,028
-595,255	360,008	-0,042	-0,063
-594,240	-161,461	-0,140	0,005
-593,225	62,730	-0,090	0,067
-592,211	404,588	0,058	-0,091
-591,196	-61,763	-0,091	0,028
-590,182	12,120	0,164	0,093
-589,167	-200,000	-0,001	-0,012
-588,152	800,000	-0,027	-0,078
-587,138	-96,753	-0,028	0,005
-586,123	208,700	-0,027	-0,031
-585,109	82,827	-0,174	-0,140
-584,094	-200,000	-0,007	-0,070
-583,079	-200,000	-0,003	-0,043
-582,065	144,171	-0,078	-0,077
-581,050	-166,600	0,049	-0,001
-580,036	-122,452	0,108	-0,013
-579,021	126,966	-0,114	-0,107
-578,006	-200,000	-0,019	-0,083
-576,992	-5,625	0,108	-0,054
-575,977	-200,000	-0,020	0,176
-574,963	291,868	0,089	0,120
-573,948	-12,619	0,070	0,034
-572,934	-25,459	-0,054	-0,023
-571,919	304,384	0,082	-0,113
-570,904	307,527	-0,047	-0,065
-569,890	-92,746	-0,025	-0,005
-568,875	281,985	-0,048	-0,063
-567,861	-131,546	0,097	0,009
-566,846	-200,000	-0,001	0,078
-565,831	384,991	-0,027	0,041
-564,817	482,065	0,040	-0,068
-563,802	800,000	-0,010	0,026
-562,788	-200,000	-0,053	-0,180
-561,773	-200,000	0,012	-0,069
-560,758	58,534	0,072	-0,052
-559,744	-17,097	0,102	-0,048
-558,729	-200,000	0,008	0,103
-557,715	460,028	0,053	-0,087
-556,700	800,000	0,072	-0,186
-555,685	800,000	-0,063	-0,162
-554,671	17,447	0,044	0,026
-553,656	800,000	0,034	0,111
-552,642	-89,236	-0,111	-0,024
-551,627	-47,062	-0,090	-0,032
-550,612	-17,347	0,028	-0,013
-549,598	-200,000	0,010	-0,059
-548,583	-200,000	0,031	-0,119
-547,569	800,000	0,050	-0,136
-546,554	-200,000	-0,004	-0,018
-545,539	-200,000	0,002	0,011
-544,525	43,620	0,121	0,082
-543,510	94,360	-0,025	0,021
-542,496	-200,000	0,003	-0,100
-541,481	-115,016	-0,063	0,009
-540,466	-200,000	0,002	0,094
-539,452	-92,440	-0,098	-0,020
-538,437	170,851	-0,069	-0,073
-537,423	50,612	0,053	0,037
-536,408	800,000	-0,034	-0,096
-535,393	-200,000	0,007	0,100
-534,379	-200,000	-0,005	-0,018
-533,364	800,000	0,028	-0,065
-532,350	89,052	-0,091	-0,075
-531,335	379,823	0,037	0,056
-530,321	-200,000	0,015	0,072
-529,306	148,004	0,077	0,076
-528,291	285,599	-0,094	0,126
-527,277	116,479	-0,134	-0,122
-526,262	259,484	0,035	0,044
-525,248	800,000	0,011	0,030
-524,233	644,339	0,045	0,086
-523,218	-122,566	-0,148	0,018
-522,204	-200,000	0,011	-0,038
-521,189	-85,834	-0,108	-0,024
-520,175	449,527	0,024	-0,040
-519,160	-200,000	-0,030	-0,124
-518,145	7,881	-0,093	-0,051
-517,131	800,000	-0,036	0,100
-516,116	800,000	-0,015	0,034
-515,102	-200,000	-0,004	-0,103
-514,087	-26,886	-0,142	-0,061
-513,072	-200,000	-0,024	-0,078
-512,058	800,000	0,010	0,023
-511,043	-143,250	0,118	0,008
-510,029	-200,000	-0,020	0,091
-509,014	-200,000	0,024	-0,088
-507,999	800,000	0,009	-0,023
-506,985	26,840	-0,087	0,054
-505,970	-200,000	-0,012	-0,056
-504,956	800,000	0,065	-0,148
-503,941	171,421	0,028	-0,029
-502,926	649,312	0,081	0,154
-501,912	41,644	0,038	0,025
-500,897	-15,604	-0,136	-0,064
-499,883	-200,000	-0,022	-0,098
-498,868	-113,698	0,032	0,004
-497,853	-36,117	0,122	-0,049
-496,839	80,968	-0,046	0,037
-495,824	312,337	-0,045	0,063
-494,810	18,231	0,139	-0,082
-493,795	311,138	0,028	-0,039
-492,781	800,000	-0,053	0,172
-491,766	-65,511	-0,095	-0,028
-490,751	92,732	-0,097	-0,081
-489,737	-7,058	-0,017	-0,009
-488,722	-32,358	-0,066	-0,027
-487,708	43,810	-0,121	0,081
-486,693	-200,000	-0,007	0,051
-485,678	177,852	-0,035	0,038
-484,664	-51,260	0,039	0,013
-483,649	45,102	0,020	0,014
-482,635	-124,406	0,115	0,013
-481,620	602,140	0,032	0,059
-480,605	-10,543	0,043	0,021
-479,591	255,084	-0,097	0,122
-478,576	-81,916	-0,051	-0,012
-477,562	50,071	0,100	-0,069
-476,547	309,999	0,010	0,014
-475,532	85,436	0,090	0,073
-474,518	590,698	-0,036	0,066
-473,503	261,146	0,031	0,040
-472,489	-200,000	0,003	0,038
-471,474	65,387	-0,045	0,034
-470,459	800,000	-0,058	0,139
-469,445	177,985	-0,075	-0,081
-468,430	209,866	-0,116	-0,134
-467,416	-108,987	0,100	0,016
-466,401	-29,061	0,065	0,027
-465,386	-43,729	0,131	0,048
-464,372	423,176	-0,054	0,085
-463,357	17,783	-0,065	-0,038
-462,343	-200,000	-0,030	-0,183
-461,328	-132,743	-0,072	0,007
-460,313	81,032	-0,090	-0,072
-459,299	379,611	0,063	0,095
-458,284	-200,000	0,005	0,119
-457,270	94,668	-0,101	0,084
-456,255	16,999	0,076	-0,044
-455,241	-72,110	-0,060	-0,016
-454,226	133,377	-0,040	0,038
-453,211	82,139	-0,059	0,047
-452,197	800,000	0,037	-0,088
-451,182	75,148	0,067	0,052
-450,168	800,000	0,038	0,110
-449,153	45,738	-0,019	-0,013
-448,138	800,000	-0,010	0,030
-447,124	18,532	0,114	0,067
-446,109	-200,000	0,012	0,099
-445,095	84,265	0,024	0,019
-444,080	24,615	-0,056	0,034
-443,065	-200,000	-0,047	0,187
-442,051	-71,033	0,170	0,047
-441,036	-183,850	0,056	0,001
-440,022	-200,000	0,050	-0,219
-439,007	623,414	0,029	-0,054
-437,992	-200,000	-0,027	0,093
-436,978	-169,834	0,115	-0,003
-435,963	-200,000	0,021	0,176
-434,949	800,000	-0,004	0,012
-433,934	-104,547	0,115	-0,019
-432,919	187,905	0,110	0,121
-431,905	714,526	0,057	-0,111
-430,890	-70,824	-0,078	-0,022
-429,876	-200,000	0,002	0,069
-428,861	-200,000	-0,008	-0,065
-427,846	324,267	0,120	0,169
-426,832	81,874	-0,040	0,032
-425,817	-200,000	0,002	-0,053
-424,803	800,000	0,057	-0,152
-423,788	98,708	-0,022	-0,019
-422,773	-55,355	-0,173	-0,057
-421,759	-21,321	0,101	0,045
-420,744	134,437	0,070	0,067
-419,730	800,000	-0,046	0,145
-418,715	-200,000	-0,016	-0,122
-417,701	-200,000	0,010	0,050
-416,686	-200,000	0,019	-0,102
-415,671	25,344	0,067	0,041
-414,657	-148,334	0,116	-0,007
-413,642	211,182	0,130	0,151
-412,628	270,524	-0,029	-0,037
-411,613	66,001	-0,072	-0,053
-410,598	-74,003	-0,036	0,010
-409,584	-37,286	0,163	0,064
-408,569	167,058	0,105	0,110
-407,555	-154,955	0,110	0,005
-406,540	-200,000	0,001	0,064
-405,525	-74,845	0,060	0,016
-404,511	-74,130	-0,034	-0,009
-403,496	-95,558	-0,089	-0,017
-402,482	-200,000	0,011	-0,083
-401,467	-2,228	0,101	0,052
-400,452	249,541	0,124	0,155
-399,438	800,000	0,051	-0,142
-398,423	-200,000	-0,002	-0,126
-397,409	800,000	-0,051	-0,144
-396,394	-200,000	-0,009	-0,057
-395,379	767,641	-0,016	-0,032
-394,365	800,000	-0,054	0,135
-393,350	-200,000	-0,024	0,122
-392,336	128,866	-0,029	-0,027
-391,321	800,000	-0,045	0,106
-390,306	800,000	0,024	-0,073
-389,292	-200,000	0,012	-0,130
-388,277	399,836	0,099	-0,153
-387,263	99,266	-0,065	0,055
-386,248	-85,961	-0,061	0,014
-385,233	-195,678	0,011	0,000
-384,219	-30,973	-0,114	0,047
-383,204	-200,000	-0,000	0,098
-382,190	174,991	-0,039	-0,041
-381,175	-93,162	-0,169	-0,034
-380,160	40,062	0,172	0,114
-379,146	-91,025	0,096	-0,020
-378,131	-200,000	0,000	0,102
-377,117	121,440	0,052	-0,048
-376,102	-97,407	-0,166	0,031
-375,088	-46,352	0,091	-0,033
-374,073	-49,282	0,103	-0,036
-373,058	-146,866	0,155	0,010
-372,044	-65,686	-0,090	0,026
-371,029	352,728	0,024	-0,034
-370,015	-122,533	0,103	-0,012
-369,000	86,314	-0,089	-0,072
-367,985	-200,000	0,006	-0,197
-366,971	-146,211	0,011	0,001
-365,956	-200,000	-0,035	0,142
-364,942	283,477	0,069	0,092
-363,927	-200,000	0,026	0,132
-362,912	25,999	-0,053	0,032
-361,898	800,000	0,007	-0,021
-360,883	-200,000	-0,007	-0,051
-359,869	-139,036	0,038	-0,003
-358,854	-200,000	-0,003	0,094
-357,839	86,584	0,094	0,076
-356,825	88,341	0,052	-0,042
-355,810	50,998	0,014	-0,009
-354,796	-127,908	-0,209	-0,022
-353,781	105,168	0,055	-0,048
-352,766	-17,377	-0,046	-0,021
-351,752	269,388	-0,030	-0,039
-350,737	245,296	-0,049	-0,061
-349,723	-110,373	-0,062	-0,009
-348,708	-34,147	0,097	-0,039
-347,693	-59,004	-0,088	0,028
-346,679	57,421	-0,062	-0,045
-345,664	-38,574	0,042	-0,016
-344,650	352,293	0,049	0,071
-343,635	256,423	-0,150	0,190
-342,620	206,731	0,070	0,080
-341,606	-200,000	0,007	0,091
-340,591	-200,000	-0,060	0,194
-339,577	-200,000	-0,025	0,099
-338,562	-200,000	0,017	-0,128
-337,548	160,866	0,168	-0,173
-336,533	-200,000	-0,031	-0,168
-335,518	191,311	0,075	0,083
-334,504	-116,792	0,060	-0,008
-333,489	800,000	0,067	0,154
-332,475	-67,821	-0,158	-0,045
-331,460	-200,000	-0,007	-0,097
-330,445	53,912	0,099	-0,070
-329,431	800,000	0,014	-0,047
-328,416	-163,220	0,133	0,005
-327,402	420,212	-0,015	0,023
-326,387	70,949	-0,102	-0,077
-325,372	-91,722	-0,122	-0,025
-324,358	42,183	-0,103	-0,068
-323,343	33,917	-0,141	-0,090
-322,329	-57,103	-0,008	-0,003
-321,314	113,099	-0,049	-0,044
-320,299	800,000	0,067	0,178
-319,285	-106,872	0,007	0,001
-318,270	-37,242	0,039	-0,015
-317,256	-83,150	0,055	0,013
-316,241	-36,818	-0,093	-0,036
-315,226	800,000	-0,022	0,069
-314,212	-89,499	0,131	-0,028
-313,197	281,580	0,083	-0,110
-312,183	-200,000	-0,003	-0,084
-311,168	260,582	-0,051	-0,065
-310,153	-200,000	0,001	-0,082
-309,139	606,083	0,058	0,106
-308,124	43,695	-0,100	-0,067
-307,110	-200,000	-0,013	-0,075
-306,095	164,356	0,051	-0,053
-305,080	330,471	-0,026	-0,036
-304,066	82,255	0,099	-0,079
-303,051	-45,903	0,092	-0,033
-302,037	-140,386	-0,110	-0,008
-301,022	624,246	-0,005	0,008
-300,008	-19,171	0,138	0,062
-298,993	800,000	-0,025	0,052
-297,978	-200,000	-0,016	0,122
-296,964	800,000	-0,038	0,105
-295,949	-138,295	-0,158	0,013
-294,935	225,157	-0,033	0,040
-293,920	-89,840	-0,134	0,028
-292,905	-200,000	-0,010	0,073
-291,891	800,000	-0,067	0,167
-290,876	-200,000	-0,023	0,106
-289,862	-200,000	0,011	0,132
-288,847	271,692	-0,066	-0,086
-287,832	-200,000	-0,003	0,027
-286,818	554,917	0,045	-0,080
-285,803	800,000	-0,033	-0,075
-284,789	316,803	0,031	0,043
-283,774	218,710	0,088	0,103
-282,759	800,000	0,016	0,051
-281,745	800,000	-0,029	-0,061
-280,730	138,888	0,048	0,046
-279,716	-41,310	-0,058	0,022
-278,701	289,452	0,010	-0,014
-277,686	-82,667	0,025	-0,006
-276,672	47,189	0,098	0,067
-275,657	169,358	-0,095	0,099
-274,643	-86,277	-0,096	-0,021
-273,628	172,235	-0,036	0,038
-272,613	-112,726	-0,045	0,006
-271,599	644,265	0,019	-0,036
-270,584	-63,275	0,210	0,063
-269,570	54,710	0,020	-0,014
-268,555	574,056	0,034	0,061
-267,540	-18,895	-0,054	0,025
-266,526	68,391	0,051	-0,038
-265,511	-200,000	0,010	0,151
-264,497	-18,907	0,154	0,070
-263,482	-12,067	0,100	-0,048
-262,467	-4,263	-0,100	-0,050
-261,453	-200,000	-0,002	0,157
-260,438	-200,000	0,020	0,173
-259,424	653,070	-0,037	0,070
-258,409	107,400	0,026	-0,023
-257,395	-141,570	0,069	-0,005
-256,380	-184,495	0,137	-0,002
-255,365	-200,000	0,006	0,035
-254,351	-101,872	-0,003	0,000
-253,336	800,000	-0,036	0,102
-252,322	390,350	0,029	0,044
-251,307	-200,000	-0,015	0,220
-250,292	800,000	-0,005	0,012
-249,278	-200,000	-0,007	-0,091
-248,263	-29,288	0,050	-0,021
-247,249	800,000	-0,033	0,092
-246,234	-105,521	-0,162	-0,027
-245,219	248,946	0,019	-0,024
-244,205	-64,947	-0,174	0,051
-243,190	134,873	-0,052	-0,049
-242,176	56,532	0,129	0,091
-241,161	40,723	-0,071	0,047
-240,146	18,563	0,069	0,040
-239,132	390,011	-0,048	-0,072
-238,117	-35,040	-0,254	0,101
-237,103	-32,879	0,069	0,028
-236,088	-200,000	-0,011	-0,077
-235,073	38,268	0,078	-0,050
-234,059	-166,778	0,133	0,004
-233,044	-200,000	-0,028	0,115
-232,030	478,703	-0,062	-0,103
-231,015	146,194	-0,085	-0,083
-230,000	135,882	-0,042	-0,040
-228,986	50,413	-0,132	-0,091
-227,971	-200,000	-0,008	0,163
-226,957	800,000	0,002	0,005
-225,942	116,294	-0,051	-0,046
-224,927	7,611	0,095	0,052
-223,913	144,677	-0,093	-0,091
-222,898	-18,204	0,125	0,057
-221,884	-200,000	-0,007	0,054
-220,869	127,749	-0,017	0,016
-219,855	56,381	0,192	0,136
-218,840	-76,227	0,173	0,044
-217,825	770,628	-0,061	-0,121
-216,811	-194,151	-0,121	0,001
-215,796	800,000	0,024	-0,069
-214,782	538,572	-0,063	-0,110
-213,767	-97,699	-0,147	-0,028
-212,752	-83,242	0,114	0,026
-211,738	-88,559	-0,103	0,022
-210,723	111,378	0,084	-0,074
-209,709	-136,054	0,112	-0,009
-208,694	-200,000	-0,011	-0,156
-207,679	-200,000	-0,007	-0,151
-206,665	110,991	-0,031	-0,027
-205,650	800,000	-0,028	0,065
-204,636	-23,697	-0,100	0,044
-203,621	-200,000	0,003	0,140
-202,606	-68,023	-0,066	-0,019
-201,592	-177,343	-0,096	-0,002
-200,577	332,724	0,111	-0,157
-199,563	174,544	0,014	-0,015
-198,548	-106,044	0,086	0,014
-197,533	223,661	-0,053	-0,063
-196,519	-129,221	0,094	-0,009
-195,504	-79,544	0,033	0,008
-194,490	-118,144	0,076	-0,010
-193,475	800,000	0,018	-0,041
-192,460	-43,804	-0,060	-0,022
-191,446	23,625	0,080	-0,048
-190,431	800,000	-0,028	0,056
-189,417	109,969	-0,036	-0,032
-188,402	-46,976	0,029	-0,010
-187,387	-5,611	-0,028	0,014
-186,373	-1,662	-0,055	-0,028
-185,358	102,001	-0,077	0,066
-184,344	75,612	0,106	-0,082
-183,329	30,457	0,151	-0,094
-182,315	15,363	-0,060	0,034
-181,300	-128,072	0,032	0,003
-180,285	-200,000	0,006	0,042
-179,271	-200,000	0,009	0,041
-178,256	686,144	0,023	0,045
-177,242	461,116	0,122	0,199
-176,227	800,000	-0,075	0,192
-175,212	93,375	-0,005	-0,004
-174,198	-19,052	0,028	0,013
-173,183	221,210	0,015	0,018
-172,169	438,594	-0,052	-0,082
-171,154	-39,075	-0,120	0,046
-170,139	-200,000	-0,025	-0,102
-169,125	-80,942	0,007	-0,002
-168,110	-14,683	0,127	0,059
-167,096	5,848	0,076	0,041
-166,081	-200,000	-0,042	-0,180
-165,066	573,752	-0,028	-0,050
-164,052	15,696	-0,025	0,014
-163,037	-69,444	0,058	-0,016
-162,023	178,814	0,086	0,091
-161,008	-200,000	-0,002	-0,071
-159,993	800,000	0,021	0,063
-158,979	-200,000	0,007	-0,055
-157,964	116,745	-0,067	0,060
-156,950	-200,000	-0,016	0,125
-155,935	-12,234	-0,101	-0,048
-154,920	84,624	0,004	-0,003
-153,906	-200,000	-0,025	-0,133
-152,891	37,571	0,043	0,028
-151,877	430,733	-0,073	0,116
-150,862	289,026	-0,067	-0,089
-149,847	180,671	0,034	0,036
-148,833	369,967	0,108	-0,160
-147,818	602,901	-0,024	-0,044
-146,804	-140,734	-0,099	-0,007
-145,789	234,357	-0,009	-0,011
-144,775	-92,893	0,006	0,001
-143,760	57,150	-0,065	0,046
-142,745	-200,000	0,012	0,161
-141,731	522,446	-0,037	-0,064
-140,716	4,526	-0,109	0,058
-139,702	-110,007	0,248	-0,037
-138,687	150,967	0,080	-0,079
-137,672	-200,000	0,011	-0,075
-136,658	-125,746	0,040	0,004
-135,643	505,859	0,033	0,056
-134,629	-200,000	-0,024	0,153
-133,614	-113,873	-0,088	0,012
-132,599	-5,664	0,064	-0,032
-131,585	69,893	0,057	-0,043
-130,570	445,986	0,039	0,063
-129,556	584,223	-0,052	-0,094
-128,541	129,156	0,043	-0,040
-127,526	-200,000	-0,004	-0,113
-126,512	104,454	0,004	0,003
-125,497	-66,801	0,119	-0,034
-124,483	800,000	0,015	0,044
-123,468	493,533	0,016	-0,027
-122,453	-57,571	-0,039	0,012
-121,439	-29,849	-0,020	0,008
-120,424	-200,000	0,018	0,082
-119,410	800,000	-0,038	0,082
-118,395	149,712	0,029	0,029
