DTS Sentinel unit serial number:	SN410029Multiplexer serial number:	ORYXHardware model number:	OX2-SRSoftware version number:	ORYX F/W v4,00 Oryx Data Collector v3.7.2.0data status	okinstallation	B4 Nyhavnadifferential loss correction	single-endedforward channel	channel 2reverse channel	N/Adate	2023/12/18time	19:05:13forward acquisition time	300,00reverse acquisition time	0,00gamma	499,1914k internal	0,3123k external	0,3123temperature offset calibration	1,0000default loss term (dB/km)	0,3820temperature slope calibration	1,0000multiplexer offset coefficient	1,0000multiplexer slope coefficient	1,0000fibre end	0,00T internal ref (°C)	21,88T ext. ref 1 (°C)	6,95T ext. ref 2 (°C)	6,95length (m)	temperature (°C)	Stokes	anti-Stokes-744,400	505,844	0,064	-0,111
-743,385	96,439	-0,187	0,159
-742,371	-182,840	0,072	0,001
-741,356	74,041	-0,211	0,165
-740,342	378,147	0,055	-0,084
-739,327	141,943	-0,210	0,208
-738,312	40,124	-0,019	0,013
-737,298	87,562	-0,179	0,148
-736,283	288,386	0,082	-0,111
-735,269	70,254	-0,168	0,129
-734,254	-109,532	0,029	0,005
-733,239	-62,468	-0,455	-0,140
-732,225	-89,638	0,217	-0,047
-731,210	-200,000	0,001	0,122
-730,196	88,797	-0,069	-0,057
-729,181	-200,000	-0,038	-0,251
-728,167	665,552	-0,027	-0,052
-727,152	158,506	-0,012	0,012
-726,137	800,000	-0,051	-0,110
-725,123	-14,195	-0,078	-0,037
-724,108	800,000	-0,019	0,043
-723,094	485,346	-0,070	-0,119
-722,079	46,492	-0,201	-0,139
-721,064	80,686	-0,163	-0,131
-720,050	-35,760	0,037	0,015
-719,035	-200,000	0,001	-0,128
-718,021	258,567	0,022	0,028
-717,006	74,065	-0,098	0,076
-715,991	800,000	-0,087	-0,198
-714,977	36,104	-0,130	-0,085
-713,962	-56,122	0,154	-0,051
-712,948	488,285	0,030	-0,051
-711,933	-98,695	-0,118	-0,022
-710,918	-149,994	0,076	0,004
-709,904	-200,000	-0,012	-0,206
-708,889	800,000	-0,058	-0,142
-707,875	-200,000	0,030	-0,142
-706,860	800,000	0,084	-0,181
-705,845	-200,000	-0,080	0,000
-704,831	800,000	0,068	0,185
-703,816	356,321	0,022	-0,033
-702,802	-200,000	0,012	-0,059
-701,787	-75,719	-0,096	-0,025
-700,772	800,000	-0,027	0,072
-699,758	-200,000	-0,013	-0,060
-698,743	-60,355	-0,093	0,029
-697,729	292,872	0,046	-0,062
-696,714	-42,712	-0,126	0,048
-695,699	322,095	-0,028	-0,040
-694,685	-15,450	-0,125	0,059
-693,670	276,931	0,023	-0,031
-692,656	322,327	-0,069	-0,098
-691,641	-75,935	-0,105	-0,027
-690,627	-200,000	-0,000	0,022
-689,612	18,882	0,075	0,044
-688,597	-20,270	-0,071	-0,033
-687,583	-93,514	-0,138	-0,028
-686,568	-200,000	0,037	0,127
-685,554	-200,000	-0,028	0,106
-684,539	36,589	0,109	-0,072
-683,524	-116,355	0,102	-0,014
-682,510	-111,034	0,113	0,017
-681,495	-9,202	0,042	0,021
-680,481	-54,703	-0,081	0,027
-679,466	-74,393	-0,115	0,031
-678,451	88,250	-0,037	-0,031
-677,437	4,951	-0,111	-0,061
-676,422	152,014	0,053	-0,054
-675,408	343,102	-0,024	-0,035
-674,393	-200,000	0,001	0,013
-673,378	800,000	0,021	0,062
-672,364	-57,491	-0,033	0,011
-671,349	60,838	-0,106	-0,078
-670,335	-200,000	0,014	-0,071
-669,320	800,000	0,029	-0,066
-668,305	-164,366	0,117	-0,004
-667,291	-200,000	-0,002	0,042
-666,276	-200,000	-0,009	0,039
-665,262	204,050	0,036	-0,042
-664,247	687,764	-0,065	-0,128
-663,232	9,783	-0,069	0,039
-662,218	453,122	0,029	0,048
-661,203	-200,000	-0,013	0,052
-660,189	-120,914	0,068	0,008
-659,174	392,535	-0,088	-0,137
-658,159	-184,620	-0,102	-0,001
-657,145	-200,000	0,020	0,121
-656,130	-53,211	-0,055	0,019
-655,116	145,180	-0,046	0,046
-654,101	213,967	-0,021	-0,025
-653,086	-71,026	0,021	0,006
-652,072	74,594	-0,046	-0,036
-651,057	-126,715	0,021	0,002
-650,043	-200,000	-0,011	-0,070
-649,028	-5,109	-0,056	-0,028
-648,014	352,140	0,030	-0,044
-646,999	30,245	0,036	-0,023
-645,984	43,720	-0,050	0,034
-644,970	-14,765	-0,117	-0,056
-643,955	145,323	0,075	-0,074
-642,941	546,087	-0,061	-0,110
-641,926	-200,000	0,013	0,066
-640,911	16,985	-0,022	-0,013
-639,897	-200,000	-0,003	-0,135
-638,882	-72,605	-0,070	0,019
-637,868	-10,404	0,076	-0,037
-636,853	57,718	0,071	-0,051
-635,838	540,468	0,063	0,111
-634,824	-200,000	-0,000	-0,026
-633,809	10,360	0,094	0,053
-632,795	-200,000	0,022	0,092
-631,780	60,272	0,047	-0,035
-630,765	371,865	-0,045	-0,069
-629,751	-200,000	-0,009	-0,119
-628,736	800,000	-0,024	-0,051
-627,722	90,553	-0,159	-0,132
-626,707	79,077	-0,021	-0,017
-625,692	209,746	-0,030	0,035
-624,678	-30,115	-0,062	-0,026
-623,663	800,000	0,003	0,008
-622,649	-200,000	-0,018	0,077
-621,634	-35,244	-0,041	0,016
-620,619	800,000	-0,040	0,114
-619,605	-77,166	0,120	0,031
-618,590	530,692	-0,020	0,036
-617,576	386,086	0,058	0,089
-616,561	800,000	-0,025	0,078
-615,546	102,310	0,040	0,035
-614,532	55,011	-0,055	-0,039
-613,517	207,067	-0,043	-0,050
-612,503	302,534	-0,034	-0,046
-611,488	-64,832	-0,105	0,031
-610,474	-7,380	-0,046	0,023
-609,459	800,000	0,028	0,082
-608,444	107,250	0,075	-0,066
-607,430	-162,436	-0,039	0,001
-606,415	-200,000	-0,017	-0,139
-605,401	581,326	-0,051	-0,094
-604,386	-4,191	0,188	0,096
-603,371	800,000	-0,018	-0,050
-602,357	800,000	-0,005	-0,011
-601,342	-200,000	0,032	-0,136
-600,328	800,000	-0,022	-0,053
-599,313	18,414	-0,046	0,027
-598,298	289,229	-0,042	0,056
-597,284	88,131	-0,104	0,085
-596,269	762,498	0,087	0,176
-595,255	-200,000	0,029	-0,158
-594,240	800,000	-0,064	-0,191
-593,225	128,925	0,053	-0,050
-592,211	-200,000	-0,005	-0,039
-591,196	148,972	-0,035	-0,036
-590,182	6,958	0,056	0,031
-589,167	-46,451	-0,069	0,025
-588,152	-200,000	0,023	0,134
-587,138	-200,000	-0,006	0,077
-586,123	40,931	-0,169	-0,113
-585,109	-104,655	0,026	-0,004
-584,094	238,053	-0,036	0,045
-583,079	-65,647	-0,087	0,026
-582,065	800,000	0,052	0,149
-581,050	800,000	0,052	0,120
-580,036	-162,264	-0,084	-0,003
-579,021	-84,695	-0,113	-0,026
-578,006	-200,000	-0,025	-0,125
-576,992	-37,575	0,045	0,018
-575,977	136,200	-0,129	-0,124
-574,963	-200,000	0,149	0,000
-573,948	-200,000	0,021	0,138
-572,934	-131,579	-0,095	0,009
-571,919	-200,000	0,009	0,051
-570,904	-141,061	-0,062	0,005
-569,890	-182,985	0,120	-0,002
-568,875	-200,000	-0,009	-0,093
-567,861	-200,000	0,020	-0,081
-566,846	425,242	0,035	0,056
-565,831	-54,882	-0,128	0,043
-564,817	184,952	0,039	0,043
-563,802	-95,892	-0,071	-0,014
-562,788	-147,312	0,061	0,004
-561,773	-67,608	0,052	0,015
-560,758	800,000	0,029	0,081
-559,744	-200,000	-0,008	-0,064
-558,729	-177,492	-0,086	-0,002
-557,715	368,200	-0,087	-0,131
-556,700	-69,946	0,064	-0,018
-555,685	-84,020	-0,063	0,015
-554,671	99,981	0,026	-0,022
-553,656	-200,000	-0,001	-0,074
-552,642	800,000	0,040	0,117
-551,627	-200,000	-0,021	0,110
-550,612	530,473	-0,069	-0,121
-549,598	-116,412	-0,102	-0,014
-548,583	160,474	-0,082	-0,084
-547,569	-62,400	-0,065	-0,020
-546,554	-91,343	-0,065	-0,014
-545,539	208,843	0,087	0,101
-544,525	23,451	0,045	0,027
-543,510	-200,000	0,002	-0,025
-542,496	310,443	0,048	0,067
-541,481	51,545	0,071	-0,049
-540,466	-200,000	0,011	-0,060
-539,452	-67,901	-0,095	0,027
-538,437	-109,848	0,041	0,006
-537,423	342,033	0,029	-0,041
-536,408	-200,000	0,002	-0,080
-535,393	60,072	-0,161	-0,117
-534,379	800,000	0,007	-0,022
-533,364	81,243	-0,110	-0,088
-532,350	61,297	-0,059	0,044
-531,335	800,000	-0,010	0,030
-530,321	-19,929	0,119	0,054
-529,306	-108,595	-0,153	-0,024
-528,291	420,397	-0,034	0,054
-527,277	-200,000	0,033	-0,200
-526,262	800,000	-0,049	-0,158
-525,248	800,000	0,021	-0,050
-524,233	800,000	0,034	-0,111
-523,218	-200,000	-0,019	0,064
-522,204	321,632	0,094	0,132
-521,189	57,546	-0,018	-0,013
-520,175	0,310	-0,086	-0,045
-519,160	162,253	0,036	-0,038
-518,145	265,475	0,054	-0,070
-517,131	159,425	0,096	0,099
-516,116	472,113	0,094	0,158
-515,102	-28,596	0,022	0,009
-514,087	-200,000	-0,018	0,059
-513,072	557,513	-0,012	0,022
-512,058	193,489	0,023	0,025
-511,043	-195,747	-0,078	0,000
-510,029	-200,000	-0,021	0,104
-509,014	-84,562	-0,066	-0,015
-507,999	800,000	-0,019	-0,054
-506,985	-200,000	-0,008	0,099
-505,970	73,748	-0,029	-0,022
-504,956	-200,000	0,027	-0,090
-503,941	-200,000	0,008	-0,055
-502,926	-80,071	0,100	-0,025
-501,912	-76,713	0,045	-0,012
-500,897	334,077	-0,074	0,106
-499,883	-200,000	-0,019	-0,138
-498,868	-200,000	0,011	-0,043
-497,853	-200,000	-0,022	-0,076
-496,839	-200,000	-0,001	0,158
-495,824	-56,145	0,027	0,009
-494,810	-16,074	0,187	0,088
-493,795	-73,775	-0,043	-0,011
-492,781	-200,000	-0,004	0,037
-491,766	-200,000	-0,022	-0,125
-490,751	800,000	0,035	0,090
-489,737	-200,000	-0,003	0,056
-488,722	19,400	0,118	0,070
-487,708	283,789	0,085	0,113
-486,693	-200,000	0,011	-0,114
-485,678	-200,000	-0,010	0,128
-484,664	-115,342	0,052	0,007
-483,649	68,578	-0,097	-0,074
-482,635	517,181	-0,028	0,048
-481,620	800,000	0,019	0,046
-480,605	-143,829	-0,019	-0,001
-479,591	171,213	-0,062	-0,065
-478,576	-200,000	-0,016	0,070
-477,562	-97,369	-0,161	-0,031
-476,547	-200,000	-0,042	-0,169
-475,532	-8,828	0,020	-0,010
-474,518	-50,859	0,054	0,019
-473,503	800,000	-0,030	-0,071
-472,489	322,269	-0,033	0,046
-471,474	769,389	-0,005	-0,009
-470,459	66,403	0,034	-0,026
-469,445	-200,000	0,019	-0,153
-468,430	18,731	0,102	0,060
-467,416	-11,069	-0,095	-0,046
-466,401	109,722	0,122	-0,107
-465,386	-121,683	-0,081	0,010
-464,372	-200,000	0,005	0,098
-463,357	-76,191	-0,090	-0,023
-462,343	-27,547	-0,052	-0,022
-461,328	-200,000	0,003	0,056
-460,313	-200,000	-0,041	-0,149
-459,299	-200,000	-0,012	0,074
-458,284	-200,000	0,013	-0,091
-457,270	-111,148	-0,134	0,020
-456,255	-95,794	-0,103	-0,020
-455,241	40,250	0,021	0,014
-454,226	145,505	0,050	-0,049
-453,211	156,957	-0,055	-0,056
-452,197	144,684	-0,032	0,031
-451,182	-200,000	-0,011	-0,116
-450,168	82,088	0,076	-0,061
-449,153	287,512	0,054	0,072
-448,138	300,503	-0,098	0,133
-447,124	669,228	0,067	-0,129
-446,109	-200,000	-0,007	0,075
-445,095	227,772	-0,033	-0,040
-444,080	-200,000	0,006	-0,120
-443,065	101,741	-0,083	0,071
-442,051	381,213	-0,120	0,182
-441,036	800,000	0,060	-0,180
-440,022	53,029	-0,138	-0,097
-439,007	41,662	-0,029	0,019
-437,992	-200,000	0,000	-0,027
-436,978	19,252	-0,082	0,048
-435,963	-64,045	-0,091	-0,027
-434,949	-12,769	0,059	-0,028
-433,934	800,000	-0,035	0,084
-432,919	250,447	0,013	0,016
-431,905	-76,912	-0,070	-0,018
-430,890	-200,000	0,018	-0,072
-429,876	-200,000	0,011	0,068
-428,861	467,167	0,058	0,096
-427,846	-11,266	0,069	0,034
-426,832	800,000	-0,075	-0,241
-425,817	800,000	-0,010	-0,025
-424,803	-53,398	-0,019	-0,006
-423,788	239,705	0,078	-0,096
-422,773	-200,000	-0,008	-0,027
-421,759	73,700	0,091	0,070
-420,744	-17,844	0,044	-0,020
-419,730	-120,372	-0,027	0,003
-418,715	-147,906	-0,086	0,005
-417,701	32,617	-0,053	-0,033
-416,686	45,775	0,058	0,039
-415,671	246,427	0,016	0,020
-414,657	310,383	0,092	0,127
-413,642	580,300	0,008	-0,014
-412,628	800,000	-0,035	-0,083
-411,613	538,189	0,047	-0,082
-410,598	-200,000	-0,005	-0,055
-409,584	84,803	-0,069	-0,055
-408,569	145,037	0,048	0,048
-407,555	-39,142	0,125	0,048
-406,540	-141,380	0,094	0,007
-405,525	-133,925	0,138	0,012
-404,511	-53,918	-0,088	0,029
-403,496	98,801	-0,037	0,031
-402,482	265,777	-0,078	0,100
-401,467	-200,000	0,016	0,065
-400,452	-48,504	-0,102	-0,036
-399,438	80,677	0,026	0,020
-398,423	70,327	-0,038	-0,029
-397,409	800,000	-0,021	0,067
-396,394	103,360	-0,043	-0,037
-395,379	245,045	-0,018	0,022
-394,365	800,000	0,053	0,128
-393,350	7,076	0,064	-0,035
-392,336	135,647	0,040	0,039
-391,321	-125,797	0,087	-0,010
-390,306	-200,000	0,002	0,116
-389,292	-200,000	-0,026	-0,120
-388,277	800,000	-0,039	-0,089
-387,263	283,027	-0,046	-0,060
-386,248	-200,000	0,019	0,068
-385,233	-91,700	-0,216	-0,045
-384,219	800,000	-0,042	-0,094
-383,204	42,808	-0,036	-0,024
-382,190	800,000	0,039	-0,089
-381,175	-54,566	0,173	0,057
-380,160	82,975	-0,077	-0,061
-379,146	472,494	0,077	0,128
-378,131	-25,675	-0,050	-0,021
-377,117	62,697	-0,080	-0,059
-376,102	-142,985	0,103	-0,007
-375,088	-60,915	0,022	-0,007
-374,073	800,000	-0,016	-0,049
-373,058	-200,000	-0,014	0,140
-372,044	67,866	0,076	0,057
-371,029	22,949	0,059	0,035
-370,015	-200,000	0,017	-0,058
-369,000	-200,000	-0,040	-0,190
-367,985	13,956	-0,086	0,049
-366,971	-0,155	0,101	0,053
-365,956	-200,000	-0,006	0,029
-364,942	198,505	0,022	-0,025
-363,927	800,000	0,015	-0,048
-362,912	-200,000	-0,004	0,069
-361,898	-77,056	0,050	0,013
-360,883	800,000	0,006	-0,017
-359,869	-114,246	0,041	0,006
-358,854	-152,731	0,041	0,002
-357,839	800,000	-0,035	-0,085
-356,825	762,110	-0,015	-0,030
-355,810	-33,002	-0,066	-0,027
-354,796	-142,304	0,117	0,008
-353,781	-200,000	-0,007	-0,076
-352,766	800,000	0,038	0,101
-351,752	72,372	-0,079	-0,060
-350,737	61,789	0,110	-0,080
-349,723	263,944	0,084	0,107
-348,708	-132,108	-0,077	0,007
-347,693	800,000	0,030	-0,083
-346,679	-200,000	0,008	-0,067
-345,664	-71,611	-0,035	-0,010
-344,650	-96,013	0,085	-0,016
-343,635	24,384	0,182	0,110
-342,620	33,579	0,048	-0,030
-341,606	703,720	0,055	-0,107
-340,591	-8,461	0,097	-0,048
-339,577	76,358	-0,079	-0,061
-338,562	-200,000	0,001	-0,021
-337,548	-35,603	0,122	0,048
-336,533	37,086	0,126	0,081
-335,518	-9,546	-0,104	-0,051
-334,504	-200,000	0,000	0,063
-333,489	-13,855	0,244	0,115
-332,475	-128,168	0,018	-0,002
-331,460	-200,000	0,040	0,155
-330,445	627,130	-0,014	-0,026
-329,431	-69,569	-0,072	-0,020
-328,416	-34,756	0,130	0,052
-327,402	-101,814	-0,058	0,010
-326,387	-76,074	-0,098	-0,025
-325,372	-200,000	-0,001	-0,109
-324,358	-170,551	-0,029	0,001
-323,343	-200,000	-0,017	0,114
-322,329	677,030	-0,057	0,110
-321,314	-6,753	0,072	0,036
-320,299	176,821	0,078	0,083
-319,285	721,808	-0,052	0,102
-318,270	66,820	-0,072	-0,053
-317,256	202,639	0,086	-0,097
-316,241	-116,811	0,086	-0,011
-315,226	800,000	-0,029	-0,088
-314,212	33,495	-0,036	0,023
-313,197	-200,000	0,035	0,149
-312,183	661,781	-0,010	0,019
-311,168	-49,085	-0,067	0,023
-310,153	800,000	-0,062	-0,126
-309,139	75,017	0,044	0,034
-308,124	-200,000	0,019	-0,105
-307,110	800,000	0,015	0,041
-306,095	-6,932	-0,036	0,018
-305,080	800,000	-0,046	0,148
-304,066	-200,000	0,019	-0,064
-303,051	-200,000	0,007	0,085
-302,037	-11,298	0,041	0,020
-301,022	-185,748	-0,071	-0,001
-300,008	-200,000	-0,004	0,063
-298,993	20,748	-0,033	0,020
-297,978	-200,000	0,006	-0,075
-296,964	800,000	-0,039	-0,100
-295,949	116,573	0,074	-0,067
-294,935	-26,998	0,084	-0,036
-293,920	-56,942	0,112	-0,036
-292,905	225,657	-0,017	-0,020
-291,891	285,972	-0,036	-0,048
-290,876	-77,591	0,059	0,015
-289,862	-87,394	-0,109	0,024
-288,847	20,338	-0,011	-0,007
-287,832	-113,400	-0,119	0,017
-286,818	-101,685	-0,134	0,024
-285,803	-61,661	0,135	0,041
-284,789	800,000	0,055	-0,114
-283,774	-2,719	-0,085	0,044
-282,759	-200,000	0,007	0,111
-281,745	-200,000	0,028	0,131
-280,730	54,380	0,066	-0,046
-279,716	239,109	0,025	-0,030
-278,701	-200,000	0,014	-0,051
-277,686	-112,486	-0,090	-0,013
-276,672	-200,000	-0,001	0,121
-275,657	-59,271	-0,125	0,039
-274,643	800,000	0,057	-0,173
-273,628	-135,221	0,103	0,009
-272,613	-113,173	-0,052	-0,007
-271,599	395,897	0,041	0,063
-270,584	-91,530	-0,033	0,007
-269,570	-14,209	0,120	0,056
-268,555	-86,901	0,097	-0,021
-267,540	42,136	-0,075	-0,050
-266,526	-200,000	0,001	0,015
-265,511	-88,216	-0,153	0,033
-264,497	103,919	0,112	0,096
-263,482	276,319	-0,060	0,078
-262,467	-200,000	-0,016	0,120
-261,453	349,286	-0,031	0,045
-260,438	21,561	-0,041	-0,025
-259,424	187,792	-0,164	-0,180
-258,409	-200,000	0,015	0,133
-257,395	-200,000	0,026	-0,130
-256,380	800,000	0,042	-0,129
-255,365	800,000	0,022	0,045
-254,351	-55,723	0,155	-0,050
-253,336	281,785	-0,092	-0,121
-252,322	-200,000	0,014	-0,105
-251,307	41,810	0,073	-0,049
-250,292	-129,755	0,135	-0,013
-249,278	-82,975	0,045	-0,011
-248,263	-119,157	0,151	-0,019
-247,249	-119,590	-0,055	-0,007
-246,234	-200,000	0,008	-0,103
-245,219	10,921	-0,069	0,038
-244,205	-95,854	-0,048	-0,009
-243,190	-200,000	0,032	-0,148
-242,176	-200,000	0,021	0,076
-241,161	8,873	0,101	-0,055
-240,146	-42,342	-0,181	0,067
-239,132	-143,570	-0,124	0,008
-238,117	-200,000	-0,003	0,030
-237,103	-93,441	0,090	0,018
-236,088	660,250	-0,030	-0,056
-235,073	-10,460	-0,069	-0,033
-234,059	800,000	0,026	0,074
-233,044	-62,055	0,136	-0,041
-232,030	434,102	-0,029	-0,047
-231,015	199,034	0,049	-0,055
-230,000	-132,470	0,024	-0,002
-228,986	-130,848	0,100	-0,010
-227,971	216,580	-0,031	-0,036
-226,957	-91,920	0,121	-0,025
-225,942	-33,379	-0,190	-0,077
-224,927	-200,000	-0,016	-0,074
-223,913	71,095	-0,045	-0,034
-222,898	6,053	0,080	0,043
-221,884	23,368	-0,093	0,056
-220,869	407,177	0,135	0,209
-219,855	-200,000	-0,018	0,157
-218,840	-200,000	-0,008	0,221
-217,825	305,331	0,031	0,042
-216,811	-200,000	0,053	0,200
-215,796	-24,821	-0,111	-0,048
-214,782	183,738	0,045	0,049
-213,767	-95,760	0,047	-0,009
-212,752	300,418	0,108	0,146
-211,738	216,220	-0,032	-0,037
-210,723	-89,008	-0,081	-0,017
-209,709	-200,000	-0,014	0,128
-208,694	51,013	0,052	-0,036
-207,679	-200,000	-0,004	0,037
-206,665	800,000	0,037	-0,089
-205,650	-75,856	0,069	0,018
-204,636	747,444	0,073	0,144
-203,621	-171,860	0,051	-0,001
-202,606	33,816	0,070	-0,044
-201,592	-3,208	-0,084	-0,043
-200,577	-200,000	-0,008	0,027
-199,563	800,000	-0,006	0,015
-198,548	800,000	-0,034	0,078
-197,533	167,844	0,053	0,055
-196,519	-7,982	-0,092	-0,045
-195,504	-200,000	0,003	0,055
-194,490	-200,000	-0,002	-0,084
-193,475	800,000	-0,038	-0,118
-192,460	800,000	-0,044	-0,120
-191,446	-84,572	-0,105	0,024
-190,431	35,937	0,103	0,066
-189,417	241,602	-0,071	0,087
-188,402	423,466	-0,108	-0,169
-187,387	-200,000	0,013	0,107
-186,373	-94,382	-0,021	-0,004
-185,358	800,000	0,056	0,148
-184,344	-200,000	0,007	-0,073
-183,329	159,345	0,071	0,073
-182,315	800,000	0,020	-0,044
-181,300	242,240	0,052	0,064
-180,285	-12,539	0,035	0,016
-179,271	142,037	0,096	0,093
-178,256	-105,097	-0,168	0,028
-177,242	-34,781	0,129	0,051
-176,227	800,000	-0,031	0,063
-175,212	-200,000	0,150	0,000
-174,198	-79,870	0,039	-0,010
-173,183	800,000	-0,026	0,078
-172,169	-200,000	0,023	0,074
-171,154	-27,819	0,027	0,011
-170,139	-200,000	0,000	0,010
-169,125	-83,475	0,067	-0,015
-168,110	-200,000	-0,011	0,080
-167,096	69,667	0,093	-0,070
-166,081	371,995	0,022	0,033
-165,066	670,264	-0,088	-0,167
-164,052	48,121	0,105	-0,072
-163,037	-200,000	-0,006	0,033
-162,023	735,674	0,062	0,122
-161,008	-45,938	-0,040	-0,014
-159,993	-200,000	-0,002	-0,083
-158,979	800,000	-0,033	0,083
-157,964	-24,005	0,015	0,007
-156,950	789,860	-0,016	0,032
-155,935	257,886	-0,125	0,158
-154,920	80,644	0,089	0,070
-153,906	542,571	-0,043	0,075
-152,891	-96,047	-0,123	-0,024
-151,877	-19,017	0,059	0,027
-150,862	-59,983	-0,205	0,063
-149,847	-200,000	-0,003	-0,051
-148,833	-200,000	0,005	0,076
-147,818	800,000	0,042	-0,120
-146,804	88,871	0,013	-0,010
-145,789	81,362	0,045	0,035
-144,775	138,191	-0,058	-0,056
-143,760	-200,000	-0,003	0,041
-142,745	-91,624	-0,055	-0,011
-141,731	-45,821	0,092	-0,033
-140,716	198,821	0,095	-0,106
-139,702	638,449	0,028	0,052
-138,687	217,141	0,047	0,055
-137,672	-111,479	-0,016	-0,002
-136,658	800,000	0,025	-0,053
-135,643	-200,000	-0,007	0,176
-134,629	-7,424	0,127	0,062
-133,614	-112,053	0,117	0,017
-132,599	-200,000	-0,015	0,051
-131,585	-126,335	-0,135	0,014
-130,570	112,625	0,087	0,077
-129,556	78,066	0,019	0,015
-128,541	-200,000	-0,001	-0,124
-127,526	-130,918	-0,097	-0,009
-126,512	-85,171	0,068	0,015
-125,497	-170,333	-0,072	0,002
-124,483	800,000	-0,016	0,036
-123,468	334,806	-0,072	-0,102
-122,453	222,553	-0,038	-0,044
-121,439	170,043	-0,046	0,048
-120,424	-76,818	-0,183	-0,046
-119,410	744,257	0,065	0,128
