DTS Sentinel unit serial number:	SN410029Multiplexer serial number:	ORYXHardware model number:	OX2-SRSoftware version number:	ORYX F/W v4,00 Oryx Data Collector v3.7.2.0data status	okinstallation	B4 Nyhavnadifferential loss correction	single-endedforward channel	channel 2reverse channel	N/Adate	2023/12/19time	07:10:13forward acquisition time	300,00reverse acquisition time	0,00gamma	499,1914k internal	0,3126k external	0,3126temperature offset calibration	1,0000default loss term (dB/km)	0,3820temperature slope calibration	1,0000multiplexer offset coefficient	1,0000multiplexer slope coefficient	1,0000fibre end	0,00T internal ref (°C)	21,22T ext. ref 1 (°C)	6,55T ext. ref 2 (°C)	6,67length (m)	temperature (°C)	Stokes	anti-Stokes-744,400	103,719	0,048	0,042
-743,385	-99,648	-0,282	0,052
-742,371	208,443	0,121	0,141
-741,356	327,744	-0,119	0,171
-740,342	-135,930	-0,068	-0,006
-739,327	-27,567	-0,103	0,044
-738,312	800,000	0,042	-0,109
-737,298	-114,736	-0,111	-0,016
-736,283	358,957	0,057	-0,086
-735,269	-171,122	-0,249	0,006
-734,254	-200,000	-0,009	-0,119
-733,239	-153,469	-0,394	-0,020
-732,225	-124,399	0,181	0,021
-731,210	490,932	-0,018	-0,031
-730,196	-150,423	0,029	-0,002
-729,181	-200,000	0,002	-0,073
-728,167	127,851	-0,033	-0,031
-727,152	-65,727	-0,062	0,018
-726,137	-90,634	-0,117	-0,025
-725,123	-96,056	-0,045	-0,009
-724,108	800,000	-0,007	0,015
-723,094	794,677	-0,070	0,145
-722,079	-26,050	-0,035	0,015
-721,064	800,000	-0,083	-0,203
-720,050	-67,934	0,090	-0,026
-719,035	52,992	-0,040	-0,028
-718,021	514,977	-0,051	-0,088
-717,006	-72,720	-0,057	-0,015
-715,991	184,071	-0,096	-0,105
-714,977	-200,000	0,025	0,124
-713,962	39,058	-0,159	-0,106
-712,948	800,000	0,069	0,184
-711,933	-136,452	0,113	0,010
-710,918	-200,000	0,001	-0,051
-709,904	96,800	-0,075	-0,064
-708,889	-200,000	-0,012	-0,048
-707,875	655,613	-0,071	0,136
-706,860	221,369	-0,085	0,102
-705,845	-29,584	-0,061	0,026
-704,831	632,581	0,035	-0,066
-703,816	-200,000	0,020	0,067
-702,802	800,000	0,077	-0,174
-701,787	-15,984	-0,094	0,044
-700,772	-180,697	-0,096	-0,001
-699,758	7,105	-0,127	-0,070
-698,743	16,553	0,139	0,082
-697,729	-200,000	0,027	0,111
-696,714	-161,072	-0,046	-0,002
-695,699	45,959	-0,083	-0,057
-694,685	25,520	0,142	-0,088
-693,670	194,698	-0,085	0,096
-692,656	-200,000	0,017	0,058
-691,641	-8,525	-0,028	-0,014
-690,627	-21,861	0,059	-0,026
-689,612	70,639	-0,070	0,054
-688,597	22,745	-0,061	-0,037
-687,583	63,920	-0,044	-0,033
-686,568	-28,025	-0,101	-0,043
-685,554	147,036	0,080	-0,080
-684,539	224,394	-0,054	0,065
-683,524	119,612	0,135	0,124
-682,510	331,192	-0,051	-0,073
-681,495	-178,993	-0,151	0,002
-680,481	-92,814	0,060	-0,012
-679,466	17,280	-0,140	-0,083
-678,451	-110,649	-0,165	0,025
-677,437	131,212	0,055	0,053
-676,422	154,295	-0,132	0,135
-675,408	-200,000	0,007	0,083
-674,393	387,571	-0,052	-0,079
-673,378	-200,000	0,021	-0,097
-672,364	-111,681	-0,120	-0,018
-671,349	763,578	-0,079	-0,160
-670,335	768,999	0,035	-0,071
-669,320	-200,000	0,014	0,061
-668,305	-200,000	0,011	-0,111
-667,291	-158,724	-0,086	-0,004
-666,276	448,333	-0,059	-0,096
-665,262	-200,000	0,034	-0,144
-664,247	-140,344	0,106	-0,008
-663,232	800,000	0,041	0,091
-662,218	-37,051	0,077	0,030
-661,203	183,211	0,045	0,049
-660,189	151,670	0,077	-0,078
-659,174	484,905	0,027	0,046
-658,159	-200,000	0,019	-0,076
-657,145	-114,810	-0,100	-0,014
-656,130	-131,505	0,076	0,007
-655,116	126,470	-0,051	-0,048
-654,101	-173,432	0,097	0,002
-653,086	56,253	-0,030	-0,022
-652,072	-200,000	-0,018	-0,149
-651,057	-200,000	-0,040	-0,145
-650,043	-72,397	-0,115	-0,031
-649,028	45,383	0,090	-0,062
-648,014	210,192	-0,029	-0,034
-646,999	333,073	-0,033	0,047
-645,984	-200,000	0,000	-0,076
-644,970	-93,531	-0,098	0,020
-643,955	-200,000	-0,010	0,195
-642,941	121,335	-0,107	-0,099
-641,926	-39,060	0,052	0,020
-640,911	-120,029	-0,148	0,019
-639,897	30,914	0,010	0,006
-638,882	102,299	0,079	0,068
-637,868	-151,051	0,045	0,002
-636,853	80,798	0,024	0,020
-635,838	-62,166	-0,068	0,021
-634,824	-164,064	-0,108	0,004
-633,809	-140,592	0,084	-0,006
-632,795	-28,963	0,096	-0,041
-631,780	96,569	-0,092	0,078
-630,765	800,000	-0,028	-0,060
-629,751	800,000	-0,050	-0,114
-628,736	800,000	0,046	-0,128
-627,722	234,517	-0,077	-0,095
-626,707	-124,732	0,053	-0,006
-625,692	-200,000	0,011	0,072
-624,678	-200,000	-0,002	-0,039
-623,663	-84,250	0,074	-0,017
-622,649	-80,053	-0,145	-0,036
-621,634	-200,000	-0,026	0,105
-620,619	70,868	0,108	-0,083
-619,605	-200,000	-0,010	-0,133
-618,590	523,448	0,060	0,104
-617,576	-5,763	-0,030	0,015
-616,561	32,158	0,052	-0,033
-615,546	-200,000	-0,038	0,195
-614,532	-160,892	-0,105	-0,004
-613,517	-165,993	-0,039	-0,001
-612,503	-200,000	-0,029	-0,143
-611,488	125,690	-0,060	0,056
-610,474	-200,000	-0,006	-0,055
-609,459	-22,419	-0,086	-0,038
-608,444	-200,000	-0,029	-0,174
-607,430	14,259	-0,096	-0,055
-606,415	-200,000	0,011	0,055
-605,401	-47,811	0,052	-0,019
-604,386	-165,941	0,108	-0,003
-603,371	-154,088	-0,080	0,004
-602,357	514,770	0,062	-0,108
-601,342	-200,000	-0,016	-0,149
-600,328	16,132	-0,037	-0,021
-599,313	285,182	-0,013	-0,018
-598,298	153,291	-0,093	0,094
-597,284	800,000	-0,037	-0,091
-596,269	800,000	0,016	-0,036
-595,255	53,198	-0,125	0,088
-594,240	5,776	-0,094	0,051
-593,225	-51,235	0,073	-0,025
-592,211	246,729	0,058	-0,072
-591,196	423,648	0,033	-0,052
-590,182	98,109	0,072	0,062
-589,167	800,000	-0,027	0,071
-588,152	-72,350	-0,132	0,036
-587,138	666,940	-0,047	-0,091
-586,123	800,000	0,011	0,029
-585,109	-43,976	0,038	-0,014
-584,094	-75,207	-0,066	-0,017
-583,079	-200,000	0,008	0,101
-582,065	-200,000	0,009	0,077
-581,050	-200,000	0,021	0,110
-580,036	-200,000	-0,018	-0,119
-579,021	-200,000	0,002	-0,052
-578,006	-99,129	0,072	-0,013
-576,992	800,000	0,067	-0,141
-575,977	-80,370	0,062	0,015
-574,963	44,370	-0,086	-0,058
-573,948	203,558	-0,068	-0,077
-572,934	-200,000	0,005	-0,075
-571,919	104,554	-0,139	-0,121
-570,904	142,998	-0,085	0,084
-569,890	70,749	-0,121	-0,093
-568,875	794,653	0,026	-0,052
-567,861	800,000	0,110	0,297
-566,846	772,738	0,027	0,054
-565,831	-200,000	-0,011	0,167
-564,817	-69,238	-0,198	-0,056
-563,802	135,434	0,026	-0,025
-562,788	15,643	0,052	0,030
-561,773	58,131	-0,025	-0,018
-560,758	62,767	0,026	0,019
-559,744	326,245	0,024	-0,034
-558,729	126,394	0,069	0,064
-557,715	800,000	-0,016	-0,038
-556,700	-167,556	0,040	0,001
-555,685	800,000	0,024	0,076
-554,671	-166,039	0,092	-0,003
-553,656	59,415	0,076	-0,056
-552,642	-28,478	0,041	0,018
-551,627	315,833	-0,038	0,053
-550,612	-40,436	-0,184	0,070
-549,598	-200,000	-0,017	0,130
-548,583	-183,204	-0,151	0,002
-547,569	-200,000	0,001	0,107
-546,554	83,994	0,059	-0,048
-545,539	271,360	0,051	-0,067
-544,525	-133,753	0,040	0,004
-543,510	800,000	-0,029	-0,072
-542,496	102,652	0,104	-0,090
-541,481	-81,819	-0,116	0,028
-540,466	-104,315	0,086	0,015
-539,452	-44,769	-0,041	-0,015
-538,437	376,945	0,059	0,089
-537,423	-177,001	-0,136	0,002
-536,408	-27,300	-0,090	0,039
-535,393	-28,783	0,060	0,025
-534,379	-200,000	-0,028	0,128
-533,364	-166,688	-0,084	-0,003
-532,350	184,517	0,028	0,031
-531,335	800,000	0,008	0,022
-530,321	800,000	-0,030	0,082
-529,306	-81,949	0,081	-0,019
-528,291	-200,000	0,002	-0,069
-527,277	197,262	-0,137	-0,154
-526,262	437,939	0,030	0,048
-525,248	-27,711	0,119	0,051
-524,233	800,000	-0,026	0,073
-523,218	-36,740	0,090	-0,035
-522,204	7,659	-0,038	0,021
-521,189	193,067	0,031	0,035
-520,175	22,367	-0,049	-0,029
-519,160	-200,000	0,037	-0,170
-518,145	-200,000	-0,013	0,073
-517,131	-200,000	0,051	0,207
-516,116	-200,000	0,010	-0,052
-515,102	166,985	0,093	0,097
-514,087	-123,120	-0,115	-0,013
-513,072	800,000	-0,046	-0,117
-512,058	359,491	0,056	0,082
-511,043	-46,128	0,023	0,008
-510,029	-82,710	0,180	0,043
-509,014	4,455	0,062	0,033
-507,999	299,909	0,078	0,106
-506,985	-116,696	0,057	-0,008
-505,970	-200,000	-0,005	0,030
-504,956	211,322	0,085	0,099
-503,941	800,000	-0,026	0,063
-502,926	-174,782	0,116	0,002
-501,912	116,315	0,075	0,068
-500,897	800,000	-0,042	0,110
-499,883	176,383	0,036	-0,039
-498,868	489,969	-0,064	-0,109
-497,853	469,911	0,082	-0,136
-496,839	-200,000	0,009	-0,099
-495,824	185,223	-0,079	0,087
-494,810	-92,242	0,090	-0,018
-493,795	-181,319	0,017	-0,000
-492,781	31,358	-0,048	0,030
-491,766	67,103	0,001	0,001
-490,751	104,932	0,111	0,097
-489,737	56,427	-0,038	0,027
-488,722	-87,826	0,057	-0,012
-487,708	-200,000	-0,004	-0,114
-486,693	795,761	0,038	0,078
-485,678	800,000	0,025	-0,053
-484,664	554,140	-0,012	0,021
-483,649	361,577	0,087	-0,129
-482,635	596,357	-0,017	0,030
-481,620	-128,308	-0,047	-0,005
-480,605	-19,983	0,175	0,079
-479,591	-24,836	0,090	-0,039
-478,576	-187,021	0,107	0,001
-477,562	800,000	-0,019	-0,044
-476,547	-110,059	-0,093	-0,014
-475,532	62,215	-0,014	-0,010
-474,518	-25,542	-0,057	0,025
-473,503	92,244	0,077	-0,064
-472,489	443,935	0,078	0,126
-471,474	15,986	-0,184	0,106
-470,459	-200,000	-0,008	0,032
-469,445	657,794	0,042	-0,080
-468,430	-186,948	-0,139	0,001
-467,416	299,845	0,014	0,019
-466,401	-12,174	0,046	0,022
-465,386	345,130	-0,056	0,082
-464,372	-200,000	-0,004	0,084
-463,357	119,990	-0,050	-0,046
-462,343	104,910	0,037	0,032
-461,328	-121,897	-0,111	0,013
-460,313	-200,000	0,009	0,053
-459,299	-83,775	0,113	0,026
-458,284	114,284	0,055	0,049
-457,270	-200,000	0,008	0,072
-456,255	92,241	-0,091	-0,075
-455,241	27,688	-0,032	0,020
-454,226	-68,600	0,081	-0,023
-453,211	476,289	-0,023	-0,038
-452,197	56,761	0,141	0,101
-451,182	-81,335	0,105	0,025
-450,168	95,745	-0,077	0,065
-449,153	8,995	0,072	-0,040
-448,138	347,064	-0,076	0,110
-447,124	272,287	-0,081	-0,105
-446,109	800,000	-0,030	-0,071
-445,095	5,213	-0,107	-0,058
-444,080	-108,200	-0,002	0,000
-443,065	138,242	0,030	-0,029
-442,051	449,153	-0,074	-0,120
-441,036	-200,000	-0,001	0,150
-440,022	-200,000	-0,010	0,053
-439,007	-200,000	-0,006	0,035
-437,992	10,531	0,094	0,053
-436,978	368,698	0,127	-0,190
-435,963	128,083	-0,141	-0,132
-434,949	19,883	-0,047	-0,028
-433,934	800,000	-0,038	-0,113
-432,919	-200,000	-0,005	0,051
-431,905	249,325	0,057	-0,071
-430,890	-200,000	0,008	0,025
-429,876	-200,000	0,021	0,074
-428,861	71,479	-0,044	0,034
-427,846	-190,534	-0,025	0,000
-426,832	222,152	-0,135	-0,160
-425,817	99,082	0,093	-0,079
-424,803	147,027	-0,011	-0,011
-423,788	-42,680	-0,076	-0,028
-422,773	-82,971	0,180	0,042
-421,759	699,177	0,077	0,150
-420,744	-49,019	-0,086	0,030
-419,730	-110,692	0,021	0,003
-418,715	27,294	0,105	-0,065
-417,701	-23,087	0,176	-0,078
-416,686	-200,000	0,015	0,133
-415,671	-200,000	0,000	0,025
-414,657	310,145	0,062	-0,085
-413,642	125,556	-0,088	0,082
-412,628	-200,000	0,006	-0,088
-411,613	-23,715	-0,112	-0,049
-410,598	79,419	-0,020	0,016
-409,584	-200,000	0,017	0,064
-408,569	10,390	0,029	-0,016
-407,555	54,586	-0,147	-0,104
-406,540	-21,692	0,157	0,070
-405,525	-183,794	-0,131	0,002
-404,511	-132,039	-0,080	0,008
-403,496	151,259	0,082	0,082
-402,482	331,088	-0,085	-0,120
-401,467	800,000	0,068	0,142
-400,452	-35,939	0,082	-0,033
-399,438	-51,009	-0,120	-0,041
-398,423	800,000	0,008	-0,018
-397,409	-200,000	0,018	-0,138
-396,394	-112,734	0,080	-0,012
-395,379	-24,667	-0,182	-0,079
-394,365	800,000	0,013	0,028
-393,350	-200,000	-0,014	0,113
-392,336	320,069	-0,046	0,065
-391,321	161,246	0,074	-0,076
-390,306	-161,778	-0,041	0,001
-389,292	800,000	-0,045	0,106
-388,277	195,146	-0,021	0,023
-387,263	-30,644	-0,046	-0,019
-386,248	-34,122	-0,015	0,006
-385,233	175,894	0,021	-0,022
-384,219	575,869	-0,037	-0,066
-383,204	800,000	0,011	0,025
-382,190	169,951	0,096	0,101
-381,175	800,000	-0,046	0,096
-380,160	800,000	0,063	0,155
-379,146	286,159	0,023	0,031
-378,131	18,995	-0,021	-0,012
-377,117	-200,000	0,005	0,101
-376,102	-118,525	-0,070	0,009
-375,088	355,154	0,045	0,067
-374,073	-200,000	-0,056	0,233
-373,058	172,046	-0,024	-0,025
-372,044	-51,619	0,095	0,032
-371,029	800,000	-0,019	0,058
-370,015	-71,049	0,158	0,043
-369,000	-91,035	-0,078	-0,016
-367,985	-149,871	-0,009	0,001
-366,971	-84,048	-0,043	-0,010
-365,956	800,000	0,033	-0,105
-364,942	-73,425	-0,108	-0,029
-363,927	-200,000	-0,035	0,131
-362,912	-34,330	-0,060	-0,024
-361,898	104,486	-0,018	-0,016
-360,883	-18,040	-0,045	-0,021
-359,869	73,947	0,011	-0,009
-358,854	-200,000	-0,012	-0,054
-357,839	129,054	-0,010	-0,010
-356,825	47,721	0,116	0,079
-355,810	800,000	0,002	-0,004
-354,796	-200,000	-0,014	0,188
-353,781	-200,000	-0,007	-0,082
-352,766	-46,677	0,097	-0,035
-351,752	9,257	0,094	0,052
-350,737	684,930	0,042	0,080
-349,723	800,000	-0,025	0,070
-348,708	496,111	-0,039	0,067
-347,693	-32,832	0,162	-0,066
-346,679	-200,000	-0,003	-0,034
-345,664	-103,487	-0,124	-0,021
-344,650	-106,676	0,082	-0,013
-343,635	-139,365	0,084	-0,007
-342,620	800,000	-0,018	-0,049
-341,606	-200,000	-0,008	0,100
-340,591	-144,838	-0,105	-0,007
-339,577	294,931	0,052	0,070
-338,562	-56,185	0,059	0,019
-337,548	716,632	0,040	-0,079
-336,533	-156,814	0,144	-0,006
-335,518	800,000	-0,048	0,126
-334,504	-200,000	0,010	-0,036
-333,489	-200,000	0,005	0,137
-332,475	-200,000	0,005	-0,061
-331,460	144,168	0,024	0,024
-330,445	-37,758	0,046	0,018
-329,431	-200,000	0,003	-0,104
-328,416	684,935	0,031	0,060
-327,402	149,744	0,074	-0,074
-326,387	61,736	-0,038	0,028
-325,372	-130,303	0,140	-0,014
-324,358	123,758	-0,058	0,053
-323,343	-31,009	-0,010	0,004
-322,329	800,000	0,018	0,042
-321,314	193,174	0,055	0,061
-320,299	-200,000	0,009	0,112
-319,285	225,326	-0,096	-0,114
-318,270	-200,000	0,007	-0,115
-317,256	-200,000	0,003	0,027
-316,241	625,493	0,055	-0,103
-315,226	-200,000	0,055	0,202
-314,212	-28,935	0,117	0,049
-313,197	308,852	-0,017	-0,023
-312,183	800,000	0,014	-0,036
-311,168	565,279	-0,124	-0,221
-310,153	82,703	0,118	-0,094
-309,139	8,864	-0,119	0,065
-308,124	-200,000	-0,007	0,037
-307,110	23,383	-0,056	0,034
-306,095	9,801	0,171	-0,095
-305,080	-98,053	0,104	-0,019
-304,066	29,182	0,034	-0,021
-303,051	-200,000	-0,006	-0,099
-302,037	800,000	-0,037	-0,088
-301,022	-200,000	-0,016	-0,163
-300,008	-200,000	-0,004	0,048
-298,993	0,819	-0,058	0,030
-297,978	-91,139	-0,084	-0,017
-296,964	-200,000	-0,004	0,113
-295,949	-167,041	-0,115	-0,003
-294,935	146,630	0,095	-0,094
-293,920	-200,000	-0,025	-0,326
-292,905	800,000	-0,029	-0,068
-291,891	-99,206	0,041	-0,008
-290,876	-200,000	0,009	-0,059
-289,862	-200,000	0,010	-0,098
-288,847	-200,000	-0,007	-0,095
-287,832	11,469	-0,148	-0,083
-286,818	104,525	0,017	-0,015
-285,803	94,211	0,115	0,096
-284,789	800,000	0,017	0,038
-283,774	264,480	0,046	0,058
-282,759	-200,000	-0,011	0,061
-281,745	283,227	-0,082	-0,108
-280,730	637,781	0,024	-0,045
-279,716	128,100	0,050	-0,046
-278,701	374,464	0,114	0,171
-277,686	109,513	0,040	0,035
-276,672	-200,000	-0,015	0,074
-275,657	10,845	0,120	0,067
-274,643	-156,032	-0,083	0,004
-273,628	39,725	-0,260	-0,170
-272,613	-46,455	0,070	-0,025
-271,599	-200,000	0,005	0,061
-270,584	800,000	-0,030	0,084
-269,570	53,968	0,028	0,019
-268,555	-14,630	-0,072	0,034
-267,540	-49,959	-0,116	0,040
-266,526	-200,000	0,039	-0,144
-265,511	800,000	0,062	-0,161
-264,497	3,145	-0,084	-0,044
-263,482	-71,514	0,069	-0,019
-262,467	-84,378	0,102	-0,023
-261,453	-200,000	-0,005	-0,034
-260,438	-159,887	-0,091	-0,004
-259,424	264,464	-0,021	0,027
-258,409	-200,000	-0,005	-0,025
-257,395	-84,718	0,097	-0,022
-256,380	-200,000	0,004	-0,077
-255,365	110,941	-0,146	0,128
-254,351	-162,427	0,048	0,002
-253,336	220,907	0,045	0,053
-252,322	-120,801	0,044	0,005
-251,307	800,000	0,026	-0,074
-250,292	-130,096	0,055	0,005
-249,278	-141,805	0,180	-0,013
-248,263	0,443	-0,127	0,066
-247,249	-107,001	-0,143	-0,023
-246,234	564,325	-0,054	0,095
-245,219	-199,057	-0,051	0,000
-244,205	-101,247	-0,054	-0,010
-243,190	800,000	-0,016	-0,035
-242,176	86,606	-0,063	0,051
-241,161	398,313	-0,075	0,114
-240,146	102,319	0,028	-0,023
-239,132	-80,467	-0,121	0,029
-238,117	-200,000	0,014	-0,056
-237,103	-200,000	-0,013	-0,100
-236,088	800,000	0,022	-0,051
-235,073	-64,680	0,136	-0,040
-234,059	-75,075	0,121	0,031
-233,044	-104,758	-0,175	0,029
-232,030	-64,750	-0,135	-0,040
-231,015	-32,767	-0,107	0,043
-230,000	-200,000	0,001	-0,018
-228,986	-52,408	-0,084	0,028
-227,971	110,107	0,049	0,043
-226,957	144,752	0,051	0,050
-225,942	78,958	-0,056	-0,043
-224,927	-2,869	-0,044	-0,022
-223,913	-152,729	-0,084	0,004
-222,898	-80,985	-0,084	0,020
-221,884	800,000	0,039	0,115
-220,869	-30,444	0,039	0,016
-219,855	-200,000	-0,034	0,117
-218,840	203,188	0,113	0,128
-217,825	14,374	-0,102	0,058
-216,811	-200,000	-0,014	0,046
-215,796	646,327	0,030	-0,057
-214,782	-34,643	0,132	-0,053
-213,767	800,000	-0,006	0,014
-212,752	-82,762	0,123	0,029
-211,738	75,847	-0,090	-0,070
-210,723	-2,708	0,046	-0,023
-209,709	-67,239	-0,024	-0,007
-208,694	345,917	-0,041	-0,059
-207,679	24,288	0,146	-0,088
-206,665	-95,533	0,135	0,026
-205,650	27,727	0,044	0,027
-204,636	127,503	0,062	0,057
-203,621	119,230	-0,036	0,032
-202,606	-200,000	-0,009	-0,034
-201,592	278,557	-0,082	-0,107
-200,577	212,070	-0,102	-0,118
-199,563	-42,542	0,027	0,010
-198,548	40,367	0,070	-0,046
-197,533	800,000	0,056	-0,144
-196,519	800,000	0,039	0,100
-195,504	-160,679	-0,099	0,004
-194,490	23,238	-0,209	-0,125
-193,475	800,000	0,036	-0,081
-192,460	235,640	0,012	-0,014
-191,446	-200,000	0,012	-0,075
-190,431	-200,000	-0,009	-0,083
-189,417	800,000	0,011	-0,027
-188,402	184,124	-0,034	0,037
-187,387	-81,583	0,088	-0,021
-186,373	698,023	-0,046	-0,088
-185,358	800,000	-0,037	-0,113
-184,344	45,587	-0,127	-0,086
-183,329	-123,670	0,141	-0,016
-182,315	152,420	-0,044	0,044
-181,300	-200,000	0,010	0,071
-180,285	34,483	0,086	0,055
-179,271	-200,000	0,006	-0,022
-178,256	67,572	0,008	-0,006
-177,242	800,000	0,047	0,122
-176,227	205,200	-0,112	0,127
-175,212	64,167	-0,023	-0,017
-174,198	113,771	-0,045	0,040
-173,183	88,665	-0,020	0,016
-172,169	88,438	-0,057	-0,046
-171,154	-142,895	-0,110	0,008
-170,139	610,443	0,030	0,055
-169,125	800,000	0,022	0,048
-168,110	-200,000	0,014	0,068
-167,096	-200,000	-0,006	-0,143
-166,081	90,501	0,083	0,068
-165,066	19,695	-0,115	-0,067
-164,052	-200,000	0,022	-0,118
-163,037	697,224	0,014	-0,027
-162,023	249,129	0,074	0,091
-161,008	-200,000	-0,001	-0,030
-159,993	-64,344	0,056	-0,016
-158,979	-38,301	-0,060	-0,023
-157,964	-68,851	0,121	0,034
-156,950	300,519	-0,024	-0,032
-155,935	590,587	-0,019	-0,034
-154,920	800,000	0,091	0,188
-153,906	198,694	0,037	-0,042
-152,891	171,597	0,034	-0,036
-151,877	61,644	0,006	0,004
-150,862	752,371	0,047	-0,092
-149,847	51,879	-0,046	0,032
-148,833	800,000	-0,027	-0,059
-147,818	106,513	0,032	0,027
-146,804	403,639	-0,023	-0,036
-145,789	-85,155	-0,054	0,012
-144,775	-166,486	-0,079	0,002
-143,760	177,440	-0,052	-0,056
-142,745	-108,169	-0,103	-0,016
-141,731	-71,692	0,030	0,008
-140,716	150,245	-0,084	0,083
-139,702	800,000	0,004	-0,009
-138,687	329,071	-0,034	0,047
-137,672	97,823	0,107	-0,090
-136,658	35,121	-0,100	-0,064
-135,643	4,247	-0,116	-0,062
-134,629	-200,000	-0,004	0,099
-133,614	10,946	0,080	0,045
-132,599	800,000	0,025	0,069
-131,585	800,000	0,005	0,010
-130,570	584,087	-0,052	-0,093
-129,556	-200,000	0,014	0,079
-128,541	27,088	-0,015	-0,009
-127,526	-200,000	0,007	-0,037
-126,512	-200,000	-0,022	-0,096
-125,497	8,148	0,080	0,043
-124,483	-72,879	-0,099	-0,026
-123,468	9,545	-0,169	-0,093
-122,453	30,727	-0,063	-0,039
-121,439	-20,598	-0,024	0,011
-120,424	-200,000	0,025	0,137
-119,410	-200,000	-0,021	-0,144
