DTS Sentinel unit serial number:	SN410029Multiplexer serial number:	ORYXHardware model number:	OX2-SRSoftware version number:	ORYX F/W v4,00 Oryx Data Collector v3.7.2.0data status	okinstallation	B4 Nyhavnadifferential loss correction	single-endedforward channel	channel 2reverse channel	N/Adate	2023/12/15time	23:45:13forward acquisition time	300,00reverse acquisition time	0,00gamma	499,1914k internal	0,3128k external	0,3128temperature offset calibration	1,0000default loss term (dB/km)	0,3820temperature slope calibration	1,0000multiplexer offset coefficient	1,0000multiplexer slope coefficient	1,0000fibre end	0,00T internal ref (°C)	21,80T ext. ref 1 (°C)	6,70T ext. ref 2 (°C)	6,88length (m)	temperature (°C)	Stokes	anti-Stokes-744,400	-109,447	0,117	-0,018
-743,385	-79,822	-0,247	0,061
-742,371	496,551	0,031	-0,053
-741,356	74,052	-0,206	0,161
-740,342	36,766	-0,033	0,021
-739,327	10,158	-0,295	0,166
-738,312	290,518	0,049	-0,067
-737,298	-120,663	-0,287	0,036
-736,283	800,000	0,016	-0,050
-735,269	-90,036	-0,186	0,040
-734,254	171,192	-0,044	0,047
-733,239	-43,633	-0,397	-0,148
-732,225	92,909	0,008	0,007
-731,210	-163,246	-0,111	0,004
-730,196	-200,000	-0,012	-0,088
-729,181	800,000	0,056	0,124
-728,167	-35,548	0,014	0,006
-727,152	678,860	-0,042	-0,082
-726,137	220,396	-0,096	-0,114
-725,123	36,204	-0,113	-0,074
-724,108	553,976	-0,112	-0,202
-723,094	-57,657	-0,087	0,028
-722,079	-200,000	-0,028	-0,245
-721,064	43,120	0,083	-0,056
-720,050	-8,320	-0,150	-0,075
-719,035	159,502	0,056	0,058
-718,021	638,056	-0,015	-0,028
-717,006	590,916	-0,059	-0,109
-715,991	146,108	-0,138	-0,138
-714,977	177,173	0,068	-0,074
-713,962	-200,000	0,021	-0,073
-712,948	-84,876	0,132	0,031
-711,933	98,107	-0,136	0,116
-710,918	144,391	-0,053	-0,053
-709,904	57,089	-0,102	-0,073
-708,889	-200,000	0,009	-0,081
-707,875	112,079	-0,053	0,048
-706,860	16,241	0,125	-0,073
-705,845	-182,250	0,059	-0,001
-704,831	-37,246	-0,029	-0,012
-703,816	-43,333	0,072	-0,027
-702,802	481,163	-0,046	0,078
-701,787	64,980	-0,092	-0,069
-700,772	-173,107	-0,160	0,004
-699,758	250,576	0,109	-0,138
-698,743	39,909	-0,072	0,048
-697,729	60,456	-0,108	-0,079
-696,714	800,000	-0,040	-0,097
-695,699	296,443	0,023	-0,032
-694,685	-200,000	0,004	-0,147
-693,670	-52,245	-0,019	0,006
-692,656	669,277	0,022	-0,043
-691,641	-200,000	0,008	0,041
-690,627	73,928	0,109	-0,085
-689,612	-47,838	0,043	-0,015
-688,597	-200,000	-0,001	-0,038
-687,583	-62,962	-0,143	0,043
-686,568	679,195	-0,049	0,095
-685,554	28,296	-0,020	0,012
-684,539	80,884	-0,051	-0,040
-683,524	800,000	0,017	0,035
-682,510	-27,674	-0,084	0,036
-681,495	190,187	-0,052	0,058
-680,481	-200,000	0,000	-0,153
-679,466	59,314	-0,114	-0,084
-678,451	470,820	0,018	0,030
-677,437	74,723	-0,026	0,020
-676,422	-117,422	0,125	-0,017
-675,408	-200,000	-0,018	-0,116
-674,393	800,000	-0,012	-0,036
-673,378	18,104	-0,202	-0,119
-672,364	404,428	-0,097	-0,151
-671,349	-200,000	0,013	-0,135
-670,335	-200,000	-0,008	0,031
-669,320	-200,000	-0,000	-0,097
-668,305	-23,406	-0,079	-0,035
-667,291	800,000	0,052	-0,160
-666,276	438,387	-0,089	0,145
-665,262	73,296	-0,118	-0,092
-664,247	-146,434	-0,186	-0,012
-663,232	800,000	-0,017	-0,051
-662,218	64,926	0,095	0,071
-661,203	46,096	-0,098	-0,067
-660,189	73,854	-0,127	0,098
-659,174	-200,000	-0,008	-0,185
-658,159	-106,057	0,104	-0,017
-657,145	369,440	0,019	-0,029
-656,130	481,830	0,038	0,065
-655,116	139,661	-0,116	0,113
-654,101	332,281	0,028	0,040
-653,086	117,230	0,026	0,024
-652,072	-2,657	-0,043	0,022
-651,057	271,307	-0,019	-0,025
-650,043	-23,051	-0,058	0,026
-649,028	800,000	-0,006	-0,015
-648,014	800,000	0,054	0,115
-646,999	311,034	-0,023	0,032
-645,984	-36,217	0,074	-0,029
-644,970	110,676	-0,088	0,079
-643,955	800,000	-0,019	0,048
-642,941	-54,817	0,059	0,020
-641,926	166,564	-0,031	0,032
-640,911	98,256	0,035	0,030
-639,897	341,148	0,050	-0,073
-638,882	800,000	0,028	0,059
-637,868	-95,008	-0,090	0,018
-636,853	800,000	-0,058	-0,124
-635,838	-73,074	0,066	0,018
-634,824	-200,000	-0,015	-0,098
-633,809	405,223	0,035	-0,054
-632,795	-200,000	-0,012	-0,043
-631,780	236,754	-0,044	0,054
-630,765	800,000	0,062	-0,173
-629,751	-26,943	0,014	0,006
-628,736	399,253	-0,096	-0,150
-627,722	357,134	0,061	-0,090
-626,707	-152,797	-0,026	-0,001
-625,692	204,550	0,109	-0,126
-624,678	315,372	0,088	-0,123
-623,663	-50,134	-0,132	-0,046
-622,649	-42,359	-0,097	0,036
-621,634	-49,561	-0,220	-0,077
-620,619	-133,377	-0,023	0,002
-619,605	351,297	-0,062	-0,092
-618,590	800,000	0,018	-0,038
-617,576	800,000	0,033	-0,093
-616,561	544,933	-0,084	0,150
-615,546	73,819	0,090	0,070
-614,532	800,000	0,021	-0,044
-613,517	800,000	-0,013	-0,029
-612,503	477,439	-0,037	-0,062
-611,488	370,145	0,017	0,026
-610,474	279,361	-0,022	0,030
-609,459	381,856	-0,051	0,077
-608,444	128,721	-0,124	0,117
-607,430	150,322	0,066	-0,066
-606,415	130,741	0,044	-0,042
-605,401	272,834	-0,056	0,073
-604,386	-200,000	0,014	0,239
-603,371	800,000	0,085	0,238
-602,357	-200,000	0,018	0,074
-601,342	160,748	0,039	-0,040
-600,328	-152,639	-0,034	-0,002
-599,313	800,000	-0,052	-0,136
-598,298	-94,883	-0,113	0,022
-597,284	-177,707	0,161	0,003
-596,269	-74,924	-0,048	-0,013
-595,255	-145,791	0,088	0,006
-594,240	27,452	-0,092	-0,057
-593,225	46,772	-0,049	0,033
-592,211	-200,000	-0,025	-0,146
-591,196	-200,000	-0,015	-0,067
-590,182	-200,000	-0,039	0,168
-589,167	97,336	0,045	0,038
-588,152	418,874	0,072	-0,114
-587,138	800,000	0,029	-0,085
-586,123	-200,000	-0,046	-0,222
-585,109	800,000	0,054	-0,146
-584,094	283,198	-0,080	0,107
-583,079	-121,216	-0,013	0,002
-582,065	-200,000	0,038	-0,152
-581,050	800,000	0,068	-0,184
-580,036	-200,000	-0,006	-0,024
-579,021	-70,807	-0,034	-0,009
-578,006	800,000	0,014	-0,032
-576,992	373,074	0,066	0,099
-575,977	-200,000	-0,006	-0,074
-574,963	-200,000	0,049	-0,170
-573,948	308,796	0,054	-0,075
-572,934	-105,045	-0,146	0,025
-571,919	-200,000	-0,015	-0,112
-570,904	-43,016	0,115	-0,043
-569,890	-98,749	0,067	-0,012
-568,875	-200,000	0,003	0,014
-567,861	-67,979	0,094	0,027
-566,846	-200,000	0,007	-0,076
-565,831	603,837	0,019	-0,036
-564,817	-200,000	0,015	-0,062
-563,802	58,601	0,069	-0,050
-562,788	213,750	-0,080	-0,094
-561,773	23,616	-0,075	0,046
-560,758	268,994	0,104	-0,135
-559,744	-13,605	0,189	0,090
-558,729	-121,364	-0,053	-0,006
-557,715	800,000	0,040	-0,119
-556,700	-200,000	0,012	-0,050
-555,685	-196,157	-0,052	-0,000
-554,671	-192,437	-0,031	-0,000
-553,656	377,482	-0,036	-0,054
-552,642	-48,855	0,127	0,045
-551,627	279,670	-0,015	0,019
-550,612	-200,000	0,023	-0,090
-549,598	800,000	-0,011	0,037
-548,583	-80,087	0,031	-0,008
-547,569	258,113	0,051	-0,065
-546,554	800,000	-0,031	0,102
-545,539	-200,000	-0,010	0,078
-544,525	3,097	-0,098	0,052
-543,510	-65,666	0,100	-0,030
-542,496	-200,000	0,043	-0,182
-541,481	-200,000	0,009	-0,047
-540,466	421,322	0,111	0,176
-539,452	76,888	-0,052	-0,040
-538,437	161,221	-0,025	0,026
-537,423	-39,376	-0,078	0,030
-536,408	-55,061	0,084	-0,028
-535,393	800,000	-0,046	-0,130
-534,379	800,000	0,022	-0,056
-533,364	-22,596	-0,132	0,059
-532,350	-66,878	0,153	-0,044
-531,335	-126,162	0,094	-0,010
-530,321	99,705	0,090	-0,077
-529,306	-27,339	0,030	-0,013
-528,291	-119,790	-0,056	-0,007
-527,277	-115,939	-0,133	0,018
-526,262	800,000	-0,022	-0,060
-525,248	47,815	0,050	-0,034
-524,233	-200,000	-0,001	-0,109
-523,218	-144,773	0,041	-0,003
-522,204	371,806	0,082	0,124
-521,189	-79,401	-0,102	0,025
-520,175	346,315	-0,037	0,054
-519,160	278,237	-0,110	-0,145
-518,145	-153,581	0,054	-0,003
-517,131	-16,031	0,073	-0,034
-516,116	157,452	0,072	0,074
-515,102	235,839	-0,072	-0,088
-514,087	227,507	-0,012	0,014
-513,072	208,527	-0,021	0,024
-512,058	162,394	0,084	-0,087
-511,043	103,240	0,018	-0,015
-510,029	-200,000	0,005	0,125
-509,014	-53,518	0,075	-0,025
-507,999	36,132	0,081	0,053
-506,985	-51,706	-0,085	0,029
-505,970	-52,057	-0,027	-0,009
-504,956	800,000	-0,029	-0,095
-503,941	-173,066	0,122	0,003
-502,926	103,104	0,126	0,109
-501,912	281,959	0,054	-0,072
-500,897	498,839	0,014	0,024
-499,883	159,695	-0,105	-0,108
-498,868	-200,000	-0,044	-0,200
-497,853	92,553	-0,086	-0,071
-496,839	-2,070	0,111	-0,057
-495,824	157,357	0,107	0,110
-494,810	-9,984	0,081	0,040
-493,795	800,000	-0,059	-0,123
-492,781	800,000	-0,029	-0,073
-491,766	800,000	0,028	0,079
-490,751	199,434	-0,064	-0,073
-489,737	89,980	-0,106	-0,087
-488,722	355,415	-0,010	-0,015
-487,708	80,200	0,037	-0,029
-486,693	-2,848	-0,114	-0,058
-485,678	-200,000	-0,005	0,045
-484,664	800,000	0,037	-0,096
-483,649	66,668	-0,032	-0,024
-482,635	546,056	-0,014	0,025
-481,620	-42,842	0,169	0,063
-480,605	261,851	0,076	0,098
-479,591	477,664	0,044	0,074
-478,576	291,426	-0,052	0,070
-477,562	-200,000	0,039	-0,150
-476,547	-29,767	-0,122	-0,051
-475,532	-9,545	0,111	-0,054
-474,518	-61,640	-0,263	-0,081
-473,503	800,000	0,029	0,062
-472,489	28,054	-0,086	0,053
-471,474	71,979	0,068	0,052
-470,459	-200,000	-0,015	-0,139
-469,445	97,149	0,057	0,048
-468,430	59,560	0,056	-0,041
-467,416	-200,000	0,002	0,052
-466,401	-200,000	-0,022	0,140
-465,386	121,185	0,149	0,137
-464,372	94,959	0,039	0,033
-463,357	-200,000	-0,018	-0,131
-462,343	116,933	-0,048	0,043
-461,328	715,799	0,046	-0,090
-460,313	91,592	0,020	0,016
-459,299	678,222	0,004	0,008
-458,284	528,812	-0,044	0,077
-457,270	-53,430	0,067	-0,023
-456,255	69,580	-0,069	-0,052
-455,241	721,602	-0,009	0,018
-454,226	-200,000	0,010	-0,042
-453,211	358,650	0,054	-0,080
-452,197	619,734	0,078	-0,145
-451,182	-141,662	0,130	-0,009
-450,168	15,957	0,066	-0,038
-449,153	-16,936	0,101	0,047
-448,138	133,903	0,067	0,064
-447,124	475,914	0,066	0,110
-446,109	373,584	0,060	-0,089
-445,095	800,000	0,030	-0,067
-444,080	195,102	0,082	0,092
-443,065	26,431	-0,062	0,038
-442,051	24,907	-0,038	0,023
-441,036	-125,498	-0,050	0,006
-440,022	65,532	-0,084	-0,062
-439,007	-200,000	0,003	0,071
-437,992	33,964	0,077	0,049
-436,978	800,000	0,062	0,187
-435,963	800,000	-0,017	0,044
-434,949	-200,000	-0,013	0,109
-433,934	800,000	-0,041	-0,106
-432,919	-12,288	-0,084	-0,040
-431,905	800,000	0,010	-0,026
-430,890	-187,075	-0,034	0,000
-429,876	-200,000	-0,007	0,155
-428,861	-200,000	0,015	-0,071
-427,846	800,000	-0,057	-0,128
-426,832	42,905	-0,164	-0,109
-425,817	66,403	-0,047	0,035
-424,803	217,170	0,127	0,149
-423,788	-68,343	-0,123	0,035
-422,773	189,395	-0,077	0,085
-421,759	48,168	0,104	-0,071
-420,744	26,595	-0,129	0,079
-419,730	752,685	-0,015	-0,030
-418,715	110,306	0,058	-0,051
-417,701	800,000	-0,046	0,106
-416,686	-200,000	-0,017	0,152
-415,671	81,891	0,065	-0,052
-414,657	-174,251	-0,155	-0,003
-413,642	-200,000	0,011	0,131
-412,628	800,000	0,012	-0,027
-411,613	-52,188	-0,044	0,015
-410,598	24,593	-0,109	0,066
-409,584	-142,385	-0,105	0,008
-408,569	-22,229	0,048	0,021
-407,555	730,651	0,025	-0,049
-406,540	139,224	0,140	0,135
-405,525	1,341	0,025	0,013
-404,511	33,795	-0,099	-0,063
-403,496	-200,000	0,023	-0,112
-402,482	-95,543	0,110	-0,021
-401,467	800,000	0,057	0,135
-400,452	-153,295	-0,107	-0,005
-399,438	81,874	0,022	-0,018
-398,423	2,295	-0,080	-0,042
-397,409	800,000	0,041	0,086
-396,394	260,140	-0,093	0,118
-395,379	58,764	0,118	0,085
-394,365	-200,000	0,005	-0,086
-393,350	299,450	-0,089	0,120
-392,336	800,000	-0,014	-0,044
-391,321	-83,054	0,090	-0,021
-390,306	385,687	-0,007	-0,011
-389,292	-200,000	0,004	-0,046
-388,277	-200,000	-0,007	0,081
-387,263	-12,908	-0,049	0,023
-386,248	-200,000	0,000	0,134
-385,233	-200,000	-0,001	-0,030
-384,219	286,319	-0,056	-0,074
-383,204	423,703	-0,079	-0,124
-382,190	-15,079	-0,006	0,003
-381,175	-200,000	-0,002	-0,024
-380,160	-200,000	-0,011	0,045
-379,146	125,959	0,061	0,057
-378,131	-86,780	0,035	0,008
-377,117	338,916	-0,079	0,113
-376,102	-103,326	-0,050	0,009
-375,088	-23,731	-0,091	0,040
-374,073	-200,000	0,024	0,141
-373,058	334,548	0,047	0,067
-372,044	155,813	0,043	0,043
-371,029	-200,000	0,008	0,121
-370,015	-46,219	-0,062	0,022
-369,000	-200,000	0,000	0,017
-367,985	27,366	-0,031	-0,019
-366,971	-200,000	-0,012	-0,090
-365,956	800,000	-0,013	0,031
-364,942	108,696	0,125	0,109
-363,927	255,517	-0,039	-0,050
-362,912	158,521	-0,143	0,146
-361,898	-200,000	-0,014	-0,101
-360,883	63,418	-0,125	0,092
-359,869	152,952	-0,052	-0,052
-358,854	800,000	-0,048	0,136
-357,839	-86,740	-0,068	0,015
-356,825	800,000	0,017	0,050
-355,810	-200,000	-0,002	0,016
-354,796	134,815	-0,044	-0,042
-353,781	273,880	0,019	-0,024
-352,766	172,068	0,039	0,041
-351,752	-160,350	0,009	0,000
-350,737	-200,000	-0,026	0,219
-349,723	228,023	0,130	0,156
-348,708	800,000	0,062	0,167
-347,693	-8,823	0,076	-0,037
-346,679	-200,000	-0,001	-0,013
-345,664	36,803	-0,088	0,057
-344,650	-189,050	0,071	0,001
-343,635	-200,000	0,002	0,028
-342,620	166,733	-0,104	0,108
-341,606	-200,000	-0,011	0,078
-340,591	-36,312	-0,121	-0,048
-339,577	266,721	-0,041	0,053
-338,562	800,000	0,026	0,072
-337,548	-200,000	-0,004	0,070
-336,533	-1,035	0,111	-0,057
-335,518	642,554	0,013	-0,025
-334,504	-77,440	0,098	0,025
-333,489	14,313	-0,027	-0,015
-332,475	-200,000	0,003	-0,082
-331,460	-136,597	-0,138	0,012
-330,445	-200,000	-0,006	0,150
-329,431	118,070	-0,083	-0,074
-328,416	108,067	-0,048	0,042
-327,402	-200,000	-0,033	0,153
-326,387	-11,080	-0,071	0,034
-325,372	800,000	0,029	0,092
-324,358	-66,185	-0,210	0,061
-323,343	194,638	-0,022	0,024
-322,329	144,447	0,051	0,050
-321,314	-200,000	-0,016	0,061
-320,299	125,704	-0,021	0,019
-319,285	83,771	0,085	-0,068
-318,270	-200,000	0,001	-0,159
-317,256	-200,000	0,034	-0,109
-316,241	800,000	0,053	-0,117
-315,226	-200,000	0,023	0,091
-314,212	22,554	-0,059	0,035
-313,197	-115,618	-0,055	0,007
-312,183	-165,219	0,080	0,003
-311,168	364,625	-0,047	0,070
-310,153	800,000	-0,049	-0,117
-309,139	-200,000	-0,020	0,105
-308,124	800,000	0,034	-0,074
-307,110	-200,000	-0,004	0,033
-306,095	-19,885	-0,017	0,008
-305,080	31,419	-0,065	0,041
-304,066	-200,000	-0,004	0,033
-303,051	-200,000	0,020	0,087
-302,037	344,242	-0,049	0,070
-301,022	-200,000	0,011	-0,120
-300,008	-161,211	-0,149	-0,006
-298,993	800,000	-0,027	0,083
-297,978	-21,067	-0,066	0,029
-296,964	90,802	0,039	-0,032
-295,949	-71,955	0,034	0,009
-294,935	304,869	-0,070	0,095
-293,920	-178,846	0,083	-0,001
-292,905	285,072	0,068	0,090
-291,891	106,366	0,049	-0,042
-290,876	-82,420	-0,101	-0,024
-289,862	548,336	0,013	0,024
-288,847	51,271	-0,143	-0,099
-287,832	-200,000	0,001	-0,035
-286,818	708,807	-0,036	0,071
-285,803	172,229	0,107	0,112
-284,789	588,048	-0,024	0,043
-283,774	-118,849	0,086	0,011
-282,759	-200,000	0,001	0,058
-281,745	340,232	0,049	-0,071
-280,730	-5,919	-0,041	0,020
-279,716	334,744	-0,065	-0,092
-278,701	-200,000	0,001	-0,077
-277,686	90,520	-0,090	0,073
-276,672	-200,000	0,013	0,044
-275,657	204,743	0,103	-0,117
-274,643	-200,000	-0,016	-0,104
-273,628	800,000	0,020	-0,062
-272,613	276,857	0,060	-0,078
-271,599	-144,605	-0,025	-0,002
-270,584	-77,944	0,069	-0,017
-269,570	-200,000	0,034	0,165
-268,555	41,915	-0,056	-0,037
-267,540	11,688	0,145	-0,081
-266,526	502,660	-0,029	-0,049
-265,511	267,216	-0,080	-0,103
-264,497	-61,624	0,035	-0,011
-263,482	56,318	-0,038	-0,027
-262,467	282,498	0,102	0,133
-261,453	160,675	0,083	0,085
-260,438	-70,157	-0,144	0,040
-259,424	-200,000	0,030	-0,140
-258,409	800,000	0,035	-0,079
-257,395	48,702	0,037	-0,025
-256,380	54,064	0,045	0,032
-255,365	117,945	0,053	0,048
-254,351	216,663	-0,058	-0,067
-253,336	800,000	0,036	0,073
-252,322	-100,711	0,077	-0,014
-251,307	102,885	0,052	-0,044
-250,292	324,243	-0,048	-0,067
-249,278	-200,000	0,000	0,091
-248,263	166,137	-0,058	-0,060
-247,249	781,386	-0,021	0,041
-246,234	-200,000	-0,020	0,124
-245,219	100,136	0,061	-0,051
-244,205	-18,222	-0,053	-0,024
-243,190	614,526	-0,034	-0,063
-242,176	59,596	0,078	0,056
-241,161	-200,000	0,021	0,109
-240,146	139,534	0,037	0,036
-239,132	-70,884	0,116	-0,032
-238,117	496,806	-0,072	-0,120
-237,103	28,354	0,036	-0,022
-236,088	-200,000	-0,008	0,057
-235,073	220,801	0,128	0,149
-234,059	501,063	0,081	0,137
-233,044	43,909	-0,047	0,031
-232,030	-53,369	-0,164	-0,055
-231,015	137,698	-0,096	-0,092
-230,000	-122,372	-0,068	0,008
-228,986	-200,000	0,026	-0,085
-227,971	-3,652	0,006	0,003
-226,957	391,596	0,054	0,081
-225,942	-63,952	-0,020	-0,006
-224,927	-10,487	0,052	-0,025
-223,913	-200,000	-0,023	-0,106
-222,898	-93,846	0,059	0,012
-221,884	22,778	-0,067	-0,040
-220,869	-117,385	0,082	0,011
-219,855	-200,000	-0,021	0,078
-218,840	-31,160	-0,030	-0,012
-217,825	361,830	0,125	0,183
-216,811	-200,000	-0,021	-0,135
-215,796	-119,606	-0,071	0,009
-214,782	-4,772	-0,143	-0,072
-213,767	-200,000	-0,007	-0,061
-212,752	214,759	-0,050	0,058
-211,738	411,180	-0,029	0,045
-210,723	-136,588	0,186	-0,015
-209,709	-200,000	-0,012	0,056
-208,694	179,431	-0,060	0,064
-207,679	115,179	-0,018	0,016
-206,665	-200,000	-0,008	-0,039
-205,650	-200,000	-0,004	-0,021
-204,636	484,036	-0,017	-0,029
-203,621	-13,976	-0,063	-0,030
-202,606	-91,193	-0,086	0,018
-201,592	123,417	-0,152	-0,139
-200,577	-200,000	0,000	-0,038
-199,563	-200,000	0,011	-0,097
-198,548	80,961	0,174	-0,137
-197,533	227,593	0,145	0,172
-196,519	288,314	0,028	0,037
-195,504	800,000	-0,040	-0,108
-194,490	49,346	-0,030	0,021
-193,475	-103,393	-0,039	-0,007
-192,460	-200,000	0,003	0,150
-191,446	-137,419	0,104	0,008
-190,431	800,000	0,035	0,074
-189,417	-69,353	-0,024	-0,007
-188,402	-35,056	0,043	-0,017
-187,387	-58,117	-0,021	0,006
-186,373	227,231	0,033	-0,040
-185,358	53,576	0,026	-0,018
-184,344	-2,180	0,122	0,062
-183,329	-54,417	-0,036	0,012
-182,315	17,073	0,131	-0,075
-181,300	-200,000	0,009	-0,040
-180,285	-200,000	-0,002	-0,010
-179,271	800,000	-0,007	0,013
-178,256	-93,178	0,102	0,020
-177,242	-106,149	-0,047	-0,008
-176,227	-170,996	-0,064	-0,002
-175,212	-200,000	0,002	-0,066
-174,198	-200,000	-0,001	0,063
-173,183	-67,174	-0,100	-0,029
-172,169	-7,816	-0,057	0,028
-171,154	-200,000	0,010	-0,112
-170,139	346,229	-0,008	0,011
-169,125	21,255	0,073	0,043
-168,110	190,323	0,073	0,080
-167,096	-200,000	0,001	-0,030
-166,081	75,758	0,149	0,115
-165,066	489,510	-0,048	-0,080
-164,052	594,757	-0,016	-0,028
-163,037	289,343	0,074	-0,098
-162,023	-78,590	-0,032	0,008
-161,008	800,000	-0,043	0,129
-159,993	800,000	0,006	0,018
-158,979	-164,955	-0,116	0,004
-157,964	-200,000	0,002	0,021
-156,950	-200,000	0,001	-0,154
-155,935	213,120	-0,042	0,048
-154,920	570,638	-0,083	-0,148
-153,906	-200,000	0,019	0,068
-152,891	620,285	-0,046	0,085
-151,877	141,860	-0,056	0,054
-150,862	85,939	0,040	0,032
-149,847	800,000	0,025	0,079
-148,833	505,306	0,057	-0,096
-147,818	-33,266	0,107	-0,043
-146,804	119,108	0,102	0,092
-145,789	33,628	-0,040	-0,025
-144,775	-200,000	0,003	0,030
-143,760	234,870	0,053	-0,064
-142,745	648,507	0,044	-0,082
-141,731	140,421	0,125	-0,120
-140,716	400,824	0,041	-0,063
-139,702	-97,800	0,075	0,014
-138,687	151,758	0,045	-0,044
-137,672	-33,295	-0,042	0,017
-136,658	-54,164	0,002	0,001
-135,643	-200,000	-0,042	-0,149
-134,629	-106,909	-0,127	-0,020
-133,614	393,979	0,067	0,101
-132,599	-119,723	0,157	-0,019
-131,585	-200,000	0,008	0,181
-130,570	214,251	0,054	0,063
-129,556	52,296	-0,078	-0,054
-128,541	-130,076	-0,118	0,012
-127,526	-69,436	0,064	0,018
-126,512	10,751	-0,042	-0,023
-125,497	740,054	0,054	0,106
-124,483	349,862	0,039	0,056
-123,468	296,542	0,030	-0,040
-122,453	108,125	-0,137	-0,118
-121,439	134,716	0,082	-0,078
-120,424	800,000	-0,026	0,059
-119,410	-200,000	0,010	0,056
-118,395	408,527	0,061	-0,094
