DTS Sentinel unit serial number:	SN410029Multiplexer serial number:	ORYXHardware model number:	OX2-SRSoftware version number:	ORYX F/W v4,00 Oryx Data Collector v3.7.2.0data status	okinstallation	B4 Nyhavnadifferential loss correction	single-endedforward channel	channel 2reverse channel	N/Adate	2023/12/18time	21:10:13forward acquisition time	300,00reverse acquisition time	0,00gamma	499,1914k internal	0,3124k external	0,3124temperature offset calibration	1,0000default loss term (dB/km)	0,3820temperature slope calibration	1,0000multiplexer offset coefficient	1,0000multiplexer slope coefficient	1,0000fibre end	0,00T internal ref (°C)	21,84T ext. ref 1 (°C)	7,19T ext. ref 2 (°C)	7,17length (m)	temperature (°C)	Stokes	anti-Stokes-744,400	497,507	-0,048	-0,083
-743,385	188,551	-0,159	0,178
-742,371	-200,000	0,036	-0,154
-741,356	-37,013	-0,260	0,103
-740,342	37,286	-0,034	0,022
-739,327	-79,736	-0,302	0,075
-738,312	-200,000	0,002	-0,135
-737,298	32,387	-0,333	0,214
-736,283	-200,000	-0,018	-0,148
-735,269	-168,730	-0,132	0,004
-734,254	800,000	0,006	0,020
-733,239	-17,577	-0,234	-0,109
-732,225	163,920	-0,057	0,060
-731,210	-48,712	-0,083	0,030
-730,196	615,595	-0,045	0,085
-729,181	800,000	0,022	-0,045
-728,167	-200,000	0,007	0,074
-727,152	32,950	0,053	-0,034
-726,137	243,465	-0,123	-0,154
-725,123	-200,000	-0,026	-0,112
-724,108	415,017	-0,094	-0,150
-723,094	30,010	-0,066	0,042
-722,079	80,957	-0,098	0,079
-721,064	746,596	0,071	-0,144
-720,050	-200,000	0,007	-0,029
-719,035	77,284	-0,080	-0,063
-718,021	800,000	-0,072	-0,171
-717,006	73,959	-0,125	-0,098
-715,991	148,795	-0,129	-0,130
-714,977	181,207	0,053	-0,058
-713,962	-49,836	-0,021	0,007
-712,948	18,153	-0,114	0,067
-711,933	800,000	0,027	-0,079
-710,918	-108,399	-0,172	-0,027
-709,904	-95,701	0,066	0,013
-708,889	-160,151	-0,126	-0,005
-707,875	-132,622	-0,049	0,005
-706,860	89,518	0,025	0,020
-705,845	-27,845	0,123	0,053
-704,831	-200,000	-0,032	-0,148
-703,816	273,505	-0,042	0,055
-702,802	-200,000	0,019	-0,122
-701,787	-11,923	0,044	-0,021
-700,772	648,595	-0,068	-0,130
-699,758	800,000	0,050	-0,108
-698,743	36,002	-0,070	0,046
-697,729	17,873	0,041	0,024
-696,714	-200,000	-0,011	-0,161
-695,699	-77,150	-0,042	0,011
-694,685	18,234	-0,084	0,050
-693,670	-200,000	-0,005	0,042
-692,656	-200,000	0,010	0,070
-691,641	621,929	0,030	0,057
-690,627	179,522	-0,084	0,092
-689,612	800,000	-0,054	0,134
-688,597	-96,740	0,118	-0,023
-687,583	-200,000	-0,025	-0,098
-686,568	800,000	0,040	0,096
-685,554	180,487	0,038	0,042
-684,539	302,001	0,029	0,040
-683,524	119,508	-0,055	-0,051
-682,510	-200,000	-0,006	0,072
-681,495	532,781	-0,091	-0,162
-680,481	800,000	0,029	-0,087
-679,466	-117,538	-0,163	0,022
-678,451	51,071	0,050	0,035
-677,437	-200,000	0,014	-0,093
-676,422	154,127	0,033	0,034
-675,408	-143,618	-0,065	-0,005
-674,393	-140,576	-0,144	-0,011
-673,378	92,343	-0,026	-0,022
-672,364	283,119	-0,040	-0,053
-671,349	800,000	-0,062	-0,159
-670,335	170,465	-0,031	-0,033
-669,320	-148,532	-0,058	0,003
-668,305	-168,101	-0,134	-0,004
-667,291	267,032	0,033	0,043
-666,276	84,381	-0,047	-0,038
-665,262	193,158	-0,077	-0,087
-664,247	149,378	-0,012	-0,012
-663,232	-91,949	0,111	-0,023
-662,218	-150,138	0,062	0,004
-661,203	75,897	-0,050	0,040
-660,189	-200,000	-0,017	0,186
-659,174	-200,000	0,025	0,136
-658,159	-51,459	0,031	-0,011
-657,145	-19,125	-0,110	0,051
-656,130	-93,507	-0,125	0,026
-655,116	538,312	0,018	-0,032
-654,101	-21,344	0,077	-0,035
-653,086	383,901	0,028	-0,043
-652,072	-48,411	-0,045	-0,016
-651,057	-200,000	0,018	0,076
-650,043	169,291	0,062	0,066
-649,028	-200,000	-0,017	0,090
-648,014	-200,000	0,010	-0,051
-646,999	-200,000	-0,004	-0,034
-645,984	-79,008	-0,080	0,020
-644,970	-114,806	0,036	-0,005
-643,955	171,183	0,009	0,009
-642,941	97,407	-0,092	-0,079
-641,926	-200,000	0,044	-0,182
-640,911	-105,180	-0,083	-0,014
-639,897	708,001	0,027	0,053
-638,882	-120,848	0,199	-0,025
-637,868	-95,950	0,151	0,030
-636,853	-41,169	-0,153	-0,058
-635,838	167,585	-0,077	-0,081
-634,824	172,485	0,029	-0,031
-633,809	-200,000	-0,009	-0,074
-632,795	-9,068	0,046	0,023
-631,780	125,247	0,084	0,078
-630,765	204,569	0,022	0,026
-629,751	526,962	-0,018	-0,032
-628,736	84,758	0,042	0,034
-627,722	800,000	-0,035	-0,095
-626,707	-200,000	0,005	-0,043
-625,692	-107,201	0,090	-0,014
-624,678	497,390	0,023	0,039
-623,663	-21,779	-0,106	0,048
-622,649	273,294	-0,008	-0,011
-621,634	5,999	-0,036	-0,020
-620,619	-200,000	0,009	0,037
-619,605	479,308	-0,052	-0,088
-618,590	76,380	0,085	-0,067
-617,576	375,400	0,025	-0,038
-616,561	-20,579	-0,059	0,027
-615,546	-200,000	-0,014	-0,176
-614,532	165,152	-0,066	-0,069
-613,517	800,000	-0,060	-0,136
-612,503	130,722	0,032	0,030
-611,488	-200,000	-0,008	-0,168
-610,474	126,380	-0,022	0,021
-609,459	-123,813	-0,106	-0,012
-608,444	-22,628	-0,107	0,048
-607,430	-200,000	0,029	-0,149
-606,415	-139,661	-0,061	-0,005
-605,401	800,000	0,044	0,099
-604,386	-65,804	0,021	-0,006
-603,371	-200,000	0,000	0,003
-602,357	-200,000	0,004	0,083
-601,342	477,203	0,038	-0,064
-600,328	755,356	-0,029	-0,059
-599,313	165,169	-0,110	-0,116
-598,298	471,890	0,051	-0,085
-597,284	621,444	-0,026	0,048
-596,269	16,883	0,072	-0,042
-595,255	800,000	-0,038	0,097
-594,240	267,850	0,061	-0,079
-593,225	-200,000	0,014	-0,111
-592,211	800,000	-0,051	0,123
-591,196	-161,893	-0,146	0,005
-590,182	-48,971	0,047	0,017
-589,167	-27,841	0,160	-0,068
-588,152	-11,245	-0,164	0,080
-587,138	175,854	0,029	-0,032
-586,123	166,157	-0,113	-0,119
-585,109	-7,152	-0,087	0,044
-584,094	-200,000	-0,000	0,015
-583,079	275,874	0,035	-0,046
-582,065	-57,516	-0,158	0,051
-581,050	102,195	-0,080	0,069
-580,036	-18,685	0,017	-0,008
-579,021	24,300	-0,135	0,083
-578,006	-200,000	-0,018	-0,128
-576,992	106,561	0,072	0,064
-575,977	-200,000	0,001	-0,108
-574,963	-200,000	0,015	0,110
-573,948	172,910	-0,066	-0,071
-572,934	-113,906	0,004	-0,001
-571,919	800,000	0,034	0,070
-570,904	135,988	-0,076	0,073
-569,890	800,000	0,028	0,088
-568,875	-58,250	0,246	0,079
-567,861	-64,360	0,044	0,013
-566,846	800,000	0,017	-0,052
-565,831	800,000	-0,034	-0,087
-564,817	99,207	-0,094	0,080
-563,802	70,427	-0,040	0,031
-562,788	-8,955	-0,009	-0,005
-561,773	-148,378	0,069	-0,004
-560,758	-200,000	0,009	0,079
-559,744	175,980	0,047	-0,050
-558,729	-74,327	-0,154	-0,041
-557,715	114,179	-0,047	0,043
-556,700	800,000	0,019	0,061
-555,685	-114,438	-0,088	-0,012
-554,671	-128,338	-0,139	-0,014
-553,656	15,307	0,081	0,047
-552,642	645,078	-0,048	0,091
-551,627	78,526	0,025	0,020
-550,612	-139,458	-0,051	0,004
-549,598	-106,206	-0,041	0,007
-548,583	-70,769	-0,127	-0,035
-547,569	97,074	0,024	-0,021
-546,554	-200,000	-0,008	0,057
-545,539	313,308	0,076	0,105
-544,525	-111,486	-0,046	-0,007
-543,510	47,990	-0,072	-0,050
-542,496	-47,548	0,043	0,016
-541,481	-101,417	-0,079	0,014
-540,466	55,366	-0,029	-0,021
-539,452	127,397	0,034	-0,032
-538,437	253,032	0,077	0,097
-537,423	226,267	0,053	0,063
-536,408	800,000	-0,044	0,093
-535,393	-71,974	-0,164	-0,045
-534,379	-200,000	0,004	-0,124
-533,364	-200,000	0,000	0,036
-532,350	-161,336	0,045	0,002
-531,335	190,562	0,065	-0,072
-530,321	583,777	-0,042	0,077
-529,306	402,126	0,038	0,059
-528,291	78,554	-0,044	0,035
-527,277	160,703	-0,130	0,135
-526,262	529,884	-0,096	-0,168
-525,248	-64,911	-0,115	0,034
-524,233	336,848	-0,056	0,080
-523,218	-200,000	0,027	-0,111
-522,204	77,009	0,070	0,055
-521,189	-64,786	0,078	0,023
-520,175	-40,562	-0,127	-0,048
-519,160	-48,661	0,078	0,028
-518,145	-23,337	-0,014	0,006
-517,131	23,653	-0,093	0,057
-516,116	-78,555	-0,045	-0,011
-515,102	-200,000	-0,020	0,146
-514,087	-26,329	-0,057	-0,025
-513,072	-200,000	0,026	-0,106
-512,058	575,759	0,057	-0,104
-511,043	-53,859	-0,060	-0,020
-510,029	526,313	-0,030	0,052
-509,014	-14,837	0,086	-0,041
-507,999	546,312	0,054	0,096
-506,985	-200,000	0,019	-0,115
-505,970	179,637	0,109	-0,118
-504,956	1,030	-0,169	-0,089
-503,941	-165,085	0,083	0,003
-502,926	387,129	0,022	0,034
-501,912	766,406	0,056	0,113
-500,897	-200,000	-0,007	0,090
-499,883	-200,000	0,010	0,067
-498,868	-94,875	-0,043	-0,009
-497,853	50,057	-0,059	-0,041
-496,839	-7,781	0,040	-0,020
-495,824	-58,935	0,084	0,027
-494,810	-16,999	0,070	0,032
-493,795	-52,162	-0,087	-0,030
-492,781	57,524	0,047	0,034
-491,766	-200,000	0,019	-0,109
-490,751	800,000	-0,040	-0,096
-489,737	-69,503	0,043	0,012
-488,722	800,000	0,017	0,046
-487,708	800,000	-0,051	-0,123
-486,693	650,323	-0,014	0,026
-485,678	-8,996	-0,160	0,079
-484,664	-200,000	0,024	0,140
-483,649	59,048	0,150	-0,109
-482,635	195,735	0,063	-0,070
-481,620	84,697	0,076	-0,062
-480,605	-200,000	0,016	0,087
-479,591	-200,000	0,026	0,133
-478,576	-200,000	0,040	0,154
-477,562	344,412	0,078	0,113
-476,547	-200,000	-0,025	0,119
-475,532	-200,000	0,000	-0,020
-474,518	154,750	0,112	-0,113
-473,503	-200,000	0,021	-0,074
-472,489	-200,000	0,022	0,087
-471,474	125,204	0,059	-0,055
-470,459	613,784	-0,051	0,095
-469,445	471,303	-0,082	-0,137
-468,430	78,340	0,128	-0,101
-467,416	-104,980	-0,039	0,007
-466,401	-200,000	-0,015	-0,048
-465,386	-200,000	-0,007	0,078
-464,372	-177,264	-0,073	0,001
-463,357	199,436	-0,097	-0,110
-462,343	352,352	-0,076	-0,111
-461,328	-72,343	0,137	0,037
-460,313	14,407	0,133	-0,076
-459,299	662,381	0,052	0,100
-458,284	107,611	0,131	0,115
-457,270	-200,000	0,008	0,186
-456,255	-114,869	-0,120	-0,017
-455,241	32,578	0,018	0,012
-454,226	-200,000	-0,004	-0,023
-453,211	-29,099	-0,069	0,029
-452,197	-55,479	0,127	-0,042
-451,182	9,450	0,109	0,060
-450,168	98,067	-0,042	0,036
-449,153	-64,394	0,088	0,026
-448,138	-200,000	0,005	-0,082
-447,124	128,665	0,049	-0,046
-446,109	-200,000	-0,031	-0,106
-445,095	-200,000	-0,013	0,096
-444,080	-155,289	0,147	-0,007
-443,065	355,881	0,080	0,117
-442,051	-200,000	0,033	-0,157
-441,036	-200,000	-0,006	-0,130
-440,022	800,000	-0,028	-0,082
-439,007	28,318	-0,100	-0,062
-437,992	594,470	-0,041	0,074
-436,978	-46,608	0,137	0,049
-435,963	35,619	0,049	0,032
-434,949	800,000	0,014	0,046
-433,934	-200,000	-0,000	-0,088
-432,919	-119,041	-0,101	-0,013
-431,905	800,000	-0,014	-0,029
-430,890	-48,893	-0,117	-0,041
-429,876	-14,173	-0,043	0,020
-428,861	111,029	0,100	0,088
-427,846	800,000	-0,091	-0,195
-426,832	136,273	-0,020	-0,019
-425,817	-200,000	0,019	-0,099
-424,803	-29,809	-0,112	-0,047
-423,788	-200,000	-0,008	-0,098
-422,773	800,000	-0,060	-0,155
-421,759	190,576	-0,112	-0,124
-420,744	-83,683	-0,036	0,008
-419,730	-170,237	-0,161	-0,004
-418,715	-200,000	-0,011	-0,074
-417,701	-200,000	0,004	-0,167
-416,686	320,619	-0,025	-0,035
-415,671	-200,000	-0,004	0,067
-414,657	800,000	0,015	-0,048
-413,642	577,698	0,068	0,123
-412,628	30,252	0,109	0,068
-411,613	-21,808	0,094	0,042
-410,598	61,686	0,016	-0,012
-409,584	422,065	0,047	-0,074
-408,569	-157,324	0,146	-0,006
-407,555	-200,000	0,007	-0,088
-406,540	-200,000	0,015	0,100
-405,525	61,344	-0,065	0,048
-404,511	3,406	0,060	0,032
-403,496	30,464	0,070	0,044
-402,482	139,377	0,052	-0,051
-401,467	-200,000	-0,008	-0,032
-400,452	745,444	0,042	0,085
-399,438	23,453	-0,080	0,048
-398,423	8,571	-0,045	-0,025
-397,409	-33,228	-0,044	-0,018
-396,394	-164,696	0,057	-0,002
-395,379	498,575	0,014	0,024
-394,365	-200,000	0,010	0,147
-393,350	-200,000	-0,017	0,058
-392,336	-200,000	-0,009	-0,060
-391,321	-88,773	-0,059	-0,013
-390,306	-59,083	-0,073	-0,023
-389,292	9,035	-0,110	-0,061
-388,277	-200,000	0,005	0,047
-387,263	223,904	0,066	0,079
-386,248	-26,751	0,026	0,011
-385,233	-200,000	0,028	0,128
-384,219	-43,507	0,044	0,016
-383,204	707,379	-0,044	-0,085
-382,190	800,000	-0,011	-0,030
-381,175	-200,000	0,022	0,081
-380,160	225,338	-0,004	-0,005
-379,146	-21,436	-0,218	-0,097
-378,131	35,316	-0,026	-0,017
-377,117	797,990	-0,048	-0,098
-376,102	11,446	-0,102	0,057
-375,088	238,635	-0,036	-0,044
-374,073	24,652	0,157	0,095
-373,058	-200,000	-0,022	-0,102
-372,044	-27,064	-0,045	0,019
-371,029	340,671	-0,028	0,040
-370,015	-28,887	0,059	0,025
-369,000	-126,162	0,061	-0,007
-367,985	-148,645	0,016	0,001
-366,971	800,000	-0,074	-0,164
-365,956	-30,187	0,183	-0,076
-364,942	232,837	-0,049	0,060
-363,927	161,704	0,032	-0,033
-362,912	-23,664	0,077	0,034
-361,898	800,000	0,033	0,068
-360,883	-200,000	0,004	-0,086
-359,869	193,922	-0,024	-0,026
-358,854	301,784	-0,009	0,012
-357,839	-89,506	0,080	-0,017
-356,825	83,542	0,127	0,101
-355,810	-110,880	0,109	0,016
-354,796	-103,190	0,013	0,002
-353,781	84,541	0,084	0,068
-352,766	-200,000	-0,021	-0,144
-351,752	87,568	0,001	-0,001
-350,737	-93,309	0,120	-0,024
-349,723	-200,000	-0,027	0,089
-348,708	-200,000	0,021	0,080
-347,693	-200,000	0,008	-0,164
-346,679	-200,000	-0,007	-0,041
-345,664	-200,000	-0,001	-0,031
-344,650	-200,000	-0,002	-0,128
-343,635	800,000	0,018	0,047
-342,620	40,176	-0,111	-0,073
-341,606	14,291	-0,039	-0,022
-340,591	695,579	0,028	0,054
-339,577	177,943	0,057	0,061
-338,562	800,000	0,035	0,073
-337,548	800,000	0,057	-0,164
-336,533	-200,000	-0,013	0,053
-335,518	-200,000	0,009	-0,055
-334,504	-25,766	0,132	0,057
-333,489	-133,745	-0,078	0,007
-332,475	-70,991	-0,065	-0,018
-331,460	57,157	0,064	-0,046
-330,445	-200,000	-0,001	-0,101
-329,431	110,719	-0,069	0,061
-328,416	-200,000	0,008	0,084
-327,402	121,854	-0,033	0,030
-326,387	-200,000	-0,005	0,098
-325,372	82,923	0,062	-0,050
-324,358	-116,610	0,081	-0,011
-323,343	186,304	-0,026	0,029
-322,329	-200,000	0,011	0,051
-321,314	123,395	-0,023	-0,021
-320,299	513,795	0,044	0,076
-319,285	-200,000	0,026	0,096
-318,270	194,859	-0,052	-0,057
-317,256	-86,685	-0,112	-0,025
-316,241	25,466	0,055	-0,033
-315,226	194,571	0,069	-0,077
-314,212	-9,605	0,067	-0,033
-313,197	800,000	-0,015	-0,039
-312,183	800,000	-0,026	0,054
-311,168	229,112	-0,061	-0,072
-310,153	-30,387	0,062	-0,026
-309,139	110,552	0,038	0,033
-308,124	125,526	0,071	-0,066
-307,110	102,177	0,098	0,084
-306,095	-145,318	0,073	0,005
-305,080	23,409	-0,063	0,038
-304,066	-200,000	0,010	0,084
-303,051	800,000	0,046	-0,109
-302,037	-102,846	-0,075	-0,013
-301,022	217,441	0,016	-0,019
-300,008	-200,000	0,000	-0,025
-298,993	-200,000	-0,003	0,128
-297,978	-2,946	0,158	-0,080
-296,964	800,000	-0,038	-0,110
-295,949	-171,533	-0,132	0,003
-294,935	-131,899	-0,126	0,012
-293,920	-132,170	-0,120	0,011
-292,905	23,296	0,113	0,068
-291,891	-200,000	-0,005	0,071
-290,876	-200,000	0,004	-0,109
-289,862	800,000	-0,071	0,186
-288,847	30,205	0,033	0,021
-287,832	-192,829	0,134	0,001
-286,818	202,786	-0,030	0,034
-285,803	-200,000	0,004	0,084
-284,789	-64,614	-0,009	0,003
-283,774	139,517	0,031	-0,030
-282,759	-10,761	0,045	0,022
-281,745	-14,478	-0,071	0,033
-280,730	-200,000	-0,027	0,183
-279,716	-200,000	0,008	-0,130
-278,701	-122,689	-0,097	-0,011
-277,686	-88,240	0,161	0,035
-276,672	800,000	0,010	0,028
-275,657	582,251	-0,030	-0,053
-274,643	-200,000	-0,021	-0,086
-273,628	310,610	-0,102	-0,140
-272,613	-200,000	0,002	-0,160
-271,599	110,952	0,077	-0,068
-270,584	-115,612	0,102	-0,014
-269,570	39,488	0,040	-0,026
-268,555	-38,134	-0,056	-0,022
-267,540	-200,000	0,009	0,071
-266,526	470,441	0,048	-0,079
-265,511	-200,000	0,009	0,052
-264,497	-200,000	-0,017	0,076
-263,482	-54,792	-0,083	0,027
-262,467	-88,026	0,044	-0,010
-261,453	-34,207	0,073	0,029
-260,438	800,000	-0,006	-0,016
-259,424	800,000	-0,044	0,124
-258,409	23,166	0,058	0,035
-257,395	63,851	0,063	-0,046
-256,380	-67,331	-0,048	-0,014
-255,365	122,901	0,025	0,023
-254,351	-116,759	-0,074	0,010
-253,336	9,332	-0,088	0,048
-252,322	365,385	-0,016	0,024
-251,307	-200,000	0,012	-0,097
-250,292	-58,165	-0,058	-0,018
-249,278	800,000	0,036	0,109
-248,263	-200,000	0,021	0,076
-247,249	-200,000	0,024	0,139
-246,234	250,215	0,105	0,131
-245,219	-171,427	-0,122	-0,003
-244,205	406,457	-0,023	0,035
-243,190	141,390	-0,079	0,077
-242,176	800,000	-0,048	-0,122
-241,161	-13,068	0,066	0,031
-240,146	-200,000	-0,012	-0,131
-239,132	111,219	-0,029	0,026
-238,117	800,000	-0,033	-0,071
-237,103	166,717	0,028	0,029
-236,088	-200,000	0,018	0,077
-235,073	25,702	0,054	-0,033
-234,059	202,978	0,118	0,134
-233,044	42,897	0,034	0,023
-232,030	-118,938	-0,073	-0,009
-231,015	78,990	-0,073	-0,057
-230,000	509,989	0,056	-0,095
-228,986	-200,000	0,013	0,050
-227,971	800,000	-0,010	-0,033
-226,957	367,605	0,099	0,147
-225,942	55,910	-0,076	0,053
-224,927	-18,124	0,090	-0,041
-223,913	125,631	-0,066	0,061
-222,898	800,000	0,027	0,058
-221,884	-200,000	0,028	0,096
-220,869	-142,807	0,072	0,005
-219,855	-200,000	0,002	0,067
-218,840	-142,976	0,158	0,011
-217,825	-200,000	0,005	-0,092
-216,811	105,071	-0,028	0,024
-215,796	456,177	-0,010	0,017
-214,782	522,002	0,010	-0,017
-213,767	410,749	-0,075	0,116
-212,752	518,148	-0,050	0,085
-211,738	591,677	0,027	0,049
-210,723	496,907	-0,013	-0,023
-209,709	96,797	-0,134	-0,112
-208,694	691,279	-0,052	0,100
-207,679	261,017	0,028	0,036
-206,665	787,239	0,027	-0,055
-205,650	320,958	0,012	-0,016
-204,636	-105,497	0,107	0,017
-203,621	-200,000	0,036	0,170
-202,606	37,777	-0,022	0,014
-201,592	518,336	0,070	0,120
-200,577	496,260	-0,119	0,201
-199,563	800,000	0,036	-0,106
-198,548	-63,888	-0,040	-0,012
-197,533	7,240	-0,126	0,068
-196,519	-200,000	0,001	0,121
-195,504	50,905	-0,152	-0,105
-194,490	151,845	0,075	-0,075
-193,475	144,230	-0,013	-0,013
-192,460	45,411	-0,079	0,053
-191,446	47,986	0,097	0,066
-190,431	-200,000	-0,014	0,097
-189,417	-21,036	-0,104	0,046
-188,402	-200,000	0,025	-0,133
-187,387	54,559	-0,094	-0,066
-186,373	-116,764	-0,189	-0,025
-185,358	13,301	0,043	-0,024
-184,344	155,162	0,045	0,046
-183,329	-153,185	0,097	-0,005
-182,315	-42,108	0,106	0,040
-181,300	20,348	0,020	0,012
-180,285	-38,508	-0,091	0,035
-179,271	80,013	0,116	-0,091
-178,256	679,349	-0,038	-0,073
-177,242	-45,981	0,111	-0,040
-176,227	-100,430	-0,030	0,005
-175,212	144,872	0,010	-0,010
-174,198	800,000	-0,004	-0,010
-173,183	-200,000	-0,008	0,080
-172,169	-145,029	0,069	0,005
-171,154	-182,236	-0,034	-0,000
-170,139	444,487	0,068	-0,110
-169,125	-200,000	-0,004	0,047
-168,110	-200,000	-0,019	0,119
-167,096	485,247	0,066	0,111
-166,081	-200,000	-0,015	-0,083
-165,066	-200,000	0,012	-0,088
-164,052	-5,636	0,010	-0,005
-163,037	-110,034	-0,087	-0,013
-162,023	-63,934	0,049	-0,014
-161,008	-43,286	0,049	-0,018
-159,993	110,259	-0,019	-0,017
-158,979	290,114	-0,069	0,091
-157,964	110,656	0,016	0,014
-156,950	-184,070	-0,117	0,001
-155,935	-52,978	0,089	-0,030
-154,920	-14,744	0,068	-0,032
-153,906	-111,355	-0,072	-0,011
-152,891	-65,387	-0,075	-0,022
-151,877	-143,330	-0,071	0,005
-150,862	427,708	-0,073	-0,115
-149,847	800,000	-0,053	0,141
-148,833	-28,661	0,038	0,016
-147,818	-200,000	0,005	0,066
-146,804	-200,000	0,008	0,204
-145,789	23,792	0,074	0,044
-144,775	800,000	-0,080	0,205
-143,760	-101,084	-0,069	-0,012
-142,745	25,469	0,049	-0,030
-141,731	800,000	-0,011	0,023
-140,716	-55,891	0,056	-0,018
-139,702	100,325	0,055	0,047
-138,687	800,000	0,044	0,128
-137,672	172,055	0,070	0,073
-136,658	-19,656	0,115	0,052
-135,643	-200,000	0,029	0,103
-134,629	800,000	0,083	-0,221
-133,614	230,391	0,058	0,069
-132,599	-134,020	0,176	0,016
-131,585	-200,000	0,026	0,126
-130,570	62,272	-0,152	0,111
-129,556	-200,000	-0,007	-0,123
-128,541	587,692	0,082	-0,147
-127,526	-83,241	-0,047	0,011
-126,512	6,184	-0,010	0,005
-125,497	-200,000	-0,010	0,066
-124,483	-115,330	0,091	-0,012
-123,468	-34,829	0,156	0,062
-122,453	-200,000	0,006	0,134
-121,439	206,474	0,053	-0,060
-120,424	446,040	0,038	-0,061
-119,410	800,000	-0,041	0,109
-118,395	15,631	-0,039	-0,022
