DTS Sentinel unit serial number:	SN410029Multiplexer serial number:	ORYXHardware model number:	OX2-SRSoftware version number:	ORYX F/W v4,00 Oryx Data Collector v3.7.2.0data status	okinstallation	B4 Nyhavnadifferential loss correction	single-endedforward channel	channel 2reverse channel	N/Adate	2023/12/19time	07:00:13forward acquisition time	300,00reverse acquisition time	0,00gamma	499,1914k internal	0,3126k external	0,3126temperature offset calibration	1,0000default loss term (dB/km)	0,3820temperature slope calibration	1,0000multiplexer offset coefficient	1,0000multiplexer slope coefficient	1,0000fibre end	0,00T internal ref (°C)	21,22T ext. ref 1 (°C)	6,53T ext. ref 2 (°C)	6,59length (m)	temperature (°C)	Stokes	anti-Stokes-744,400	-200,000	-0,006	-0,121
-743,385	44,736	-0,161	0,110
-742,371	-200,000	0,023	-0,088
-741,356	-102,806	-0,344	0,060
-740,342	800,000	-0,016	-0,040
-739,327	-42,510	-0,264	0,100
-738,312	384,298	-0,032	-0,049
-737,298	-166,111	-0,138	0,004
-736,283	-200,000	-0,014	-0,135
-735,269	-187,099	-0,308	-0,003
-734,254	-130,703	-0,122	0,012
-733,239	-66,055	-0,400	-0,118
-732,225	-43,924	0,088	-0,033
-731,210	-10,900	-0,130	-0,064
-730,196	-159,557	-0,168	0,007
-729,181	800,000	-0,013	-0,035
-728,167	-84,355	-0,220	0,051
-727,152	-121,272	0,149	-0,018
-726,137	-174,061	0,123	0,003
-725,123	210,551	0,071	-0,083
-724,108	-190,350	-0,113	0,001
-723,094	4,270	-0,135	-0,073
-722,079	800,000	-0,023	0,072
-721,064	-200,000	0,026	0,140
-720,050	30,388	-0,033	0,021
-719,035	61,021	0,112	-0,083
-718,021	-50,847	-0,236	0,082
-717,006	-200,000	0,024	-0,207
-715,991	-200,000	-0,042	-0,160
-714,977	103,181	-0,076	-0,067
-713,962	-200,000	-0,013	-0,161
-712,948	800,000	0,043	-0,140
-711,933	800,000	-0,034	-0,089
-710,918	-200,000	-0,005	-0,081
-709,904	-200,000	-0,017	0,101
-708,889	96,281	-0,123	-0,105
-707,875	20,876	-0,146	-0,088
-706,860	-200,000	-0,022	0,136
-705,845	-200,000	0,030	0,101
-704,831	38,100	-0,081	0,053
-703,816	31,536	-0,061	0,039
-702,802	-79,405	-0,096	0,024
-701,787	-200,000	-0,012	0,138
-700,772	-21,078	0,144	0,065
-699,758	50,200	-0,099	-0,070
-698,743	45,328	0,093	0,064
-697,729	126,320	-0,048	-0,046
-696,714	-200,000	0,002	0,034
-695,699	191,695	0,053	0,060
-694,685	800,000	-0,010	-0,031
-693,670	733,898	-0,033	0,067
-692,656	-15,937	0,016	0,007
-691,641	-80,347	-0,108	-0,027
-690,627	610,844	0,013	-0,024
-689,612	-200,000	-0,020	0,116
-688,597	435,589	-0,053	-0,085
-687,583	166,005	0,028	0,029
-686,568	-200,000	0,024	-0,089
-685,554	800,000	-0,073	-0,205
-684,539	783,264	0,032	0,064
-683,524	-99,435	0,058	-0,011
-682,510	-54,518	0,072	-0,024
-681,495	-200,000	0,016	0,070
-680,481	-32,927	-0,017	-0,007
-679,466	-98,188	-0,087	0,016
-678,451	148,333	-0,048	0,048
-677,437	800,000	-0,014	-0,040
-676,422	274,199	0,047	0,062
-675,408	351,706	-0,066	-0,097
-674,393	727,125	-0,020	0,040
-673,378	800,000	-0,035	-0,100
-672,364	-127,401	-0,162	-0,017
-671,349	227,235	-0,018	0,022
-670,335	-200,000	-0,018	-0,082
-669,320	800,000	-0,044	-0,115
-668,305	10,101	-0,047	-0,026
-667,291	79,459	-0,039	-0,031
-666,276	-200,000	0,008	-0,083
-665,262	0,973	0,069	-0,036
-664,247	135,144	0,082	-0,079
-663,232	160,533	-0,045	-0,047
-662,218	578,489	0,044	0,080
-661,203	800,000	0,051	0,129
-660,189	-126,056	-0,085	-0,009
-659,174	-200,000	0,002	0,027
-658,159	13,148	-0,078	-0,045
-657,145	800,000	-0,072	-0,189
-656,130	242,347	-0,036	-0,045
-655,116	-200,000	0,024	0,101
-654,101	-200,000	-0,000	-0,017
-653,086	-200,000	0,002	-0,059
-652,072	-160,844	-0,091	-0,003
-651,057	154,671	-0,089	-0,090
-650,043	577,314	-0,080	-0,147
-649,028	247,295	-0,052	-0,066
-648,014	-200,000	0,005	0,123
-646,999	-90,326	-0,059	0,013
-645,984	800,000	-0,055	0,116
-644,970	105,375	0,027	-0,024
-643,955	264,800	-0,097	-0,126
-642,941	-149,277	-0,066	-0,004
-641,926	-11,818	-0,041	-0,020
-640,911	-59,889	0,091	0,029
-639,897	800,000	0,017	-0,052
-638,882	20,901	-0,127	-0,076
-637,868	-200,000	-0,016	0,088
-636,853	-200,000	-0,007	-0,089
-635,838	-49,213	0,163	-0,057
-634,824	-200,000	0,020	-0,108
-633,809	547,268	0,013	-0,024
-632,795	-200,000	0,009	0,116
-631,780	-200,000	0,020	0,095
-630,765	-166,673	-0,164	-0,005
-629,751	-89,568	-0,085	-0,018
-628,736	551,590	-0,060	-0,107
-627,722	800,000	-0,039	-0,092
-626,707	-200,000	0,035	-0,117
-625,692	115,974	-0,119	0,108
-624,678	800,000	-0,045	0,129
-623,663	800,000	0,057	-0,182
-622,649	800,000	-0,036	-0,119
-621,634	142,496	0,038	-0,038
-620,619	-75,399	-0,231	0,061
-619,605	-16,781	0,082	0,038
-618,590	-119,505	0,054	-0,007
-617,576	-200,000	-0,033	0,194
-616,561	573,880	-0,082	0,148
-615,546	203,807	0,072	-0,082
-614,532	474,496	-0,011	0,018
-613,517	-134,519	-0,041	-0,004
-612,503	-200,000	0,007	0,073
-611,488	-37,135	0,044	-0,017
-610,474	800,000	0,035	0,071
-609,459	-200,000	0,025	0,174
-608,444	125,828	-0,106	0,099
-607,430	283,041	0,019	-0,025
-606,415	289,616	-0,082	-0,110
-605,401	-39,737	-0,091	-0,035
-604,386	-101,195	-0,068	-0,012
-603,371	800,000	-0,043	0,113
-602,357	-37,301	0,139	-0,055
-601,342	191,659	-0,080	-0,090
-600,328	-159,823	0,025	0,001
-599,313	-200,000	0,016	0,000
-598,298	-200,000	-0,014	-0,060
-597,284	-200,000	0,034	0,125
-596,269	-59,528	0,127	-0,040
-595,255	9,261	-0,149	-0,083
-594,240	44,569	-0,033	-0,022
-593,225	-92,820	-0,068	0,014
-592,211	-58,570	-0,092	-0,029
-591,196	-200,000	0,019	-0,144
-590,182	-66,446	-0,135	0,039
-589,167	-200,000	-0,019	0,156
-588,152	-97,088	0,077	-0,015
-587,138	-200,000	-0,003	-0,044
-586,123	-134,826	0,073	-0,006
-585,109	-102,660	-0,079	-0,014
-584,094	377,939	0,031	-0,048
-583,079	142,843	0,112	-0,110
-582,065	34,900	-0,051	0,033
-581,050	800,000	-0,052	0,127
-580,036	101,417	-0,096	-0,082
-579,021	102,858	-0,069	-0,060
-578,006	-200,000	-0,009	0,053
-576,992	-200,000	0,012	-0,116
-575,977	217,034	0,066	-0,077
-574,963	800,000	0,017	0,040
-573,948	508,863	-0,052	0,090
-572,934	6,896	-0,038	0,021
-571,919	-200,000	-0,016	0,125
-570,904	158,845	-0,134	-0,138
-569,890	800,000	0,033	0,082
-568,875	206,631	0,071	-0,082
-567,861	-200,000	0,024	0,083
-566,846	366,785	-0,036	0,055
-565,831	-200,000	-0,017	-0,092
-564,817	-124,468	0,070	-0,008
-563,802	-183,998	-0,083	0,001
-562,788	-29,285	0,045	0,019
-561,773	45,787	-0,099	-0,068
-560,758	-67,089	0,074	0,021
-559,744	53,723	0,052	0,037
-558,729	-200,000	0,021	0,075
-557,715	-200,000	-0,004	-0,120
-556,700	-10,970	0,083	-0,040
-555,685	-64,013	-0,019	0,006
-554,671	-134,770	0,103	0,009
-553,656	-200,000	0,001	-0,098
-552,642	800,000	-0,003	-0,006
-551,627	151,796	-0,080	0,081
-550,612	207,501	-0,043	-0,049
-549,598	-193,273	-0,074	0,000
-548,583	-62,502	-0,082	-0,025
-547,569	-200,000	0,007	-0,081
-546,554	-200,000	-0,020	-0,137
-545,539	-111,448	0,073	0,011
-544,525	-200,000	0,022	0,109
-543,510	103,056	-0,045	-0,039
-542,496	-66,981	-0,057	-0,017
-541,481	-26,966	-0,040	0,017
-540,466	169,766	0,043	-0,045
-539,452	594,725	-0,045	0,083
-538,437	29,098	0,020	-0,012
-537,423	-98,328	-0,139	0,026
-536,408	-200,000	-0,010	-0,136
-535,393	214,098	0,011	-0,013
-534,379	-200,000	-0,032	-0,141
-533,364	-200,000	0,028	0,112
-532,350	-17,405	-0,043	-0,020
-531,335	37,176	0,112	0,073
-530,321	800,000	0,037	0,080
-529,306	464,803	0,062	0,102
-528,291	620,390	-0,027	-0,051
-527,277	479,867	-0,049	0,082
-526,262	800,000	0,037	0,087
-525,248	-61,093	0,133	0,041
-524,233	800,000	0,012	0,030
-523,218	-27,497	0,102	-0,043
-522,204	101,476	-0,031	0,027
-521,189	199,887	0,036	0,041
-520,175	334,407	-0,072	-0,103
-519,160	83,161	-0,069	0,055
-518,145	800,000	-0,041	-0,104
-517,131	366,770	0,040	-0,059
-516,116	-200,000	-0,009	-0,111
-515,102	-136,155	0,066	0,006
-514,087	-3,565	0,073	0,038
-513,072	-200,000	0,022	-0,097
-512,058	-158,574	-0,241	-0,010
-511,043	-200,000	-0,031	-0,153
-510,029	-99,550	0,146	0,027
-509,014	-166,965	-0,046	-0,001
-507,999	17,404	-0,114	-0,067
-506,985	-53,070	-0,045	-0,015
-505,970	-8,096	-0,042	-0,021
-504,956	-200,000	-0,001	-0,110
-503,941	271,760	0,051	0,067
-502,926	33,653	-0,113	0,072
-501,912	372,695	-0,057	0,086
-500,897	123,967	-0,079	0,074
-499,883	-200,000	0,027	-0,094
-498,868	452,082	0,034	0,055
-497,853	-114,603	-0,076	0,011
-496,839	-172,692	0,137	-0,003
-495,824	-71,147	0,025	-0,007
-494,810	-200,000	0,009	0,065
-493,795	-184,973	-0,060	-0,001
-492,781	-3,249	-0,169	-0,087
-491,766	-200,000	0,039	0,136
-490,751	-125,888	-0,133	-0,015
-489,737	-200,000	-0,006	-0,070
-488,722	-200,000	-0,012	0,056
-487,708	144,517	0,062	-0,061
-486,693	45,357	-0,036	0,024
-485,678	14,165	0,066	0,038
-484,664	-200,000	0,004	-0,066
-483,649	713,550	-0,018	-0,034
-482,635	800,000	-0,012	0,025
-481,620	-127,184	0,239	0,025
-480,605	254,487	0,050	0,063
-479,591	327,077	0,074	0,105
-478,576	-200,000	-0,016	-0,147
-477,562	-44,078	-0,061	0,022
-476,547	18,928	-0,140	-0,083
-475,532	17,420	0,108	-0,063
-474,518	-8,952	-0,031	0,015
-473,503	461,837	-0,013	0,021
-472,489	-85,073	0,111	0,025
-471,474	-164,449	-0,168	-0,006
-470,459	-200,000	-0,031	0,141
-469,445	-62,292	0,050	0,015
-468,430	-200,000	-0,005	-0,072
-467,416	-150,717	-0,041	0,002
-466,401	-178,997	-0,058	-0,001
-465,386	-17,790	0,044	-0,020
-464,372	-96,037	-0,007	0,001
-463,357	-200,000	0,012	-0,040
-462,343	147,864	-0,067	0,067
-461,328	242,846	0,081	-0,100
-460,313	800,000	0,066	0,183
-459,299	433,564	-0,039	-0,062
-458,284	-101,814	-0,007	-0,001
-457,270	212,465	0,123	-0,143
-456,255	-200,000	-0,006	-0,052
-455,241	243,102	-0,083	-0,103
-454,226	-3,644	0,117	-0,060
-453,211	-200,000	-0,009	-0,039
-452,197	784,342	-0,018	0,037
-451,182	123,393	0,094	0,087
-450,168	191,309	-0,066	0,073
-449,153	366,537	0,034	-0,051
-448,138	800,000	0,104	-0,215
-447,124	-114,794	0,014	-0,002
-446,109	-14,490	0,042	0,020
-445,095	28,117	-0,079	0,049
-444,080	302,705	0,045	0,061
-443,065	-200,000	0,045	0,174
-442,051	25,436	0,114	0,069
-441,036	66,364	-0,063	-0,047
-440,022	-168,664	-0,171	0,005
-439,007	-200,000	-0,018	-0,084
-437,992	-200,000	-0,022	0,085
-436,978	-49,107	0,163	0,057
-435,963	-88,297	0,158	0,034
-434,949	-47,116	0,136	-0,049
-433,934	-27,286	0,117	-0,050
-432,919	800,000	-0,005	0,011
-431,905	-200,000	-0,022	0,077
-430,890	-45,240	0,065	-0,024
-429,876	39,114	0,109	0,072
-428,861	-46,686	0,143	-0,051
-427,846	-113,008	-0,061	0,009
-426,832	140,115	-0,086	0,083
-425,817	557,323	0,023	-0,042
-424,803	16,566	-0,109	0,063
-423,788	-200,000	-0,023	-0,135
-422,773	104,093	0,062	-0,053
-421,759	32,923	-0,069	0,044
-420,744	54,990	0,045	0,032
-419,730	356,772	0,080	-0,117
-418,715	123,159	-0,077	-0,071
-417,701	-200,000	0,006	-0,126
-416,686	-200,000	0,024	0,130
-415,671	-200,000	-0,002	0,101
-414,657	136,435	-0,065	0,063
-413,642	800,000	-0,035	0,084
-412,628	692,769	0,038	0,074
-411,613	-200,000	-0,004	-0,046
-410,598	469,550	-0,019	-0,032
-409,584	-35,422	-0,154	0,061
-408,569	-3,080	0,091	0,046
-407,555	380,448	-0,049	0,073
-406,540	163,823	0,070	0,073
-405,525	-200,000	0,003	0,027
-404,511	152,230	-0,015	0,015
-403,496	0,220	-0,015	-0,008
-402,482	22,906	-0,019	0,011
-401,467	153,865	0,036	0,036
-400,452	-151,570	0,135	0,007
-399,438	-23,679	-0,136	0,060
-398,423	800,000	-0,026	-0,078
-397,409	86,094	-0,014	0,011
-396,394	627,207	0,058	-0,108
-395,379	800,000	-0,038	0,094
-394,365	49,525	0,152	0,105
-393,350	-200,000	0,009	0,082
-392,336	135,711	0,068	-0,065
-391,321	-21,503	-0,074	-0,033
-390,306	-72,983	-0,144	-0,039
-389,292	-200,000	-0,026	-0,107
-388,277	564,356	-0,020	-0,035
-387,263	-50,228	-0,092	-0,032
-386,248	-32,096	0,130	0,053
-385,233	-32,374	0,098	-0,040
-384,219	433,037	-0,039	-0,063
-383,204	800,000	0,024	0,074
-382,190	800,000	0,039	-0,098
-381,175	308,734	0,024	-0,033
-380,160	178,172	-0,050	0,054
-379,146	333,754	0,069	-0,099
-378,131	-88,080	-0,084	-0,018
-377,117	-31,343	-0,028	0,012
-376,102	-200,000	0,004	-0,025
-375,088	-143,980	-0,056	0,004
-374,073	43,279	-0,082	-0,055
-373,058	-38,401	-0,048	-0,019
-372,044	225,433	-0,096	0,114
-371,029	-49,668	0,058	0,020
-370,015	493,677	-0,016	0,026
-369,000	-200,000	-0,001	-0,098
-367,985	-200,000	-0,017	0,072
-366,971	-146,196	0,208	0,013
-365,956	74,464	-0,104	-0,080
-364,942	-200,000	-0,016	0,061
-363,927	800,000	-0,083	0,195
-362,912	-144,287	0,177	0,012
-361,898	-37,573	-0,020	0,008
-360,883	800,000	-0,054	-0,155
-359,869	-14,552	-0,071	-0,033
-358,854	-10,264	0,126	-0,061
-357,839	-200,000	0,021	0,074
-356,825	114,406	-0,062	0,055
-355,810	-13,968	0,048	-0,023
-354,796	617,918	-0,038	0,069
-353,781	-200,000	0,025	-0,088
-352,766	-200,000	-0,038	-0,135
-351,752	180,681	-0,057	-0,061
-350,737	186,053	-0,040	0,044
-349,723	690,445	0,077	0,148
-348,708	121,573	0,061	0,056
-347,693	164,452	0,017	-0,018
-346,679	35,550	-0,065	-0,042
-345,664	-68,827	-0,091	-0,026
-344,650	-200,000	0,008	0,097
-343,635	425,267	0,026	0,042
-342,620	800,000	0,087	0,180
-341,606	-117,309	0,118	-0,015
-340,591	186,596	-0,038	-0,041
-339,577	31,522	-0,081	-0,051
-338,562	15,130	-0,054	0,031
-337,548	-200,000	-0,050	0,169
-336,533	138,650	0,077	0,074
-335,518	169,139	-0,059	0,062
-334,504	800,000	-0,042	0,128
-333,489	581,665	-0,038	-0,069
-332,475	-200,000	0,016	0,056
-331,460	-66,777	0,090	0,026
-330,445	-104,476	0,095	-0,016
-329,431	-200,000	-0,023	0,074
-328,416	-105,290	0,066	0,011
-327,402	-200,000	-0,015	0,152
-326,387	201,879	-0,047	-0,054
-325,372	800,000	0,019	-0,049
-324,358	93,910	-0,036	-0,030
-323,343	55,427	0,108	-0,076
-322,329	-55,119	0,189	0,062
-321,314	-76,583	0,073	0,019
-320,299	581,747	-0,065	0,117
-319,285	-200,000	0,031	0,181
-318,270	-107,984	0,044	-0,007
-317,256	84,307	-0,098	0,078
-316,241	431,092	-0,018	0,029
-315,226	-24,208	0,032	-0,014
-314,212	53,970	0,046	0,033
-313,197	95,173	-0,061	0,051
-312,183	-200,000	-0,012	0,053
-311,168	-16,466	-0,091	0,042
-310,153	182,762	-0,023	-0,025
-309,139	-85,227	0,081	0,018
-308,124	-200,000	0,014	-0,090
-307,110	283,850	0,056	-0,074
-306,095	713,401	0,032	0,062
-305,080	-38,128	0,162	-0,062
-304,066	722,306	0,045	-0,087
-303,051	-200,000	-0,019	-0,101
-302,037	-200,000	-0,012	-0,065
-301,022	-200,000	0,020	0,081
-300,008	11,337	0,018	-0,010
-298,993	31,418	-0,110	0,069
-297,978	-31,001	0,029	-0,012
-296,964	-66,220	0,023	-0,007
-295,949	141,303	-0,123	-0,119
-294,935	9,524	-0,142	-0,079
-293,920	-9,016	-0,076	0,037
-292,905	753,029	-0,021	0,042
-291,891	-46,511	0,124	-0,044
-290,876	352,125	0,100	-0,145
-289,862	242,314	0,055	-0,068
-288,847	-116,173	-0,140	0,019
-287,832	156,152	-0,015	-0,016
-286,818	800,000	-0,008	-0,022
-285,803	800,000	0,037	0,101
-284,789	-200,000	-0,016	0,124
-283,774	-200,000	-0,020	-0,195
-282,759	41,129	-0,104	-0,068
-281,745	-200,000	0,009	-0,087
-280,730	-200,000	-0,022	-0,105
-279,716	122,962	0,059	-0,054
-278,701	218,692	-0,040	0,047
-277,686	-3,286	0,166	-0,084
-276,672	800,000	0,026	0,069
-275,657	-33,077	0,086	0,035
-274,643	-173,299	-0,142	0,003
-273,628	-200,000	0,019	-0,126
-272,613	-200,000	-0,003	0,047
-271,599	-22,209	0,055	-0,024
-270,584	205,504	0,016	0,018
-269,570	-200,000	-0,014	0,069
-268,555	62,113	0,124	0,090
-267,540	-173,635	0,069	-0,001
-266,526	159,801	-0,026	0,026
-265,511	-200,000	0,010	0,054
-264,497	-200,000	0,011	-0,079
-263,482	800,000	-0,025	0,066
-262,467	112,142	0,093	0,082
-261,453	140,664	0,053	-0,051
-260,438	83,692	-0,045	0,036
-259,424	-200,000	-0,018	-0,082
-258,409	-200,000	0,015	-0,152
-257,395	800,000	0,069	-0,176
-256,380	-200,000	0,037	0,152
-255,365	-73,601	0,054	0,014
-254,351	-200,000	0,008	-0,081
-253,336	-5,206	-0,120	0,060
-252,322	-200,000	0,010	-0,127
-251,307	-200,000	0,013	-0,094
-250,292	271,853	0,079	-0,102
-249,278	-73,687	-0,027	0,007
-248,263	-107,697	0,097	0,015
-247,249	-200,000	0,002	0,017
-246,234	-200,000	-0,033	-0,144
-245,219	-200,000	0,010	-0,063
-244,205	273,298	-0,072	0,093
-243,190	-200,000	-0,021	0,189
-242,176	715,324	0,045	0,088
-241,161	286,790	-0,104	-0,138
-240,146	-20,374	0,118	0,053
-239,132	-200,000	-0,003	0,019
-238,117	27,513	-0,064	0,039
-237,103	176,560	0,028	-0,030
-236,088	93,362	-0,084	-0,069
-235,073	-200,000	0,006	0,039
-234,059	-16,254	0,079	-0,037
-233,044	-152,037	-0,045	-0,002
-232,030	-200,000	-0,001	0,003
-231,015	800,000	-0,048	0,100
-230,000	341,241	-0,043	0,061
-228,986	-16,448	-0,023	-0,011
-227,971	-200,000	0,018	0,061
-226,957	13,297	-0,069	-0,039
-225,942	800,000	-0,026	0,083
-224,927	-83,210	-0,032	-0,007
-223,913	800,000	-0,046	-0,102
-222,898	-200,000	0,021	-0,092
-221,884	-200,000	0,000	-0,036
-220,869	10,194	0,138	-0,076
-219,855	-38,854	-0,044	-0,017
-218,840	-200,000	-0,015	-0,079
-217,825	336,465	0,060	-0,085
-216,811	-67,484	0,128	-0,036
-215,796	-200,000	0,003	-0,030
-214,782	-200,000	-0,000	-0,079
-213,767	-179,869	0,080	-0,001
-212,752	-101,998	-0,040	-0,007
-211,738	503,943	0,041	-0,069
-210,723	243,639	0,022	0,027
-209,709	600,780	-0,026	0,047
-208,694	-200,000	-0,014	-0,168
-207,679	-45,137	-0,094	0,034
-206,665	786,948	0,035	-0,070
-205,650	-60,656	0,041	-0,013
-204,636	-62,293	0,145	0,044
-203,621	-200,000	0,009	0,047
-202,606	-55,973	-0,129	-0,042
-201,592	463,277	0,034	0,056
-200,577	573,615	-0,045	0,081
-199,563	528,614	-0,058	0,100
-198,548	-178,379	0,132	0,002
-197,533	6,002	-0,065	0,035
-196,519	119,134	0,065	0,059
-195,504	42,875	-0,076	-0,050
-194,490	-47,452	-0,124	-0,044
-193,475	250,997	-0,056	-0,070
-192,460	-200,000	-0,020	0,079
-191,446	-200,000	0,000	0,081
-190,431	128,355	-0,081	0,075
-189,417	-200,000	-0,021	0,125
-188,402	-154,908	-0,068	-0,003
-187,387	-200,000	-0,014	-0,128
-186,373	629,255	0,015	-0,028
-185,358	-200,000	0,019	-0,098
-184,344	-93,971	0,029	0,006
-183,329	-79,211	0,071	-0,017
-182,315	-28,542	0,104	0,043
-181,300	204,369	0,070	-0,079
-180,285	-200,000	-0,026	0,123
-179,271	715,006	-0,017	-0,032
-178,256	-200,000	0,030	0,101
-177,242	-200,000	-0,001	-0,009
-176,227	-29,343	0,112	0,047
-175,212	-24,266	-0,036	-0,015
-174,198	800,000	-0,019	0,057
-173,183	-46,764	-0,071	-0,025
-172,169	-200,000	-0,016	-0,075
-171,154	-200,000	0,019	-0,067
-170,139	-1,741	0,097	-0,050
-169,125	-66,702	0,092	0,026
-168,110	-84,453	0,051	0,012
-167,096	-200,000	-0,034	0,118
-166,081	49,096	0,026	0,018
-165,066	-200,000	0,003	0,049
-164,052	684,200	-0,069	-0,132
-163,037	-59,131	0,070	0,022
-162,023	104,150	0,074	0,063
-161,008	-17,989	0,100	0,045
-159,993	-200,000	-0,046	0,149
-158,979	167,880	-0,124	0,129
-157,964	7,648	0,045	0,024
-156,950	221,653	-0,052	-0,061
-155,935	800,000	0,014	0,040
-154,920	800,000	0,019	-0,048
-153,906	23,821	0,079	0,047
-152,891	97,020	0,079	0,066
-151,877	349,867	-0,076	0,110
-150,862	110,357	-0,126	-0,110
-149,847	800,000	0,023	0,062
-148,833	-200,000	-0,005	0,109
-147,818	-200,000	-0,007	0,066
-146,804	-94,266	0,071	0,014
-145,789	-200,000	0,001	-0,016
-144,775	744,096	-0,064	-0,126
-143,760	361,650	0,107	-0,156
-142,745	-200,000	-0,020	-0,064
-141,731	-200,000	-0,021	-0,071
-140,716	-200,000	-0,018	0,144
-139,702	164,124	0,084	0,086
-138,687	800,000	-0,026	0,068
-137,672	77,460	0,024	-0,019
-136,658	-113,736	-0,120	-0,017
-135,643	623,902	-0,076	-0,141
-134,629	-200,000	-0,009	-0,138
-133,614	-200,000	-0,009	-0,078
-132,599	-200,000	-0,027	0,147
-131,585	86,880	-0,076	0,061
-130,570	-200,000	0,005	0,116
-129,556	-181,243	-0,090	-0,001
-128,541	-167,342	0,131	0,004
-127,526	477,519	-0,031	0,051
-126,512	-67,650	0,070	-0,020
-125,497	248,804	0,102	0,125
-124,483	194,777	-0,071	-0,078
-123,468	800,000	0,019	0,050
-122,453	-133,370	0,032	0,003
-121,439	-191,948	0,068	0,000
