DTS Sentinel unit serial number:	SN410029Multiplexer serial number:	ORYXHardware model number:	OX2-SRSoftware version number:	ORYX F/W v4,00 Oryx Data Collector v3.7.2.0data status	okinstallation	B4 Nyhavnadifferential loss correction	single-endedforward channel	channel 2reverse channel	N/Adate	2023/12/19time	11:00:13forward acquisition time	300,00reverse acquisition time	0,00gamma	499,1914k internal	0,3128k external	0,3128temperature offset calibration	1,0000default loss term (dB/km)	0,3820temperature slope calibration	1,0000multiplexer offset coefficient	1,0000multiplexer slope coefficient	1,0000fibre end	0,00T internal ref (°C)	19,92T ext. ref 1 (°C)	4,73T ext. ref 2 (°C)	4,65length (m)	temperature (°C)	Stokes	anti-Stokes-744,400	279,568	0,074	-0,099
-743,385	-67,002	-0,272	0,079
-742,371	-131,773	0,103	-0,010
-741,356	-22,990	-0,300	0,134
-740,342	-92,344	-0,105	-0,022
-739,327	-93,385	-0,202	0,041
-738,312	-155,414	-0,134	0,006
-737,298	-92,155	-0,268	-0,056
-736,283	-111,207	0,124	0,019
-735,269	-112,979	-0,260	0,038
-734,254	-97,743	-0,024	-0,005
-733,239	-187,306	-0,471	-0,005
-732,225	-200,000	-0,025	-0,144
-731,210	-174,039	0,110	-0,002
-730,196	-136,013	0,087	0,008
-729,181	-115,145	-0,128	0,018
-728,167	-130,037	0,060	-0,006
-727,152	-200,000	0,029	-0,104
-726,137	-70,238	-0,132	0,037
-725,123	-94,938	-0,123	0,025
-724,108	-200,000	-0,005	-0,047
-723,094	-200,000	0,002	-0,070
-722,079	406,793	-0,023	-0,036
-721,064	490,498	-0,033	-0,056
-720,050	800,000	0,045	-0,120
-719,035	800,000	0,020	-0,057
-718,021	335,746	-0,086	0,124
-717,006	567,968	-0,096	-0,174
-715,991	-200,000	0,003	-0,092
-714,977	-9,349	-0,105	-0,052
-713,962	10,465	-0,057	-0,032
-712,948	655,846	0,011	-0,021
-711,933	-86,675	0,069	-0,015
-710,918	-200,000	0,011	0,071
-709,904	-200,000	0,019	-0,087
-708,889	-12,452	-0,189	-0,091
-707,875	-10,681	-0,153	0,075
-706,860	-200,000	0,014	-0,178
-705,845	-81,457	-0,103	-0,025
-704,831	51,766	0,005	-0,004
-703,816	-85,824	0,108	0,025
-702,802	-200,000	-0,024	0,207
-701,787	188,558	-0,104	-0,116
-700,772	800,000	-0,081	-0,185
-699,758	-122,956	0,085	0,010
-698,743	-149,276	0,112	-0,007
-697,729	46,441	0,040	0,027
-696,714	5,074	-0,044	-0,024
-695,699	89,870	0,103	-0,085
-694,685	153,175	-0,043	0,044
-693,670	681,539	0,016	0,032
-692,656	-200,000	0,011	-0,164
-691,641	676,825	-0,045	0,088
-690,627	800,000	0,034	-0,092
-689,612	-200,000	-0,023	-0,136
-688,597	800,000	-0,067	-0,155
-687,583	-119,978	-0,118	0,015
-686,568	34,057	-0,072	0,047
-685,554	3,397	0,026	0,014
-684,539	143,037	0,026	-0,026
-683,524	209,204	-0,057	-0,066
-682,510	63,595	0,077	0,057
-681,495	406,726	-0,068	0,107
-680,481	11,788	-0,197	-0,112
-679,466	-37,393	-0,180	-0,071
-678,451	-200,000	0,044	-0,174
-677,437	145,625	0,069	-0,069
-676,422	-164,418	0,077	-0,003
-675,408	-200,000	0,008	0,094
-674,393	-200,000	-0,022	0,078
-673,378	-200,000	-0,011	-0,054
-672,364	239,383	0,067	-0,083
-671,349	-200,000	0,011	-0,084
-670,335	-112,394	-0,028	-0,004
-669,320	99,162	0,104	0,090
-668,305	-200,000	-0,036	0,133
-667,291	-200,000	0,006	-0,082
-666,276	187,442	-0,050	0,055
-665,262	170,874	-0,060	0,064
-664,247	800,000	-0,032	-0,100
-663,232	160,924	-0,020	0,021
-662,218	138,937	-0,071	0,070
-661,203	800,000	-0,027	0,072
-660,189	270,142	0,067	-0,088
-659,174	800,000	-0,011	-0,034
-658,159	-65,389	-0,057	0,017
-657,145	-47,209	0,077	-0,028
-656,130	-1,656	-0,034	0,018
-655,116	304,321	0,121	-0,167
-654,101	-64,385	0,109	0,033
-653,086	206,646	0,071	-0,082
-652,072	-4,648	-0,091	0,046
-651,057	414,100	0,016	0,026
-650,043	-200,000	-0,015	0,078
-649,028	301,302	0,060	-0,082
-648,014	-182,121	0,058	0,001
-646,999	-61,132	0,102	0,032
-645,984	-9,734	-0,076	-0,037
-644,970	576,769	-0,073	-0,134
-643,955	163,207	-0,050	0,052
-642,941	-31,221	0,043	0,018
-641,926	296,291	-0,042	0,058
-640,911	-132,639	-0,122	0,011
-639,897	-200,000	-0,015	0,079
-638,882	-60,815	-0,124	0,039
-637,868	800,000	-0,058	0,129
-636,853	-11,056	-0,113	-0,055
-635,838	166,867	-0,075	-0,078
-634,824	387,050	0,017	-0,026
-633,809	-19,182	0,030	0,014
-632,795	-38,539	0,091	0,036
-631,780	293,667	-0,088	0,119
-630,765	123,586	0,026	0,024
-629,751	800,000	-0,043	-0,089
-628,736	-57,907	0,035	-0,011
-627,722	-108,143	0,093	0,015
-626,707	800,000	-0,062	-0,156
-625,692	-58,184	0,111	0,036
-624,678	-200,000	0,001	0,051
-623,663	352,310	-0,063	0,092
-622,649	37,416	-0,086	0,056
-621,634	800,000	0,018	-0,055
-620,619	137,555	-0,105	-0,102
-619,605	-30,774	-0,049	-0,020
-618,590	745,528	0,047	0,094
-617,576	800,000	0,024	0,077
-616,561	498,566	0,081	-0,139
-615,546	-31,894	-0,115	-0,048
-614,532	-127,245	-0,155	-0,017
-613,517	-40,594	0,037	-0,014
-612,503	62,968	-0,104	-0,077
-611,488	100,278	0,092	-0,079
-610,474	-58,488	-0,131	-0,042
-609,459	-26,507	0,055	-0,024
-608,444	-200,000	0,016	-0,095
-607,430	207,951	0,079	-0,091
-606,415	-200,000	-0,002	-0,052
-605,401	-190,112	0,063	-0,001
-604,386	151,139	-0,081	-0,082
-603,371	100,582	0,069	0,060
-602,357	-200,000	0,011	0,167
-601,342	-20,057	-0,076	-0,035
-600,328	-134,266	-0,103	0,009
-599,313	408,340	-0,040	-0,063
-598,298	-109,280	-0,022	-0,003
-597,284	-200,000	0,019	-0,069
-596,269	-6,032	0,071	0,036
-595,255	-31,645	0,072	0,030
-594,240	189,194	-0,029	-0,033
-593,225	-58,003	-0,069	0,022
-592,211	-42,985	0,152	0,057
-591,196	-200,000	0,004	-0,025
-590,182	-156,813	-0,187	0,008
-589,167	800,000	-0,030	0,068
-588,152	-200,000	0,012	0,113
-587,138	800,000	-0,025	0,058
-586,123	-200,000	0,043	-0,177
-585,109	-200,000	0,004	0,025
-584,094	-62,888	0,098	0,030
-583,079	21,589	0,145	0,087
-582,065	800,000	0,032	-0,103
-581,050	-181,403	-0,135	-0,002
-580,036	800,000	-0,039	-0,118
-579,021	107,477	-0,091	-0,080
-578,006	104,851	0,104	-0,090
-576,992	800,000	-0,083	-0,175
-575,977	486,599	-0,065	-0,110
-574,963	-11,623	0,040	0,020
-573,948	24,242	0,074	0,045
-572,934	800,000	-0,048	-0,100
-571,919	800,000	-0,045	-0,133
-570,904	228,724	-0,137	-0,165
-569,890	132,570	0,054	-0,051
-568,875	24,144	-0,058	-0,036
-567,861	800,000	0,015	-0,047
-566,846	-13,127	0,015	0,007
-565,831	-200,000	-0,020	-0,081
-564,817	-200,000	-0,006	0,115
-563,802	211,861	0,034	0,039
-562,788	-45,059	-0,124	-0,045
-561,773	243,502	-0,057	0,070
-560,758	-200,000	-0,001	0,018
-559,744	79,325	-0,128	0,101
-558,729	-200,000	-0,039	-0,130
-557,715	-117,037	-0,047	-0,006
-556,700	-55,594	-0,117	-0,038
-555,685	161,657	0,019	0,019
-554,671	399,801	0,036	-0,056
-553,656	-62,645	0,152	0,046
-552,642	-200,000	-0,036	0,187
-551,627	144,249	0,048	0,047
-550,612	792,961	-0,025	-0,051
-549,598	-200,000	-0,001	-0,220
-548,583	-200,000	0,024	-0,101
-547,569	800,000	0,069	-0,181
-546,554	-200,000	0,003	-0,060
-545,539	253,919	-0,019	-0,024
-544,525	-15,471	-0,131	-0,062
-543,510	91,875	-0,055	0,046
-542,496	-200,000	0,019	-0,153
-541,481	-36,891	-0,036	-0,014
-540,466	108,878	0,010	-0,009
-539,452	18,323	0,052	0,031
-538,437	39,389	0,143	0,094
-537,423	149,973	0,105	-0,106
-536,408	-17,812	0,063	-0,029
-535,393	172,762	0,091	-0,097
-534,379	8,676	0,136	-0,076
-533,364	-200,000	-0,019	0,076
-532,350	282,974	0,104	0,137
-531,335	694,345	-0,043	0,083
-530,321	-200,000	-0,000	-0,025
-529,306	-200,000	0,002	-0,035
-528,291	244,014	0,043	-0,054
-527,277	315,233	0,036	-0,051
-526,262	93,979	-0,038	-0,031
-525,248	325,079	0,114	0,161
-524,233	800,000	0,070	0,153
-523,218	-32,532	-0,073	-0,030
-522,204	395,196	-0,045	0,069
-521,189	228,041	-0,091	-0,110
-520,175	-46,490	0,089	0,032
-519,160	258,477	0,025	-0,032
-518,145	216,207	0,111	0,131
-517,131	-200,000	-0,009	0,048
-516,116	684,277	0,057	0,110
-515,102	-28,133	0,054	0,023
-514,087	-200,000	0,027	0,092
-513,072	-10,943	-0,094	-0,046
-512,058	143,724	-0,064	-0,063
-511,043	5,409	-0,108	-0,059
-510,029	176,794	0,064	0,069
-509,014	-180,813	-0,026	-0,000
-507,999	-200,000	0,009	0,068
-506,985	-200,000	0,019	-0,071
-505,970	238,811	-0,051	-0,063
-504,956	157,001	-0,139	-0,142
-503,941	-200,000	0,010	-0,113
-502,926	375,437	0,058	0,088
-501,912	-105,350	0,027	0,004
-500,897	-101,826	0,109	0,019
-499,883	-118,271	0,188	-0,024
-498,868	385,277	0,024	-0,037
-497,853	800,000	0,008	-0,020
-496,839	-116,934	-0,107	0,014
-495,824	-200,000	-0,024	0,110
-494,810	-24,642	0,057	-0,025
-493,795	-77,139	-0,094	-0,024
-492,781	167,895	-0,055	-0,057
-491,766	-64,801	0,096	-0,028
-490,751	34,152	-0,077	0,049
-489,737	40,632	0,118	-0,078
-488,722	80,519	0,027	0,021
-487,708	-200,000	-0,005	0,131
-486,693	-128,734	-0,050	-0,005
-485,678	800,000	0,019	0,046
-484,664	-56,926	-0,098	-0,032
-483,649	136,727	0,058	0,056
-482,635	-161,302	-0,027	0,001
-481,620	800,000	0,028	0,073
-480,605	800,000	0,028	0,066
-479,591	-89,134	0,060	-0,013
-478,576	5,438	-0,017	-0,009
-477,562	54,948	-0,063	0,045
-476,547	558,506	0,034	-0,060
-475,532	-26,087	-0,098	0,042
-474,518	42,077	0,119	0,080
-473,503	-200,000	-0,015	0,049
-472,489	-94,786	0,127	0,025
-471,474	245,161	0,060	0,074
-470,459	144,224	-0,084	0,082
-469,445	800,000	-0,037	-0,090
-468,430	102,220	-0,111	0,096
-467,416	58,733	-0,037	-0,027
-466,401	-111,480	-0,121	0,018
-465,386	-200,000	0,004	-0,082
-464,372	800,000	-0,037	0,084
-463,357	573,970	0,017	-0,030
-462,343	107,355	-0,141	-0,124
-461,328	-200,000	0,026	-0,089
-460,313	274,541	-0,010	-0,013
-459,299	-99,786	0,087	-0,016
-458,284	-162,731	-0,105	-0,004
-457,270	800,000	0,009	0,023
-456,255	-200,000	-0,016	-0,104
-455,241	227,094	-0,079	-0,095
-454,226	163,147	-0,164	-0,169
-453,211	35,510	0,092	0,060
-452,197	800,000	0,039	0,095
-451,182	454,346	0,083	0,136
-450,168	-115,344	0,094	-0,013
-449,153	-200,000	0,022	0,160
-448,138	144,805	-0,088	-0,087
-447,124	800,000	0,010	0,031
-446,109	800,000	-0,046	0,126
-445,095	-74,685	-0,169	0,044
-444,080	-8,217	0,089	-0,044
-443,065	-115,844	-0,032	0,004
-442,051	-200,000	-0,020	0,100
-441,036	-46,568	-0,077	0,028
-440,022	-200,000	0,003	0,081
-439,007	615,012	0,019	-0,035
-437,992	800,000	-0,042	-0,086
-436,978	29,635	0,086	0,054
-435,963	-110,193	0,020	0,003
-434,949	78,860	0,044	-0,035
-433,934	-200,000	-0,027	0,106
-432,919	196,753	-0,028	-0,031
-431,905	800,000	0,014	-0,030
-430,890	-174,896	0,095	-0,002
-429,876	-118,649	0,070	-0,009
-428,861	-200,000	0,024	-0,084
-427,846	-98,083	0,148	0,028
-426,832	-8,562	0,069	-0,034
-425,817	800,000	0,017	0,054
-424,803	-153,866	0,117	-0,006
-423,788	800,000	0,052	0,125
-422,773	-83,225	-0,111	-0,026
-421,759	112,093	-0,056	0,050
-420,744	87,697	0,062	-0,050
-419,730	165,504	0,049	-0,050
-418,715	84,652	-0,014	0,012
-417,701	800,000	0,008	-0,022
-416,686	321,915	-0,012	-0,016
-415,671	83,019	-0,025	0,020
-414,657	134,195	-0,064	0,061
-413,642	-117,215	0,085	0,011
-412,628	-109,413	0,080	0,012
-411,613	92,894	0,056	-0,046
-410,598	-200,000	0,008	0,031
-409,584	43,435	0,105	0,070
-408,569	85,851	0,038	0,031
-407,555	-200,000	-0,029	0,109
-406,540	130,808	-0,106	0,100
-405,525	800,000	-0,039	-0,083
-404,511	-200,000	-0,012	0,070
-403,496	-43,814	0,075	-0,028
-402,482	69,674	-0,082	-0,062
-401,467	-200,000	0,029	0,208
-400,452	73,319	0,024	0,018
-399,438	548,981	-0,050	-0,089
-398,423	-200,000	0,023	-0,185
-397,409	-7,150	-0,024	-0,012
-396,394	-200,000	0,001	0,087
-395,379	800,000	-0,023	-0,053
-394,365	148,100	-0,107	-0,107
-393,350	-200,000	-0,008	0,130
-392,336	-200,000	0,008	-0,156
-391,321	418,518	0,053	-0,083
-390,306	800,000	-0,030	-0,091
-389,292	13,492	0,187	-0,106
-388,277	-77,256	-0,029	0,007
-387,263	18,210	-0,068	0,040
-386,248	64,865	-0,015	-0,011
-385,233	196,566	-0,038	-0,042
-384,219	3,177	0,038	-0,020
-383,204	800,000	0,018	-0,048
-382,190	-109,307	-0,082	0,013
-381,175	-200,000	0,006	0,043
-380,160	33,372	0,052	-0,033
-379,146	497,512	-0,011	0,019
-378,131	-32,612	-0,034	-0,014
-377,117	20,367	0,118	0,070
-376,102	173,598	-0,069	-0,073
-375,088	28,503	0,060	-0,037
-374,073	228,237	-0,065	-0,078
-373,058	249,127	-0,008	0,010
-372,044	109,317	0,070	0,062
-371,029	354,361	0,096	0,140
-370,015	-52,228	-0,086	0,029
-369,000	800,000	-0,083	-0,178
-367,985	-200,000	0,005	0,053
-366,971	-78,769	-0,119	0,029
-365,956	-31,771	0,122	-0,050
-364,942	-200,000	0,003	-0,043
-363,927	-12,895	-0,038	-0,018
-362,912	800,000	-0,021	-0,044
-361,898	-182,004	-0,178	0,002
-360,883	-200,000	0,011	-0,098
-359,869	668,639	0,067	-0,127
-358,854	-37,805	-0,127	-0,049
-357,839	-43,911	0,167	-0,061
-356,825	-200,000	-0,004	0,020
-355,810	53,705	-0,030	0,021
-354,796	-14,126	-0,036	0,017
-353,781	-200,000	-0,007	-0,042
-352,766	-149,560	-0,092	0,005
-351,752	-200,000	0,007	-0,048
-350,737	-134,489	0,152	-0,013
-349,723	332,135	0,088	0,124
-348,708	-200,000	0,010	0,059
-347,693	-85,989	0,046	0,010
-346,679	23,278	-0,025	-0,015
-345,664	93,309	-0,110	0,091
-344,650	-200,000	0,024	0,106
-343,635	-200,000	-0,008	0,131
-342,620	83,128	-0,058	0,047
-341,606	-87,707	-0,007	-0,001
-340,591	800,000	0,034	0,106
-339,577	-200,000	0,032	-0,117
-338,562	-99,417	0,109	0,020
-337,548	276,517	0,062	-0,081
-336,533	210,971	0,060	-0,069
-335,518	800,000	0,011	-0,023
-334,504	-200,000	0,027	-0,090
-333,489	-200,000	-0,019	-0,081
-332,475	-200,000	-0,010	-0,148
-331,460	42,387	0,041	0,027
-330,445	-200,000	0,023	-0,086
-329,431	-200,000	0,019	-0,100
-328,416	22,611	0,061	0,037
-327,402	15,017	-0,093	-0,053
-326,387	-128,370	-0,046	-0,005
-325,372	177,811	0,043	-0,046
-324,358	-200,000	0,004	-0,020
-323,343	29,862	-0,047	0,029
-322,329	800,000	0,045	-0,096
-321,314	-200,000	0,010	-0,035
-320,299	-200,000	0,021	0,072
-319,285	800,000	-0,003	0,008
-318,270	-15,179	-0,093	0,044
-317,256	-40,751	-0,073	0,027
-316,241	19,868	0,101	0,060
-315,226	217,068	0,106	-0,124
-314,212	-10,532	0,182	0,088
-313,197	22,033	0,104	0,062
-312,183	379,976	0,097	0,146
-311,168	72,258	-0,088	0,067
-310,153	-34,846	0,075	-0,030
-309,139	-95,255	-0,087	-0,017
-308,124	295,721	-0,045	0,060
-307,110	130,979	0,016	0,015
-306,095	800,000	0,032	0,103
-305,080	800,000	-0,026	0,053
-304,066	800,000	-0,021	-0,062
-303,051	-200,000	0,015	-0,164
-302,037	-60,473	-0,133	-0,041
-301,022	94,645	-0,085	0,070
-300,008	-59,123	-0,107	0,034
-298,993	204,967	0,090	0,102
-297,978	-200,000	0,036	0,148
-296,964	48,360	0,139	0,095
-295,949	114,376	0,020	0,018
-294,935	-200,000	-0,008	-0,065
-293,920	481,410	-0,018	-0,030
-292,905	567,621	-0,022	-0,038
-291,891	200,479	0,053	0,059
-290,876	151,910	-0,054	0,054
-289,862	-168,707	0,137	-0,004
-288,847	-168,050	-0,080	-0,002
-287,832	-200,000	-0,018	-0,149
-286,818	165,998	0,109	-0,113
-285,803	-131,838	-0,121	0,011
-284,789	22,637	-0,057	0,034
-283,774	454,302	0,120	0,195
-282,759	22,138	-0,036	0,021
-281,745	800,000	-0,044	-0,113
-280,730	523,468	-0,008	-0,014
-279,716	485,949	0,092	-0,153
-278,701	16,718	0,085	0,049
-277,686	3,576	0,054	0,029
-276,672	800,000	-0,065	0,150
-275,657	800,000	0,046	0,105
-274,643	-124,926	-0,090	-0,010
-273,628	800,000	-0,029	-0,076
-272,613	-26,419	-0,082	0,035
-271,599	-200,000	0,015	0,103
-270,584	800,000	0,016	0,039
-269,570	143,720	0,088	-0,086
-268,555	800,000	-0,064	0,132
-267,540	593,582	-0,061	0,111
-266,526	-151,523	0,041	0,002
-265,511	4,679	-0,050	0,027
-264,497	83,606	-0,093	0,074
-263,482	800,000	0,052	0,113
-262,467	104,466	0,089	0,076
-261,453	-24,737	-0,130	-0,056
-260,438	-142,943	-0,124	0,009
-259,424	800,000	0,088	-0,208
-258,409	26,627	-0,154	0,094
-257,395	271,553	0,064	0,082
-256,380	-30,346	0,184	0,076
-255,365	-129,689	-0,053	0,005
-254,351	450,368	0,076	-0,123
-253,336	123,503	-0,094	-0,086
-252,322	-47,184	-0,043	-0,015
-251,307	-73,539	0,032	-0,009
-250,292	800,000	0,004	0,013
-249,278	-200,000	-0,029	-0,131
-248,263	-148,974	-0,068	0,004
-247,249	-47,151	-0,113	0,040
-246,234	-200,000	-0,004	-0,085
-245,219	749,562	-0,042	-0,084
-244,205	23,799	-0,052	-0,031
-243,190	-58,488	0,055	0,017
-242,176	305,595	-0,022	0,029
-241,161	-67,864	0,051	0,014
-240,146	800,000	0,034	-0,071
-239,132	286,077	-0,035	0,047
-238,117	-44,505	-0,108	0,039
-237,103	33,287	0,061	-0,038
-236,088	184,931	0,026	0,028
-235,073	219,146	0,118	0,138
-234,059	-50,735	0,077	0,026
-233,044	-200,000	-0,038	0,123
-232,030	-200,000	-0,016	0,117
-231,015	800,000	-0,039	-0,114
-230,000	800,000	0,054	-0,155
-228,986	-11,924	0,100	0,048
-227,971	63,393	-0,080	0,059
-226,957	7,612	-0,057	0,031
-225,942	-200,000	0,009	0,105
-224,927	-56,221	0,040	-0,013
-223,913	-97,741	-0,097	0,018
-222,898	195,338	0,007	-0,008
-221,884	186,868	-0,075	-0,082
-220,869	131,891	0,081	-0,076
-219,855	208,694	0,040	-0,046
-218,840	-200,000	0,041	0,211
-217,825	-48,572	-0,067	0,023
-216,811	-101,075	0,124	0,022
-215,796	307,227	-0,043	0,058
-214,782	-200,000	-0,027	0,210
-213,767	-69,825	-0,084	0,023
-212,752	-200,000	0,004	0,065
-211,738	-200,000	-0,007	-0,026
-210,723	-15,889	-0,153	0,071
-209,709	-41,422	-0,105	0,039
-208,694	-101,433	-0,196	0,034
-207,679	800,000	0,030	0,069
-206,665	-61,932	0,084	-0,025
-205,650	-137,080	0,235	-0,019
-204,636	-200,000	-0,010	0,093
-203,621	-200,000	-0,022	0,145
-202,606	117,958	0,026	0,024
-201,592	800,000	0,037	-0,093
-200,577	-47,302	0,088	-0,031
-199,563	-200,000	0,013	0,123
-198,548	230,933	0,107	0,128
-197,533	-200,000	0,008	0,108
-196,519	225,938	0,102	0,121
-195,504	415,526	0,023	0,036
-194,490	296,547	-0,071	0,095
-193,475	-82,502	-0,146	-0,034
-192,460	52,874	-0,107	-0,075
-191,446	-4,269	-0,043	-0,022
-190,431	-57,815	0,157	0,050
-189,417	800,000	0,030	-0,071
-188,402	-200,000	-0,011	0,082
-187,387	143,097	0,063	-0,061
-186,373	564,805	-0,099	-0,176
-185,358	-200,000	-0,001	-0,075
-184,344	800,000	0,035	0,110
-183,329	-97,396	0,053	-0,010
-182,315	287,268	0,052	0,069
-181,300	274,009	0,085	-0,110
-180,285	-53,978	-0,144	0,047
-179,271	-200,000	0,018	-0,118
-178,256	-25,078	-0,075	-0,032
-177,242	240,629	0,094	-0,114
-176,227	800,000	0,067	-0,157
-175,212	800,000	0,019	-0,051
-174,198	152,262	0,038	-0,038
-173,183	19,899	0,032	-0,019
-172,169	132,199	-0,054	-0,051
-171,154	97,273	0,062	0,052
-170,139	139,485	0,057	-0,055
-169,125	428,596	-0,022	-0,034
-168,110	-118,573	-0,135	0,017
-167,096	-152,443	-0,030	0,002
-166,081	-141,048	-0,034	-0,003
-165,066	613,833	-0,045	-0,082
-164,052	755,646	-0,041	0,081
-163,037	800,000	-0,036	0,095
-162,023	-138,508	0,124	-0,010
-161,008	200,243	0,042	0,047
-159,993	260,597	0,077	0,097
-158,979	-200,000	0,016	0,180
-157,964	-200,000	-0,026	-0,088
-156,950	-200,000	-0,033	-0,144
-155,935	158,150	-0,045	-0,046
-154,920	741,933	-0,013	-0,025
-153,906	282,547	-0,087	0,114
-152,891	35,367	0,104	0,066
-151,877	-181,558	0,121	-0,002
-150,862	367,631	0,082	-0,121
-149,847	-39,946	-0,135	0,051
-148,833	-92,390	0,051	-0,010
-147,818	-99,908	0,058	-0,011
-146,804	800,000	0,027	0,078
-145,789	6,129	0,035	0,019
-144,775	56,939	0,103	0,073
-143,760	93,027	0,049	-0,040
-142,745	89,008	0,093	0,075
-141,731	-120,399	-0,083	-0,010
-140,716	-114,762	0,044	-0,006
-139,702	361,456	0,027	0,040
-138,687	-200,000	-0,009	0,083
-137,672	-200,000	-0,034	-0,145
-136,658	495,657	0,045	-0,075
-135,643	-8,375	-0,010	0,005
-134,629	334,110	0,075	-0,106
-133,614	-200,000	-0,033	0,162
-132,599	-200,000	0,035	0,117
-131,585	-200,000	0,031	0,163
-130,570	-20,492	-0,158	0,070
-129,556	800,000	-0,062	-0,129
-128,541	140,407	0,099	0,095
-127,526	-53,547	-0,051	-0,017
-126,512	338,483	0,064	0,091
-125,497	402,883	0,057	0,087
-124,483	-129,237	-0,077	0,008
-123,468	-177,680	-0,078	-0,001
-122,453	-51,471	0,056	0,019
-121,439	-200,000	-0,009	0,121
-120,424	-173,264	-0,036	0,001
-119,410	-129,993	0,131	-0,013
-118,395	120,240	-0,059	-0,053
