DTS Sentinel unit serial number:	SN410029Multiplexer serial number:	ORYXHardware model number:	OX2-SRSoftware version number:	ORYX F/W v4,00 Oryx Data Collector v3.7.2.0data status	okinstallation	B4 Nyhavnadifferential loss correction	single-endedforward channel	channel 2reverse channel	N/Adate	2023/12/16time	03:55:13forward acquisition time	300,00reverse acquisition time	0,00gamma	499,1914k internal	0,3128k external	0,3128temperature offset calibration	1,0000default loss term (dB/km)	0,3820temperature slope calibration	1,0000multiplexer offset coefficient	1,0000multiplexer slope coefficient	1,0000fibre end	0,00T internal ref (°C)	22,00T ext. ref 1 (°C)	7,00T ext. ref 2 (°C)	7,19length (m)	temperature (°C)	Stokes	anti-Stokes-744,400	47,232	0,124	0,085
-743,385	8,956	-0,200	0,112
-742,371	-44,468	0,079	-0,029
-741,356	50,295	-0,202	0,142
-740,342	-116,387	0,057	0,008
-739,327	-10,019	-0,195	0,096
-738,312	77,233	0,094	0,074
-737,298	9,212	-0,249	0,140
-736,283	119,946	0,088	-0,081
-735,269	-144,782	-0,322	-0,022
-734,254	-200,000	0,052	-0,200
-733,239	-122,072	-0,260	-0,031
-732,225	800,000	0,038	0,114
-731,210	-130,079	0,044	0,004
-730,196	743,092	-0,045	-0,091
-729,181	-149,961	-0,011	0,001
-728,167	204,257	-0,050	0,058
-727,152	-32,881	0,031	-0,013
-726,137	-200,000	0,016	-0,102
-725,123	-57,604	-0,154	-0,050
-724,108	387,124	-0,024	0,037
-723,094	-200,000	-0,036	-0,133
-722,079	-132,801	0,048	-0,004
-721,064	14,797	-0,162	-0,094
-720,050	359,141	-0,089	-0,133
-719,035	-200,000	0,009	0,063
-718,021	800,000	-0,015	-0,040
-717,006	165,022	-0,069	-0,072
-715,991	32,163	-0,150	-0,096
-714,977	-200,000	0,028	-0,119
-713,962	-86,045	0,066	-0,015
-712,948	185,420	0,106	-0,118
-711,933	800,000	0,022	-0,066
-710,918	800,000	-0,041	-0,116
-709,904	754,391	-0,037	0,075
-708,889	-200,000	-0,004	-0,061
-707,875	-125,885	-0,085	-0,009
-706,860	32,835	0,059	-0,038
-705,845	-97,520	-0,090	-0,017
-704,831	-94,255	0,136	0,027
-703,816	-16,975	-0,037	0,017
-702,802	-35,545	-0,044	-0,018
-701,787	-142,618	-0,187	-0,013
-700,772	547,173	-0,051	0,090
-699,758	77,284	-0,080	-0,063
-698,743	800,000	0,068	-0,177
-697,729	39,620	-0,040	0,027
-696,714	-200,000	0,015	0,074
-695,699	694,589	-0,015	-0,030
-694,685	327,308	-0,093	-0,133
-693,670	3,583	-0,129	0,070
-692,656	-200,000	-0,023	0,104
-691,641	4,994	-0,048	0,026
-690,627	-53,261	-0,038	0,013
-689,612	-43,116	-0,127	0,047
-688,597	-200,000	0,005	0,095
-687,583	-129,239	-0,140	-0,014
-686,568	11,260	0,036	-0,021
-685,554	800,000	0,049	-0,110
-684,539	-102,326	-0,061	-0,011
-683,524	-200,000	0,016	-0,075
-682,510	52,641	0,056	-0,039
-681,495	62,416	0,043	-0,032
-680,481	-68,406	-0,076	-0,022
-679,466	38,540	-0,082	-0,054
-678,451	16,559	-0,093	0,055
-677,437	125,183	-0,015	0,014
-676,422	-200,000	0,022	0,095
-675,408	299,670	-0,098	-0,134
-674,393	-200,000	-0,017	-0,136
-673,378	175,194	0,015	-0,017
-672,364	-2,266	-0,068	-0,035
-671,349	-106,573	-0,079	-0,013
-670,335	37,123	0,135	0,088
-669,320	-121,733	-0,027	0,003
-668,305	69,720	-0,132	-0,101
-667,291	373,742	-0,077	-0,117
-666,276	567,625	-0,019	0,034
-665,262	800,000	-0,057	-0,147
-664,247	-140,182	-0,092	0,007
-663,232	800,000	-0,053	-0,115
-662,218	-200,000	0,002	0,013
-661,203	-20,698	-0,087	0,039
-660,189	369,518	0,035	-0,052
-659,174	-200,000	-0,038	0,153
-658,159	236,073	-0,065	-0,080
-657,145	800,000	-0,072	-0,169
-656,130	65,925	0,059	-0,045
-655,116	-18,806	-0,074	-0,034
-654,101	800,000	-0,038	-0,108
-653,086	654,707	0,033	-0,062
-652,072	-184,085	-0,066	-0,001
-651,057	127,803	-0,146	-0,138
-650,043	-118,456	-0,072	-0,009
-649,028	23,425	0,043	0,026
-648,014	800,000	0,006	0,014
-646,999	-23,441	0,082	0,036
-645,984	728,024	-0,024	0,047
-644,970	127,332	-0,040	0,038
-643,955	617,294	0,009	-0,018
-642,941	800,000	0,033	-0,083
-641,926	-67,912	-0,061	0,017
-640,911	428,082	-0,028	0,045
-639,897	262,888	-0,059	-0,076
-638,882	800,000	0,094	0,210
-637,868	30,036	0,054	-0,034
-636,853	194,896	-0,116	-0,131
-635,838	141,644	-0,112	0,110
-634,824	51,397	-0,051	0,036
-633,809	-200,000	0,005	0,115
-632,795	315,310	-0,026	-0,036
-631,780	-200,000	0,019	-0,114
-630,765	234,820	-0,088	0,108
-629,751	-61,160	-0,105	0,032
-628,736	800,000	-0,037	-0,085
-627,722	800,000	0,074	-0,195
-626,707	800,000	0,104	0,219
-625,692	14,695	0,040	0,023
-624,678	33,070	0,076	-0,049
-623,663	800,000	-0,026	-0,070
-622,649	-38,735	0,045	0,017
-621,634	-136,389	-0,112	-0,010
-620,619	682,014	0,065	-0,126
-619,605	746,354	0,015	-0,030
-618,590	360,209	0,064	0,095
-617,576	-90,805	-0,143	0,030
-616,561	-200,000	0,011	-0,065
-615,546	764,782	0,054	-0,108
-614,532	194,530	-0,036	0,040
-613,517	92,833	0,052	0,043
-612,503	287,367	-0,108	-0,145
-611,488	-39,775	0,056	-0,022
-610,474	358,701	-0,080	-0,118
-609,459	172,126	0,072	0,077
-608,444	-23,749	0,047	0,021
-607,430	-120,995	0,075	-0,009
-606,415	-73,972	-0,103	-0,027
-605,401	188,010	-0,041	-0,045
-604,386	405,222	0,036	0,056
-603,371	341,579	-0,128	-0,186
-602,357	1,635	0,073	0,039
-601,342	156,546	0,074	-0,076
-600,328	-35,804	0,124	-0,049
-599,313	800,000	-0,030	-0,073
-598,298	11,036	0,049	0,028
-597,284	244,202	0,086	0,107
-596,269	42,664	0,107	0,072
-595,255	-150,745	-0,118	0,007
-594,240	109,914	-0,010	0,009
-593,225	-200,000	-0,014	0,070
-592,211	-12,289	-0,096	-0,046
-591,196	-79,299	0,113	-0,028
-590,182	-140,201	0,083	0,006
-589,167	-200,000	0,002	-0,019
-588,152	202,541	-0,066	0,076
-587,138	-81,006	0,153	-0,037
-586,123	800,000	0,048	-0,141
-585,109	-64,168	-0,096	0,029
-584,094	-172,011	-0,114	0,003
-583,079	-200,000	0,008	0,066
-582,065	-200,000	0,040	0,143
-581,050	800,000	-0,055	-0,163
-580,036	323,226	0,027	0,038
-579,021	694,018	-0,006	-0,011
-578,006	-142,004	-0,107	0,008
-576,992	144,238	0,081	-0,080
-575,977	800,000	0,050	-0,143
-574,963	724,374	0,028	-0,056
-573,948	-27,557	0,176	0,075
-572,934	800,000	-0,025	-0,062
-571,919	-95,712	-0,137	-0,027
-570,904	358,475	-0,009	0,013
-569,890	-160,840	-0,116	-0,004
-568,875	748,514	-0,069	0,139
-567,861	-161,007	0,093	0,004
-566,846	481,849	-0,019	-0,033
-565,831	-149,439	-0,053	-0,003
-564,817	380,989	0,051	-0,077
-563,802	99,097	-0,068	-0,058
-562,788	-200,000	-0,025	-0,178
-561,773	272,793	-0,015	-0,020
-560,758	306,133	0,051	-0,070
-559,744	177,890	-0,062	0,067
-558,729	-200,000	0,001	0,012
-557,715	-200,000	0,006	0,092
-556,700	-200,000	-0,004	0,066
-555,685	-200,000	-0,004	-0,042
-554,671	-200,000	-0,004	0,087
-553,656	-130,830	0,081	0,008
-552,642	800,000	0,021	0,066
-551,627	-41,082	-0,054	0,021
-550,612	-200,000	-0,019	0,169
-549,598	274,369	-0,111	-0,146
-548,583	39,262	-0,068	-0,045
-547,569	800,000	0,021	-0,058
-546,554	-200,000	0,021	0,129
-545,539	-200,000	0,004	0,059
-544,525	75,066	0,131	0,102
-543,510	642,153	-0,030	0,056
-542,496	60,676	-0,090	0,066
-541,481	43,750	0,065	0,044
-540,466	-200,000	-0,049	-0,238
-539,452	-4,510	-0,070	0,036
-538,437	-90,299	-0,094	-0,020
-537,423	669,453	0,078	0,149
-536,408	-139,758	-0,054	-0,004
-535,393	-200,000	0,016	-0,052
-534,379	-200,000	-0,023	0,103
-533,364	9,813	0,035	-0,020
-532,350	-66,241	0,020	-0,006
-531,335	-78,199	-0,021	0,005
-530,321	457,184	0,029	-0,048
-529,306	324,297	0,034	-0,048
-528,291	301,604	-0,089	-0,122
-527,277	800,000	0,016	-0,049
-526,262	166,701	0,054	-0,056
-525,248	-128,184	0,103	-0,011
-524,233	-143,378	0,229	0,016
-523,218	-200,000	-0,010	0,081
-522,204	800,000	-0,010	0,027
-521,189	35,101	-0,060	0,039
-520,175	-200,000	-0,026	0,144
-519,160	-200,000	0,038	-0,147
-518,145	-3,033	0,020	-0,010
-517,131	215,586	0,072	0,085
-516,116	105,954	0,033	-0,029
-515,102	-200,000	-0,006	-0,083
-514,087	-200,000	-0,004	0,025
-513,072	51,147	-0,117	0,082
-512,058	800,000	0,029	0,082
-511,043	-70,127	0,036	0,010
-510,029	18,557	0,034	-0,020
-509,014	114,489	0,070	0,063
-507,999	-138,011	-0,034	0,003
-506,985	-200,000	-0,009	0,103
-505,970	-81,645	-0,032	-0,008
-504,956	30,974	-0,139	-0,088
-503,941	83,186	0,151	-0,121
-502,926	52,378	0,048	0,034
-501,912	-51,254	-0,079	0,027
-500,897	-76,501	0,116	-0,030
-499,883	205,623	0,046	-0,053
-498,868	-91,409	-0,148	0,031
-497,853	-167,073	0,101	0,003
-496,839	-17,379	0,076	0,035
-495,824	-200,000	0,012	0,043
-494,810	-200,000	-0,013	0,053
-493,795	-67,520	0,100	0,029
-492,781	800,000	-0,011	0,024
-491,766	800,000	-0,072	-0,208
-490,751	-200,000	-0,012	0,057
-489,737	282,935	-0,075	0,100
-488,722	389,061	0,034	-0,052
-487,708	800,000	0,030	0,072
-486,693	63,133	0,098	-0,072
-485,678	-200,000	-0,095	0,000
-484,664	560,740	0,065	-0,117
-483,649	-46,435	-0,068	0,024
-482,635	-121,060	-0,055	0,007
-481,620	-200,000	-0,020	0,117
-480,605	-200,000	0,004	0,037
-479,591	4,125	0,065	-0,035
-478,576	-200,000	-0,005	0,122
-477,562	347,732	-0,059	0,086
-476,547	800,000	0,010	-0,021
-475,532	-19,582	-0,061	0,028
-474,518	-22,278	-0,182	-0,081
-473,503	-32,192	0,025	-0,010
-472,489	53,981	0,042	-0,030
-471,474	427,614	0,038	0,060
-470,459	-87,375	-0,088	0,020
-469,445	64,411	-0,130	-0,096
-468,430	20,117	-0,121	-0,072
-467,416	82,476	0,107	0,086
-466,401	252,677	0,048	-0,060
-465,386	-85,891	-0,098	0,022
-464,372	-200,000	-0,021	-0,169
-463,357	541,669	-0,035	0,062
-462,343	0,787	0,147	0,077
-461,328	-28,695	0,088	-0,037
-460,313	800,000	-0,040	-0,113
-459,299	-97,006	0,067	0,013
-458,284	-7,554	0,137	0,068
-457,270	29,318	-0,144	0,090
-456,255	-158,228	0,063	0,003
-455,241	345,275	0,099	-0,144
-454,226	-41,867	-0,051	-0,019
-453,211	-175,266	0,090	0,002
-452,197	-200,000	0,011	-0,115
-451,182	-35,735	0,106	-0,042
-450,168	138,521	0,037	0,036
-449,153	373,056	-0,091	-0,137
-448,138	-200,000	-0,011	-0,048
-447,124	60,777	-0,065	0,047
-446,109	-100,227	0,116	0,021
-445,095	-200,000	0,001	0,010
-444,080	289,137	0,083	0,111
-443,065	56,966	0,026	0,018
-442,051	0,868	-0,023	-0,012
-441,036	443,904	0,032	-0,052
-440,022	800,000	0,051	0,122
-439,007	644,578	-0,041	-0,077
-437,992	94,423	-0,037	0,031
-436,978	-200,000	0,006	0,041
-435,963	-55,484	-0,034	0,011
-434,949	-53,832	-0,102	-0,034
-433,934	-12,453	-0,118	-0,056
-432,919	-157,089	-0,082	-0,004
-431,905	-200,000	0,007	0,051
-430,890	-152,457	0,112	0,006
-429,876	-47,859	0,118	0,042
-428,861	-200,000	-0,007	0,103
-427,846	266,612	0,058	0,075
-426,832	-129,507	-0,113	-0,011
-425,817	644,169	-0,066	-0,124
-424,803	-110,140	-0,026	0,004
-423,788	-200,000	0,007	0,082
-422,773	-22,869	0,101	-0,045
-421,759	785,069	0,044	0,089
-420,744	-41,827	-0,026	-0,010
-419,730	-172,269	-0,029	-0,001
-418,715	-200,000	-0,017	-0,087
-417,701	800,000	-0,026	-0,070
-416,686	-200,000	0,018	0,073
-415,671	-55,608	0,145	-0,048
-414,657	-141,984	0,176	0,013
-413,642	800,000	-0,039	-0,082
-412,628	-150,598	-0,155	-0,009
-411,613	-115,556	0,171	-0,023
-410,598	-138,606	-0,070	0,006
-409,584	800,000	-0,036	0,093
-408,569	-200,000	0,021	0,098
-407,555	-200,000	-0,017	0,067
-406,540	192,357	-0,022	0,025
-405,525	-156,301	0,116	0,005
-404,511	548,620	-0,059	-0,104
-403,496	528,254	0,035	-0,060
-402,482	-61,892	-0,096	-0,029
-401,467	-200,000	-0,028	-0,093
-400,452	-200,000	0,002	0,135
-399,438	-90,369	-0,129	0,027
-398,423	480,577	-0,073	0,122
-397,409	-200,000	0,017	-0,085
-396,394	-37,116	-0,102	-0,040
-395,379	-200,000	0,001	0,096
-394,365	372,220	0,068	0,102
-393,350	200,096	-0,143	0,162
-392,336	714,877	0,074	0,144
-391,321	-99,930	-0,093	0,017
-390,306	541,490	-0,057	-0,101
-389,292	107,871	-0,143	-0,125
-388,277	800,000	-0,051	-0,110
-387,263	66,220	-0,052	-0,039
-386,248	141,452	0,090	0,088
-385,233	-85,810	-0,037	0,008
-384,219	-49,099	-0,196	0,068
-383,204	-133,448	-0,085	-0,008
-382,190	196,666	-0,032	-0,036
-381,175	281,746	0,059	-0,078
-380,160	-16,201	0,145	-0,067
-379,146	-50,606	0,103	0,035
-378,131	66,071	-0,050	-0,037
-377,117	-76,864	0,062	-0,016
-376,102	116,164	-0,029	0,026
-375,088	99,122	-0,025	-0,021
-374,073	33,276	-0,077	-0,049
-373,058	533,050	-0,014	0,025
-372,044	123,162	0,115	0,106
-371,029	-9,571	0,042	-0,021
-370,015	800,000	0,067	0,140
-369,000	-200,000	-0,021	0,073
-367,985	113,415	0,048	0,043
-366,971	-200,000	-0,008	-0,038
-365,956	-200,000	0,009	0,124
-364,942	-200,000	-0,030	0,098
-363,927	-200,000	-0,006	0,173
-362,912	-88,083	0,122	-0,027
-361,898	47,782	-0,040	0,027
-360,883	-91,592	-0,109	-0,023
-359,869	800,000	0,035	0,111
-358,854	227,737	0,120	0,143
-357,839	-116,326	0,128	-0,017
-356,825	485,358	0,115	-0,192
-355,810	203,233	0,032	-0,037
-354,796	-200,000	0,020	-0,094
-353,781	-200,000	0,008	0,057
-352,766	-200,000	0,026	-0,106
-351,752	800,000	-0,022	-0,069
-350,737	460,678	0,042	0,070
-349,723	14,474	0,094	-0,054
-348,708	800,000	0,030	-0,069
-347,693	-103,529	-0,127	-0,022
-346,679	800,000	-0,034	-0,094
-345,664	800,000	0,034	-0,078
-344,650	127,212	0,022	-0,020
-343,635	115,542	0,175	-0,157
-342,620	-45,657	-0,061	-0,022
-341,606	174,124	-0,084	-0,089
-340,591	6,022	-0,175	-0,095
-339,577	71,253	0,017	0,013
-338,562	-89,147	-0,100	-0,022
-337,548	35,124	0,090	-0,058
-336,533	-143,806	0,016	-0,001
-335,518	147,652	-0,082	0,081
-334,504	800,000	-0,027	-0,078
-333,489	-136,400	0,130	-0,011
-332,475	-119,817	-0,112	0,014
-331,460	-200,000	0,035	-0,149
-330,445	-198,902	0,201	-0,001
-329,431	-102,936	0,064	0,011
-328,416	800,000	-0,016	0,050
-327,402	-61,358	0,180	0,055
-326,387	-27,003	0,059	0,025
-325,372	-200,000	-0,036	-0,190
-324,358	394,472	0,022	0,033
-323,343	30,994	0,074	-0,046
-322,329	193,095	-0,082	0,091
-321,314	-200,000	-0,017	0,121
-320,299	126,172	-0,060	0,055
-319,285	-143,819	-0,060	0,004
-318,270	101,864	0,065	0,055
-317,256	10,058	0,049	0,027
-316,241	-43,414	-0,112	0,041
-315,226	-200,000	-0,030	0,111
-314,212	-86,890	-0,173	-0,038
-313,197	-64,018	0,145	-0,043
-312,183	131,544	0,146	0,137
-311,168	81,099	-0,116	0,091
-310,153	-26,713	-0,110	-0,047
-309,139	-57,954	0,070	-0,022
-308,124	-18,371	0,135	0,062
-307,110	-74,209	-0,077	-0,020
-306,095	44,061	-0,099	0,066
-305,080	109,329	0,007	0,006
-304,066	-130,475	-0,061	0,006
-303,051	141,295	-0,074	-0,072
-302,037	648,903	0,063	-0,119
-301,022	800,000	0,039	0,081
-300,008	-136,624	0,073	0,006
-298,993	800,000	0,030	-0,065
-297,978	31,719	-0,080	-0,050
-296,964	197,669	-0,035	0,039
-295,949	800,000	-0,029	-0,066
-294,935	701,459	0,009	0,017
-293,920	800,000	0,048	0,099
-292,905	-200,000	-0,025	0,206
-291,891	-45,727	0,044	0,016
-290,876	-200,000	-0,022	-0,099
-289,862	31,320	0,045	0,028
-288,847	-200,000	-0,015	-0,101
-287,832	-200,000	-0,000	-0,180
-286,818	-200,000	-0,006	0,187
-285,803	0,569	0,049	0,026
-284,789	526,604	-0,072	0,125
-283,774	-73,003	-0,146	-0,039
-282,759	-57,382	-0,053	-0,017
-281,745	33,458	-0,084	-0,053
-280,730	-169,294	-0,088	-0,002
-279,716	-200,000	-0,001	-0,101
-278,701	-147,635	-0,188	-0,011
-277,686	-67,919	0,030	0,009
-276,672	385,957	0,019	0,028
-275,657	-200,000	-0,005	-0,054
-274,643	76,900	0,076	-0,059
-273,628	-200,000	-0,021	0,106
-272,613	-40,862	0,041	-0,015
-271,599	41,969	-0,112	-0,074
-270,584	-116,059	0,078	0,011
-269,570	800,000	0,026	-0,063
-268,555	49,099	0,071	-0,048
-267,540	348,065	-0,059	-0,086
-266,526	800,000	0,043	0,088
-265,511	-200,000	0,007	0,065
-264,497	55,452	-0,057	-0,040
-263,482	639,257	0,106	-0,198
-262,467	800,000	-0,034	-0,073
-261,453	223,688	-0,027	-0,032
-260,438	-59,362	-0,038	0,012
-259,424	-200,000	0,009	0,096
-258,409	-200,000	-0,012	-0,103
-257,395	800,000	0,038	-0,099
-256,380	800,000	0,034	-0,082
-255,365	9,776	0,143	-0,079
-254,351	22,388	-0,081	-0,048
-253,336	-83,927	-0,146	0,034
-252,322	30,927	-0,084	0,053
-251,307	-200,000	-0,001	-0,010
-250,292	800,000	-0,022	-0,053
-249,278	-200,000	0,004	0,048
-248,263	-200,000	0,001	0,116
-247,249	17,433	0,064	0,037
-246,234	-23,809	-0,082	-0,036
-245,219	152,300	-0,012	-0,012
-244,205	176,589	0,133	-0,141
-243,190	111,664	0,053	-0,047
-242,176	13,386	-0,153	0,086
-241,161	-200,000	0,013	-0,087
-240,146	108,112	-0,098	0,086
-239,132	-200,000	0,007	-0,048
-238,117	-93,025	0,015	-0,003
-237,103	-103,263	-0,105	0,018
-236,088	-60,474	0,032	-0,010
-235,073	13,367	0,089	0,050
-234,059	-33,421	0,234	0,094
-233,044	-200,000	0,006	0,026
-232,030	-26,301	-0,106	-0,045
-231,015	24,378	-0,073	-0,044
-230,000	78,184	0,007	0,006
-228,986	-127,301	0,077	0,008
-227,971	-200,000	0,009	0,053
-226,957	-200,000	-0,010	0,093
-225,942	-19,852	-0,084	0,038
-224,927	-107,000	-0,041	0,007
-223,913	799,299	0,049	0,099
-222,898	-200,000	0,005	-0,045
-221,884	218,700	0,080	-0,093
-220,869	79,899	-0,031	0,024
-219,855	-99,894	0,077	-0,014
-218,840	100,436	-0,041	0,035
-217,825	-200,000	-0,005	-0,018
-216,811	-200,000	0,019	0,124
-215,796	-71,088	-0,044	0,012
-214,782	255,036	-0,027	0,033
-213,767	-35,691	-0,036	0,014
-212,752	-200,000	0,013	0,070
-211,738	323,810	0,018	0,025
-210,723	107,497	0,100	0,087
-209,709	-200,000	0,014	-0,119
-208,694	-200,000	0,025	-0,110
-207,679	-183,726	-0,084	-0,001
-206,665	-120,079	0,128	-0,016
-205,650	-58,521	0,076	0,024
-204,636	-27,404	-0,079	0,033
-203,621	-200,000	-0,003	0,019
-202,606	-200,000	0,019	0,164
-201,592	-200,000	-0,005	-0,105
-200,577	188,485	-0,053	-0,058
-199,563	328,123	-0,067	-0,093
-198,548	800,000	-0,067	0,142
-197,533	237,647	0,118	-0,143
-196,519	109,748	0,062	-0,054
-195,504	295,120	-0,011	-0,014
-194,490	731,133	0,053	-0,104
-193,475	-200,000	-0,015	-0,064
-192,460	160,019	0,030	0,030
-191,446	22,847	0,037	0,022
-190,431	800,000	-0,058	0,133
-189,417	44,652	0,099	0,066
-188,402	800,000	0,013	0,031
-187,387	-200,000	0,004	-0,035
-186,373	-190,975	-0,164	-0,001
-185,358	-55,711	0,104	-0,034
-184,344	-200,000	-0,007	0,137
-183,329	495,040	-0,008	-0,014
-182,315	-20,722	-0,056	0,025
-181,300	582,002	-0,071	0,128
-180,285	197,981	-0,044	-0,049
-179,271	-132,929	-0,069	0,006
-178,256	54,511	0,078	0,055
-177,242	-57,155	0,095	-0,030
-176,227	-200,000	0,008	-0,040
-175,212	217,863	-0,046	0,054
-174,198	-99,222	0,079	-0,014
-173,183	-200,000	0,016	-0,088
-172,169	374,211	-0,119	-0,176
-171,154	268,625	-0,087	-0,111
-170,139	-200,000	0,024	0,172
-169,125	-200,000	-0,021	0,097
-168,110	-64,406	-0,063	0,019
-167,096	29,018	-0,046	0,028
-166,081	528,575	0,023	-0,040
-165,066	800,000	0,038	0,083
-164,052	11,053	-0,062	-0,034
-163,037	-137,713	0,110	-0,009
-162,023	-54,661	-0,079	-0,026
-161,008	800,000	0,060	0,153
-159,993	16,267	-0,054	-0,031
-158,979	-32,432	-0,085	0,034
-157,964	238,817	0,076	-0,092
-156,950	-49,388	0,130	-0,045
-155,935	396,563	0,044	0,066
-154,920	338,872	-0,050	-0,071
-153,906	15,265	0,120	0,068
-152,891	-0,971	-0,071	0,036
-151,877	257,876	0,059	-0,073
-150,862	-186,204	-0,151	-0,002
-149,847	722,784	0,025	-0,048
-148,833	800,000	0,018	0,049
-147,818	11,269	-0,018	-0,010
-146,804	216,027	0,011	0,012
-145,789	788,107	0,048	-0,097
-144,775	290,802	0,077	0,103
-143,760	-109,352	-0,073	-0,011
-142,745	-51,543	-0,077	0,026
-141,731	293,091	0,149	0,199
-140,716	-157,891	-0,078	-0,003
-139,702	800,000	-0,021	0,045
-138,687	-200,000	-0,006	0,135
-137,672	-88,135	-0,094	-0,020
-136,658	102,888	-0,016	-0,014
-135,643	800,000	-0,050	-0,120
-134,629	169,726	0,141	-0,146
-133,614	79,176	0,084	-0,065
-132,599	800,000	0,003	0,011
-131,585	32,523	0,041	0,026
-130,570	736,289	-0,044	-0,086
-129,556	-200,000	-0,009	-0,135
-128,541	-60,396	0,059	-0,018
-127,526	-200,000	0,007	-0,062
-126,512	-51,229	0,028	0,010
-125,497	-200,000	-0,021	0,144
-124,483	-200,000	-0,005	0,048
-123,468	-51,655	0,124	0,042
-122,453	-16,195	-0,081	0,037
-121,439	614,403	0,066	0,121
-120,424	800,000	0,016	-0,032
-119,410	14,162	-0,100	0,056
