DTS Sentinel unit serial number:	SN410029Multiplexer serial number:	ORYXHardware model number:	OX2-SRSoftware version number:	ORYX F/W v4,00 Oryx Data Collector v3.7.2.0data status	okinstallation	B4 Nyhavnadifferential loss correction	single-endedforward channel	channel 2reverse channel	N/Adate	2023/12/15time	15:30:13forward acquisition time	300,00reverse acquisition time	0,00gamma	499,1914k internal	0,3153k external	0,3153temperature offset calibration	1,0000default loss term (dB/km)	0,3820temperature slope calibration	1,0000multiplexer offset coefficient	1,0000multiplexer slope coefficient	1,0000fibre end	0,00T internal ref (°C)	16,39T ext. ref 1 (°C)	2,76T ext. ref 2 (°C)	2,89length (m)	temperature (°C)	Stokes	anti-Stokes-744,400	-200,000	-0,009	0,061
-743,385	181,835	-0,132	0,144
-742,371	42,325	0,082	0,055
-741,356	23,178	-0,194	0,117
-740,342	-0,393	0,096	0,050
-739,327	-154,719	-0,275	0,013
-738,312	-200,000	-0,002	0,094
-737,298	-0,107	-0,144	0,075
-736,283	-1,916	0,219	0,113
-735,269	-27,105	-0,258	-0,111
-734,254	-20,269	0,075	0,034
-733,239	-120,055	-0,514	-0,064
-732,225	-89,831	0,225	0,048
-731,210	-16,960	0,008	-0,004
-730,196	23,373	0,070	-0,042
-729,181	-117,528	-0,030	-0,004
-728,167	-188,879	-0,043	0,000
-727,152	55,296	0,069	-0,049
-726,137	109,761	-0,072	0,064
-725,123	225,468	-0,070	-0,084
-724,108	-62,703	-0,173	0,053
-723,094	-108,994	-0,124	0,019
-722,079	800,000	-0,079	-0,173
-721,064	-128,632	-0,046	0,005
-720,050	-94,867	0,145	0,029
-719,035	26,023	-0,146	0,090
-718,021	761,166	0,091	-0,182
-717,006	-131,421	-0,121	-0,012
-715,991	33,862	-0,047	-0,030
-714,977	446,370	-0,124	-0,201
-713,962	84,471	0,017	0,014
-712,948	65,729	-0,048	-0,036
-711,933	-200,000	0,003	-0,012
-710,918	-200,000	0,009	-0,048
-709,904	-16,014	-0,142	-0,066
-708,889	-29,960	0,128	0,053
-707,875	-137,890	-0,233	-0,019
-706,860	-41,335	-0,091	0,034
-705,845	483,623	0,047	0,079
-704,831	-200,000	-0,012	-0,058
-703,816	84,009	-0,098	0,079
-702,802	-200,000	-0,002	-0,036
-701,787	800,000	0,063	-0,143
-700,772	-200,000	-0,004	0,131
-699,758	-115,203	-0,076	-0,010
-698,743	-200,000	0,005	0,038
-697,729	8,622	-0,072	-0,040
-696,714	437,633	-0,050	0,081
-695,699	164,604	-0,057	0,059
-694,685	-200,000	0,015	-0,053
-693,670	800,000	-0,033	0,104
-692,656	-78,605	0,093	-0,023
-691,641	-14,435	-0,003	0,001
-690,627	-67,757	0,068	-0,020
-689,612	241,972	-0,082	0,101
-688,597	-66,972	-0,027	0,008
-687,583	463,013	-0,028	-0,046
-686,568	60,470	-0,157	-0,114
-685,554	-107,181	-0,058	0,009
-684,539	460,552	-0,017	-0,029
-683,524	-24,734	-0,133	-0,058
-682,510	8,430	0,080	-0,044
-681,495	-200,000	-0,008	-0,056
-680,481	39,424	-0,079	0,052
-679,466	-96,357	-0,156	-0,030
-678,451	-86,321	-0,054	0,012
-677,437	-200,000	-0,010	-0,039
-676,422	-134,001	-0,063	0,006
-675,408	-200,000	-0,003	-0,015
-674,393	526,598	0,041	0,071
-673,378	-12,659	-0,125	-0,060
-672,364	-74,181	-0,143	-0,038
-671,349	-200,000	0,004	-0,043
-670,335	164,189	-0,102	-0,106
-669,320	355,582	0,091	-0,134
-668,305	426,856	-0,062	-0,098
-667,291	-31,163	0,120	0,049
-666,276	-36,159	0,079	0,031
-665,262	13,476	-0,109	-0,062
-664,247	-77,066	0,034	-0,009
-663,232	163,999	0,115	0,120
-662,218	2,626	-0,059	-0,031
-661,203	542,561	-0,060	0,106
-660,189	-158,019	0,143	0,006
-659,174	-200,000	-0,009	-0,091
-658,159	104,741	0,130	-0,112
-657,145	-28,198	-0,095	0,040
-656,130	431,834	0,028	0,046
-655,116	-200,000	0,005	0,034
-654,101	-174,638	0,140	-0,003
-653,086	800,000	0,027	-0,060
-652,072	-200,000	-0,004	-0,137
-651,057	52,395	-0,080	-0,056
-650,043	-200,000	0,007	-0,038
-649,028	-200,000	-0,008	-0,062
-648,014	69,893	0,122	-0,092
-646,999	-200,000	-0,012	0,045
-645,984	-165,773	-0,037	-0,001
-644,970	77,889	-0,107	0,084
-643,955	329,573	-0,042	0,059
-642,941	-200,000	-0,019	0,091
-641,926	-179,483	-0,121	-0,002
-640,911	213,192	0,061	-0,071
-639,897	318,550	-0,057	0,080
-638,882	44,956	-0,054	0,036
-637,868	82,089	-0,039	-0,031
-636,853	-113,797	-0,068	-0,010
-635,838	-20,053	-0,073	-0,033
-634,824	443,038	-0,035	0,056
-633,809	93,680	-0,014	0,012
-632,795	800,000	0,015	-0,034
-631,780	149,225	-0,053	0,052
-630,765	32,936	0,047	-0,030
-629,751	-0,545	-0,074	-0,039
-628,736	800,000	-0,034	0,079
-627,722	-120,857	-0,056	-0,007
-626,707	-200,000	0,004	-0,014
-625,692	-200,000	-0,003	-0,034
-624,678	-165,883	0,096	0,003
-623,663	-116,307	-0,133	-0,018
-622,649	-200,000	-0,041	-0,134
-621,634	269,312	-0,075	-0,097
-620,619	42,806	-0,065	0,043
-619,605	800,000	0,050	-0,128
-618,590	52,114	0,090	0,063
-617,576	345,225	0,030	0,043
-616,561	800,000	0,015	-0,036
-615,546	-32,412	-0,110	0,045
-614,532	-200,000	-0,021	-0,114
-613,517	524,237	-0,047	0,082
-612,503	-200,000	0,023	-0,085
-611,488	-200,000	0,000	0,030
-610,474	-129,260	0,070	-0,007
-609,459	275,825	0,066	-0,086
-608,444	89,160	0,068	-0,055
-607,430	-82,663	-0,066	-0,016
-606,415	1,205	0,024	-0,013
-605,401	800,000	-0,008	0,026
-604,386	800,000	0,024	-0,075
-603,371	68,277	-0,008	-0,006
-602,357	3,448	-0,092	0,049
-601,342	-89,818	0,041	0,009
-600,328	140,929	-0,077	-0,075
-599,313	501,186	0,047	0,081
-598,298	-200,000	-0,003	-0,010
-597,284	-123,438	-0,060	0,007
-596,269	-55,118	-0,028	0,009
-595,255	-98,349	0,051	0,010
-594,240	-81,612	0,117	0,028
-593,225	-8,833	-0,036	-0,018
-592,211	-157,479	-0,069	-0,003
-591,196	36,117	0,066	0,042
-590,182	345,941	0,015	0,022
-589,167	-25,737	0,042	-0,018
-588,152	54,586	-0,094	0,066
-587,138	479,214	0,073	-0,121
-586,123	84,275	-0,043	-0,034
-585,109	662,340	-0,072	-0,137
-584,094	-200,000	-0,002	-0,044
-583,079	800,000	-0,011	0,028
-582,065	11,962	0,060	-0,034
-581,050	7,689	-0,117	-0,064
-580,036	-54,855	0,127	0,042
-579,021	211,903	-0,151	-0,175
-578,006	-74,630	-0,060	0,016
-576,992	-69,302	0,137	-0,038
-575,977	-200,000	-0,025	0,098
-574,963	-80,064	-0,056	-0,014
-573,948	209,812	-0,087	0,100
-572,934	800,000	0,027	-0,071
-571,919	800,000	-0,055	-0,144
-570,904	58,249	0,082	0,059
-569,890	192,949	0,043	-0,048
-568,875	800,000	-0,034	0,087
-567,861	-200,000	0,014	0,078
-566,846	800,000	0,058	0,125
-565,831	237,446	-0,052	-0,063
-564,817	-136,937	0,008	0,001
-563,802	-87,810	-0,126	0,028
-562,788	-200,000	-0,009	-0,169
-561,773	800,000	-0,022	-0,054
-560,758	139,495	0,065	-0,062
-559,744	169,687	0,044	-0,046
-558,729	-101,139	-0,161	0,029
-557,715	-78,470	-0,103	-0,026
-556,700	800,000	0,045	-0,100
-555,685	-200,000	-0,001	-0,022
-554,671	-29,663	0,083	0,035
-553,656	-200,000	0,002	0,032
-552,642	-88,855	0,103	-0,022
-551,627	133,792	-0,109	0,104
-550,612	-98,657	-0,072	0,013
-549,598	459,797	-0,066	-0,108
-548,583	285,567	-0,068	-0,090
-547,569	800,000	0,020	0,060
-546,554	800,000	-0,013	-0,031
-545,539	-92,688	0,093	0,019
-544,525	173,112	0,067	0,070
-543,510	-200,000	-0,021	0,085
-542,496	800,000	-0,024	0,051
-541,481	502,347	-0,050	0,085
-540,466	-200,000	-0,016	0,118
-539,452	-48,346	-0,078	-0,027
-538,437	-200,000	-0,015	0,179
-537,423	800,000	-0,033	0,078
-536,408	221,172	0,037	-0,044
-535,393	-13,121	-0,095	-0,045
-534,379	-18,421	0,163	-0,074
-533,364	327,496	-0,064	-0,089
-532,350	473,725	-0,041	0,068
-531,335	130,672	0,131	0,123
-530,321	37,252	0,152	0,098
-529,306	80,053	-0,048	-0,038
-528,291	24,799	-0,121	0,073
-527,277	-15,872	0,078	0,036
-526,262	-200,000	0,010	-0,034
-525,248	97,154	0,096	0,080
-524,233	-200,000	0,009	0,093
-523,218	-42,577	0,162	0,060
-522,204	365,311	-0,046	0,068
-521,189	29,636	0,058	0,036
-520,175	-200,000	0,034	-0,217
-519,160	-62,070	0,081	0,025
-518,145	-200,000	0,003	0,031
-517,131	-107,828	0,017	-0,003
-516,116	-46,038	0,089	0,032
-515,102	617,919	0,060	-0,110
-514,087	-101,673	-0,130	0,023
-513,072	-67,030	-0,074	-0,021
-512,058	-134,816	0,092	0,008
-511,043	195,025	0,034	0,037
-510,029	800,000	-0,013	-0,037
-509,014	45,935	0,076	0,052
-507,999	134,338	0,019	0,018
-506,985	-200,000	-0,017	0,185
-505,970	-200,000	0,010	0,042
-504,956	-131,767	-0,025	0,002
-503,941	-115,706	0,141	0,019
-502,926	800,000	-0,040	-0,082
-501,912	-200,000	0,015	0,186
-500,897	163,212	-0,099	-0,102
-499,883	145,734	-0,007	0,007
-498,868	628,452	0,014	0,026
-497,853	-65,167	0,148	0,043
-496,839	79,592	-0,066	0,052
-495,824	800,000	0,058	-0,151
-494,810	-200,000	0,007	0,070
-493,795	-200,000	-0,020	0,091
-492,781	176,797	0,028	-0,030
-491,766	-46,074	-0,067	0,024
-490,751	-97,105	-0,120	0,023
-489,737	-48,420	-0,115	0,040
-488,722	-200,000	0,012	-0,071
-487,708	71,954	0,122	0,092
-486,693	362,744	0,067	0,099
-485,678	271,004	0,063	-0,081
-484,664	2,452	-0,037	0,019
-483,649	648,456	0,099	-0,185
-482,635	46,001	-0,079	0,053
-481,620	800,000	0,008	0,026
-480,605	-200,000	-0,002	0,159
-479,591	-200,000	0,055	-0,182
-478,576	800,000	-0,041	0,091
-477,562	233,172	-0,067	0,081
-476,547	-200,000	0,000	-0,069
-475,532	787,889	0,048	0,097
-474,518	800,000	0,025	0,051
-473,503	25,105	-0,079	0,048
-472,489	800,000	0,035	0,108
-471,474	-16,594	-0,052	0,024
-470,459	-13,046	-0,087	0,041
-469,445	800,000	0,032	-0,088
-468,430	-110,186	0,098	-0,015
-467,416	-200,000	0,005	0,126
-466,401	6,213	-0,048	-0,026
-465,386	-200,000	-0,017	0,071
-464,372	216,685	0,070	-0,082
-463,357	11,491	-0,133	-0,074
-462,343	-46,084	0,104	-0,037
-461,328	-200,000	0,004	-0,130
-460,313	-32,348	0,067	0,027
-459,299	800,000	0,043	0,089
-458,284	-200,000	0,012	-0,072
-457,270	2,004	0,074	-0,039
-456,255	800,000	0,030	-0,061
-455,241	11,599	-0,086	-0,048
-454,226	-200,000	-0,022	-0,081
-453,211	609,848	0,044	-0,080
-452,197	-200,000	0,014	0,139
-451,182	-0,208	-0,031	0,016
-450,168	496,517	0,090	0,152
-449,153	76,272	-0,056	0,043
-448,138	-26,754	0,036	0,015
-447,124	749,176	-0,075	-0,148
-446,109	179,381	-0,092	-0,099
-445,095	337,190	0,062	0,089
-444,080	303,617	0,062	0,084
-443,065	-47,983	-0,140	0,049
-442,051	78,440	-0,082	-0,064
-441,036	-102,940	0,045	-0,008
-440,022	-3,131	0,078	-0,040
-439,007	-96,771	-0,062	-0,012
-437,992	63,465	-0,026	-0,019
-436,978	-200,000	0,023	0,099
-435,963	-200,000	-0,032	0,204
-434,949	800,000	0,035	0,105
-433,934	800,000	0,019	0,043
-432,919	800,000	0,104	-0,239
-431,905	-200,000	0,004	-0,027
-430,890	-99,784	-0,019	-0,003
-429,876	-43,764	-0,063	0,023
-428,861	800,000	-0,032	0,080
-427,846	-200,000	0,015	-0,070
-426,832	-39,881	-0,081	-0,031
-425,817	362,482	-0,029	0,042
-424,803	-74,249	0,139	0,036
-423,788	34,310	0,093	-0,059
-422,773	800,000	-0,032	-0,087
-421,759	247,048	0,083	0,102
-420,744	162,667	-0,036	-0,037
-419,730	-38,881	-0,164	0,063
-418,715	473,397	0,068	-0,112
-417,701	126,810	0,105	-0,097
-416,686	-84,029	0,022	0,005
-415,671	-64,263	0,055	-0,016
-414,657	321,723	0,089	0,123
-413,642	-200,000	-0,002	-0,056
-412,628	100,646	-0,018	-0,016
-411,613	99,917	-0,042	-0,036
-410,598	-200,000	-0,011	0,135
-409,584	-94,356	0,133	-0,026
-408,569	247,507	-0,035	0,043
-407,555	-200,000	0,012	0,122
-406,540	186,317	-0,036	0,039
-405,525	800,000	0,014	-0,041
-404,511	-57,135	0,140	-0,045
-403,496	111,857	-0,139	-0,122
-402,482	-4,811	0,141	0,071
-401,467	328,045	0,041	0,058
-400,452	217,070	0,029	-0,034
-399,438	-26,826	0,064	0,027
-398,423	-32,844	0,010	0,004
-397,409	-8,483	-0,063	-0,031
-396,394	800,000	-0,046	-0,125
-395,379	-123,706	0,085	0,010
-394,365	81,523	0,135	0,107
-393,350	315,642	-0,031	0,043
-392,336	-200,000	0,028	-0,142
-391,321	781,352	0,090	-0,180
-390,306	218,698	-0,061	-0,071
-389,292	210,570	0,097	-0,111
-388,277	-101,011	-0,016	-0,003
-387,263	-12,430	0,076	0,036
-386,248	52,187	-0,055	0,038
-385,233	-123,950	0,021	0,002
-384,219	800,000	0,042	0,091
-383,204	204,893	-0,035	-0,039
-382,190	151,468	0,092	0,092
-381,175	15,784	0,048	-0,027
-380,160	-174,837	-0,115	0,002
-379,146	800,000	0,089	0,184
-378,131	-200,000	0,007	0,163
-377,117	233,341	-0,016	0,019
-376,102	-200,000	-0,017	-0,061
-375,088	-163,527	0,024	0,001
-374,073	-19,281	0,071	0,032
-373,058	250,044	0,086	0,107
-372,044	800,000	-0,025	0,070
-371,029	-200,000	0,011	0,081
-370,015	0,787	0,061	-0,032
-369,000	-200,000	0,000	-0,077
-367,985	86,770	-0,055	-0,044
-366,971	800,000	-0,036	-0,079
-365,956	-145,119	-0,034	0,002
-364,942	-103,432	-0,023	0,004
-363,927	341,766	0,124	0,177
-362,912	-200,000	0,056	-0,211
-361,898	-105,746	-0,075	0,012
-360,883	-64,608	0,150	-0,044
-359,869	237,273	-0,018	0,021
-358,854	-200,000	0,008	0,081
-357,839	-154,978	0,107	-0,005
-356,825	-197,129	0,036	0,000
-355,810	309,233	-0,044	0,060
-354,796	516,130	0,047	-0,081
-353,781	-200,000	-0,013	-0,082
-352,766	66,184	0,040	-0,030
-351,752	-200,000	0,018	-0,100
-350,737	489,590	-0,018	0,030
-349,723	53,762	0,088	0,061
-348,708	-200,000	-0,006	-0,031
-347,693	72,942	0,060	-0,046
-346,679	-77,029	-0,116	0,029
-345,664	800,000	-0,032	-0,096
-344,650	-200,000	0,002	0,074
-343,635	289,373	-0,049	0,064
-342,620	800,000	-0,066	0,136
-341,606	-12,395	0,046	-0,022
-340,591	-71,388	-0,070	-0,019
-339,577	-200,000	0,043	-0,161
-338,562	-13,205	0,063	0,030
-337,548	-200,000	0,008	0,046
-336,533	19,163	0,085	0,049
-335,518	181,576	0,068	0,072
-334,504	-50,265	0,056	-0,019
-333,489	123,564	0,067	-0,061
-332,475	-38,563	0,097	0,037
-331,460	800,000	-0,016	0,034
-330,445	800,000	0,016	-0,047
-329,431	-200,000	0,007	0,070
-328,416	-54,957	-0,004	-0,001
-327,402	-165,143	-0,053	0,002
-326,387	800,000	-0,050	-0,119
-325,372	-186,691	0,037	0,000
-324,358	-200,000	-0,002	0,075
-323,343	39,893	0,114	-0,074
-322,329	171,002	0,079	0,082
-321,314	252,141	0,094	0,116
-320,299	570,737	-0,062	0,111
-319,285	254,307	0,112	-0,139
-318,270	235,575	0,020	-0,024
-317,256	121,494	-0,100	-0,090
-316,241	-200,000	-0,008	-0,104
-315,226	-103,632	0,074	-0,012
-314,212	800,000	0,008	-0,022
-313,197	-200,000	0,029	0,124
-312,183	225,326	-0,087	-0,102
-311,168	-96,598	-0,056	-0,011
-310,153	-83,687	0,100	-0,023
-309,139	-200,000	0,000	0,061
-308,124	-23,108	0,131	-0,057
-307,110	800,000	-0,033	-0,092
-306,095	-59,405	0,076	0,024
-305,080	-39,669	-0,026	0,010
-304,066	260,480	-0,049	0,062
-303,051	-123,295	-0,247	-0,028
-302,037	307,170	-0,067	0,091
-301,022	14,858	0,062	-0,035
-300,008	378,968	0,043	0,064
-298,993	35,804	-0,063	-0,040
-297,978	-60,131	0,105	0,032
-296,964	-160,577	-0,152	0,006
-295,949	-95,031	-0,045	0,009
-294,935	322,147	0,067	0,093
-293,920	-87,507	-0,034	0,008
-292,905	-115,219	-0,090	-0,012
-291,891	-59,884	0,082	0,025
-290,876	39,176	0,128	0,083
-289,862	-200,000	0,000	-0,037
-288,847	553,598	-0,067	-0,117
-287,832	85,879	0,056	0,045
-286,818	-200,000	0,005	-0,082
-285,803	11,343	-0,063	0,035
-284,789	157,521	0,049	0,049
-283,774	67,442	0,104	0,077
-282,759	-53,252	-0,081	-0,027
-281,745	506,006	-0,044	-0,075
-280,730	12,653	-0,198	-0,111
-279,716	800,000	0,016	-0,034
-278,701	163,721	0,053	-0,054
-277,686	-200,000	-0,011	-0,091
-276,672	-38,062	-0,084	-0,032
-275,657	50,012	-0,148	-0,101
-274,643	800,000	0,023	0,051
-273,628	-64,100	-0,030	0,009
-272,613	145,769	-0,070	-0,068
-271,599	28,096	-0,113	-0,069
-270,584	-159,502	0,059	-0,002
-269,570	-178,476	-0,003	0,000
-268,555	512,908	0,041	0,069
-267,540	800,000	0,019	-0,045
-266,526	-45,826	-0,106	0,038
-265,511	800,000	-0,054	0,159
-264,497	594,264	-0,054	0,097
-263,482	-200,000	0,003	0,102
-262,467	68,764	0,085	0,063
-261,453	-200,000	-0,022	0,100
-260,438	96,927	0,109	0,090
-259,424	-10,265	-0,091	-0,043
-258,409	-156,143	-0,066	-0,003
-257,395	-5,842	0,089	-0,044
-256,380	-82,225	-0,067	-0,016
-255,365	269,131	-0,054	0,068
-254,351	21,332	0,045	-0,027
-253,336	-12,561	-0,108	0,051
-252,322	7,453	-0,049	0,026
-251,307	139,212	-0,089	-0,085
-250,292	185,800	-0,065	-0,070
-249,278	374,730	0,069	0,102
-248,263	293,295	0,061	0,081
-247,249	800,000	0,011	-0,032
-246,234	198,378	-0,039	0,044
-245,219	-98,689	-0,124	0,023
-244,205	-200,000	-0,014	-0,157
-243,190	199,685	0,044	0,049
-242,176	-200,000	-0,002	-0,045
-241,161	6,085	0,081	-0,043
-240,146	101,637	-0,013	0,011
-239,132	150,733	-0,033	0,033
-238,117	-141,730	-0,049	0,003
-237,103	182,419	-0,027	-0,029
-236,088	800,000	0,030	0,066
-235,073	-200,000	0,010	0,063
-234,059	-200,000	-0,015	-0,077
-233,044	-75,794	-0,038	0,010
-232,030	-115,142	0,110	0,015
-231,015	725,630	-0,023	0,045
-230,000	318,706	-0,067	-0,093
-228,986	800,000	-0,054	-0,136
-227,971	-200,000	0,001	0,127
-226,957	-200,000	-0,005	0,057
-225,942	80,358	0,113	0,088
-224,927	247,008	-0,048	-0,059
-223,913	436,017	-0,091	-0,143
-222,898	160,056	-0,122	-0,123
-221,884	800,000	0,022	0,052
-220,869	197,320	0,069	0,076
-219,855	-200,000	0,013	0,096
-218,840	-200,000	-0,006	0,061
-217,825	431,966	-0,061	-0,097
-216,811	-7,716	-0,096	-0,047
-215,796	-119,407	-0,089	0,011
-214,782	-68,282	0,057	-0,016
-213,767	-200,000	0,019	0,087
-212,752	87,552	-0,063	0,050
-211,738	22,349	-0,063	0,037
-210,723	279,109	0,062	-0,080
-209,709	800,000	0,030	-0,076
-208,694	-103,974	0,020	0,003
-207,679	800,000	-0,085	0,197
-206,665	800,000	-0,025	0,073
-205,650	-108,337	0,101	0,016
-204,636	-99,481	-0,114	-0,021
-203,621	187,417	-0,047	-0,051
-202,606	193,477	-0,035	-0,039
-201,592	530,029	-0,063	-0,109
-200,577	120,342	0,075	-0,067
-199,563	800,000	-0,043	-0,134
-198,548	-13,906	-0,148	0,069
-197,533	712,853	0,044	0,085
-196,519	139,401	0,085	-0,081
-195,504	57,817	-0,053	-0,037
-194,490	-26,550	-0,124	0,052
-193,475	725,831	-0,051	-0,100
-192,460	-200,000	0,023	-0,080
-191,446	20,290	0,011	0,006
-190,431	-200,000	-0,012	-0,100
-189,417	241,519	0,076	-0,092
-188,402	800,000	-0,026	-0,070
-187,387	-200,000	-0,158	0,000
-186,373	-200,000	0,003	-0,177
-185,358	-200,000	0,010	0,037
-184,344	-118,974	-0,053	-0,007
-183,329	-200,000	-0,012	-0,043
-182,315	274,835	0,057	-0,073
-181,300	800,000	0,062	0,137
-180,285	603,226	-0,035	-0,064
-179,271	109,186	0,071	0,061
-178,256	800,000	-0,020	0,064
-177,242	37,190	0,164	0,105
-176,227	-149,311	-0,100	0,006
-175,212	-15,737	-0,033	-0,015
-174,198	-149,736	-0,080	0,004
-173,183	-33,629	0,037	-0,015
-172,169	13,066	0,067	-0,038
-171,154	607,411	0,023	-0,042
-170,139	-159,149	0,153	-0,006
-169,125	84,274	0,029	0,023
-168,110	69,605	0,053	-0,039
-167,096	238,305	0,073	0,088
-166,081	350,857	-0,060	-0,085
-165,066	-200,000	0,006	-0,084
-164,052	401,133	-0,014	0,021
-163,037	-200,000	0,005	-0,096
-162,023	-200,000	-0,002	-0,063
-161,008	-47,624	-0,069	0,024
-159,993	-22,802	-0,052	0,022
-158,979	-112,516	0,017	0,002
-157,964	800,000	0,082	-0,181
-156,950	-200,000	-0,002	-0,094
-155,935	-130,019	0,081	0,008
-154,920	800,000	-0,032	0,095
-153,906	800,000	-0,020	0,043
-152,891	-200,000	0,005	0,031
-151,877	-156,212	-0,064	0,003
-150,862	-149,423	0,047	-0,003
-149,847	-16,978	-0,158	-0,072
-148,833	-13,104	0,066	0,031
-147,818	800,000	0,076	0,210
-146,804	-200,000	0,008	0,082
-145,789	-63,637	0,134	0,039
-144,775	-200,000	-0,008	-0,101
-143,760	800,000	0,022	0,059
-142,745	-200,000	-0,008	-0,112
-141,731	-119,365	0,021	0,003
-140,716	167,862	-0,020	-0,021
-139,702	-122,941	0,136	-0,016
-138,687	114,296	-0,076	-0,067
-137,672	-21,534	-0,155	0,068
-136,658	-180,825	-0,110	-0,002
-135,643	-200,000	-0,022	-0,108
-134,629	800,000	-0,003	0,007
-133,614	390,100	-0,105	0,158
-132,599	-200,000	0,026	0,159
-131,585	-200,000	0,005	0,109
-130,570	-40,521	-0,111	0,041
-129,556	393,545	-0,032	0,048
-128,541	63,683	-0,035	-0,026
-127,526	800,000	0,087	-0,197
-126,512	-16,503	-0,078	-0,036
-125,497	-54,394	0,094	-0,030
-124,483	569,124	-0,063	-0,110
-123,468	39,512	-0,142	0,091
-122,453	-126,338	-0,048	0,005
-121,439	224,591	0,027	-0,032
-120,424	-200,000	0,011	-0,059
-119,410	384,241	0,071	0,106
-118,395	-95,193	0,047	-0,009
