DTS Sentinel unit serial number:	SN410029Multiplexer serial number:	ORYXHardware model number:	OX2-SRSoftware version number:	ORYX F/W v4,00 Oryx Data Collector v3.7.2.0data status	okinstallation	B4 Nyhavnadifferential loss correction	single-endedforward channel	channel 2reverse channel	N/Adate	2023/12/16time	12:10:13forward acquisition time	300,00reverse acquisition time	0,00gamma	499,1914k internal	0,3126k external	0,3126temperature offset calibration	1,0000default loss term (dB/km)	0,3820temperature slope calibration	1,0000multiplexer offset coefficient	1,0000multiplexer slope coefficient	1,0000fibre end	0,00T internal ref (°C)	24,00T ext. ref 1 (°C)	9,83T ext. ref 2 (°C)	9,97length (m)	temperature (°C)	Stokes	anti-Stokes-744,400	468,513	-0,031	0,052
-743,385	31,849	-0,260	0,167
-742,371	-76,539	0,086	-0,022
-741,356	46,748	-0,263	0,182
-740,342	800,000	0,037	-0,104
-739,327	-42,805	-0,133	0,050
-738,312	22,404	-0,073	-0,044
-737,298	29,351	-0,164	0,104
-736,283	245,607	-0,019	0,024
-735,269	63,348	-0,110	0,082
-734,254	164,197	-0,042	0,044
-733,239	-44,225	-0,306	-0,114
-732,225	-40,310	0,109	0,042
-731,210	-200,000	-0,014	-0,046
-730,196	559,188	0,018	-0,033
-729,181	-200,000	-0,013	0,078
-728,167	71,075	0,041	0,032
-727,152	-200,000	-0,008	-0,027
-726,137	800,000	0,044	0,093
-725,123	217,617	-0,034	0,040
-724,108	230,531	-0,066	-0,081
-723,094	48,627	-0,220	-0,153
-722,079	-200,000	0,017	-0,151
-721,064	-59,510	0,088	-0,028
-720,050	-200,000	0,073	0,000
-719,035	-172,759	-0,069	-0,002
-718,021	-200,000	-0,024	-0,115
-717,006	-200,000	0,007	-0,200
-715,991	776,518	0,047	-0,095
-714,977	-200,000	-0,026	-0,095
-713,962	466,639	-0,089	-0,149
-712,948	101,083	0,044	0,038
-711,933	191,372	-0,031	0,035
-710,918	800,000	0,004	-0,008
-709,904	162,358	-0,049	-0,051
-708,889	268,795	-0,024	-0,031
-707,875	800,000	-0,084	-0,177
-706,860	-200,000	0,003	-0,045
-705,845	252,975	0,097	-0,123
-704,831	172,565	-0,037	-0,039
-703,816	-200,000	-0,003	0,073
-702,802	78,084	0,067	0,053
-701,787	114,534	-0,079	0,071
-700,772	800,000	-0,016	0,035
-699,758	800,000	0,020	0,045
-698,743	-200,000	-0,019	0,088
-697,729	654,129	0,023	-0,044
-696,714	612,855	0,064	0,120
-695,699	-200,000	-0,030	-0,108
-694,685	220,456	-0,019	-0,023
-693,670	800,000	0,022	-0,053
-692,656	-24,616	-0,065	-0,029
-691,641	665,775	-0,035	0,067
-690,627	18,756	-0,059	0,035
-689,612	200,420	0,057	-0,065
-688,597	122,085	0,051	-0,048
-687,583	-200,000	0,002	-0,052
-686,568	-2,305	-0,013	-0,007
-685,554	176,932	-0,033	0,036
-684,539	-77,524	0,076	0,019
-683,524	800,000	-0,026	0,058
-682,510	-47,512	-0,017	0,006
-681,495	70,304	-0,061	0,046
-680,481	-200,000	0,009	-0,132
-679,466	-200,000	-0,016	-0,093
-678,451	800,000	-0,029	-0,064
-677,437	-200,000	0,014	-0,106
-676,422	-78,867	0,072	-0,018
-675,408	-186,953	-0,068	-0,001
-674,393	-200,000	0,007	-0,176
-673,378	-96,383	-0,060	0,012
-672,364	-91,750	-0,080	0,017
-671,349	-200,000	-0,047	-0,165
-670,335	-200,000	-0,016	-0,229
-669,320	-66,874	-0,064	0,019
-668,305	44,986	0,129	0,088
-667,291	-200,000	-0,017	0,088
-666,276	173,054	-0,028	-0,030
-665,262	97,807	-0,117	-0,099
-664,247	-100,905	-0,105	0,019
-663,232	37,986	-0,092	-0,061
-662,218	-7,350	0,100	-0,050
-661,203	-200,000	0,019	0,101
-660,189	-47,733	-0,242	-0,087
-659,174	-95,483	0,117	-0,023
-658,159	302,651	0,010	-0,014
-657,145	331,616	-0,073	-0,105
-656,130	-200,000	-0,006	0,057
-655,116	-98,379	-0,102	0,019
-654,101	-200,000	0,012	0,098
-653,086	-200,000	-0,003	0,229
-652,072	5,476	0,046	0,025
-651,057	-111,657	-0,147	-0,022
-650,043	-200,000	-0,006	-0,052
-649,028	18,212	0,102	-0,061
-648,014	800,000	-0,054	-0,161
-646,999	-200,000	-0,005	-0,055
-645,984	146,885	-0,038	-0,038
-644,970	154,693	-0,121	0,123
-643,955	102,816	0,020	-0,017
-642,941	41,002	-0,118	0,079
-641,926	298,774	0,039	0,054
-640,911	101,345	0,021	0,018
-639,897	-147,960	-0,051	-0,003
-638,882	-122,851	0,061	-0,007
-637,868	-127,976	0,116	0,012
-636,853	55,297	-0,055	-0,040
-635,838	-50,799	0,050	-0,017
-634,824	-93,111	0,055	-0,011
-633,809	-33,134	-0,057	-0,023
-632,795	-7,827	0,052	-0,026
-631,780	-200,000	0,038	0,133
-630,765	800,000	0,034	-0,086
-629,751	800,000	0,076	-0,169
-628,736	-200,000	0,015	-0,139
-627,722	800,000	-0,127	0,267
-626,707	800,000	-0,016	0,050
-625,692	-53,264	0,201	-0,068
-624,678	540,864	0,026	-0,045
-623,663	352,148	-0,019	0,028
-622,649	482,550	-0,024	-0,041
-621,634	65,297	-0,010	0,008
-620,619	800,000	0,011	-0,031
-619,605	-8,788	0,157	0,078
-618,590	148,937	0,040	0,040
-617,576	676,850	-0,048	-0,092
-616,561	222,087	0,042	0,051
-615,546	-76,413	-0,089	-0,023
-614,532	-200,000	-0,011	0,137
-613,517	-200,000	0,009	-0,077
-612,503	157,506	0,125	-0,128
-611,488	297,857	0,065	0,089
-610,474	-8,020	-0,120	0,060
-609,459	532,343	0,005	-0,010
-608,444	-146,054	-0,114	-0,007
-607,430	800,000	0,027	-0,064
-606,415	-106,761	-0,017	-0,003
-605,401	-200,000	-0,023	-0,101
-604,386	-200,000	-0,003	-0,069
-603,371	-104,135	0,074	-0,013
-602,357	162,788	0,077	0,080
-601,342	-200,000	-0,035	0,142
-600,328	800,000	-0,044	-0,125
-599,313	22,019	-0,156	-0,094
-598,298	84,617	0,015	0,012
-597,284	-9,832	0,121	-0,059
-596,269	284,220	0,025	-0,034
-595,255	-96,186	-0,068	0,013
-594,240	800,000	-0,028	-0,083
-593,225	-200,000	-0,012	0,052
-592,211	-200,000	0,004	-0,068
-591,196	39,271	-0,150	-0,099
-590,182	800,000	-0,020	0,044
-589,167	-138,652	-0,029	0,002
-588,152	-200,000	0,005	0,077
-587,138	398,627	-0,020	0,032
-586,123	11,010	-0,191	0,108
-585,109	800,000	-0,039	-0,084
-584,094	268,757	0,097	-0,126
-583,079	-93,840	0,153	0,031
-582,065	205,060	0,032	0,036
-581,050	-178,882	0,096	-0,002
-580,036	-15,273	0,112	-0,053
-579,021	-122,247	-0,057	-0,007
-578,006	531,595	-0,045	-0,079
-576,992	-200,000	-0,012	0,046
-575,977	47,898	0,094	0,065
-574,963	-12,803	0,054	-0,026
-573,948	-200,000	-0,002	0,038
-572,934	-149,790	-0,069	-0,004
-571,919	-37,197	-0,070	0,028
-570,904	-51,555	0,132	-0,045
-569,890	-200,000	-0,034	-0,118
-568,875	-200,000	0,021	-0,121
-567,861	101,178	-0,043	-0,037
-566,846	800,000	-0,033	0,102
-565,831	652,549	0,040	0,077
-564,817	705,162	-0,079	-0,154
-563,802	293,993	0,077	0,104
-562,788	800,000	0,043	-0,111
-561,773	233,164	0,011	0,014
-560,758	98,562	0,080	0,068
-559,744	-200,000	0,006	0,120
-558,729	-200,000	-0,064	0,216
-557,715	-139,687	-0,062	-0,005
-556,700	-27,294	0,091	-0,039
-555,685	34,453	-0,035	-0,022
-554,671	-127,803	0,081	-0,008
-553,656	43,556	0,090	-0,061
-552,642	389,534	0,021	-0,033
-551,627	-31,117	-0,075	0,031
-550,612	640,914	0,035	-0,065
-549,598	800,000	-0,019	-0,048
-548,583	654,540	0,104	-0,198
-547,569	-134,133	-0,118	-0,011
-546,554	44,753	-0,057	0,039
-545,539	486,420	0,067	-0,113
-544,525	-134,380	0,015	0,001
-543,510	-19,006	0,035	-0,016
-542,496	62,096	-0,040	0,029
-541,481	-66,241	0,087	-0,025
-540,466	-200,000	-0,028	0,095
-539,452	-200,000	-0,004	0,049
-538,437	-200,000	0,008	-0,049
-537,423	-200,000	-0,022	-0,125
-536,408	-11,294	-0,054	-0,026
-535,393	-124,331	-0,059	0,007
-534,379	-64,425	0,057	-0,017
-533,364	-200,000	0,007	-0,025
-532,350	-200,000	0,000	0,001
-531,335	362,422	0,023	0,034
-530,321	-200,000	-0,022	0,113
-529,306	-94,944	-0,121	-0,024
-528,291	-114,854	0,057	-0,008
-527,277	18,535	-0,032	-0,019
-526,262	-96,828	-0,107	-0,021
-525,248	800,000	0,057	-0,144
-524,233	18,416	0,093	0,055
-523,218	800,000	0,046	0,121
-522,204	-112,453	0,079	0,012
-521,189	40,728	-0,060	0,040
-520,175	23,808	-0,103	-0,062
-519,160	-200,000	-0,001	-0,077
-518,145	-200,000	0,011	0,066
-517,131	151,086	0,023	0,023
-516,116	147,026	-0,077	0,077
-515,102	800,000	0,047	-0,117
-514,087	721,803	-0,019	0,038
-513,072	109,968	-0,066	0,058
-512,058	-132,691	0,108	-0,010
-511,043	106,717	0,038	-0,033
-510,029	-109,879	0,014	0,002
-509,014	404,643	0,106	0,166
-507,999	-31,150	-0,063	0,026
-506,985	-105,655	0,021	0,003
-505,970	-69,954	-0,045	-0,013
-504,956	55,284	0,030	0,022
-503,941	-146,355	0,008	0,000
-502,926	-87,928	-0,159	0,035
-501,912	-138,999	0,110	-0,009
-500,897	692,143	-0,031	-0,059
-499,883	800,000	-0,016	-0,035
-498,868	54,040	0,024	-0,017
-497,853	64,338	-0,087	-0,064
-496,839	-110,401	0,054	-0,008
-495,824	245,852	-0,121	-0,151
-494,810	-113,394	0,138	-0,020
-493,795	-45,596	0,089	-0,032
-492,781	39,653	-0,153	0,101
-491,766	-57,207	-0,114	0,037
-490,751	-96,384	-0,183	-0,035
-489,737	-120,236	0,067	-0,008
-488,722	800,000	-0,017	-0,046
-487,708	800,000	0,036	-0,078
-486,693	-152,527	0,096	-0,005
-485,678	93,795	-0,079	0,066
-484,664	82,501	-0,144	-0,115
-483,649	-12,163	-0,045	-0,022
-482,635	798,169	0,028	-0,057
-481,620	-162,938	-0,085	-0,003
-480,605	59,293	-0,036	0,026
-479,591	-85,882	0,132	-0,030
-478,576	263,749	0,022	0,029
-477,562	60,198	-0,117	-0,085
-476,547	16,317	-0,014	-0,008
-475,532	-190,854	-0,050	-0,000
-474,518	800,000	0,023	0,066
-473,503	102,296	0,034	0,030
-472,489	-200,000	-0,010	0,162
-471,474	391,857	-0,008	0,013
-470,459	800,000	-0,021	-0,048
-469,445	-173,479	-0,082	0,002
-468,430	-43,173	-0,106	-0,039
-467,416	294,246	0,025	0,033
-466,401	194,263	0,057	-0,064
-465,386	-144,470	0,113	0,008
-464,372	-200,000	-0,010	-0,086
-463,357	688,116	0,087	-0,168
-462,343	-98,742	0,077	0,014
-461,328	-200,000	-0,009	0,107
-460,313	-45,084	-0,055	0,020
-459,299	125,234	-0,047	0,043
-458,284	-104,092	-0,070	0,012
-457,270	800,000	-0,028	0,066
-456,255	-124,066	0,057	-0,007
-455,241	462,173	-0,058	-0,096
-454,226	-200,000	-0,009	-0,093
-453,211	800,000	-0,053	-0,169
-452,197	-156,389	-0,080	-0,004
-451,182	-104,734	0,067	-0,011
-450,168	-200,000	0,000	-0,023
-449,153	-200,000	0,011	-0,050
-448,138	-200,000	-0,022	-0,107
-447,124	-200,000	0,008	-0,138
-446,109	-29,332	-0,087	0,037
-445,095	-43,932	0,013	-0,005
-444,080	-108,089	0,067	0,011
-443,065	-53,734	-0,067	0,022
-442,051	-200,000	0,006	-0,045
-441,036	76,082	-0,076	0,059
-440,022	-200,000	0,014	-0,077
-439,007	-70,070	0,078	0,022
-437,992	-200,000	-0,025	-0,112
-436,978	-117,990	0,092	0,012
-435,963	-200,000	-0,005	0,044
-434,949	-94,341	-0,072	-0,014
-433,934	35,097	-0,106	-0,068
-432,919	-200,000	-0,007	-0,091
-431,905	800,000	0,040	-0,117
-430,890	-200,000	0,020	0,112
-429,876	-200,000	0,007	0,077
-428,861	135,794	0,094	-0,090
-427,846	181,524	-0,074	0,080
-426,832	800,000	-0,039	-0,111
-425,817	800,000	-0,017	-0,042
-424,803	800,000	-0,041	-0,086
-423,788	800,000	0,037	-0,083
-422,773	-200,000	0,077	-0,000
-421,759	123,311	-0,100	0,093
-420,744	-30,732	0,070	0,029
-419,730	-200,000	0,012	-0,100
-418,715	113,546	0,035	0,031
-417,701	-200,000	-0,000	0,032
-416,686	-200,000	-0,022	-0,095
-415,671	-69,764	0,089	-0,025
-414,657	-200,000	0,013	-0,050
-413,642	800,000	0,055	0,165
-412,628	-200,000	-0,016	-0,066
-411,613	-65,692	-0,076	0,022
-410,598	246,096	-0,100	-0,124
-409,584	395,856	0,097	0,150
-408,569	-29,978	0,074	0,031
-407,555	-200,000	-0,003	0,160
-406,540	109,308	-0,089	0,078
-405,525	800,000	-0,031	-0,078
-404,511	142,253	0,055	0,054
-403,496	-18,260	0,035	0,016
-402,482	221,668	0,074	-0,088
-401,467	147,218	-0,017	0,017
-400,452	196,361	0,008	0,009
-399,438	354,197	-0,115	-0,168
-398,423	-200,000	-0,010	0,048
-397,409	-59,245	0,049	-0,015
-396,394	-23,039	-0,167	0,074
-395,379	800,000	0,020	0,042
-394,365	-200,000	0,013	0,080
-393,350	0,011	-0,050	0,026
-392,336	-200,000	-0,044	0,169
-391,321	-39,025	0,125	0,048
-390,306	180,389	-0,073	-0,079
-389,292	-35,108	0,099	0,040
-388,277	277,387	0,080	0,105
-387,263	-200,000	0,017	0,100
-386,248	-200,000	0,048	0,155
-385,233	-60,047	0,176	0,055
-384,219	56,913	0,067	0,048
-383,204	29,829	-0,057	-0,035
-382,190	-135,791	-0,090	-0,008
-381,175	-69,474	-0,079	0,022
-380,160	-52,070	0,119	0,040
-379,146	747,517	-0,089	0,177
-378,131	16,545	-0,081	0,047
-377,117	-74,565	0,038	-0,010
-376,102	800,000	-0,008	0,021
-375,088	-44,951	0,061	0,022
-374,073	57,993	-0,068	-0,049
-373,058	-200,000	-0,027	0,108
-372,044	397,121	0,059	0,091
-371,029	75,927	-0,090	-0,070
-370,015	800,000	0,022	-0,061
-369,000	-154,067	0,009	-0,000
-367,985	-61,657	-0,119	0,036
-366,971	617,484	-0,049	-0,090
-365,956	-200,000	0,005	0,127
-364,942	800,000	0,028	0,076
-363,927	800,000	0,027	-0,072
-362,912	-200,000	-0,013	-0,107
-361,898	138,514	-0,141	-0,136
-360,883	-18,540	-0,043	-0,019
-359,869	-111,391	-0,052	0,008
-358,854	-200,000	-0,003	0,117
-357,839	69,920	-0,029	-0,022
-356,825	385,196	-0,094	0,143
-355,810	800,000	0,075	0,153
-354,796	-200,000	0,021	-0,180
-353,781	-66,906	0,098	-0,028
-352,766	-200,000	0,018	-0,123
-351,752	144,792	-0,088	-0,087
-350,737	-200,000	0,021	0,138
-349,723	-200,000	-0,027	0,113
-348,708	121,765	-0,068	0,062
-347,693	9,745	0,043	0,024
-346,679	-76,230	0,025	0,006
-345,664	-87,157	-0,095	-0,021
-344,650	-25,109	-0,097	0,042
-343,635	-160,389	0,040	0,002
-342,620	-200,000	-0,045	-0,196
-341,606	-200,000	0,015	-0,055
-340,591	270,229	0,077	0,100
-339,577	106,979	-0,067	-0,059
-338,562	-200,000	-0,020	-0,163
-337,548	495,740	-0,049	-0,082
-336,533	717,462	0,052	0,102
-335,518	121,694	-0,069	0,063
-334,504	800,000	-0,070	0,147
-333,489	171,826	0,081	0,086
-332,475	498,761	-0,040	0,068
-331,460	-26,511	-0,090	-0,039
-330,445	475,678	0,043	-0,072
-329,431	-58,139	0,130	0,041
-328,416	-35,747	-0,014	-0,006
-327,402	746,465	-0,005	0,010
-326,387	-175,494	-0,118	-0,002
-325,372	-81,405	-0,131	0,031
-324,358	800,000	0,021	0,064
-323,343	800,000	-0,059	-0,120
-322,329	-21,548	0,091	0,041
-321,314	-27,510	0,145	0,061
-320,299	736,266	0,050	0,098
-319,285	-107,608	-0,087	-0,014
-318,270	187,085	-0,043	-0,047
-317,256	13,365	0,082	0,046
-316,241	101,246	-0,059	-0,051
-315,226	243,953	-0,063	0,077
-314,212	226,597	0,110	0,131
-313,197	800,000	-0,029	-0,060
-312,183	445,169	-0,053	0,085
-311,168	232,656	0,019	0,023
-310,153	131,065	0,057	-0,053
-309,139	-159,053	0,142	0,006
-308,124	800,000	0,043	0,094
-307,110	-200,000	-0,030	-0,098
-306,095	397,561	-0,079	0,121
-305,080	-200,000	-0,002	-0,014
-304,066	800,000	0,027	-0,060
-303,051	-200,000	0,055	-0,207
-302,037	-47,643	-0,093	-0,033
-301,022	228,716	0,077	0,092
-300,008	-3,532	0,094	-0,048
-298,993	-66,791	0,078	-0,023
-297,978	-170,723	-0,172	-0,004
-296,964	225,573	0,038	0,045
-295,949	-200,000	0,005	-0,069
-294,935	-105,151	0,045	0,008
-293,920	4,222	-0,054	0,029
-292,905	42,754	0,088	0,058
-291,891	361,356	-0,068	0,101
-290,876	-90,668	-0,075	-0,016
-289,862	189,139	-0,071	-0,078
-288,847	422,276	-0,017	0,026
-287,832	-200,000	-0,034	-0,172
-286,818	-109,834	-0,119	-0,018
-285,803	202,066	0,081	0,091
-284,789	-200,000	-0,024	0,126
-283,774	172,627	0,035	-0,037
-282,759	0,718	0,057	0,030
-281,745	-111,650	0,028	0,004
-280,730	-60,287	0,070	0,022
-279,716	186,985	0,023	0,025
-278,701	-200,000	-0,003	0,098
-277,686	-60,966	0,052	0,016
-276,672	-176,135	-0,089	0,002
-275,657	18,736	0,051	0,030
-274,643	-105,126	-0,033	-0,005
-273,628	-200,000	-0,037	-0,157
-272,613	394,996	-0,073	0,111
-271,599	-6,508	-0,030	0,015
-270,584	10,685	-0,061	-0,034
-269,570	-15,558	0,146	0,068
-268,555	24,012	0,077	0,046
-267,540	198,840	-0,138	-0,155
-266,526	-142,168	-0,040	0,003
-265,511	-48,789	0,089	-0,031
-264,497	-120,349	-0,036	-0,004
-263,482	-182,540	0,047	0,001
-262,467	-57,361	0,142	0,045
-261,453	-27,883	-0,128	-0,054
-260,438	163,984	-0,131	0,135
-259,424	145,746	-0,049	-0,048
-258,409	200,813	0,069	0,078
-257,395	-200,000	0,016	0,095
-256,380	108,230	-0,069	-0,061
-255,365	116,564	0,056	0,050
-254,351	190,507	-0,024	0,027
-253,336	-9,492	0,031	-0,015
-252,322	281,564	-0,096	0,127
-251,307	405,796	0,018	0,028
-250,292	-200,000	-0,002	0,092
-249,278	140,446	0,038	-0,037
-248,263	-34,714	0,062	-0,025
-247,249	-192,759	0,128	0,001
-246,234	128,589	-0,090	-0,084
-245,219	499,334	0,020	-0,033
-244,205	443,691	0,059	-0,095
-243,190	-200,000	-0,023	0,078
-242,176	-200,000	0,004	-0,159
-241,161	547,887	0,075	0,131
-240,146	-177,427	0,132	-0,002
-239,132	-200,000	0,025	-0,087
-238,117	78,834	-0,047	-0,037
-237,103	-200,000	-0,002	0,046
-236,088	486,098	0,012	-0,020
-235,073	229,532	0,087	0,104
-234,059	179,713	0,041	0,044
-233,044	27,711	0,091	0,056
-232,030	-18,523	-0,031	-0,014
-231,015	800,000	-0,032	-0,087
-230,000	800,000	0,016	-0,034
-228,986	-125,540	0,017	0,002
-227,971	-103,144	0,134	0,023
-226,957	-164,224	0,156	0,005
-225,942	-200,000	0,029	-0,125
-224,927	1,487	-0,040	-0,021
-223,913	5,372	-0,110	0,059
-222,898	-200,000	-0,008	0,037
-221,884	56,193	0,140	-0,099
-220,869	38,261	0,227	-0,147
-219,855	800,000	0,039	-0,094
-218,840	800,000	0,038	-0,087
-217,825	381,953	0,037	0,056
-216,811	-131,657	-0,038	0,004
-215,796	-9,373	-0,012	0,006
-214,782	238,056	0,027	-0,033
-213,767	33,644	0,066	0,042
-212,752	-200,000	-0,017	-0,090
-211,738	728,089	0,025	0,049
-210,723	-133,190	0,152	0,014
-209,709	-21,630	-0,103	0,045
-208,694	-39,560	-0,158	0,060
-207,679	786,449	-0,075	0,150
-206,665	261,284	-0,060	0,076
-205,650	51,119	0,118	0,082
-204,636	69,943	-0,032	0,024
-203,621	82,765	0,067	0,053
-202,606	800,000	-0,034	0,108
-201,592	19,420	-0,070	-0,041
-200,577	-200,000	0,012	0,053
-199,563	667,350	-0,091	0,172
-198,548	14,230	-0,070	0,039
-197,533	-176,094	0,066	-0,001
-196,519	-200,000	0,002	-0,054
-195,504	800,000	-0,025	0,076
-194,490	29,355	-0,105	-0,065
-193,475	-200,000	0,015	-0,136
-192,460	26,280	0,110	-0,067
-191,446	-200,000	0,024	0,111
-190,431	-48,463	0,091	0,032
-189,417	35,989	-0,198	-0,127
-188,402	0,711	-0,133	0,069
-187,387	-200,000	0,014	0,052
-186,373	800,000	0,014	-0,042
-185,358	800,000	-0,056	-0,119
-184,344	-200,000	0,010	-0,076
-183,329	44,423	0,047	-0,032
-182,315	659,225	0,090	-0,169
-181,300	83,903	-0,013	-0,010
-180,285	7,286	-0,120	-0,065
-179,271	32,721	0,023	-0,015
-178,256	589,151	-0,018	0,033
-177,242	-200,000	0,013	-0,106
-176,227	-21,160	-0,088	0,039
-175,212	-200,000	0,009	0,096
-174,198	-200,000	0,008	-0,039
-173,183	-200,000	0,004	-0,070
-172,169	-6,288	0,014	0,007
-171,154	-200,000	-0,012	-0,084
-170,139	390,353	0,066	-0,100
-169,125	8,856	-0,089	-0,049
-168,110	800,000	0,055	0,131
-167,096	-200,000	0,006	0,130
-166,081	-51,467	-0,108	0,037
-165,066	13,353	-0,086	-0,048
-164,052	-200,000	0,003	-0,083
-163,037	800,000	0,011	0,036
-162,023	800,000	-0,025	0,059
-161,008	298,339	0,055	0,074
-159,993	266,026	0,130	0,165
-158,979	-0,415	-0,034	-0,018
-157,964	-50,130	0,081	-0,028
-156,950	-157,829	0,103	0,004
-155,935	-200,000	-0,026	0,105
-154,920	800,000	0,064	0,172
-153,906	23,128	0,131	0,078
-152,891	-30,662	-0,094	0,039
-151,877	55,382	-0,026	-0,018
-150,862	800,000	0,074	0,165
-149,847	-29,012	0,103	0,043
-148,833	800,000	0,038	-0,116
-147,818	172,619	-0,108	0,113
-146,804	14,462	-0,049	0,028
-145,789	-80,630	-0,034	-0,008
-144,775	228,139	-0,041	-0,049
-143,760	-68,057	-0,052	0,015
-142,745	-200,000	0,003	0,034
-141,731	800,000	-0,022	0,058
-140,716	133,186	0,158	-0,148
-139,702	239,637	0,053	0,065
-138,687	73,301	0,028	0,021
-137,672	-190,911	-0,054	0,000
-136,658	-36,002	-0,237	0,093
-135,643	-200,000	-0,003	0,093
-134,629	-99,161	0,141	0,026
-133,614	-104,906	-0,076	0,012
-132,599	-15,866	0,085	0,039
-131,585	-38,169	-0,103	0,040
-130,570	96,725	0,129	0,107
-129,556	-200,000	-0,028	0,121
-128,541	-116,966	-0,127	-0,017
-127,526	-123,911	-0,117	-0,013
-126,512	392,320	0,012	0,018
-125,497	348,104	0,040	0,058
-124,483	20,268	0,068	-0,040
-123,468	-31,617	-0,054	0,022
-122,453	-28,196	-0,083	-0,035
-121,439	36,438	-0,098	-0,063
-120,424	430,633	0,110	-0,173
-119,410	138,093	-0,060	-0,057
