DTS Sentinel unit serial number:	SN410029Multiplexer serial number:	ORYXHardware model number:	OX2-SRSoftware version number:	ORYX F/W v4,00 Oryx Data Collector v3.7.2.0data status	okinstallation	B4 Nyhavnadifferential loss correction	single-endedforward channel	channel 2reverse channel	N/Adate	2023/12/16time	03:35:13forward acquisition time	300,00reverse acquisition time	0,00gamma	499,1914k internal	0,3128k external	0,3128temperature offset calibration	1,0000default loss term (dB/km)	0,3820temperature slope calibration	1,0000multiplexer offset coefficient	1,0000multiplexer slope coefficient	1,0000fibre end	0,00T internal ref (°C)	22,00T ext. ref 1 (°C)	7,05T ext. ref 2 (°C)	7,25length (m)	temperature (°C)	Stokes	anti-Stokes-744,400	-200,000	0,014	-0,090
-743,385	40,538	-0,197	0,132
-742,371	13,883	0,110	-0,063
-741,356	94,880	-0,176	0,149
-740,342	-109,001	0,083	0,013
-739,327	154,649	-0,204	0,208
-738,312	-200,000	0,015	0,118
-737,298	-72,085	-0,069	0,019
-736,283	-200,000	-0,035	-0,179
-735,269	-45,848	-0,136	0,050
-734,254	104,386	0,117	-0,103
-733,239	-30,975	-0,418	-0,175
-732,225	-127,596	0,217	-0,023
-731,210	39,854	-0,127	-0,085
-730,196	800,000	0,025	-0,067
-729,181	308,560	-0,044	-0,062
-728,167	800,000	-0,038	-0,098
-727,152	800,000	0,032	-0,101
-726,137	800,000	0,027	-0,065
-725,123	-127,098	-0,060	-0,006
-724,108	-106,221	-0,183	-0,030
-723,094	6,949	-0,086	-0,047
-722,079	-134,317	-0,081	-0,007
-721,064	800,000	-0,057	-0,185
-720,050	391,901	-0,015	0,023
-719,035	265,775	0,056	0,073
-718,021	-33,926	-0,078	-0,032
-717,006	104,747	0,012	-0,011
-715,991	-200,000	-0,037	-0,145
-714,977	800,000	0,029	-0,085
-713,962	-126,222	0,073	-0,008
-712,948	800,000	0,032	0,102
-711,933	-200,000	0,012	0,067
-710,918	576,832	0,015	0,027
-709,904	800,000	-0,049	0,120
-708,889	-26,663	-0,024	-0,010
-707,875	194,760	-0,141	0,159
-706,860	-111,780	0,146	0,022
-705,845	800,000	0,022	0,048
-704,831	-112,412	0,057	0,008
-703,816	413,724	-0,008	0,013
-702,802	800,000	-0,047	-0,109
-701,787	800,000	-0,040	-0,115
-700,772	-200,000	0,030	-0,113
-699,758	79,802	-0,046	0,037
-698,743	-200,000	-0,020	0,109
-697,729	424,364	-0,048	0,078
-696,714	86,936	-0,049	0,040
-695,699	93,201	0,061	0,051
-694,685	209,980	-0,074	-0,087
-693,670	-30,809	-0,141	-0,059
-692,656	800,000	0,011	-0,030
-691,641	-94,466	-0,055	-0,011
-690,627	169,626	-0,098	0,104
-689,612	800,000	-0,055	0,151
-688,597	-86,571	-0,048	-0,011
-687,583	800,000	0,049	-0,154
-686,568	676,781	0,066	-0,128
-685,554	177,487	-0,068	0,073
-684,539	800,000	0,056	0,127
-683,524	-200,000	0,000	0,075
-682,510	0,583	0,142	0,075
-681,495	92,640	0,033	-0,028
-680,481	85,301	0,032	-0,026
-679,466	-103,669	-0,061	0,010
-678,451	18,225	-0,128	-0,076
-677,437	57,640	0,106	0,077
-676,422	-200,000	-0,022	0,084
-675,408	-45,368	0,096	0,035
-674,393	47,851	-0,134	-0,093
-673,378	-200,000	-0,030	-0,100
-672,364	800,000	-0,030	-0,066
-671,349	-65,499	-0,095	-0,028
-670,335	-200,000	-0,016	0,088
-669,320	-200,000	0,019	0,091
-668,305	-68,658	0,108	0,031
-667,291	194,344	-0,082	0,093
-666,276	-103,867	0,041	-0,007
-665,262	-35,706	-0,056	-0,022
-664,247	135,070	0,024	0,023
-663,232	-101,601	-0,075	-0,013
-662,218	-38,327	0,105	0,041
-661,203	80,853	-0,085	-0,068
-660,189	602,058	-0,077	0,143
-659,174	673,603	0,076	-0,146
-658,159	61,508	-0,104	-0,076
-657,145	-163,584	0,062	-0,002
-656,130	-200,000	-0,006	0,091
-655,116	-200,000	0,008	0,093
-654,101	-99,337	0,074	-0,014
-653,086	280,180	-0,053	-0,071
-652,072	529,088	-0,017	-0,030
-651,057	97,774	-0,076	-0,064
-650,043	141,715	0,107	0,105
-649,028	149,946	-0,099	-0,100
-648,014	413,160	-0,053	0,084
-646,999	175,681	0,046	0,049
-645,984	105,301	-0,152	0,133
-644,970	739,921	-0,049	0,097
-643,955	400,749	0,114	-0,177
-642,941	17,330	0,062	0,036
-641,926	21,738	0,069	0,042
-640,911	622,847	0,078	-0,145
-639,897	-200,000	0,025	-0,123
-638,882	-200,000	0,018	0,100
-637,868	800,000	0,037	-0,086
-636,853	-110,166	-0,110	-0,017
-635,838	215,715	-0,066	-0,078
-634,824	123,320	0,082	-0,076
-633,809	290,136	-0,008	-0,011
-632,795	-63,952	-0,033	0,010
-631,780	125,926	-0,070	0,065
-630,765	14,053	-0,019	-0,011
-629,751	-200,000	0,005	-0,018
-628,736	2,767	-0,170	-0,091
-627,722	110,522	0,034	0,030
-626,707	268,194	0,036	0,047
-625,692	-200,000	0,009	0,049
-624,678	3,514	0,095	0,051
-623,663	-200,000	0,001	0,044
-622,649	800,000	-0,042	-0,123
-621,634	323,555	-0,061	-0,087
-620,619	-200,000	0,029	-0,097
-619,605	487,533	0,026	-0,044
-618,590	-200,000	-0,019	0,133
-617,576	800,000	0,007	-0,021
-616,561	256,354	-0,042	-0,054
-615,546	-200,000	-0,014	-0,109
-614,532	711,827	-0,076	-0,150
-613,517	225,577	-0,022	-0,026
-612,503	212,984	-0,036	0,042
-611,488	-88,784	0,115	0,025
-610,474	137,734	-0,050	0,049
-609,459	-200,000	0,009	-0,125
-608,444	96,364	0,103	-0,087
-607,430	800,000	-0,036	0,102
-606,415	-200,000	-0,010	-0,037
-605,401	-200,000	-0,061	-0,233
-604,386	-102,551	0,204	-0,036
-603,371	150,799	0,032	0,032
-602,357	-200,000	0,040	0,000
-601,342	404,948	0,048	-0,074
-600,328	20,605	0,045	-0,027
-599,313	692,379	0,045	-0,088
-598,298	-200,000	-0,021	-0,173
-597,284	43,129	-0,104	-0,070
-596,269	800,000	-0,009	0,025
-595,255	189,364	-0,049	0,054
-594,240	-110,423	-0,145	-0,022
-593,225	-200,000	-0,007	-0,145
-592,211	-200,000	0,010	-0,088
-591,196	800,000	-0,015	-0,042
-590,182	-200,000	-0,009	0,063
-589,167	-200,000	0,000	-0,039
-588,152	110,166	-0,046	0,041
-587,138	16,805	0,011	0,006
-586,123	800,000	-0,030	-0,097
-585,109	-4,694	-0,072	-0,037
-584,094	800,000	-0,097	-0,204
-583,079	800,000	0,063	-0,134
-582,065	800,000	0,018	-0,050
-581,050	-140,345	0,067	0,005
-580,036	52,324	-0,107	0,076
-579,021	121,976	-0,036	0,034
-578,006	-200,000	0,066	0,000
-576,992	632,669	0,009	0,016
-575,977	716,919	0,045	-0,089
-574,963	-73,414	0,111	0,030
-573,948	10,146	-0,077	0,043
-572,934	-54,772	0,123	0,041
-571,919	800,000	-0,021	-0,062
-570,904	-200,000	-0,013	0,057
-569,890	-200,000	-0,011	-0,059
-568,875	-200,000	0,003	-0,031
-567,861	800,000	0,031	-0,081
-566,846	800,000	-0,040	-0,103
-565,831	-86,584	0,113	-0,025
-564,817	800,000	0,018	-0,039
-563,802	800,000	0,012	-0,039
-562,788	-152,908	0,104	0,005
-561,773	151,767	0,075	0,076
-560,758	113,979	-0,050	0,045
-559,744	88,763	-0,072	0,060
-558,729	119,338	0,086	-0,079
-557,715	-116,008	-0,029	-0,004
-556,700	13,945	-0,059	0,034
-555,685	800,000	-0,031	-0,067
-554,671	117,854	0,034	-0,031
-553,656	800,000	0,022	0,060
-552,642	-200,000	-0,017	-0,077
-551,627	-100,429	-0,080	-0,014
-550,612	800,000	0,017	-0,038
-549,598	-70,538	-0,079	-0,022
-548,583	-78,119	-0,128	-0,032
-547,569	300,614	-0,024	0,033
-546,554	318,369	-0,065	0,091
-545,539	90,480	0,077	-0,064
-544,525	-200,000	0,018	0,087
-543,510	-200,000	0,024	-0,146
-542,496	-111,233	0,104	0,016
-541,481	-18,586	-0,018	-0,008
-540,466	-200,000	-0,013	-0,061
-539,452	75,658	-0,049	-0,038
-538,437	800,000	-0,023	0,063
-537,423	-200,000	-0,029	0,108
-536,408	-200,000	-0,031	0,114
-535,393	800,000	0,024	-0,056
-534,379	-200,000	0,006	-0,072
-533,364	-200,000	-0,006	0,032
-532,350	42,176	0,022	0,015
-531,335	-114,656	0,118	0,017
-530,321	-200,000	0,015	0,060
-529,306	-200,000	0,016	0,089
-528,291	37,609	0,151	0,099
-527,277	800,000	-0,038	-0,087
-526,262	-84,268	-0,099	-0,023
-525,248	-90,056	0,116	-0,025
-524,233	-6,558	0,024	-0,012
-523,218	-200,000	-0,001	-0,145
-522,204	103,985	-0,077	-0,067
-521,189	17,393	-0,189	-0,110
-520,175	3,655	0,035	-0,019
-519,160	800,000	0,018	-0,038
-518,145	-200,000	-0,000	0,233
-517,131	254,831	0,075	0,095
-516,116	800,000	-0,076	0,189
-515,102	-200,000	0,006	0,094
-514,087	112,309	0,087	-0,078
-513,072	-10,501	-0,101	0,049
-512,058	530,169	-0,080	-0,140
-511,043	-200,000	0,019	-0,089
-510,029	-200,000	0,036	0,164
-509,014	-170,842	-0,069	-0,002
-507,999	-142,886	-0,068	-0,005
-506,985	800,000	-0,009	-0,027
-505,970	-200,000	0,001	-0,053
-504,956	800,000	0,047	-0,141
-503,941	238,783	-0,050	0,061
-502,926	-200,000	-0,016	0,055
-501,912	-66,271	-0,049	-0,014
-500,897	800,000	-0,022	0,064
-499,883	-134,882	0,113	-0,010
-498,868	-155,394	-0,059	-0,003
-497,853	234,342	-0,059	-0,072
-496,839	132,999	0,067	0,064
-495,824	9,338	-0,055	0,030
-494,810	-37,944	-0,061	0,024
-493,795	-121,453	0,034	-0,004
-492,781	800,000	0,014	0,037
-491,766	2,399	-0,141	-0,075
-490,751	800,000	0,019	-0,043
-489,737	-200,000	-0,023	0,076
-488,722	800,000	0,048	0,120
-487,708	453,488	-0,062	0,101
-486,693	581,571	0,073	0,133
-485,678	-200,000	0,023	-0,162
-484,664	107,719	-0,071	-0,063
-483,649	800,000	-0,014	0,029
-482,635	-118,153	-0,077	0,010
-481,620	521,485	-0,055	0,096
-480,605	197,300	-0,059	0,067
-479,591	-46,547	0,064	0,023
-478,576	201,867	-0,039	0,044
-477,562	4,315	-0,039	-0,021
-476,547	220,919	-0,077	-0,091
-475,532	-48,853	-0,075	0,026
-474,518	-146,718	0,026	0,002
-473,503	220,303	0,018	0,021
-472,489	2,931	0,057	-0,030
-471,474	178,776	-0,041	0,044
-470,459	-200,000	-0,005	0,034
-469,445	102,026	0,086	-0,074
-468,430	88,837	-0,047	-0,038
-467,416	74,732	-0,087	-0,067
-466,401	254,961	0,045	0,057
-465,386	-200,000	0,012	0,161
-464,372	-98,232	0,036	-0,007
-463,357	-200,000	-0,022	-0,195
-462,343	69,019	0,042	-0,031
-461,328	-200,000	0,017	-0,104
-460,313	650,864	0,087	-0,165
-459,299	-200,000	-0,019	0,152
-458,284	9,494	0,157	-0,087
-457,270	-6,775	0,027	-0,014
-456,255	234,986	0,038	0,046
-455,241	269,797	-0,057	-0,073
-454,226	208,950	-0,045	-0,052
-453,211	800,000	-0,021	0,049
-452,197	241,654	0,034	-0,042
-451,182	50,726	-0,067	0,047
-450,168	-23,076	0,154	0,068
-449,153	-200,000	-0,016	0,093
-448,138	103,470	-0,097	0,084
-447,124	-200,000	-0,014	-0,134
-446,109	-7,677	0,145	0,072
-445,095	98,115	-0,089	-0,076
-444,080	69,070	0,065	-0,049
-443,065	-200,000	-0,000	-0,056
-442,051	-200,000	0,001	-0,002
-441,036	-10,984	-0,008	-0,004
-440,022	-155,280	0,048	-0,002
-439,007	-29,325	-0,108	-0,045
-437,992	780,069	0,051	-0,104
-436,978	800,000	-0,010	0,025
-435,963	-25,875	0,059	0,026
-434,949	417,201	-0,048	-0,076
-433,934	-184,788	-0,078	0,001
-432,919	-200,000	0,001	0,132
-431,905	161,592	0,062	-0,064
-430,890	-200,000	-0,035	0,123
-429,876	800,000	-0,034	0,079
-428,861	800,000	0,036	-0,100
-427,846	800,000	-0,033	-0,084
-426,832	-200,000	-0,015	-0,112
-425,817	-109,169	-0,098	-0,015
-424,803	444,722	-0,106	-0,171
-423,788	-200,000	0,040	0,130
-422,773	-12,531	0,184	0,088
-421,759	271,874	0,089	-0,115
-420,744	-127,325	-0,116	-0,012
-419,730	-19,434	0,099	0,045
-418,715	592,145	-0,020	-0,036
-417,701	-100,611	-0,079	0,014
-416,686	128,897	0,021	-0,019
-415,671	43,047	-0,091	-0,061
-414,657	-200,000	0,017	0,058
-413,642	472,578	0,042	-0,070
-412,628	233,114	-0,031	-0,038
-411,613	-200,000	0,002	0,090
-410,598	-200,000	0,030	-0,105
-409,584	-170,634	0,164	-0,004
-408,569	118,472	-0,075	0,068
-407,555	-200,000	-0,008	-0,050
-406,540	322,830	0,032	0,044
-405,525	-128,540	0,041	0,004
-404,511	-92,371	0,040	0,008
-403,496	-200,000	0,009	0,031
-402,482	-67,396	0,003	-0,001
-401,467	148,907	-0,023	-0,023
-400,452	116,295	0,080	0,072
-399,438	257,407	0,028	0,035
-398,423	-200,000	0,040	-0,154
-397,409	-62,625	-0,048	0,014
-396,394	187,483	-0,114	-0,125
-395,379	-37,630	-0,065	0,025
-394,365	741,616	-0,056	0,111
-393,350	-23,528	0,125	0,055
-392,336	800,000	0,023	-0,071
-391,321	-200,000	0,022	-0,132
-390,306	160,873	0,066	-0,068
-389,292	87,099	-0,159	0,129
-388,277	385,601	0,064	0,098
-387,263	310,800	0,029	-0,040
-386,248	440,941	-0,018	0,030
-385,233	21,114	0,111	-0,066
-384,219	61,330	-0,053	0,038
-383,204	-98,140	0,074	0,014
-382,190	-200,000	-0,008	0,042
-381,175	-200,000	-0,003	0,037
-380,160	-14,248	0,057	-0,027
-379,146	213,401	0,063	0,073
-378,131	-78,429	-0,086	-0,022
-377,117	-83,627	0,072	-0,017
-376,102	-37,057	-0,166	0,065
-375,088	-166,747	-0,075	-0,002
-374,073	-200,000	0,022	0,080
-373,058	-179,598	0,082	-0,001
-372,044	97,383	-0,101	0,085
-371,029	-200,000	0,013	0,098
-370,015	-200,000	-0,008	0,099
-369,000	74,825	0,026	-0,020
-367,985	800,000	0,031	0,082
-366,971	88,817	-0,071	0,058
-365,956	-200,000	0,002	0,079
-364,942	-130,772	0,039	-0,004
-363,927	85,244	0,120	0,096
-362,912	-200,000	-0,033	0,137
-361,898	-200,000	-0,179	0,000
-360,883	-200,000	-0,027	0,105
-359,869	91,069	-0,122	-0,100
-358,854	313,110	-0,039	-0,053
-357,839	-88,788	0,078	0,017
-356,825	-154,830	-0,079	-0,004
-355,810	-99,830	-0,045	-0,008
-354,796	-145,911	-0,050	-0,003
-353,781	-157,765	-0,034	0,001
-352,766	-200,000	-0,000	0,073
-351,752	-200,000	0,013	-0,086
-350,737	-200,000	-0,008	-0,068
-349,723	-90,094	0,065	0,014
-348,708	76,815	0,047	0,037
-347,693	-200,000	0,023	-0,108
-346,679	-200,000	-0,007	-0,036
-345,664	-200,000	0,004	-0,023
-344,650	35,340	0,017	0,011
-343,635	188,443	-0,058	-0,064
-342,620	58,406	0,069	0,050
-341,606	-200,000	0,002	0,115
-340,591	-39,283	-0,126	0,048
-339,577	126,238	-0,116	-0,108
-338,562	-200,000	0,009	0,045
-337,548	-120,991	0,112	0,014
-336,533	800,000	0,059	0,149
-335,518	-200,000	-0,006	-0,068
-334,504	-200,000	-0,020	-0,101
-333,489	411,567	0,067	-0,105
-332,475	68,394	-0,044	-0,033
-331,460	85,516	-0,032	0,026
-330,445	-75,969	0,118	0,030
-329,431	80,607	0,100	0,079
-328,416	-200,000	0,038	0,187
-327,402	-200,000	-0,002	0,112
-326,387	84,028	-0,043	-0,034
-325,372	-99,139	0,051	0,009
-324,358	61,871	-0,107	0,078
-323,343	-154,356	0,039	0,002
-322,329	-145,471	0,066	-0,004
-321,314	121,927	0,120	0,110
-320,299	246,298	-0,058	-0,072
-319,285	13,136	0,141	0,080
-318,270	-200,000	0,028	-0,094
-317,256	800,000	0,046	-0,113
-316,241	73,315	0,075	-0,057
-315,226	-200,000	-0,031	0,135
-314,212	-17,967	-0,117	0,054
-313,197	21,528	0,066	0,039
-312,183	-134,718	-0,219	0,019
-311,168	800,000	0,030	0,085
-310,153	44,949	-0,109	-0,074
-309,139	61,943	-0,120	0,087
-308,124	-149,207	0,040	0,002
-307,110	167,065	0,044	0,046
-306,095	-61,460	0,040	0,012
-305,080	22,277	-0,034	-0,020
-304,066	-71,020	-0,087	-0,024
-303,051	-200,000	-0,010	-0,061
-302,037	-91,443	-0,091	-0,019
-301,022	800,000	0,024	0,060
-300,008	34,758	-0,124	0,079
-298,993	800,000	0,084	0,179
-297,978	533,390	0,024	0,042
-296,964	140,294	-0,059	0,057
-295,949	-200,000	-0,002	-0,114
-294,935	17,028	-0,189	-0,109
-293,920	-200,000	0,005	-0,067
-292,905	154,879	0,112	0,113
-291,891	533,292	0,025	0,044
-290,876	606,276	-0,023	-0,041
-289,862	-146,812	0,104	-0,006
-288,847	-160,662	0,106	0,004
-287,832	800,000	-0,061	-0,129
-286,818	192,810	-0,094	0,104
-285,803	33,231	-0,029	0,019
-284,789	-200,000	0,019	0,070
-283,774	-200,000	0,015	0,079
-282,759	-123,333	-0,136	0,016
-281,745	-115,945	-0,103	-0,014
-280,730	-200,000	-0,020	-0,086
-279,716	469,423	0,060	-0,098
-278,701	-200,000	0,002	0,051
-277,686	800,000	-0,007	-0,017
-276,672	796,352	0,016	-0,032
-275,657	221,695	0,119	-0,140
-274,643	98,312	0,027	-0,022
-273,628	79,446	-0,052	0,041
-272,613	231,895	0,079	-0,094
-271,599	800,000	0,016	0,033
-270,584	33,683	-0,090	-0,057
-269,570	-200,000	0,001	0,170
-268,555	-65,632	-0,033	-0,010
-267,540	34,378	-0,041	0,026
-266,526	310,956	-0,008	0,011
-265,511	-124,919	-0,193	0,021
-264,497	-68,830	0,134	-0,037
-263,482	-200,000	0,005	0,063
-262,467	685,485	-0,038	0,072
-261,453	-200,000	0,047	0,196
-260,438	20,032	0,027	0,016
-259,424	95,704	-0,075	-0,063
-258,409	-86,705	-0,203	0,045
-257,395	-2,524	0,121	0,061
-256,380	243,563	-0,020	0,025
-255,365	-21,510	0,003	0,001
-254,351	299,288	-0,106	-0,143
-253,336	-200,000	0,007	0,059
-252,322	79,272	0,098	-0,076
-251,307	125,527	0,058	-0,053
-250,292	295,632	0,051	0,068
-249,278	-200,000	-0,010	-0,063
-248,263	-72,057	0,100	-0,027
-247,249	341,107	0,028	0,041
-246,234	183,936	-0,027	-0,029
-245,219	-4,005	-0,105	-0,053
-244,205	173,875	0,033	-0,035
-243,190	-151,909	-0,057	-0,003
-242,176	-200,000	0,007	0,064
-241,161	-23,037	0,108	-0,047
-240,146	46,490	0,099	-0,067
-239,132	-19,226	0,048	-0,022
-238,117	54,489	0,062	-0,044
-237,103	-65,327	0,119	-0,035
-236,088	-200,000	-0,008	0,047
-235,073	17,731	0,102	-0,059
-234,059	-90,512	0,085	0,018
-233,044	115,661	0,096	-0,086
-232,030	800,000	-0,042	0,115
-231,015	790,605	0,012	0,024
-230,000	-200,000	0,015	-0,066
-228,986	800,000	-0,056	0,160
-227,971	80,647	0,131	0,103
-226,957	38,392	0,049	-0,032
-225,942	-43,061	-0,066	0,024
-224,927	-152,716	-0,065	-0,003
-223,913	-200,000	0,026	-0,108
-222,898	-200,000	0,001	0,016
-221,884	-90,519	-0,095	-0,020
-220,869	-119,639	-0,067	-0,008
-219,855	-200,000	0,000	0,086
-218,840	784,401	0,049	0,098
-217,825	132,152	-0,087	-0,082
-216,811	227,790	-0,038	0,046
-215,796	-200,000	-0,004	0,088
-214,782	137,294	0,043	0,041
-213,767	-36,697	0,125	0,049
-212,752	-200,000	0,007	0,115
-211,738	166,489	-0,042	0,043
-210,723	520,459	-0,054	0,092
-209,709	382,901	-0,069	-0,104
-208,694	800,000	0,060	-0,131
-207,679	-128,879	0,123	0,012
-206,665	62,356	0,070	0,051
-205,650	-200,000	-0,015	0,165
-204,636	-200,000	0,041	0,138
-203,621	800,000	0,040	0,104
-202,606	-83,538	-0,026	-0,006
-201,592	61,940	0,077	-0,056
-200,577	441,749	0,058	0,092
-199,563	129,212	0,057	0,053
-198,548	-193,709	0,058	0,000
-197,533	-44,973	0,146	0,053
-196,519	-200,000	0,025	0,101
-195,504	-159,555	-0,118	0,005
-194,490	116,208	-0,090	0,080
-193,475	-10,288	0,074	0,036
-192,460	800,000	-0,024	0,064
-191,446	-63,316	0,129	-0,038
-190,431	37,298	-0,076	0,049
-189,417	-200,000	-0,012	0,112
-188,402	-199,945	0,085	-0,000
-187,387	22,389	-0,091	-0,054
-186,373	-93,613	-0,069	0,014
-185,358	-45,261	-0,054	0,019
-184,344	800,000	-0,034	0,085
-183,329	175,103	0,097	-0,102
-182,315	95,136	0,066	-0,054
-181,300	-118,121	0,115	-0,015
-180,285	-33,726	-0,073	-0,029
-179,271	-54,885	0,078	0,025
-178,256	800,000	0,005	-0,012
-177,242	-35,729	0,101	-0,040
-176,227	97,651	0,106	0,089
-175,212	340,737	0,023	-0,033
-174,198	-200,000	-0,011	-0,043
-173,183	180,497	-0,036	-0,038
-172,169	-35,085	-0,022	-0,009
-171,154	360,419	-0,058	-0,084
-170,139	-98,228	0,103	0,019
-169,125	-200,000	-0,021	-0,067
-168,110	166,012	-0,027	-0,027
-167,096	800,000	0,037	0,093
-166,081	-12,380	-0,042	0,020
-165,066	-200,000	0,018	-0,060
-164,052	-21,551	0,032	0,014
-163,037	29,074	-0,143	-0,088
-162,023	175,618	0,080	0,084
-161,008	-123,569	-0,081	0,009
-159,993	-72,324	-0,159	-0,043
-158,979	-19,503	-0,036	0,016
-157,964	-66,826	-0,134	-0,038
-156,950	-71,420	0,112	-0,030
-155,935	-200,000	0,033	-0,139
-154,920	193,420	0,124	0,137
-153,906	-152,822	-0,081	0,004
-152,891	17,434	0,017	-0,010
-151,877	754,276	0,065	-0,127
-150,862	667,686	0,020	0,038
-149,847	800,000	-0,008	0,024
-148,833	19,722	0,049	-0,028
-147,818	-41,430	0,083	-0,031
-146,804	-18,962	0,154	0,069
-145,789	5,835	-0,066	0,035
-144,775	800,000	-0,029	-0,074
-143,760	-13,797	0,086	-0,040
-142,745	548,529	0,025	0,044
-141,731	-200,000	0,031	0,175
-140,716	-96,963	0,079	-0,015
-139,702	-70,935	0,076	0,021
-138,687	86,746	-0,046	-0,037
-137,672	122,979	0,022	0,020
-136,658	-200,000	-0,004	-0,092
-135,643	43,883	-0,083	-0,055
-134,629	-104,013	-0,058	-0,010
-133,614	-200,000	0,105	-0,000
-132,599	-200,000	-0,010	0,054
-131,585	-200,000	-0,005	0,065
-130,570	-182,955	0,047	-0,001
-129,556	800,000	0,040	0,111
-128,541	367,346	0,028	-0,041
-127,526	800,000	0,028	0,089
-126,512	195,536	0,078	0,086
-125,497	-200,000	0,035	0,124
-124,483	800,000	0,050	0,121
-123,468	551,796	-0,022	-0,039
-122,453	800,000	0,035	0,082
-121,439	182,324	-0,099	-0,106
-120,424	-181,495	0,168	0,002
-119,410	-39,615	0,066	-0,025
-118,395	-200,000	-0,004	-0,060
