DTS Sentinel unit serial number:	SN410029Multiplexer serial number:	ORYXHardware model number:	OX2-SRSoftware version number:	ORYX F/W v4,00 Oryx Data Collector v3.7.2.0data status	okinstallation	B4 Nyhavnadifferential loss correction	single-endedforward channel	channel 2reverse channel	N/Adate	2023/12/16time	10:10:13forward acquisition time	300,00reverse acquisition time	0,00gamma	499,1914k internal	0,3126k external	0,3126temperature offset calibration	1,0000default loss term (dB/km)	0,3820temperature slope calibration	1,0000multiplexer offset coefficient	1,0000multiplexer slope coefficient	1,0000fibre end	0,00T internal ref (°C)	23,25T ext. ref 1 (°C)	8,92T ext. ref 2 (°C)	9,10length (m)	temperature (°C)	Stokes	anti-Stokes-744,400	480,228	0,053	-0,090
-743,385	29,907	-0,152	0,096
-742,371	300,951	0,079	-0,108
-741,356	-93,347	-0,196	0,040
-740,342	69,072	0,028	0,021
-739,327	126,956	-0,188	0,178
-738,312	-38,537	-0,079	0,031
-737,298	9,073	-0,226	0,127
-736,283	-83,801	0,061	0,014
-735,269	-114,167	-0,261	-0,037
-734,254	800,000	0,039	-0,113
-733,239	-96,476	-0,386	-0,075
-732,225	210,984	0,063	0,073
-731,210	800,000	-0,064	0,139
-730,196	-147,745	-0,145	-0,009
-729,181	800,000	0,031	0,067
-728,167	-200,000	0,005	0,078
-727,152	65,567	0,078	0,059
-726,137	711,979	-0,010	0,021
-725,123	-93,576	-0,184	-0,037
-724,108	800,000	-0,023	-0,060
-723,094	-200,000	-0,014	-0,066
-722,079	-21,101	-0,107	0,048
-721,064	-0,120	-0,065	0,034
-720,050	-200,000	-0,017	-0,067
-719,035	31,300	0,071	0,045
-718,021	-200,000	0,017	-0,164
-717,006	-100,038	-0,101	0,019
-715,991	20,783	-0,126	0,076
-714,977	-200,000	-0,024	-0,084
-713,962	800,000	-0,033	-0,099
-712,948	-200,000	-0,004	0,019
-711,933	4,323	0,095	-0,052
-710,918	330,758	0,110	-0,158
-709,904	-200,000	-0,004	-0,158
-708,889	-119,453	-0,061	-0,008
-707,875	-109,682	-0,152	0,024
-706,860	800,000	0,076	-0,163
-705,845	371,032	-0,029	0,044
-704,831	92,720	0,042	0,036
-703,816	800,000	0,060	0,160
-702,802	-85,529	-0,198	-0,045
-701,787	800,000	-0,026	0,080
-700,772	215,580	-0,089	-0,105
-699,758	-200,000	0,009	-0,149
-698,743	410,712	0,016	-0,025
-697,729	800,000	-0,017	0,053
-696,714	-166,888	-0,196	-0,006
-695,699	800,000	-0,027	-0,067
-694,685	-200,000	0,011	-0,218
-693,670	800,000	0,012	-0,029
-692,656	-98,659	0,078	0,015
-691,641	-133,381	0,138	0,013
-690,627	17,842	0,047	-0,028
-689,612	-83,786	0,013	-0,003
-688,597	800,000	-0,043	-0,136
-687,583	55,969	-0,120	0,086
-686,568	-200,000	-0,004	0,034
-685,554	-200,000	0,007	0,051
-684,539	-200,000	0,003	-0,053
-683,524	-13,517	-0,056	0,027
-682,510	-200,000	0,017	-0,131
-681,495	800,000	0,034	-0,096
-680,481	-81,107	-0,113	-0,028
-679,466	800,000	0,021	0,052
-678,451	-200,000	0,006	-0,039
-677,437	151,458	-0,044	0,044
-676,422	-127,342	0,197	0,021
-675,408	37,108	0,082	0,054
-674,393	326,908	0,074	-0,106
-673,378	4,377	-0,075	-0,041
-672,364	17,018	-0,118	-0,069
-671,349	-172,235	-0,033	-0,001
-670,335	-171,433	0,115	0,003
-669,320	570,615	0,003	0,006
-668,305	800,000	-0,023	0,076
-667,291	-200,000	0,002	-0,013
-666,276	485,080	-0,052	-0,088
-665,262	-200,000	0,009	-0,037
-664,247	-200,000	0,023	-0,123
-663,232	229,418	0,054	-0,066
-662,218	-25,325	0,076	-0,033
-661,203	193,100	0,062	0,069
-660,189	800,000	-0,022	0,054
-659,174	63,951	-0,062	0,046
-658,159	395,314	0,049	-0,076
-657,145	-200,000	-0,017	-0,130
-656,130	-200,000	-0,007	-0,059
-655,116	613,781	-0,035	-0,066
-654,101	124,715	-0,031	-0,029
-653,086	800,000	-0,039	-0,115
-652,072	640,549	0,009	0,017
-651,057	-51,591	-0,143	0,049
-650,043	-100,131	-0,106	-0,019
-649,028	183,969	-0,086	0,094
-648,014	-200,000	-0,027	0,151
-646,999	-200,000	0,028	-0,096
-645,984	756,527	-0,064	-0,129
-644,970	192,221	-0,045	-0,050
-643,955	-124,473	0,077	-0,009
-642,941	183,891	0,037	0,040
-641,926	447,722	-0,009	-0,015
-640,911	476,412	0,074	-0,124
-639,897	-200,000	0,005	0,113
-638,882	26,469	-0,122	-0,076
-637,868	-200,000	-0,021	0,087
-636,853	800,000	0,028	-0,073
-635,838	-200,000	0,004	-0,086
-634,824	90,636	-0,078	0,065
-633,809	-54,607	0,059	0,020
-632,795	-200,000	-0,019	-0,110
-631,780	800,000	0,054	0,167
-630,765	-47,319	-0,130	0,047
-629,751	-58,269	-0,065	0,021
-628,736	-200,000	-0,013	-0,132
-627,722	-200,000	-0,009	0,087
-626,707	57,015	-0,066	-0,048
-625,692	-200,000	-0,040	0,150
-624,678	-200,000	0,009	0,075
-623,663	-200,000	-0,012	-0,141
-622,649	58,899	-0,052	0,038
-621,634	-200,000	-0,018	0,098
-620,619	30,748	-0,025	0,016
-619,605	-200,000	0,023	0,130
-618,590	136,827	0,042	0,041
-617,576	-200,000	-0,009	0,046
-616,561	-200,000	-0,009	-0,050
-615,546	250,951	0,061	0,077
-614,532	-200,000	-0,021	-0,114
-613,517	800,000	-0,039	-0,107
-612,503	72,455	-0,011	-0,009
-611,488	-200,000	-0,000	0,068
-610,474	-105,459	-0,059	0,010
-609,459	635,667	-0,072	0,136
-608,444	-149,119	-0,099	0,006
-607,430	20,978	-0,163	-0,098
-606,415	-200,000	-0,017	-0,083
-605,401	-200,000	-0,007	-0,031
-604,386	-73,313	-0,105	-0,028
-603,371	56,036	-0,099	0,071
-602,357	800,000	0,019	-0,057
-601,342	37,446	-0,081	-0,053
-600,328	800,000	-0,026	-0,066
-599,313	-200,000	0,007	-0,038
-598,298	756,719	-0,024	0,048
-597,284	-161,001	-0,108	-0,004
-596,269	-200,000	0,000	0,066
-595,255	-12,515	-0,113	0,054
-594,240	73,232	0,063	0,048
-593,225	499,083	0,092	-0,157
-592,211	-200,000	0,006	-0,097
-591,196	-200,000	0,028	-0,137
-590,182	189,057	0,063	0,070
-589,167	-200,000	0,005	0,108
-588,152	-200,000	-0,035	0,136
-587,138	87,273	0,014	-0,012
-586,123	-200,000	0,001	-0,083
-585,109	-0,334	-0,037	0,019
-584,094	-37,179	-0,086	0,034
-583,079	800,000	0,055	0,129
-582,065	-200,000	0,003	0,046
-581,050	-138,580	-0,140	0,011
-580,036	-200,000	0,006	0,148
-579,021	481,352	0,071	0,120
-578,006	-140,422	-0,109	0,008
-576,992	-200,000	0,004	-0,064
-575,977	677,708	0,037	0,072
-574,963	440,735	-0,044	0,072
-573,948	800,000	0,020	0,058
-572,934	-153,497	0,081	0,004
-571,919	-73,094	0,066	0,018
-570,904	-64,204	-0,066	-0,020
-569,890	130,340	0,064	-0,061
-568,875	-200,000	-0,020	-0,086
-567,861	-143,347	0,121	-0,008
-566,846	376,944	0,054	-0,082
-565,831	-55,219	-0,145	0,048
-564,817	-185,689	0,052	-0,001
-563,802	-120,626	-0,068	0,008
-562,788	-200,000	0,001	-0,131
-561,773	-200,000	0,007	-0,055
-560,758	156,844	-0,040	-0,040
-559,744	-200,000	-0,012	-0,083
-558,729	-20,043	-0,153	-0,069
-557,715	169,705	-0,010	-0,010
-556,700	-200,000	-0,004	-0,022
-555,685	-200,000	-0,004	-0,175
-554,671	-16,281	-0,074	-0,035
-553,656	-6,960	-0,062	-0,031
-552,642	800,000	-0,067	0,164
-551,627	-5,607	-0,078	-0,040
-550,612	-200,000	-0,030	-0,108
-549,598	-37,234	0,082	-0,032
-548,583	131,805	0,031	-0,029
-547,569	596,002	0,033	0,062
-546,554	119,516	0,026	0,024
-545,539	-200,000	0,026	0,103
-544,525	334,799	0,093	0,134
-543,510	-200,000	0,018	0,143
-542,496	-34,640	-0,093	-0,037
-541,481	-200,000	0,005	-0,033
-540,466	555,453	0,039	-0,070
-539,452	-120,171	-0,110	0,014
-538,437	233,970	0,017	0,020
-537,423	800,000	0,035	0,090
-536,408	490,351	0,047	-0,079
-535,393	-200,000	-0,001	-0,024
-534,379	401,363	0,033	0,052
-533,364	-200,000	0,008	-0,033
-532,350	800,000	0,040	0,121
-531,335	-200,000	0,009	0,052
-530,321	440,531	-0,038	0,061
-529,306	-45,754	-0,077	-0,028
-528,291	800,000	-0,033	0,067
-527,277	800,000	-0,045	0,102
-526,262	303,845	-0,027	-0,037
-525,248	156,063	0,120	-0,122
-524,233	-94,300	-0,098	-0,020
-523,218	-200,000	0,010	0,131
-522,204	-124,687	0,006	0,001
-521,189	4,363	-0,083	0,045
-520,175	609,703	0,054	-0,100
-519,160	11,688	-0,080	-0,045
-518,145	-75,604	-0,041	-0,011
-517,131	294,449	-0,033	-0,045
-516,116	-200,000	0,009	0,032
-515,102	-200,000	0,023	0,083
-514,087	-200,000	-0,027	-0,135
-513,072	424,015	0,018	-0,028
-512,058	-61,539	0,162	0,050
-511,043	-111,917	0,115	0,017
-510,029	-67,820	0,102	-0,029
-509,014	240,459	-0,061	-0,075
-507,999	270,961	-0,029	-0,037
-506,985	304,600	-0,032	-0,045
-505,970	800,000	-0,011	-0,025
-504,956	-200,000	0,008	-0,097
-503,941	-200,000	0,026	0,000
-502,926	-200,000	-0,031	-0,129
-501,912	130,093	0,119	0,113
-500,897	-144,827	-0,119	-0,008
-499,883	800,000	0,061	-0,126
-498,868	800,000	-0,007	-0,018
-497,853	800,000	-0,026	-0,060
-496,839	55,994	-0,138	-0,098
-495,824	286,763	0,081	-0,108
-494,810	-118,345	-0,167	0,022
-493,795	290,849	0,087	-0,117
-492,781	-181,703	0,053	0,001
-491,766	-57,413	-0,083	-0,027
-490,751	-104,809	0,046	-0,008
-489,737	-200,000	0,033	0,127
-488,722	502,937	0,079	0,135
-487,708	-43,804	-0,093	0,035
-486,693	-5,534	0,033	0,017
-485,678	370,283	0,064	-0,095
-484,664	239,970	-0,062	-0,076
-483,649	-200,000	0,012	-0,043
-482,635	-81,001	0,082	-0,020
-481,620	800,000	-0,045	0,128
-480,605	461,307	0,032	0,052
-479,591	78,891	0,137	0,108
-478,576	-200,000	-0,012	0,083
-477,562	-35,819	-0,114	-0,045
-476,547	446,438	-0,032	-0,052
-475,532	419,858	-0,045	-0,071
-474,518	192,820	0,028	-0,032
-473,503	800,000	0,020	-0,058
-472,489	-13,431	-0,114	-0,054
-471,474	-100,157	0,085	-0,015
-470,459	-6,944	-0,118	-0,059
-469,445	334,555	-0,082	-0,118
-468,430	153,309	-0,074	-0,075
-467,416	-43,275	0,065	0,024
-466,401	157,528	0,016	-0,016
-465,386	-200,000	-0,001	-0,125
-464,372	-177,636	-0,081	-0,001
-463,357	800,000	-0,075	-0,213
-462,343	-200,000	0,197	0,001
-461,328	162,352	-0,052	-0,054
-460,313	-49,086	0,070	0,025
-459,299	800,000	0,031	0,064
-458,284	-200,000	-0,011	-0,110
-457,270	-72,455	0,121	0,033
-456,255	229,617	-0,058	0,070
-455,241	800,000	0,047	-0,143
-454,226	-94,514	0,036	0,007
-453,211	85,402	-0,022	-0,018
-452,197	800,000	0,021	0,060
-451,182	9,023	-0,072	-0,040
-450,168	-200,000	-0,008	0,037
-449,153	372,030	-0,051	-0,076
-448,138	-200,000	-0,008	-0,060
-447,124	60,710	-0,084	-0,061
-446,109	604,111	-0,028	0,051
-445,095	266,382	0,044	0,057
-444,080	-200,000	0,009	-0,111
-443,065	53,102	-0,045	-0,032
-442,051	255,916	0,055	0,070
-441,036	-24,499	-0,054	-0,024
-440,022	200,028	-0,043	0,048
-439,007	127,128	0,073	-0,068
-437,992	-169,416	-0,069	0,002
-436,978	-200,000	0,003	0,071
-435,963	453,794	-0,067	0,110
-434,949	-83,602	0,084	0,020
-433,934	-119,398	0,091	-0,011
-432,919	421,657	-0,029	0,046
-431,905	800,000	0,018	-0,037
-430,890	-88,529	0,106	0,023
-429,876	-44,631	0,166	-0,061
-428,861	60,315	0,087	0,063
-427,846	-25,702	-0,068	0,029
-426,832	-200,000	-0,004	-0,070
-425,817	-200,000	-0,048	-0,277
-424,803	242,383	0,081	-0,100
-423,788	-72,693	0,197	0,053
-422,773	88,255	0,105	0,086
-421,759	156,337	-0,036	-0,037
-420,744	-183,130	0,049	0,001
-419,730	-42,613	0,105	0,039
-418,715	-86,319	-0,039	0,009
-417,701	12,438	0,082	-0,046
-416,686	-200,000	0,013	0,157
-415,671	21,553	0,034	0,020
-414,657	-126,646	-0,077	0,008
-413,642	800,000	-0,050	0,108
-412,628	-200,000	-0,008	-0,085
-411,613	370,608	-0,086	-0,129
-410,598	-200,000	0,008	-0,106
-409,584	95,403	-0,056	-0,047
-408,569	339,466	-0,056	-0,080
-407,555	638,063	0,069	0,130
-406,540	38,885	-0,103	-0,067
-405,525	-83,785	-0,110	-0,026
-404,511	-73,159	-0,214	-0,057
-403,496	305,001	-0,044	-0,060
-402,482	722,418	-0,081	0,160
-401,467	-148,926	0,146	0,009
-400,452	391,103	0,031	-0,047
-399,438	-200,000	0,034	-0,115
-398,423	6,277	-0,121	0,066
-397,409	42,201	-0,026	0,017
-396,394	-22,894	0,028	-0,012
-395,379	659,728	0,060	0,113
-394,365	-35,047	0,031	-0,012
-393,350	-200,000	0,007	0,136
-392,336	450,276	-0,044	0,071
-391,321	420,542	-0,051	-0,081
-390,306	-51,452	-0,097	0,033
-389,292	132,826	0,086	-0,081
-388,277	129,766	-0,028	-0,026
-387,263	18,402	-0,013	0,007
-386,248	-200,000	0,014	-0,045
-385,233	413,705	0,089	0,139
-384,219	-200,000	0,019	0,140
-383,204	-29,088	0,042	-0,018
-382,190	800,000	-0,052	-0,112
-381,175	-96,358	0,116	0,022
-380,160	-200,000	-0,024	-0,090
-379,146	57,633	0,155	0,111
-378,131	-20,219	0,124	0,056
-377,117	800,000	0,024	-0,060
-376,102	-101,494	0,045	0,008
-375,088	482,526	0,009	-0,016
-374,073	-27,953	-0,041	-0,017
-373,058	-200,000	0,016	-0,085
-372,044	-39,261	0,170	0,065
-371,029	800,000	0,035	-0,103
-370,015	-96,365	-0,077	0,015
-369,000	-200,000	-0,004	-0,019
-367,985	-52,261	0,034	-0,012
-366,971	630,784	-0,014	0,025
-365,956	-64,070	0,147	0,044
-364,942	173,049	-0,019	-0,020
-363,927	346,352	-0,068	0,098
-362,912	800,000	-0,019	0,043
-361,898	-32,255	0,229	0,094
-360,883	800,000	-0,037	-0,078
-359,869	-200,000	-0,013	-0,064
-358,854	-79,586	-0,048	0,012
-357,839	800,000	-0,028	0,056
-356,825	-200,000	0,008	0,080
-355,810	-106,881	-0,038	0,006
-354,796	-165,535	-0,072	0,002
-353,781	-62,953	-0,143	0,043
-352,766	38,468	0,107	0,070
-351,752	-200,000	0,001	0,026
-350,737	356,496	0,032	0,047
-349,723	355,953	0,057	0,084
-348,708	117,993	0,026	-0,023
-347,693	-50,668	-0,195	-0,067
-346,679	205,703	-0,028	0,032
-345,664	-200,000	-0,017	0,068
-344,650	-118,971	0,126	0,016
-343,635	-198,923	0,050	0,000
-342,620	270,085	-0,098	0,127
-341,606	524,467	-0,051	0,088
-340,591	248,444	-0,044	0,054
-339,577	19,282	0,061	0,036
-338,562	-200,000	-0,000	0,056
-337,548	220,710	-0,059	0,070
-336,533	-200,000	0,002	-0,085
-335,518	800,000	-0,033	0,078
-334,504	-173,586	0,081	-0,002
-333,489	56,924	-0,117	0,084
-332,475	90,553	0,102	0,084
-331,460	-12,578	-0,067	0,032
-330,445	67,071	-0,084	0,062
-329,431	387,587	0,063	0,096
-328,416	-200,000	-0,004	0,070
-327,402	-94,598	0,055	0,011
-326,387	71,489	0,098	-0,074
-325,372	56,760	0,023	0,016
-324,358	-200,000	0,008	-0,049
-323,343	-172,668	0,095	0,002
-322,329	800,000	0,039	0,096
-321,314	44,950	0,072	-0,049
-320,299	246,490	-0,082	-0,102
-319,285	-110,000	-0,149	0,023
-318,270	-156,405	0,136	0,006
-317,256	-87,829	0,041	0,009
-316,241	-200,000	-0,024	-0,111
-315,226	2,368	-0,089	0,047
-314,212	-200,000	0,007	-0,044
-313,197	-118,282	0,045	-0,006
-312,183	-83,049	0,096	0,022
-311,168	128,898	-0,080	-0,075
-310,153	-91,946	-0,100	0,020
-309,139	173,755	0,131	-0,138
-308,124	-200,000	0,010	-0,105
-307,110	-200,000	0,018	-0,067
-306,095	-117,226	0,081	0,011
-305,080	-26,573	-0,067	0,029
-304,066	99,286	0,123	-0,104
-303,051	-33,333	0,094	0,038
-302,037	800,000	-0,012	0,032
-301,022	-200,000	0,002	0,093
-300,008	-122,390	0,077	0,009
-298,993	260,010	0,065	0,082
-297,978	800,000	-0,080	0,177
-296,964	-42,373	-0,173	0,064
-295,949	627,916	-0,019	-0,036
-294,935	84,864	0,044	0,035
-293,920	237,944	0,077	0,094
-292,905	-28,303	0,087	0,036
-291,891	181,558	0,088	0,095
-290,876	-200,000	-0,002	-0,031
-289,862	496,463	-0,052	0,088
-288,847	341,287	0,034	-0,049
-287,832	75,408	-0,157	-0,121
-286,818	-200,000	-0,005	0,032
-285,803	-200,000	0,003	0,033
-284,789	15,107	0,027	-0,016
-283,774	-156,772	-0,104	0,005
-282,759	347,640	0,036	-0,052
-281,745	800,000	-0,079	-0,190
-280,730	800,000	-0,051	-0,140
-279,716	-87,436	0,078	-0,017
-278,701	-136,122	0,133	-0,011
-277,686	-200,000	0,001	0,039
-276,672	-200,000	0,035	0,158
-275,657	48,806	0,146	0,100
-274,643	-43,660	-0,073	0,027
-273,628	-172,900	0,030	-0,001
-272,613	12,640	0,057	-0,032
-271,599	-149,021	-0,086	0,005
-270,584	143,562	0,079	-0,077
-269,570	800,000	-0,037	-0,100
-268,555	-200,000	0,020	-0,079
-267,540	14,184	-0,143	-0,081
-266,526	-200,000	-0,013	-0,075
-265,511	170,170	-0,040	-0,042
-264,497	323,533	-0,039	-0,054
-263,482	35,780	0,161	0,104
-262,467	800,000	0,043	0,128
-261,453	393,926	0,022	-0,034
-260,438	133,769	-0,026	0,025
-259,424	121,002	-0,154	-0,140
-258,409	303,202	0,064	-0,087
-257,395	111,079	-0,012	0,010
-256,380	162,118	0,034	0,035
-255,365	-37,140	0,098	0,038
-254,351	-200,000	-0,006	0,038
-253,336	-84,321	0,078	-0,018
-252,322	-27,016	-0,084	0,036
-251,307	-35,352	-0,041	-0,016
-250,292	13,217	0,139	-0,078
-249,278	-200,000	-0,001	0,014
-248,263	26,283	-0,061	0,037
-247,249	800,000	-0,017	0,036
-246,234	138,719	0,084	0,081
-245,219	-103,581	0,096	0,016
-244,205	-200,000	-0,006	-0,088
-243,190	800,000	-0,053	-0,121
-242,176	-46,299	-0,143	0,051
-241,161	-200,000	-0,012	0,076
-240,146	165,571	0,078	-0,081
-239,132	167,092	-0,081	0,084
-238,117	-200,000	0,014	-0,092
-237,103	357,059	0,022	-0,032
-236,088	5,983	0,018	-0,010
-235,073	-56,175	0,127	0,041
-234,059	-103,790	0,097	-0,016
-233,044	800,000	-0,033	0,100
-232,030	57,187	0,100	0,071
-231,015	-68,305	-0,083	0,023
-230,000	636,554	0,016	0,030
-228,986	800,000	0,036	-0,114
-227,971	800,000	-0,007	-0,016
-226,957	204,543	0,122	0,138
-225,942	800,000	0,020	0,052
-224,927	-149,422	-0,070	0,004
-223,913	-200,000	-0,089	-0,000
-222,898	252,576	0,064	-0,080
-221,884	166,897	0,072	-0,075
-220,869	289,643	-0,098	0,130
-219,855	159,816	0,087	0,088
-218,840	800,000	0,043	0,102
-217,825	-200,000	-0,003	0,031
-216,811	-25,280	0,067	-0,029
-215,796	-120,427	-0,054	0,007
-214,782	800,000	0,021	0,047
-213,767	800,000	0,043	0,103
-212,752	-52,023	0,113	0,038
-211,738	373,383	0,057	0,085
-210,723	-200,000	0,004	0,131
-209,709	14,322	-0,152	0,086
-208,694	45,391	-0,053	-0,036
-207,679	-17,417	-0,046	-0,021
-206,665	203,544	0,071	-0,081
-205,650	437,922	-0,033	-0,053
-204,636	-60,169	0,106	0,033
-203,621	763,412	-0,076	-0,152
-202,606	800,000	-0,010	-0,024
-201,592	65,668	-0,042	-0,031
-200,577	70,680	0,017	-0,013
-199,563	48,394	0,068	0,047
-198,548	-200,000	-0,001	-0,141
-197,533	112,585	0,156	0,138
-196,519	-200,000	0,013	0,100
-195,504	147,530	0,036	-0,035
-194,490	-200,000	-0,028	0,144
-193,475	-200,000	-0,008	0,102
-192,460	14,345	0,064	0,036
-191,446	446,146	-0,015	0,024
-190,431	-92,110	0,123	0,025
-189,417	-112,548	-0,144	0,021
-188,402	-88,325	-0,086	-0,019
-187,387	75,364	-0,095	-0,073
-186,373	571,626	0,037	-0,066
-185,358	800,000	0,058	-0,183
-184,344	-200,000	0,010	0,106
-183,329	208,509	0,036	0,042
-182,315	-87,681	-0,076	0,017
-181,300	494,635	-0,058	-0,097
-180,285	7,374	-0,225	-0,122
-179,271	603,306	-0,031	-0,056
-178,256	228,522	0,021	0,025
-177,242	31,965	0,040	0,025
-176,227	34,151	0,072	0,045
-175,212	96,631	0,043	-0,036
-174,198	-149,303	-0,089	-0,005
-173,183	220,786	0,053	0,062
-172,169	-172,308	0,118	0,003
-171,154	-200,000	-0,053	-0,186
-170,139	-109,126	-0,090	0,014
-169,125	25,096	0,106	0,064
-168,110	123,009	0,086	0,079
-167,096	241,017	-0,092	-0,112
-166,081	-200,000	-0,076	-0,000
-165,066	-200,000	-0,001	-0,166
-164,052	-82,325	-0,073	0,017
-163,037	449,872	0,040	0,064
-162,023	-200,000	0,007	-0,091
-161,008	-65,394	0,059	0,017
-159,993	800,000	-0,045	-0,124
-158,979	-104,078	-0,123	0,021
-157,964	289,901	0,032	0,042
-156,950	-53,555	0,142	-0,047
-155,935	-200,000	-0,010	0,042
-154,920	800,000	-0,006	-0,018
-153,906	800,000	-0,005	0,015
-152,891	582,544	-0,052	0,093
-151,877	316,500	0,019	-0,026
-150,862	800,000	-0,018	-0,053
-149,847	29,311	-0,133	-0,082
-148,833	-109,941	0,109	-0,016
-147,818	-51,367	0,024	0,008
-146,804	800,000	0,019	-0,040
-145,789	-19,980	0,043	0,019
-144,775	-200,000	0,001	0,189
-143,760	-44,636	-0,093	0,034
-142,745	61,734	0,036	-0,026
-141,731	-131,611	0,056	0,005
-140,716	153,721	0,011	0,011
-139,702	591,984	-0,036	-0,064
-138,687	-200,000	0,024	0,095
-137,672	-200,000	0,001	-0,064
-136,658	15,209	0,054	-0,031
-135,643	265,688	0,020	0,025
-134,629	-200,000	0,028	0,142
-133,614	-36,429	-0,027	-0,011
-132,599	-105,816	-0,076	0,012
-131,585	-200,000	-0,032	0,126
-130,570	466,280	0,013	-0,021
-129,556	620,583	0,027	0,050
-128,541	-200,000	-0,018	0,081
-127,526	86,225	-0,022	-0,018
-126,512	-200,000	-0,031	0,104
-125,497	-144,848	-0,088	-0,006
-124,483	369,210	0,061	0,090
-123,468	134,878	0,053	0,050
-122,453	-200,000	0,013	0,069
-121,439	-200,000	-0,037	-0,141
-120,424	-173,514	-0,147	-0,003
-119,410	229,269	-0,084	0,100
