DTS Sentinel unit serial number:	SN410029Multiplexer serial number:	ORYXHardware model number:	OX2-SRSoftware version number:	ORYX F/W v4,00 Oryx Data Collector v3.7.2.0data status	okinstallation	B4 Nyhavnadifferential loss correction	single-endedforward channel	channel 2reverse channel	N/Adate	2023/12/16time	07:45:13forward acquisition time	300,00reverse acquisition time	0,00gamma	499,1914k internal	0,3127k external	0,3127temperature offset calibration	1,0000default loss term (dB/km)	0,3820temperature slope calibration	1,0000multiplexer offset coefficient	1,0000multiplexer slope coefficient	1,0000fibre end	0,00T internal ref (°C)	22,37T ext. ref 1 (°C)	7,82T ext. ref 2 (°C)	7,97length (m)	temperature (°C)	Stokes	anti-Stokes-744,400	-78,438	0,040	0,010
-743,385	41,895	-0,172	0,116
-742,371	-48,340	0,032	-0,012
-741,356	-5,269	-0,121	0,062
-740,342	-65,770	0,166	0,049
-739,327	-157,100	-0,258	0,011
-738,312	559,628	0,068	-0,123
-737,298	-76,752	-0,199	-0,051
-736,283	-200,000	0,029	-0,103
-735,269	119,391	-0,135	0,124
-734,254	-137,890	0,219	0,018
-733,239	-20,892	-0,249	-0,113
-732,225	-0,704	0,159	-0,084
-731,210	307,600	-0,037	0,051
-730,196	521,158	-0,047	0,082
-729,181	800,000	-0,048	-0,128
-728,167	29,600	0,101	-0,064
-727,152	-92,002	0,061	0,013
-726,137	800,000	-0,017	0,043
-725,123	800,000	-0,030	-0,088
-724,108	-200,000	0,012	0,112
-723,094	343,787	0,023	-0,034
-722,079	-200,000	-0,048	-0,193
-721,064	-89,166	-0,021	-0,005
-720,050	420,867	-0,020	-0,032
-719,035	-35,866	0,081	-0,032
-718,021	-200,000	0,018	0,067
-717,006	-38,600	-0,034	0,013
-715,991	-48,287	-0,199	-0,071
-714,977	17,118	-0,112	-0,066
-713,962	800,000	-0,024	-0,075
-712,948	392,968	-0,062	0,096
-711,933	-173,273	-0,094	0,002
-710,918	165,870	-0,042	0,045
-709,904	299,785	-0,056	-0,076
-708,889	800,000	-0,029	-0,078
-707,875	800,000	-0,062	-0,155
-706,860	-21,809	-0,111	-0,050
-705,845	-42,048	0,075	0,028
-704,831	208,404	0,035	0,040
-703,816	-106,360	-0,038	-0,006
-702,802	119,157	-0,032	0,030
-701,787	-173,770	-0,098	-0,002
-700,772	6,238	0,055	0,030
-699,758	-200,000	0,022	-0,107
-698,743	26,647	-0,066	0,041
-697,729	249,391	0,018	-0,023
-696,714	-200,000	-0,017	0,125
-695,699	-200,000	-0,001	-0,006
-694,685	81,533	-0,118	-0,095
-693,670	-200,000	-0,036	-0,126
-692,656	-200,000	0,012	0,056
-691,641	-71,709	0,022	0,006
-690,627	5,475	0,029	0,016
-689,612	-200,000	-0,010	-0,098
-688,597	-200,000	0,008	-0,113
-687,583	423,943	-0,053	-0,085
-686,568	-156,541	-0,094	0,004
-685,554	-200,000	0,009	-0,187
-684,539	727,114	0,058	0,115
-683,524	-80,293	-0,125	0,031
-682,510	800,000	0,031	-0,077
-681,495	-200,000	-0,022	-0,141
-680,481	462,339	-0,055	-0,091
-679,466	-72,668	-0,163	0,044
-678,451	-200,000	0,009	-0,070
-677,437	-200,000	0,057	-0,200
-676,422	-61,617	-0,023	-0,007
-675,408	408,918	0,010	0,016
-674,393	734,578	-0,053	-0,105
-673,378	51,472	0,083	-0,059
-672,364	800,000	-0,033	-0,069
-671,349	526,331	-0,060	-0,104
-670,335	800,000	-0,028	-0,082
-669,320	71,032	-0,092	-0,070
-668,305	-82,902	-0,060	0,014
-667,291	511,477	-0,021	-0,036
-666,276	-200,000	0,021	-0,177
-665,262	-62,561	-0,137	-0,042
-664,247	241,165	-0,035	0,043
-663,232	-200,000	-0,006	0,055
-662,218	-200,000	-0,017	0,058
-661,203	-200,000	-0,042	-0,198
-660,189	6,904	0,097	-0,053
-659,174	-200,000	0,032	-0,131
-658,159	159,879	0,021	0,022
-657,145	-40,025	-0,135	-0,052
-656,130	201,924	0,086	0,098
-655,116	314,206	0,030	-0,042
-654,101	-200,000	-0,008	-0,072
-653,086	800,000	-0,042	0,092
-652,072	36,781	-0,113	-0,074
-651,057	31,840	-0,148	-0,094
-650,043	118,529	-0,099	-0,091
-649,028	800,000	-0,024	0,060
-648,014	-44,277	-0,036	0,013
-646,999	-87,016	-0,077	0,017
-645,984	89,193	-0,058	0,048
-644,970	-57,381	0,098	0,032
-643,955	540,566	0,038	0,067
-642,941	800,000	-0,076	-0,165
-641,926	-200,000	0,009	-0,136
-640,911	149,955	-0,095	-0,096
-639,897	27,503	-0,102	0,064
-638,882	57,294	0,113	0,081
-637,868	129,324	0,023	0,022
-636,853	800,000	0,051	-0,125
-635,838	-115,505	-0,118	0,016
-634,824	-200,000	-0,025	0,112
-633,809	776,863	0,047	0,096
-632,795	455,533	0,056	-0,092
-631,780	-122,214	0,084	-0,010
-630,765	85,669	-0,167	0,136
-629,751	113,930	0,093	-0,084
-628,736	22,650	-0,133	0,080
-627,722	528,662	-0,060	-0,105
-626,707	800,000	-0,049	-0,140
-625,692	5,863	0,047	-0,026
-624,678	-200,000	-0,001	0,072
-623,663	270,761	-0,074	0,097
-622,649	-200,000	-0,022	-0,080
-621,634	253,751	-0,052	-0,066
-620,619	202,737	0,074	-0,085
-619,605	10,904	-0,142	-0,080
-618,590	-138,387	0,136	0,011
-617,576	-200,000	-0,022	-0,095
-616,561	-174,663	0,033	0,001
-615,546	359,546	-0,049	-0,073
-614,532	-92,834	-0,123	-0,025
-613,517	423,291	-0,109	-0,174
-612,503	800,000	-0,019	0,060
-611,488	-200,000	0,038	0,172
-610,474	488,769	0,052	0,089
-609,459	-200,000	-0,008	0,051
-608,444	-32,324	0,046	0,019
-607,430	-2,565	0,164	-0,085
-606,415	320,116	0,028	-0,040
-605,401	-43,114	0,049	0,018
-604,386	591,833	0,035	-0,064
-603,371	-68,310	-0,043	0,012
-602,357	9,845	0,069	-0,038
-601,342	605,010	0,022	0,041
-600,328	375,317	-0,015	-0,022
-599,313	-60,694	-0,116	0,036
-598,298	-200,000	-0,043	0,204
-597,284	-200,000	-0,009	0,066
-596,269	-8,135	0,071	0,035
-595,255	-200,000	0,009	0,051
-594,240	277,902	-0,033	0,044
-593,225	-200,000	-0,020	-0,083
-592,211	-113,466	0,210	-0,030
-591,196	194,318	0,020	0,022
-590,182	-83,999	0,043	0,010
-589,167	-70,205	0,124	-0,035
-588,152	-200,000	-0,003	-0,043
-587,138	-200,000	0,011	0,231
-586,123	800,000	0,029	0,075
-585,109	-170,381	-0,159	0,004
-584,094	205,990	-0,090	0,104
-583,079	-69,947	0,114	0,032
-582,065	25,618	0,080	0,049
-581,050	311,612	-0,078	-0,108
-580,036	182,578	0,060	0,066
-579,021	54,261	-0,053	-0,038
-578,006	-77,575	-0,039	-0,010
-576,992	-200,000	-0,002	-0,118
-575,977	800,000	-0,024	-0,075
-574,963	-17,278	0,116	0,054
-573,948	-200,000	0,007	0,151
-572,934	-82,836	-0,061	0,014
-571,919	-200,000	-0,001	-0,092
-570,904	646,837	-0,030	-0,056
-569,890	-200,000	0,042	-0,168
-568,875	304,587	-0,070	-0,096
-567,861	-200,000	-0,001	0,087
-566,846	800,000	0,017	0,037
-565,831	-200,000	-0,001	-0,053
-564,817	-143,516	-0,142	0,010
-563,802	392,761	0,058	-0,090
-562,788	352,408	-0,090	-0,133
-561,773	-200,000	-0,011	-0,100
-560,758	-125,600	0,149	-0,016
-559,744	280,117	0,016	0,021
-558,729	-96,211	0,049	-0,010
-557,715	-100,654	-0,061	0,011
-556,700	79,983	0,031	0,024
-555,685	-8,699	-0,073	-0,036
-554,671	800,000	0,027	-0,084
-553,656	185,023	-0,147	-0,161
-552,642	-31,606	0,116	-0,048
-551,627	50,074	0,092	0,064
-550,612	139,185	-0,030	-0,029
-549,598	800,000	0,020	0,042
-548,583	228,265	-0,047	-0,057
-547,569	58,244	-0,049	0,036
-546,554	-200,000	0,001	-0,084
-545,539	530,295	0,043	-0,076
-544,525	159,760	0,014	0,014
-543,510	144,738	-0,104	0,102
-542,496	-10,794	0,053	-0,026
-541,481	274,077	0,031	0,040
-540,466	-128,168	-0,103	-0,011
-539,452	-200,000	0,000	0,080
-538,437	39,050	-0,071	0,047
-537,423	800,000	-0,018	-0,042
-536,408	-93,099	0,102	0,021
-535,393	800,000	-0,025	-0,057
-534,379	-90,328	-0,055	-0,012
-533,364	-49,759	0,099	-0,035
-532,350	800,000	0,040	-0,115
-531,335	-200,000	0,011	0,093
-530,321	131,664	-0,071	0,068
-529,306	-200,000	0,004	0,114
-528,291	800,000	-0,048	-0,109
-527,277	800,000	-0,021	0,050
-526,262	183,961	-0,149	-0,163
-525,248	176,723	-0,050	0,053
-524,233	-200,000	-0,020	0,143
-523,218	50,492	0,087	-0,061
-522,204	800,000	0,013	-0,032
-521,189	800,000	0,034	-0,085
-520,175	91,314	-0,046	-0,038
-519,160	256,129	-0,054	-0,069
-518,145	-79,009	-0,075	-0,019
-517,131	-92,185	0,119	0,025
-516,116	355,708	0,050	0,074
-515,102	-148,581	0,179	0,011
-514,087	-200,000	-0,005	-0,053
-513,072	800,000	0,030	-0,071
-512,058	520,320	0,011	0,020
-511,043	-200,000	-0,004	0,076
-510,029	-36,527	0,029	0,011
-509,014	-111,296	0,046	-0,007
-507,999	800,000	-0,019	0,041
-506,985	32,454	0,078	0,049
-505,970	-128,428	-0,174	0,018
-504,956	-133,187	0,101	0,009
-503,941	472,357	-0,076	0,126
-502,926	35,298	0,133	0,086
-501,912	-81,418	0,053	-0,013
-500,897	-200,000	0,009	0,032
-499,883	-200,000	0,002	-0,109
-498,868	15,805	-0,165	-0,095
-497,853	199,356	0,011	-0,012
-496,839	-4,585	-0,113	0,057
-495,824	-116,645	0,110	0,015
-494,810	-200,000	0,012	0,053
-493,795	5,080	-0,039	-0,021
-492,781	-78,789	0,190	0,047
-491,766	-200,000	0,009	-0,037
-490,751	128,892	0,147	-0,138
-489,737	415,643	-0,094	-0,148
-488,722	569,436	-0,087	-0,156
-487,708	-200,000	-0,003	0,055
-486,693	800,000	-0,006	0,019
-485,678	-89,241	-0,047	0,010
-484,664	800,000	-0,018	0,049
-483,649	103,485	0,043	0,037
-482,635	69,710	-0,127	-0,097
-481,620	-70,100	0,036	-0,010
-480,605	-23,216	0,053	0,023
-479,591	101,533	0,032	0,028
-478,576	245,260	0,063	0,078
-477,562	163,830	-0,092	-0,095
-476,547	-200,000	0,003	0,032
-475,532	-164,508	0,144	-0,005
-474,518	-68,316	-0,090	-0,026
-473,503	327,686	0,079	-0,112
-472,489	800,000	0,013	-0,032
-471,474	64,306	0,084	0,062
-470,459	654,589	-0,048	-0,091
-469,445	139,005	0,027	-0,026
-468,430	97,063	-0,023	-0,019
-467,416	393,693	0,038	-0,058
-466,401	572,964	-0,030	-0,055
-465,386	154,359	0,044	0,045
-464,372	800,000	0,062	0,144
-463,357	800,000	-0,040	0,095
-462,343	-64,168	-0,141	-0,042
-461,328	36,928	-0,036	0,024
-460,313	-19,299	0,041	-0,019
-459,299	113,702	0,108	0,096
-458,284	-52,475	0,028	-0,010
-457,270	-55,439	-0,030	-0,010
-456,255	619,524	0,043	-0,079
-455,241	46,982	-0,063	-0,043
-454,226	800,000	0,024	-0,053
-453,211	-70,577	0,010	-0,003
-452,197	-105,934	-0,091	-0,015
-451,182	800,000	0,029	-0,092
-450,168	104,164	0,086	-0,074
-449,153	-200,000	0,016	0,079
-448,138	88,108	-0,124	-0,101
-447,124	651,480	0,035	0,067
-446,109	-91,303	-0,071	0,015
-445,095	-200,000	-0,002	-0,010
-444,080	81,145	-0,025	0,019
-443,065	800,000	-0,029	-0,074
-442,051	-106,583	0,124	0,020
-441,036	-200,000	-0,027	0,111
-440,022	115,185	0,019	-0,017
-439,007	-55,838	0,126	0,041
-437,992	800,000	-0,012	0,024
-436,978	-200,000	0,023	0,122
-435,963	-146,602	-0,125	-0,008
-434,949	345,883	0,029	0,042
-433,934	73,541	-0,032	0,024
-432,919	674,952	-0,035	0,067
-431,905	124,579	-0,046	-0,042
-430,890	800,000	-0,008	-0,020
-429,876	-121,877	-0,096	0,011
-428,861	-37,590	0,132	0,051
-427,846	-200,000	-0,032	-0,148
-426,832	-114,058	0,020	-0,003
-425,817	548,769	0,027	-0,048
-424,803	-200,000	0,032	-0,157
-423,788	-94,778	0,074	0,015
-422,773	800,000	0,025	0,067
-421,759	-158,459	0,187	0,008
-420,744	-200,000	-0,029	0,124
-419,730	-51,919	-0,027	0,009
-418,715	-73,635	0,034	-0,009
-417,701	800,000	-0,025	-0,080
-416,686	17,502	0,116	-0,067
-415,671	-58,080	0,136	-0,043
-414,657	-132,074	-0,099	-0,009
-413,642	165,548	0,012	0,013
-412,628	18,296	0,060	0,035
-411,613	-145,622	-0,093	-0,006
-410,598	-152,452	-0,088	0,005
-409,584	-200,000	-0,007	-0,031
-408,569	-43,114	-0,055	-0,020
-407,555	-13,727	-0,053	-0,025
-406,540	53,261	-0,052	0,036
-405,525	800,000	0,028	0,062
-404,511	105,422	-0,114	0,099
-403,496	465,822	-0,079	-0,130
-402,482	402,165	0,051	-0,078
-401,467	364,789	-0,028	0,042
-400,452	363,838	0,067	0,099
-399,438	-62,201	0,075	-0,023
-398,423	40,760	-0,078	0,052
-397,409	179,253	-0,033	0,036
-396,394	671,374	-0,045	0,085
-395,379	358,161	-0,009	0,013
-394,365	-60,149	0,131	0,041
-393,350	-99,227	-0,014	0,003
-392,336	187,197	-0,111	-0,122
-391,321	140,643	-0,060	-0,058
-390,306	117,357	0,104	0,094
-389,292	57,280	-0,155	-0,111
-388,277	99,078	-0,120	-0,102
-387,263	87,218	0,091	0,074
-386,248	376,549	0,112	0,169
-385,233	-131,530	-0,081	-0,008
-384,219	135,647	0,063	-0,060
-383,204	656,378	-0,063	-0,119
-382,190	-200,000	-0,034	-0,171
-381,175	8,364	-0,222	0,122
-380,160	-47,847	0,065	0,023
-379,146	-200,000	-0,024	-0,115
-378,131	191,678	-0,099	0,109
-377,117	-47,247	0,116	0,041
-376,102	41,553	-0,135	-0,089
-375,088	318,674	0,049	0,069
-374,073	-20,114	0,124	-0,056
-373,058	-200,000	-0,013	0,061
-372,044	-200,000	0,014	0,047
-371,029	271,725	0,035	0,045
-370,015	-200,000	0,000	0,124
-369,000	-3,779	-0,151	0,077
-367,985	-200,000	-0,002	-0,042
-366,971	-57,100	-0,088	-0,028
-365,956	-66,461	-0,051	0,015
-364,942	404,982	0,073	0,113
-363,927	-200,000	-0,001	0,014
-362,912	-129,835	-0,068	0,007
-361,898	42,529	-0,122	-0,081
-360,883	-75,464	-0,151	0,039
-359,869	-200,000	0,021	-0,071
-358,854	307,973	-0,070	0,096
-357,839	-200,000	0,013	0,072
-356,825	56,871	0,099	-0,070
-355,810	-200,000	0,013	-0,098
-354,796	-200,000	0,013	-0,125
-353,781	-24,684	-0,132	0,057
-352,766	-12,791	-0,156	-0,074
-351,752	151,290	-0,010	0,010
-350,737	217,444	-0,086	-0,101
-349,723	122,227	0,067	0,061
-348,708	-80,482	0,059	-0,014
-347,693	800,000	0,017	0,036
-346,679	405,014	-0,056	-0,086
-345,664	-200,000	0,007	-0,037
-344,650	107,098	0,091	-0,079
-343,635	149,473	-0,075	-0,075
-342,620	-40,782	0,086	-0,033
-341,606	-200,000	-0,012	0,108
-340,591	-190,927	-0,183	-0,001
-339,577	94,499	-0,023	0,019
-338,562	137,735	-0,099	-0,095
-337,548	321,162	0,023	-0,032
-336,533	800,000	0,035	0,101
-335,518	-200,000	0,002	-0,035
-334,504	-122,738	-0,159	0,019
-333,489	-80,651	0,089	-0,022
-332,475	-131,940	-0,063	0,006
-331,460	-14,935	0,031	-0,014
-330,445	115,767	-0,029	-0,026
-329,431	-200,000	0,002	-0,080
-328,416	262,696	0,041	-0,052
-327,402	101,524	-0,055	0,047
-326,387	-64,962	0,033	-0,010
-325,372	245,698	-0,111	-0,137
-324,358	-147,943	-0,098	0,006
-323,343	490,839	0,090	0,151
-322,329	800,000	0,062	0,131
-321,314	441,250	0,046	0,073
-320,299	133,231	0,074	0,070
-319,285	2,677	0,057	0,030
-318,270	-101,567	-0,103	-0,018
-317,256	-85,624	0,115	-0,026
-316,241	248,484	-0,020	0,025
-315,226	-200,000	-0,030	-0,121
-314,212	-6,479	0,108	-0,054
-313,197	404,392	0,051	0,080
-312,183	-200,000	-0,014	0,058
-311,168	138,530	-0,094	-0,090
-310,153	-136,378	-0,163	-0,014
-309,139	800,000	0,021	0,064
-308,124	800,000	0,070	-0,183
-307,110	-200,000	-0,032	0,118
-306,095	213,358	0,138	0,160
-305,080	223,214	-0,055	0,065
-304,066	-200,000	0,008	-0,060
-303,051	-0,577	0,016	0,008
-302,037	158,490	-0,114	0,115
-301,022	111,434	0,063	0,055
-300,008	-200,000	-0,019	0,133
-298,993	-200,000	-0,037	0,157
-297,978	289,533	-0,022	-0,029
-296,964	-200,000	0,006	0,035
-295,949	-132,592	-0,096	0,009
-294,935	197,758	0,030	-0,034
-293,920	134,076	-0,056	0,053
-292,905	527,536	-0,029	0,050
-291,891	-200,000	0,012	-0,072
-290,876	95,882	-0,147	-0,123
-289,862	-16,443	0,110	-0,051
-288,847	-178,105	-0,117	0,002
-287,832	-108,874	0,015	-0,002
-286,818	-200,000	-0,000	0,023
-285,803	385,304	0,058	-0,088
-284,789	800,000	0,046	0,100
-283,774	-200,000	0,023	-0,096
-282,759	-200,000	0,020	0,088
-281,745	391,081	-0,052	-0,079
-280,730	-200,000	-0,012	-0,104
-279,716	-200,000	0,002	-0,027
-278,701	-200,000	0,011	-0,089
-277,686	-4,436	0,096	-0,048
-276,672	-200,000	0,008	0,039
-275,657	-79,214	-0,032	0,008
-274,643	-96,258	-0,153	-0,029
-273,628	-57,984	-0,005	0,001
-272,613	201,229	0,173	-0,195
-271,599	-174,708	-0,094	-0,002
-270,584	439,928	0,140	0,225
-269,570	317,914	0,069	0,096
-268,555	-99,168	-0,014	-0,003
-267,540	72,256	-0,010	0,008
-266,526	155,363	-0,021	-0,021
-265,511	800,000	0,027	-0,056
-264,497	36,025	0,047	0,030
-263,482	137,341	0,077	0,074
-262,467	-200,000	0,001	-0,056
-261,453	800,000	-0,048	0,129
-260,438	-200,000	0,015	0,062
-259,424	131,297	-0,088	0,082
-258,409	-200,000	0,001	0,091
-257,395	-138,540	0,066	0,005
-256,380	-68,766	-0,005	0,001
-255,365	161,449	0,031	0,032
-254,351	-200,000	0,004	0,175
-253,336	-146,348	-0,078	-0,005
-252,322	325,433	-0,062	-0,087
-251,307	800,000	0,009	-0,028
-250,292	-127,917	0,034	0,003
-249,278	319,460	-0,035	0,048
-248,263	35,472	0,076	0,049
-247,249	-150,620	0,117	0,006
-246,234	-22,033	0,046	-0,020
-245,219	-79,789	-0,087	0,021
-244,205	22,374	0,065	-0,039
-243,190	36,740	0,059	0,038
-242,176	159,867	0,017	0,017
-241,161	175,349	-0,092	-0,098
-240,146	-200,000	0,029	-0,157
-239,132	63,202	-0,110	-0,080
-238,117	-192,616	0,061	-0,000
-237,103	-26,646	-0,091	-0,039
-236,088	-20,334	0,084	0,038
-235,073	-200,000	0,035	0,232
-234,059	800,000	0,045	-0,108
-233,044	-74,160	0,110	-0,029
-232,030	-6,866	-0,057	-0,028
-231,015	-200,000	0,004	-0,042
-230,000	39,846	-0,092	-0,060
-228,986	-151,188	-0,045	0,002
-227,971	-58,759	0,066	0,021
-226,957	162,435	0,164	0,168
-225,942	-75,891	-0,049	0,013
-224,927	91,782	0,173	0,142
-223,913	-65,726	-0,146	-0,042
-222,898	800,000	-0,010	0,030
-221,884	800,000	-0,016	0,046
-220,869	-57,442	0,112	0,036
-219,855	281,627	0,032	0,042
-218,840	800,000	-0,022	0,058
-217,825	90,867	-0,041	-0,034
-216,811	20,595	-0,081	0,048
-215,796	107,256	-0,034	-0,029
-214,782	71,082	0,058	-0,044
-213,767	323,057	0,050	0,069
-212,752	-63,942	0,135	-0,040
-211,738	-61,112	0,065	0,020
-210,723	800,000	-0,054	-0,156
-209,709	105,743	-0,104	0,090
-208,694	375,801	0,034	-0,050
-207,679	62,720	-0,042	0,031
-206,665	182,253	-0,089	0,096
-205,650	108,959	-0,045	-0,039
-204,636	-65,609	0,036	0,010
-203,621	779,540	0,077	0,154
-202,606	-59,057	-0,137	0,043
-201,592	-200,000	-0,017	0,099
-200,577	-200,000	-0,021	-0,120
-199,563	-200,000	-0,001	-0,102
-198,548	536,329	0,092	0,160
-197,533	254,663	-0,030	-0,038
-196,519	-30,948	0,109	-0,044
-195,504	130,304	-0,071	-0,066
-194,490	-147,202	-0,040	-0,002
-193,475	-200,000	0,002	-0,027
-192,460	38,921	0,069	0,045
-191,446	-200,000	-0,033	0,128
-190,431	191,977	-0,114	0,125
-189,417	3,081	0,004	0,002
-188,402	-112,091	0,142	-0,021
-187,387	-5,257	0,116	-0,058
-186,373	-200,000	0,018	0,119
-185,358	800,000	-0,013	0,033
-184,344	-81,770	0,101	0,024
-183,329	-200,000	-0,015	0,060
-182,315	255,348	-0,038	0,048
-181,300	395,069	-0,069	-0,106
-180,285	27,108	0,104	0,064
-179,271	99,117	0,053	0,045
-178,256	-108,239	-0,037	-0,006
-177,242	-200,000	-0,001	0,057
-176,227	-200,000	0,049	0,195
-175,212	-200,000	-0,008	0,062
-174,198	800,000	0,028	-0,087
-173,183	100,371	-0,045	0,038
-172,169	-150,917	-0,057	0,003
-171,154	-53,619	0,035	-0,012
-170,139	275,725	0,062	0,080
-169,125	-178,215	0,105	0,002
-168,110	303,757	0,020	-0,026
-167,096	-200,000	-0,005	-0,070
-166,081	800,000	0,028	-0,080
-165,066	-200,000	-0,008	0,106
-164,052	-15,333	-0,075	0,035
-163,037	-156,564	0,099	-0,004
-162,023	210,625	-0,044	-0,050
-161,008	800,000	0,042	-0,088
-159,993	122,845	0,044	-0,040
-158,979	248,823	0,067	-0,082
-157,964	569,162	0,048	-0,086
-156,950	78,892	0,138	-0,107
-155,935	627,959	0,043	-0,080
-154,920	-50,242	0,063	-0,022
-153,906	-54,340	0,067	0,022
-152,891	-200,000	-0,026	-0,136
-151,877	-200,000	0,004	-0,089
-150,862	-2,512	-0,152	-0,077
-149,847	-56,899	-0,116	-0,037
-148,833	176,417	0,096	0,102
-147,818	800,000	-0,038	0,090
-146,804	800,000	0,024	-0,074
-145,789	800,000	-0,054	0,168
-144,775	-108,036	0,056	0,009
-143,760	-110,210	0,144	-0,022
-142,745	800,000	-0,038	-0,077
-141,731	-123,595	-0,068	-0,008
-140,716	-189,599	0,044	0,000
-139,702	193,922	-0,072	0,079
-138,687	-200,000	-0,018	0,074
-137,672	-48,924	0,093	-0,032
-136,658	800,000	0,040	0,093
-135,643	268,292	-0,039	0,050
-134,629	-200,000	-0,017	0,069
-133,614	-200,000	0,023	-0,111
-132,599	-144,151	0,022	-0,001
-131,585	413,459	-0,069	0,107
-130,570	-200,000	-0,024	0,078
-129,556	90,241	-0,026	0,021
-128,541	375,199	-0,018	0,027
-127,526	118,904	0,040	0,036
-126,512	788,177	0,050	0,099
-125,497	-200,000	-0,005	0,047
-124,483	341,137	0,039	-0,056
-123,468	-200,000	0,011	0,103
-122,453	121,702	-0,034	0,030
-121,439	-200,000	0,007	-0,057
-120,424	636,628	0,020	0,038
-119,410	741,979	0,025	-0,050
