DTS Sentinel unit serial number:	SN410029Multiplexer serial number:	ORYXHardware model number:	OX2-SRSoftware version number:	ORYX F/W v4,00 Oryx Data Collector v3.7.2.0data status	okinstallation	B4 Nyhavnadifferential loss correction	single-endedforward channel	channel 2reverse channel	N/Adate	2023/12/15time	20:25:13forward acquisition time	300,00reverse acquisition time	0,00gamma	499,1914k internal	0,3135k external	0,3135temperature offset calibration	1,0000default loss term (dB/km)	0,3820temperature slope calibration	1,0000multiplexer offset coefficient	1,0000multiplexer slope coefficient	1,0000fibre end	0,00T internal ref (°C)	20,52T ext. ref 1 (°C)	5,72T ext. ref 2 (°C)	5,88length (m)	temperature (°C)	Stokes	anti-Stokes-744,400	744,331	-0,054	-0,108
-743,385	-63,711	-0,228	0,069
-742,371	-200,000	0,004	0,042
-741,356	153,569	-0,147	0,150
-740,342	-116,131	0,066	-0,009
-739,327	-28,026	-0,283	0,121
-738,312	800,000	0,017	-0,041
-737,298	-25,957	-0,190	0,082
-736,283	800,000	0,041	0,135
-735,269	592,966	-0,147	0,270
-734,254	31,934	-0,042	0,027
-733,239	-136,479	-0,517	-0,044
-732,225	-118,497	0,221	0,029
-731,210	-21,353	-0,059	0,027
-730,196	45,764	0,017	-0,012
-729,181	-87,152	-0,112	-0,025
-728,167	191,198	-0,026	-0,029
-727,152	800,000	0,019	0,039
-726,137	-200,000	0,035	0,119
-725,123	232,975	-0,011	-0,013
-724,108	800,000	0,020	-0,059
-723,094	449,340	-0,080	-0,131
-722,079	0,221	0,105	-0,055
-721,064	153,263	-0,082	0,083
-720,050	-34,483	-0,081	-0,033
-719,035	527,994	-0,033	-0,059
-718,021	-5,364	-0,030	0,015
-717,006	-96,019	-0,119	0,023
-715,991	627,779	-0,052	-0,099
-714,977	586,766	0,045	-0,083
-713,962	228,445	0,046	-0,056
-712,948	800,000	-0,011	0,026
-711,933	800,000	0,018	0,041
-710,918	-200,000	-0,029	0,101
-709,904	800,000	0,008	0,023
-708,889	215,605	-0,030	0,036
-707,875	-96,733	-0,045	0,009
-706,860	74,900	-0,093	0,073
-705,845	66,931	-0,029	0,022
-704,831	173,555	0,039	0,042
-703,816	-131,636	-0,088	0,008
-702,802	19,133	-0,122	0,072
-701,787	731,954	-0,004	-0,009
-700,772	51,442	0,065	0,046
-699,758	800,000	0,003	0,009
-698,743	800,000	0,072	0,150
-697,729	121,791	0,044	0,041
-696,714	48,743	-0,085	-0,059
-695,699	134,507	-0,067	0,065
-694,685	-92,538	-0,143	-0,030
-693,670	-112,408	-0,162	0,024
-692,656	-66,653	0,076	-0,022
-691,641	-200,000	-0,009	0,038
-690,627	83,705	-0,024	-0,019
-689,612	-200,000	0,022	-0,137
-688,597	-28,538	0,029	0,012
-687,583	64,579	-0,055	-0,041
-686,568	-200,000	-0,017	0,083
-685,554	706,873	0,022	-0,043
-684,539	-122,763	0,114	0,013
-683,524	-200,000	-0,013	-0,091
-682,510	-72,657	0,066	0,018
-681,495	582,721	-0,030	0,055
-680,481	642,305	0,082	-0,156
-679,466	61,367	0,045	-0,033
-678,451	351,327	0,022	0,032
-677,437	-176,217	0,086	0,002
-676,422	-200,000	0,022	-0,115
-675,408	-200,000	0,016	-0,082
-674,393	323,855	0,076	-0,108
-673,378	25,049	-0,053	0,032
-672,364	23,351	-0,057	0,035
-671,349	-150,377	-0,054	-0,003
-670,335	467,996	0,059	0,098
-669,320	-200,000	-0,003	-0,020
-668,305	-20,807	0,031	0,014
-667,291	625,103	0,048	0,090
-666,276	-32,621	0,060	-0,024
-665,262	1,227	-0,132	0,070
-664,247	-200,000	-0,009	0,124
-663,232	-164,224	-0,090	-0,003
-662,218	800,000	0,033	0,096
-661,203	-165,446	0,156	-0,005
-660,189	-200,000	0,020	0,160
-659,174	-167,616	0,108	-0,003
-658,159	-31,138	0,053	0,022
-657,145	234,282	0,110	0,134
-656,130	126,314	-0,112	-0,104
-655,116	507,266	-0,084	-0,146
-654,101	21,591	0,089	0,054
-653,086	97,345	0,130	0,110
-652,072	82,354	-0,083	-0,066
-651,057	-200,000	-0,019	-0,063
-650,043	-144,004	-0,078	-0,005
-649,028	-28,416	-0,139	-0,059
-648,014	-46,824	0,101	-0,036
-646,999	-22,026	-0,118	0,053
-645,984	-124,532	0,042	0,005
-644,970	291,201	0,023	0,031
-643,955	43,618	0,008	-0,005
-642,941	-86,883	-0,179	-0,040
-641,926	800,000	-0,034	-0,102
-640,911	31,878	0,009	-0,005
-639,897	395,904	0,045	-0,070
-638,882	-200,000	0,002	0,101
-637,868	86,381	-0,031	-0,025
-636,853	40,921	-0,052	-0,035
-635,838	59,971	-0,092	-0,067
-634,824	183,551	-0,079	0,087
-633,809	-72,263	0,087	0,024
-632,795	-164,806	0,034	0,001
-631,780	-200,000	0,012	0,111
-630,765	800,000	0,019	-0,047
-629,751	328,841	0,085	-0,121
-628,736	-68,709	-0,150	0,043
-627,722	14,760	-0,040	-0,023
-626,707	415,085	-0,035	-0,056
-625,692	-37,493	0,051	0,020
-624,678	-89,714	-0,060	-0,013
-623,663	800,000	0,030	0,073
-622,649	-200,000	0,013	-0,131
-621,634	28,823	-0,084	-0,053
-620,619	-200,000	0,005	0,060
-619,605	28,231	0,109	-0,068
-618,590	368,585	-0,035	0,053
-617,576	800,000	-0,031	0,069
-616,561	43,951	-0,040	-0,027
-615,546	-200,000	0,037	-0,130
-614,532	712,894	0,045	-0,088
-613,517	-200,000	-0,017	-0,091
-612,503	-200,000	-0,001	0,023
-611,488	511,201	0,074	0,128
-610,474	472,020	0,072	0,120
-609,459	-112,780	0,181	0,026
-608,444	8,632	-0,092	-0,051
-607,430	-200,000	-0,016	-0,098
-606,415	32,318	-0,054	-0,034
-605,401	-200,000	-0,014	-0,168
-604,386	-45,339	-0,124	-0,045
-603,371	-96,149	0,097	-0,019
-602,357	-200,000	0,006	0,044
-601,342	-200,000	0,005	-0,186
-600,328	181,800	0,181	-0,197
-599,313	289,468	-0,104	-0,139
-598,298	-69,501	-0,057	-0,016
-597,284	-200,000	0,024	-0,144
-596,269	72,591	0,072	-0,055
-595,255	113,689	0,060	0,054
-594,240	261,395	0,004	0,005
-593,225	-200,000	0,002	0,076
-592,211	-200,000	-0,024	-0,143
-591,196	0,551	-0,043	-0,022
-590,182	286,860	0,010	0,013
-589,167	87,254	-0,088	0,072
-588,152	-200,000	-0,003	0,099
-587,138	800,000	-0,028	0,062
-586,123	800,000	-0,007	-0,023
-585,109	110,558	-0,034	-0,030
-584,094	800,000	-0,013	-0,043
-583,079	-200,000	-0,009	0,064
-582,065	-200,000	-0,022	0,094
-581,050	225,148	0,047	0,056
-580,036	-185,431	-0,139	0,002
-579,021	199,717	0,008	0,009
-578,006	326,733	-0,129	-0,183
-576,992	-200,000	-0,004	0,045
-575,977	-80,702	-0,081	-0,020
-574,963	800,000	-0,031	0,072
-573,948	202,873	-0,030	0,034
-572,934	261,236	-0,102	0,130
-571,919	-59,793	-0,139	0,044
-570,904	25,068	-0,064	-0,039
-569,890	-23,313	0,131	-0,058
-568,875	-105,468	0,079	-0,013
-567,861	-74,143	0,221	0,058
-566,846	12,936	0,011	-0,006
-565,831	-192,263	0,130	0,001
-564,817	134,425	0,072	-0,069
-563,802	409,488	0,058	0,091
-562,788	171,428	-0,043	-0,045
-561,773	800,000	-0,028	-0,060
-560,758	46,509	-0,055	0,038
-559,744	116,038	0,048	-0,043
-558,729	-17,901	-0,072	0,033
-557,715	-59,024	0,033	-0,010
-556,700	-200,000	0,002	-0,064
-555,685	17,927	-0,088	-0,051
-554,671	-20,349	0,121	0,055
-553,656	-23,186	0,090	-0,040
-552,642	-200,000	0,002	0,066
-551,627	61,576	-0,105	0,077
-550,612	321,566	-0,065	0,091
-549,598	-108,571	-0,062	-0,010
-548,583	191,573	0,043	-0,047
-547,569	267,419	-0,026	0,033
-546,554	84,812	0,025	-0,020
-545,539	18,315	0,101	-0,059
-544,525	787,128	-0,053	-0,108
-543,510	800,000	-0,015	-0,032
-542,496	800,000	0,021	0,045
-541,481	-200,000	0,037	0,000
-540,466	139,940	-0,089	-0,087
-539,452	-200,000	-0,000	-0,002
-538,437	-161,465	0,176	0,007
-537,423	279,758	0,042	-0,055
-536,408	800,000	-0,008	-0,027
-535,393	69,276	0,088	-0,067
-534,379	185,911	-0,053	0,058
-533,364	114,336	0,094	-0,084
-532,350	9,832	0,065	0,036
-531,335	-200,000	0,020	0,092
-530,321	-200,000	-0,003	-0,062
-529,306	65,407	0,075	0,056
-528,291	-200,000	0,010	-0,078
-527,277	800,000	-0,017	0,038
-526,262	-43,239	0,037	0,014
-525,248	-128,906	-0,139	-0,014
-524,233	-200,000	0,001	0,137
-523,218	-67,171	-0,155	0,045
-522,204	21,498	-0,067	-0,040
-521,189	162,717	-0,079	-0,081
-520,175	-2,968	-0,112	-0,058
-519,160	-103,751	0,068	-0,012
-518,145	-200,000	-0,001	0,010
-517,131	128,920	-0,062	0,058
-516,116	800,000	-0,016	0,051
-515,102	-47,775	0,111	0,039
-514,087	124,247	-0,021	-0,020
-513,072	783,568	-0,032	-0,065
-512,058	800,000	0,015	0,041
-511,043	744,896	0,059	0,118
-510,029	678,930	0,027	-0,052
-509,014	-37,605	0,132	-0,051
-507,999	245,452	-0,039	0,048
-506,985	-82,722	0,118	-0,028
-505,970	38,491	-0,078	0,051
-504,956	36,650	-0,084	0,054
-503,941	-200,000	0,061	0,222
-502,926	11,863	-0,015	-0,008
-501,912	529,435	-0,072	0,125
-500,897	-200,000	0,012	0,057
-499,883	-29,028	-0,039	0,017
-498,868	68,374	-0,122	-0,092
-497,853	-200,000	-0,003	-0,084
-496,839	713,424	-0,038	0,075
-495,824	-122,254	0,072	-0,009
-494,810	375,539	0,048	0,073
-493,795	-200,000	0,012	-0,059
-492,781	800,000	0,025	-0,080
-491,766	-100,510	-0,077	0,014
-490,751	-200,000	0,009	0,058
-489,737	72,210	0,128	0,098
-488,722	44,433	0,061	-0,041
-487,708	-131,768	0,034	0,003
-486,693	800,000	0,019	-0,048
-485,678	800,000	-0,014	-0,038
-484,664	-101,559	-0,054	0,010
-483,649	126,365	-0,035	-0,033
-482,635	4,473	-0,049	0,027
-481,620	245,359	0,036	0,045
-480,605	243,339	0,065	-0,080
-479,591	134,567	0,066	-0,063
-478,576	800,000	0,015	-0,033
-477,562	800,000	0,021	-0,056
-476,547	252,236	0,039	-0,048
-475,532	425,175	0,057	-0,090
-474,518	-200,000	-0,010	-0,111
-473,503	385,600	0,034	0,052
-472,489	662,536	0,044	0,084
-471,474	30,162	-0,095	-0,059
-470,459	-47,725	0,121	-0,043
-469,445	800,000	0,022	-0,069
-468,430	-200,000	0,010	-0,126
-467,416	104,410	0,074	0,064
-466,401	800,000	-0,031	0,071
-465,386	800,000	0,039	0,107
-464,372	-200,000	0,035	-0,118
-463,357	29,615	-0,148	0,092
-462,343	800,000	-0,020	-0,056
-461,328	34,135	-0,057	0,036
-460,313	246,061	0,056	-0,070
-459,299	-32,241	0,024	-0,010
-458,284	-200,000	0,005	0,057
-457,270	-200,000	-0,019	-0,113
-456,255	800,000	-0,032	-0,100
-455,241	118,283	0,103	-0,093
-454,226	260,831	-0,106	-0,135
-453,211	-200,000	0,003	0,199
-452,197	-77,964	0,041	0,010
-451,182	-200,000	0,005	0,020
-450,168	800,000	-0,020	0,049
-449,153	108,324	-0,087	-0,076
-448,138	217,779	-0,109	-0,128
-447,124	-200,000	0,007	0,048
-446,109	-200,000	-0,001	0,103
-445,095	-200,000	0,030	0,189
-444,080	-200,000	0,016	0,063
-443,065	463,275	0,066	0,108
-442,051	-25,468	0,080	0,034
-441,036	800,000	-0,049	-0,106
-440,022	-107,226	0,091	-0,015
-439,007	-74,819	-0,105	0,028
-437,992	459,914	0,031	0,050
-436,978	14,332	-0,078	0,044
-435,963	177,275	0,039	0,042
-434,949	800,000	0,015	-0,039
-433,934	-200,000	0,025	0,119
-432,919	800,000	0,046	0,141
-431,905	-200,000	-0,012	-0,057
-430,890	129,201	0,077	0,072
-429,876	400,734	0,013	-0,020
-428,861	-200,000	-0,002	-0,067
-427,846	-200,000	0,046	-0,148
-426,832	-29,622	0,009	0,004
-425,817	-200,000	0,005	0,097
-424,803	800,000	-0,016	0,039
-423,788	800,000	-0,005	-0,015
-422,773	7,792	0,109	0,060
-421,759	129,452	0,089	0,083
-420,744	-104,934	-0,061	0,010
-419,730	-200,000	-0,002	-0,032
-418,715	-200,000	0,004	-0,103
-417,701	140,615	-0,051	0,050
-416,686	-200,000	-0,004	0,071
-415,671	545,560	-0,042	0,074
-414,657	207,905	0,009	-0,010
-413,642	-130,391	0,082	-0,008
-412,628	800,000	-0,039	-0,104
-411,613	-37,896	-0,070	-0,027
-410,598	-200,000	0,019	-0,091
-409,584	-30,108	-0,108	-0,045
-408,569	8,732	-0,071	0,039
-407,555	-70,623	0,095	-0,026
-406,540	-200,000	0,009	0,050
-405,525	14,913	0,143	0,082
-404,511	-25,358	-0,066	-0,028
-403,496	133,489	-0,023	-0,022
-402,482	129,903	0,083	-0,078
-401,467	130,436	0,026	0,025
-400,452	7,093	0,105	0,057
-399,438	406,465	-0,024	-0,038
-398,423	-77,766	-0,179	-0,045
-397,409	-137,304	-0,180	-0,015
-396,394	103,419	0,075	0,064
-395,379	791,337	-0,037	0,075
-394,365	-95,105	-0,112	-0,022
-393,350	-63,649	0,042	0,012
-392,336	379,038	0,091	0,137
-391,321	-200,000	-0,074	0,000
-390,306	-22,966	0,055	-0,024
-389,292	98,262	-0,066	-0,056
-388,277	449,469	-0,065	-0,105
-387,263	-155,143	0,106	0,005
-386,248	-70,779	-0,025	0,007
-385,233	44,041	0,082	0,055
-384,219	10,850	-0,101	0,056
-383,204	-23,342	0,060	0,026
-382,190	253,448	0,083	0,104
-381,175	-110,633	-0,038	0,006
-380,160	-68,217	-0,118	-0,033
-379,146	318,932	-0,059	0,082
-378,131	-52,629	0,032	0,011
-377,117	-71,851	0,115	-0,031
-376,102	108,508	0,095	0,083
-375,088	1,241	-0,181	0,095
-374,073	800,000	0,052	-0,119
-373,058	-105,271	0,172	-0,028
-372,044	-178,940	0,119	0,002
-371,029	-147,250	0,088	0,005
-370,015	7,905	-0,109	-0,059
-369,000	-52,605	-0,086	-0,029
-367,985	150,005	-0,014	0,014
-366,971	24,457	0,107	-0,064
-365,956	4,692	0,027	-0,015
-364,942	29,729	-0,046	0,029
-363,927	41,519	0,148	0,098
-362,912	420,635	-0,009	-0,014
-361,898	306,929	-0,061	-0,083
-360,883	633,751	-0,027	0,050
-359,869	-55,899	-0,108	-0,035
-358,854	-200,000	0,010	-0,047
-357,839	-16,464	0,022	0,010
-356,825	-37,322	0,052	0,020
-355,810	-5,979	-0,072	0,036
-354,796	800,000	0,053	0,110
-353,781	377,903	-0,034	-0,051
-352,766	-200,000	0,005	-0,102
-351,752	106,416	0,074	0,064
-350,737	800,000	-0,033	-0,073
-349,723	-131,423	-0,059	-0,006
-348,708	557,003	0,058	-0,103
-347,693	344,715	-0,089	-0,128
-346,679	-36,344	0,085	0,033
-345,664	-57,425	0,055	0,017
-344,650	800,000	-0,049	-0,099
-343,635	800,000	0,048	0,139
-342,620	800,000	-0,014	0,046
-341,606	800,000	0,053	0,113
-340,591	297,425	-0,105	0,141
-339,577	225,829	-0,071	-0,085
-338,562	-38,815	-0,060	0,023
-337,548	-35,473	0,005	0,002
-336,533	-100,648	0,049	-0,009
-335,518	-149,796	0,180	-0,010
-334,504	-125,071	-0,102	0,011
-333,489	62,324	-0,010	0,007
-332,475	65,878	-0,084	-0,062
-331,460	502,932	-0,034	-0,058
-330,445	512,989	0,084	-0,143
-329,431	18,734	0,063	0,036
-328,416	800,000	0,032	0,078
-327,402	800,000	-0,040	0,103
-326,387	800,000	0,049	0,131
-325,372	-9,471	0,064	-0,031
-324,358	-173,393	-0,119	-0,003
-323,343	356,537	0,090	-0,132
-322,329	-200,000	-0,012	0,094
-321,314	-99,614	0,111	-0,020
-320,299	-200,000	-0,010	0,033
-319,285	800,000	-0,051	0,114
-318,270	-146,594	-0,014	-0,001
-317,256	800,000	0,019	-0,044
-316,241	-116,057	0,144	-0,019
-315,226	450,072	-0,074	0,119
-314,212	-32,129	0,133	-0,054
-313,197	-93,083	-0,077	0,016
-312,183	800,000	-0,033	0,106
-311,168	137,821	-0,092	-0,088
-310,153	76,595	-0,086	0,066
-309,139	50,044	-0,024	0,016
-308,124	286,424	-0,060	0,079
-307,110	800,000	-0,026	-0,083
-306,095	-123,345	0,097	-0,011
-305,080	680,979	-0,063	-0,120
-304,066	-139,516	0,128	-0,010
-303,051	-11,536	0,070	0,034
-302,037	81,013	-0,049	0,039
-301,022	645,152	0,011	-0,021
-300,008	800,000	0,066	0,173
-298,993	800,000	0,010	0,032
-297,978	16,501	-0,175	0,101
-296,964	-200,000	-0,019	-0,079
-295,949	-82,060	-0,151	0,036
-294,935	125,367	-0,076	0,070
-293,920	113,638	-0,064	-0,057
-292,905	447,914	-0,076	0,122
-291,891	-75,194	0,146	-0,038
-290,876	305,526	-0,135	0,183
-289,862	-200,000	0,014	0,136
-288,847	362,268	0,035	-0,051
-287,832	-127,100	0,121	-0,013
-286,818	-200,000	-0,047	-0,174
-285,803	800,000	0,057	0,126
-284,789	-34,567	0,080	-0,032
-283,774	248,937	0,044	0,054
-282,759	387,192	0,039	-0,059
-281,745	800,000	-0,024	0,063
-280,730	140,129	-0,076	-0,073
-279,716	-170,159	-0,204	-0,005
-278,701	303,341	0,028	-0,038
-277,686	-35,129	0,073	-0,029
-276,672	-10,370	0,062	-0,030
-275,657	208,206	-0,035	-0,040
-274,643	556,444	-0,016	-0,029
-273,628	800,000	-0,061	-0,168
-272,613	-54,221	0,109	0,036
-271,599	-137,448	-0,050	-0,004
-270,584	211,292	0,055	-0,063
-269,570	82,491	-0,120	0,095
-268,555	800,000	0,054	0,164
-267,540	-200,000	0,000	0,099
-266,526	-139,225	-0,128	0,010
-265,511	421,003	0,052	0,082
-264,497	-200,000	-0,014	-0,113
-263,482	777,397	0,059	0,118
-262,467	556,619	0,050	0,088
-261,453	-15,535	0,049	-0,023
-260,438	-200,000	-0,011	0,112
-259,424	-114,949	0,164	-0,023
-258,409	-14,073	-0,126	-0,059
-257,395	132,066	-0,116	0,108
-256,380	-140,684	0,103	0,008
-255,365	123,820	0,070	-0,064
-254,351	-67,013	0,034	0,010
-253,336	93,150	0,079	-0,065
-252,322	148,116	-0,088	-0,087
-251,307	742,542	-0,054	-0,106
-250,292	-9,812	-0,090	0,043
-249,278	-62,752	0,055	0,017
-248,263	56,199	0,043	0,030
-247,249	531,343	-0,018	0,030
-246,234	755,969	-0,039	-0,078
-245,219	-200,000	-0,007	-0,033
-244,205	156,159	-0,092	-0,093
-243,190	14,737	0,142	0,081
-242,176	800,000	0,031	0,073
-241,161	709,180	-0,046	0,088
-240,146	754,128	0,041	0,081
-239,132	800,000	0,029	-0,094
-238,117	-79,425	-0,035	-0,008
-237,103	218,768	0,133	-0,155
-236,088	71,062	-0,102	-0,077
-235,073	706,405	-0,038	-0,073
-234,059	19,435	0,040	0,023
-233,044	800,000	0,046	0,112
-232,030	-33,143	-0,087	-0,035
-231,015	800,000	0,034	-0,102
-230,000	-200,000	0,014	-0,063
-228,986	99,410	0,109	-0,092
-227,971	-200,000	0,008	0,123
-226,957	-200,000	0,032	0,107
-225,942	-3,390	-0,076	0,039
-224,927	-107,865	-0,064	-0,010
-223,913	-200,000	-0,001	0,026
-222,898	208,811	-0,113	-0,129
-221,884	15,757	-0,046	-0,026
-220,869	-84,741	0,155	-0,035
-219,855	-98,327	0,046	-0,009
-218,840	125,049	-0,061	0,056
-217,825	800,000	0,057	0,136
-216,811	169,231	-0,046	-0,048
-215,796	59,129	-0,050	-0,036
-214,782	-200,000	0,032	-0,107
-213,767	-200,000	-0,014	0,049
-212,752	800,000	-0,055	0,175
-211,738	140,451	-0,007	-0,007
-210,723	185,623	0,104	0,112
-209,709	-149,020	-0,050	0,003
-208,694	71,291	-0,015	-0,011
-207,679	-200,000	0,005	-0,035
-206,665	122,911	0,087	-0,079
-205,650	297,578	0,030	-0,041
-204,636	305,014	-0,111	0,151
-203,621	-109,911	0,054	-0,008
-202,606	-48,796	-0,123	-0,043
-201,592	318,406	0,011	0,016
-200,577	-69,063	0,054	0,015
-199,563	-74,267	0,195	0,051
-198,548	-132,175	-0,112	0,010
-197,533	-108,867	-0,162	0,025
-196,519	-79,459	-0,100	-0,024
-195,504	800,000	-0,027	-0,070
-194,490	-200,000	-0,017	-0,180
-193,475	-69,808	0,122	-0,034
-192,460	-93,665	-0,145	-0,029
-191,446	3,952	-0,142	0,075
-190,431	290,886	-0,147	0,194
-189,417	158,660	-0,026	-0,026
-188,402	-129,794	0,063	0,006
-187,387	16,360	0,083	-0,048
-186,373	800,000	0,012	-0,037
-185,358	-200,000	0,014	-0,097
-184,344	800,000	-0,043	0,102
-183,329	-32,046	-0,098	0,040
-182,315	-14,909	0,090	0,042
-181,300	-200,000	-0,017	-0,063
-180,285	800,000	-0,043	0,135
-179,271	310,805	-0,043	0,058
-178,256	-2,290	0,031	0,016
-177,242	800,000	0,052	0,119
-176,227	-10,688	-0,055	0,026
-175,212	-72,943	0,020	-0,005
-174,198	80,031	-0,068	0,053
-173,183	637,613	-0,065	-0,121
-172,169	-200,000	-0,001	-0,059
-171,154	45,396	0,066	0,044
-170,139	109,968	0,052	-0,045
-169,125	-200,000	0,023	-0,084
-168,110	-34,153	-0,051	-0,020
-167,096	97,134	-0,046	-0,038
-166,081	-114,134	0,147	-0,020
-165,066	800,000	-0,058	-0,132
-164,052	30,969	0,046	-0,028
-163,037	-16,040	0,054	0,025
-162,023	453,139	-0,043	-0,070
-161,008	800,000	0,080	0,204
-159,993	8,685	0,059	-0,032
-158,979	-195,366	0,065	-0,000
-157,964	563,679	-0,029	-0,051
-156,950	475,424	0,019	-0,032
-155,935	395,039	0,042	-0,063
-154,920	800,000	0,023	0,071
-153,906	111,266	0,045	-0,039
-152,891	800,000	-0,022	-0,046
-151,877	19,892	-0,113	-0,066
-150,862	92,089	-0,112	0,091
-149,847	-200,000	0,016	-0,075
-148,833	59,358	-0,092	-0,065
-147,818	87,176	0,032	0,026
-146,804	164,114	-0,086	0,088
-145,789	57,101	0,130	0,092
-144,775	-137,161	0,068	-0,006
-143,760	473,378	-0,036	-0,059
-142,745	-90,262	-0,046	-0,010
-141,731	800,000	0,047	-0,125
-140,716	186,813	-0,091	0,099
-139,702	178,672	0,093	0,099
-138,687	83,885	0,066	0,052
-137,672	800,000	-0,057	0,154
-136,658	185,561	-0,071	-0,076
-135,643	-93,385	0,055	0,011
-134,629	-93,740	0,099	-0,020
-133,614	40,878	-0,099	0,065
-132,599	800,000	0,010	0,027
-131,585	-200,000	-0,007	-0,033
-130,570	104,969	0,098	0,084
-129,556	-200,000	-0,018	0,123
-128,541	-74,029	-0,086	-0,022
-127,526	-200,000	0,006	-0,099
-126,512	800,000	-0,053	-0,128
-125,497	800,000	0,012	0,031
-124,483	394,125	0,071	0,108
-123,468	722,344	0,013	0,026
-122,453	580,085	-0,045	-0,080
-121,439	152,985	-0,094	-0,093
-120,424	180,875	-0,030	0,032
-119,410	-200,000	0,022	-0,084
-118,395	91,912	-0,036	0,029
-117,380	-101,354	-0,132	0,023
