DTS Sentinel unit serial number:	SN410029Multiplexer serial number:	ORYXHardware model number:	OX2-SRSoftware version number:	ORYX F/W v4,00 Oryx Data Collector v3.7.2.0data status	okinstallation	B4 Nyhavnadifferential loss correction	single-endedforward channel	channel 2reverse channel	N/Adate	2023/12/19time	09:40:13forward acquisition time	300,00reverse acquisition time	0,00gamma	499,1914k internal	0,3128k external	0,3128temperature offset calibration	1,0000default loss term (dB/km)	0,3820temperature slope calibration	1,0000multiplexer offset coefficient	1,0000multiplexer slope coefficient	1,0000fibre end	0,00T internal ref (°C)	20,39T ext. ref 1 (°C)	4,85T ext. ref 2 (°C)	4,85length (m)	temperature (°C)	Stokes	anti-Stokes-744,400	636,872	-0,033	-0,063
-743,385	50,956	-0,219	0,155
-742,371	-84,615	0,118	0,028
-741,356	416,113	-0,144	0,229
-740,342	-83,806	0,123	0,029
-739,327	8,081	-0,275	0,153
-738,312	-200,000	0,005	0,016
-737,298	-26,172	-0,223	0,097
-736,283	800,000	0,085	-0,181
-735,269	-5,797	-0,094	0,048
-734,254	-57,073	-0,063	0,021
-733,239	-72,457	-0,440	-0,120
-732,225	88,970	0,041	0,034
-731,210	130,897	0,094	0,090
-730,196	5,379	-0,111	0,061
-729,181	800,000	-0,003	-0,008
-728,167	24,065	0,057	-0,035
-727,152	-49,857	-0,052	-0,018
-726,137	-200,000	0,021	0,073
-725,123	-200,000	-0,029	0,143
-724,108	160,762	-0,142	-0,148
-723,094	142,090	0,037	-0,037
-722,079	361,923	-0,029	-0,044
-721,064	565,659	0,061	0,111
-720,050	-48,348	-0,191	0,068
-719,035	313,086	0,047	0,066
-718,021	18,796	0,048	-0,028
-717,006	136,492	-0,131	0,127
-715,991	57,888	-0,074	0,054
-714,977	343,100	-0,088	-0,128
-713,962	216,241	0,040	-0,048
-712,948	-120,196	-0,018	0,002
-711,933	-88,844	0,040	0,009
-710,918	-200,000	0,009	0,100
-709,904	-133,341	0,059	0,005
-708,889	-107,497	-0,098	-0,016
-707,875	-200,000	-0,015	-0,092
-706,860	-117,806	-0,030	0,004
-705,845	-70,179	0,049	-0,014
-704,831	-127,442	-0,099	-0,011
-703,816	11,273	-0,133	-0,075
-702,802	-35,918	-0,090	0,036
-701,787	-71,478	-0,187	0,052
-700,772	-63,625	-0,104	-0,032
-699,758	7,053	0,126	0,069
-698,743	800,000	0,066	0,161
-697,729	-18,388	-0,080	0,037
-696,714	1,030	0,144	-0,077
-695,699	-30,033	-0,083	-0,035
-694,685	86,999	-0,056	-0,046
-693,670	71,007	-0,076	-0,059
-692,656	-200,000	0,014	0,052
-691,641	-200,000	0,009	0,042
-690,627	417,936	-0,094	0,150
-689,612	75,586	-0,034	0,027
-688,597	594,773	-0,063	-0,116
-687,583	-156,768	-0,139	0,006
-686,568	-32,653	0,005	-0,002
-685,554	296,203	0,075	-0,102
-684,539	800,000	0,034	0,102
-683,524	-200,000	0,016	-0,076
-682,510	-106,020	-0,151	0,025
-681,495	-195,276	-0,081	0,000
-680,481	143,533	-0,091	-0,090
-679,466	-200,000	-0,015	-0,165
-678,451	-126,195	-0,108	-0,012
-677,437	-200,000	0,010	-0,044
-676,422	446,590	0,058	-0,096
-675,408	78,085	-0,087	-0,069
-674,393	40,428	0,066	-0,044
-673,378	305,141	-0,018	0,025
-672,364	-200,000	0,002	-0,054
-671,349	-63,125	-0,162	-0,049
-670,335	-200,000	-0,004	0,097
-669,320	-162,982	0,092	0,003
-668,305	-107,483	-0,184	-0,030
-667,291	9,307	-0,011	0,006
-666,276	125,302	-0,052	0,048
-665,262	-157,042	0,058	-0,003
-664,247	-94,117	-0,019	-0,004
-663,232	-134,355	0,066	0,006
-662,218	800,000	0,044	0,124
-661,203	800,000	-0,009	-0,025
-660,189	19,587	-0,041	-0,025
-659,174	-92,785	-0,013	0,003
-658,159	162,693	0,102	-0,106
-657,145	800,000	-0,056	-0,170
-656,130	-200,000	0,003	-0,101
-655,116	-73,663	-0,010	-0,003
-654,101	53,166	0,104	0,074
-653,086	-120,262	-0,089	0,011
-652,072	-40,279	-0,102	-0,039
-651,057	-200,000	-0,042	0,186
-650,043	-18,552	-0,061	-0,028
-649,028	-200,000	-0,013	-0,110
-648,014	-108,548	0,061	-0,010
-646,999	362,409	0,015	0,022
-645,984	-76,833	-0,074	-0,019
-644,970	800,000	0,015	0,035
-643,955	171,138	0,108	-0,115
-642,941	137,992	-0,128	-0,124
-641,926	-200,000	-0,015	-0,125
-640,911	257,769	0,054	0,069
-639,897	800,000	0,030	-0,088
-638,882	-41,324	-0,061	-0,023
-637,868	-200,000	0,011	-0,073
-636,853	-200,000	0,014	-0,113
-635,838	-200,000	0,003	0,049
-634,824	-170,504	-0,111	0,003
-633,809	-200,000	-0,003	-0,029
-632,795	395,252	-0,019	0,030
-631,780	-135,673	0,091	0,008
-630,765	-104,685	-0,011	0,002
-629,751	-162,276	-0,163	-0,006
-628,736	-200,000	0,005	-0,024
-627,722	-152,071	-0,108	-0,006
-626,707	-200,000	0,037	0,141
-625,692	136,032	0,060	0,058
-624,678	22,464	0,035	0,021
-623,663	16,266	0,123	-0,071
-622,649	800,000	0,028	-0,070
-621,634	274,472	0,090	-0,118
-620,619	-90,035	-0,105	-0,022
-619,605	-200,000	-0,019	0,075
-618,590	-200,000	0,018	0,108
-617,576	43,214	0,056	0,037
-616,561	-153,824	-0,141	0,007
-615,546	-46,946	-0,169	0,061
-614,532	-200,000	-0,008	-0,174
-613,517	761,947	-0,031	-0,063
-612,503	-200,000	-0,002	-0,014
-611,488	485,292	-0,099	0,167
-610,474	257,193	0,063	0,081
-609,459	18,182	-0,080	-0,047
-608,444	28,499	-0,025	-0,016
-607,430	36,168	-0,059	-0,039
-606,415	-200,000	-0,007	-0,067
-605,401	800,000	0,011	-0,025
-604,386	-89,164	0,037	-0,008
-603,371	-104,444	0,129	0,022
-602,357	800,000	0,039	-0,107
-601,342	-48,426	0,148	0,053
-600,328	-36,930	-0,054	0,021
-599,313	-148,411	-0,085	-0,005
-598,298	92,523	-0,124	-0,103
-597,284	-72,537	0,088	0,024
-596,269	-87,337	-0,121	0,027
-595,255	266,959	0,053	0,068
-594,240	-108,729	-0,158	-0,025
-593,225	-200,000	0,002	0,122
-592,211	-128,458	-0,083	0,009
-591,196	-54,032	-0,096	0,032
-590,182	800,000	-0,038	0,080
-589,167	800,000	-0,004	-0,011
-588,152	800,000	-0,028	-0,068
-587,138	121,605	0,061	0,057
-586,123	800,000	0,031	-0,071
-585,109	-134,966	-0,095	0,008
-584,094	-200,000	-0,005	0,058
-583,079	-17,533	0,016	0,007
-582,065	-200,000	0,017	0,078
-581,050	800,000	0,020	0,049
-580,036	220,603	0,053	0,063
-579,021	142,576	0,045	0,044
-578,006	-57,295	-0,147	-0,048
-576,992	54,315	-0,069	-0,049
-575,977	-200,000	0,004	-0,043
-574,963	-136,300	-0,102	0,009
-573,948	-200,000	-0,011	-0,101
-572,934	-200,000	0,029	-0,235
-571,919	198,837	-0,088	-0,100
-570,904	398,773	0,060	-0,093
-569,890	583,121	0,029	0,053
-568,875	367,729	-0,071	0,107
-567,861	-200,000	0,025	-0,122
-566,846	23,058	-0,051	-0,031
-565,831	-91,083	0,120	-0,025
-564,817	-91,963	0,005	-0,001
-563,802	20,890	-0,038	-0,022
-562,788	-102,939	-0,054	0,009
-561,773	-200,000	0,003	0,037
-560,758	495,664	0,070	0,119
-559,744	364,388	0,136	0,204
-558,729	-200,000	-0,020	0,078
-557,715	71,650	0,067	0,051
-556,700	800,000	-0,042	0,111
-555,685	-200,000	-0,008	-0,085
-554,671	-52,764	0,142	0,048
-553,656	-111,200	0,107	-0,016
-552,642	123,284	-0,020	0,018
-551,627	76,958	-0,037	0,029
-550,612	84,465	0,045	-0,036
-549,598	-200,000	-0,015	-0,073
-548,583	-200,000	0,003	-0,064
-547,569	-200,000	0,017	0,085
-546,554	21,724	0,094	-0,056
-545,539	19,909	0,119	-0,071
-544,525	614,791	-0,048	-0,089
-543,510	-200,000	-0,000	-0,078
-542,496	-42,295	0,041	0,015
-541,481	263,482	-0,056	-0,072
-540,466	-200,000	-0,006	-0,120
-539,452	-200,000	-0,012	0,092
-538,437	-200,000	0,001	0,135
-537,423	-200,000	0,030	0,112
-536,408	-184,518	-0,076	0,001
-535,393	185,685	-0,019	0,021
-534,379	14,504	-0,110	-0,063
-533,364	174,099	0,089	-0,095
-532,350	-80,564	-0,176	0,043
-531,335	8,819	0,033	0,018
-530,321	222,037	-0,039	0,046
-529,306	39,620	-0,031	-0,020
-528,291	59,767	-0,140	0,102
-527,277	144,898	-0,026	-0,026
-526,262	-200,000	-0,019	-0,065
-525,248	-83,808	0,079	0,018
-524,233	122,236	-0,021	0,020
-523,218	-200,000	0,013	0,052
-522,204	143,142	-0,033	0,033
-521,189	-177,406	0,080	0,001
-520,175	-70,182	0,031	0,009
-519,160	441,389	0,076	-0,123
-518,145	346,934	-0,062	-0,091
-517,131	601,558	0,010	0,017
-516,116	53,990	-0,048	-0,034
-515,102	-97,223	-0,058	0,011
-514,087	-200,000	-0,005	-0,026
-513,072	202,869	0,018	0,020
-512,058	13,533	-0,047	0,027
-511,043	100,566	0,058	0,050
-510,029	588,184	0,050	0,091
-509,014	-200,000	-0,008	0,072
-507,999	-132,037	0,043	-0,004
-506,985	-29,504	-0,089	0,037
-505,970	14,389	-0,102	0,059
-504,956	-123,902	-0,124	0,014
-503,941	-186,484	-0,097	0,001
-502,926	-200,000	-0,003	0,067
-501,912	-59,514	0,179	0,056
-500,897	-8,977	-0,102	-0,050
-499,883	50,481	0,083	0,058
-498,868	391,784	-0,035	-0,054
-497,853	-200,000	-0,015	-0,109
-496,839	-8,410	0,055	-0,027
-495,824	144,769	0,110	-0,108
-494,810	800,000	0,067	0,170
-493,795	205,576	-0,028	0,032
-492,781	245,119	0,062	0,076
-491,766	18,215	-0,052	0,031
-490,751	-200,000	-0,041	-0,147
-489,737	800,000	0,065	-0,137
-488,722	319,767	0,126	0,177
-487,708	-106,359	0,253	-0,041
-486,693	-7,380	0,079	0,039
-485,678	-200,000	-0,034	-0,114
-484,664	800,000	0,050	-0,149
-483,649	205,333	-0,100	-0,114
-482,635	63,298	0,114	-0,084
-481,620	221,629	0,018	-0,022
-480,605	194,002	0,056	0,063
-479,591	193,043	0,094	-0,104
-478,576	17,024	-0,047	-0,027
-477,562	-200,000	-0,010	0,091
-476,547	241,577	0,067	0,083
-475,532	237,077	0,037	0,046
-474,518	-200,000	0,008	0,030
-473,503	374,324	-0,016	0,025
-472,489	800,000	0,028	0,063
-471,474	187,094	0,022	0,024
-470,459	800,000	0,043	-0,087
-469,445	-200,000	0,026	-0,088
-468,430	-96,117	-0,072	0,014
-467,416	-200,000	0,034	0,156
-466,401	800,000	0,032	0,075
-465,386	-200,000	0,008	0,049
-464,372	-92,179	0,137	-0,028
-463,357	-70,941	-0,071	0,020
-462,343	435,453	0,035	-0,057
-461,328	800,000	-0,022	-0,047
-460,313	-200,000	-0,033	-0,147
-459,299	81,287	-0,012	0,009
-458,284	-200,000	-0,019	0,138
-457,270	489,221	0,016	0,028
-456,255	283,375	-0,049	-0,066
-455,241	80,379	-0,094	-0,074
-454,226	-98,150	0,072	0,014
-453,211	-200,000	-0,001	-0,018
-452,197	-200,000	0,021	-0,117
-451,182	-115,484	0,153	0,021
-450,168	579,769	0,014	0,025
-449,153	-200,000	-0,010	-0,073
-448,138	-200,000	0,000	-0,084
-447,124	-132,112	0,074	-0,007
-446,109	800,000	-0,032	-0,079
-445,095	-200,000	-0,010	0,109
-444,080	-63,198	0,142	0,043
-443,065	129,148	-0,048	-0,045
-442,051	242,864	0,059	0,073
-441,036	-200,000	-0,001	0,049
-440,022	115,962	0,038	0,034
-439,007	-123,620	-0,063	-0,007
-437,992	-25,806	0,028	0,012
-436,978	-200,000	-0,029	-0,121
-435,963	800,000	0,034	0,075
-434,949	-79,685	-0,013	0,003
-433,934	-126,447	0,038	-0,004
-432,919	665,011	0,023	0,043
-431,905	482,922	0,046	0,077
-430,890	-200,000	-0,012	0,164
-429,876	800,000	0,003	-0,010
-428,861	-36,487	0,045	0,018
-427,846	62,804	-0,080	0,059
-426,832	28,319	0,052	-0,032
-425,817	-139,756	0,102	-0,008
-424,803	-37,567	0,148	-0,058
-423,788	131,123	0,058	-0,055
-422,773	-129,270	0,071	-0,007
-421,759	-114,384	-0,075	-0,010
-420,744	7,651	-0,047	0,026
-419,730	-200,000	0,001	0,010
-418,715	-107,512	0,025	0,004
-417,701	-200,000	0,012	0,100
-416,686	681,284	0,065	0,126
-415,671	49,039	0,032	0,022
-414,657	-2,018	0,082	-0,042
-413,642	-72,914	0,066	0,018
-412,628	-200,000	-0,015	0,054
-411,613	800,000	0,077	0,175
-410,598	-2,945	-0,055	0,028
-409,584	-62,445	-0,057	-0,017
-408,569	800,000	-0,042	0,090
-407,555	800,000	0,006	-0,019
-406,540	-200,000	0,021	0,195
-405,525	-200,000	-0,032	0,107
-404,511	283,173	-0,049	-0,065
-403,496	-63,500	-0,036	-0,011
-402,482	169,438	-0,081	0,085
-401,467	125,860	-0,043	0,040
-400,452	-44,218	0,049	0,018
-399,438	114,381	0,052	0,047
-398,423	-200,000	0,003	-0,043
-397,409	-200,000	0,017	-0,110
-396,394	800,000	0,077	-0,177
-395,379	-200,000	-0,013	-0,062
-394,365	-27,854	0,083	0,035
-393,350	69,515	0,110	-0,083
-392,336	-87,005	-0,104	-0,023
-391,321	-200,000	0,024	-0,119
-390,306	56,797	0,087	-0,062
-389,292	13,185	-0,082	0,046
-388,277	173,526	-0,086	-0,092
-387,263	-200,000	0,004	-0,029
-386,248	37,947	0,113	0,073
-385,233	126,489	0,156	0,145
-384,219	800,000	-0,011	0,036
-383,204	109,943	-0,076	-0,067
-382,190	-50,535	-0,126	-0,043
-381,175	-70,509	0,095	0,026
-380,160	-200,000	0,011	-0,064
-379,146	-200,000	0,012	0,050
-378,131	155,009	-0,072	0,073
-377,117	-176,334	0,122	0,002
-376,102	-200,000	-0,002	0,029
-375,088	170,701	0,097	-0,102
-374,073	800,000	0,032	-0,098
-373,058	-200,000	-0,002	0,037
-372,044	-98,032	0,077	-0,014
-371,029	-112,187	0,067	0,010
-370,015	275,594	0,071	-0,093
-369,000	-33,273	-0,141	0,057
-367,985	440,790	-0,048	0,078
-366,971	-42,437	0,059	0,022
-365,956	800,000	0,041	0,116
-364,942	-54,442	0,096	0,032
-363,927	41,860	0,091	0,060
-362,912	-76,363	-0,084	0,021
-361,898	-95,430	-0,066	0,013
-360,883	193,665	0,077	-0,085
-359,869	543,012	0,058	0,102
-358,854	136,445	-0,101	-0,096
-357,839	800,000	-0,061	0,136
-356,825	-200,000	-0,001	0,025
-355,810	187,882	-0,007	-0,008
-354,796	15,936	0,048	-0,028
-353,781	-107,301	0,047	-0,007
-352,766	800,000	0,015	0,035
-351,752	169,929	0,107	-0,112
-350,737	-64,359	0,093	-0,027
-349,723	800,000	0,034	0,088
-348,708	-22,779	-0,100	0,044
-347,693	329,121	0,024	-0,033
-346,679	85,160	-0,043	-0,034
-345,664	-1,629	-0,114	-0,059
-344,650	-200,000	-0,001	0,036
-343,635	-68,965	0,106	-0,030
-342,620	-102,845	-0,133	-0,023
-341,606	151,033	0,099	-0,099
-340,591	-200,000	-0,016	0,098
-339,577	-67,891	-0,079	-0,023
-338,562	-200,000	0,009	-0,041
-337,548	39,484	0,060	-0,039
-336,533	-200,000	-0,004	0,089
-335,518	334,649	0,025	-0,035
-334,504	55,286	-0,134	0,095
-333,489	-200,000	-0,028	0,126
-332,475	-85,278	-0,156	0,035
-331,460	800,000	-0,014	0,029
-330,445	-128,267	-0,067	-0,007
-329,431	-200,000	0,019	-0,089
-328,416	29,114	0,101	-0,062
-327,402	18,828	0,116	-0,068
-326,387	357,051	0,058	-0,085
-325,372	-98,176	-0,054	0,010
-324,358	41,194	-0,042	-0,028
-323,343	151,665	-0,120	-0,120
-322,329	-84,534	0,083	-0,019
-321,314	-200,000	0,015	0,096
-320,299	-41,766	-0,070	0,026
-319,285	539,323	0,048	0,084
-318,270	411,941	-0,023	0,036
-317,256	437,976	0,064	-0,102
-316,241	-79,302	-0,115	0,028
-315,226	120,994	0,126	0,115
-314,212	-200,000	0,028	-0,131
-313,197	-5,607	0,114	-0,057
-312,183	-200,000	0,010	0,082
-311,168	-46,587	-0,082	-0,029
-310,153	800,000	-0,043	-0,113
-309,139	-200,000	0,035	-0,151
-308,124	182,304	0,091	0,098
-307,110	-1,202	0,151	0,078
-306,095	-21,189	-0,119	0,053
-305,080	2,781	0,074	0,039
-304,066	-140,065	-0,050	0,004
-303,051	135,321	-0,077	0,073
-302,037	73,150	0,078	0,060
-301,022	129,052	-0,034	-0,032
-300,008	74,836	0,114	0,088
-298,993	-200,000	-0,001	0,026
-297,978	-16,211	0,030	0,014
-296,964	216,263	0,088	0,103
-295,949	-78,159	-0,053	0,013
-294,935	291,643	0,043	-0,058
-293,920	315,894	0,054	0,075
-292,905	214,558	0,099	0,115
-291,891	131,092	0,124	0,117
-290,876	325,866	-0,041	0,057
-289,862	191,239	0,117	-0,129
-288,847	241,674	-0,168	-0,205
-287,832	239,035	-0,060	0,073
-286,818	-129,379	-0,227	0,023
-285,803	-50,482	-0,012	0,004
-284,789	8,153	-0,041	0,022
-283,774	-46,131	0,048	0,017
-282,759	800,000	-0,030	0,063
-281,745	-14,207	-0,089	-0,042
-280,730	-200,000	-0,014	-0,146
-279,716	473,395	-0,072	-0,120
-278,701	162,493	0,056	-0,057
-277,686	77,071	0,093	0,072
-276,672	-200,000	-0,008	-0,051
-275,657	-130,971	-0,061	0,006
-274,643	-200,000	-0,019	-0,111
-273,628	-200,000	-0,010	-0,053
-272,613	-64,061	-0,013	0,004
-271,599	159,937	-0,092	0,094
-270,584	-58,219	0,071	-0,023
-269,570	159,394	0,044	0,044
-268,555	-63,590	0,067	-0,020
-267,540	-7,838	0,103	-0,050
-266,526	-54,978	-0,138	-0,045
-265,511	265,377	-0,012	-0,015
-264,497	-125,268	-0,076	0,008
-263,482	91,951	0,013	-0,011
-262,467	-131,534	-0,087	-0,008
-261,453	-54,648	-0,110	-0,036
-260,438	449,089	0,057	-0,093
-259,424	228,803	-0,071	-0,084
-258,409	-200,000	-0,015	-0,140
-257,395	-200,000	0,011	-0,094
-256,380	250,945	0,135	-0,168
-255,365	295,740	-0,019	-0,025
-254,351	539,771	0,023	0,040
-253,336	800,000	0,017	0,044
-252,322	-127,837	-0,126	0,013
-251,307	-200,000	-0,028	0,105
-250,292	-200,000	0,012	-0,049
-249,278	-200,000	0,030	-0,116
-248,263	40,763	0,057	0,038
-247,249	-167,787	-0,069	0,002
-246,234	216,559	-0,108	-0,126
-245,219	61,954	0,078	-0,057
-244,205	-172,182	-0,056	-0,001
-243,190	154,646	0,029	-0,029
-242,176	441,413	-0,030	-0,048
-241,161	-180,029	-0,035	-0,001
-240,146	585,300	0,018	-0,033
-239,132	30,705	-0,050	0,031
-238,117	0,900	-0,096	-0,050
-237,103	-167,176	-0,063	-0,002
-236,088	92,546	0,071	0,058
-235,073	-200,000	-0,007	-0,042
-234,059	-3,993	-0,149	0,075
-233,044	488,486	-0,050	0,083
-232,030	564,521	0,080	0,142
-231,015	-98,512	-0,126	0,023
-230,000	-92,325	0,107	0,022
-228,986	129,657	-0,021	0,019
-227,971	28,172	-0,128	0,079
-226,957	-200,000	0,004	0,094
-225,942	-58,827	-0,039	0,012
-224,927	24,275	-0,176	-0,106
-223,913	800,000	0,024	-0,056
-222,898	800,000	0,018	-0,041
-221,884	146,126	-0,020	-0,020
-220,869	-200,000	-0,008	0,039
-219,855	-112,902	-0,042	-0,006
-218,840	800,000	-0,010	-0,028
-217,825	4,841	-0,042	-0,023
-216,811	-121,490	-0,045	-0,005
-215,796	6,546	-0,062	-0,033
-214,782	171,792	0,067	0,070
-213,767	419,096	0,099	0,155
-212,752	-198,861	0,137	-0,001
-211,738	-6,407	-0,086	0,043
-210,723	-49,562	-0,074	0,025
-209,709	-200,000	-0,036	-0,128
-208,694	800,000	-0,070	-0,170
-207,679	36,124	0,115	-0,074
-206,665	-200,000	0,004	0,086
-205,650	-200,000	0,021	0,103
-204,636	-53,786	-0,028	-0,009
-203,621	126,198	-0,033	-0,030
-202,606	-200,000	0,001	-0,152
-201,592	-106,593	-0,038	0,006
-200,577	-40,468	-0,121	-0,045
-199,563	94,414	0,076	0,063
-198,548	-110,866	0,175	-0,026
-197,533	526,355	0,091	0,156
-196,519	28,214	-0,043	0,026
-195,504	43,295	-0,117	0,077
-194,490	172,362	0,013	0,014
-193,475	-200,000	0,010	-0,049
-192,460	25,798	-0,150	-0,091
-191,446	-200,000	0,032	-0,167
-190,431	-107,149	0,053	0,008
-189,417	135,255	-0,071	-0,068
-188,402	605,317	-0,030	0,055
-187,387	71,343	-0,087	-0,066
-186,373	107,793	-0,039	-0,034
-185,358	-200,000	0,025	0,103
-184,344	-124,353	0,058	0,006
-183,329	-200,000	-0,020	-0,096
-182,315	-200,000	0,000	-0,058
-181,300	14,851	-0,072	0,041
-180,285	153,014	-0,062	-0,062
-179,271	386,724	-0,065	-0,099
-178,256	-109,550	0,078	-0,012
-177,242	800,000	0,032	0,077
-176,227	54,722	0,064	0,045
-175,212	31,971	0,040	0,025
-174,198	229,618	-0,110	0,131
-173,183	669,950	-0,039	-0,074
-172,169	800,000	-0,021	0,055
-171,154	-200,000	-0,010	0,146
-170,139	-200,000	0,002	0,169
-169,125	81,495	0,115	0,091
-168,110	-200,000	0,023	0,104
-167,096	-200,000	0,018	0,113
-166,081	-28,018	-0,155	-0,065
-165,066	153,600	-0,064	0,064
-164,052	-29,739	-0,048	0,020
-163,037	-200,000	-0,048	0,156
-162,023	800,000	0,061	-0,141
-161,008	-200,000	0,007	0,076
-159,993	356,622	0,104	-0,151
-158,979	-200,000	-0,015	-0,089
-157,964	-10,178	-0,051	0,025
-156,950	-87,365	-0,181	-0,039
-155,935	582,321	-0,058	0,103
-154,920	-28,041	0,059	0,025
-153,906	-25,607	0,037	-0,016
-152,891	160,633	0,100	0,102
-151,877	-43,997	-0,119	-0,043
-150,862	15,926	-0,161	0,092
-149,847	43,237	0,122	0,081
-148,833	464,157	0,028	0,045
-147,818	-200,000	0,020	-0,102
-146,804	-200,000	-0,036	0,120
-145,789	-200,000	-0,005	-0,071
-144,775	800,000	-0,028	0,077
-143,760	25,949	-0,043	-0,026
-142,745	-163,763	-0,126	0,004
-141,731	-126,298	0,063	-0,007
-140,716	88,514	-0,092	0,074
-139,702	-174,107	0,124	-0,003
-138,687	-5,689	-0,051	0,025
-137,672	800,000	-0,036	-0,101
-136,658	127,095	-0,089	-0,082
-135,643	-200,000	-0,004	-0,029
-134,629	411,027	-0,037	0,057
-133,614	-200,000	0,001	0,167
-132,599	800,000	-0,005	-0,015
-131,585	16,512	-0,046	-0,026
-130,570	192,403	0,021	0,023
-129,556	228,406	-0,092	-0,109
-128,541	397,091	0,025	-0,038
-127,526	-200,000	-0,010	-0,048
-126,512	-135,090	0,069	-0,006
-125,497	677,942	0,086	0,163
-124,483	-200,000	0,007	0,085
-123,468	322,346	-0,041	-0,056
-122,453	-200,000	-0,011	0,054
-121,439	-16,200	-0,016	-0,007
-120,424	103,199	-0,075	-0,064
-119,410	34,137	0,089	-0,056
