DTS Sentinel unit serial number:	SN410029Multiplexer serial number:	ORYXHardware model number:	OX2-SRSoftware version number:	ORYX F/W v4,00 Oryx Data Collector v3.7.2.0data status	okinstallation	B4 Nyhavnadifferential loss correction	single-endedforward channel	channel 2reverse channel	N/Adate	2023/12/16time	13:55:13forward acquisition time	300,00reverse acquisition time	0,00gamma	499,1914k internal	0,3125k external	0,3125temperature offset calibration	1,0000default loss term (dB/km)	0,3820temperature slope calibration	1,0000multiplexer offset coefficient	1,0000multiplexer slope coefficient	1,0000fibre end	0,00T internal ref (°C)	25,12T ext. ref 1 (°C)	11,30T ext. ref 2 (°C)	11,50length (m)	temperature (°C)	Stokes	anti-Stokes-744,400	-200,000	-0,008	-0,064
-743,385	77,786	-0,174	0,138
-742,371	-200,000	0,014	-0,060
-741,356	227,050	-0,122	0,148
-740,342	-109,650	0,050	0,008
-739,327	-162,099	-0,214	0,008
-738,312	-93,794	-0,075	-0,015
-737,298	800,000	-0,064	0,202
-736,283	800,000	-0,014	0,040
-735,269	95,815	-0,133	0,113
-734,254	289,150	-0,043	-0,058
-733,239	-171,791	-0,404	-0,010
-732,225	254,464	0,046	-0,059
-731,210	210,927	-0,019	0,022
-730,196	92,067	0,042	0,035
-729,181	-135,076	-0,138	-0,012
-728,167	-28,521	-0,061	-0,026
-727,152	800,000	-0,020	0,050
-726,137	-51,287	-0,081	-0,028
-725,123	606,166	-0,064	-0,119
-724,108	54,161	0,149	-0,107
-723,094	800,000	-0,037	-0,091
-722,079	97,044	-0,082	-0,070
-721,064	-110,319	0,117	0,018
-720,050	492,748	0,015	0,026
-719,035	800,000	-0,032	0,092
-718,021	134,704	0,040	0,038
-717,006	800,000	0,004	0,008
-715,991	-33,402	-0,110	-0,045
-714,977	-32,720	-0,127	-0,052
-713,962	800,000	-0,020	-0,061
-712,948	-113,612	0,138	-0,020
-711,933	-60,285	0,072	-0,023
-710,918	41,034	-0,052	-0,035
-709,904	-200,000	-0,036	-0,178
-708,889	-51,571	-0,139	-0,048
-707,875	130,482	-0,022	-0,021
-706,860	800,000	-0,057	-0,125
-705,845	-200,000	-0,001	-0,113
-704,831	800,000	0,005	-0,012
-703,816	800,000	-0,021	0,060
-702,802	-200,000	-0,001	-0,054
-701,787	-89,287	-0,191	0,042
-700,772	149,407	-0,037	0,038
-699,758	37,239	-0,110	-0,072
-698,743	14,787	-0,063	-0,037
-697,729	46,520	-0,099	-0,068
-696,714	800,000	-0,035	0,092
-695,699	138,929	-0,046	-0,045
-694,685	-200,000	-0,058	-0,222
-693,670	383,194	-0,041	-0,063
-692,656	-200,000	0,006	0,025
-691,641	-200,000	0,018	-0,168
-690,627	-200,000	0,018	0,081
-689,612	-31,007	0,066	0,028
-688,597	-200,000	-0,001	0,078
-687,583	-14,540	-0,074	-0,035
-686,568	-141,228	-0,108	-0,008
-685,554	-40,187	-0,079	0,030
-684,539	-141,158	0,153	0,011
-683,524	136,601	-0,112	0,109
-682,510	282,542	-0,034	0,046
-681,495	261,940	-0,071	-0,091
-680,481	-200,000	-0,002	-0,028
-679,466	-103,087	-0,104	-0,018
-678,451	-135,417	0,070	0,006
-677,437	-53,247	-0,139	-0,047
-676,422	43,658	0,033	-0,022
-675,408	-200,000	-0,010	0,045
-674,393	-37,864	0,114	-0,045
-673,378	-30,626	-0,113	-0,047
-672,364	21,823	0,105	-0,064
-671,349	800,000	-0,069	-0,159
-670,335	-118,332	0,033	-0,004
-669,320	273,351	-0,072	-0,095
-668,305	-78,050	-0,075	0,019
-667,291	-200,000	0,026	-0,135
-666,276	102,675	-0,137	-0,119
-665,262	-186,287	-0,061	0,001
-664,247	321,193	-0,044	0,062
-663,232	190,307	-0,064	-0,072
-662,218	72,194	0,081	-0,062
-661,203	800,000	0,029	0,061
-660,189	-200,000	0,007	-0,125
-659,174	-175,181	0,048	0,001
-658,159	116,074	0,009	0,008
-657,145	800,000	0,031	-0,084
-656,130	-25,383	-0,061	-0,027
-655,116	800,000	0,019	-0,049
-654,101	-200,000	-0,004	-0,092
-653,086	-200,000	0,020	0,178
-652,072	701,477	-0,008	-0,016
-651,057	-85,304	-0,134	-0,031
-650,043	800,000	0,061	-0,148
-649,028	800,000	0,021	-0,056
-648,014	645,640	0,009	0,017
-646,999	-124,562	0,144	-0,016
-645,984	-180,191	0,026	0,000
-644,970	-82,086	-0,023	-0,006
-643,955	118,414	-0,106	-0,097
-642,941	9,629	-0,115	-0,065
-641,926	72,738	0,121	-0,094
-640,911	-200,000	-0,004	0,031
-639,897	-127,267	-0,104	0,011
-638,882	206,578	-0,041	0,048
-637,868	113,149	-0,085	0,077
-636,853	800,000	-0,059	-0,166
-635,838	800,000	-0,021	-0,057
-634,824	139,352	0,099	0,096
-633,809	800,000	-0,019	-0,055
-632,795	-23,147	-0,049	0,022
-631,780	800,000	-0,033	0,090
-630,765	800,000	0,010	-0,034
-629,751	-200,000	-0,011	-0,138
-628,736	-200,000	-0,018	-0,072
-627,722	433,507	-0,035	0,056
-626,707	-200,000	0,019	0,096
-625,692	-200,000	-0,030	0,115
-624,678	-65,094	0,029	-0,009
-623,663	234,754	-0,015	0,018
-622,649	142,006	0,048	-0,047
-621,634	-200,000	-0,006	0,033
-620,619	645,386	0,062	-0,117
-619,605	800,000	0,037	-0,094
-618,590	-110,937	-0,073	-0,011
-617,576	-200,000	0,004	0,083
-616,561	-161,939	-0,094	0,003
-615,546	462,705	-0,074	0,123
-614,532	-126,388	-0,065	-0,007
-613,517	-64,189	-0,114	-0,034
-612,503	-24,145	0,075	-0,033
-611,488	-90,644	-0,060	0,013
-610,474	249,462	-0,053	0,067
-609,459	27,468	0,026	-0,016
-608,444	158,721	-0,034	-0,035
-607,430	110,489	-0,083	0,074
-606,415	-200,000	0,004	0,086
-605,401	243,414	-0,053	0,066
-604,386	423,363	-0,085	0,136
-603,371	-200,000	0,010	0,077
-602,357	-200,000	0,018	0,081
-601,342	666,085	-0,043	-0,082
-600,328	-161,315	0,100	-0,004
-599,313	-66,303	-0,190	-0,056
-598,298	107,021	-0,031	-0,027
-597,284	162,477	0,092	0,095
-596,269	55,627	-0,095	0,068
-595,255	-200,000	0,017	-0,058
-594,240	416,640	-0,020	-0,031
-593,225	-95,543	-0,050	0,010
-592,211	-148,059	-0,068	0,004
-591,196	-200,000	0,002	0,200
-590,182	89,963	0,106	0,088
-589,167	-154,416	-0,156	0,008
-588,152	267,051	-0,066	0,086
-587,138	106,019	-0,092	-0,081
-586,123	314,020	-0,059	-0,083
-585,109	169,841	-0,109	0,115
-584,094	31,699	-0,030	0,019
-583,079	-157,281	0,094	-0,004
-582,065	53,726	-0,084	0,060
-581,050	225,839	0,031	0,038
-580,036	316,847	0,053	-0,074
-579,021	199,982	-0,028	-0,032
-578,006	-81,906	-0,080	0,019
-576,992	480,568	0,078	-0,132
-575,977	-122,907	-0,157	-0,018
-574,963	800,000	0,014	-0,037
-573,948	482,954	0,010	0,017
-572,934	59,118	-0,044	0,032
-571,919	339,656	-0,073	-0,105
-570,904	-200,000	-0,001	0,071
-569,890	57,125	-0,051	-0,037
-568,875	-200,000	0,002	0,050
-567,861	1,086	-0,039	0,021
-566,846	-200,000	0,011	0,086
-565,831	800,000	0,073	0,178
-564,817	800,000	0,023	-0,051
-563,802	-181,526	-0,207	0,003
-562,788	-200,000	0,008	-0,046
-561,773	26,349	-0,106	0,066
-560,758	-73,137	0,104	0,028
-559,744	-61,292	0,008	0,003
-558,729	-86,357	0,054	0,012
-557,715	216,751	-0,069	-0,081
-556,700	-200,000	0,031	-0,104
-555,685	-200,000	0,003	-0,195
-554,671	167,912	-0,088	-0,093
-553,656	629,397	-0,066	0,123
-552,642	-58,166	-0,170	0,054
-551,627	521,519	-0,029	0,051
-550,612	-200,000	-0,011	0,098
-549,598	672,271	0,007	-0,013
-548,583	294,829	-0,070	0,095
-547,569	-26,898	-0,157	0,067
-546,554	326,455	0,044	-0,062
-545,539	-24,086	0,091	-0,040
-544,525	-200,000	0,024	0,147
-543,510	-135,479	0,095	-0,008
-542,496	-200,000	-0,015	0,064
-541,481	-18,675	-0,106	0,049
-540,466	58,151	-0,085	-0,061
-539,452	-200,000	0,014	0,066
-538,437	-68,491	0,146	0,041
-537,423	-45,103	0,099	-0,036
-536,408	800,000	-0,025	-0,072
-535,393	-52,511	0,056	-0,019
-534,379	381,468	-0,093	-0,141
-533,364	-200,000	-0,006	-0,070
-532,350	800,000	0,054	0,111
-531,335	-54,871	0,082	0,027
-530,321	3,587	0,017	0,009
-529,306	800,000	0,033	0,088
-528,291	800,000	-0,038	-0,122
-527,277	159,679	0,043	-0,044
-526,262	-61,429	-0,088	-0,027
-525,248	800,000	0,042	0,118
-524,233	-113,758	-0,053	-0,007
-523,218	54,584	-0,083	-0,059
-522,204	278,620	0,020	0,027
-521,189	800,000	-0,052	0,119
-520,175	-107,009	-0,121	-0,020
-519,160	-14,819	-0,131	0,062
-518,145	240,051	0,012	0,015
-517,131	-141,677	0,171	-0,013
-516,116	357,623	-0,043	0,063
-515,102	-81,651	0,073	0,017
-514,087	86,350	-0,048	-0,039
-513,072	-26,744	-0,124	-0,053
-512,058	215,141	-0,035	0,042
-511,043	-94,680	0,047	0,009
-510,029	-46,490	-0,043	0,015
-509,014	-13,138	0,069	-0,033
-507,999	138,911	0,081	0,079
-506,985	-200,000	-0,005	-0,083
-505,970	-200,000	-0,015	-0,171
-504,956	101,677	0,074	-0,064
-503,941	800,000	0,019	-0,057
-502,926	-200,000	0,024	-0,120
-501,912	-200,000	0,005	0,089
-500,897	88,480	0,076	0,062
-499,883	-200,000	-0,011	0,169
-498,868	-90,263	-0,059	-0,013
-497,853	-200,000	0,012	-0,060
-496,839	-39,245	0,069	0,026
-495,824	-109,171	0,108	0,017
-494,810	194,282	0,095	-0,106
-493,795	-9,562	-0,059	0,029
-492,781	1,988	0,033	0,017
-491,766	-113,482	-0,046	-0,007
-490,751	-79,682	-0,098	0,024
-489,737	800,000	0,034	-0,092
-488,722	800,000	0,051	-0,114
-487,708	-200,000	-0,029	0,115
-486,693	-42,120	0,074	0,028
-485,678	395,651	-0,062	0,096
-484,664	-200,000	-0,029	-0,114
-483,649	284,727	-0,058	-0,077
-482,635	8,922	0,004	0,002
-481,620	164,024	0,141	-0,147
-480,605	697,117	-0,009	0,017
-479,591	800,000	0,049	0,111
-478,576	800,000	0,039	-0,084
-477,562	284,056	-0,115	0,153
-476,547	800,000	-0,010	0,024
-475,532	576,427	0,052	0,094
-474,518	-200,000	-0,003	-0,057
-473,503	93,705	0,018	0,015
-472,489	-20,119	-0,147	-0,067
-471,474	-38,250	0,124	0,048
-470,459	-173,768	-0,085	0,002
-469,445	113,394	0,030	-0,027
-468,430	-200,000	-0,007	-0,042
-467,416	275,347	0,042	0,055
-466,401	800,000	-0,028	0,073
-465,386	-32,460	-0,018	-0,007
-464,372	800,000	-0,023	0,062
-463,357	-27,970	0,151	-0,064
-462,343	-62,917	0,057	-0,017
-461,328	333,410	-0,066	-0,094
-460,313	-110,006	0,026	-0,004
-459,299	-200,000	0,020	-0,094
-458,284	11,515	-0,175	-0,098
-457,270	282,421	-0,077	-0,102
-456,255	420,709	-0,071	-0,113
-455,241	109,330	0,047	-0,042
-454,226	800,000	-0,006	0,019
-453,211	-84,907	0,109	-0,025
-452,197	-26,767	0,116	0,050
-451,182	-88,346	0,090	0,020
-450,168	-73,217	0,165	-0,044
-449,153	-200,000	-0,014	0,103
-448,138	800,000	0,009	-0,024
-447,124	-48,225	0,063	0,022
-446,109	-200,000	-0,003	0,035
-445,095	45,626	0,024	0,016
-444,080	-200,000	0,003	0,025
-443,065	-50,880	-0,155	0,053
-442,051	-2,961	0,012	-0,006
-441,036	-200,000	-0,015	-0,132
-440,022	-89,387	0,054	0,012
-439,007	-200,000	0,023	-0,086
-437,992	-200,000	-0,002	-0,038
-436,978	356,810	-0,041	0,061
-435,963	-200,000	0,004	0,027
-434,949	-200,000	0,006	0,127
-433,934	-54,978	-0,068	0,022
-432,919	-197,595	0,042	0,000
-431,905	515,613	-0,045	-0,077
-430,890	-131,839	0,086	-0,008
-429,876	800,000	0,053	0,145
-428,861	800,000	0,030	-0,082
-427,846	-160,490	-0,036	-0,001
-426,832	386,801	-0,058	-0,088
-425,817	291,582	-0,027	-0,036
-424,803	155,671	0,041	-0,041
-423,788	-200,000	0,007	0,057
-422,773	280,778	-0,015	0,020
-421,759	-11,208	0,126	0,061
-420,744	-55,032	-0,074	-0,024
-419,730	-200,000	-0,004	-0,104
-418,715	431,285	-0,018	0,029
-417,701	800,000	-0,062	-0,128
-416,686	257,053	0,067	-0,085
-415,671	-100,904	0,042	-0,008
-414,657	112,654	-0,060	-0,053
-413,642	-72,754	0,155	0,042
-412,628	307,258	0,047	0,065
-411,613	-32,246	-0,018	0,007
-410,598	-200,000	-0,005	-0,117
-409,584	-200,000	0,006	-0,082
-408,569	-101,518	-0,070	-0,012
-407,555	-41,456	-0,072	0,027
-406,540	183,886	-0,081	0,088
-405,525	-36,154	-0,093	0,037
-404,511	40,778	0,119	-0,079
-403,496	800,000	-0,024	-0,072
-402,482	-200,000	-0,018	-0,113
-401,467	675,137	0,071	0,137
-400,452	48,153	0,099	0,068
-399,438	-27,935	-0,127	0,054
-398,423	-90,694	0,118	-0,025
-397,409	-46,858	-0,129	-0,046
-396,394	-200,000	-0,000	0,045
-395,379	338,171	-0,046	-0,065
-394,365	165,760	0,108	-0,112
-393,350	102,659	0,099	0,086
-392,336	250,240	0,093	0,116
-391,321	800,000	0,032	0,097
-390,306	-133,768	0,102	0,009
-389,292	607,481	-0,043	0,079
-388,277	-97,423	-0,032	-0,006
-387,263	-200,000	0,013	0,082
-386,248	-92,517	-0,036	-0,007
-385,233	-59,798	0,080	-0,025
-384,219	-15,469	0,059	0,027
-383,204	-200,000	0,006	-0,026
-382,190	298,056	0,013	0,018
-381,175	-1,336	0,072	0,037
-380,160	-200,000	-0,018	-0,060
-379,146	7,153	0,159	-0,087
-378,131	-200,000	0,004	0,058
-377,117	-110,038	0,066	-0,010
-376,102	-200,000	0,007	-0,126
-375,088	-20,228	-0,153	-0,069
-374,073	800,000	0,025	-0,075
-373,058	-200,000	0,018	0,113
-372,044	-121,928	0,067	0,008
-371,029	800,000	-0,043	-0,102
-370,015	-106,902	-0,050	0,008
-369,000	93,195	-0,085	-0,070
-367,985	643,716	0,040	-0,076
-366,971	-89,113	-0,008	-0,002
-365,956	-30,684	0,023	-0,010
-364,942	442,427	0,047	0,076
-363,927	167,692	0,088	-0,092
-362,912	16,976	0,040	0,023
-361,898	4,875	0,097	-0,052
-360,883	119,083	-0,051	0,046
-359,869	800,000	-0,043	0,112
-358,854	515,363	0,077	-0,132
-357,839	688,790	0,050	0,096
-356,825	216,929	0,016	-0,018
-355,810	-42,824	-0,032	0,012
-354,796	-97,396	-0,059	-0,011
-353,781	-84,794	0,042	-0,010
-352,766	758,068	-0,035	-0,071
-351,752	196,896	-0,037	0,042
-350,737	-200,000	-0,008	0,035
-349,723	-60,118	-0,050	-0,016
-348,708	486,932	-0,098	0,164
-347,693	800,000	-0,013	-0,033
-346,679	-200,000	0,005	-0,084
-345,664	-96,258	0,154	-0,030
-344,650	56,633	-0,018	-0,013
-343,635	35,625	0,085	0,054
-342,620	-200,000	-0,007	0,045
-341,606	95,743	0,049	-0,041
-340,591	800,000	-0,045	0,093
-339,577	-29,070	-0,097	0,041
-338,562	134,908	-0,049	-0,047
-337,548	800,000	0,022	-0,046
-336,533	-61,698	-0,049	0,015
-335,518	197,087	-0,064	-0,072
-334,504	111,631	0,040	0,035
-333,489	-65,013	-0,130	-0,038
-332,475	796,136	-0,018	-0,036
-331,460	-150,035	-0,088	0,005
-330,445	-200,000	0,029	0,122
-329,431	800,000	-0,032	-0,091
-328,416	756,366	0,012	0,023
-327,402	-23,437	0,026	-0,011
-326,387	32,040	-0,063	-0,040
-325,372	57,833	-0,022	0,016
-324,358	-47,314	0,098	0,035
-323,343	78,603	0,068	-0,053
-322,329	-87,744	-0,072	-0,016
-321,314	-200,000	0,024	0,090
-320,299	-88,806	0,137	0,029
-319,285	-200,000	-0,002	-0,083
-318,270	105,106	0,034	-0,030
-317,256	382,808	0,074	0,112
-316,241	-22,967	-0,114	-0,050
-315,226	800,000	0,008	0,021
-314,212	-200,000	-0,000	0,022
-313,197	164,822	0,067	-0,069
-312,183	-200,000	0,006	0,061
-311,168	27,250	0,105	0,065
-310,153	29,501	-0,094	-0,058
-309,139	800,000	0,002	0,004
-308,124	-40,227	-0,027	-0,010
-307,110	-200,000	0,002	-0,038
-306,095	160,004	-0,052	0,053
-305,080	-200,000	0,019	-0,066
-304,066	155,127	-0,072	0,073
-303,051	38,362	0,055	0,036
-302,037	-159,153	-0,032	0,001
-301,022	449,378	0,043	-0,070
-300,008	-200,000	0,000	-0,061
-298,993	110,512	0,105	0,093
-297,978	-36,422	0,145	0,057
-296,964	480,455	-0,071	0,119
-295,949	-80,236	-0,058	0,014
-294,935	173,762	-0,076	0,080
-293,920	195,491	0,064	-0,071
-292,905	290,575	-0,038	-0,051
-291,891	114,215	0,043	0,038
-290,876	-140,283	0,068	-0,005
-289,862	69,519	0,044	0,033
-288,847	105,330	-0,117	-0,101
-287,832	48,698	-0,082	-0,056
-286,818	-58,786	-0,062	0,020
-285,803	800,000	-0,040	-0,112
-284,789	-200,000	0,020	-0,110
-283,774	-200,000	-0,025	0,097
-282,759	40,725	-0,071	0,047
-281,745	-27,005	-0,055	0,023
-280,730	-200,000	0,013	-0,085
-279,716	800,000	-0,035	-0,086
-278,701	-39,015	0,046	0,018
-277,686	-147,440	0,225	-0,014
-276,672	800,000	-0,067	0,139
-275,657	65,666	0,095	-0,070
-274,643	-200,000	-0,031	-0,115
-273,628	-130,706	-0,078	-0,008
-272,613	517,679	-0,124	-0,213
-271,599	94,918	-0,094	0,078
-270,584	46,877	0,100	0,068
-269,570	-200,000	0,010	0,052
-268,555	-66,585	-0,057	0,016
-267,540	800,000	0,018	0,044
-266,526	-79,755	-0,123	-0,030
-265,511	642,051	-0,024	-0,046
-264,497	-200,000	0,016	-0,054
-263,482	-27,948	0,079	0,033
-262,467	687,372	-0,056	0,107
-261,453	-78,125	0,079	-0,020
-260,438	109,581	0,028	-0,025
-259,424	775,874	-0,055	-0,111
-258,409	-120,825	-0,057	-0,007
-257,395	180,052	-0,103	0,110
-256,380	-0,521	-0,027	-0,014
-255,365	800,000	-0,013	0,029
-254,351	-135,760	-0,098	0,008
-253,336	800,000	0,037	-0,110
-252,322	-200,000	0,001	-0,073
-251,307	800,000	0,038	0,115
-250,292	303,750	0,013	0,018
-249,278	262,771	-0,037	-0,047
-248,263	-200,000	-0,004	-0,015
-247,249	-200,000	-0,011	0,062
-246,234	44,448	-0,020	-0,014
-245,219	800,000	0,015	-0,034
-244,205	-62,047	0,069	0,021
-243,190	-151,690	0,088	0,005
-242,176	-200,000	-0,008	-0,096
-241,161	-32,522	0,198	0,080
-240,146	-159,592	0,164	-0,007
-239,132	-200,000	0,014	0,061
-238,117	800,000	0,015	-0,032
-237,103	704,038	-0,086	-0,167
-236,088	4,530	0,040	-0,022
-235,073	800,000	0,058	0,148
-234,059	-200,000	0,006	-0,043
-233,044	20,045	0,147	0,086
-232,030	47,700	0,098	0,067
-231,015	-18,797	-0,030	0,013
-230,000	-200,000	0,020	0,207
-228,986	-200,000	0,004	0,022
-227,971	27,112	-0,042	0,026
-226,957	800,000	0,050	-0,123
-225,942	-66,426	-0,017	0,005
-224,927	-84,997	-0,111	-0,025
-223,913	-151,411	-0,121	0,006
-222,898	-94,316	-0,027	0,005
-221,884	800,000	0,024	-0,059
-220,869	-200,000	-0,001	-0,093
-219,855	800,000	0,038	0,104
-218,840	109,904	0,135	0,118
-217,825	-200,000	-0,012	-0,109
-216,811	-200,000	-0,029	-0,137
-215,796	37,121	0,074	0,047
-214,782	15,927	-0,050	0,028
-213,767	-152,843	0,163	0,008
-212,752	165,363	0,066	-0,069
-211,738	277,228	-0,074	0,096
-210,723	-37,441	0,067	0,026
-209,709	-200,000	-0,043	-0,203
-208,694	-104,111	0,055	0,009
-207,679	800,000	0,024	-0,068
-206,665	-161,378	0,143	0,005
-205,650	241,937	-0,063	0,077
-204,636	-6,132	0,103	0,051
-203,621	-200,000	-0,009	0,129
-202,606	225,520	-0,014	-0,016
-201,592	22,952	-0,062	-0,037
-200,577	51,645	0,066	0,046
-199,563	37,223	0,005	0,003
-198,548	361,417	0,030	-0,044
-197,533	-200,000	0,041	0,149
-196,519	50,918	-0,049	-0,034
-195,504	-200,000	0,018	-0,069
-194,490	800,000	0,024	-0,075
-193,475	-200,000	0,001	0,021
-192,460	800,000	0,077	-0,156
-191,446	8,053	0,155	0,085
-190,431	-200,000	-0,001	0,078
-189,417	27,545	0,083	-0,051
-188,402	520,431	-0,080	0,136
-187,387	79,563	-0,150	0,117
-186,373	170,652	-0,109	-0,114
-185,358	-200,000	0,005	0,021
-184,344	-138,524	0,037	0,003
-183,329	636,437	0,070	0,131
-182,315	136,085	-0,023	0,022
-181,300	-64,722	0,058	0,017
-180,285	-106,730	-0,116	-0,019
-179,271	-158,287	0,103	0,004
-178,256	83,875	-0,041	0,032
-177,242	215,683	0,056	-0,065
-176,227	-200,000	-0,002	-0,084
-175,212	649,232	0,097	-0,182
-174,198	-200,000	0,016	0,095
-173,183	-52,100	-0,184	-0,062
-172,169	311,379	-0,008	0,011
-171,154	-200,000	0,005	0,039
-170,139	-200,000	-0,001	0,132
-169,125	-200,000	0,007	0,097
-168,110	286,106	0,102	0,134
-167,096	-27,796	-0,023	-0,010
-166,081	800,000	-0,069	-0,154
-165,066	-74,779	-0,117	0,030
-164,052	-200,000	-0,002	-0,038
-163,037	-73,140	0,106	-0,028
-162,023	-168,176	0,090	-0,002
-161,008	-200,000	-0,023	-0,076
-159,993	322,511	0,099	0,137
-158,979	-119,706	-0,081	0,010
-157,964	-200,000	0,011	-0,084
-156,950	55,093	-0,085	-0,060
-155,935	800,000	0,047	-0,110
-154,920	-200,000	0,004	0,051
-153,906	-55,374	0,116	0,038
-152,891	15,514	0,137	0,078
-151,877	800,000	-0,022	-0,059
-150,862	106,432	-0,055	-0,047
-149,847	607,866	0,081	-0,147
-148,833	-109,599	-0,034	0,005
-147,818	408,986	-0,044	0,067
-146,804	-56,716	-0,017	-0,005
-145,789	800,000	0,043	0,099
-144,775	-68,961	0,037	-0,010
-143,760	3,780	0,079	0,042
-142,745	800,000	-0,051	-0,109
-141,731	800,000	-0,070	-0,158
-140,716	-200,000	0,009	0,103
-139,702	-200,000	-0,009	0,090
-138,687	-160,401	0,092	0,004
-137,672	-51,551	-0,135	0,046
-136,658	371,828	0,067	-0,099
-135,643	-200,000	-0,017	-0,073
-134,629	171,667	0,034	-0,036
-133,614	-200,000	0,004	0,047
-132,599	-36,280	0,122	0,048
-131,585	46,719	-0,058	0,039
-130,570	-36,819	-0,106	-0,041
-129,556	93,926	-0,071	-0,059
-128,541	197,526	-0,039	-0,043
-127,526	-106,306	0,064	0,010
-126,512	529,356	-0,045	0,077
-125,497	-200,000	-0,009	-0,033
-124,483	-200,000	-0,005	0,129
-123,468	-139,185	-0,045	-0,003
-122,453	-200,000	-0,000	0,122
-121,439	528,374	-0,057	-0,098
-120,424	-200,000	-0,021	0,101
