DTS Sentinel unit serial number:	SN410029Multiplexer serial number:	ORYXHardware model number:	OX2-SRSoftware version number:	ORYX F/W v4,00 Oryx Data Collector v3.7.2.0data status	okinstallation	B4 Nyhavnadifferential loss correction	single-endedforward channel	channel 2reverse channel	N/Adate	2023/12/18time	21:45:13forward acquisition time	300,00reverse acquisition time	0,00gamma	499,1914k internal	0,3124k external	0,3124temperature offset calibration	1,0000default loss term (dB/km)	0,3820temperature slope calibration	1,0000multiplexer offset coefficient	1,0000multiplexer slope coefficient	1,0000fibre end	0,00T internal ref (°C)	21,86T ext. ref 1 (°C)	7,24T ext. ref 2 (°C)	7,19length (m)	temperature (°C)	Stokes	anti-Stokes-744,400	-39,027	-0,058	0,023
-743,385	-65,507	-0,173	0,051
-742,371	-111,937	0,091	0,014
-741,356	205,064	-0,065	0,075
-740,342	-5,809	0,084	0,043
-739,327	-51,701	-0,292	0,101
-738,312	-200,000	-0,002	0,039
-737,298	9,457	-0,266	0,149
-736,283	800,000	0,029	-0,069
-735,269	81,914	-0,208	0,168
-734,254	-67,925	-0,206	-0,060
-733,239	-26,282	-0,386	-0,168
-732,225	619,112	-0,051	-0,096
-731,210	-200,000	0,030	0,109
-730,196	-200,000	-0,032	-0,109
-729,181	-200,000	-0,027	-0,089
-728,167	132,491	-0,090	-0,087
-727,152	800,000	-0,041	-0,099
-726,137	-200,000	0,003	-0,143
-725,123	72,692	-0,080	-0,062
-724,108	54,554	-0,062	-0,044
-723,094	-113,197	-0,100	-0,014
-722,079	676,522	0,011	0,021
-721,064	279,046	0,071	-0,094
-720,050	-50,900	-0,159	-0,055
-719,035	-105,077	-0,125	0,021
-718,021	-107,035	-0,034	0,006
-717,006	-200,000	-0,001	-0,060
-715,991	800,000	0,009	0,020
-714,977	-123,574	-0,118	-0,014
-713,962	2,726	-0,129	0,069
-712,948	800,000	-0,038	0,080
-711,933	624,737	-0,045	-0,085
-710,918	-200,000	-0,011	-0,124
-709,904	-111,942	-0,045	0,007
-708,889	-3,622	-0,020	0,010
-707,875	-124,914	-0,179	-0,020
-706,860	-40,438	0,130	-0,050
-705,845	-135,253	0,293	0,026
-704,831	194,195	0,081	0,091
-703,816	30,435	-0,071	-0,045
-702,802	800,000	0,052	-0,133
-701,787	-0,408	-0,115	-0,060
-700,772	-200,000	0,005	0,077
-699,758	-200,000	-0,003	-0,039
-698,743	-200,000	0,002	0,061
-697,729	145,161	0,073	-0,072
-696,714	-200,000	0,061	-0,000
-695,699	-29,259	0,077	-0,033
-694,685	-41,718	-0,055	0,021
-693,670	343,718	-0,042	-0,061
-692,656	-200,000	0,001	0,005
-691,641	-107,765	-0,090	-0,014
-690,627	-200,000	-0,025	0,093
-689,612	800,000	-0,026	0,074
-688,597	70,368	-0,054	-0,042
-687,583	168,447	-0,063	-0,067
-686,568	-200,000	-0,032	-0,143
-685,554	-105,545	-0,058	-0,010
-684,539	-55,694	0,039	-0,013
-683,524	373,806	0,061	-0,092
-682,510	-121,276	0,017	0,002
-681,495	-64,251	0,023	-0,007
-680,481	-109,940	0,150	-0,023
-679,466	800,000	-0,064	-0,193
-678,451	265,782	-0,081	-0,105
-677,437	167,700	0,030	-0,032
-676,422	-130,827	0,022	-0,002
-675,408	574,955	-0,073	0,133
-674,393	-14,875	-0,110	0,052
-673,378	-33,851	-0,078	-0,032
-672,364	488,647	-0,061	-0,103
-671,349	-80,239	-0,076	0,019
-670,335	-20,134	0,011	-0,005
-669,320	-200,000	-0,006	0,155
-668,305	788,936	0,022	0,045
-667,291	800,000	0,034	-0,077
-666,276	-116,369	0,044	-0,006
-665,262	800,000	-0,070	-0,195
-664,247	370,993	-0,067	-0,102
-663,232	142,561	-0,101	-0,100
-662,218	-200,000	0,014	0,111
-661,203	230,785	0,027	0,033
-660,189	-73,030	0,040	0,011
-659,174	130,917	-0,109	0,104
-658,159	53,240	0,019	0,014
-657,145	97,822	0,025	0,021
-656,130	800,000	0,012	0,038
-655,116	-200,000	-0,011	0,036
-654,101	26,404	-0,112	0,069
-653,086	9,278	0,028	-0,016
-652,072	-116,316	-0,110	0,015
-651,057	-200,000	-0,004	-0,042
-650,043	-104,553	-0,049	-0,008
-649,028	-88,760	-0,051	-0,011
-648,014	-200,000	0,008	0,042
-646,999	63,665	-0,063	0,047
-645,984	629,697	-0,105	-0,198
-644,970	169,664	-0,029	0,031
-643,955	800,000	-0,021	0,065
-642,941	250,485	-0,032	-0,040
-641,926	411,284	0,057	-0,091
-640,911	-99,668	0,131	-0,024
-639,897	-120,138	0,085	-0,011
-638,882	80,234	0,044	-0,035
-637,868	-200,000	0,009	0,039
-636,853	800,000	-0,041	-0,088
-635,838	-200,000	0,020	-0,173
-634,824	-71,331	-0,172	0,048
-633,809	-200,000	-0,018	-0,090
-632,795	778,486	-0,002	-0,004
-631,780	800,000	0,042	0,107
-630,765	42,518	-0,075	-0,051
-629,751	-92,933	0,121	0,025
-628,736	105,143	-0,135	-0,118
-627,722	-200,000	-0,019	-0,072
-626,707	71,195	0,081	0,062
-625,692	86,072	-0,015	-0,012
-624,678	800,000	0,007	-0,014
-623,663	208,925	0,064	-0,074
-622,649	-64,727	-0,035	0,011
-621,634	56,747	-0,072	-0,052
-620,619	-107,510	-0,099	0,016
-619,605	-74,346	0,022	-0,006
-618,590	-112,475	-0,086	-0,013
-617,576	-200,000	0,010	-0,103
-616,561	-72,192	0,090	0,025
-615,546	419,398	0,026	-0,041
-614,532	-200,000	-0,051	-0,180
-613,517	-13,397	-0,119	0,057
-612,503	-54,691	0,125	-0,042
-611,488	4,604	0,096	0,052
-610,474	-16,649	-0,085	0,040
-609,459	800,000	-0,044	0,131
-608,444	800,000	0,031	0,067
-607,430	-39,040	-0,065	-0,025
-606,415	41,893	0,001	0,001
-605,401	-200,000	0,005	0,058
-604,386	-162,407	0,224	0,008
-603,371	97,903	0,023	0,019
-602,357	-61,777	-0,090	-0,028
-601,342	-173,838	0,076	0,002
-600,328	54,659	0,098	0,070
-599,313	51,749	0,140	-0,098
-598,298	665,597	-0,039	0,076
-597,284	-200,000	0,036	-0,163
-596,269	22,673	-0,201	-0,121
-595,255	-200,000	0,028	-0,122
-594,240	-200,000	0,007	-0,046
-593,225	800,000	0,024	-0,077
-592,211	-156,545	0,038	0,002
-591,196	-42,572	-0,033	0,013
-590,182	800,000	0,004	0,012
-589,167	-62,123	0,111	-0,034
-588,152	547,106	-0,055	0,098
-587,138	-146,424	0,109	0,007
-586,123	-200,000	0,018	0,059
-585,109	-60,192	-0,035	0,011
-584,094	-41,565	0,117	-0,044
-583,079	14,710	0,084	0,048
-582,065	-131,777	0,067	-0,006
-581,050	-200,000	-0,010	0,067
-580,036	-98,691	-0,073	-0,014
-579,021	-200,000	0,001	-0,158
-578,006	138,458	-0,047	-0,045
-576,992	87,652	-0,023	0,019
-575,977	216,594	-0,010	0,011
-574,963	800,000	0,044	0,097
-573,948	184,736	-0,049	-0,054
-572,934	310,308	0,022	-0,030
-571,919	229,005	-0,097	-0,118
-570,904	-200,000	0,019	-0,120
-569,890	530,376	0,024	-0,042
-568,875	-83,643	-0,142	-0,033
-567,861	-7,173	0,016	0,008
-566,846	800,000	0,017	-0,044
-565,831	-184,074	0,126	-0,002
-564,817	459,816	-0,039	-0,065
-563,802	50,196	-0,079	-0,055
-562,788	62,834	-0,043	0,032
-561,773	800,000	-0,023	-0,051
-560,758	-196,283	0,018	0,000
-559,744	-109,080	0,048	0,008
-558,729	800,000	-0,019	-0,051
-557,715	303,115	0,026	0,036
-556,700	26,218	-0,090	-0,055
-555,685	125,318	-0,021	0,020
-554,671	15,128	-0,119	0,069
-553,656	-62,200	0,108	-0,033
-552,642	300,604	0,030	-0,041
-551,627	397,414	0,048	-0,075
-550,612	-55,632	0,066	0,022
-549,598	-48,483	-0,090	0,032
-548,583	-3,667	-0,071	-0,036
-547,569	622,887	0,072	-0,135
-546,554	800,000	0,026	-0,076
-545,539	3,751	0,070	-0,037
-544,525	59,153	0,098	-0,071
-543,510	-125,459	-0,068	-0,008
-542,496	-200,000	0,035	-0,154
-541,481	-167,653	-0,056	0,002
-540,466	800,000	-0,041	-0,105
-539,452	-200,000	0,014	0,079
-538,437	1,299	-0,053	0,028
-537,423	-53,802	0,043	-0,014
-536,408	-200,000	-0,023	-0,075
-535,393	436,210	-0,045	-0,072
-534,379	800,000	0,028	-0,086
-533,364	743,218	-0,011	0,022
-532,350	-15,667	-0,055	0,026
-531,335	52,309	-0,033	0,023
-530,321	800,000	0,006	0,019
-529,306	-82,293	-0,104	-0,025
-528,291	-66,156	0,089	0,026
-527,277	25,149	-0,120	-0,073
-526,262	172,691	-0,084	-0,089
-525,248	5,868	0,054	-0,029
-524,233	154,859	0,056	-0,057
-523,218	252,515	-0,077	0,097
-522,204	800,000	0,020	0,047
-521,189	-54,144	-0,053	0,018
-520,175	227,127	-0,138	-0,166
-519,160	-57,494	0,012	-0,004
-518,145	-200,000	0,000	0,002
-517,131	47,085	-0,077	0,053
-516,116	196,576	-0,097	-0,110
-515,102	-13,239	-0,090	0,043
-514,087	-186,182	0,095	0,001
-513,072	800,000	-0,055	-0,135
-512,058	-23,855	-0,045	-0,020
-511,043	-138,945	0,210	-0,017
-510,029	-109,333	0,116	-0,018
-509,014	664,944	-0,047	-0,090
-507,999	-93,674	-0,115	-0,023
-506,985	67,337	0,040	-0,030
-505,970	29,955	-0,131	-0,082
-504,956	-52,042	-0,099	-0,034
-503,941	-16,337	0,029	0,014
-502,926	-200,000	-0,016	-0,060
-501,912	-200,000	-0,009	0,090
-500,897	36,972	0,036	0,023
-499,883	-65,426	-0,095	-0,028
-498,868	151,423	-0,037	-0,037
-497,853	-200,000	-0,015	-0,079
-496,839	800,000	-0,019	-0,044
-495,824	333,666	0,036	-0,051
-494,810	-200,000	0,013	0,190
-493,795	73,333	-0,116	-0,089
-492,781	-200,000	-0,068	-0,259
-491,766	-200,000	0,020	-0,104
-490,751	-5,500	0,050	-0,025
-489,737	-200,000	0,000	0,091
-488,722	187,125	-0,070	-0,077
-487,708	116,756	0,094	-0,085
-486,693	-200,000	-0,002	-0,161
-485,678	94,391	-0,030	-0,025
-484,664	121,058	0,046	-0,042
-483,649	-18,286	-0,088	-0,040
-482,635	459,326	0,045	-0,075
-481,620	144,685	0,072	0,071
-480,605	222,215	0,058	0,069
-479,591	-200,000	-0,055	0,207
-478,576	-26,493	0,046	0,020
-477,562	-129,036	0,187	-0,019
-476,547	115,374	0,103	-0,093
-475,532	220,499	-0,071	-0,084
-474,518	-30,216	0,109	0,045
-473,503	-200,000	-0,006	0,090
-472,489	16,040	-0,073	-0,043
-471,474	4,009	-0,126	0,068
-470,459	-200,000	-0,023	0,135
-469,445	800,000	0,031	-0,088
-468,430	623,734	0,099	0,185
-467,416	-200,000	-0,010	0,063
-466,401	-200,000	0,019	0,074
-465,386	-60,209	0,083	-0,026
-464,372	-200,000	-0,009	-0,054
-463,357	-157,357	-0,076	-0,003
-462,343	-66,226	-0,127	-0,037
-461,328	265,217	-0,064	0,083
-460,313	-200,000	-0,001	0,026
-459,299	280,324	0,059	0,077
-458,284	-200,000	0,018	0,072
-457,270	91,476	-0,068	-0,056
-456,255	800,000	-0,043	0,095
-455,241	120,170	0,027	-0,025
-454,226	478,514	0,012	0,020
-453,211	-23,122	-0,081	-0,036
-452,197	-29,092	0,105	0,044
-451,182	528,064	0,035	0,062
-450,168	800,000	0,002	0,005
-449,153	642,849	0,062	-0,116
-448,138	211,107	-0,098	-0,114
-447,124	708,140	-0,018	-0,035
-446,109	-4,987	-0,018	0,009
-445,095	110,423	0,090	-0,079
-444,080	246,477	0,106	0,132
-443,065	9,828	-0,058	0,033
-442,051	800,000	0,012	-0,028
-441,036	800,000	0,022	-0,058
-440,022	-80,080	-0,093	0,023
-439,007	-200,000	-0,018	0,114
-437,992	-21,552	0,138	-0,062
-436,978	-98,845	-0,048	0,009
-435,963	46,882	-0,076	-0,052
-434,949	-200,000	0,030	-0,099
-433,934	-200,000	-0,013	0,073
-432,919	779,499	-0,078	-0,159
-431,905	-170,857	-0,075	-0,002
-430,890	179,399	0,063	0,068
-429,876	-33,748	0,025	-0,010
-428,861	362,222	0,089	0,132
-427,846	-87,383	0,049	0,011
-426,832	36,341	-0,049	-0,032
-425,817	800,000	0,036	0,108
-424,803	24,800	0,064	-0,039
-423,788	-200,000	0,002	-0,032
-422,773	-158,490	0,042	0,002
-421,759	380,132	0,137	0,207
-420,744	-200,000	0,004	0,123
-419,730	172,143	0,019	-0,020
-418,715	-81,893	-0,134	-0,032
-417,701	100,386	0,046	0,040
-416,686	426,111	0,055	0,088
-415,671	203,266	0,013	0,015
-414,657	-52,387	-0,042	0,014
-413,642	208,657	0,009	-0,010
-412,628	-139,827	0,073	-0,006
-411,613	-10,688	-0,061	-0,029
-410,598	73,191	0,018	-0,013
-409,584	-200,000	-0,002	-0,020
-408,569	-200,000	0,006	-0,056
-407,555	-200,000	-0,014	0,222
-406,540	784,145	-0,048	0,096
-405,525	261,556	-0,080	0,102
-404,511	185,780	-0,114	-0,125
-403,496	-200,000	-0,004	-0,031
-402,482	-48,550	0,063	0,022
-401,467	-27,364	0,134	0,057
-400,452	-38,015	0,080	-0,031
-399,438	-78,445	0,035	0,009
-398,423	208,369	0,036	-0,041
-397,409	-116,375	0,098	-0,013
-396,394	-200,000	-0,014	-0,124
-395,379	-96,839	-0,148	-0,028
-394,365	106,960	0,128	0,111
-393,350	69,589	0,048	0,036
-392,336	800,000	-0,040	0,118
-391,321	-154,620	0,148	-0,007
-390,306	46,268	-0,060	-0,041
-389,292	-20,235	-0,188	-0,085
-388,277	663,353	-0,058	0,111
-387,263	-7,031	0,034	-0,017
-386,248	-200,000	-0,031	-0,104
-385,233	-121,006	0,076	0,009
-384,219	-57,770	-0,065	0,021
-383,204	-9,436	-0,144	0,070
-382,190	-200,000	-0,040	0,189
-381,175	101,700	0,099	0,085
-380,160	79,975	-0,042	-0,033
-379,146	-200,000	-0,005	0,038
-378,131	-2,661	0,022	0,011
-377,117	-200,000	0,000	-0,023
-376,102	-200,000	-0,008	0,065
-375,088	800,000	-0,015	-0,048
-374,073	-200,000	0,001	-0,075
-373,058	-52,921	0,077	0,026
-372,044	800,000	0,052	0,128
-371,029	-85,286	-0,125	0,028
-370,015	-200,000	0,011	0,142
-369,000	-57,503	0,033	0,011
-367,985	503,604	-0,078	-0,134
-366,971	-153,943	0,039	0,002
-365,956	-200,000	0,008	-0,060
-364,942	-29,953	0,038	-0,016
-363,927	104,592	-0,029	-0,025
-362,912	257,133	0,079	0,100
-361,898	-27,336	-0,070	0,030
-360,883	563,405	0,051	-0,092
-359,869	800,000	0,041	-0,129
-358,854	-115,183	0,081	0,011
-357,839	268,427	0,114	0,147
-356,825	800,000	0,018	-0,043
-355,810	-160,091	-0,044	-0,002
-354,796	-78,400	-0,086	-0,021
-353,781	-129,387	-0,209	-0,021
-352,766	6,621	-0,196	0,106
-351,752	185,258	-0,066	0,072
-350,737	193,388	0,039	-0,043
-349,723	664,204	0,025	-0,048
-348,708	-200,000	0,023	0,098
-347,693	-200,000	-0,001	0,048
-346,679	-200,000	-0,001	-0,071
-345,664	729,625	0,034	0,066
-344,650	-165,466	-0,144	-0,005
-343,635	98,545	0,075	-0,063
-342,620	-68,776	-0,090	-0,025
-341,606	-68,407	0,067	0,019
-340,591	-200,000	-0,019	0,115
-339,577	-180,436	-0,074	0,001
-338,562	-123,316	-0,129	0,015
-337,548	764,719	0,078	0,156
-336,533	42,513	0,106	0,071
-335,518	464,859	0,070	0,115
-334,504	-45,153	-0,074	0,027
-333,489	-21,485	0,059	0,026
-332,475	49,534	-0,070	-0,048
-331,460	-96,268	-0,071	-0,014
-330,445	39,418	-0,063	0,041
-329,431	229,564	0,081	0,097
-328,416	113,592	-0,034	-0,030
-327,402	99,179	0,029	-0,024
-326,387	-108,821	0,117	-0,018
-325,372	127,933	0,028	-0,026
-324,358	-200,000	0,039	-0,142
-323,343	-138,052	0,019	0,002
-322,329	445,683	-0,067	0,108
-321,314	25,812	0,101	0,061
-320,299	-36,114	0,103	0,040
-319,285	-200,000	0,001	0,069
-318,270	800,000	0,044	0,123
-317,256	290,688	-0,047	-0,063
-316,241	800,000	0,036	-0,083
-315,226	316,852	-0,009	0,013
-314,212	-200,000	-0,011	0,084
-313,197	176,650	-0,104	-0,111
-312,183	-109,774	0,057	-0,009
-311,168	92,332	-0,016	-0,013
-310,153	36,960	-0,132	-0,086
-309,139	-58,895	0,203	0,064
-308,124	-49,064	0,036	-0,013
-307,110	304,432	0,017	0,023
-306,095	-200,000	0,001	0,017
-305,080	-89,647	0,092	0,020
-304,066	800,000	-0,033	0,082
-303,051	-87,018	-0,045	0,010
-302,037	81,265	0,071	0,056
-301,022	106,457	0,080	0,069
-300,008	-45,065	-0,086	0,031
-298,993	800,000	0,013	0,029
-297,978	132,222	-0,062	-0,058
-296,964	266,099	0,015	0,020
-295,949	33,495	-0,077	-0,049
-294,935	800,000	0,050	-0,119
-293,920	280,474	-0,098	-0,128
-292,905	65,596	0,033	0,024
-291,891	800,000	-0,021	0,048
-290,876	62,228	0,044	0,032
-289,862	-200,000	0,031	0,113
-288,847	-145,990	0,051	0,003
-287,832	27,664	0,021	-0,013
-286,818	-145,656	0,108	0,007
-285,803	-200,000	-0,015	0,168
-284,789	358,954	0,103	0,151
-283,774	21,866	-0,170	-0,101
-282,759	-187,692	-0,182	-0,002
-281,745	-200,000	-0,002	-0,025
-280,730	-47,175	-0,099	0,035
-279,716	19,829	0,032	0,019
-278,701	-76,546	-0,124	0,032
-277,686	800,000	-0,021	0,058
-276,672	-200,000	0,024	0,094
-275,657	800,000	0,035	-0,075
-274,643	159,395	-0,082	-0,084
-273,628	-200,000	0,004	0,047
-272,613	79,297	0,038	-0,030
-271,599	-200,000	0,016	0,204
-270,584	-200,000	0,002	0,042
-269,570	-200,000	0,032	0,135
-268,555	-200,000	0,005	0,030
-267,540	699,640	0,014	-0,027
-266,526	-200,000	-0,001	-0,013
-265,511	-47,884	0,130	0,046
-264,497	-146,302	-0,039	-0,002
-263,482	-200,000	0,023	-0,110
-262,467	56,495	-0,036	0,026
-261,453	-200,000	0,003	0,046
-260,438	-0,996	-0,078	0,040
-259,424	211,077	-0,066	-0,076
-258,409	-200,000	-0,009	0,075
-257,395	-200,000	0,011	0,105
-256,380	-200,000	0,011	0,049
-255,365	-15,684	0,141	0,065
-254,351	-52,868	0,079	0,027
-253,336	800,000	-0,002	-0,005
-252,322	800,000	-0,009	0,028
-251,307	-20,204	0,148	-0,066
-250,292	104,851	-0,029	-0,025
-249,278	-74,898	-0,027	-0,007
-248,263	-31,538	0,050	-0,020
-247,249	-26,352	-0,067	-0,028
-246,234	-200,000	-0,005	-0,029
-245,219	-200,000	-0,018	-0,086
-244,205	-62,625	-0,104	0,031
-243,190	338,407	0,061	0,086
-242,176	112,461	0,035	-0,031
-241,161	-200,000	0,032	-0,135
-240,146	-200,000	-0,014	0,186
-239,132	-200,000	-0,025	-0,141
-238,117	485,347	0,024	0,040
-237,103	-118,042	-0,127	0,016
-236,088	-200,000	0,010	0,138
-235,073	800,000	0,050	0,145
-234,059	209,268	0,009	0,011
-233,044	-200,000	0,039	-0,244
-232,030	-34,234	-0,103	0,041
-231,015	62,419	-0,049	-0,036
-230,000	-200,000	0,003	-0,066
-228,986	-41,445	0,145	-0,054
-227,971	-200,000	0,026	0,087
-226,957	-153,797	0,136	-0,007
-225,942	526,169	-0,084	0,146
-224,927	129,177	0,051	-0,047
-223,913	11,530	-0,064	-0,036
-222,898	22,948	0,139	-0,083
-221,884	-164,120	-0,035	-0,001
-220,869	37,921	0,064	0,042
-219,855	109,278	0,143	-0,125
-218,840	-200,000	-0,031	0,109
-217,825	-200,000	-0,006	0,060
-216,811	67,269	-0,074	-0,055
-215,796	191,189	-0,018	-0,019
-214,782	462,275	0,047	-0,078
-213,767	135,696	0,040	0,038
-212,752	241,627	-0,079	0,096
-211,738	800,000	0,057	-0,151
-210,723	-87,349	0,104	0,023
-209,709	-133,360	-0,088	0,008
-208,694	154,214	-0,050	-0,051
-207,679	-200,000	-0,005	0,033
-206,665	-21,867	0,119	-0,052
-205,650	-130,283	-0,074	0,007
-204,636	-49,082	0,068	-0,024
-203,621	-92,076	0,107	0,022
-202,606	-200,000	-0,001	-0,101
-201,592	800,000	-0,041	0,084
-200,577	598,724	-0,048	-0,088
-199,563	-86,630	-0,216	0,048
-198,548	20,428	-0,053	-0,031
-197,533	-90,561	0,022	0,005
-196,519	463,660	-0,079	-0,130
-195,504	-200,000	0,005	-0,056
-194,490	194,505	-0,090	-0,100
-193,475	414,665	-0,040	-0,062
-192,460	-41,811	-0,119	-0,044
-191,446	-45,446	-0,087	0,031
-190,431	-124,387	0,086	0,010
-189,417	473,042	-0,070	0,116
-188,402	-114,717	0,028	0,004
-187,387	12,462	0,132	-0,074
-186,373	232,664	-0,111	-0,133
-185,358	-200,000	0,001	-0,007
-184,344	-200,000	-0,026	0,134
-183,329	-12,699	-0,077	-0,037
-182,315	558,656	0,086	0,152
-181,300	800,000	-0,037	0,103
-180,285	800,000	-0,017	-0,039
-179,271	125,231	-0,068	-0,062
-178,256	-200,000	-0,018	0,067
-177,242	183,684	0,065	0,070
-176,227	-200,000	0,020	0,107
-175,212	-169,432	0,090	-0,002
-174,198	375,637	0,073	0,109
-173,183	281,837	-0,028	-0,036
-172,169	-80,636	-0,041	0,010
-171,154	406,742	0,052	0,080
-170,139	651,393	0,034	0,064
-169,125	66,069	-0,129	0,095
-168,110	-107,977	0,169	0,026
-167,096	460,355	0,104	0,169
-166,081	-160,777	-0,166	-0,006
-165,066	-200,000	-0,014	0,063
-164,052	250,950	0,048	0,060
-163,037	602,647	0,021	0,038
-162,023	57,616	-0,021	-0,015
-161,008	282,472	0,032	-0,042
-159,993	361,321	0,054	-0,078
-158,979	-152,125	0,151	-0,008
-157,964	420,924	0,055	0,086
-156,950	-11,908	0,016	0,007
-155,935	-200,000	0,009	-0,032
-154,920	-200,000	-0,011	-0,078
-153,906	800,000	0,043	0,134
-152,891	37,451	0,072	0,046
-151,877	141,354	0,027	-0,026
-150,862	-100,617	0,034	-0,006
-149,847	-125,787	-0,067	-0,007
-148,833	-200,000	0,041	-0,134
-147,818	-200,000	0,009	-0,066
-146,804	-162,435	0,123	0,004
-145,789	8,378	-0,059	0,032
-144,775	-200,000	-0,014	0,085
-143,760	-200,000	-0,013	-0,177
-142,745	-200,000	-0,019	-0,119
-141,731	48,953	0,135	-0,092
-140,716	508,898	0,104	-0,176
-139,702	-131,621	-0,137	-0,013
-138,687	-200,000	0,012	0,092
-137,672	88,641	0,152	-0,123
-136,658	-200,000	0,009	-0,040
-135,643	444,719	0,045	0,073
-134,629	133,831	0,082	-0,077
-133,614	376,127	-0,022	-0,032
-132,599	659,456	0,060	0,112
-131,585	-147,795	-0,027	-0,002
-130,570	-200,000	0,003	-0,071
-129,556	330,758	-0,057	-0,080
-128,541	-200,000	0,020	0,082
-127,526	-44,795	-0,082	0,030
-126,512	94,824	0,015	0,012
-125,497	800,000	-0,032	0,075
-124,483	-68,032	0,056	0,016
-123,468	-200,000	0,021	-0,069
-122,453	51,478	0,012	-0,008
-121,439	109,902	-0,139	-0,121
-120,424	10,685	0,029	-0,016
-119,410	172,187	-0,032	-0,034
