DTS Sentinel unit serial number:	SN410029Multiplexer serial number:	ORYXHardware model number:	OX2-SRSoftware version number:	ORYX F/W v4,00 Oryx Data Collector v3.7.2.0data status	okinstallation	B4 Nyhavnadifferential loss correction	single-endedforward channel	channel 2reverse channel	N/Adate	2023/12/15time	20:50:13forward acquisition time	300,00reverse acquisition time	0,00gamma	499,1914k internal	0,3134k external	0,3134temperature offset calibration	1,0000default loss term (dB/km)	0,3820temperature slope calibration	1,0000multiplexer offset coefficient	1,0000multiplexer slope coefficient	1,0000fibre end	0,00T internal ref (°C)	20,75T ext. ref 1 (°C)	6,15T ext. ref 2 (°C)	6,34length (m)	temperature (°C)	Stokes	anti-Stokes-744,400	-200,000	-0,014	0,056
-743,385	-130,935	-0,241	-0,024
-742,371	800,000	0,022	-0,054
-741,356	106,750	-0,095	0,083
-740,342	800,000	-0,016	0,037
-739,327	300,838	-0,137	0,188
-738,312	-118,851	-0,095	-0,012
-737,298	52,464	-0,160	0,113
-736,283	131,142	0,084	0,080
-735,269	-62,123	-0,266	0,082
-734,254	51,504	0,073	-0,052
-733,239	-100,606	-0,437	-0,079
-732,225	-82,554	0,155	-0,037
-731,210	133,848	-0,058	-0,055
-730,196	-200,000	0,006	0,086
-729,181	-24,906	-0,149	-0,066
-728,167	513,373	0,073	-0,126
-727,152	-135,922	0,053	-0,005
-726,137	-131,867	-0,150	-0,014
-725,123	-200,000	-0,010	-0,045
-724,108	24,214	-0,144	-0,088
-723,094	-200,000	-0,055	-0,225
-722,079	505,797	-0,066	-0,114
-721,064	-0,834	0,086	-0,045
-720,050	-140,536	0,043	0,003
-719,035	-200,000	-0,036	0,140
-718,021	129,668	-0,095	-0,090
-717,006	31,434	0,066	0,042
-715,991	109,647	-0,118	-0,105
-714,977	800,000	-0,041	-0,124
-713,962	335,792	0,094	-0,135
-712,948	800,000	0,006	-0,014
-711,933	800,000	-0,041	0,121
-710,918	-43,796	-0,097	-0,036
-709,904	139,180	-0,063	-0,061
-708,889	323,500	-0,088	-0,124
-707,875	-69,286	-0,089	-0,025
-706,860	111,828	-0,045	-0,040
-705,845	216,937	-0,032	-0,038
-704,831	-65,726	0,161	0,047
-703,816	-200,000	-0,031	-0,137
-702,802	800,000	0,022	-0,050
-701,787	231,678	0,061	-0,075
-700,772	-19,440	-0,028	0,013
-699,758	-31,164	0,017	-0,007
-698,743	62,796	0,033	-0,024
-697,729	305,038	0,058	0,081
-696,714	24,887	0,084	0,051
-695,699	800,000	-0,041	-0,120
-694,685	-50,874	0,143	-0,050
-693,670	26,283	-0,032	0,020
-692,656	-130,830	0,093	-0,009
-691,641	-200,000	-0,024	-0,108
-690,627	26,072	-0,021	0,013
-689,612	800,000	-0,028	-0,080
-688,597	-94,980	-0,109	-0,022
-687,583	-9,210	-0,051	-0,025
-686,568	140,520	-0,034	-0,033
-685,554	-147,485	-0,077	0,005
-684,539	116,219	0,006	0,006
-683,524	-200,000	-0,010	-0,079
-682,510	800,000	-0,023	0,075
-681,495	63,545	-0,092	0,068
-680,481	746,632	-0,056	-0,112
-679,466	800,000	-0,049	-0,143
-678,451	86,676	0,068	-0,056
-677,437	800,000	-0,022	-0,066
-676,422	-63,717	0,073	0,022
-675,408	-98,055	0,094	-0,018
-674,393	-118,696	-0,075	-0,010
-673,378	195,398	-0,022	-0,025
-672,364	-200,000	-0,042	-0,142
-671,349	-200,000	0,005	-0,051
-670,335	-200,000	-0,001	0,054
-669,320	205,290	0,025	0,029
-668,305	-97,589	-0,132	-0,025
-667,291	203,217	0,063	-0,073
-666,276	-200,000	-0,023	-0,099
-665,262	-57,505	-0,097	-0,031
-664,247	-104,854	-0,130	-0,022
-663,232	-200,000	0,005	0,044
-662,218	-192,231	0,082	-0,001
-661,203	800,000	0,054	0,116
-660,189	-200,000	0,010	0,104
-659,174	147,749	0,063	-0,063
-658,159	-1,196	-0,085	-0,044
-657,145	145,945	-0,047	-0,047
-656,130	800,000	0,036	-0,089
-655,116	201,121	0,018	0,020
-654,101	-142,369	-0,102	-0,007
-653,086	458,204	-0,022	0,036
-652,072	-200,000	-0,028	-0,096
-651,057	-139,831	-0,088	-0,007
-650,043	174,821	0,093	-0,099
-649,028	800,000	-0,012	-0,037
-648,014	29,983	-0,041	0,026
-646,999	-200,000	-0,019	0,108
-645,984	659,497	0,001	0,002
-644,970	-164,926	-0,063	-0,002
-643,955	67,401	-0,073	-0,055
-642,941	800,000	0,010	-0,028
-641,926	-81,249	-0,102	-0,025
-640,911	183,855	0,061	-0,067
-639,897	-200,000	0,002	0,022
-638,882	-130,882	0,050	-0,005
-637,868	-103,121	-0,091	0,016
-636,853	-161,054	-0,045	0,002
-635,838	68,596	-0,084	-0,063
-634,824	218,791	0,051	0,060
-633,809	183,431	-0,029	0,031
-632,795	-200,000	0,002	0,055
-631,780	-200,000	-0,001	-0,076
-630,765	727,801	0,037	-0,074
-629,751	218,299	-0,144	-0,170
-628,736	240,753	-0,042	-0,052
-627,722	-117,953	0,037	0,005
-626,707	-200,000	-0,000	-0,046
-625,692	-95,128	0,097	0,019
-624,678	-73,652	0,093	0,025
-623,663	-166,949	-0,059	-0,002
-622,649	371,672	-0,064	-0,097
-621,634	-200,000	0,002	-0,014
-620,619	-108,636	-0,115	-0,018
-619,605	-162,601	-0,058	-0,002
-618,590	91,372	0,018	-0,015
-617,576	-200,000	-0,009	0,122
-616,561	800,000	0,017	0,040
-615,546	-200,000	-0,005	-0,125
-614,532	-33,341	-0,124	-0,051
-613,517	800,000	-0,021	-0,046
-612,503	57,345	0,031	0,023
-611,488	430,314	0,036	-0,058
-610,474	-20,841	-0,049	0,022
-609,459	292,929	0,100	0,135
-608,444	-200,000	-0,000	-0,008
-607,430	-123,058	-0,155	0,018
-606,415	359,281	0,078	-0,116
-605,401	-2,201	-0,095	-0,049
-604,386	-61,413	0,106	0,033
-603,371	212,108	0,078	0,091
-602,357	241,149	0,011	-0,013
-601,342	-10,326	-0,188	-0,092
-600,328	701,199	-0,047	-0,091
-599,313	158,580	0,062	-0,063
-598,298	-200,000	-0,014	-0,090
-597,284	2,562	0,136	-0,073
-596,269	794,351	-0,060	0,123
-595,255	-200,000	-0,005	0,153
-594,240	-200,000	0,003	0,022
-593,225	247,198	-0,052	0,065
-592,211	-107,958	-0,054	0,009
-591,196	39,551	-0,042	0,028
-590,182	554,836	-0,029	0,052
-589,167	800,000	0,043	0,122
-588,152	-59,966	-0,047	-0,015
-587,138	421,171	-0,063	0,099
-586,123	800,000	-0,029	-0,069
-585,109	-49,604	0,063	-0,022
-584,094	263,754	-0,063	-0,081
-583,079	416,449	-0,074	0,117
-582,065	308,088	-0,083	0,115
-581,050	531,958	0,056	0,099
-580,036	-200,000	0,024	0,093
-579,021	-111,987	-0,106	-0,016
-578,006	54,110	-0,121	-0,086
-576,992	220,015	0,048	0,057
-575,977	800,000	0,026	0,079
-574,963	-8,937	0,194	-0,096
-573,948	800,000	0,007	-0,017
-572,934	800,000	-0,016	-0,039
-571,919	-200,000	0,009	-0,042
-570,904	-56,838	0,054	0,017
-569,890	800,000	-0,019	-0,042
-568,875	-57,415	0,025	0,008
-567,861	-32,608	0,047	-0,019
-566,846	10,142	0,030	0,016
-565,831	-200,000	0,002	0,051
-564,817	219,440	-0,015	-0,018
-563,802	144,021	-0,034	-0,033
-562,788	-200,000	0,004	-0,109
-561,773	320,129	-0,012	-0,017
-560,758	391,342	-0,039	0,060
-559,744	-200,000	-0,021	0,104
-558,729	-74,941	0,134	-0,035
-557,715	449,602	0,013	-0,021
-556,700	-55,598	0,069	0,023
-555,685	800,000	0,032	-0,080
-554,671	22,885	-0,071	-0,043
-553,656	-200,000	0,022	-0,152
-552,642	-99,139	-0,073	0,014
-551,627	800,000	-0,023	-0,072
-550,612	-83,514	0,148	-0,035
-549,598	0,855	-0,088	0,046
-548,583	44,121	0,110	-0,074
-547,569	-61,672	-0,108	0,033
-546,554	-125,516	0,068	-0,007
-545,539	54,979	0,055	0,039
-544,525	98,064	0,046	0,039
-543,510	800,000	-0,071	-0,182
-542,496	311,943	-0,053	-0,073
-541,481	68,780	0,082	-0,062
-540,466	-200,000	0,000	-0,067
-539,452	-200,000	0,010	-0,070
-538,437	-161,998	0,119	-0,004
-537,423	800,000	0,036	-0,093
-536,408	100,707	0,111	0,095
-535,393	372,581	-0,060	0,090
-534,379	72,734	-0,073	-0,056
-533,364	800,000	-0,051	-0,108
-532,350	-200,000	0,000	-0,009
-531,335	-40,349	-0,021	0,008
-530,321	800,000	-0,030	0,081
-529,306	22,731	-0,124	0,075
-528,291	-76,349	0,088	0,023
-527,277	-200,000	-0,013	-0,058
-526,262	334,072	-0,044	-0,063
-525,248	39,050	0,043	0,028
-524,233	488,075	0,002	-0,004
-523,218	-69,465	0,076	0,021
-522,204	-200,000	0,004	-0,219
-521,189	18,011	-0,180	-0,105
-520,175	202,495	-0,025	-0,029
-519,160	134,016	0,089	0,085
-518,145	-23,921	0,110	0,048
-517,131	-30,858	-0,187	-0,078
-516,116	135,006	0,070	-0,067
-515,102	800,000	-0,008	0,025
-514,087	800,000	0,068	-0,140
-513,072	-200,000	-0,005	0,021
-512,058	53,328	0,078	0,055
-511,043	133,860	0,067	0,064
-510,029	-45,394	-0,071	0,026
-509,014	-200,000	-0,004	0,019
-507,999	-200,000	0,024	0,088
-506,985	-200,000	-0,013	0,044
-505,970	228,117	0,027	-0,032
-504,956	229,520	-0,115	-0,138
-503,941	-90,158	0,099	-0,021
-502,926	416,367	-0,055	-0,086
-501,912	-200,000	-0,004	0,035
-500,897	26,412	0,183	0,112
-499,883	193,413	0,026	-0,029
-498,868	-17,986	0,137	0,063
-497,853	-85,897	0,048	0,011
-496,839	-166,316	-0,199	0,006
-495,824	800,000	0,014	-0,031
-494,810	42,484	0,079	0,053
-493,795	202,831	0,046	-0,052
-492,781	59,688	-0,031	0,023
-491,766	-200,000	-0,015	-0,135
-490,751	-108,988	0,116	-0,018
-489,737	-13,253	0,053	0,025
-488,722	134,912	0,126	-0,120
-487,708	-20,138	0,017	0,008
-486,693	14,327	0,080	-0,046
-485,678	431,967	-0,040	0,065
-484,664	800,000	-0,040	-0,130
-483,649	-137,931	-0,068	0,005
-482,635	89,157	-0,061	0,050
-481,620	-186,234	-0,039	0,000
-480,605	-59,444	-0,100	-0,031
-479,591	-200,000	-0,020	-0,119
-478,576	-200,000	-0,021	0,082
-477,562	-42,693	0,079	0,029
-476,547	91,190	-0,084	0,069
-475,532	130,893	0,065	-0,061
-474,518	-200,000	0,001	0,215
-473,503	-30,602	-0,140	-0,058
-472,489	-33,764	-0,075	-0,030
-471,474	800,000	0,018	0,057
-470,459	-56,996	-0,090	-0,029
-469,445	447,679	-0,059	0,096
-468,430	38,444	0,097	-0,063
-467,416	-144,624	-0,125	-0,008
-466,401	-171,761	0,096	0,002
-465,386	-200,000	0,036	0,206
-464,372	-97,989	0,047	-0,009
-463,357	78,181	0,090	0,070
-462,343	28,852	-0,030	-0,019
-461,328	632,054	0,009	-0,017
-460,313	-126,999	-0,170	-0,018
-459,299	-200,000	0,015	-0,075
-458,284	-33,691	0,042	-0,017
-457,270	-55,019	-0,083	-0,027
-456,255	-8,563	-0,178	-0,088
-455,241	344,987	-0,019	0,027
-454,226	671,137	-0,041	-0,079
-453,211	-9,855	0,048	0,024
-452,197	279,046	-0,006	0,008
-451,182	342,053	0,083	0,119
-450,168	79,800	0,124	0,098
-449,153	-200,000	-0,009	0,098
-448,138	122,743	-0,093	-0,085
-447,124	-148,453	-0,069	0,004
-446,109	-68,071	0,046	-0,013
-445,095	-74,294	0,056	0,015
-444,080	36,110	0,049	0,032
-443,065	-200,000	0,004	0,091
-442,051	22,078	-0,050	-0,030
-441,036	-87,410	0,091	-0,020
-440,022	800,000	-0,057	-0,153
-439,007	190,840	0,034	-0,037
-437,992	800,000	0,019	0,047
-436,978	800,000	0,024	-0,053
-435,963	-200,000	-0,005	-0,059
-434,949	212,377	0,061	0,070
-433,934	800,000	-0,010	0,030
-432,919	-200,000	0,002	-0,027
-431,905	225,404	-0,119	-0,141
-430,890	59,240	-0,029	-0,021
-429,876	638,807	0,101	0,190
-428,861	-99,174	0,038	-0,007
-427,846	29,312	-0,059	0,037
-426,832	726,356	0,062	0,123
-425,817	-200,000	-0,004	-0,040
-424,803	-43,910	-0,110	0,040
-423,788	-200,000	0,007	0,083
-422,773	289,140	-0,037	-0,050
-421,759	101,528	0,116	0,099
-420,744	6,883	0,085	-0,046
-419,730	-135,880	0,049	-0,004
-418,715	101,897	0,061	-0,052
-417,701	-27,340	0,040	-0,017
-416,686	7,613	-0,135	0,074
-415,671	-9,757	0,021	0,010
-414,657	-102,378	0,099	-0,017
-413,642	183,289	-0,092	-0,100
-412,628	68,539	-0,131	-0,098
-411,613	-36,508	-0,125	0,049
-410,598	-200,000	0,002	-0,180
-409,584	-34,889	0,034	-0,014
-408,569	-200,000	-0,063	0,206
-407,555	431,103	0,042	0,067
-406,540	61,100	-0,023	-0,017
-405,525	52,206	0,071	-0,049
-404,511	16,373	-0,042	-0,024
-403,496	126,105	0,060	-0,056
-402,482	146,849	-0,061	0,060
-401,467	14,313	0,120	0,069
-400,452	-200,000	0,006	-0,136
-399,438	77,409	-0,012	0,009
-398,423	19,668	0,007	0,004
-397,409	-200,000	-0,026	-0,179
-396,394	-11,137	0,058	-0,028
-395,379	-200,000	-0,012	0,097
-394,365	-23,671	0,087	0,038
-393,350	2,957	-0,046	-0,025
-392,336	131,638	0,031	0,029
-391,321	800,000	-0,051	-0,135
-390,306	114,223	-0,068	0,060
-389,292	-126,977	-0,039	-0,004
-388,277	-200,000	-0,022	0,141
-387,263	-112,117	-0,089	-0,013
-386,248	-107,632	-0,118	0,019
-385,233	-200,000	0,042	0,195
-384,219	-137,440	0,049	-0,004
-383,204	800,000	0,041	-0,104
-382,190	513,060	-0,007	0,011
-381,175	76,530	-0,022	0,017
-380,160	-200,000	0,027	0,148
-379,146	564,648	-0,065	0,116
-378,131	-178,533	-0,080	-0,001
-377,117	-200,000	-0,036	-0,171
-376,102	-79,420	-0,067	0,016
-375,088	-91,967	0,091	0,019
-374,073	722,410	-0,021	-0,042
-373,058	143,574	0,155	0,152
-372,044	210,376	-0,103	0,118
-371,029	-184,523	0,130	0,002
-370,015	-112,273	0,056	0,008
-369,000	576,735	0,065	0,117
-367,985	769,493	0,013	0,027
-366,971	800,000	0,029	-0,065
-365,956	358,411	0,079	-0,115
-364,942	-200,000	-0,002	-0,099
-363,927	35,464	-0,090	-0,058
-362,912	-200,000	0,018	0,121
-361,898	-112,382	-0,075	-0,011
-360,883	111,042	-0,089	-0,078
-359,869	-54,470	0,073	-0,024
-358,854	384,075	0,034	-0,051
-357,839	-162,085	0,117	-0,004
-356,825	800,000	0,049	0,136
-355,810	-110,014	-0,011	0,002
-354,796	-8,104	0,060	-0,030
-353,781	-69,087	0,033	0,009
-352,766	-41,969	0,009	0,003
-351,752	-97,548	-0,065	0,012
-350,737	-200,000	-0,018	-0,139
-349,723	-166,648	-0,055	-0,002
-348,708	286,023	0,051	0,067
-347,693	-51,143	0,082	0,028
-346,679	-62,717	-0,047	0,014
-345,664	72,428	0,022	0,017
-344,650	97,003	0,024	-0,020
-343,635	-178,768	0,041	-0,001
-342,620	43,651	0,085	0,057
-341,606	-98,760	-0,145	-0,027
-340,591	-142,208	0,080	0,006
-339,577	632,981	0,042	0,079
-338,562	44,434	-0,080	-0,053
-337,548	-2,609	0,011	-0,006
-336,533	-200,000	0,021	0,087
-335,518	0,305	0,137	-0,071
-334,504	-21,316	0,088	0,039
-333,489	-43,238	0,024	0,009
-332,475	-74,074	-0,143	-0,037
-331,460	322,916	-0,054	0,076
-330,445	-200,000	-0,003	0,017
-329,431	-81,645	0,087	-0,021
-328,416	-77,182	-0,023	-0,006
-327,402	-184,528	0,157	0,002
-326,387	299,612	-0,055	-0,075
-325,372	800,000	-0,014	-0,034
-324,358	-200,000	0,002	0,062
-323,343	130,357	-0,106	-0,099
-322,329	353,569	0,064	0,094
-321,314	425,374	0,055	0,086
-320,299	-70,254	0,082	0,023
-319,285	800,000	-0,032	0,100
-318,270	-70,099	-0,075	0,021
-317,256	800,000	-0,069	-0,191
-316,241	-48,460	0,119	-0,042
-315,226	73,047	0,081	-0,062
-314,212	-200,000	0,001	0,074
-313,197	189,154	-0,092	0,100
-312,183	-110,387	0,052	-0,008
-311,168	800,000	-0,018	0,049
-310,153	140,699	0,028	0,027
-309,139	-17,981	-0,098	0,045
-308,124	221,416	0,055	0,064
-307,110	-200,000	-0,006	0,101
-306,095	130,741	0,026	0,024
-305,080	49,456	-0,080	-0,055
-304,066	-64,046	-0,092	-0,027
-303,051	365,525	-0,019	0,028
-302,037	55,601	-0,043	0,030
-301,022	-71,694	-0,081	0,022
-300,008	-9,836	-0,021	0,010
-298,993	800,000	-0,042	0,116
-297,978	205,284	0,048	0,054
-296,964	318,641	0,040	0,055
-295,949	-87,239	0,057	-0,013
-294,935	800,000	0,041	0,087
-293,920	-200,000	-0,002	0,092
-292,905	-200,000	0,017	0,101
-291,891	-42,015	0,120	-0,045
-290,876	90,094	-0,030	0,024
-289,862	-49,083	-0,086	-0,030
-288,847	800,000	0,013	0,030
-287,832	76,686	-0,094	0,073
-286,818	800,000	-0,054	0,142
-285,803	12,110	0,195	0,109
-284,789	91,660	0,060	0,049
-283,774	-40,275	0,028	0,011
-282,759	168,798	-0,098	0,102
-281,745	-93,951	-0,039	0,008
-280,730	-122,681	-0,173	-0,020
-279,716	229,558	0,096	-0,115
-278,701	-200,000	0,008	0,075
-277,686	-200,000	-0,006	0,090
-276,672	-200,000	-0,001	0,010
-275,657	356,094	0,050	0,073
-274,643	75,991	-0,060	0,046
-273,628	346,916	0,022	-0,032
-272,613	83,370	0,081	0,064
-271,599	-28,777	0,100	0,042
-270,584	800,000	0,031	0,081
-269,570	-200,000	0,001	0,046
-268,555	-200,000	-0,031	-0,103
-267,540	642,772	-0,051	0,095
-266,526	163,475	-0,033	0,034
-265,511	44,958	-0,028	0,019
-264,497	800,000	0,023	-0,052
-263,482	-111,173	0,153	-0,023
-262,467	92,082	-0,117	-0,096
-261,453	221,750	0,057	-0,067
-260,438	369,273	0,118	-0,174
-259,424	-91,058	0,093	-0,019
-258,409	-200,000	0,006	0,133
-257,395	346,396	-0,036	-0,052
-256,380	-22,458	0,116	0,051
-255,365	-200,000	0,012	0,106
-254,351	-200,000	0,007	-0,097
-253,336	394,799	0,093	-0,142
-252,322	670,098	-0,056	-0,106
-251,307	-200,000	0,025	0,107
-250,292	87,235	-0,080	0,064
-249,278	-140,500	0,022	0,002
-248,263	-97,226	-0,117	0,022
-247,249	-200,000	0,010	-0,077
-246,234	-200,000	-0,008	-0,102
-245,219	-200,000	0,002	-0,037
-244,205	-200,000	-0,011	-0,089
-243,190	-94,522	0,060	0,012
-242,176	-93,019	-0,055	-0,011
-241,161	147,145	-0,055	-0,054
-240,146	-200,000	-0,012	-0,048
-239,132	229,548	-0,048	0,057
-238,117	-26,140	0,149	-0,064
-237,103	208,354	-0,015	0,017
-236,088	-200,000	-0,023	-0,126
-235,073	-49,055	0,068	0,023
-234,059	-62,967	0,120	-0,036
-233,044	8,032	0,147	0,080
-232,030	172,413	-0,067	0,070
-231,015	28,017	0,131	-0,080
-230,000	735,971	-0,052	-0,102
-228,986	-98,555	0,080	-0,015
-227,971	86,045	0,026	-0,021
-226,957	47,514	-0,049	0,033
-225,942	7,790	0,037	0,020
-224,927	-18,974	-0,109	-0,049
-223,913	-52,184	-0,104	0,035
-222,898	-55,554	-0,071	0,023
-221,884	35,347	0,091	0,058
-220,869	-200,000	-0,001	0,030
-219,855	330,533	0,017	0,023
-218,840	-177,701	-0,050	0,001
-217,825	-200,000	-0,022	-0,128
-216,811	398,916	-0,030	0,046
-215,796	800,000	-0,041	-0,122
-214,782	800,000	-0,056	-0,133
-213,767	-152,968	0,090	-0,005
-212,752	800,000	-0,052	-0,106
-211,738	-12,036	0,156	0,074
-210,723	800,000	-0,030	0,088
-209,709	800,000	-0,079	-0,201
-208,694	-79,766	0,061	-0,015
-207,679	800,000	-0,039	-0,079
-206,665	-32,065	0,110	-0,044
-205,650	-37,921	0,051	0,020
-204,636	800,000	-0,041	0,125
-203,621	447,165	-0,019	-0,030
-202,606	-165,223	-0,134	0,004
-201,592	-68,064	-0,104	-0,029
-200,577	417,370	-0,067	0,104
-199,563	81,843	0,016	0,013
-198,548	-89,594	-0,017	-0,004
-197,533	-49,168	0,200	-0,069
-196,519	160,838	-0,093	0,094
-195,504	21,441	-0,051	0,030
-194,490	-19,164	0,095	0,043
-193,475	190,064	0,033	0,036
-192,460	157,398	-0,096	-0,097
-191,446	-200,000	-0,006	0,054
-190,431	800,000	-0,029	0,059
-189,417	-200,000	-0,043	-0,147
-188,402	381,769	0,017	-0,026
-187,387	800,000	-0,027	-0,079
-186,373	-200,000	-0,008	-0,142
-185,358	-200,000	-0,006	-0,097
-184,344	-200,000	-0,018	0,099
-183,329	-200,000	0,001	0,017
-182,315	800,000	0,025	-0,057
-181,300	765,757	-0,036	-0,072
-180,285	109,471	-0,082	-0,071
-179,271	-200,000	-0,008	0,096
-178,256	281,011	0,003	-0,004
-177,242	-200,000	0,002	-0,054
-176,227	279,094	0,093	0,121
-175,212	-107,687	-0,058	0,009
-174,198	3,204	0,032	0,017
-173,183	800,000	-0,049	-0,101
-172,169	108,069	-0,088	-0,076
-171,154	316,797	0,063	-0,087
-170,139	522,062	0,058	0,099
-169,125	-200,000	-0,013	0,071
-168,110	-200,000	0,003	0,123
-167,096	800,000	-0,017	0,053
-166,081	-200,000	-0,021	-0,142
-165,066	800,000	-0,027	0,082
-164,052	-200,000	0,016	0,155
-163,037	-161,090	-0,069	0,003
-162,023	545,863	0,057	0,099
-161,008	-117,844	0,050	-0,006
-159,993	-200,000	-0,025	0,154
-158,979	-155,053	0,046	0,002
-157,964	800,000	-0,076	-0,169
-156,950	-200,000	0,008	0,216
-155,935	256,828	-0,060	-0,075
-154,920	800,000	-0,016	0,035
-153,906	800,000	0,028	-0,072
-152,891	118,143	0,072	-0,064
-151,877	-200,000	0,006	-0,081
-150,862	-91,714	0,018	-0,004
-149,847	-112,169	0,040	-0,006
-148,833	-53,740	0,078	-0,026
-147,818	37,720	0,029	-0,018
-146,804	351,495	-0,048	0,069
-145,789	51,103	0,061	0,042
-144,775	225,081	-0,019	-0,022
-143,760	-200,000	0,039	-0,154
-142,745	800,000	0,029	0,084
-141,731	-200,000	0,007	0,080
-140,716	-97,255	0,104	-0,020
-139,702	782,790	0,027	-0,054
-138,687	42,902	0,039	0,026
-137,672	76,709	0,043	0,033
-136,658	-73,208	-0,112	-0,029
-135,643	-46,785	0,102	0,036
-134,629	94,207	0,039	0,032
-133,614	99,297	0,097	-0,081
-132,599	800,000	0,038	-0,089
-131,585	-195,680	-0,086	-0,000
-130,570	-47,265	0,026	0,009
-129,556	-62,990	0,032	0,009
-128,541	800,000	0,035	0,093
-127,526	-89,246	0,049	-0,010
-126,512	-38,404	0,061	0,023
-125,497	-200,000	0,016	0,070
-124,483	800,000	-0,011	0,031
-123,468	-65,620	-0,047	-0,014
-122,453	488,204	-0,079	-0,131
-121,439	426,877	-0,039	-0,062
-120,424	-86,833	-0,091	-0,020
-119,410	800,000	-0,022	-0,045
-118,395	185,580	0,062	0,066
