DTS Sentinel unit serial number:	SN410029Multiplexer serial number:	ORYXHardware model number:	OX2-SRSoftware version number:	ORYX F/W v4,00 Oryx Data Collector v3.7.2.0data status	okinstallation	B4 Nyhavnadifferential loss correction	single-endedforward channel	channel 2reverse channel	N/Adate	2023/12/19time	10:10:13forward acquisition time	300,00reverse acquisition time	0,00gamma	499,1914k internal	0,3127k external	0,3127temperature offset calibration	1,0000default loss term (dB/km)	0,3820temperature slope calibration	1,0000multiplexer offset coefficient	1,0000multiplexer slope coefficient	1,0000fibre end	0,00T internal ref (°C)	20,19T ext. ref 1 (°C)	5,02T ext. ref 2 (°C)	4,98length (m)	temperature (°C)	Stokes	anti-Stokes-744,400	137,478	0,020	0,019
-743,385	-71,320	-0,243	0,067
-742,371	-65,362	-0,092	0,027
-741,356	-31,216	-0,123	0,051
-740,342	-107,505	0,036	-0,006
-739,327	200,850	-0,156	0,179
-738,312	130,599	0,074	-0,070
-737,298	-136,617	-0,283	0,024
-736,283	86,448	-0,084	0,069
-735,269	-175,306	-0,203	0,004
-734,254	-135,023	0,057	-0,005
-733,239	-39,786	-0,299	-0,116
-732,225	-200,000	0,025	-0,108
-731,210	-200,000	0,033	0,146
-730,196	-65,287	0,144	-0,043
-729,181	800,000	-0,018	-0,042
-728,167	-99,399	-0,093	0,017
-727,152	148,746	-0,041	0,041
-726,137	51,980	-0,107	0,076
-725,123	-55,038	-0,176	-0,059
-724,108	-200,000	-0,064	-0,230
-723,094	63,564	-0,043	-0,032
-722,079	235,048	0,033	-0,040
-721,064	-200,000	0,008	0,041
-720,050	-80,272	-0,078	-0,019
-719,035	4,387	-0,167	-0,091
-718,021	52,283	-0,142	0,100
-717,006	-14,285	-0,128	-0,061
-715,991	800,000	-0,040	-0,115
-714,977	-97,043	-0,133	0,026
-713,962	-19,328	-0,103	-0,047
-712,948	-200,000	0,014	-0,084
-711,933	-200,000	-0,022	-0,096
-710,918	-74,645	-0,097	-0,026
-709,904	-200,000	0,032	-0,135
-708,889	-200,000	0,006	-0,045
-707,875	-200,000	0,004	-0,042
-706,860	-27,373	-0,062	-0,027
-705,845	147,178	0,046	0,046
-704,831	400,893	0,042	-0,066
-703,816	89,829	-0,128	0,106
-702,802	188,549	-0,038	-0,042
-701,787	753,553	-0,051	-0,104
-700,772	-82,400	0,110	-0,026
-699,758	-143,676	-0,091	0,006
-698,743	389,654	0,033	0,051
-697,729	-116,015	-0,034	0,005
-696,714	121,525	0,105	0,097
-695,699	403,974	-0,019	0,030
-694,685	-200,000	-0,045	-0,169
-693,670	114,799	-0,062	-0,057
-692,656	170,394	0,017	0,018
-691,641	160,798	-0,060	0,062
-690,627	148,991	-0,006	0,006
-689,612	-200,000	0,015	0,070
-688,597	-116,681	0,046	-0,006
-687,583	-55,478	-0,145	0,048
-686,568	800,000	0,011	0,033
-685,554	380,550	-0,029	-0,045
-684,539	647,439	-0,042	0,080
-683,524	94,526	0,079	0,067
-682,510	687,410	-0,039	0,076
-681,495	139,187	-0,143	-0,140
-680,481	-34,438	-0,089	-0,036
-679,466	523,410	0,144	-0,252
-678,451	-200,000	-0,037	-0,168
-677,437	-200,000	0,007	-0,050
-676,422	48,212	-0,100	-0,069
-675,408	-110,014	0,082	0,013
-674,393	-126,539	-0,130	0,014
-673,378	800,000	-0,028	-0,063
-672,364	559,786	-0,081	-0,145
-671,349	-13,083	0,054	0,026
-670,335	-200,000	-0,007	-0,075
-669,320	800,000	-0,009	0,019
-668,305	-95,606	0,150	-0,030
-667,291	85,182	-0,160	0,131
-666,276	522,567	0,070	-0,122
-665,262	800,000	-0,030	-0,069
-664,247	-38,454	-0,127	0,050
-663,232	-110,078	0,111	-0,017
-662,218	238,815	-0,102	-0,126
-661,203	609,873	-0,037	0,070
-660,189	800,000	-0,020	-0,045
-659,174	150,969	0,098	-0,099
-658,159	-68,624	-0,058	-0,017
-657,145	-65,838	-0,108	0,032
-656,130	-138,433	0,038	-0,003
-655,116	-200,000	-0,021	0,123
-654,101	70,732	0,033	0,025
-653,086	505,692	-0,046	-0,079
-652,072	-22,565	0,117	0,052
-651,057	-200,000	-0,005	-0,090
-650,043	-85,788	0,137	0,031
-649,028	-168,510	0,061	-0,002
-648,014	800,000	-0,032	-0,074
-646,999	-87,127	-0,107	-0,024
-645,984	194,424	-0,036	0,041
-644,970	800,000	-0,046	0,110
-643,955	124,205	-0,100	-0,094
-642,941	-41,506	-0,126	-0,048
-641,926	69,600	0,105	0,080
-640,911	668,170	0,099	0,191
-639,897	561,789	0,033	0,060
-638,882	-200,000	0,005	-0,084
-637,868	157,747	-0,023	-0,024
-636,853	317,228	0,079	-0,112
-635,838	-200,000	0,003	0,054
-634,824	-200,000	-0,016	0,099
-633,809	-125,959	0,035	-0,004
-632,795	-200,000	0,000	0,049
-631,780	-73,641	0,032	-0,009
-630,765	83,774	0,011	-0,009
-629,751	-40,997	-0,086	-0,033
-628,736	-175,088	0,130	0,003
-627,722	8,172	-0,119	-0,066
-626,707	25,840	0,035	-0,021
-625,692	-71,148	0,111	-0,031
-624,678	87,579	-0,058	-0,047
-623,663	294,965	-0,070	-0,095
-622,649	29,243	-0,091	0,057
-621,634	559,330	-0,019	-0,035
-620,619	361,230	0,026	-0,039
-619,605	-200,000	0,021	0,104
-618,590	293,363	0,090	0,121
-617,576	244,841	-0,083	0,104
-616,561	800,000	-0,045	0,101
-615,546	-177,553	-0,145	0,003
-614,532	245,949	0,086	-0,108
-613,517	800,000	0,012	-0,027
-612,503	-181,995	-0,156	-0,002
-611,488	-58,062	0,052	0,017
-610,474	544,691	0,033	-0,058
-609,459	-40,302	-0,119	0,046
-608,444	463,896	-0,089	-0,148
-607,430	-200,000	-0,012	-0,163
-606,415	-200,000	-0,036	0,149
-605,401	-63,743	0,014	0,004
-604,386	-67,303	0,088	0,026
-603,371	199,055	-0,083	0,094
-602,357	-91,500	0,057	-0,012
-601,342	53,538	-0,068	-0,048
-600,328	-200,000	-0,000	0,066
-599,313	800,000	0,080	-0,169
-598,298	126,805	-0,046	-0,043
-597,284	800,000	0,000	-0,001
-596,269	-200,000	0,005	0,122
-595,255	-200,000	-0,025	0,173
-594,240	81,092	-0,038	-0,030
-593,225	23,273	-0,141	-0,085
-592,211	800,000	-0,036	0,087
-591,196	-200,000	-0,013	0,046
-590,182	170,406	-0,057	-0,060
-589,167	-126,562	0,107	-0,012
-588,152	70,606	0,054	0,041
-587,138	-77,082	-0,028	0,007
-586,123	209,440	0,048	0,056
-585,109	367,058	0,007	-0,010
-584,094	800,000	0,047	-0,126
-583,079	-55,270	0,105	0,035
-582,065	151,985	0,078	-0,079
-581,050	-90,427	-0,098	-0,021
-580,036	233,970	-0,057	0,069
-579,021	7,591	-0,196	-0,108
-578,006	72,540	0,082	-0,063
-576,992	409,657	-0,092	-0,145
-575,977	121,879	0,011	-0,011
-574,963	532,637	0,015	0,027
-573,948	358,679	0,098	0,146
-572,934	163,023	-0,136	-0,142
-571,919	-186,483	0,066	0,001
-570,904	-16,573	-0,082	0,038
-569,890	-198,313	-0,045	-0,000
-568,875	144,780	0,070	-0,069
-567,861	-200,000	0,044	-0,156
-566,846	-42,035	0,161	-0,061
-565,831	-47,223	-0,065	0,023
-564,817	-200,000	-0,001	-0,020
-563,802	-51,322	0,039	-0,013
-562,788	-71,431	-0,036	-0,010
-561,773	12,981	0,034	0,020
-560,758	-186,529	0,067	-0,001
-559,744	-177,385	0,065	-0,001
-558,729	290,909	0,028	0,038
-557,715	800,000	0,044	-0,110
-556,700	116,316	-0,029	-0,026
-555,685	24,891	-0,046	0,028
-554,671	143,565	-0,050	-0,049
-553,656	-20,659	-0,051	-0,023
-552,642	-200,000	-0,002	-0,022
-551,627	-200,000	0,032	0,177
-550,612	-42,260	0,076	0,028
-549,598	253,189	0,088	-0,112
-548,583	422,825	-0,055	-0,088
-547,569	-200,000	-0,005	-0,127
-546,554	159,207	-0,036	0,037
-545,539	800,000	0,041	0,117
-544,525	-158,188	0,090	-0,004
-543,510	377,822	0,014	0,021
-542,496	-120,520	-0,059	0,007
-541,481	-200,000	0,001	0,067
-540,466	-69,633	0,068	0,019
-539,452	-100,925	0,069	0,012
-538,437	300,878	0,138	-0,189
-537,423	424,759	-0,060	-0,096
-536,408	-200,000	0,008	-0,088
-535,393	349,756	-0,135	-0,197
-534,379	-200,000	0,006	-0,052
-533,364	-104,655	-0,144	0,024
-532,350	800,000	-0,046	0,106
-531,335	461,354	0,018	-0,030
-530,321	-200,000	-0,007	-0,123
-529,306	-137,180	0,047	-0,004
-528,291	800,000	-0,018	0,039
-527,277	-43,242	-0,074	-0,028
-526,262	333,325	-0,024	-0,034
-525,248	526,762	-0,012	-0,020
-524,233	-9,538	-0,057	0,028
-523,218	672,320	-0,058	0,111
-522,204	-57,311	0,132	0,043
-521,189	440,836	-0,071	0,114
-520,175	-6,194	-0,049	0,024
-519,160	171,988	-0,041	-0,044
-518,145	800,000	-0,041	0,106
-517,131	-132,798	0,082	0,008
-516,116	330,941	-0,056	-0,080
-515,102	129,853	-0,005	-0,004
-514,087	-200,000	0,004	-0,043
-513,072	-97,469	-0,080	0,015
-512,058	-200,000	-0,018	0,095
-511,043	200,446	-0,013	-0,015
-510,029	-34,227	0,063	0,025
-509,014	90,621	0,116	0,095
-507,999	244,394	0,114	0,141
-506,985	528,241	0,029	-0,050
-505,970	-200,000	0,018	0,078
-504,956	-74,394	0,067	-0,018
-503,941	479,376	-0,031	0,052
-502,926	-200,000	0,002	0,069
-501,912	-200,000	-0,010	0,089
-500,897	-200,000	0,012	0,100
-499,883	766,339	-0,028	-0,056
-498,868	-93,821	-0,022	0,004
-497,853	800,000	0,019	0,047
-496,839	800,000	0,026	-0,054
-495,824	-50,304	0,056	0,019
-494,810	41,523	0,046	-0,031
-493,795	248,138	-0,077	0,096
-492,781	232,845	0,056	-0,068
-491,766	800,000	-0,013	-0,038
-490,751	800,000	-0,028	0,078
-489,737	800,000	0,069	-0,153
-488,722	800,000	0,034	-0,077
-487,708	-200,000	0,024	0,079
-486,693	-200,000	-0,008	-0,066
-485,678	7,074	-0,107	0,059
-484,664	-200,000	0,006	-0,038
-483,649	800,000	0,035	0,094
-482,635	-40,425	0,065	-0,025
-481,620	-38,352	-0,022	-0,009
-480,605	-200,000	0,034	0,127
-479,591	-200,000	0,012	0,212
-478,576	298,213	-0,033	0,045
-477,562	800,000	-0,039	-0,094
-476,547	467,113	0,039	-0,065
-475,532	800,000	-0,062	-0,170
-474,518	514,907	0,042	0,073
-473,503	-152,201	-0,078	0,004
-472,489	-99,454	0,144	0,026
-471,474	353,731	-0,048	-0,070
-470,459	-86,673	-0,154	0,034
-469,445	-95,523	-0,024	-0,005
-468,430	-154,073	-0,122	-0,006
-467,416	-200,000	-0,028	-0,101
-466,401	-71,485	0,109	0,030
-465,386	488,340	0,023	0,039
-464,372	72,918	0,046	0,035
-463,357	-60,332	-0,084	-0,026
-462,343	93,436	-0,049	-0,041
-461,328	89,011	-0,123	-0,101
-460,313	76,640	0,213	-0,166
-459,299	270,495	0,054	0,070
-458,284	-124,821	0,139	-0,016
-457,270	-44,707	-0,079	-0,029
-456,255	88,322	0,053	0,044
-455,241	-200,000	0,012	0,060
-454,226	122,241	-0,023	0,021
-453,211	-200,000	0,010	-0,075
-452,197	-24,584	-0,113	0,049
-451,182	154,103	0,043	0,043
-450,168	284,298	0,025	-0,034
-449,153	213,909	0,062	-0,072
-448,138	-106,426	0,062	-0,010
-447,124	29,717	-0,106	0,066
-446,109	-64,340	-0,060	-0,018
-445,095	10,507	0,096	-0,054
-444,080	-144,013	0,068	-0,005
-443,065	654,335	-0,081	0,154
-442,051	0,296	-0,107	-0,056
-441,036	170,220	-0,101	-0,106
-440,022	46,306	0,075	-0,051
-439,007	800,000	0,017	0,055
-437,992	-153,749	0,040	0,002
-436,978	-200,000	-0,003	-0,027
-435,963	-78,837	0,109	0,027
-434,949	800,000	0,012	-0,024
-433,934	212,779	0,089	0,103
-432,919	-8,999	-0,131	-0,064
-431,905	202,460	-0,033	0,037
-430,890	-14,847	0,032	-0,015
-429,876	-200,000	0,018	0,104
-428,861	-25,099	-0,062	0,027
-427,846	105,947	0,077	0,067
-426,832	-200,000	-0,021	0,097
-425,817	-181,517	-0,013	-0,000
-424,803	-119,995	-0,077	-0,010
-423,788	103,242	0,096	0,083
-422,773	612,558	0,029	0,054
-421,759	583,370	-0,075	0,136
-420,744	-77,722	-0,092	-0,023
-419,730	235,341	-0,082	0,100
-418,715	9,530	-0,069	-0,038
-417,701	245,985	-0,047	0,059
-416,686	-85,441	0,107	-0,024
-415,671	800,000	-0,027	-0,057
-414,657	367,318	0,066	-0,098
-413,642	-200,000	0,001	0,089
-412,628	-200,000	0,000	-0,112
-411,613	-62,722	0,061	-0,018
-410,598	-200,000	-0,001	0,021
-409,584	-200,000	-0,025	-0,115
-408,569	31,306	0,126	-0,080
-407,555	-107,673	0,086	-0,014
-406,540	669,973	-0,024	0,046
-405,525	134,791	0,010	-0,009
-404,511	-200,000	0,015	-0,084
-403,496	-34,507	0,041	-0,016
-402,482	152,914	-0,072	0,072
-401,467	306,801	-0,011	0,015
-400,452	-83,399	-0,077	-0,018
-399,438	156,262	0,056	0,057
-398,423	-89,223	-0,134	0,029
-397,409	21,937	-0,078	-0,047
-396,394	-95,834	0,082	-0,016
-395,379	800,000	0,023	-0,066
-394,365	27,242	-0,068	0,042
-393,350	800,000	-0,009	-0,026
-392,336	-112,304	0,113	-0,016
-391,321	440,619	0,040	0,064
-390,306	19,912	0,045	-0,026
-389,292	307,145	-0,041	0,056
-388,277	121,628	-0,089	-0,082
-387,263	800,000	0,039	-0,080
-386,248	10,261	0,090	0,050
-385,233	-96,977	-0,178	-0,034
-384,219	-39,843	0,047	-0,018
-383,204	47,062	-0,037	0,025
-382,190	-200,000	0,007	-0,112
-381,175	800,000	-0,078	-0,242
-380,160	-139,756	0,057	0,004
-379,146	746,202	-0,030	0,059
-378,131	-200,000	-0,019	0,207
-377,117	50,063	0,081	0,056
-376,102	800,000	0,095	-0,213
-375,088	-0,879	-0,083	0,043
-374,073	800,000	0,035	-0,104
-373,058	-200,000	-0,007	-0,041
-372,044	-75,355	-0,018	0,005
-371,029	719,294	0,064	0,126
-370,015	633,829	0,036	0,067
-369,000	-10,540	-0,039	0,019
-367,985	-200,000	0,007	0,055
-366,971	-200,000	-0,003	0,019
-365,956	-110,938	0,080	0,012
-364,942	800,000	0,024	0,054
-363,927	-200,000	0,025	0,098
-362,912	800,000	-0,005	-0,015
-361,898	-69,174	0,106	-0,030
-360,883	67,741	0,035	0,026
-359,869	-30,062	0,076	0,032
-358,854	315,796	-0,041	0,057
-357,839	-86,564	0,150	0,033
-356,825	800,000	-0,005	0,010
-355,810	-73,066	0,093	0,025
-354,796	-200,000	-0,017	-0,205
-353,781	-200,000	-0,009	-0,043
-352,766	-96,029	0,015	0,003
-351,752	689,149	0,034	-0,065
-350,737	193,296	-0,017	0,019
-349,723	800,000	0,034	0,099
-348,708	-99,340	0,114	-0,021
-347,693	800,000	-0,045	-0,098
-346,679	-200,000	0,016	0,060
-345,664	441,951	0,052	-0,084
-344,650	611,536	-0,023	-0,043
-343,635	352,286	0,094	0,137
-342,620	800,000	-0,019	0,056
-341,606	426,553	-0,050	-0,080
-340,591	50,392	-0,100	-0,069
-339,577	3,451	0,131	-0,069
-338,562	652,890	-0,053	-0,100
-337,548	-200,000	0,013	0,082
-336,533	285,773	-0,044	-0,059
-335,518	800,000	0,036	0,092
-334,504	-62,085	-0,037	-0,011
-333,489	800,000	0,035	0,112
-332,475	800,000	-0,010	0,022
-331,460	-200,000	-0,019	-0,072
-330,445	-200,000	0,008	-0,130
-329,431	-200,000	0,017	-0,097
-328,416	112,558	0,009	0,008
-327,402	-200,000	0,054	0,196
-326,387	-173,489	0,084	-0,002
-325,372	-96,465	-0,101	-0,019
-324,358	-106,353	-0,125	0,020
-323,343	-7,446	0,081	-0,040
-322,329	-200,000	-0,000	-0,033
-321,314	800,000	0,048	0,103
-320,299	107,257	0,067	0,058
-319,285	-200,000	0,007	0,082
-318,270	18,628	0,031	0,018
-317,256	53,881	-0,122	-0,086
-316,241	-47,824	0,023	-0,008
-315,226	418,986	0,076	0,119
-314,212	122,600	0,073	-0,067
-313,197	-200,000	0,004	-0,031
-312,183	51,841	0,076	-0,053
-311,168	-147,927	-0,065	-0,004
-310,153	-167,779	-0,064	-0,002
-309,139	-200,000	-0,000	-0,030
-308,124	-200,000	-0,018	0,061
-307,110	800,000	0,056	0,168
-306,095	131,979	0,080	0,075
-305,080	727,795	-0,040	0,079
-304,066	-30,413	0,145	0,060
-303,051	-200,000	-0,012	-0,066
-302,037	149,045	-0,071	-0,070
-301,022	-62,700	-0,147	0,044
-300,008	-200,000	0,004	-0,025
-298,993	-200,000	-0,043	0,205
-297,978	-88,576	-0,045	0,010
-296,964	-136,470	0,052	0,004
-295,949	219,416	-0,086	0,101
-294,935	800,000	-0,038	-0,081
-293,920	-88,428	0,047	-0,010
-292,905	62,698	0,108	0,079
-291,891	78,968	-0,057	-0,045
-290,876	800,000	-0,049	0,107
-289,862	-200,000	0,009	0,116
-288,847	323,793	-0,105	-0,147
-287,832	-106,598	-0,104	-0,017
-286,818	-189,716	0,062	0,001
-285,803	275,654	-0,056	0,073
-284,789	-46,457	-0,062	0,022
-283,774	-200,000	-0,000	0,034
-282,759	34,702	0,104	0,066
-281,745	-200,000	0,044	0,167
-280,730	522,808	0,026	-0,045
-279,716	519,836	-0,038	-0,066
-278,701	-200,000	-0,004	0,041
-277,686	9,797	0,051	0,028
-276,672	332,506	-0,022	0,031
-275,657	800,000	0,052	-0,123
-274,643	218,200	-0,181	-0,212
-273,628	800,000	0,084	-0,203
-272,613	-200,000	0,007	-0,075
-271,599	-200,000	-0,003	0,175
-270,584	-93,366	-0,082	-0,017
-269,570	-117,736	0,027	-0,004
-268,555	52,169	0,027	-0,019
-267,540	633,124	-0,049	0,092
-266,526	227,488	-0,039	0,047
-265,511	33,162	0,051	0,032
-264,497	165,514	0,114	-0,118
-263,482	-80,439	0,066	0,016
-262,467	338,921	0,039	-0,056
-261,453	404,311	-0,061	-0,094
-260,438	-200,000	0,023	-0,146
-259,424	12,644	-0,114	-0,064
-258,409	217,717	-0,058	-0,067
-257,395	225,174	0,126	-0,150
-256,380	-200,000	-0,027	0,209
-255,365	486,141	-0,078	0,131
-254,351	800,000	0,015	0,040
-253,336	800,000	-0,041	-0,120
-252,322	241,765	-0,070	0,085
-251,307	191,940	-0,094	0,104
-250,292	-200,000	-0,006	-0,054
-249,278	-200,000	0,100	0,000
-248,263	-200,000	0,001	0,007
-247,249	-16,305	-0,113	-0,052
-246,234	150,763	-0,062	-0,061
-245,219	800,000	-0,033	0,067
-244,205	-99,235	0,058	0,011
-243,190	421,050	0,011	-0,018
-242,176	-70,925	0,184	-0,050
-241,161	800,000	0,037	-0,087
-240,146	469,567	0,135	0,223
-239,132	52,392	-0,121	-0,084
-238,117	203,523	-0,040	-0,046
-237,103	-123,873	-0,076	-0,009
-236,088	-200,000	-0,014	-0,126
-235,073	-107,299	0,116	0,018
-234,059	-200,000	-0,043	-0,183
-233,044	800,000	-0,037	0,075
-232,030	595,812	0,071	0,129
-231,015	-200,000	-0,018	-0,112
-230,000	206,027	-0,073	-0,084
-228,986	214,515	-0,056	0,065
-227,971	317,164	0,115	0,158
-226,957	-153,912	0,060	0,003
-225,942	800,000	0,039	0,089
-224,927	-60,629	-0,170	-0,052
-223,913	99,558	-0,104	-0,088
-222,898	101,547	-0,071	-0,060
-221,884	104,053	0,093	-0,080
-220,869	269,848	-0,018	-0,023
-219,855	-200,000	-0,022	0,104
-218,840	-93,091	0,074	0,015
-217,825	704,949	0,011	-0,022
-216,811	-200,000	0,023	-0,172
-215,796	453,627	0,064	-0,104
-214,782	145,239	0,033	-0,032
-213,767	-85,815	0,062	0,014
-212,752	567,468	0,021	0,038
-211,738	260,675	0,086	0,109
-210,723	123,117	-0,047	-0,043
-209,709	-95,567	-0,064	0,012
-208,694	-200,000	-0,003	-0,072
-207,679	-200,000	-0,012	0,187
-206,665	459,738	-0,058	0,094
-205,650	-71,251	-0,046	-0,013
-204,636	142,770	-0,059	0,057
-203,621	472,816	-0,015	0,025
-202,606	-4,006	0,113	-0,057
-201,592	-200,000	-0,001	-0,043
-200,577	-79,269	-0,111	-0,027
-199,563	-105,651	0,179	0,029
-198,548	-188,026	0,021	-0,000
-197,533	280,406	0,125	0,163
-196,519	494,971	0,029	-0,049
-195,504	-200,000	-0,007	0,062
-194,490	-184,052	-0,107	-0,001
-193,475	23,821	-0,073	-0,044
-192,460	-200,000	0,007	0,082
-191,446	-200,000	0,014	0,148
-190,431	800,000	0,019	-0,057
-189,417	-85,763	0,062	-0,014
-188,402	-200,000	0,038	-0,152
-187,387	-200,000	-0,002	-0,136
-186,373	800,000	-0,043	-0,092
-185,358	220,392	0,095	-0,111
-184,344	206,997	0,058	-0,066
-183,329	-200,000	0,031	0,152
-182,315	-17,930	-0,069	-0,031
-181,300	-154,967	-0,129	-0,006
-180,285	-200,000	0,005	0,017
-179,271	-66,924	-0,083	0,024
-178,256	321,156	-0,024	0,033
-177,242	136,489	0,091	0,087
-176,227	-95,181	0,046	0,009
-175,212	800,000	-0,029	0,090
-174,198	236,181	-0,061	0,073
-173,183	-149,701	0,031	-0,002
-172,169	-50,092	0,049	0,017
-171,154	-200,000	-0,019	-0,087
-170,139	-200,000	-0,029	0,098
-169,125	-200,000	-0,009	0,099
-168,110	800,000	0,062	0,129
-167,096	-200,000	-0,040	-0,144
-166,081	800,000	-0,081	-0,228
-165,066	-13,724	0,072	-0,034
-164,052	-34,463	-0,171	0,068
-163,037	-15,165	-0,063	-0,029
-162,023	-200,000	-0,002	0,018
-161,008	-200,000	0,011	0,053
-159,993	-10,913	-0,045	0,021
-158,979	-200,000	-0,040	-0,133
-157,964	-101,521	0,043	-0,008
-156,950	-200,000	0,005	0,034
-155,935	-29,317	-0,050	0,021
-154,920	800,000	0,015	0,042
-153,906	-200,000	-0,002	0,041
-152,891	153,783	0,043	0,043
-151,877	-200,000	0,005	0,068
-150,862	-38,408	-0,053	-0,020
-149,847	-36,764	-0,037	-0,014
-148,833	698,082	0,032	0,062
-147,818	-11,031	0,127	0,061
-146,804	433,234	-0,036	0,056
-145,789	-200,000	0,004	-0,071
-144,775	123,670	0,031	-0,029
-143,760	62,563	0,042	0,030
-142,745	-200,000	0,017	0,064
-141,731	-88,964	0,042	0,009
-140,716	-37,730	-0,082	-0,031
-139,702	82,968	0,141	-0,112
-138,687	-171,806	0,136	-0,003
-137,672	267,120	-0,025	0,032
-136,658	800,000	-0,055	-0,112
-135,643	-200,000	0,021	-0,082
-134,629	156,202	-0,104	0,104
-133,614	-138,484	0,113	-0,009
-132,599	-41,083	0,090	0,034
-131,585	800,000	0,020	-0,061
-130,570	-200,000	-0,013	0,147
-129,556	7,281	-0,082	-0,044
-128,541	800,000	-0,017	0,045
-127,526	-56,300	0,167	0,054
-126,512	800,000	0,053	0,161
-125,497	131,145	0,093	0,087
-124,483	172,095	0,055	0,057
-123,468	-60,239	-0,091	0,028
-122,453	-17,128	-0,084	-0,038
-121,439	18,413	0,052	0,030
-120,424	426,365	-0,036	0,056
