DTS Sentinel unit serial number:	SN410029Multiplexer serial number:	ORYXHardware model number:	OX2-SRSoftware version number:	ORYX F/W v4,00 Oryx Data Collector v3.7.2.0data status	okinstallation	B4 Nyhavnadifferential loss correction	single-endedforward channel	channel 2reverse channel	N/Adate	2023/12/15time	17:05:13forward acquisition time	300,00reverse acquisition time	0,00gamma	499,1914k internal	0,3142k external	0,3142temperature offset calibration	1,0000default loss term (dB/km)	0,3820temperature slope calibration	1,0000multiplexer offset coefficient	1,0000multiplexer slope coefficient	1,0000fibre end	0,00T internal ref (°C)	18,04T ext. ref 1 (°C)	3,82T ext. ref 2 (°C)	3,92length (m)	temperature (°C)	Stokes	anti-Stokes-744,400	-200,000	0,029	0,138
-743,385	-57,430	-0,282	0,091
-742,371	800,000	0,022	0,058
-741,356	-65,696	-0,333	0,098
-740,342	-200,000	-0,012	0,078
-739,327	-51,682	-0,244	0,084
-738,312	287,121	0,043	-0,058
-737,298	-1,265	-0,264	0,138
-736,283	181,594	0,112	0,123
-735,269	-168,833	-0,222	0,006
-734,254	219,398	0,056	0,066
-733,239	-34,676	-0,299	-0,121
-732,225	-90,577	0,129	0,027
-731,210	800,000	-0,034	0,110
-730,196	51,244	-0,066	0,046
-729,181	55,864	-0,083	0,059
-728,167	68,566	-0,182	0,138
-727,152	800,000	0,059	0,122
-726,137	2,000	-0,056	-0,030
-725,123	278,709	-0,102	-0,135
-724,108	-200,000	0,014	0,056
-723,094	239,514	-0,097	-0,120
-722,079	-150,890	-0,093	0,005
-721,064	91,161	-0,033	0,027
-720,050	-200,000	-0,002	-0,072
-719,035	-196,907	-0,045	-0,000
-718,021	-200,000	-0,007	0,073
-717,006	800,000	-0,047	-0,130
-715,991	-200,000	-0,008	-0,048
-714,977	-159,166	-0,045	0,002
-713,962	-49,556	-0,034	0,012
-712,948	720,565	-0,041	0,081
-711,933	-34,063	-0,098	0,040
-710,918	12,896	-0,061	-0,035
-709,904	-52,182	0,063	-0,021
-708,889	370,342	0,014	-0,022
-707,875	92,663	-0,081	-0,068
-706,860	486,584	0,015	-0,025
-705,845	-63,637	0,144	-0,043
-704,831	285,918	0,068	0,091
-703,816	-200,000	0,002	-0,040
-702,802	-61,282	0,081	0,025
-701,787	-131,779	-0,245	-0,023
-700,772	-200,000	0,027	-0,172
-699,758	148,929	-0,050	-0,050
-698,743	-32,883	0,090	0,037
-697,729	800,000	0,029	0,081
-696,714	9,945	0,065	-0,036
-695,699	-180,213	-0,080	0,001
-694,685	-20,201	-0,052	-0,024
-693,670	11,110	-0,074	0,041
-692,656	-41,896	-0,159	-0,060
-691,641	-200,000	0,001	0,100
-690,627	800,000	-0,056	0,122
-689,612	99,161	-0,059	0,051
-688,597	800,000	0,006	0,013
-687,583	800,000	0,023	-0,056
-686,568	-59,075	-0,159	0,050
-685,554	136,924	0,039	0,038
-684,539	176,280	-0,052	0,055
-683,524	253,954	-0,041	0,051
-682,510	266,974	0,032	-0,041
-681,495	-95,902	-0,080	-0,016
-680,481	-200,000	-0,030	0,128
-679,466	-200,000	-0,026	0,085
-678,451	458,857	0,094	-0,155
-677,437	800,000	0,024	-0,066
-676,422	-79,391	0,026	-0,006
-675,408	158,950	-0,127	-0,130
-674,393	800,000	0,019	-0,054
-673,378	-35,590	-0,075	0,030
-672,364	174,202	0,068	-0,073
-671,349	-200,000	0,044	0,171
-670,335	167,222	-0,036	0,038
-669,320	-37,466	0,042	0,016
-668,305	222,140	0,044	0,052
-667,291	-125,304	-0,025	0,003
-666,276	-200,000	-0,016	-0,178
-665,262	-173,150	0,030	0,001
-664,247	8,152	-0,147	0,081
-663,232	-92,642	-0,106	0,022
-662,218	-28,508	0,111	0,047
-661,203	-18,190	-0,092	0,042
-660,189	-200,000	-0,020	0,067
-659,174	88,268	-0,089	-0,073
-658,159	-87,376	-0,138	-0,031
-657,145	346,834	-0,059	-0,086
-656,130	800,000	0,043	0,109
-655,116	-134,440	0,096	0,009
-654,101	-37,889	-0,140	0,055
-653,086	-17,623	0,087	0,040
-652,072	22,532	-0,067	-0,040
-651,057	-123,498	-0,146	-0,017
-650,043	110,567	0,122	-0,109
-649,028	-200,000	0,002	0,076
-648,014	-200,000	0,019	0,066
-646,999	-200,000	-0,000	0,072
-645,984	271,813	-0,053	-0,069
-644,970	800,000	0,038	-0,105
-643,955	3,231	-0,160	-0,086
-642,941	-191,652	0,019	0,000
-641,926	-137,311	0,086	0,007
-640,911	272,864	-0,051	0,067
-639,897	52,614	-0,118	-0,083
-638,882	800,000	0,064	-0,160
-637,868	168,496	0,057	-0,060
-636,853	800,000	-0,059	-0,124
-635,838	-200,000	-0,000	-0,145
-634,824	800,000	-0,032	-0,078
-633,809	7,705	0,189	-0,104
-632,795	-200,000	-0,018	-0,112
-631,780	-17,684	0,060	-0,028
-630,765	-139,686	-0,073	0,006
-629,751	110,694	-0,133	-0,118
-628,736	800,000	0,067	-0,187
-627,722	-200,000	-0,019	-0,101
-626,707	-108,714	-0,130	0,020
-625,692	800,000	-0,034	0,098
-624,678	-200,000	0,003	-0,079
-623,663	0,307	-0,107	0,056
-622,649	-115,038	-0,084	0,012
-621,634	-200,000	-0,006	-0,044
-620,619	-147,922	-0,076	-0,005
-619,605	-200,000	-0,038	0,191
-618,590	-200,000	-0,012	-0,062
-617,576	73,092	0,045	0,035
-616,561	11,927	0,079	-0,045
-615,546	-2,483	0,023	-0,012
-614,532	-175,462	0,081	-0,002
-613,517	143,623	0,109	-0,107
-612,503	39,063	0,066	0,044
-611,488	-200,000	0,010	0,065
-610,474	-124,530	-0,008	-0,001
-609,459	-81,866	0,057	0,014
-608,444	-9,981	-0,109	-0,053
-607,430	800,000	0,043	-0,116
-606,415	-21,234	-0,089	-0,040
-605,401	-200,000	-0,007	0,037
-604,386	254,763	-0,039	-0,049
-603,371	478,055	0,025	0,042
-602,357	130,151	-0,036	-0,034
-601,342	370,678	-0,029	0,043
-600,328	-46,084	0,018	-0,006
-599,313	800,000	-0,008	0,027
-598,298	11,877	-0,142	-0,080
-597,284	-200,000	0,018	-0,114
-596,269	214,012	-0,072	0,084
-595,255	-140,537	-0,169	-0,013
-594,240	-164,713	-0,102	-0,003
-593,225	385,591	-0,064	-0,098
-592,211	-21,043	-0,054	-0,024
-591,196	-12,925	-0,075	0,036
-590,182	694,955	0,010	-0,019
-589,167	-200,000	-0,012	-0,140
-588,152	-164,360	-0,056	0,002
-587,138	-200,000	-0,042	-0,196
-586,123	-75,976	-0,052	0,014
-585,109	326,457	-0,036	-0,051
-584,094	136,377	-0,045	0,043
-583,079	402,556	-0,034	0,052
-582,065	145,919	0,108	0,107
-581,050	146,642	-0,035	0,034
-580,036	100,412	-0,043	-0,037
-579,021	-163,167	0,087	0,003
-578,006	225,427	-0,084	-0,100
-576,992	-200,000	0,000	-0,108
-575,977	137,723	0,184	-0,177
-574,963	-200,000	0,027	-0,103
-573,948	316,821	-0,074	0,104
-572,934	134,219	-0,076	0,073
-571,919	672,646	-0,047	-0,090
-570,904	-200,000	0,027	0,116
-569,890	-200,000	-0,010	-0,124
-568,875	-113,260	0,105	-0,015
-567,861	274,394	0,046	-0,061
-566,846	800,000	0,065	0,167
-565,831	62,054	0,060	0,044
-564,817	-89,165	-0,122	-0,026
-563,802	-200,000	-0,014	-0,053
-562,788	467,494	0,073	0,121
-561,773	800,000	0,025	0,054
-560,758	430,803	0,020	0,033
-559,744	800,000	0,031	0,073
-558,729	-69,534	0,062	0,017
-557,715	21,089	-0,057	-0,034
-556,700	-32,281	-0,117	0,048
-555,685	35,847	-0,032	-0,020
-554,671	-177,275	0,116	0,002
-553,656	-105,396	0,154	-0,026
-552,642	-200,000	0,026	0,112
-551,627	285,641	0,036	0,047
-550,612	800,000	0,022	-0,052
-549,598	800,000	0,045	-0,110
-548,583	7,459	-0,070	-0,039
-547,569	0,821	0,102	-0,054
-546,554	146,887	-0,072	0,071
-545,539	-200,000	0,011	0,102
-544,525	68,808	0,055	-0,041
-543,510	-49,619	0,009	-0,003
-542,496	44,896	0,077	0,052
-541,481	-200,000	-0,007	-0,025
-540,466	609,396	0,044	0,082
-539,452	48,774	0,093	-0,064
-538,437	-200,000	-0,010	0,159
-537,423	-200,000	0,047	0,183
-536,408	-200,000	-0,032	-0,124
-535,393	18,541	-0,007	-0,004
-534,379	22,913	-0,123	-0,074
-533,364	49,502	0,061	0,042
-532,350	-37,533	-0,048	0,019
-531,335	33,133	0,063	0,040
-530,321	179,975	-0,105	0,113
-529,306	-131,226	-0,150	-0,014
-528,291	4,500	-0,135	-0,073
-527,277	34,160	-0,157	-0,100
-526,262	463,460	0,089	0,147
-525,248	-116,764	0,063	-0,008
-524,233	5,274	0,046	-0,025
-523,218	-130,349	0,145	0,014
-522,204	-200,000	-0,011	-0,039
-521,189	-65,186	-0,020	0,006
-520,175	-149,814	-0,131	-0,007
-519,160	151,973	-0,041	0,041
-518,145	-89,010	-0,090	0,019
-517,131	353,923	-0,039	0,057
-516,116	22,630	-0,046	0,028
-515,102	-200,000	0,018	0,072
-514,087	-93,853	-0,067	0,013
-513,072	-200,000	0,009	-0,055
-512,058	659,489	0,008	-0,015
-511,043	-200,000	-0,019	-0,142
-510,029	99,738	0,074	-0,063
-509,014	415,881	-0,064	-0,100
-507,999	247,392	0,052	0,064
-506,985	-50,567	-0,048	0,016
-505,970	-191,216	-0,045	0,000
-504,956	-88,241	0,047	-0,010
-503,941	-101,351	0,054	0,010
-502,926	693,674	-0,084	0,162
-501,912	-8,357	-0,121	0,060
-500,897	-4,069	0,062	0,032
-499,883	241,073	-0,025	0,030
-498,868	-200,000	-0,005	-0,054
-497,853	-200,000	-0,037	-0,147
-496,839	-200,000	-0,004	0,146
-495,824	-33,070	0,045	-0,018
-494,810	-137,483	0,027	0,002
-493,795	-122,707	0,048	0,006
-492,781	236,668	-0,113	-0,137
-491,766	-200,000	-0,017	-0,107
-490,751	123,551	0,080	0,074
-489,737	-200,000	-0,025	0,112
-488,722	2,082	0,158	0,083
-487,708	-200,000	0,000	0,042
-486,693	-200,000	0,004	0,062
-485,678	97,856	-0,105	-0,089
-484,664	-200,000	-0,038	-0,161
-483,649	-115,238	0,083	0,011
-482,635	-200,000	0,025	0,146
-481,620	800,000	-0,002	-0,006
-480,605	565,685	-0,055	-0,099
-479,591	-200,000	0,015	0,234
-478,576	-14,151	0,079	0,037
-477,562	-18,004	0,079	-0,036
-476,547	800,000	-0,009	-0,023
-475,532	293,492	-0,062	0,083
-474,518	217,774	-0,053	0,062
-473,503	800,000	0,032	-0,088
-472,489	79,687	0,063	-0,049
-471,474	214,009	0,090	-0,105
-470,459	-200,000	-0,002	0,015
-469,445	800,000	-0,062	-0,150
-468,430	-200,000	0,001	-0,083
-467,416	800,000	0,058	-0,119
-466,401	-118,160	0,057	-0,007
-465,386	301,672	-0,073	-0,099
-464,372	-35,505	-0,031	0,012
-463,357	800,000	0,049	-0,133
-462,343	-58,193	-0,131	0,042
-461,328	-39,554	0,069	0,026
-460,313	800,000	0,007	-0,018
-459,299	-46,627	0,092	0,033
-458,284	215,899	0,071	-0,082
-457,270	-96,404	0,102	-0,020
-456,255	-61,108	-0,109	-0,033
-455,241	800,000	-0,038	-0,109
-454,226	-200,000	-0,001	0,066
-453,211	800,000	-0,007	0,021
-452,197	239,632	0,043	0,052
-451,182	-56,782	-0,074	-0,024
-450,168	800,000	0,013	0,035
-449,153	8,471	-0,121	-0,066
-448,138	213,480	-0,043	0,049
-447,124	-200,000	-0,032	-0,128
-446,109	-175,656	0,099	-0,002
-445,095	800,000	0,031	0,085
-444,080	300,986	0,063	0,086
-443,065	-200,000	-0,010	0,125
-442,051	34,171	0,027	0,017
-441,036	-33,690	0,044	0,018
-440,022	-200,000	-0,017	-0,087
-439,007	-200,000	0,022	-0,085
-437,992	1,162	0,057	-0,030
-436,978	-200,000	0,009	0,155
-435,963	-200,000	-0,010	0,125
-434,949	-88,797	-0,042	0,009
-433,934	800,000	-0,018	0,039
-432,919	800,000	-0,033	-0,103
-431,905	-30,703	-0,123	-0,051
-430,890	800,000	0,065	0,160
-429,876	-140,742	0,124	-0,009
-428,861	-200,000	-0,021	0,099
-427,846	74,863	-0,114	-0,088
-426,832	776,656	0,062	-0,125
-425,817	-152,199	-0,032	0,002
-424,803	229,285	-0,039	0,047
-423,788	82,967	0,086	0,068
-422,773	68,056	0,079	-0,059
-421,759	-52,134	-0,059	-0,020
-420,744	133,037	-0,046	-0,044
-419,730	256,172	-0,061	0,077
-418,715	273,641	-0,078	0,101
-417,701	420,977	-0,031	0,049
-416,686	332,150	-0,117	0,165
-415,671	-200,000	0,032	0,188
-414,657	311,090	0,084	0,115
-413,642	-97,432	-0,033	-0,006
-412,628	-200,000	0,004	0,019
-411,613	94,819	-0,026	-0,022
-410,598	-145,397	-0,096	-0,006
-409,584	-200,000	0,013	0,086
-408,569	144,927	0,057	0,056
-407,555	-83,587	0,186	0,043
-406,540	-96,395	-0,174	-0,033
-405,525	20,232	0,059	0,035
-404,511	-133,874	0,092	-0,008
-403,496	-82,690	-0,033	0,008
-402,482	648,762	0,017	0,032
-401,467	800,000	-0,064	0,173
-400,452	-81,697	0,109	-0,026
-399,438	800,000	-0,008	0,024
-398,423	800,000	-0,024	-0,061
-397,409	-200,000	0,000	0,020
-396,394	101,921	-0,016	-0,013
-395,379	169,353	-0,082	0,086
-394,365	-43,389	0,111	-0,041
-393,350	800,000	-0,078	0,211
-392,336	105,873	0,075	0,065
-391,321	109,710	-0,031	-0,027
-390,306	800,000	0,046	-0,128
-389,292	-200,000	-0,003	0,054
-388,277	-94,057	0,160	-0,032
-387,263	800,000	-0,036	0,090
-386,248	31,835	0,141	-0,088
-385,233	526,150	-0,043	-0,074
-384,219	-65,308	-0,006	0,002
-383,204	170,356	0,052	-0,054
-382,190	-200,000	-0,028	-0,097
-381,175	244,665	-0,055	-0,068
-380,160	103,744	0,117	0,101
-379,146	507,542	0,041	-0,070
-378,131	-200,000	0,016	-0,085
-377,117	-33,449	-0,143	-0,057
-376,102	-200,000	0,013	-0,124
-375,088	-200,000	-0,034	-0,136
-374,073	-136,147	0,079	-0,007
-373,058	790,617	0,053	0,107
-372,044	-200,000	0,018	0,103
-371,029	211,041	0,078	-0,090
-370,015	-18,617	0,073	0,033
-369,000	140,474	-0,088	0,085
-367,985	144,869	-0,089	0,087
-366,971	-40,617	-0,045	0,017
-365,956	44,977	0,072	0,048
-364,942	-80,573	0,064	0,015
-363,927	134,913	0,112	0,106
-362,912	-62,158	-0,110	-0,033
-361,898	-11,949	-0,082	0,039
-360,883	-200,000	0,013	-0,044
-359,869	-40,514	0,089	-0,034
-358,854	-130,442	-0,043	0,004
-357,839	39,623	0,059	0,038
-356,825	126,941	0,071	0,066
-355,810	201,837	-0,091	0,103
-354,796	-123,608	0,049	-0,006
-353,781	10,078	0,100	-0,055
-352,766	280,680	-0,045	-0,058
-351,752	-200,000	0,037	-0,228
-350,737	-156,937	0,110	-0,005
-349,723	-200,000	-0,009	0,113
-348,708	-200,000	0,012	0,109
-347,693	191,929	0,088	0,097
-346,679	-200,000	-0,017	-0,066
-345,664	-200,000	-0,009	-0,112
-344,650	-88,196	-0,036	0,008
-343,635	-5,334	-0,103	0,051
-342,620	331,493	-0,042	0,059
-341,606	-200,000	0,014	0,052
-340,591	-158,576	0,090	0,004
-339,577	-28,017	0,044	-0,019
-338,562	800,000	0,040	0,110
-337,548	-28,411	0,010	-0,004
-336,533	129,200	0,072	-0,067
-335,518	342,341	0,069	0,099
-334,504	-200,000	-0,008	-0,104
-333,489	-200,000	-0,019	-0,074
-332,475	-200,000	0,027	0,122
-331,460	198,048	-0,056	0,062
-330,445	-29,760	0,138	0,057
-329,431	-15,046	-0,157	0,073
-328,416	-200,000	0,022	0,075
-327,402	-122,761	-0,070	-0,008
-326,387	445,056	-0,041	-0,066
-325,372	260,673	0,038	-0,048
-324,358	712,927	-0,073	0,141
-323,343	56,639	-0,056	-0,040
-322,329	-59,669	0,038	-0,012
-321,314	800,000	0,026	0,062
-320,299	9,078	-0,100	0,055
-319,285	800,000	-0,014	0,045
-318,270	668,355	-0,049	-0,092
-317,256	-200,000	-0,025	0,093
-316,241	-71,738	0,058	-0,016
-315,226	-122,566	-0,056	0,007
-314,212	-79,547	-0,066	0,016
-313,197	0,035	0,070	0,036
-312,183	-200,000	0,019	-0,095
-311,168	309,432	-0,105	0,143
-310,153	178,487	-0,070	-0,075
-309,139	800,000	0,043	-0,097
-308,124	123,456	0,038	-0,035
-307,110	231,238	0,034	0,041
-306,095	50,615	0,135	0,093
-305,080	800,000	0,048	0,101
-304,066	39,712	0,061	-0,040
-303,051	604,189	0,061	-0,112
-302,037	800,000	0,012	-0,037
-301,022	712,181	-0,034	-0,066
-300,008	-200,000	-0,000	-0,016
-298,993	-31,847	0,056	0,023
-297,978	195,330	-0,021	0,023
-296,964	135,763	-0,061	-0,058
-295,949	-123,879	0,039	0,004
-294,935	800,000	-0,036	-0,088
-293,920	138,307	-0,148	0,141
-292,905	-200,000	0,010	-0,040
-291,891	-21,776	-0,104	-0,046
-290,876	-200,000	0,023	-0,104
-289,862	800,000	-0,030	0,066
-288,847	95,340	-0,120	-0,100
-287,832	-37,554	-0,054	0,021
-286,818	-146,115	-0,046	0,003
-285,803	-200,000	-0,006	0,028
-284,789	-150,513	0,063	-0,003
-283,774	-42,795	-0,094	-0,034
-282,759	558,000	-0,050	-0,088
-281,745	-5,181	-0,039	0,019
-280,730	800,000	0,026	-0,064
-279,716	-200,000	-0,035	-0,139
-278,701	557,402	-0,032	-0,057
-277,686	800,000	0,075	0,154
-276,672	-200,000	0,007	-0,034
-275,657	800,000	0,034	-0,072
-274,643	78,610	-0,103	-0,080
-273,628	381,042	-0,037	0,055
-272,613	3,406	0,119	-0,063
-271,599	40,066	0,069	0,045
-270,584	114,799	-0,019	-0,017
-269,570	329,755	0,065	-0,091
-268,555	-194,851	0,078	-0,000
-267,540	31,018	-0,097	-0,061
-266,526	-200,000	0,038	0,140
-265,511	620,548	-0,039	-0,072
-264,497	800,000	0,030	0,060
-263,482	-200,000	0,004	0,090
-262,467	555,377	0,044	0,077
-261,453	-200,000	-0,000	0,065
-260,438	13,157	-0,088	0,049
-259,424	-0,328	-0,097	-0,050
-258,409	-200,000	0,008	-0,109
-257,395	289,331	0,076	0,101
-256,380	800,000	0,045	0,097
-255,365	-176,404	0,218	0,004
-254,351	-200,000	-0,008	0,044
-253,336	800,000	0,005	-0,015
-252,322	-200,000	0,002	0,038
-251,307	147,163	-0,083	-0,082
-250,292	-200,000	-0,027	0,090
-249,278	-2,151	0,069	0,035
-248,263	30,949	0,121	-0,075
-247,249	4,448	0,010	-0,005
-246,234	314,996	-0,053	-0,073
-245,219	121,618	-0,081	-0,073
-244,205	12,604	0,045	-0,025
-243,190	-200,000	-0,040	-0,144
-242,176	63,713	-0,075	-0,055
-241,161	-0,087	0,188	0,097
-240,146	-95,954	0,173	0,033
-239,132	800,000	0,011	-0,029
-238,117	97,382	-0,096	-0,080
-237,103	-89,200	0,045	-0,010
-236,088	-200,000	-0,016	-0,062
-235,073	104,509	0,101	0,086
-234,059	-100,058	-0,063	0,011
-233,044	390,740	0,041	-0,062
-232,030	34,467	0,021	0,014
-231,015	800,000	-0,031	-0,065
-230,000	245,277	-0,077	0,095
-228,986	-33,769	0,110	-0,044
-227,971	-107,995	0,076	-0,012
-226,957	653,659	0,073	0,136
-225,942	-200,000	0,032	0,185
-224,927	14,433	-0,041	0,023
-223,913	622,624	-0,019	-0,035
-222,898	-30,543	-0,114	-0,047
-221,884	-65,941	-0,081	0,023
-220,869	800,000	0,028	0,066
-219,855	-122,941	0,038	-0,004
-218,840	502,994	0,085	0,143
-217,825	170,822	0,062	0,064
-216,811	-200,000	0,031	-0,104
-215,796	-200,000	0,027	-0,138
-214,782	439,534	0,044	-0,070
-213,767	-42,854	0,093	-0,034
-212,752	111,044	0,032	0,028
-211,738	71,433	-0,084	-0,063
-210,723	665,699	0,019	0,036
-209,709	-200,000	-0,034	-0,123
-208,694	-200,000	0,015	-0,104
-207,679	800,000	0,035	0,082
-206,665	161,693	0,048	-0,049
-205,650	800,000	0,020	0,056
-204,636	92,240	0,053	-0,043
-203,621	-108,407	0,089	0,014
-202,606	-70,176	-0,141	-0,039
-201,592	86,784	0,047	-0,037
-200,577	-200,000	0,009	-0,082
-199,563	488,691	-0,083	0,139
-198,548	-92,000	0,089	0,018
-197,533	-200,000	-0,020	0,185
-196,519	-200,000	-0,000	0,011
-195,504	-7,087	-0,080	0,039
-194,490	-200,000	0,015	-0,052
-193,475	-56,319	-0,081	-0,026
-192,460	117,375	-0,046	-0,041
-191,446	-200,000	0,004	0,044
-190,431	-67,325	-0,114	0,032
-189,417	36,486	0,058	-0,037
-188,402	-157,063	0,095	0,004
-187,387	-200,000	0,022	-0,216
-186,373	312,834	0,024	0,033
-185,358	482,400	-0,047	-0,078
-184,344	-200,000	0,024	0,096
-183,329	-45,690	0,088	0,031
-182,315	286,566	0,043	-0,056
-181,300	260,465	0,047	-0,059
-180,285	220,339	-0,045	0,052
-179,271	71,304	-0,099	0,075
-178,256	60,789	0,021	-0,015
-177,242	-200,000	-0,006	0,063
-176,227	151,257	0,068	0,067
-175,212	266,441	0,046	0,058
-174,198	173,958	-0,150	0,157
-173,183	-7,354	-0,129	0,063
-172,169	-94,852	-0,062	-0,012
-171,154	182,570	-0,072	0,077
-170,139	-200,000	0,012	0,156
-169,125	249,627	0,039	0,049
-168,110	-200,000	-0,004	-0,034
-167,096	-200,000	-0,000	-0,119
-166,081	-58,199	0,179	-0,056
-165,066	295,496	-0,100	0,132
-164,052	800,000	0,011	-0,035
-163,037	-200,000	-0,007	-0,044
-162,023	-150,819	-0,061	-0,003
-161,008	248,847	0,100	0,123
-159,993	-200,000	-0,001	-0,092
-158,979	-200,000	0,012	0,040
-157,964	82,821	-0,102	0,080
-156,950	-67,137	-0,062	0,018
-155,935	18,447	0,077	-0,044
-154,920	249,453	-0,081	0,100
-153,906	800,000	0,023	-0,059
-152,891	582,298	0,030	-0,053
-151,877	800,000	0,056	-0,117
-150,862	498,507	-0,041	-0,069
-149,847	-114,002	-0,209	-0,029
-148,833	800,000	0,025	-0,061
-147,818	-46,123	0,047	-0,017
-146,804	-152,825	0,017	-0,001
-145,789	-45,829	0,089	-0,032
-144,775	-102,372	-0,082	-0,014
-143,760	141,036	-0,074	0,071
-142,745	-70,522	-0,034	0,009
-141,731	-200,000	0,001	0,047
-140,716	800,000	0,047	0,106
-139,702	797,723	0,041	-0,082
-138,687	4,254	-0,118	0,062
-137,672	-15,530	0,065	0,030
-136,658	-200,000	0,005	0,029
-135,643	-200,000	-0,006	-0,064
-134,629	40,784	0,038	0,025
-133,614	226,752	0,072	-0,084
-132,599	-200,000	-0,000	0,091
-131,585	-200,000	-0,012	0,111
-130,570	65,630	-0,070	-0,051
-129,556	800,000	0,022	-0,049
-128,541	67,861	-0,099	-0,073
-127,526	-137,392	-0,072	0,006
-126,512	67,929	0,073	-0,054
-125,497	8,997	0,098	-0,053
-124,483	-200,000	0,015	0,064
-123,468	150,356	-0,035	-0,034
-122,453	233,073	-0,087	0,104
-121,439	800,000	0,015	-0,042
-120,424	800,000	-0,025	-0,054
-119,410	240,756	0,060	-0,073
-118,395	-99,386	-0,097	-0,017
