DTS Sentinel unit serial number:	SN410029Multiplexer serial number:	ORYXHardware model number:	OX2-SRSoftware version number:	ORYX F/W v4,00 Oryx Data Collector v3.7.2.0data status	okinstallation	B4 Nyhavnadifferential loss correction	single-endedforward channel	channel 2reverse channel	N/Adate	2023/12/18time	14:50:13forward acquisition time	300,00reverse acquisition time	0,00gamma	499,1914k internal	0,3221k external	0,3221temperature offset calibration	1,0000default loss term (dB/km)	0,3820temperature slope calibration	1,0000multiplexer offset coefficient	1,0000multiplexer slope coefficient	1,0000fibre end	0,00T internal ref (°C)	8,77T ext. ref 1 (°C)	7,24T ext. ref 2 (°C)	7,32length (m)	temperature (°C)	Stokes	anti-Stokes-744,400	128,787	0,066	0,061
-743,385	-42,290	-0,312	-0,114
-742,371	1,682	0,176	0,091
-741,356	-29,752	-0,393	-0,161
-740,342	-151,933	0,286	0,015
-739,327	-9,559	-0,460	-0,221
-738,312	-22,614	0,191	0,083
-737,298	-69,375	-0,458	-0,126
-736,283	165,733	0,141	0,144
-735,269	-91,116	-0,409	-0,084
-734,254	-78,409	0,226	0,056
-733,239	48,052	-0,665	-0,449
-732,225	-21,195	0,339	0,149
-731,210	57,581	-0,047	-0,033
-730,196	-8,956	-0,089	-0,043
-729,181	173,815	-0,017	-0,017
-728,167	221,752	0,070	-0,082
-727,152	800,000	-0,012	0,033
-726,137	221,864	-0,116	-0,134
-725,123	800,000	0,074	-0,176
-724,108	361,967	-0,129	-0,187
-723,094	768,226	-0,039	-0,077
-722,079	4,234	0,069	0,036
-721,064	-41,738	-0,084	0,031
-720,050	-79,401	-0,159	0,038
-719,035	234,401	-0,010	0,012
-718,021	58,853	-0,093	0,066
-717,006	-149,980	-0,073	0,004
-715,991	-200,000	0,013	-0,059
-714,977	540,781	-0,055	-0,095
-713,962	-110,408	-0,171	0,025
-712,948	-200,000	-0,019	-0,276
-711,933	747,889	0,034	0,067
-710,918	13,241	0,107	-0,060
-709,904	800,000	-0,025	-0,051
-708,889	-200,000	-0,019	-0,141
-707,875	-1,301	-0,084	0,043
-706,860	-200,000	-0,005	-0,049
-705,845	204,580	-0,091	-0,102
-704,831	-200,000	-0,059	0,191
-703,816	800,000	-0,021	0,046
-702,802	449,112	-0,039	0,062
-701,787	231,633	-0,058	-0,069
-700,772	-200,000	0,013	-0,065
-699,758	740,458	0,015	-0,030
-698,743	378,975	0,093	0,138
-697,729	-200,000	-0,006	0,113
-696,714	243,047	0,092	0,111
-695,699	13,075	0,138	-0,077
-694,685	-200,000	0,027	-0,209
-693,670	66,702	-0,047	0,035
-692,656	800,000	0,054	0,116
-691,641	-200,000	-0,011	-0,043
-690,627	-114,114	0,054	-0,007
-689,612	109,948	-0,031	0,027
-688,597	-118,509	0,046	0,006
-687,583	99,184	-0,174	-0,145
-686,568	-200,000	0,026	-0,142
-685,554	-87,404	0,065	-0,014
-684,539	675,133	-0,070	0,131
-683,524	-200,000	0,016	-0,050
-682,510	-115,713	-0,147	0,020
-681,495	-200,000	-0,021	-0,177
-680,481	-128,085	-0,098	0,010
-679,466	281,981	0,158	-0,205
-678,451	605,664	0,036	0,065
-677,437	700,802	-0,061	-0,116
-676,422	162,417	-0,098	-0,099
-675,408	800,000	-0,056	-0,152
-674,393	-200,000	-0,016	-0,071
-673,378	505,310	-0,038	0,063
-672,364	800,000	-0,011	0,035
-671,349	160,559	-0,128	-0,129
-670,335	-200,000	-0,016	0,072
-669,320	-56,693	0,022	-0,007
-668,305	-200,000	0,011	-0,041
-667,291	-87,106	-0,055	-0,012
-666,276	-113,322	0,164	0,023
-665,262	800,000	-0,053	-0,125
-664,247	-44,715	0,065	-0,023
-663,232	199,266	0,052	0,058
-662,218	225,421	-0,093	-0,109
-661,203	-108,095	-0,057	0,009
-660,189	192,950	-0,133	-0,145
-659,174	-200,000	0,009	-0,091
-658,159	658,780	-0,061	0,114
-657,145	-116,154	-0,022	-0,003
-656,130	800,000	0,023	0,049
-655,116	-200,000	0,001	-0,026
-654,101	-114,028	0,064	0,009
-653,086	67,380	0,102	-0,075
-652,072	-200,000	-0,015	0,000
-651,057	-44,916	-0,064	0,023
-650,043	568,590	-0,018	-0,032
-649,028	-200,000	0,030	-0,112
-648,014	-200,000	0,002	0,062
-646,999	263,788	0,084	0,105
-645,984	82,858	0,025	0,020
-644,970	538,379	0,006	-0,011
-643,955	268,309	-0,106	-0,135
-642,941	3,427	-0,069	-0,036
-641,926	-185,710	-0,075	0,001
-640,911	-200,000	0,005	-0,035
-639,897	-130,731	0,075	0,007
-638,882	548,771	0,040	0,069
-637,868	-90,423	0,051	0,011
-636,853	-144,767	-0,153	-0,010
-635,838	-200,000	0,029	-0,119
-634,824	800,000	-0,057	0,146
-633,809	-200,000	0,015	0,068
-632,795	222,069	-0,086	0,100
-631,780	463,512	0,044	0,070
-630,765	-200,000	0,005	-0,030
-629,751	-102,222	-0,052	-0,009
-628,736	202,930	-0,129	-0,144
-627,722	104,821	0,097	-0,082
-626,707	171,117	-0,046	-0,047
-625,692	800,000	0,035	0,099
-624,678	-200,000	0,009	0,130
-623,663	-200,000	-0,004	0,043
-622,649	-200,000	0,000	0,096
-621,634	-133,207	-0,032	-0,003
-620,619	800,000	0,035	-0,101
-619,605	800,000	0,038	-0,116
-618,590	-200,000	-0,011	-0,047
-617,576	800,000	-0,012	-0,038
-616,561	443,395	-0,030	-0,048
-615,546	-13,659	0,028	0,013
-614,532	99,339	-0,053	-0,044
-613,517	320,067	0,052	-0,071
-612,503	405,721	-0,033	-0,050
-611,488	-102,781	-0,053	-0,009
-610,474	155,870	-0,027	-0,027
-609,459	-53,889	0,037	-0,012
-608,444	75,596	-0,060	-0,046
-607,430	-44,402	0,025	0,009
-606,415	76,517	-0,096	0,073
-605,401	592,011	-0,019	-0,034
-604,386	-99,522	0,188	-0,034
-603,371	-80,981	-0,183	0,043
-602,357	193,812	0,037	0,041
-601,342	-127,071	-0,109	-0,011
-600,328	315,603	0,056	-0,076
-599,313	157,672	-0,076	0,076
-598,298	106,878	-0,093	-0,080
-597,284	800,000	0,010	-0,025
-596,269	539,937	0,032	0,055
-595,255	-12,268	-0,055	-0,026
-594,240	-149,983	-0,079	0,004
-593,225	74,595	-0,043	0,033
-592,211	-119,546	-0,084	0,010
-591,196	231,912	0,018	-0,022
-590,182	-200,000	0,014	0,069
-589,167	800,000	0,053	0,148
-588,152	247,055	0,048	-0,059
-587,138	74,296	-0,102	-0,077
-586,123	-10,201	-0,132	-0,063
-585,109	-81,215	-0,053	0,013
-584,094	356,623	-0,021	0,030
-583,079	-24,728	0,078	0,033
-582,065	18,205	-0,134	-0,077
-581,050	-29,222	0,157	0,064
-580,036	-131,828	-0,138	0,013
-579,021	-80,125	-0,075	-0,018
-578,006	-200,000	0,011	-0,098
-576,992	800,000	0,033	0,079
-575,977	-148,970	0,139	-0,008
-574,963	188,757	-0,043	0,046
-573,948	800,000	0,048	-0,138
-572,934	-69,092	-0,069	-0,019
-571,919	90,278	0,053	-0,042
-570,904	-49,910	-0,078	0,026
-569,890	331,643	-0,024	-0,033
-568,875	167,320	0,065	0,066
-567,861	-200,000	-0,012	0,172
-566,846	168,540	0,054	-0,055
-565,831	782,190	-0,058	0,115
-564,817	800,000	-0,032	0,069
-563,802	48,178	0,075	-0,050
-562,788	-200,000	0,005	-0,018
-561,773	44,744	0,106	-0,070
-560,758	-200,000	0,017	0,057
-559,744	115,070	0,050	0,044
-558,729	31,824	0,060	0,037
-557,715	800,000	-0,026	-0,069
-556,700	-200,000	-0,034	-0,134
-555,685	800,000	0,067	-0,192
-554,671	-69,936	-0,131	-0,036
-553,656	424,106	0,012	-0,018
-552,642	-125,507	-0,087	-0,009
-551,627	-200,000	0,006	-0,043
-550,612	-122,740	-0,134	-0,015
-549,598	-60,054	0,110	0,034
-548,583	-152,428	0,068	-0,003
-547,569	85,673	0,147	-0,116
-546,554	800,000	0,038	0,076
-545,539	-85,958	0,102	-0,023
-544,525	-200,000	0,027	0,105
-543,510	263,863	0,034	0,043
-542,496	-36,923	-0,028	-0,011
-541,481	182,123	0,080	-0,085
-540,466	-200,000	0,010	-0,040
-539,452	-200,000	-0,033	0,162
-538,437	-200,000	-0,005	0,060
-537,423	-119,106	-0,065	0,008
-536,408	-200,000	0,017	0,117
-535,393	-51,276	-0,008	0,003
-534,379	-172,282	0,122	0,003
-533,364	405,144	-0,041	0,062
-532,350	800,000	0,023	-0,067
-531,335	-2,014	0,067	0,034
-530,321	169,837	-0,107	0,110
-529,306	124,179	-0,143	-0,129
-528,291	201,351	-0,070	-0,077
-527,277	-200,000	-0,018	0,064
-526,262	95,174	-0,175	0,143
-525,248	-62,837	-0,157	0,046
-524,233	3,122	0,132	0,069
-523,218	-200,000	-0,005	0,092
-522,204	-75,712	-0,153	-0,039
-521,189	-96,648	-0,043	0,008
-520,175	-200,000	0,013	-0,067
-519,160	-38,214	-0,144	-0,055
-518,145	-200,000	0,006	0,103
-517,131	800,000	0,030	-0,067
-516,116	233,666	0,056	0,066
-515,102	800,000	-0,024	0,054
-514,087	-200,000	-0,006	-0,144
-513,072	-125,938	-0,217	-0,023
-512,058	523,108	0,054	-0,091
-511,043	70,317	0,047	-0,035
-510,029	755,499	0,052	0,101
-509,014	158,566	0,041	0,041
-507,999	-200,000	-0,018	0,072
-506,985	-12,091	-0,203	0,095
-505,970	800,000	0,039	-0,108
-504,956	437,707	0,045	0,071
-503,941	20,451	-0,072	-0,042
-502,926	-147,514	0,112	-0,007
-501,912	-200,000	-0,021	-0,075
-500,897	321,338	-0,031	0,042
-499,883	161,754	-0,025	-0,025
-498,868	-200,000	0,024	0,076
-497,853	-13,541	0,023	0,011
-496,839	-200,000	0,002	0,052
-495,824	-3,715	0,104	0,052
-494,810	-127,039	-0,121	-0,013
-493,795	-200,000	-0,014	0,081
-492,781	-200,000	-0,006	-0,042
-491,766	-132,524	-0,084	-0,008
-490,751	-59,914	0,138	0,042
-489,737	-76,909	-0,048	-0,012
-488,722	156,870	-0,126	0,124
-487,708	-200,000	0,107	-0,000
-486,693	322,284	0,047	-0,064
-485,678	262,500	-0,041	0,051
-484,664	800,000	-0,031	-0,097
-483,649	-45,651	-0,038	0,013
-482,635	-77,713	-0,064	0,016
-481,620	16,428	0,114	0,064
-480,605	-200,000	0,005	0,058
-479,591	800,000	0,011	0,030
-478,576	-200,000	0,005	0,066
-477,562	-108,524	-0,080	0,012
-476,547	-200,000	-0,012	-0,054
-475,532	-200,000	-0,013	-0,119
-474,518	-50,622	0,024	0,008
-473,503	156,411	0,109	-0,108
-472,489	87,346	0,026	0,020
-471,474	156,686	0,059	-0,058
-470,459	-85,783	-0,026	-0,006
-469,445	-195,871	-0,016	0,000
-468,430	-200,000	0,005	-0,025
-467,416	124,404	-0,042	0,037
-466,401	-200,000	-0,015	0,086
-465,386	-200,000	-0,032	0,115
-464,372	-11,552	0,057	-0,027
-463,357	181,746	-0,093	0,098
-462,343	-84,089	-0,106	-0,024
-461,328	-43,997	-0,206	0,074
-460,313	-200,000	0,019	-0,080
-459,299	-152,894	-0,062	-0,003
-458,284	100,433	-0,028	-0,023
-457,270	48,457	0,025	-0,017
-456,255	22,625	0,044	-0,025
-455,241	25,168	-0,070	0,041
-454,226	172,733	0,043	0,045
-453,211	198,225	0,020	-0,022
-452,197	-200,000	0,008	0,027
-451,182	-0,779	0,051	-0,026
-450,168	1,071	0,116	0,059
-449,153	-200,000	-0,010	-0,154
-448,138	44,499	-0,151	0,099
-447,124	-122,054	-0,039	-0,005
-446,109	800,000	0,043	-0,094
-445,095	-200,000	0,005	0,172
-444,080	-200,000	-0,013	0,149
-443,065	-36,451	0,111	0,043
-442,051	-42,334	0,172	-0,063
-441,036	612,369	-0,051	-0,092
-440,022	85,585	-0,069	-0,054
-439,007	442,546	0,052	-0,082
-437,992	60,578	0,131	0,093
-436,978	800,000	0,034	0,096
-435,963	-85,495	0,184	0,041
-434,949	-200,000	-0,029	-0,108
-433,934	108,868	-0,021	-0,018
-432,919	-200,000	-0,045	0,187
-431,905	24,216	-0,025	-0,015
-430,890	800,000	-0,038	-0,087
-429,876	-200,000	0,018	0,126
-428,861	800,000	-0,013	-0,035
-427,846	-114,097	0,027	0,004
-426,832	800,000	0,025	0,059
-425,817	711,626	0,031	-0,060
-424,803	-200,000	-0,004	-0,113
-423,788	-200,000	-0,020	0,000
-422,773	11,802	0,082	0,045
-421,759	800,000	0,024	0,070
-420,744	93,495	-0,047	-0,038
-419,730	686,675	0,025	-0,047
-418,715	-63,423	-0,027	-0,008
-417,701	-35,907	0,100	0,039
-416,686	310,701	-0,048	0,064
-415,671	-3,997	0,089	0,044
-414,657	800,000	0,034	-0,090
-413,642	181,009	-0,028	-0,030
-412,628	-200,000	-0,003	0,049
-411,613	800,000	0,051	-0,142
-410,598	800,000	0,035	-0,095
-409,584	800,000	0,134	0,285
-408,569	-78,722	-0,123	0,030
-407,555	150,864	-0,030	-0,029
-406,540	-109,800	0,108	0,016
-405,525	-87,039	0,014	0,003
-404,511	-109,078	-0,110	-0,017
-403,496	50,263	0,080	-0,054
-402,482	-200,000	-0,005	0,045
-401,467	586,229	-0,094	-0,165
-400,452	271,600	-0,040	-0,050
-399,438	24,740	0,071	-0,042
-398,423	44,260	0,045	-0,030
-397,409	140,023	-0,102	-0,096
-396,394	-200,000	0,003	-0,115
-395,379	-200,000	0,008	0,076
-394,365	163,179	0,090	0,090
-393,350	38,107	0,132	0,084
-392,336	-200,000	-0,008	-0,065
-391,321	-54,412	-0,123	-0,039
-390,306	617,614	0,011	-0,019
-389,292	-40,558	0,099	0,036
-388,277	-63,658	0,146	0,042
-387,263	800,000	-0,039	0,111
-386,248	509,655	0,083	-0,138
-385,233	-200,000	-0,006	0,044
-384,219	-20,401	-0,058	-0,025
-383,204	-200,000	0,014	0,112
-382,190	-86,495	-0,151	-0,033
-381,175	800,000	0,034	-0,085
-380,160	-200,000	0,029	0,114
-379,146	7,909	-0,075	0,040
-378,131	21,716	-0,111	0,064
-377,117	145,532	-0,041	-0,039
-376,102	130,987	-0,052	-0,048
-375,088	151,768	0,050	-0,048
-374,073	-200,000	-0,004	0,028
-373,058	23,906	-0,013	-0,008
-372,044	197,649	-0,070	0,077
-371,029	-21,335	-0,030	0,013
-370,015	-76,202	0,134	-0,033
-369,000	701,596	-0,028	-0,052
-367,985	-37,444	-0,167	-0,063
-366,971	325,754	0,015	-0,020
-365,956	260,347	0,134	0,165
-364,942	800,000	0,003	-0,007
-363,927	667,831	0,057	0,106
-362,912	376,579	-0,072	-0,105
-361,898	276,543	-0,022	-0,028
-360,883	-25,195	-0,133	0,056
-359,869	-200,000	0,001	-0,019
-358,854	65,789	0,127	0,091
-357,839	356,819	-0,087	-0,124
-356,825	-82,529	-0,130	-0,030
-355,810	-200,000	-0,001	0,159
-354,796	800,000	0,035	-0,074
-353,781	-15,684	-0,112	0,051
-352,766	121,117	0,084	0,075
-351,752	84,640	0,082	-0,064
-350,737	-200,000	-0,020	0,087
-349,723	1,864	0,146	0,075
-348,708	-24,367	0,126	0,053
-347,693	-200,000	-0,034	-0,120
-346,679	800,000	0,038	-0,109
-345,664	-63,482	0,022	0,006
-344,650	91,024	0,074	-0,059
-343,635	-200,000	-0,004	-0,033
-342,620	83,046	0,052	-0,040
-341,606	-75,722	0,038	-0,010
-340,591	-200,000	-0,012	-0,081
-339,577	-200,000	0,008	-0,114
-338,562	137,070	-0,070	-0,065
-337,548	-39,032	0,022	-0,008
-336,533	-200,000	-0,004	-0,099
-335,518	800,000	0,052	0,110
-334,504	365,332	-0,077	0,110
-333,489	316,088	0,034	-0,046
-332,475	45,739	-0,069	-0,045
-331,460	800,000	0,043	-0,097
-330,445	800,000	0,004	-0,007
-329,431	800,000	0,052	-0,108
-328,416	800,000	0,028	0,076
-327,402	-200,000	-0,011	0,093
-326,387	-142,768	0,153	0,010
-325,372	319,828	0,077	0,104
-324,358	750,137	-0,052	-0,099
-323,343	119,430	0,177	-0,156
-322,329	-43,722	0,105	0,037
-321,314	-185,635	-0,121	-0,001
-320,299	800,000	0,030	-0,081
-319,285	-27,719	-0,074	0,030
-318,270	-200,000	0,019	0,085
-317,256	113,070	-0,053	-0,046
-316,241	-200,000	0,003	0,105
-315,226	244,733	0,062	0,074
-314,212	649,553	-0,042	0,076
-313,197	65,297	-0,067	-0,048
-312,183	-63,588	-0,046	-0,013
-311,168	-18,116	0,136	0,060
-310,153	242,416	0,039	-0,047
-309,139	76,347	-0,103	0,078
-308,124	2,938	-0,099	0,051
-307,110	800,000	0,040	-0,106
-306,095	117,620	-0,013	0,011
-305,080	-200,000	0,003	-0,083
-304,066	800,000	-0,037	0,116
-303,051	20,894	-0,048	-0,027
-302,037	-200,000	0,007	0,048
-301,022	-200,000	0,042	0,000
-300,008	-96,562	0,100	-0,019
-298,993	-26,732	-0,102	-0,042
-297,978	800,000	0,046	0,101
-296,964	800,000	-0,031	-0,081
-295,949	269,028	-0,091	-0,114
-294,935	-109,379	0,159	-0,024
-293,920	-200,000	0,031	-0,261
-292,905	-91,433	0,159	-0,032
-291,891	-200,000	-0,003	0,075
-290,876	-200,000	-0,004	0,025
-289,862	-200,000	-0,015	-0,163
-288,847	-200,000	0,010	-0,143
-287,832	800,000	0,004	-0,012
-286,818	-200,000	0,001	0,053
-285,803	-59,219	0,126	-0,038
-284,789	-72,244	0,055	-0,014
-283,774	-75,446	-0,130	0,033
-282,759	-173,346	0,073	0,002
-281,745	-105,262	-0,157	-0,025
-280,730	-200,000	-0,012	-0,041
-279,716	550,388	-0,033	-0,056
-278,701	469,746	-0,017	0,028
-277,686	-200,000	0,000	0,047
-276,672	800,000	0,060	0,138
-275,657	5,302	0,148	0,077
-274,643	-200,000	0,004	0,112
-273,628	-200,000	-0,007	0,027
-272,613	800,000	-0,025	-0,061
-271,599	-64,646	0,079	0,023
-270,584	-200,000	0,010	-0,074
-269,570	-200,000	-0,038	0,138
-268,555	232,959	0,029	0,034
-267,540	186,128	-0,069	0,073
-266,526	-200,000	-0,001	-0,033
-265,511	-200,000	-0,027	-0,142
-264,497	-34,172	-0,017	-0,006
-263,482	230,829	-0,042	-0,048
-262,467	11,055	0,071	-0,038
-261,453	-41,798	-0,144	-0,052
-260,438	66,775	0,032	-0,023
-259,424	-200,000	-0,005	0,079
-258,409	565,609	-0,048	0,082
-257,395	100,032	-0,065	0,053
-256,380	-200,000	0,038	0,183
-255,365	122,483	0,035	0,031
-254,351	-200,000	-0,003	-0,116
-253,336	-27,656	0,106	0,043
-252,322	-74,651	-0,067	-0,017
-251,307	83,583	0,052	-0,040
-250,292	7,173	-0,117	0,062
-249,278	-12,123	-0,045	0,021
-248,263	-137,783	0,172	-0,013
-247,249	364,060	-0,009	-0,013
-246,234	-0,539	0,164	0,082
-245,219	179,937	-0,113	-0,118
-244,205	90,442	0,106	0,084
-243,190	-111,659	0,092	0,013
-242,176	-200,000	-0,009	-0,047
-241,161	83,520	-0,029	0,022
-240,146	800,000	0,015	0,035
-239,132	-65,875	0,085	0,024
-238,117	244,649	0,042	-0,051
-237,103	800,000	0,019	0,043
-236,088	64,403	-0,122	0,087
-235,073	-142,615	-0,050	-0,003
-234,059	-200,000	-0,006	-0,098
-233,044	-200,000	-0,018	0,106
-232,030	-93,540	-0,051	0,010
-231,015	-200,000	0,013	-0,057
-230,000	776,775	-0,033	-0,065
-228,986	-94,026	0,098	-0,019
-227,971	-106,156	0,048	-0,008
-226,957	350,096	0,014	0,019
-225,942	114,586	-0,052	0,045
-224,927	-129,740	-0,164	-0,016
-223,913	-200,000	-0,013	-0,042
-222,898	26,420	-0,054	0,032
-221,884	171,731	-0,025	0,026
-220,869	-200,000	-0,004	0,023
-219,855	-38,419	-0,026	-0,010
-218,840	800,000	0,046	-0,095
-217,825	-25,347	-0,043	-0,018
-216,811	457,623	-0,112	-0,176
-215,796	-36,148	0,027	-0,010
-214,782	800,000	0,026	-0,051
-213,767	440,105	-0,106	-0,165
-212,752	-146,222	0,110	0,007
-211,738	-96,028	-0,096	0,018
-210,723	-143,012	0,068	-0,005
-209,709	180,810	0,075	0,078
-208,694	-22,650	-0,227	-0,097
-207,679	341,995	0,060	0,083
-206,665	-200,000	0,016	-0,095
-205,650	-200,000	0,007	0,195
-204,636	208,798	0,029	0,032
-203,621	-168,444	-0,007	-0,000
-202,606	96,443	-0,101	0,082
-201,592	-200,000	-0,022	-0,121
-200,577	800,000	-0,029	-0,067
-199,563	121,375	0,110	-0,097
-198,548	-46,773	0,143	-0,049
-197,533	-25,002	0,032	0,013
-196,519	-200,000	0,009	0,066
-195,504	800,000	-0,028	0,056
-194,490	-140,890	-0,114	-0,008
-193,475	-200,000	-0,001	0,046
-192,460	-200,000	0,018	0,125
-191,446	62,489	0,098	0,069
-190,431	88,337	-0,036	-0,028
-189,417	-160,385	-0,102	0,004
-188,402	61,644	-0,024	-0,017
-187,387	56,780	0,063	0,043
-186,373	-13,403	-0,120	-0,055
-185,358	-51,900	-0,154	-0,050
-184,344	-113,154	0,073	0,010
-183,329	510,273	0,055	-0,090
-182,315	-104,645	0,152	-0,025
-181,300	-200,000	-0,016	-0,141
-180,285	-119,959	0,071	0,008
-179,271	62,580	0,076	-0,053
-178,256	339,386	-0,035	0,048
-177,242	705,483	0,033	0,062
-176,227	-200,000	-0,004	0,134
-175,212	-89,867	0,092	-0,019
-174,198	-200,000	0,000	0,077
-173,183	5,517	0,083	-0,043
-172,169	146,352	0,064	-0,061
-171,154	-16,480	-0,128	-0,057
-170,139	364,778	-0,015	0,022
-169,125	125,033	0,074	0,066
-168,110	-200,000	0,030	-0,143
-167,096	800,000	-0,032	-0,072
-166,081	-57,630	0,016	-0,005
-165,066	-116,762	-0,123	0,016
-164,052	149,112	0,037	0,035
-163,037	106,077	0,071	-0,060
-162,023	800,000	-0,001	0,002
-161,008	-200,000	-0,017	0,141
-159,993	-34,182	0,091	0,035
-158,979	86,868	-0,070	-0,055
-157,964	-80,666	0,191	-0,044
-156,950	8,811	0,138	-0,073
-155,935	-200,000	0,011	0,059
-154,920	267,236	-0,045	0,056
-153,906	-200,000	-0,030	0,118
-152,891	37,300	-0,041	-0,026
-151,877	800,000	0,024	-0,057
-150,862	-42,661	-0,043	-0,016
-149,847	-200,000	-0,008	0,077
-148,833	34,385	-0,064	0,039
-147,818	114,795	0,065	-0,056
-146,804	800,000	-0,025	0,077
-145,789	126,032	0,101	0,090
-144,775	30,038	-0,062	0,037
-143,760	100,635	0,100	-0,082
-142,745	761,851	-0,113	-0,218
-141,731	800,000	-0,093	-0,217
-140,716	-200,000	-0,025	0,082
-139,702	-185,061	0,105	-0,001
-138,687	202,841	0,052	0,057
-137,672	-200,000	0,020	0,131
-136,658	-140,281	-0,109	-0,008
-135,643	2,495	-0,094	0,048
-134,629	-200,000	-0,025	-0,113
-133,614	-67,282	0,037	0,010
-132,599	74,413	0,129	0,096
-131,585	-200,000	0,028	0,099
-130,570	-104,211	0,096	0,016
-129,556	-65,791	-0,151	0,042
-128,541	-28,633	-0,122	0,049
-127,526	-129,717	0,083	0,008
-126,512	-200,000	0,008	0,113
-125,497	-200,000	-0,008	0,133
-124,483	92,822	-0,085	0,068
-123,468	189,752	-0,098	0,104
-122,453	-33,477	-0,043	0,017
-121,439	712,367	0,014	-0,025
-120,424	-93,134	-0,213	0,041
-119,410	-200,000	0,024	0,118
