DTS Sentinel unit serial number:	SN410029Multiplexer serial number:	ORYXHardware model number:	OX2-SRSoftware version number:	ORYX F/W v4,00 Oryx Data Collector v3.7.2.0data status	okinstallation	B4 Nyhavnadifferential loss correction	single-endedforward channel	channel 2reverse channel	N/Adate	2023/12/19time	10:25:13forward acquisition time	300,00reverse acquisition time	0,00gamma	499,1914k internal	0,3128k external	0,3128temperature offset calibration	1,0000default loss term (dB/km)	0,3820temperature slope calibration	1,0000multiplexer offset coefficient	1,0000multiplexer slope coefficient	1,0000fibre end	0,00T internal ref (°C)	20,10T ext. ref 1 (°C)	4,82T ext. ref 2 (°C)	4,78length (m)	temperature (°C)	Stokes	anti-Stokes-744,400	-200,000	0,044	-0,239
-743,385	279,006	-0,137	0,182
-742,371	287,556	0,059	0,079
-741,356	-125,563	-0,265	0,030
-740,342	-172,003	0,069	0,002
-739,327	-66,661	-0,267	0,078
-738,312	194,739	-0,081	-0,092
-737,298	50,760	-0,213	0,150
-736,283	-86,944	0,122	-0,028
-735,269	-132,581	-0,319	0,030
-734,254	91,986	0,185	0,155
-733,239	-181,775	-0,505	-0,007
-732,225	-94,322	0,237	0,048
-731,210	-200,000	0,010	-0,054
-730,196	665,419	0,077	-0,148
-729,181	-200,000	0,003	-0,044
-728,167	13,312	0,128	-0,073
-727,152	-91,725	0,072	0,015
-726,137	-113,947	-0,104	-0,015
-725,123	1,306	-0,154	-0,082
-724,108	679,716	-0,067	-0,131
-723,094	132,430	-0,071	-0,068
-722,079	185,263	-0,112	-0,124
-721,064	-200,000	0,007	-0,038
-720,050	299,613	0,083	-0,115
-719,035	193,043	-0,038	0,042
-718,021	-87,098	-0,076	0,017
-717,006	-200,000	-0,005	0,017
-715,991	-97,288	-0,147	0,028
-714,977	-33,720	-0,138	0,056
-713,962	89,565	-0,057	-0,047
-712,948	-109,596	-0,125	-0,019
-711,933	74,840	-0,122	0,095
-710,918	-200,000	0,030	0,104
-709,904	-117,921	-0,188	-0,025
-708,889	800,000	-0,033	-0,070
-707,875	-75,183	-0,192	0,051
-706,860	79,448	0,069	-0,055
-705,845	234,715	0,061	-0,075
-704,831	606,725	-0,055	0,103
-703,816	-200,000	0,008	0,074
-702,802	-200,000	-0,011	-0,038
-701,787	-77,892	-0,173	-0,044
-700,772	-66,327	0,110	-0,032
-699,758	88,739	0,103	-0,085
-698,743	3,210	-0,093	-0,050
-697,729	116,429	0,085	-0,078
-696,714	-200,000	-0,004	-0,034
-695,699	-63,569	-0,051	0,016
-694,685	-101,448	0,066	-0,012
-693,670	98,713	-0,119	-0,102
-692,656	800,000	-0,016	0,041
-691,641	-21,926	0,114	0,051
-690,627	-131,248	0,106	0,010
-689,612	71,562	0,049	0,037
-688,597	367,443	-0,042	0,063
-687,583	407,381	0,008	-0,013
-686,568	674,131	-0,049	0,096
-685,554	54,669	0,088	-0,063
-684,539	143,030	-0,054	-0,053
-683,524	-200,000	-0,040	0,199
-682,510	-200,000	0,011	-0,064
-681,495	17,218	0,010	-0,006
-680,481	-69,233	-0,061	-0,017
-679,466	-31,367	-0,030	-0,013
-678,451	-138,352	0,119	-0,010
-677,437	-16,718	-0,021	0,010
-676,422	33,179	0,018	-0,012
-675,408	800,000	-0,022	0,071
-674,393	23,543	-0,076	-0,046
-673,378	-27,290	-0,010	0,004
-672,364	92,428	0,013	0,011
-671,349	-78,702	-0,087	0,022
-670,335	800,000	-0,036	0,078
-669,320	-200,000	-0,020	0,081
-668,305	-75,945	-0,064	0,017
-667,291	-200,000	0,027	0,138
-666,276	800,000	-0,043	0,108
-665,262	306,907	0,053	0,073
-664,247	800,000	-0,017	-0,038
-663,232	-165,669	0,117	0,004
-662,218	167,468	-0,096	-0,101
-661,203	800,000	-0,030	-0,097
-660,189	162,118	-0,110	-0,114
-659,174	228,815	0,074	-0,089
-658,159	533,758	-0,049	-0,087
-657,145	171,980	0,069	0,073
-656,130	-200,000	-0,019	0,072
-655,116	-168,069	0,022	-0,001
-654,101	800,000	-0,032	0,097
-653,086	-6,904	-0,135	0,068
-652,072	387,515	-0,073	0,112
-651,057	50,121	-0,082	0,058
-650,043	-164,252	0,054	0,002
-649,028	-159,747	-0,078	-0,003
-648,014	-43,393	-0,042	-0,016
-646,999	-134,733	-0,112	-0,010
-645,984	180,848	-0,047	-0,051
-644,970	85,329	0,053	0,043
-643,955	10,267	0,158	-0,089
-642,941	800,000	0,021	0,049
-641,926	800,000	0,033	-0,073
-640,911	-200,000	0,033	0,157
-639,897	800,000	-0,041	0,116
-638,882	21,398	-0,051	-0,031
-637,868	607,905	0,020	-0,037
-636,853	-162,719	-0,216	0,008
-635,838	-200,000	-0,002	-0,123
-634,824	800,000	0,013	-0,040
-633,809	3,809	0,141	-0,076
-632,795	-90,437	-0,080	-0,017
-631,780	-200,000	0,016	0,174
-630,765	-99,580	-0,168	0,031
-629,751	272,980	-0,053	0,069
-628,736	-60,416	0,023	0,007
-627,722	-200,000	-0,028	-0,151
-626,707	-141,130	0,142	-0,011
-625,692	-118,650	0,140	-0,018
-624,678	-12,616	0,091	0,044
-623,663	-37,743	-0,078	-0,030
-622,649	-34,663	-0,066	-0,027
-621,634	-200,000	0,010	-0,069
-620,619	800,000	-0,019	0,051
-619,605	-95,073	-0,012	0,002
-618,590	-200,000	0,001	0,065
-617,576	5,542	-0,044	0,024
-616,561	-23,476	0,094	0,041
-615,546	309,405	-0,080	0,112
-614,532	-139,407	-0,050	0,004
-613,517	800,000	-0,037	-0,110
-612,503	56,422	-0,103	-0,074
-611,488	350,524	0,050	0,073
-610,474	-179,585	-0,111	0,002
-609,459	-200,000	-0,019	0,194
-608,444	-123,073	-0,078	-0,009
-607,430	391,325	0,030	-0,046
-606,415	227,989	-0,106	-0,128
-605,401	-137,344	-0,116	-0,010
-604,386	-47,184	0,099	-0,036
-603,371	65,441	-0,070	-0,053
-602,357	-200,000	-0,011	-0,037
-601,342	128,579	-0,106	-0,100
-600,328	-96,832	-0,132	0,025
-599,313	10,204	-0,059	-0,033
-598,298	-200,000	0,002	-0,028
-597,284	219,254	0,073	-0,087
-596,269	-200,000	-0,011	0,058
-595,255	-123,712	0,069	-0,008
-594,240	800,000	-0,010	-0,022
-593,225	-17,356	-0,070	-0,033
-592,211	-143,509	0,076	-0,005
-591,196	219,445	-0,017	0,020
-590,182	123,027	-0,031	-0,028
-589,167	-200,000	-0,002	0,010
-588,152	-71,009	0,016	0,005
-587,138	-200,000	-0,026	-0,091
-586,123	800,000	0,034	-0,100
-585,109	237,870	0,020	-0,024
-584,094	648,944	0,067	-0,128
-583,079	-200,000	-0,038	0,137
-582,065	682,610	-0,052	-0,101
-581,050	99,727	-0,058	0,050
-580,036	-200,000	0,061	0,226
-579,021	-117,759	-0,124	-0,016
-578,006	-200,000	0,032	0,122
-576,992	-76,262	0,061	-0,016
-575,977	-50,611	0,064	-0,022
-574,963	800,000	-0,024	0,073
-573,948	-138,390	0,051	0,004
-572,934	-200,000	-0,016	-0,062
-571,919	688,866	0,032	-0,062
-570,904	800,000	-0,043	-0,111
-569,890	-200,000	-0,019	0,117
-568,875	-86,818	-0,049	0,011
-567,861	-118,861	0,105	0,014
-566,846	-17,833	0,080	0,037
-565,831	800,000	-0,034	-0,089
-564,817	-96,652	-0,104	-0,020
-563,802	-200,000	-0,014	-0,047
-562,788	800,000	0,050	-0,136
-561,773	-107,110	0,138	-0,022
-560,758	-161,008	0,145	-0,006
-559,744	114,110	-0,141	0,126
-558,729	-200,000	-0,009	-0,111
-557,715	145,949	-0,123	-0,122
-556,700	-67,641	-0,113	-0,033
-555,685	122,944	-0,090	0,083
-554,671	-109,312	-0,070	0,011
-553,656	385,860	-0,063	0,097
-552,642	149,947	-0,075	0,076
-551,627	239,843	0,027	0,034
-550,612	195,676	-0,046	0,051
-549,598	-200,000	0,000	-0,070
-548,583	80,748	-0,042	0,034
-547,569	-200,000	-0,020	-0,076
-546,554	800,000	0,051	-0,107
-545,539	156,856	0,145	0,148
-544,525	-43,570	-0,100	0,037
-543,510	800,000	0,087	-0,197
-542,496	69,984	-0,044	0,033
-541,481	191,670	-0,037	0,042
-540,466	-28,529	0,189	0,080
-539,452	6,088	-0,113	0,062
-538,437	459,543	0,049	0,080
-537,423	800,000	0,048	-0,109
-536,408	76,469	-0,068	-0,053
-535,393	-8,174	0,032	-0,016
-534,379	479,664	0,036	-0,060
-533,364	122,872	0,111	0,103
-532,350	418,088	0,072	0,114
-531,335	800,000	0,010	0,029
-530,321	714,058	-0,038	-0,074
-529,306	-17,884	0,115	-0,053
-528,291	92,050	-0,112	0,093
-527,277	800,000	-0,045	-0,111
-526,262	-200,000	-0,013	-0,086
-525,248	-200,000	-0,022	0,130
-524,233	-200,000	0,028	0,106
-523,218	239,655	-0,039	-0,048
-522,204	-200,000	-0,021	0,160
-521,189	265,181	0,040	0,051
-520,175	-200,000	0,004	0,067
-519,160	384,886	-0,036	-0,054
-518,145	-200,000	-0,014	0,086
-517,131	-200,000	-0,007	0,078
-516,116	-134,799	0,078	0,007
-515,102	401,513	0,032	-0,050
-514,087	-200,000	0,029	-0,162
-513,072	-124,408	-0,100	0,011
-512,058	258,125	0,052	-0,067
-511,043	170,941	-0,057	0,060
-510,029	45,082	0,112	0,076
-509,014	-200,000	0,026	-0,112
-507,999	284,263	0,044	0,058
-506,985	-100,308	-0,126	-0,023
-505,970	-99,221	-0,017	-0,003
-504,956	57,653	-0,163	-0,117
-503,941	-200,000	0,008	-0,089
-502,926	-200,000	0,021	0,102
-501,912	-67,032	-0,041	0,012
-500,897	-109,774	-0,009	0,001
-499,883	490,528	0,039	0,066
-498,868	-33,462	0,046	0,019
-497,853	513,675	-0,076	-0,131
-496,839	16,487	0,044	-0,025
-495,824	-143,573	0,071	-0,005
-494,810	304,203	0,037	0,051
-493,795	229,197	0,061	0,073
-492,781	19,522	0,136	0,080
-491,766	-84,208	0,016	0,004
-490,751	146,483	-0,087	-0,086
-489,737	-98,542	-0,043	0,008
-488,722	-3,395	0,123	0,063
-487,708	800,000	0,073	0,156
-486,693	60,024	-0,099	0,072
-485,678	-65,794	-0,108	0,032
-484,664	86,381	0,097	0,079
-483,649	-200,000	-0,020	0,082
-482,635	208,500	0,061	0,070
-481,620	-200,000	-0,004	0,120
-480,605	178,701	0,037	0,040
-479,591	-200,000	0,011	0,100
-478,576	225,054	0,041	-0,049
-477,562	-96,139	-0,130	0,025
-476,547	-139,137	0,011	-0,001
-475,532	20,815	-0,165	-0,098
-474,518	-200,000	0,016	0,064
-473,503	61,890	-0,027	0,020
-472,489	-143,318	0,181	-0,013
-471,474	-55,067	-0,063	-0,021
-470,459	67,350	0,062	-0,047
-469,445	-200,000	-0,005	-0,048
-468,430	-5,428	0,076	-0,038
-467,416	617,168	0,021	-0,040
-466,401	-82,803	-0,078	0,018
-465,386	794,443	0,045	-0,092
-464,372	105,957	-0,105	-0,091
-463,357	-200,000	0,047	-0,179
-462,343	-6,580	-0,136	-0,068
-461,328	-18,213	-0,124	-0,057
-460,313	46,366	-0,094	-0,064
-459,299	349,263	0,133	0,194
-458,284	-200,000	0,009	0,082
-457,270	66,915	0,046	-0,034
-456,255	-200,000	-0,019	-0,144
-455,241	-200,000	0,001	0,045
-454,226	800,000	-0,035	-0,089
-453,211	-60,083	0,128	0,040
-452,197	-79,489	-0,051	0,013
-451,182	72,940	0,157	0,120
-450,168	800,000	-0,022	0,069
-449,153	-200,000	0,000	0,055
-448,138	800,000	0,032	0,101
-447,124	46,358	0,049	0,033
-446,109	800,000	-0,048	-0,145
-445,095	423,705	0,073	0,116
-444,080	-200,000	-0,005	0,025
-443,065	319,471	0,074	-0,103
-442,051	23,087	-0,056	0,034
-441,036	-200,000	-0,019	-0,072
-440,022	-200,000	-0,034	-0,117
-439,007	-77,030	0,089	-0,023
-437,992	62,299	-0,052	-0,038
-436,978	800,000	-0,044	0,117
-435,963	67,721	-0,096	0,072
-434,949	-40,643	-0,069	0,026
-433,934	74,128	-0,088	0,068
-432,919	18,971	-0,070	-0,041
-431,905	-200,000	0,039	-0,157
-430,890	-38,034	-0,017	-0,007
-429,876	49,946	0,040	-0,028
-428,861	-125,042	0,011	0,001
-427,846	-58,328	-0,081	-0,026
-426,832	49,309	0,086	-0,060
-425,817	187,385	-0,066	0,072
-424,803	492,697	0,089	-0,150
-423,788	-200,000	-0,001	0,041
-422,773	5,182	0,010	-0,005
-421,759	-110,507	0,017	0,002
-420,744	-93,763	-0,168	0,034
-419,730	60,095	-0,100	0,072
-418,715	800,000	-0,035	-0,092
-417,701	-200,000	0,010	0,118
-416,686	61,101	0,037	-0,027
-415,671	159,806	0,008	0,008
-414,657	99,290	-0,041	-0,035
-413,642	206,923	0,048	0,055
-412,628	367,063	0,050	-0,074
-411,613	281,751	-0,023	0,031
-410,598	-56,475	-0,137	-0,044
-409,584	-200,000	0,038	-0,146
-408,569	133,023	0,064	0,061
-407,555	-34,088	-0,046	-0,019
-406,540	29,029	0,219	0,136
-405,525	-156,764	-0,058	-0,003
-404,511	149,031	-0,072	-0,071
-403,496	-45,503	0,127	0,046
-402,482	-109,202	-0,050	-0,008
-401,467	-109,404	0,187	0,029
-400,452	13,131	0,072	-0,041
-399,438	427,366	-0,073	-0,115
-398,423	0,669	0,115	-0,060
-397,409	-200,000	0,007	-0,136
-396,394	68,079	0,070	-0,052
-395,379	339,329	0,022	0,031
-394,365	188,763	0,067	0,073
-393,350	-200,000	0,004	0,055
-392,336	-200,000	0,000	0,045
-391,321	17,661	0,104	0,061
-390,306	49,648	-0,067	-0,046
-389,292	-200,000	0,030	0,151
-388,277	280,115	-0,023	0,030
-387,263	280,562	0,055	-0,072
-386,248	-200,000	0,005	0,084
-385,233	800,000	0,030	-0,071
-384,219	-200,000	0,010	-0,091
-383,204	-136,713	-0,168	-0,014
-382,190	376,750	0,061	-0,091
-381,175	-6,690	-0,137	-0,068
-380,160	-77,584	0,009	-0,002
-379,146	40,349	0,117	0,077
-378,131	-4,366	0,166	0,084
-377,117	-200,000	-0,023	-0,108
-376,102	-147,052	-0,040	0,002
-375,088	300,876	0,063	0,086
-374,073	-200,000	0,012	0,067
-373,058	-200,000	-0,032	0,151
-372,044	236,039	0,056	-0,068
-371,029	488,840	-0,054	-0,092
-370,015	288,096	0,088	0,118
-369,000	-104,216	0,026	-0,004
-367,985	13,762	-0,048	-0,027
-366,971	66,836	0,050	-0,038
-365,956	-75,030	0,077	0,020
-364,942	373,158	-0,045	0,068
-363,927	96,563	0,040	0,034
-362,912	-200,000	-0,026	-0,139
-361,898	-200,000	0,022	-0,091
-360,883	-134,571	-0,082	-0,007
-359,869	800,000	0,010	0,033
-358,854	-93,275	0,083	-0,017
-357,839	-200,000	0,007	-0,062
-356,825	-200,000	-0,009	0,084
-355,810	-87,589	-0,069	-0,015
-354,796	545,783	-0,060	0,106
-353,781	-200,000	-0,001	0,077
-352,766	-37,918	0,045	-0,017
-351,752	237,074	0,077	-0,094
-350,737	-200,000	-0,005	-0,022
-349,723	-200,000	0,031	-0,161
-348,708	-200,000	-0,001	0,047
-347,693	187,934	-0,110	0,120
-346,679	800,000	0,024	0,069
-345,664	800,000	-0,042	0,132
-344,650	299,865	-0,042	-0,057
-343,635	52,792	0,254	0,177
-342,620	-84,672	-0,032	0,007
-341,606	130,005	-0,083	-0,078
-340,591	-200,000	0,007	0,075
-339,577	-47,974	-0,080	-0,028
-338,562	548,016	-0,046	-0,081
-337,548	56,612	0,102	0,072
-336,533	-139,740	-0,083	-0,006
-335,518	-128,187	-0,035	-0,004
-334,504	552,259	0,032	0,057
-333,489	-200,000	-0,014	0,135
-332,475	9,078	-0,031	-0,017
-331,460	-85,904	0,089	0,020
-330,445	386,343	0,023	0,034
-329,431	596,430	0,014	-0,025
-328,416	107,420	0,043	0,037
-327,402	123,966	0,072	0,066
-326,387	800,000	0,009	-0,022
-325,372	-200,000	-0,014	0,091
-324,358	416,225	0,052	-0,081
-323,343	800,000	0,070	-0,161
-322,329	800,000	-0,041	0,115
-321,314	-157,025	0,063	0,003
-320,299	800,000	0,036	-0,112
-319,285	614,684	-0,059	-0,110
-318,270	336,385	-0,123	-0,175
-317,256	-139,348	0,011	0,001
-316,241	800,000	-0,021	-0,057
-315,226	146,089	0,025	0,025
-314,212	438,777	0,026	0,041
-313,197	-200,000	-0,024	0,092
-312,183	-81,919	-0,015	-0,004
-311,168	-139,869	-0,082	-0,006
-310,153	226,708	-0,096	0,114
-309,139	226,634	-0,012	-0,014
-308,124	-141,344	-0,031	0,002
-307,110	800,000	0,043	-0,127
-306,095	-60,412	0,049	-0,015
-305,080	800,000	-0,073	0,150
-304,066	57,579	0,067	-0,048
-303,051	543,778	0,018	-0,031
-302,037	-200,000	0,010	0,052
-301,022	-56,391	0,108	-0,035
-300,008	47,918	0,025	-0,017
-298,993	-57,499	-0,037	0,012
-297,978	52,156	-0,030	-0,021
-296,964	-200,000	-0,000	-0,111
-295,949	-162,332	-0,064	0,002
-294,935	-156,705	-0,153	0,007
-293,920	800,000	0,041	0,093
-292,905	-58,276	-0,120	0,038
-291,891	-200,000	-0,189	0,000
-290,876	3,143	0,032	0,017
-289,862	185,139	-0,056	0,060
-288,847	443,139	0,059	-0,095
-287,832	289,501	0,141	0,188
-286,818	279,831	-0,067	-0,088
-285,803	800,000	0,037	0,107
-284,789	-10,438	0,042	0,020
-283,774	-127,557	0,109	-0,011
-282,759	-200,000	0,013	-0,098
-281,745	492,424	-0,055	-0,092
-280,730	800,000	-0,028	-0,062
-279,716	-88,858	0,053	-0,011
-278,701	800,000	-0,039	0,097
-277,686	800,000	0,055	0,128
-276,672	-64,081	0,074	-0,022
-275,657	800,000	0,043	-0,107
-274,643	-70,558	0,182	-0,050
-273,628	-200,000	-0,023	-0,105
-272,613	75,533	-0,121	-0,093
-271,599	86,704	0,091	-0,074
-270,584	127,824	-0,028	0,026
-269,570	-122,811	0,129	0,015
-268,555	74,353	-0,011	0,009
-267,540	399,263	0,031	-0,048
-266,526	151,869	-0,093	-0,093
-265,511	-144,719	0,134	0,009
-264,497	-200,000	-0,006	-0,023
-263,482	45,065	-0,022	0,015
-262,467	-184,254	-0,048	-0,001
-261,453	-20,053	0,113	-0,051
-260,438	-200,000	0,001	-0,030
-259,424	-76,031	-0,021	0,005
-258,409	104,336	0,050	0,043
-257,395	257,547	0,103	-0,129
-256,380	-87,723	-0,017	-0,004
-255,365	-121,358	-0,036	0,004
-254,351	-200,000	-0,019	0,082
-253,336	156,431	-0,016	-0,016
-252,322	-200,000	-0,015	-0,065
-251,307	-200,000	0,015	0,063
-250,292	-5,829	0,162	-0,081
-249,278	-59,734	0,199	-0,062
-248,263	-116,959	0,153	-0,020
-247,249	-112,417	0,066	0,010
-246,234	-200,000	-0,005	-0,060
-245,219	-127,565	-0,079	-0,008
-244,205	-200,000	-0,002	-0,051
-243,190	-200,000	0,004	-0,032
-242,176	-94,355	-0,026	0,005
-241,161	43,003	0,051	-0,034
-240,146	41,903	-0,047	0,031
-239,132	800,000	0,027	-0,073
-238,117	-200,000	-0,021	-0,082
-237,103	-83,004	-0,073	-0,017
-236,088	800,000	0,050	0,106
-235,073	281,017	0,125	0,164
-234,059	-200,000	0,013	0,113
-233,044	-15,000	-0,039	0,018
-232,030	-142,405	-0,101	-0,007
-231,015	274,158	0,048	0,062
-230,000	276,480	-0,068	-0,088
-228,986	290,060	0,095	0,126
-227,971	-122,676	-0,043	0,005
-226,957	396,773	-0,058	-0,089
-225,942	-149,631	0,059	-0,003
-224,927	183,354	0,100	-0,108
-223,913	-35,419	-0,062	0,024
-222,898	33,243	0,036	-0,023
-221,884	20,453	0,071	-0,042
-220,869	-40,283	-0,034	0,013
-219,855	-12,056	-0,057	0,027
-218,840	68,877	0,024	0,018
-217,825	48,605	-0,065	0,044
-216,811	800,000	-0,031	-0,086
-215,796	800,000	0,042	-0,120
-214,782	-200,000	-0,007	-0,068
-213,767	75,725	-0,176	-0,136
-212,752	-99,334	0,053	-0,010
-211,738	800,000	0,033	0,092
-210,723	-200,000	0,037	0,137
-209,709	-19,229	-0,087	-0,039
-208,694	800,000	0,030	0,072
-207,679	119,240	-0,021	0,019
-206,665	-200,000	0,037	0,140
-205,650	800,000	0,042	0,122
-204,636	-200,000	0,000	0,002
-203,621	-200,000	0,023	-0,106
-202,606	114,463	-0,019	-0,017
-201,592	-45,341	-0,025	0,009
-200,577	-200,000	0,013	-0,062
-199,563	106,124	-0,067	0,058
-198,548	294,649	0,046	0,062
-197,533	-88,883	-0,149	0,032
-196,519	143,122	-0,084	0,081
-195,504	171,921	-0,005	-0,005
-194,490	431,225	-0,055	0,087
-193,475	-200,000	-0,035	0,163
-192,460	124,403	-0,029	0,027
-191,446	-114,115	0,138	0,019
-190,431	67,627	0,047	-0,035
-189,417	-200,000	0,011	-0,064
-188,402	800,000	0,046	-0,115
-187,387	2,453	0,006	0,003
-186,373	-200,000	0,015	-0,119
-185,358	-84,789	-0,081	0,018
-184,344	432,269	0,038	0,061
-183,329	-200,000	0,037	0,140
-182,315	-200,000	-0,016	0,136
-181,300	14,637	0,040	-0,022
-180,285	8,326	-0,114	0,062
-179,271	94,596	-0,024	-0,020
-178,256	-181,137	-0,030	-0,000
-177,242	99,006	-0,039	-0,033
-176,227	-55,299	0,064	-0,021
-175,212	478,056	-0,036	0,059
-174,198	-87,150	-0,073	-0,016
-173,183	-51,217	-0,105	-0,036
-172,169	-200,000	-0,008	-0,054
-171,154	-23,828	0,030	-0,013
-170,139	62,604	0,025	0,018
-169,125	619,130	-0,035	0,063
-168,110	-200,000	0,000	0,047
-167,096	-200,000	-0,042	0,146
-166,081	246,950	0,091	-0,112
-165,066	35,805	0,070	-0,044
-164,052	-7,330	-0,049	-0,024
-163,037	29,507	0,092	0,057
-162,023	-200,000	-0,014	-0,056
-161,008	-124,463	-0,098	0,011
-159,993	147,774	-0,016	-0,015
-158,979	-200,000	0,004	0,039
-157,964	-45,138	-0,068	0,024
-156,950	-10,281	-0,018	0,009
-155,935	800,000	-0,042	-0,126
-154,920	215,541	0,071	0,082
-153,906	-51,664	0,030	-0,010
-152,891	70,877	-0,080	-0,060
-151,877	800,000	0,064	-0,157
-150,862	-90,096	-0,189	0,040
-149,847	585,577	-0,061	0,110
-148,833	-146,626	-0,141	-0,009
-147,818	-200,000	-0,010	0,065
-146,804	-200,000	0,007	0,157
-145,789	184,836	0,045	-0,049
-144,775	721,853	0,019	0,038
-143,760	723,670	-0,044	-0,086
-142,745	223,274	0,038	0,045
-141,731	800,000	-0,059	0,125
-140,716	-200,000	0,016	0,091
-139,702	66,577	-0,141	0,104
-138,687	-126,826	-0,086	0,009
-137,672	-200,000	-0,016	0,088
-136,658	-41,654	-0,033	-0,012
-135,643	434,900	-0,046	-0,073
-134,629	110,386	0,115	-0,100
-133,614	-200,000	0,041	-0,145
-132,599	650,096	0,046	-0,086
-131,585	420,460	-0,044	0,068
-130,570	-200,000	-0,038	0,161
-129,556	-200,000	0,023	-0,095
-128,541	-200,000	0,027	-0,095
-127,526	-200,000	0,003	0,075
-126,512	-8,426	0,123	0,060
-125,497	-63,014	0,103	0,031
-124,483	-200,000	-0,004	-0,092
-123,468	800,000	-0,019	0,051
-122,453	15,327	-0,115	0,065
-121,439	-200,000	-0,012	-0,054
-120,424	330,584	-0,077	0,108
-119,410	-36,160	0,100	0,039
