DTS Sentinel unit serial number:	SN410029Multiplexer serial number:	ORYXHardware model number:	OX2-SRSoftware version number:	ORYX F/W v4,00 Oryx Data Collector v3.7.2.0data status	okinstallation	B4 Nyhavnadifferential loss correction	single-endedforward channel	channel 2reverse channel	N/Adate	2023/12/16time	00:10:13forward acquisition time	300,00reverse acquisition time	0,00gamma	499,1914k internal	0,3127k external	0,3127temperature offset calibration	1,0000default loss term (dB/km)	0,3820temperature slope calibration	1,0000multiplexer offset coefficient	1,0000multiplexer slope coefficient	1,0000fibre end	0,00T internal ref (°C)	21,92T ext. ref 1 (°C)	6,76T ext. ref 2 (°C)	6,92length (m)	temperature (°C)	Stokes	anti-Stokes-744,400	167,972	0,034	0,036
-743,385	-10,325	-0,113	0,056
-742,371	526,264	0,054	-0,094
-741,356	-59,975	-0,284	0,090
-740,342	253,300	0,057	0,073
-739,327	-58,673	-0,280	0,090
-738,312	564,101	-0,062	-0,112
-737,298	-67,808	-0,189	0,055
-736,283	-200,000	0,050	-0,192
-735,269	2,745	-0,214	0,115
-734,254	-200,000	0,026	0,165
-733,239	86,067	-0,303	-0,248
-732,225	-87,128	0,120	-0,027
-731,210	-40,588	0,146	-0,056
-730,196	27,886	-0,056	0,035
-729,181	800,000	-0,029	0,068
-728,167	1,537	0,045	0,024
-727,152	23,251	0,054	0,033
-726,137	800,000	-0,046	-0,117
-725,123	781,560	-0,041	-0,083
-724,108	-109,962	-0,140	-0,022
-723,094	225,827	-0,086	-0,103
-722,079	-200,000	-0,002	-0,048
-721,064	26,161	-0,007	0,005
-720,050	485,621	-0,061	0,104
-719,035	-50,456	-0,133	0,046
-718,021	-200,000	-0,031	0,123
-717,006	800,000	0,058	-0,139
-715,991	-200,000	0,001	-0,181
-714,977	800,000	0,016	-0,047
-713,962	-111,556	-0,178	-0,027
-712,948	296,103	0,007	-0,010
-711,933	199,523	0,033	0,037
-710,918	125,281	-0,043	0,040
-709,904	-136,795	-0,131	0,011
-708,889	-200,000	-0,051	-0,219
-707,875	-95,662	-0,146	0,029
-706,860	191,608	0,038	-0,043
-705,845	64,670	-0,085	0,064
-704,831	642,717	-0,018	0,034
-703,816	236,818	-0,055	-0,068
-702,802	538,345	-0,078	-0,138
-701,787	-200,000	0,022	0,085
-700,772	-174,090	0,062	-0,001
-699,758	-90,361	0,016	-0,004
-698,743	143,786	0,034	0,034
-697,729	800,000	0,017	0,036
-696,714	57,541	-0,105	-0,076
-695,699	154,716	0,048	-0,049
-694,685	376,109	-0,066	0,100
-693,670	-200,000	-0,020	0,084
-692,656	800,000	0,028	-0,075
-691,641	349,846	0,066	0,097
-690,627	-80,183	0,014	-0,003
-689,612	660,462	0,015	0,029
-688,597	800,000	0,034	-0,072
-687,583	-23,624	-0,088	-0,039
-686,568	-14,227	-0,185	0,088
-685,554	514,539	-0,040	0,069
-684,539	28,330	-0,021	-0,013
-683,524	431,069	-0,036	-0,057
-682,510	289,411	0,046	-0,061
-681,495	739,397	-0,036	-0,073
-680,481	101,672	-0,069	0,060
-679,466	162,242	0,097	-0,101
-678,451	6,039	0,035	-0,019
-677,437	241,389	0,024	0,030
-676,422	800,000	-0,008	-0,022
-675,408	-101,821	0,074	0,013
-674,393	-49,026	0,056	-0,020
-673,378	-87,593	-0,124	-0,028
-672,364	-22,963	-0,127	-0,057
-671,349	268,160	-0,023	0,030
-670,335	76,450	-0,105	0,082
-669,320	-200,000	-0,025	0,149
-668,305	352,961	-0,018	0,026
-667,291	800,000	-0,038	-0,090
-666,276	-141,637	-0,102	-0,007
-665,262	-172,487	-0,064	0,001
-664,247	125,258	0,043	-0,040
-663,232	14,793	-0,046	0,027
-662,218	-57,964	0,038	-0,012
-661,203	800,000	-0,033	0,075
-660,189	28,820	0,025	0,015
-659,174	607,062	-0,030	-0,055
-658,159	20,457	0,119	0,071
-657,145	-51,262	-0,148	0,051
-656,130	800,000	0,053	0,121
-655,116	127,458	0,029	-0,027
-654,101	233,099	0,059	-0,072
-653,086	151,141	0,085	0,085
-652,072	-200,000	-0,046	-0,154
-651,057	-127,431	-0,077	0,008
-650,043	-44,013	-0,070	0,026
-649,028	-154,179	-0,056	0,003
-648,014	-10,336	0,082	0,040
-646,999	31,286	0,054	-0,034
-645,984	271,493	-0,015	-0,020
-644,970	-15,342	-0,117	0,055
-643,955	330,415	-0,021	-0,030
-642,941	112,201	-0,113	-0,102
-641,926	-200,000	-0,005	0,067
-640,911	800,000	-0,030	-0,064
-639,897	6,495	0,077	0,042
-638,882	48,310	-0,065	0,045
-637,868	-200,000	0,006	-0,090
-636,853	-153,510	0,084	-0,004
-635,838	-69,532	-0,039	0,011
-634,824	-135,001	-0,078	0,007
-633,809	11,980	0,058	-0,033
-632,795	-24,515	0,102	0,045
-631,780	-200,000	0,013	-0,112
-630,765	-122,737	0,087	-0,010
-629,751	-200,000	-0,009	-0,051
-628,736	174,252	0,062	0,067
-627,722	-71,605	0,053	0,014
-626,707	-147,763	0,098	0,006
-625,692	-82,706	0,086	0,020
-624,678	-17,638	-0,051	0,024
-623,663	-200,000	-0,029	0,116
-622,649	-200,000	0,011	-0,080
-621,634	-200,000	-0,050	-0,199
-620,619	643,252	-0,058	-0,110
-619,605	-10,126	0,023	0,011
-618,590	-20,259	0,094	0,043
-617,576	-112,927	-0,037	-0,005
-616,561	-200,000	-0,004	-0,088
-615,546	275,858	-0,032	-0,042
-614,532	84,128	-0,052	-0,042
-613,517	96,754	-0,014	0,012
-612,503	800,000	0,066	0,138
-611,488	98,068	0,019	-0,016
-610,474	-200,000	-0,005	0,052
-609,459	513,814	0,034	-0,059
-608,444	276,727	-0,071	0,094
-607,430	-200,000	0,005	-0,127
-606,415	800,000	0,054	-0,173
-605,401	55,802	0,126	-0,090
-604,386	72,320	0,096	-0,074
-603,371	-121,975	0,111	0,013
-602,357	-200,000	-0,001	0,046
-601,342	40,999	-0,093	0,062
-600,328	-125,116	-0,088	-0,010
-599,313	246,446	-0,042	-0,053
-598,298	-200,000	-0,011	0,197
-597,284	58,290	0,116	0,084
-596,269	369,669	0,076	-0,114
-595,255	-200,000	-0,042	0,137
-594,240	75,646	-0,098	-0,077
-593,225	-200,000	-0,011	-0,047
-592,211	800,000	-0,019	-0,047
-591,196	14,214	0,030	-0,017
-590,182	10,388	0,094	-0,053
-589,167	166,804	-0,042	-0,045
-588,152	-200,000	-0,015	-0,049
-587,138	40,272	-0,162	-0,107
-586,123	12,913	0,066	-0,038
-585,109	-54,404	-0,097	-0,032
-584,094	800,000	-0,023	0,049
-583,079	-200,000	0,025	0,195
-582,065	90,156	0,052	0,043
-581,050	-28,146	-0,027	0,011
-580,036	-200,000	0,011	0,046
-579,021	-59,749	0,067	0,021
-578,006	57,625	-0,009	0,007
-576,992	149,374	-0,019	0,019
-575,977	-200,000	0,002	-0,101
-574,963	271,342	0,031	-0,040
-573,948	80,256	0,085	-0,067
-572,934	213,532	0,037	0,044
-571,919	245,776	-0,099	-0,124
-570,904	197,437	-0,029	-0,033
-569,890	-116,462	-0,120	-0,016
-568,875	-148,586	-0,116	0,007
-567,861	-67,851	0,054	0,016
-566,846	800,000	-0,008	-0,025
-565,831	38,550	-0,068	-0,044
-564,817	115,010	-0,061	-0,055
-563,802	472,482	-0,066	-0,110
-562,788	94,051	-0,076	0,064
-561,773	-200,000	0,016	-0,104
-560,758	-139,394	0,147	-0,011
-559,744	-75,020	0,179	0,047
-558,729	294,515	-0,071	0,096
-557,715	394,451	0,016	-0,025
-556,700	-3,541	-0,075	0,039
-555,685	295,137	0,022	0,030
-554,671	-14,979	0,064	0,030
-553,656	644,915	-0,029	-0,054
-552,642	-51,920	0,102	0,035
-551,627	338,718	0,158	0,228
-550,612	396,138	-0,003	0,004
-549,598	206,828	0,024	-0,028
-548,583	-200,000	0,015	0,054
-547,569	-109,015	0,095	0,015
-546,554	-91,639	0,225	0,047
-545,539	43,689	0,118	-0,080
-544,525	-200,000	0,003	-0,031
-543,510	198,499	-0,053	-0,060
-542,496	-16,353	-0,076	-0,036
-541,481	193,149	-0,015	-0,017
-540,466	171,544	-0,017	-0,018
-539,452	611,618	0,106	0,197
-538,437	-58,172	0,014	0,005
-537,423	196,894	-0,063	0,071
-536,408	-18,089	-0,118	0,054
-535,393	336,639	-0,082	-0,117
-534,379	-178,620	-0,155	0,003
-533,364	111,745	-0,125	-0,111
-532,350	-200,000	-0,014	0,063
-531,335	197,557	-0,057	0,065
-530,321	-200,000	-0,020	0,201
-529,306	-48,100	0,055	-0,019
-528,291	207,176	-0,062	-0,072
-527,277	-10,520	-0,189	0,092
-526,262	4,690	-0,133	-0,072
-525,248	-130,115	0,115	-0,011
-524,233	800,000	-0,020	-0,063
-523,218	-200,000	-0,027	0,094
-522,204	23,912	-0,029	0,018
-521,189	47,894	-0,103	-0,071
-520,175	-130,320	0,087	0,009
-519,160	800,000	-0,043	0,133
-518,145	233,262	0,058	0,070
-517,131	-88,840	0,043	-0,009
-516,116	15,931	0,228	-0,132
-515,102	198,295	-0,074	-0,084
-514,087	-200,000	-0,006	0,064
-513,072	140,379	0,031	-0,030
-512,058	239,901	0,056	-0,069
-511,043	114,552	0,057	0,051
-510,029	6,671	0,088	0,048
-509,014	128,714	-0,058	-0,054
-507,999	28,873	0,149	-0,093
-506,985	-72,358	0,044	-0,012
-505,970	-32,396	0,100	-0,041
-504,956	329,994	0,058	0,082
-503,941	169,970	-0,043	0,046
-502,926	-200,000	0,003	-0,126
-501,912	384,782	0,045	0,069
-500,897	-72,901	-0,108	-0,029
-499,883	12,424	0,058	0,033
-498,868	800,000	0,054	-0,154
-497,853	-66,616	-0,142	-0,041
-496,839	-74,091	0,045	-0,012
-495,824	30,709	0,116	0,073
-494,810	358,149	0,087	0,128
-493,795	-200,000	-0,004	-0,069
-492,781	-200,000	-0,024	-0,151
-491,766	121,669	0,033	-0,030
-490,751	800,000	0,043	0,107
-489,737	-112,594	0,088	0,013
-488,722	800,000	-0,022	0,053
-487,708	115,224	0,064	-0,058
-486,693	-2,687	-0,093	0,048
-485,678	-97,345	-0,135	-0,026
-484,664	-200,000	0,009	-0,126
-483,649	-55,308	0,094	0,031
-482,635	29,372	-0,124	0,077
-481,620	270,637	0,019	-0,024
-480,605	-200,000	-0,013	-0,078
-479,591	241,828	0,029	0,035
-478,576	-92,919	-0,053	0,011
-477,562	-82,554	-0,005	-0,001
-476,547	-200,000	-0,008	-0,081
-475,532	193,521	0,029	-0,033
-474,518	800,000	0,033	-0,088
-473,503	141,603	0,130	0,127
-472,489	-76,457	0,035	-0,009
-471,474	800,000	-0,022	0,047
-470,459	-113,309	-0,242	-0,035
-469,445	35,889	-0,074	-0,048
-468,430	-200,000	0,044	-0,215
-467,416	-26,698	0,021	0,009
-466,401	-102,270	0,123	-0,022
-465,386	-200,000	-0,014	0,095
-464,372	278,592	-0,023	0,030
-463,357	-40,176	-0,141	-0,054
-462,343	-109,770	0,074	0,011
-461,328	-200,000	0,001	-0,088
-460,313	-200,000	-0,002	-0,066
-459,299	-169,680	0,075	-0,002
-458,284	-35,546	-0,114	-0,045
-457,270	221,454	-0,038	0,045
-456,255	-19,762	-0,101	-0,046
-455,241	-200,000	0,020	-0,080
-454,226	415,504	-0,051	-0,080
-453,211	174,491	-0,025	0,027
-452,197	-200,000	-0,008	0,041
-451,182	-200,000	-0,006	-0,050
-450,168	-200,000	0,017	0,071
-449,153	800,000	-0,021	-0,064
-448,138	800,000	0,024	-0,057
-447,124	75,635	0,081	-0,063
-446,109	-104,892	-0,145	-0,024
-445,095	273,057	0,053	0,069
-444,080	-71,160	0,114	-0,031
-443,065	-7,595	-0,063	-0,031
-442,051	-5,002	-0,073	-0,037
-441,036	-140,155	0,028	0,002
-440,022	239,626	-0,041	-0,050
-439,007	481,780	-0,026	0,044
-437,992	-200,000	0,008	0,300
-436,978	-4,967	-0,056	0,028
-435,963	-200,000	-0,031	0,144
-434,949	-180,484	0,085	0,001
-433,934	-200,000	0,017	0,076
-432,919	239,270	-0,074	0,090
-431,905	-30,345	0,084	-0,035
-430,890	-143,616	-0,057	-0,004
-429,876	-200,000	-0,003	0,072
-428,861	-67,965	0,078	-0,022
-427,846	-59,364	0,138	0,043
-426,832	-200,000	0,049	-0,166
-425,817	17,208	-0,064	0,037
-424,803	150,182	0,118	0,118
-423,788	87,500	-0,059	-0,048
-422,773	64,455	0,043	-0,031
-421,759	-200,000	-0,022	0,095
-420,744	-131,857	-0,023	0,002
-419,730	800,000	-0,026	-0,058
-418,715	192,533	0,025	0,028
-417,701	197,416	0,098	-0,110
-416,686	119,517	0,048	0,044
-415,671	132,525	0,136	-0,129
-414,657	78,324	-0,028	0,022
-413,642	595,063	-0,072	0,131
-412,628	244,001	-0,084	0,104
-411,613	-200,000	-0,016	0,100
-410,598	-129,067	-0,014	-0,001
-409,584	-200,000	-0,008	0,043
-408,569	800,000	0,060	0,145
-407,555	-197,623	0,110	-0,000
-406,540	669,299	0,061	0,116
-405,525	-200,000	0,001	0,114
-404,511	-61,765	-0,144	0,044
-403,496	-200,000	0,014	0,052
-402,482	-200,000	0,020	-0,107
-401,467	-200,000	0,006	0,142
-400,452	-200,000	-0,016	0,187
-399,438	-200,000	0,019	0,078
-398,423	-200,000	-0,003	-0,080
-397,409	465,801	0,059	0,098
-396,394	125,434	-0,087	-0,081
-395,379	-67,117	0,020	0,006
-394,365	115,520	-0,130	0,117
-393,350	-150,581	-0,040	0,002
-392,336	-200,000	0,013	0,114
-391,321	800,000	-0,061	0,141
-390,306	-21,153	-0,125	-0,056
-389,292	-32,337	0,076	-0,031
-388,277	-200,000	0,018	0,097
-387,263	-200,000	-0,039	0,142
-386,248	800,000	-0,030	0,063
-385,233	-200,000	0,012	0,070
-384,219	52,082	0,128	-0,089
-383,204	-200,000	-0,021	0,076
-382,190	-39,067	-0,075	0,029
-381,175	-200,000	-0,021	0,093
-380,160	-90,985	0,168	-0,035
-379,146	102,484	-0,045	0,039
-378,131	-200,000	0,014	0,112
-377,117	-103,641	-0,076	0,013
-376,102	229,848	-0,058	-0,070
-375,088	221,166	-0,119	-0,141
-374,073	244,670	-0,039	0,048
-373,058	-200,000	-0,006	-0,074
-372,044	78,192	0,083	-0,065
-371,029	-73,312	-0,056	0,015
-370,015	800,000	-0,026	0,064
-369,000	800,000	0,050	0,126
-367,985	72,271	-0,120	-0,091
-366,971	-17,874	0,111	0,051
-365,956	569,697	0,029	0,051
-364,942	33,467	-0,032	-0,020
-363,927	234,732	0,035	0,042
-362,912	112,227	0,066	-0,059
-361,898	-20,738	-0,157	-0,070
-360,883	22,480	-0,020	-0,012
-359,869	404,599	-0,054	0,084
-358,854	800,000	-0,054	-0,112
-357,839	-200,000	-0,002	0,086
-356,825	4,732	-0,052	0,028
-355,810	-122,417	-0,037	0,004
-354,796	20,276	-0,140	-0,083
-353,781	-122,946	0,146	0,017
-352,766	-200,000	0,009	-0,036
-351,752	611,598	-0,050	-0,092
-350,737	800,000	-0,093	0,251
-349,723	124,406	0,114	-0,105
-348,708	800,000	0,007	-0,020
-347,693	-51,570	-0,086	-0,029
-346,679	560,366	0,069	-0,122
-345,664	-200,000	0,021	-0,086
-344,650	-12,399	-0,074	-0,035
-343,635	-68,380	-0,033	0,009
-342,620	-200,000	-0,018	0,128
-341,606	-68,107	0,047	-0,013
-340,591	800,000	-0,037	-0,081
-339,577	-46,269	-0,034	0,012
-338,562	800,000	-0,014	0,042
-337,548	63,316	0,063	-0,046
-336,533	-53,947	0,056	-0,019
-335,518	800,000	-0,044	0,097
-334,504	-65,740	0,092	0,027
-333,489	800,000	0,053	0,113
-332,475	226,562	-0,067	-0,080
-331,460	-200,000	-0,022	-0,132
-330,445	-101,334	-0,069	-0,012
-329,431	-200,000	0,007	0,196
-328,416	-200,000	0,021	0,073
-327,402	-200,000	-0,002	-0,176
-326,387	-200,000	-0,005	-0,087
-325,372	188,257	-0,072	-0,079
-324,358	684,327	-0,046	0,088
-323,343	-71,136	-0,029	-0,008
-322,329	800,000	-0,011	-0,032
-321,314	-50,105	0,094	-0,032
-320,299	-200,000	0,032	0,113
-319,285	193,865	-0,126	0,140
-318,270	-49,742	0,171	-0,059
-317,256	163,936	-0,016	-0,017
-316,241	-200,000	0,007	-0,060
-315,226	177,345	0,057	-0,061
-314,212	-118,154	0,155	0,020
-313,197	589,632	0,054	0,097
-312,183	-200,000	0,007	0,127
-311,168	-200,000	-0,007	-0,106
-310,153	800,000	0,018	0,042
-309,139	663,844	-0,068	-0,128
-308,124	-200,000	0,009	-0,133
-307,110	48,623	-0,067	-0,046
-306,095	-200,000	-0,008	-0,047
-305,080	208,569	0,044	-0,050
-304,066	70,609	0,086	0,065
-303,051	-200,000	0,004	-0,074
-302,037	-200,000	0,012	-0,183
-301,022	800,000	-0,050	-0,132
-300,008	226,500	-0,041	0,048
-298,993	-71,533	-0,023	-0,006
-297,978	-5,992	-0,090	-0,045
-296,964	17,353	-0,058	0,034
-295,949	-74,427	-0,157	-0,041
-294,935	39,468	-0,167	-0,110
-293,920	-115,010	0,166	0,023
-292,905	84,602	0,083	0,066
-291,891	-200,000	-0,020	0,098
-290,876	-200,000	-0,001	0,101
-289,862	19,232	0,119	-0,069
-288,847	309,403	-0,051	0,070
-287,832	81,715	0,040	-0,032
-286,818	58,514	0,128	-0,092
-285,803	724,882	-0,028	0,055
-284,789	28,312	0,019	-0,012
-283,774	-200,000	0,008	0,081
-282,759	-200,000	0,017	0,173
-281,745	174,654	0,058	-0,062
-280,730	-200,000	-0,001	-0,111
-279,716	145,090	0,061	0,060
-278,701	800,000	0,020	-0,057
-277,686	496,851	-0,065	-0,109
-276,672	-48,587	-0,023	-0,008
-275,657	56,672	0,103	-0,073
-274,643	17,490	-0,095	0,055
-273,628	-200,000	0,002	0,090
-272,613	-200,000	-0,023	-0,107
-271,599	140,400	-0,039	0,038
-270,584	125,926	0,093	0,086
-269,570	-200,000	0,018	-0,114
-268,555	314,393	0,057	-0,079
-267,540	12,325	0,050	0,028
-266,526	126,383	-0,104	-0,096
-265,511	366,971	-0,054	-0,080
-264,497	-100,048	-0,072	0,013
-263,482	-174,705	0,168	-0,003
-262,467	-93,130	0,172	0,035
-261,453	-44,625	0,014	0,005
-260,438	-106,238	0,012	0,002
-259,424	47,692	0,049	-0,033
-258,409	-200,000	-0,004	-0,208
-257,395	674,572	-0,007	0,013
-256,380	-162,181	0,111	0,004
-255,365	-54,928	0,039	-0,013
-254,351	-200,000	-0,002	0,017
-253,336	-200,000	-0,025	0,164
-252,322	650,350	-0,048	-0,091
-251,307	418,091	0,035	-0,055
-250,292	-200,000	-0,000	0,043
-249,278	-200,000	-0,006	0,071
-248,263	800,000	0,044	0,132
-247,249	-200,000	0,030	0,108
-246,234	-48,065	0,058	-0,020
-245,219	-139,047	0,053	0,004
-244,205	-110,083	-0,111	-0,017
-243,190	542,662	-0,027	-0,048
-242,176	42,119	-0,032	0,021
-241,161	167,392	0,102	0,106
-240,146	800,000	0,019	0,061
-239,132	-115,524	-0,055	0,008
-238,117	-200,000	-0,003	0,044
-237,103	-78,647	0,135	0,034
-236,088	202,459	-0,075	-0,084
-235,073	145,194	0,067	-0,066
-234,059	680,279	0,031	-0,059
-233,044	182,940	0,053	0,058
-232,030	-87,967	-0,091	0,020
-231,015	733,390	-0,074	-0,145
-230,000	-54,780	0,183	0,060
-228,986	75,730	-0,057	-0,044
-227,971	666,466	0,050	-0,094
-226,957	800,000	0,024	0,066
-225,942	-200,000	0,028	0,108
-224,927	-200,000	-0,014	-0,065
-223,913	-107,748	-0,192	0,030
-222,898	-143,075	-0,030	-0,002
-221,884	-61,059	-0,167	-0,051
-220,869	-6,790	0,075	-0,037
-219,855	-135,993	0,088	-0,007
-218,840	-96,694	0,096	-0,018
-217,825	-155,734	-0,034	-0,002
-216,811	-159,682	-0,069	-0,003
-215,796	39,151	-0,194	-0,127
-214,782	-200,000	-0,031	-0,107
-213,767	-56,153	-0,016	-0,005
-212,752	44,163	0,066	-0,044
-211,738	-73,477	0,065	0,017
-210,723	-147,465	-0,136	0,008
-209,709	799,378	-0,089	-0,180
-208,694	86,364	-0,060	-0,048
-207,679	53,301	-0,056	-0,039
-206,665	-9,013	-0,079	0,039
-205,650	232,881	0,033	0,040
-204,636	-200,000	0,028	0,202
-203,621	-200,000	0,009	0,067
-202,606	-200,000	-0,009	-0,145
-201,592	-200,000	-0,027	-0,090
-200,577	-82,862	0,101	0,023
-199,563	-200,000	-0,002	-0,024
-198,548	666,916	0,047	0,089
-197,533	78,127	-0,067	0,052
-196,519	800,000	-0,065	0,148
-195,504	60,290	0,094	-0,068
-194,490	21,491	-0,060	-0,035
-193,475	12,034	0,059	0,033
-192,460	37,840	0,040	0,026
-191,446	463,095	0,077	0,127
-190,431	-154,866	0,074	0,004
-189,417	-200,000	-0,016	0,180
-188,402	15,093	-0,083	0,047
-187,387	800,000	-0,016	-0,050
-186,373	704,672	-0,065	-0,126
-185,358	34,591	0,022	0,014
-184,344	214,168	0,045	0,051
-183,329	176,514	0,096	0,102
-182,315	800,000	-0,027	-0,071
-181,300	145,400	-0,038	0,037
-180,285	121,674	-0,106	-0,096
-179,271	263,940	0,028	-0,035
-178,256	279,172	-0,002	0,002
-177,242	-89,803	-0,032	0,007
-176,227	-28,729	0,069	0,029
-175,212	101,511	-0,145	-0,123
-174,198	72,023	-0,117	-0,089
-173,183	800,000	0,036	-0,085
-172,169	-74,148	-0,095	0,025
-171,154	-200,000	-0,020	-0,084
-170,139	41,618	-0,084	0,055
-169,125	52,900	-0,032	0,022
-168,110	-200,000	-0,045	0,156
-167,096	-200,000	-0,041	0,205
-166,081	256,288	0,054	0,068
-165,066	-40,191	0,155	-0,058
-164,052	155,586	-0,043	-0,043
-163,037	10,657	0,078	-0,043
-162,023	-145,384	0,176	-0,011
-161,008	-200,000	-0,008	0,103
-159,993	308,539	-0,084	-0,115
-158,979	518,766	-0,042	0,072
-157,964	-136,891	-0,137	0,011
-156,950	170,501	-0,083	-0,087
-155,935	231,458	0,040	-0,048
-154,920	130,097	0,050	0,047
-153,906	525,565	0,015	0,026
-152,891	-200,000	-0,030	0,102
-151,877	800,000	-0,038	-0,091
-150,862	1,319	-0,075	-0,039
-149,847	178,261	-0,110	-0,117
-148,833	-200,000	-0,003	-0,024
-147,818	-200,000	0,019	0,072
-146,804	169,517	-0,054	-0,056
-145,789	-95,520	0,090	0,017
-144,775	276,826	-0,033	0,042
-143,760	225,455	0,037	0,044
-142,745	-200,000	0,008	-0,041
-141,731	-200,000	0,002	-0,025
-140,716	-40,131	0,039	0,015
-139,702	719,113	0,033	-0,064
-138,687	241,904	0,066	0,080
-137,672	800,000	-0,020	-0,046
-136,658	-5,540	-0,124	0,062
-135,643	121,798	-0,153	0,139
-134,629	67,359	-0,033	0,025
-133,614	-123,774	0,096	0,011
-132,599	-200,000	0,007	0,024
-131,585	-200,000	0,030	0,114
-130,570	-200,000	0,006	-0,083
-129,556	-200,000	-0,034	0,118
-128,541	95,346	0,106	-0,088
-127,526	-14,282	0,132	0,061
-126,512	176,908	0,034	0,036
-125,497	-38,492	0,220	-0,084
-124,483	166,555	0,035	0,037
-123,468	2,724	0,056	0,030
-122,453	44,084	-0,114	-0,076
-121,439	-40,112	0,076	0,028
-120,424	536,960	0,012	-0,022
-119,410	-35,370	-0,077	0,030
