DTS Sentinel unit serial number:	SN410029Multiplexer serial number:	ORYXHardware model number:	OX2-SRSoftware version number:	ORYX F/W v4,00 Oryx Data Collector v3.7.2.0data status	okinstallation	B4 Nyhavnadifferential loss correction	single-endedforward channel	channel 2reverse channel	N/Adate	2023/12/18time	23:50:13forward acquisition time	300,00reverse acquisition time	0,00gamma	499,1914k internal	0,3123k external	0,3123temperature offset calibration	1,0000default loss term (dB/km)	0,3820temperature slope calibration	1,0000multiplexer offset coefficient	1,0000multiplexer slope coefficient	1,0000fibre end	0,00T internal ref (°C)	22,26T ext. ref 1 (°C)	7,43T ext. ref 2 (°C)	7,50length (m)	temperature (°C)	Stokes	anti-Stokes-744,400	-200,000	-0,024	-0,141
-743,385	20,710	-0,334	0,201
-742,371	-42,159	0,044	0,017
-741,356	-37,796	-0,271	0,107
-740,342	435,991	0,055	-0,089
-739,327	12,976	-0,277	0,159
-738,312	800,000	-0,041	-0,088
-737,298	-0,030	-0,239	0,126
-736,283	-20,268	0,131	0,060
-735,269	-27,749	-0,246	0,106
-734,254	307,810	-0,019	-0,027
-733,239	-65,551	-0,467	-0,139
-732,225	-192,931	-0,046	-0,000
-731,210	-200,000	-0,000	0,053
-730,196	73,926	0,034	-0,027
-729,181	13,315	0,037	-0,021
-728,167	222,809	0,022	-0,027
-727,152	177,899	-0,046	-0,050
-726,137	27,974	-0,173	-0,109
-725,123	502,276	0,004	-0,007
-724,108	173,181	0,053	-0,057
-723,094	-4,851	-0,156	-0,080
-722,079	-176,471	-0,154	-0,003
-721,064	-39,814	-0,054	-0,021
-720,050	-67,755	-0,097	-0,028
-719,035	271,900	-0,021	0,027
-718,021	-200,000	0,107	0,000
-717,006	-200,000	0,020	-0,134
-715,991	-200,000	-0,025	0,102
-714,977	-184,054	-0,218	0,003
-713,962	-87,640	-0,041	-0,009
-712,948	2,530	0,088	0,048
-711,933	-200,000	0,026	-0,109
-710,918	800,000	0,045	-0,104
-709,904	-200,000	0,041	-0,183
-708,889	-151,981	-0,157	-0,008
-707,875	66,267	-0,049	0,037
-706,860	-200,000	-0,013	0,056
-705,845	95,862	0,013	0,011
-704,831	520,933	0,018	-0,031
-703,816	-101,018	0,143	0,026
-702,802	-200,000	-0,012	0,133
-701,787	-67,053	-0,145	-0,042
-700,772	-120,129	-0,143	-0,018
-699,758	190,268	-0,093	-0,104
-698,743	-57,578	0,062	-0,020
-697,729	-4,881	0,134	0,068
-696,714	-152,849	-0,093	0,005
-695,699	-61,881	-0,167	-0,052
-694,685	8,456	-0,157	-0,088
-693,670	42,538	-0,127	-0,085
-692,656	-160,766	-0,012	0,000
-691,641	-200,000	-0,010	0,059
-690,627	266,555	-0,039	-0,051
-689,612	-79,606	-0,132	-0,033
-688,597	166,280	-0,033	0,035
-687,583	192,920	-0,047	-0,053
-686,568	800,000	0,008	0,017
-685,554	800,000	-0,036	0,090
-684,539	8,557	0,154	0,086
-683,524	-200,000	0,005	-0,147
-682,510	57,841	-0,032	0,024
-681,495	184,012	-0,166	-0,182
-680,481	26,746	-0,128	-0,080
-679,466	288,204	-0,112	-0,151
-678,451	-21,634	-0,035	0,016
-677,437	-200,000	-0,004	0,145
-676,422	-140,999	0,136	0,010
-675,408	-200,000	-0,047	0,190
-674,393	202,513	-0,054	0,062
-673,378	-71,160	-0,044	-0,012
-672,364	-77,274	-0,196	0,050
-671,349	800,000	-0,059	-0,122
-670,335	97,121	-0,078	-0,067
-669,320	-42,274	-0,062	0,024
-668,305	330,069	-0,056	-0,080
-667,291	113,982	-0,047	-0,043
-666,276	-121,623	-0,111	-0,013
-665,262	-22,091	0,079	-0,036
-664,247	19,551	-0,127	-0,076
-663,232	6,676	-0,022	-0,012
-662,218	-200,000	0,009	-0,035
-661,203	63,868	-0,005	0,004
-660,189	-48,683	0,041	-0,014
-659,174	45,349	-0,173	-0,119
-658,159	-5,047	-0,093	-0,047
-657,145	289,251	0,120	0,162
-656,130	154,521	-0,125	-0,127
-655,116	800,000	-0,053	0,139
-654,101	-79,842	0,112	0,028
-653,086	-200,000	0,019	-0,149
-652,072	-47,202	-0,076	-0,027
-651,057	112,708	-0,148	-0,133
-650,043	125,538	-0,074	-0,070
-649,028	800,000	-0,016	-0,036
-648,014	-200,000	0,009	-0,041
-646,999	-200,000	-0,005	0,029
-645,984	-118,535	0,125	0,016
-644,970	-200,000	-0,005	-0,049
-643,955	-140,142	-0,124	0,010
-642,941	15,106	-0,060	0,035
-641,926	-200,000	-0,022	-0,122
-640,911	-200,000	0,029	-0,217
-639,897	-200,000	0,009	0,042
-638,882	-23,904	-0,047	-0,021
-637,868	-44,208	-0,122	0,045
-636,853	-80,475	-0,149	0,037
-635,838	-86,752	0,076	-0,017
-634,824	800,000	-0,021	-0,050
-633,809	-110,510	-0,137	-0,021
-632,795	188,954	0,033	-0,037
-631,780	800,000	0,044	0,103
-630,765	-94,922	-0,135	0,027
-629,751	411,347	-0,024	0,037
-628,736	264,941	-0,074	-0,097
-627,722	-200,000	-0,012	0,062
-626,707	800,000	0,046	-0,132
-625,692	243,715	-0,035	-0,044
-624,678	-171,341	-0,081	0,002
-623,663	109,690	-0,111	0,099
-622,649	-200,000	-0,021	-0,073
-621,634	30,040	-0,081	-0,051
-620,619	140,971	0,008	-0,008
-619,605	-200,000	-0,002	0,033
-618,590	-63,374	-0,028	-0,009
-617,576	-30,305	0,035	-0,015
-616,561	-146,979	-0,068	0,004
-615,546	154,139	0,043	-0,044
-614,532	-200,000	-0,020	-0,105
-613,517	-114,429	0,045	-0,006
-612,503	318,047	0,056	0,079
-611,488	-200,000	0,021	-0,100
-610,474	198,119	-0,051	0,057
-609,459	487,645	0,023	0,039
-608,444	13,883	-0,051	0,029
-607,430	800,000	-0,011	-0,034
-606,415	78,764	-0,121	-0,096
-605,401	-200,000	-0,016	-0,094
-604,386	154,178	0,114	-0,116
-603,371	800,000	0,049	0,119
-602,357	800,000	-0,081	0,168
-601,342	95,001	-0,137	-0,115
-600,328	-200,000	0,010	-0,161
-599,313	-38,220	-0,088	0,034
-598,298	126,130	0,049	-0,046
-597,284	-200,000	0,024	0,111
-596,269	47,726	0,044	0,031
-595,255	800,000	0,015	-0,039
-594,240	800,000	0,031	0,074
-593,225	800,000	0,050	-0,122
-592,211	5,130	0,096	-0,052
-591,196	281,715	-0,086	-0,115
-590,182	-200,000	-0,014	0,083
-589,167	800,000	0,014	0,042
-588,152	89,954	-0,047	0,039
-587,138	-200,000	-0,008	0,052
-586,123	11,875	-0,044	-0,025
-585,109	219,410	-0,050	0,059
-584,094	-53,020	-0,064	-0,022
-583,079	-200,000	0,036	0,144
-582,065	288,772	0,095	0,128
-581,050	226,393	-0,025	0,030
-580,036	239,115	-0,014	-0,017
-579,021	-63,497	-0,121	-0,036
-578,006	-21,227	-0,072	-0,032
-576,992	-117,206	0,080	0,011
-575,977	-93,287	0,148	0,030
-574,963	313,091	0,026	-0,037
-573,948	189,688	-0,025	-0,028
-572,934	-200,000	-0,002	-0,223
-571,919	172,045	0,071	-0,075
-570,904	49,128	-0,066	-0,046
-569,890	46,983	-0,073	-0,050
-568,875	123,666	-0,090	0,084
-567,861	-34,838	0,079	-0,032
-566,846	80,081	-0,134	-0,106
-565,831	11,427	0,060	-0,034
-564,817	557,831	-0,012	0,022
-563,802	273,151	-0,167	-0,219
-562,788	92,377	-0,066	-0,055
-561,773	101,925	0,120	-0,103
-560,758	-119,073	-0,113	-0,014
-559,744	-200,000	-0,021	0,142
-558,729	-7,829	0,055	-0,028
-557,715	-144,224	-0,144	-0,010
-556,700	-132,778	0,083	-0,008
-555,685	-167,685	0,057	0,002
-554,671	800,000	0,022	0,049
-553,656	-79,488	-0,058	0,014
-552,642	723,154	0,037	-0,074
-551,627	800,000	0,029	0,070
-550,612	-200,000	0,002	-0,072
-549,598	-135,038	-0,091	-0,008
-548,583	-200,000	0,006	-0,076
-547,569	800,000	-0,011	0,031
-546,554	800,000	-0,042	0,129
-545,539	707,052	0,058	0,113
-544,525	-38,025	-0,073	0,028
-543,510	-200,000	0,005	0,032
-542,496	380,340	-0,006	-0,009
-541,481	-200,000	-0,023	-0,101
-540,466	-116,510	-0,111	0,015
-539,452	-103,477	-0,069	0,012
-538,437	38,234	-0,078	0,052
-537,423	800,000	0,036	-0,077
-536,408	-200,000	-0,002	-0,090
-535,393	-200,000	0,011	-0,067
-534,379	60,575	0,028	0,021
-533,364	-48,606	0,151	-0,053
-532,350	446,118	0,036	-0,059
-531,335	-75,917	-0,064	0,017
-530,321	-200,000	-0,013	0,085
-529,306	62,027	-0,094	0,069
-528,291	-98,354	-0,091	-0,017
-527,277	172,305	-0,090	0,096
-526,262	-77,519	0,077	0,019
-525,248	214,129	0,089	0,104
-524,233	-73,819	-0,017	-0,005
-523,218	800,000	0,048	-0,124
-522,204	-15,671	-0,178	0,084
-521,189	60,855	-0,044	-0,032
-520,175	-123,355	-0,041	-0,005
-519,160	522,192	0,063	-0,109
-518,145	145,889	0,097	0,096
-517,131	-200,000	0,001	-0,102
-516,116	-133,833	-0,160	-0,015
-515,102	-200,000	0,007	0,039
-514,087	195,675	0,062	-0,069
-513,072	-200,000	-0,005	0,061
-512,058	222,235	0,028	-0,034
-511,043	415,785	-0,025	-0,039
-510,029	800,000	0,058	0,177
-509,014	-170,543	-0,033	-0,001
-507,999	-93,509	0,158	-0,032
-506,985	-200,000	-0,014	0,092
-505,970	800,000	-0,015	0,040
-504,956	18,167	-0,060	0,035
-503,941	544,415	0,047	-0,083
-502,926	-83,394	-0,066	0,015
-501,912	-200,000	0,002	0,090
-500,897	178,402	0,033	0,035
-499,883	133,895	-0,065	0,062
-498,868	-200,000	-0,062	-0,203
-497,853	-200,000	-0,008	0,089
-496,839	209,137	-0,040	0,046
-495,824	140,667	-0,085	0,082
-494,810	71,452	0,020	-0,016
-493,795	322,544	-0,054	-0,077
-492,781	211,949	0,081	0,095
-491,766	383,951	-0,031	-0,048
-490,751	-78,219	-0,165	-0,042
-489,737	141,074	-0,019	0,019
-488,722	213,232	0,050	0,058
-487,708	-127,814	0,107	0,011
-486,693	-37,406	0,112	0,044
-485,678	4,652	-0,101	-0,055
-484,664	800,000	-0,025	0,065
-483,649	-99,576	-0,047	0,009
-482,635	-11,062	-0,040	-0,020
-481,620	800,000	0,045	-0,137
-480,605	-200,000	-0,016	0,089
-479,591	273,682	0,038	0,049
-478,576	47,957	0,045	-0,031
-477,562	-141,257	-0,101	0,007
-476,547	-200,000	-0,010	-0,062
-475,532	506,387	0,058	-0,099
-474,518	-31,164	0,151	0,062
-473,503	-139,400	-0,073	0,006
-472,489	73,206	-0,091	0,070
-471,474	-200,000	-0,010	0,048
-470,459	468,099	-0,080	-0,132
-469,445	286,634	0,059	-0,078
-468,430	-200,000	-0,005	-0,100
-467,416	800,000	-0,028	-0,057
-466,401	300,869	0,044	0,060
-465,386	-31,246	0,068	0,028
-464,372	66,679	-0,086	-0,065
-463,357	169,312	0,033	-0,035
-462,343	-163,271	-0,054	0,002
-461,328	-4,699	0,068	-0,035
-460,313	-60,508	0,087	0,027
-459,299	-48,994	-0,122	-0,043
-458,284	-7,470	0,180	-0,089
-457,270	28,051	0,045	-0,028
-456,255	-200,000	-0,011	0,067
-455,241	800,000	0,006	0,015
-454,226	283,830	-0,025	0,034
-453,211	217,748	0,079	0,093
-452,197	800,000	0,026	0,064
-451,182	-119,912	0,081	-0,010
-450,168	-200,000	-0,002	-0,044
-449,153	-9,423	0,063	0,031
-448,138	-90,682	-0,130	-0,028
-447,124	39,424	-0,093	-0,061
-446,109	112,282	0,092	0,082
-445,095	32,056	0,144	-0,092
-444,080	-200,000	-0,032	-0,146
-443,065	-150,204	-0,074	-0,004
-442,051	383,366	-0,037	-0,056
-441,036	-18,109	-0,088	-0,041
-440,022	-200,000	0,000	-0,018
-439,007	132,487	-0,035	-0,033
-437,992	-103,502	0,154	0,026
-436,978	16,698	0,062	0,036
-435,963	1,401	-0,063	0,033
-434,949	297,621	-0,039	-0,052
-433,934	-52,181	-0,078	-0,026
-432,919	800,000	-0,019	-0,053
-431,905	800,000	0,034	-0,079
-430,890	-200,000	0,003	0,071
-429,876	-200,000	0,010	0,179
-428,861	384,254	0,010	-0,016
-427,846	163,897	0,102	0,105
-426,832	-172,932	-0,094	0,002
-425,817	333,868	-0,043	0,061
-424,803	-200,000	-0,004	0,130
-423,788	38,022	0,062	-0,041
-422,773	-200,000	0,011	-0,072
-421,759	-96,174	-0,036	0,007
-420,744	-200,000	-0,012	0,057
-419,730	690,450	-0,012	-0,023
-418,715	42,348	-0,110	-0,073
-417,701	-136,645	0,158	-0,013
-416,686	116,919	-0,083	0,075
-415,671	474,172	0,050	0,083
-414,657	-200,000	-0,001	0,034
-413,642	-200,000	-0,001	-0,022
-412,628	800,000	-0,012	0,024
-411,613	-20,815	0,045	0,020
-410,598	-200,000	-0,009	-0,050
-409,584	-106,420	0,047	-0,008
-408,569	-143,539	0,049	-0,003
-407,555	320,406	0,060	0,085
-406,540	-92,233	-0,206	0,042
-405,525	-200,000	0,006	-0,066
-404,511	800,000	-0,020	-0,042
-403,496	620,222	-0,044	-0,081
-402,482	-146,690	0,164	0,010
-401,467	-143,887	0,150	-0,010
-400,452	742,639	-0,054	0,107
-399,438	-54,229	0,104	-0,035
-398,423	-87,089	0,118	-0,026
-397,409	218,133	-0,075	0,089
-396,394	-200,000	-0,026	0,149
-395,379	800,000	0,038	0,113
-394,365	800,000	0,014	-0,033
-393,350	262,529	-0,120	0,154
-392,336	430,710	0,052	0,082
-391,321	440,504	0,037	0,060
-390,306	800,000	-0,040	-0,096
-389,292	-200,000	0,031	-0,112
-388,277	800,000	-0,038	0,080
-387,263	-200,000	-0,032	-0,126
-386,248	-35,858	-0,064	0,025
-385,233	-191,761	0,157	0,001
-384,219	134,653	-0,127	0,122
-383,204	44,384	-0,091	-0,061
-382,190	-33,817	-0,161	-0,065
-381,175	-0,430	0,041	0,021
-380,160	114,295	0,096	-0,086
-379,146	-161,298	-0,072	-0,003
-378,131	800,000	0,096	0,208
-377,117	373,995	-0,079	-0,119
-376,102	-200,000	0,001	-0,084
-375,088	313,791	-0,091	-0,126
-374,073	800,000	-0,052	-0,114
-373,058	-10,467	0,113	-0,055
-372,044	-28,229	-0,063	0,027
-371,029	89,267	0,087	0,071
-370,015	220,988	0,093	0,110
-369,000	-24,496	0,154	0,067
-367,985	668,027	-0,065	-0,125
-366,971	-200,000	0,009	-0,054
-365,956	-168,274	0,076	-0,002
-364,942	-200,000	-0,010	0,070
-363,927	-200,000	-0,027	0,131
-362,912	314,766	0,030	-0,042
-361,898	46,273	0,047	0,032
-360,883	-200,000	-0,022	-0,088
-359,869	533,049	-0,004	0,007
-358,854	-200,000	0,016	0,066
-357,839	158,230	0,091	0,093
-356,825	37,300	0,043	-0,028
-355,810	800,000	-0,021	0,044
-354,796	12,349	0,053	-0,030
-353,781	800,000	0,054	-0,130
-352,766	-89,270	-0,099	0,021
-351,752	-200,000	0,000	-0,092
-350,737	800,000	0,025	0,063
-349,723	-200,000	0,013	0,126
-348,708	16,145	0,140	0,081
-347,693	800,000	0,029	-0,069
-346,679	-132,428	-0,073	-0,007
-345,664	-166,355	-0,166	0,005
-344,650	800,000	-0,028	-0,073
-343,635	236,454	0,069	-0,084
-342,620	509,918	-0,062	-0,106
-341,606	-200,000	-0,006	-0,158
-340,591	129,131	0,145	-0,136
-339,577	571,424	0,040	-0,072
-338,562	-100,117	-0,078	-0,014
-337,548	-139,440	-0,075	-0,006
-336,533	0,958	0,084	-0,044
-335,518	273,789	-0,032	-0,042
-334,504	134,967	-0,083	-0,079
-333,489	-200,000	0,021	-0,185
-332,475	412,176	-0,061	0,096
-331,460	317,129	0,042	0,059
-330,445	106,284	-0,143	0,124
-329,431	-2,639	0,138	0,071
-328,416	96,100	0,065	-0,054
-327,402	250,655	0,122	0,153
-326,387	609,675	-0,023	0,043
-325,372	-96,108	-0,189	-0,036
-324,358	-42,682	0,202	-0,075
-323,343	69,612	-0,035	0,026
-322,329	36,543	-0,042	-0,027
-321,314	431,604	0,026	-0,042
-320,299	-11,593	0,121	0,058
-319,285	-27,997	0,129	-0,054
-318,270	6,157	-0,016	0,009
-317,256	224,670	-0,089	-0,105
-316,241	-200,000	-0,026	0,115
-315,226	-59,892	0,146	-0,046
-314,212	-123,170	0,026	0,003
-313,197	-95,100	0,113	-0,022
-312,183	-38,209	0,073	0,028
-311,168	119,588	-0,011	0,010
-310,153	6,323	-0,145	0,079
-309,139	-200,000	-0,023	0,087
-308,124	-200,000	0,038	-0,158
-307,110	-36,886	0,157	0,061
-306,095	-200,000	0,001	0,070
-305,080	344,011	-0,036	0,053
-304,066	-200,000	-0,015	-0,055
-303,051	149,823	-0,036	-0,035
-302,037	387,190	0,038	-0,057
-301,022	-86,872	0,047	-0,010
-300,008	99,763	0,043	-0,036
-298,993	-130,921	-0,016	-0,002
-297,978	191,938	-0,030	-0,033
-296,964	800,000	0,023	0,053
-295,949	319,722	0,067	0,094
-294,935	224,929	-0,046	-0,055
-293,920	244,981	-0,073	0,090
-292,905	-200,000	0,004	-0,104
-291,891	800,000	0,028	0,075
-290,876	45,836	-0,124	-0,084
-289,862	-200,000	-0,002	0,034
-288,847	681,516	0,065	0,125
-287,832	-172,491	0,125	0,003
-286,818	11,293	0,155	0,087
-285,803	37,475	0,077	-0,050
-284,789	32,010	-0,056	0,035
-283,774	770,555	-0,077	0,153
-282,759	-183,398	-0,065	0,001
-281,745	99,162	-0,128	-0,108
-280,730	800,000	0,032	-0,100
-279,716	-200,000	0,011	-0,059
-278,701	176,426	-0,097	-0,103
-277,686	-200,000	0,004	0,178
-276,672	81,459	0,131	0,104
-275,657	736,011	-0,024	0,047
-274,643	267,164	0,047	-0,061
-273,628	800,000	-0,035	0,093
-272,613	-9,958	0,086	-0,042
-271,599	60,999	0,175	0,127
-270,584	398,509	-0,052	0,080
-269,570	-167,115	-0,036	-0,001
-268,555	-200,000	-0,003	0,026
-267,540	238,889	-0,079	-0,096
-266,526	244,963	-0,047	0,058
-265,511	-98,292	0,091	0,017
-264,497	-12,467	0,072	-0,034
-263,482	82,227	-0,037	0,029
-262,467	-200,000	0,040	0,144
-261,453	-38,832	-0,184	-0,071
-260,438	264,447	-0,015	0,019
-259,424	-200,000	0,030	0,153
-258,409	800,000	-0,020	0,056
-257,395	6,133	-0,160	-0,086
-256,380	527,699	0,076	-0,132
-255,365	108,558	0,016	0,014
-254,351	67,989	-0,062	0,046
-253,336	34,677	-0,138	-0,088
-252,322	32,400	-0,108	0,068
-251,307	-2,616	0,105	-0,053
-250,292	-101,560	-0,046	0,008
-249,278	-56,036	-0,123	0,040
-248,263	800,000	0,035	-0,112
-247,249	-131,587	-0,070	-0,007
-246,234	-65,232	-0,038	-0,011
-245,219	-200,000	-0,013	-0,057
-244,205	-200,000	-0,002	0,089
-243,190	-63,822	0,064	0,019
-242,176	-24,170	0,038	-0,017
-241,161	800,000	0,028	0,083
-240,146	-200,000	-0,031	0,220
-239,132	-97,976	0,023	-0,004
-238,117	428,378	0,061	0,097
-237,103	-200,000	-0,016	-0,108
-236,088	68,565	0,125	0,094
-235,073	415,152	0,099	0,155
-234,059	-200,000	-0,002	-0,076
-233,044	30,664	-0,111	0,069
-232,030	-44,109	-0,076	0,028
-231,015	-20,618	0,037	0,017
-230,000	134,214	0,065	-0,061
-228,986	574,815	0,056	0,100
-227,971	9,822	0,057	0,031
-226,957	-33,495	0,034	-0,014
-225,942	96,403	0,093	-0,078
-224,927	-200,000	0,043	0,000
-223,913	493,129	0,056	0,095
-222,898	-200,000	0,021	0,103
-221,884	-197,682	0,111	0,000
-220,869	81,414	-0,117	-0,092
-219,855	421,148	0,072	-0,114
-218,840	-141,981	-0,087	-0,006
-217,825	-200,000	-0,026	-0,097
-216,811	535,477	-0,024	-0,042
-215,796	-16,926	0,071	-0,033
-214,782	-99,180	0,111	0,020
-213,767	800,000	-0,024	0,067
-212,752	-177,468	0,094	0,002
-211,738	800,000	0,029	0,087
-210,723	307,079	-0,115	0,157
-209,709	240,093	0,030	0,037
-208,694	-56,129	0,016	0,005
-207,679	301,336	0,069	-0,094
-206,665	-101,972	0,091	-0,016
-205,650	248,303	0,026	-0,033
-204,636	-85,082	-0,113	0,026
-203,621	184,077	0,098	-0,106
-202,606	-43,929	0,149	-0,054
-201,592	208,490	-0,042	-0,047
-200,577	82,276	0,027	0,022
-199,563	294,478	0,080	-0,107
-198,548	130,745	0,072	0,068
-197,533	96,749	0,114	0,095
-196,519	525,041	0,063	0,109
-195,504	-46,957	-0,066	0,023
-194,490	800,000	0,038	0,086
-193,475	800,000	0,032	-0,093
-192,460	237,209	-0,011	0,014
-191,446	800,000	-0,027	-0,063
-190,431	-139,692	0,062	0,005
-189,417	800,000	-0,046	0,111
-188,402	-44,350	-0,117	0,043
-187,387	131,358	0,091	-0,085
-186,373	13,693	-0,197	-0,111
-185,358	599,570	0,024	-0,044
-184,344	81,977	0,026	-0,020
-183,329	-200,000	-0,035	0,115
-182,315	381,550	-0,028	-0,042
-181,300	13,886	0,043	0,024
-180,285	25,934	-0,113	0,069
-179,271	590,224	0,048	-0,086
-178,256	800,000	0,039	-0,084
-177,242	800,000	0,049	0,144
-176,227	-200,000	-0,011	0,178
-175,212	-7,598	0,014	-0,007
-174,198	-156,634	0,075	-0,003
-173,183	23,779	0,007	-0,004
-172,169	-147,878	-0,098	0,006
-171,154	70,585	-0,055	-0,041
-170,139	-134,862	0,124	-0,011
-169,125	800,000	0,026	-0,059
-168,110	203,734	0,059	-0,066
-167,096	-200,000	0,002	0,052
-166,081	79,059	0,085	-0,066
-165,066	318,207	-0,046	-0,063
-164,052	557,371	-0,069	-0,122
-163,037	755,175	-0,042	0,083
-162,023	23,427	0,040	0,024
-161,008	254,664	0,046	0,057
-159,993	212,072	-0,059	0,068
-158,979	-200,000	-0,002	0,064
-157,964	800,000	-0,024	-0,058
-156,950	-138,062	0,022	-0,002
-155,935	152,235	-0,034	0,033
-154,920	-200,000	0,019	0,129
-153,906	800,000	0,030	0,086
-152,891	-200,000	-0,016	-0,096
-151,877	-63,670	0,051	-0,015
-150,862	-200,000	-0,010	-0,056
-149,847	71,781	-0,088	-0,066
-148,833	-199,266	0,070	0,000
-147,818	-200,000	-0,001	0,090
-146,804	303,976	-0,065	0,088
-145,789	461,246	0,093	-0,152
-144,775	-84,374	-0,149	0,034
-143,760	-200,000	0,009	-0,043
-142,745	214,013	0,014	-0,016
-141,731	-3,495	0,082	0,041
-140,716	184,886	0,082	0,088
-139,702	-96,534	-0,210	0,040
-138,687	70,988	0,051	0,039
-137,672	-103,735	-0,109	-0,018
-136,658	-192,263	-0,106	-0,001
-135,643	-61,990	0,057	0,017
-134,629	800,000	-0,034	0,070
-133,614	-168,067	0,112	-0,003
-132,599	-200,000	-0,006	-0,028
-131,585	207,970	0,041	0,046
-130,570	68,177	-0,079	-0,058
-129,556	-200,000	0,020	0,119
-128,541	-105,085	-0,211	0,035
-127,526	64,641	-0,056	0,041
-126,512	-102,312	-0,063	0,011
-125,497	-200,000	-0,011	0,083
-124,483	-105,637	-0,190	0,031
-123,468	770,141	0,028	-0,057
-122,453	800,000	0,024	0,069
-121,439	-200,000	-0,000	0,176
-120,424	-200,000	0,009	0,047
-119,410	-155,436	-0,098	-0,005
