DTS Sentinel unit serial number:	SN410029Multiplexer serial number:	ORYXHardware model number:	OX2-SRSoftware version number:	ORYX F/W v4,00 Oryx Data Collector v3.7.2.0data status	okinstallation	B4 Nyhavnadifferential loss correction	single-endedforward channel	channel 2reverse channel	N/Adate	2023/12/18time	18:35:13forward acquisition time	300,00reverse acquisition time	0,00gamma	499,1914k internal	0,3124k external	0,3124temperature offset calibration	1,0000default loss term (dB/km)	0,3820temperature slope calibration	1,0000multiplexer offset coefficient	1,0000multiplexer slope coefficient	1,0000fibre end	0,00T internal ref (°C)	21,94T ext. ref 1 (°C)	7,10T ext. ref 2 (°C)	7,16length (m)	temperature (°C)	Stokes	anti-Stokes-744,400	-200,000	0,036	-0,139
-743,385	149,589	-0,138	0,140
-742,371	148,291	0,066	-0,066
-741,356	-177,965	-0,189	-0,003
-740,342	-200,000	-0,007	0,064
-739,327	195,854	-0,115	0,130
-738,312	-56,200	0,105	0,035
-737,298	-109,168	-0,249	0,039
-736,283	-87,001	-0,046	-0,010
-735,269	54,981	-0,298	0,214
-734,254	405,924	0,089	-0,140
-733,239	-90,170	-0,275	-0,059
-732,225	-10,349	0,077	0,038
-731,210	-200,000	0,015	0,063
-730,196	-200,000	0,005	-0,070
-729,181	-200,000	0,015	0,152
-728,167	-8,742	-0,151	-0,075
-727,152	-9,761	-0,104	0,051
-726,137	495,136	0,031	0,054
-725,123	733,009	-0,032	-0,065
-724,108	442,454	-0,076	-0,125
-723,094	-200,000	-0,005	-0,120
-722,079	-200,000	-0,053	-0,244
-721,064	198,190	0,022	0,025
-720,050	47,350	-0,072	0,050
-719,035	-200,000	-0,003	-0,050
-718,021	-200,000	-0,059	-0,232
-717,006	500,396	-0,030	-0,052
-715,991	53,735	-0,142	-0,101
-714,977	216,245	-0,171	-0,202
-713,962	800,000	-0,019	0,043
-712,948	-15,562	-0,042	-0,020
-711,933	-200,000	-0,002	0,092
-710,918	194,758	-0,091	0,103
-709,904	332,106	-0,059	-0,085
-708,889	-200,000	-0,016	0,066
-707,875	800,000	-0,063	-0,139
-706,860	-200,000	0,010	0,070
-705,845	304,396	-0,057	-0,079
-704,831	-200,000	0,006	-0,069
-703,816	-58,477	0,042	0,013
-702,802	-68,282	0,061	-0,018
-701,787	249,679	-0,132	-0,167
-700,772	257,619	-0,030	0,039
-699,758	12,471	-0,128	-0,073
-698,743	549,104	-0,127	0,228
-697,729	90,136	0,188	0,156
-696,714	-200,000	0,002	0,077
-695,699	-86,563	0,135	-0,031
-694,685	308,845	0,055	-0,076
-693,670	-37,073	-0,113	-0,045
-692,656	706,832	0,065	-0,127
-691,641	-200,000	-0,002	0,008
-690,627	-200,000	0,014	0,112
-689,612	188,477	0,037	0,041
-688,597	262,370	0,053	0,069
-687,583	39,403	-0,042	0,028
-686,568	70,263	0,026	0,020
-685,554	-90,663	-0,038	0,008
-684,539	-27,511	0,063	-0,027
-683,524	800,000	-0,036	0,107
-682,510	36,107	-0,070	-0,046
-681,495	-200,000	-0,021	0,082
-680,481	-34,193	-0,098	-0,040
-679,466	-15,046	-0,049	0,023
-678,451	188,575	0,052	-0,058
-677,437	-200,000	-0,029	-0,129
-676,422	-106,581	-0,044	0,007
-675,408	-90,805	0,077	-0,016
-674,393	13,097	-0,126	-0,072
-673,378	23,929	-0,117	-0,072
-672,364	-101,135	-0,197	-0,035
-671,349	43,584	0,079	-0,054
-670,335	193,636	-0,041	0,046
-669,320	-16,071	0,155	0,073
-668,305	-200,000	-0,031	0,114
-667,291	-73,157	-0,099	-0,027
-666,276	-5,289	-0,106	-0,054
-665,262	667,764	-0,022	0,042
-664,247	113,434	-0,079	0,071
-663,232	-200,000	0,002	-0,038
-662,218	-73,735	0,107	0,029
-661,203	109,324	0,112	-0,100
-660,189	-200,000	0,011	0,064
-659,174	438,897	-0,069	0,113
-658,159	-200,000	-0,022	0,168
-657,145	15,400	0,106	0,062
-656,130	-200,000	-0,005	0,084
-655,116	25,001	-0,056	0,034
-654,101	122,429	0,041	-0,038
-653,086	4,091	-0,036	-0,020
-652,072	146,088	0,077	-0,077
-651,057	-200,000	0,022	-0,130
-650,043	800,000	-0,044	0,103
-649,028	277,763	-0,026	0,035
-648,014	91,523	-0,099	0,082
-646,999	82,420	0,008	0,006
-645,984	-3,548	0,091	0,047
-644,970	50,134	0,050	-0,035
-643,955	800,000	0,024	0,064
-642,941	390,948	-0,044	0,067
-641,926	77,436	-0,107	-0,084
-640,911	-104,281	0,097	0,017
-639,897	-200,000	0,054	0,202
-638,882	-200,000	0,013	-0,099
-637,868	-34,312	-0,062	-0,025
-636,853	-80,865	-0,044	0,011
-635,838	-108,704	-0,109	-0,017
-634,824	-10,497	-0,176	0,086
-633,809	-9,788	0,080	0,040
-632,795	-200,000	0,026	-0,111
-631,780	-200,000	0,017	0,091
-630,765	226,119	0,059	0,071
-629,751	-11,667	0,017	0,008
-628,736	713,252	-0,009	-0,017
-627,722	800,000	0,018	-0,049
-626,707	747,778	0,037	-0,074
-625,692	-65,479	0,092	0,027
-624,678	-200,000	-0,013	-0,047
-623,663	-200,000	-0,007	0,044
-622,649	-200,000	-0,040	-0,202
-621,634	-200,000	-0,009	-0,169
-620,619	219,412	-0,018	0,021
-619,605	402,675	-0,046	-0,072
-618,590	515,861	-0,046	-0,080
-617,576	45,575	0,093	0,064
-616,561	483,270	-0,044	0,075
-615,546	129,598	0,015	-0,014
-614,532	5,864	-0,152	-0,083
-613,517	-109,165	0,081	-0,013
-612,503	115,650	0,017	0,016
-611,488	121,193	0,024	-0,022
-610,474	-200,000	-0,015	-0,118
-609,459	383,261	0,039	-0,060
-608,444	800,000	0,006	-0,019
-607,430	345,463	0,019	-0,028
-606,415	800,000	-0,028	-0,084
-605,401	-177,500	0,077	0,001
-604,386	346,709	-0,046	-0,068
-603,371	3,136	-0,040	-0,021
-602,357	-14,178	-0,122	-0,058
-601,342	56,137	0,011	0,008
-600,328	-200,000	-0,002	-0,026
-599,313	-70,576	-0,140	0,039
-598,298	800,000	0,026	0,072
-597,284	390,448	0,066	0,101
-596,269	-200,000	-0,061	0,234
-595,255	-200,000	0,001	-0,060
-594,240	345,652	-0,043	-0,063
-593,225	116,009	-0,150	-0,136
-592,211	123,981	0,070	-0,065
-591,196	313,008	-0,066	-0,092
-590,182	77,766	0,072	-0,057
-589,167	-200,000	0,001	0,130
-588,152	-93,922	-0,149	0,030
-587,138	800,000	-0,006	0,013
-586,123	122,861	-0,083	0,077
-585,109	800,000	0,015	-0,035
-584,094	709,697	0,033	-0,066
-583,079	800,000	0,054	-0,145
-582,065	800,000	-0,001	0,004
-581,050	-73,915	0,089	-0,024
-580,036	-60,999	0,027	-0,008
-579,021	-200,000	0,033	-0,149
-578,006	205,733	-0,040	0,046
-576,992	-152,353	0,038	-0,002
-575,977	140,407	-0,039	-0,038
-574,963	800,000	-0,033	-0,090
-573,948	800,000	-0,046	0,123
-572,934	210,042	0,039	-0,046
-571,919	347,194	0,047	0,068
-570,904	121,114	-0,080	-0,073
-569,890	-62,046	-0,040	0,012
-568,875	-200,000	0,004	0,086
-567,861	-71,862	0,027	0,007
-566,846	800,000	0,031	0,100
-565,831	-118,017	0,042	-0,006
-564,817	281,853	0,061	0,081
-563,802	232,760	0,021	0,026
-562,788	721,725	0,020	-0,039
-561,773	800,000	0,039	0,083
-560,758	-200,000	0,002	-0,095
-559,744	158,798	0,053	-0,054
-558,729	-200,000	0,009	0,064
-557,715	-122,421	0,038	-0,005
-556,700	423,273	0,051	-0,081
-555,685	126,394	0,009	0,008
-554,671	800,000	0,048	-0,128
-553,656	239,024	0,028	0,034
-552,642	800,000	0,075	0,164
-551,627	341,608	0,010	-0,014
-550,612	51,547	-0,057	0,040
-549,598	384,726	-0,028	-0,042
-548,583	59,289	0,044	-0,032
-547,569	468,786	0,002	0,003
-546,554	-74,545	0,145	0,038
-545,539	-7,097	0,035	-0,018
-544,525	230,430	0,050	0,061
-543,510	138,446	-0,022	0,022
-542,496	-200,000	-0,024	0,116
-541,481	311,173	-0,012	-0,017
-540,466	-122,697	-0,181	-0,021
-539,452	-64,574	-0,113	0,034
-538,437	800,000	-0,029	0,085
-537,423	245,113	0,038	-0,048
-536,408	139,741	0,064	-0,063
-535,393	106,671	-0,049	-0,043
-534,379	582,276	0,036	-0,066
-533,364	-200,000	0,034	0,128
-532,350	-107,707	0,093	0,015
-531,335	-153,639	0,090	0,005
-530,321	-54,585	0,077	0,026
-529,306	-200,000	-0,013	-0,047
-528,291	-99,114	-0,073	0,013
-527,277	-200,000	-0,004	-0,050
-526,262	-200,000	-0,012	0,111
-525,248	-27,265	0,088	-0,038
-524,233	76,386	-0,030	-0,023
-523,218	-131,672	-0,065	-0,006
-522,204	20,039	0,066	-0,039
-521,189	-200,000	-0,010	-0,034
-520,175	-39,157	-0,096	-0,037
-519,160	74,922	-0,026	-0,020
-518,145	29,772	0,037	0,023
-517,131	351,656	0,043	-0,062
-516,116	-200,000	-0,036	-0,141
-515,102	-200,000	-0,018	0,077
-514,087	-89,212	-0,113	-0,024
-513,072	185,507	0,059	-0,065
-512,058	132,333	-0,065	-0,062
-511,043	-200,000	0,013	-0,073
-510,029	-95,729	-0,080	0,016
-509,014	800,000	0,023	0,075
-507,999	175,989	-0,117	0,126
-506,985	670,806	0,021	-0,039
-505,970	73,115	-0,120	-0,093
-504,956	800,000	-0,052	-0,109
-503,941	-70,298	-0,027	-0,007
-502,926	300,465	0,047	-0,065
-501,912	-182,404	0,062	0,001
-500,897	-14,051	-0,040	-0,019
-499,883	-128,896	-0,102	-0,010
-498,868	-173,997	-0,097	0,002
-497,853	320,527	0,024	-0,033
-496,839	-5,363	-0,041	-0,021
-495,824	-39,956	0,042	-0,016
-494,810	58,710	-0,033	0,024
-493,795	-80,692	-0,095	-0,023
-492,781	-200,000	-0,011	0,096
-491,766	-14,350	-0,121	-0,057
-490,751	70,952	0,071	-0,054
-489,737	-200,000	0,027	-0,093
-488,722	-200,000	0,024	0,103
-487,708	397,615	-0,029	-0,045
-486,693	-60,488	-0,185	0,058
-485,678	546,605	0,055	-0,098
-484,664	457,522	0,085	0,140
-483,649	54,030	-0,037	-0,026
-482,635	590,668	0,094	-0,172
-481,620	254,243	0,037	0,046
-480,605	-200,000	-0,017	-0,080
-479,591	-200,000	0,005	0,020
-478,576	-135,964	0,058	0,005
-477,562	-92,743	-0,127	-0,026
-476,547	642,727	-0,055	-0,104
-475,532	800,000	0,013	-0,037
-474,518	-109,414	0,038	0,006
-473,503	-200,000	-0,007	0,122
-472,489	792,593	0,062	0,126
-471,474	-200,000	-0,009	0,076
-470,459	229,929	-0,009	-0,011
-469,445	-26,106	-0,085	-0,037
-468,430	-200,000	-0,033	-0,117
-467,416	608,588	-0,006	0,011
-466,401	726,519	0,040	-0,079
-465,386	52,418	0,024	0,017
-464,372	-121,376	-0,059	-0,007
-463,357	375,529	-0,047	-0,071
-462,343	-116,758	-0,164	-0,022
-461,328	800,000	-0,056	-0,123
-460,313	-38,618	-0,011	0,004
-459,299	-200,000	-0,019	-0,083
-458,284	-114,802	0,095	0,013
-457,270	-200,000	-0,005	0,105
-456,255	800,000	0,006	-0,013
-455,241	11,816	-0,083	-0,047
-454,226	33,631	0,055	-0,035
-453,211	768,050	0,038	-0,077
-452,197	800,000	0,020	-0,042
-451,182	-200,000	-0,013	0,049
-450,168	581,859	-0,037	-0,068
-449,153	-200,000	0,021	-0,161
-448,138	-13,473	-0,044	-0,021
-447,124	21,718	0,042	-0,025
-446,109	800,000	-0,029	0,073
-445,095	-13,246	0,095	0,045
-444,080	-64,616	-0,093	-0,028
-443,065	-111,324	0,109	0,016
-442,051	800,000	-0,016	0,039
-441,036	-200,000	0,018	0,113
-440,022	-200,000	-0,002	0,155
-439,007	517,026	0,033	0,058
-437,992	646,489	0,077	-0,146
-436,978	644,604	0,012	0,023
-435,963	-200,000	-0,006	0,025
-434,949	-200,000	-0,035	-0,120
-433,934	-38,439	0,030	0,012
-432,919	21,690	-0,165	0,098
-431,905	-83,362	0,039	-0,009
-430,890	-200,000	0,008	0,058
-429,876	800,000	-0,048	0,102
-428,861	123,748	-0,061	0,056
-427,846	-137,417	-0,104	0,009
-426,832	279,131	0,043	-0,057
-425,817	-200,000	-0,010	0,082
-424,803	65,430	-0,119	-0,089
-423,788	-200,000	-0,012	-0,046
-422,773	-200,000	-0,026	0,169
-421,759	23,367	-0,111	-0,067
-420,744	73,744	0,044	0,034
-419,730	-200,000	-0,024	0,083
-418,715	-16,147	-0,048	-0,023
-417,701	61,199	0,051	-0,037
-416,686	-106,383	0,124	-0,020
-415,671	-40,285	0,052	-0,020
-414,657	140,861	0,064	0,062
-413,642	-200,000	-0,010	0,086
-412,628	-200,000	0,009	-0,038
-411,613	39,906	-0,104	-0,068
-410,598	14,936	-0,056	-0,032
-409,584	54,352	0,066	-0,047
-408,569	331,840	0,048	-0,068
-407,555	747,220	0,024	-0,048
-406,540	628,025	-0,049	0,092
-405,525	235,970	-0,024	-0,029
-404,511	-52,685	0,057	-0,019
-403,496	209,863	0,039	-0,045
-402,482	91,299	-0,122	0,101
-401,467	-75,725	0,032	0,008
-400,452	800,000	-0,024	0,065
-399,438	-200,000	0,007	-0,022
-398,423	326,100	-0,110	-0,156
-397,409	55,896	-0,120	-0,086
-396,394	800,000	0,026	-0,062
-395,379	-21,156	-0,121	0,054
-394,365	-200,000	-0,002	0,161
-393,350	800,000	0,044	0,109
-392,336	639,925	0,039	0,073
-391,321	498,139	0,082	-0,140
-390,306	180,659	-0,048	-0,052
-389,292	-172,208	-0,070	0,002
-388,277	-35,980	-0,119	0,047
-387,263	34,166	0,069	-0,044
-386,248	119,731	-0,045	-0,041
-385,233	-10,242	0,039	0,019
-384,219	-171,414	0,051	-0,001
-383,204	32,538	0,060	-0,038
-382,190	297,270	-0,073	-0,099
-381,175	29,694	-0,146	0,091
-380,160	307,943	0,032	-0,044
-379,146	524,595	-0,035	0,061
-378,131	194,259	-0,015	0,017
-377,117	-106,117	0,108	-0,018
-376,102	-200,000	-0,014	-0,111
-375,088	-109,077	-0,094	0,015
-374,073	153,903	0,041	0,041
-373,058	-24,725	0,211	0,092
-372,044	12,619	-0,092	0,052
-371,029	-42,259	-0,041	0,015
-370,015	-200,000	-0,005	0,102
-369,000	436,405	-0,054	0,086
-367,985	-13,810	-0,036	0,017
-366,971	800,000	0,051	0,117
-365,956	-200,000	-0,009	0,147
-364,942	800,000	0,060	0,171
-363,927	314,873	-0,011	0,015
-362,912	-70,214	0,134	0,037
-361,898	800,000	0,025	0,076
-360,883	-66,121	0,064	-0,019
-359,869	267,067	-0,089	-0,114
-358,854	-74,303	-0,051	-0,013
-357,839	-198,597	-0,038	-0,000
-356,825	678,631	0,050	0,097
-355,810	360,682	-0,022	-0,032
-354,796	-200,000	-0,018	0,079
-353,781	-200,000	-0,015	-0,121
-352,766	-200,000	0,015	-0,165
-351,752	234,116	0,033	-0,039
-350,737	-200,000	0,009	-0,084
-349,723	10,588	0,131	-0,073
-348,708	184,506	-0,097	0,106
-347,693	-200,000	0,003	-0,114
-346,679	800,000	-0,033	-0,075
-345,664	50,989	0,057	-0,039
-344,650	-121,299	0,099	0,012
-343,635	-200,000	0,018	-0,134
-342,620	211,029	0,139	0,161
-341,606	-52,019	-0,139	0,047
-340,591	-124,954	-0,148	0,017
-339,577	-43,527	-0,133	0,049
-338,562	-200,000	0,022	-0,076
-337,548	-165,303	-0,063	-0,002
-336,533	800,000	0,017	-0,048
-335,518	166,991	0,106	0,110
-334,504	-55,016	0,132	-0,043
-333,489	-200,000	0,015	-0,051
-332,475	102,194	-0,044	-0,038
-331,460	800,000	0,027	-0,070
-330,445	800,000	0,032	0,090
-329,431	-200,000	0,016	0,090
-328,416	49,869	-0,080	0,055
-327,402	-141,810	0,056	-0,004
-326,387	800,000	0,012	0,028
-325,372	-133,045	-0,092	0,008
-324,358	-62,791	-0,072	-0,022
-323,343	75,364	0,051	0,040
-322,329	308,699	0,031	-0,043
-321,314	-2,564	0,175	0,090
-320,299	800,000	-0,039	0,122
-319,285	144,136	0,031	-0,031
-318,270	-50,231	0,063	0,022
-317,256	800,000	0,055	-0,152
-316,241	-1,632	0,114	-0,059
-315,226	39,620	0,058	-0,038
-314,212	-127,366	0,053	0,006
-313,197	-200,000	0,005	0,080
-312,183	301,102	0,084	0,113
-311,168	-33,963	0,119	-0,048
-310,153	407,421	-0,017	0,026
-309,139	-20,943	-0,024	0,011
-308,124	25,556	0,024	-0,015
-307,110	800,000	-0,042	-0,098
-306,095	436,715	0,034	0,054
-305,080	-200,000	0,025	0,143
-304,066	477,803	0,027	0,044
-303,051	67,212	-0,026	0,019
-302,037	545,281	-0,003	0,005
-301,022	70,771	0,009	0,007
-300,008	-42,121	-0,005	-0,002
-298,993	-16,688	-0,074	-0,034
-297,978	-87,719	0,043	0,009
-296,964	458,310	-0,047	-0,077
-295,949	454,433	-0,029	-0,047
-294,935	-37,074	-0,104	-0,040
-293,920	-200,000	0,015	-0,069
-292,905	-200,000	0,005	0,090
-291,891	-33,389	0,076	0,031
-290,876	-56,546	0,080	0,026
-289,862	800,000	-0,041	-0,130
-288,847	390,712	0,069	-0,105
-287,832	800,000	0,050	0,114
-286,818	-10,446	-0,147	0,071
-285,803	184,364	0,063	0,068
-284,789	-118,889	0,066	0,008
-283,774	72,225	-0,117	0,089
-282,759	-200,000	0,020	0,098
-281,745	800,000	0,025	0,056
-280,730	491,263	0,041	0,069
-279,716	2,845	0,075	-0,040
-278,701	800,000	0,018	0,045
-277,686	495,021	0,086	0,145
-276,672	399,318	0,022	0,033
-275,657	-94,893	0,055	0,011
-274,643	-115,961	-0,019	-0,003
-273,628	-54,986	-0,130	0,043
-272,613	100,317	0,116	0,098
-271,599	-200,000	-0,009	0,066
-270,584	18,489	0,062	0,036
-269,570	124,132	0,050	-0,046
-268,555	46,282	-0,107	-0,072
-267,540	-200,000	-0,007	-0,060
-266,526	-69,071	0,090	-0,025
-265,511	800,000	-0,078	-0,163
-264,497	181,475	0,095	-0,102
-263,482	-136,255	0,056	0,005
-262,467	317,901	-0,072	0,099
-261,453	800,000	-0,036	-0,109
-260,438	-200,000	-0,002	0,043
-259,424	658,596	-0,021	0,039
-258,409	800,000	0,032	0,080
-257,395	75,080	-0,173	0,133
-256,380	89,752	0,035	0,028
-255,365	-136,705	-0,042	-0,003
-254,351	-60,397	-0,097	0,030
-253,336	-200,000	-0,025	-0,082
-252,322	-22,736	0,056	-0,025
-251,307	-7,172	0,101	-0,050
-250,292	-83,105	0,137	0,032
-249,278	-200,000	-0,013	0,064
-248,263	8,660	0,049	0,027
-247,249	465,269	0,113	-0,186
-246,234	-200,000	-0,031	0,127
-245,219	-200,000	0,008	-0,044
-244,205	800,000	0,043	-0,099
-243,190	-175,426	-0,061	0,001
-242,176	82,362	0,065	-0,051
-241,161	-13,312	-0,061	-0,029
-240,146	-200,000	-0,006	0,062
-239,132	800,000	0,020	0,058
-238,117	-135,594	-0,091	-0,008
-237,103	800,000	-0,037	0,104
-236,088	-168,923	-0,087	0,002
-235,073	444,642	0,036	-0,057
-234,059	58,101	-0,047	0,034
-233,044	-33,364	0,094	0,038
-232,030	-200,000	0,032	-0,219
-231,015	-200,000	0,007	-0,187
-230,000	800,000	-0,015	-0,039
-228,986	-114,287	0,091	0,013
-227,971	58,897	0,117	0,084
-226,957	390,900	-0,070	0,107
-225,942	70,213	0,058	-0,044
-224,927	-200,000	0,003	0,019
-223,913	299,207	-0,051	-0,069
-222,898	16,216	-0,070	0,040
-221,884	23,226	0,052	-0,031
-220,869	271,930	0,037	0,048
-219,855	-67,262	0,117	-0,033
-218,840	161,138	0,076	0,077
-217,825	642,139	0,069	0,128
-216,811	108,716	0,088	0,077
-215,796	-200,000	0,045	0,178
-214,782	800,000	0,059	-0,133
-213,767	440,842	-0,024	0,038
-212,752	-118,528	0,167	-0,021
-211,738	800,000	-0,053	0,168
-210,723	321,851	0,069	0,096
-209,709	-89,573	-0,150	-0,032
-208,694	-5,751	0,059	-0,030
-207,679	484,624	0,060	0,100
-206,665	202,146	-0,044	0,050
-205,650	22,298	0,116	0,069
-204,636	132,119	0,076	-0,071
-203,621	87,160	0,064	-0,052
-202,606	30,402	-0,045	0,028
-201,592	140,591	-0,060	-0,058
-200,577	-80,549	0,132	-0,032
-199,563	-86,961	0,097	0,021
-198,548	230,210	0,012	-0,014
-197,533	-200,000	-0,001	0,054
-196,519	504,516	-0,026	0,044
-195,504	-200,000	-0,003	0,054
-194,490	461,284	-0,062	-0,101
-193,475	800,000	0,025	0,060
-192,460	-25,943	-0,144	-0,061
-191,446	800,000	0,021	-0,049
-190,431	-107,841	-0,103	0,016
-189,417	-200,000	-0,017	0,070
-188,402	-18,966	-0,048	0,022
-187,387	800,000	0,033	0,080
-186,373	800,000	0,034	0,069
-185,358	141,428	0,045	-0,043
-184,344	250,900	0,024	0,029
-183,329	-12,506	0,096	-0,046
-182,315	-24,985	0,009	-0,004
-181,300	-200,000	0,002	0,104
-180,285	800,000	-0,004	-0,008
-179,271	-0,405	-0,139	0,072
-178,256	-22,899	-0,039	0,017
-177,242	-42,079	-0,114	0,042
-176,227	800,000	0,020	0,046
-175,212	-200,000	0,009	-0,083
-174,198	800,000	0,029	0,063
-173,183	152,184	-0,066	-0,066
-172,169	-91,664	-0,216	-0,044
-171,154	423,587	0,077	0,121
-170,139	800,000	-0,016	0,045
-169,125	546,074	-0,046	-0,080
-168,110	467,718	-0,067	-0,109
-167,096	68,474	-0,076	-0,057
-166,081	78,769	0,039	-0,030
-165,066	258,966	0,051	0,065
-164,052	-82,453	-0,076	0,018
-163,037	352,842	0,005	-0,008
-162,023	-121,622	0,055	0,007
-161,008	-200,000	-0,005	-0,022
-159,993	-68,158	0,053	-0,015
-158,979	-200,000	-0,000	-0,146
-157,964	-200,000	0,019	0,072
-156,950	800,000	0,039	-0,109
-155,935	37,923	0,040	-0,026
-154,920	201,480	0,056	-0,063
-153,906	-58,704	-0,085	-0,027
-152,891	-191,324	-0,069	0,000
-151,877	348,928	-0,040	0,057
-150,862	-21,056	-0,122	-0,054
-149,847	-118,336	0,085	-0,011
-148,833	7,411	0,138	0,075
-147,818	-96,641	0,098	0,019
-146,804	241,110	0,114	0,139
-145,789	550,752	-0,047	0,082
-144,775	85,264	0,037	-0,029
-143,760	46,816	-0,016	0,011
-142,745	-200,000	0,014	-0,081
-141,731	-200,000	-0,015	0,083
-140,716	49,260	0,070	0,048
-139,702	-80,636	0,048	0,012
-138,687	758,780	0,033	0,065
-137,672	-76,126	-0,106	0,027
-136,658	300,063	-0,039	-0,052
-135,643	-200,000	-0,034	0,169
-134,629	59,258	-0,021	-0,015
-133,614	93,608	0,066	-0,054
-132,599	97,281	0,027	0,022
-131,585	800,000	-0,030	0,096
-130,570	230,022	-0,042	0,051
-129,556	-22,887	-0,151	0,066
-128,541	-200,000	0,011	0,084
-127,526	-151,836	-0,235	-0,012
-126,512	-98,871	-0,004	-0,001
-125,497	-49,072	0,059	0,020
-124,483	-68,660	0,093	-0,026
-123,468	-200,000	-0,018	-0,069
-122,453	-200,000	-0,016	-0,084
-121,439	800,000	0,064	-0,142
-120,424	513,988	0,049	-0,084
-119,410	-108,256	0,085	0,013
-118,395	-200,000	-0,026	0,110
