DTS Sentinel unit serial number:	SN410029Multiplexer serial number:	ORYXHardware model number:	OX2-SRSoftware version number:	ORYX F/W v4,00 Oryx Data Collector v3.7.2.0data status	okinstallation	B4 Nyhavnadifferential loss correction	single-endedforward channel	channel 2reverse channel	N/Adate	2023/12/15time	18:25:13forward acquisition time	300,00reverse acquisition time	0,00gamma	499,1914k internal	0,3140k external	0,3140temperature offset calibration	1,0000default loss term (dB/km)	0,3820temperature slope calibration	1,0000multiplexer offset coefficient	1,0000multiplexer slope coefficient	1,0000fibre end	0,00T internal ref (°C)	19,18T ext. ref 1 (°C)	5,18T ext. ref 2 (°C)	5,29length (m)	temperature (°C)	Stokes	anti-Stokes-744,400	-42,192	-0,063	0,024
-743,385	-37,861	-0,209	0,082
-742,371	800,000	0,044	0,137
-741,356	-50,998	-0,197	0,068
-740,342	-155,709	0,071	0,003
-739,327	-91,367	-0,298	-0,063
-738,312	800,000	0,047	-0,145
-737,298	-93,446	-0,336	0,068
-736,283	-61,346	0,020	0,006
-735,269	-86,956	-0,234	-0,053
-734,254	-50,284	0,103	0,036
-733,239	-94,369	-0,353	-0,071
-732,225	-139,878	0,203	-0,016
-731,210	-54,070	-0,150	0,050
-730,196	-200,000	0,024	-0,102
-729,181	800,000	-0,023	0,075
-728,167	40,734	-0,063	0,042
-727,152	-27,893	0,166	-0,071
-726,137	-81,592	-0,098	0,024
-725,123	28,488	-0,072	0,045
-724,108	16,483	-0,040	-0,023
-723,094	-88,845	-0,114	-0,025
-722,079	-200,000	0,015	-0,090
-721,064	800,000	0,036	-0,103
-720,050	313,282	0,075	-0,105
-719,035	-5,036	0,086	0,044
-718,021	-200,000	-0,005	-0,036
-717,006	96,786	-0,069	-0,058
-715,991	303,828	0,014	-0,020
-714,977	-200,000	0,030	-0,103
-713,962	-66,416	0,058	-0,017
-712,948	229,244	0,025	0,030
-711,933	-200,000	-0,027	-0,104
-710,918	-152,044	0,091	0,005
-709,904	618,177	-0,058	-0,108
-708,889	-200,000	-0,005	0,039
-707,875	-14,113	-0,094	0,045
-706,860	-200,000	-0,010	-0,039
-705,845	-163,307	-0,067	0,002
-704,831	121,311	0,112	0,103
-703,816	-107,724	-0,043	-0,007
-702,802	-8,521	0,022	-0,011
-701,787	73,085	-0,031	-0,024
-700,772	43,271	-0,080	0,054
-699,758	-128,977	-0,102	0,010
-698,743	-31,365	0,050	0,021
-697,729	-99,827	0,126	-0,023
-696,714	346,867	-0,039	0,057
-695,699	800,000	-0,020	-0,055
-694,685	10,756	-0,122	-0,069
-693,670	-91,205	-0,141	-0,030
-692,656	-114,140	-0,200	0,028
-691,641	186,398	-0,007	-0,008
-690,627	800,000	-0,026	0,058
-689,612	270,560	-0,046	0,060
-688,597	-103,540	0,075	0,013
-687,583	-81,803	-0,150	-0,036
-686,568	270,059	-0,062	-0,081
-685,554	128,418	0,049	-0,046
-684,539	132,157	0,083	-0,079
-683,524	-200,000	0,005	-0,115
-682,510	800,000	0,033	0,100
-681,495	-164,688	-0,120	-0,004
-680,481	-200,000	0,025	-0,119
-679,466	-200,000	-0,017	-0,112
-678,451	800,000	0,008	0,019
-677,437	800,000	-0,072	-0,172
-676,422	17,575	0,109	-0,064
-675,408	-154,662	-0,133	0,006
-674,393	206,480	0,030	0,034
-673,378	8,553	0,010	-0,005
-672,364	-200,000	-0,023	-0,114
-671,349	-108,789	-0,202	0,032
-670,335	336,507	0,101	0,146
-669,320	7,387	0,097	0,054
-668,305	-107,275	-0,031	-0,005
-667,291	800,000	-0,023	-0,057
-666,276	-200,000	-0,000	-0,101
-665,262	115,875	0,086	0,078
-664,247	-200,000	0,002	0,128
-663,232	645,517	0,035	-0,067
-662,218	128,466	0,046	-0,044
-661,203	10,111	0,082	0,046
-660,189	298,835	0,124	-0,169
-659,174	-107,780	-0,185	0,030
-658,159	53,596	-0,126	-0,089
-657,145	-200,000	-0,014	-0,074
-656,130	-5,910	0,059	-0,030
-655,116	800,000	-0,016	0,039
-654,101	800,000	-0,005	-0,013
-653,086	324,509	0,049	-0,069
-652,072	-36,371	0,080	0,032
-651,057	701,143	-0,076	-0,148
-650,043	-200,000	0,005	-0,179
-649,028	-94,592	0,079	-0,016
-648,014	495,314	-0,017	0,029
-646,999	0,658	0,052	0,027
-645,984	735,144	0,040	-0,079
-644,970	800,000	0,030	0,085
-643,955	127,895	0,030	-0,029
-642,941	406,472	-0,020	-0,031
-641,926	38,893	0,069	0,045
-640,911	-200,000	-0,012	0,075
-639,897	747,638	-0,070	0,139
-638,882	191,595	-0,086	0,096
-637,868	-200,000	0,003	-0,029
-636,853	800,000	0,036	-0,107
-635,838	800,000	-0,053	-0,122
-634,824	800,000	-0,040	-0,100
-633,809	89,076	0,022	-0,018
-632,795	119,410	0,119	0,109
-631,780	127,165	-0,056	0,052
-630,765	39,869	0,037	-0,025
-629,751	-72,616	-0,099	-0,027
-628,736	-25,664	-0,150	-0,065
-627,722	4,124	-0,057	0,031
-626,707	800,000	0,061	-0,141
-625,692	-110,969	-0,033	0,005
-624,678	306,533	0,030	0,042
-623,663	253,298	0,016	-0,020
-622,649	738,264	0,089	-0,176
-621,634	232,216	-0,089	-0,109
-620,619	22,690	-0,072	-0,043
-619,605	138,327	0,089	-0,086
-618,590	-200,000	0,005	-0,073
-617,576	169,984	0,076	0,080
-616,561	500,458	-0,026	-0,044
-615,546	-71,552	-0,068	-0,018
-614,532	-93,998	-0,055	0,011
-613,517	299,804	-0,063	-0,086
-612,503	800,000	-0,020	-0,055
-611,488	45,175	0,099	0,067
-610,474	-200,000	0,012	0,039
-609,459	644,762	-0,043	0,081
-608,444	-179,804	-0,072	-0,001
-607,430	181,915	0,021	0,023
-606,415	-200,000	0,041	-0,160
-605,401	-34,544	-0,155	0,062
-604,386	800,000	0,035	-0,105
-603,371	-200,000	0,016	-0,120
-602,357	-171,216	0,006	-0,000
-601,342	83,975	-0,091	-0,073
-600,328	68,395	0,080	-0,060
-599,313	-200,000	0,042	-0,000
-598,298	34,547	-0,121	-0,077
-597,284	800,000	0,008	-0,016
-596,269	48,161	0,076	0,052
-595,255	415,748	-0,033	-0,052
-594,240	46,477	-0,082	-0,056
-593,225	-90,804	-0,209	0,044
-592,211	-71,495	-0,156	0,043
-591,196	-54,026	-0,080	-0,027
-590,182	327,079	-0,036	0,051
-589,167	-146,117	0,103	0,007
-588,152	106,952	-0,086	-0,076
-587,138	800,000	-0,032	0,103
-586,123	-3,278	0,090	0,046
-585,109	334,374	-0,084	-0,120
-584,094	-76,247	0,051	-0,013
-583,079	-200,000	0,094	0,000
-582,065	800,000	0,025	-0,073
-581,050	499,213	-0,054	-0,093
-580,036	-200,000	0,012	-0,090
-579,021	-17,771	-0,084	-0,038
-578,006	-56,601	-0,086	0,028
-576,992	94,960	0,082	0,069
-575,977	-200,000	0,028	0,116
-574,963	37,540	-0,068	-0,044
-573,948	-200,000	0,002	-0,160
-572,934	223,648	-0,036	0,043
-571,919	28,432	-0,026	-0,016
-570,904	-0,397	-0,015	0,008
-569,890	-200,000	-0,012	-0,045
-568,875	800,000	0,013	0,039
-567,861	-144,021	0,110	0,008
-566,846	-125,368	-0,123	-0,014
-565,831	800,000	0,027	-0,072
-564,817	-30,300	0,116	-0,048
-563,802	-200,000	0,001	-0,075
-562,788	-74,299	0,048	-0,013
-561,773	248,216	-0,055	0,068
-560,758	4,963	0,138	0,074
-559,744	125,796	-0,015	0,014
-558,729	271,339	-0,072	-0,094
-557,715	214,309	-0,055	-0,064
-556,700	408,312	0,075	-0,117
-555,685	-68,178	-0,066	-0,019
-554,671	-200,000	-0,008	-0,095
-553,656	109,397	0,017	0,015
-552,642	-86,013	0,128	-0,029
-551,627	467,102	0,025	0,041
-550,612	88,808	0,072	0,059
-549,598	-200,000	0,004	0,068
-548,583	-121,538	-0,060	0,007
-547,569	16,073	0,067	-0,039
-546,554	782,351	0,053	0,107
-545,539	-200,000	0,012	0,040
-544,525	187,437	-0,032	0,035
-543,510	470,004	0,013	-0,021
-542,496	-200,000	-0,013	0,097
-541,481	-200,000	-0,013	-0,059
-540,466	524,251	-0,034	-0,059
-539,452	491,802	0,049	0,083
-538,437	-49,131	0,131	0,046
-537,423	-24,929	-0,137	0,060
-536,408	-200,000	-0,005	-0,049
-535,393	-179,655	-0,122	0,002
-534,379	14,856	0,076	-0,044
-533,364	-200,000	-0,013	-0,083
-532,350	386,639	0,033	-0,050
-531,335	-200,000	0,006	0,060
-530,321	800,000	0,051	0,135
-529,306	456,959	-0,049	0,080
-528,291	-19,865	0,043	-0,019
-527,277	-200,000	-0,011	-0,069
-526,262	-114,081	0,105	-0,015
-525,248	15,772	0,095	0,055
-524,233	63,043	0,079	0,058
-523,218	-200,000	-0,002	-0,129
-522,204	-200,000	-0,002	0,100
-521,189	-44,808	-0,030	-0,011
-520,175	-106,184	0,092	-0,015
-519,160	800,000	0,033	-0,099
-518,145	-200,000	-0,001	-0,057
-517,131	258,064	0,168	0,213
-516,116	611,874	-0,047	0,087
-515,102	-140,398	-0,169	-0,013
-514,087	494,683	-0,021	-0,036
-513,072	-200,000	0,016	-0,116
-512,058	315,979	0,072	-0,100
-511,043	-94,393	0,170	-0,034
-510,029	-4,566	0,057	0,029
-509,014	-200,000	0,002	-0,025
-507,999	800,000	0,012	-0,034
-506,985	-35,163	-0,078	-0,031
-505,970	10,029	0,130	0,072
-504,956	-82,028	-0,212	-0,050
-503,941	-62,909	0,110	-0,033
-502,926	800,000	-0,006	0,016
-501,912	94,313	-0,026	0,022
-500,897	-158,968	-0,067	-0,003
-499,883	485,531	-0,012	0,020
-498,868	259,275	-0,075	-0,095
-497,853	-176,515	0,062	0,001
-496,839	-94,336	0,135	0,027
-495,824	-2,470	-0,105	0,054
-494,810	-200,000	0,002	-0,009
-493,795	-200,000	-0,037	-0,121
-492,781	-95,498	-0,029	-0,006
-491,766	5,309	-0,090	-0,048
-490,751	-200,000	-0,010	-0,123
-489,737	199,864	0,038	0,043
-488,722	330,240	0,015	-0,021
-487,708	-200,000	0,002	0,049
-486,693	-200,000	0,036	0,144
-485,678	-79,846	0,049	-0,012
-484,664	112,745	-0,147	-0,130
-483,649	-92,169	-0,162	0,033
-482,635	-116,909	0,014	-0,002
-481,620	102,092	0,147	0,126
-480,605	-125,894	0,076	0,008
-479,591	530,076	-0,042	-0,072
-478,576	-103,638	-0,094	0,016
-477,562	260,182	-0,041	-0,052
-476,547	800,000	0,019	-0,058
-475,532	512,002	-0,046	-0,079
-474,518	431,997	-0,124	0,198
-473,503	585,935	0,067	0,121
-472,489	-150,605	-0,119	0,007
-471,474	113,603	-0,022	0,019
-470,459	-72,842	0,114	-0,030
-469,445	41,513	-0,121	0,080
-468,430	66,323	0,045	0,034
-467,416	-48,434	0,214	-0,075
-466,401	-25,228	-0,088	-0,038
-465,386	463,902	-0,031	0,051
-464,372	-177,031	-0,104	-0,002
-463,357	238,000	0,049	-0,060
-462,343	12,987	-0,090	-0,051
-461,328	-168,859	0,039	0,001
-460,313	-44,052	-0,051	0,019
-459,299	-31,699	0,097	0,040
-458,284	-75,182	-0,060	-0,015
-457,270	173,418	0,043	0,046
-456,255	-122,226	-0,057	-0,007
-455,241	176,975	-0,027	0,029
-454,226	-200,000	0,009	0,045
-453,211	-200,000	0,008	0,029
-452,197	-3,523	0,090	0,046
-451,182	47,800	0,057	0,039
-450,168	595,157	0,059	-0,108
-449,153	87,770	0,059	0,048
-448,138	-200,000	-0,012	0,070
-447,124	-136,829	0,078	0,006
-446,109	-200,000	0,017	0,077
-445,095	-200,000	0,005	0,063
-444,080	80,541	0,072	-0,057
-443,065	34,563	-0,039	0,025
-442,051	-200,000	-0,017	-0,099
-441,036	800,000	-0,027	0,086
-440,022	-22,220	-0,096	-0,043
-439,007	-79,954	-0,091	0,022
-437,992	219,826	-0,009	-0,011
-436,978	-52,066	0,042	0,014
-435,963	800,000	-0,054	0,124
-434,949	-200,000	0,001	-0,036
-433,934	800,000	-0,028	-0,069
-432,919	-200,000	-0,004	-0,019
-431,905	-90,242	-0,069	-0,015
-430,890	-200,000	-0,017	0,115
-429,876	216,351	0,143	0,167
-428,861	-200,000	0,002	0,017
-427,846	800,000	0,046	-0,124
-426,832	-200,000	-0,012	0,041
-425,817	-200,000	-0,047	0,198
-424,803	334,185	0,021	0,030
-423,788	7,509	0,014	0,007
-422,773	-200,000	0,003	0,039
-421,759	-27,177	0,109	0,046
-420,744	-29,289	-0,111	-0,046
-419,730	-60,639	-0,063	-0,019
-418,715	448,075	-0,039	0,063
-417,701	525,430	0,092	-0,159
-416,686	-200,000	-0,001	0,165
-415,671	6,495	0,062	0,034
-414,657	67,753	-0,055	-0,041
-413,642	-20,575	-0,008	-0,003
-412,628	-149,219	0,147	-0,008
-411,613	57,361	-0,060	-0,042
-410,598	-19,798	0,053	0,024
-409,584	-172,518	0,064	-0,001
-408,569	136,401	0,011	0,011
-407,555	-200,000	-0,028	0,145
-406,540	-200,000	-0,009	-0,102
-405,525	90,242	0,084	-0,069
-404,511	-78,098	0,166	0,041
-403,496	213,892	-0,061	0,071
-402,482	-114,304	0,142	0,020
-401,467	-0,570	-0,136	0,071
-400,452	-94,464	-0,074	0,015
-399,438	800,000	-0,046	0,120
-398,423	22,457	-0,152	-0,091
-397,409	197,363	0,037	-0,042
-396,394	58,979	-0,086	0,062
-395,379	-200,000	0,047	0,154
-394,365	91,377	0,030	-0,024
-393,350	350,945	-0,029	-0,042
-392,336	-200,000	0,022	-0,076
-391,321	296,443	-0,051	-0,068
-390,306	25,296	-0,058	-0,035
-389,292	-120,124	-0,045	-0,006
-388,277	-41,133	0,117	-0,044
-387,263	-134,531	0,079	0,007
-386,248	-2,310	-0,111	0,057
-385,233	-200,000	0,013	0,093
-384,219	112,616	0,002	-0,002
-383,204	-200,000	-0,003	-0,026
-382,190	257,364	0,067	0,085
-381,175	-200,000	0,021	-0,089
-380,160	455,884	-0,010	-0,016
-379,146	145,824	0,127	0,124
-378,131	-200,000	-0,042	-0,157
-377,117	92,622	-0,088	-0,072
-376,102	334,175	-0,065	-0,092
-375,088	504,313	0,056	-0,095
-374,073	-200,000	0,017	-0,057
-373,058	184,803	0,131	0,142
-372,044	17,296	-0,010	-0,006
-371,029	85,172	0,068	0,054
-370,015	-200,000	0,011	0,102
-369,000	298,165	0,020	-0,026
-367,985	-24,944	-0,066	-0,028
-366,971	228,435	0,109	-0,130
-365,956	-200,000	-0,016	-0,052
-364,942	115,785	-0,095	0,085
-363,927	-200,000	-0,036	0,145
-362,912	-169,487	0,081	0,002
-361,898	-200,000	-0,004	-0,052
-360,883	61,723	-0,102	-0,074
-359,869	-200,000	-0,005	0,061
-358,854	-200,000	-0,006	-0,045
-357,839	800,000	0,011	0,026
-356,825	799,825	0,022	0,045
-355,810	-43,890	0,158	-0,058
-354,796	23,534	0,048	-0,029
-353,781	90,959	-0,081	-0,066
-352,766	-200,000	0,002	0,089
-351,752	151,668	0,065	0,064
-350,737	-11,295	0,141	0,067
-349,723	117,150	0,036	0,033
-348,708	-152,702	0,109	0,006
-347,693	66,070	0,079	0,058
-346,679	281,837	-0,034	0,045
-345,664	35,771	0,059	-0,038
-344,650	-98,652	0,133	-0,025
-343,635	129,119	0,117	0,109
-342,620	-200,000	-0,008	0,036
-341,606	103,676	0,098	-0,084
-340,591	217,478	-0,112	0,130
-339,577	11,250	-0,047	-0,026
-338,562	275,080	0,038	0,049
-337,548	800,000	-0,014	-0,032
-336,533	282,715	0,033	0,043
-335,518	57,401	0,035	0,025
-334,504	-33,621	0,085	-0,034
-333,489	736,543	0,028	0,055
-332,475	-200,000	0,039	0,190
-331,460	570,541	-0,051	-0,090
-330,445	73,294	0,135	-0,103
-329,431	-145,536	0,207	-0,013
-328,416	-65,129	0,116	0,034
-327,402	-93,288	0,093	0,019
-326,387	-200,000	0,013	0,063
-325,372	-200,000	-0,012	0,115
-324,358	-200,000	-0,003	-0,013
-323,343	-68,891	-0,058	-0,016
-322,329	800,000	0,135	0,278
-321,314	522,083	-0,044	0,076
-320,299	-0,618	-0,090	0,046
-319,285	-61,103	-0,124	-0,038
-318,270	-96,593	-0,157	0,030
-317,256	-200,000	-0,001	-0,046
-316,241	135,981	0,055	-0,052
-315,226	546,822	-0,090	-0,158
-314,212	174,701	0,056	0,059
-313,197	72,401	0,041	-0,031
-312,183	-59,793	0,056	0,017
-311,168	-200,000	0,013	-0,143
-310,153	-96,780	0,020	0,004
-309,139	-63,948	-0,100	-0,030
-308,124	-66,490	0,160	-0,046
-307,110	61,061	-0,054	-0,039
-306,095	-200,000	0,012	0,082
-305,080	-101,598	-0,158	-0,028
-304,066	297,512	-0,074	-0,099
-303,051	270,874	0,070	-0,090
-302,037	296,323	0,051	-0,068
-301,022	364,223	-0,064	-0,093
-300,008	800,000	0,006	0,018
-298,993	615,089	0,007	-0,013
-297,978	-50,877	-0,029	-0,010
-296,964	-18,258	0,112	0,051
-295,949	687,075	0,073	-0,140
-294,935	-200,000	-0,038	0,152
-293,920	151,607	-0,107	-0,107
-292,905	-200,000	0,039	-0,146
-291,891	-126,264	0,052	-0,006
-290,876	-200,000	-0,050	0,171
-289,862	800,000	-0,031	0,090
-288,847	-200,000	0,008	0,076
-287,832	-84,574	-0,057	-0,013
-286,818	211,971	-0,028	-0,032
-285,803	37,942	0,194	0,125
-284,789	-200,000	0,005	0,050
-283,774	800,000	-0,014	0,030
-282,759	-200,000	-0,007	-0,053
-281,745	-200,000	0,004	0,076
-280,730	136,551	-0,099	-0,094
-279,716	156,965	0,059	0,059
-278,701	194,757	0,092	-0,101
-277,686	-3,770	0,092	0,046
-276,672	-66,117	-0,029	-0,008
-275,657	-200,000	-0,012	0,058
-274,643	76,453	0,074	-0,057
-273,628	33,248	-0,074	-0,047
-272,613	184,655	0,071	-0,077
-271,599	-200,000	0,009	-0,136
-270,584	-200,000	0,007	-0,048
-269,570	-66,994	0,120	-0,034
-268,555	257,026	-0,116	0,146
-267,540	347,613	-0,039	0,055
-266,526	-200,000	-0,026	-0,088
-265,511	371,171	-0,062	0,092
-264,497	-200,000	0,005	0,026
-263,482	-200,000	0,016	0,073
-262,467	-98,148	0,134	-0,025
-261,453	-40,376	0,087	0,033
-260,438	-165,308	-0,058	0,002
-259,424	25,144	-0,093	-0,056
-258,409	417,026	0,048	-0,074
-257,395	-200,000	0,005	0,019
-256,380	-69,173	0,132	0,037
-255,365	-200,000	0,005	0,027
-254,351	-200,000	-0,010	0,080
-253,336	53,259	-0,086	-0,060
-252,322	56,670	-0,152	-0,107
-251,307	800,000	0,075	-0,153
-250,292	-200,000	0,004	-0,043
-249,278	-200,000	-0,013	0,132
-248,263	-0,744	0,083	0,042
-247,249	-160,237	-0,108	0,004
-246,234	-200,000	-0,027	0,094
-245,219	134,626	-0,115	-0,109
-244,205	-127,816	-0,126	-0,013
-243,190	-29,062	0,083	0,035
-242,176	60,149	-0,056	0,040
-241,161	-49,159	0,077	0,027
-240,146	-200,000	-0,024	-0,132
-239,132	-66,706	0,193	-0,055
-238,117	-103,884	-0,138	-0,023
-237,103	434,128	-0,050	-0,080
-236,088	-39,625	-0,022	-0,008
-235,073	53,349	0,135	0,094
-234,059	-104,195	0,151	-0,025
-233,044	246,304	0,129	0,158
-232,030	68,860	0,030	-0,022
-231,015	-200,000	-0,014	0,067
-230,000	-162,239	-0,145	0,005
-228,986	-42,198	-0,079	0,029
-227,971	800,000	-0,002	-0,007
-226,957	31,558	-0,117	0,073
-225,942	41,786	0,026	0,017
-224,927	-200,000	-0,008	0,073
-223,913	-200,000	0,014	0,089
-222,898	-200,000	0,043	-0,252
-221,884	498,152	-0,020	-0,034
-220,869	800,000	-0,024	-0,069
-219,855	-49,526	0,062	-0,021
-218,840	278,708	-0,031	0,040
-217,825	-200,000	-0,039	-0,199
-216,811	-96,911	-0,014	0,003
-215,796	-25,273	-0,101	0,043
-214,782	-166,034	-0,081	0,002
-213,767	-200,000	0,059	0,205
-212,752	582,988	-0,068	-0,121
-211,738	436,767	-0,037	0,059
-210,723	277,996	0,073	0,095
-209,709	-52,098	-0,051	0,017
-208,694	147,616	-0,091	-0,089
-207,679	800,000	-0,030	0,063
-206,665	-200,000	0,029	0,101
-205,650	209,634	0,101	-0,115
-204,636	-200,000	0,003	-0,032
-203,621	97,549	-0,092	-0,076
-202,606	-200,000	0,002	-0,063
-201,592	-121,945	-0,062	-0,007
-200,577	29,549	-0,035	-0,022
-199,563	-200,000	-0,009	-0,033
-198,548	268,659	0,060	0,076
-197,533	-200,000	-0,025	0,101
-196,519	-104,433	-0,176	-0,029
-195,504	117,750	0,039	0,035
-194,490	541,466	-0,072	-0,125
-193,475	-200,000	0,010	-0,053
-192,460	-117,191	-0,129	-0,017
-191,446	-200,000	-0,010	0,100
-190,431	-26,905	-0,065	-0,028
-189,417	-200,000	-0,013	0,000
-188,402	-24,586	-0,020	0,009
-187,387	-154,379	-0,068	-0,003
-186,373	-164,466	-0,102	0,003
-185,358	10,195	-0,053	-0,029
-184,344	102,813	-0,041	-0,035
-183,329	800,000	-0,063	0,138
-182,315	125,170	0,086	0,079
-181,300	-200,000	0,017	0,121
-180,285	800,000	-0,047	0,129
-179,271	-200,000	0,021	-0,223
-178,256	151,930	-0,060	-0,060
-177,242	569,563	0,055	-0,098
-176,227	800,000	0,026	-0,063
-175,212	-200,000	0,017	0,090
-174,198	800,000	-0,016	-0,035
-173,183	106,340	-0,044	-0,038
-172,169	-153,551	0,021	0,001
-171,154	307,469	-0,025	0,033
-170,139	766,770	0,012	-0,023
-169,125	-11,080	0,078	0,037
-168,110	800,000	0,035	-0,073
-167,096	800,000	-0,059	0,141
-166,081	-106,661	-0,023	-0,004
-165,066	-32,788	-0,127	-0,051
-164,052	774,682	0,024	0,048
-163,037	-151,584	0,015	-0,001
-162,023	-200,000	-0,051	0,168
-161,008	216,363	-0,038	-0,043
-159,993	-53,990	0,032	0,011
-158,979	209,326	-0,041	-0,046
-157,964	-200,000	0,003	-0,081
-156,950	-40,129	-0,144	0,054
-155,935	88,918	-0,049	0,039
-154,920	243,094	0,119	0,145
-153,906	-200,000	0,006	0,048
-152,891	-96,952	0,055	-0,010
-151,877	800,000	0,004	0,011
-150,862	52,602	-0,089	0,062
-149,847	800,000	-0,036	0,100
-148,833	344,791	-0,067	0,096
-147,818	183,275	-0,094	-0,101
-146,804	629,427	0,094	0,173
-145,789	-200,000	-0,009	0,101
-144,775	800,000	0,009	0,027
-143,760	-131,903	0,115	-0,011
-142,745	20,940	-0,127	-0,074
-141,731	-200,000	-0,014	-0,060
-140,716	-200,000	0,013	0,107
-139,702	-51,838	-0,055	0,018
-138,687	91,949	0,086	-0,070
-137,672	-156,290	-0,156	-0,007
-136,658	228,977	-0,125	-0,148
-135,643	800,000	-0,021	0,050
-134,629	-200,000	-0,003	-0,038
-133,614	-161,585	0,126	-0,005
-132,599	377,430	-0,081	0,121
-131,585	479,943	0,068	0,112
-130,570	612,664	-0,055	0,099
-129,556	800,000	-0,047	0,107
-128,541	29,036	-0,058	-0,036
-127,526	-200,000	-0,027	0,125
-126,512	545,147	-0,042	0,072
-125,497	37,465	-0,071	0,046
-124,483	618,138	0,050	0,091
-123,468	22,303	0,100	-0,059
-122,453	-80,487	-0,084	0,020
-121,439	546,764	-0,039	-0,067
-120,424	173,250	-0,083	0,087
-119,410	800,000	0,018	-0,038
