DTS Sentinel unit serial number:	SN410029Multiplexer serial number:	ORYXHardware model number:	OX2-SRSoftware version number:	ORYX F/W v4,00 Oryx Data Collector v3.7.2.0data status	okinstallation	B4 Nyhavnadifferential loss correction	single-endedforward channel	channel 2reverse channel	N/Adate	2023/12/19time	05:30:13forward acquisition time	300,00reverse acquisition time	0,00gamma	499,1914k internal	0,3126k external	0,3126temperature offset calibration	1,0000default loss term (dB/km)	0,3820temperature slope calibration	1,0000multiplexer offset coefficient	1,0000multiplexer slope coefficient	1,0000fibre end	0,00T internal ref (°C)	21,00T ext. ref 1 (°C)	6,37T ext. ref 2 (°C)	6,45length (m)	temperature (°C)	Stokes	anti-Stokes-744,400	18,233	0,151	-0,089
-743,385	-78,834	-0,246	0,062
-742,371	-200,000	0,007	-0,112
-741,356	-78,552	-0,233	0,059
-740,342	110,859	0,078	0,070
-739,327	-22,601	-0,298	0,134
-738,312	87,531	-0,104	-0,085
-737,298	49,584	-0,134	-0,094
-736,283	-200,000	0,007	-0,125
-735,269	-2,385	-0,226	0,118
-734,254	479,379	-0,052	-0,089
-733,239	-103,696	-0,394	-0,068
-732,225	-70,447	0,188	0,053
-731,210	-31,727	0,076	-0,031
-730,196	378,777	-0,122	0,186
-729,181	297,264	-0,067	-0,092
-728,167	66,523	0,027	0,021
-727,152	-113,073	0,160	-0,023
-726,137	667,540	-0,014	0,028
-725,123	-130,485	0,026	-0,003
-724,108	-200,000	0,003	-0,103
-723,094	-4,080	-0,155	-0,080
-722,079	238,354	-0,034	-0,042
-721,064	-200,000	-0,027	-0,118
-720,050	-200,000	-0,039	-0,189
-719,035	96,743	-0,137	-0,117
-718,021	121,425	-0,086	-0,080
-717,006	-162,747	-0,067	0,002
-715,991	-200,000	-0,038	-0,142
-714,977	753,159	-0,061	-0,123
-713,962	-91,643	-0,113	0,024
-712,948	-200,000	-0,004	-0,118
-711,933	184,073	0,025	-0,028
-710,918	-181,004	-0,186	0,003
-709,904	-200,000	-0,009	-0,048
-708,889	6,176	-0,132	-0,073
-707,875	232,858	-0,068	-0,083
-706,860	7,232	-0,099	0,055
-705,845	-200,000	-0,011	-0,091
-704,831	-60,669	-0,024	-0,007
-703,816	62,739	-0,062	0,046
-702,802	-200,000	-0,002	0,079
-701,787	-70,147	-0,116	-0,033
-700,772	-72,032	-0,182	-0,050
-699,758	92,148	-0,116	-0,097
-698,743	13,049	-0,142	0,081
-697,729	216,951	0,028	0,034
-696,714	-58,268	0,055	-0,018
-695,699	-84,235	-0,105	-0,024
-694,685	87,098	0,045	-0,037
-693,670	-38,350	-0,095	0,037
-692,656	-179,877	-0,055	-0,001
-691,641	-53,773	0,049	0,017
-690,627	-125,581	-0,097	-0,011
-689,612	249,594	0,082	0,103
-688,597	0,119	-0,191	-0,101
-687,583	800,000	0,061	-0,169
-686,568	-200,000	-0,012	0,081
-685,554	-200,000	0,002	0,078
-684,539	-60,358	-0,049	-0,015
-683,524	288,454	-0,072	-0,097
-682,510	-53,110	0,029	-0,010
-681,495	-200,000	0,013	-0,084
-680,481	189,116	0,037	-0,041
-679,466	-200,000	-0,022	-0,144
-678,451	-69,814	-0,077	-0,022
-677,437	-200,000	-0,011	-0,163
-676,422	-200,000	-0,013	-0,085
-675,408	-25,184	-0,033	-0,014
-674,393	-167,930	0,042	0,001
-673,378	122,094	0,032	-0,029
-672,364	800,000	-0,055	-0,164
-671,349	123,760	0,134	-0,125
-670,335	370,756	0,048	-0,073
-669,320	-28,477	-0,038	-0,016
-668,305	-103,783	0,133	-0,023
-667,291	-83,698	-0,094	-0,022
-666,276	-113,282	-0,055	0,008
-665,262	800,000	-0,052	-0,109
-664,247	52,599	-0,041	-0,029
-663,232	800,000	0,006	-0,012
-662,218	-138,887	0,100	-0,008
-661,203	-200,000	0,006	-0,066
-660,189	-133,390	-0,080	0,007
-659,174	9,244	-0,094	0,053
-658,159	800,000	0,016	-0,049
-657,145	-15,494	-0,160	-0,076
-656,130	72,302	-0,062	-0,048
-655,116	-153,407	0,175	0,009
-654,101	559,856	-0,058	-0,104
-653,086	131,236	-0,098	-0,094
-652,072	-200,000	-0,005	0,043
-651,057	-200,000	-0,044	-0,158
-650,043	-200,000	0,006	-0,045
-649,028	293,310	-0,025	0,034
-648,014	46,963	0,069	0,048
-646,999	335,105	-0,074	0,106
-645,984	-117,702	-0,114	-0,015
-644,970	-200,000	-0,042	-0,139
-643,955	12,154	-0,091	-0,052
-642,941	315,574	0,058	-0,081
-641,926	-17,583	-0,092	0,043
-640,911	-79,944	-0,065	0,016
-639,897	630,959	0,036	0,067
-638,882	-200,000	0,021	-0,098
-637,868	83,092	0,015	0,012
-636,853	-200,000	-0,006	-0,043
-635,838	222,287	-0,032	0,038
-634,824	503,660	0,033	0,057
-633,809	4,955	0,128	-0,070
-632,795	351,327	0,017	0,025
-631,780	380,771	0,038	0,058
-630,765	1,269	-0,083	-0,044
-629,751	-200,000	0,009	0,035
-628,736	90,823	-0,137	-0,113
-627,722	800,000	-0,046	-0,095
-626,707	-142,973	0,052	0,004
-625,692	35,595	0,118	0,077
-624,678	-17,066	-0,062	0,029
-623,663	-72,218	-0,057	0,016
-622,649	687,965	0,055	-0,107
-621,634	74,257	-0,088	-0,069
-620,619	-200,000	-0,012	-0,127
-619,605	-106,217	0,036	-0,006
-618,590	466,736	0,052	-0,086
-617,576	57,367	0,056	0,040
-616,561	226,902	-0,058	0,070
-615,546	-200,000	-0,043	-0,157
-614,532	-37,996	-0,098	0,038
-613,517	-76,526	0,110	-0,028
-612,503	49,796	-0,091	-0,064
-611,488	370,390	0,036	-0,055
-610,474	-200,000	0,036	0,119
-609,459	-189,369	-0,116	0,001
-608,444	-138,320	-0,141	0,011
-607,430	-88,058	0,071	-0,016
-606,415	800,000	-0,048	0,103
-605,401	800,000	0,022	-0,070
-604,386	118,642	0,022	0,020
-603,371	-45,323	-0,088	-0,032
-602,357	213,561	-0,013	0,016
-601,342	-18,615	-0,092	-0,042
-600,328	-172,205	-0,235	-0,005
-599,313	-200,000	0,003	0,019
-598,298	-10,549	-0,093	-0,046
-597,284	185,896	0,039	0,043
-596,269	159,215	0,020	0,020
-595,255	378,114	0,012	0,018
-594,240	341,584	-0,069	0,100
-593,225	-200,000	0,009	-0,098
-592,211	-70,674	0,097	0,027
-591,196	359,248	0,038	-0,056
-590,182	66,606	-0,069	0,052
-589,167	-200,000	0,000	0,090
-588,152	-200,000	-0,010	-0,039
-587,138	724,394	0,017	0,033
-586,123	243,136	0,029	0,036
-585,109	-200,000	-0,030	-0,120
-584,094	-177,063	0,046	-0,001
-583,079	-200,000	0,008	-0,081
-582,065	-200,000	0,007	-0,075
-581,050	518,503	-0,073	0,127
-580,036	783,177	-0,040	-0,081
-579,021	-200,000	-0,017	0,057
-578,006	215,926	-0,064	0,076
-576,992	197,407	-0,062	-0,070
-575,977	-37,862	0,091	0,035
-574,963	800,000	0,068	0,161
-573,948	-200,000	-0,004	0,066
-572,934	-200,000	-0,011	0,072
-571,919	233,140	-0,062	-0,075
-570,904	800,000	-0,041	0,120
-569,890	800,000	-0,025	-0,063
-568,875	800,000	0,046	-0,120
-567,861	447,041	-0,036	0,058
-566,846	-200,000	-0,003	0,107
-565,831	-55,434	0,059	-0,019
-564,817	-23,681	-0,114	-0,050
-563,802	-200,000	-0,029	-0,099
-562,788	35,628	-0,036	-0,023
-561,773	-200,000	0,003	-0,014
-560,758	-200,000	-0,005	-0,098
-559,744	491,111	0,051	0,087
-558,729	-200,000	-0,026	0,121
-557,715	-200,000	-0,026	-0,265
-556,700	800,000	0,035	-0,079
-555,685	-71,765	0,014	0,004
-554,671	-200,000	0,010	-0,036
-553,656	359,040	-0,052	0,077
-552,642	-43,497	-0,060	-0,022
-551,627	-200,000	0,006	-0,040
-550,612	79,928	-0,032	-0,025
-549,598	69,400	-0,041	0,031
-548,583	30,211	0,130	-0,082
-547,569	-200,000	-0,007	0,049
-546,554	0,680	0,138	0,073
-545,539	-86,372	0,037	0,008
-544,525	-57,852	-0,062	-0,020
-543,510	800,000	0,032	0,089
-542,496	-200,000	-0,016	0,075
-541,481	-200,000	0,006	-0,025
-540,466	506,104	0,053	-0,091
-539,452	800,000	0,076	-0,174
-538,437	63,813	-0,034	0,025
-537,423	-141,462	0,130	0,010
-536,408	60,947	0,093	-0,068
-535,393	780,178	0,007	-0,014
-534,379	800,000	-0,035	-0,107
-533,364	-24,126	0,046	-0,020
-532,350	800,000	-0,015	-0,044
-531,335	398,271	0,055	-0,086
-530,321	-80,921	0,116	-0,028
-529,306	-169,863	-0,060	0,002
-528,291	-200,000	-0,012	0,073
-527,277	-200,000	0,001	-0,045
-526,262	201,242	0,067	-0,076
-525,248	-200,000	-0,011	0,134
-524,233	-200,000	-0,017	0,064
-523,218	-56,173	0,068	0,022
-522,204	-200,000	-0,035	-0,146
-521,189	-200,000	-0,008	0,108
-520,175	-200,000	0,006	-0,081
-519,160	490,216	-0,069	0,116
-518,145	91,942	-0,052	-0,043
-517,131	-126,527	-0,092	0,010
-516,116	-200,000	-0,005	-0,168
-515,102	550,125	-0,037	-0,065
-514,087	-166,111	-0,119	-0,004
-513,072	183,036	0,044	-0,048
-512,058	-61,987	-0,163	0,050
-511,043	278,508	0,058	0,076
-510,029	800,000	-0,009	0,019
-509,014	182,344	0,021	0,023
-507,999	-87,251	0,087	0,019
-506,985	-104,817	0,094	0,016
-505,970	35,687	-0,039	-0,025
-504,956	93,132	-0,031	0,026
-503,941	-134,623	0,069	-0,006
-502,926	-200,000	-0,012	-0,090
-501,912	-111,074	-0,046	0,007
-500,897	147,018	-0,037	-0,036
-499,883	800,000	0,011	0,029
-498,868	-157,885	-0,070	-0,003
-497,853	-200,000	0,005	-0,023
-496,839	317,221	0,098	0,138
-495,824	-130,103	0,093	-0,009
-494,810	-187,651	0,004	0,000
-493,795	800,000	-0,037	0,092
-492,781	-94,347	-0,018	0,004
-491,766	28,132	-0,082	-0,051
-490,751	800,000	0,022	0,048
-489,737	22,581	0,043	-0,026
-488,722	231,580	-0,050	0,061
-487,708	108,793	0,033	0,029
-486,693	800,000	-0,046	0,097
-485,678	800,000	-0,026	0,075
-484,664	62,314	-0,063	0,046
-483,649	340,142	0,048	-0,069
-482,635	-200,000	-0,001	-0,066
-481,620	-182,675	0,108	0,001
-480,605	800,000	0,008	0,025
-479,591	-200,000	0,006	0,049
-478,576	-200,000	-0,012	0,182
-477,562	-200,000	-0,010	-0,052
-476,547	-200,000	-0,016	-0,128
-475,532	-98,806	-0,255	-0,047
-474,518	71,338	0,025	-0,019
-473,503	-200,000	-0,001	0,060
-472,489	52,139	-0,032	-0,022
-471,474	85,973	-0,148	0,120
-470,459	-67,821	-0,012	0,003
-469,445	120,993	-0,064	-0,058
-468,430	173,013	0,009	0,010
-467,416	-200,000	0,027	0,125
-466,401	105,111	0,117	0,101
-465,386	-200,000	-0,002	0,041
-464,372	-6,878	-0,040	-0,020
-463,357	86,978	-0,053	0,043
-462,343	323,453	-0,085	-0,120
-461,328	296,628	0,028	0,038
-460,313	800,000	-0,013	0,040
-459,299	-200,000	0,024	0,130
-458,284	275,421	-0,027	0,035
-457,270	-200,000	0,031	0,130
-456,255	474,117	-0,044	-0,073
-455,241	-200,000	-0,006	0,179
-454,226	-112,238	-0,082	0,012
-453,211	72,977	0,029	-0,022
-452,197	-200,000	-0,015	0,097
-451,182	-200,000	-0,033	0,122
-450,168	800,000	-0,075	-0,157
-449,153	-200,000	-0,026	0,108
-448,138	676,824	-0,023	-0,044
-447,124	-55,005	0,090	-0,030
-446,109	66,832	-0,050	-0,038
-445,095	-23,191	0,030	-0,013
-444,080	800,000	-0,019	0,054
-443,065	800,000	-0,029	-0,069
-442,051	170,833	-0,034	-0,036
-441,036	-200,000	-0,029	-0,139
-440,022	20,436	-0,091	-0,054
-439,007	800,000	0,027	-0,063
-437,992	101,846	0,063	-0,054
-436,978	62,947	0,067	0,049
-435,963	-27,492	-0,082	0,035
-434,949	800,000	0,013	-0,029
-433,934	-105,477	0,055	0,009
-432,919	-159,852	-0,027	0,001
-431,905	793,546	-0,049	-0,099
-430,890	483,603	0,035	0,059
-429,876	-139,203	-0,121	-0,009
-428,861	-63,894	0,163	-0,049
-427,846	-105,475	-0,149	-0,025
-426,832	-145,078	0,100	0,007
-425,817	-200,000	0,000	-0,100
-424,803	-200,000	-0,017	-0,151
-423,788	-149,656	0,217	-0,012
-422,773	-128,811	0,102	0,010
-421,759	-200,000	0,014	0,054
-420,744	86,480	-0,154	-0,125
-419,730	-3,505	-0,025	0,013
-418,715	-200,000	-0,015	-0,077
-417,701	35,713	-0,081	0,052
-416,686	-200,000	0,004	0,077
-415,671	3,667	0,032	0,017
-414,657	-200,000	-0,003	0,052
-413,642	0,953	0,096	0,050
-412,628	115,546	0,018	-0,016
-411,613	-200,000	-0,030	-0,293
-410,598	800,000	0,033	0,068
-409,584	261,976	0,078	0,099
-408,569	12,219	0,087	0,049
-407,555	-200,000	0,043	0,178
-406,540	-200,000	0,004	0,169
-405,525	411,191	0,022	-0,035
-404,511	-76,321	0,046	-0,012
-403,496	800,000	0,033	-0,069
-402,482	149,721	-0,093	-0,093
-401,467	138,233	0,091	-0,088
-400,452	-200,000	0,015	0,082
-399,438	637,292	0,057	0,107
-398,423	-22,436	-0,075	0,033
-397,409	63,696	0,050	0,037
-396,394	340,421	-0,017	0,025
-395,379	-69,703	0,079	-0,022
-394,365	-119,727	0,162	-0,020
-393,350	105,755	-0,096	-0,083
-392,336	-200,000	0,019	0,064
-391,321	174,371	-0,054	-0,058
-390,306	800,000	0,032	-0,103
-389,292	185,342	-0,162	-0,177
-388,277	-27,561	0,122	-0,052
-387,263	-200,000	0,011	0,037
-386,248	-32,844	0,072	0,029
-385,233	-200,000	-0,005	-0,075
-384,219	800,000	-0,042	0,104
-383,204	180,200	-0,064	-0,070
-382,190	505,090	0,019	0,033
-381,175	-119,305	-0,128	0,016
-380,160	648,509	-0,044	-0,082
-379,146	800,000	0,034	0,078
-378,131	98,793	-0,042	0,035
-377,117	-17,035	-0,140	0,064
-376,102	332,036	-0,081	0,116
-375,088	-200,000	-0,021	0,075
-374,073	185,981	0,036	0,040
-373,058	37,333	0,137	0,089
-372,044	-200,000	0,013	-0,052
-371,029	140,265	0,056	-0,054
-370,015	800,000	0,046	0,100
-369,000	-54,745	-0,038	0,013
-367,985	-58,879	-0,148	-0,047
-366,971	217,263	-0,028	0,033
-365,956	24,923	0,122	0,074
-364,942	-200,000	0,026	0,109
-363,927	0,817	0,030	0,016
-362,912	-51,745	0,095	0,032
-361,898	-132,251	-0,022	-0,002
-360,883	499,607	-0,032	-0,054
-359,869	440,719	-0,049	-0,078
-358,854	207,059	0,074	0,085
-357,839	800,000	-0,065	0,195
-356,825	413,455	0,063	-0,098
-355,810	800,000	-0,055	-0,135
-354,796	37,927	0,112	-0,073
-353,781	-200,000	0,025	-0,128
-352,766	369,283	0,038	0,056
-351,752	196,880	-0,068	-0,076
-350,737	-200,000	0,004	0,112
-349,723	-113,624	0,121	0,017
-348,708	-16,029	0,159	0,074
-347,693	42,028	-0,108	-0,072
-346,679	635,362	0,051	-0,095
-345,664	-3,089	0,066	-0,033
-344,650	-23,823	0,104	-0,046
-343,635	800,000	0,041	0,109
-342,620	-132,401	0,108	-0,010
-341,606	37,041	0,125	0,081
-340,591	701,670	-0,047	-0,092
-339,577	333,049	-0,020	0,029
-338,562	327,196	0,139	0,196
-337,548	353,341	0,042	-0,061
-336,533	-143,513	0,032	0,002
-335,518	800,000	0,029	0,082
-334,504	-63,758	0,205	0,061
-333,489	-94,746	0,072	0,014
-332,475	53,253	0,059	0,041
-331,460	-200,000	-0,003	-0,013
-330,445	800,000	0,007	-0,021
-329,431	-68,547	0,114	-0,032
-328,416	165,737	0,138	0,143
-327,402	800,000	0,050	-0,112
-326,387	800,000	0,027	0,068
-325,372	-48,935	-0,054	-0,019
-324,358	-37,989	0,098	-0,038
-323,343	46,359	-0,045	0,030
-322,329	800,000	-0,029	-0,087
-321,314	-200,000	-0,000	-0,017
-320,299	281,195	0,110	-0,144
-319,285	164,479	-0,029	0,030
-318,270	-200,000	0,004	0,030
-317,256	358,128	0,103	-0,151
-316,241	-63,096	0,029	-0,009
-315,226	-200,000	0,002	0,212
-314,212	25,058	0,011	0,007
-313,197	50,595	0,097	-0,067
-312,183	34,788	0,097	0,062
-311,168	-191,935	-0,157	0,001
-310,153	-20,193	-0,163	-0,073
-309,139	13,243	-0,057	-0,032
-308,124	94,089	-0,077	0,064
-307,110	689,506	-0,054	0,104
-306,095	255,067	0,071	0,089
-305,080	251,422	0,084	0,105
-304,066	237,670	-0,046	-0,056
-303,051	-200,000	0,007	-0,190
-302,037	-200,000	0,002	-0,011
-301,022	800,000	0,052	0,128
-300,008	-200,000	0,008	-0,038
-298,993	-10,879	0,050	0,024
-297,978	800,000	-0,045	0,098
-296,964	-75,376	-0,071	0,018
-295,949	800,000	-0,040	-0,095
-294,935	409,369	0,042	0,065
-293,920	-112,533	0,047	-0,007
-292,905	-105,592	0,208	-0,034
-291,891	-4,209	0,043	0,022
-290,876	-200,000	-0,008	0,104
-289,862	-119,457	-0,164	-0,021
-288,847	141,045	-0,051	-0,049
-287,832	428,171	0,033	-0,052
-286,818	800,000	-0,014	-0,036
-285,803	-200,000	0,011	-0,112
-284,789	-107,629	-0,053	0,008
-283,774	-85,472	0,034	0,008
-282,759	-200,000	0,001	0,136
-281,745	42,723	-0,043	0,029
-280,730	51,691	-0,138	-0,096
-279,716	527,838	0,038	-0,066
-278,701	-200,000	-0,027	-0,114
-277,686	-200,000	0,021	0,146
-276,672	80,868	-0,044	-0,035
-275,657	-200,000	-0,014	0,162
-274,643	-89,539	-0,118	-0,025
-273,628	-112,916	-0,108	-0,016
-272,613	487,701	-0,047	-0,079
-271,599	-147,562	0,081	-0,005
-270,584	-200,000	0,013	0,156
-269,570	245,831	0,055	0,068
-268,555	-108,715	0,100	-0,015
-267,540	-97,280	-0,082	0,015
-266,526	-65,978	0,075	0,022
-265,511	192,205	0,016	-0,018
-264,497	204,336	0,093	0,105
-263,482	-200,000	0,004	-0,087
-262,467	800,000	-0,023	-0,049
-261,453	-93,798	0,090	0,018
-260,438	667,780	-0,054	-0,103
-259,424	-118,293	-0,191	0,025
-258,409	443,820	0,037	0,059
-257,395	-200,000	-0,002	-0,049
-256,380	380,973	-0,029	0,044
-255,365	261,452	0,082	0,103
-254,351	3,979	0,108	-0,057
-253,336	800,000	0,040	0,113
-252,322	-170,024	0,077	0,002
-251,307	290,695	-0,034	-0,045
-250,292	75,119	-0,057	0,044
-249,278	308,132	0,018	0,025
-248,263	142,227	-0,170	0,165
-247,249	-178,717	-0,148	0,002
-246,234	800,000	0,008	-0,026
-245,219	-200,000	-0,017	-0,088
-244,205	-20,631	0,049	0,022
-243,190	45,881	0,081	-0,055
-242,176	800,000	-0,059	-0,160
-241,161	-200,000	-0,011	-0,097
-240,146	40,220	0,077	-0,051
-239,132	-200,000	0,034	-0,112
-238,117	-200,000	0,014	-0,069
-237,103	-121,200	-0,143	-0,017
-236,088	-8,218	0,132	-0,065
-235,073	180,605	0,126	-0,135
-234,059	-200,000	-0,007	0,113
-233,044	-192,700	-0,027	-0,000
-232,030	-131,615	-0,075	-0,007
-231,015	31,251	-0,126	-0,079
-230,000	-200,000	-0,002	-0,035
-228,986	-113,892	-0,027	0,004
-227,971	-200,000	0,014	0,045
-226,957	717,196	0,038	-0,075
-225,942	764,410	-0,063	0,125
-224,927	206,519	-0,058	-0,066
-223,913	-33,455	-0,070	-0,028
-222,898	91,067	-0,037	0,030
-221,884	102,017	-0,040	0,034
-220,869	38,493	-0,050	0,032
-219,855	117,878	0,035	-0,032
-218,840	-5,617	0,181	0,090
-217,825	-200,000	-0,007	-0,048
-216,811	800,000	-0,020	-0,048
-215,796	169,232	0,026	-0,027
-214,782	-200,000	-0,008	0,128
-213,767	2,894	0,029	-0,015
-212,752	-117,459	0,132	-0,017
-211,738	-171,467	-0,095	-0,002
-210,723	465,563	-0,067	0,109
-209,709	-68,198	-0,090	-0,025
-208,694	-200,000	-0,007	-0,064
-207,679	495,615	0,033	-0,055
-206,665	-200,000	-0,014	-0,111
-205,650	-12,026	0,076	-0,036
-204,636	-200,000	-0,012	0,077
-203,621	800,000	0,029	-0,074
-202,606	-200,000	-0,021	-0,081
-201,592	-81,550	-0,094	-0,022
-200,577	800,000	0,025	-0,052
-199,563	402,647	-0,046	-0,070
-198,548	33,721	0,181	0,114
-197,533	-200,000	0,019	-0,135
-196,519	800,000	0,041	0,111
-195,504	800,000	-0,025	0,054
-194,490	632,420	-0,071	-0,131
-193,475	-95,880	-0,153	0,029
-192,460	56,612	0,025	0,017
-191,446	-122,121	-0,044	-0,005
-190,431	-107,883	0,115	-0,018
-189,417	141,563	-0,034	0,033
-188,402	-200,000	0,001	-0,133
-187,387	-62,219	-0,041	0,012
-186,373	28,171	-0,012	0,007
-185,358	-200,000	-0,009	0,059
-184,344	-200,000	-0,009	0,032
-183,329	177,281	0,049	0,052
-182,315	272,998	0,097	0,125
-181,300	-43,935	-0,172	0,063
-180,285	800,000	-0,050	-0,129
-179,271	-200,000	0,016	-0,108
-178,256	-69,732	0,025	-0,007
-177,242	87,372	0,071	0,058
-176,227	-74,230	0,124	-0,032
-175,212	150,518	-0,073	0,073
-174,198	-200,000	0,008	-0,173
-173,183	-200,000	0,006	-0,019
-172,169	-118,884	0,085	0,011
-171,154	316,919	-0,076	-0,105
-170,139	800,000	0,030	0,073
-169,125	0,531	0,123	-0,064
-168,110	800,000	0,053	0,126
-167,096	144,409	0,086	0,084
-166,081	-115,459	-0,118	-0,016
-165,066	-64,084	0,053	-0,016
-164,052	6,751	-0,166	0,090
-163,037	43,998	0,091	0,061
-162,023	431,170	-0,098	0,154
-161,008	-121,013	0,085	-0,010
-159,993	91,518	-0,030	-0,025
-158,979	800,000	-0,062	-0,142
-157,964	-200,000	-0,059	0,200
-156,950	-20,958	-0,149	-0,066
-155,935	-76,738	0,033	-0,008
-154,920	800,000	0,034	0,096
-153,906	365,248	0,072	0,105
-152,891	99,459	-0,010	0,008
-151,877	-70,348	-0,020	-0,005
-150,862	-200,000	-0,045	-0,175
-149,847	-200,000	-0,022	0,106
-148,833	46,398	-0,072	-0,049
-147,818	0,246	0,093	0,048
-146,804	-13,757	0,119	0,056
-145,789	-200,000	0,026	-0,094
-144,775	-200,000	-0,015	-0,101
-143,760	118,333	0,137	-0,123
-142,745	250,793	-0,009	0,011
-141,731	-200,000	-0,010	0,061
-140,716	-200,000	0,109	0,000
-139,702	-82,193	0,099	0,023
-138,687	288,724	-0,034	0,044
-137,672	-197,822	0,060	0,000
-136,658	6,666	-0,099	0,053
-135,643	-200,000	-0,002	0,009
-134,629	-115,772	0,018	0,002
-133,614	800,000	0,027	-0,069
-132,599	-27,845	-0,132	0,055
-131,585	-149,449	-0,168	0,010
-130,570	54,628	0,044	0,030
-129,556	-151,904	0,067	0,003
-128,541	800,000	0,019	0,056
-127,526	-151,555	0,089	-0,005
-126,512	284,652	-0,050	-0,065
-125,497	104,088	0,097	-0,083
-124,483	-200,000	-0,006	-0,107
-123,468	-165,692	0,050	0,002
-122,453	482,680	-0,056	0,093
-121,439	-35,894	-0,055	-0,022
-120,424	72,438	-0,086	-0,065
