DTS Sentinel unit serial number:	SN410029Multiplexer serial number:	ORYXHardware model number:	OX2-SRSoftware version number:	ORYX F/W v4,00 Oryx Data Collector v3.7.2.0data status	okinstallation	B4 Nyhavnadifferential loss correction	single-endedforward channel	channel 2reverse channel	N/Adate	2023/12/16time	01:45:13forward acquisition time	300,00reverse acquisition time	0,00gamma	499,1914k internal	0,3129k external	0,3129temperature offset calibration	1,0000default loss term (dB/km)	0,3820temperature slope calibration	1,0000multiplexer offset coefficient	1,0000multiplexer slope coefficient	1,0000fibre end	0,00T internal ref (°C)	21,93T ext. ref 1 (°C)	7,11T ext. ref 2 (°C)	7,28length (m)	temperature (°C)	Stokes	anti-Stokes-744,400	225,040	-0,017	-0,021
-743,385	-66,756	-0,245	-0,072
-742,371	295,437	0,094	-0,129
-741,356	261,695	-0,143	0,185
-740,342	154,282	0,090	0,092
-739,327	-121,253	-0,154	-0,019
-738,312	-22,388	-0,106	0,048
-737,298	-145,112	-0,223	0,015
-736,283	-200,000	0,016	0,082
-735,269	16,764	-0,253	0,149
-734,254	-97,101	0,064	0,012
-733,239	-42,147	-0,344	-0,130
-732,225	800,000	0,029	0,064
-731,210	321,594	0,059	-0,084
-730,196	800,000	-0,036	-0,092
-729,181	-1,957	-0,133	-0,069
-728,167	388,291	-0,015	-0,023
-727,152	123,168	0,064	-0,059
-726,137	131,102	-0,072	-0,069
-725,123	193,624	0,070	-0,079
-724,108	-116,876	0,027	0,004
-723,094	-17,095	-0,108	0,050
-722,079	135,579	0,033	0,032
-721,064	20,481	0,114	0,069
-720,050	-200,000	-0,015	0,050
-719,035	-200,000	-0,018	-0,062
-718,021	492,273	-0,106	-0,181
-717,006	44,570	0,068	-0,046
-715,991	800,000	-0,121	-0,251
-714,977	-64,086	-0,068	-0,021
-713,962	-91,499	-0,122	0,026
-712,948	800,000	-0,028	-0,067
-711,933	250,500	-0,053	0,067
-710,918	24,548	-0,070	0,043
-709,904	165,426	-0,105	-0,111
-708,889	-200,000	-0,004	-0,119
-707,875	-32,855	-0,086	-0,035
-706,860	-142,385	0,062	-0,004
-705,845	760,300	-0,056	0,113
-704,831	55,816	0,033	-0,024
-703,816	93,459	-0,066	0,055
-702,802	20,268	-0,044	0,027
-701,787	523,304	-0,044	-0,078
-700,772	-82,914	-0,071	-0,017
-699,758	-200,000	-0,002	-0,047
-698,743	-200,000	-0,023	-0,085
-697,729	800,000	0,007	-0,020
-696,714	-112,817	0,141	0,021
-695,699	-102,830	0,018	-0,003
-694,685	253,000	0,025	-0,031
-693,670	-113,938	-0,114	0,016
-692,656	305,967	-0,071	0,098
-691,641	-20,810	-0,054	-0,024
-690,627	-200,000	0,027	0,106
-689,612	-153,274	-0,129	-0,007
-688,597	98,418	0,011	-0,009
-687,583	111,584	-0,110	-0,098
-686,568	16,498	0,059	-0,034
-685,554	56,643	-0,142	0,103
-684,539	-121,601	0,120	0,015
-683,524	-161,894	-0,103	0,004
-682,510	800,000	-0,023	0,064
-681,495	26,218	-0,107	-0,066
-680,481	-35,267	-0,137	-0,055
-679,466	-134,233	0,169	-0,015
-678,451	277,249	0,024	0,032
-677,437	231,689	-0,091	-0,111
-676,422	-91,998	0,080	0,017
-675,408	38,685	-0,090	-0,059
-674,393	-200,000	0,007	-0,108
-673,378	145,385	-0,127	-0,126
-672,364	160,745	-0,045	-0,047
-671,349	-81,662	-0,085	-0,021
-670,335	323,707	0,044	-0,063
-669,320	205,155	0,030	0,035
-668,305	-200,000	-0,000	0,027
-667,291	-65,093	-0,117	0,035
-666,276	-3,906	-0,066	0,034
-665,262	-200,000	0,003	-0,104
-664,247	75,867	-0,063	-0,050
-663,232	35,450	-0,002	-0,002
-662,218	-93,034	0,086	0,018
-661,203	281,066	-0,025	-0,033
-660,189	241,090	0,026	0,032
-659,174	800,000	0,070	-0,155
-658,159	-200,000	0,001	-0,014
-657,145	800,000	-0,031	-0,083
-656,130	-33,979	0,034	0,014
-655,116	-67,094	0,131	0,038
-654,101	127,896	0,069	0,065
-653,086	-138,195	-0,068	0,006
-652,072	242,475	0,008	-0,010
-651,057	-200,000	0,001	-0,148
-650,043	197,532	-0,060	-0,068
-649,028	-200,000	-0,051	0,198
-648,014	-200,000	-0,004	0,053
-646,999	0,610	-0,041	-0,022
-645,984	800,000	0,021	0,053
-644,970	-84,006	0,192	0,045
-643,955	-122,067	0,070	0,008
-642,941	-38,669	-0,083	0,032
-641,926	-200,000	-0,002	0,084
-640,911	800,000	0,041	0,108
-639,897	13,094	-0,039	0,022
-638,882	114,259	0,111	0,100
-637,868	-200,000	-0,014	0,086
-636,853	800,000	-0,052	-0,128
-635,838	-120,383	-0,087	0,011
-634,824	175,616	-0,044	-0,048
-633,809	-177,490	0,046	0,001
-632,795	76,160	0,059	-0,046
-631,780	-164,955	0,038	0,001
-630,765	171,742	0,137	-0,146
-629,751	-144,260	-0,234	0,016
-628,736	236,466	-0,018	-0,023
-627,722	-111,119	0,031	0,005
-626,707	-22,825	0,077	0,034
-625,692	271,016	0,041	-0,054
-624,678	317,487	0,052	-0,073
-623,663	548,966	0,080	0,143
-622,649	111,844	-0,093	-0,083
-621,634	-49,064	-0,036	0,013
-620,619	195,767	0,022	-0,025
-619,605	119,554	-0,048	-0,044
-618,590	-200,000	-0,007	-0,024
-617,576	306,203	-0,018	-0,025
-616,561	-200,000	-0,009	0,132
-615,546	317,654	-0,042	-0,059
-614,532	402,289	-0,081	-0,127
-613,517	259,400	-0,018	0,023
-612,503	382,738	-0,014	-0,022
-611,488	342,062	0,059	0,086
-610,474	284,520	0,018	0,025
-609,459	-141,169	0,072	0,005
-608,444	-34,114	0,076	-0,031
-607,430	247,520	0,027	0,034
-606,415	-91,247	-0,085	0,018
-605,401	228,780	0,069	-0,084
-604,386	337,908	-0,022	0,032
-603,371	461,382	0,123	0,204
-602,357	94,709	-0,040	0,034
-601,342	248,574	-0,094	-0,118
-600,328	208,399	-0,038	-0,044
-599,313	-88,924	-0,101	0,022
-598,298	-200,000	-0,002	-0,105
-597,284	104,417	0,062	-0,054
-596,269	800,000	0,024	0,078
-595,255	-200,000	0,006	0,121
-594,240	-75,749	0,047	0,012
-593,225	800,000	0,022	0,070
-592,211	128,735	-0,025	-0,023
-591,196	128,059	-0,071	0,067
-590,182	322,478	0,074	0,105
-589,167	389,826	-0,028	0,042
-588,152	-200,000	-0,005	0,075
-587,138	-142,409	-0,011	0,001
-586,123	-200,000	0,024	-0,080
-585,109	-200,000	0,021	0,091
-584,094	49,009	0,131	0,091
-583,079	-127,534	-0,014	0,001
-582,065	-200,000	-0,004	0,015
-581,050	-200,000	-0,018	0,155
-580,036	223,457	-0,101	0,120
-579,021	-200,000	0,008	0,046
-578,006	201,398	-0,028	-0,032
-576,992	100,473	0,032	-0,028
-575,977	-200,000	-0,028	0,111
-574,963	-76,878	0,055	-0,014
-573,948	-89,011	0,076	-0,016
-572,934	-9,659	0,081	-0,040
-571,919	121,756	-0,101	-0,093
-570,904	-56,912	-0,059	-0,019
-569,890	142,271	0,075	0,073
-568,875	800,000	-0,035	-0,091
-567,861	800,000	-0,039	0,123
-566,846	-200,000	-0,030	-0,180
-565,831	-200,000	0,013	0,139
-564,817	-178,255	-0,060	0,001
-563,802	-200,000	0,005	-0,170
-562,788	111,462	-0,114	-0,102
-561,773	-149,142	0,176	0,010
-560,758	-200,000	0,002	0,077
-559,744	-88,186	-0,052	-0,011
-558,729	58,880	0,170	-0,123
-557,715	-200,000	0,028	-0,171
-556,700	228,012	-0,098	-0,118
-555,685	185,589	-0,030	-0,032
-554,671	-196,911	-0,151	-0,001
-553,656	270,194	-0,063	-0,082
-552,642	-69,451	0,114	0,032
-551,627	-104,677	-0,074	-0,013
-550,612	-31,734	0,099	0,041
-549,598	33,137	-0,165	-0,105
-548,583	346,998	-0,052	-0,075
-547,569	658,991	0,018	-0,034
-546,554	-25,375	0,092	0,040
-545,539	63,985	-0,119	0,089
-544,525	34,990	0,062	-0,040
-543,510	-39,077	-0,086	0,033
-542,496	800,000	-0,030	-0,068
-541,481	-104,250	-0,044	-0,008
-540,466	-148,484	-0,110	-0,007
-539,452	-130,382	0,098	-0,010
-538,437	-39,530	0,092	-0,035
-537,423	-44,074	-0,178	0,065
-536,408	-34,525	-0,087	-0,035
-535,393	-28,939	0,103	-0,044
-534,379	-200,000	-0,004	0,024
-533,364	-128,530	0,037	0,004
-532,350	570,717	-0,058	-0,104
-531,335	-57,237	0,046	-0,015
-530,321	-70,025	-0,056	0,015
-529,306	800,000	-0,057	-0,141
-528,291	-116,254	0,061	-0,008
-527,277	69,057	-0,071	0,054
-526,262	-51,028	0,015	0,005
-525,248	-14,032	0,102	-0,048
-524,233	26,067	0,114	0,070
-523,218	-158,772	-0,060	0,002
-522,204	453,636	0,083	0,137
-521,189	-113,144	0,059	0,008
-520,175	323,612	0,025	0,035
-519,160	215,536	-0,046	-0,054
-518,145	-200,000	0,005	0,094
-517,131	-53,646	0,113	0,038
-516,116	-200,000	0,008	-0,066
-515,102	-43,127	-0,101	-0,038
-514,087	-47,779	0,150	-0,053
-513,072	800,000	-0,034	-0,102
-512,058	800,000	0,032	0,088
-511,043	-26,110	-0,054	-0,023
-510,029	800,000	0,025	0,062
-509,014	-200,000	0,059	0,197
-507,999	4,100	-0,031	-0,017
-506,985	263,950	0,061	-0,078
-505,970	-48,614	-0,159	0,056
-504,956	13,926	0,088	-0,050
-503,941	14,071	-0,056	0,032
-502,926	-155,350	-0,145	0,007
-501,912	-42,027	-0,045	0,017
-500,897	800,000	-0,006	0,014
-499,883	800,000	-0,007	0,022
-498,868	210,752	-0,095	-0,110
-497,853	800,000	0,026	-0,064
-496,839	-114,020	0,080	0,011
-495,824	-200,000	-0,022	0,128
-494,810	800,000	0,051	0,107
-493,795	223,363	0,028	0,034
-492,781	-25,072	0,060	0,026
-491,766	540,435	-0,066	0,116
-490,751	12,919	-0,067	-0,038
-489,737	-101,084	0,032	-0,006
-488,722	800,000	-0,013	-0,039
-487,708	39,042	-0,061	-0,040
-486,693	-200,000	-0,034	-0,132
-485,678	524,536	-0,063	0,109
-484,664	800,000	-0,057	0,180
-483,649	-105,716	-0,119	0,020
-482,635	-200,000	-0,012	-0,041
-481,620	58,184	0,131	0,094
-480,605	510,483	0,030	0,052
-479,591	-163,485	-0,096	-0,003
-478,576	-200,000	0,018	-0,125
-477,562	-200,000	0,006	-0,087
-476,547	172,954	0,036	-0,039
-475,532	311,003	-0,051	-0,071
-474,518	-112,661	0,221	0,032
-473,503	-200,000	-0,040	-0,149
-472,489	-200,000	-0,054	0,177
-471,474	-200,000	-0,008	-0,037
-470,459	-53,071	0,074	0,025
-469,445	201,344	0,064	0,072
-468,430	-37,030	-0,115	-0,045
-467,416	185,535	0,028	0,031
-466,401	736,106	-0,028	0,055
-465,386	11,153	0,062	0,035
-464,372	-200,000	-0,021	0,096
-463,357	210,821	-0,053	0,062
-462,343	800,000	-0,030	-0,062
-461,328	-154,397	0,161	0,008
-460,313	-30,331	0,153	-0,064
-459,299	-200,000	0,020	-0,177
-458,284	-200,000	0,006	0,118
-457,270	211,079	-0,057	-0,066
-456,255	-50,071	-0,016	-0,005
-455,241	-67,375	-0,160	0,046
-454,226	-170,862	0,176	0,004
-453,211	75,527	0,034	-0,026
-452,197	-200,000	-0,003	0,056
-451,182	-74,864	0,043	-0,011
-450,168	-200,000	-0,024	0,092
-449,153	60,411	0,025	0,019
-448,138	800,000	0,048	-0,103
-447,124	221,351	0,060	0,072
-446,109	800,000	-0,067	-0,145
-445,095	-52,375	0,145	-0,049
-444,080	-27,289	-0,020	0,008
-443,065	-200,000	0,011	0,089
-442,051	56,867	-0,047	0,034
-441,036	-54,533	0,021	0,007
-440,022	24,792	-0,096	0,059
-439,007	800,000	0,017	-0,047
-437,992	-200,000	-0,001	-0,019
-436,978	478,550	0,038	-0,064
-435,963	408,059	0,032	0,051
-434,949	-200,000	-0,006	-0,045
-433,934	14,838	0,059	-0,034
-432,919	24,655	0,094	-0,057
-431,905	-52,622	-0,147	-0,049
-430,890	40,170	0,057	-0,038
-429,876	-200,000	-0,012	0,041
-428,861	685,039	0,028	0,055
-427,846	-14,125	0,048	0,023
-426,832	-200,000	-0,004	0,059
-425,817	167,096	0,031	-0,033
-424,803	-49,663	0,075	-0,026
-423,788	-188,121	-0,034	-0,000
-422,773	-146,521	0,143	0,009
-421,759	51,853	-0,023	-0,016
-420,744	52,847	-0,114	0,080
-419,730	-37,005	0,036	-0,014
-418,715	-187,358	0,061	0,001
-417,701	27,237	-0,044	0,027
-416,686	-200,000	-0,014	0,141
-415,671	96,775	0,086	0,073
-414,657	-149,617	-0,145	0,008
-413,642	49,578	-0,046	-0,032
-412,628	3,980	0,034	0,018
-411,613	800,000	-0,061	-0,136
-410,598	-200,000	-0,015	-0,062
-409,584	-34,180	0,060	-0,024
-408,569	-47,972	0,138	0,049
-407,555	-113,592	0,141	0,020
-406,540	8,895	-0,045	-0,025
-405,525	-2,320	-0,046	0,024
-404,511	205,811	0,101	-0,115
-403,496	237,176	0,084	-0,103
-402,482	298,513	-0,036	0,049
-401,467	185,372	0,102	0,111
-400,452	578,829	0,026	0,047
-399,438	-200,000	-0,021	0,072
-398,423	-200,000	-0,006	0,039
-397,409	67,849	0,094	0,071
-396,394	-74,514	-0,038	-0,010
-395,379	199,935	0,042	0,048
-394,365	562,635	0,063	-0,113
-393,350	26,033	-0,029	0,018
-392,336	-200,000	-0,012	-0,129
-391,321	800,000	-0,045	-0,143
-390,306	-200,000	-0,008	-0,055
-389,292	-96,843	-0,087	0,017
-388,277	-6,827	0,034	-0,017
-387,263	-124,361	0,071	-0,008
-386,248	127,287	-0,045	0,042
-385,233	390,205	0,033	0,050
-384,219	112,267	-0,106	-0,094
-383,204	608,252	-0,100	-0,184
-382,190	124,716	-0,099	-0,091
-381,175	44,761	-0,117	-0,078
-380,160	-108,492	0,186	-0,029
-379,146	93,685	0,028	-0,023
-378,131	180,460	-0,102	0,110
-377,117	-27,022	-0,072	-0,031
-376,102	364,611	-0,027	0,039
-375,088	-81,748	-0,105	-0,025
-374,073	57,265	0,008	0,006
-373,058	18,095	0,037	-0,022
-372,044	-70,683	-0,079	-0,022
-371,029	86,239	0,086	-0,070
-370,015	-87,516	0,018	0,004
-369,000	800,000	0,016	-0,046
-367,985	-13,398	-0,153	-0,072
-366,971	-200,000	-0,010	0,100
-365,956	-81,419	-0,063	0,015
-364,942	40,899	0,078	-0,051
-363,927	11,671	0,093	0,052
-362,912	-172,013	0,117	0,003
-361,898	76,329	-0,088	-0,069
-360,883	-126,920	0,029	-0,003
-359,869	-106,152	-0,087	0,014
-358,854	800,000	0,065	0,156
-357,839	-200,000	0,012	-0,089
-356,825	-200,000	0,002	0,167
-355,810	-82,372	-0,072	-0,017
-354,796	-200,000	-0,050	0,000
-353,781	-200,000	-0,036	0,119
-352,766	-194,386	0,111	-0,001
-351,752	-200,000	0,005	0,018
-350,737	4,876	0,074	-0,040
-349,723	-200,000	0,050	-0,000
-348,708	-64,667	-0,098	0,029
-347,693	309,355	0,048	0,066
-346,679	-28,159	-0,176	-0,074
-345,664	74,129	-0,055	-0,042
-344,650	800,000	0,017	0,049
-343,635	402,515	0,032	0,049
-342,620	-59,579	0,068	-0,021
-341,606	585,961	-0,060	0,109
-340,591	130,971	-0,025	-0,024
-339,577	-200,000	0,003	0,065
-338,562	-124,071	-0,049	0,006
-337,548	12,515	0,058	-0,033
-336,533	-200,000	-0,002	0,038
-335,518	22,389	-0,039	0,023
-334,504	800,000	0,069	0,168
-333,489	-200,000	-0,009	0,057
-332,475	0,075	-0,068	0,035
-331,460	-81,874	-0,047	0,011
-330,445	-147,087	-0,055	0,003
-329,431	22,811	-0,068	-0,041
-328,416	245,047	0,102	0,125
-327,402	33,011	-0,060	-0,038
-326,387	-200,000	-0,005	-0,162
-325,372	750,342	0,036	-0,070
-324,358	317,089	0,082	-0,113
-323,343	-200,000	-0,015	-0,090
-322,329	-40,083	0,062	0,023
-321,314	800,000	0,051	-0,144
-320,299	624,300	-0,034	-0,062
-319,285	199,736	-0,098	-0,110
-318,270	-20,755	-0,060	-0,027
-317,256	-200,000	-0,004	-0,106
-316,241	-200,000	0,012	-0,064
-315,226	800,000	0,024	-0,072
-314,212	154,880	0,030	-0,030
-313,197	11,974	0,115	-0,065
-312,183	-44,642	-0,092	0,034
-311,168	800,000	0,043	0,128
-310,153	472,392	-0,028	0,046
-309,139	-132,479	-0,094	0,009
-308,124	40,488	0,062	-0,040
-307,110	-200,000	-0,029	-0,095
-306,095	512,503	0,015	0,025
-305,080	-53,501	-0,047	0,016
-304,066	800,000	0,043	-0,123
-303,051	19,132	-0,107	-0,063
-302,037	484,219	0,076	0,126
-301,022	-200,000	0,011	0,039
-300,008	-148,979	-0,080	-0,005
-298,993	95,312	-0,041	-0,034
-297,978	480,333	0,018	0,031
-296,964	800,000	-0,037	-0,106
-295,949	800,000	-0,022	-0,069
-294,935	748,194	-0,037	-0,074
-293,920	-200,000	-0,005	-0,056
-292,905	-109,060	-0,029	0,004
-291,891	-89,529	0,136	-0,029
-290,876	83,013	0,076	0,061
-289,862	-48,968	0,137	-0,048
-288,847	-200,000	-0,032	-0,112
-287,832	90,848	-0,143	-0,117
-286,818	68,034	0,165	0,123
-285,803	304,102	0,028	0,038
-284,789	800,000	0,043	0,130
-283,774	94,601	-0,061	-0,051
-282,759	87,158	-0,082	-0,066
-281,745	-55,571	-0,016	0,005
-280,730	-200,000	-0,004	-0,144
-279,716	430,140	0,031	-0,049
-278,701	-125,180	0,054	0,006
-277,686	12,222	-0,032	-0,018
-276,672	800,000	-0,060	0,159
-275,657	255,519	0,057	0,072
-274,643	-200,000	-0,026	-0,118
-273,628	800,000	0,016	-0,048
-272,613	14,481	0,066	0,038
-271,599	79,414	0,068	-0,053
-270,584	800,000	0,084	0,193
-269,570	800,000	-0,024	-0,071
-268,555	-129,960	-0,033	-0,003
-267,540	-171,976	-0,167	-0,004
-266,526	271,036	-0,100	-0,128
-265,511	-26,124	-0,143	0,061
-264,497	-200,000	0,018	-0,062
-263,482	-200,000	0,006	0,110
-262,467	161,121	0,019	-0,019
-261,453	-87,860	-0,095	0,021
-260,438	185,690	0,080	-0,087
-259,424	465,081	-0,112	-0,184
-258,409	-200,000	-0,026	-0,105
-257,395	-101,448	0,100	-0,018
-256,380	-72,498	0,080	0,022
-255,365	365,778	0,073	0,108
-254,351	800,000	-0,048	0,149
-253,336	-200,000	0,012	0,054
-252,322	-113,279	0,146	0,021
-251,307	72,018	-0,058	-0,044
-250,292	-126,412	0,026	-0,003
-249,278	427,961	0,070	0,110
-248,263	-200,000	0,010	0,051
-247,249	145,040	-0,041	0,040
-246,234	18,090	-0,070	0,040
-245,219	79,050	-0,085	-0,066
-244,205	103,803	-0,070	0,060
-243,190	-66,602	0,176	-0,051
-242,176	113,173	0,050	-0,044
-241,161	-157,508	0,065	-0,003
-240,146	-178,846	0,057	-0,001
-239,132	800,000	0,067	0,185
-238,117	-63,478	-0,153	-0,046
-237,103	800,000	-0,033	-0,104
-236,088	18,852	-0,016	-0,009
-235,073	-200,000	0,036	0,221
-234,059	800,000	0,051	0,127
-233,044	-119,063	-0,012	0,002
-232,030	-180,906	-0,011	-0,000
-231,015	185,342	0,019	-0,021
-230,000	527,308	-0,041	-0,070
-228,986	193,430	-0,022	0,024
-227,971	-105,875	0,179	0,029
-226,957	-139,619	-0,113	0,009
-225,942	-133,644	0,064	0,006
-224,927	20,566	-0,093	-0,055
-223,913	12,731	0,093	-0,052
-222,898	800,000	0,020	-0,057
-221,884	-1,447	-0,072	-0,037
-220,869	-34,771	0,122	-0,048
-219,855	-200,000	0,003	0,036
-218,840	-200,000	-0,002	-0,025
-217,825	-85,490	-0,114	-0,026
-216,811	-68,093	-0,144	0,041
-215,796	-55,551	-0,126	-0,041
-214,782	38,795	-0,064	0,042
-213,767	-200,000	-0,014	0,048
-212,752	-54,327	0,045	0,015
-211,738	800,000	-0,037	0,088
-210,723	-124,400	0,065	0,007
-209,709	800,000	0,034	-0,082
-208,694	-200,000	0,001	0,026
-207,679	800,000	-0,016	-0,050
-206,665	800,000	0,016	0,039
-205,650	800,000	0,059	0,119
-204,636	61,519	0,177	0,128
-203,621	-200,000	-0,018	0,120
-202,606	59,826	-0,051	0,037
-201,592	116,850	0,074	-0,066
-200,577	22,471	-0,077	-0,046
-199,563	-200,000	0,006	0,079
-198,548	102,097	-0,053	0,045
-197,533	48,723	-0,029	-0,020
-196,519	-147,612	-0,129	0,008
-195,504	800,000	0,021	0,055
-194,490	-164,602	0,180	-0,006
-193,475	185,661	-0,080	-0,086
-192,460	7,100	-0,033	0,018
-191,446	-5,805	0,066	-0,033
-190,431	800,000	-0,045	0,096
-189,417	643,759	-0,006	0,010
-188,402	-200,000	-0,009	-0,086
-187,387	-200,000	0,003	0,015
-186,373	-114,946	0,048	0,007
-185,358	134,958	0,078	-0,074
-184,344	-190,040	-0,043	0,000
-183,329	-128,290	0,084	0,009
-182,315	98,142	0,045	0,038
-181,300	-48,996	-0,196	0,068
-180,285	114,199	-0,062	-0,055
-179,271	-89,553	0,064	0,014
-178,256	-54,412	-0,098	0,032
-177,242	-64,483	0,036	0,011
-176,227	-32,066	0,100	-0,041
-175,212	335,793	0,033	-0,047
-174,198	-100,033	-0,063	0,011
-173,183	-200,000	0,017	0,109
-172,169	302,935	0,091	0,124
-171,154	-200,000	0,009	-0,057
-170,139	800,000	0,053	-0,137
-169,125	105,707	0,076	-0,065
-168,110	-35,096	0,043	-0,017
-167,096	245,533	-0,034	0,042
-166,081	-39,625	-0,090	0,034
-165,066	82,219	-0,148	-0,116
-164,052	-200,000	-0,005	-0,072
-163,037	-200,000	0,013	0,050
-162,023	123,707	-0,008	0,008
-161,008	800,000	-0,004	-0,010
-159,993	-197,878	-0,156	0,001
-158,979	-200,000	-0,006	-0,073
-157,964	-70,330	-0,078	-0,021
-156,950	121,647	0,059	-0,054
-155,935	79,736	-0,013	0,010
-154,920	-150,503	0,019	0,001
-153,906	-200,000	0,001	0,081
-152,891	140,965	0,035	0,033
-151,877	-200,000	0,026	-0,085
-150,862	21,112	-0,069	-0,041
-149,847	800,000	0,037	0,090
-148,833	-200,000	-0,049	0,172
-147,818	-116,334	0,096	-0,013
-146,804	-87,716	-0,024	-0,005
-145,789	229,816	-0,029	0,034
-144,775	-200,000	-0,000	-0,150
-143,760	-44,566	-0,104	-0,037
-142,745	43,424	0,002	0,001
-141,731	261,198	-0,038	-0,047
-140,716	172,804	-0,032	0,034
-139,702	-20,022	-0,060	0,027
-138,687	-197,737	0,062	0,000
-137,672	720,150	-0,029	0,056
-136,658	81,579	0,068	-0,053
-135,643	182,082	0,059	-0,063
-134,629	165,049	-0,045	0,047
-133,614	-139,382	0,049	0,004
-132,599	34,155	0,057	0,036
-131,585	788,888	0,045	0,089
-130,570	302,617	0,011	-0,015
-129,556	-200,000	-0,008	-0,166
-128,541	-200,000	-0,018	0,064
-127,526	800,000	-0,032	0,078
-126,512	-200,000	0,010	0,069
-125,497	68,931	0,124	-0,093
-124,483	-200,000	0,002	-0,007
-123,468	255,248	-0,032	-0,040
-122,453	-61,014	-0,066	-0,020
-121,439	-200,000	-0,016	-0,078
-120,424	800,000	-0,050	0,136
-119,410	-134,001	0,079	0,007
