DTS Sentinel unit serial number:	SN410029Multiplexer serial number:	ORYXHardware model number:	OX2-SRSoftware version number:	ORYX F/W v4,00 Oryx Data Collector v3.7.2.0data status	okinstallation	B4 Nyhavnadifferential loss correction	single-endedforward channel	channel 2reverse channel	N/Adate	2023/12/19time	04:05:13forward acquisition time	300,00reverse acquisition time	0,00gamma	499,1914k internal	0,3126k external	0,3126temperature offset calibration	1,0000default loss term (dB/km)	0,3820temperature slope calibration	1,0000multiplexer offset coefficient	1,0000multiplexer slope coefficient	1,0000fibre end	0,00T internal ref (°C)	20,95T ext. ref 1 (°C)	5,89T ext. ref 2 (°C)	5,92length (m)	temperature (°C)	Stokes	anti-Stokes-744,400	-200,000	-0,000	-0,054
-743,385	133,596	-0,117	0,113
-742,371	-12,661	0,022	0,011
-741,356	-102,753	-0,165	0,029
-740,342	-47,149	0,074	0,027
-739,327	40,012	-0,206	0,137
-738,312	5,250	0,053	-0,029
-737,298	-126,694	-0,331	0,036
-736,283	83,132	0,045	-0,036
-735,269	21,832	-0,196	0,119
-734,254	157,869	0,073	0,075
-733,239	-122,810	-0,407	-0,048
-732,225	-200,000	0,013	-0,075
-731,210	-80,760	0,079	-0,019
-730,196	25,371	0,126	-0,078
-729,181	-97,055	-0,113	0,022
-728,167	32,682	-0,062	-0,040
-727,152	7,396	-0,043	0,024
-726,137	-3,892	-0,098	0,051
-725,123	-200,000	0,002	-0,008
-724,108	-200,000	0,012	-0,085
-723,094	-200,000	-0,007	-0,049
-722,079	-200,000	0,013	0,095
-721,064	-157,469	-0,165	0,007
-720,050	800,000	-0,049	0,127
-719,035	-48,376	0,062	0,022
-718,021	52,796	-0,124	0,088
-717,006	-169,470	-0,052	-0,001
-715,991	39,493	-0,029	0,019
-714,977	-139,257	-0,028	-0,002
-713,962	72,701	-0,058	0,045
-712,948	800,000	0,018	-0,044
-711,933	-200,000	-0,006	0,025
-710,918	9,826	-0,124	0,070
-709,904	-94,664	-0,114	-0,023
-708,889	592,321	-0,027	-0,049
-707,875	-134,081	-0,095	0,009
-706,860	-28,294	-0,106	0,045
-705,845	-160,857	0,057	-0,002
-704,831	-49,112	-0,070	-0,025
-703,816	800,000	-0,014	-0,044
-702,802	-200,000	-0,041	0,175
-701,787	-200,000	0,011	-0,080
-700,772	800,000	0,062	-0,148
-699,758	-200,000	0,004	-0,044
-698,743	-200,000	0,009	0,071
-697,729	-106,628	-0,145	0,024
-696,714	380,804	-0,027	-0,042
-695,699	-83,108	-0,016	-0,004
-694,685	64,536	-0,057	-0,042
-693,670	12,603	-0,102	0,058
-692,656	800,000	0,045	0,115
-691,641	793,152	-0,023	-0,048
-690,627	-154,543	0,140	0,007
-689,612	-200,000	-0,006	-0,025
-688,597	-86,447	-0,124	-0,028
-687,583	800,000	0,035	-0,081
-686,568	-85,611	-0,105	-0,024
-685,554	-200,000	-0,019	0,064
-684,539	-193,875	-0,093	0,001
-683,524	335,746	-0,054	-0,079
-682,510	-113,167	-0,103	-0,015
-681,495	717,432	0,053	0,105
-680,481	37,375	-0,133	-0,088
-679,466	-200,000	0,027	-0,147
-678,451	560,038	0,083	0,150
-677,437	249,015	-0,074	-0,093
-676,422	-200,000	-0,001	0,020
-675,408	-200,000	-0,004	-0,069
-674,393	360,125	0,044	0,065
-673,378	-200,000	-0,013	0,101
-672,364	107,152	-0,111	-0,098
-671,349	89,216	-0,044	0,036
-670,335	308,311	0,048	-0,067
-669,320	-12,759	-0,065	-0,031
-668,305	525,283	-0,026	0,046
-667,291	-200,000	-0,020	0,105
-666,276	800,000	-0,062	-0,153
-665,262	800,000	-0,052	-0,136
-664,247	88,080	-0,015	-0,012
-663,232	133,790	-0,016	-0,016
-662,218	-200,000	0,019	0,062
-661,203	-88,797	-0,022	-0,005
-660,189	244,282	-0,015	0,019
-659,174	-200,000	-0,022	-0,075
-658,159	447,797	0,040	-0,065
-657,145	7,444	-0,102	-0,056
-656,130	488,311	0,064	-0,109
-655,116	800,000	0,023	0,054
-654,101	800,000	0,023	-0,067
-653,086	800,000	0,027	-0,067
-652,072	77,830	-0,102	-0,080
-651,057	103,609	-0,037	0,032
-650,043	-131,473	-0,092	0,009
-649,028	-60,915	-0,048	0,015
-648,014	-200,000	-0,001	-0,061
-646,999	-25,225	-0,062	0,027
-645,984	314,036	0,048	-0,067
-644,970	163,333	0,017	0,018
-643,955	-154,796	-0,051	-0,002
-642,941	-136,250	-0,132	-0,011
-641,926	-178,634	-0,073	0,001
-640,911	-149,145	-0,051	-0,003
-639,897	235,963	0,056	0,068
-638,882	-102,009	0,039	-0,007
-637,868	775,021	-0,085	-0,173
-636,853	-81,009	0,058	0,014
-635,838	31,879	-0,068	-0,044
-634,824	800,000	-0,054	-0,172
-633,809	-200,000	-0,002	-0,016
-632,795	-17,507	0,008	0,004
-631,780	-200,000	-0,018	-0,079
-630,765	240,562	-0,103	-0,128
-629,751	800,000	0,034	0,080
-628,736	-200,000	0,013	0,052
-627,722	-96,470	-0,020	-0,004
-626,707	166,385	0,117	0,123
-625,692	800,000	0,031	-0,084
-624,678	-146,679	0,004	-0,000
-623,663	403,578	0,076	0,119
-622,649	8,341	-0,053	-0,029
-621,634	598,062	-0,003	0,006
-620,619	658,818	0,028	-0,054
-619,605	-132,376	-0,007	-0,001
-618,590	-126,503	-0,110	-0,012
-617,576	629,820	-0,019	-0,035
-616,561	-10,839	-0,095	0,046
-615,546	-184,566	0,039	0,000
-614,532	-94,416	0,030	-0,006
-613,517	-200,000	-0,014	-0,107
-612,503	25,559	0,074	-0,046
-611,488	293,422	-0,019	0,026
-610,474	70,739	0,037	0,028
-609,459	-200,000	-0,002	0,126
-608,444	-148,271	-0,143	0,009
-607,430	233,619	-0,073	0,090
-606,415	-36,886	-0,061	0,024
-605,401	-91,108	0,067	0,014
-604,386	166,295	0,030	-0,031
-603,371	-143,367	0,051	-0,004
-602,357	-15,984	-0,052	0,024
-601,342	-200,000	0,006	0,050
-600,328	10,584	-0,109	0,061
-599,313	71,718	-0,113	0,087
-598,298	-200,000	0,020	-0,111
-597,284	332,611	0,035	0,050
-596,269	-11,243	0,014	0,007
-595,255	-8,543	-0,150	0,074
-594,240	-187,971	0,144	-0,001
-593,225	-96,916	-0,138	-0,027
-592,211	-67,094	0,050	-0,015
-591,196	-10,473	-0,154	0,075
-590,182	328,431	-0,049	-0,071
-589,167	-41,547	0,098	0,037
-588,152	-200,000	0,006	-0,074
-587,138	353,138	-0,096	-0,141
-586,123	-5,123	-0,133	-0,067
-585,109	-126,436	-0,033	-0,004
-584,094	-200,000	-0,007	-0,076
-583,079	-200,000	-0,009	0,087
-582,065	24,440	-0,031	-0,019
-581,050	800,000	0,016	-0,040
-580,036	-82,946	0,037	-0,009
-579,021	278,707	0,092	-0,121
-578,006	222,795	0,070	-0,084
-576,992	-53,615	-0,147	-0,050
-575,977	199,812	-0,069	0,078
-574,963	-200,000	0,027	-0,108
-573,948	82,057	-0,074	0,059
-572,934	800,000	0,070	-0,160
-571,919	-103,664	-0,121	-0,021
-570,904	-78,446	-0,083	-0,021
-569,890	800,000	-0,046	-0,104
-568,875	800,000	0,066	0,168
-567,861	-112,361	0,108	0,016
-566,846	24,061	-0,038	-0,023
-565,831	-200,000	-0,013	0,079
-564,817	-125,415	-0,107	-0,012
-563,802	-200,000	0,011	-0,055
-562,788	188,573	-0,061	-0,067
-561,773	-91,815	-0,047	-0,010
-560,758	-200,000	0,001	0,044
-559,744	800,000	0,007	0,021
-558,729	-177,534	-0,038	0,001
-557,715	142,796	-0,102	-0,100
-556,700	512,433	-0,039	-0,068
-555,685	-15,426	-0,014	-0,006
-554,671	130,212	0,038	-0,036
-553,656	609,658	0,016	-0,029
-552,642	-200,000	0,004	0,078
-551,627	19,428	-0,147	0,087
-550,612	-200,000	0,004	-0,061
-549,598	439,284	0,054	-0,087
-548,583	800,000	-0,004	-0,010
-547,569	-200,000	-0,017	-0,076
-546,554	-151,717	0,093	0,005
-545,539	-42,956	-0,068	-0,025
-544,525	-46,645	0,133	0,048
-543,510	-200,000	0,020	-0,074
-542,496	389,985	0,054	0,082
-541,481	137,541	-0,186	0,180
-540,466	-200,000	-0,018	0,104
-539,452	800,000	0,019	0,048
-538,437	-81,754	0,111	0,027
-537,423	319,390	-0,046	0,065
-536,408	800,000	-0,071	0,151
-535,393	-200,000	-0,013	-0,100
-534,379	89,404	-0,050	-0,042
-533,364	464,999	-0,058	0,096
-532,350	-200,000	0,048	0,214
-531,335	-45,882	0,086	0,031
-530,321	34,960	-0,114	-0,073
-529,306	800,000	-0,037	-0,104
-528,291	-31,409	-0,096	0,040
-527,277	-130,056	0,061	-0,006
-526,262	-33,233	0,137	0,056
-525,248	-200,000	0,009	0,049
-524,233	26,471	0,020	-0,013
-523,218	-200,000	0,004	0,051
-522,204	-200,000	0,009	0,074
-521,189	326,290	-0,061	-0,087
-520,175	-115,262	0,026	-0,004
-519,160	355,886	0,048	-0,071
-518,145	-200,000	0,005	-0,055
-517,131	7,069	-0,048	-0,026
-516,116	800,000	-0,008	-0,016
-515,102	800,000	-0,040	0,098
-514,087	-109,378	0,034	-0,005
-513,072	385,473	-0,061	-0,093
-512,058	104,449	0,076	-0,066
-511,043	180,869	0,083	-0,090
-510,029	20,901	0,077	0,046
-509,014	167,661	-0,022	0,023
-507,999	800,000	0,013	0,032
-506,985	147,392	0,060	-0,060
-505,970	-71,796	0,016	0,004
-504,956	-172,984	0,060	-0,001
-503,941	-153,865	-0,033	0,002
-502,926	-92,180	-0,068	0,014
-501,912	-200,000	0,000	0,026
-500,897	-113,361	0,084	0,012
-499,883	-126,367	-0,032	0,003
-498,868	185,558	-0,059	0,065
-497,853	-66,324	-0,092	0,027
-496,839	739,441	-0,052	0,103
-495,824	-61,377	0,051	-0,016
-494,810	643,029	-0,030	-0,057
-493,795	629,785	-0,069	0,129
-492,781	395,080	-0,103	0,160
-491,766	24,426	-0,084	-0,051
-490,751	79,069	-0,107	-0,084
-489,737	800,000	-0,028	0,060
-488,722	-200,000	0,022	0,115
-487,708	8,508	0,047	0,026
-486,693	122,623	0,010	0,009
-485,678	-200,000	0,010	0,061
-484,664	26,528	-0,027	-0,017
-483,649	-200,000	-0,014	-0,138
-482,635	-43,365	-0,126	-0,047
-481,620	-200,000	0,041	0,159
-480,605	419,396	0,048	0,076
-479,591	-200,000	-0,042	0,179
-478,576	-101,278	0,026	0,005
-477,562	-90,816	0,062	-0,013
-476,547	104,251	0,075	-0,065
-475,532	156,913	-0,074	-0,076
-474,518	122,120	0,058	0,054
-473,503	155,293	0,048	0,049
-472,489	-76,359	0,164	0,042
-471,474	-34,455	0,021	-0,009
-470,459	-152,727	-0,129	-0,007
-469,445	382,700	-0,039	-0,059
-468,430	-200,000	-0,007	-0,026
-467,416	-200,000	0,041	0,148
-466,401	800,000	0,044	0,131
-465,386	-200,000	0,021	-0,089
-464,372	-108,815	0,146	-0,023
-463,357	205,246	-0,079	0,091
-462,343	448,453	0,022	-0,035
-461,328	-72,178	-0,053	-0,014
-460,313	183,625	0,062	-0,067
-459,299	-25,264	-0,065	-0,028
-458,284	202,209	0,033	0,037
-457,270	49,612	-0,073	-0,051
-456,255	-5,733	-0,030	-0,015
-455,241	38,043	0,086	-0,056
-454,226	-14,081	-0,133	-0,063
-453,211	-108,252	-0,148	0,023
-452,197	304,461	-0,049	0,068
-451,182	-200,000	0,020	0,067
-450,168	168,781	-0,035	0,036
-449,153	800,000	0,013	0,028
-448,138	-200,000	0,020	-0,104
-447,124	-200,000	-0,009	-0,044
-446,109	800,000	0,018	0,039
-445,095	-141,974	0,145	-0,010
-444,080	249,697	0,135	-0,168
-443,065	-200,000	0,035	-0,134
-442,051	-4,332	0,074	-0,037
-441,036	279,014	0,045	-0,059
-440,022	362,251	-0,075	0,111
-439,007	95,542	-0,077	0,065
-437,992	228,164	0,070	0,084
-436,978	791,133	0,088	-0,178
-435,963	-14,897	0,146	0,069
-434,949	329,964	-0,071	-0,101
-433,934	-34,096	-0,068	0,027
-432,919	-200,000	-0,025	0,100
-431,905	300,214	0,035	0,047
-430,890	30,765	-0,008	-0,005
-429,876	-200,000	-0,001	0,132
-428,861	216,401	-0,036	0,042
-427,846	800,000	0,045	-0,109
-426,832	-54,811	0,045	0,015
-425,817	800,000	-0,045	-0,133
-424,803	-125,368	-0,027	0,003
-423,788	388,345	0,070	0,107
-422,773	800,000	-0,036	0,108
-421,759	-200,000	0,000	-0,092
-420,744	-63,731	0,070	-0,021
-419,730	800,000	-0,018	-0,046
-418,715	585,002	0,074	-0,134
-417,701	121,176	-0,065	0,059
-416,686	800,000	0,026	-0,064
-415,671	800,000	-0,029	-0,079
-414,657	-70,785	0,016	0,004
-413,642	-169,043	0,070	-0,002
-412,628	800,000	-0,038	0,078
-411,613	119,588	-0,091	-0,082
-410,598	-200,000	-0,036	-0,157
-409,584	-138,009	0,188	0,015
-408,569	-156,040	0,186	-0,009
-407,555	-200,000	0,014	0,065
-406,540	191,635	0,133	0,147
-405,525	-138,431	-0,056	-0,004
-404,511	-200,000	-0,010	0,033
-403,496	-88,260	0,071	-0,015
-402,482	-200,000	-0,014	-0,091
-401,467	-200,000	-0,018	0,065
-400,452	254,429	0,073	0,091
-399,438	-158,960	-0,073	0,003
-398,423	-124,660	-0,081	0,009
-397,409	-63,900	-0,072	0,022
-396,394	800,000	-0,069	-0,144
-395,379	24,120	-0,039	-0,024
-394,365	-69,579	0,096	0,027
-393,350	-46,964	0,079	-0,028
-392,336	-200,000	0,013	-0,050
-391,321	-200,000	0,002	-0,069
-390,306	53,424	0,020	-0,014
-389,292	-200,000	0,030	0,169
-388,277	377,149	0,008	0,012
-387,263	46,066	-0,049	-0,033
-386,248	-1,230	0,053	0,027
-385,233	41,581	0,074	0,049
-384,219	-83,780	-0,075	-0,017
-383,204	239,369	0,037	-0,046
-382,190	-200,000	-0,015	-0,081
-381,175	-114,644	-0,050	0,007
-380,160	392,590	0,124	0,189
-379,146	800,000	0,029	0,093
-378,131	392,341	0,043	-0,066
-377,117	-200,000	-0,005	-0,096
-376,102	99,620	-0,058	0,049
-375,088	-200,000	0,008	0,048
-374,073	54,221	-0,105	0,074
-373,058	-16,125	0,085	0,040
-372,044	442,317	0,027	-0,044
-371,029	507,619	-0,040	-0,068
-370,015	-200,000	-0,068	0,000
-369,000	658,129	0,051	0,096
-367,985	800,000	-0,028	-0,082
-366,971	190,133	0,164	-0,181
-365,956	764,030	0,047	0,095
-364,942	-173,764	0,078	-0,002
-363,927	105,856	0,112	-0,097
-362,912	9,954	0,138	0,077
-361,898	-200,000	0,029	-0,152
-360,883	-64,615	0,067	0,020
-359,869	500,687	0,034	-0,057
-358,854	205,503	-0,063	0,072
-357,839	-106,865	0,144	-0,023
-356,825	781,137	-0,073	0,148
-355,810	-200,000	0,003	-0,055
-354,796	800,000	-0,049	-0,114
-353,781	-183,023	0,066	-0,001
-352,766	-108,592	0,129	-0,020
-351,752	-111,794	-0,058	0,009
-350,737	152,631	0,075	0,075
-349,723	116,116	-0,050	-0,044
-348,708	-200,000	0,012	0,058
-347,693	264,153	0,070	0,090
-346,679	67,226	0,026	0,019
-345,664	-200,000	0,005	-0,022
-344,650	-54,795	-0,094	-0,031
-343,635	-200,000	-0,002	0,047
-342,620	133,162	0,139	-0,131
-341,606	91,851	-0,050	-0,041
-340,591	300,983	0,046	0,062
-339,577	24,205	0,082	0,049
-338,562	27,089	-0,069	-0,042
-337,548	246,595	0,136	-0,169
-336,533	-117,886	0,106	-0,014
-335,518	-181,842	-0,054	-0,001
-334,504	800,000	0,010	-0,028
-333,489	-158,261	-0,062	0,003
-332,475	-73,087	-0,139	0,037
-331,460	-39,504	0,134	0,051
-330,445	-19,590	-0,085	0,039
-329,431	61,507	0,048	0,035
-328,416	282,718	0,058	-0,076
-327,402	-200,000	-0,006	0,122
-326,387	-54,994	0,094	-0,031
-325,372	150,200	-0,005	0,005
-324,358	112,042	0,038	0,033
-323,343	-200,000	-0,026	0,124
-322,329	-96,802	0,089	0,017
-321,314	-200,000	-0,005	-0,042
-320,299	22,654	0,169	0,101
-319,285	-200,000	0,004	-0,074
-318,270	-165,869	0,104	0,003
-317,256	304,401	-0,042	-0,058
-316,241	800,000	-0,024	0,065
-315,226	-133,321	-0,023	-0,002
-314,212	-97,186	-0,123	0,023
-313,197	-0,764	-0,013	-0,007
-312,183	800,000	0,042	-0,118
-311,168	1,474	-0,039	-0,020
-310,153	409,563	-0,038	-0,060
-309,139	-200,000	0,037	-0,134
-308,124	800,000	0,011	0,034
-307,110	520,224	0,039	0,068
-306,095	-200,000	-0,017	0,089
-305,080	-200,000	0,020	-0,131
-304,066	3,790	0,109	0,058
-303,051	-35,153	-0,157	0,062
-302,037	401,931	0,067	0,103
-301,022	-146,486	0,029	-0,002
-300,008	-200,000	-0,009	-0,097
-298,993	-200,000	-0,028	0,164
-297,978	-200,000	-0,024	0,116
-296,964	-24,889	-0,027	-0,012
-295,949	-22,954	0,059	0,026
-294,935	509,619	-0,061	-0,105
-293,920	-200,000	0,011	0,104
-292,905	-41,534	0,046	0,017
-291,891	263,451	-0,071	0,091
-290,876	-2,182	0,090	-0,046
-289,862	291,825	0,054	0,072
-288,847	-200,000	-0,013	0,101
-287,832	-200,000	-0,006	0,117
-286,818	30,997	-0,119	0,075
-285,803	-157,235	0,110	-0,005
-284,789	-93,741	-0,107	0,021
-283,774	800,000	-0,019	0,055
-282,759	-61,183	0,059	0,018
-281,745	120,232	-0,096	0,087
-280,730	-48,160	-0,092	-0,032
-279,716	-200,000	-0,002	0,022
-278,701	-183,960	0,074	0,001
-277,686	647,162	0,037	0,069
-276,672	126,577	0,049	-0,046
-275,657	-200,000	-0,012	0,064
-274,643	-104,870	-0,156	-0,026
-273,628	254,810	-0,089	-0,111
-272,613	63,536	0,044	-0,032
-271,599	59,137	0,048	-0,034
-270,584	109,849	0,063	0,056
-269,570	-200,000	0,007	-0,061
-268,555	-84,659	0,033	-0,008
-267,540	-200,000	-0,008	-0,076
-266,526	159,234	0,029	0,029
-265,511	-14,003	0,070	-0,033
-264,497	161,458	-0,045	0,046
-263,482	-200,000	0,007	-0,056
-262,467	-65,663	0,096	0,028
-261,453	8,677	0,078	0,043
-260,438	800,000	-0,038	0,087
-259,424	-200,000	-0,004	0,099
-258,409	144,353	0,042	0,041
-257,395	-200,000	0,004	-0,110
-256,380	800,000	-0,057	0,147
-255,365	417,213	0,116	0,182
-254,351	-200,000	-0,007	-0,027
-253,336	71,047	-0,071	0,054
-252,322	-200,000	-0,002	-0,212
-251,307	110,094	-0,072	-0,063
-250,292	-200,000	-0,044	-0,197
-249,278	37,617	0,070	0,045
-248,263	-95,392	0,105	-0,020
-247,249	54,404	0,073	0,052
-246,234	-200,000	-0,007	0,185
-245,219	42,926	0,019	-0,013
-244,205	-104,638	-0,105	-0,018
-243,190	-82,951	0,037	0,009
-242,176	125,403	-0,039	-0,036
-241,161	386,462	0,050	-0,075
-240,146	759,870	0,061	-0,121
-239,132	655,220	-0,087	-0,164
-238,117	-200,000	-0,010	-0,133
-237,103	-80,616	-0,097	-0,023
-236,088	235,581	0,009	-0,011
-235,073	-63,909	0,028	0,008
-234,059	-200,000	0,010	0,102
-233,044	-200,000	0,004	0,049
-232,030	797,287	-0,050	0,102
-231,015	-68,224	0,069	-0,019
-230,000	38,534	-0,056	-0,037
-228,986	54,413	0,164	-0,115
-227,971	800,000	-0,039	0,093
-226,957	-200,000	-0,004	-0,025
-225,942	-200,000	0,003	-0,058
-224,927	-200,000	-0,011	0,057
-223,913	-200,000	0,009	-0,059
-222,898	-35,160	-0,109	-0,043
-221,884	800,000	-0,005	-0,015
-220,869	88,571	-0,099	0,080
-219,855	381,479	-0,037	0,056
-218,840	-51,273	0,086	0,029
-217,825	-200,000	0,001	-0,044
-216,811	646,755	-0,027	-0,051
-215,796	139,905	0,038	0,037
-214,782	132,958	-0,035	0,033
-213,767	117,936	0,127	0,114
-212,752	59,335	0,074	0,053
-211,738	-25,681	0,039	0,017
-210,723	-200,000	-0,002	-0,067
-209,709	-150,816	0,026	0,001
-208,694	168,562	-0,057	-0,059
-207,679	-71,928	-0,062	-0,017
-206,665	-37,572	-0,080	-0,031
-205,650	267,477	0,118	0,151
-204,636	452,511	0,057	0,092
-203,621	80,776	0,025	-0,019
-202,606	-111,903	-0,175	-0,026
-201,592	-200,000	-0,015	-0,080
-200,577	-200,000	0,014	-0,090
-199,563	-200,000	-0,033	-0,134
-198,548	245,312	0,088	-0,108
-197,533	105,332	0,058	0,050
-196,519	-144,484	-0,150	-0,010
-195,504	-76,887	0,075	0,019
-194,490	800,000	-0,019	-0,041
-193,475	407,302	-0,031	-0,048
-192,460	43,209	0,046	-0,031
-191,446	-200,000	-0,005	0,093
-190,431	-109,467	0,099	-0,015
-189,417	57,559	-0,045	-0,032
-188,402	177,223	0,015	0,016
-187,387	50,944	0,105	-0,073
-186,373	-28,247	-0,088	-0,037
-185,358	127,100	0,084	-0,078
-184,344	-200,000	0,006	-0,053
-183,329	231,288	0,023	0,027
-182,315	-200,000	0,002	0,062
-181,300	-68,255	0,067	-0,019
-180,285	88,294	-0,032	0,026
-179,271	80,634	-0,096	0,076
-178,256	-122,628	-0,042	0,005
-177,242	429,351	0,013	0,020
-176,227	-21,379	0,098	0,043
-175,212	172,272	-0,055	0,058
-174,198	-82,941	-0,063	-0,015
-173,183	-200,000	0,000	-0,048
-172,169	-111,620	-0,084	0,012
-171,154	287,351	-0,038	-0,051
-170,139	-200,000	-0,019	-0,108
-169,125	328,940	0,083	0,117
-168,110	58,485	-0,099	0,071
-167,096	340,876	-0,062	-0,088
-166,081	-200,000	0,003	0,048
-165,066	8,104	-0,110	0,060
-164,052	176,148	-0,050	0,053
-163,037	-102,804	-0,126	-0,022
-162,023	-200,000	-0,001	-0,045
-161,008	-64,492	0,073	-0,021
-159,993	-200,000	0,003	-0,142
-158,979	-200,000	0,008	-0,099
-157,964	-200,000	0,005	0,033
-156,950	-200,000	0,016	-0,189
-155,935	-12,670	-0,086	-0,041
-154,920	595,454	-0,053	0,096
-153,906	-3,529	0,041	0,020
-152,891	724,968	-0,031	0,060
-151,877	139,689	-0,073	-0,070
-150,862	-200,000	-0,024	-0,140
-149,847	752,756	-0,049	-0,096
-148,833	3,723	-0,016	0,009
-147,818	800,000	-0,024	-0,050
-146,804	-85,916	0,118	-0,026
-145,789	451,509	-0,019	-0,031
-144,775	127,549	0,089	-0,083
-143,760	-200,000	-0,020	-0,145
-142,745	100,777	-0,056	-0,048
-141,731	27,808	0,021	-0,013
-140,716	800,000	-0,029	-0,066
-139,702	187,132	0,025	0,027
-138,687	71,871	0,052	0,040
-137,672	44,930	-0,133	0,089
-136,658	-107,994	-0,015	-0,002
-135,643	177,698	-0,074	0,079
-134,629	181,828	0,084	0,090
-133,614	-200,000	-0,009	-0,065
-132,599	742,582	0,060	0,118
-131,585	-25,077	-0,114	0,049
-130,570	62,432	0,043	0,031
-129,556	-145,583	0,051	-0,003
-128,541	-16,432	-0,085	0,039
-127,526	55,301	0,013	0,009
-126,512	-50,993	-0,067	0,023
-125,497	53,860	0,049	-0,034
-124,483	-200,000	-0,002	0,035
-123,468	-67,832	-0,122	0,035
-122,453	220,119	-0,024	0,029
-121,439	-200,000	-0,004	-0,146
-120,424	-48,065	-0,043	-0,015
