DTS Sentinel unit serial number:	SN410029Multiplexer serial number:	ORYXHardware model number:	OX2-SRSoftware version number:	ORYX F/W v4,00 Oryx Data Collector v3.7.2.0data status	okinstallation	B4 Nyhavnadifferential loss correction	single-endedforward channel	channel 2reverse channel	N/Adate	2023/12/19time	02:55:13forward acquisition time	300,00reverse acquisition time	0,00gamma	499,1914k internal	0,3125k external	0,3125temperature offset calibration	1,0000default loss term (dB/km)	0,3820temperature slope calibration	1,0000multiplexer offset coefficient	1,0000multiplexer slope coefficient	1,0000fibre end	0,00T internal ref (°C)	21,21T ext. ref 1 (°C)	6,01T ext. ref 2 (°C)	5,99length (m)	temperature (°C)	Stokes	anti-Stokes-744,400	153,314	0,111	-0,113
-743,385	306,815	-0,094	0,130
-742,371	-200,000	0,008	-0,107
-741,356	41,935	-0,230	0,155
-740,342	390,361	-0,013	0,019
-739,327	320,728	-0,108	0,154
-738,312	-200,000	0,007	-0,064
-737,298	-113,178	-0,298	-0,043
-736,283	68,388	-0,073	-0,056
-735,269	281,054	-0,071	0,095
-734,254	-200,000	0,010	-0,047
-733,239	-88,890	-0,433	-0,095
-732,225	-23,482	0,145	-0,065
-731,210	-25,167	-0,082	-0,036
-730,196	-152,855	0,027	-0,001
-729,181	-159,364	0,089	-0,004
-728,167	-58,318	0,043	-0,014
-727,152	-200,000	0,015	0,068
-726,137	-155,190	-0,088	-0,004
-725,123	250,183	0,017	0,022
-724,108	356,337	0,075	0,112
-723,094	66,473	-0,066	0,050
-722,079	-49,064	-0,067	-0,024
-721,064	-200,000	0,002	0,008
-720,050	800,000	-0,007	0,016
-719,035	-151,399	0,136	-0,007
-718,021	284,003	-0,071	-0,095
-717,006	-47,198	-0,182	-0,066
-715,991	256,826	-0,026	0,034
-714,977	-57,024	-0,107	-0,035
-713,962	-93,043	-0,109	0,022
-712,948	-49,460	-0,127	0,045
-711,933	172,267	-0,064	0,068
-710,918	129,417	-0,079	-0,075
-709,904	-6,471	0,018	0,009
-708,889	101,915	-0,059	-0,051
-707,875	-200,000	-0,008	0,041
-706,860	-131,259	0,094	-0,009
-705,845	-200,000	0,018	-0,124
-704,831	106,842	-0,031	0,027
-703,816	800,000	-0,063	0,171
-702,802	133,803	-0,086	0,083
-701,787	800,000	-0,018	0,056
-700,772	-41,861	-0,004	0,001
-699,758	-124,516	-0,131	0,015
-698,743	-200,000	-0,005	0,054
-697,729	456,462	-0,019	-0,031
-696,714	-2,533	-0,131	0,068
-695,699	185,319	-0,037	-0,041
-694,685	-85,128	-0,053	-0,012
-693,670	-200,000	-0,010	-0,135
-692,656	43,144	-0,142	-0,096
-691,641	-200,000	-0,010	-0,055
-690,627	198,194	0,076	-0,086
-689,612	-79,245	0,050	-0,013
-688,597	800,000	-0,019	-0,043
-687,583	395,073	-0,037	-0,057
-686,568	60,657	-0,147	-0,108
-685,554	205,708	0,064	-0,074
-684,539	164,576	0,053	-0,056
-683,524	67,986	-0,146	-0,111
-682,510	-200,000	-0,036	0,174
-681,495	-9,221	0,068	-0,034
-680,481	475,462	-0,047	-0,078
-679,466	-179,231	0,038	-0,001
-678,451	177,092	0,037	-0,040
-677,437	-64,226	0,055	-0,016
-676,422	-109,452	0,072	-0,011
-675,408	100,816	-0,134	0,115
-674,393	800,000	0,044	0,108
-673,378	-200,000	0,016	0,052
-672,364	-200,000	-0,012	-0,104
-671,349	220,414	-0,101	0,121
-670,335	736,133	0,021	-0,042
-669,320	800,000	0,012	0,035
-668,305	164,741	0,102	0,107
-667,291	45,773	0,159	-0,109
-666,276	428,303	0,009	0,014
-665,262	-200,000	-0,034	-0,157
-664,247	20,807	0,038	0,023
-663,232	800,000	-0,018	0,045
-662,218	558,627	0,048	-0,087
-661,203	338,223	0,078	0,113
-660,189	-130,961	-0,126	-0,012
-659,174	-200,000	0,000	-0,080
-658,159	-70,806	-0,111	-0,031
-657,145	-200,000	-0,002	-0,011
-656,130	367,284	-0,054	0,081
-655,116	24,304	-0,057	-0,035
-654,101	380,324	0,078	0,119
-653,086	483,085	0,042	0,072
-652,072	-200,000	-0,001	0,108
-651,057	-81,638	-0,114	-0,028
-650,043	-9,162	-0,097	-0,048
-649,028	4,414	-0,061	0,033
-648,014	44,509	-0,120	-0,082
-646,999	-200,000	0,009	-0,129
-645,984	-70,205	0,061	0,017
-644,970	-59,665	-0,087	0,028
-643,955	11,239	0,055	-0,031
-642,941	-200,000	-0,047	-0,202
-641,926	-200,000	-0,020	-0,110
-640,911	38,726	-0,080	-0,053
-639,897	26,380	0,061	-0,038
-638,882	800,000	-0,018	-0,048
-637,868	-200,000	-0,027	0,205
-636,853	-200,000	-0,006	-0,040
-635,838	-110,688	-0,049	0,007
-634,824	359,979	0,032	0,048
-633,809	-82,571	0,132	0,031
-632,795	286,800	0,104	0,139
-631,780	-94,267	-0,024	-0,005
-630,765	800,000	0,020	-0,044
-629,751	-3,000	-0,099	-0,051
-628,736	19,997	-0,151	-0,090
-627,722	353,320	0,013	0,020
-626,707	-200,000	-0,013	0,098
-625,692	-87,495	0,026	-0,006
-624,678	55,483	-0,068	0,049
-623,663	162,116	0,065	0,068
-622,649	-200,000	0,020	-0,094
-621,634	-200,000	-0,007	-0,057
-620,619	800,000	-0,021	-0,055
-619,605	30,918	-0,051	0,032
-618,590	289,947	-0,012	-0,016
-617,576	-11,767	0,114	-0,055
-616,561	-166,438	0,047	0,001
-615,546	167,481	-0,035	-0,037
-614,532	-40,756	-0,015	-0,006
-613,517	310,916	-0,023	0,032
-612,503	26,026	-0,063	0,039
-611,488	11,196	0,029	-0,016
-610,474	-77,858	-0,060	0,015
-609,459	-200,000	-0,002	0,061
-608,444	254,241	-0,028	-0,035
-607,430	487,387	-0,015	-0,026
-606,415	-146,017	0,088	-0,006
-605,401	-200,000	0,039	-0,152
-604,386	3,107	0,073	-0,039
-603,371	151,593	-0,083	0,083
-602,357	291,237	0,073	-0,098
-601,342	94,343	-0,035	0,029
-600,328	50,395	-0,065	0,046
-599,313	453,783	0,036	-0,059
-598,298	800,000	-0,028	-0,070
-597,284	-63,211	0,051	-0,016
-596,269	261,109	-0,014	0,018
-595,255	-200,000	0,006	0,057
-594,240	-200,000	0,029	-0,159
-593,225	-200,000	-0,033	-0,147
-592,211	78,953	-0,065	-0,052
-591,196	-110,519	0,059	0,009
-590,182	283,833	-0,020	0,026
-589,167	-114,484	-0,026	-0,004
-588,152	-46,622	0,091	-0,033
-587,138	-162,630	-0,050	0,002
-586,123	-200,000	0,028	-0,100
-585,109	83,110	0,066	0,053
-584,094	119,050	-0,063	0,057
-583,079	49,444	0,078	0,054
-582,065	-200,000	0,018	0,130
-581,050	-118,218	0,106	0,014
-580,036	257,477	-0,043	0,055
-579,021	-200,000	0,007	0,128
-578,006	-200,000	0,003	0,034
-576,992	686,935	-0,047	-0,092
-575,977	174,318	0,099	-0,106
-574,963	-9,922	0,069	-0,034
-573,948	-90,947	0,131	-0,028
-572,934	-200,000	0,003	-0,071
-571,919	-94,519	-0,061	-0,012
-570,904	800,000	-0,047	-0,109
-569,890	488,127	-0,026	-0,043
-568,875	95,145	0,145	0,122
-567,861	-99,765	0,031	0,006
-566,846	800,000	0,071	0,189
-565,831	360,164	-0,016	-0,024
-564,817	-145,533	-0,052	0,003
-563,802	-200,000	0,003	-0,059
-562,788	-200,000	0,037	-0,165
-561,773	-200,000	0,025	0,094
-560,758	90,950	0,182	-0,151
-559,744	-69,350	0,101	-0,028
-558,729	-114,702	0,121	0,017
-557,715	655,915	0,020	-0,037
-556,700	-95,873	-0,094	-0,018
-555,685	-127,295	-0,112	-0,012
-554,671	44,811	-0,021	-0,014
-553,656	-1,987	0,122	-0,063
-552,642	-153,226	0,105	0,005
-551,627	-200,000	0,018	0,179
-550,612	44,218	-0,055	-0,037
-549,598	53,056	-0,030	0,021
-548,583	-200,000	-0,022	-0,101
-547,569	-47,422	-0,056	0,020
-546,554	800,000	0,033	0,099
-545,539	48,107	0,126	0,087
-544,525	213,987	0,014	0,016
-543,510	-7,485	0,043	0,022
-542,496	187,346	0,015	0,016
-541,481	-92,410	-0,012	-0,002
-540,466	-200,000	0,021	-0,070
-539,452	-155,862	-0,090	-0,004
-538,437	3,575	-0,055	0,030
-537,423	-200,000	0,021	-0,098
-536,408	13,942	0,070	-0,040
-535,393	88,817	-0,173	-0,142
-534,379	432,493	-0,042	-0,067
-533,364	585,681	0,106	-0,194
-532,350	-200,000	-0,002	-0,042
-531,335	800,000	0,095	-0,197
-530,321	1,943	0,167	-0,088
-529,306	-200,000	-0,041	-0,135
-528,291	-113,769	-0,249	0,035
-527,277	285,047	-0,051	0,069
-526,262	-200,000	0,014	0,055
-525,248	800,000	0,071	0,195
-524,233	-53,838	0,081	-0,027
-523,218	90,406	0,080	0,066
-522,204	800,000	-0,029	-0,071
-521,189	761,168	0,046	-0,092
-520,175	24,467	-0,220	-0,134
-519,160	-13,827	-0,075	-0,036
-518,145	62,777	0,149	-0,110
-517,131	-200,000	-0,020	-0,105
-516,116	531,597	0,044	-0,077
-515,102	221,921	-0,085	0,101
-514,087	37,416	-0,032	-0,021
-513,072	-130,653	0,094	-0,009
-512,058	-145,110	0,079	-0,005
-511,043	-200,000	-0,025	0,098
-510,029	800,000	-0,033	0,088
-509,014	-200,000	-0,002	-0,029
-507,999	-105,924	0,080	0,013
-506,985	-12,809	0,013	0,006
-505,970	-200,000	-0,018	0,062
-504,956	73,576	-0,050	-0,038
-503,941	295,223	0,079	-0,107
-502,926	800,000	0,016	-0,035
-501,912	-102,087	0,190	-0,033
-500,897	16,933	0,079	-0,046
-499,883	-200,000	-0,007	0,057
-498,868	-96,705	-0,119	-0,023
-497,853	-200,000	-0,060	-0,226
-496,839	-200,000	-0,024	0,083
-495,824	89,076	0,057	0,047
-494,810	122,102	-0,061	-0,056
-493,795	-52,237	0,193	0,066
-492,781	291,804	-0,061	-0,082
-491,766	-168,807	-0,025	0,001
-490,751	-87,282	-0,085	0,019
-489,737	184,714	0,037	0,040
-488,722	-200,000	-0,006	-0,075
-487,708	404,732	0,071	0,110
-486,693	800,000	-0,014	0,032
-485,678	-4,740	-0,110	-0,056
-484,664	114,909	-0,038	-0,034
-483,649	178,893	-0,068	-0,073
-482,635	797,661	-0,031	-0,062
-481,620	8,539	-0,045	0,025
-480,605	-157,543	0,091	-0,004
-479,591	-200,000	0,002	-0,123
-478,576	-200,000	0,000	-0,002
-477,562	-33,121	-0,210	-0,085
-476,547	-200,000	-0,008	-0,030
-475,532	800,000	0,020	-0,043
-474,518	-200,000	0,008	-0,211
-473,503	-80,531	0,164	0,040
-472,489	800,000	0,037	-0,082
-471,474	101,283	-0,061	-0,052
-470,459	-131,079	-0,102	-0,010
-469,445	-156,229	-0,034	0,002
-468,430	-176,654	0,098	-0,002
-467,416	-200,000	0,043	0,166
-466,401	-124,830	0,186	-0,021
-465,386	800,000	-0,005	0,015
-464,372	-19,945	0,092	0,042
-463,357	198,815	-0,080	0,090
-462,343	-200,000	-0,008	0,034
-461,328	-80,698	-0,033	-0,008
-460,313	25,076	-0,017	-0,010
-459,299	-200,000	0,023	0,093
-458,284	-200,000	-0,039	0,000
-457,270	-138,583	-0,088	-0,007
-456,255	-200,000	0,038	-0,145
-455,241	-200,000	-0,004	-0,019
-454,226	20,581	0,164	0,097
-453,211	50,911	-0,032	0,022
-452,197	-59,028	-0,134	0,042
-451,182	137,409	0,066	0,063
-450,168	-83,546	-0,068	0,016
-449,153	-142,806	-0,121	0,009
-448,138	-65,846	-0,107	0,031
-447,124	-200,000	-0,011	-0,052
-446,109	-200,000	0,021	0,115
-445,095	0,932	0,127	0,067
-444,080	773,085	0,033	-0,066
-443,065	800,000	0,045	0,128
-442,051	-55,006	0,090	0,030
-441,036	-200,000	0,017	-0,055
-440,022	800,000	0,034	-0,080
-439,007	528,424	-0,017	-0,029
-437,992	482,292	0,092	-0,154
-436,978	800,000	-0,049	-0,101
-435,963	800,000	0,019	0,051
-434,949	240,676	0,053	0,065
-433,934	-0,332	0,025	0,013
-432,919	-12,108	-0,089	-0,042
-431,905	386,412	0,040	-0,062
-430,890	359,158	0,077	0,114
-429,876	-200,000	0,016	0,116
-428,861	279,104	0,022	0,029
-427,846	-200,000	0,003	0,018
-426,832	79,804	-0,082	0,065
-425,817	307,819	-0,045	0,061
-424,803	209,188	-0,041	0,047
-423,788	-64,658	-0,067	0,020
-422,773	-131,492	0,251	0,024
-421,759	-200,000	-0,015	0,150
-420,744	-26,865	-0,031	0,013
-419,730	-200,000	-0,002	0,008
-418,715	84,199	-0,045	0,036
-417,701	-200,000	0,013	0,110
-416,686	800,000	0,054	-0,128
-415,671	-200,000	-0,027	0,126
-414,657	158,392	0,088	-0,089
-413,642	17,554	-0,054	-0,031
-412,628	-200,000	-0,028	-0,090
-411,613	135,548	-0,065	-0,062
-410,598	-58,190	-0,115	-0,037
-409,584	67,526	-0,082	0,061
-408,569	302,115	-0,012	0,017
-407,555	140,226	-0,091	0,089
-406,540	-61,271	-0,070	0,021
-405,525	299,940	0,093	-0,126
-404,511	-23,782	-0,096	0,042
-403,496	-200,000	0,023	-0,100
-402,482	800,000	0,022	-0,050
-401,467	-0,070	-0,110	-0,057
-400,452	-200,000	0,012	0,091
-399,438	107,714	0,127	0,111
-398,423	114,900	0,042	0,037
-397,409	800,000	0,058	-0,166
-396,394	385,334	-0,034	-0,052
-395,379	236,616	-0,122	-0,148
-394,365	126,494	0,140	0,130
-393,350	-36,757	-0,044	-0,017
-392,336	800,000	0,019	-0,041
-391,321	239,702	0,020	-0,024
-390,306	251,672	0,066	-0,082
-389,292	800,000	-0,053	0,113
-388,277	-122,471	-0,073	-0,009
-387,263	-25,148	0,104	0,045
-386,248	220,604	0,056	0,067
-385,233	-151,805	-0,040	-0,002
-384,219	324,252	0,054	0,076
-383,204	150,767	0,114	-0,114
-382,190	-58,664	-0,127	-0,040
-381,175	800,000	-0,058	0,144
-380,160	-200,000	-0,030	0,110
-379,146	489,562	-0,070	0,118
-378,131	131,841	0,138	0,131
-377,117	153,932	-0,071	0,071
-376,102	-200,000	-0,022	0,082
-375,088	-108,386	-0,076	-0,012
-374,073	-200,000	-0,005	0,092
-373,058	56,306	-0,119	0,085
-372,044	-16,338	0,118	0,055
-371,029	-35,432	-0,060	0,024
-370,015	91,541	0,075	0,062
-369,000	-200,000	-0,000	0,100
-367,985	-200,000	-0,019	0,086
-366,971	225,601	0,109	-0,130
-365,956	-50,238	-0,130	-0,045
-364,942	-174,163	0,099	0,002
-363,927	-200,000	0,010	0,140
-362,912	76,431	0,070	0,054
-361,898	-40,567	-0,039	-0,015
-360,883	201,011	0,071	0,080
-359,869	436,381	0,011	-0,018
-358,854	185,986	0,035	-0,038
-357,839	70,152	-0,024	-0,018
-356,825	222,411	-0,047	0,056
-355,810	-17,622	0,045	-0,021
-354,796	186,118	0,013	0,015
-353,781	20,431	-0,081	-0,048
-352,766	57,662	0,027	-0,019
-351,752	737,468	0,042	0,084
-350,737	98,967	0,120	0,102
-349,723	800,000	0,007	-0,021
-348,708	-200,000	0,018	0,072
-347,693	-146,219	-0,099	0,006
-346,679	-73,475	-0,100	0,027
-345,664	-200,000	0,012	0,056
-344,650	-200,000	0,018	0,078
-343,635	215,237	-0,049	-0,057
-342,620	-50,101	-0,077	-0,027
-341,606	-6,203	0,065	-0,033
-340,591	-166,598	-0,169	-0,005
-339,577	-154,770	-0,128	0,006
-338,562	800,000	-0,046	-0,124
-337,548	567,873	-0,016	-0,029
-336,533	-200,000	-0,008	-0,141
-335,518	410,549	0,060	0,094
-334,504	-147,581	0,064	0,004
-333,489	-200,000	-0,023	0,134
-332,475	-129,911	0,155	0,015
-331,460	-200,000	0,001	-0,043
-330,445	229,207	-0,044	0,052
-329,431	-200,000	0,023	0,088
-328,416	43,527	-0,069	-0,046
-327,402	497,191	0,038	-0,064
-326,387	179,902	-0,110	0,119
-325,372	40,537	-0,131	-0,086
-324,358	18,477	-0,039	0,023
-323,343	162,649	0,019	0,020
-322,329	800,000	-0,021	-0,066
-321,314	-200,000	-0,035	0,177
-320,299	137,893	0,052	-0,050
-319,285	433,335	-0,021	0,034
-318,270	800,000	0,016	-0,036
-317,256	-43,909	-0,131	-0,048
-316,241	800,000	0,010	-0,029
-315,226	65,572	-0,060	-0,044
-314,212	800,000	0,052	0,141
-313,197	800,000	0,005	0,011
-312,183	-200,000	-0,059	0,278
-311,168	111,390	0,101	-0,089
-310,153	39,466	-0,107	-0,070
-309,139	146,144	0,063	-0,062
-308,124	-200,000	-0,023	0,110
-307,110	-200,000	-0,045	0,163
-306,095	717,095	-0,035	0,069
-305,080	-200,000	0,004	-0,064
-304,066	800,000	-0,032	-0,079
-303,051	-145,244	-0,054	0,004
-302,037	-200,000	-0,008	-0,041
-301,022	800,000	-0,017	0,053
-300,008	-85,764	0,178	0,040
-298,993	-55,388	-0,080	-0,026
-297,978	-19,962	0,109	0,049
-296,964	-140,705	-0,079	-0,006
-295,949	-38,996	0,096	-0,037
-294,935	800,000	-0,051	0,106
-293,920	-1,344	0,242	-0,125
-292,905	376,207	-0,035	-0,052
-291,891	-112,107	0,106	0,015
-290,876	567,272	0,031	-0,055
-289,862	-36,677	-0,141	-0,055
-288,847	-32,971	-0,082	0,033
-287,832	-200,000	0,027	0,123
-286,818	168,881	0,076	-0,079
-285,803	-200,000	-0,022	0,077
-284,789	12,332	0,087	-0,049
-283,774	-36,031	-0,077	-0,030
-282,759	91,297	-0,028	-0,023
-281,745	-156,031	0,003	0,000
-280,730	800,000	-0,020	-0,061
-279,716	-14,932	-0,061	-0,028
-278,701	-200,000	0,024	-0,076
-277,686	166,168	0,051	0,053
-276,672	-200,000	-0,012	0,146
-275,657	40,555	-0,010	-0,006
-274,643	800,000	0,094	-0,277
-273,628	186,928	0,044	-0,048
-272,613	342,015	-0,061	-0,088
-271,599	800,000	-0,044	0,128
-270,584	800,000	-0,016	0,045
-269,570	-108,967	-0,027	0,004
-268,555	-60,714	0,014	-0,004
-267,540	800,000	-0,058	-0,121
-266,526	800,000	-0,042	-0,135
-265,511	19,936	0,091	0,053
-264,497	523,965	0,017	0,029
-263,482	-200,000	-0,011	0,060
-262,467	64,876	0,005	-0,004
-261,453	-200,000	0,019	-0,094
-260,438	-22,868	-0,062	-0,027
-259,424	-71,605	-0,105	-0,029
-258,409	165,545	-0,153	-0,158
-257,395	-55,712	0,047	0,015
-256,380	376,164	0,051	-0,076
-255,365	-200,000	0,013	0,088
-254,351	-19,840	-0,199	0,089
-253,336	-200,000	-0,011	0,074
-252,322	-25,682	-0,172	-0,074
-251,307	-147,840	0,085	0,005
-250,292	800,000	-0,040	-0,097
-249,278	379,760	0,087	-0,131
-248,263	55,739	-0,097	0,069
-247,249	800,000	-0,023	0,062
-246,234	-155,505	-0,020	0,001
-245,219	-116,469	-0,152	0,020
-244,205	-39,715	-0,135	-0,051
-243,190	79,009	0,048	0,037
-242,176	134,698	0,079	-0,075
-241,161	160,925	0,066	-0,067
-240,146	800,000	0,044	-0,129
-239,132	15,926	-0,071	-0,041
-238,117	794,052	-0,048	0,096
-237,103	337,796	-0,062	0,088
-236,088	11,252	0,084	0,047
-235,073	-200,000	-0,010	-0,079
-234,059	639,059	-0,050	0,093
-233,044	41,022	-0,132	0,087
-232,030	-200,000	0,001	0,025
-231,015	800,000	-0,069	-0,154
-230,000	391,810	0,082	0,124
-228,986	17,582	0,150	0,087
-227,971	110,574	-0,041	-0,036
-226,957	800,000	0,015	-0,033
-225,942	347,383	0,062	0,090
-224,927	218,518	-0,023	0,027
-223,913	800,000	-0,060	-0,146
-222,898	800,000	-0,057	-0,136
-221,884	-35,836	0,063	-0,025
-220,869	-141,585	-0,109	0,008
-219,855	800,000	-0,026	-0,074
-218,840	-24,340	0,054	-0,024
-217,825	123,603	-0,130	-0,119
-216,811	395,372	0,068	-0,104
-215,796	800,000	-0,059	-0,145
-214,782	-87,977	0,032	-0,007
-213,767	688,240	0,025	0,048
-212,752	198,020	0,063	0,071
-211,738	122,769	-0,154	0,141
-210,723	-191,224	0,115	-0,001
-209,709	327,724	0,049	0,068
-208,694	-3,353	0,040	-0,020
-207,679	76,454	-0,091	-0,070
-206,665	29,710	-0,037	0,023
-205,650	800,000	0,040	0,082
-204,636	208,424	0,074	-0,085
-203,621	-83,876	-0,017	-0,004
-202,606	34,253	0,133	0,085
-201,592	604,542	0,010	0,018
-200,577	99,643	-0,062	0,053
-199,563	800,000	-0,032	-0,070
-198,548	151,398	0,041	0,041
-197,533	-200,000	-0,013	0,153
-196,519	152,669	0,053	0,053
-195,504	112,494	0,047	0,041
-194,490	98,555	-0,082	-0,069
-193,475	800,000	-0,022	-0,067
-192,460	307,088	-0,070	0,095
-191,446	450,192	0,028	-0,045
-190,431	554,893	-0,049	0,086
-189,417	44,730	0,081	-0,054
-188,402	164,787	0,093	0,096
-187,387	145,364	-0,103	0,100
-186,373	-62,684	-0,083	-0,025
-185,358	693,170	0,014	0,026
-184,344	352,688	0,104	0,151
-183,329	-200,000	0,011	0,103
-182,315	800,000	0,006	-0,016
-181,300	111,645	0,085	0,075
-180,285	800,000	0,034	-0,076
-179,271	350,798	0,013	0,019
-178,256	371,843	-0,045	0,067
-177,242	165,593	0,059	0,061
-176,227	800,000	0,023	-0,054
-175,212	-52,265	0,030	0,010
-174,198	443,078	0,063	-0,102
-173,183	-119,000	-0,018	0,002
-172,169	-11,154	0,094	0,045
-171,154	-200,000	-0,006	0,033
-170,139	800,000	0,044	0,105
-169,125	96,600	0,009	0,007
-168,110	146,379	0,053	0,052
-167,096	104,373	0,102	0,087
-166,081	179,084	-0,024	0,026
-165,066	-200,000	0,009	-0,079
-164,052	242,830	-0,099	-0,121
-163,037	493,631	-0,021	-0,035
-162,023	66,868	0,012	0,009
-161,008	-123,531	0,103	-0,012
-159,993	156,945	-0,074	0,074
-158,979	-200,000	0,010	0,069
-157,964	11,278	-0,151	0,084
-156,950	800,000	-0,017	-0,043
-155,935	-98,470	-0,117	0,022
-154,920	31,496	0,122	0,076
-153,906	533,114	0,084	0,145
-152,891	-200,000	-0,021	0,148
-151,877	-200,000	-0,012	-0,039
-150,862	-200,000	0,044	-0,172
-149,847	-84,217	-0,094	0,021
-148,833	-144,465	-0,072	0,005
-147,818	-200,000	-0,002	0,039
-146,804	0,902	-0,177	-0,092
-145,789	23,211	0,092	0,055
-144,775	-132,355	-0,041	-0,004
-143,760	87,810	-0,087	0,070
-142,745	63,280	-0,152	-0,111
-141,731	-200,000	-0,015	-0,079
-140,716	-200,000	0,002	0,143
-139,702	114,598	0,065	-0,057
-138,687	123,958	-0,103	-0,094
-137,672	-67,289	-0,125	0,036
-136,658	-200,000	-0,110	0,000
-135,643	800,000	-0,069	-0,177
-134,629	351,352	-0,080	-0,116
-133,614	50,480	0,076	-0,052
-132,599	-200,000	-0,023	0,112
-131,585	788,311	0,014	0,027
-130,570	-56,610	-0,069	-0,022
-129,556	-200,000	0,028	0,097
-128,541	-27,313	-0,062	0,026
-127,526	44,564	-0,071	0,047
-126,512	2,536	0,094	0,049
-125,497	-58,419	0,096	-0,030
-124,483	126,294	0,036	0,033
-123,468	-83,259	0,200	0,046
-122,453	69,782	-0,092	-0,069
-121,439	-4,615	-0,040	0,020
-120,424	-0,051	0,072	0,037
-119,410	-30,994	0,043	0,017
