DTS Sentinel unit serial number:	SN410029Multiplexer serial number:	ORYXHardware model number:	OX2-SRSoftware version number:	ORYX F/W v4,00 Oryx Data Collector v3.7.2.0data status	okinstallation	B4 Nyhavnadifferential loss correction	single-endedforward channel	channel 2reverse channel	N/Adate	2023/12/16time	11:55:13forward acquisition time	300,00reverse acquisition time	0,00gamma	499,1914k internal	0,3125k external	0,3125temperature offset calibration	1,0000default loss term (dB/km)	0,3820temperature slope calibration	1,0000multiplexer offset coefficient	1,0000multiplexer slope coefficient	1,0000fibre end	0,00T internal ref (°C)	23,92T ext. ref 1 (°C)	9,71T ext. ref 2 (°C)	9,87length (m)	temperature (°C)	Stokes	anti-Stokes-744,400	800,000	-0,034	-0,092
-743,385	-49,184	-0,170	0,060
-742,371	41,641	-0,089	-0,060
-741,356	461,006	-0,101	0,167
-740,342	-151,427	0,019	0,001
-739,327	-144,666	-0,312	0,021
-738,312	-200,000	0,042	-0,146
-737,298	-34,475	-0,253	0,103
-736,283	-134,159	-0,046	0,004
-735,269	327,803	-0,073	0,104
-734,254	800,000	-0,037	-0,080
-733,239	-119,167	-0,412	0,053
-732,225	409,465	0,101	0,160
-731,210	-89,990	-0,029	0,006
-730,196	94,412	0,047	0,040
-729,181	-200,000	-0,018	-0,066
-728,167	-31,583	-0,071	-0,030
-727,152	800,000	-0,002	-0,006
-726,137	-126,788	-0,094	-0,010
-725,123	800,000	-0,044	0,101
-724,108	-76,974	-0,139	-0,036
-723,094	-200,000	0,011	-0,063
-722,079	-91,842	-0,141	-0,030
-721,064	-121,958	0,073	0,009
-720,050	-72,016	0,064	0,018
-719,035	-200,000	0,009	0,039
-718,021	345,096	0,127	-0,186
-717,006	-200,000	0,002	-0,077
-715,991	343,205	0,081	-0,118
-714,977	-94,638	-0,063	0,013
-713,962	-65,952	-0,069	0,020
-712,948	800,000	-0,041	-0,104
-711,933	-132,980	-0,089	0,008
-710,918	-24,119	-0,075	-0,033
-709,904	-200,000	-0,001	-0,041
-708,889	241,824	0,053	-0,066
-707,875	-126,580	-0,086	-0,009
-706,860	-200,000	0,013	-0,106
-705,845	78,304	-0,082	0,065
-704,831	455,587	0,048	0,079
-703,816	505,844	0,033	-0,058
-702,802	-200,000	0,016	0,053
-701,787	137,869	-0,087	0,085
-700,772	-200,000	-0,005	-0,089
-699,758	-67,578	-0,061	-0,018
-698,743	367,791	0,092	-0,138
-697,729	-200,000	0,019	0,128
-696,714	-200,000	-0,013	0,054
-695,699	-200,000	-0,013	-0,085
-694,685	251,132	0,103	-0,130
-693,670	444,743	0,021	-0,034
-692,656	153,311	0,032	0,032
-691,641	364,699	-0,043	-0,065
-690,627	-200,000	-0,024	-0,088
-689,612	115,157	-0,023	-0,021
-688,597	-136,201	-0,160	-0,014
-687,583	197,420	-0,059	-0,067
-686,568	800,000	-0,025	-0,062
-685,554	391,197	-0,068	-0,106
-684,539	-5,151	0,020	-0,010
-683,524	512,944	0,092	0,160
-682,510	21,554	-0,037	0,023
-681,495	286,562	-0,059	0,080
-680,481	7,673	-0,083	0,046
-679,466	-141,398	-0,132	0,010
-678,451	-94,630	-0,131	-0,026
-677,437	-27,393	-0,042	0,018
-676,422	789,718	-0,053	0,110
-675,408	-59,086	-0,087	0,028
-674,393	-43,295	-0,147	-0,055
-673,378	-122,918	-0,193	-0,023
-672,364	72,544	0,033	-0,025
-671,349	-6,042	-0,075	0,038
-670,335	527,807	0,059	0,103
-669,320	-133,961	-0,202	-0,018
-668,305	756,530	0,008	0,016
-667,291	72,792	0,210	0,163
-666,276	30,121	-0,040	-0,025
-665,262	752,609	-0,044	-0,088
-664,247	800,000	-0,020	-0,057
-663,232	554,322	-0,039	-0,069
-662,218	-200,000	0,002	0,079
-661,203	155,646	0,066	-0,068
-660,189	-72,614	-0,145	0,039
-659,174	-83,775	-0,095	0,022
-658,159	332,001	0,098	0,141
-657,145	-1,611	-0,082	0,043
-656,130	-200,000	0,054	0,000
-655,116	529,754	0,005	0,009
-654,101	-106,154	-0,144	-0,024
-653,086	-125,063	0,018	0,002
-652,072	341,444	-0,049	0,072
-651,057	-124,187	0,023	0,003
-650,043	594,416	-0,063	-0,116
-649,028	175,898	-0,033	0,035
-648,014	194,587	0,052	0,059
-646,999	97,419	-0,016	0,013
-645,984	800,000	-0,027	0,058
-644,970	-126,255	0,077	-0,008
-643,955	800,000	-0,033	0,074
-642,941	-200,000	0,003	0,130
-641,926	479,826	-0,076	0,129
-640,911	-200,000	-0,013	0,051
-639,897	-200,000	-0,004	0,080
-638,882	-29,891	-0,109	0,046
-637,868	-200,000	-0,006	-0,137
-636,853	445,318	-0,075	-0,123
-635,838	40,128	-0,140	0,093
-634,824	29,534	0,187	0,117
-633,809	800,000	0,044	0,134
-632,795	191,368	0,063	0,070
-631,780	-93,846	0,153	0,031
-630,765	234,643	-0,047	-0,057
-629,751	-200,000	-0,019	-0,087
-628,736	-200,000	-0,002	-0,022
-627,722	-27,215	-0,028	-0,012
-626,707	-200,000	-0,004	-0,047
-625,692	-200,000	0,012	-0,147
-624,678	-63,169	0,111	0,034
-623,663	66,169	-0,069	-0,052
-622,649	-200,000	0,008	-0,055
-621,634	-112,836	-0,078	0,011
-620,619	163,815	-0,053	0,055
-619,605	198,477	0,019	-0,021
-618,590	142,209	0,063	0,062
-617,576	624,566	0,053	0,100
-616,561	418,322	0,035	0,056
-615,546	-200,000	0,011	-0,126
-614,532	-200,000	0,016	0,074
-613,517	-72,461	-0,144	-0,039
-612,503	292,415	0,029	0,039
-611,488	-23,494	0,064	-0,028
-610,474	-12,406	0,050	-0,024
-609,459	36,824	-0,028	0,018
-608,444	703,264	0,042	-0,082
-607,430	151,117	-0,115	0,116
-606,415	-68,935	-0,108	-0,031
-605,401	800,000	-0,025	0,078
-604,386	69,935	0,098	0,075
-603,371	480,495	-0,064	0,109
-602,357	800,000	0,046	0,122
-601,342	-66,365	-0,099	0,029
-600,328	-11,148	-0,087	0,042
-599,313	-111,957	-0,049	-0,007
-598,298	182,712	0,062	-0,068
-597,284	-200,000	0,017	-0,058
-596,269	56,085	-0,039	-0,028
-595,255	187,200	0,078	0,086
-594,240	182,027	0,016	0,018
-593,225	-200,000	-0,021	-0,189
-592,211	800,000	-0,028	0,060
-591,196	52,747	-0,147	-0,104
-590,182	-200,000	0,033	-0,136
-589,167	800,000	-0,014	0,032
-588,152	363,339	-0,039	0,058
-587,138	-77,024	-0,045	-0,012
-586,123	23,756	-0,137	-0,083
-585,109	500,115	0,063	0,108
-584,094	575,544	-0,032	-0,058
-583,079	-200,000	-0,012	0,053
-582,065	-200,000	-0,027	0,112
-581,050	-127,468	-0,040	0,004
-580,036	209,057	0,062	0,072
-579,021	-158,856	-0,106	-0,004
-578,006	-129,483	-0,090	-0,009
-576,992	-85,891	-0,114	0,026
-575,977	-200,000	0,009	-0,102
-574,963	-200,000	-0,030	0,107
-573,948	-28,679	-0,044	-0,018
-572,934	-200,000	-0,042	-0,154
-571,919	379,409	-0,057	0,086
-570,904	-200,000	-0,022	-0,110
-569,890	-82,105	-0,078	0,019
-568,875	41,362	0,081	0,054
-567,861	20,405	0,045	-0,027
-566,846	302,245	0,009	0,012
-565,831	114,229	0,143	0,129
-564,817	-67,117	-0,048	0,014
-563,802	170,132	-0,044	-0,047
-562,788	800,000	-0,041	0,095
-561,773	19,117	0,075	-0,044
-560,758	-200,000	0,012	0,074
-559,744	183,933	0,016	-0,018
-558,729	-96,301	-0,046	-0,009
-557,715	160,891	-0,060	0,062
-556,700	99,774	0,028	-0,024
-555,685	800,000	0,048	-0,112
-554,671	396,611	-0,075	-0,116
-553,656	-200,000	-0,009	-0,030
-552,642	800,000	0,044	0,121
-551,627	709,817	-0,033	-0,064
-550,612	62,712	0,078	0,058
-549,598	681,520	-0,031	-0,060
-548,583	133,921	0,063	0,060
-547,569	37,195	-0,073	-0,048
-546,554	-51,501	-0,079	0,027
-545,539	-35,657	-0,069	0,028
-544,525	-200,000	0,005	-0,037
-543,510	800,000	-0,036	-0,112
-542,496	708,979	0,050	-0,098
-541,481	800,000	0,039	-0,108
-540,466	-200,000	-0,013	0,077
-539,452	35,787	0,023	0,015
-538,437	469,136	0,023	0,039
-537,423	-101,719	-0,087	0,016
-536,408	-200,000	0,001	-0,150
-535,393	238,615	-0,077	-0,094
-534,379	-200,000	0,011	0,120
-533,364	800,000	0,046	-0,113
-532,350	448,752	0,027	-0,044
-531,335	-103,507	0,060	-0,010
-530,321	-200,000	-0,024	-0,243
-529,306	-200,000	-0,010	-0,047
-528,291	-184,145	-0,057	0,001
-527,277	530,963	0,026	0,046
-526,262	-39,247	0,128	0,049
-525,248	407,169	0,023	-0,036
-524,233	-58,901	-0,076	-0,024
-523,218	-200,000	0,003	0,054
-522,204	-21,482	0,010	-0,005
-521,189	9,918	-0,158	0,088
-520,175	39,522	0,047	0,031
-519,160	222,599	-0,113	0,134
-518,145	0,834	0,045	-0,024
-517,131	-200,000	-0,010	0,108
-516,116	-200,000	-0,035	0,138
-515,102	621,449	0,089	0,165
-514,087	58,847	-0,048	-0,035
-513,072	618,822	-0,045	0,084
-512,058	800,000	0,041	0,105
-511,043	-200,000	-0,000	0,006
-510,029	-72,179	0,138	-0,038
-509,014	-37,746	-0,164	0,064
-507,999	601,790	0,033	-0,061
-506,985	-47,661	-0,093	0,033
-505,970	14,423	-0,063	-0,036
-504,956	800,000	0,035	-0,097
-503,941	79,538	0,047	0,037
-502,926	105,403	-0,064	-0,056
-501,912	187,913	0,121	0,134
-500,897	-68,050	0,141	0,040
-499,883	53,495	-0,092	-0,065
-498,868	-57,394	0,071	0,023
-497,853	113,722	-0,025	-0,023
-496,839	88,249	0,099	-0,081
-495,824	68,446	0,071	0,054
-494,810	-200,000	0,004	0,078
-493,795	25,745	0,090	-0,055
-492,781	209,463	-0,065	-0,075
-491,766	61,375	-0,051	-0,037
-490,751	-54,160	-0,043	-0,014
-489,737	115,849	-0,073	0,066
-488,722	-200,000	0,001	0,040
-487,708	40,687	0,012	0,008
-486,693	-200,000	0,000	-0,010
-485,678	533,489	-0,083	0,146
-484,664	-130,664	-0,117	-0,011
-483,649	282,078	-0,061	0,081
-482,635	800,000	0,017	-0,042
-481,620	-182,660	0,196	-0,003
-480,605	800,000	0,067	0,163
-479,591	168,632	0,110	0,115
-478,576	-11,565	0,093	0,045
-477,562	100,120	-0,062	-0,053
-476,547	759,833	-0,018	-0,037
-475,532	31,384	0,061	-0,038
-474,518	800,000	-0,059	-0,178
-473,503	511,740	0,071	0,123
-472,489	-5,201	0,102	-0,052
-471,474	127,483	0,061	-0,057
-470,459	690,760	-0,025	0,049
-469,445	93,389	-0,047	0,039
-468,430	-18,422	0,067	0,031
-467,416	93,314	0,128	-0,107
-466,401	-169,841	0,094	0,002
-465,386	-51,953	-0,114	-0,039
-464,372	47,481	0,041	-0,028
-463,357	384,218	0,047	-0,072
-462,343	-200,000	0,002	0,014
-461,328	263,826	-0,037	0,047
-460,313	-200,000	-0,020	0,112
-459,299	84,381	0,113	-0,091
-458,284	-135,031	0,058	-0,005
-457,270	-22,018	0,132	-0,059
-456,255	186,969	-0,023	-0,026
-455,241	800,000	-0,031	-0,098
-454,226	-98,255	0,106	-0,020
-453,211	-200,000	-0,014	0,075
-452,197	-71,871	0,232	-0,063
-451,182	-141,564	-0,038	-0,003
-450,168	-68,762	0,051	-0,014
-449,153	102,366	0,038	-0,033
-448,138	172,786	0,066	-0,070
-447,124	-165,556	0,092	-0,003
-446,109	-46,758	0,033	-0,012
-445,095	800,000	0,018	-0,046
-444,080	116,443	0,046	0,041
-443,065	-181,687	-0,037	-0,001
-442,051	619,765	-0,048	-0,089
-441,036	346,513	-0,088	-0,128
-440,022	91,994	0,078	-0,065
-439,007	-200,000	0,016	-0,118
-437,992	-142,008	-0,064	0,005
-436,978	-58,075	0,023	0,007
-435,963	14,836	-0,038	0,022
-434,949	-127,185	-0,072	-0,008
-433,934	318,449	-0,107	-0,150
-432,919	97,836	-0,042	-0,036
-431,905	96,802	0,025	-0,021
-430,890	800,000	-0,020	-0,045
-429,876	-200,000	0,020	0,172
-428,861	-200,000	-0,023	-0,134
-427,846	-36,472	0,087	-0,034
-426,832	800,000	-0,053	0,123
-425,817	-200,000	-0,010	0,169
-424,803	59,426	-0,058	0,042
-423,788	60,287	0,145	-0,106
-422,773	172,109	0,045	0,048
-421,759	-47,675	-0,033	-0,012
-420,744	800,000	-0,026	-0,054
-419,730	78,304	-0,044	-0,035
-418,715	316,624	0,102	-0,142
-417,701	-57,552	-0,037	0,012
-416,686	-35,212	0,089	-0,035
-415,671	-35,381	0,123	-0,049
-414,657	586,350	-0,045	0,081
-413,642	800,000	0,027	0,058
-412,628	-2,267	0,041	0,021
-411,613	95,941	-0,156	-0,131
-410,598	-143,853	-0,174	0,012
-409,584	496,199	0,093	0,157
-408,569	-168,065	-0,059	0,002
-407,555	193,375	0,042	-0,047
-406,540	-112,241	-0,096	-0,014
-405,525	70,021	-0,068	0,051
-404,511	800,000	0,023	-0,065
-403,496	158,367	-0,071	0,073
-402,482	710,257	-0,034	0,067
-401,467	213,004	-0,017	-0,020
-400,452	-200,000	0,002	-0,087
-399,438	-28,218	-0,053	-0,022
-398,423	-109,814	0,044	0,007
-397,409	-178,924	-0,098	0,002
-396,394	800,000	-0,028	-0,062
-395,379	714,420	0,032	-0,062
-394,365	800,000	-0,017	0,039
-393,350	800,000	0,024	-0,065
-392,336	-200,000	-0,014	0,050
-391,321	-200,000	-0,014	-0,051
-390,306	519,854	-0,046	-0,079
-389,292	721,575	-0,080	-0,156
-388,277	-200,000	0,031	-0,130
-387,263	476,910	0,014	0,023
-386,248	800,000	-0,033	0,093
-385,233	186,003	-0,090	0,098
-384,219	-152,114	0,104	0,005
-383,204	800,000	0,028	-0,081
-382,190	-13,941	-0,128	-0,060
-381,175	362,380	-0,026	-0,038
-380,160	597,753	-0,081	-0,147
-379,146	-200,000	-0,007	0,122
-378,131	10,490	-0,121	-0,067
-377,117	800,000	0,070	0,196
-376,102	349,018	0,036	-0,053
-375,088	-24,750	0,032	-0,014
-374,073	-200,000	-0,004	-0,108
-373,058	-58,304	0,089	-0,028
-372,044	-86,862	0,047	-0,010
-371,029	-25,474	0,087	0,038
-370,015	-200,000	-0,008	0,084
-369,000	-34,930	-0,139	-0,056
-367,985	267,901	0,047	0,060
-366,971	-200,000	0,030	0,126
-365,956	-100,671	0,058	0,010
-364,942	131,497	-0,043	0,040
-363,927	54,331	0,037	0,026
-362,912	-200,000	-0,001	-0,132
-361,898	280,323	0,015	-0,020
-360,883	800,000	-0,019	-0,061
-359,869	19,821	-0,086	-0,051
-358,854	-167,345	-0,091	-0,003
-357,839	-167,328	0,114	-0,003
-356,825	379,974	-0,040	0,060
-355,810	9,621	0,140	0,077
-354,796	136,957	0,047	-0,045
-353,781	-42,642	-0,063	-0,024
-352,766	-11,977	-0,127	-0,061
-351,752	-175,908	-0,089	-0,002
-350,737	2,990	0,149	0,079
-349,723	8,611	-0,041	0,023
-348,708	-143,778	-0,158	0,011
-347,693	800,000	0,035	-0,089
-346,679	142,247	0,130	-0,126
-345,664	-104,233	0,040	-0,007
-344,650	148,073	-0,089	0,088
-343,635	-79,530	0,027	-0,007
-342,620	117,969	0,022	0,020
-341,606	569,980	0,031	0,056
-340,591	800,000	0,037	0,078
-339,577	-86,602	-0,104	0,023
-338,562	-200,000	0,000	-0,176
-337,548	-82,954	0,035	-0,008
-336,533	333,795	-0,094	-0,134
-335,518	-7,447	0,092	0,046
-334,504	486,371	-0,043	0,072
-333,489	81,716	-0,017	0,014
-332,475	11,504	0,037	-0,021
-331,460	156,540	-0,014	-0,014
-330,445	-145,676	-0,099	-0,006
-329,431	47,549	0,083	-0,057
-328,416	-46,168	0,030	-0,011
-327,402	800,000	-0,106	0,258
-326,387	-58,824	-0,117	-0,037
-325,372	29,056	0,047	0,029
-324,358	431,004	-0,053	-0,084
-323,343	-123,061	-0,066	-0,008
-322,329	-158,267	0,071	0,003
-321,314	800,000	0,017	0,043
-320,299	132,131	-0,067	-0,063
-319,285	787,551	0,039	0,079
-318,270	800,000	-0,012	-0,038
-317,256	-200,000	0,028	-0,103
-316,241	665,855	0,049	0,094
-315,226	800,000	0,014	-0,045
-314,212	-5,523	0,091	0,045
-313,197	-174,601	-0,109	-0,002
-312,183	-1,534	0,167	0,086
-311,168	391,490	0,106	0,161
-310,153	-122,543	-0,084	0,010
-309,139	61,857	0,133	-0,097
-308,124	24,548	-0,059	0,036
-307,110	-200,000	0,014	0,073
-306,095	4,363	-0,130	-0,070
-305,080	-168,802	-0,033	0,001
-304,066	-61,746	-0,129	0,039
-303,051	133,154	-0,016	0,015
-302,037	800,000	-0,036	-0,091
-301,022	3,812	0,132	0,070
-300,008	37,189	0,104	0,068
-298,993	72,217	0,068	0,052
-297,978	-200,000	0,007	0,099
-296,964	150,065	-0,040	-0,039
-295,949	800,000	-0,037	-0,087
-294,935	3,797	0,080	0,043
-293,920	363,762	0,039	0,058
-292,905	56,106	-0,097	0,069
-291,891	50,034	-0,016	-0,011
-290,876	-8,857	0,102	0,050
-289,862	-200,000	0,005	-0,073
-288,847	-200,000	0,021	0,131
-287,832	-200,000	-0,026	-0,092
-286,818	316,025	-0,069	0,095
-285,803	46,944	-0,043	0,029
-284,789	5,406	0,022	-0,012
-283,774	121,115	-0,056	-0,051
-282,759	774,682	0,014	-0,029
-281,745	-200,000	0,013	0,083
-280,730	40,341	-0,068	-0,045
-279,716	800,000	0,060	-0,164
-278,701	-62,232	0,131	0,040
-277,686	72,256	-0,084	0,064
-276,672	-7,437	-0,045	0,022
-275,657	21,517	-0,025	0,015
-274,643	-76,775	-0,111	0,028
-273,628	-85,586	-0,071	-0,016
-272,613	-33,095	0,118	0,048
-271,599	800,000	-0,048	0,146
-270,584	163,720	0,095	0,098
-269,570	4,129	0,078	-0,042
-268,555	800,000	-0,037	-0,090
-267,540	-100,354	0,046	0,008
-266,526	-200,000	-0,002	-0,073
-265,511	-200,000	-0,011	0,036
-264,497	236,607	0,045	-0,055
-263,482	407,503	0,076	-0,118
-262,467	44,596	0,052	0,035
-261,453	280,293	-0,024	0,032
-260,438	504,812	0,083	-0,141
-259,424	-28,870	-0,043	0,018
-258,409	800,000	0,012	0,034
-257,395	-80,718	0,037	0,009
-256,380	155,706	0,134	0,135
-255,365	186,252	-0,037	-0,040
-254,351	133,979	-0,053	-0,051
-253,336	800,000	-0,044	-0,105
-252,322	-99,363	-0,126	-0,023
-251,307	2,737	-0,079	-0,042
-250,292	-165,165	0,139	-0,004
-249,278	800,000	0,030	-0,077
-248,263	-200,000	0,007	-0,032
-247,249	-200,000	-0,016	0,074
-246,234	-200,000	-0,005	-0,130
-245,219	77,184	-0,045	-0,035
-244,205	-200,000	0,006	0,058
-243,190	67,847	-0,061	-0,045
-242,176	-78,037	-0,111	-0,028
-241,161	189,804	0,073	0,080
-240,146	800,000	-0,034	0,075
-239,132	800,000	-0,008	0,024
-238,117	16,613	-0,056	0,032
-237,103	63,831	0,046	-0,033
-236,088	-4,610	0,036	0,018
-235,073	104,523	-0,110	0,094
-234,059	-125,053	-0,203	0,022
-233,044	-200,000	0,005	0,117
-232,030	800,000	-0,064	0,160
-231,015	-200,000	0,008	-0,052
-230,000	-200,000	-0,027	-0,117
-228,986	4,814	-0,053	-0,029
-227,971	451,085	0,043	-0,070
-226,957	-80,846	0,048	0,012
-225,942	62,517	0,068	-0,049
-224,927	800,000	-0,016	-0,045
-223,913	-77,989	-0,103	-0,026
-222,898	151,255	0,048	-0,048
-221,884	800,000	0,022	0,061
-220,869	-27,828	0,052	-0,022
-219,855	550,633	0,053	0,094
-218,840	221,687	-0,028	0,033
-217,825	761,017	-0,050	-0,099
-216,811	-114,513	-0,031	-0,004
-215,796	-200,000	-0,042	-0,181
-214,782	211,113	0,051	0,059
-213,767	267,893	-0,071	0,091
-212,752	238,637	0,075	0,091
-211,738	61,855	0,074	0,053
-210,723	-200,000	-0,021	-0,119
-209,709	-200,000	-0,036	-0,138
-208,694	208,456	-0,133	-0,152
-207,679	17,550	0,085	-0,049
-206,665	-200,000	0,023	0,101
-205,650	129,302	0,103	-0,096
-204,636	-80,429	-0,093	0,023
-203,621	-10,748	-0,052	-0,025
-202,606	32,008	-0,081	0,051
-201,592	15,762	-0,063	-0,036
-200,577	343,100	0,029	0,042
-199,563	-60,076	0,111	0,034
-198,548	-42,019	0,113	-0,042
-197,533	-37,430	0,069	-0,027
-196,519	-109,183	0,093	0,014
-195,504	800,000	-0,028	0,069
-194,490	-146,416	0,041	0,003
-193,475	-200,000	-0,011	-0,076
-192,460	146,317	0,128	-0,125
-191,446	-98,740	0,132	0,024
-190,431	114,917	0,052	0,046
-189,417	109,151	0,047	-0,041
-188,402	-200,000	0,057	0,000
-187,387	9,873	-0,063	-0,035
-186,373	461,849	0,040	-0,065
-185,358	-200,000	-0,047	-0,177
-184,344	-169,646	-0,093	-0,002
-183,329	-8,972	0,088	0,043
-182,315	-200,000	-0,023	0,084
-181,300	82,225	-0,041	-0,033
-180,285	-76,598	-0,058	-0,015
-179,271	-186,785	0,047	0,000
-178,256	-27,042	-0,150	0,064
-177,242	685,823	-0,059	0,114
-176,227	673,288	0,115	0,218
-175,212	78,724	0,080	0,062
-174,198	-51,850	0,124	-0,042
-173,183	-200,000	0,016	-0,065
-172,169	-200,000	-0,011	-0,047
-171,154	8,195	-0,094	0,052
-170,139	537,703	0,027	-0,048
-169,125	-35,134	-0,082	0,033
-168,110	-200,000	-0,015	0,189
-167,096	-200,000	-0,031	0,140
-166,081	800,000	-0,009	0,024
-165,066	-104,628	0,077	-0,013
-164,052	-113,865	-0,091	-0,013
-163,037	-200,000	-0,009	0,103
-162,023	154,962	0,080	-0,081
-161,008	11,787	0,110	-0,061
-159,993	-38,797	0,082	0,031
-158,979	-200,000	-0,014	0,089
-157,964	228,247	0,066	-0,078
-156,950	-182,839	-0,158	-0,002
-155,935	-104,674	0,211	-0,035
-154,920	-153,525	0,066	0,003
-153,906	-200,000	0,017	0,064
-152,891	-200,000	-0,003	-0,192
-151,877	3,738	-0,068	-0,036
-150,862	-200,000	0,020	0,091
-149,847	800,000	-0,025	0,061
-148,833	800,000	0,019	-0,050
-147,818	22,332	-0,056	-0,033
-146,804	-200,000	-0,008	0,201
-145,789	-30,732	0,151	0,062
-144,775	800,000	-0,019	-0,053
-143,760	111,903	-0,045	-0,040
-142,745	-200,000	-0,000	-0,069
-141,731	800,000	-0,048	-0,151
-140,716	800,000	-0,025	0,069
-139,702	8,346	0,031	-0,017
-138,687	620,667	0,059	-0,109
-137,672	-90,735	0,145	0,030
-136,658	342,468	0,050	0,072
-135,643	-88,659	-0,163	0,035
-134,629	106,002	0,102	0,088
-133,614	800,000	-0,038	0,118
-132,599	48,994	0,043	0,029
-131,585	800,000	0,083	0,231
-130,570	-5,446	0,138	0,069
-129,556	800,000	-0,058	0,120
-128,541	-35,371	0,090	0,035
-127,526	-80,821	0,095	-0,023
-126,512	209,075	0,062	0,071
-125,497	15,160	-0,081	0,046
-124,483	27,427	-0,101	0,062
-123,468	385,035	-0,053	-0,080
-122,453	88,111	-0,019	0,015
-121,439	-82,104	-0,025	-0,006
-120,424	800,000	0,039	-0,090
-119,410	-200,000	0,003	-0,026
-118,395	-108,614	-0,068	-0,010
