DTS Sentinel unit serial number:	SN410029Multiplexer serial number:	ORYXHardware model number:	OX2-SRSoftware version number:	ORYX F/W v4,00 Oryx Data Collector v3.7.2.0data status	okinstallation	B4 Nyhavnadifferential loss correction	single-endedforward channel	channel 2reverse channel	N/Adate	2023/12/19time	09:10:13forward acquisition time	300,00reverse acquisition time	0,00gamma	499,1914k internal	0,3127k external	0,3127temperature offset calibration	1,0000default loss term (dB/km)	0,3820temperature slope calibration	1,0000multiplexer offset coefficient	1,0000multiplexer slope coefficient	1,0000fibre end	0,00T internal ref (°C)	20,55T ext. ref 1 (°C)	5,42T ext. ref 2 (°C)	5,43length (m)	temperature (°C)	Stokes	anti-Stokes-744,400	-200,000	0,014	-0,160
-743,385	-47,809	-0,153	0,055
-742,371	523,892	-0,039	-0,069
-741,356	8,863	-0,230	0,129
-740,342	37,303	-0,024	0,016
-739,327	25,085	-0,173	0,107
-738,312	800,000	-0,036	0,088
-737,298	-102,032	-0,295	0,052
-736,283	30,229	0,107	-0,068
-735,269	800,000	-0,053	0,151
-734,254	-200,000	0,001	-0,016
-733,239	-112,954	-0,473	-0,069
-732,225	-12,767	0,074	0,036
-731,210	401,489	0,055	-0,087
-730,196	-200,000	-0,019	0,070
-729,181	167,395	-0,090	0,096
-728,167	-142,139	0,219	-0,016
-727,152	131,167	0,050	0,047
-726,137	466,087	-0,040	-0,067
-725,123	-91,656	-0,010	0,002
-724,108	47,747	-0,110	0,077
-723,094	-50,080	-0,013	-0,005
-722,079	800,000	-0,032	-0,087
-721,064	-58,820	0,105	-0,034
-720,050	-142,324	0,070	-0,005
-719,035	-49,157	-0,086	-0,030
-718,021	301,946	-0,059	-0,082
-717,006	-200,000	0,015	-0,082
-715,991	-200,000	0,000	0,105
-714,977	800,000	0,022	-0,061
-713,962	800,000	-0,037	-0,109
-712,948	117,605	0,076	-0,069
-711,933	-73,766	-0,141	-0,038
-710,918	109,195	0,087	0,078
-709,904	16,320	-0,018	-0,010
-708,889	-134,227	0,091	-0,008
-707,875	-41,769	0,178	0,068
-706,860	-154,192	-0,075	0,004
-705,845	-200,000	0,005	-0,022
-704,831	758,783	0,040	0,082
-703,816	-156,626	-0,108	0,005
-702,802	-66,356	-0,015	0,004
-701,787	-69,909	-0,214	0,060
-700,772	-22,040	-0,072	-0,032
-699,758	-43,548	-0,079	-0,029
-698,743	-67,695	0,136	-0,039
-697,729	-96,341	0,116	-0,023
-696,714	-200,000	0,004	-0,052
-695,699	208,972	-0,118	-0,138
-694,685	345,594	-0,006	-0,009
-693,670	100,811	0,026	0,023
-692,656	-146,851	-0,059	0,004
-691,641	-200,000	0,003	0,043
-690,627	353,508	0,007	-0,011
-689,612	147,505	-0,103	0,103
-688,597	95,103	-0,088	0,075
-687,583	800,000	-0,099	-0,205
-686,568	800,000	0,043	-0,097
-685,554	-200,000	-0,000	0,090
-684,539	490,894	-0,096	-0,163
-683,524	21,171	-0,167	0,101
-682,510	-200,000	0,006	0,105
-681,495	3,412	0,109	-0,059
-680,481	-39,478	-0,032	-0,012
-679,466	92,241	-0,058	0,049
-678,451	-200,000	-0,005	-0,032
-677,437	168,966	-0,025	0,027
-676,422	614,168	0,083	0,154
-675,408	800,000	-0,037	0,080
-674,393	-200,000	-0,008	0,056
-673,378	-157,445	-0,036	-0,002
-672,364	744,060	0,027	-0,053
-671,349	579,672	0,060	-0,110
-670,335	-200,000	-0,015	0,067
-669,320	-45,392	0,042	-0,015
-668,305	-49,666	-0,169	0,059
-667,291	-142,743	-0,056	0,004
-666,276	46,757	-0,152	-0,105
-665,262	-146,986	-0,140	0,009
-664,247	-200,000	0,008	-0,072
-663,232	276,983	0,085	0,112
-662,218	-200,000	-0,019	-0,073
-661,203	-200,000	0,012	0,046
-660,189	-200,000	0,006	0,081
-659,174	223,763	-0,062	0,075
-658,159	-27,838	-0,166	-0,071
-657,145	28,522	0,009	0,005
-656,130	360,318	-0,037	0,055
-655,116	248,822	-0,034	0,043
-654,101	340,553	-0,013	0,018
-653,086	800,000	-0,048	0,153
-652,072	-142,384	0,115	0,008
-651,057	220,271	-0,040	-0,047
-650,043	166,937	0,044	0,046
-649,028	448,901	0,050	0,082
-648,014	-200,000	-0,002	0,043
-646,999	-150,043	-0,091	-0,005
-645,984	-200,000	0,016	-0,081
-644,970	-200,000	0,006	-0,052
-643,955	634,631	0,014	-0,027
-642,941	109,745	-0,122	-0,108
-641,926	331,786	0,033	0,047
-640,911	8,359	0,106	0,059
-639,897	-88,999	-0,104	-0,023
-638,882	270,075	0,021	-0,027
-637,868	800,000	0,042	-0,095
-636,853	-43,731	-0,079	0,029
-635,838	800,000	0,037	-0,089
-634,824	-35,336	-0,132	0,053
-633,809	20,551	0,125	0,075
-632,795	-200,000	-0,008	-0,036
-631,780	800,000	-0,026	-0,060
-630,765	183,444	0,086	-0,094
-629,751	800,000	-0,054	-0,135
-628,736	-94,235	-0,164	-0,033
-627,722	-148,374	0,024	0,001
-626,707	91,234	0,052	-0,043
-625,692	307,469	-0,041	0,057
-624,678	-200,000	0,020	-0,075
-623,663	740,326	0,039	0,077
-622,649	-200,000	-0,026	-0,141
-621,634	-58,312	-0,159	0,051
-620,619	-200,000	-0,026	-0,109
-619,605	-29,813	0,045	-0,019
-618,590	-130,409	-0,139	-0,014
-617,576	60,596	-0,112	0,082
-616,561	-45,369	-0,068	-0,025
-615,546	-106,850	-0,174	0,028
-614,532	-166,259	-0,217	-0,007
-613,517	-200,000	0,006	-0,028
-612,503	-200,000	0,006	-0,084
-611,488	-200,000	0,008	-0,067
-610,474	-9,259	0,127	0,063
-609,459	-175,464	-0,085	0,002
-608,444	120,513	-0,034	-0,032
-607,430	-179,198	0,131	-0,002
-606,415	-200,000	0,005	-0,027
-605,401	-67,047	-0,139	0,040
-604,386	-135,948	0,106	0,009
-603,371	167,463	-0,085	0,089
-602,357	391,634	-0,068	-0,105
-601,342	101,610	0,018	-0,016
-600,328	748,967	0,024	-0,047
-599,313	58,685	-0,086	-0,063
-598,298	367,535	0,076	-0,114
-597,284	551,303	0,077	-0,137
-596,269	-200,000	0,018	0,103
-595,255	-67,295	-0,091	-0,026
-594,240	-84,641	-0,067	-0,016
-593,225	-32,705	0,041	-0,017
-592,211	-200,000	0,001	-0,065
-591,196	103,355	0,075	-0,065
-590,182	-200,000	0,034	0,139
-589,167	800,000	0,039	0,080
-588,152	-200,000	-0,009	-0,052
-587,138	-143,832	-0,114	0,008
-586,123	161,751	-0,009	0,009
-585,109	800,000	-0,028	-0,083
-584,094	-137,024	0,047	-0,004
-583,079	-100,874	0,045	-0,008
-582,065	-200,000	-0,012	-0,081
-581,050	-111,602	-0,072	0,011
-580,036	-200,000	0,038	-0,141
-579,021	478,894	-0,046	-0,078
-578,006	166,679	-0,086	-0,090
-576,992	127,802	0,068	0,064
-575,977	-200,000	-0,008	0,065
-574,963	-200,000	0,018	0,079
-573,948	196,192	-0,045	0,051
-572,934	-200,000	-0,004	0,047
-571,919	-58,606	-0,084	-0,027
-570,904	-200,000	-0,025	-0,160
-569,890	-200,000	-0,027	-0,105
-568,875	-200,000	0,006	-0,114
-567,861	-200,000	0,016	-0,192
-566,846	-74,062	0,070	0,019
-565,831	800,000	-0,032	-0,101
-564,817	-114,992	0,066	-0,009
-563,802	-61,317	-0,059	0,018
-562,788	-200,000	0,018	0,061
-561,773	286,340	0,027	0,037
-560,758	-72,707	-0,100	0,027
-559,744	-62,794	0,162	0,049
-558,729	117,288	0,043	-0,039
-557,715	-200,000	-0,008	-0,067
-556,700	-200,000	-0,015	-0,093
-555,685	-124,966	-0,063	0,007
-554,671	-77,886	0,123	0,031
-553,656	800,000	0,023	0,057
-552,642	-65,205	-0,098	-0,029
-551,627	-122,805	-0,034	-0,004
-550,612	-19,610	0,084	-0,038
-549,598	271,619	0,021	0,028
-548,583	126,996	-0,015	0,014
-547,569	-200,000	-0,026	0,087
-546,554	14,089	0,027	0,016
-545,539	800,000	0,049	0,107
-544,525	-200,000	0,005	-0,028
-543,510	-92,615	0,039	-0,008
-542,496	-91,798	-0,072	0,015
-541,481	335,813	-0,059	0,085
-540,466	229,186	-0,064	-0,077
-539,452	-135,016	-0,074	0,007
-538,437	65,962	0,010	0,008
-537,423	77,603	0,020	-0,016
-536,408	495,584	0,012	0,020
-535,393	-200,000	-0,002	-0,055
-534,379	800,000	-0,020	0,049
-533,364	-200,000	0,012	0,129
-532,350	800,000	0,056	0,160
-531,335	184,590	-0,027	0,030
-530,321	216,399	0,056	-0,066
-529,306	-113,318	-0,150	0,022
-528,291	-4,385	-0,050	0,025
-527,277	396,722	0,042	-0,064
-526,262	428,840	0,053	0,084
-525,248	-200,000	-0,001	-0,093
-524,233	-100,752	0,046	0,008
-523,218	-200,000	-0,001	0,151
-522,204	27,711	0,020	0,013
-521,189	-200,000	-0,024	0,093
-520,175	130,877	-0,079	0,074
-519,160	-200,000	0,013	0,115
-518,145	-88,900	0,078	-0,017
-517,131	9,116	-0,067	-0,037
-516,116	-49,503	-0,038	-0,013
-515,102	-200,000	0,028	-0,092
-514,087	-200,000	0,015	-0,106
-513,072	617,581	0,049	0,092
-512,058	230,067	-0,052	-0,063
-511,043	-200,000	0,032	-0,138
-510,029	-96,195	0,063	-0,012
-509,014	-57,441	-0,064	0,021
-507,999	31,131	0,058	0,037
-506,985	7,130	-0,038	-0,021
-505,970	735,914	-0,027	-0,054
-504,956	287,647	-0,079	-0,106
-503,941	800,000	-0,088	0,193
-502,926	-98,301	-0,065	0,012
-501,912	-200,000	0,017	0,101
-500,897	-126,025	-0,142	-0,016
-499,883	57,050	0,066	-0,048
-498,868	-16,677	-0,049	0,023
-497,853	-24,773	-0,097	0,042
-496,839	-200,000	0,024	-0,083
-495,824	184,563	-0,025	0,027
-494,810	-118,898	-0,096	0,012
-493,795	-161,713	-0,101	-0,004
-492,781	72,791	0,050	0,039
-491,766	800,000	-0,034	-0,102
-490,751	-17,029	0,141	-0,065
-489,737	-68,595	0,089	-0,025
-488,722	18,739	0,052	0,030
-487,708	-32,486	0,160	0,065
-486,693	201,793	0,054	0,061
-485,678	277,312	0,074	0,097
-484,664	-42,065	0,123	-0,046
-483,649	69,172	-0,128	-0,097
-482,635	-37,275	0,032	-0,013
-481,620	-200,000	-0,017	-0,090
-480,605	-200,000	0,001	0,079
-479,591	-156,781	0,144	0,006
-478,576	11,259	-0,146	0,082
-477,562	-60,080	-0,087	-0,027
-476,547	-200,000	-0,002	-0,024
-475,532	402,977	-0,044	0,068
-474,518	372,260	0,013	-0,019
-473,503	-200,000	-0,006	0,050
-472,489	-200,000	-0,000	0,027
-471,474	432,313	0,023	-0,037
-470,459	335,033	-0,089	0,128
-469,445	254,656	0,112	0,141
-468,430	800,000	0,054	0,173
-467,416	-200,000	-0,020	0,156
-466,401	333,120	-0,029	-0,042
-465,386	-79,874	0,105	0,026
-464,372	37,929	0,028	0,019
-463,357	-200,000	0,002	-0,049
-462,343	-21,174	0,090	-0,040
-461,328	-200,000	-0,024	-0,087
-460,313	-26,202	-0,049	0,021
-459,299	48,913	0,115	-0,080
-458,284	800,000	0,029	0,083
-457,270	780,552	-0,043	0,087
-456,255	-138,262	-0,044	-0,004
-455,241	217,501	0,016	-0,019
-454,226	-200,000	-0,047	-0,208
-453,211	221,525	-0,093	-0,110
-452,197	47,564	0,092	-0,063
-451,182	-60,637	0,100	-0,031
-450,168	23,358	0,033	-0,020
-449,153	209,274	-0,027	0,031
-448,138	-200,000	0,015	-0,120
-447,124	800,000	0,010	0,029
-446,109	800,000	-0,016	0,052
-445,095	-81,479	0,129	0,031
-444,080	73,140	0,026	-0,020
-443,065	-200,000	-0,014	-0,088
-442,051	159,543	0,072	0,074
-441,036	-90,304	0,032	0,007
-440,022	-64,497	0,049	0,015
-439,007	-94,819	-0,034	-0,007
-437,992	23,822	0,024	0,015
-436,978	-155,358	0,153	0,007
-435,963	800,000	-0,017	0,041
-434,949	20,281	-0,076	0,045
-433,934	-33,930	-0,066	0,027
-432,919	-200,000	-0,008	-0,123
-431,905	-200,000	-0,012	-0,153
-430,890	800,000	0,018	-0,050
-429,876	-200,000	0,008	-0,038
-428,861	-57,209	0,116	0,037
-427,846	79,452	-0,043	-0,034
-426,832	800,000	-0,039	-0,126
-425,817	174,984	-0,119	-0,127
-424,803	-119,803	0,125	-0,016
-423,788	608,157	-0,036	0,067
-422,773	474,627	-0,036	0,059
-421,759	-154,494	0,135	0,007
-420,744	-200,000	0,051	0,174
-419,730	800,000	0,016	-0,036
-418,715	-200,000	0,032	0,228
-417,701	-70,803	-0,124	0,034
-416,686	-200,000	-0,024	0,192
-415,671	-200,000	-0,016	0,072
-414,657	-81,012	0,085	0,020
-413,642	800,000	0,042	0,102
-412,628	-34,452	0,049	0,020
-411,613	-164,845	0,098	0,003
-410,598	-200,000	-0,001	-0,018
-409,584	18,711	0,094	0,055
-408,569	17,715	0,148	0,086
-407,555	20,985	-0,080	0,048
-406,540	800,000	0,013	0,029
-405,525	-84,638	-0,141	-0,032
-404,511	26,985	-0,093	-0,057
-403,496	242,040	0,088	-0,109
-402,482	2,958	0,085	0,045
-401,467	-21,677	0,076	0,034
-400,452	112,978	-0,100	-0,089
-399,438	551,964	-0,069	-0,122
-398,423	-200,000	0,001	0,061
-397,409	178,999	0,088	-0,094
-396,394	-30,865	-0,040	0,017
-395,379	555,851	0,058	-0,102
-394,365	83,892	0,077	-0,062
-393,350	800,000	0,050	0,146
-392,336	514,903	0,083	0,143
-391,321	65,910	-0,011	0,008
-390,306	-129,462	-0,053	0,005
-389,292	493,519	0,073	0,124
-388,277	-57,978	-0,108	0,034
-387,263	275,112	-0,087	0,114
-386,248	-200,000	-0,009	-0,060
-385,233	-22,577	-0,027	0,012
-384,219	-200,000	-0,020	0,072
-383,204	95,702	-0,067	-0,056
-382,190	800,000	0,054	-0,113
-381,175	-12,054	-0,064	-0,031
-380,160	332,754	0,045	-0,064
-379,146	-182,859	0,112	0,001
-378,131	-44,751	0,018	0,007
-377,117	-39,627	0,078	0,030
-376,102	-166,097	-0,101	0,003
-375,088	-71,229	-0,125	-0,034
-374,073	122,092	-0,019	-0,017
-373,058	-138,934	0,027	-0,002
-372,044	383,942	0,022	0,033
-371,029	800,000	0,039	0,121
-370,015	-200,000	-0,015	0,131
-369,000	-3,965	0,084	0,042
-367,985	717,411	0,051	0,099
-366,971	-200,000	-0,030	-0,157
-365,956	-200,000	0,007	-0,089
-364,942	-200,000	0,006	0,050
-363,927	-170,039	0,065	-0,002
-362,912	574,712	-0,061	0,109
-361,898	-103,027	-0,043	0,007
-360,883	-200,000	0,071	0,000
-359,869	800,000	0,024	0,072
-358,854	800,000	-0,021	0,048
-357,839	47,167	0,051	0,034
-356,825	-200,000	-0,003	-0,055
-355,810	374,144	-0,040	0,059
-354,796	-78,533	-0,283	-0,070
-353,781	800,000	0,062	-0,173
-352,766	-56,598	0,133	-0,043
-351,752	-141,234	-0,124	0,009
-350,737	800,000	0,017	0,043
-349,723	-200,000	-0,013	0,063
-348,708	-200,000	-0,011	0,100
-347,693	284,721	0,011	-0,015
-346,679	800,000	0,011	-0,027
-345,664	11,672	0,090	-0,050
-344,650	800,000	0,022	-0,046
-343,635	67,237	-0,008	0,006
-342,620	800,000	0,056	0,154
-341,606	89,327	-0,076	0,062
-340,591	-41,027	-0,070	0,026
-339,577	-200,000	0,001	0,035
-338,562	-183,098	0,105	0,001
-337,548	-200,000	-0,009	-0,041
-336,533	15,613	-0,066	-0,038
-335,518	-200,000	-0,019	-0,180
-334,504	-62,756	0,102	0,031
-333,489	-17,777	0,081	-0,037
-332,475	-200,000	0,039	-0,137
-331,460	-200,000	0,012	-0,124
-330,445	189,624	0,043	0,047
-329,431	97,601	-0,022	0,019
-328,416	-59,597	-0,062	-0,019
-327,402	64,507	0,050	0,037
-326,387	746,195	0,100	0,199
-325,372	11,741	0,062	0,034
-324,358	485,016	0,053	-0,088
-323,343	-88,593	0,090	-0,019
-322,329	-200,000	0,010	0,065
-321,314	-53,235	-0,132	0,044
-320,299	-200,000	0,006	0,079
-319,285	56,357	-0,008	-0,006
-318,270	275,311	-0,076	0,098
-317,256	311,112	-0,055	-0,075
-316,241	-36,099	-0,146	-0,058
-315,226	12,185	0,109	0,061
-314,212	-164,871	-0,056	-0,002
-313,197	-136,918	0,096	0,008
-312,183	800,000	-0,059	-0,160
-311,168	-200,000	0,011	-0,078
-310,153	-200,000	0,035	-0,138
-309,139	110,034	-0,043	-0,038
-308,124	-17,238	-0,018	0,008
-307,110	-200,000	0,063	-0,252
-306,095	55,340	0,070	0,050
-305,080	114,668	0,053	0,048
-304,066	-43,773	0,076	-0,028
-303,051	-36,864	-0,145	-0,057
-302,037	2,120	-0,145	-0,076
-301,022	-109,618	-0,113	-0,017
-300,008	-89,713	0,041	-0,009
-298,993	-113,248	0,052	-0,007
-297,978	1,032	-0,007	-0,004
-296,964	-10,090	-0,055	-0,027
-295,949	-190,535	-0,089	0,001
-294,935	79,037	-0,099	0,078
-293,920	-200,000	0,070	0,231
-292,905	-104,860	-0,043	0,007
-291,891	49,109	0,071	0,049
-290,876	-200,000	0,013	-0,102
-289,862	-97,226	-0,081	-0,015
-288,847	-51,709	-0,173	0,059
-287,832	10,883	-0,083	-0,046
-286,818	-112,433	0,034	0,005
-285,803	-64,972	0,140	-0,041
-284,789	800,000	0,038	-0,113
-283,774	8,464	0,059	0,032
-282,759	-27,245	-0,015	0,006
-281,745	405,250	-0,031	-0,048
-280,730	-200,000	-0,036	-0,184
-279,716	800,000	-0,008	-0,022
-278,701	-200,000	0,004	0,038
-277,686	388,392	-0,006	0,009
-276,672	800,000	-0,061	-0,136
-275,657	0,708	0,070	-0,036
-274,643	25,592	-0,057	-0,035
-273,628	283,743	0,076	0,100
-272,613	78,738	0,071	0,055
-271,599	-58,936	-0,131	-0,041
-270,584	-121,332	0,156	0,019
-269,570	7,713	0,110	0,060
-268,555	800,000	0,033	-0,081
-267,540	-200,000	0,044	-0,158
-266,526	665,761	0,038	-0,071
-265,511	-10,104	-0,114	0,055
-264,497	-200,000	0,008	-0,084
-263,482	242,552	0,040	-0,049
-262,467	-200,000	0,022	0,169
-261,453	109,581	0,122	0,106
-260,438	409,518	-0,082	0,128
-259,424	581,739	0,067	-0,120
-258,409	-10,023	-0,036	0,018
-257,395	800,000	0,029	-0,071
-256,380	36,274	0,017	-0,011
-255,365	20,397	-0,016	-0,009
-254,351	44,072	-0,093	0,062
-253,336	6,001	-0,062	0,034
-252,322	800,000	-0,047	-0,127
-251,307	-200,000	0,002	-0,063
-250,292	194,684	0,095	0,105
-249,278	-200,000	-0,002	-0,040
-248,263	228,381	-0,060	0,072
-247,249	800,000	-0,038	0,081
-246,234	307,682	0,091	0,125
-245,219	800,000	-0,084	-0,179
-244,205	-28,227	-0,031	0,013
-243,190	-7,784	0,192	0,094
-242,176	-200,000	0,000	-0,104
-241,161	277,370	0,062	0,081
-240,146	0,461	-0,065	0,034
-239,132	-200,000	0,001	0,029
-238,117	123,471	-0,029	0,026
-237,103	800,000	-0,107	-0,271
-236,088	706,566	0,058	-0,112
-235,073	482,976	-0,068	-0,113
-234,059	86,285	0,129	-0,104
-233,044	143,076	0,136	0,132
-232,030	800,000	-0,041	-0,131
-231,015	-103,863	-0,150	-0,025
-230,000	-0,887	-0,141	0,072
-228,986	-172,422	-0,089	-0,002
-227,971	-200,000	0,009	0,168
-226,957	106,902	0,062	0,053
-225,942	284,677	-0,071	-0,094
-224,927	-119,552	-0,098	0,012
-223,913	-200,000	0,000	0,005
-222,898	-200,000	-0,003	0,019
-221,884	800,000	0,047	0,129
-220,869	800,000	-0,038	-0,080
-219,855	665,527	0,046	0,088
-218,840	800,000	-0,027	0,079
-217,825	-180,008	-0,018	-0,000
-216,811	149,861	-0,040	0,039
-215,796	-200,000	-0,001	0,090
-214,782	234,798	-0,056	0,068
-213,767	-118,953	-0,045	-0,006
-212,752	17,460	-0,010	0,006
-211,738	-92,241	-0,091	-0,019
-210,723	-26,498	0,122	-0,052
-209,709	800,000	-0,027	0,071
-208,694	800,000	0,039	-0,089
-207,679	-200,000	0,002	-0,067
-206,665	-85,801	0,090	0,020
-205,650	-200,000	0,002	-0,009
-204,636	-200,000	0,017	0,117
-203,621	-130,326	0,075	-0,007
-202,606	-200,000	0,009	-0,101
-201,592	429,987	-0,085	0,135
-200,577	-200,000	-0,011	-0,097
-199,563	11,645	-0,036	-0,020
-198,548	-200,000	0,039	0,130
-197,533	-114,077	-0,022	-0,003
-196,519	358,856	0,042	0,061
-195,504	443,156	-0,123	0,197
-194,490	191,284	-0,079	-0,086
-193,475	114,830	-0,120	-0,106
-192,460	-149,282	0,118	0,007
-191,446	538,903	-0,055	0,095
-190,431	127,433	-0,029	0,027
-189,417	39,786	-0,065	0,042
-188,402	-149,151	0,048	0,003
-187,387	800,000	-0,022	-0,061
-186,373	-200,000	0,014	-0,109
-185,358	-200,000	-0,016	-0,081
-184,344	-57,820	0,087	-0,028
-183,329	645,488	0,052	-0,098
-182,315	-200,000	-0,001	0,061
-181,300	25,427	-0,092	0,055
-180,285	9,434	-0,033	0,018
-179,271	800,000	0,057	0,122
-178,256	7,257	0,200	0,109
-177,242	-36,868	-0,028	0,011
-176,227	-200,000	0,033	0,190
-175,212	-177,340	0,071	0,001
-174,198	186,304	0,038	0,041
-173,183	-44,704	-0,070	0,025
-172,169	800,000	0,035	0,112
-171,154	-200,000	0,036	0,164
-170,139	32,711	0,043	0,027
-169,125	1,084	-0,015	-0,008
-168,110	729,959	0,058	-0,113
-167,096	79,566	0,062	-0,049
-166,081	-200,000	-0,040	0,145
-165,066	800,000	0,005	0,015
-164,052	-8,022	0,074	0,036
-163,037	248,159	0,072	-0,089
-162,023	452,049	0,077	0,125
-161,008	21,628	0,097	-0,057
-159,993	-200,000	0,030	0,171
-158,979	-111,718	-0,037	-0,005
-157,964	61,969	-0,057	-0,041
-156,950	14,702	0,147	-0,084
-155,935	106,496	-0,071	0,062
-154,920	-52,876	-0,094	-0,031
-153,906	-200,000	-0,011	0,038
-152,891	230,483	0,036	-0,043
-151,877	-200,000	-0,012	-0,064
-150,862	61,997	-0,043	0,031
-149,847	-79,932	-0,072	0,017
-148,833	168,493	0,089	0,093
-147,818	-84,663	0,035	-0,008
-146,804	-200,000	-0,000	0,056
-145,789	100,108	0,023	-0,020
-144,775	-86,284	-0,087	0,019
-143,760	251,456	-0,021	0,026
-142,745	-200,000	0,096	0,000
-141,731	-200,000	-0,009	0,031
-140,716	22,826	-0,061	-0,036
-139,702	800,000	0,004	0,009
-138,687	-200,000	-0,033	0,182
-137,672	178,415	0,013	0,014
-136,658	-55,609	0,034	0,011
-135,643	800,000	0,042	0,105
-134,629	226,766	0,047	0,055
-133,614	-94,678	0,092	0,018
-132,599	71,419	-0,043	0,033
-131,585	147,673	0,016	-0,016
-130,570	404,619	0,035	0,053
-129,556	-200,000	0,041	0,137
-128,541	-94,416	-0,017	-0,003
-127,526	439,003	0,020	-0,031
-126,512	800,000	0,019	0,057
-125,497	213,953	-0,013	0,015
-124,483	-31,792	0,107	-0,044
-123,468	-200,000	0,020	0,138
-122,453	-149,057	-0,005	0,000
-121,439	800,000	0,027	-0,078
-120,424	-164,584	-0,029	0,001
-119,410	-11,627	0,069	-0,033
-118,395	417,149	0,018	-0,029
