DTS Sentinel unit serial number:	SN410029Multiplexer serial number:	ORYXHardware model number:	OX2-SRSoftware version number:	ORYX F/W v4,00 Oryx Data Collector v3.7.2.0data status	okinstallation	B4 Nyhavnadifferential loss correction	single-endedforward channel	channel 2reverse channel	N/Adate	2023/12/15time	14:05:13forward acquisition time	300,00reverse acquisition time	0,00gamma	499,1914k internal	0,3161k external	0,3161temperature offset calibration	1,0000default loss term (dB/km)	0,3820temperature slope calibration	1,0000multiplexer offset coefficient	1,0000multiplexer slope coefficient	1,0000fibre end	0,00T internal ref (°C)	14,36T ext. ref 1 (°C)	1,16T ext. ref 2 (°C)	1,26length (m)	temperature (°C)	Stokes	anti-Stokes-744,400	800,000	0,011	0,032
-743,385	-100,661	-0,207	-0,037
-742,371	-81,655	0,170	0,041
-741,356	-95,662	-0,295	-0,058
-740,342	632,003	0,132	0,246
-739,327	-76,523	-0,362	-0,093
-738,312	369,823	0,040	-0,059
-737,298	-7,742	-0,262	0,130
-736,283	20,142	0,155	0,092
-735,269	-54,303	-0,246	0,082
-734,254	-61,862	0,171	0,052
-733,239	3,845	-0,367	-0,197
-732,225	188,212	0,209	0,230
-731,210	-200,000	-0,021	0,097
-730,196	-38,121	0,086	0,033
-729,181	800,000	-0,046	0,146
-728,167	-100,181	-0,106	0,019
-727,152	800,000	0,052	-0,112
-726,137	-96,644	-0,051	-0,010
-725,123	-200,000	-0,006	-0,036
-724,108	245,924	-0,093	-0,116
-723,094	-200,000	-0,002	0,036
-722,079	-41,563	-0,073	-0,027
-721,064	74,386	0,105	-0,081
-720,050	-200,000	0,024	0,103
-719,035	800,000	-0,020	-0,057
-718,021	75,691	0,066	0,051
-717,006	-200,000	-0,009	-0,145
-715,991	90,607	-0,117	-0,096
-714,977	107,677	0,190	-0,167
-713,962	47,892	0,137	0,094
-712,948	-140,797	0,081	-0,006
-711,933	158,525	-0,111	-0,113
-710,918	800,000	0,031	0,082
-709,904	800,000	-0,010	0,026
-708,889	-158,894	-0,044	-0,002
-707,875	-16,855	0,097	-0,045
-706,860	165,456	0,120	-0,125
-705,845	611,069	-0,052	0,097
-704,831	21,320	-0,211	0,126
-703,816	658,834	-0,029	-0,055
-702,802	-64,786	-0,106	0,031
-701,787	85,494	-0,197	-0,159
-700,772	800,000	-0,029	-0,075
-699,758	-137,099	-0,089	0,007
-698,743	-103,515	0,035	0,006
-697,729	69,581	0,095	-0,072
-696,714	-200,000	-0,013	0,080
-695,699	340,237	0,054	-0,077
-694,685	64,758	-0,079	-0,058
-693,670	91,247	-0,066	-0,055
-692,656	33,994	-0,143	-0,092
-691,641	-31,231	0,019	0,008
-690,627	-100,891	0,040	-0,007
-689,612	104,470	0,038	0,033
-688,597	143,534	-0,105	-0,103
-687,583	75,169	-0,082	-0,063
-686,568	-79,496	0,040	-0,010
-685,554	-17,451	0,042	0,019
-684,539	195,599	-0,018	-0,020
-683,524	800,000	0,012	-0,035
-682,510	-101,487	-0,044	0,008
-681,495	800,000	-0,034	-0,093
-680,481	532,349	-0,092	-0,160
-679,466	453,689	-0,075	-0,122
-678,451	53,031	0,014	-0,010
-677,437	-119,575	-0,044	0,006
-676,422	1,134	0,009	0,005
-675,408	800,000	0,013	-0,030
-674,393	-118,383	0,081	-0,010
-673,378	-161,665	-0,131	0,005
-672,364	800,000	-0,061	-0,127
-671,349	108,610	0,089	-0,078
-670,335	730,965	0,051	-0,100
-669,320	-200,000	0,012	0,045
-668,305	336,238	-0,059	0,084
-667,291	-127,644	-0,202	0,021
-666,276	-141,992	-0,076	-0,005
-665,262	-44,307	0,117	-0,043
-664,247	-200,000	0,002	-0,129
-663,232	169,911	0,082	-0,086
-662,218	297,044	0,043	0,058
-661,203	42,321	-0,106	-0,071
-660,189	-128,373	-0,066	-0,007
-659,174	-200,000	-0,017	-0,059
-658,159	93,767	0,125	0,104
-657,145	-200,000	-0,000	0,041
-656,130	685,229	0,007	0,013
-655,116	530,013	0,054	0,095
-654,101	-154,428	0,165	0,008
-653,086	-10,869	-0,055	-0,026
-652,072	-33,538	-0,058	0,023
-651,057	345,742	-0,086	-0,124
-650,043	-121,880	-0,137	-0,016
-649,028	-200,000	0,042	-0,183
-648,014	800,000	0,023	-0,074
-646,999	-200,000	0,007	0,123
-645,984	629,670	0,031	0,057
-644,970	71,009	0,068	-0,051
-643,955	363,494	-0,019	-0,028
-642,941	-91,010	-0,125	-0,026
-641,926	-110,327	-0,052	0,008
-640,911	35,697	-0,080	-0,051
-639,897	-1,722	0,087	-0,045
-638,882	72,060	-0,096	0,073
-637,868	29,714	-0,037	-0,023
-636,853	800,000	0,030	-0,064
-635,838	-200,000	0,013	-0,154
-634,824	-19,243	0,024	-0,011
-633,809	-58,966	0,118	0,037
-632,795	-200,000	-0,010	0,116
-631,780	-38,980	0,070	0,027
-630,765	474,359	0,019	0,031
-629,751	286,321	-0,019	-0,026
-628,736	-7,758	-0,101	-0,050
-627,722	82,005	-0,081	-0,064
-626,707	42,188	0,082	0,054
-625,692	-200,000	-0,017	0,061
-624,678	-126,199	-0,082	-0,009
-623,663	-200,000	0,043	0,164
-622,649	331,234	-0,048	-0,068
-621,634	277,085	-0,025	-0,033
-620,619	-119,913	-0,020	0,002
-619,605	-32,651	0,109	0,044
-618,590	-75,325	-0,026	0,007
-617,576	24,472	-0,055	0,033
-616,561	800,000	0,010	-0,027
-615,546	46,960	-0,167	-0,114
-614,532	-123,409	-0,103	0,012
-613,517	-158,103	0,064	-0,003
-612,503	-130,798	-0,177	0,017
-611,488	-200,000	-0,001	0,043
-610,474	-40,306	0,096	0,036
-609,459	542,157	-0,057	-0,100
-608,444	100,865	-0,121	-0,103
-607,430	-74,823	-0,096	0,025
-606,415	-171,143	0,109	-0,003
-605,401	129,145	-0,012	0,011
-604,386	78,982	0,035	-0,028
-603,371	-200,000	-0,001	0,047
-602,357	-101,460	-0,008	0,001
-601,342	297,413	-0,054	-0,073
-600,328	-200,000	0,046	-0,169
-599,313	-200,000	-0,006	-0,095
-598,298	557,123	-0,061	-0,108
-597,284	121,332	0,044	0,040
-596,269	55,406	-0,193	0,137
-595,255	800,000	-0,027	0,081
-594,240	740,527	-0,110	-0,217
-593,225	-200,000	0,026	-0,101
-592,211	40,724	-0,008	-0,005
-591,196	268,562	-0,043	0,055
-590,182	800,000	-0,072	-0,196
-589,167	-200,000	0,026	-0,122
-588,152	221,157	-0,094	0,111
-587,138	-197,675	0,097	-0,000
-586,123	74,782	-0,069	-0,053
-585,109	-51,138	0,075	0,026
-584,094	124,546	-0,136	0,125
-583,079	230,843	0,093	0,112
-582,065	145,108	0,035	-0,034
-581,050	706,887	0,057	-0,111
-580,036	307,911	0,074	-0,101
-579,021	181,923	-0,068	0,074
-578,006	-200,000	-0,018	0,086
-576,992	-200,000	0,009	-0,055
-575,977	663,333	0,050	0,095
-574,963	-200,000	-0,012	0,092
-573,948	-68,463	0,177	-0,050
-572,934	449,546	-0,072	0,117
-571,919	-147,624	-0,058	-0,004
-570,904	161,554	-0,057	0,059
-569,890	-3,870	0,146	0,074
-568,875	33,720	0,164	0,104
-567,861	-48,014	0,101	-0,035
-566,846	59,303	0,142	0,102
-565,831	256,480	-0,044	-0,056
-564,817	294,182	-0,030	-0,041
-563,802	31,683	-0,049	-0,031
-562,788	311,804	0,049	0,068
-561,773	2,160	-0,020	-0,011
-560,758	-200,000	0,035	0,147
-559,744	93,849	0,092	0,076
-558,729	368,847	-0,050	0,074
-557,715	-44,738	-0,087	-0,031
-556,700	800,000	-0,021	-0,047
-555,685	-200,000	0,015	-0,119
-554,671	-129,370	0,211	0,021
-553,656	-44,733	-0,055	0,020
-552,642	58,157	0,058	0,041
-551,627	118,653	-0,040	0,037
-550,612	-19,332	-0,160	0,072
-549,598	429,947	-0,040	0,063
-548,583	176,366	-0,060	-0,063
-547,569	800,000	-0,092	0,189
-546,554	-200,000	0,007	0,039
-545,539	-115,010	0,074	0,010
-544,525	-200,000	-0,015	-0,059
-543,510	185,595	0,091	0,099
-542,496	380,385	-0,043	-0,064
-541,481	169,338	0,067	-0,070
-540,466	85,763	0,081	-0,065
-539,452	240,463	0,051	-0,062
-538,437	-200,000	-0,028	0,160
-537,423	72,476	-0,102	-0,078
-536,408	-200,000	-0,004	0,114
-535,393	-57,941	-0,024	-0,007
-534,379	-88,792	0,028	-0,006
-533,364	21,031	0,037	0,022
-532,350	-200,000	-0,008	0,052
-531,335	-117,985	0,177	0,023
-530,321	-55,893	-0,079	-0,026
-529,306	0,822	-0,169	0,088
-528,291	-11,803	-0,123	-0,059
-527,277	61,072	-0,082	-0,059
-526,262	396,472	-0,041	0,063
-525,248	485,623	-0,035	-0,059
-524,233	279,828	0,065	0,086
-523,218	246,123	-0,047	0,058
-522,204	-105,801	0,050	-0,008
-521,189	-156,004	-0,013	-0,001
-520,175	800,000	0,012	-0,027
-519,160	22,535	-0,124	-0,074
-518,145	452,705	-0,006	-0,010
-517,131	-80,167	0,105	0,026
-516,116	253,987	-0,077	0,097
-515,102	165,972	-0,017	0,018
-514,087	-104,731	-0,093	-0,015
-513,072	-200,000	-0,012	-0,042
-512,058	800,000	-0,037	0,096
-511,043	-200,000	0,020	-0,073
-510,029	-200,000	0,104	0,000
-509,014	-144,699	-0,082	-0,005
-507,999	13,146	0,029	0,016
-506,985	479,099	0,042	-0,070
-505,970	-37,825	-0,127	0,049
-504,956	-200,000	-0,019	-0,075
-503,941	-200,000	-0,031	-0,172
-502,926	-200,000	-0,001	0,006
-501,912	15,950	0,158	0,091
-500,897	800,000	-0,026	0,077
-499,883	339,884	0,082	0,117
-498,868	800,000	-0,052	-0,117
-497,853	-177,570	0,024	-0,000
-496,839	-40,263	-0,116	-0,044
-495,824	325,107	-0,038	0,053
-494,810	-200,000	-0,002	-0,015
-493,795	-26,533	0,059	0,025
-492,781	55,293	-0,075	-0,053
-491,766	-200,000	-0,004	-0,013
-490,751	-200,000	0,001	-0,146
-489,737	168,117	0,050	-0,052
-488,722	-200,000	0,014	0,070
-487,708	86,813	0,042	0,034
-486,693	800,000	-0,019	-0,058
-485,678	800,000	-0,039	-0,089
-484,664	-2,049	-0,158	-0,080
-483,649	52,494	-0,086	-0,060
-482,635	206,193	0,090	0,102
-481,620	650,506	-0,048	-0,089
-480,605	-22,381	0,035	-0,015
-479,591	331,508	-0,033	0,046
-478,576	-61,405	0,057	0,017
-477,562	88,520	0,032	-0,026
-476,547	-200,000	-0,004	-0,107
-475,532	407,076	-0,044	-0,068
-474,518	320,184	-0,026	0,037
-473,503	-24,924	-0,022	-0,009
-472,489	-143,263	0,026	0,002
-471,474	-200,000	-0,119	0,000
-470,459	0,549	-0,090	0,047
-469,445	-200,000	-0,008	-0,175
-468,430	800,000	0,015	0,040
-467,416	31,928	0,027	-0,017
-466,401	450,676	0,017	-0,028
-465,386	167,653	0,033	0,034
-464,372	157,390	0,067	0,068
-463,357	514,172	-0,030	-0,052
-462,343	143,494	-0,101	-0,098
-461,328	421,661	0,023	0,037
-460,313	-149,036	0,052	0,003
-459,299	-81,784	0,116	0,027
-458,284	-16,726	0,059	0,027
-457,270	-181,785	0,064	0,001
-456,255	-200,000	0,018	0,157
-455,241	-200,000	-0,018	-0,063
-454,226	208,030	-0,055	0,063
-453,211	63,410	-0,056	-0,041
-452,197	48,860	0,163	-0,111
-451,182	800,000	0,029	0,072
-450,168	800,000	0,015	0,044
-449,153	97,692	0,016	-0,013
-448,138	454,523	0,049	0,080
-447,124	-46,120	0,055	-0,020
-446,109	35,457	-0,044	-0,028
-445,095	-155,441	0,049	0,002
-444,080	80,302	0,082	0,064
-443,065	544,322	0,021	-0,036
-442,051	800,000	-0,025	-0,064
-441,036	-48,862	0,174	0,060
-440,022	381,385	0,043	0,064
-439,007	-200,000	0,031	0,126
-437,992	-27,857	0,016	-0,007
-436,978	597,841	-0,056	-0,101
-435,963	-79,457	0,156	0,038
-434,949	36,962	0,014	0,009
-433,934	-20,591	-0,088	-0,039
-432,919	1,954	0,120	-0,063
-431,905	-62,789	-0,045	-0,014
-430,890	356,147	0,018	0,026
-429,876	110,460	-0,036	0,031
-428,861	-137,838	-0,079	0,006
-427,846	54,511	0,086	0,060
-426,832	22,356	0,032	-0,019
-425,817	-8,041	-0,115	-0,056
-424,803	800,000	0,071	-0,156
-423,788	-129,535	0,023	-0,002
-422,773	126,570	0,028	0,026
-421,759	310,663	-0,047	0,065
-420,744	-200,000	-0,001	-0,011
-419,730	-200,000	-0,003	-0,096
-418,715	800,000	-0,059	0,129
-417,701	135,390	0,025	0,024
-416,686	106,866	-0,031	0,027
-415,671	800,000	0,054	0,131
-414,657	4,623	0,094	-0,050
-413,642	-200,000	-0,036	0,169
-412,628	659,101	0,039	0,073
-411,613	800,000	-0,047	-0,108
-410,598	-39,565	-0,046	-0,018
-409,584	48,000	0,162	-0,110
-408,569	91,307	0,026	0,021
-407,555	45,532	0,025	-0,017
-406,540	41,648	0,123	-0,081
-405,525	107,642	-0,016	-0,014
-404,511	115,602	-0,135	0,120
-403,496	153,661	-0,136	-0,136
-402,482	112,342	-0,097	-0,086
-401,467	117,487	0,044	0,040
-400,452	800,000	-0,060	0,178
-399,438	-27,785	-0,106	0,044
-398,423	205,941	-0,029	0,033
-397,409	82,646	-0,095	0,075
-396,394	579,453	0,058	-0,104
-395,379	-5,638	0,073	0,036
-394,365	45,435	0,109	0,073
-393,350	216,604	0,032	-0,037
-392,336	-21,414	0,090	0,040
-391,321	-20,788	0,095	-0,042
-390,306	438,862	-0,099	-0,157
-389,292	95,336	-0,055	0,046
-388,277	800,000	-0,027	-0,072
-387,263	11,446	0,072	0,040
-386,248	800,000	-0,023	0,051
-385,233	-142,060	0,099	0,007
-384,219	350,953	-0,088	-0,127
-383,204	308,553	-0,042	-0,057
-382,190	113,381	0,025	-0,022
-381,175	145,564	0,067	-0,065
-380,160	-45,942	0,125	-0,045
-379,146	-200,000	0,001	-0,097
-378,131	19,630	0,036	-0,021
-377,117	29,651	-0,014	0,009
-376,102	49,110	-0,053	0,036
-375,088	-122,752	-0,118	0,014
-374,073	348,034	0,075	0,108
-373,058	77,914	0,021	0,016
-372,044	-200,000	0,004	0,083
-371,029	-100,674	0,095	0,017
-370,015	-116,034	0,041	-0,005
-369,000	800,000	-0,036	0,106
-367,985	-138,797	0,094	0,007
-366,971	-200,000	-0,020	0,116
-365,956	800,000	-0,048	-0,121
-364,942	-59,594	0,049	0,015
-363,927	-21,924	0,159	-0,070
-362,912	800,000	0,062	0,180
-361,898	-147,396	-0,173	0,010
-360,883	-18,929	-0,094	0,042
-359,869	800,000	0,012	0,034
-358,854	-65,181	0,078	-0,023
-357,839	-200,000	0,018	-0,088
-356,825	-33,739	-0,090	-0,036
-355,810	-144,014	0,127	-0,009
-354,796	-200,000	0,004	-0,026
-353,781	-155,499	-0,141	-0,006
-352,766	800,000	-0,052	0,110
-351,752	-200,000	-0,014	-0,053
-350,737	800,000	-0,013	0,034
-349,723	-200,000	0,024	0,093
-348,708	-125,880	0,091	-0,010
-347,693	-200,000	0,006	0,081
-346,679	-64,384	-0,100	0,029
-345,664	-4,382	-0,065	-0,032
-344,650	654,446	0,061	0,115
-343,635	307,383	-0,042	-0,057
-342,620	248,570	0,106	0,130
-341,606	800,000	0,052	0,136
-340,591	182,033	-0,073	-0,078
-339,577	-68,052	-0,049	-0,014
-338,562	-18,073	-0,080	-0,036
-337,548	-200,000	0,030	-0,152
-336,533	37,663	-0,129	-0,083
-335,518	-113,818	0,024	0,003
-334,504	237,075	-0,025	0,030
-333,489	-179,260	0,063	0,001
-332,475	99,667	-0,132	0,111
-331,460	-200,000	-0,008	-0,169
-330,445	-200,000	-0,002	-0,024
-329,431	800,000	0,014	-0,033
-328,416	-12,848	0,188	-0,088
-327,402	800,000	-0,014	-0,034
-326,387	71,447	-0,038	0,029
-325,372	243,576	0,074	-0,090
-324,358	302,660	-0,053	-0,071
-323,343	-200,000	-0,003	0,036
-322,329	-24,517	-0,134	0,058
-321,314	47,892	-0,149	0,101
-320,299	-200,000	0,003	0,136
-319,285	418,611	0,064	-0,099
-318,270	84,741	0,017	-0,013
-317,256	-200,000	-0,009	0,106
-316,241	800,000	-0,022	0,051
-315,226	204,686	0,041	-0,046
-314,212	-200,000	0,017	-0,075
-313,197	-200,000	0,007	0,110
-312,183	-74,763	-0,053	0,014
-311,168	328,315	-0,057	-0,080
-310,153	-200,000	0,028	-0,143
-309,139	-27,647	-0,070	-0,029
-308,124	-0,173	0,060	-0,031
-307,110	27,689	0,031	-0,019
-306,095	121,921	-0,047	-0,042
-305,080	39,574	0,098	0,064
-304,066	12,158	0,102	0,057
-303,051	578,321	-0,077	-0,136
-302,037	800,000	0,051	0,127
-301,022	800,000	0,013	0,035
-300,008	-200,000	0,022	0,137
-298,993	75,305	0,113	0,086
-297,978	-200,000	-0,012	0,048
-296,964	-200,000	0,052	0,235
-295,949	-200,000	0,056	-0,243
-294,935	-46,423	0,050	-0,018
-293,920	-36,402	-0,044	-0,017
-292,905	-47,932	0,066	0,023
-291,891	-23,860	-0,049	0,021
-290,876	-164,480	-0,214	0,007
-289,862	172,931	-0,041	0,043
-288,847	-200,000	-0,023	0,113
-287,832	-200,000	0,005	-0,039
-286,818	800,000	-0,037	-0,098
-285,803	-4,510	0,055	0,028
-284,789	501,399	0,024	0,041
-283,774	800,000	0,038	0,119
-282,759	-136,663	0,181	0,015
-281,745	800,000	0,037	-0,090
-280,730	-149,670	0,095	0,005
-279,716	-63,137	0,084	-0,025
-278,701	-59,146	-0,026	0,008
-277,686	686,953	-0,014	0,027
-276,672	172,684	0,075	0,078
-275,657	-108,548	0,097	0,015
-274,643	90,380	-0,045	-0,036
-273,628	-200,000	-0,003	-0,059
-272,613	567,290	-0,050	0,088
-271,599	-6,607	0,041	-0,020
-270,584	139,282	-0,033	0,032
-269,570	-200,000	0,026	0,096
-268,555	-12,838	-0,127	0,060
-267,540	256,272	-0,032	0,039
-266,526	104,331	-0,056	0,048
-265,511	800,000	0,060	0,125
-264,497	130,910	-0,082	0,076
-263,482	-62,664	0,057	-0,017
-262,467	-200,000	-0,013	-0,045
-261,453	33,179	0,090	0,057
-260,438	800,000	0,076	-0,158
-259,424	-51,588	-0,029	0,010
-258,409	800,000	-0,029	-0,065
-257,395	-52,589	0,064	-0,021
-256,380	-166,273	-0,079	-0,002
-255,365	-200,000	0,007	-0,065
-254,351	-200,000	0,043	-0,158
-253,336	-200,000	-0,011	0,053
-252,322	-200,000	0,002	-0,128
-251,307	-200,000	0,014	-0,149
-250,292	137,975	0,016	0,015
-249,278	-35,544	-0,016	0,006
-248,263	747,252	0,063	-0,123
-247,249	40,947	0,051	-0,034
-246,234	-58,294	0,054	-0,017
-245,219	-86,332	-0,079	-0,017
-244,205	184,577	0,054	-0,058
-243,190	-27,271	0,055	0,023
-242,176	-172,144	-0,067	0,002
-241,161	-194,999	0,051	0,000
-240,146	-148,242	-0,079	-0,005
-239,132	-200,000	-0,017	0,070
-238,117	163,924	-0,116	-0,118
-237,103	142,642	0,060	0,058
-236,088	-47,769	-0,054	0,019
-235,073	800,000	0,034	-0,076
-234,059	800,000	0,028	-0,059
-233,044	344,024	0,052	0,074
-232,030	800,000	0,019	0,040
-231,015	206,007	-0,026	0,029
-230,000	-19,104	-0,077	-0,035
-228,986	-200,000	-0,023	-0,114
-227,971	150,195	0,033	-0,032
-226,957	-150,665	0,047	0,003
-225,942	-19,438	0,036	0,016
-224,927	4,611	0,038	-0,020
-223,913	-174,457	-0,171	0,003
-222,898	-74,689	0,022	0,006
-221,884	264,074	0,100	-0,125
-220,869	142,794	-0,063	-0,060
-219,855	-200,000	-0,024	0,154
-218,840	800,000	0,011	0,034
-217,825	76,647	-0,058	-0,044
-216,811	163,966	0,023	0,023
-215,796	147,103	-0,064	-0,063
-214,782	76,453	0,048	-0,037
-213,767	25,418	0,086	-0,051
-212,752	-4,994	0,066	-0,033
-211,738	-200,000	-0,001	0,165
-210,723	28,850	-0,098	0,060
-209,709	368,531	-0,047	-0,069
-208,694	20,690	0,086	-0,050
-207,679	-137,362	0,027	-0,002
-206,665	-13,037	-0,025	0,012
-205,650	-17,006	0,074	-0,034
-204,636	-200,000	-0,001	-0,036
-203,621	-200,000	-0,006	-0,057
-202,606	800,000	0,092	0,195
-201,592	-56,858	-0,120	-0,038
-200,577	164,299	-0,048	0,049
-199,563	800,000	0,049	-0,108
-198,548	97,324	0,087	0,072
-197,533	394,533	-0,029	0,044
-196,519	405,554	0,062	0,094
-195,504	-92,366	0,064	0,013
-194,490	-200,000	0,039	-0,150
-193,475	534,199	0,017	0,029
-192,460	-82,106	-0,084	0,020
-191,446	-52,037	-0,066	0,022
-190,431	-22,690	0,048	0,021
-189,417	653,828	-0,091	0,169
-188,402	787,141	-0,021	0,042
-187,387	-200,000	0,003	-0,039
-186,373	-97,558	-0,058	0,011
-185,358	227,552	0,096	-0,112
-184,344	-29,288	0,057	0,024
-183,329	-51,049	-0,067	0,022
-182,315	-92,176	0,132	-0,027
-181,300	-69,524	-0,069	-0,019
-180,285	-41,313	-0,202	-0,075
-179,271	-110,123	-0,029	-0,004
-178,256	-200,000	0,022	-0,107
-177,242	10,788	-0,113	0,062
-176,227	168,003	0,094	0,097
-175,212	-72,267	0,118	-0,031
-174,198	42,019	-0,030	-0,019
-173,183	800,000	0,022	-0,063
-172,169	-37,311	-0,046	0,018
-171,154	57,939	-0,006	-0,004
-170,139	-50,530	0,077	-0,026
-169,125	-200,000	-0,009	0,111
-168,110	54,854	0,043	0,030
-167,096	-62,762	-0,196	-0,058
-166,081	496,936	-0,016	-0,026
-165,066	257,362	-0,070	0,087
-164,052	169,481	0,087	-0,089
-163,037	473,859	0,056	0,092
-162,023	-85,982	0,176	0,039
-161,008	544,852	0,037	0,064
-159,993	-200,000	0,013	0,157
-158,979	34,787	-0,096	-0,060
-157,964	-200,000	-0,048	-0,159
-156,950	800,000	-0,023	-0,061
-155,935	58,196	-0,112	-0,079
-154,920	-200,000	0,020	0,076
-153,906	-200,000	-0,010	-0,041
-152,891	11,450	-0,113	0,062
-151,877	164,195	0,091	-0,092
-150,862	800,000	0,014	0,039
-149,847	800,000	-0,043	-0,099
-148,833	-200,000	0,012	0,076
-147,818	-70,814	-0,119	-0,032
-146,804	311,740	0,025	0,034
-145,789	586,116	0,013	0,024
-144,775	294,857	-0,082	0,108
-143,760	800,000	0,037	0,114
-142,745	-200,000	-0,049	-0,199
-141,731	63,983	0,045	-0,033
-140,716	183,817	0,053	-0,056
-139,702	-155,998	0,129	0,006
-138,687	13,165	0,066	-0,037
-137,672	-104,141	-0,142	-0,023
-136,658	-143,211	-0,139	-0,009
-135,643	169,484	0,029	-0,030
-134,629	152,798	0,013	-0,013
-133,614	-133,861	0,025	0,002
-132,599	105,759	-0,021	-0,018
-131,585	120,378	-0,023	0,020
-130,570	-200,000	0,027	-0,097
-129,556	-83,013	-0,159	0,037
-128,541	-163,728	-0,082	0,003
-127,526	204,283	-0,063	0,070
-126,512	-200,000	0,031	-0,112
-125,497	800,000	-0,045	0,116
-124,483	67,725	-0,097	-0,071
-123,468	-129,845	0,053	-0,005
-122,453	436,911	0,060	0,094
-121,439	-35,124	0,130	-0,051
-120,424	594,060	-0,075	-0,135
-119,410	800,000	0,043	0,092
-118,395	176,921	0,109	-0,114
