DTS Sentinel unit serial number:	SN410029Multiplexer serial number:	ORYXHardware model number:	OX2-SRSoftware version number:	ORYX F/W v4,00 Oryx Data Collector v3.7.2.0data status	okinstallation	B4 Nyhavnadifferential loss correction	single-endedforward channel	channel 2reverse channel	N/Adate	2023/12/19time	11:05:13forward acquisition time	300,00reverse acquisition time	0,00gamma	499,1914k internal	0,3128k external	0,3128temperature offset calibration	1,0000default loss term (dB/km)	0,3820temperature slope calibration	1,0000multiplexer offset coefficient	1,0000multiplexer slope coefficient	1,0000fibre end	0,00T internal ref (°C)	19,89T ext. ref 1 (°C)	4,73T ext. ref 2 (°C)	4,67length (m)	temperature (°C)	Stokes	anti-Stokes-744,400	-200,000	0,023	-0,083
-743,385	-104,270	-0,293	0,050
-742,371	-173,133	0,091	0,002
-741,356	56,233	-0,226	0,163
-740,342	30,032	0,142	-0,090
-739,327	-16,556	-0,296	0,139
-738,312	121,969	0,067	-0,062
-737,298	-45,340	-0,352	0,129
-736,283	658,836	0,061	-0,118
-735,269	313,857	-0,159	0,223
-734,254	800,000	-0,055	-0,137
-733,239	-61,287	-0,422	-0,132
-732,225	74,939	0,195	0,153
-731,210	-110,233	-0,049	0,008
-730,196	115,667	-0,024	-0,022
-729,181	63,999	-0,037	-0,028
-728,167	-200,000	0,009	0,055
-727,152	-180,961	-0,111	0,002
-726,137	800,000	-0,038	-0,082
-725,123	-154,524	-0,084	0,004
-724,108	-68,491	0,169	-0,048
-723,094	-80,384	0,058	-0,014
-722,079	-45,686	-0,121	-0,044
-721,064	-115,465	-0,095	-0,013
-720,050	-200,000	-0,007	-0,038
-719,035	-200,000	-0,015	-0,095
-718,021	156,857	-0,067	-0,069
-717,006	800,000	-0,024	-0,059
-715,991	137,401	-0,098	-0,096
-714,977	469,865	0,056	0,094
-713,962	-82,035	0,067	-0,016
-712,948	800,000	0,044	0,121
-711,933	-67,441	0,021	0,006
-710,918	-131,130	-0,093	0,009
-709,904	432,814	-0,042	-0,068
-708,889	9,823	-0,171	-0,096
-707,875	-200,000	-0,087	-0,308
-706,860	-98,638	-0,055	-0,010
-705,845	448,228	-0,031	0,050
-704,831	-166,505	0,206	0,006
-703,816	-200,000	-0,020	-0,078
-702,802	26,959	-0,087	0,054
-701,787	-89,271	-0,134	-0,029
-700,772	707,594	-0,102	-0,201
-699,758	800,000	0,007	-0,016
-698,743	167,806	0,037	-0,039
-697,729	800,000	-0,038	0,121
-696,714	30,047	0,065	0,041
-695,699	65,542	-0,072	0,054
-694,685	307,374	-0,075	-0,104
-693,670	104,552	-0,016	-0,014
-692,656	-97,442	0,079	0,015
-691,641	609,320	0,063	-0,117
-690,627	410,788	-0,051	-0,081
-689,612	-47,678	-0,086	0,031
-688,597	4,566	0,006	-0,003
-687,583	-95,326	-0,167	0,033
-686,568	11,712	0,056	0,032
-685,554	-96,514	-0,198	-0,038
-684,539	416,567	0,014	0,023
-683,524	421,273	0,036	0,058
-682,510	-169,805	0,066	0,002
-681,495	800,000	0,053	-0,125
-680,481	-96,453	-0,111	-0,022
-679,466	800,000	-0,102	-0,214
-678,451	2,218	-0,049	0,026
-677,437	-14,028	0,082	-0,039
-676,422	800,000	-0,027	-0,069
-675,408	800,000	-0,027	0,063
-674,393	-91,883	0,064	0,013
-673,378	-200,000	0,005	-0,040
-672,364	-200,000	-0,021	-0,107
-671,349	-200,000	0,013	0,098
-670,335	277,674	-0,039	0,052
-669,320	-200,000	0,003	0,017
-668,305	629,185	0,025	-0,048
-667,291	342,290	0,044	-0,064
-666,276	800,000	-0,011	-0,030
-665,262	1,138	-0,156	0,083
-664,247	81,040	-0,037	-0,029
-663,232	-200,000	-0,009	0,050
-662,218	-158,208	0,124	0,005
-661,203	-42,349	-0,101	-0,038
-660,189	-6,931	0,104	-0,052
-659,174	615,636	-0,108	-0,202
-658,159	-34,030	-0,103	0,042
-657,145	319,909	-0,082	-0,116
-656,130	800,000	-0,017	-0,048
-655,116	-200,000	0,012	0,103
-654,101	-35,822	0,055	0,022
-653,086	-96,654	-0,049	0,009
-652,072	-200,000	-0,002	0,033
-651,057	800,000	-0,046	-0,114
-650,043	648,860	-0,082	-0,157
-649,028	-63,137	-0,107	0,032
-648,014	-200,000	-0,026	0,139
-646,999	-123,539	-0,102	-0,012
-645,984	108,114	-0,067	0,059
-644,970	89,834	0,041	-0,034
-643,955	45,381	-0,143	-0,097
-642,941	-200,000	0,005	-0,134
-641,926	-200,000	-0,009	0,067
-640,911	166,735	0,036	0,038
-639,897	-200,000	-0,001	0,035
-638,882	440,463	-0,109	-0,178
-637,868	-39,261	-0,046	-0,018
-636,853	-93,069	0,063	0,013
-635,838	-0,109	0,055	0,029
-634,824	-26,338	-0,187	0,081
-633,809	54,424	0,121	-0,086
-632,795	35,438	0,030	0,019
-631,780	-113,834	0,013	0,002
-630,765	109,294	-0,109	-0,097
-629,751	68,748	0,049	0,037
-628,736	800,000	-0,035	-0,082
-627,722	800,000	0,044	-0,095
-626,707	16,552	-0,128	-0,075
-625,692	684,727	-0,044	-0,085
-624,678	800,000	-0,043	-0,088
-623,663	406,453	0,057	0,089
-622,649	-2,847	-0,125	0,065
-621,634	-10,550	-0,137	-0,067
-620,619	-200,000	-0,015	-0,078
-619,605	-200,000	-0,009	-0,073
-618,590	392,767	0,051	0,079
-617,576	-124,415	-0,169	-0,019
-616,561	-95,091	0,005	0,001
-615,546	-91,523	-0,018	0,004
-614,532	800,000	-0,116	-0,291
-613,517	800,000	-0,059	-0,147
-612,503	536,214	0,021	-0,038
-611,488	-26,609	-0,013	0,006
-610,474	-200,000	-0,028	0,115
-609,459	-200,000	0,075	0,000
-608,444	-200,000	-0,001	-0,161
-607,430	-200,000	0,045	-0,149
-606,415	-34,448	-0,067	0,027
-605,401	-91,267	0,061	-0,013
-604,386	-200,000	0,061	0,209
-603,371	5,160	0,018	-0,010
-602,357	-158,066	0,025	0,001
-601,342	-200,000	0,020	-0,103
-600,328	-158,606	-0,118	0,005
-599,313	94,502	-0,032	-0,027
-598,298	-144,067	0,092	-0,006
-597,284	800,000	0,033	-0,071
-596,269	-76,241	-0,044	0,011
-595,255	-153,432	-0,158	-0,008
-594,240	-84,450	0,038	-0,009
-593,225	-157,629	-0,110	0,005
-592,211	-200,000	-0,032	-0,173
-591,196	800,000	-0,045	0,094
-590,182	-77,436	-0,053	0,013
-589,167	-200,000	-0,004	0,056
-588,152	138,364	0,046	-0,045
-587,138	-115,599	-0,140	0,019
-586,123	-200,000	0,009	0,062
-585,109	-87,214	0,050	-0,011
-584,094	1,117	-0,085	-0,045
-583,079	124,204	0,021	0,019
-582,065	126,721	-0,032	0,030
-581,050	-63,101	0,118	0,036
-580,036	-57,385	-0,142	-0,046
-579,021	31,565	-0,046	0,029
-578,006	13,711	-0,031	-0,018
-576,992	-200,000	0,016	-0,053
-575,977	-200,000	0,005	0,017
-574,963	-200,000	0,001	0,069
-573,948	-36,669	-0,029	-0,011
-572,934	-39,152	-0,063	0,024
-571,919	-200,000	-0,026	-0,113
-570,904	-125,323	-0,068	-0,008
-569,890	-13,928	0,069	0,033
-568,875	25,803	0,128	-0,079
-567,861	92,597	0,094	-0,079
-566,846	640,260	0,051	0,096
-565,831	-200,000	0,011	-0,043
-564,817	61,843	-0,033	-0,024
-563,802	199,716	0,023	0,027
-562,788	314,674	-0,058	-0,081
-561,773	66,404	-0,020	-0,015
-560,758	163,501	-0,047	0,049
-559,744	800,000	-0,030	-0,094
-558,729	86,473	-0,079	0,064
-557,715	283,824	0,064	-0,085
-556,700	-200,000	0,008	-0,116
-555,685	-165,483	0,100	-0,003
-554,671	218,752	-0,033	0,040
-553,656	-42,896	-0,017	0,006
-552,642	-70,227	0,028	0,008
-551,627	68,268	-0,032	-0,025
-550,612	63,162	-0,085	0,063
-549,598	67,995	-0,073	0,055
-548,583	-200,000	0,016	-0,091
-547,569	-27,413	0,037	-0,016
-546,554	-69,905	0,078	-0,022
-545,539	-53,065	0,027	-0,009
-544,525	68,437	-0,108	-0,082
-543,510	386,296	-0,060	-0,091
-542,496	-81,694	-0,092	-0,022
-541,481	3,677	-0,084	0,045
-540,466	363,667	-0,075	0,112
-539,452	10,418	0,064	-0,036
-538,437	-200,000	-0,007	0,139
-537,423	800,000	-0,029	0,089
-536,408	-81,020	-0,013	-0,003
-535,393	270,759	-0,085	0,110
-534,379	-120,411	-0,050	0,006
-533,364	134,070	-0,052	0,050
-532,350	111,875	-0,104	0,093
-531,335	-64,741	-0,121	0,036
-530,321	-200,000	0,006	-0,027
-529,306	-20,871	-0,088	-0,039
-528,291	225,214	-0,071	0,085
-527,277	31,566	-0,104	-0,066
-526,262	-78,460	0,162	-0,041
-525,248	-117,867	0,085	-0,011
-524,233	-75,920	0,057	0,015
-523,218	-58,904	-0,133	0,042
-522,204	457,520	-0,021	0,035
-521,189	-116,641	-0,082	0,011
-520,175	-97,974	-0,065	-0,012
-519,160	-200,000	0,010	-0,123
-518,145	105,215	0,112	-0,097
-517,131	-32,700	0,119	0,048
-516,116	-200,000	0,002	0,220
-515,102	-82,594	-0,041	0,010
-514,087	800,000	-0,019	-0,042
-513,072	-142,072	0,087	-0,006
-512,058	385,901	-0,053	0,081
-511,043	-58,683	0,204	0,065
-510,029	-200,000	-0,001	-0,018
-509,014	-96,844	-0,100	-0,019
-507,999	800,000	0,023	-0,062
-506,985	-128,151	-0,127	-0,013
-505,970	-2,948	0,084	0,043
-504,956	-200,000	0,007	0,123
-503,941	-200,000	-0,020	0,102
-502,926	173,602	0,088	-0,093
-501,912	-200,000	-0,001	0,104
-500,897	79,016	0,044	0,035
-499,883	-200,000	0,012	-0,078
-498,868	-200,000	0,051	-0,200
-497,853	382,933	-0,042	-0,064
-496,839	79,856	-0,041	0,032
-495,824	-200,000	0,019	0,178
-494,810	800,000	-0,058	0,128
-493,795	276,607	0,036	0,047
-492,781	-95,829	-0,109	-0,021
-491,766	692,095	-0,016	-0,032
-490,751	485,735	0,046	0,077
-489,737	-200,000	-0,012	-0,110
-488,722	50,538	-0,068	-0,047
-487,708	519,370	-0,072	0,124
-486,693	-200,000	-0,002	0,090
-485,678	-178,078	0,089	0,002
-484,664	-181,809	-0,061	0,001
-483,649	-53,795	-0,066	0,022
-482,635	-13,364	-0,134	0,064
-481,620	-131,932	0,132	-0,013
-480,605	-126,603	-0,084	-0,009
-479,591	-68,416	-0,039	-0,011
-478,576	74,079	-0,051	0,039
-477,562	800,000	0,009	0,021
-476,547	-200,000	-0,003	0,016
-475,532	-200,000	-0,012	0,060
-474,518	-200,000	0,011	0,119
-473,503	-94,277	0,139	-0,028
-472,489	-132,810	-0,062	-0,006
-471,474	-200,000	-0,017	-0,057
-470,459	-33,558	0,095	-0,038
-469,445	-200,000	0,006	0,042
-468,430	800,000	0,022	-0,053
-467,416	2,561	0,196	-0,104
-466,401	-142,806	0,049	0,003
-465,386	-74,046	0,194	-0,051
-464,372	-200,000	0,043	0,215
-463,357	17,499	0,057	-0,033
-462,343	-184,708	0,036	0,000
-461,328	785,964	-0,059	-0,121
-460,313	381,195	-0,048	0,073
-459,299	-72,299	0,049	0,013
-458,284	543,120	0,063	0,112
-457,270	185,249	-0,085	0,093
-456,255	-133,110	-0,123	-0,011
-455,241	-101,194	-0,151	0,027
-454,226	103,854	-0,061	-0,053
-453,211	197,300	0,074	-0,083
-452,197	-136,339	0,185	0,016
-451,182	-61,717	-0,038	-0,012
-450,168	328,364	-0,049	0,069
-449,153	-112,202	-0,036	0,005
-448,138	475,104	0,090	-0,150
-447,124	155,893	0,062	-0,063
-446,109	119,057	-0,069	-0,062
-445,095	-43,449	-0,123	0,046
-444,080	-200,000	-0,016	0,145
-443,065	310,989	0,072	0,099
-442,051	-42,219	0,104	0,039
-441,036	141,419	-0,078	-0,076
-440,022	-200,000	0,013	0,049
-439,007	54,363	-0,132	0,093
-437,992	-200,000	-0,012	-0,094
-436,978	49,792	0,037	-0,025
-435,963	171,923	-0,008	0,008
-434,949	105,034	0,060	-0,052
-433,934	619,870	0,069	-0,128
-432,919	-21,978	0,043	-0,019
-431,905	449,233	-0,054	0,089
-430,890	-117,518	-0,067	0,009
-429,876	-3,077	0,105	-0,054
-428,861	39,400	0,072	0,048
-427,846	65,322	-0,056	-0,041
-426,832	800,000	0,007	0,018
-425,817	91,912	0,054	-0,045
-424,803	-82,560	-0,017	-0,004
-423,788	-200,000	0,013	0,101
-422,773	-39,730	0,082	0,031
-421,759	51,232	0,060	0,042
-420,744	-200,000	-0,008	0,104
-419,730	-200,000	-0,026	-0,192
-418,715	66,480	-0,070	-0,053
-417,701	-200,000	0,015	0,071
-416,686	19,395	-0,125	0,073
-415,671	-191,607	0,118	0,001
-414,657	-200,000	-0,002	-0,012
-413,642	800,000	-0,017	0,041
-412,628	98,710	0,060	0,051
-411,613	-200,000	-0,037	0,156
-410,598	175,805	-0,121	-0,130
-409,584	-173,788	-0,110	0,002
-408,569	229,519	0,073	0,087
-407,555	-126,669	-0,044	-0,005
-406,540	-147,185	0,135	-0,008
-405,525	105,846	-0,074	-0,064
-404,511	314,744	0,042	-0,058
-403,496	-200,000	-0,003	0,041
-402,482	24,708	0,067	-0,041
-401,467	-200,000	0,010	0,121
-400,452	-55,398	0,090	0,029
-399,438	800,000	0,050	0,143
-398,423	55,860	-0,073	-0,052
-397,409	-36,576	0,087	-0,034
-396,394	800,000	-0,036	0,112
-395,379	-103,406	0,117	-0,020
-394,365	278,574	0,050	-0,066
-393,350	259,023	0,031	-0,039
-392,336	-200,000	0,026	0,156
-391,321	546,801	0,064	0,114
-390,306	341,179	-0,036	-0,051
-389,292	0,730	-0,147	-0,077
-388,277	-69,154	0,116	-0,033
-387,263	131,598	-0,044	0,042
-386,248	293,658	-0,108	0,145
-385,233	-109,616	0,092	-0,014
-384,219	-19,162	0,068	-0,031
-383,204	46,507	0,046	-0,031
-382,190	10,535	-0,101	-0,057
-381,175	172,328	0,133	-0,140
-380,160	695,060	-0,013	0,026
-379,146	-82,611	0,121	0,029
-378,131	800,000	0,060	-0,158
-377,117	-76,348	0,130	0,033
-376,102	735,359	0,030	-0,059
-375,088	15,514	0,041	0,024
-374,073	800,000	-0,041	0,094
-373,058	-200,000	0,008	0,154
-372,044	800,000	-0,016	0,040
-371,029	-21,682	0,133	0,059
-370,015	-4,877	-0,020	-0,010
-369,000	18,674	-0,063	0,037
-367,985	-200,000	-0,019	-0,106
-366,971	414,752	0,036	0,057
-365,956	800,000	0,048	0,118
-364,942	175,536	-0,015	0,016
-363,927	-43,011	0,022	0,008
-362,912	-92,190	-0,039	-0,008
-361,898	-87,926	-0,128	0,028
-360,883	11,952	-0,048	-0,027
-359,869	664,681	-0,036	-0,069
-358,854	-80,029	0,113	-0,028
-357,839	-107,298	0,050	-0,008
-356,825	754,089	-0,065	0,130
-355,810	-121,170	0,193	-0,023
-354,796	71,007	-0,026	0,020
-353,781	-42,355	-0,072	-0,027
-352,766	405,128	-0,042	-0,066
-351,752	800,000	0,039	0,083
-350,737	104,164	-0,032	-0,028
-349,723	49,843	0,121	0,083
-348,708	-200,000	0,019	0,166
-347,693	39,765	0,042	-0,028
-346,679	419,175	-0,071	-0,112
-345,664	153,197	0,079	-0,079
-344,650	181,430	0,112	0,121
-343,635	95,081	0,195	0,163
-342,620	800,000	0,046	0,113
-341,606	338,260	-0,015	-0,022
-340,591	-200,000	-0,026	-0,114
-339,577	80,414	-0,073	-0,057
-338,562	151,355	0,070	-0,070
-337,548	15,315	0,070	-0,040
-336,533	517,984	-0,039	0,067
-335,518	-78,510	0,128	0,032
-334,504	47,816	-0,061	-0,042
-333,489	-200,000	-0,004	0,128
-332,475	513,492	0,059	0,101
-331,460	-200,000	-0,023	-0,081
-330,445	23,375	-0,047	0,028
-329,431	-75,145	0,029	0,008
-328,416	-149,858	0,070	0,004
-327,402	217,946	0,035	-0,040
-326,387	-111,969	-0,077	0,011
-325,372	-200,000	0,020	0,000
-324,358	-200,000	-0,013	-0,060
-323,343	800,000	0,039	-0,092
-322,329	157,317	0,120	0,122
-321,314	-50,878	0,063	-0,022
-320,299	800,000	0,043	-0,121
-319,285	-200,000	-0,017	-0,070
-318,270	-200,000	-0,009	0,148
-317,256	-80,028	-0,089	-0,022
-316,241	-144,548	-0,119	-0,008
-315,226	-200,000	0,015	0,109
-314,212	800,000	0,037	0,106
-313,197	800,000	0,030	-0,066
-312,183	-200,000	-0,008	-0,057
-311,168	274,412	0,093	-0,121
-310,153	122,937	0,081	0,074
-309,139	51,292	-0,072	-0,050
-308,124	505,265	-0,027	0,045
-307,110	429,278	0,046	-0,073
-306,095	800,000	0,030	0,091
-305,080	-59,351	-0,129	0,040
-304,066	-200,000	-0,013	0,070
-303,051	-56,303	-0,091	-0,029
-302,037	317,964	-0,031	-0,043
-301,022	-200,000	-0,008	-0,100
-300,008	-13,323	0,054	0,025
-298,993	-200,000	0,011	0,051
-297,978	-200,000	-0,034	-0,123
-296,964	-99,525	0,200	0,036
-295,949	-200,000	0,003	0,089
-294,935	-200,000	0,015	0,083
-293,920	-200,000	-0,003	0,031
-292,905	112,229	-0,051	0,045
-291,891	45,890	0,064	0,043
-290,876	466,589	-0,054	0,089
-289,862	154,622	0,058	-0,058
-288,847	33,919	-0,077	-0,049
-287,832	-200,000	0,011	-0,208
-286,818	17,964	0,020	0,011
-285,803	167,495	-0,060	0,063
-284,789	-200,000	0,021	0,200
-283,774	122,983	-0,087	0,079
-282,759	800,000	-0,013	-0,033
-281,745	128,090	-0,126	-0,117
-280,730	673,135	0,075	-0,142
-279,716	239,653	0,025	-0,030
-278,701	-81,462	-0,101	0,024
-277,686	-54,089	0,089	0,030
-276,672	-95,615	0,038	-0,007
-275,657	15,852	-0,078	-0,045
-274,643	-128,615	-0,138	-0,014
-273,628	425,508	0,011	0,017
-272,613	-52,104	-0,086	-0,029
-271,599	-25,930	0,050	0,022
-270,584	800,000	-0,063	0,162
-269,570	-200,000	0,019	0,078
-268,555	-200,000	0,001	0,006
-267,540	-200,000	-0,002	-0,027
-266,526	800,000	-0,065	-0,138
-265,511	-1,489	-0,087	-0,045
-264,497	508,675	0,063	0,107
-263,482	451,718	0,071	0,115
-262,467	-50,881	0,105	-0,036
-261,453	800,000	-0,012	0,036
-260,438	66,518	-0,009	-0,007
-259,424	254,662	0,104	-0,130
-258,409	-200,000	0,004	-0,053
-257,395	-200,000	-0,010	-0,053
-256,380	-98,713	0,158	-0,029
-255,365	28,587	0,049	0,030
-254,351	-90,757	0,106	-0,022
-253,336	-136,418	-0,116	0,010
-252,322	319,724	-0,063	-0,088
-251,307	617,412	0,035	0,064
-250,292	140,903	0,045	-0,044
-249,278	800,000	0,083	-0,183
-248,263	-200,000	0,031	0,123
-247,249	-140,159	-0,107	-0,008
-246,234	409,334	-0,053	-0,082
-245,219	460,398	0,109	-0,178
-244,205	540,884	0,075	-0,131
-243,190	-77,719	-0,031	0,008
-242,176	-138,222	0,054	-0,004
-241,161	135,945	0,107	-0,102
-240,146	800,000	-0,044	-0,125
-239,132	-200,000	0,029	-0,171
-238,117	17,073	-0,091	-0,052
-237,103	-136,510	0,077	0,006
-236,088	-200,000	0,005	-0,040
-235,073	-45,749	-0,040	-0,014
-234,059	-94,357	0,117	-0,023
-233,044	511,372	0,055	0,093
-232,030	75,968	-0,148	0,114
-231,015	-163,904	0,106	0,004
-230,000	489,018	-0,019	0,031
-228,986	-89,187	-0,147	-0,031
-227,971	-200,000	0,023	0,109
-226,957	314,212	0,050	-0,069
-225,942	251,562	-0,011	0,014
-224,927	800,000	0,033	0,073
-223,913	800,000	0,016	-0,034
-222,898	181,964	-0,104	-0,112
-221,884	-50,559	0,171	0,058
-220,869	-200,000	0,010	-0,063
-219,855	-74,428	0,050	0,013
-218,840	161,632	0,133	0,136
-217,825	430,315	-0,064	-0,101
-216,811	800,000	0,020	0,062
-215,796	800,000	-0,056	-0,127
-214,782	800,000	0,027	-0,058
-213,767	-200,000	0,015	0,106
-212,752	-200,000	0,002	0,053
-211,738	32,217	0,047	-0,030
-210,723	800,000	0,009	-0,026
-209,709	-200,000	-0,023	-0,090
-208,694	-200,000	-0,035	-0,142
-207,679	49,268	-0,034	-0,024
-206,665	-147,596	0,094	0,006
-205,650	311,575	-0,034	0,047
-204,636	0,135	0,118	0,061
-203,621	-75,505	-0,118	0,030
-202,606	-83,212	-0,025	0,006
-201,592	-200,000	-0,033	-0,129
-200,577	105,383	-0,054	-0,047
-199,563	24,230	0,085	0,051
-198,548	144,325	0,139	0,136
-197,533	-80,113	-0,128	0,031
-196,519	-200,000	0,004	0,047
-195,504	178,143	0,003	0,003
-194,490	-180,592	-0,043	0,001
-193,475	-200,000	0,008	-0,163
-192,460	210,509	0,040	-0,046
-191,446	260,307	-0,053	-0,067
-190,431	-52,438	0,067	-0,022
-189,417	459,235	-0,049	0,080
-188,402	-200,000	-0,012	0,072
-187,387	117,385	-0,083	-0,075
-186,373	-200,000	0,018	-0,079
-185,358	-200,000	0,040	0,212
-184,344	-18,984	0,098	0,044
-183,329	-200,000	-0,033	0,226
-182,315	-200,000	0,010	-0,141
-181,300	-200,000	-0,010	0,185
-180,285	-200,000	0,008	-0,165
-179,271	162,802	-0,087	-0,089
-178,256	-200,000	0,002	0,037
-177,242	-84,938	-0,090	-0,020
-176,227	-30,459	0,014	-0,006
-175,212	76,122	-0,047	-0,036
-174,198	-84,811	0,011	0,002
-173,183	800,000	0,037	0,098
-172,169	364,348	0,027	0,040
-171,154	-26,476	0,017	0,007
-170,139	31,989	0,020	-0,012
-169,125	-39,761	0,098	-0,037
-168,110	154,210	0,036	-0,036
-167,096	494,144	-0,037	-0,063
-166,081	-200,000	0,004	0,028
-165,066	99,230	-0,023	0,019
-164,052	152,318	-0,059	-0,059
-163,037	-6,852	0,164	-0,081
-162,023	526,153	0,071	0,122
-161,008	800,000	-0,069	0,170
-159,993	-198,821	-0,050	0,000
-158,979	-54,004	-0,111	-0,037
-157,964	-20,956	-0,106	0,047
-156,950	239,155	0,081	-0,098
-155,935	-200,000	0,000	0,032
-154,920	310,166	0,039	-0,053
-153,906	276,276	-0,060	0,078
-152,891	223,254	0,110	0,130
-151,877	1,969	0,067	-0,035
-150,862	367,113	-0,127	-0,187
-149,847	9,037	-0,067	-0,037
-148,833	45,051	0,099	-0,066
-147,818	352,378	0,035	0,051
-146,804	34,406	0,043	0,027
-145,789	-5,007	-0,060	-0,030
-144,775	611,977	-0,060	0,110
-143,760	-105,779	-0,163	-0,026
-142,745	321,827	-0,019	-0,026
-141,731	302,002	-0,064	-0,086
-140,716	-80,492	0,087	0,021
-139,702	800,000	0,003	0,006
-138,687	-200,000	-0,026	0,090
-137,672	154,830	-0,147	-0,147
-136,658	800,000	-0,026	0,070
-135,643	63,212	-0,059	-0,043
-134,629	-34,015	-0,128	-0,051
-133,614	-39,472	-0,009	0,004
-132,599	-200,000	0,093	-0,000
-131,585	-50,084	-0,127	0,044
-130,570	-200,000	-0,050	-0,170
-129,556	800,000	0,044	0,116
-128,541	-200,000	-0,015	0,064
-127,526	800,000	0,033	0,081
-126,512	47,322	0,116	0,078
-125,497	183,934	0,094	0,101
-124,483	23,422	-0,026	-0,015
-123,468	800,000	0,011	-0,030
-122,453	68,331	-0,091	-0,068
-121,439	-3,091	0,054	0,027
-120,424	106,797	-0,070	-0,060
-119,410	288,524	0,040	0,053
-118,395	-75,503	0,122	0,031
