DTS Sentinel unit serial number:	SN410029Multiplexer serial number:	ORYXHardware model number:	OX2-SRSoftware version number:	ORYX F/W v4,00 Oryx Data Collector v3.7.2.0data status	okinstallation	B4 Nyhavnadifferential loss correction	single-endedforward channel	channel 2reverse channel	N/Adate	2023/12/16time	07:00:13forward acquisition time	300,00reverse acquisition time	0,00gamma	499,1914k internal	0,3127k external	0,3127temperature offset calibration	1,0000default loss term (dB/km)	0,3820temperature slope calibration	1,0000multiplexer offset coefficient	1,0000multiplexer slope coefficient	1,0000fibre end	0,00T internal ref (°C)	22,31T ext. ref 1 (°C)	7,61T ext. ref 2 (°C)	7,80length (m)	temperature (°C)	Stokes	anti-Stokes-744,400	-67,924	-0,037	0,011
-743,385	-44,610	-0,200	0,074
-742,371	89,777	0,043	0,036
-741,356	-120,782	-0,210	-0,026
-740,342	800,000	0,030	-0,084
-739,327	-12,766	-0,196	0,095
-738,312	568,598	0,077	-0,140
-737,298	37,183	-0,190	0,125
-736,283	-200,000	0,009	0,062
-735,269	188,043	-0,179	0,199
-734,254	-200,000	-0,030	0,138
-733,239	-164,882	-0,411	-0,013
-732,225	166,900	0,076	0,080
-731,210	62,990	-0,078	0,058
-730,196	204,238	0,026	0,030
-729,181	198,708	0,076	-0,086
-728,167	85,116	-0,066	-0,053
-727,152	62,399	-0,086	-0,064
-726,137	-6,057	-0,080	-0,041
-725,123	-200,000	-0,020	-0,105
-724,108	12,907	-0,049	0,028
-723,094	725,924	-0,068	-0,136
-722,079	-200,000	-0,004	-0,125
-721,064	800,000	-0,085	-0,176
-720,050	-200,000	-0,015	-0,163
-719,035	-81,385	-0,115	-0,028
-718,021	242,087	-0,065	0,081
-717,006	-58,099	-0,096	0,031
-715,991	308,982	-0,099	-0,138
-714,977	-74,005	-0,087	0,023
-713,962	27,096	-0,074	-0,046
-712,948	-164,118	0,075	-0,003
-711,933	-139,803	-0,069	0,005
-710,918	39,753	-0,018	0,012
-709,904	-200,000	0,007	-0,039
-708,889	-200,000	0,001	-0,109
-707,875	-56,536	-0,097	0,032
-706,860	305,825	-0,044	0,060
-705,845	-54,194	-0,024	0,008
-704,831	-200,000	-0,001	0,063
-703,816	-200,000	0,015	-0,109
-702,802	-29,369	-0,071	0,030
-701,787	-200,000	-0,035	-0,145
-700,772	-200,000	0,004	0,077
-699,758	146,900	0,057	0,057
-698,743	800,000	0,004	-0,008
-697,729	-131,790	-0,052	-0,005
-696,714	11,513	-0,087	-0,050
-695,699	800,000	-0,034	0,086
-694,685	30,327	0,131	0,083
-693,670	800,000	-0,015	-0,044
-692,656	237,974	0,110	-0,136
-691,641	43,768	-0,047	-0,032
-690,627	-32,196	0,111	-0,046
-689,612	-200,000	-0,002	-0,064
-688,597	-200,000	-0,031	-0,122
-687,583	175,266	-0,061	-0,066
-686,568	800,000	-0,012	0,027
-685,554	107,081	0,060	-0,053
-684,539	-200,000	-0,012	0,045
-683,524	-111,853	0,057	-0,008
-682,510	-200,000	-0,007	0,055
-681,495	614,551	0,015	-0,029
-680,481	74,235	-0,116	-0,091
-679,466	800,000	-0,057	-0,118
-678,451	-49,584	-0,078	-0,027
-677,437	736,363	-0,016	-0,032
-676,422	562,042	-0,030	0,054
-675,408	238,884	0,104	0,129
-674,393	-57,973	0,141	0,045
-673,378	-141,157	-0,084	-0,006
-672,364	800,000	0,037	-0,080
-671,349	-200,000	-0,039	-0,137
-670,335	-200,000	0,006	0,122
-669,320	-105,731	0,060	0,010
-668,305	-200,000	0,009	-0,065
-667,291	-200,000	-0,025	-0,089
-666,276	800,000	0,070	-0,156
-665,262	353,734	0,060	-0,089
-664,247	-130,870	-0,111	-0,011
-663,232	57,392	-0,124	-0,090
-662,218	-200,000	0,016	-0,076
-661,203	117,941	0,052	0,047
-660,189	800,000	0,002	-0,005
-659,174	-162,688	-0,145	-0,005
-658,159	91,968	-0,023	-0,019
-657,145	-97,232	-0,076	0,015
-656,130	17,351	0,091	0,054
-655,116	64,874	0,089	0,067
-654,101	22,668	0,034	-0,020
-653,086	-102,909	0,114	-0,020
-652,072	-200,000	0,018	0,145
-651,057	213,945	0,017	-0,020
-650,043	-200,000	0,014	-0,087
-649,028	-55,521	-0,029	0,010
-648,014	-200,000	-0,020	0,069
-646,999	57,562	-0,034	0,024
-645,984	174,585	-0,055	0,059
-644,970	-103,979	-0,162	0,028
-643,955	-200,000	-0,002	-0,023
-642,941	800,000	-0,028	-0,084
-641,926	541,437	-0,108	-0,191
-640,911	615,925	0,023	-0,044
-639,897	371,405	-0,059	-0,089
-638,882	105,927	-0,068	0,060
-637,868	-128,904	-0,093	0,010
-636,853	-76,066	0,101	-0,026
-635,838	-200,000	-0,005	-0,041
-634,824	341,188	-0,033	-0,048
-633,809	800,000	0,049	0,105
-632,795	92,877	-0,046	0,038
-631,780	41,789	0,031	0,021
-630,765	216,828	-0,044	0,053
-629,751	40,417	-0,092	-0,061
-628,736	737,043	-0,033	-0,065
-627,722	57,296	-0,135	-0,098
-626,707	569,668	-0,046	-0,083
-625,692	413,207	0,013	0,021
-624,678	138,402	-0,020	-0,019
-623,663	-200,000	-0,020	0,094
-622,649	-21,313	0,063	-0,029
-621,634	-107,799	-0,092	0,015
-620,619	-200,000	-0,095	-0,000
-619,605	374,260	-0,041	-0,063
-618,590	796,796	0,111	0,228
-617,576	333,960	0,052	-0,075
-616,561	-68,231	-0,093	0,027
-615,546	131,681	0,045	-0,043
-614,532	-200,000	-0,013	0,075
-613,517	94,665	0,163	0,138
-612,503	-200,000	0,004	-0,024
-611,488	60,222	-0,078	-0,057
-610,474	-200,000	-0,021	0,100
-609,459	478,307	0,056	0,095
-608,444	793,898	-0,063	-0,128
-607,430	-65,402	-0,233	-0,069
-606,415	-200,000	-0,041	-0,192
-605,401	-116,654	0,110	-0,015
-604,386	-200,000	0,018	0,081
-603,371	140,505	0,027	-0,027
-602,357	800,000	0,025	0,067
-601,342	-200,000	0,054	-0,000
-600,328	-15,879	0,017	-0,008
-599,313	-200,000	-0,004	-0,046
-598,298	-200,000	-0,004	-0,078
-597,284	-200,000	0,018	0,067
-596,269	800,000	0,036	0,085
-595,255	-200,000	-0,029	-0,117
-594,240	435,566	-0,049	-0,079
-593,225	800,000	-0,044	-0,108
-592,211	-66,825	0,039	-0,011
-591,196	782,718	-0,043	-0,087
-590,182	-87,612	0,063	0,014
-589,167	319,090	0,043	-0,061
-588,152	-200,000	0,007	0,043
-587,138	188,811	0,046	0,051
-586,123	56,811	-0,139	-0,100
-585,109	-128,670	-0,074	-0,008
-584,094	800,000	0,062	0,158
-583,079	-5,751	-0,117	-0,059
-582,065	-149,690	0,136	0,008
-581,050	-200,000	0,003	-0,112
-580,036	-200,000	0,022	-0,107
-579,021	438,155	0,024	-0,039
-578,006	-200,000	-0,018	-0,093
-576,992	-47,763	-0,111	0,040
-575,977	78,043	0,076	-0,060
-574,963	-45,987	-0,052	-0,019
-573,948	412,285	-0,043	-0,068
-572,934	-200,000	0,002	-0,023
-571,919	132,088	-0,025	0,024
-570,904	353,028	-0,075	-0,110
-569,890	43,983	-0,064	0,043
-568,875	800,000	0,039	0,091
-567,861	-10,332	0,043	0,021
-566,846	-49,884	0,068	0,024
-565,831	-88,003	-0,134	-0,029
-564,817	-200,000	-0,006	-0,034
-563,802	-11,804	0,013	0,006
-562,788	639,197	-0,011	-0,021
-561,773	-53,160	-0,083	0,028
-560,758	800,000	0,102	-0,268
-559,744	-67,763	0,067	0,019
-558,729	182,646	-0,075	0,082
-557,715	733,092	0,032	-0,063
-556,700	-200,000	-0,024	0,150
-555,685	463,356	0,084	0,140
-554,671	-46,907	0,094	-0,034
-553,656	-200,000	0,007	-0,160
-552,642	187,395	0,039	-0,043
-551,627	-200,000	-0,004	-0,063
-550,612	216,328	-0,022	-0,026
-549,598	800,000	0,034	-0,072
-548,583	-57,211	-0,105	0,034
-547,569	-92,470	-0,064	0,013
-546,554	90,436	0,160	0,132
-545,539	375,382	-0,048	0,073
-544,525	-200,000	0,006	0,087
-543,510	800,000	0,037	-0,107
-542,496	-137,441	-0,070	-0,006
-541,481	-200,000	-0,022	-0,117
-540,466	-200,000	-0,006	-0,042
-539,452	-200,000	-0,017	0,133
-538,437	-93,749	0,104	0,021
-537,423	81,194	-0,051	-0,040
-536,408	-173,834	0,023	-0,000
-535,393	648,921	-0,058	-0,110
-534,379	-194,459	0,065	-0,000
-533,364	146,436	-0,099	0,098
-532,350	-127,030	0,188	-0,020
-531,335	-11,402	0,038	0,018
-530,321	-200,000	0,007	0,081
-529,306	42,180	0,038	0,025
-528,291	-132,289	0,081	-0,008
-527,277	-119,488	-0,174	0,022
-526,262	-96,542	0,038	0,007
-525,248	-76,802	-0,111	0,028
-524,233	109,422	-0,144	0,127
-523,218	58,671	-0,186	0,134
-522,204	800,000	-0,048	0,104
-521,189	677,128	0,053	-0,102
-520,175	800,000	0,053	0,160
-519,160	-200,000	-0,019	0,101
-518,145	-115,542	0,114	-0,016
-517,131	-200,000	-0,027	0,131
-516,116	89,721	0,143	0,117
-515,102	-149,112	0,093	0,005
-514,087	195,548	-0,058	0,066
-513,072	174,308	-0,048	-0,051
-512,058	-72,065	-0,133	0,036
-511,043	-200,000	0,070	0,237
-510,029	-13,781	-0,114	0,054
-509,014	322,239	-0,098	0,137
-507,999	800,000	-0,073	0,212
-506,985	800,000	-0,014	-0,042
-505,970	324,489	-0,134	0,189
-504,956	782,543	0,080	0,163
-503,941	-200,000	-0,068	0,000
-502,926	800,000	0,034	-0,102
-501,912	92,150	-0,119	0,099
-500,897	109,872	0,064	-0,057
-499,883	179,746	-0,098	0,105
-498,868	425,761	0,079	-0,126
-497,853	338,901	-0,013	-0,018
-496,839	-12,323	-0,065	-0,031
-495,824	-200,000	0,015	0,116
-494,810	-59,845	0,059	0,018
-493,795	-141,633	-0,048	-0,004
-492,781	-53,308	-0,069	-0,023
-491,766	-49,759	-0,052	0,018
-490,751	228,977	0,141	-0,169
-489,737	92,449	-0,042	0,035
-488,722	64,735	0,053	0,040
-487,708	-200,000	-0,036	-0,160
-486,693	-200,000	0,016	-0,096
-485,678	-200,000	-0,004	-0,022
-484,664	-200,000	-0,007	0,023
-483,649	-200,000	0,019	-0,136
-482,635	-200,000	-0,050	-0,235
-481,620	-200,000	-0,017	0,073
-480,605	-9,871	-0,039	0,019
-479,591	-150,687	0,062	-0,003
-478,576	151,590	0,126	-0,127
-477,562	-200,000	-0,008	0,070
-476,547	-200,000	-0,000	0,065
-475,532	112,768	0,039	-0,034
-474,518	-35,217	0,107	0,043
-473,503	43,974	-0,072	-0,048
-472,489	-142,489	-0,090	-0,006
-471,474	-196,424	-0,055	-0,000
-470,459	-200,000	0,021	0,193
-469,445	-89,110	0,066	-0,014
-468,430	-44,869	-0,135	-0,049
-467,416	-200,000	0,013	-0,124
-466,401	192,389	0,066	-0,074
-465,386	83,469	0,122	0,098
-464,372	-200,000	-0,010	-0,080
-463,357	-200,000	-0,012	-0,059
-462,343	-66,695	-0,062	0,018
-461,328	-200,000	-0,000	-0,039
-460,313	-200,000	0,007	-0,180
-459,299	-37,595	0,049	0,019
-458,284	324,024	0,050	-0,070
-457,270	45,858	-0,078	-0,053
-456,255	800,000	-0,012	-0,033
-455,241	800,000	-0,061	-0,170
-454,226	-10,107	0,022	0,011
-453,211	800,000	0,092	-0,280
-452,197	457,678	-0,024	-0,040
-451,182	-200,000	-0,017	0,062
-450,168	-169,903	0,105	-0,003
-449,153	-200,000	0,000	0,094
-448,138	-139,677	-0,050	0,004
-447,124	-200,000	-0,010	-0,043
-446,109	-200,000	0,014	0,068
-445,095	-124,709	-0,045	-0,005
-444,080	800,000	0,054	-0,123
-443,065	-13,620	0,062	-0,029
-442,051	-119,028	-0,120	0,015
-441,036	476,857	-0,020	0,034
-440,022	583,112	-0,032	0,058
-439,007	-200,000	0,012	0,127
-437,992	-25,790	0,081	0,035
-436,978	280,342	0,060	0,079
-435,963	-25,278	0,042	0,018
-434,949	-33,380	-0,086	0,035
-433,934	-114,325	0,095	0,013
-432,919	800,000	0,022	0,066
-431,905	185,361	-0,022	-0,024
-430,890	174,495	-0,046	0,049
-429,876	83,857	-0,032	0,026
-428,861	-131,412	-0,112	-0,011
-427,846	-200,000	0,017	0,092
-426,832	76,406	-0,049	0,038
-425,817	800,000	-0,020	-0,049
-424,803	195,361	-0,010	0,011
-423,788	361,992	-0,048	0,071
-422,773	-27,344	0,083	-0,035
-421,759	358,970	0,036	-0,053
-420,744	-56,421	-0,050	-0,016
-419,730	-200,000	-0,026	0,114
-418,715	-74,224	0,021	-0,006
-417,701	-48,702	0,154	0,054
-416,686	540,488	0,052	0,091
-415,671	800,000	0,019	0,045
-414,657	-10,563	-0,085	0,041
-413,642	-200,000	-0,012	-0,080
-412,628	-9,029	-0,066	-0,033
-411,613	800,000	-0,028	0,084
-410,598	-200,000	0,054	-0,201
-409,584	-116,364	-0,096	0,013
-408,569	-29,302	-0,039	0,016
-407,555	287,314	0,094	0,125
-406,540	-32,267	-0,038	0,015
-405,525	-47,386	-0,125	0,044
-404,511	201,998	-0,108	-0,123
-403,496	89,043	-0,052	-0,043
-402,482	-200,000	0,002	-0,069
-401,467	105,917	0,062	-0,054
-400,452	81,131	-0,101	-0,080
-399,438	298,133	-0,088	0,119
-398,423	125,427	0,008	-0,008
-397,409	479,814	0,061	-0,101
-396,394	-141,378	0,061	-0,004
-395,379	800,000	0,012	0,038
-394,365	-200,000	0,002	0,090
-393,350	-16,572	-0,114	0,053
-392,336	-200,000	0,016	0,113
-391,321	-200,000	-0,029	0,122
-390,306	-90,795	-0,069	0,015
-389,292	136,727	0,044	-0,043
-388,277	359,376	0,037	0,055
-387,263	-200,000	0,007	-0,083
-386,248	-60,143	0,098	-0,031
-385,233	-200,000	0,014	0,085
-384,219	800,000	-0,047	0,146
-383,204	712,097	-0,096	-0,188
-382,190	29,082	0,073	-0,045
-381,175	-17,030	0,097	0,045
-380,160	655,425	0,015	0,028
-379,146	-13,905	-0,012	0,006
-378,131	-200,000	0,016	0,082
-377,117	-200,000	0,111	-0,000
-376,102	-200,000	0,012	-0,076
-375,088	800,000	-0,019	0,059
-374,073	-200,000	-0,023	0,142
-373,058	6,802	0,059	0,032
-372,044	-200,000	-0,004	0,108
-371,029	241,714	0,084	0,103
-370,015	800,000	0,037	0,120
-369,000	2,679	-0,038	-0,020
-367,985	800,000	0,060	-0,173
-366,971	-58,766	0,094	0,030
-365,956	4,478	-0,058	0,031
-364,942	249,437	0,083	0,104
-363,927	3,302	0,067	0,036
-362,912	435,270	0,055	0,087
-361,898	800,000	-0,050	0,104
-360,883	-200,000	-0,005	0,039
-359,869	186,166	0,077	0,084
-358,854	-200,000	0,016	-0,091
-357,839	800,000	0,076	-0,157
-356,825	429,549	0,037	-0,059
-355,810	-170,422	-0,024	-0,001
-354,796	434,595	0,026	0,042
-353,781	608,316	-0,075	-0,139
-352,766	100,201	-0,128	-0,109
-351,752	-73,503	0,043	0,012
-350,737	800,000	-0,020	-0,062
-349,723	-100,074	0,025	0,005
-348,708	-166,842	-0,091	0,003
-347,693	-37,366	-0,039	-0,015
-346,679	800,000	0,014	0,039
-345,664	52,473	0,070	-0,049
-344,650	-200,000	0,012	0,142
-343,635	-200,000	-0,024	0,205
-342,620	-200,000	0,005	0,021
-341,606	158,814	0,088	-0,090
-340,591	549,561	-0,068	-0,119
-339,577	12,888	0,095	-0,054
-338,562	-189,577	0,159	-0,001
-337,548	284,352	-0,040	0,054
-336,533	-128,128	-0,046	0,005
-335,518	151,261	-0,126	0,126
-334,504	-13,948	0,082	0,039
-333,489	800,000	0,056	0,122
-332,475	-49,893	-0,087	-0,030
-331,460	800,000	0,044	-0,111
-330,445	752,295	-0,045	-0,090
-329,431	357,078	-0,054	-0,079
-328,416	17,940	-0,113	-0,066
-327,402	302,155	-0,066	-0,090
-326,387	-27,667	-0,019	-0,008
-325,372	-200,000	0,001	0,087
-324,358	154,887	-0,029	-0,030
-323,343	-62,409	0,132	-0,040
-322,329	291,296	-0,061	0,081
-321,314	102,782	0,048	0,041
-320,299	-115,829	0,041	0,005
-319,285	229,221	-0,030	0,036
-318,270	18,356	-0,129	-0,075
-317,256	171,129	-0,062	-0,066
-316,241	52,977	-0,037	0,026
-315,226	-200,000	0,005	-0,101
-314,212	-200,000	0,011	-0,058
-313,197	-200,000	-0,030	-0,123
-312,183	314,617	-0,049	0,068
-311,168	404,659	0,025	0,039
-310,153	92,560	0,098	-0,081
-309,139	-200,000	-0,003	-0,033
-308,124	140,575	0,075	0,073
-307,110	-31,322	0,071	-0,029
-306,095	43,082	0,058	0,039
-305,080	568,678	0,038	-0,068
-304,066	-105,564	0,080	-0,013
-303,051	-47,667	-0,099	-0,035
-302,037	114,159	-0,058	-0,052
-301,022	54,357	-0,139	-0,098
-300,008	-200,000	0,007	0,112
-298,993	18,737	0,087	0,051
-297,978	500,620	0,064	0,109
-296,964	412,144	-0,004	0,006
-295,949	800,000	-0,047	-0,114
-294,935	85,104	-0,090	-0,072
-293,920	68,253	0,024	-0,018
-292,905	-200,000	-0,016	-0,089
-291,891	43,274	0,098	-0,065
-290,876	-200,000	0,011	-0,080
-289,862	379,950	0,043	0,065
-288,847	-200,000	0,011	-0,050
-287,832	-165,670	-0,063	-0,002
-286,818	-200,000	0,001	-0,033
-285,803	-63,374	-0,054	0,016
-284,789	-3,064	0,063	0,032
-283,774	-200,000	-0,036	0,126
-282,759	-23,022	0,142	-0,062
-281,745	-200,000	0,024	-0,116
-280,730	481,662	-0,044	-0,073
-279,716	381,439	-0,047	-0,070
-278,701	224,389	0,066	-0,078
-277,686	-168,515	0,110	0,003
-276,672	151,685	0,084	0,084
-275,657	800,000	0,015	0,045
-274,643	-200,000	-0,038	-0,149
-273,628	493,262	0,006	-0,010
-272,613	-43,373	-0,065	0,024
-271,599	-200,000	0,011	-0,117
-270,584	138,457	-0,068	0,065
-269,570	40,526	-0,011	-0,007
-268,555	572,741	0,022	0,039
-267,540	-46,800	-0,084	-0,030
-266,526	178,716	0,021	-0,023
-265,511	-200,000	-0,026	-0,125
-264,497	800,000	0,037	-0,080
-263,482	169,662	0,020	-0,021
-262,467	209,803	0,040	-0,046
-261,453	-147,097	-0,083	-0,005
-260,438	449,907	-0,042	-0,068
-259,424	-33,277	-0,139	0,056
-258,409	189,405	0,027	-0,030
-257,395	-62,829	0,075	0,022
-256,380	-200,000	0,154	-0,000
-255,365	-200,000	0,008	0,075
-254,351	-200,000	-0,001	0,059
-253,336	800,000	0,049	-0,105
-252,322	100,715	-0,031	-0,026
-251,307	205,948	-0,060	-0,069
-250,292	-200,000	-0,022	-0,118
-249,278	-200,000	0,035	0,152
-248,263	-30,950	0,162	0,066
-247,249	-200,000	0,002	0,050
-246,234	800,000	0,038	0,087
-245,219	-25,880	-0,036	0,015
-244,205	-20,324	-0,049	0,022
-243,190	-42,456	-0,041	0,015
-242,176	-200,000	-0,021	0,092
-241,161	-96,100	0,048	-0,009
-240,146	-33,329	0,037	0,015
-239,132	-4,280	0,099	-0,050
-238,117	-200,000	0,022	0,119
-237,103	88,902	-0,133	-0,108
-236,088	-58,670	0,099	0,031
-235,073	-200,000	0,009	0,099
-234,059	-115,383	0,081	0,011
-233,044	800,000	-0,034	-0,097
-232,030	-200,000	0,002	-0,040
-231,015	165,243	0,028	-0,029
-230,000	121,838	-0,099	-0,091
-228,986	109,710	0,052	0,045
-227,971	391,572	0,072	0,109
-226,957	-89,308	0,253	0,054
-225,942	501,434	-0,082	0,139
-224,927	21,522	-0,123	0,073
-223,913	324,119	-0,044	0,061
-222,898	-200,000	-0,025	-0,082
-221,884	-99,024	0,062	0,011
-220,869	80,237	-0,137	-0,108
-219,855	-120,444	0,111	-0,014
-218,840	57,640	0,059	0,042
-217,825	96,915	-0,062	0,052
-216,811	328,528	-0,046	-0,065
-215,796	27,693	0,096	-0,059
-214,782	-200,000	-0,005	-0,139
-213,767	72,870	0,017	-0,013
-212,752	141,249	0,115	0,111
-211,738	-106,195	0,192	0,031
-210,723	800,000	0,043	0,122
-209,709	170,823	-0,044	0,046
-208,694	-88,883	-0,085	-0,018
-207,679	-200,000	0,015	-0,126
-206,665	-42,079	0,044	0,016
-205,650	272,205	0,063	0,082
-204,636	-12,335	0,069	0,033
-203,621	60,623	0,113	0,081
-202,606	-4,173	-0,020	-0,010
-201,592	-200,000	-0,001	-0,074
-200,577	7,888	0,034	-0,019
-199,563	-200,000	0,014	-0,076
-198,548	-200,000	-0,032	0,235
-197,533	-123,951	0,113	-0,013
-196,519	20,186	0,172	-0,101
-195,504	8,744	-0,130	-0,071
-194,490	800,000	0,045	0,093
-193,475	154,465	-0,047	-0,047
-192,460	-200,000	0,009	-0,045
-191,446	296,559	0,020	-0,026
-190,431	-106,973	0,102	0,016
-189,417	-146,466	-0,096	0,006
-188,402	500,070	0,003	-0,005
-187,387	100,459	0,056	0,048
-186,373	205,266	-0,053	-0,060
-185,358	-45,637	-0,061	0,022
-184,344	-200,000	0,003	-0,029
-183,329	13,007	0,048	0,027
-182,315	143,966	-0,039	0,038
-181,300	54,020	0,146	0,102
-180,285	800,000	-0,023	0,053
-179,271	800,000	0,030	0,075
-178,256	79,379	0,074	-0,057
-177,242	-186,869	-0,115	0,001
-176,227	-181,806	0,040	-0,001
-175,212	-196,903	0,036	0,000
-174,198	-31,587	0,087	0,036
-173,183	315,578	-0,039	0,054
-172,169	-4,870	-0,098	-0,049
-171,154	-109,569	0,115	-0,018
-170,139	114,864	0,139	-0,123
-169,125	89,307	-0,075	0,061
-168,110	800,000	0,021	0,061
-167,096	187,753	0,046	-0,050
-166,081	-200,000	0,017	0,076
-165,066	800,000	0,009	0,018
-164,052	71,842	0,061	0,046
-163,037	213,906	-0,144	-0,166
-162,023	205,481	-0,037	0,042
-161,008	83,373	0,038	-0,030
-159,993	-200,000	0,026	-0,107
-158,979	-200,000	-0,039	-0,140
-157,964	-13,305	-0,130	-0,061
-156,950	437,693	-0,025	-0,039
-155,935	800,000	0,040	0,102
-154,920	800,000	-0,037	0,116
-153,906	-200,000	-0,004	0,085
-152,891	794,222	0,039	0,079
-151,877	-131,593	-0,146	-0,014
-150,862	-59,466	-0,037	0,012
-149,847	800,000	0,056	-0,115
-148,833	-125,882	-0,165	-0,018
-147,818	800,000	-0,056	0,113
-146,804	292,220	0,053	-0,071
-145,789	-90,188	0,127	-0,027
-144,775	-200,000	-0,008	0,039
-143,760	800,000	-0,007	0,021
-142,745	-200,000	0,017	-0,171
-141,731	-91,494	-0,089	-0,018
-140,716	-200,000	0,002	-0,058
-139,702	33,064	-0,119	-0,075
-138,687	526,889	-0,031	0,054
-137,672	-151,637	0,041	-0,002
-136,658	114,085	-0,071	-0,063
-135,643	185,306	0,126	-0,137
-134,629	113,656	-0,063	-0,056
-133,614	197,916	0,036	0,041
-132,599	-43,575	-0,032	0,012
-131,585	8,173	0,086	-0,047
-130,570	-80,768	-0,075	0,018
-129,556	-59,971	-0,101	0,031
-128,541	-35,883	0,099	0,039
-127,526	-22,641	-0,030	0,013
-126,512	451,048	-0,044	0,072
-125,497	445,689	-0,037	0,059
-124,483	-146,482	-0,060	-0,004
-123,468	517,533	0,048	-0,083
-122,453	118,321	0,079	-0,071
-121,439	72,700	-0,223	0,169
-120,424	800,000	-0,030	0,079
