DTS Sentinel unit serial number:	SN410029Multiplexer serial number:	ORYXHardware model number:	OX2-SRSoftware version number:	ORYX F/W v4,00 Oryx Data Collector v3.7.2.0data status	okinstallation	B4 Nyhavnadifferential loss correction	single-endedforward channel	channel 2reverse channel	N/Adate	2023/12/18time	23:35:13forward acquisition time	300,00reverse acquisition time	0,00gamma	499,1914k internal	0,3124k external	0,3124temperature offset calibration	1,0000default loss term (dB/km)	0,3820temperature slope calibration	1,0000multiplexer offset coefficient	1,0000multiplexer slope coefficient	1,0000fibre end	0,00T internal ref (°C)	22,25T ext. ref 1 (°C)	7,70T ext. ref 2 (°C)	7,74length (m)	temperature (°C)	Stokes	anti-Stokes-744,400	-200,000	0,018	-0,097
-743,385	-126,622	-0,090	0,010
-742,371	-174,531	0,097	0,002
-741,356	-28,785	-0,328	0,140
-740,342	800,000	0,037	-0,092
-739,327	-32,512	-0,276	0,114
-738,312	197,539	-0,043	-0,049
-737,298	-172,752	-0,293	0,007
-736,283	800,000	0,025	-0,075
-735,269	376,078	-0,160	0,245
-734,254	195,257	-0,024	-0,028
-733,239	-63,842	-0,290	-0,088
-732,225	-126,408	0,149	-0,016
-731,210	303,218	0,010	0,014
-730,196	-200,000	-0,001	0,096
-729,181	-67,696	0,047	-0,014
-728,167	-115,130	0,068	0,009
-727,152	-200,000	0,003	0,060
-726,137	-136,302	-0,120	-0,010
-725,123	96,477	-0,117	-0,100
-724,108	31,004	0,006	-0,004
-723,094	82,416	-0,047	-0,038
-722,079	285,885	0,065	-0,088
-721,064	-200,000	0,031	-0,173
-720,050	-200,000	0,008	-0,100
-719,035	800,000	0,035	0,078
-718,021	-112,707	-0,074	-0,011
-717,006	113,215	-0,133	0,120
-715,991	-124,612	-0,169	0,019
-714,977	406,415	-0,092	-0,144
-713,962	-200,000	0,004	0,023
-712,948	-140,442	-0,132	-0,010
-711,933	-57,916	0,065	-0,021
-710,918	-200,000	0,003	-0,183
-709,904	-116,913	-0,078	0,010
-708,889	-2,475	-0,051	0,027
-707,875	177,106	0,085	-0,092
-706,860	-124,482	-0,165	-0,019
-705,845	-140,750	0,037	-0,003
-704,831	466,696	-0,072	0,121
-703,816	244,430	-0,048	0,060
-702,802	-35,700	0,036	0,015
-701,787	-200,000	-0,020	0,085
-700,772	-100,371	-0,038	-0,007
-699,758	77,203	0,058	-0,046
-698,743	81,529	0,015	-0,012
-697,729	800,000	-0,009	0,026
-696,714	-142,353	0,128	0,009
-695,699	7,635	-0,060	-0,033
-694,685	210,808	0,017	-0,020
-693,670	-74,757	-0,028	0,008
-692,656	711,878	-0,090	-0,177
-691,641	-198,153	0,081	-0,000
-690,627	-200,000	-0,004	-0,159
-689,612	127,964	0,024	0,023
-688,597	-109,942	-0,097	-0,015
-687,583	-105,000	-0,071	-0,012
-686,568	-200,000	-0,003	-0,050
-685,554	800,000	0,014	-0,044
-684,539	-200,000	0,022	0,109
-683,524	-200,000	0,005	-0,123
-682,510	171,623	-0,115	0,123
-681,495	521,836	-0,012	0,021
-680,481	-121,961	-0,078	-0,009
-679,466	29,051	-0,130	-0,082
-678,451	-39,851	-0,038	-0,015
-677,437	352,361	0,048	0,070
-676,422	-111,198	0,081	0,012
-675,408	170,458	-0,042	0,045
-674,393	-111,940	0,045	0,007
-673,378	800,000	-0,024	-0,061
-672,364	-200,000	-0,000	-0,088
-671,349	800,000	0,048	-0,142
-670,335	-7,366	0,112	-0,056
-669,320	800,000	-0,030	0,081
-668,305	-56,229	-0,102	-0,033
-667,291	-3,736	0,032	-0,017
-666,276	-70,062	-0,165	-0,046
-665,262	-200,000	0,013	-0,159
-664,247	179,712	0,049	0,054
-663,232	191,234	-0,056	-0,063
-662,218	800,000	-0,048	-0,121
-661,203	-63,493	-0,094	0,029
-660,189	800,000	0,022	0,070
-659,174	800,000	0,043	-0,096
-658,159	-200,000	-0,017	-0,101
-657,145	-21,867	0,050	-0,022
-656,130	505,890	0,047	0,081
-655,116	-200,000	-0,038	-0,188
-654,101	-200,000	-0,022	0,074
-653,086	-105,005	-0,140	0,024
-652,072	-200,000	0,014	0,077
-651,057	69,194	0,011	-0,009
-650,043	111,779	0,123	-0,110
-649,028	-200,000	-0,011	-0,092
-648,014	-200,000	0,008	0,098
-646,999	-200,000	-0,020	-0,070
-645,984	-200,000	0,005	0,040
-644,970	-115,337	0,097	-0,013
-643,955	800,000	0,054	-0,171
-642,941	149,085	-0,132	-0,133
-641,926	800,000	-0,007	-0,023
-640,911	33,210	0,085	0,055
-639,897	137,607	0,132	0,128
-638,882	-200,000	-0,013	0,093
-637,868	11,367	-0,014	-0,008
-636,853	112,725	0,115	-0,103
-635,838	76,996	0,021	-0,017
-634,824	-176,067	-0,074	-0,001
-633,809	-88,810	0,204	0,045
-632,795	-200,000	0,017	0,059
-631,780	36,806	0,075	0,049
-630,765	194,003	-0,027	-0,030
-629,751	127,647	-0,077	-0,073
-628,736	800,000	-0,064	-0,160
-627,722	-129,271	-0,084	-0,009
-626,707	800,000	-0,062	0,185
-625,692	-4,881	0,081	-0,041
-624,678	-35,328	0,094	0,038
-623,663	47,880	-0,061	-0,042
-622,649	73,869	-0,055	0,043
-621,634	-23,486	-0,095	-0,042
-620,619	-200,000	-0,030	-0,112
-619,605	-5,691	0,019	-0,010
-618,590	-143,131	0,017	-0,001
-617,576	53,275	0,055	0,039
-616,561	-47,003	-0,025	-0,009
-615,546	224,314	-0,039	-0,047
-614,532	226,567	-0,101	-0,122
-613,517	-200,000	0,002	-0,119
-612,503	11,042	-0,100	-0,057
-611,488	38,301	0,116	0,076
-610,474	198,170	0,063	0,072
-609,459	217,557	0,065	0,077
-608,444	24,592	-0,207	0,127
-607,430	223,825	0,039	-0,046
-606,415	800,000	-0,013	-0,037
-605,401	4,484	0,039	-0,021
-604,386	-107,721	0,049	0,008
-603,371	-119,796	0,056	-0,007
-602,357	-12,334	0,069	0,033
-601,342	137,746	0,063	-0,061
-600,328	-200,000	-0,015	-0,051
-599,313	45,758	-0,076	-0,052
-598,298	4,490	0,179	0,097
-597,284	133,835	-0,034	-0,033
-596,269	-33,714	-0,117	0,048
-595,255	800,000	-0,043	0,116
-594,240	-80,523	-0,063	-0,015
-593,225	635,121	0,039	-0,074
-592,211	498,528	-0,026	-0,045
-591,196	-200,000	0,004	0,159
-590,182	800,000	-0,010	0,032
-589,167	-39,855	-0,192	0,074
-588,152	-161,698	-0,049	0,002
-587,138	-7,893	-0,134	-0,067
-586,123	36,013	-0,160	-0,104
-585,109	250,666	-0,031	-0,039
-584,094	-200,000	0,024	-0,153
-583,079	0,423	-0,112	0,059
-582,065	651,116	-0,045	0,086
-581,050	-23,500	0,019	-0,008
-580,036	-68,815	-0,069	-0,020
-579,021	27,733	-0,113	0,070
-578,006	-141,350	-0,113	-0,008
-576,992	-200,000	-0,010	0,097
-575,977	30,342	0,048	0,030
-574,963	348,041	-0,063	-0,093
-573,948	-200,000	0,007	0,065
-572,934	-200,000	0,027	-0,088
-571,919	-74,002	-0,239	0,064
-570,904	374,636	0,067	-0,101
-569,890	-82,911	0,074	0,017
-568,875	-200,000	0,033	-0,108
-567,861	24,232	-0,084	0,051
-566,846	29,980	-0,090	0,057
-565,831	-109,749	0,119	0,018
-564,817	800,000	-0,061	0,172
-563,802	-20,152	0,142	-0,065
-562,788	413,868	0,040	-0,063
-561,773	-200,000	0,024	-0,124
-560,758	509,586	-0,073	-0,127
-559,744	254,482	-0,055	0,069
-558,729	800,000	0,039	0,087
-557,715	-200,000	-0,011	-0,057
-556,700	-200,000	0,027	-0,185
-555,685	-200,000	0,015	-0,104
-554,671	-200,000	-0,004	0,044
-553,656	-113,087	0,188	0,027
-552,642	110,194	-0,123	0,109
-551,627	-200,000	0,001	-0,085
-550,612	-200,000	-0,006	-0,022
-549,598	611,108	-0,032	-0,059
-548,583	800,000	0,019	-0,049
-547,569	800,000	-0,040	-0,096
-546,554	800,000	0,037	0,097
-545,539	73,002	0,044	0,034
-544,525	800,000	-0,025	0,061
-543,510	-200,000	-0,006	0,055
-542,496	-134,647	-0,035	-0,003
-541,481	524,430	-0,024	-0,042
-540,466	319,505	-0,034	-0,048
-539,452	-2,058	0,021	0,011
-538,437	-200,000	-0,004	0,062
-537,423	-200,000	-0,022	-0,077
-536,408	-14,507	0,065	-0,031
-535,393	-92,592	0,027	-0,006
-534,379	294,335	-0,020	-0,026
-533,364	105,728	-0,104	0,091
-532,350	91,483	0,067	-0,056
-531,335	-178,640	0,086	-0,001
-530,321	-200,000	0,025	0,100
-529,306	673,020	0,024	0,047
-528,291	-95,943	-0,051	0,010
-527,277	114,850	-0,080	0,072
-526,262	76,016	-0,073	-0,057
-525,248	-115,771	0,089	0,012
-524,233	-200,000	0,007	-0,029
-523,218	726,633	-0,074	0,146
-522,204	84,697	-0,037	-0,030
-521,189	800,000	0,029	0,062
-520,175	-169,153	-0,141	-0,004
-519,160	-200,000	0,002	-0,016
-518,145	-108,076	0,084	0,013
-517,131	-200,000	0,002	0,044
-516,116	-93,477	-0,027	0,005
-515,102	-31,354	0,057	0,024
-514,087	-12,325	0,069	0,033
-513,072	671,084	-0,117	-0,224
-512,058	-200,000	0,002	0,118
-511,043	-164,285	0,159	0,005
-510,029	518,379	0,062	0,108
-509,014	-53,580	-0,050	0,017
-507,999	480,891	-0,044	-0,074
-506,985	139,584	-0,087	-0,085
-505,970	33,235	-0,043	0,027
-504,956	242,456	0,075	-0,093
-503,941	220,070	-0,069	0,082
-502,926	269,594	0,095	0,124
-501,912	9,366	0,047	-0,026
-500,897	-200,000	-0,028	0,149
-499,883	69,682	-0,102	-0,078
-498,868	206,059	-0,082	0,094
-497,853	800,000	-0,067	-0,193
-496,839	-200,000	-0,002	-0,036
-495,824	-200,000	0,010	0,056
-494,810	6,197	0,043	0,024
-493,795	-105,292	-0,024	-0,004
-492,781	110,887	0,101	0,090
-491,766	-151,930	-0,065	-0,003
-490,751	6,928	-0,046	-0,025
-489,737	523,039	-0,033	-0,057
-488,722	-46,460	0,151	-0,054
-487,708	165,355	0,089	0,093
-486,693	503,587	0,032	-0,055
-485,678	190,665	0,043	-0,048
-484,664	659,376	-0,053	0,101
-483,649	-200,000	-0,010	0,056
-482,635	800,000	-0,007	0,021
-481,620	289,621	0,056	0,075
-480,605	800,000	-0,058	0,131
-479,591	166,729	0,095	-0,099
-478,576	34,330	0,022	0,014
-477,562	-200,000	-0,016	-0,080
-476,547	599,880	0,041	-0,075
-475,532	-60,461	-0,198	0,062
-474,518	-72,663	-0,024	-0,006
-473,503	-116,970	0,067	0,009
-472,489	140,652	0,076	0,074
-471,474	382,127	0,029	0,044
-470,459	124,849	-0,028	0,026
-469,445	-200,000	-0,010	-0,103
-468,430	-1,134	-0,172	-0,089
-467,416	800,000	0,056	0,145
-466,401	471,717	-0,041	-0,068
-465,386	-152,472	0,079	0,004
-464,372	-200,000	-0,003	-0,050
-463,357	-200,000	0,012	-0,044
-462,343	800,000	-0,037	0,086
-461,328	605,510	-0,046	0,084
-460,313	95,859	0,052	-0,044
-459,299	-2,254	-0,092	-0,047
-458,284	800,000	-0,010	0,021
-457,270	-42,596	0,023	-0,009
-456,255	800,000	0,028	-0,080
-455,241	-112,704	-0,067	0,010
-454,226	-82,163	-0,136	-0,032
-453,211	-200,000	-0,000	0,104
-452,197	-200,000	0,027	0,123
-451,182	800,000	-0,015	-0,042
-450,168	800,000	-0,085	0,198
-449,153	70,851	0,041	-0,031
-448,138	-200,000	-0,005	0,077
-447,124	205,127	0,019	0,022
-446,109	40,270	0,063	-0,041
-445,095	-5,742	0,174	-0,087
-444,080	800,000	-0,091	0,201
-443,065	277,914	-0,017	-0,022
-442,051	393,234	0,048	0,074
-441,036	-200,000	-0,025	-0,086
-440,022	-200,000	0,005	0,030
-439,007	-14,815	-0,074	-0,035
-437,992	800,000	0,035	0,105
-436,978	800,000	0,044	0,116
-435,963	-103,398	-0,021	-0,004
-434,949	219,668	-0,040	-0,047
-433,934	769,973	-0,010	0,021
-432,919	-176,938	-0,019	-0,000
-431,905	-200,000	0,026	0,087
-430,890	544,856	0,088	-0,156
-429,876	221,651	-0,062	-0,073
-428,861	-81,185	0,048	-0,012
-427,846	415,647	-0,054	-0,085
-426,832	240,993	-0,084	-0,104
-425,817	-200,000	-0,020	-0,087
-424,803	-115,220	0,021	0,003
-423,788	-26,242	0,069	-0,030
-422,773	463,135	0,037	-0,061
-421,759	-200,000	0,030	-0,211
-420,744	404,312	0,048	-0,075
-419,730	-160,630	-0,120	0,005
-418,715	9,827	-0,054	-0,030
-417,701	800,000	0,056	-0,148
-416,686	72,119	-0,024	-0,018
-415,671	257,415	0,015	-0,019
-414,657	58,762	-0,040	-0,029
-413,642	-168,633	0,091	-0,003
-412,628	-164,705	-0,092	0,003
-411,613	35,323	-0,106	0,068
-410,598	42,877	-0,090	0,060
-409,584	50,667	0,116	-0,081
-408,569	362,189	0,056	0,082
-407,555	24,104	-0,135	0,082
-406,540	124,323	-0,102	0,095
-405,525	401,621	-0,015	0,024
-404,511	263,943	-0,062	-0,080
-403,496	207,206	-0,066	-0,076
-402,482	-78,755	0,126	0,031
-401,467	200,583	-0,137	0,155
-400,452	281,857	-0,056	0,074
-399,438	111,103	0,079	-0,070
-398,423	800,000	-0,004	-0,008
-397,409	67,495	0,111	-0,083
-396,394	548,926	-0,091	-0,162
-395,379	-82,722	0,054	-0,013
-394,365	800,000	0,033	0,077
-393,350	164,932	-0,111	0,115
-392,336	601,440	0,070	-0,128
-391,321	800,000	0,030	0,083
-390,306	324,075	0,087	-0,122
-389,292	-61,890	0,022	-0,007
-388,277	525,413	0,046	0,080
-387,263	-155,173	0,075	0,004
-386,248	800,000	-0,063	0,139
-385,233	490,968	-0,021	0,035
-384,219	800,000	0,049	0,102
-383,204	108,467	0,153	-0,134
-382,190	47,030	-0,145	-0,099
-381,175	-200,000	0,024	-0,091
-380,160	-200,000	0,019	0,154
-379,146	49,110	0,072	-0,049
-378,131	-22,721	-0,138	-0,061
-377,117	-200,000	0,015	0,157
-376,102	-200,000	-0,004	-0,073
-375,088	3,956	-0,032	-0,017
-374,073	-89,692	-0,028	-0,006
-373,058	124,642	0,032	0,029
-372,044	-31,906	0,056	-0,023
-371,029	-11,111	0,023	-0,011
-370,015	-200,000	-0,006	0,034
-369,000	-57,518	-0,143	0,046
-367,985	-89,304	-0,116	0,025
-366,971	192,869	-0,018	-0,021
-365,956	418,625	0,033	0,053
-364,942	-10,808	-0,110	0,053
-363,927	-200,000	-0,018	0,131
-362,912	-67,837	0,074	-0,021
-361,898	-26,445	0,112	-0,048
-360,883	-137,512	-0,107	-0,009
-359,869	-200,000	-0,002	-0,126
-358,854	-118,516	-0,157	-0,020
-357,839	-175,070	-0,071	-0,001
-356,825	-35,973	0,038	-0,015
-355,810	83,946	0,114	-0,091
-354,796	-83,406	-0,060	0,014
-353,781	688,396	-0,018	-0,035
-352,766	-200,000	0,018	-0,059
-351,752	800,000	-0,022	0,051
-350,737	8,240	0,092	0,051
-349,723	156,224	0,026	-0,026
-348,708	307,970	-0,041	-0,056
-347,693	631,824	-0,055	0,103
-346,679	6,649	-0,105	-0,057
-345,664	-100,883	-0,079	-0,014
-344,650	69,053	0,122	0,092
-343,635	-200,000	-0,012	-0,095
-342,620	177,477	-0,066	0,070
-341,606	70,229	0,111	-0,084
-340,591	23,106	0,054	0,032
-339,577	-101,153	0,165	0,029
-338,562	18,321	0,065	-0,038
-337,548	-90,213	-0,086	-0,018
-336,533	222,779	0,189	0,224
-335,518	-200,000	-0,020	0,155
-334,504	361,744	-0,059	0,087
-333,489	148,082	0,142	0,140
-332,475	58,860	-0,120	-0,087
-331,460	130,777	0,084	-0,079
-330,445	-200,000	0,015	-0,200
-329,431	-200,000	0,035	0,118
-328,416	8,945	0,070	-0,038
-327,402	-200,000	0,057	0,248
-326,387	-91,470	-0,069	-0,014
-325,372	172,791	-0,052	-0,054
-324,358	-17,636	0,014	-0,006
-323,343	-200,000	-0,021	-0,112
-322,329	136,220	0,064	0,061
-321,314	800,000	-0,029	-0,088
-320,299	-71,524	-0,081	-0,022
-319,285	-32,655	-0,072	0,029
-318,270	41,541	0,111	-0,073
-317,256	743,307	-0,060	-0,119
-316,241	-40,760	0,066	0,025
-315,226	800,000	0,053	0,160
-314,212	-200,000	0,016	-0,085
-313,197	-200,000	0,000	-0,023
-312,183	231,216	-0,065	-0,078
-311,168	91,900	0,105	-0,087
-310,153	-162,284	-0,108	0,004
-309,139	-200,000	0,026	0,101
-308,124	-76,548	-0,063	-0,016
-307,110	-84,639	0,066	-0,015
-306,095	800,000	0,041	-0,089
-305,080	-81,213	0,050	0,012
-304,066	-200,000	-0,008	0,030
-303,051	-145,354	0,072	-0,005
-302,037	800,000	0,037	-0,083
-301,022	800,000	0,020	-0,059
-300,008	63,486	0,034	0,025
-298,993	-39,733	-0,096	0,037
-297,978	603,769	-0,035	0,065
-296,964	-7,882	0,103	0,051
-295,949	800,000	-0,025	-0,064
-294,935	-200,000	-0,001	0,034
-293,920	251,855	0,032	0,040
-292,905	-81,764	0,211	0,050
-291,891	-122,970	0,144	0,017
-290,876	25,106	-0,038	0,023
-289,862	-200,000	-0,026	0,093
-288,847	10,908	0,066	-0,037
-287,832	56,506	-0,082	0,058
-286,818	586,768	0,033	0,059
-285,803	-185,656	0,038	0,000
-284,789	800,000	0,071	0,165
-283,774	317,294	0,011	0,016
-282,759	158,016	0,020	0,021
-281,745	124,234	0,078	-0,072
-280,730	-200,000	-0,007	-0,092
-279,716	-200,000	-0,020	-0,121
-278,701	800,000	0,019	-0,055
-277,686	-158,539	0,145	0,006
-276,672	212,505	0,033	0,038
-275,657	707,000	0,048	0,092
-274,643	-93,685	0,057	0,011
-273,628	367,872	-0,048	-0,071
-272,613	70,072	-0,051	0,039
-271,599	-200,000	0,006	0,036
-270,584	235,914	0,104	-0,126
-269,570	-9,205	-0,051	-0,025
-268,555	800,000	-0,034	0,095
-267,540	19,039	-0,105	0,061
-266,526	31,093	0,081	-0,051
-265,511	194,728	-0,046	0,051
-264,497	-200,000	-0,001	0,024
-263,482	56,469	-0,062	0,044
-262,467	-123,082	0,044	0,005
-261,453	573,144	0,009	-0,017
-260,438	114,557	-0,026	0,023
-259,424	54,178	-0,100	-0,070
-258,409	30,262	0,028	0,017
-257,395	-200,000	-0,002	-0,091
-256,380	-31,470	0,078	0,032
-255,365	103,226	0,103	0,089
-254,351	8,951	-0,047	0,026
-253,336	-200,000	-0,011	-0,077
-252,322	702,562	0,040	-0,077
-251,307	800,000	-0,012	0,032
-250,292	-119,921	-0,068	0,008
-249,278	97,620	0,044	0,037
-248,263	13,011	0,048	-0,027
-247,249	-200,000	0,007	0,033
-246,234	9,946	-0,137	-0,076
-245,219	-91,574	-0,076	-0,016
-244,205	12,544	0,109	-0,062
-243,190	110,706	0,151	-0,133
-242,176	-200,000	0,002	0,085
-241,161	-200,000	-0,018	0,063
-240,146	-200,000	0,008	-0,060
-239,132	-130,278	0,112	0,011
-238,117	1,492	-0,115	-0,060
-237,103	46,610	0,038	-0,026
-236,088	800,000	0,044	0,128
-235,073	-107,798	0,127	0,020
-234,059	-200,000	-0,006	0,086
-233,044	-12,721	0,074	0,035
-232,030	-33,116	-0,037	0,015
-231,015	-200,000	-0,014	0,049
-230,000	-111,845	-0,140	0,020
-228,986	-16,618	-0,038	-0,018
-227,971	467,492	0,034	-0,055
-226,957	-1,469	0,179	-0,092
-225,942	800,000	-0,034	-0,082
-224,927	197,831	0,088	0,099
-223,913	-106,398	-0,106	-0,017
-222,898	-200,000	0,025	-0,155
-221,884	-151,825	0,117	-0,006
-220,869	-123,993	0,048	0,005
-219,855	220,667	0,073	0,086
-218,840	-17,301	0,123	0,056
-217,825	800,000	0,041	-0,108
-216,811	116,937	-0,073	0,066
-215,796	-200,000	0,010	-0,032
-214,782	75,102	0,070	0,054
-213,767	372,919	0,063	-0,095
-212,752	506,093	0,019	-0,032
-211,738	800,000	0,060	0,134
-210,723	800,000	0,027	0,059
-209,709	-56,301	-0,121	-0,039
-208,694	470,467	-0,064	-0,106
-207,679	326,270	-0,132	0,185
-206,665	-183,249	0,019	-0,000
-205,650	271,898	0,085	-0,109
-204,636	211,836	0,070	0,081
-203,621	800,000	-0,030	0,083
-202,606	164,079	-0,063	0,065
-201,592	-148,139	0,037	-0,002
-200,577	-175,764	-0,106	0,002
-199,563	-200,000	-0,010	-0,176
-198,548	-200,000	0,000	0,009
-197,533	-170,505	-0,057	-0,001
-196,519	543,067	0,023	0,041
-195,504	-200,000	-0,029	-0,116
-194,490	-68,728	-0,137	-0,038
-193,475	157,031	0,014	-0,014
-192,460	66,347	-0,035	-0,026
-191,446	593,298	-0,015	0,028
-190,431	-34,795	0,155	0,061
-189,417	432,610	-0,065	0,103
-188,402	-200,000	0,007	-0,131
-187,387	-72,559	-0,154	-0,041
-186,373	-139,885	0,060	-0,005
-185,358	755,053	0,034	-0,067
-184,344	800,000	0,019	-0,040
-183,329	-200,000	-0,022	0,117
-182,315	800,000	-0,007	0,016
-181,300	154,038	-0,025	-0,025
-180,285	3,599	0,122	0,065
-179,271	330,972	0,126	-0,177
-178,256	-138,528	-0,126	0,010
-177,242	-8,622	-0,025	-0,012
-176,227	-200,000	0,020	-0,167
-175,212	-200,000	0,007	-0,064
-174,198	-126,654	-0,124	0,013
-173,183	-200,000	-0,007	0,103
-172,169	82,970	-0,085	-0,067
-171,154	50,798	0,132	-0,091
-170,139	521,317	-0,057	0,098
-169,125	800,000	-0,063	0,169
-168,110	-78,122	0,035	0,009
-167,096	800,000	-0,044	0,124
-166,081	-112,046	0,040	0,006
-165,066	-22,646	0,022	-0,010
-164,052	124,782	-0,079	0,073
-163,037	-200,000	0,015	0,060
-162,023	108,957	0,058	0,050
-161,008	200,810	0,079	0,088
-159,993	52,958	0,051	0,036
-158,979	-200,000	-0,012	-0,066
-157,964	-200,000	0,012	-0,097
-156,950	800,000	-0,024	0,075
-155,935	422,367	0,021	-0,033
-154,920	-3,824	-0,087	-0,044
-153,906	-0,672	0,013	-0,007
-152,891	-145,517	-0,100	0,006
-151,877	-200,000	-0,004	-0,125
-150,862	708,217	-0,042	-0,081
-149,847	-35,031	-0,059	0,023
-148,833	-90,792	0,076	-0,016
-147,818	-119,718	-0,132	0,016
-146,804	-157,052	0,037	-0,002
-145,789	-200,000	-0,024	0,171
-144,775	800,000	-0,009	-0,025
-143,760	-4,972	0,070	-0,035
-142,745	37,172	0,065	0,042
-141,731	-200,000	-0,001	-0,128
-140,716	212,521	-0,046	0,053
-139,702	146,290	-0,045	0,044
-138,687	-52,710	-0,113	0,038
-137,672	-200,000	0,032	0,165
-136,658	6,341	-0,111	0,060
-135,643	-30,690	-0,023	-0,009
-134,629	800,000	-0,036	0,114
-133,614	218,160	0,102	0,119
-132,599	-65,845	-0,081	0,023
-131,585	70,766	-0,023	-0,017
-130,570	-19,615	-0,094	0,042
-129,556	51,013	-0,015	-0,010
-128,541	800,000	-0,039	0,085
-127,526	-200,000	-0,002	0,106
-126,512	-81,372	0,041	0,010
-125,497	81,353	-0,079	0,062
-124,483	800,000	-0,011	-0,031
-123,468	800,000	0,028	0,064
-122,453	-184,029	-0,108	0,001
-121,439	131,175	-0,038	0,036
-120,424	-200,000	-0,013	0,113
-119,410	152,744	0,072	-0,071
