DTS Sentinel unit serial number:	SN410029Multiplexer serial number:	ORYXHardware model number:	OX2-SRSoftware version number:	ORYX F/W v4,00 Oryx Data Collector v3.7.2.0data status	okinstallation	B4 Nyhavnadifferential loss correction	single-endedforward channel	channel 2reverse channel	N/Adate	2023/12/19time	04:35:13forward acquisition time	300,00reverse acquisition time	0,00gamma	499,1914k internal	0,3126k external	0,3126temperature offset calibration	1,0000default loss term (dB/km)	0,3820temperature slope calibration	1,0000multiplexer offset coefficient	1,0000multiplexer slope coefficient	1,0000fibre end	0,00T internal ref (°C)	20,93T ext. ref 1 (°C)	6,18T ext. ref 2 (°C)	6,32length (m)	temperature (°C)	Stokes	anti-Stokes-744,400	-145,506	-0,095	-0,006
-743,385	12,247	-0,245	-0,140
-742,371	325,256	0,080	-0,114
-741,356	-72,821	-0,259	0,071
-740,342	246,468	0,080	-0,101
-739,327	49,636	-0,302	0,211
-738,312	-200,000	0,002	-0,117
-737,298	-132,597	-0,293	0,028
-736,283	-0,884	0,066	0,034
-735,269	31,807	-0,254	0,163
-734,254	-200,000	-0,043	0,211
-733,239	-45,246	-0,296	-0,109
-732,225	-200,000	-0,005	0,157
-731,210	448,174	0,094	0,155
-730,196	800,000	-0,053	-0,123
-729,181	178,316	-0,047	-0,051
-728,167	405,575	0,038	-0,060
-727,152	17,625	-0,075	-0,044
-726,137	326,775	-0,054	0,077
-725,123	800,000	-0,027	0,071
-724,108	21,229	-0,069	0,041
-723,094	-66,328	-0,075	0,022
-722,079	800,000	0,051	-0,144
-721,064	125,540	-0,202	-0,190
-720,050	-114,965	0,059	-0,008
-719,035	37,839	0,116	-0,076
-718,021	-200,000	-0,035	-0,121
-717,006	-102,128	-0,059	-0,011
-715,991	137,878	0,051	-0,050
-714,977	183,488	-0,074	0,082
-713,962	113,955	0,061	-0,055
-712,948	-171,725	-0,052	0,001
-711,933	-200,000	0,038	0,177
-710,918	-74,426	0,036	-0,010
-709,904	203,194	-0,050	0,058
-708,889	-200,000	-0,005	0,026
-707,875	-200,000	0,012	0,098
-706,860	122,452	0,069	0,064
-705,845	414,991	0,051	0,081
-704,831	800,000	0,042	-0,087
-703,816	800,000	-0,029	0,073
-702,802	27,036	-0,107	-0,066
-701,787	609,263	-0,029	-0,054
-700,772	114,383	0,032	-0,029
-699,758	-157,160	0,057	0,003
-698,743	440,250	0,014	0,022
-697,729	-200,000	0,036	0,164
-696,714	-200,000	-0,016	-0,060
-695,699	10,528	0,133	0,075
-694,685	485,993	-0,063	-0,107
-693,670	53,072	-0,119	-0,084
-692,656	800,000	0,019	-0,057
-691,641	800,000	0,011	-0,032
-690,627	-124,449	-0,056	0,006
-689,612	492,068	0,034	-0,058
-688,597	517,796	-0,039	0,067
-687,583	-200,000	-0,018	0,115
-686,568	-177,003	0,051	0,001
-685,554	336,222	-0,024	0,035
-684,539	121,434	-0,019	-0,017
-683,524	800,000	0,031	0,067
-682,510	566,297	0,030	-0,054
-681,495	-131,635	0,072	0,007
-680,481	-200,000	-0,020	0,066
-679,466	21,720	-0,156	-0,094
-678,451	43,874	-0,061	0,042
-677,437	407,905	0,074	-0,117
-676,422	-54,984	-0,117	-0,039
-675,408	-31,759	-0,035	-0,015
-674,393	140,845	-0,071	-0,070
-673,378	-21,514	0,025	0,011
-672,364	-47,657	-0,068	-0,024
-671,349	-71,686	-0,097	-0,027
-670,335	199,286	0,009	-0,010
-669,320	120,962	-0,065	-0,060
-668,305	55,541	-0,114	0,082
-667,291	800,000	0,014	-0,042
-666,276	-9,459	-0,106	-0,053
-665,262	-103,656	-0,097	0,017
-664,247	-17,143	0,021	-0,010
-663,232	-200,000	0,000	-0,070
-662,218	435,863	-0,121	-0,195
-661,203	-200,000	-0,001	-0,010
-660,189	-200,000	-0,023	-0,080
-659,174	800,000	-0,047	-0,105
-658,159	37,113	-0,039	0,025
-657,145	12,966	-0,088	0,050
-656,130	128,727	-0,030	-0,028
-655,116	-200,000	0,001	-0,084
-654,101	-200,000	-0,026	0,095
-653,086	-200,000	-0,004	0,044
-652,072	754,310	-0,035	0,071
-651,057	800,000	-0,024	-0,075
-650,043	238,121	0,024	0,030
-649,028	-97,358	0,125	0,024
-648,014	21,949	0,080	0,048
-646,999	-200,000	0,013	-0,090
-645,984	72,195	-0,113	-0,087
-644,970	-200,000	0,001	-0,073
-643,955	-144,024	0,124	0,008
-642,941	40,962	-0,135	-0,090
-641,926	167,059	-0,063	0,066
-640,911	154,426	-0,042	-0,043
-639,897	381,162	0,027	-0,042
-638,882	283,890	0,029	0,039
-637,868	-200,000	-0,003	0,038
-636,853	-109,111	-0,113	0,018
-635,838	-13,044	0,184	-0,088
-634,824	120,935	0,020	0,018
-633,809	-200,000	0,019	0,098
-632,795	357,722	-0,053	-0,079
-631,780	-200,000	0,003	0,050
-630,765	140,131	0,066	0,064
-629,751	206,717	-0,083	-0,097
-628,736	106,450	-0,043	-0,038
-627,722	-76,224	0,125	0,032
-626,707	251,734	0,092	-0,117
-625,692	-49,564	0,020	0,007
-624,678	90,771	-0,097	0,080
-623,663	115,343	-0,041	0,037
-622,649	800,000	-0,062	-0,135
-621,634	-200,000	0,004	-0,107
-620,619	-200,000	0,017	-0,162
-619,605	-200,000	0,013	-0,127
-618,590	-101,176	0,114	0,021
-617,576	-35,457	0,056	0,022
-616,561	389,498	0,043	-0,066
-615,546	-170,205	-0,073	-0,002
-614,532	-200,000	-0,079	0,000
-613,517	34,881	-0,094	-0,061
-612,503	-171,329	0,052	-0,001
-611,488	203,532	0,017	0,019
-610,474	795,733	0,037	0,075
-609,459	-91,909	-0,041	0,009
-608,444	112,587	-0,072	0,065
-607,430	-37,061	-0,084	-0,033
-606,415	134,808	-0,069	0,066
-605,401	-31,287	0,069	-0,029
-604,386	285,984	-0,071	-0,096
-603,371	344,489	0,103	-0,150
-602,357	-200,000	0,023	0,090
-601,342	35,749	-0,094	-0,061
-600,328	-175,380	0,132	0,003
-599,313	800,000	-0,037	-0,111
-598,298	-200,000	-0,036	0,124
-597,284	70,044	0,091	0,070
-596,269	-4,566	-0,017	-0,009
-595,255	-11,976	-0,098	0,047
-594,240	192,085	-0,070	-0,078
-593,225	116,598	-0,070	0,064
-592,211	-64,194	-0,058	0,017
-591,196	-29,438	-0,102	-0,043
-590,182	326,293	0,096	-0,136
-589,167	-200,000	0,016	0,278
-588,152	-122,705	-0,125	-0,015
-587,138	-31,131	-0,096	0,040
-586,123	-97,196	0,024	0,005
-585,109	-112,913	-0,131	0,019
-584,094	-37,454	-0,061	0,024
-583,079	267,632	-0,098	-0,127
-582,065	59,227	-0,077	0,056
-581,050	-174,584	0,206	-0,004
-580,036	-134,804	-0,161	-0,014
-579,021	-198,898	0,121	-0,000
-578,006	800,000	-0,072	-0,152
-576,992	-200,000	-0,011	-0,098
-575,977	208,164	0,044	0,050
-574,963	-200,000	-0,007	0,037
-573,948	800,000	0,035	0,102
-572,934	-200,000	0,020	-0,124
-571,919	375,922	0,051	0,078
-570,904	-200,000	-0,013	-0,089
-569,890	-33,793	-0,053	-0,021
-568,875	357,578	0,044	-0,065
-567,861	800,000	0,045	0,137
-566,846	-200,000	0,014	0,098
-565,831	-143,581	-0,187	-0,013
-564,817	29,010	0,068	-0,042
-563,802	-200,000	0,006	-0,098
-562,788	167,848	-0,054	-0,057
-561,773	41,626	0,071	0,048
-560,758	-85,904	-0,091	-0,021
-559,744	556,625	0,068	0,121
-558,729	-200,000	-0,003	0,172
-557,715	800,000	-0,021	-0,048
-556,700	104,872	-0,092	0,080
-555,685	-200,000	0,017	0,117
-554,671	-200,000	0,023	-0,189
-553,656	-200,000	-0,003	0,020
-552,642	-200,000	-0,001	-0,005
-551,627	-200,000	-0,009	-0,088
-550,612	-106,898	-0,058	-0,009
-549,598	267,676	0,071	-0,092
-548,583	107,808	-0,082	0,072
-547,569	-200,000	0,022	0,108
-546,554	364,108	0,086	0,129
-545,539	518,547	0,066	-0,115
-544,525	191,443	0,080	-0,089
-543,510	34,997	-0,192	-0,124
-542,496	-64,580	-0,077	0,023
-541,481	645,186	-0,039	0,075
-540,466	44,583	-0,065	0,044
-539,452	3,223	0,096	-0,052
-538,437	-157,650	-0,121	-0,005
-537,423	-68,319	0,037	0,011
-536,408	273,056	-0,019	0,024
-535,393	-116,538	-0,144	-0,019
-534,379	-81,160	-0,138	0,033
-533,364	-200,000	-0,009	-0,116
-532,350	-200,000	-0,023	0,075
-531,335	800,000	0,015	0,031
-530,321	31,452	-0,089	0,056
-529,306	36,331	-0,061	-0,040
-528,291	-159,846	-0,064	-0,003
-527,277	-113,676	0,006	-0,001
-526,262	-200,000	0,020	0,084
-525,248	24,880	0,124	-0,076
-524,233	387,963	0,042	0,065
-523,218	-146,177	-0,029	0,002
-522,204	342,609	0,039	0,057
-521,189	-200,000	-0,002	-0,006
-520,175	512,555	-0,042	-0,072
-519,160	-32,521	-0,125	0,051
-518,145	-2,591	0,072	-0,037
-517,131	3,891	0,030	0,016
-516,116	-92,350	0,058	0,012
-515,102	-200,000	0,001	-0,061
-514,087	445,697	-0,067	-0,108
-513,072	-126,613	0,096	-0,010
-512,058	-200,000	0,013	-0,050
-511,043	-200,000	-0,001	-0,125
-510,029	-200,000	0,011	0,148
-509,014	-200,000	0,055	0,210
-507,999	30,839	-0,093	0,058
-506,985	-200,000	-0,012	-0,140
-505,970	257,518	-0,038	-0,048
-504,956	87,690	-0,076	-0,062
-503,941	105,990	0,106	0,092
-502,926	297,410	0,049	-0,066
-501,912	800,000	0,022	0,055
-500,897	-200,000	0,018	0,140
-499,883	-200,000	0,004	-0,018
-498,868	-109,322	0,078	0,012
-497,853	110,356	-0,029	0,026
-496,839	-80,013	0,065	0,016
-495,824	800,000	0,027	0,068
-494,810	247,927	0,061	0,076
-493,795	-200,000	-0,041	0,231
-492,781	289,904	-0,021	0,028
-491,766	751,807	0,039	0,078
-490,751	18,803	-0,108	-0,064
-489,737	-101,236	-0,100	0,018
-488,722	-200,000	0,013	0,071
-487,708	532,389	-0,011	-0,020
-486,693	79,131	0,012	0,009
-485,678	800,000	0,050	0,108
-484,664	52,798	-0,092	-0,065
-483,649	-10,686	-0,063	-0,030
-482,635	-200,000	-0,013	-0,097
-481,620	129,455	-0,042	-0,040
-480,605	-200,000	0,001	0,019
-479,591	92,513	0,053	-0,044
-478,576	42,102	-0,011	-0,008
-477,562	-103,472	0,114	-0,020
-476,547	-200,000	-0,025	-0,111
-475,532	185,672	0,083	-0,091
-474,518	800,000	-0,019	0,046
-473,503	-45,852	0,052	0,019
-472,489	-200,000	0,004	-0,119
-471,474	-103,480	0,072	0,012
-470,459	721,435	0,026	-0,051
-469,445	-200,000	-0,042	-0,142
-468,430	-200,000	-0,005	-0,092
-467,416	293,663	0,059	-0,080
-466,401	12,580	0,096	0,054
-465,386	266,189	0,080	0,103
-464,372	-33,108	0,076	-0,031
-463,357	-172,340	-0,072	-0,002
-462,343	61,616	0,042	0,030
-461,328	-80,962	-0,019	-0,005
-460,313	-103,554	-0,074	-0,013
-459,299	-200,000	0,001	0,006
-458,284	-49,668	0,098	-0,034
-457,270	-143,250	0,081	0,006
-456,255	538,180	-0,029	-0,052
-455,241	60,843	0,057	-0,041
-454,226	363,569	-0,051	-0,076
-453,211	32,872	-0,107	0,068
-452,197	-124,738	0,106	-0,012
-451,182	-200,000	0,005	-0,022
-450,168	41,909	0,102	0,068
-449,153	800,000	-0,019	0,049
-448,138	-200,000	-0,147	0,000
-447,124	-200,000	0,025	-0,153
-446,109	800,000	-0,068	-0,176
-445,095	223,537	0,050	0,060
-444,080	89,843	0,188	0,155
-443,065	-200,000	0,012	-0,090
-442,051	800,000	-0,019	0,048
-441,036	-200,000	0,004	0,044
-440,022	747,427	-0,071	-0,142
-439,007	139,620	-0,020	0,019
-437,992	-47,310	0,113	-0,040
-436,978	800,000	-0,085	-0,192
-435,963	25,590	0,122	0,074
-434,949	800,000	0,016	-0,040
-433,934	121,153	-0,088	-0,081
-432,919	343,945	0,093	0,134
-431,905	25,956	-0,075	0,046
-430,890	-128,942	-0,022	-0,002
-429,876	-81,875	-0,076	0,018
-428,861	-84,315	0,108	-0,025
-427,846	13,451	0,100	-0,057
-426,832	113,249	-0,092	-0,082
-425,817	-200,000	-0,001	-0,073
-424,803	800,000	0,033	0,069
-423,788	482,819	-0,031	0,052
-422,773	-200,000	-0,006	-0,056
-421,759	64,294	0,027	-0,020
-420,744	-35,079	-0,083	-0,033
-419,730	-23,869	-0,031	0,013
-418,715	738,755	-0,049	-0,098
-417,701	103,177	0,029	0,025
-416,686	-200,000	-0,009	0,103
-415,671	-102,117	0,058	0,010
-414,657	123,528	0,038	-0,035
-413,642	-56,219	0,164	0,053
-412,628	100,956	0,106	0,091
-411,613	800,000	-0,035	-0,102
-410,598	-164,149	0,093	0,003
-409,584	-47,440	0,056	0,020
-408,569	-83,056	0,122	0,029
-407,555	284,437	0,110	-0,146
-406,540	-200,000	0,001	0,019
-405,525	-166,233	0,045	-0,001
-404,511	-61,192	-0,013	-0,004
-403,496	-200,000	-0,018	-0,100
-402,482	-200,000	0,013	0,045
-401,467	175,416	0,038	-0,040
-400,452	-62,057	0,100	-0,031
-399,438	509,568	-0,040	0,068
-398,423	55,506	-0,090	-0,064
-397,409	-99,113	-0,019	-0,003
-396,394	-59,219	0,009	0,003
-395,379	800,000	0,059	0,188
-394,365	5,816	-0,116	0,063
-393,350	6,843	0,067	0,036
-392,336	-37,801	0,086	-0,033
-391,321	-45,204	0,067	-0,024
-390,306	712,689	-0,026	-0,052
-389,292	128,499	-0,098	0,091
-388,277	-105,368	-0,043	-0,007
-387,263	800,000	-0,018	0,058
-386,248	-200,000	-0,003	-0,069
-385,233	-102,802	-0,130	-0,023
-384,219	35,868	-0,091	0,058
-383,204	-200,000	0,021	0,109
-382,190	-108,428	0,098	-0,015
-381,175	65,588	-0,136	0,101
-380,160	131,643	-0,116	-0,110
-379,146	-200,000	-0,052	-0,182
-378,131	-43,386	0,026	0,010
-377,117	800,000	0,046	0,143
-376,102	-124,019	-0,064	-0,007
-375,088	189,915	-0,060	0,066
-374,073	103,638	0,052	0,045
-373,058	800,000	-0,015	-0,047
-372,044	52,019	-0,039	0,027
-371,029	-77,682	0,020	-0,005
-370,015	299,175	0,060	-0,082
-369,000	-200,000	-0,028	0,247
-367,985	-155,012	0,101	-0,005
-366,971	-200,000	0,011	-0,042
-365,956	20,371	0,121	0,072
-364,942	-200,000	0,051	0,186
-363,927	-200,000	0,015	0,114
-362,912	411,096	0,051	0,080
-361,898	243,375	0,021	-0,026
-360,883	-200,000	-0,025	-0,157
-359,869	543,457	0,020	-0,035
-358,854	-79,470	-0,037	-0,009
-357,839	-94,022	-0,115	0,023
-356,825	-200,000	0,005	0,093
-355,810	178,046	0,062	0,066
-354,796	52,370	-0,055	-0,039
-353,781	638,995	0,109	-0,204
-352,766	388,948	-0,056	-0,085
-351,752	-168,952	-0,099	0,003
-350,737	455,887	-0,059	0,096
-349,723	-200,000	-0,028	0,122
-348,708	800,000	0,015	-0,035
-347,693	565,949	-0,039	0,069
-346,679	-70,087	-0,107	0,030
-345,664	404,095	-0,075	-0,116
-344,650	-200,000	0,000	0,039
-343,635	604,478	0,069	0,126
-342,620	-200,000	-0,012	0,069
-341,606	8,491	-0,094	-0,051
-340,591	49,864	0,059	0,041
-339,577	-119,739	0,027	0,003
-338,562	800,000	-0,031	-0,092
-337,548	675,010	0,072	0,137
-336,533	145,068	0,100	-0,098
-335,518	-200,000	-0,021	-0,072
-334,504	-12,513	-0,062	0,030
-333,489	244,331	-0,029	0,036
-332,475	-200,000	0,039	-0,149
-331,460	-37,462	-0,150	-0,058
-330,445	-20,771	0,057	0,025
-329,431	-200,000	-0,034	-0,127
-328,416	-200,000	-0,004	0,021
-327,402	-200,000	0,003	0,020
-326,387	183,188	-0,070	0,075
-325,372	-28,605	-0,125	-0,052
-324,358	-200,000	0,011	-0,108
-323,343	188,459	0,113	-0,124
-322,329	-96,704	-0,085	0,016
-321,314	-127,291	0,057	0,006
-320,299	178,272	-0,087	0,093
-319,285	-54,947	0,049	0,016
-318,270	213,889	0,083	0,096
-317,256	800,000	0,059	0,147
-316,241	800,000	0,042	-0,089
-315,226	787,738	-0,055	0,111
-314,212	-23,068	0,030	0,013
-313,197	295,970	0,009	0,012
-312,183	341,936	0,021	-0,030
-311,168	491,635	0,082	0,137
-310,153	-10,929	0,156	-0,075
-309,139	230,170	-0,036	0,043
-308,124	-113,603	0,114	-0,016
-307,110	8,366	0,045	0,025
-306,095	800,000	-0,006	0,019
-305,080	-68,328	0,108	-0,030
-304,066	-12,629	-0,117	-0,056
-303,051	-101,717	-0,134	-0,023
-302,037	800,000	0,041	0,087
-301,022	588,926	-0,127	-0,230
-300,008	800,000	-0,012	-0,028
-298,993	315,016	0,043	0,059
-297,978	146,996	-0,055	-0,054
-296,964	-132,638	0,052	0,005
-295,949	187,040	-0,046	-0,050
-294,935	568,191	0,021	-0,037
-293,920	305,894	-0,065	-0,088
-292,905	-121,311	0,035	-0,004
-291,891	-200,000	-0,012	0,063
-290,876	-107,553	0,109	-0,017
-289,862	-25,317	0,110	0,047
-288,847	164,195	-0,048	-0,050
-287,832	-79,958	0,124	0,030
-286,818	151,933	0,017	-0,017
-285,803	-24,042	0,093	-0,040
-284,789	-26,615	0,090	0,038
-283,774	59,013	0,132	0,095
-282,759	97,170	-0,037	0,031
-281,745	-200,000	0,025	0,142
-280,730	-51,866	-0,133	0,045
-279,716	-200,000	0,028	-0,156
-278,701	-200,000	-0,020	-0,064
-277,686	53,754	0,107	0,075
-276,672	-120,679	0,065	-0,008
-275,657	435,497	0,012	0,019
-274,643	571,698	-0,010	-0,017
-273,628	-110,586	0,045	-0,007
-272,613	23,893	-0,123	-0,074
-271,599	-82,579	0,037	-0,009
-270,584	-106,526	-0,047	0,008
-269,570	-117,187	-0,091	0,012
-268,555	127,919	0,074	0,069
-267,540	-162,178	-0,058	0,002
-266,526	-158,201	0,112	-0,005
-265,511	321,071	-0,017	-0,023
-264,497	-112,031	0,092	0,013
-263,482	-200,000	-0,017	-0,092
-262,467	-200,000	0,011	0,037
-261,453	-133,497	-0,144	0,013
-260,438	-200,000	0,015	-0,089
-259,424	3,505	0,096	-0,051
-258,409	218,829	-0,066	0,078
-257,395	800,000	0,051	0,115
-256,380	151,464	0,100	0,100
-255,365	-108,674	0,081	0,013
-254,351	-3,780	0,079	-0,040
-253,336	42,533	-0,143	-0,095
-252,322	194,881	-0,072	-0,080
-251,307	72,112	-0,088	-0,067
-250,292	143,588	-0,084	0,082
-249,278	47,714	0,077	0,052
-248,263	-60,750	0,083	0,026
-247,249	19,734	-0,057	-0,033
-246,234	-64,495	0,136	-0,040
-245,219	-185,886	-0,151	-0,002
-244,205	96,102	-0,040	-0,033
-243,190	-45,553	0,097	0,035
-242,176	-42,098	0,070	0,026
-241,161	800,000	-0,028	0,063
-240,146	-73,947	-0,137	-0,036
-239,132	54,124	-0,148	0,104
-238,117	-69,099	-0,060	-0,017
-237,103	271,372	-0,052	-0,067
-236,088	-200,000	0,045	-0,182
-235,073	66,737	0,154	-0,115
-234,059	-200,000	-0,021	-0,180
-233,044	233,979	0,050	0,060
-232,030	200,341	0,008	-0,009
-231,015	-153,634	-0,099	0,005
-230,000	800,000	0,051	0,138
-228,986	-200,000	-0,031	0,133
-227,971	-1,719	-0,106	0,054
-226,957	-0,715	-0,114	0,059
-225,942	-200,000	-0,010	-0,091
-224,927	-200,000	-0,003	-0,033
-223,913	-200,000	0,007	-0,073
-222,898	-113,443	-0,064	0,009
-221,884	453,167	-0,067	0,109
-220,869	-137,281	-0,063	-0,005
-219,855	188,427	0,144	-0,157
-218,840	208,716	0,005	-0,006
-217,825	-200,000	0,016	-0,098
-216,811	-68,584	-0,060	-0,017
-215,796	800,000	-0,029	-0,080
-214,782	-200,000	0,011	0,049
-213,767	-200,000	-0,014	-0,107
-212,752	-156,799	0,174	0,008
-211,738	-200,000	0,004	-0,054
-210,723	-200,000	0,001	-0,010
-209,709	403,489	-0,033	0,051
-208,694	-200,000	-0,029	0,122
-207,679	-124,940	0,094	0,010
-206,665	162,080	0,039	-0,040
-205,650	249,714	-0,033	0,040
-204,636	800,000	-0,033	0,105
-203,621	800,000	-0,079	0,173
-202,606	-134,665	0,073	0,006
-201,592	377,119	0,026	0,039
-200,577	-80,098	-0,037	-0,009
-199,563	393,465	-0,032	-0,048
-198,548	101,308	-0,089	0,075
-197,533	-200,000	0,009	0,067
-196,519	-200,000	-0,015	-0,057
-195,504	-200,000	-0,028	-0,174
-194,490	643,286	-0,012	-0,023
-193,475	-16,016	-0,065	0,030
-192,460	344,226	-0,056	-0,080
-191,446	-132,246	0,170	-0,016
-190,431	800,000	-0,020	-0,060
-189,417	-189,895	-0,021	0,000
-188,402	280,207	0,052	0,068
-187,387	86,603	-0,127	-0,102
-186,373	8,875	0,088	-0,048
-185,358	-6,804	-0,112	0,055
-184,344	44,238	-0,094	0,063
-183,329	93,234	0,103	0,085
-182,315	800,000	0,049	0,138
-181,300	-35,368	-0,057	-0,022
-180,285	-200,000	0,021	-0,096
-179,271	800,000	0,034	0,099
-178,256	242,572	-0,042	-0,051
-177,242	30,654	-0,042	0,026
-176,227	-44,269	-0,046	0,017
-175,212	250,916	0,142	0,176
-174,198	-200,000	0,001	0,082
-173,183	800,000	-0,051	0,106
-172,169	399,740	0,059	-0,090
-171,154	-74,873	-0,108	0,028
-170,139	-200,000	-0,007	0,101
-169,125	211,519	0,143	0,164
-168,110	13,222	0,084	-0,047
-167,096	22,319	0,106	-0,063
-166,081	-70,570	-0,041	0,011
-165,066	-115,241	-0,174	0,024
-164,052	-105,534	0,080	-0,013
-163,037	39,863	-0,012	0,008
-162,023	-179,884	0,098	-0,001
-161,008	-104,697	0,162	-0,027
-159,993	800,000	-0,031	0,098
-158,979	-92,119	-0,159	0,032
-157,964	800,000	0,064	0,136
-156,950	79,245	-0,059	-0,046
-155,935	-200,000	-0,004	0,064
-154,920	-169,890	-0,011	0,000
-153,906	157,043	0,043	0,043
-152,891	57,006	0,032	0,023
-151,877	3,708	0,024	0,013
-150,862	-200,000	-0,006	0,053
-149,847	-49,828	0,057	0,019
-148,833	-136,629	0,111	-0,009
-147,818	-200,000	-0,002	-0,141
-146,804	197,111	0,128	0,142
-145,789	38,175	0,046	0,030
-144,775	-96,361	-0,049	-0,009
-143,760	484,913	-0,101	-0,168
-142,745	176,096	0,030	-0,031
-141,731	46,001	0,042	-0,028
-140,716	114,172	0,118	0,105
-139,702	-171,628	0,093	0,002
-138,687	11,781	-0,084	-0,047
-137,672	-200,000	-0,030	0,118
-136,658	-200,000	0,023	0,076
-135,643	-200,000	0,004	0,051
-134,629	-200,000	0,015	-0,092
-133,614	130,579	0,186	0,173
-132,599	277,828	-0,068	0,089
-131,585	-200,000	-0,010	0,094
-130,570	61,704	-0,008	0,006
-129,556	228,860	-0,027	0,032
-128,541	-200,000	0,011	-0,039
-127,526	800,000	0,015	0,046
-126,512	122,647	0,022	-0,020
-125,497	145,086	0,081	0,079
-124,483	616,352	0,032	0,059
-123,468	-200,000	-0,040	0,183
-122,453	17,395	-0,094	0,054
-121,439	-23,966	-0,015	0,007
-120,424	152,559	0,069	-0,069
-119,410	-115,634	0,131	0,018
