DTS Sentinel unit serial number:	SN410029Multiplexer serial number:	ORYXHardware model number:	OX2-SRSoftware version number:	ORYX F/W v4,00 Oryx Data Collector v3.7.2.0data status	okinstallation	B4 Nyhavnadifferential loss correction	single-endedforward channel	channel 2reverse channel	N/Adate	2023/12/15time	21:50:13forward acquisition time	300,00reverse acquisition time	0,00gamma	499,1914k internal	0,3133k external	0,3133temperature offset calibration	1,0000default loss term (dB/km)	0,3820temperature slope calibration	1,0000multiplexer offset coefficient	1,0000multiplexer slope coefficient	1,0000fibre end	0,00T internal ref (°C)	21,12T ext. ref 1 (°C)	6,50T ext. ref 2 (°C)	6,63length (m)	temperature (°C)	Stokes	anti-Stokes-744,400	800,000	0,066	0,142
-743,385	65,999	-0,249	0,187
-742,371	359,861	-0,020	-0,029
-741,356	217,739	-0,159	0,189
-740,342	-200,000	0,011	-0,090
-739,327	-79,093	-0,310	0,078
-738,312	-84,410	0,008	-0,002
-737,298	11,079	-0,313	0,177
-736,283	-200,000	0,022	0,247
-735,269	800,000	-0,070	0,172
-734,254	-200,000	0,006	-0,157
-733,239	-40,446	-0,507	-0,195
-732,225	-190,472	0,083	-0,001
-731,210	-200,000	0,008	0,212
-730,196	78,822	-0,062	0,050
-729,181	800,000	0,033	-0,098
-728,167	40,388	-0,048	-0,032
-727,152	-3,361	-0,022	-0,011
-726,137	65,956	-0,045	0,033
-725,123	10,600	-0,086	-0,048
-724,108	-200,000	-0,002	-0,105
-723,094	-200,000	0,006	-0,116
-722,079	721,007	-0,056	0,110
-721,064	800,000	-0,025	-0,069
-720,050	5,015	-0,079	0,043
-719,035	-15,658	-0,084	0,040
-718,021	78,357	0,145	-0,115
-717,006	-131,196	-0,130	-0,013
-715,991	128,735	-0,151	-0,143
-714,977	-121,956	-0,222	0,027
-713,962	-48,502	0,094	-0,033
-712,948	-70,513	0,137	0,038
-711,933	-135,419	0,131	-0,011
-710,918	-200,000	-0,004	0,028
-709,904	-19,238	-0,126	-0,058
-708,889	-200,000	0,000	-0,136
-707,875	-164,942	-0,080	-0,003
-706,860	359,572	0,047	0,070
-705,845	42,538	-0,009	0,006
-704,831	71,402	0,068	-0,052
-703,816	90,655	-0,077	-0,064
-702,802	440,563	-0,066	-0,108
-701,787	7,499	-0,086	-0,048
-700,772	-114,987	-0,174	0,024
-699,758	800,000	-0,009	-0,020
-698,743	-90,620	0,133	0,028
-697,729	-57,940	0,054	0,017
-696,714	46,044	0,086	0,059
-695,699	46,899	-0,086	-0,059
-694,685	309,748	0,070	-0,097
-693,670	-119,840	-0,110	-0,014
-692,656	-200,000	0,010	-0,090
-691,641	-200,000	0,033	0,124
-690,627	800,000	0,011	-0,031
-689,612	15,114	-0,149	0,087
-688,597	-60,739	-0,146	-0,046
-687,583	89,840	-0,102	-0,084
-686,568	46,523	-0,028	0,019
-685,554	-15,499	-0,069	-0,032
-684,539	-200,000	0,006	0,084
-683,524	-3,556	0,043	0,022
-682,510	229,095	-0,010	-0,012
-681,495	224,403	0,080	0,096
-680,481	-200,000	0,019	-0,078
-679,466	800,000	-0,024	-0,068
-678,451	-200,000	-0,018	0,113
-677,437	-200,000	-0,014	-0,093
-676,422	167,077	0,039	0,041
-675,408	-200,000	0,038	-0,140
-674,393	-200,000	-0,012	0,040
-673,378	573,049	-0,050	-0,091
-672,364	37,654	-0,060	-0,039
-671,349	-68,899	-0,037	0,011
-670,335	800,000	-0,021	0,061
-669,320	34,606	0,040	0,026
-668,305	-200,000	0,029	0,148
-667,291	-103,269	0,055	0,010
-666,276	800,000	-0,066	-0,142
-665,262	800,000	0,019	0,061
-664,247	432,397	0,048	0,078
-663,232	202,975	-0,091	0,104
-662,218	-200,000	0,028	0,131
-661,203	63,081	0,017	-0,013
-660,189	130,702	-0,113	0,107
-659,174	-200,000	-0,009	-0,119
-658,159	24,798	-0,053	0,033
-657,145	65,719	-0,127	-0,095
-656,130	-200,000	0,024	0,135
-655,116	800,000	0,024	0,076
-654,101	800,000	0,095	0,208
-653,086	-200,000	0,017	0,075
-652,072	204,562	-0,105	-0,120
-651,057	-93,621	-0,151	-0,031
-650,043	-200,000	0,007	0,081
-649,028	-190,703	-0,099	0,001
-648,014	50,172	-0,045	-0,031
-646,999	145,834	0,075	0,075
-645,984	-200,000	0,052	-0,200
-644,970	330,271	0,051	-0,073
-643,955	-63,907	-0,037	0,011
-642,941	47,136	0,048	-0,033
-641,926	138,200	-0,104	-0,101
-640,911	38,238	0,060	0,039
-639,897	105,525	0,061	0,053
-638,882	-200,000	-0,024	0,127
-637,868	55,774	0,110	0,079
-636,853	274,186	-0,070	-0,092
-635,838	48,744	0,042	0,029
-634,824	167,582	0,039	0,041
-633,809	-166,608	-0,129	0,004
-632,795	800,000	0,034	0,103
-631,780	163,003	-0,019	-0,020
-630,765	445,453	0,058	-0,094
-629,751	-109,883	-0,043	-0,007
-628,736	-200,000	0,002	0,033
-627,722	566,093	0,037	-0,068
-626,707	206,266	0,076	-0,087
-625,692	276,627	-0,056	-0,074
-624,678	-85,065	-0,103	0,024
-623,663	-200,000	0,004	0,068
-622,649	677,580	0,080	-0,155
-621,634	-200,000	-0,038	-0,132
-620,619	-200,000	-0,003	-0,017
-619,605	-125,936	0,124	-0,014
-618,590	92,436	0,074	0,062
-617,576	800,000	-0,019	-0,056
-616,561	199,157	0,060	0,068
-615,546	424,140	-0,088	-0,141
-614,532	178,980	0,050	-0,054
-613,517	-86,985	0,095	0,021
-612,503	-63,160	0,110	-0,033
-611,488	-200,000	-0,012	-0,091
-610,474	800,000	0,032	-0,081
-609,459	26,188	-0,052	-0,032
-608,444	-200,000	-0,026	-0,092
-607,430	791,244	-0,013	-0,026
-606,415	232,313	-0,040	-0,048
-605,401	634,893	0,002	-0,003
-604,386	-110,048	0,044	-0,007
-603,371	-200,000	0,004	0,049
-602,357	-200,000	0,018	0,075
-601,342	100,860	0,037	-0,032
-600,328	48,082	-0,132	-0,091
-599,313	361,504	0,025	-0,037
-598,298	580,164	-0,010	-0,018
-597,284	800,000	0,043	-0,120
-596,269	169,723	0,031	-0,032
-595,255	-200,000	0,002	-0,123
-594,240	174,060	-0,090	-0,096
-593,225	-200,000	-0,009	-0,159
-592,211	66,148	-0,116	-0,087
-591,196	224,828	0,058	0,069
-590,182	-91,323	0,087	0,018
-589,167	-49,112	0,089	-0,031
-588,152	146,661	-0,063	0,062
-587,138	265,904	0,063	-0,081
-586,123	800,000	-0,068	-0,196
-585,109	111,759	-0,121	-0,108
-584,094	-200,000	0,001	0,103
-583,079	-200,000	0,031	0,125
-582,065	-49,627	0,049	0,017
-581,050	-35,388	-0,065	0,026
-580,036	473,693	0,038	0,063
-579,021	50,114	-0,110	-0,076
-578,006	-133,034	-0,127	0,012
-576,992	-200,000	0,001	0,057
-575,977	205,289	0,034	0,039
-574,963	-89,222	-0,131	0,028
-573,948	800,000	-0,023	0,060
-572,934	-33,247	-0,121	0,049
-571,919	800,000	0,048	-0,104
-570,904	-125,331	-0,127	0,014
-569,890	-200,000	0,001	-0,029
-568,875	108,970	0,066	-0,058
-567,861	-200,000	-0,019	0,068
-566,846	-37,376	0,086	-0,034
-565,831	0,723	-0,094	-0,049
-564,817	52,474	0,071	0,050
-563,802	-23,755	-0,049	0,021
-562,788	274,065	-0,048	-0,062
-561,773	-32,655	0,096	-0,039
-560,758	-200,000	-0,041	0,242
-559,744	-200,000	-0,011	0,076
-558,729	-83,541	-0,084	-0,020
-557,715	-36,050	-0,114	-0,045
-556,700	-200,000	-0,037	-0,129
-555,685	83,597	-0,067	-0,054
-554,671	568,656	-0,021	-0,037
-553,656	-149,261	-0,073	-0,004
-552,642	-109,248	-0,058	0,009
-551,627	78,508	-0,066	0,052
-550,612	45,112	0,048	0,033
-549,598	92,637	-0,135	0,112
-548,583	-200,000	0,008	-0,065
-547,569	-200,000	0,017	-0,065
-546,554	800,000	-0,039	0,113
-545,539	649,425	0,037	0,070
-544,525	-160,162	-0,104	0,004
-543,510	-35,700	-0,031	-0,012
-542,496	800,000	-0,091	-0,205
-541,481	212,404	-0,035	0,040
-540,466	-33,316	0,130	-0,053
-539,452	-200,000	0,032	-0,110
-538,437	66,146	0,034	0,026
-537,423	-200,000	-0,010	0,077
-536,408	13,818	-0,112	-0,064
-535,393	-161,510	-0,014	-0,001
-534,379	502,263	-0,039	-0,066
-533,364	800,000	-0,027	-0,073
-532,350	800,000	0,064	-0,195
-531,335	164,372	-0,114	0,119
-530,321	96,455	0,076	0,064
-529,306	-14,345	-0,078	-0,037
-528,291	-137,754	0,081	-0,007
-527,277	64,338	-0,115	-0,085
-526,262	132,261	0,066	-0,063
-525,248	40,680	0,038	-0,025
-524,233	29,963	0,091	0,057
-523,218	10,440	0,142	0,079
-522,204	-99,063	-0,029	-0,005
-521,189	-99,022	-0,085	-0,016
-520,175	-63,606	-0,031	-0,009
-519,160	8,069	0,056	0,031
-518,145	-179,159	0,061	-0,001
-517,131	-95,377	0,050	0,010
-516,116	800,000	-0,053	0,146
-515,102	-200,000	0,010	0,050
-514,087	87,922	-0,046	-0,038
-513,072	-0,253	-0,159	-0,083
-512,058	-152,659	0,029	0,001
-511,043	-136,024	0,137	0,012
-510,029	-200,000	0,020	0,127
-509,014	200,278	0,100	0,114
-507,999	-104,594	-0,019	-0,003
-506,985	-31,030	0,067	-0,028
-505,970	-178,075	-0,108	-0,002
-504,956	-200,000	0,048	-0,177
-503,941	800,000	0,040	0,105
-502,926	259,593	0,055	-0,069
-501,912	800,000	-0,020	0,049
-500,897	-200,000	0,007	0,037
-499,883	800,000	-0,027	0,072
-498,868	800,000	0,047	-0,123
-497,853	272,729	0,076	0,100
-496,839	-200,000	0,041	0,148
-495,824	800,000	-0,014	0,038
-494,810	71,784	-0,045	0,034
-493,795	800,000	0,020	-0,062
-492,781	-171,904	0,018	-0,000
-491,766	-200,000	-0,002	0,010
-490,751	632,182	0,057	0,107
-489,737	-200,000	-0,013	-0,065
-488,722	-200,000	-0,001	-0,007
-487,708	221,486	0,076	-0,090
-486,693	800,000	-0,029	0,064
-485,678	-181,249	0,054	-0,001
-484,664	-200,000	0,005	0,109
-483,649	-29,774	0,128	0,053
-482,635	800,000	-0,066	-0,160
-481,620	-36,479	0,193	-0,076
-480,605	800,000	0,045	0,101
-479,591	244,429	0,089	0,110
-478,576	800,000	0,044	-0,108
-477,562	-200,000	-0,018	-0,091
-476,547	-183,253	-0,077	0,001
-475,532	335,741	-0,094	-0,135
-474,518	121,646	0,032	-0,030
-473,503	800,000	0,020	0,055
-472,489	-200,000	0,011	-0,059
-471,474	440,852	-0,021	-0,034
-470,459	800,000	0,031	-0,099
-469,445	800,000	-0,015	-0,031
-468,430	-53,307	-0,159	-0,053
-467,416	800,000	0,014	0,031
-466,401	-200,000	-0,001	0,060
-465,386	-200,000	0,009	0,071
-464,372	800,000	-0,029	0,077
-463,357	759,231	0,027	-0,054
-462,343	368,963	-0,058	0,087
-461,328	13,484	-0,047	-0,027
-460,313	60,184	-0,069	0,050
-459,299	-28,661	0,016	0,007
-458,284	-36,527	0,043	0,017
-457,270	800,000	0,010	0,026
-456,255	800,000	0,017	-0,039
-455,241	146,803	-0,057	0,056
-454,226	-200,000	-0,015	-0,051
-453,211	-107,456	-0,051	-0,008
-452,197	800,000	0,021	0,060
-451,182	385,000	0,050	0,076
-450,168	800,000	0,048	-0,152
-449,153	-200,000	0,002	-0,037
-448,138	544,477	-0,053	-0,094
-447,124	81,945	-0,013	0,010
-446,109	-28,615	-0,064	0,027
-445,095	-200,000	0,013	0,204
-444,080	-200,000	-0,011	0,104
-443,065	-200,000	-0,045	0,150
-442,051	-200,000	0,033	-0,118
-441,036	149,672	-0,125	-0,124
-440,022	204,712	-0,034	-0,038
-439,007	800,000	-0,073	-0,154
-437,992	-143,138	0,104	-0,007
-436,978	71,360	0,033	0,025
-435,963	-200,000	-0,001	-0,025
-434,949	-200,000	0,002	-0,088
-433,934	-112,923	-0,050	0,007
-432,919	-200,000	-0,013	0,183
-431,905	66,772	-0,075	0,056
-430,890	-200,000	0,000	0,053
-429,876	367,564	0,049	0,073
-428,861	135,233	0,092	-0,088
-427,846	368,084	0,026	-0,038
-426,832	800,000	0,020	-0,052
-425,817	-8,568	0,030	0,015
-424,803	-101,206	-0,095	-0,017
-423,788	315,464	0,057	-0,079
-422,773	257,554	0,034	0,043
-421,759	-200,000	0,003	-0,024
-420,744	37,788	-0,033	-0,022
-419,730	-200,000	0,002	-0,045
-418,715	-51,197	-0,037	0,013
-417,701	-200,000	-0,022	-0,090
-416,686	-78,524	0,148	0,037
-415,671	800,000	-0,033	0,092
-414,657	100,944	0,078	0,066
-413,642	-148,121	0,157	0,009
-412,628	800,000	0,009	-0,025
-411,613	-200,000	-0,017	0,072
-410,598	41,914	-0,096	-0,064
-409,584	800,000	0,033	-0,091
-408,569	21,875	0,102	0,061
-407,555	175,880	0,079	0,085
-406,540	-200,000	-0,011	0,163
-405,525	-55,901	0,058	0,019
-404,511	-200,000	-0,014	-0,059
-403,496	800,000	-0,057	0,127
-402,482	800,000	-0,079	0,163
-401,467	-137,004	0,095	-0,008
-400,452	-36,172	0,125	0,049
-399,438	-200,000	0,016	-0,061
-398,423	742,124	0,105	-0,208
-397,409	-18,836	0,031	-0,014
-396,394	-20,482	-0,078	0,035
-395,379	800,000	-0,053	-0,113
-394,365	59,713	0,102	0,074
-393,350	800,000	-0,027	0,064
-392,336	-200,000	-0,012	-0,185
-391,321	157,222	-0,014	-0,014
-390,306	800,000	0,051	0,139
-389,292	-200,000	-0,028	-0,129
-388,277	446,298	-0,044	-0,071
-387,263	-200,000	0,001	0,070
-386,248	185,353	0,048	0,053
-385,233	-200,000	-0,007	0,029
-384,219	-29,301	-0,118	0,049
-383,204	800,000	-0,010	-0,028
-382,190	-200,000	-0,015	-0,056
-381,175	-200,000	0,005	-0,173
-380,160	90,274	0,109	0,089
-379,146	-200,000	-0,023	0,108
-378,131	-200,000	0,005	0,056
-377,117	-90,806	0,098	0,020
-376,102	-72,930	0,191	0,051
-375,088	178,793	-0,072	0,077
-374,073	-19,947	0,017	-0,008
-373,058	-200,000	-0,010	-0,142
-372,044	139,034	0,071	0,068
-371,029	-127,519	-0,092	0,010
-370,015	-41,558	0,089	0,033
-369,000	-91,980	-0,054	-0,011
-367,985	100,157	0,090	-0,076
-366,971	497,260	0,040	0,068
-365,956	-16,568	0,155	0,072
-364,942	-200,000	0,020	0,080
-363,927	0,952	0,068	-0,036
-362,912	10,861	0,009	0,005
-361,898	-80,501	-0,037	0,009
-360,883	308,729	0,031	0,043
-359,869	-200,000	-0,063	-0,279
-358,854	-131,995	0,102	0,010
-357,839	411,811	-0,031	0,049
-356,825	-131,058	0,062	-0,006
-355,810	701,303	0,044	0,085
-354,796	1,290	0,112	0,059
-353,781	102,604	-0,057	-0,049
-352,766	288,757	-0,061	0,082
-351,752	288,480	-0,041	0,055
-350,737	-200,000	0,004	0,095
-349,723	138,772	0,073	-0,070
-348,708	-179,277	-0,075	0,001
-347,693	78,359	-0,070	-0,055
-346,679	84,082	-0,056	-0,045
-345,664	-200,000	0,008	-0,037
-344,650	-200,000	-0,014	0,078
-343,635	-102,135	0,124	0,022
-342,620	-5,177	0,043	0,021
-341,606	-39,673	0,191	-0,073
-340,591	199,073	-0,089	0,100
-339,577	-62,893	-0,112	0,034
-338,562	420,416	-0,052	-0,082
-337,548	800,000	-0,044	-0,137
-336,533	-200,000	-0,003	0,025
-335,518	800,000	0,023	-0,066
-334,504	-200,000	-0,028	0,102
-333,489	1,301	0,122	0,064
-332,475	-200,000	-0,028	-0,099
-331,460	224,482	-0,049	0,058
-330,445	800,000	0,043	-0,089
-329,431	-108,551	-0,031	-0,005
-328,416	800,000	0,049	0,116
-327,402	-110,265	-0,129	0,019
-326,387	-200,000	-0,010	0,075
-325,372	-200,000	-0,031	0,177
-324,358	105,309	0,072	0,062
-323,343	330,320	0,046	0,064
-322,329	75,307	0,079	-0,060
-321,314	163,573	0,052	0,053
-320,299	643,592	-0,042	0,079
-319,285	800,000	0,034	0,070
-318,270	10,962	-0,052	-0,029
-317,256	15,000	0,073	0,042
-316,241	-200,000	0,004	-0,020
-315,226	-200,000	-0,001	-0,159
-314,212	-138,458	0,075	0,006
-313,197	-200,000	-0,018	0,177
-312,183	-101,194	-0,057	-0,010
-311,168	-57,719	-0,097	0,031
-310,153	-200,000	0,029	0,108
-309,139	800,000	0,036	-0,101
-308,124	800,000	0,046	-0,097
-307,110	800,000	-0,044	0,134
-306,095	800,000	0,058	0,168
-305,080	-19,271	-0,054	-0,025
-304,066	47,132	0,096	-0,065
-303,051	800,000	-0,047	0,117
-302,037	243,230	-0,062	0,077
-301,022	288,165	-0,113	0,149
-300,008	368,401	-0,037	0,056
-298,993	-155,262	-0,049	-0,002
-297,978	-200,000	0,007	0,069
-296,964	800,000	0,029	-0,061
-295,949	182,101	-0,041	0,044
-294,935	81,976	-0,099	-0,079
-293,920	381,177	-0,012	-0,018
-292,905	800,000	0,070	0,155
-291,891	-200,000	0,018	0,242
-290,876	211,449	-0,116	0,133
-289,862	-200,000	-0,031	0,109
-288,847	800,000	-0,023	-0,074
-287,832	-200,000	0,012	-0,057
-286,818	-106,509	0,120	0,019
-285,803	-29,742	0,032	0,013
-284,789	78,763	-0,039	-0,030
-283,774	800,000	0,029	0,090
-282,759	366,634	-0,122	0,180
-281,745	-200,000	0,015	-0,086
-280,730	-200,000	-0,015	-0,156
-279,716	361,022	0,051	-0,075
-278,701	129,828	0,122	0,114
-277,686	23,308	-0,073	-0,044
-276,672	64,151	0,116	0,085
-275,657	-6,218	0,059	0,029
-274,643	-57,811	0,024	-0,007
-273,628	-117,865	0,135	-0,017
-272,613	-200,000	0,031	-0,141
-271,599	-200,000	-0,002	0,045
-270,584	-200,000	-0,007	0,094
-269,570	800,000	0,059	0,146
-268,555	-163,523	-0,115	-0,004
-267,540	-200,000	0,012	-0,059
-266,526	-82,579	-0,011	0,003
-265,511	252,219	0,042	0,053
-264,497	71,379	-0,041	0,031
-263,482	-200,000	0,006	-0,040
-262,467	-170,336	0,086	0,002
-261,453	1,590	-0,072	0,038
-260,438	-117,611	-0,065	0,008
-259,424	-178,697	-0,040	-0,001
-258,409	-104,025	-0,123	-0,021
-257,395	-200,000	-0,006	0,156
-256,380	83,006	-0,034	-0,027
-255,365	-10,597	-0,051	-0,025
-254,351	-36,646	0,035	0,014
-253,336	-62,426	0,156	0,047
-252,322	73,827	0,101	-0,077
-251,307	75,607	-0,077	0,059
-250,292	-200,000	-0,020	-0,116
-249,278	-17,490	0,057	0,026
-248,263	-144,705	0,144	0,009
-247,249	800,000	-0,050	-0,132
-246,234	-184,406	-0,048	-0,001
-245,219	395,063	-0,046	-0,070
-244,205	-200,000	-0,008	-0,075
-243,190	-125,299	0,073	-0,008
-242,176	250,635	0,020	0,025
-241,161	37,430	0,031	0,020
-240,146	147,921	-0,076	-0,075
-239,132	-200,000	0,017	-0,076
-238,117	-153,314	-0,050	-0,002
-237,103	800,000	0,038	-0,101
-236,088	-200,000	0,009	-0,160
-235,073	-200,000	-0,006	0,019
-234,059	-193,168	-0,101	0,001
-233,044	86,706	0,035	0,028
-232,030	-65,301	-0,094	-0,027
-231,015	-200,000	0,009	-0,043
-230,000	-91,641	-0,076	-0,016
-228,986	-200,000	-0,009	-0,037
-227,971	42,336	-0,168	0,111
-226,957	-25,674	0,032	0,014
-225,942	-200,000	0,036	0,262
-224,927	-200,000	-0,005	0,041
-223,913	130,305	0,013	0,012
-222,898	800,000	-0,043	-0,098
-221,884	-200,000	-0,020	0,081
-220,869	-200,000	0,010	0,076
-219,855	-200,000	-0,033	0,190
-218,840	800,000	-0,072	0,214
-217,825	81,204	0,129	0,101
-216,811	432,621	0,013	0,021
-215,796	23,736	-0,056	0,033
-214,782	800,000	-0,055	-0,113
-213,767	-200,000	0,009	-0,055
-212,752	156,496	-0,096	0,097
-211,738	-33,635	0,027	-0,011
-210,723	-200,000	0,001	-0,090
-209,709	50,987	-0,052	-0,036
-208,694	-33,899	-0,059	-0,023
-207,679	-79,759	0,088	0,021
-206,665	638,218	0,066	-0,123
-205,650	-88,461	0,076	-0,016
-204,636	114,696	0,130	-0,115
-203,621	-43,146	-0,065	-0,024
-202,606	-90,462	-0,113	-0,024
-201,592	287,122	-0,083	-0,110
-200,577	-0,206	0,113	-0,058
-199,563	-43,069	-0,143	-0,052
-198,548	-200,000	-0,011	0,050
-197,533	800,000	0,018	0,040
-196,519	-4,365	0,085	0,042
-195,504	244,161	-0,030	-0,037
-194,490	-200,000	0,009	-0,100
-193,475	689,939	0,033	-0,063
-192,460	-79,278	-0,129	0,032
-191,446	550,490	-0,018	-0,031
-190,431	5,340	-0,090	0,048
-189,417	27,949	0,130	-0,080
-188,402	800,000	-0,047	-0,113
-187,387	-70,168	-0,113	-0,031
-186,373	78,071	-0,054	-0,042
-185,358	-200,000	-0,002	0,090
-184,344	27,576	-0,070	0,043
-183,329	68,820	0,070	0,052
-182,315	800,000	-0,034	-0,099
-181,300	207,136	0,019	-0,022
-180,285	-93,430	-0,060	-0,012
-179,271	489,408	-0,070	-0,117
-178,256	800,000	-0,041	-0,127
-177,242	366,023	0,028	-0,041
-176,227	113,146	0,112	0,099
-175,212	-160,074	0,080	0,003
-174,198	-31,162	-0,141	0,058
-173,183	-54,418	-0,053	-0,018
-172,169	-70,861	-0,073	-0,020
-171,154	393,620	0,034	0,051
-170,139	44,195	0,085	-0,056
-169,125	7,897	0,173	0,094
-168,110	-200,000	-0,009	0,118
-167,096	-200,000	-0,014	0,059
-166,081	-138,064	-0,099	-0,008
-165,066	513,757	-0,074	-0,125
-164,052	800,000	-0,058	-0,128
-163,037	216,786	-0,068	0,078
-162,023	-71,309	0,106	-0,029
-161,008	-10,304	-0,130	-0,062
-159,993	589,441	0,053	0,096
-158,979	800,000	0,042	0,113
-157,964	-200,000	-0,002	-0,074
-156,950	-200,000	0,000	-0,076
-155,935	56,916	0,082	-0,058
-154,920	-200,000	0,011	0,074
-153,906	-200,000	-0,000	-0,045
-152,891	118,546	0,034	0,031
-151,877	-200,000	-0,007	0,122
-150,862	23,672	0,067	-0,040
-149,847	154,517	0,044	-0,043
-148,833	-200,000	-0,004	-0,016
-147,818	800,000	0,038	0,086
-146,804	-54,223	0,218	-0,072
-145,789	65,146	-0,024	0,017
-144,775	-200,000	0,010	-0,092
-143,760	66,250	-0,024	-0,018
-142,745	800,000	-0,040	-0,082
-141,731	800,000	-0,027	-0,076
-140,716	517,408	0,062	-0,106
-139,702	255,360	0,032	-0,040
-138,687	-77,647	0,100	0,025
-137,672	-151,779	-0,196	-0,010
-136,658	31,210	-0,137	0,085
-135,643	202,045	-0,082	-0,092
-134,629	-200,000	0,001	-0,045
-133,614	118,229	0,083	0,074
-132,599	800,000	-0,045	-0,095
-131,585	165,141	-0,071	0,073
-130,570	60,761	0,054	-0,039
-129,556	236,680	-0,132	0,159
-128,541	800,000	0,030	-0,078
-127,526	-42,873	-0,078	0,029
-126,512	-134,507	-0,108	-0,009
-125,497	-200,000	-0,008	0,130
-124,483	-44,256	0,078	-0,028
-123,468	800,000	-0,013	-0,036
-122,453	156,048	0,026	-0,026
-121,439	800,000	-0,021	-0,050
-120,424	-97,974	-0,247	-0,046
-119,410	-200,000	-0,018	-0,151
