DTS Sentinel unit serial number:	SN410029Multiplexer serial number:	ORYXHardware model number:	OX2-SRSoftware version number:	ORYX F/W v4,00 Oryx Data Collector v3.7.2.0data status	okinstallation	B4 Nyhavnadifferential loss correction	single-endedforward channel	channel 2reverse channel	N/Adate	2023/12/19time	08:10:13forward acquisition time	300,00reverse acquisition time	0,00gamma	499,1914k internal	0,3126k external	0,3126temperature offset calibration	1,0000default loss term (dB/km)	0,3820temperature slope calibration	1,0000multiplexer offset coefficient	1,0000multiplexer slope coefficient	1,0000fibre end	0,00T internal ref (°C)	20,92T ext. ref 1 (°C)	5,41T ext. ref 2 (°C)	5,46length (m)	temperature (°C)	Stokes	anti-Stokes-744,400	-85,927	-0,051	0,012
-743,385	-5,805	-0,148	0,075
-742,371	240,543	-0,090	0,112
-741,356	0,734	-0,123	0,065
-740,342	-161,368	0,042	0,002
-739,327	160,347	-0,110	0,114
-738,312	-200,000	-0,013	0,048
-737,298	83,403	-0,269	0,218
-736,283	200,166	-0,076	-0,087
-735,269	-130,238	-0,383	0,038
-734,254	-200,000	0,010	-0,122
-733,239	-78,752	-0,442	-0,111
-732,225	-63,852	0,167	-0,050
-731,210	-31,633	-0,074	0,031
-730,196	-200,000	-0,005	-0,072
-729,181	800,000	0,043	-0,142
-728,167	179,776	0,081	0,089
-727,152	558,797	-0,037	-0,067
-726,137	-200,000	-0,005	0,057
-725,123	422,175	0,059	-0,094
-724,108	253,652	-0,124	-0,158
-723,094	-200,000	-0,015	0,058
-722,079	360,989	-0,063	-0,094
-721,064	-200,000	0,002	0,028
-720,050	-29,167	-0,151	0,064
-719,035	-200,000	0,032	-0,140
-718,021	-143,585	0,067	0,005
-717,006	-3,010	-0,124	0,064
-715,991	115,114	-0,034	-0,031
-714,977	151,005	-0,017	-0,017
-713,962	800,000	0,079	-0,168
-712,948	14,257	0,087	-0,050
-711,933	-200,000	-0,016	0,097
-710,918	144,722	0,039	0,039
-709,904	470,199	-0,081	-0,136
-708,889	548,172	0,027	0,049
-707,875	-200,000	-0,016	-0,132
-706,860	150,564	-0,060	0,061
-705,845	328,056	-0,021	-0,030
-704,831	-200,000	-0,007	-0,062
-703,816	196,666	-0,052	0,059
-702,802	437,607	-0,087	0,141
-701,787	249,420	-0,066	-0,083
-700,772	-97,144	-0,096	-0,018
-699,758	-200,000	0,014	0,089
-698,743	-200,000	-0,003	0,057
-697,729	-104,252	-0,045	-0,008
-696,714	46,777	0,045	-0,031
-695,699	-200,000	-0,008	-0,122
-694,685	10,886	-0,108	-0,061
-693,670	55,066	-0,092	-0,066
-692,656	-41,619	0,083	-0,031
-691,641	91,841	0,062	0,052
-690,627	429,390	0,079	-0,127
-689,612	-200,000	-0,001	0,078
-688,597	800,000	-0,030	0,065
-687,583	532,333	0,063	-0,111
-686,568	-200,000	0,010	-0,066
-685,554	58,251	-0,025	-0,018
-684,539	800,000	0,056	0,160
-683,524	-192,341	-0,119	0,001
-682,510	-200,000	0,004	-0,032
-681,495	-85,966	-0,076	0,017
-680,481	800,000	-0,025	-0,067
-679,466	-0,527	-0,117	-0,061
-678,451	-139,880	-0,050	0,004
-677,437	246,768	-0,012	-0,015
-676,422	128,263	-0,074	-0,070
-675,408	-200,000	-0,010	-0,061
-674,393	-200,000	-0,046	0,170
-673,378	-200,000	-0,045	-0,172
-672,364	-8,117	-0,098	-0,049
-671,349	800,000	0,078	-0,199
-670,335	557,010	-0,068	-0,122
-669,320	-154,973	-0,127	-0,006
-668,305	800,000	-0,033	0,097
-667,291	-13,889	-0,092	-0,044
-666,276	-57,484	-0,061	0,020
-665,262	-200,000	-0,018	-0,115
-664,247	-54,922	0,071	-0,023
-663,232	75,838	0,056	-0,044
-662,218	-179,815	0,031	-0,000
-661,203	800,000	-0,020	0,043
-660,189	-200,000	0,008	-0,032
-659,174	-200,000	-0,021	-0,090
-658,159	179,119	0,058	0,064
-657,145	-41,323	-0,125	0,048
-656,130	164,973	-0,075	0,079
-655,116	233,903	-0,057	-0,070
-654,101	-79,660	0,041	-0,010
-653,086	82,439	-0,061	0,049
-652,072	-47,645	-0,088	-0,032
-651,057	-105,879	0,080	0,013
-650,043	360,561	-0,031	-0,046
-649,028	122,312	0,046	-0,043
-648,014	-70,069	0,057	-0,016
-646,999	47,802	0,032	-0,022
-645,984	58,267	-0,091	0,066
-644,970	78,742	-0,034	0,027
-643,955	704,535	-0,099	-0,195
-642,941	-31,470	-0,160	-0,066
-641,926	-200,000	-0,013	0,052
-640,911	29,140	-0,054	-0,034
-639,897	-200,000	0,014	-0,050
-638,882	782,703	0,020	0,040
-637,868	-46,427	-0,073	-0,027
-636,853	-79,062	-0,087	-0,022
-635,838	800,000	-0,018	0,051
-634,824	-34,600	-0,035	-0,014
-633,809	-200,000	-0,016	-0,107
-632,795	800,000	0,025	0,075
-631,780	338,293	-0,032	0,046
-630,765	95,128	0,047	-0,040
-629,751	-24,630	-0,130	-0,057
-628,736	350,703	-0,083	0,122
-627,722	42,601	0,060	-0,040
-626,707	800,000	-0,031	0,091
-625,692	83,593	0,021	-0,017
-624,678	381,793	0,052	-0,079
-623,663	11,957	-0,080	-0,046
-622,649	-200,000	-0,019	-0,067
-621,634	399,182	-0,010	0,015
-620,619	800,000	0,010	0,028
-619,605	800,000	0,053	-0,128
-618,590	-200,000	0,005	0,059
-617,576	216,646	0,039	0,046
-616,561	83,332	-0,047	-0,038
-615,546	-24,316	-0,118	-0,052
-614,532	111,075	-0,049	0,044
-613,517	707,305	-0,027	-0,054
-612,503	317,342	0,031	0,044
-611,488	-26,719	0,059	0,025
-610,474	62,885	-0,013	-0,010
-609,459	-58,188	-0,157	-0,050
-608,444	-107,247	-0,067	-0,011
-607,430	-81,869	-0,119	0,029
-606,415	800,000	-0,042	-0,091
-605,401	-78,190	-0,066	0,017
-604,386	-143,128	0,071	0,005
-603,371	80,150	-0,041	0,032
-602,357	250,274	0,033	-0,041
-601,342	21,360	0,052	-0,031
-600,328	800,000	-0,035	-0,099
-599,313	-15,291	-0,077	0,037
-598,298	800,000	0,031	-0,067
-597,284	259,025	0,067	-0,085
-596,269	1,106	-0,137	-0,073
-595,255	92,039	-0,134	0,112
-594,240	88,459	-0,027	0,022
-593,225	106,081	-0,070	0,061
-592,211	800,000	0,026	-0,061
-591,196	-121,794	-0,124	-0,015
-590,182	-91,691	0,099	0,021
-589,167	31,904	0,117	0,074
-588,152	-112,493	0,038	0,006
-587,138	133,623	-0,023	-0,022
-586,123	117,142	-0,184	0,167
-585,109	224,178	-0,025	-0,029
-584,094	362,025	0,053	-0,079
-583,079	383,773	0,058	-0,089
-582,065	-81,842	0,134	-0,032
-581,050	-191,642	-0,083	-0,001
-580,036	800,000	0,019	-0,053
-579,021	-72,159	-0,096	-0,026
-578,006	-200,000	-0,001	-0,029
-576,992	-29,835	-0,155	-0,065
-575,977	-124,223	0,090	-0,010
-574,963	-200,000	0,015	-0,122
-573,948	-95,430	0,089	0,018
-572,934	-29,938	-0,088	-0,037
-571,919	-70,098	0,094	-0,026
-570,904	800,000	-0,024	-0,073
-569,890	-177,018	-0,176	0,003
-568,875	-4,024	0,022	-0,011
-567,861	127,513	-0,132	0,124
-566,846	-1,556	-0,111	0,058
-565,831	87,527	0,011	0,009
-564,817	48,945	-0,069	0,048
-563,802	389,388	-0,078	-0,120
-562,788	487,740	-0,084	-0,141
-561,773	-200,000	-0,009	-0,053
-560,758	43,129	-0,085	-0,057
-559,744	-39,905	0,124	0,047
-558,729	-192,512	-0,008	0,000
-557,715	-63,445	-0,119	0,036
-556,700	-199,659	-0,044	-0,000
-555,685	-200,000	-0,006	-0,057
-554,671	119,497	0,102	0,093
-553,656	-200,000	-0,003	-0,064
-552,642	-58,155	-0,150	-0,048
-551,627	389,566	0,049	0,076
-550,612	-200,000	0,000	-0,055
-549,598	397,480	0,037	-0,057
-548,583	149,594	-0,058	0,058
-547,569	-200,000	-0,011	-0,044
-546,554	-200,000	0,003	-0,028
-545,539	-118,978	0,067	-0,009
-544,525	-200,000	-0,002	-0,122
-543,510	-36,968	0,073	-0,029
-542,496	800,000	-0,019	-0,055
-541,481	-200,000	0,011	-0,102
-540,466	-81,857	0,015	0,004
-539,452	176,101	0,018	0,019
-538,437	-104,689	-0,095	0,016
-537,423	-200,000	0,003	-0,062
-536,408	708,552	0,086	0,168
-535,393	800,000	-0,035	-0,080
-534,379	-70,624	-0,111	-0,031
-533,364	140,801	0,046	-0,045
-532,350	763,523	0,018	0,037
-531,335	-27,716	0,042	-0,018
-530,321	-200,000	-0,045	-0,154
-529,306	-200,000	0,004	-0,057
-528,291	-10,763	0,050	-0,024
-527,277	89,453	0,104	-0,086
-526,262	24,693	-0,115	-0,070
-525,248	337,655	0,032	0,046
-524,233	295,797	0,052	0,071
-523,218	800,000	0,019	0,047
-522,204	-31,351	0,178	0,074
-521,189	-49,108	-0,121	0,043
-520,175	-200,000	-0,004	0,108
-519,160	-138,482	0,033	0,003
-518,145	186,117	-0,094	-0,103
-517,131	745,824	-0,014	0,027
-516,116	66,962	0,015	0,011
-515,102	-131,566	-0,064	0,006
-514,087	-200,000	-0,022	0,103
-513,072	18,531	-0,166	-0,098
-512,058	78,463	0,026	-0,020
-511,043	-200,000	-0,043	0,143
-510,029	-28,702	0,042	0,018
-509,014	295,533	0,093	0,126
-507,999	255,407	0,061	0,077
-506,985	73,604	-0,108	-0,083
-505,970	-200,000	-0,029	-0,144
-504,956	247,674	-0,043	0,054
-503,941	-100,218	-0,103	-0,019
-502,926	800,000	0,057	0,160
-501,912	800,000	0,084	0,223
-500,897	-122,614	-0,089	-0,011
-499,883	159,091	0,107	0,110
-498,868	-200,000	-0,018	-0,074
-497,853	-158,910	0,069	-0,003
-496,839	100,948	0,058	0,050
-495,824	-34,105	0,078	0,031
-494,810	-200,000	0,005	0,030
-493,795	561,683	0,053	0,096
-492,781	-9,127	-0,009	0,004
-491,766	-43,762	-0,085	-0,031
-490,751	104,191	-0,115	-0,100
-489,737	21,786	0,053	0,032
-488,722	-200,000	-0,024	0,086
-487,708	312,932	0,082	0,115
-486,693	129,232	0,089	0,083
-485,678	45,126	0,057	0,039
-484,664	-118,470	-0,063	-0,008
-483,649	419,999	-0,099	-0,156
-482,635	75,567	-0,013	-0,010
-481,620	800,000	-0,023	0,073
-480,605	-54,746	-0,048	-0,016
-479,591	155,581	0,055	0,056
-478,576	-44,504	0,028	0,010
-477,562	103,110	0,070	0,060
-476,547	-64,491	-0,109	-0,033
-475,532	158,090	0,062	0,064
-474,518	386,721	0,083	0,126
-473,503	773,478	-0,036	0,073
-472,489	-116,436	0,086	-0,012
-471,474	-111,852	-0,058	-0,009
-470,459	222,296	-0,039	0,046
-469,445	-200,000	0,034	-0,192
-468,430	-148,778	-0,045	0,003
-467,416	154,085	0,106	-0,107
-466,401	-200,000	0,017	0,136
-465,386	405,399	0,132	0,206
-464,372	139,557	-0,065	-0,064
-463,357	-200,000	-0,001	-0,043
-462,343	-97,121	-0,037	0,007
-461,328	41,234	-0,079	0,052
-460,313	-36,296	0,193	-0,076
-459,299	800,000	-0,052	0,144
-458,284	-78,877	-0,070	-0,017
-457,270	-128,860	0,035	-0,004
-456,255	-200,000	-0,013	0,131
-455,241	-25,762	-0,172	-0,074
-454,226	782,282	0,051	-0,104
-453,211	77,841	0,143	0,112
-452,197	82,917	0,099	0,080
-451,182	800,000	0,026	0,069
-450,168	-200,000	-0,013	0,156
-449,153	-200,000	-0,005	-0,048
-448,138	-114,420	-0,114	-0,016
-447,124	99,623	-0,085	0,073
-446,109	-47,224	-0,123	0,044
-445,095	-134,247	0,125	0,011
-444,080	-200,000	0,001	0,019
-443,065	533,052	-0,044	-0,077
-442,051	301,685	-0,057	0,077
-441,036	33,845	-0,027	-0,017
-440,022	-89,778	-0,042	0,009
-439,007	353,981	0,025	-0,036
-437,992	-200,000	-0,005	-0,077
-436,978	353,921	0,057	0,084
-435,963	800,000	0,037	0,084
-434,949	89,163	-0,126	0,103
-433,934	800,000	-0,002	0,005
-432,919	-200,000	0,016	-0,133
-431,905	391,318	-0,074	-0,113
-430,890	-17,592	0,073	0,034
-429,876	-12,300	0,017	0,008
-428,861	129,869	0,040	-0,038
-427,846	153,596	-0,040	0,040
-426,832	-200,000	-0,006	-0,153
-425,817	177,617	-0,007	0,008
-424,803	199,657	0,127	0,144
-423,788	342,330	-0,019	0,028
-422,773	-200,000	-0,014	0,068
-421,759	-125,687	0,146	0,016
-420,744	-200,000	0,026	0,096
-419,730	-103,986	0,013	-0,002
-418,715	77,503	-0,086	-0,067
-417,701	800,000	0,043	0,096
-416,686	-200,000	-0,007	-0,036
-415,671	-200,000	0,014	-0,126
-414,657	-117,865	0,064	0,008
-413,642	-200,000	-0,012	-0,084
-412,628	171,597	-0,044	-0,046
-411,613	444,674	0,027	0,044
-410,598	266,578	0,042	-0,054
-409,584	110,810	0,074	0,065
-408,569	-200,000	-0,013	-0,101
-407,555	-121,027	0,087	-0,011
-406,540	541,775	0,045	0,079
-405,525	-125,297	0,133	-0,015
-404,511	126,628	0,045	0,042
-403,496	45,214	0,013	0,009
-402,482	-138,796	0,132	-0,010
-401,467	121,311	0,048	0,044
-400,452	400,564	0,080	0,123
-399,438	800,000	0,025	-0,057
-398,423	800,000	-0,013	0,028
-397,409	-89,789	-0,138	0,029
-396,394	-200,000	0,013	-0,134
-395,379	-112,377	0,080	0,012
-394,365	-105,171	-0,053	-0,009
-393,350	800,000	0,027	0,074
-392,336	23,628	-0,006	-0,004
-391,321	65,603	0,045	-0,034
-390,306	-185,747	0,176	-0,002
-389,292	800,000	-0,030	-0,065
-388,277	-1,938	-0,035	-0,018
-387,263	-146,910	0,124	-0,008
-386,248	26,082	-0,045	0,028
-385,233	-50,339	0,089	-0,031
-384,219	100,982	0,102	-0,087
-383,204	125,399	-0,075	-0,069
-382,190	-200,000	0,024	0,089
-381,175	13,043	0,086	-0,049
-380,160	-200,000	0,023	-0,117
-379,146	92,625	-0,103	0,085
-378,131	-101,813	0,156	-0,027
-377,117	126,587	-0,078	0,073
-376,102	-200,000	-0,031	0,107
-375,088	31,440	-0,099	-0,062
-374,073	-9,665	0,105	-0,051
-373,058	127,533	0,027	0,025
-372,044	37,533	0,059	0,038
-371,029	-31,972	0,121	0,050
-370,015	-35,405	0,144	0,057
-369,000	54,583	0,071	0,050
-367,985	-51,703	0,038	0,013
-366,971	-185,569	-0,105	0,001
-365,956	629,418	0,074	-0,138
-364,942	-200,000	0,001	-0,029
-363,927	-75,004	0,016	0,004
-362,912	307,543	0,086	-0,118
-361,898	219,340	-0,045	-0,053
-360,883	-200,000	-0,005	-0,112
-359,869	638,830	-0,109	-0,204
-358,854	119,405	-0,036	-0,033
-357,839	655,557	0,036	-0,067
-356,825	-200,000	-0,005	-0,113
-355,810	-200,000	0,010	-0,096
-354,796	140,166	-0,081	-0,078
-353,781	-200,000	0,027	-0,103
-352,766	312,249	0,065	-0,090
-351,752	800,000	0,013	0,041
-350,737	800,000	0,055	0,150
-349,723	250,531	-0,127	0,159
-348,708	800,000	0,060	0,182
-347,693	-200,000	-0,027	-0,176
-346,679	-158,570	-0,121	-0,005
-345,664	-50,244	0,022	0,008
-344,650	114,263	-0,101	0,090
-343,635	16,909	-0,052	0,030
-342,620	800,000	0,035	0,095
-341,606	-200,000	0,007	0,135
-340,591	300,931	-0,071	0,096
-339,577	-114,098	-0,055	-0,008
-338,562	-76,261	-0,028	0,007
-337,548	364,389	0,084	0,124
-336,533	-200,000	0,002	-0,051
-335,518	-200,000	-0,005	-0,039
-334,504	-113,837	0,131	0,018
-333,489	800,000	0,037	0,118
-332,475	800,000	-0,019	0,045
-331,460	210,255	-0,046	0,053
-330,445	177,164	-0,046	-0,049
-329,431	317,697	0,011	0,015
-328,416	258,581	0,043	0,055
-327,402	-200,000	0,005	0,081
-326,387	-200,000	-0,012	0,045
-325,372	384,426	-0,033	0,049
-324,358	-200,000	-0,069	-0,266
-323,343	-101,145	0,149	0,027
-322,329	-48,861	0,079	0,028
-321,314	393,479	0,030	0,046
-320,299	-200,000	-0,022	-0,088
-319,285	21,079	-0,102	0,061
-318,270	-139,288	0,106	0,008
-317,256	-128,398	-0,101	-0,010
-316,241	44,760	-0,107	0,072
-315,226	-27,931	-0,036	0,015
-314,212	-84,309	-0,044	-0,010
-313,197	-200,000	-0,003	-0,076
-312,183	-183,281	-0,099	-0,001
-311,168	336,224	0,108	0,155
-310,153	112,295	-0,086	0,076
-309,139	-200,000	0,005	0,092
-308,124	-79,484	0,028	-0,007
-307,110	197,611	-0,026	-0,029
-306,095	-68,272	0,051	-0,014
-305,080	-66,965	-0,073	0,021
-304,066	-148,650	-0,080	0,005
-303,051	800,000	0,043	-0,099
-302,037	-200,000	-0,020	0,080
-301,022	-99,728	0,100	0,018
-300,008	-75,136	0,070	-0,018
-298,993	-200,000	-0,006	0,056
-297,978	-200,000	-0,027	-0,104
-296,964	-56,771	0,158	-0,051
-295,949	800,000	-0,016	-0,036
-294,935	306,239	-0,046	-0,063
-293,920	-197,012	-0,013	0,000
-292,905	-95,257	0,136	0,027
-291,891	-4,299	0,028	-0,014
-290,876	190,600	0,058	-0,064
-289,862	-200,000	0,001	-0,023
-288,847	-129,259	-0,104	0,010
-287,832	-10,435	0,072	-0,035
-286,818	93,771	-0,047	0,039
-285,803	800,000	-0,046	0,108
-284,789	-105,717	0,091	0,015
-283,774	329,201	0,077	0,109
-282,759	-33,759	-0,122	0,049
-281,745	800,000	-0,007	-0,020
-280,730	-36,469	-0,038	0,015
-279,716	274,445	-0,055	0,071
-278,701	800,000	0,036	-0,088
-277,686	-200,000	0,000	0,158
-276,672	101,345	-0,031	0,026
-275,657	-200,000	0,009	-0,091
-274,643	38,086	0,111	-0,072
-273,628	0,788	0,040	-0,021
-272,613	-192,655	0,108	0,001
-271,599	335,806	0,068	0,097
-270,584	630,124	-0,057	0,106
-269,570	135,546	0,056	0,053
-268,555	-102,431	-0,079	0,014
-267,540	-200,000	0,018	-0,125
-266,526	-59,218	-0,072	0,023
-265,511	-158,133	-0,117	0,005
-264,497	-103,218	0,159	-0,027
-263,482	-97,072	0,082	0,015
-262,467	30,770	0,058	-0,036
-261,453	-200,000	0,070	0,235
-260,438	-152,011	-0,139	-0,007
-259,424	438,874	-0,042	0,067
-258,409	-56,349	0,050	0,016
-257,395	-102,541	0,145	0,025
-256,380	105,377	0,136	0,118
-255,365	263,887	-0,075	0,095
-254,351	-200,000	0,021	-0,076
-253,336	800,000	0,027	0,069
-252,322	-200,000	0,021	-0,075
-251,307	-200,000	0,018	-0,160
-250,292	800,000	0,036	0,077
-249,278	-200,000	-0,002	0,048
-248,263	55,591	-0,055	0,039
-247,249	189,497	0,057	0,063
-246,234	-73,790	0,052	-0,014
-245,219	760,847	-0,048	-0,095
-244,205	800,000	-0,071	-0,172
-243,190	180,472	0,078	-0,084
-242,176	-42,493	0,047	0,017
-241,161	397,661	-0,065	-0,100
-240,146	-102,808	0,112	0,019
-239,132	270,912	-0,034	-0,044
-238,117	53,660	-0,094	0,066
-237,103	-200,000	-0,016	-0,071
-236,088	-122,989	-0,064	0,007
-235,073	-23,334	0,073	0,032
-234,059	-38,705	0,181	0,069
-233,044	-200,000	-0,039	0,190
-232,030	-166,823	-0,112	-0,003
-231,015	-53,709	0,057	-0,019
-230,000	-200,000	0,005	0,019
-228,986	-200,000	0,018	-0,174
-227,971	59,850	0,045	-0,032
-226,957	-200,000	-0,001	-0,052
-225,942	800,000	-0,038	0,111
-224,927	4,295	0,030	0,016
-223,913	96,654	0,091	-0,076
-222,898	317,569	-0,063	-0,087
-221,884	800,000	0,019	-0,041
-220,869	170,583	-0,122	0,128
-219,855	297,637	0,027	0,036
-218,840	-127,580	0,073	0,008
-217,825	800,000	0,013	-0,028
-216,811	-200,000	0,005	-0,028
-215,796	238,427	-0,021	-0,025
-214,782	116,720	-0,053	-0,047
-213,767	800,000	-0,036	-0,109
-212,752	-133,586	-0,167	-0,015
-211,738	-113,330	-0,056	-0,008
-210,723	800,000	0,056	-0,141
-209,709	800,000	0,030	0,078
-208,694	76,275	0,009	-0,007
-207,679	-117,772	-0,080	-0,010
-206,665	-111,679	0,064	0,009
-205,650	282,284	-0,072	0,095
-204,636	129,496	0,110	-0,102
-203,621	-200,000	-0,014	0,063
-202,606	445,678	-0,046	0,073
-201,592	15,455	-0,137	-0,078
-200,577	400,780	0,112	-0,172
-199,563	-76,968	-0,034	-0,009
-198,548	679,997	-0,064	-0,122
-197,533	-114,532	-0,047	0,007
-196,519	301,598	-0,016	0,022
-195,504	29,252	0,038	-0,023
-194,490	-135,959	-0,099	0,008
-193,475	800,000	0,008	0,025
-192,460	-200,000	0,006	0,052
-191,446	311,355	-0,012	-0,017
-190,431	179,617	0,109	0,116
-189,417	-200,000	0,024	0,141
-188,402	-200,000	0,021	0,071
-187,387	26,989	-0,084	0,051
-186,373	166,012	0,036	-0,038
-185,358	-200,000	-0,004	-0,069
-184,344	-200,000	-0,009	0,134
-183,329	114,196	-0,041	-0,036
-182,315	162,207	-0,069	-0,070
-181,300	800,000	-0,076	0,156
-180,285	800,000	-0,023	0,071
-179,271	-200,000	-0,007	0,099
-178,256	-44,635	0,019	0,007
-177,242	245,064	0,044	-0,054
-176,227	800,000	-0,053	-0,111
-175,212	196,739	0,129	0,143
-174,198	4,086	0,091	0,048
-173,183	-200,000	0,015	0,116
-172,169	-76,530	-0,086	-0,022
-171,154	-200,000	0,028	-0,092
-170,139	91,354	0,023	-0,018
-169,125	-200,000	-0,015	-0,077
-168,110	168,071	0,119	-0,123
-167,096	19,853	0,036	-0,021
-166,081	429,342	-0,036	-0,057
-165,066	660,361	0,070	-0,131
-164,052	262,711	-0,016	-0,020
-163,037	115,922	-0,054	0,049
-162,023	800,000	-0,031	0,067
-161,008	-31,418	-0,146	-0,060
-159,993	41,062	0,130	-0,086
-158,979	366,407	0,080	-0,117
-157,964	-176,768	0,075	0,001
-156,950	-200,000	0,022	-0,091
-155,935	-96,015	-0,144	-0,028
-154,920	305,118	0,094	-0,127
-153,906	800,000	0,053	0,158
-152,891	-200,000	0,005	-0,054
-151,877	-200,000	-0,027	-0,137
-150,862	97,043	-0,076	0,064
-149,847	-200,000	-0,011	0,058
-148,833	399,912	-0,017	-0,026
-147,818	800,000	-0,011	-0,024
-146,804	-23,553	0,122	-0,053
-145,789	-129,069	0,047	-0,005
-144,775	-193,539	0,045	0,000
-143,760	399,482	-0,025	0,039
-142,745	800,000	0,045	0,108
-141,731	-200,000	0,006	0,047
-140,716	800,000	-0,040	0,123
-139,702	20,910	0,107	0,063
-138,687	-200,000	-0,008	0,033
-137,672	-200,000	-0,030	0,109
-136,658	-108,118	0,078	0,012
-135,643	94,114	0,121	0,100
-134,629	-66,039	0,086	-0,025
-133,614	800,000	0,045	-0,141
-132,599	-113,785	0,050	-0,007
-131,585	692,594	0,096	0,183
-130,570	-200,000	0,000	0,042
-129,556	512,006	-0,107	0,181
-128,541	440,252	-0,049	-0,079
-127,526	-149,029	-0,100	-0,006
-126,512	-74,255	0,143	0,037
-125,497	-200,000	0,016	0,069
-124,483	-200,000	-0,020	0,109
-123,468	800,000	-0,007	0,019
-122,453	-200,000	-0,023	-0,129
-121,439	112,815	-0,056	-0,049
-120,424	148,886	-0,110	0,108
