DTS Sentinel unit serial number:	SN410029Multiplexer serial number:	ORYXHardware model number:	OX2-SRSoftware version number:	ORYX F/W v4,00 Oryx Data Collector v3.7.2.0data status	okinstallation	B4 Nyhavnadifferential loss correction	single-endedforward channel	channel 2reverse channel	N/Adate	2023/12/16time	07:40:14forward acquisition time	300,00reverse acquisition time	0,00gamma	499,1914k internal	0,3127k external	0,3127temperature offset calibration	1,0000default loss term (dB/km)	0,3820temperature slope calibration	1,0000multiplexer offset coefficient	1,0000multiplexer slope coefficient	1,0000fibre end	0,00T internal ref (°C)	22,36T ext. ref 1 (°C)	7,74T ext. ref 2 (°C)	7,88length (m)	temperature (°C)	Stokes	anti-Stokes-744,400	-78,857	0,061	0,015
-743,385	0,950	-0,213	0,113
-742,371	-200,000	0,007	0,071
-741,356	140,196	-0,199	0,196
-740,342	422,305	0,039	0,063
-739,327	-14,176	-0,189	0,090
-738,312	7,057	0,050	0,028
-737,298	47,942	-0,244	0,170
-736,283	-26,304	0,128	0,056
-735,269	29,631	-0,252	0,160
-734,254	800,000	0,051	0,108
-733,239	-104,555	-0,449	-0,076
-732,225	63,663	0,089	0,067
-731,210	-200,000	-0,148	-0,000
-730,196	-63,979	0,117	-0,035
-729,181	57,429	0,054	0,039
-728,167	204,056	-0,061	-0,070
-727,152	455,006	0,030	-0,050
-726,137	725,085	-0,053	0,106
-725,123	-200,000	-0,008	0,109
-724,108	800,000	-0,020	-0,045
-723,094	151,491	-0,133	-0,135
-722,079	2,618	-0,096	-0,052
-721,064	-125,319	-0,080	0,009
-720,050	29,486	-0,173	-0,109
-719,035	800,000	-0,035	-0,113
-718,021	155,772	-0,114	-0,117
-717,006	639,761	-0,051	-0,096
-715,991	98,449	-0,091	-0,078
-714,977	-75,169	-0,141	-0,037
-713,962	96,269	-0,075	-0,064
-712,948	272,224	-0,016	-0,022
-711,933	-59,710	0,154	0,049
-710,918	353,544	-0,050	0,074
-709,904	333,834	-0,054	0,078
-708,889	-200,000	-0,012	0,056
-707,875	417,329	0,015	0,023
-706,860	800,000	-0,045	-0,102
-705,845	-71,229	-0,078	-0,022
-704,831	109,950	0,030	-0,026
-703,816	117,851	-0,091	0,083
-702,802	-107,215	-0,096	-0,016
-701,787	-200,000	-0,020	-0,155
-700,772	327,397	-0,089	-0,127
-699,758	-200,000	0,032	-0,166
-698,743	-18,564	0,018	-0,008
-697,729	444,146	-0,066	-0,108
-696,714	68,478	0,066	0,050
-695,699	-143,009	-0,138	-0,010
-694,685	-71,640	-0,044	0,012
-693,670	46,348	-0,020	0,014
-692,656	737,885	-0,062	-0,123
-691,641	-200,000	0,034	0,151
-690,627	46,348	0,074	0,051
-689,612	257,077	0,066	0,084
-688,597	663,704	0,041	-0,078
-687,583	800,000	-0,034	0,098
-686,568	-2,184	-0,095	-0,049
-685,554	-115,478	0,078	0,011
-684,539	-119,829	0,086	-0,011
-683,524	237,863	0,023	0,028
-682,510	16,738	-0,080	0,047
-681,495	381,984	-0,031	-0,047
-680,481	-121,208	-0,108	0,013
-679,466	67,599	-0,048	-0,036
-678,451	-200,000	0,025	-0,161
-677,437	461,256	-0,028	-0,046
-676,422	800,000	0,098	0,205
-675,408	800,000	0,017	0,035
-674,393	31,573	0,026	-0,017
-673,378	-104,977	-0,057	0,010
-672,364	800,000	-0,050	-0,128
-671,349	-107,422	-0,300	0,048
-670,335	15,169	-0,073	-0,042
-669,320	-103,383	0,041	0,007
-668,305	-196,248	0,050	0,000
-667,291	-145,163	-0,108	-0,007
-666,276	53,650	-0,139	-0,099
-665,262	199,085	-0,087	-0,099
-664,247	-61,243	0,120	-0,037
-663,232	417,545	-0,079	0,125
-662,218	-40,143	0,062	-0,024
-661,203	-32,046	0,133	0,055
-660,189	225,012	0,033	0,040
-659,174	800,000	0,021	0,048
-658,159	-0,012	-0,060	0,032
-657,145	-91,828	-0,126	0,026
-656,130	-121,700	-0,030	-0,004
-655,116	-132,990	-0,045	0,004
-654,101	-200,000	0,005	-0,033
-653,086	-200,000	0,001	-0,081
-652,072	-200,000	-0,040	-0,158
-651,057	396,570	-0,026	0,040
-650,043	466,942	0,082	0,136
-649,028	-200,000	-0,010	-0,112
-648,014	-200,000	0,004	-0,094
-646,999	24,448	0,137	-0,084
-645,984	-61,517	0,134	0,041
-644,970	-76,125	0,098	0,026
-643,955	-76,585	-0,104	-0,027
-642,941	-200,000	-0,019	-0,175
-641,926	800,000	-0,046	-0,103
-640,911	18,190	0,122	0,072
-639,897	30,644	-0,129	-0,082
-638,882	-200,000	0,014	0,106
-637,868	-50,061	-0,151	0,053
-636,853	330,288	-0,049	0,070
-635,838	-22,317	-0,103	-0,046
-634,824	-64,105	-0,060	0,018
-633,809	-152,260	-0,163	0,009
-632,795	476,131	-0,038	0,064
-631,780	-200,000	0,007	-0,054
-630,765	-110,030	-0,058	-0,009
-629,751	800,000	-0,032	-0,070
-628,736	-106,882	-0,205	-0,033
-627,722	92,416	0,056	0,047
-626,707	71,050	-0,065	-0,050
-625,692	-173,125	-0,050	0,001
-624,678	250,831	-0,049	0,061
-623,663	-198,899	0,074	-0,000
-622,649	72,788	0,111	-0,086
-621,634	172,415	-0,029	-0,031
-620,619	195,773	-0,109	-0,123
-619,605	800,000	0,058	-0,170
-618,590	-200,000	0,019	-0,063
-617,576	-48,373	-0,114	-0,040
-616,561	35,426	0,061	-0,039
-615,546	-200,000	-0,016	0,096
-614,532	-31,465	-0,102	-0,042
-613,517	-44,267	-0,027	0,010
-612,503	-77,582	-0,062	0,016
-611,488	28,820	0,045	0,028
-610,474	-200,000	0,020	-0,133
-609,459	-93,150	0,066	-0,014
-608,444	185,644	-0,126	0,139
-607,430	-200,000	-0,000	-0,016
-606,415	606,632	0,036	-0,066
-605,401	157,293	0,060	0,061
-604,386	-200,000	-0,004	0,143
-603,371	146,094	0,101	-0,100
-602,357	105,578	-0,052	0,045
-601,342	800,000	0,092	-0,203
-600,328	-6,005	-0,115	-0,058
-599,313	531,431	-0,045	0,078
-598,298	800,000	0,039	0,090
-597,284	-125,742	0,077	0,009
-596,269	800,000	0,040	0,126
-595,255	-200,000	0,011	0,055
-594,240	-200,000	-0,003	-0,063
-593,225	-13,777	-0,104	-0,049
-592,211	-200,000	-0,021	-0,073
-591,196	-103,804	0,094	-0,016
-590,182	-200,000	0,007	0,114
-589,167	-11,598	0,091	-0,044
-588,152	-200,000	-0,010	-0,135
-587,138	114,006	0,088	-0,079
-586,123	800,000	0,042	-0,097
-585,109	-200,000	0,007	0,040
-584,094	391,647	0,080	-0,123
-583,079	-117,293	-0,111	0,015
-582,065	800,000	0,034	0,106
-581,050	23,682	0,115	-0,070
-580,036	-200,000	0,003	-0,031
-579,021	-200,000	-0,034	0,136
-578,006	-200,000	0,007	0,066
-576,992	-18,226	-0,189	-0,087
-575,977	-127,780	0,060	-0,006
-574,963	-46,902	0,108	0,039
-573,948	278,834	0,062	0,082
-572,934	-41,636	-0,016	-0,006
-571,919	-95,052	0,218	-0,043
-570,904	261,815	-0,028	0,036
-569,890	-46,311	0,060	0,022
-568,875	-200,000	-0,013	0,097
-567,861	759,277	0,006	-0,012
-566,846	83,910	-0,055	-0,044
-565,831	116,607	-0,059	-0,054
-564,817	673,849	-0,069	0,134
-563,802	-26,588	-0,067	-0,029
-562,788	-19,002	-0,027	-0,012
-561,773	800,000	-0,008	-0,022
-560,758	9,732	0,061	0,034
-559,744	-123,030	-0,105	-0,012
-558,729	-200,000	0,033	0,125
-557,715	16,546	-0,074	0,043
-556,700	139,655	-0,001	0,001
-555,685	-126,166	-0,087	-0,009
-554,671	-200,000	0,033	0,144
-553,656	-200,000	-0,002	0,174
-552,642	0,967	0,081	0,043
-551,627	800,000	0,026	-0,058
-550,612	-200,000	0,007	-0,031
-549,598	19,796	-0,134	-0,079
-548,583	-200,000	-0,036	-0,229
-547,569	800,000	-0,033	-0,097
-546,554	29,317	0,074	0,046
-545,539	-200,000	0,008	-0,068
-544,525	49,648	-0,175	0,122
-543,510	710,084	-0,029	0,056
-542,496	-200,000	-0,008	-0,079
-541,481	117,577	-0,050	0,045
-540,466	800,000	-0,016	0,036
-539,452	-153,768	0,088	-0,004
-538,437	201,401	-0,084	0,095
-537,423	402,064	-0,057	0,089
-536,408	-108,811	0,163	0,026
-535,393	206,211	-0,009	-0,011
-534,379	433,261	0,055	-0,089
-533,364	-94,480	-0,069	0,014
-532,350	-200,000	0,004	-0,018
-531,335	-100,076	0,077	0,014
-530,321	-98,689	0,059	-0,011
-529,306	-36,994	-0,055	-0,022
-528,291	-110,262	0,056	0,009
-527,277	-77,766	-0,041	-0,010
-526,262	800,000	0,034	-0,110
-525,248	256,948	0,089	0,113
-524,233	425,993	0,023	0,036
-523,218	-34,421	-0,024	-0,010
-522,204	99,688	-0,074	0,064
-521,189	111,996	-0,070	0,062
-520,175	99,688	0,058	0,049
-519,160	-200,000	0,009	-0,063
-518,145	86,725	-0,082	0,067
-517,131	-144,272	0,148	-0,010
-516,116	-200,000	0,000	-0,003
-515,102	-138,597	-0,078	-0,006
-514,087	25,066	0,092	0,056
-513,072	-17,245	-0,059	-0,027
-512,058	119,549	-0,044	-0,040
-511,043	270,260	0,065	0,085
-510,029	38,172	-0,142	0,093
-509,014	-175,833	-0,121	-0,002
-507,999	148,573	-0,037	-0,037
-506,985	125,809	-0,079	-0,074
-505,970	126,137	0,086	-0,081
-504,956	-6,810	-0,094	-0,047
-503,941	-103,435	0,078	-0,013
-502,926	-168,268	0,071	0,002
-501,912	579,439	-0,063	0,114
-500,897	168,727	0,049	0,052
-499,883	-200,000	-0,005	0,100
-498,868	640,264	0,032	0,061
-497,853	-127,095	-0,076	-0,008
-496,839	800,000	-0,022	0,048
-495,824	-200,000	0,041	0,162
-494,810	800,000	-0,050	0,114
-493,795	-200,000	-0,011	0,090
-492,781	-200,000	-0,018	0,211
-491,766	406,618	-0,057	-0,089
-490,751	-200,000	0,022	-0,085
-489,737	444,900	-0,045	-0,073
-488,722	-200,000	0,019	0,121
-487,708	-200,000	0,015	0,146
-486,693	185,624	0,062	0,068
-485,678	-200,000	0,007	0,076
-484,664	800,000	0,023	-0,070
-483,649	-66,848	-0,099	0,029
-482,635	-53,553	0,029	-0,010
-481,620	-200,000	-0,020	0,121
-480,605	19,333	-0,069	0,041
-479,591	-200,000	-0,004	0,067
-478,576	-200,000	0,013	-0,105
-477,562	62,749	-0,088	-0,064
-476,547	655,345	0,032	-0,060
-475,532	297,838	0,034	0,046
-474,518	12,598	0,057	-0,032
-473,503	132,630	-0,092	0,088
-472,489	436,435	0,012	0,019
-471,474	253,647	0,039	-0,050
-470,459	800,000	-0,021	-0,047
-469,445	75,945	0,100	-0,078
-468,430	-98,215	-0,087	0,016
-467,416	-200,000	-0,011	-0,059
-466,401	286,628	-0,049	-0,065
-465,386	364,022	0,021	-0,031
-464,372	-10,231	0,090	0,044
-463,357	-41,936	0,094	0,035
-462,343	452,756	0,006	-0,010
-461,328	14,215	-0,179	-0,102
-460,313	750,199	0,063	-0,126
-459,299	312,421	-0,014	0,019
-458,284	-92,654	0,134	0,027
-457,270	-200,000	-0,012	-0,109
-456,255	289,929	0,024	-0,032
-455,241	186,705	-0,038	0,042
-454,226	-157,488	-0,076	-0,003
-453,211	12,344	-0,097	0,055
-452,197	-200,000	0,002	-0,032
-451,182	-60,501	-0,111	0,034
-450,168	-200,000	0,008	-0,028
-449,153	-69,175	0,104	0,029
-448,138	618,882	0,007	0,013
-447,124	572,849	0,042	-0,075
-446,109	-101,973	0,113	0,020
-445,095	-52,886	0,106	0,036
-444,080	-200,000	-0,012	0,041
-443,065	28,958	0,103	0,064
-442,051	-200,000	-0,002	0,018
-441,036	-114,249	0,041	-0,006
-440,022	-53,705	-0,123	-0,041
-439,007	4,531	-0,052	-0,028
-437,992	-72,200	0,045	-0,012
-436,978	-63,298	0,194	-0,058
-435,963	-173,450	0,081	0,002
-434,949	351,574	0,038	0,055
-433,934	800,000	-0,019	-0,043
-432,919	-200,000	-0,008	-0,027
-431,905	587,134	0,045	0,081
-430,890	800,000	0,012	0,032
-429,876	223,643	-0,102	0,121
-428,861	-34,981	-0,106	0,042
-427,846	552,953	-0,080	0,142
-426,832	-200,000	-0,011	-0,049
-425,817	-200,000	-0,003	-0,052
-424,803	-200,000	-0,027	-0,132
-423,788	-18,308	0,053	-0,024
-422,773	321,768	0,079	0,111
-421,759	623,520	-0,049	0,092
-420,744	211,693	-0,073	0,085
-419,730	-200,000	0,027	-0,114
-418,715	-97,354	0,143	-0,027
-417,701	138,215	-0,046	0,045
-416,686	60,956	0,161	0,118
-415,671	-200,000	-0,006	0,080
-414,657	10,417	0,016	-0,009
-413,642	-120,185	-0,088	-0,011
-412,628	-116,183	-0,081	-0,011
-411,613	565,483	0,057	-0,101
-410,598	-200,000	0,030	-0,102
-409,584	-89,843	0,050	0,011
-408,569	-119,554	-0,066	0,008
-407,555	4,012	-0,049	0,026
-406,540	222,687	-0,051	-0,061
-405,525	-21,502	-0,099	0,044
-404,511	800,000	0,075	-0,204
-403,496	-200,000	0,001	-0,011
-402,482	-103,767	-0,031	0,005
-401,467	-11,664	0,107	-0,052
-400,452	-103,403	0,041	-0,007
-399,438	203,473	0,029	-0,033
-398,423	-99,696	-0,130	0,024
-397,409	800,000	-0,085	-0,187
-396,394	800,000	0,054	-0,155
-395,379	-200,000	-0,006	0,049
-394,365	239,757	0,107	-0,131
-393,350	61,337	0,081	0,059
-392,336	-200,000	-0,013	0,101
-391,321	32,004	0,051	0,032
-390,306	522,107	0,022	-0,038
-389,292	36,417	-0,123	-0,080
-388,277	722,477	0,080	-0,158
-387,263	-120,206	0,136	-0,017
-386,248	393,351	-0,018	0,027
-385,233	-200,000	0,023	0,096
-384,219	-93,033	-0,153	0,031
-383,204	41,347	0,056	-0,037
-382,190	-123,258	-0,041	-0,005
-381,175	22,657	0,096	-0,058
-380,160	566,720	0,053	-0,095
-379,146	235,404	0,056	0,068
-378,131	-200,000	-0,027	0,101
-377,117	24,187	0,068	0,041
-376,102	-24,782	-0,024	-0,010
-375,088	800,000	-0,010	-0,023
-374,073	68,137	-0,075	0,056
-373,058	-38,159	-0,022	0,009
-372,044	491,904	0,034	-0,057
-371,029	800,000	0,066	0,137
-370,015	-200,000	0,025	0,105
-369,000	37,769	0,022	0,014
-367,985	800,000	-0,031	0,064
-366,971	-40,946	-0,086	-0,032
-365,956	648,417	0,064	-0,122
-364,942	397,432	0,021	-0,032
-363,927	-200,000	-0,017	0,143
-362,912	88,489	-0,073	-0,059
-361,898	11,294	0,114	0,064
-360,883	551,604	-0,032	-0,057
-359,869	508,706	-0,045	-0,077
-358,854	-77,968	0,059	0,015
-357,839	800,000	0,039	0,092
-356,825	-200,000	-0,013	0,146
-355,810	-200,000	0,002	-0,057
-354,796	67,004	0,100	0,075
-353,781	-43,236	0,083	0,031
-352,766	-61,176	-0,132	0,040
-351,752	-57,608	-0,084	-0,027
-350,737	-51,670	-0,112	-0,038
-349,723	-22,915	0,040	0,017
-348,708	597,256	0,069	-0,126
-347,693	5,432	-0,091	-0,049
-346,679	19,332	-0,078	0,046
-345,664	230,542	-0,043	0,051
-344,650	-60,526	0,067	-0,021
-343,635	800,000	-0,054	0,148
-342,620	800,000	-0,043	-0,126
-341,606	-200,000	0,009	0,033
-340,591	-136,395	-0,119	-0,010
-339,577	536,325	0,029	-0,050
-338,562	800,000	-0,029	0,089
-337,548	636,254	0,032	-0,060
-336,533	61,480	-0,022	-0,016
-335,518	109,774	0,084	-0,074
-334,504	715,853	-0,029	-0,056
-333,489	-200,000	0,001	0,154
-332,475	170,375	-0,039	-0,041
-331,460	-77,833	-0,050	-0,013
-330,445	308,979	0,085	-0,117
-329,431	222,473	0,114	0,135
-328,416	800,000	0,054	-0,140
-327,402	-200,000	0,014	-0,053
-326,387	220,453	0,032	0,037
-325,372	101,542	-0,093	0,079
-324,358	667,269	-0,006	0,012
-323,343	58,508	0,065	-0,047
-322,329	800,000	-0,080	0,192
-321,314	566,596	-0,048	0,085
-320,299	-200,000	0,005	-0,055
-319,285	-82,205	-0,145	0,034
-318,270	-4,449	-0,057	-0,029
-317,256	131,172	0,058	0,055
-316,241	-200,000	0,004	0,076
-315,226	-1,525	0,057	0,029
-314,212	270,913	0,117	0,152
-313,197	-22,110	-0,080	0,035
-312,183	270,851	-0,043	-0,056
-311,168	-192,098	-0,163	0,001
-310,153	27,956	-0,111	0,068
-309,139	-200,000	0,020	-0,148
-308,124	34,664	-0,038	0,024
-307,110	-83,358	0,203	-0,047
-306,095	-93,595	-0,063	0,013
-305,080	254,454	0,039	0,048
-304,066	88,930	-0,106	-0,086
-303,051	-136,893	-0,268	-0,022
-302,037	-106,205	0,052	0,008
-301,022	177,293	0,095	0,102
-300,008	15,845	0,089	-0,051
-298,993	172,699	0,092	-0,097
-297,978	-67,346	0,092	0,026
-296,964	629,039	0,038	-0,070
-295,949	-161,714	0,064	-0,002
-294,935	800,000	-0,019	0,045
-293,920	-68,953	-0,109	-0,031
-292,905	-200,000	0,015	0,150
-291,891	99,202	0,031	-0,026
-290,876	-174,579	-0,060	0,001
-289,862	-95,369	0,018	-0,004
-288,847	-200,000	0,025	-0,106
-287,832	-200,000	0,023	-0,101
-286,818	-181,948	-0,069	-0,001
-285,803	62,970	0,112	0,082
-284,789	-200,000	-0,039	0,180
-283,774	36,210	0,030	-0,020
-282,759	446,806	0,060	0,097
-281,745	-132,874	-0,184	-0,017
-280,730	8,123	0,120	-0,066
-279,716	257,983	-0,069	-0,087
-278,701	-200,000	0,015	-0,091
-277,686	-85,321	0,146	-0,033
-276,672	362,403	0,052	0,077
-275,657	182,254	-0,101	0,109
-274,643	800,000	0,034	-0,081
-273,628	112,072	-0,066	-0,058
-272,613	-200,000	-0,062	-0,228
-271,599	-115,189	-0,108	0,015
-270,584	-73,513	0,036	0,010
-269,570	-91,091	0,089	-0,018
-268,555	142,815	-0,093	0,091
-267,540	-51,853	0,028	0,009
-266,526	443,790	-0,045	-0,073
-265,511	198,600	0,066	0,074
-264,497	-52,252	0,059	0,020
-263,482	-118,006	0,152	0,020
-262,467	389,418	-0,071	0,108
-261,453	308,969	-0,095	0,130
-260,438	-0,130	0,027	-0,014
-259,424	-82,908	0,042	-0,010
-258,409	58,610	-0,041	-0,029
-257,395	283,392	0,065	0,086
-256,380	152,055	0,097	-0,097
-255,365	-200,000	0,005	0,116
-254,351	-147,934	0,049	0,003
-253,336	77,458	-0,084	0,065
-252,322	-200,000	-0,007	-0,088
-251,307	357,192	0,078	-0,114
-250,292	-22,558	-0,146	0,064
-249,278	-19,503	-0,154	-0,069
-248,263	48,411	-0,062	-0,043
-247,249	251,208	0,061	0,076
-246,234	-200,000	0,002	-0,114
-245,219	702,302	-0,017	-0,032
-244,205	69,203	-0,103	0,077
-243,190	800,000	-0,027	0,078
-242,176	44,455	0,055	0,037
-241,161	-136,524	0,136	0,011
-240,146	800,000	0,074	0,155
-239,132	-200,000	-0,004	0,039
-238,117	800,000	-0,037	0,083
-237,103	800,000	0,043	-0,130
-236,088	2,482	-0,048	-0,025
-235,073	365,191	0,091	0,135
-234,059	800,000	0,045	-0,095
-233,044	74,183	-0,022	0,017
-232,030	178,883	-0,060	-0,065
-231,015	17,859	-0,162	-0,094
-230,000	-1,028	0,141	-0,073
-228,986	800,000	0,017	-0,040
-227,971	280,152	0,078	0,102
-226,957	-200,000	0,003	0,025
-225,942	-46,459	-0,147	0,052
-224,927	246,412	-0,034	0,042
-223,913	42,750	0,029	-0,019
-222,898	-123,275	0,085	0,010
-221,884	246,306	0,055	0,068
-220,869	475,517	-0,019	-0,031
-219,855	-200,000	-0,006	-0,111
-218,840	44,722	0,085	0,057
-217,825	-118,293	0,181	0,023
-216,811	626,748	-0,015	0,027
-215,796	800,000	-0,056	-0,121
-214,782	-23,233	-0,033	0,015
-213,767	-200,000	0,001	-0,095
-212,752	-200,000	-0,004	0,091
-211,738	-107,384	0,038	-0,006
-210,723	149,775	-0,061	0,060
-209,709	800,000	-0,033	-0,086
-208,694	52,888	-0,161	-0,112
-207,679	-92,293	-0,145	0,030
-206,665	-200,000	0,022	0,091
-205,650	-200,000	-0,020	0,136
-204,636	-123,975	0,064	0,007
-203,621	-200,000	0,012	-0,086
-202,606	-200,000	-0,007	0,035
-201,592	-67,699	-0,161	0,046
-200,577	-200,000	0,017	-0,145
-199,563	800,000	-0,069	-0,141
-198,548	157,284	0,059	0,059
-197,533	-22,352	0,082	0,036
-196,519	769,630	-0,025	-0,051
-195,504	-200,000	-0,018	-0,073
-194,490	639,993	0,026	0,048
-193,475	314,194	-0,066	-0,090
-192,460	16,863	0,058	0,034
-191,446	-200,000	0,016	0,121
-190,431	800,000	-0,066	-0,153
-189,417	-200,000	-0,003	-0,153
-188,402	250,663	-0,084	-0,105
-187,387	-98,719	0,047	-0,009
-186,373	-200,000	-0,004	-0,108
-185,358	174,232	-0,042	-0,044
-184,344	-160,839	0,108	-0,004
-183,329	-95,336	-0,125	0,024
-182,315	61,794	0,123	0,089
-181,300	253,890	-0,039	0,048
-180,285	-200,000	-0,019	0,105
-179,271	-122,291	0,135	0,016
-178,256	225,623	-0,066	-0,078
-177,242	-121,392	0,123	0,015
-176,227	-60,860	0,065	0,020
-175,212	-200,000	-0,014	0,071
-174,198	774,810	0,016	0,032
-173,183	86,740	0,043	0,035
-172,169	-95,054	-0,100	-0,019
-171,154	195,352	-0,033	0,036
-170,139	800,000	0,012	-0,027
-169,125	-52,908	0,099	-0,033
-168,110	2,376	0,058	-0,030
-167,096	-79,152	0,074	0,018
-166,081	189,164	0,096	-0,104
-165,066	-200,000	0,047	-0,152
-164,052	-44,377	0,142	-0,052
-163,037	-200,000	-0,004	0,040
-162,023	-78,835	0,113	-0,028
-161,008	-200,000	-0,015	-0,077
-159,993	135,886	0,131	-0,124
-158,979	51,520	-0,040	0,028
-157,964	-200,000	0,068	0,000
-156,950	-200,000	-0,013	-0,104
-155,935	-65,931	-0,181	0,052
-154,920	187,442	0,114	0,124
-153,906	800,000	-0,031	0,074
-152,891	-200,000	0,015	0,053
-151,877	-200,000	-0,001	0,038
-150,862	-5,820	-0,079	-0,039
-149,847	800,000	-0,030	-0,093
-148,833	37,202	0,025	-0,016
-147,818	-200,000	0,029	-0,146
-146,804	129,211	0,039	0,037
-145,789	800,000	-0,004	-0,012
-144,775	-61,853	-0,089	0,027
-143,760	42,792	-0,082	0,054
-142,745	-200,000	-0,016	-0,092
-141,731	-138,750	-0,101	0,008
-140,716	800,000	-0,025	-0,057
-139,702	-50,015	0,106	0,036
-138,687	800,000	0,035	0,112
-137,672	-15,783	-0,101	-0,047
-136,658	-200,000	-0,029	-0,101
-135,643	-65,774	-0,078	-0,023
-134,629	81,272	0,023	0,018
-133,614	113,593	0,066	0,059
-132,599	-200,000	0,017	0,142
-131,585	-200,000	-0,016	0,089
-130,570	-200,000	-0,007	0,119
-129,556	75,855	-0,067	0,051
-128,541	-102,554	-0,152	0,026
-127,526	-200,000	0,050	0,199
-126,512	800,000	-0,054	0,119
-125,497	-93,094	0,099	-0,020
-124,483	103,692	0,096	0,082
-123,468	-142,654	0,092	0,006
-122,453	-154,498	0,033	-0,002
-121,439	-200,000	0,011	-0,077
-120,424	241,592	-0,070	-0,086
-119,410	800,000	0,032	0,092
-118,395	111,097	0,089	0,078
