DTS Sentinel unit serial number:	SN410029Multiplexer serial number:	ORYXHardware model number:	OX2-SRSoftware version number:	ORYX F/W v4,00 Oryx Data Collector v3.7.2.0data status	okinstallation	B4 Nyhavnadifferential loss correction	single-endedforward channel	channel 2reverse channel	N/Adate	2023/12/18time	18:25:13forward acquisition time	300,00reverse acquisition time	0,00gamma	499,1914k internal	0,3124k external	0,3124temperature offset calibration	1,0000default loss term (dB/km)	0,3820temperature slope calibration	1,0000multiplexer offset coefficient	1,0000multiplexer slope coefficient	1,0000fibre end	0,00T internal ref (°C)	21,93T ext. ref 1 (°C)	7,15T ext. ref 2 (°C)	7,18length (m)	temperature (°C)	Stokes	anti-Stokes-744,400	20,923	-0,151	-0,091
-743,385	8,303	-0,235	0,131
-742,371	-200,000	0,010	-0,097
-741,356	67,566	-0,092	0,070
-740,342	-200,000	-0,015	0,073
-739,327	126,314	-0,205	0,193
-738,312	-200,000	0,013	0,169
-737,298	-80,999	-0,254	-0,062
-736,283	-51,085	-0,026	-0,009
-735,269	74,368	-0,143	0,112
-734,254	-77,422	0,007	-0,002
-733,239	-158,471	-0,342	0,014
-732,225	-200,000	-0,026	0,148
-731,210	118,064	-0,031	-0,029
-730,196	-18,281	-0,030	0,014
-729,181	146,507	-0,042	-0,042
-728,167	48,902	0,075	0,053
-727,152	293,732	0,072	-0,098
-726,137	-109,398	-0,040	-0,006
-725,123	-26,387	-0,117	-0,051
-724,108	-1,284	-0,057	0,030
-723,094	355,888	0,039	-0,058
-722,079	-200,000	0,025	-0,096
-721,064	-200,000	0,093	0,000
-720,050	191,237	0,069	-0,078
-719,035	384,632	0,063	-0,097
-718,021	-123,095	-0,032	-0,004
-717,006	-200,000	0,011	-0,088
-715,991	361,327	-0,037	-0,055
-714,977	800,000	-0,068	-0,168
-713,962	800,000	0,039	0,103
-712,948	-118,133	0,108	0,014
-711,933	-172,633	0,074	-0,002
-710,918	57,617	-0,106	0,077
-709,904	-68,121	-0,071	0,021
-708,889	123,399	-0,054	-0,051
-707,875	800,000	-0,083	-0,192
-706,860	-168,109	-0,039	0,001
-705,845	800,000	0,034	0,105
-704,831	698,079	0,081	0,159
-703,816	800,000	-0,044	-0,099
-702,802	-165,007	-0,077	0,003
-701,787	-200,000	0,005	0,053
-700,772	457,537	0,052	-0,087
-699,758	-135,217	0,109	-0,010
-698,743	-200,000	-0,020	0,086
-697,729	800,000	0,077	0,182
-696,714	88,344	-0,103	-0,085
-695,699	33,887	-0,042	0,027
-694,685	-41,796	0,006	-0,002
-693,670	339,907	-0,021	-0,030
-692,656	-131,756	0,088	-0,009
-691,641	78,048	0,047	0,038
-690,627	-200,000	0,016	0,119
-689,612	445,159	0,023	0,038
-688,597	-55,469	0,027	-0,009
-687,583	-176,719	-0,051	-0,001
-686,568	93,604	-0,108	0,091
-685,554	672,033	0,040	-0,077
-684,539	141,312	-0,042	0,042
-683,524	-18,278	0,124	-0,057
-682,510	91,483	-0,051	-0,042
-681,495	-70,466	-0,093	0,026
-680,481	462,759	-0,042	0,070
-679,466	169,911	-0,113	-0,120
-678,451	332,392	-0,080	-0,115
-677,437	-200,000	0,014	-0,052
-676,422	-141,792	-0,086	-0,006
-675,408	431,991	-0,025	0,040
-674,393	-200,000	-0,031	0,107
-673,378	-200,000	0,016	-0,122
-672,364	-200,000	0,024	-0,115
-671,349	-145,298	-0,127	-0,008
-670,335	-200,000	0,025	0,081
-669,320	-46,024	-0,150	0,055
-668,305	193,494	-0,035	0,040
-667,291	800,000	-0,040	-0,092
-666,276	-130,729	0,024	-0,002
-665,262	-37,443	-0,021	-0,008
-664,247	-200,000	0,034	-0,174
-663,232	-14,214	-0,124	0,059
-662,218	-93,955	0,135	0,027
-661,203	316,660	-0,041	0,057
-660,189	-200,000	0,009	0,042
-659,174	267,960	-0,081	-0,106
-658,159	800,000	-0,015	-0,044
-657,145	-16,325	-0,075	-0,035
-656,130	207,279	0,059	-0,069
-655,116	798,778	-0,082	0,169
-654,101	-200,000	0,003	0,106
-653,086	-133,797	0,172	0,016
-652,072	157,736	-0,045	-0,047
-651,057	800,000	-0,040	-0,102
-650,043	736,803	-0,073	-0,145
-649,028	170,770	0,011	-0,012
-648,014	407,734	-0,057	0,089
-646,999	453,302	0,028	0,046
-645,984	-58,529	-0,083	-0,027
-644,970	-92,431	-0,094	-0,020
-643,955	-200,000	0,001	-0,037
-642,941	-50,814	-0,089	-0,031
-641,926	800,000	-0,030	0,069
-640,911	800,000	-0,030	0,078
-639,897	-200,000	0,015	0,136
-638,882	-200,000	0,003	0,032
-637,868	-200,000	0,008	-0,063
-636,853	132,834	-0,048	0,046
-635,838	515,141	0,030	-0,052
-634,824	60,938	-0,093	0,069
-633,809	-200,000	0,022	0,077
-632,795	-200,000	0,008	0,078
-631,780	379,745	-0,121	0,184
-630,765	800,000	-0,047	0,138
-629,751	-58,548	0,019	0,006
-628,736	112,268	-0,086	0,077
-627,722	-176,306	-0,164	-0,003
-626,707	127,245	0,075	-0,070
-625,692	-200,000	0,005	-0,068
-624,678	-200,000	0,011	-0,090
-623,663	-140,157	-0,157	0,012
-622,649	-200,000	0,015	-0,069
-621,634	-76,582	-0,114	-0,030
-620,619	800,000	0,080	-0,186
-619,605	-200,000	-0,009	0,035
-618,590	438,033	0,057	-0,092
-617,576	-48,274	-0,076	0,027
-616,561	-200,000	0,023	0,085
-615,546	-136,052	0,140	0,012
-614,532	-200,000	-0,003	-0,091
-613,517	301,304	-0,090	-0,123
-612,503	-93,881	0,073	0,015
-611,488	-200,000	-0,038	0,133
-610,474	-27,388	0,115	-0,050
-609,459	-96,529	-0,094	-0,018
-608,444	91,925	-0,049	-0,041
-607,430	-144,703	-0,049	0,003
-606,415	-36,682	0,053	-0,021
-605,401	133,393	0,060	-0,057
-604,386	-200,000	-0,004	0,056
-603,371	110,716	0,090	0,080
-602,357	414,602	-0,050	0,079
-601,342	160,302	-0,056	0,058
-600,328	422,751	-0,131	-0,208
-599,313	155,317	0,123	0,126
-598,298	-200,000	-0,033	-0,119
-597,284	21,190	-0,030	0,018
-596,269	-61,779	0,075	-0,023
-595,255	532,646	0,021	0,037
-594,240	-65,572	-0,048	-0,014
-593,225	49,236	-0,066	0,046
-592,211	299,065	0,045	-0,062
-591,196	-200,000	-0,020	-0,079
-590,182	-101,886	0,061	-0,011
-589,167	562,809	0,067	-0,121
-588,152	112,416	-0,171	-0,153
-587,138	50,199	0,044	-0,031
-586,123	-147,712	0,085	0,005
-585,109	18,776	-0,090	-0,053
-584,094	-25,911	-0,100	0,043
-583,079	206,578	0,097	-0,113
-582,065	20,452	0,156	0,093
-581,050	16,492	0,076	0,044
-580,036	51,011	-0,158	-0,110
-579,021	-134,643	-0,023	0,002
-578,006	270,533	-0,032	0,041
-576,992	-117,482	-0,100	-0,013
-575,977	-200,000	-0,029	0,121
-574,963	-120,719	-0,123	-0,015
-573,948	-78,960	0,074	0,018
-572,934	780,836	-0,049	-0,099
-571,919	483,576	0,017	0,029
-570,904	6,986	-0,091	-0,050
-569,890	82,402	-0,031	-0,025
-568,875	384,067	0,053	0,081
-567,861	800,000	-0,039	0,124
-566,846	421,872	-0,045	0,072
-565,831	8,054	0,073	0,040
-564,817	-162,445	-0,085	0,003
-563,802	56,223	-0,041	-0,029
-562,788	604,507	0,056	-0,103
-561,773	-200,000	0,012	0,081
-560,758	-200,000	0,020	0,089
-559,744	146,518	-0,081	-0,081
-558,729	37,784	0,056	0,037
-557,715	800,000	-0,019	-0,060
-556,700	112,039	-0,086	-0,077
-555,685	239,550	-0,014	0,017
-554,671	-11,680	-0,118	-0,057
-553,656	-52,870	0,192	-0,065
-552,642	-59,471	-0,188	0,060
-551,627	-38,739	0,046	-0,018
-550,612	-155,247	0,101	0,005
-549,598	-15,923	0,064	0,030
-548,583	800,000	-0,003	-0,008
-547,569	-18,773	0,099	-0,046
-546,554	3,141	-0,017	-0,009
-545,539	800,000	0,036	-0,106
-544,525	513,883	-0,058	-0,100
-543,510	-40,530	-0,059	-0,022
-542,496	30,439	-0,068	0,043
-541,481	-200,000	0,055	-0,202
-540,466	800,000	0,064	-0,208
-539,452	516,014	0,080	0,139
-538,437	-155,925	0,067	-0,003
-537,423	-200,000	0,025	-0,084
-536,408	-80,716	-0,028	0,007
-535,393	-36,544	0,102	-0,040
-534,379	800,000	-0,008	0,020
-533,364	-13,886	-0,099	0,047
-532,350	-12,558	0,050	-0,024
-531,335	-6,621	0,053	0,026
-530,321	-200,000	0,005	-0,055
-529,306	-93,051	-0,113	0,023
-528,291	-200,000	-0,004	-0,027
-527,277	-64,226	-0,140	0,042
-526,262	70,652	0,025	0,019
-525,248	377,646	-0,046	0,070
-524,233	-124,420	0,130	0,015
-523,218	-200,000	0,028	0,118
-522,204	-200,000	-0,006	-0,080
-521,189	800,000	-0,059	-0,130
-520,175	800,000	0,029	-0,060
-519,160	-19,402	-0,124	-0,056
-518,145	800,000	-0,044	-0,100
-517,131	-200,000	0,096	0,000
-516,116	800,000	-0,062	0,151
-515,102	-200,000	-0,025	0,161
-514,087	141,956	-0,115	-0,113
-513,072	289,955	-0,046	-0,062
-512,058	-200,000	-0,006	-0,119
-511,043	-32,140	-0,043	-0,018
-510,029	15,802	0,151	0,088
-509,014	-99,228	0,034	-0,006
-507,999	11,624	0,056	-0,031
-506,985	800,000	-0,042	0,091
-505,970	800,000	0,038	-0,080
-504,956	360,624	-0,017	-0,025
-503,941	225,192	-0,074	-0,088
-502,926	337,780	-0,008	-0,012
-501,912	-90,887	-0,066	0,014
-500,897	83,741	0,076	0,061
-499,883	260,531	-0,093	0,119
-498,868	97,969	-0,043	-0,037
-497,853	108,399	-0,100	0,088
-496,839	800,000	-0,050	0,113
-495,824	-0,848	0,079	-0,041
-494,810	67,592	0,034	0,026
-493,795	800,000	-0,048	0,131
-492,781	800,000	-0,030	0,063
-491,766	69,646	0,068	0,051
-490,751	82,698	-0,156	-0,125
-489,737	6,101	-0,116	-0,063
-488,722	120,386	0,054	0,049
-487,708	-94,749	0,070	-0,014
-486,693	92,436	0,061	0,051
-485,678	55,629	0,041	0,029
-484,664	-200,000	-0,003	0,044
-483,649	800,000	-0,032	-0,092
-482,635	800,000	-0,034	-0,103
-481,620	325,817	0,039	0,055
-480,605	141,993	0,029	0,029
-479,591	-101,783	0,072	-0,013
-478,576	89,948	0,033	0,027
-477,562	800,000	0,033	-0,079
-476,547	108,278	-0,122	-0,108
-475,532	29,734	0,023	-0,015
-474,518	-9,139	0,035	0,017
-473,503	131,770	0,068	-0,064
-472,489	-1,084	-0,016	0,008
-471,474	499,702	-0,056	0,095
-470,459	-200,000	-0,001	-0,016
-469,445	-11,692	0,087	0,042
-468,430	-77,118	-0,132	-0,034
-467,416	175,047	-0,067	-0,071
-466,401	-88,860	0,050	0,011
-465,386	249,179	0,027	-0,033
-464,372	384,343	-0,021	0,032
-463,357	114,049	0,005	0,004
-462,343	-192,224	-0,059	-0,000
-461,328	565,509	0,064	0,115
-460,313	-74,866	0,064	-0,017
-459,299	144,309	-0,025	-0,024
-458,284	-198,091	0,069	-0,000
-457,270	-95,131	0,032	0,006
-456,255	800,000	0,047	0,099
-455,241	7,996	-0,075	0,041
-454,226	-69,888	0,106	-0,030
-453,211	800,000	0,012	0,031
-452,197	-61,779	-0,143	-0,044
-451,182	-124,586	0,112	0,013
-450,168	-44,297	-0,124	-0,046
-449,153	783,997	-0,068	-0,138
-448,138	-162,548	-0,029	-0,001
-447,124	212,496	0,025	-0,029
-446,109	22,244	0,008	-0,005
-445,095	94,603	0,105	0,088
-444,080	-200,000	-0,002	-0,013
-443,065	-31,591	-0,044	-0,018
-442,051	70,667	0,068	0,052
-441,036	-200,000	0,020	0,083
-440,022	-16,790	0,104	0,048
-439,007	800,000	-0,042	-0,117
-437,992	800,000	-0,072	0,180
-436,978	-179,147	0,187	-0,003
-435,963	-85,762	-0,064	0,015
-434,949	-162,283	0,154	0,006
-433,934	800,000	-0,034	0,095
-432,919	666,203	0,025	-0,048
-431,905	65,743	-0,056	-0,041
-430,890	203,650	-0,076	0,086
-429,876	-9,265	-0,025	-0,012
-428,861	-183,116	0,134	-0,002
-427,846	602,780	0,027	0,049
-426,832	-110,643	-0,133	-0,020
-425,817	-120,572	0,205	-0,025
-424,803	137,507	-0,043	-0,042
-423,788	-200,000	-0,030	-0,158
-422,773	-125,591	-0,039	-0,004
-421,759	509,657	-0,047	0,081
-420,744	74,189	-0,091	0,070
-419,730	-200,000	-0,048	0,163
-418,715	-200,000	-0,004	-0,035
-417,701	91,039	-0,061	-0,051
-416,686	262,394	0,053	-0,068
-415,671	800,000	0,070	0,189
-414,657	-61,096	0,110	0,034
-413,642	684,332	-0,037	0,071
-412,628	-200,000	0,017	-0,067
-411,613	566,431	0,062	-0,111
-410,598	53,496	0,033	0,023
-409,584	-200,000	0,001	0,004
-408,569	13,184	0,100	-0,057
-407,555	-200,000	-0,001	0,065
-406,540	689,064	-0,060	-0,115
-405,525	44,553	-0,169	0,114
-404,511	150,122	0,065	-0,065
-403,496	146,472	0,059	-0,058
-402,482	-108,498	0,074	-0,012
-401,467	38,571	0,151	0,099
-400,452	774,570	-0,103	0,208
-399,438	-48,032	-0,021	0,008
-398,423	83,155	0,091	-0,072
-397,409	-200,000	-0,025	0,083
-396,394	94,444	0,014	0,012
-395,379	-24,892	0,009	-0,004
-394,365	218,164	0,031	-0,037
-393,350	-59,020	0,040	-0,013
-392,336	448,085	0,049	0,080
-391,321	-200,000	0,013	-0,085
-390,306	85,019	-0,036	0,029
-389,292	625,080	-0,012	-0,022
-388,277	-153,649	0,042	0,002
-387,263	510,059	0,051	0,087
-386,248	-200,000	0,035	0,146
-385,233	153,784	0,063	-0,063
-384,219	377,321	-0,090	-0,136
-383,204	800,000	-0,040	-0,089
-382,190	104,477	-0,044	0,038
-381,175	-16,780	0,116	0,054
-380,160	-146,484	-0,034	-0,002
-379,146	580,736	0,057	0,104
-378,131	32,903	-0,090	-0,057
-377,117	-200,000	0,005	-0,068
-376,102	-53,863	-0,109	-0,036
-375,088	-200,000	-0,001	0,017
-374,073	438,756	-0,047	-0,075
-373,058	347,907	-0,031	-0,044
-372,044	800,000	0,014	-0,030
-371,029	-76,738	-0,080	-0,020
-370,015	-25,840	-0,042	-0,018
-369,000	-200,000	-0,013	-0,082
-367,985	372,108	-0,007	0,011
-366,971	-200,000	-0,006	0,039
-365,956	800,000	0,010	-0,028
-364,942	-29,777	-0,066	-0,028
-363,927	-136,283	-0,136	-0,012
-362,912	104,691	-0,108	-0,094
-361,898	-61,812	0,092	0,028
-360,883	-121,361	0,018	-0,002
-359,869	504,820	0,007	-0,012
-358,854	-78,622	0,038	-0,010
-357,839	-200,000	-0,002	0,060
-356,825	800,000	0,017	-0,055
-355,810	-98,821	0,048	0,009
-354,796	512,921	-0,045	-0,077
-353,781	-125,018	0,121	0,014
-352,766	40,455	-0,076	-0,050
-351,752	-43,920	0,128	0,047
-350,737	800,000	0,055	0,119
-349,723	-108,376	0,112	-0,017
-348,708	-200,000	0,010	0,122
-347,693	-200,000	-0,016	0,087
-346,679	-17,505	-0,015	0,007
-345,664	203,383	0,078	-0,089
-344,650	63,510	-0,030	0,022
-343,635	-200,000	-0,014	-0,073
-342,620	89,120	0,076	0,062
-341,606	27,210	0,019	-0,012
-340,591	117,262	-0,041	0,037
-339,577	-200,000	-0,022	-0,134
-338,562	-30,815	0,057	-0,024
-337,548	146,346	-0,071	-0,070
-336,533	800,000	0,017	0,045
-335,518	-200,000	-0,034	0,145
-334,504	-200,000	0,016	0,155
-333,489	800,000	-0,012	0,027
-332,475	748,533	0,069	-0,137
-331,460	-123,704	-0,109	0,013
-330,445	800,000	-0,011	0,026
-329,431	-15,456	0,058	-0,027
-328,416	800,000	0,023	0,066
-327,402	-9,712	-0,121	-0,059
-326,387	119,177	0,050	-0,046
-325,372	-200,000	0,018	-0,060
-324,358	587,950	0,030	-0,055
-323,343	20,893	0,088	0,052
-322,329	800,000	-0,051	0,147
-321,314	125,843	0,083	0,077
-320,299	-67,204	0,041	-0,012
-319,285	115,317	0,076	0,068
-318,270	28,379	-0,100	-0,062
-317,256	-165,733	0,010	-0,000
-316,241	-200,000	-0,046	-0,165
-315,226	112,253	-0,059	0,052
-314,212	7,264	0,128	-0,070
-313,197	25,153	-0,070	-0,042
-312,183	-62,868	0,097	-0,029
-311,168	-53,323	-0,022	0,007
-310,153	800,000	0,059	-0,173
-309,139	34,308	0,158	-0,101
-308,124	242,756	-0,052	0,064
-307,110	455,238	-0,022	-0,036
-306,095	-69,783	0,063	0,018
-305,080	125,957	0,080	-0,074
-304,066	-89,224	-0,085	0,018
-303,051	214,718	-0,080	0,093
-302,037	-41,726	-0,138	-0,052
-301,022	800,000	0,022	-0,057
-300,008	4,117	-0,066	0,035
-298,993	-76,249	-0,136	0,035
-297,978	-18,034	-0,017	-0,008
-296,964	-200,000	-0,008	-0,040
-295,949	800,000	-0,019	-0,058
-294,935	139,952	0,086	0,083
-293,920	19,503	-0,119	0,070
-292,905	-124,262	0,087	0,010
-291,891	90,514	-0,029	0,024
-290,876	298,917	-0,045	-0,060
-289,862	-14,702	0,018	0,008
-288,847	-105,455	-0,054	-0,009
-287,832	-39,083	0,037	-0,014
-286,818	238,669	0,068	0,083
-285,803	-200,000	-0,006	0,056
-284,789	68,531	-0,009	0,007
-283,774	205,987	0,101	0,115
-282,759	-45,958	-0,019	0,007
-281,745	-133,787	-0,081	-0,007
-280,730	185,144	0,014	0,016
-279,716	238,164	-0,054	0,066
-278,701	-100,831	-0,085	0,015
-277,686	800,000	0,040	0,092
-276,672	-200,000	-0,004	0,061
-275,657	504,357	-0,004	-0,007
-274,643	-124,955	0,078	-0,009
-273,628	-200,000	0,001	0,093
-272,613	-60,216	-0,055	-0,017
-271,599	-29,588	0,096	-0,040
-270,584	2,982	-0,040	-0,021
-269,570	515,631	-0,034	0,058
-268,555	695,749	0,028	0,053
-267,540	-200,000	0,021	0,069
-266,526	-1,122	-0,112	-0,058
-265,511	-156,944	-0,080	-0,004
-264,497	-10,946	0,092	-0,044
-263,482	-116,373	0,106	-0,014
-262,467	800,000	-0,068	0,151
-261,453	-200,000	0,034	-0,143
-260,438	201,213	0,069	0,078
-259,424	-20,366	-0,041	-0,018
-258,409	728,112	0,028	0,055
-257,395	283,876	0,073	-0,096
-256,380	80,218	0,076	-0,060
-255,365	160,995	0,121	0,124
-254,351	-127,371	-0,126	-0,013
-253,336	-200,000	-0,003	-0,040
-252,322	205,788	-0,012	-0,014
-251,307	-200,000	-0,009	-0,076
-250,292	132,321	-0,025	0,023
-249,278	-139,388	0,065	-0,005
-248,263	-167,582	0,137	0,004
-247,249	109,769	0,075	-0,065
-246,234	-8,201	-0,169	-0,083
-245,219	242,527	0,087	-0,106
-244,205	99,971	0,091	0,077
-243,190	315,993	-0,124	-0,171
-242,176	-22,121	0,050	0,022
-241,161	-71,499	0,076	0,021
-240,146	305,789	0,037	0,051
-239,132	276,577	0,046	-0,060
-238,117	-31,781	-0,154	-0,063
-237,103	46,515	0,038	0,026
-236,088	-98,161	0,130	-0,024
-235,073	-200,000	0,027	0,186
-234,059	85,416	0,109	0,087
-233,044	323,640	0,029	-0,041
-232,030	20,838	-0,062	-0,036
-231,015	800,000	-0,026	-0,055
-230,000	-200,000	0,012	0,076
-228,986	707,012	-0,022	0,042
-227,971	225,088	0,058	-0,068
-226,957	-200,000	0,000	-0,041
-225,942	-37,229	0,106	-0,041
-224,927	-200,000	0,008	-0,044
-223,913	44,457	0,053	0,035
-222,898	-200,000	0,001	-0,030
-221,884	10,763	-0,048	0,026
-220,869	276,383	-0,028	0,036
-219,855	-188,251	-0,099	0,001
-218,840	-200,000	0,026	-0,083
-217,825	-200,000	0,001	0,040
-216,811	351,622	-0,033	-0,047
-215,796	66,778	-0,136	0,101
-214,782	-200,000	-0,031	-0,151
-213,767	-80,137	0,047	0,011
-212,752	222,597	0,071	0,084
-211,738	800,000	0,020	0,056
-210,723	91,607	0,067	0,055
-209,709	800,000	0,027	-0,084
-208,694	235,150	-0,029	-0,035
-207,679	-78,452	-0,135	0,034
-206,665	-94,112	-0,080	0,016
-205,650	253,963	0,062	0,078
-204,636	800,000	-0,031	0,078
-203,621	-200,000	-0,003	-0,033
-202,606	340,744	-0,011	-0,015
-201,592	245,859	0,063	-0,077
-200,577	800,000	0,053	-0,116
-199,563	337,627	0,028	0,040
-198,548	-152,200	0,036	0,002
-197,533	-200,000	-0,011	-0,095
-196,519	57,609	0,055	-0,039
-195,504	758,181	-0,028	-0,056
-194,490	77,773	-0,098	-0,076
-193,475	-200,000	-0,003	-0,056
-192,460	29,203	-0,003	-0,002
-191,446	-0,834	0,079	0,041
-190,431	82,542	0,045	-0,036
-189,417	-200,000	-0,015	0,107
-188,402	800,000	-0,020	0,050
-187,387	-200,000	0,034	-0,148
-186,373	193,536	-0,014	-0,016
-185,358	54,411	0,069	0,048
-184,344	-30,211	0,118	0,049
-183,329	169,075	-0,055	0,057
-182,315	-109,327	-0,129	-0,020
-181,300	800,000	-0,061	0,186
-180,285	119,875	-0,047	-0,043
-179,271	406,956	0,010	0,016
-178,256	-200,000	-0,003	0,023
-177,242	125,886	-0,022	0,020
-176,227	-40,147	0,044	0,017
-175,212	-200,000	0,009	-0,058
-174,198	-200,000	-0,010	0,038
-173,183	800,000	-0,031	-0,094
-172,169	800,000	-0,067	-0,160
-171,154	800,000	0,015	0,042
-170,139	-200,000	-0,002	-0,053
-169,125	231,493	0,029	0,035
-168,110	-200,000	-0,009	0,079
-167,096	800,000	-0,017	-0,044
-166,081	-115,016	-0,091	-0,012
-165,066	561,990	-0,020	-0,036
-164,052	800,000	-0,048	0,125
-163,037	800,000	0,036	0,077
-162,023	68,887	0,033	0,025
-161,008	-200,000	0,007	0,068
-159,993	800,000	0,086	0,194
-158,979	-66,169	0,104	-0,030
-157,964	372,932	0,033	-0,049
-156,950	800,000	-0,029	-0,085
-155,935	227,447	0,058	-0,068
-154,920	50,224	0,088	0,060
-153,906	800,000	0,040	0,120
-152,891	800,000	0,033	0,087
-151,877	-117,553	-0,112	0,015
-150,862	177,697	0,158	0,168
-149,847	84,660	0,093	-0,074
-148,833	374,145	0,055	-0,082
-147,818	-200,000	-0,032	0,131
-146,804	618,593	0,081	0,149
-145,789	-200,000	-0,023	-0,139
-144,775	422,239	0,077	-0,121
-143,760	175,355	-0,128	-0,136
-142,745	-200,000	-0,041	0,132
-141,731	-129,252	-0,104	-0,010
-140,716	35,230	0,063	0,040
-139,702	-102,890	0,128	0,022
-138,687	154,477	0,102	-0,102
-137,672	800,000	0,024	0,074
-136,658	290,660	0,033	0,043
-135,643	37,918	-0,059	-0,038
-134,629	-2,896	-0,025	0,013
-133,614	29,972	0,082	-0,051
-132,599	800,000	-0,026	0,059
-131,585	-121,098	0,089	-0,011
-130,570	67,856	-0,064	0,048
-129,556	-200,000	-0,008	0,052
-128,541	-54,748	0,114	0,037
-127,526	-200,000	-0,007	-0,033
-126,512	175,079	0,036	-0,038
-125,497	-200,000	-0,006	-0,025
-124,483	247,534	0,041	-0,051
-123,468	114,354	0,091	0,081
-122,453	-100,175	-0,108	-0,019
-121,439	-2,629	-0,020	0,010
-120,424	230,192	-0,039	0,046
-119,410	283,622	0,092	-0,121
-118,395	16,643	-0,061	0,035
