DTS Sentinel unit serial number:	SN410029Multiplexer serial number:	ORYXHardware model number:	OX2-SRSoftware version number:	ORYX F/W v4,00 Oryx Data Collector v3.7.2.0data status	okinstallation	B4 Nyhavnadifferential loss correction	single-endedforward channel	channel 2reverse channel	N/Adate	2023/12/19time	00:00:13forward acquisition time	300,00reverse acquisition time	0,00gamma	499,1914k internal	0,3123k external	0,3123temperature offset calibration	1,0000default loss term (dB/km)	0,3820temperature slope calibration	1,0000multiplexer offset coefficient	1,0000multiplexer slope coefficient	1,0000fibre end	0,00T internal ref (°C)	22,25T ext. ref 1 (°C)	7,23T ext. ref 2 (°C)	7,26length (m)	temperature (°C)	Stokes	anti-Stokes-744,400	800,000	0,058	-0,161
-743,385	57,964	-0,262	0,191
-742,371	-179,784	0,141	-0,002
-741,356	-21,908	-0,130	0,059
-740,342	-200,000	0,001	-0,016
-739,327	49,215	-0,210	0,147
-738,312	-200,000	0,015	-0,054
-737,298	-168,002	-0,350	-0,010
-736,283	52,754	-0,028	-0,020
-735,269	511,676	-0,114	0,199
-734,254	800,000	0,078	-0,183
-733,239	-53,739	-0,319	-0,108
-732,225	800,000	0,048	-0,115
-731,210	-200,000	-0,001	0,033
-730,196	-200,000	0,035	0,154
-729,181	-200,000	0,015	0,103
-728,167	713,523	-0,061	-0,121
-727,152	90,060	0,019	-0,016
-726,137	489,491	-0,026	0,045
-725,123	314,726	-0,101	0,143
-724,108	800,000	0,017	0,050
-723,094	-143,251	-0,206	-0,015
-722,079	33,961	0,001	-0,001
-721,064	92,115	-0,008	0,006
-720,050	800,000	-0,013	-0,039
-719,035	-200,000	0,019	0,155
-718,021	-11,149	-0,034	0,017
-717,006	157,629	-0,094	-0,097
-715,991	-129,682	-0,196	0,020
-714,977	-63,565	-0,146	-0,044
-713,962	-200,000	-0,010	-0,063
-712,948	468,775	0,031	0,052
-711,933	55,424	-0,084	-0,061
-710,918	315,471	0,074	0,104
-709,904	0,542	-0,060	-0,032
-708,889	69,299	-0,128	-0,098
-707,875	-50,955	-0,102	-0,035
-706,860	800,000	0,044	0,122
-705,845	148,958	-0,039	0,039
-704,831	14,059	-0,098	0,056
-703,816	-21,010	0,007	0,003
-702,802	259,121	-0,056	-0,073
-701,787	454,991	-0,118	-0,195
-700,772	769,561	0,021	0,043
-699,758	800,000	-0,018	0,045
-698,743	524,695	0,115	0,203
-697,729	-200,000	-0,025	0,116
-696,714	-200,000	0,014	-0,058
-695,699	800,000	0,027	-0,072
-694,685	-34,814	-0,178	-0,072
-693,670	183,607	-0,070	-0,077
-692,656	-118,267	-0,061	0,008
-691,641	800,000	0,034	-0,103
-690,627	-24,622	0,104	0,046
-689,612	-200,000	-0,016	-0,118
-688,597	-48,376	-0,114	0,041
-687,583	205,285	-0,081	-0,094
-686,568	800,000	0,016	0,049
-685,554	-89,481	-0,055	-0,012
-684,539	-98,131	-0,200	-0,038
-683,524	-85,711	-0,082	0,019
-682,510	3,350	0,105	0,057
-681,495	31,837	-0,168	0,107
-680,481	536,229	-0,056	0,099
-679,466	-124,758	-0,171	-0,019
-678,451	-3,793	-0,087	-0,045
-677,437	-200,000	0,008	-0,103
-676,422	-200,000	0,020	-0,166
-675,408	-160,229	0,045	-0,002
-674,393	93,931	-0,089	0,075
-673,378	32,473	-0,074	-0,047
-672,364	246,675	-0,064	-0,081
-671,349	240,664	-0,055	-0,069
-670,335	443,409	-0,030	-0,049
-669,320	354,840	-0,108	0,161
-668,305	-200,000	-0,008	0,084
-667,291	21,207	-0,082	-0,049
-666,276	-160,022	-0,051	-0,002
-665,262	800,000	-0,083	-0,214
-664,247	303,331	-0,060	-0,083
-663,232	-200,000	-0,012	0,115
-662,218	214,363	-0,060	0,071
-661,203	653,774	0,049	0,094
-660,189	314,576	0,066	0,093
-659,174	-53,688	-0,084	-0,028
-658,159	-62,526	-0,098	0,030
-657,145	48,984	-0,108	-0,075
-656,130	36,792	-0,085	-0,056
-655,116	-141,932	-0,021	0,002
-654,101	-200,000	-0,015	0,059
-653,086	-124,443	0,080	-0,009
-652,072	800,000	0,031	0,080
-651,057	-200,000	0,012	0,062
-650,043	637,951	0,056	-0,106
-649,028	-200,000	-0,042	-0,212
-648,014	333,498	-0,104	0,150
-646,999	-49,167	0,024	-0,009
-645,984	-200,000	0,019	0,077
-644,970	344,293	-0,031	0,046
-643,955	160,000	0,043	0,045
-642,941	281,013	-0,079	0,105
-641,926	800,000	-0,051	0,121
-640,911	-200,000	0,004	-0,046
-639,897	11,822	0,124	0,070
-638,882	-22,671	-0,044	-0,019
-637,868	800,000	0,035	0,082
-636,853	-92,212	-0,184	-0,038
-635,838	-52,650	-0,051	0,017
-634,824	-72,445	0,186	-0,051
-633,809	-200,000	-0,027	-0,093
-632,795	-200,000	0,013	0,084
-631,780	-37,047	0,051	-0,020
-630,765	80,648	0,125	-0,100
-629,751	-60,196	-0,149	0,047
-628,736	-200,000	-0,004	-0,035
-627,722	-85,046	-0,197	-0,045
-626,707	53,111	-0,108	0,077
-625,692	-200,000	-0,024	0,237
-624,678	-106,433	0,027	0,004
-623,663	800,000	-0,050	-0,107
-622,649	447,446	0,024	-0,040
-621,634	246,194	-0,022	-0,028
-620,619	518,851	-0,058	-0,101
-619,605	-200,000	0,000	0,026
-618,590	-200,000	0,001	0,079
-617,576	-50,602	-0,058	-0,020
-616,561	-76,994	-0,054	0,014
-615,546	209,455	-0,065	-0,076
-614,532	800,000	-0,090	-0,193
-613,517	-35,420	-0,028	-0,011
-612,503	-200,000	0,015	-0,098
-611,488	208,586	-0,072	0,083
-610,474	145,614	-0,100	-0,099
-609,459	-51,280	0,043	0,015
-608,444	-77,832	-0,040	0,010
-607,430	305,371	-0,037	-0,051
-606,415	568,802	0,025	0,045
-605,401	129,905	-0,054	0,051
-604,386	-128,656	-0,065	-0,007
-603,371	2,862	0,076	0,041
-602,357	-25,603	0,123	-0,053
-601,342	485,383	-0,018	0,030
-600,328	-136,629	-0,171	0,014
-599,313	800,000	0,026	-0,078
-598,298	800,000	0,011	-0,023
-597,284	44,046	-0,025	-0,017
-596,269	74,180	0,066	-0,052
-595,255	-30,508	0,044	-0,018
-594,240	155,638	-0,038	-0,039
-593,225	800,000	0,032	0,092
-592,211	403,991	-0,088	0,137
-591,196	-200,000	0,014	-0,049
-590,182	800,000	0,010	-0,025
-589,167	230,615	0,040	0,048
-588,152	36,354	-0,025	0,016
-587,138	800,000	0,007	-0,023
-586,123	356,891	-0,040	-0,059
-585,109	-200,000	-0,021	-0,164
-584,094	7,497	0,032	0,018
-583,079	45,756	0,029	-0,020
-582,065	-53,043	-0,112	-0,038
-581,050	205,648	-0,118	0,136
-580,036	168,597	0,066	-0,069
-579,021	-200,000	-0,024	-0,077
-578,006	-62,684	-0,084	-0,026
-576,992	25,972	0,078	-0,048
-575,977	-200,000	0,004	0,048
-574,963	800,000	0,026	0,084
-573,948	800,000	-0,040	-0,112
-572,934	800,000	0,017	-0,044
-571,919	679,711	-0,077	-0,149
-570,904	800,000	0,011	0,036
-569,890	-16,587	-0,054	0,025
-568,875	-111,125	-0,093	-0,014
-567,861	-116,628	-0,123	0,017
-566,846	177,020	-0,056	0,060
-565,831	-28,229	-0,039	0,017
-564,817	774,633	-0,024	0,049
-563,802	-176,374	-0,078	0,001
-562,788	53,044	-0,054	-0,038
-561,773	800,000	-0,055	0,123
-560,758	-172,214	-0,081	0,002
-559,744	429,013	0,046	0,074
-558,729	119,174	0,025	0,023
-557,715	-200,000	-0,012	0,048
-556,700	86,843	0,094	0,077
-555,685	800,000	-0,014	-0,031
-554,671	-200,000	0,003	-0,075
-553,656	78,968	0,054	-0,042
-552,642	49,745	0,027	0,019
-551,627	141,589	-0,058	-0,057
-550,612	171,161	-0,074	0,079
-549,598	800,000	0,029	0,071
-548,583	-179,053	-0,116	0,002
-547,569	-114,244	-0,185	0,026
-546,554	800,000	-0,046	0,110
-545,539	27,929	0,124	0,077
-544,525	-46,247	-0,028	0,010
-543,510	-77,399	-0,099	0,025
-542,496	-21,469	0,124	0,056
-541,481	-200,000	0,046	0,190
-540,466	-169,767	0,064	0,002
-539,452	-189,368	0,108	-0,001
-538,437	-200,000	0,025	0,128
-537,423	-200,000	-0,019	0,084
-536,408	212,346	0,019	0,023
-535,393	-114,633	-0,023	0,003
-534,379	29,823	0,036	0,023
-533,364	683,387	-0,026	0,051
-532,350	650,952	0,009	0,017
-531,335	9,538	0,223	0,125
-530,321	125,376	0,056	-0,052
-529,306	-3,909	-0,054	0,028
-528,291	800,000	-0,053	-0,112
-527,277	-157,997	0,110	0,005
-526,262	-88,942	-0,131	0,028
-525,248	-37,721	0,082	-0,032
-524,233	800,000	-0,042	0,107
-523,218	-200,000	-0,020	0,066
-522,204	800,000	0,034	0,073
-521,189	-200,000	0,016	0,056
-520,175	89,674	-0,140	-0,116
-519,160	77,481	-0,078	-0,061
-518,145	-200,000	-0,004	-0,024
-517,131	246,090	-0,072	-0,090
-516,116	-200,000	0,009	-0,045
-515,102	220,058	-0,095	0,112
-514,087	-200,000	0,042	0,205
-513,072	-9,212	-0,179	-0,088
-512,058	178,246	-0,045	-0,048
-511,043	-8,378	-0,044	-0,022
-510,029	74,360	0,061	-0,048
-509,014	274,332	-0,103	-0,135
-507,999	246,318	-0,095	-0,119
-506,985	-76,929	-0,027	0,007
-505,970	-200,000	0,044	0,170
-504,956	-155,161	0,211	-0,010
-503,941	145,816	0,135	0,133
-502,926	16,142	-0,030	0,018
-501,912	45,398	0,076	0,052
-500,897	-122,623	0,083	-0,010
-499,883	53,712	-0,073	-0,051
-498,868	-113,756	-0,057	0,008
-497,853	730,957	-0,046	0,091
-496,839	800,000	0,042	-0,101
-495,824	45,197	0,044	0,030
-494,810	800,000	0,029	-0,078
-493,795	661,356	0,024	0,046
-492,781	-200,000	0,009	0,046
-491,766	-200,000	-0,018	-0,214
-490,751	124,235	0,061	0,056
-489,737	-29,489	-0,096	0,040
-488,722	-200,000	-0,009	-0,065
-487,708	108,538	-0,149	0,132
-486,693	406,371	0,039	0,061
-485,678	-200,000	-0,016	-0,092
-484,664	22,782	-0,190	-0,115
-483,649	-200,000	-0,019	-0,088
-482,635	137,936	0,137	0,133
-481,620	18,017	0,080	0,047
-480,605	80,084	0,074	0,059
-479,591	545,768	-0,046	0,082
-478,576	-200,000	-0,002	-0,086
-477,562	-200,000	-0,004	0,106
-476,547	526,419	-0,023	-0,041
-475,532	800,000	0,022	0,054
-474,518	667,929	-0,015	-0,028
-473,503	-71,197	0,079	-0,022
-472,489	455,053	-0,018	-0,030
-471,474	59,422	-0,010	0,007
-470,459	329,456	0,026	-0,037
-469,445	130,558	0,075	0,071
-468,430	-200,000	0,013	0,149
-467,416	559,757	-0,052	-0,093
-466,401	420,744	-0,029	-0,046
-465,386	242,450	0,073	0,090
-464,372	97,937	0,061	0,052
-463,357	-200,000	-0,011	-0,054
-462,343	30,867	-0,044	-0,028
-461,328	800,000	-0,064	-0,153
-460,313	280,401	0,035	-0,046
-459,299	134,946	0,058	-0,055
-458,284	-200,000	-0,021	0,071
-457,270	-200,000	0,035	0,152
-456,255	-200,000	-0,007	-0,030
-455,241	76,260	-0,078	-0,061
-454,226	-148,594	-0,023	0,001
-453,211	-89,046	-0,052	-0,011
-452,197	3,350	0,125	0,067
-451,182	39,066	0,054	-0,036
-450,168	8,391	0,117	-0,065
-449,153	22,484	-0,059	0,035
-448,138	97,027	-0,048	0,041
-447,124	-200,000	-0,000	0,052
-446,109	-200,000	-0,000	0,032
-445,095	-200,000	0,044	-0,154
-444,080	189,895	0,109	0,120
-443,065	-17,630	0,131	-0,060
-442,051	-200,000	-0,005	-0,088
-441,036	-65,690	-0,110	-0,032
-440,022	308,129	0,094	0,129
-439,007	100,936	-0,079	-0,068
-437,992	-200,000	0,083	0,000
-436,978	-30,776	0,101	0,042
-435,963	-200,000	-0,034	0,167
-434,949	-137,292	0,016	0,001
-433,934	800,000	0,004	0,009
-432,919	-43,182	-0,063	-0,023
-431,905	403,619	0,080	-0,124
-430,890	-48,681	0,117	0,041
-429,876	-200,000	-0,005	-0,099
-428,861	628,169	0,052	0,097
-427,846	-116,308	-0,102	0,014
-426,832	-59,613	-0,043	-0,013
-425,817	-53,053	-0,064	0,022
-424,803	137,010	0,094	-0,090
-423,788	-117,394	0,151	-0,020
-422,773	-90,066	0,079	0,017
-421,759	101,307	-0,026	-0,022
-420,744	331,646	0,060	-0,085
-419,730	287,383	-0,044	-0,058
-418,715	-200,000	0,034	0,115
-417,701	-200,000	0,007	0,055
-416,686	800,000	0,039	0,110
-415,671	-33,560	0,093	0,038
-414,657	-98,753	0,032	-0,006
-413,642	-200,000	-0,005	-0,149
-412,628	-59,058	-0,073	-0,023
-411,613	-4,032	0,154	-0,078
-410,598	125,049	-0,043	-0,040
-409,584	388,988	-0,016	0,024
-408,569	-83,091	0,123	0,029
-407,555	-200,000	0,014	0,109
-406,540	800,000	-0,060	-0,148
-405,525	-60,154	-0,119	-0,037
-404,511	46,151	0,094	-0,064
-403,496	114,293	0,126	0,112
-402,482	-200,000	0,030	0,110
-401,467	-200,000	0,014	0,079
-400,452	-170,345	-0,084	-0,002
-399,438	-93,527	0,134	-0,027
-398,423	-8,522	-0,106	0,052
-397,409	-150,483	0,038	0,002
-396,394	-31,963	0,142	0,058
-395,379	258,399	0,009	-0,011
-394,365	-200,000	-0,035	0,136
-393,350	93,528	-0,021	0,018
-392,336	2,204	0,070	0,037
-391,321	-126,814	0,085	0,009
-390,306	47,459	0,082	0,056
-389,292	237,950	0,075	0,092
-388,277	-127,124	0,070	-0,007
-387,263	800,000	0,018	0,051
-386,248	-200,000	-0,033	0,113
-385,233	-200,000	0,008	-0,044
-384,219	63,485	0,038	0,028
-383,204	-115,930	-0,117	-0,016
-382,190	253,997	0,108	-0,136
-381,175	-103,467	-0,060	0,010
-380,160	418,362	0,013	-0,021
-379,146	169,703	0,047	0,050
-378,131	800,000	-0,017	-0,040
-377,117	-200,000	0,006	0,108
-376,102	184,306	-0,030	-0,033
-375,088	-200,000	-0,016	-0,100
-374,073	800,000	-0,014	0,040
-373,058	66,729	-0,068	-0,051
-372,044	-132,875	0,207	0,019
-371,029	-134,434	-0,086	-0,008
-370,015	368,854	-0,042	-0,062
-369,000	211,518	-0,069	0,080
-367,985	89,829	-0,094	-0,077
-366,971	800,000	-0,025	0,071
-365,956	-68,778	-0,039	-0,011
-364,942	329,242	0,055	0,078
-363,927	-142,109	0,092	0,007
-362,912	-200,000	-0,029	0,128
-361,898	6,466	0,111	0,061
-360,883	-39,321	-0,033	-0,013
-359,869	800,000	0,063	-0,144
-358,854	34,736	0,061	0,039
-357,839	599,462	-0,024	0,044
-356,825	-136,903	-0,138	0,012
-355,810	-92,397	-0,081	0,017
-354,796	329,581	-0,052	-0,074
-353,781	62,852	-0,188	-0,138
-352,766	96,093	0,071	-0,060
-351,752	-200,000	0,004	0,031
-350,737	-164,898	0,039	0,001
-349,723	-56,851	0,115	0,037
-348,708	800,000	-0,025	0,052
-347,693	58,848	-0,158	-0,114
-346,679	66,970	-0,094	-0,070
-345,664	-200,000	-0,009	0,054
-344,650	-117,414	0,119	0,016
-343,635	558,972	0,042	0,075
-342,620	-79,118	0,053	-0,013
-341,606	800,000	0,003	-0,007
-340,591	103,889	-0,058	-0,050
-339,577	-68,117	0,060	-0,017
-338,562	-200,000	-0,006	-0,050
-337,548	166,967	-0,051	-0,053
-336,533	29,738	0,049	0,031
-335,518	-200,000	-0,009	0,151
-334,504	-200,000	-0,121	0,000
-333,489	-110,470	-0,012	0,002
-332,475	-55,904	-0,056	0,018
-331,460	398,883	0,104	-0,160
-330,445	-200,000	0,007	-0,024
-329,431	800,000	0,070	-0,190
-328,416	-200,000	0,010	-0,046
-327,402	-75,856	0,104	0,027
-326,387	800,000	0,050	-0,103
-325,372	92,751	0,035	-0,029
-324,358	-200,000	-0,008	-0,045
-323,343	-200,000	0,025	-0,086
-322,329	-200,000	0,022	0,081
-321,314	-91,767	0,171	0,035
-320,299	245,865	0,020	0,024
-319,285	372,444	-0,025	0,037
-318,270	-59,133	-0,044	0,014
-317,256	327,661	0,069	-0,097
-316,241	800,000	0,010	-0,027
-315,226	228,855	0,077	0,092
-314,212	-200,000	-0,017	-0,148
-313,197	800,000	0,038	-0,086
-312,183	-200,000	0,006	0,071
-311,168	800,000	-0,004	-0,009
-310,153	-1,490	-0,032	-0,016
-309,139	800,000	-0,034	-0,099
-308,124	328,972	-0,063	0,089
-307,110	800,000	-0,010	-0,030
-306,095	130,566	0,042	0,040
-305,080	91,554	0,077	-0,063
-304,066	151,823	-0,102	-0,102
-303,051	800,000	0,038	-0,108
-302,037	-200,000	-0,017	-0,097
-301,022	-32,805	0,095	-0,039
-300,008	800,000	-0,042	-0,096
-298,993	800,000	0,011	-0,029
-297,978	-200,000	0,002	0,041
-296,964	124,700	0,068	0,063
-295,949	-200,000	0,016	-0,107
-294,935	800,000	0,021	0,059
-293,920	-116,247	0,112	0,015
-292,905	-116,760	0,073	0,010
-291,891	-200,000	-0,006	0,080
-290,876	800,000	0,041	-0,119
-289,862	753,085	0,006	0,011
-288,847	506,208	0,074	-0,126
-287,832	108,216	-0,136	-0,119
-286,818	800,000	-0,038	-0,092
-285,803	-123,329	-0,041	0,005
-284,789	800,000	0,045	-0,112
-283,774	-200,000	0,009	-0,033
-282,759	-200,000	-0,021	0,083
-281,745	84,899	0,101	0,081
-280,730	226,601	-0,054	-0,065
-279,716	-200,000	0,004	0,096
-278,701	-200,000	-0,016	0,079
-277,686	214,428	0,018	-0,021
-276,672	218,196	-0,082	-0,096
-275,657	-136,943	-0,070	0,006
-274,643	-35,565	0,033	-0,013
-273,628	-31,942	0,048	0,019
-272,613	-91,549	-0,058	-0,012
-271,599	301,746	0,119	0,162
-270,584	800,000	-0,026	-0,070
-269,570	167,968	0,011	0,012
-268,555	800,000	-0,018	0,045
-267,540	-200,000	-0,018	-0,122
-266,526	-200,000	0,036	-0,177
-265,511	255,528	0,071	-0,090
-264,497	502,217	-0,048	-0,082
-263,482	-116,823	0,095	0,013
-262,467	-200,000	-0,008	-0,063
-261,453	-6,568	0,049	-0,024
-260,438	165,601	-0,018	-0,018
-259,424	-37,074	0,078	-0,030
-258,409	100,912	0,048	0,041
-257,395	800,000	0,082	0,206
-256,380	164,241	0,083	0,086
-255,365	-75,609	0,070	-0,018
-254,351	-200,000	0,029	-0,098
-253,336	-192,211	-0,167	-0,001
-252,322	-3,952	0,030	-0,015
-251,307	800,000	0,025	-0,067
-250,292	-200,000	-0,027	-0,136
-249,278	-133,007	0,065	0,006
-248,263	-164,796	-0,082	0,003
-247,249	120,400	0,099	0,090
-246,234	-95,262	-0,109	-0,021
-245,219	77,088	0,024	-0,019
-244,205	-24,860	-0,034	0,015
-243,190	-147,024	0,060	0,004
-242,176	544,129	-0,019	-0,034
-241,161	303,377	0,075	-0,102
-240,146	-38,936	0,082	0,031
-239,132	213,115	-0,064	-0,074
-238,117	-200,000	0,012	-0,051
-237,103	16,652	0,131	-0,075
-236,088	-4,796	-0,010	-0,005
-235,073	204,578	0,064	0,072
-234,059	304,388	-0,053	-0,072
-233,044	41,133	-0,063	-0,042
-232,030	-200,000	0,011	0,073
-231,015	3,307	-0,132	0,070
-230,000	157,161	0,081	-0,082
-228,986	-200,000	-0,012	0,046
-227,971	-102,098	-0,064	-0,011
-226,957	-65,709	-0,092	0,027
-225,942	-11,033	-0,085	0,041
-224,927	100,281	0,060	-0,051
-223,913	44,334	-0,136	0,091
-222,898	-121,691	0,046	0,005
-221,884	327,963	0,045	-0,064
-220,869	392,528	-0,060	-0,092
-219,855	-200,000	-0,027	-0,117
-218,840	-57,044	-0,042	0,013
-217,825	-46,676	0,088	0,031
-216,811	-200,000	-0,003	0,076
-215,796	-200,000	0,018	-0,102
-214,782	204,511	-0,034	-0,039
-213,767	268,800	-0,021	-0,027
-212,752	176,680	0,063	0,067
-211,738	20,564	0,135	0,079
-210,723	-200,000	0,003	-0,023
-209,709	-10,351	-0,094	-0,045
-208,694	156,739	0,098	-0,099
-207,679	81,675	-0,082	0,065
-206,665	-82,764	0,070	0,016
-205,650	-200,000	-0,012	0,159
-204,636	-200,000	-0,042	0,244
-203,621	-200,000	-0,007	0,168
-202,606	-49,898	-0,066	-0,023
-201,592	283,161	-0,028	0,036
-200,577	-99,437	-0,057	-0,010
-199,563	-200,000	-0,019	-0,137
-198,548	-200,000	-0,002	-0,009
-197,533	328,551	-0,041	-0,057
-196,519	-200,000	0,011	-0,090
-195,504	79,875	0,144	0,113
-194,490	-200,000	0,005	0,027
-193,475	59,651	-0,072	-0,052
-192,460	-92,645	0,036	0,007
-191,446	649,947	0,030	0,057
-190,431	-200,000	-0,028	0,146
-189,417	-132,621	-0,059	0,005
-188,402	4,297	-0,059	0,032
-187,387	57,273	-0,055	-0,039
-186,373	-200,000	-0,022	-0,084
-185,358	-50,436	0,028	0,010
-184,344	-76,827	-0,108	0,027
-183,329	-12,187	-0,130	0,062
-182,315	118,428	0,008	-0,007
-181,300	-94,579	0,099	-0,019
-180,285	15,364	0,106	-0,061
-179,271	671,637	-0,017	0,033
-178,256	-94,957	-0,046	-0,009
-177,242	311,495	-0,051	0,070
-176,227	-200,000	-0,006	0,071
-175,212	798,224	0,027	0,055
-174,198	35,799	-0,138	0,088
-173,183	-67,571	-0,092	0,026
-172,169	-39,482	-0,106	-0,040
-171,154	599,051	0,014	0,026
-170,139	-200,000	-0,017	-0,065
-169,125	359,211	0,057	0,084
-168,110	106,652	0,079	0,069
-167,096	-128,805	-0,165	0,017
-166,081	-103,568	-0,072	0,012
-165,066	-200,000	0,009	0,051
-164,052	40,794	0,074	0,048
-163,037	-200,000	0,025	0,140
-162,023	3,012	0,174	-0,092
-161,008	73,966	-0,059	0,045
-159,993	128,549	0,057	-0,053
-158,979	800,000	-0,042	-0,098
-157,964	91,622	-0,031	0,026
-156,950	-200,000	-0,025	-0,103
-155,935	-79,828	0,087	0,021
-154,920	-200,000	-0,003	-0,015
-153,906	-75,176	0,080	-0,021
-152,891	36,861	-0,066	-0,042
-151,877	-66,967	-0,038	0,011
-150,862	-200,000	-0,003	-0,042
-149,847	-163,338	0,027	-0,001
-148,833	-110,465	-0,041	0,006
-147,818	-176,498	0,138	-0,003
-146,804	-33,997	-0,046	-0,018
-145,789	-63,846	-0,059	-0,017
-144,775	313,823	0,060	-0,082
-143,760	-65,755	-0,035	0,010
-142,745	-200,000	0,014	-0,114
-141,731	48,362	-0,053	-0,036
-140,716	-34,728	-0,099	0,039
-139,702	166,318	0,048	0,050
-138,687	-85,086	0,031	0,007
-137,672	51,234	0,016	0,011
-136,658	-200,000	-0,003	0,051
-135,643	-200,000	0,007	-0,055
-134,629	196,958	-0,043	0,048
-133,614	70,447	0,118	-0,088
-132,599	-101,343	0,020	0,003
-131,585	-90,514	0,107	-0,022
-130,570	-200,000	-0,009	-0,069
-129,556	-137,591	-0,089	0,007
-128,541	-200,000	0,012	0,056
-127,526	-200,000	0,006	0,035
-126,512	208,122	0,071	0,081
-125,497	-193,405	-0,096	-0,001
-124,483	-98,038	0,150	-0,028
-123,468	2,617	0,086	-0,045
-122,453	179,822	-0,041	-0,044
-121,439	5,105	-0,114	-0,061
-120,424	-26,462	-0,106	-0,045
-119,410	-200,000	-0,007	-0,075
