DTS Sentinel unit serial number:	SN410029Multiplexer serial number:	ORYXHardware model number:	OX2-SRSoftware version number:	ORYX F/W v4,00 Oryx Data Collector v3.7.2.0data status	okinstallation	B4 Nyhavnadifferential loss correction	single-endedforward channel	channel 2reverse channel	N/Adate	2023/12/15time	16:10:13forward acquisition time	300,00reverse acquisition time	0,00gamma	499,1914k internal	0,3147k external	0,3147temperature offset calibration	1,0000default loss term (dB/km)	0,3820temperature slope calibration	1,0000multiplexer offset coefficient	1,0000multiplexer slope coefficient	1,0000fibre end	0,00T internal ref (°C)	17,13T ext. ref 1 (°C)	3,04T ext. ref 2 (°C)	3,15length (m)	temperature (°C)	Stokes	anti-Stokes-744,400	-200,000	0,009	-0,078
-743,385	-120,674	-0,181	0,022
-742,371	-103,035	0,167	-0,029
-741,356	-2,434	-0,343	0,177
-740,342	-61,534	0,087	0,027
-739,327	-110,619	-0,304	0,046
-738,312	-158,300	0,104	0,004
-737,298	-12,913	-0,362	-0,173
-736,283	189,992	0,059	0,066
-735,269	-173,926	-0,323	0,007
-734,254	36,334	-0,079	0,051
-733,239	-27,830	-0,384	-0,164
-732,225	-25,738	0,179	0,078
-731,210	800,000	-0,038	0,090
-730,196	-7,821	-0,048	-0,024
-729,181	-66,604	-0,102	-0,030
-728,167	-51,240	0,108	-0,037
-727,152	-66,097	-0,039	0,012
-726,137	800,000	0,058	-0,179
-725,123	-200,000	0,033	-0,120
-724,108	800,000	-0,065	-0,168
-723,094	-41,382	-0,096	0,036
-722,079	548,449	-0,041	0,073
-721,064	800,000	-0,037	0,100
-720,050	284,981	-0,067	-0,090
-719,035	-51,008	-0,070	-0,024
-718,021	-129,656	-0,122	-0,012
-717,006	273,962	-0,026	0,034
-715,991	-103,337	-0,083	0,014
-714,977	177,519	0,095	0,103
-713,962	382,452	-0,048	-0,073
-712,948	-200,000	0,006	0,089
-711,933	-2,277	0,020	0,010
-710,918	-200,000	0,004	0,032
-709,904	800,000	0,041	0,084
-708,889	800,000	0,026	0,055
-707,875	265,291	-0,130	-0,168
-706,860	-200,000	-0,004	-0,015
-705,845	524,388	0,033	-0,058
-704,831	-200,000	-0,008	0,090
-703,816	-61,222	-0,053	-0,016
-702,802	104,790	0,096	0,084
-701,787	-147,157	0,040	0,002
-700,772	-15,977	0,179	-0,084
-699,758	189,532	0,064	-0,071
-698,743	213,226	-0,011	-0,013
-697,729	-200,000	-0,014	0,170
-696,714	-88,691	-0,035	0,008
-695,699	32,273	0,137	-0,087
-694,685	-149,433	-0,116	0,007
-693,670	264,864	0,064	-0,083
-692,656	691,174	0,057	0,111
-691,641	-73,758	-0,076	-0,020
-690,627	-200,000	0,018	0,097
-689,612	-186,312	0,134	0,001
-688,597	136,690	-0,045	0,044
-687,583	610,414	-0,047	0,088
-686,568	256,282	0,015	0,019
-685,554	174,267	-0,093	-0,100
-684,539	-2,456	-0,038	0,020
-683,524	800,000	-0,051	0,110
-682,510	31,110	0,091	-0,058
-681,495	84,745	-0,051	0,041
-680,481	-58,565	-0,058	0,018
-679,466	-35,032	-0,132	-0,053
-678,451	395,680	-0,089	0,137
-677,437	132,548	0,134	0,127
-676,422	-4,726	-0,048	-0,024
-675,408	132,156	-0,029	0,028
-674,393	211,410	-0,076	0,089
-673,378	-200,000	-0,007	-0,157
-672,364	800,000	-0,032	-0,103
-671,349	147,877	-0,052	-0,052
-670,335	105,818	-0,042	0,037
-669,320	-108,584	0,030	-0,005
-668,305	-200,000	0,021	-0,175
-667,291	311,422	-0,028	-0,038
-666,276	-69,561	0,039	-0,011
-665,262	-200,000	-0,034	-0,175
-664,247	-85,684	-0,070	-0,016
-663,232	145,966	0,068	-0,067
-662,218	331,353	-0,057	0,081
-661,203	-67,286	0,130	-0,037
-660,189	-200,000	0,010	-0,047
-659,174	800,000	0,025	-0,054
-658,159	-200,000	-0,011	-0,098
-657,145	-108,408	0,077	-0,012
-656,130	-200,000	0,016	-0,156
-655,116	152,261	-0,072	0,073
-654,101	-200,000	0,014	0,147
-653,086	-200,000	-0,007	-0,036
-652,072	-200,000	-0,057	-0,245
-651,057	118,258	-0,049	-0,045
-650,043	-200,000	0,037	-0,160
-649,028	600,628	-0,051	-0,094
-648,014	-135,989	-0,057	0,005
-646,999	800,000	0,021	-0,064
-645,984	-200,000	0,030	0,117
-644,970	-200,000	0,006	-0,054
-643,955	-200,000	-0,005	-0,027
-642,941	-26,940	-0,126	0,054
-641,926	441,953	0,044	0,071
-640,911	800,000	-0,065	0,139
-639,897	-200,000	-0,023	0,136
-638,882	58,676	-0,097	-0,070
-637,868	800,000	0,035	-0,079
-636,853	60,029	-0,099	-0,072
-635,838	-40,968	0,113	0,043
-634,824	800,000	0,024	-0,055
-633,809	18,069	-0,058	-0,034
-632,795	435,349	0,053	0,085
-631,780	376,753	0,039	0,059
-630,765	-14,395	-0,137	-0,065
-629,751	245,573	-0,137	-0,170
-628,736	-200,000	0,000	-0,005
-627,722	-0,907	-0,019	0,010
-626,707	-118,779	0,038	0,005
-625,692	431,710	-0,042	0,068
-624,678	-101,492	-0,142	-0,025
-623,663	-22,642	-0,146	-0,065
-622,649	77,158	-0,157	0,123
-621,634	-80,840	-0,174	0,042
-620,619	-119,299	0,101	-0,013
-619,605	293,071	-0,051	0,069
-618,590	-200,000	-0,020	-0,119
-617,576	800,000	-0,027	0,085
-616,561	10,309	0,068	0,038
-615,546	-21,892	-0,071	0,032
-614,532	-200,000	-0,037	-0,157
-613,517	-155,374	0,057	0,003
-612,503	431,259	-0,042	0,066
-611,488	-24,442	0,179	0,078
-610,474	48,886	0,112	0,077
-609,459	-200,000	0,006	0,029
-608,444	-200,000	-0,010	-0,138
-607,430	-95,693	-0,033	0,006
-606,415	360,309	-0,055	-0,081
-605,401	15,696	0,079	-0,045
-604,386	229,967	0,038	0,046
-603,371	252,365	0,082	0,103
-602,357	-200,000	-0,004	0,052
-601,342	-93,447	-0,176	-0,036
-600,328	73,946	0,062	0,048
-599,313	-49,687	-0,012	0,004
-598,298	-17,759	0,046	-0,021
-597,284	-51,101	0,057	-0,020
-596,269	68,028	0,129	0,097
-595,255	-37,639	-0,105	-0,041
-594,240	16,735	-0,101	-0,058
-593,225	-181,642	-0,123	0,002
-592,211	531,600	0,015	-0,026
-591,196	268,888	-0,032	-0,041
-590,182	51,258	0,154	0,107
-589,167	367,694	0,089	0,133
-588,152	800,000	-0,031	-0,066
-587,138	-200,000	0,036	0,116
-586,123	154,722	0,054	-0,055
-585,109	-200,000	-0,005	-0,066
-584,094	658,393	0,003	-0,006
-583,079	-43,176	0,039	-0,014
-582,065	183,144	0,030	0,033
-581,050	466,250	0,019	-0,031
-580,036	323,164	-0,075	0,106
-579,021	44,315	-0,047	0,031
-578,006	27,386	0,039	-0,024
-576,992	181,731	0,074	-0,080
-575,977	403,461	0,010	-0,015
-574,963	638,699	0,025	-0,046
-573,948	-84,656	0,057	0,013
-572,934	-64,369	-0,065	0,019
-571,919	-200,000	-0,003	-0,156
-570,904	-55,575	0,138	-0,045
-569,890	557,163	-0,051	0,090
-568,875	-200,000	-0,042	0,149
-567,861	-200,000	0,037	0,166
-566,846	2,725	-0,085	0,045
-565,831	-20,708	0,158	0,071
-564,817	52,371	-0,042	-0,029
-563,802	800,000	-0,031	-0,077
-562,788	43,548	0,039	0,026
-561,773	-151,218	0,054	-0,003
-560,758	36,095	-0,036	-0,023
-559,744	-32,756	-0,079	0,032
-558,729	666,923	-0,047	0,090
-557,715	-48,620	-0,088	0,031
-556,700	-95,432	-0,031	0,006
-555,685	800,000	0,045	0,099
-554,671	-102,667	-0,064	-0,011
-553,656	-143,194	-0,136	0,009
-552,642	481,623	-0,023	-0,038
-551,627	105,488	0,027	0,023
-550,612	440,022	0,042	-0,068
-549,598	-36,844	-0,110	-0,043
-548,583	-138,481	-0,045	0,004
-547,569	-114,438	-0,074	0,010
-546,554	-121,114	0,103	0,013
-545,539	127,746	-0,036	-0,034
-544,525	553,840	0,031	0,054
-543,510	-200,000	0,009	-0,076
-542,496	78,954	0,011	0,008
-541,481	744,073	0,035	-0,069
-540,466	146,047	-0,012	-0,012
-539,452	-94,672	0,095	-0,019
-538,437	800,000	-0,040	-0,085
-537,423	383,182	0,050	-0,075
-536,408	197,364	-0,066	-0,074
-535,393	-200,000	0,008	-0,061
-534,379	-92,511	0,052	-0,011
-533,364	355,340	-0,036	-0,053
-532,350	-23,455	0,096	-0,042
-531,335	285,588	-0,011	-0,014
-530,321	-118,443	0,044	0,006
-529,306	-200,000	-0,031	-0,110
-528,291	-200,000	-0,015	-0,134
-527,277	17,641	0,071	0,041
-526,262	800,000	0,014	0,036
-525,248	-63,461	-0,115	0,034
-524,233	-80,743	0,112	0,027
-523,218	800,000	-0,012	0,031
-522,204	-133,161	-0,164	0,015
-521,189	-69,502	0,130	-0,036
-520,175	402,867	0,051	-0,079
-519,160	130,986	-0,025	-0,023
-518,145	277,963	-0,053	-0,069
-517,131	-120,908	0,027	0,003
-516,116	800,000	-0,041	0,126
-515,102	-138,200	-0,098	0,008
-514,087	556,685	0,041	-0,073
-513,072	-62,315	-0,059	0,018
-512,058	800,000	0,042	0,090
-511,043	132,837	0,147	0,139
-510,029	107,359	-0,052	0,045
-509,014	521,640	0,053	-0,092
-507,999	647,941	0,032	-0,061
-506,985	-200,000	-0,026	-0,092
-505,970	18,682	-0,157	-0,092
-504,956	166,744	-0,063	-0,066
-503,941	164,546	-0,032	-0,033
-502,926	618,453	0,017	-0,032
-501,912	-200,000	0,031	0,109
-500,897	-200,000	-0,034	0,112
-499,883	800,000	-0,036	0,107
-498,868	101,362	-0,049	-0,042
-497,853	-200,000	0,001	0,011
-496,839	-130,318	0,020	0,002
-495,824	34,818	-0,008	-0,005
-494,810	-200,000	0,023	0,112
-493,795	-200,000	0,022	0,097
-492,781	-200,000	0,011	0,043
-491,766	222,440	0,012	-0,014
-490,751	-161,026	0,026	-0,001
-489,737	7,003	0,114	-0,062
-488,722	76,310	0,062	-0,048
-487,708	98,349	0,055	0,046
-486,693	-4,755	-0,117	0,059
-485,678	-107,717	-0,115	-0,018
-484,664	-0,463	0,015	0,008
-483,649	800,000	-0,024	-0,052
-482,635	-200,000	0,009	0,156
-481,620	165,311	-0,071	-0,073
-480,605	260,234	-0,092	-0,116
-479,591	261,350	-0,049	0,062
-478,576	-142,983	-0,074	-0,005
-477,562	182,573	0,077	0,083
-476,547	300,933	-0,031	0,041
-475,532	1,553	0,072	0,038
-474,518	800,000	-0,014	0,039
-473,503	-118,072	0,015	0,002
-472,489	-200,000	0,005	0,139
-471,474	-141,195	-0,136	0,010
-470,459	310,068	-0,055	0,075
-469,445	-96,450	0,103	0,020
-468,430	474,768	0,040	-0,067
-467,416	424,517	0,057	-0,089
-466,401	21,369	0,036	0,021
-465,386	-91,683	0,107	-0,022
-464,372	-115,522	0,051	0,007
-463,357	30,092	-0,064	0,040
-462,343	436,794	-0,048	-0,077
-461,328	74,862	0,056	-0,043
-460,313	-68,851	0,072	0,020
-459,299	791,415	-0,016	0,033
-458,284	149,346	0,165	0,163
-457,270	46,868	-0,053	0,036
-456,255	-24,813	-0,069	0,030
-455,241	45,821	0,109	-0,073
-454,226	-47,414	0,063	-0,022
-453,211	114,801	-0,099	-0,088
-452,197	-200,000	-0,017	0,095
-451,182	-26,126	0,184	-0,079
-450,168	-41,937	0,056	-0,021
-449,153	149,185	0,056	-0,055
-448,138	800,000	0,046	-0,147
-447,124	-200,000	-0,026	-0,103
-446,109	-200,000	-0,002	0,023
-445,095	121,100	-0,068	0,062
-444,080	-200,000	-0,006	0,062
-443,065	-200,000	0,005	0,079
-442,051	-107,189	-0,144	0,023
-441,036	-120,286	-0,150	-0,018
-440,022	97,381	-0,192	-0,161
-439,007	126,313	0,091	-0,084
-437,992	-173,157	0,202	0,004
-436,978	-63,448	0,091	-0,027
-435,963	-91,487	0,019	0,004
-434,949	-200,000	-0,012	-0,069
-433,934	136,945	0,052	-0,050
-432,919	50,359	-0,062	-0,043
-431,905	34,341	-0,053	-0,034
-430,890	800,000	0,017	-0,053
-429,876	800,000	-0,029	0,063
-428,861	-68,752	0,121	0,034
-427,846	800,000	-0,059	0,159
-426,832	-200,000	-0,009	0,057
-425,817	-42,119	-0,095	0,035
-424,803	800,000	0,020	0,045
-423,788	800,000	-0,026	0,052
-422,773	-200,000	-0,010	0,081
-421,759	800,000	0,041	-0,085
-420,744	613,893	0,079	0,144
-419,730	92,597	-0,072	-0,060
-418,715	134,577	-0,021	0,020
-417,701	596,374	-0,012	0,022
-416,686	800,000	0,025	-0,058
-415,671	107,871	0,056	0,049
-414,657	327,935	-0,036	-0,050
-413,642	61,369	0,028	-0,020
-412,628	-127,010	-0,052	-0,006
-411,613	200,154	0,061	-0,068
-410,598	-200,000	-0,013	-0,095
-409,584	-35,566	0,052	0,021
-408,569	158,262	0,069	0,070
-407,555	127,034	0,061	-0,056
-406,540	-28,133	-0,031	0,013
-405,525	-108,607	0,055	-0,009
-404,511	-159,121	-0,080	-0,003
-403,496	78,685	0,023	-0,018
-402,482	83,105	-0,118	-0,093
-401,467	-200,000	0,004	0,051
-400,452	-19,274	0,170	-0,077
-399,438	-1,104	0,083	0,043
-398,423	70,478	-0,028	-0,021
-397,409	-82,912	0,073	0,017
-396,394	-13,464	0,071	0,033
-395,379	427,283	0,068	-0,108
-394,365	23,274	-0,081	0,048
-393,350	556,796	0,008	0,013
-392,336	-62,330	0,106	-0,032
-391,321	517,799	0,078	0,134
-390,306	123,042	-0,056	0,051
-389,292	-200,000	0,045	-0,178
-388,277	98,585	0,122	0,102
-387,263	-167,448	0,166	-0,005
-386,248	7,041	0,052	0,028
-385,233	568,876	0,035	-0,063
-384,219	-200,000	-0,026	-0,149
-383,204	-140,874	-0,124	0,009
-382,190	800,000	0,011	-0,033
-381,175	-65,750	-0,135	-0,039
-380,160	80,204	0,084	-0,066
-379,146	800,000	0,014	-0,034
-378,131	17,665	0,074	0,043
-377,117	-200,000	-0,012	0,132
-376,102	209,990	-0,034	-0,038
-375,088	83,458	0,044	-0,035
-374,073	149,888	0,071	-0,070
-373,058	-22,469	-0,066	0,029
-372,044	-200,000	-0,015	0,093
-371,029	71,095	0,133	0,101
-370,015	-200,000	0,048	0,000
-369,000	-45,316	0,079	0,028
-367,985	800,000	-0,033	-0,092
-366,971	656,970	0,051	0,097
-365,956	-200,000	0,009	0,102
-364,942	20,985	-0,085	-0,050
-363,927	-88,772	0,166	-0,036
-362,912	-126,369	-0,072	0,008
-361,898	-88,283	0,062	-0,013
-360,883	-200,000	-0,026	-0,103
-359,869	-200,000	-0,012	-0,066
-358,854	800,000	-0,032	-0,092
-357,839	800,000	0,075	0,184
-356,825	-200,000	0,010	0,166
-355,810	362,621	-0,027	-0,039
-354,796	-143,089	0,045	-0,003
-353,781	60,753	0,076	-0,055
-352,766	218,787	-0,062	0,072
-351,752	364,685	0,006	-0,009
-350,737	183,589	-0,097	0,105
-349,723	95,300	0,141	0,117
-348,708	-1,448	0,063	0,032
-347,693	17,859	-0,144	-0,083
-346,679	-200,000	-0,006	-0,049
-345,664	109,404	-0,070	-0,061
-344,650	6,615	0,086	-0,046
-343,635	121,333	-0,113	0,102
-342,620	-125,868	0,149	-0,016
-341,606	-200,000	0,045	-0,190
-340,591	-38,146	-0,022	0,009
-339,577	79,186	-0,126	-0,098
-338,562	800,000	-0,039	-0,092
-337,548	565,028	0,073	0,130
-336,533	-16,866	0,044	0,020
-335,518	-200,000	0,001	0,061
-334,504	159,460	-0,082	0,083
-333,489	-200,000	0,002	0,139
-332,475	-130,811	-0,053	-0,005
-331,460	-200,000	-0,005	-0,100
-330,445	-137,052	0,083	-0,007
-329,431	-200,000	-0,013	0,078
-328,416	800,000	0,007	0,020
-327,402	210,782	0,015	0,018
-326,387	298,497	-0,060	0,080
-325,372	-182,987	-0,069	-0,001
-324,358	-118,307	0,069	0,009
-323,343	68,303	0,148	-0,111
-322,329	50,150	0,036	0,025
-321,314	800,000	0,010	0,028
-320,299	269,263	0,072	-0,093
-319,285	-27,630	-0,084	-0,035
-318,270	-126,868	-0,098	-0,010
-317,256	230,972	-0,058	0,069
-316,241	800,000	0,062	-0,128
-315,226	-200,000	0,002	-0,013
-314,212	83,029	0,075	0,059
-313,197	-200,000	0,026	-0,100
-312,183	273,117	0,035	-0,045
-311,168	202,461	0,049	-0,055
-310,153	800,000	-0,051	-0,154
-309,139	800,000	-0,047	-0,113
-308,124	-145,558	0,089	-0,006
-307,110	-200,000	-0,012	0,139
-306,095	-49,428	0,090	-0,031
-305,080	-119,493	0,128	0,016
-304,066	-200,000	0,015	0,116
-303,051	-52,464	-0,062	0,021
-302,037	800,000	0,086	-0,180
-301,022	-75,217	0,056	0,015
-300,008	-200,000	-0,010	0,074
-298,993	509,531	-0,076	0,128
-297,978	41,674	-0,037	-0,025
-296,964	-200,000	-0,020	0,080
-295,949	-6,577	-0,035	-0,017
-294,935	-111,354	-0,156	-0,023
-293,920	44,606	0,052	0,035
-292,905	800,000	0,050	-0,154
-291,891	404,842	-0,075	-0,115
-290,876	-200,000	0,005	0,057
-289,862	-0,789	-0,144	0,074
-288,847	-167,327	0,234	-0,007
-287,832	-200,000	0,004	-0,021
-286,818	-200,000	-0,025	0,119
-285,803	-116,850	-0,086	0,011
-284,789	169,765	-0,060	0,063
-283,774	-175,694	0,266	-0,005
-282,759	14,539	0,029	0,017
-281,745	272,169	-0,063	-0,081
-280,730	42,478	-0,042	-0,028
-279,716	-113,177	0,037	0,005
-278,701	-106,963	0,091	-0,014
-277,686	-121,595	-0,147	0,017
-276,672	-200,000	0,015	-0,058
-275,657	165,155	-0,038	0,040
-274,643	120,076	-0,059	-0,053
-273,628	-200,000	-0,002	-0,174
-272,613	387,574	0,044	0,066
-271,599	800,000	0,044	0,113
-270,584	-160,009	0,108	0,004
-269,570	-109,444	0,154	0,023
-268,555	-149,645	-0,163	-0,009
-267,540	-200,000	-0,011	0,067
-266,526	-200,000	-0,017	-0,064
-265,511	-200,000	-0,011	-0,061
-264,497	800,000	-0,045	-0,137
-263,482	-120,979	-0,055	0,007
-262,467	165,377	-0,025	-0,026
-261,453	-200,000	-0,004	0,036
-260,438	-127,226	-0,212	-0,022
-259,424	-200,000	0,022	0,100
-258,409	407,266	-0,047	-0,072
-257,395	-200,000	-0,024	-0,098
-256,380	-1,572	0,082	-0,042
-255,365	170,197	-0,103	-0,107
-254,351	-178,302	0,116	0,002
-253,336	476,274	-0,015	-0,025
-252,322	-159,943	-0,072	-0,003
-251,307	800,000	-0,062	-0,135
-250,292	314,505	0,010	-0,014
-249,278	-200,000	0,018	0,065
-248,263	800,000	0,023	0,073
-247,249	59,655	-0,072	-0,052
-246,234	22,906	0,117	-0,069
-245,219	800,000	-0,032	0,096
-244,205	44,872	-0,056	0,037
-243,190	-85,564	0,087	-0,019
-242,176	349,842	0,027	-0,039
-241,161	-200,000	-0,016	-0,055
-240,146	-200,000	-0,016	-0,061
-239,132	-200,000	0,027	-0,095
-238,117	169,438	-0,048	-0,050
-237,103	67,045	-0,144	-0,106
-236,088	185,796	-0,014	0,015
-235,073	-153,675	0,176	-0,009
-234,059	43,338	0,052	0,034
-233,044	-200,000	0,034	0,146
-232,030	47,496	0,101	0,068
-231,015	-200,000	0,019	-0,097
-230,000	-66,518	-0,147	0,042
-228,986	-35,374	-0,202	-0,079
-227,971	122,831	0,102	-0,092
-226,957	726,665	0,082	0,159
-225,942	122,607	0,026	-0,023
-224,927	351,911	-0,125	0,180
-223,913	279,446	-0,015	0,019
-222,898	175,784	0,101	0,106
-221,884	-139,683	0,139	-0,011
-220,869	71,262	-0,004	-0,003
-219,855	-200,000	0,026	-0,140
-218,840	800,000	-0,038	0,091
-217,825	-75,428	-0,063	0,016
-216,811	-134,108	0,029	-0,003
-215,796	800,000	-0,037	-0,108
-214,782	-200,000	0,000	-0,114
-213,767	101,829	-0,065	-0,055
-212,752	155,285	-0,118	0,118
-211,738	-6,320	0,084	0,041
-210,723	-173,474	-0,086	-0,002
-209,709	-147,260	-0,048	0,003
-208,694	-200,000	-0,025	-0,097
-207,679	800,000	-0,030	-0,065
-206,665	-200,000	-0,008	-0,150
-205,650	800,000	-0,050	0,113
-204,636	355,509	0,013	0,019
-203,621	800,000	-0,025	0,075
-202,606	800,000	0,032	0,071
-201,592	550,903	-0,102	-0,178
-200,577	-200,000	-0,011	-0,072
-199,563	-200,000	0,058	0,191
-198,548	-200,000	-0,005	-0,113
-197,533	44,036	0,016	0,010
-196,519	444,449	0,090	0,143
-195,504	-126,819	-0,043	0,005
-194,490	575,609	-0,043	-0,077
-193,475	-59,673	-0,206	-0,064
-192,460	800,000	-0,012	-0,036
-191,446	-52,470	0,059	-0,020
-190,431	293,649	0,101	0,134
-189,417	-70,805	-0,107	0,029
-188,402	-200,000	-0,002	0,080
-187,387	-69,230	-0,108	0,030
-186,373	162,037	0,105	-0,106
-185,358	86,499	0,036	-0,029
-184,344	-200,000	-0,036	0,120
-183,329	136,772	0,020	-0,019
-182,315	-200,000	0,019	-0,063
-181,300	690,698	0,036	-0,069
-180,285	-87,690	-0,133	-0,029
-179,271	743,869	-0,026	0,051
-178,256	47,644	-0,108	0,073
-177,242	-85,497	0,069	-0,015
-176,227	800,000	-0,047	0,141
-175,212	13,340	0,019	0,010
-174,198	-200,000	0,015	0,212
-173,183	294,622	-0,062	0,083
-172,169	-98,286	0,069	-0,013
-171,154	-70,016	-0,115	0,032
-170,139	-200,000	-0,011	0,055
-169,125	166,804	0,112	-0,115
-168,110	-200,000	-0,006	0,029
-167,096	680,755	0,073	0,138
-166,081	200,685	-0,048	-0,054
-165,066	-48,510	0,097	0,034
-164,052	-19,458	0,071	-0,032
-163,037	127,977	-0,129	0,119
-162,023	-200,000	0,037	0,123
-161,008	-38,995	0,085	0,032
-159,993	-200,000	0,059	-0,214
-158,979	18,875	-0,126	-0,073
-157,964	-4,565	-0,121	-0,060
-156,950	689,386	0,031	0,059
-155,935	-200,000	0,005	-0,042
-154,920	102,419	0,011	0,010
-153,906	54,467	-0,014	-0,010
-152,891	800,000	0,047	0,107
-151,877	-85,802	0,075	0,017
-150,862	739,124	-0,029	0,057
-149,847	-103,345	-0,061	-0,010
-148,833	800,000	0,037	0,082
-147,818	-200,000	-0,002	0,090
-146,804	62,367	-0,093	-0,067
-145,789	-200,000	-0,014	-0,101
-144,775	-200,000	0,034	-0,164
-143,760	-39,378	-0,149	-0,056
-142,745	-70,182	-0,061	0,017
-141,731	400,957	0,043	0,065
-140,716	101,612	-0,051	-0,043
-139,702	14,785	-0,052	0,029
-138,687	718,270	-0,020	-0,039
-137,672	7,615	0,067	-0,036
-136,658	303,551	-0,069	-0,093
-135,643	29,886	-0,050	-0,031
-134,629	-200,000	-0,004	-0,087
-133,614	-200,000	0,024	0,086
-132,599	146,607	0,031	0,030
-131,585	146,591	0,077	0,074
-130,570	57,622	0,080	0,056
-129,556	11,932	-0,085	-0,047
-128,541	-2,596	-0,082	0,042
-127,526	33,368	-0,168	-0,105
-126,512	217,714	0,046	0,053
-125,497	-95,367	0,006	0,001
-124,483	434,514	-0,071	-0,111
-123,468	87,576	-0,101	0,081
-122,453	589,919	-0,012	-0,021
-121,439	-177,818	-0,108	0,002
-120,424	15,294	0,032	-0,018
-119,410	-87,041	-0,116	0,025
