DTS Sentinel unit serial number:	SN410029Multiplexer serial number:	ORYXHardware model number:	OX2-SRSoftware version number:	ORYX F/W v4,00 Oryx Data Collector v3.7.2.0data status	okinstallation	B4 Nyhavnadifferential loss correction	single-endedforward channel	channel 2reverse channel	N/Adate	2023/12/16time	00:50:13forward acquisition time	300,00reverse acquisition time	0,00gamma	499,1914k internal	0,3128k external	0,3128temperature offset calibration	1,0000default loss term (dB/km)	0,3820temperature slope calibration	1,0000multiplexer offset coefficient	1,0000multiplexer slope coefficient	1,0000fibre end	0,00T internal ref (°C)	21,94T ext. ref 1 (°C)	6,86T ext. ref 2 (°C)	7,05length (m)	temperature (°C)	Stokes	anti-Stokes-744,400	786,707	0,038	0,079
-743,385	-133,136	-0,095	-0,009
-742,371	185,915	0,084	0,093
-741,356	-111,306	-0,103	0,016
-740,342	-92,185	0,034	0,007
-739,327	-118,655	-0,307	-0,040
-738,312	800,000	0,016	-0,044
-737,298	-60,647	-0,231	0,072
-736,283	800,000	0,038	-0,087
-735,269	154,853	-0,201	0,206
-734,254	-200,000	-0,022	0,097
-733,239	-133,149	-0,336	-0,031
-732,225	-71,125	0,185	-0,051
-731,210	188,095	0,082	0,091
-730,196	-200,000	-0,011	0,061
-729,181	-200,000	0,011	0,107
-728,167	-67,026	-0,015	-0,004
-727,152	29,187	0,051	0,032
-726,137	37,089	-0,046	0,030
-725,123	680,596	-0,030	-0,058
-724,108	317,785	-0,026	-0,037
-723,094	800,000	-0,034	0,100
-722,079	800,000	-0,039	-0,112
-721,064	-149,535	-0,140	-0,008
-720,050	-166,447	0,037	0,001
-719,035	235,386	-0,057	0,070
-718,021	-200,000	-0,009	-0,094
-717,006	466,873	-0,031	-0,052
-715,991	267,367	-0,039	-0,051
-714,977	239,119	-0,068	-0,084
-713,962	281,851	0,042	-0,055
-712,948	-157,398	-0,147	0,006
-711,933	-200,000	-0,047	-0,175
-710,918	763,193	-0,043	0,088
-709,904	-200,000	0,009	0,032
-708,889	-200,000	0,000	-0,012
-707,875	-37,529	-0,110	0,043
-706,860	800,000	0,052	0,116
-705,845	-102,989	-0,120	0,021
-704,831	-113,379	0,174	-0,025
-703,816	-109,062	-0,155	-0,024
-702,802	800,000	0,024	0,057
-701,787	800,000	-0,015	0,043
-700,772	800,000	0,044	0,109
-699,758	76,979	-0,096	-0,076
-698,743	-200,000	0,009	-0,100
-697,729	-30,733	-0,107	0,045
-696,714	112,712	0,088	0,079
-695,699	-7,254	0,102	-0,051
-694,685	64,841	-0,083	-0,062
-693,670	162,307	-0,072	0,075
-692,656	-200,000	0,010	-0,109
-691,641	-52,329	0,087	-0,030
-690,627	-156,246	0,071	0,003
-689,612	-200,000	-0,007	-0,054
-688,597	-126,652	-0,083	-0,009
-687,583	-200,000	0,003	-0,011
-686,568	33,269	-0,115	-0,074
-685,554	-200,000	-0,037	-0,126
-684,539	555,043	0,054	0,097
-683,524	25,513	0,066	0,041
-682,510	431,777	-0,020	-0,032
-681,495	800,000	0,071	0,160
-680,481	135,063	0,045	-0,043
-679,466	800,000	0,011	-0,032
-678,451	800,000	-0,017	0,054
-677,437	-200,000	-0,002	-0,117
-676,422	-79,637	-0,046	0,011
-675,408	800,000	0,034	0,072
-674,393	-200,000	-0,017	0,114
-673,378	180,184	-0,108	-0,118
-672,364	575,782	-0,083	-0,152
-671,349	-115,415	0,135	-0,019
-670,335	258,180	0,107	0,137
-669,320	-149,290	0,205	-0,012
-668,305	365,037	-0,020	0,030
-667,291	-200,000	0,008	-0,046
-666,276	-200,000	0,014	-0,143
-665,262	178,290	-0,090	0,097
-664,247	-198,173	-0,258	-0,001
-663,232	-200,000	-0,024	0,097
-662,218	-152,013	0,055	-0,003
-661,203	-39,848	0,088	-0,034
-660,189	234,465	0,105	0,129
-659,174	-155,379	-0,051	0,002
-658,159	43,236	-0,103	-0,070
-657,145	-200,000	-0,016	-0,156
-656,130	-3,191	-0,135	-0,070
-655,116	249,191	0,015	-0,019
-654,101	332,545	0,038	-0,054
-653,086	43,770	-0,083	-0,056
-652,072	-200,000	-0,014	-0,064
-651,057	800,000	-0,024	-0,067
-650,043	800,000	0,003	0,009
-649,028	-200,000	0,008	-0,029
-648,014	-116,239	0,034	-0,005
-646,999	800,000	0,005	-0,011
-645,984	218,541	0,061	0,073
-644,970	-94,695	0,117	-0,023
-643,955	800,000	0,034	-0,100
-642,941	-106,485	-0,101	0,017
-641,926	-27,532	0,035	-0,015
-640,911	-10,771	0,150	0,073
-639,897	-53,389	-0,071	0,024
-638,882	-200,000	-0,003	0,136
-637,868	-200,000	0,013	0,069
-636,853	-200,000	0,015	-0,080
-635,838	180,403	-0,111	0,121
-634,824	-200,000	0,008	0,078
-633,809	-64,729	0,147	-0,044
-632,795	59,834	-0,012	0,008
-631,780	-200,000	-0,008	-0,031
-630,765	-155,855	0,027	-0,001
-629,751	-31,866	-0,117	0,048
-628,736	38,547	0,058	0,038
-627,722	-130,254	-0,079	-0,008
-626,707	87,261	0,133	0,109
-625,692	-61,282	0,124	-0,039
-624,678	800,000	-0,048	0,098
-623,663	-200,000	-0,008	0,094
-622,649	-200,000	0,003	-0,012
-621,634	147,907	-0,079	-0,079
-620,619	800,000	0,013	-0,029
-619,605	800,000	0,027	-0,076
-618,590	-200,000	0,004	0,018
-617,576	8,895	-0,088	-0,049
-616,561	-132,346	-0,093	-0,009
-615,546	-179,592	-0,137	0,002
-614,532	-125,094	-0,051	-0,006
-613,517	109,311	-0,119	-0,106
-612,503	-200,000	0,002	-0,046
-611,488	357,001	0,085	0,126
-610,474	44,700	-0,054	0,037
-609,459	-59,440	-0,039	-0,012
-608,444	-21,324	0,023	0,011
-607,430	-200,000	0,001	-0,103
-606,415	-200,000	-0,015	-0,162
-605,401	-200,000	0,018	-0,075
-604,386	-25,953	0,126	0,055
-603,371	426,183	-0,062	0,100
-602,357	52,692	-0,119	-0,084
-601,342	285,903	0,023	-0,030
-600,328	84,237	0,065	0,052
-599,313	800,000	-0,039	-0,091
-598,298	289,483	-0,058	-0,078
-597,284	800,000	0,019	0,059
-596,269	-45,092	-0,108	0,039
-595,255	61,991	-0,056	0,041
-594,240	-200,000	0,032	-0,160
-593,225	-200,000	-0,021	-0,093
-592,211	-72,243	-0,061	0,017
-591,196	222,463	-0,018	-0,021
-590,182	-144,023	-0,073	-0,005
-589,167	-147,250	0,037	-0,002
-588,152	50,466	0,119	-0,083
-587,138	-200,000	-0,034	0,164
-586,123	-131,434	-0,055	0,005
-585,109	-200,000	-0,006	-0,171
-584,094	19,185	0,063	0,037
-583,079	-200,000	0,003	0,096
-582,065	-16,718	0,127	0,059
-581,050	83,739	-0,072	0,058
-580,036	-111,285	-0,103	0,015
-579,021	-84,557	-0,068	0,016
-578,006	-28,029	0,105	-0,045
-576,992	362,554	0,032	0,048
-575,977	12,143	0,108	0,061
-574,963	-157,370	-0,086	0,004
-573,948	37,296	0,139	-0,091
-572,934	149,044	0,067	0,067
-571,919	-24,135	-0,057	-0,025
-570,904	-200,000	-0,007	0,090
-569,890	644,055	-0,042	0,080
-568,875	-97,550	-0,117	-0,022
-567,861	-200,000	0,005	0,044
-566,846	-26,431	0,104	-0,045
-565,831	-200,000	0,012	-0,042
-564,817	-197,146	-0,072	-0,000
-563,802	289,182	-0,058	0,078
-562,788	209,340	0,169	-0,196
-561,773	83,811	-0,032	-0,026
-560,758	-200,000	-0,008	0,117
-559,744	-200,000	-0,006	0,043
-558,729	90,041	-0,139	0,115
-557,715	85,566	-0,034	-0,027
-556,700	-147,119	0,132	0,008
-555,685	-197,989	-0,140	0,001
-554,671	-48,368	0,055	0,019
-553,656	157,537	0,110	0,113
-552,642	-200,000	-0,032	0,105
-551,627	-200,000	-0,015	-0,056
-550,612	263,836	0,047	0,061
-549,598	800,000	0,039	0,080
-548,583	800,000	-0,039	-0,086
-547,569	-7,997	-0,167	-0,083
-546,554	-81,281	0,239	0,058
-545,539	352,891	-0,049	-0,073
-544,525	148,995	-0,084	-0,084
-543,510	800,000	-0,063	0,166
-542,496	-200,000	0,004	-0,056
-541,481	219,852	0,123	-0,146
-540,466	753,044	-0,025	0,050
-539,452	-200,000	-0,007	-0,033
-538,437	-200,000	0,004	0,032
-537,423	800,000	-0,064	0,133
-536,408	-93,905	-0,129	0,026
-535,393	-28,688	-0,173	0,073
-534,379	-56,921	-0,071	-0,023
-533,364	417,085	-0,085	0,134
-532,350	-82,566	0,031	-0,007
-531,335	15,021	-0,159	0,091
-530,321	-200,000	0,042	0,203
-529,306	-103,064	0,062	-0,011
-528,291	33,523	-0,197	-0,126
-527,277	97,267	0,061	-0,051
-526,262	-77,522	-0,023	0,006
-525,248	-129,437	0,121	0,012
-524,233	-85,667	0,019	-0,004
-523,218	-93,558	-0,070	0,014
-522,204	25,043	-0,149	-0,091
-521,189	305,202	0,035	0,049
-520,175	-200,000	0,022	-0,096
-519,160	-27,053	0,053	-0,023
-518,145	-26,943	0,111	0,048
-517,131	-34,379	0,143	-0,058
-516,116	153,853	0,077	-0,078
-515,102	-200,000	-0,016	-0,140
-514,087	433,779	-0,027	-0,044
-513,072	54,427	0,046	-0,033
-512,058	-200,000	0,044	-0,144
-511,043	-100,675	-0,038	0,007
-510,029	141,058	0,069	-0,067
-509,014	658,775	-0,038	0,073
-507,999	432,738	0,039	0,062
-506,985	800,000	-0,057	0,171
-505,970	30,446	-0,080	-0,050
-504,956	800,000	-0,020	0,041
-503,941	111,010	0,083	-0,074
-502,926	214,043	-0,028	-0,032
-501,912	361,241	-0,031	0,047
-500,897	-200,000	-0,009	0,068
-499,883	61,684	-0,130	-0,096
-498,868	97,172	-0,136	-0,115
-497,853	751,616	0,009	-0,018
-496,839	52,309	0,057	-0,040
-495,824	32,196	-0,026	0,016
-494,810	188,543	0,033	-0,037
-493,795	-200,000	-0,007	0,106
-492,781	-57,714	-0,051	-0,016
-491,766	-15,271	-0,143	-0,067
-490,751	77,275	0,067	0,052
-489,737	-200,000	0,011	0,090
-488,722	143,948	-0,095	0,094
-487,708	-50,161	0,111	-0,038
-486,693	-71,778	0,007	0,002
-485,678	-79,119	0,107	0,026
-484,664	-26,261	-0,029	-0,013
-483,649	-101,611	0,024	0,004
-482,635	626,530	-0,035	-0,065
-481,620	208,799	-0,029	0,033
-480,605	487,738	-0,031	0,053
-479,591	-200,000	0,011	-0,043
-478,576	-8,731	-0,024	0,012
-477,562	-200,000	-0,028	-0,119
-476,547	-200,000	0,008	-0,056
-475,532	-24,088	-0,059	-0,026
-474,518	477,494	0,036	-0,061
-473,503	-8,527	-0,035	0,017
-472,489	-200,000	0,016	0,099
-471,474	-123,183	-0,082	-0,010
-470,459	-89,338	0,063	0,014
-469,445	-148,284	0,045	-0,003
-468,430	800,000	-0,063	-0,162
-467,416	87,161	0,056	-0,046
-466,401	800,000	0,002	0,006
-465,386	793,255	0,045	0,092
-464,372	800,000	-0,034	0,071
-463,357	-59,283	-0,132	0,042
-462,343	-166,673	0,088	0,003
-461,328	-200,000	-0,041	0,179
-460,313	800,000	-0,039	0,110
-459,299	800,000	0,047	0,120
-458,284	800,000	0,016	-0,042
-457,270	472,770	-0,089	-0,148
-456,255	618,881	-0,013	0,024
-455,241	-120,762	0,129	-0,016
-454,226	245,763	0,077	-0,095
-453,211	304,149	-0,090	-0,124
-452,197	328,343	0,045	0,063
-451,182	129,238	-0,087	0,082
-450,168	-136,714	-0,059	-0,005
-449,153	-33,794	0,061	-0,025
-448,138	16,036	0,079	-0,046
-447,124	32,009	-0,067	0,042
-446,109	-51,821	0,010	0,003
-445,095	-83,309	0,110	-0,026
-444,080	-200,000	-0,016	0,062
-443,065	130,313	0,080	0,075
-442,051	21,477	-0,104	-0,062
-441,036	-119,670	0,070	0,009
-440,022	541,966	0,053	-0,093
-439,007	800,000	0,018	-0,044
-437,992	-200,000	-0,025	0,138
-436,978	298,670	0,042	0,057
-435,963	181,294	-0,028	0,030
-434,949	554,300	-0,040	0,071
-433,934	113,003	0,105	-0,094
-432,919	6,657	-0,129	-0,071
-431,905	-136,247	0,168	-0,014
-430,890	637,391	0,106	0,198
-429,876	41,494	0,099	0,066
-428,861	33,768	-0,033	0,021
-427,846	-200,000	0,003	-0,052
-426,832	-77,369	-0,072	0,018
-425,817	-200,000	0,003	0,039
-424,803	123,490	0,122	0,113
-423,788	-17,079	-0,109	0,050
-422,773	-76,549	0,125	-0,032
-421,759	111,353	-0,016	0,014
-420,744	800,000	-0,021	-0,058
-419,730	800,000	-0,027	-0,059
-418,715	-77,470	-0,091	0,023
-417,701	-79,399	0,112	-0,028
-416,686	203,872	0,022	-0,025
-415,671	696,715	-0,038	-0,074
-414,657	214,006	-0,082	0,095
-413,642	-5,028	-0,192	0,097
-412,628	139,671	0,022	-0,021
-411,613	97,514	-0,066	-0,055
-410,598	-200,000	-0,016	-0,094
-409,584	-200,000	-0,014	0,093
-408,569	146,695	0,031	0,031
-407,555	516,044	0,064	0,110
-406,540	-18,198	-0,163	0,075
-405,525	502,921	-0,036	-0,062
-404,511	-11,608	-0,052	0,025
-403,496	-200,000	-0,015	-0,092
-402,482	230,141	-0,084	-0,101
-401,467	565,639	0,052	-0,094
-400,452	-200,000	0,001	-0,036
-399,438	-45,521	0,056	0,020
-398,423	800,000	0,036	0,093
-397,409	-200,000	0,005	-0,147
-396,394	105,527	-0,078	-0,067
-395,379	-86,143	-0,057	-0,013
-394,365	-115,747	-0,015	0,002
-393,350	-100,475	-0,044	0,008
-392,336	-131,476	0,052	-0,005
-391,321	-123,682	0,102	0,012
-390,306	800,000	-0,060	0,122
-389,292	98,929	0,054	-0,046
-388,277	192,963	-0,052	-0,058
-387,263	-200,000	0,037	0,142
-386,248	211,996	0,024	-0,028
-385,233	-200,000	-0,001	-0,024
-384,219	294,391	-0,061	0,082
-383,204	410,160	0,072	-0,113
-382,190	221,462	-0,102	-0,120
-381,175	-139,476	-0,086	-0,007
-380,160	727,171	-0,075	0,148
-379,146	-124,741	0,025	0,003
-378,131	-101,054	0,050	-0,009
-377,117	-200,000	-0,027	-0,104
-376,102	38,277	0,074	-0,048
-375,088	-168,298	-0,103	-0,003
-374,073	-97,060	0,067	-0,013
-373,058	-111,824	-0,048	0,007
-372,044	-163,357	0,119	0,004
-371,029	-119,407	-0,062	-0,008
-370,015	-161,074	0,155	-0,006
-369,000	747,584	0,020	0,039
-367,985	-66,531	-0,035	0,010
-366,971	29,263	-0,112	-0,069
-365,956	-103,296	0,137	-0,023
-364,942	15,163	0,028	-0,016
-363,927	-200,000	0,006	-0,052
-362,912	-42,567	0,045	0,017
-361,898	184,807	0,064	-0,070
-360,883	93,353	0,043	-0,036
-359,869	1,145	-0,021	0,011
-358,854	304,700	0,034	-0,046
-357,839	800,000	-0,040	0,126
-356,825	-82,981	0,109	-0,026
-355,810	-200,000	-0,014	0,070
-354,796	-46,327	-0,128	0,046
-353,781	-200,000	-0,043	-0,209
-352,766	-67,459	-0,119	0,034
-351,752	-102,884	0,070	-0,012
-350,737	-72,518	-0,035	-0,009
-349,723	-26,900	-0,089	0,038
-348,708	-200,000	-0,023	0,083
-347,693	-200,000	-0,018	-0,095
-346,679	-200,000	0,001	-0,172
-345,664	-28,075	0,065	0,028
-344,650	43,598	-0,129	0,086
-343,635	-6,401	0,116	-0,058
-342,620	397,619	-0,059	0,091
-341,606	-200,000	-0,012	0,146
-340,591	-200,000	-0,010	-0,101
-339,577	211,298	-0,098	-0,113
-338,562	-200,000	-0,024	-0,079
-337,548	-200,000	0,035	0,158
-336,533	-200,000	-0,011	-0,076
-335,518	-86,685	-0,054	0,012
-334,504	257,286	0,023	-0,029
-333,489	-118,775	0,209	0,027
-332,475	302,809	0,103	-0,140
-331,460	-174,530	-0,069	-0,001
-330,445	-56,036	0,106	-0,034
-329,431	-200,000	0,018	-0,097
-328,416	-122,839	0,093	-0,011
-327,402	-200,000	0,017	0,133
-326,387	-162,733	0,051	0,002
-325,372	464,369	0,015	0,024
-324,358	-154,643	-0,015	-0,001
-323,343	-83,967	-0,079	0,018
-322,329	218,066	0,054	-0,063
-321,314	49,529	-0,124	0,085
-320,299	-9,339	-0,200	-0,098
-319,285	-13,094	-0,097	-0,046
-318,270	-81,630	-0,126	-0,030
-317,256	800,000	0,022	-0,069
-316,241	-200,000	0,013	-0,066
-315,226	536,100	-0,049	-0,086
-314,212	-57,482	0,051	0,016
-313,197	13,059	0,115	0,065
-312,183	800,000	-0,044	0,114
-311,168	-14,423	0,113	-0,053
-310,153	276,375	-0,066	-0,086
-309,139	800,000	-0,029	-0,082
-308,124	-139,761	-0,118	-0,009
-307,110	-152,116	0,087	-0,005
-306,095	-98,614	-0,027	0,005
-305,080	-200,000	-0,001	0,055
-304,066	113,421	0,081	-0,072
-303,051	552,955	-0,066	-0,116
-302,037	330,142	0,076	-0,108
-301,022	-117,823	0,102	-0,013
-300,008	-200,000	0,002	-0,039
-298,993	-200,000	0,010	0,208
-297,978	-200,000	-0,019	-0,084
-296,964	-200,000	-0,009	-0,056
-295,949	800,000	0,011	0,032
-294,935	57,039	0,088	0,063
-293,920	-200,000	-0,021	0,077
-292,905	-54,562	-0,070	-0,023
-291,891	-200,000	0,006	-0,023
-290,876	-200,000	-0,011	0,090
-289,862	-200,000	0,002	-0,013
-288,847	-200,000	0,007	-0,116
-287,832	-65,916	-0,073	-0,021
-286,818	-31,289	0,146	-0,060
-285,803	283,940	0,070	-0,092
-284,789	-1,703	-0,035	-0,018
-283,774	76,677	-0,089	0,069
-282,759	-200,000	-0,000	0,009
-281,745	-68,387	-0,087	-0,024
-280,730	-200,000	-0,000	0,043
-279,716	800,000	0,042	0,091
-278,701	450,088	-0,049	0,079
-277,686	-200,000	0,022	0,075
-276,672	659,524	-0,083	-0,157
-275,657	-156,826	0,053	-0,002
-274,643	800,000	-0,006	0,019
-273,628	656,393	0,061	-0,115
-272,613	-75,321	0,078	0,020
-271,599	298,130	0,075	0,101
-270,584	-106,129	0,069	-0,011
-269,570	-200,000	-0,011	-0,133
-268,555	800,000	0,022	-0,071
-267,540	225,282	-0,057	-0,068
-266,526	-200,000	-0,015	-0,058
-265,511	275,137	0,065	0,085
-264,497	-200,000	0,040	-0,137
-263,482	800,000	0,048	0,108
-262,467	-65,595	-0,116	-0,034
-261,453	104,257	0,033	0,028
-260,438	167,046	0,036	0,037
-259,424	48,188	-0,137	-0,094
-258,409	800,000	0,024	-0,070
-257,395	800,000	0,026	0,065
-256,380	-200,000	0,029	0,000
-255,365	-121,401	0,088	0,011
-254,351	-54,690	-0,073	0,024
-253,336	800,000	0,034	-0,096
-252,322	-53,203	-0,082	-0,027
-251,307	596,634	0,073	0,133
-250,292	-200,000	-0,028	-0,120
-249,278	-200,000	0,019	-0,098
-248,263	205,813	0,038	-0,043
-247,249	-200,000	-0,016	-0,126
-246,234	800,000	-0,035	0,085
-245,219	-100,439	-0,084	-0,015
-244,205	139,326	0,076	0,073
-243,190	-200,000	0,021	-0,169
-242,176	126,843	0,105	0,097
-241,161	800,000	-0,039	-0,079
-240,146	49,788	0,098	0,067
-239,132	453,391	-0,032	-0,052
-238,117	798,774	-0,068	-0,138
-237,103	-107,133	0,075	-0,012
-236,088	800,000	-0,008	0,021
-235,073	23,590	0,093	0,056
-234,059	-200,000	-0,011	0,052
-233,044	-200,000	-0,002	0,109
-232,030	126,692	-0,096	-0,089
-231,015	-200,000	-0,005	0,016
-230,000	48,151	-0,107	-0,073
-228,986	-200,000	0,005	0,079
-227,971	-189,156	0,154	-0,001
-226,957	-72,042	0,078	0,021
-225,942	78,051	-0,016	0,013
-224,927	379,701	0,038	-0,056
-223,913	-200,000	0,016	-0,085
-222,898	-143,678	-0,053	-0,004
-221,884	135,727	-0,078	0,074
-220,869	-200,000	0,015	-0,055
-219,855	800,000	-0,030	-0,080
-218,840	7,083	-0,118	-0,064
-217,825	-200,000	0,010	-0,042
-216,811	800,000	-0,019	-0,048
-215,796	51,353	-0,101	-0,070
-214,782	24,671	-0,039	-0,024
-213,767	54,980	0,119	-0,083
-212,752	-200,000	0,034	-0,140
-211,738	43,924	0,103	-0,069
-210,723	-22,638	0,112	-0,049
-209,709	-200,000	-0,018	-0,166
-208,694	-200,000	-0,020	0,100
-207,679	800,000	0,006	0,020
-206,665	-120,293	0,182	0,022
-205,650	-12,989	0,077	0,036
-204,636	-200,000	0,018	0,177
-203,621	-200,000	-0,018	0,065
-202,606	63,898	0,108	-0,079
-201,592	503,718	-0,030	0,052
-200,577	213,519	-0,044	0,050
-199,563	800,000	-0,016	0,036
-198,548	-134,105	0,041	0,004
-197,533	-172,419	-0,134	-0,003
-196,519	169,147	0,048	0,050
-195,504	-4,035	0,089	0,045
-194,490	86,462	-0,089	0,072
-193,475	-65,331	0,225	0,066
-192,460	-200,000	0,058	0,202
-191,446	-103,221	-0,056	-0,010
-190,431	-200,000	-0,008	0,090
-189,417	156,060	0,095	0,096
-188,402	-200,000	-0,009	0,054
-187,387	800,000	0,017	-0,049
-186,373	24,597	-0,050	-0,030
-185,358	-200,000	0,017	-0,121
-184,344	-200,000	0,016	0,203
-183,329	-27,474	-0,074	-0,031
-182,315	101,858	0,143	0,121
-181,300	-15,447	0,071	-0,033
-180,285	111,635	-0,126	0,111
-179,271	-81,379	0,059	-0,014
-178,256	-122,894	0,117	0,014
-177,242	-200,000	-0,000	0,010
-176,227	700,941	0,079	0,152
-175,212	605,362	0,037	0,068
-174,198	800,000	-0,013	-0,036
-173,183	-157,645	0,025	0,001
-172,169	-135,436	-0,164	-0,014
-171,154	-90,123	-0,050	0,010
-170,139	800,000	0,073	0,192
-169,125	185,744	0,102	0,111
-168,110	-121,819	-0,018	0,002
-167,096	208,116	-0,043	-0,049
-166,081	7,857	0,051	-0,028
-165,066	51,553	-0,032	0,022
-164,052	-200,000	-0,006	-0,225
-163,037	-200,000	0,061	0,225
-162,023	288,276	0,043	0,057
-161,008	56,295	0,051	0,036
-159,993	-54,134	-0,047	-0,016
-158,979	137,419	-0,017	-0,016
-157,964	55,613	-0,121	0,085
-156,950	243,865	-0,036	-0,044
-155,935	-187,133	-0,139	0,001
-154,920	-200,000	-0,024	0,197
-153,906	-90,999	0,125	0,026
-152,891	-200,000	-0,001	0,007
-151,877	-77,831	-0,094	-0,023
-150,862	258,692	0,010	0,012
-149,847	-127,548	-0,062	0,006
-148,833	-6,671	0,115	-0,057
-147,818	-200,000	-0,009	0,031
-146,804	-200,000	0,013	0,116
-145,789	800,000	-0,019	-0,050
-144,775	-200,000	0,031	0,125
-143,760	721,720	-0,016	0,031
-142,745	-200,000	-0,013	-0,047
-141,731	-64,160	0,109	0,032
-140,716	131,041	0,076	0,070
-139,702	-49,083	0,089	0,031
-138,687	-200,000	0,015	-0,135
-137,672	-8,761	0,055	0,027
-136,658	-23,441	-0,103	-0,045
-135,643	-123,471	0,068	-0,008
-134,629	-11,444	-0,111	-0,053
-133,614	800,000	0,030	0,080
-132,599	-200,000	-0,001	-0,030
-131,585	220,390	0,099	0,115
-130,570	80,781	-0,036	0,028
-129,556	74,813	0,084	0,064
-128,541	800,000	-0,037	-0,104
-127,526	-200,000	-0,030	0,111
-126,512	264,710	0,080	0,101
-125,497	-85,239	0,079	-0,018
-124,483	-76,022	-0,086	-0,022
-123,468	643,431	-0,053	-0,099
-122,453	-89,883	-0,056	0,012
-121,439	-122,260	-0,050	-0,006
