DTS Sentinel unit serial number:	SN410029Multiplexer serial number:	ORYXHardware model number:	OX2-SRSoftware version number:	ORYX F/W v4,00 Oryx Data Collector v3.7.2.0data status	okinstallation	B4 Nyhavnadifferential loss correction	single-endedforward channel	channel 2reverse channel	N/Adate	2023/12/16time	02:45:13forward acquisition time	300,00reverse acquisition time	0,00gamma	499,1914k internal	0,3128k external	0,3128temperature offset calibration	1,0000default loss term (dB/km)	0,3820temperature slope calibration	1,0000multiplexer offset coefficient	1,0000multiplexer slope coefficient	1,0000fibre end	0,00T internal ref (°C)	21,95T ext. ref 1 (°C)	7,13T ext. ref 2 (°C)	7,29length (m)	temperature (°C)	Stokes	anti-Stokes-744,400	400,661	0,052	0,082
-743,385	362,217	-0,102	0,153
-742,371	-62,970	0,035	0,011
-741,356	800,000	-0,068	0,169
-740,342	-200,000	-0,005	0,066
-739,327	-99,542	-0,274	0,051
-738,312	53,188	0,077	-0,055
-737,298	-29,593	-0,203	0,086
-736,283	229,501	0,039	0,047
-735,269	247,967	-0,150	0,189
-734,254	201,224	0,089	-0,102
-733,239	-14,065	-0,452	-0,216
-732,225	-114,970	0,125	-0,018
-731,210	25,876	0,165	0,102
-730,196	-87,904	-0,164	0,036
-729,181	-133,872	-0,041	0,004
-728,167	226,524	0,096	-0,116
-727,152	155,101	0,080	-0,081
-726,137	48,730	-0,086	-0,060
-725,123	-109,335	-0,072	-0,011
-724,108	12,490	0,071	-0,040
-723,094	265,593	-0,041	-0,054
-722,079	415,888	0,040	-0,064
-721,064	-40,787	-0,077	0,029
-720,050	-98,183	0,102	-0,019
-719,035	798,564	0,053	0,110
-718,021	-18,657	-0,057	0,026
-717,006	-30,932	-0,070	-0,029
-715,991	-200,000	0,019	-0,143
-714,977	101,046	-0,069	-0,060
-713,962	21,826	-0,014	0,008
-712,948	142,335	-0,071	0,070
-711,933	-97,459	-0,133	0,026
-710,918	310,571	-0,032	0,044
-709,904	-38,391	-0,211	-0,082
-708,889	-200,000	0,041	-0,220
-707,875	800,000	-0,041	-0,104
-706,860	758,132	0,024	0,048
-705,845	-62,261	0,098	0,030
-704,831	-200,000	0,002	0,210
-703,816	-58,598	-0,051	0,016
-702,802	496,212	-0,060	-0,103
-701,787	48,491	-0,092	0,064
-700,772	46,835	-0,055	-0,038
-699,758	800,000	-0,024	-0,064
-698,743	142,727	0,066	-0,065
-697,729	-200,000	-0,010	-0,071
-696,714	-11,492	-0,014	-0,007
-695,699	-92,743	0,033	-0,007
-694,685	-81,253	0,066	-0,016
-693,670	-200,000	-0,010	0,038
-692,656	445,067	0,013	0,020
-691,641	365,418	0,077	-0,116
-690,627	-45,450	0,100	0,037
-689,612	182,147	-0,042	0,046
-688,597	-200,000	-0,015	-0,090
-687,583	134,633	-0,024	-0,023
-686,568	-79,691	-0,095	-0,024
-685,554	-200,000	-0,021	0,084
-684,539	52,559	-0,072	0,051
-683,524	0,049	-0,030	-0,016
-682,510	-149,193	-0,054	-0,003
-681,495	341,942	-0,066	-0,095
-680,481	500,615	0,026	0,045
-679,466	260,350	-0,087	0,111
-678,451	80,744	0,024	0,019
-677,437	-200,000	0,024	-0,110
-676,422	-78,045	-0,025	0,006
-675,408	348,425	0,068	-0,099
-674,393	212,248	-0,035	-0,041
-673,378	800,000	0,032	0,074
-672,364	800,000	-0,054	-0,124
-671,349	-123,840	-0,123	-0,014
-670,335	-200,000	0,006	0,022
-669,320	265,320	0,054	0,069
-668,305	800,000	-0,009	0,024
-667,291	-93,385	-0,081	0,016
-666,276	-110,824	0,059	-0,009
-665,262	-14,859	-0,121	-0,057
-664,247	125,654	0,059	-0,055
-663,232	158,992	-0,038	0,039
-662,218	-200,000	-0,012	0,048
-661,203	-140,467	-0,121	-0,009
-660,189	301,680	-0,049	0,068
-659,174	-200,000	-0,008	0,078
-658,159	800,000	0,030	-0,072
-657,145	244,599	0,075	-0,093
-656,130	317,663	0,073	0,102
-655,116	-21,572	0,042	-0,019
-654,101	554,144	-0,079	0,142
-653,086	800,000	0,015	0,039
-652,072	800,000	-0,041	0,102
-651,057	-200,000	0,030	-0,137
-650,043	-159,858	-0,212	-0,008
-649,028	-200,000	-0,008	-0,031
-648,014	800,000	0,019	-0,046
-646,999	-137,684	-0,081	-0,007
-645,984	-200,000	0,001	0,114
-644,970	519,884	-0,012	0,021
-643,955	149,174	-0,015	0,015
-642,941	156,435	-0,076	-0,078
-641,926	-127,004	0,019	-0,002
-640,911	-63,241	0,069	-0,021
-639,897	-41,484	0,120	-0,045
-638,882	-142,832	-0,021	0,001
-637,868	800,000	0,009	-0,021
-636,853	-9,702	-0,092	-0,045
-635,838	24,831	-0,050	-0,030
-634,824	-130,212	-0,260	-0,026
-633,809	800,000	-0,059	0,181
-632,795	182,968	0,035	0,039
-631,780	61,211	-0,162	-0,119
-630,765	-200,000	0,012	-0,044
-629,751	-200,000	-0,000	-0,134
-628,736	800,000	-0,061	0,162
-627,722	800,000	0,038	-0,083
-626,707	-200,000	0,002	-0,059
-625,692	218,611	-0,012	-0,014
-624,678	-110,829	0,044	-0,007
-623,663	-200,000	0,004	0,017
-622,649	2,675	-0,070	0,037
-621,634	-151,101	-0,095	-0,005
-620,619	159,354	0,089	-0,092
-619,605	291,143	-0,057	0,076
-618,590	-81,323	0,039	0,010
-617,576	-200,000	0,009	0,031
-616,561	183,712	0,066	0,072
-615,546	-120,512	-0,024	-0,003
-614,532	59,416	0,134	-0,098
-613,517	-12,811	-0,063	0,030
-612,503	800,000	0,053	0,108
-611,488	83,281	-0,012	-0,010
-610,474	97,146	-0,059	-0,050
-609,459	-100,828	-0,029	0,005
-608,444	118,288	-0,073	-0,067
-607,430	176,756	-0,039	-0,042
-606,415	-200,000	0,034	-0,138
-605,401	-200,000	0,032	-0,128
-604,386	-200,000	0,008	-0,105
-603,371	310,231	0,095	0,133
-602,357	-200,000	-0,010	0,143
-601,342	404,925	-0,063	0,099
-600,328	-119,429	0,031	-0,004
-599,313	-162,549	-0,086	0,003
-598,298	58,406	0,044	-0,032
-597,284	-127,383	0,144	-0,015
-596,269	48,614	0,110	0,076
-595,255	-45,213	0,038	0,014
-594,240	-200,000	-0,019	0,110
-593,225	-29,976	-0,148	-0,062
-592,211	610,802	0,047	-0,088
-591,196	-54,592	0,059	0,020
-590,182	116,080	-0,061	-0,055
-589,167	281,129	0,021	0,027
-588,152	-200,000	0,003	0,094
-587,138	-200,000	-0,003	-0,212
-586,123	-200,000	-0,012	-0,097
-585,109	176,379	0,035	-0,038
-584,094	-16,719	0,147	0,069
-583,079	-46,215	-0,123	0,045
-582,065	800,000	-0,063	0,159
-581,050	800,000	-0,043	-0,103
-580,036	593,716	-0,015	0,028
-579,021	-52,214	0,077	0,026
-578,006	-35,970	-0,102	-0,041
-576,992	-60,132	-0,051	0,016
-575,977	-178,023	-0,047	-0,001
-574,963	292,879	-0,072	0,098
-573,948	-200,000	-0,011	0,037
-572,934	36,192	0,036	-0,024
-571,919	-200,000	-0,026	0,111
-570,904	-11,919	0,078	0,037
-569,890	-107,852	-0,137	-0,022
-568,875	-117,391	-0,071	0,009
-567,861	800,000	0,057	0,156
-566,846	-96,251	0,123	-0,024
-565,831	66,651	-0,037	-0,028
-564,817	95,637	-0,067	-0,056
-563,802	64,961	-0,063	-0,047
-562,788	-200,000	0,010	0,072
-561,773	-138,731	0,081	-0,006
-560,758	243,508	-0,052	-0,064
-559,744	-200,000	-0,038	0,181
-558,729	-61,170	0,082	-0,025
-557,715	127,618	-0,146	-0,137
-556,700	-40,192	0,079	-0,030
-555,685	-200,000	-0,052	-0,179
-554,671	683,429	-0,035	-0,068
-553,656	-52,815	0,103	-0,035
-552,642	-191,924	-0,026	0,000
-551,627	-147,981	-0,069	0,004
-550,612	-200,000	0,013	-0,137
-549,598	662,969	-0,034	-0,065
-548,583	360,986	-0,050	-0,075
-547,569	-25,289	-0,139	-0,060
-546,554	800,000	-0,041	0,127
-545,539	-82,108	0,114	0,027
-544,525	800,000	0,036	0,076
-543,510	800,000	-0,029	-0,073
-542,496	187,543	0,045	-0,050
-541,481	31,177	0,199	-0,126
-540,466	-33,453	0,100	-0,041
-539,452	312,074	0,010	-0,014
-538,437	600,263	-0,060	0,111
-537,423	-33,932	0,047	-0,019
-536,408	204,168	0,044	-0,051
-535,393	320,452	-0,049	-0,069
-534,379	-129,690	-0,032	-0,003
-533,364	318,692	-0,050	0,070
-532,350	13,572	0,067	0,038
-531,335	219,352	-0,056	-0,066
-530,321	46,525	0,047	0,032
-529,306	-200,000	-0,015	0,094
-528,291	800,000	-0,051	0,132
-527,277	627,467	-0,021	-0,040
-526,262	57,809	0,051	-0,036
-525,248	411,131	-0,101	0,159
-524,233	-64,301	-0,070	-0,021
-523,218	800,000	-0,023	-0,049
-522,204	520,532	0,059	0,102
-521,189	47,946	-0,121	-0,083
-520,175	276,971	-0,066	-0,087
-519,160	206,592	-0,070	0,081
-518,145	79,155	-0,054	-0,043
-517,131	-200,000	0,000	-0,010
-516,116	-8,424	-0,017	0,008
-515,102	800,000	0,016	-0,034
-514,087	-200,000	-0,015	-0,133
-513,072	800,000	0,083	-0,171
-512,058	-26,756	-0,055	-0,024
-511,043	-200,000	0,000	0,083
-510,029	-200,000	0,129	-0,000
-509,014	-200,000	-0,020	0,099
-507,999	66,920	-0,133	-0,099
-506,985	133,349	0,051	0,049
-505,970	-153,617	0,048	-0,002
-504,956	728,043	-0,030	0,059
-503,941	104,951	-0,045	0,039
-502,926	2,328	0,122	-0,065
-501,912	-152,449	0,082	0,004
-500,897	-200,000	0,008	0,102
-499,883	215,134	-0,076	-0,089
-498,868	139,201	-0,090	-0,087
-497,853	-200,000	-0,022	0,074
-496,839	-101,401	-0,255	0,045
-495,824	104,847	-0,041	0,035
-494,810	-98,847	0,088	0,016
-493,795	292,802	0,030	0,041
-492,781	664,673	-0,067	-0,128
-491,766	62,358	-0,045	-0,033
-490,751	-72,475	-0,217	-0,059
-489,737	-200,000	0,001	-0,059
-488,722	739,443	0,049	-0,097
-487,708	-33,319	0,127	0,052
-486,693	-200,000	0,021	0,161
-485,678	800,000	-0,020	0,043
-484,664	226,657	0,090	-0,108
-483,649	-138,059	-0,183	0,015
-482,635	-200,000	0,002	-0,075
-481,620	219,508	0,080	0,094
-480,605	-200,000	-0,004	0,074
-479,591	110,007	0,007	-0,006
-478,576	312,671	0,049	-0,068
-477,562	-200,000	0,054	-0,180
-476,547	-119,762	-0,122	-0,015
-475,532	101,623	0,082	0,070
-474,518	-200,000	-0,033	-0,211
-473,503	128,346	0,108	0,101
-472,489	378,478	0,068	0,103
-471,474	247,984	-0,014	-0,017
-470,459	-41,145	-0,081	0,031
-469,445	-33,389	-0,127	-0,052
-468,430	320,621	0,017	-0,023
-467,416	-16,470	-0,098	-0,045
-466,401	-149,990	0,074	0,004
-465,386	800,000	-0,035	-0,081
-464,372	91,660	-0,136	-0,113
-463,357	-63,122	0,066	0,020
-462,343	-200,000	-0,012	-0,049
-461,328	800,000	-0,029	-0,062
-460,313	464,941	0,012	-0,020
-459,299	-164,785	-0,081	-0,003
-458,284	-200,000	0,044	0,243
-457,270	180,653	-0,063	0,068
-456,255	540,318	-0,070	0,122
-455,241	35,144	0,071	0,046
-454,226	72,835	-0,025	-0,019
-453,211	-134,865	0,165	0,015
-452,197	754,066	0,040	0,080
-451,182	800,000	0,029	0,067
-450,168	642,372	0,067	0,126
-449,153	28,564	0,083	0,051
-448,138	109,193	-0,063	0,055
-447,124	27,578	-0,038	-0,024
-446,109	241,431	0,095	-0,117
-445,095	-169,358	-0,087	-0,002
-444,080	-200,000	0,008	0,042
-443,065	233,662	0,066	-0,080
-442,051	-40,689	-0,030	0,011
-441,036	21,405	0,083	-0,050
-440,022	800,000	-0,005	0,012
-439,007	800,000	0,040	0,129
-437,992	-158,627	0,063	-0,003
-436,978	474,979	0,025	0,042
-435,963	356,978	0,039	0,058
-434,949	-6,038	-0,122	0,061
-433,934	564,414	-0,030	-0,054
-432,919	800,000	-0,036	-0,083
-431,905	-47,456	0,151	0,054
-430,890	800,000	-0,035	0,080
-429,876	800,000	-0,068	0,140
-428,861	323,228	0,040	0,056
-427,846	-200,000	0,008	-0,092
-426,832	-123,279	-0,224	-0,026
-425,817	-76,449	0,075	-0,019
-424,803	800,000	-0,014	-0,041
-423,788	-135,272	0,141	0,012
-422,773	800,000	-0,023	-0,060
-421,759	-200,000	-0,022	-0,089
-420,744	-200,000	0,029	-0,139
-419,730	-200,000	0,010	-0,161
-418,715	132,517	0,065	-0,062
-417,701	-113,956	0,082	-0,012
-416,686	182,602	-0,066	-0,072
-415,671	104,410	0,122	0,106
-414,657	-141,034	0,049	0,004
-413,642	207,509	0,058	0,067
-412,628	368,835	-0,046	0,069
-411,613	-169,670	-0,122	-0,003
-410,598	128,175	-0,061	-0,057
-409,584	-200,000	-0,028	-0,136
-408,569	-200,000	-0,000	-0,033
-407,555	385,179	-0,030	-0,045
-406,540	-75,769	-0,092	-0,024
-405,525	800,000	-0,020	-0,047
-404,511	448,618	-0,053	0,086
-403,496	301,093	-0,072	-0,098
-402,482	-0,491	-0,078	-0,041
-401,467	323,247	-0,044	0,062
-400,452	39,537	-0,071	0,047
-399,438	56,068	0,072	0,051
-398,423	-49,442	-0,031	-0,011
-397,409	800,000	-0,018	-0,045
-396,394	-88,012	0,047	0,010
-395,379	-91,479	0,057	-0,012
-394,365	430,761	-0,066	-0,105
-393,350	761,718	0,045	0,090
-392,336	-200,000	-0,038	0,189
-391,321	169,182	-0,060	-0,063
-390,306	800,000	-0,021	0,069
-389,292	74,310	0,102	-0,078
-388,277	132,217	-0,041	0,039
-387,263	-200,000	0,002	-0,096
-386,248	359,030	0,072	0,106
-385,233	-32,349	0,157	0,064
-384,219	767,675	-0,045	0,090
-383,204	123,082	-0,012	-0,011
-382,190	20,572	0,102	-0,060
-381,175	85,589	0,002	0,002
-380,160	-200,000	0,015	-0,153
-379,146	-65,240	0,170	0,050
-378,131	-91,911	-0,095	0,020
-377,117	-200,000	-0,001	0,017
-376,102	800,000	-0,021	-0,061
-375,088	497,732	-0,055	-0,093
-374,073	67,685	0,108	0,081
-373,058	181,483	0,020	-0,022
-372,044	155,470	0,120	0,121
-371,029	-16,592	0,098	0,045
-370,015	60,617	-0,131	-0,095
-369,000	709,674	-0,045	0,087
-367,985	203,450	-0,070	-0,080
-366,971	26,899	0,065	-0,040
-365,956	39,816	0,081	0,053
-364,942	534,473	0,048	0,084
-363,927	27,611	0,010	-0,006
-362,912	-144,882	0,155	0,010
-361,898	0,653	-0,145	-0,076
-360,883	305,428	-0,090	-0,122
-359,869	509,377	-0,065	-0,112
-358,854	39,613	0,140	-0,092
-357,839	-169,546	0,051	-0,001
-356,825	265,673	-0,030	-0,038
-355,810	169,870	0,046	0,048
-354,796	800,000	0,024	0,063
-353,781	-156,211	0,044	-0,002
-352,766	-39,213	-0,172	0,066
-351,752	187,408	0,053	0,058
-350,737	555,041	0,108	0,191
-349,723	-200,000	0,011	0,085
-348,708	-200,000	-0,044	0,182
-347,693	800,000	-0,017	0,038
-346,679	-107,960	-0,028	-0,004
-345,664	63,312	0,048	0,035
-344,650	47,986	-0,130	-0,089
-343,635	-200,000	0,010	0,066
-342,620	-200,000	-0,007	0,090
-341,606	-34,420	0,105	0,042
-340,591	-65,359	-0,014	0,004
-339,577	-164,828	-0,156	0,005
-338,562	129,194	-0,087	0,081
-337,548	-200,000	0,002	0,012
-336,533	-104,073	0,032	-0,005
-335,518	-200,000	0,011	-0,124
-334,504	44,068	0,123	0,082
-333,489	31,937	0,134	-0,084
-332,475	-200,000	0,008	-0,051
-331,460	800,000	-0,044	0,136
-330,445	294,720	0,045	0,061
-329,431	64,458	0,090	-0,066
-328,416	137,730	-0,053	-0,051
-327,402	-50,626	0,056	0,019
-326,387	222,371	-0,037	0,044
-325,372	800,000	-0,038	-0,108
-324,358	800,000	0,051	0,106
-323,343	-93,330	0,095	-0,019
-322,329	3,504	-0,103	0,055
-321,314	-200,000	0,003	0,191
-320,299	718,124	0,031	0,062
-319,285	273,708	-0,060	-0,078
-318,270	-41,194	-0,070	0,026
-317,256	-40,902	-0,148	-0,056
-316,241	800,000	0,029	0,092
-315,226	473,592	-0,053	-0,088
-314,212	-72,885	-0,060	-0,016
-313,197	-200,000	0,001	0,034
-312,183	-200,000	0,023	-0,087
-311,168	322,431	-0,022	0,030
-310,153	-162,933	-0,126	0,004
-309,139	470,236	0,053	-0,087
-308,124	800,000	0,022	0,060
-307,110	-200,000	0,025	0,121
-306,095	-200,000	0,037	0,161
-305,080	-63,620	0,080	0,024
-304,066	-200,000	0,030	-0,115
-303,051	97,846	-0,080	-0,067
-302,037	307,707	0,044	-0,060
-301,022	55,123	0,059	-0,042
-300,008	153,144	0,080	0,080
-298,993	-4,688	0,068	-0,034
-297,978	94,140	0,031	-0,026
-296,964	-200,000	0,012	0,050
-295,949	-63,925	-0,134	-0,040
-294,935	-59,991	0,201	-0,062
-293,920	-200,000	0,010	-0,066
-292,905	800,000	-0,056	0,126
-291,891	57,993	-0,023	0,016
-290,876	-163,410	0,157	0,005
-289,862	95,287	0,054	-0,045
-288,847	-106,787	0,152	0,024
-287,832	49,238	0,027	0,018
-286,818	49,898	-0,039	-0,027
-285,803	50,227	0,063	0,043
-284,789	-200,000	-0,020	0,125
-283,774	-136,498	-0,133	-0,011
-282,759	-200,000	0,010	0,051
-281,745	-178,434	0,075	0,001
-280,730	160,909	-0,110	-0,113
-279,716	733,564	0,031	-0,060
-278,701	-200,000	0,002	-0,031
-277,686	800,000	-0,021	0,050
-276,672	-200,000	0,005	0,096
-275,657	-92,706	0,063	-0,013
-274,643	-51,767	-0,042	-0,014
-273,628	64,593	-0,038	0,028
-272,613	456,879	-0,017	-0,028
-271,599	570,557	0,064	0,114
-270,584	-200,000	-0,004	0,076
-269,570	-62,500	-0,031	0,009
-268,555	20,717	-0,034	-0,020
-267,540	-87,134	0,042	-0,009
-266,526	517,156	-0,043	-0,073
-265,511	800,000	0,017	-0,048
-264,497	-35,739	0,142	-0,056
-263,482	-200,000	-0,003	-0,127
-262,467	413,730	-0,082	-0,127
-261,453	7,282	-0,029	-0,016
-260,438	164,312	-0,080	-0,082
-259,424	800,000	-0,046	0,136
-258,409	-103,854	0,079	-0,013
-257,395	-200,000	0,010	0,032
-256,380	-149,121	0,082	0,005
-255,365	-200,000	0,027	0,142
-254,351	800,000	0,039	0,089
-253,336	58,867	0,063	0,045
-252,322	800,000	-0,015	0,039
-251,307	-200,000	-0,004	0,112
-250,292	141,307	0,020	0,019
-249,278	149,277	0,057	0,057
-248,263	92,912	0,024	-0,020
-247,249	-200,000	-0,009	-0,060
-246,234	-97,029	0,061	-0,012
-245,219	800,000	0,060	-0,137
-244,205	306,184	-0,007	0,010
-243,190	46,071	0,062	0,042
-242,176	417,389	-0,031	-0,048
-241,161	-200,000	0,013	0,132
-240,146	378,416	-0,038	-0,057
-239,132	-98,451	0,140	-0,026
-238,117	-61,766	-0,061	-0,019
-237,103	-122,768	-0,085	-0,010
-236,088	-200,000	0,042	-0,143
-235,073	800,000	0,038	0,083
-234,059	-200,000	-0,000	0,036
-233,044	-200,000	0,042	0,144
-232,030	-200,000	0,025	0,089
-231,015	-117,778	-0,199	-0,026
-230,000	800,000	-0,034	-0,070
-228,986	771,846	0,076	-0,151
-227,971	-200,000	-0,010	0,110
-226,957	238,540	-0,018	0,022
-225,942	-127,375	0,107	-0,011
-224,927	-116,108	-0,147	-0,020
-223,913	-66,007	-0,136	-0,039
-222,898	-200,000	-0,021	-0,116
-221,884	-200,000	0,035	-0,114
-220,869	240,339	0,138	0,168
-219,855	-39,604	0,128	-0,049
-218,840	29,079	0,079	-0,049
-217,825	-137,533	-0,020	-0,002
-216,811	499,638	0,053	-0,089
-215,796	269,288	-0,017	0,021
-214,782	343,294	-0,038	0,055
-213,767	-200,000	-0,017	0,100
-212,752	800,000	-0,053	-0,139
-211,738	-200,000	-0,014	0,065
-210,723	392,402	-0,059	0,089
-209,709	-200,000	0,020	0,161
-208,694	173,875	-0,059	-0,062
-207,679	-200,000	-0,008	-0,091
-206,665	30,093	0,169	0,105
-205,650	104,269	0,036	0,031
-204,636	38,664	0,112	-0,073
-203,621	281,232	0,023	-0,030
-202,606	416,698	-0,075	-0,117
-201,592	279,400	-0,073	-0,095
-200,577	-39,934	-0,095	0,036
-199,563	-46,278	0,082	-0,029
-198,548	800,000	-0,014	-0,040
-197,533	-200,000	0,008	0,068
-196,519	11,890	0,038	0,021
-195,504	575,057	-0,048	0,085
-194,490	-120,255	-0,067	0,008
-193,475	367,357	0,011	-0,016
-192,460	589,234	-0,066	0,119
-191,446	4,722	-0,107	0,057
-190,431	49,899	0,122	-0,084
-189,417	103,309	0,069	0,059
-188,402	463,051	-0,084	-0,138
-187,387	74,672	0,085	-0,065
-186,373	-103,117	0,129	-0,022
-185,358	-81,911	0,098	-0,023
-184,344	-200,000	0,054	-0,195
-183,329	10,377	-0,110	0,061
-182,315	119,302	-0,066	0,060
-181,300	800,000	-0,066	0,203
-180,285	312,885	-0,056	0,077
-179,271	-121,564	-0,109	-0,013
-178,256	-57,602	-0,096	-0,030
-177,242	106,459	0,041	0,035
-176,227	-118,135	0,063	-0,008
-175,212	-200,000	0,046	0,164
-174,198	61,120	-0,090	0,065
-173,183	-200,000	-0,011	-0,089
-172,169	555,480	-0,049	-0,086
-171,154	657,142	0,057	-0,106
-170,139	800,000	-0,009	-0,021
-169,125	-2,731	0,058	-0,030
-168,110	-88,737	0,126	0,027
-167,096	252,796	0,007	0,009
-166,081	741,164	0,062	-0,122
-165,066	532,033	-0,045	-0,078
-164,052	296,895	0,058	-0,078
-163,037	-200,000	0,011	-0,128
-162,023	800,000	-0,041	-0,106
-161,008	326,418	0,107	0,150
-159,993	253,873	-0,048	0,060
-158,979	51,219	0,053	0,036
-157,964	-20,297	-0,101	-0,045
-156,950	-200,000	-0,021	-0,124
-155,935	-200,000	-0,006	0,056
-154,920	-200,000	0,011	0,160
-153,906	-67,538	0,060	-0,017
-152,891	-200,000	0,047	0,152
-151,877	-147,049	-0,122	-0,007
-150,862	-200,000	0,000	-0,120
-149,847	-200,000	0,012	-0,072
-148,833	288,723	-0,041	-0,053
-147,818	-73,035	0,176	0,047
-146,804	-101,443	0,033	-0,006
-145,789	-200,000	0,000	0,113
-144,775	-200,000	0,020	0,106
-143,760	406,349	-0,043	0,067
-142,745	-200,000	0,037	-0,168
-141,731	430,098	0,041	-0,065
-140,716	-200,000	-0,008	-0,111
-139,702	-200,000	0,046	0,150
-138,687	273,017	-0,037	-0,048
-137,672	-200,000	-0,015	-0,062
-136,658	-200,000	0,001	-0,084
-135,643	-59,137	-0,028	-0,009
-134,629	137,676	-0,021	0,020
-133,614	135,842	0,061	0,058
-132,599	76,936	-0,049	-0,038
-131,585	404,361	0,076	-0,116
-130,570	348,329	-0,015	-0,022
-129,556	-200,000	-0,042	-0,184
-128,541	-21,531	0,090	-0,040
-127,526	-72,978	-0,070	0,019
-126,512	-88,452	0,276	-0,059
-125,497	262,723	-0,030	0,038
-124,483	-49,757	-0,104	0,036
-123,468	442,227	-0,025	0,039
-122,453	-200,000	-0,019	0,065
-121,439	-200,000	-0,008	-0,119
-120,424	39,309	-0,125	-0,081
