DTS Sentinel unit serial number:	SN410029Multiplexer serial number:	ORYXHardware model number:	OX2-SRSoftware version number:	ORYX F/W v4,00 Oryx Data Collector v3.7.2.0data status	okinstallation	B4 Nyhavnadifferential loss correction	single-endedforward channel	channel 2reverse channel	N/Adate	2023/12/18time	20:40:13forward acquisition time	300,00reverse acquisition time	0,00gamma	499,1914k internal	0,3124k external	0,3124temperature offset calibration	1,0000default loss term (dB/km)	0,3820temperature slope calibration	1,0000multiplexer offset coefficient	1,0000multiplexer slope coefficient	1,0000fibre end	0,00T internal ref (°C)	21,85T ext. ref 1 (°C)	7,03T ext. ref 2 (°C)	6,98length (m)	temperature (°C)	Stokes	anti-Stokes-744,400	518,586	-0,025	-0,044
-743,385	-20,687	-0,287	0,131
-742,371	800,000	0,070	0,213
-741,356	194,369	-0,211	0,238
-740,342	307,414	0,059	0,083
-739,327	-56,159	-0,250	0,082
-738,312	800,000	0,067	-0,166
-737,298	-86,680	-0,304	0,069
-736,283	16,456	0,031	0,018
-735,269	-16,354	-0,213	0,101
-734,254	-36,252	-0,057	-0,023
-733,239	-107,986	-0,415	-0,067
-732,225	-76,207	0,149	-0,039
-731,210	-36,417	0,120	-0,048
-730,196	52,335	-0,089	-0,063
-729,181	800,000	0,024	-0,051
-728,167	-200,000	0,019	0,088
-727,152	-132,619	-0,102	-0,010
-726,137	800,000	0,055	-0,142
-725,123	-200,000	-0,001	0,087
-724,108	4,675	-0,060	-0,033
-723,094	-200,000	-0,135	-0,000
-722,079	-153,869	-0,228	-0,011
-721,064	-144,595	-0,064	0,004
-720,050	94,270	-0,059	-0,050
-719,035	180,063	-0,033	0,036
-718,021	38,410	-0,205	0,135
-717,006	-200,000	0,027	-0,104
-715,991	-200,000	-0,037	-0,141
-714,977	14,916	0,122	-0,071
-713,962	69,730	-0,120	-0,092
-712,948	-200,000	0,026	0,092
-711,933	1,884	0,146	0,078
-710,918	800,000	-0,006	-0,019
-709,904	58,319	-0,088	-0,064
-708,889	-200,000	-0,018	-0,132
-707,875	-105,292	-0,093	-0,016
-706,860	-10,987	0,071	-0,035
-705,845	-26,812	-0,123	-0,053
-704,831	800,000	-0,050	0,131
-703,816	59,253	0,119	-0,087
-702,802	-115,457	-0,067	0,009
-701,787	193,947	-0,079	-0,090
-700,772	-15,575	-0,158	-0,075
-699,758	256,291	0,103	-0,132
-698,743	-200,000	-0,010	0,052
-697,729	-200,000	-0,011	0,075
-696,714	566,965	0,070	0,127
-695,699	-63,284	0,057	-0,017
-694,685	-200,000	0,029	-0,116
-693,670	308,723	-0,044	0,061
-692,656	268,258	0,036	-0,047
-691,641	-200,000	-0,013	-0,113
-690,627	62,269	0,027	0,020
-689,612	-74,761	0,116	-0,031
-688,597	-112,175	-0,137	-0,020
-687,583	-200,000	0,012	-0,146
-686,568	-152,020	-0,065	-0,003
-685,554	-72,810	-0,081	0,022
-684,539	-42,542	0,096	-0,036
-683,524	-60,221	-0,088	0,028
-682,510	217,304	0,089	-0,106
-681,495	-200,000	-0,028	-0,107
-680,481	84,362	0,031	-0,025
-679,466	-175,695	-0,079	0,002
-678,451	800,000	-0,020	-0,052
-677,437	-110,789	0,141	-0,021
-676,422	245,711	0,025	-0,032
-675,408	3,073	0,139	-0,075
-674,393	429,088	-0,004	-0,006
-673,378	-200,000	-0,004	0,200
-672,364	-44,837	-0,066	-0,024
-671,349	-104,035	0,010	-0,002
-670,335	800,000	0,026	-0,082
-669,320	-115,251	-0,063	-0,009
-668,305	-200,000	0,008	0,069
-667,291	-47,433	-0,062	0,022
-666,276	695,635	-0,045	-0,088
-665,262	800,000	0,031	0,081
-664,247	514,299	-0,110	-0,191
-663,232	119,564	-0,114	-0,105
-662,218	-200,000	-0,002	0,027
-661,203	228,224	0,039	-0,047
-660,189	78,477	0,056	-0,045
-659,174	-60,410	0,051	0,016
-658,159	-200,000	0,019	-0,096
-657,145	-200,000	0,068	-0,232
-656,130	-85,468	-0,162	0,037
-655,116	800,000	-0,009	-0,022
-654,101	-124,303	0,093	0,011
-653,086	-84,986	0,013	0,003
-652,072	283,856	-0,104	0,139
-651,057	-17,143	-0,034	-0,016
-650,043	171,655	-0,034	-0,036
-649,028	-35,059	-0,113	-0,045
-648,014	-200,000	-0,017	0,121
-646,999	109,750	0,107	-0,096
-645,984	800,000	-0,027	-0,078
-644,970	800,000	0,020	-0,054
-643,955	142,395	-0,068	-0,067
-642,941	-89,610	-0,147	-0,032
-641,926	800,000	-0,009	0,025
-640,911	71,664	-0,024	-0,018
-639,897	443,892	0,033	-0,054
-638,882	302,907	-0,038	-0,052
-637,868	-200,000	-0,021	-0,088
-636,853	72,286	-0,107	-0,083
-635,838	249,277	-0,046	-0,058
-634,824	-90,523	0,060	-0,013
-633,809	642,078	0,062	-0,118
-632,795	235,626	0,082	-0,101
-631,780	69,167	0,052	0,040
-630,765	-13,548	0,028	0,014
-629,751	-86,749	-0,062	-0,014
-628,736	-3,957	-0,059	-0,030
-627,722	-123,731	0,055	0,006
-626,707	159,771	-0,137	0,142
-625,692	800,000	-0,017	0,045
-624,678	141,687	0,034	-0,034
-623,663	800,000	0,098	-0,267
-622,649	-200,000	-0,007	-0,086
-621,634	-99,463	-0,110	-0,020
-620,619	414,009	-0,096	0,152
-619,605	-75,756	0,048	0,012
-618,590	-59,587	0,122	0,038
-617,576	-200,000	0,007	0,042
-616,561	19,821	-0,112	0,067
-615,546	478,502	0,052	-0,087
-614,532	511,623	-0,041	-0,071
-613,517	800,000	-0,062	-0,189
-612,503	496,572	-0,053	-0,091
-611,488	356,864	0,065	0,097
-610,474	368,889	0,031	-0,047
-609,459	800,000	-0,053	0,143
-608,444	253,389	-0,044	0,056
-607,430	-25,875	-0,151	0,066
-606,415	800,000	0,036	-0,106
-605,401	72,414	0,181	-0,140
-604,386	-200,000	-0,019	0,153
-603,371	-148,589	0,121	0,007
-602,357	-47,869	0,030	-0,011
-601,342	7,400	-0,109	0,060
-600,328	-200,000	0,028	-0,157
-599,313	-111,793	-0,086	-0,013
-598,298	87,134	-0,059	-0,048
-597,284	103,588	0,079	-0,068
-596,269	-200,000	0,009	-0,084
-595,255	-33,705	-0,157	-0,064
-594,240	800,000	0,016	0,041
-593,225	-200,000	0,016	-0,058
-592,211	336,651	-0,021	0,031
-591,196	-200,000	0,001	0,018
-590,182	-147,679	-0,059	-0,004
-589,167	-200,000	0,005	-0,065
-588,152	-200,000	-0,026	-0,117
-587,138	-16,107	-0,150	-0,070
-586,123	-59,757	-0,014	0,004
-585,109	-200,000	-0,008	-0,043
-584,094	-137,954	-0,104	0,008
-583,079	77,016	-0,066	-0,052
-582,065	-200,000	-0,005	-0,073
-581,050	-94,938	0,085	0,017
-580,036	76,746	-0,095	-0,074
-579,021	227,772	0,101	-0,122
-578,006	800,000	0,018	-0,038
-576,992	-116,164	-0,196	0,027
-575,977	-152,199	-0,077	0,004
-574,963	-200,000	-0,009	-0,043
-573,948	80,507	0,165	0,132
-572,934	211,408	-0,023	0,026
-571,919	-92,390	-0,053	-0,011
-570,904	527,807	-0,080	-0,140
-569,890	-114,721	-0,179	-0,025
-568,875	-187,661	-0,069	-0,001
-567,861	133,296	0,013	-0,013
-566,846	57,044	0,078	0,056
-565,831	7,023	0,167	0,092
-564,817	737,797	-0,092	-0,184
-563,802	-200,000	-0,035	-0,306
-562,788	-200,000	-0,015	0,060
-561,773	46,171	0,039	-0,027
-560,758	-200,000	0,014	0,185
-559,744	204,452	0,040	0,046
-558,729	163,747	0,023	-0,024
-557,715	-136,525	0,089	-0,008
-556,700	-38,803	-0,101	-0,039
-555,685	-38,087	-0,068	0,026
-554,671	-200,000	0,003	0,054
-553,656	423,787	0,033	0,052
-552,642	147,105	0,056	0,056
-551,627	-200,000	0,015	0,065
-550,612	254,326	-0,053	-0,067
-549,598	-200,000	0,011	-0,142
-548,583	36,461	-0,028	0,018
-547,569	800,000	-0,035	-0,097
-546,554	-86,884	0,102	0,023
-545,539	-200,000	0,009	-0,046
-544,525	-200,000	0,037	-0,000
-543,510	-93,849	-0,037	-0,007
-542,496	-200,000	-0,025	0,109
-541,481	-170,833	-0,042	-0,001
-540,466	-56,010	-0,036	-0,012
-539,452	-200,000	0,005	-0,070
-538,437	-200,000	0,005	0,055
-537,423	112,453	0,035	-0,031
-536,408	0,486	0,052	0,028
-535,393	-6,589	-0,115	0,058
-534,379	-50,305	-0,059	-0,021
-533,364	800,000	0,044	-0,094
-532,350	219,383	0,077	0,091
-531,335	7,732	0,065	0,036
-530,321	-200,000	-0,006	-0,065
-529,306	239,271	-0,104	0,129
-528,291	164,384	-0,033	0,034
-527,277	-77,023	0,048	-0,012
-526,262	132,695	-0,035	-0,033
-525,248	800,000	-0,004	0,012
-524,233	320,056	0,091	0,128
-523,218	21,712	-0,061	0,036
-522,204	699,702	-0,025	-0,048
-521,189	413,347	-0,055	0,087
-520,175	157,868	-0,053	0,054
-519,160	-200,000	0,002	-0,100
-518,145	253,172	0,069	0,087
-517,131	89,778	0,040	0,033
-516,116	-200,000	-0,004	-0,017
-515,102	-200,000	-0,045	0,173
-514,087	-76,945	-0,063	-0,016
-513,072	-200,000	0,012	0,069
-512,058	800,000	-0,053	-0,129
-511,043	789,751	0,038	-0,078
-510,029	-112,418	0,041	0,006
-509,014	800,000	0,035	0,114
-507,999	27,577	0,013	0,008
-506,985	-200,000	0,028	-0,124
-505,970	-136,381	-0,135	0,011
-504,956	-200,000	0,013	0,079
-503,941	100,881	-0,028	0,024
-502,926	800,000	-0,032	0,088
-501,912	-142,814	-0,151	-0,011
-500,897	257,808	-0,109	-0,138
-499,883	370,661	-0,018	-0,027
-498,868	694,863	-0,046	0,089
-497,853	-200,000	0,000	-0,025
-496,839	59,327	0,013	-0,009
-495,824	27,894	0,019	0,012
-494,810	96,984	0,126	-0,106
-493,795	247,010	-0,027	0,034
-492,781	-107,482	-0,126	0,020
-491,766	-139,119	-0,113	-0,009
-490,751	16,495	-0,069	-0,040
-489,737	-85,265	-0,069	-0,016
-488,722	91,728	0,066	0,055
-487,708	800,000	-0,043	0,104
-486,693	38,254	-0,074	-0,048
-485,678	-130,515	0,113	0,011
-484,664	-39,737	-0,096	-0,037
-483,649	-101,528	-0,125	0,022
-482,635	-86,198	0,017	-0,004
-481,620	-200,000	-0,008	0,131
-480,605	125,651	-0,062	-0,058
-479,591	-130,299	0,102	-0,010
-478,576	-12,568	-0,072	0,035
-477,562	391,127	-0,096	-0,148
-476,547	-38,590	-0,125	0,049
-475,532	-200,000	0,011	0,094
-474,518	800,000	-0,027	-0,059
-473,503	800,000	0,013	-0,035
-472,489	-200,000	-0,021	0,178
-471,474	-200,000	-0,021	-0,114
-470,459	-200,000	-0,015	-0,075
-469,445	37,792	0,060	0,039
-468,430	-67,903	-0,083	0,024
-467,416	-200,000	0,002	-0,086
-466,401	800,000	-0,031	0,074
-465,386	221,019	-0,124	0,147
-464,372	-65,080	-0,102	-0,030
-463,357	-200,000	0,004	0,171
-462,343	-32,974	-0,097	0,040
-461,328	462,739	-0,034	-0,057
-460,313	-200,000	-0,004	0,068
-459,299	377,090	0,014	0,021
-458,284	-81,517	0,086	0,021
-457,270	-80,791	0,219	-0,053
-456,255	-182,443	-0,109	0,001
-455,241	-40,858	-0,033	-0,013
-454,226	54,557	-0,095	0,068
-453,211	-200,000	-0,033	0,128
-452,197	-133,354	0,093	-0,008
-451,182	-116,502	0,156	-0,021
-450,168	-39,001	-0,057	0,022
-449,153	0,234	0,099	0,052
-448,138	97,214	-0,083	-0,070
-447,124	271,224	0,082	-0,106
-446,109	-200,000	0,019	0,095
-445,095	-130,222	0,152	0,015
-444,080	-39,443	0,113	-0,043
-443,065	-47,134	-0,093	0,033
-442,051	121,768	-0,192	-0,177
-441,036	800,000	-0,010	-0,025
-440,022	-47,709	-0,184	-0,065
-439,007	502,857	-0,019	-0,033
-437,992	-200,000	0,028	0,136
-436,978	40,349	-0,007	0,005
-435,963	22,773	0,122	0,073
-434,949	230,132	-0,093	0,112
-433,934	171,067	0,091	-0,096
-432,919	160,665	0,018	0,019
-431,905	-200,000	-0,002	-0,036
-430,890	-81,854	0,024	-0,006
-429,876	-200,000	-0,057	0,189
-428,861	49,386	0,017	0,012
-427,846	-200,000	0,019	-0,090
-426,832	127,479	-0,036	0,034
-425,817	56,755	-0,055	0,039
-424,803	-1,297	-0,045	0,023
-423,788	-200,000	0,022	-0,138
-422,773	135,726	-0,042	0,040
-421,759	5,301	0,120	-0,065
-420,744	-148,163	0,119	0,007
-419,730	-200,000	0,006	-0,095
-418,715	-140,029	0,049	0,004
-417,701	270,382	-0,033	0,043
-416,686	-97,239	-0,028	-0,005
-415,671	-115,389	0,115	-0,016
-414,657	-17,905	-0,023	0,010
-413,642	-200,000	0,003	0,033
-412,628	-15,777	0,028	0,013
-411,613	-105,019	0,055	0,009
-410,598	800,000	0,025	-0,060
-409,584	-200,000	0,020	0,130
-408,569	-42,853	0,086	0,032
-407,555	94,482	-0,069	0,057
-406,540	314,279	0,010	-0,014
-405,525	176,694	0,081	-0,086
-404,511	50,094	-0,025	-0,017
-403,496	-69,600	-0,032	-0,009
-402,482	800,000	-0,068	0,189
-401,467	-200,000	-0,015	0,134
-400,452	-200,000	0,023	-0,096
-399,438	-200,000	0,008	0,070
-398,423	-200,000	-0,044	-0,150
-397,409	800,000	0,056	-0,141
-396,394	800,000	0,033	-0,095
-395,379	-144,081	0,038	-0,003
-394,365	-200,000	-0,018	0,095
-393,350	96,381	-0,094	0,079
-392,336	-200,000	0,011	0,124
-391,321	-135,448	-0,061	-0,005
-390,306	158,448	0,067	-0,068
-389,292	800,000	0,026	-0,071
-388,277	3,626	0,099	-0,053
-387,263	617,970	0,081	0,151
-386,248	800,000	0,056	0,145
-385,233	-200,000	0,018	0,078
-384,219	150,954	-0,071	0,071
-383,204	259,473	0,030	0,038
-382,190	250,843	-0,039	0,049
-381,175	-200,000	-0,005	-0,089
-380,160	249,370	-0,053	0,066
-379,146	85,005	0,053	0,043
-378,131	800,000	0,041	-0,129
-377,117	-200,000	0,027	0,089
-376,102	-200,000	0,001	-0,089
-375,088	-200,000	0,020	-0,105
-374,073	800,000	-0,033	-0,087
-373,058	164,750	0,045	0,046
-372,044	2,685	0,163	-0,086
-371,029	800,000	-0,029	0,093
-370,015	-200,000	0,013	0,066
-369,000	381,419	-0,034	-0,051
-367,985	800,000	-0,021	0,051
-366,971	-200,000	0,006	0,135
-365,956	-116,083	-0,058	-0,008
-364,942	84,445	0,035	-0,028
-363,927	-46,901	0,064	-0,023
-362,912	105,711	0,063	0,055
-361,898	-124,745	-0,052	-0,006
-360,883	480,885	-0,030	0,051
-359,869	-200,000	-0,015	-0,083
-358,854	-200,000	-0,023	0,088
-357,839	-110,416	0,111	0,017
-356,825	409,924	0,048	0,075
-355,810	157,070	0,102	0,103
-354,796	-200,000	-0,015	-0,077
-353,781	-165,051	-0,010	-0,000
-352,766	-71,069	0,067	-0,018
-351,752	-200,000	-0,010	-0,047
-350,737	-200,000	-0,007	0,029
-349,723	-200,000	-0,008	0,208
-348,708	108,728	-0,079	0,070
-347,693	-106,939	0,063	-0,010
-346,679	800,000	-0,026	-0,059
-345,664	233,539	0,071	-0,086
-344,650	-200,000	0,005	0,041
-343,635	418,787	0,051	-0,080
-342,620	32,357	0,078	0,049
-341,606	-200,000	-0,014	0,000
-340,591	-15,277	-0,149	-0,070
-339,577	800,000	-0,023	-0,064
-338,562	-200,000	0,012	0,065
-337,548	-200,000	0,024	-0,190
-336,533	-200,000	-0,021	-0,099
-335,518	800,000	0,065	0,155
-334,504	-200,000	0,000	-0,026
-333,489	634,544	-0,052	0,098
-332,475	-200,000	0,009	-0,115
-331,460	-29,391	-0,069	-0,029
-330,445	29,785	0,094	-0,059
-329,431	3,448	-0,026	0,014
-328,416	-200,000	-0,016	0,072
-327,402	-200,000	0,016	0,073
-326,387	181,092	0,046	-0,050
-325,372	-19,940	0,070	-0,032
-324,358	130,017	-0,103	0,097
-323,343	95,672	0,038	0,032
-322,329	-82,572	0,071	-0,017
-321,314	800,000	0,027	-0,083
-320,299	800,000	0,033	0,085
-319,285	800,000	0,033	-0,084
-318,270	-90,381	0,080	-0,017
-317,256	-200,000	-0,005	-0,084
-316,241	-79,087	0,097	0,024
-315,226	-152,222	0,139	-0,007
-314,212	800,000	-0,014	-0,040
-313,197	-103,263	-0,075	-0,013
-312,183	67,453	0,012	-0,009
-311,168	-66,842	0,135	0,039
-310,153	16,929	0,012	-0,007
-309,139	-115,853	-0,063	-0,009
-308,124	-110,827	0,061	0,009
-307,110	485,180	0,050	0,083
-306,095	-151,183	0,177	0,010
-305,080	-200,000	-0,007	-0,121
-304,066	-117,499	-0,104	-0,014
-303,051	558,914	-0,058	-0,102
-302,037	-87,496	0,131	-0,029
-301,022	-200,000	0,036	0,147
-300,008	-29,572	-0,109	0,045
-298,993	-69,719	-0,191	0,053
-297,978	9,013	-0,040	0,022
-296,964	191,934	-0,023	-0,025
-295,949	98,544	0,117	-0,098
-294,935	164,300	-0,023	-0,024
-293,920	3,898	-0,083	0,044
-292,905	-200,000	0,033	0,118
-291,891	91,379	0,158	0,130
-290,876	-200,000	-0,001	-0,035
-289,862	-200,000	0,001	0,057
-288,847	22,891	-0,072	0,043
-287,832	800,000	0,020	-0,041
-286,818	-73,497	-0,075	-0,020
-285,803	-147,466	-0,029	0,002
-284,789	-200,000	0,013	0,176
-283,774	795,291	0,019	0,039
-282,759	348,685	0,078	0,112
-281,745	351,721	-0,053	-0,077
-280,730	167,112	-0,090	-0,093
-279,716	639,481	0,040	-0,075
-278,701	-16,678	-0,102	0,047
-277,686	-60,282	0,056	0,017
-276,672	-65,667	-0,184	0,054
-275,657	180,029	0,031	0,034
-274,643	-200,000	0,038	-0,249
-273,628	-200,000	0,004	-0,174
-272,613	-36,432	0,077	-0,030
-271,599	-200,000	0,033	0,132
-270,584	-47,697	0,128	0,045
-269,570	800,000	0,049	-0,152
-268,555	80,619	0,141	-0,111
-267,540	111,899	0,023	-0,021
-266,526	-200,000	-0,137	-0,000
-265,511	324,495	0,041	-0,057
-264,497	202,900	-0,067	-0,075
-263,482	23,928	0,106	-0,064
-262,467	554,397	0,051	-0,091
-261,453	73,769	-0,083	-0,064
-260,438	-200,000	0,038	0,144
-259,424	602,305	-0,018	-0,032
-258,409	-200,000	0,061	-0,216
-257,395	51,237	0,025	0,017
-256,380	78,561	-0,045	0,035
-255,365	-200,000	0,013	0,104
-254,351	-100,165	-0,130	0,023
-253,336	-84,217	0,081	-0,019
-252,322	30,578	0,039	0,024
-251,307	-171,256	0,056	0,001
-250,292	-200,000	-0,005	-0,031
-249,278	-200,000	-0,029	0,103
-248,263	437,498	0,058	0,092
-247,249	309,171	0,026	0,036
-246,234	-66,118	-0,067	0,020
-245,219	189,832	0,050	-0,055
-244,205	-70,018	-0,080	-0,022
-243,190	-200,000	-0,016	0,110
-242,176	800,000	0,018	-0,055
-241,161	480,489	0,054	0,089
-240,146	-48,993	0,151	0,053
-239,132	-70,216	0,030	-0,008
-238,117	73,641	-0,102	0,078
-237,103	70,687	-0,031	-0,023
-236,088	136,016	-0,025	0,024
-235,073	-200,000	0,000	-0,042
-234,059	-200,000	0,010	0,086
-233,044	-150,498	0,178	-0,010
-232,030	-154,079	-0,062	-0,003
-231,015	800,000	-0,016	-0,033
-230,000	800,000	-0,028	-0,081
-228,986	800,000	0,056	-0,134
-227,971	-1,790	-0,074	0,038
-226,957	-113,577	0,082	-0,012
-225,942	-200,000	0,028	0,105
-224,927	-13,269	0,169	-0,080
-223,913	36,694	0,105	0,067
-222,898	747,304	-0,018	0,035
-221,884	516,056	0,028	-0,048
-220,869	434,606	-0,020	-0,031
-219,855	23,971	0,108	-0,065
-218,840	-200,000	-0,014	0,049
-217,825	-75,316	0,068	0,018
-216,811	-24,036	-0,049	-0,021
-215,796	-200,000	-0,004	-0,082
-214,782	800,000	0,020	-0,054
-213,767	94,196	0,006	0,005
-212,752	188,637	0,069	-0,075
-211,738	-200,000	0,024	0,129
-210,723	-43,204	0,051	0,019
-209,709	118,186	0,048	-0,043
-208,694	-146,810	0,092	-0,006
-207,679	129,176	-0,090	-0,084
-206,665	-200,000	-0,020	0,124
-205,650	-200,000	0,001	0,089
-204,636	240,204	-0,106	-0,129
-203,621	189,897	0,041	-0,045
-202,606	488,563	0,055	0,092
-201,592	-18,909	0,105	-0,048
-200,577	800,000	-0,023	0,063
-199,563	36,592	0,074	-0,048
-198,548	-113,420	0,167	-0,024
-197,533	161,251	0,093	0,094
-196,519	585,592	0,017	0,031
-195,504	-200,000	-0,011	0,072
-194,490	-200,000	-0,024	-0,098
-193,475	-0,621	0,021	-0,011
-192,460	248,307	-0,148	0,183
-191,446	-54,959	0,184	0,060
-190,431	-200,000	0,020	0,100
-189,417	-200,000	0,008	0,096
-188,402	800,000	0,028	-0,071
-187,387	-53,347	-0,059	-0,020
-186,373	-200,000	0,003	-0,106
-185,358	-74,789	-0,167	-0,043
-184,344	237,249	-0,061	0,074
-183,329	-200,000	0,006	0,024
-182,315	-200,000	0,005	0,106
-181,300	-100,638	-0,068	0,012
-180,285	800,000	0,005	-0,016
-179,271	65,160	-0,077	0,057
-178,256	-200,000	0,001	-0,021
-177,242	-200,000	-0,003	0,042
-176,227	56,679	-0,101	0,072
-175,212	-200,000	-0,003	0,039
-174,198	-54,110	-0,103	0,034
-173,183	800,000	0,030	0,084
-172,169	85,378	0,096	-0,077
-171,154	800,000	-0,026	0,076
-170,139	-98,932	-0,047	0,009
-169,125	687,876	0,062	-0,118
-168,110	-200,000	-0,022	0,080
-167,096	118,204	-0,034	-0,030
-166,081	-10,828	0,096	0,046
-165,066	800,000	0,025	0,065
-164,052	-38,468	-0,142	-0,054
-163,037	-62,079	0,044	0,013
-162,023	85,795	0,046	0,037
-161,008	-78,739	0,131	-0,032
-159,993	116,998	0,042	0,037
-158,979	800,000	-0,042	-0,103
-157,964	-121,711	-0,032	-0,004
-156,950	-123,690	-0,062	-0,007
-155,935	24,070	0,047	0,028
-154,920	-200,000	0,000	0,003
-153,906	-200,000	0,010	0,048
-152,891	496,627	-0,038	0,063
-151,877	-200,000	0,003	0,062
-150,862	118,325	-0,019	0,017
-149,847	22,243	-0,192	0,114
-148,833	406,165	0,073	-0,113
-147,818	800,000	-0,076	0,160
-146,804	800,000	0,012	-0,025
-145,789	800,000	-0,029	0,084
-144,775	513,869	0,074	-0,125
-143,760	-90,350	-0,141	0,030
-142,745	58,768	-0,156	0,112
-141,731	-80,696	0,040	-0,010
-140,716	29,077	-0,078	0,048
-139,702	-200,000	0,023	-0,096
-138,687	229,824	0,024	0,029
-137,672	393,562	0,027	0,042
-136,658	-6,720	-0,131	-0,065
-135,643	556,828	0,013	-0,022
-134,629	-200,000	0,011	0,068
-133,614	125,124	-0,069	-0,063
-132,599	535,180	0,033	-0,057
-131,585	-62,207	-0,081	0,024
-130,570	483,329	0,086	-0,143
-129,556	-200,000	0,004	0,066
-128,541	-0,302	0,058	0,030
-127,526	-200,000	-0,034	-0,131
-126,512	-78,106	0,166	0,041
-125,497	150,819	0,013	-0,013
-124,483	186,971	-0,027	0,029
-123,468	-200,000	-0,020	0,079
-122,453	146,301	-0,098	0,096
-121,439	128,077	-0,063	-0,058
-120,424	-200,000	0,003	0,089
-119,410	51,113	0,046	-0,031
