DTS Sentinel unit serial number:	SN410029Multiplexer serial number:	ORYXHardware model number:	OX2-SRSoftware version number:	ORYX F/W v4,00 Oryx Data Collector v3.7.2.0data status	okinstallation	B4 Nyhavnadifferential loss correction	single-endedforward channel	channel 2reverse channel	N/Adate	2023/12/19time	00:50:13forward acquisition time	300,00reverse acquisition time	0,00gamma	499,1914k internal	0,3123k external	0,3123temperature offset calibration	1,0000default loss term (dB/km)	0,3820temperature slope calibration	1,0000multiplexer offset coefficient	1,0000multiplexer slope coefficient	1,0000fibre end	0,00T internal ref (°C)	21,97T ext. ref 1 (°C)	6,34T ext. ref 2 (°C)	6,35length (m)	temperature (°C)	Stokes	anti-Stokes-744,400	-55,167	-0,119	-0,040
-743,385	36,778	-0,184	0,121
-742,371	401,125	0,026	0,041
-741,356	-18,670	-0,278	0,129
-740,342	800,000	-0,033	0,092
-739,327	800,000	-0,082	0,234
-738,312	-59,955	0,107	-0,034
-737,298	800,000	-0,020	-0,064
-736,283	466,633	0,028	-0,046
-735,269	23,031	-0,275	0,168
-734,254	47,223	0,095	-0,066
-733,239	-64,425	-0,515	-0,155
-732,225	800,000	0,059	-0,173
-731,210	-155,773	-0,134	0,006
-730,196	-31,216	-0,025	-0,010
-729,181	351,679	0,084	0,125
-728,167	61,135	0,064	0,047
-727,152	59,971	-0,015	0,011
-726,137	-200,000	0,011	-0,087
-725,123	1,998	-0,080	0,043
-724,108	800,000	0,027	-0,077
-723,094	429,100	-0,099	-0,160
-722,079	-132,337	-0,167	0,016
-721,064	15,371	-0,115	-0,067
-720,050	-35,515	-0,098	0,039
-719,035	275,668	0,028	0,037
-718,021	-200,000	0,003	0,026
-717,006	-200,000	-0,020	-0,094
-715,991	-57,149	-0,138	-0,045
-714,977	438,454	-0,039	0,063
-713,962	-9,341	0,051	-0,025
-712,948	-200,000	-0,012	-0,135
-711,933	-81,883	0,129	0,031
-710,918	-102,854	-0,118	0,021
-709,904	800,000	0,013	-0,030
-708,889	-200,000	-0,032	-0,119
-707,875	365,378	-0,063	-0,094
-706,860	-200,000	-0,016	0,064
-705,845	172,285	-0,049	-0,053
-704,831	147,938	0,110	0,111
-703,816	-9,416	-0,054	0,027
-702,802	72,374	-0,037	-0,029
-701,787	131,799	-0,114	-0,109
-700,772	131,633	0,052	-0,050
-699,758	53,768	-0,075	0,053
-698,743	-200,000	0,007	0,040
-697,729	198,716	0,038	0,043
-696,714	-200,000	-0,000	0,003
-695,699	800,000	-0,007	-0,016
-694,685	-200,000	-0,006	-0,146
-693,670	456,129	-0,074	-0,122
-692,656	-200,000	-0,013	0,162
-691,641	-65,596	0,071	0,021
-690,627	44,170	0,071	-0,048
-689,612	68,399	-0,033	-0,025
-688,597	25,790	0,111	0,069
-687,583	92,486	-0,101	-0,085
-686,568	-91,135	0,061	0,013
-685,554	408,434	0,074	-0,117
-684,539	-71,822	0,185	-0,051
-683,524	-23,158	-0,064	-0,029
-682,510	800,000	0,016	-0,039
-681,495	800,000	0,009	-0,022
-680,481	211,797	-0,023	0,027
-679,466	-149,809	-0,098	0,006
-678,451	-133,841	0,095	0,009
-677,437	-45,775	-0,075	-0,027
-676,422	128,235	0,011	-0,011
-675,408	-200,000	-0,007	-0,040
-674,393	-106,168	0,070	-0,012
-673,378	-200,000	-0,006	0,104
-672,364	800,000	0,044	-0,143
-671,349	-200,000	-0,005	-0,183
-670,335	-131,791	0,069	-0,007
-669,320	-54,199	0,090	-0,030
-668,305	385,868	-0,029	-0,044
-667,291	-109,696	-0,058	0,009
-666,276	-200,000	-0,030	-0,182
-665,262	135,047	-0,147	-0,142
-664,247	-14,956	-0,174	0,082
-663,232	-200,000	0,008	0,086
-662,218	647,752	0,052	-0,099
-661,203	-200,000	0,001	-0,032
-660,189	-200,000	0,032	0,117
-659,174	263,665	-0,064	-0,082
-658,159	800,000	-0,043	-0,123
-657,145	488,977	0,022	-0,038
-656,130	181,982	0,060	-0,066
-655,116	-8,726	-0,083	-0,041
-654,101	-200,000	-0,012	-0,042
-653,086	261,083	0,053	0,068
-652,072	507,651	-0,054	0,094
-651,057	-200,000	0,021	-0,080
-650,043	-40,772	-0,100	0,038
-649,028	-108,690	0,104	-0,016
-648,014	63,046	0,106	-0,079
-646,999	-145,594	-0,031	0,002
-645,984	-157,578	0,067	-0,003
-644,970	352,811	-0,073	0,107
-643,955	800,000	-0,037	-0,086
-642,941	-200,000	-0,003	-0,019
-641,926	248,785	0,050	-0,063
-640,911	-200,000	-0,022	0,099
-639,897	243,323	0,069	0,086
-638,882	-29,775	0,032	0,014
-637,868	800,000	-0,020	-0,061
-636,853	-0,869	-0,161	-0,084
-635,838	800,000	0,015	-0,047
-634,824	-200,000	0,033	-0,170
-633,809	94,791	-0,053	-0,045
-632,795	800,000	0,034	-0,073
-631,780	57,040	-0,094	-0,068
-630,765	234,617	-0,101	-0,123
-629,751	-200,000	-0,007	-0,025
-628,736	-200,000	0,024	-0,104
-627,722	-15,229	0,077	-0,037
-626,707	599,231	-0,053	-0,099
-625,692	-99,593	0,092	-0,017
-624,678	179,730	-0,079	0,086
-623,663	729,425	-0,036	0,071
-622,649	-84,625	-0,065	0,015
-621,634	95,467	-0,050	-0,042
-620,619	-200,000	-0,015	-0,142
-619,605	-63,877	0,103	0,031
-618,590	-22,957	0,116	0,051
-617,576	-23,135	0,086	-0,038
-616,561	35,060	0,092	0,059
-615,546	800,000	-0,013	-0,028
-614,532	185,576	-0,083	-0,092
-613,517	-114,999	-0,046	0,006
-612,503	-200,000	-0,024	-0,126
-611,488	-26,423	0,027	0,012
-610,474	338,513	0,039	0,057
-609,459	-200,000	-0,009	0,039
-608,444	-200,000	-0,018	0,146
-607,430	-200,000	0,007	-0,029
-606,415	-200,000	0,002	-0,043
-605,401	-23,098	-0,033	-0,015
-604,386	-20,013	-0,086	0,039
-603,371	-123,077	0,146	-0,017
-602,357	-200,000	0,027	0,095
-601,342	116,144	-0,058	-0,053
-600,328	-200,000	-0,024	-0,113
-599,313	283,316	-0,107	-0,143
-598,298	311,698	-0,060	-0,084
-597,284	631,780	-0,038	0,071
-596,269	-200,000	-0,006	0,273
-595,255	179,728	-0,074	-0,080
-594,240	121,400	-0,108	0,100
-593,225	-116,128	-0,072	0,010
-592,211	-94,688	-0,113	0,023
-591,196	800,000	0,039	-0,115
-590,182	118,204	0,036	0,033
-589,167	-200,000	-0,040	0,175
-588,152	-92,266	-0,222	-0,046
-587,138	-85,166	-0,065	-0,015
-586,123	-24,666	0,046	0,020
-585,109	74,819	-0,074	-0,058
-584,094	264,617	-0,023	-0,029
-583,079	401,158	0,039	-0,061
-582,065	-166,442	-0,149	0,005
-581,050	767,960	0,104	0,210
-580,036	-103,655	-0,052	-0,009
-579,021	-135,930	0,129	-0,011
-578,006	475,071	-0,034	0,057
-576,992	4,100	-0,141	0,076
-575,977	-50,569	-0,060	-0,021
-574,963	-200,000	-0,003	0,068
-573,948	-14,108	0,074	0,035
-572,934	-144,729	0,061	0,004
-571,919	120,646	0,038	0,035
-570,904	88,632	0,010	-0,008
-569,890	800,000	-0,043	0,098
-568,875	209,550	0,025	-0,029
-567,861	800,000	0,032	0,096
-566,846	-34,708	0,061	0,025
-565,831	-200,000	0,005	-0,027
-564,817	-133,524	-0,091	-0,008
-563,802	417,738	0,103	-0,163
-562,788	-7,332	-0,130	-0,065
-561,773	-134,959	0,198	-0,018
-560,758	-102,029	0,098	-0,017
-559,744	-200,000	0,023	0,101
-558,729	-200,000	0,003	0,104
-557,715	-200,000	-0,010	-0,109
-556,700	32,866	-0,074	-0,047
-555,685	-70,751	-0,119	0,033
-554,671	483,530	0,026	-0,044
-553,656	-200,000	-0,005	0,043
-552,642	-200,000	-0,014	0,064
-551,627	-200,000	0,027	-0,153
-550,612	321,203	0,005	0,007
-549,598	-169,939	-0,072	-0,002
-548,583	-26,897	-0,054	0,023
-547,569	-7,046	-0,094	-0,047
-546,554	-200,000	0,016	-0,075
-545,539	-46,450	0,196	0,071
-544,525	14,751	0,052	0,030
-543,510	-18,100	-0,071	-0,033
-542,496	-170,752	-0,104	0,003
-541,481	354,026	0,065	-0,096
-540,466	54,739	-0,120	0,086
-539,452	-67,779	0,077	0,022
-538,437	800,000	-0,060	0,128
-537,423	190,590	-0,073	0,081
-536,408	-85,585	0,040	0,009
-535,393	-17,994	-0,094	-0,044
-534,379	-139,613	-0,150	-0,012
-533,364	201,786	-0,022	0,025
-532,350	800,000	0,040	-0,082
-531,335	800,000	0,054	0,124
-530,321	-200,000	-0,027	0,120
-529,306	800,000	0,017	0,050
-528,291	118,049	0,044	0,040
-527,277	-200,000	0,013	-0,140
-526,262	800,000	-0,031	-0,071
-525,248	-2,399	0,099	0,051
-524,233	-200,000	0,000	0,041
-523,218	-200,000	0,004	0,029
-522,204	-53,336	-0,048	0,016
-521,189	17,771	-0,110	-0,065
-520,175	-200,000	0,015	0,103
-519,160	-132,571	-0,060	0,006
-518,145	52,084	-0,078	-0,055
-517,131	800,000	-0,030	0,077
-516,116	-120,976	-0,223	-0,027
-515,102	800,000	0,033	-0,078
-514,087	-33,034	-0,178	-0,073
-513,072	800,000	-0,026	-0,059
-512,058	800,000	-0,026	-0,072
-511,043	800,000	-0,033	0,081
-510,029	800,000	-0,035	0,085
-509,014	-200,000	0,003	-0,139
-507,999	111,303	-0,087	-0,078
-506,985	742,272	0,045	0,089
-505,970	254,760	0,053	-0,067
-504,956	-142,587	-0,092	0,007
-503,941	-134,211	0,126	-0,011
-502,926	800,000	0,016	-0,045
-501,912	264,876	0,028	0,036
-500,897	76,493	-0,081	-0,063
-499,883	-3,342	-0,105	-0,054
-498,868	-11,901	-0,055	0,026
-497,853	-56,412	0,165	0,054
-496,839	44,779	-0,027	-0,018
-495,824	-80,304	0,129	0,032
-494,810	-22,568	0,091	-0,040
-493,795	70,102	0,097	0,074
-492,781	-90,000	-0,154	-0,033
-491,766	187,714	-0,030	0,033
-490,751	721,644	-0,028	-0,055
-489,737	17,696	-0,075	-0,044
-488,722	160,415	-0,034	-0,035
-487,708	217,240	0,061	-0,072
-486,693	-200,000	0,011	0,043
-485,678	135,596	0,070	0,067
-484,664	800,000	-0,058	-0,119
-483,649	-200,000	0,022	-0,149
-482,635	505,643	0,099	-0,169
-481,620	23,716	-0,084	-0,051
-480,605	-200,000	0,002	0,046
-479,591	105,121	0,090	0,078
-478,576	-200,000	-0,034	-0,114
-477,562	-200,000	-0,013	-0,151
-476,547	70,907	-0,018	-0,014
-475,532	219,304	0,070	-0,083
-474,518	181,190	-0,049	-0,053
-473,503	40,050	0,066	-0,044
-472,489	19,548	-0,054	-0,032
-471,474	-185,739	0,131	0,001
-470,459	800,000	0,045	-0,104
-469,445	-200,000	0,005	-0,061
-468,430	-64,440	0,099	-0,030
-467,416	-200,000	-0,000	-0,061
-466,401	-127,146	0,091	0,010
-465,386	165,282	0,077	0,080
-464,372	-44,482	0,125	0,046
-463,357	-21,263	-0,038	-0,017
-462,343	800,000	0,072	-0,223
-461,328	-125,553	0,050	0,006
-460,313	-13,085	0,147	-0,070
-459,299	800,000	-0,027	-0,066
-458,284	-200,000	0,024	0,087
-457,270	-42,114	-0,098	0,037
-456,255	590,296	-0,057	0,103
-455,241	5,512	-0,121	-0,066
-454,226	194,804	-0,071	-0,079
-453,211	-146,388	0,119	0,008
-452,197	338,137	-0,085	0,122
-451,182	-70,567	-0,083	0,023
-450,168	800,000	0,031	-0,070
-449,153	-200,000	-0,003	-0,039
-448,138	-200,000	0,009	0,029
-447,124	-200,000	0,000	-0,055
-446,109	438,029	-0,013	-0,022
-445,095	800,000	0,054	0,117
-444,080	572,668	-0,032	0,058
-443,065	243,011	0,015	0,019
-442,051	531,544	0,032	-0,056
-441,036	-95,338	-0,099	-0,019
-440,022	-200,000	-0,026	-0,106
-439,007	-65,806	0,100	0,029
-437,992	201,370	-0,074	0,084
-436,978	-200,000	-0,037	0,145
-435,963	800,000	0,048	0,100
-434,949	631,587	0,039	0,073
-433,934	800,000	-0,022	-0,059
-432,919	800,000	-0,039	-0,090
-431,905	-59,642	-0,068	0,021
-430,890	179,594	0,059	-0,064
-429,876	-200,000	0,019	0,122
-428,861	315,091	0,030	0,041
-427,846	65,835	-0,097	-0,073
-426,832	-200,000	0,010	0,041
-425,817	-200,000	0,014	-0,075
-424,803	800,000	-0,024	0,060
-423,788	289,670	-0,035	-0,046
-422,773	-78,104	-0,107	0,027
-421,759	-25,728	0,127	0,055
-420,744	-1,136	0,085	-0,044
-419,730	-42,921	-0,096	-0,036
-418,715	-200,000	0,006	-0,050
-417,701	800,000	-0,049	-0,122
-416,686	-55,167	0,096	0,032
-415,671	800,000	-0,032	0,083
-414,657	29,968	-0,081	-0,051
-413,642	-200,000	0,003	0,066
-412,628	397,901	-0,037	-0,057
-411,613	800,000	-0,044	-0,094
-410,598	800,000	0,069	-0,155
-409,584	-200,000	0,017	0,062
-408,569	-200,000	-0,002	0,046
-407,555	-108,553	-0,148	0,023
-406,540	457,222	0,053	-0,086
-405,525	800,000	0,045	-0,114
-404,511	102,775	0,042	0,036
-403,496	106,982	-0,029	0,025
-402,482	452,535	-0,021	-0,034
-401,467	33,141	0,110	-0,070
-400,452	540,992	-0,026	0,046
-399,438	-6,476	0,108	0,054
-398,423	755,240	0,010	-0,019
-397,409	-200,000	-0,011	-0,128
-396,394	-200,000	-0,014	-0,132
-395,379	-74,956	0,070	-0,018
-394,365	-147,764	0,162	0,010
-393,350	731,732	-0,017	-0,034
-392,336	800,000	-0,018	0,040
-391,321	800,000	0,044	-0,123
-390,306	-155,226	0,103	0,005
-389,292	-200,000	-0,001	0,075
-388,277	38,280	-0,057	0,037
-387,263	-197,955	0,081	-0,000
-386,248	130,303	-0,007	-0,006
-385,233	93,035	0,052	-0,043
-384,219	-200,000	0,023	-0,094
-383,204	800,000	-0,040	-0,104
-382,190	-79,808	0,032	0,008
-381,175	83,972	0,137	-0,109
-380,160	59,314	-0,068	-0,049
-379,146	-36,038	0,063	0,025
-378,131	25,562	0,017	-0,011
-377,117	125,487	0,062	-0,057
-376,102	358,345	0,047	0,069
-375,088	-7,085	0,020	-0,010
-374,073	-95,444	-0,090	-0,018
-373,058	-200,000	0,006	0,036
-372,044	800,000	0,057	0,121
-371,029	-31,568	-0,039	-0,016
-370,015	-157,376	0,124	0,005
-369,000	163,682	0,014	0,014
-367,985	-200,000	0,057	-0,225
-366,971	-4,070	0,072	-0,037
-365,956	78,783	0,085	-0,067
-364,942	-200,000	0,022	0,084
-363,927	219,208	-0,092	0,108
-362,912	527,195	-0,020	-0,035
-361,898	-33,597	0,076	-0,031
-360,883	800,000	0,037	-0,112
-359,869	-85,974	-0,054	-0,012
-358,854	-112,540	-0,013	-0,002
-357,839	-81,144	0,079	-0,019
-356,825	192,099	-0,051	0,056
-355,810	40,049	0,055	-0,036
-354,796	-32,255	-0,155	-0,063
-353,781	-27,464	0,092	0,039
-352,766	-200,000	0,009	0,113
-351,752	95,870	-0,093	-0,078
-350,737	208,591	0,032	0,037
-349,723	-130,069	-0,147	0,015
-348,708	800,000	0,031	0,089
-347,693	800,000	-0,028	-0,089
-346,679	-200,000	0,011	-0,039
-345,664	59,364	0,058	0,042
-344,650	-97,078	-0,134	0,025
-343,635	800,000	0,017	-0,053
-342,620	-120,307	0,021	-0,003
-341,606	-200,000	0,001	0,150
-340,591	-200,000	0,037	-0,132
-339,577	800,000	-0,041	0,128
-338,562	-149,463	0,118	0,007
-337,548	-200,000	0,030	-0,123
-336,533	242,862	0,093	0,114
-335,518	-156,113	0,048	0,002
-334,504	-200,000	-0,033	0,119
-333,489	-88,625	0,048	0,010
-332,475	-23,328	0,040	0,017
-331,460	199,208	0,066	-0,075
-330,445	288,465	-0,073	-0,098
-329,431	165,068	-0,096	0,099
-328,416	-200,000	-0,007	0,049
-327,402	109,785	-0,092	0,081
-326,387	-200,000	0,020	0,125
-325,372	311,346	0,026	-0,036
-324,358	-200,000	-0,028	-0,125
-323,343	-128,457	0,143	0,015
-322,329	-129,520	-0,098	0,010
-321,314	-2,317	-0,049	-0,025
-320,299	-134,129	0,051	0,005
-319,285	800,000	0,017	0,050
-318,270	161,504	-0,088	-0,090
-317,256	45,119	-0,032	-0,021
-316,241	55,875	0,062	-0,044
-315,226	800,000	0,044	0,104
-314,212	-182,325	0,148	-0,002
-313,197	800,000	-0,021	0,054
-312,183	-200,000	0,001	-0,061
-311,168	-82,165	-0,120	0,028
-310,153	427,633	0,079	0,125
-309,139	-200,000	0,011	-0,080
-308,124	102,426	0,033	0,028
-307,110	-2,909	-0,125	0,064
-306,095	271,409	0,077	0,100
-305,080	48,196	-0,053	0,036
-304,066	71,684	-0,093	-0,071
-303,051	-200,000	-0,028	-0,104
-302,037	-145,799	-0,187	-0,012
-301,022	-77,427	-0,036	-0,009
-300,008	26,510	0,067	0,041
-298,993	-59,356	0,020	0,006
-297,978	-137,821	0,090	-0,007
-296,964	-113,925	-0,051	0,007
-295,949	120,770	-0,032	-0,029
-294,935	-200,000	0,002	-0,073
-293,920	36,728	0,100	0,064
-292,905	-158,168	-0,049	0,002
-291,891	-99,129	0,088	0,016
-290,876	800,000	-0,027	0,055
-289,862	-73,249	0,038	0,010
-288,847	-10,894	-0,010	0,005
-287,832	-200,000	-0,003	-0,114
-286,818	-95,261	0,044	0,009
-285,803	-200,000	-0,001	0,030
-284,789	-34,513	0,073	0,029
-283,774	209,753	0,039	0,045
-282,759	-123,128	0,100	-0,012
-281,745	17,415	-0,116	0,067
-280,730	-4,664	0,069	0,035
-279,716	11,030	-0,063	-0,035
-278,701	-5,208	-0,053	0,027
-277,686	800,000	0,008	-0,023
-276,672	-200,000	-0,028	0,091
-275,657	90,109	-0,074	-0,060
-274,643	29,624	-0,130	0,081
-273,628	-200,000	0,006	-0,025
-272,613	-200,000	0,020	-0,064
-271,599	-22,101	0,140	0,062
-270,584	-5,680	0,153	0,076
-269,570	-200,000	0,001	0,012
-268,555	-88,643	0,087	-0,019
-267,540	86,983	0,052	-0,042
-266,526	-163,984	-0,094	0,003
-265,511	253,020	-0,046	0,058
-264,497	240,267	-0,018	-0,022
-263,482	-200,000	0,001	-0,003
-262,467	685,342	-0,059	-0,112
-261,453	800,000	-0,023	0,072
-260,438	3,959	-0,042	0,022
-259,424	-16,408	-0,016	-0,007
-258,409	-200,000	-0,027	-0,140
-257,395	-78,168	0,057	-0,014
-256,380	596,744	-0,043	-0,078
-255,365	114,612	0,072	0,064
-254,351	-86,850	0,028	0,006
-253,336	175,179	-0,108	0,114
-252,322	-162,141	0,069	0,002
-251,307	184,177	0,069	0,074
-250,292	-200,000	-0,007	0,033
-249,278	-91,370	-0,110	0,023
-248,263	-41,153	0,089	0,033
-247,249	-7,005	0,105	-0,052
-246,234	6,312	-0,118	-0,064
-245,219	-94,481	-0,161	-0,032
-244,205	161,767	-0,064	-0,066
-243,190	35,017	-0,139	0,089
-242,176	244,129	0,151	0,185
-241,161	182,983	0,131	0,141
-240,146	-22,764	-0,175	0,077
-239,132	800,000	0,043	0,108
-238,117	15,970	-0,136	0,078
-237,103	135,803	0,080	-0,076
-236,088	101,170	0,013	-0,011
-235,073	129,193	0,010	-0,010
-234,059	198,551	0,032	-0,036
-233,044	-4,470	0,100	0,050
-232,030	46,548	0,066	0,045
-231,015	-200,000	-0,013	-0,056
-230,000	-6,151	0,114	0,056
-228,986	-32,116	-0,048	-0,020
-227,971	9,751	0,048	0,026
-226,957	800,000	0,056	0,157
-225,942	125,388	0,132	-0,122
-224,927	-200,000	-0,036	0,121
-223,913	-10,153	-0,089	-0,043
-222,898	22,662	-0,125	-0,075
-221,884	68,314	0,049	0,037
-220,869	-103,662	0,022	-0,004
-219,855	26,454	0,109	0,067
-218,840	-200,000	-0,020	0,090
-217,825	201,886	0,130	-0,146
-216,811	-75,163	0,127	0,033
-215,796	800,000	-0,037	0,079
-214,782	800,000	-0,034	-0,101
-213,767	622,050	-0,036	0,066
-212,752	81,738	-0,083	-0,065
-211,738	-178,381	-0,065	0,001
-210,723	-117,858	0,114	0,015
-209,709	-200,000	0,012	-0,061
-208,694	-131,383	-0,133	-0,013
-207,679	569,080	-0,060	0,107
-206,665	68,617	0,200	0,150
-205,650	38,907	-0,034	0,022
-204,636	68,787	0,079	0,059
-203,621	524,242	-0,053	0,091
-202,606	-112,304	0,049	-0,007
-201,592	-33,848	-0,098	-0,039
-200,577	-140,881	-0,073	0,005
-199,563	-90,104	-0,026	0,005
-198,548	266,273	-0,048	0,062
-197,533	51,908	-0,038	0,026
-196,519	518,921	-0,020	0,034
-195,504	-52,275	0,055	-0,018
-194,490	299,384	-0,043	-0,058
-193,475	297,007	0,039	-0,053
-192,460	2,574	0,096	0,051
-191,446	-32,328	-0,028	-0,011
-190,431	483,333	0,090	0,149
-189,417	-18,339	0,076	0,034
-188,402	134,964	0,046	-0,044
-187,387	202,813	0,031	-0,035
-186,373	-200,000	0,008	0,052
-185,358	-14,046	0,050	-0,023
-184,344	195,658	-0,077	0,085
-183,329	-103,177	-0,104	0,018
-182,315	800,000	0,034	0,094
-181,300	236,841	0,072	0,087
-180,285	-200,000	0,003	0,070
-179,271	697,085	0,063	-0,122
-178,256	129,947	-0,101	-0,094
-177,242	800,000	-0,030	0,082
-176,227	800,000	0,066	0,153
-175,212	199,573	-0,091	0,101
-174,198	112,289	-0,082	0,072
-173,183	92,401	-0,130	0,107
-172,169	-49,980	0,021	0,007
-171,154	-200,000	-0,004	0,102
-170,139	-200,000	0,005	0,101
-169,125	-138,316	-0,048	0,004
-168,110	-94,735	0,104	-0,020
-167,096	-117,532	-0,027	-0,003
-166,081	800,000	-0,022	-0,049
-165,066	-132,860	-0,117	0,011
-164,052	199,154	0,048	0,053
-163,037	483,106	0,076	-0,126
-162,023	800,000	0,079	-0,186
-161,008	800,000	0,012	0,026
-159,993	-135,918	-0,152	-0,013
-158,979	-200,000	0,009	0,032
-157,964	52,795	0,097	-0,067
-156,950	385,635	0,072	0,109
-155,935	-81,631	-0,115	-0,027
-154,920	800,000	0,007	0,014
-153,906	51,822	0,138	0,096
-152,891	-200,000	-0,015	0,126
-151,877	-200,000	0,068	0,000
-150,862	800,000	0,020	0,062
-149,847	-200,000	0,016	-0,056
-148,833	-142,908	-0,043	-0,003
-147,818	198,445	0,124	0,139
-146,804	800,000	0,031	0,090
-145,789	-70,334	0,112	0,031
-144,775	791,269	-0,019	-0,037
-143,760	130,954	-0,073	-0,069
-142,745	-176,263	-0,099	0,002
-141,731	106,841	0,082	0,071
-140,716	800,000	0,044	-0,123
-139,702	-139,749	0,166	-0,013
-138,687	-200,000	-0,004	-0,060
-137,672	-200,000	-0,002	0,075
-136,658	-174,878	-0,049	0,001
-135,643	-75,592	-0,119	-0,030
-134,629	-116,504	-0,072	-0,009
-133,614	-2,561	-0,087	-0,044
-132,599	127,841	0,069	0,064
-131,585	228,744	-0,061	0,072
-130,570	76,446	-0,021	-0,017
-129,556	127,130	0,068	-0,063
-128,541	-130,802	-0,208	-0,020
-127,526	13,159	-0,126	0,071
-126,512	89,485	0,016	0,013
-125,497	-31,083	0,037	-0,015
-124,483	800,000	0,027	0,074
-123,468	-200,000	-0,013	0,050
-122,453	236,789	0,127	-0,154
-121,439	-45,262	-0,055	-0,020
-120,424	-148,227	0,033	0,002
-119,410	15,367	-0,047	0,027
-118,395	-147,449	0,082	0,005
