DTS Sentinel unit serial number:	SN410029Multiplexer serial number:	ORYXHardware model number:	OX2-SRSoftware version number:	ORYX F/W v4,00 Oryx Data Collector v3.7.2.0data status	okinstallation	B4 Nyhavnadifferential loss correction	single-endedforward channel	channel 2reverse channel	N/Adate	2023/12/19time	04:45:13forward acquisition time	300,00reverse acquisition time	0,00gamma	499,1914k internal	0,3126k external	0,3126temperature offset calibration	1,0000default loss term (dB/km)	0,3820temperature slope calibration	1,0000multiplexer offset coefficient	1,0000multiplexer slope coefficient	1,0000fibre end	0,00T internal ref (°C)	20,94T ext. ref 1 (°C)	6,29T ext. ref 2 (°C)	6,42length (m)	temperature (°C)	Stokes	anti-Stokes-744,400	-200,000	0,007	-0,067
-743,385	-122,247	-0,283	-0,034
-742,371	-16,264	0,017	0,008
-741,356	187,721	-0,171	0,190
-740,342	429,300	-0,065	0,105
-739,327	-41,857	-0,190	0,072
-738,312	-200,000	-0,001	-0,085
-737,298	-107,724	-0,233	0,037
-736,283	380,311	0,100	-0,152
-735,269	6,915	-0,261	0,145
-734,254	-200,000	0,044	-0,152
-733,239	-148,722	-0,445	-0,026
-732,225	-139,000	-0,087	-0,007
-731,210	52,091	0,083	-0,059
-730,196	57,158	0,044	-0,032
-729,181	0,283	0,017	-0,009
-728,167	-117,994	-0,018	-0,002
-727,152	-94,444	-0,025	0,005
-726,137	800,000	0,031	-0,067
-725,123	53,992	-0,127	-0,091
-724,108	800,000	-0,065	-0,147
-723,094	90,709	-0,107	0,089
-722,079	-117,431	0,073	0,010
-721,064	-87,298	-0,083	0,019
-720,050	105,817	-0,049	0,043
-719,035	68,131	0,084	-0,064
-718,021	800,000	-0,081	0,180
-717,006	800,000	-0,016	-0,040
-715,991	-69,742	-0,084	-0,024
-714,977	157,620	0,022	-0,023
-713,962	-116,144	-0,162	-0,022
-712,948	-44,442	0,135	0,050
-711,933	145,125	0,033	0,033
-710,918	-40,497	0,112	0,043
-709,904	29,970	-0,062	0,040
-708,889	22,955	-0,046	-0,028
-707,875	800,000	0,045	-0,106
-706,860	10,512	0,147	0,083
-705,845	298,795	0,052	0,072
-704,831	-200,000	-0,029	0,174
-703,816	177,687	-0,063	-0,068
-702,802	-200,000	-0,037	-0,129
-701,787	652,362	0,056	0,108
-700,772	383,901	-0,016	-0,025
-699,758	385,917	-0,020	0,030
-698,743	-200,000	-0,013	0,094
-697,729	800,000	-0,040	-0,093
-696,714	-200,000	0,022	-0,148
-695,699	709,816	-0,019	-0,037
-694,685	-39,966	0,083	-0,032
-693,670	-34,912	-0,112	-0,045
-692,656	800,000	-0,030	0,069
-691,641	99,488	0,014	-0,012
-690,627	342,016	0,075	0,109
-689,612	-135,433	-0,058	-0,005
-688,597	169,734	-0,072	0,076
-687,583	561,963	-0,033	-0,059
-686,568	717,724	0,040	-0,080
-685,554	-60,837	0,089	-0,028
-684,539	-200,000	-0,034	0,166
-683,524	800,000	0,033	0,094
-682,510	-200,000	-0,003	0,126
-681,495	-200,000	-0,012	0,120
-680,481	-105,085	-0,109	-0,018
-679,466	70,586	-0,121	-0,093
-678,451	-200,000	0,003	-0,112
-677,437	-115,586	-0,067	0,009
-676,422	-28,759	0,023	-0,010
-675,408	-17,596	-0,058	0,027
-674,393	-43,309	-0,045	0,017
-673,378	-4,959	-0,212	0,108
-672,364	-200,000	-0,024	-0,103
-671,349	126,397	0,071	-0,067
-670,335	-4,958	0,016	0,008
-669,320	7,126	0,031	-0,017
-668,305	-200,000	-0,001	0,097
-667,291	-24,163	-0,135	-0,060
-666,276	-47,314	-0,039	-0,014
-665,262	-91,173	-0,009	0,002
-664,247	125,539	-0,114	0,107
-663,232	-35,525	-0,101	0,040
-662,218	70,230	0,059	-0,045
-661,203	603,829	0,018	-0,033
-660,189	-96,403	-0,184	0,036
-659,174	-200,000	-0,010	-0,075
-658,159	297,026	0,006	0,008
-657,145	296,977	-0,009	0,012
-656,130	-200,000	-0,004	-0,078
-655,116	60,964	-0,067	-0,049
-654,101	-68,808	-0,139	-0,040
-653,086	73,373	-0,048	0,038
-652,072	-18,429	-0,068	0,031
-651,057	98,361	0,056	-0,048
-650,043	-153,480	-0,085	0,004
-649,028	45,915	0,135	-0,093
-648,014	-200,000	0,016	-0,122
-646,999	-200,000	0,024	-0,081
-645,984	208,906	-0,013	0,015
-644,970	266,139	-0,058	-0,075
-643,955	-27,651	0,019	-0,008
-642,941	331,281	-0,077	-0,110
-641,926	-143,588	0,045	-0,003
-640,911	-200,000	0,013	-0,084
-639,897	504,397	0,115	-0,198
-638,882	800,000	-0,057	-0,164
-637,868	255,708	-0,096	-0,122
-636,853	-200,000	-0,014	-0,071
-635,838	466,614	-0,040	0,067
-634,824	-200,000	0,006	-0,079
-633,809	-96,928	-0,099	-0,019
-632,795	-200,000	-0,011	0,112
-631,780	800,000	-0,062	0,162
-630,765	43,050	-0,062	-0,042
-629,751	800,000	-0,018	0,048
-628,736	-112,738	-0,080	0,012
-627,722	-154,602	0,082	0,004
-626,707	-200,000	-0,015	-0,152
-625,692	22,253	0,102	-0,062
-624,678	592,111	-0,026	-0,047
-623,663	-120,499	-0,107	0,013
-622,649	61,959	-0,156	-0,115
-621,634	-75,062	-0,052	0,014
-620,619	-200,000	0,015	0,073
-619,605	-109,900	0,207	0,032
-618,590	-96,406	0,047	-0,009
-617,576	42,078	0,064	-0,043
-616,561	-104,754	-0,099	0,017
-615,546	-99,266	-0,129	0,024
-614,532	-43,832	-0,123	-0,045
-613,517	800,000	-0,008	0,026
-612,503	-200,000	-0,009	-0,118
-611,488	800,000	-0,036	-0,096
-610,474	-87,055	-0,051	0,011
-609,459	-200,000	0,012	0,180
-608,444	241,657	0,045	-0,056
-607,430	-57,992	-0,126	-0,041
-606,415	147,978	0,086	0,086
-605,401	-103,172	-0,152	0,026
-604,386	-113,939	0,090	-0,013
-603,371	184,967	0,032	0,036
-602,357	-200,000	0,038	-0,141
-601,342	-175,375	0,044	-0,001
-600,328	-73,433	-0,064	0,017
-599,313	800,000	-0,025	-0,056
-598,298	800,000	0,013	-0,028
-597,284	379,307	-0,035	-0,053
-596,269	800,000	-0,048	0,154
-595,255	-93,161	0,024	-0,005
-594,240	97,213	-0,085	0,072
-593,225	50,186	-0,107	-0,074
-592,211	800,000	-0,024	-0,067
-591,196	6,232	0,042	0,023
-590,182	48,206	0,095	0,066
-589,167	562,583	-0,043	0,078
-588,152	-200,000	0,011	0,048
-587,138	-200,000	0,005	-0,026
-586,123	-200,000	0,020	-0,097
-585,109	153,393	-0,046	-0,047
-584,094	71,165	-0,072	0,055
-583,079	-34,138	0,118	-0,048
-582,065	-120,591	0,212	-0,026
-581,050	-12,088	0,027	-0,013
-580,036	-88,970	-0,036	-0,008
-579,021	195,921	-0,066	-0,075
-578,006	108,745	-0,068	-0,060
-576,992	128,621	0,104	-0,098
-575,977	800,000	0,045	0,141
-574,963	-200,000	0,005	0,113
-573,948	282,711	-0,062	-0,082
-572,934	-140,674	0,042	-0,003
-571,919	137,409	0,100	0,097
-570,904	562,533	0,047	-0,085
-569,890	663,132	-0,087	-0,166
-568,875	-200,000	-0,012	0,040
-567,861	21,423	0,087	0,052
-566,846	-69,066	0,044	-0,012
-565,831	522,416	0,029	-0,051
-564,817	-200,000	-0,040	0,157
-563,802	-200,000	-0,039	-0,138
-562,788	-153,052	-0,122	0,006
-561,773	-58,856	0,058	0,019
-560,758	117,334	0,073	-0,067
-559,744	-10,817	-0,057	-0,028
-558,729	-200,000	-0,009	0,093
-557,715	257,646	-0,011	0,014
-556,700	84,220	-0,069	-0,056
-555,685	-10,972	0,080	0,039
-554,671	-31,293	-0,130	-0,054
-553,656	-200,000	-0,020	0,081
-552,642	228,492	-0,075	0,090
-551,627	-85,648	0,099	-0,023
-550,612	-29,478	0,141	-0,059
-549,598	14,187	-0,123	-0,071
-548,583	120,621	-0,091	-0,084
-547,569	36,266	0,099	0,064
-546,554	-120,121	-0,080	0,010
-545,539	800,000	0,012	0,029
-544,525	139,416	0,075	-0,073
-543,510	-29,160	-0,129	-0,054
-542,496	25,080	-0,101	-0,062
-541,481	355,143	-0,124	-0,183
-540,466	404,172	0,033	0,051
-539,452	-200,000	0,012	-0,052
-538,437	177,849	-0,065	-0,070
-537,423	234,538	-0,078	0,095
-536,408	800,000	0,033	-0,086
-535,393	-198,546	-0,078	-0,000
-534,379	93,291	0,073	-0,061
-533,364	198,983	0,096	-0,108
-532,350	-200,000	-0,014	-0,104
-531,335	21,177	0,084	-0,051
-530,321	-200,000	-0,012	-0,078
-529,306	800,000	-0,027	-0,079
-528,291	-200,000	-0,004	-0,083
-527,277	800,000	-0,057	-0,120
-526,262	-10,470	0,020	-0,010
-525,248	800,000	0,053	-0,153
-524,233	-200,000	0,011	-0,075
-523,218	-41,975	-0,120	-0,045
-522,204	-200,000	0,019	-0,259
-521,189	200,632	0,077	-0,088
-520,175	35,341	-0,123	-0,080
-519,160	-200,000	-0,001	-0,005
-518,145	-103,150	-0,147	0,025
-517,131	-200,000	-0,031	0,115
-516,116	-200,000	0,002	0,147
-515,102	110,432	0,039	0,035
-514,087	17,767	0,005	-0,003
-513,072	-145,474	-0,099	0,006
-512,058	-200,000	0,002	-0,044
-511,043	-200,000	-0,029	0,105
-510,029	167,986	0,092	-0,097
-509,014	564,796	0,046	0,083
-507,999	-200,000	-0,020	0,069
-506,985	116,748	0,090	-0,081
-505,970	-175,475	-0,116	-0,002
-504,956	800,000	-0,023	-0,055
-503,941	37,009	0,021	0,014
-502,926	37,194	-0,082	-0,054
-501,912	800,000	-0,039	0,096
-500,897	-45,665	-0,052	0,019
-499,883	-200,000	0,011	-0,093
-498,868	-200,000	0,003	-0,080
-497,853	-152,228	-0,146	-0,008
-496,839	-200,000	0,014	-0,192
-495,824	216,867	-0,034	0,040
-494,810	-191,339	-0,238	0,002
-493,795	-17,448	-0,056	0,026
-492,781	800,000	0,023	-0,053
-491,766	-200,000	0,001	0,008
-490,751	800,000	0,072	-0,200
-489,737	95,251	0,079	-0,067
-488,722	190,631	0,050	0,055
-487,708	99,224	0,127	0,108
-486,693	-200,000	-0,021	0,087
-485,678	136,932	0,116	0,111
-484,664	401,291	-0,022	0,034
-483,649	-62,659	-0,038	0,012
-482,635	49,927	-0,047	-0,032
-481,620	-200,000	-0,002	0,028
-480,605	-78,827	-0,143	0,036
-479,591	-200,000	0,036	-0,118
-478,576	400,773	-0,030	-0,047
-477,562	800,000	0,005	0,014
-476,547	-51,014	0,078	0,027
-475,532	-129,703	-0,084	-0,008
-474,518	-200,000	-0,002	-0,025
-473,503	-28,349	0,073	0,031
-472,489	105,587	0,055	0,048
-471,474	181,189	0,051	0,056
-470,459	529,921	0,014	0,024
-469,445	290,612	-0,057	-0,077
-468,430	-65,695	-0,111	0,033
-467,416	-113,895	0,078	0,011
-466,401	513,961	0,034	0,059
-465,386	100,409	0,052	0,044
-464,372	-11,145	-0,080	-0,039
-463,357	800,000	-0,026	0,078
-462,343	383,052	0,056	-0,086
-461,328	-137,299	-0,062	-0,005
-460,313	265,353	0,078	-0,101
-459,299	-29,715	0,040	0,017
-458,284	800,000	0,067	0,176
-457,270	60,236	0,076	-0,055
-456,255	272,293	-0,067	-0,088
-455,241	800,000	-0,027	0,079
-454,226	128,988	-0,114	0,107
-453,211	422,726	0,044	-0,070
-452,197	-71,444	0,113	0,031
-451,182	133,954	0,023	-0,022
-450,168	800,000	0,037	0,098
-449,153	-5,591	0,068	0,034
-448,138	134,612	-0,138	-0,132
-447,124	145,458	-0,135	-0,133
-446,109	-14,333	0,079	-0,037
-445,095	-172,224	-0,183	-0,004
-444,080	190,578	-0,050	-0,055
-443,065	44,933	0,139	0,094
-442,051	800,000	0,011	0,036
-441,036	-82,584	0,011	-0,003
-440,022	314,882	0,028	0,038
-439,007	-63,742	-0,085	-0,025
-437,992	284,654	-0,021	0,028
-436,978	-200,000	0,005	0,076
-435,963	26,559	0,092	0,057
-434,949	-181,201	0,069	-0,001
-433,934	427,808	0,033	0,053
-432,919	-200,000	-0,017	0,113
-431,905	800,000	0,013	0,034
-430,890	334,056	0,082	0,117
-429,876	63,593	0,055	-0,041
-428,861	-121,987	-0,010	0,001
-427,846	3,671	0,086	0,046
-426,832	206,448	-0,101	-0,115
-425,817	-163,920	-0,100	0,003
-424,803	-200,000	0,007	-0,064
-423,788	-200,000	0,020	0,070
-422,773	36,792	-0,028	-0,018
-421,759	800,000	0,034	-0,081
-420,744	574,552	0,045	-0,081
-419,730	800,000	-0,026	0,074
-418,715	46,615	-0,056	-0,038
-417,701	63,856	-0,082	-0,060
-416,686	-12,618	0,117	0,056
-415,671	-113,282	0,131	0,019
-414,657	49,106	-0,018	0,012
-413,642	676,817	-0,023	0,044
-412,628	462,853	0,038	0,063
-411,613	214,027	-0,007	-0,009
-410,598	-94,827	0,072	0,014
-409,584	37,574	0,076	-0,049
-408,569	-200,000	-0,015	0,132
-407,555	190,932	0,097	0,107
-406,540	-70,157	-0,133	0,037
-405,525	800,000	-0,063	0,149
-404,511	800,000	0,025	-0,076
-403,496	800,000	0,048	0,105
-402,482	-79,223	0,104	-0,026
-401,467	-81,837	0,075	0,018
-400,452	-200,000	-0,003	0,078
-399,438	175,138	-0,126	0,135
-398,423	-200,000	0,006	0,129
-397,409	800,000	0,020	0,061
-396,394	-200,000	0,022	0,123
-395,379	-62,369	0,055	-0,017
-394,365	-12,291	0,176	0,084
-393,350	280,552	0,065	0,086
-392,336	319,696	0,036	0,051
-391,321	29,910	-0,091	-0,057
-390,306	800,000	-0,009	-0,022
-389,292	228,481	0,030	-0,036
-388,277	-67,304	0,033	0,010
-387,263	73,264	0,067	0,051
-386,248	800,000	-0,027	0,076
-385,233	-57,884	-0,081	0,026
-384,219	52,690	-0,050	-0,035
-383,204	111,066	0,092	0,081
-382,190	-139,135	-0,043	0,003
-381,175	11,198	-0,052	-0,029
-380,160	266,815	-0,093	-0,120
-379,146	113,919	-0,057	0,051
-378,131	-109,582	0,081	0,012
-377,117	800,000	-0,012	-0,026
-376,102	2,434	0,056	0,030
-375,088	84,941	-0,042	0,034
-374,073	-200,000	0,038	0,175
-373,058	-200,000	0,004	0,064
-372,044	-200,000	0,002	0,075
-371,029	70,047	0,077	0,058
-370,015	-4,580	0,021	0,010
-369,000	800,000	-0,025	0,075
-367,985	-96,144	0,060	-0,012
-366,971	-104,157	-0,094	0,016
-365,956	800,000	-0,024	0,050
-364,942	85,602	-0,038	-0,031
-363,927	424,943	0,047	-0,074
-362,912	800,000	0,050	0,143
-361,898	-90,206	0,020	-0,004
-360,883	38,645	-0,090	-0,059
-359,869	5,034	0,079	-0,043
-358,854	156,444	0,046	0,047
-357,839	-111,853	0,133	-0,020
-356,825	376,961	0,038	0,057
-355,810	-160,869	-0,076	0,003
-354,796	800,000	-0,055	-0,138
-353,781	560,764	0,051	-0,091
-352,766	-200,000	-0,006	0,053
-351,752	366,209	0,057	0,085
-350,737	155,329	-0,081	0,081
-349,723	41,029	0,022	-0,014
-348,708	197,913	-0,032	0,036
-347,693	101,426	0,046	-0,039
-346,679	207,586	-0,087	0,099
-345,664	-46,079	-0,024	0,009
-344,650	43,905	0,070	0,047
-343,635	-67,805	-0,062	0,018
-342,620	297,234	0,074	0,100
-341,606	800,000	-0,051	0,114
-340,591	-47,009	0,066	0,024
-339,577	800,000	0,025	-0,054
-338,562	706,916	-0,120	-0,233
-337,548	27,529	-0,030	0,018
-336,533	800,000	0,082	0,180
-335,518	530,059	-0,008	-0,014
-334,504	-200,000	-0,035	0,137
-333,489	244,552	0,016	-0,020
-332,475	18,907	-0,038	-0,022
-331,460	151,465	-0,079	-0,079
-330,445	524,566	0,040	-0,069
-329,431	800,000	0,032	-0,084
-328,416	5,912	0,069	0,037
-327,402	-200,000	0,004	0,066
-326,387	-200,000	0,006	-0,035
-325,372	359,554	-0,057	-0,084
-324,358	800,000	0,045	0,103
-323,343	800,000	0,035	0,093
-322,329	-200,000	-0,013	0,091
-321,314	73,359	0,116	0,089
-320,299	-91,116	-0,134	0,028
-319,285	-143,226	-0,025	0,002
-318,270	-88,865	-0,109	-0,024
-317,256	16,757	-0,170	-0,098
-316,241	-13,058	0,096	-0,046
-315,226	800,000	-0,037	0,114
-314,212	261,689	0,044	0,056
-313,197	-46,167	0,074	0,027
-312,183	-200,000	-0,006	0,082
-311,168	-51,375	-0,051	-0,018
-310,153	-122,802	-0,065	0,008
-309,139	302,239	-0,040	-0,054
-308,124	113,117	0,037	0,033
-307,110	315,283	-0,060	0,083
-306,095	19,340	0,173	0,102
-305,080	-200,000	0,005	-0,061
-304,066	194,024	-0,124	-0,137
-303,051	-178,771	-0,014	-0,000
-302,037	-200,000	0,003	-0,053
-301,022	620,149	0,055	0,101
-300,008	-200,000	0,016	0,055
-298,993	-95,763	0,063	0,012
-297,978	-191,519	-0,077	0,001
-296,964	51,129	-0,071	-0,049
-295,949	800,000	-0,043	-0,109
-294,935	52,325	-0,087	-0,060
-293,920	40,745	0,034	0,022
-292,905	87,305	0,084	0,068
-291,891	-30,502	-0,066	-0,027
-290,876	649,661	0,032	0,059
-289,862	-56,560	-0,124	-0,040
-288,847	800,000	0,046	-0,102
-287,832	-143,874	0,054	-0,004
-286,818	-200,000	-0,024	-0,090
-285,803	91,633	0,031	-0,025
-284,789	-200,000	0,021	0,095
-283,774	-200,000	-0,013	-0,090
-282,759	-93,305	0,117	0,024
-281,745	183,021	-0,053	0,057
-280,730	800,000	0,051	0,128
-279,716	3,251	0,054	0,029
-278,701	-200,000	0,025	-0,095
-277,686	430,529	0,096	0,152
-276,672	-200,000	0,010	0,137
-275,657	-15,481	-0,031	-0,014
-274,643	565,941	-0,022	0,040
-273,628	334,207	-0,016	0,022
-272,613	-183,909	-0,071	0,001
-271,599	-155,821	0,196	0,009
-270,584	61,307	0,065	0,047
-269,570	-200,000	0,001	0,137
-268,555	-80,223	0,098	0,024
-267,540	191,508	0,138	-0,152
-266,526	800,000	0,033	0,077
-265,511	800,000	-0,025	-0,051
-264,497	679,660	-0,058	0,110
-263,482	387,756	0,033	0,050
-262,467	-200,000	-0,004	-0,071
-261,453	454,799	-0,100	-0,162
-260,438	-15,095	-0,065	0,030
-259,424	800,000	-0,018	-0,052
-258,409	-13,552	-0,004	-0,002
-257,395	800,000	0,075	-0,152
-256,380	93,430	0,124	0,103
-255,365	434,405	0,053	0,084
-254,351	-200,000	-0,000	-0,017
-253,336	210,674	-0,068	-0,078
-252,322	800,000	-0,077	-0,222
-251,307	420,744	0,053	0,084
-250,292	364,520	0,084	0,123
-249,278	-69,200	0,101	0,028
-248,263	-98,285	0,022	-0,004
-247,249	-200,000	0,009	0,082
-246,234	120,158	0,038	0,034
-245,219	-200,000	-0,018	-0,165
-244,205	61,929	-0,154	-0,112
-243,190	800,000	-0,031	0,100
-242,176	12,874	-0,104	0,059
-241,161	201,848	0,111	0,125
-240,146	27,763	-0,106	-0,065
-239,132	-200,000	-0,018	-0,063
-238,117	70,067	-0,047	-0,036
-237,103	12,924	-0,073	0,041
-236,088	593,012	0,062	0,112
-235,073	800,000	-0,027	0,078
-234,059	-134,384	0,097	-0,009
-233,044	-106,383	0,112	-0,018
-232,030	-70,637	-0,128	0,035
-231,015	42,364	0,118	-0,078
-230,000	183,421	-0,126	-0,136
-228,986	-157,508	0,078	-0,003
-227,971	-55,561	-0,088	0,029
-226,957	800,000	-0,007	-0,016
-225,942	-200,000	0,013	0,126
-224,927	-48,489	-0,051	0,018
-223,913	378,194	-0,062	-0,093
-222,898	-200,000	0,010	-0,050
-221,884	422,072	0,104	0,163
-220,869	-51,955	-0,079	0,027
-219,855	41,861	-0,040	-0,027
-218,840	-48,592	0,078	-0,027
-217,825	77,542	0,097	0,075
-216,811	-66,925	-0,123	0,035
-215,796	800,000	0,023	-0,050
-214,782	236,850	-0,029	-0,036
-213,767	641,779	0,056	0,104
-212,752	646,074	-0,054	0,101
-211,738	-123,280	0,125	0,014
-210,723	48,454	0,073	-0,050
-209,709	528,054	-0,025	-0,044
-208,694	152,368	-0,078	-0,077
-207,679	-138,738	-0,081	0,006
-206,665	288,120	-0,060	0,080
-205,650	-200,000	0,031	0,104
-204,636	312,372	0,059	0,081
-203,621	496,325	0,005	-0,008
-202,606	-65,775	0,061	-0,018
-201,592	-34,633	-0,107	-0,042
-200,577	166,486	0,030	-0,031
-199,563	-62,662	0,086	0,026
-198,548	-200,000	0,007	0,127
-197,533	187,667	0,034	-0,037
-196,519	202,588	-0,065	0,073
-195,504	800,000	-0,018	-0,050
-194,490	-200,000	-0,012	0,057
-193,475	33,035	-0,128	0,081
-192,460	240,584	0,051	0,062
-191,446	800,000	-0,042	0,117
-190,431	-112,649	0,149	0,021
-189,417	55,408	0,057	0,040
-188,402	-200,000	-0,027	0,087
-187,387	-103,567	-0,112	-0,019
-186,373	-200,000	0,010	-0,193
-185,358	130,407	0,070	0,065
-184,344	-84,538	0,099	0,022
-183,329	-200,000	0,010	0,080
-182,315	374,797	0,072	0,107
-181,300	461,887	0,051	-0,084
-180,285	-80,281	0,048	-0,012
-179,271	-200,000	-0,049	0,179
-178,256	-64,393	0,125	0,037
-177,242	800,000	0,024	-0,055
-176,227	-27,694	-0,048	-0,020
-175,212	-55,172	-0,027	-0,009
-174,198	-62,410	-0,016	-0,005
-173,183	-37,700	0,060	0,023
-172,169	-199,479	-0,116	-0,000
-171,154	800,000	0,040	-0,086
-170,139	-57,489	0,157	-0,050
-169,125	-200,000	0,005	0,019
-168,110	-200,000	-0,007	-0,051
-167,096	-200,000	0,007	-0,071
-166,081	3,562	0,023	-0,012
-165,066	-200,000	-0,023	-0,149
-164,052	13,877	-0,030	0,017
-163,037	-200,000	-0,043	-0,166
-162,023	-200,000	0,002	0,046
-161,008	229,425	0,048	-0,058
-159,993	30,677	0,061	-0,038
-158,979	800,000	0,035	-0,086
-157,964	30,934	-0,121	-0,076
-156,950	800,000	0,036	-0,110
-155,935	-88,007	-0,186	0,040
-154,920	-122,046	0,079	0,009
-153,906	-49,881	0,109	0,037
-152,891	-200,000	-0,032	-0,105
-151,877	-120,175	-0,126	-0,015
-150,862	800,000	0,052	-0,164
-149,847	104,453	-0,099	-0,085
-148,833	-18,604	0,109	-0,049
-147,818	-4,342	-0,078	-0,039
-146,804	-200,000	-0,006	0,109
-145,789	127,990	0,108	-0,100
-144,775	-41,338	-0,124	-0,046
-143,760	-42,757	0,082	-0,030
-142,745	800,000	-0,028	0,071
-141,731	-157,705	-0,031	0,001
-140,716	-86,020	0,139	-0,031
-139,702	103,101	0,064	0,054
-138,687	-0,335	0,039	0,020
-137,672	73,030	0,060	-0,045
-136,658	130,505	0,038	0,036
-135,643	-200,000	0,001	0,028
-134,629	800,000	-0,008	0,027
-133,614	117,611	0,182	0,163
-132,599	-53,937	-0,049	0,016
-131,585	-200,000	-0,000	-0,062
-130,570	-82,028	0,087	-0,021
-129,556	636,809	0,047	-0,087
-128,541	34,256	0,074	0,047
-127,526	38,792	0,075	-0,048
-126,512	-121,788	-0,104	0,012
-125,497	800,000	0,013	0,026
-124,483	-200,000	-0,018	0,139
-123,468	502,761	0,047	-0,079
-122,453	59,503	-0,046	-0,033
-121,439	448,749	-0,038	-0,062
-120,424	-45,913	0,084	-0,030
-119,410	-90,772	0,103	-0,021
-118,395	-200,000	-0,004	0,114
