DTS Sentinel unit serial number:	SN410029Multiplexer serial number:	ORYXHardware model number:	OX2-SRSoftware version number:	ORYX F/W v4,00 Oryx Data Collector v3.7.2.0data status	okinstallation	B4 Nyhavnadifferential loss correction	single-endedforward channel	channel 2reverse channel	N/Adate	2023/12/16time	00:30:13forward acquisition time	300,00reverse acquisition time	0,00gamma	499,1914k internal	0,3128k external	0,3128temperature offset calibration	1,0000default loss term (dB/km)	0,3820temperature slope calibration	1,0000multiplexer offset coefficient	1,0000multiplexer slope coefficient	1,0000fibre end	0,00T internal ref (°C)	21,99T ext. ref 1 (°C)	6,70T ext. ref 2 (°C)	6,89length (m)	temperature (°C)	Stokes	anti-Stokes-744,400	7,814	-0,044	-0,025
-743,385	-126,186	-0,301	0,033
-742,371	8,306	0,121	-0,068
-741,356	-19,762	-0,195	0,089
-740,342	-76,385	0,047	0,012
-739,327	194,307	-0,164	0,186
-738,312	291,470	0,048	-0,065
-737,298	-138,432	-0,213	0,017
-736,283	-109,356	0,163	0,025
-735,269	468,836	-0,108	0,182
-734,254	-37,932	-0,086	-0,034
-733,239	-64,533	-0,366	-0,110
-732,225	148,255	0,080	0,080
-731,210	-200,000	0,023	0,089
-730,196	145,782	-0,074	-0,074
-729,181	-200,000	0,009	-0,046
-728,167	46,071	0,042	0,029
-727,152	462,638	-0,066	0,109
-726,137	-200,000	0,012	-0,122
-725,123	369,508	-0,060	-0,091
-724,108	-155,490	-0,056	0,003
-723,094	109,166	-0,071	-0,063
-722,079	193,592	0,026	0,029
-721,064	-94,010	-0,098	-0,020
-720,050	557,356	-0,069	0,125
-719,035	-29,190	-0,131	0,056
-718,021	800,000	-0,010	-0,033
-717,006	260,760	-0,059	-0,076
-715,991	-200,000	-0,035	-0,150
-714,977	-200,000	0,043	0,221
-713,962	-144,548	-0,086	-0,006
-712,948	109,520	0,112	0,100
-711,933	-97,819	-0,033	0,006
-710,918	223,029	-0,087	-0,105
-709,904	-141,172	-0,104	-0,008
-708,889	-100,179	0,079	0,014
-707,875	-156,785	-0,087	0,004
-706,860	-200,000	-0,019	0,107
-705,845	-4,147	0,073	-0,037
-704,831	129,480	0,115	-0,109
-703,816	-200,000	-0,003	0,040
-702,802	30,049	0,067	-0,042
-701,787	-92,150	-0,204	0,042
-700,772	800,000	0,012	-0,036
-699,758	-24,149	-0,094	-0,041
-698,743	27,042	0,122	0,076
-697,729	127,010	-0,078	-0,073
-696,714	-4,577	-0,040	0,021
-695,699	-54,231	-0,082	-0,027
-694,685	89,102	0,044	0,036
-693,670	-200,000	0,019	0,084
-692,656	128,642	0,023	-0,022
-691,641	20,332	0,216	0,129
-690,627	-200,000	-0,030	0,099
-689,612	800,000	0,005	-0,018
-688,597	296,945	-0,018	0,025
-687,583	139,392	-0,061	-0,060
-686,568	-92,665	-0,100	0,021
-685,554	167,697	-0,145	-0,154
-684,539	-142,822	-0,134	0,010
-683,524	42,097	0,036	0,025
-682,510	-16,419	-0,109	0,051
-681,495	26,230	-0,030	0,018
-680,481	-200,000	0,054	0,198
-679,466	-162,216	-0,194	0,007
-678,451	2,178	0,046	0,024
-677,437	-36,585	0,148	-0,059
-676,422	53,713	-0,020	0,014
-675,408	-4,124	0,024	-0,012
-674,393	129,920	0,047	0,045
-673,378	186,902	0,053	-0,059
-672,364	800,000	-0,055	0,133
-671,349	-53,785	-0,072	0,024
-670,335	800,000	0,006	-0,017
-669,320	-106,374	0,157	0,026
-668,305	12,011	-0,085	-0,048
-667,291	-157,293	-0,204	0,009
-666,276	176,488	-0,101	-0,109
-665,262	-200,000	0,006	-0,029
-664,247	567,986	-0,074	-0,134
-663,232	229,214	0,059	0,071
-662,218	-57,377	0,098	0,032
-661,203	141,112	0,060	-0,059
-660,189	-200,000	-0,002	0,237
-659,174	211,928	-0,067	-0,079
-658,159	11,687	0,086	0,049
-657,145	-200,000	0,008	-0,044
-656,130	-200,000	-0,022	0,089
-655,116	800,000	0,018	0,047
-654,101	739,621	0,040	0,079
-653,086	-105,127	-0,044	-0,007
-652,072	-63,915	-0,036	0,011
-651,057	204,826	0,013	0,015
-650,043	-200,000	0,006	-0,039
-649,028	-200,000	0,001	0,120
-648,014	-200,000	-0,002	0,058
-646,999	38,491	-0,023	-0,015
-645,984	-13,711	0,109	0,052
-644,970	-71,061	-0,110	0,031
-643,955	80,853	0,033	-0,026
-642,941	738,660	0,074	-0,149
-641,926	-101,237	-0,102	-0,018
-640,911	800,000	0,024	-0,053
-639,897	-200,000	-0,021	-0,096
-638,882	-9,555	0,169	0,083
-637,868	172,992	-0,040	-0,043
-636,853	258,109	-0,014	-0,019
-635,838	-200,000	0,000	0,031
-634,824	-92,711	0,062	-0,013
-633,809	-154,118	0,088	0,004
-632,795	-65,260	0,108	0,032
-631,780	-200,000	0,009	0,075
-630,765	166,373	-0,079	-0,083
-629,751	20,144	0,132	-0,079
-628,736	-86,853	-0,074	-0,017
-627,722	170,328	-0,053	0,056
-626,707	-200,000	-0,025	-0,096
-625,692	-76,927	-0,027	-0,007
-624,678	-200,000	0,010	0,115
-623,663	111,187	0,066	0,059
-622,649	38,630	-0,136	-0,090
-621,634	52,294	-0,109	-0,077
-620,619	643,232	-0,028	-0,053
-619,605	-53,841	0,164	-0,055
-618,590	118,185	0,030	-0,027
-617,576	800,000	-0,021	-0,061
-616,561	-89,327	-0,081	-0,017
-615,546	0,854	0,074	-0,039
-614,532	418,643	-0,013	0,020
-613,517	72,333	-0,107	-0,083
-612,503	800,000	0,023	-0,058
-611,488	-149,140	0,185	0,011
-610,474	-120,454	0,006	-0,001
-609,459	416,020	0,053	-0,085
-608,444	-121,610	-0,141	0,017
-607,430	800,000	0,029	-0,064
-606,415	158,865	-0,068	-0,070
-605,401	-17,771	-0,079	-0,037
-604,386	-55,821	0,005	-0,002
-603,371	-200,000	-0,002	-0,120
-602,357	-200,000	-0,001	-0,155
-601,342	24,255	0,015	0,009
-600,328	-91,825	-0,084	0,018
-599,313	-70,017	-0,156	-0,044
-598,298	-41,377	-0,063	0,024
-597,284	120,306	0,082	-0,075
-596,269	-151,603	0,086	-0,005
-595,255	-93,342	-0,182	0,037
-594,240	800,000	-0,018	0,053
-593,225	-44,031	-0,117	-0,043
-592,211	116,952	-0,127	-0,116
-591,196	-118,182	0,103	0,013
-590,182	-200,000	-0,002	0,019
-589,167	-64,798	-0,117	-0,035
-588,152	-200,000	0,004	0,144
-587,138	95,086	0,065	0,055
-586,123	-200,000	-0,020	0,090
-585,109	511,510	-0,037	0,064
-584,094	232,048	0,112	-0,137
-583,079	359,501	0,071	-0,106
-582,065	-49,991	-0,088	0,031
-581,050	-26,830	0,114	-0,049
-580,036	65,487	0,073	0,054
-579,021	637,273	-0,026	0,048
-578,006	668,157	-0,054	0,103
-576,992	-37,522	0,139	-0,054
-575,977	-20,811	-0,112	0,051
-574,963	-149,168	-0,024	-0,001
-573,948	-200,000	0,023	-0,076
-572,934	-200,000	0,013	0,055
-571,919	-200,000	-0,007	-0,070
-570,904	166,230	0,051	-0,054
-569,890	-34,587	-0,064	0,026
-568,875	662,148	-0,042	0,081
-567,861	15,898	0,156	-0,091
-566,846	800,000	-0,028	0,081
-565,831	-200,000	-0,021	0,104
-564,817	136,893	0,128	-0,124
-563,802	-30,950	-0,124	-0,051
-562,788	123,914	0,091	-0,084
-561,773	128,428	-0,019	-0,018
-560,758	13,761	0,092	-0,052
-559,744	-86,011	0,093	0,021
-558,729	176,750	-0,063	0,068
-557,715	559,811	0,036	-0,064
-556,700	-98,201	-0,104	-0,020
-555,685	642,350	-0,072	-0,137
-554,671	-12,904	-0,019	0,009
-553,656	141,678	0,080	0,079
-552,642	269,485	0,047	-0,062
-551,627	-17,632	-0,100	-0,046
-550,612	68,647	0,079	-0,060
-549,598	289,900	0,040	-0,054
-548,583	-117,161	-0,065	-0,009
-547,569	800,000	-0,031	-0,079
-546,554	-12,770	0,094	0,045
-545,539	-200,000	-0,008	0,032
-544,525	800,000	-0,034	0,080
-543,510	120,123	0,070	-0,064
-542,496	-22,654	0,046	0,021
-541,481	326,749	-0,037	0,052
-540,466	800,000	0,011	0,031
-539,452	-121,125	0,173	0,021
-538,437	800,000	-0,039	-0,128
-537,423	36,923	0,064	0,042
-536,408	0,176	0,136	-0,071
-535,393	-11,787	-0,118	0,057
-534,379	142,980	0,138	0,136
-533,364	800,000	0,043	0,099
-532,350	-135,018	-0,034	-0,003
-531,335	156,351	-0,023	0,023
-530,321	264,924	-0,031	-0,040
-529,306	-57,041	-0,027	0,009
-528,291	-200,000	0,001	0,029
-527,277	-186,032	-0,075	0,001
-526,262	-90,753	-0,078	0,017
-525,248	-125,399	-0,093	-0,010
-524,233	353,920	0,075	0,110
-523,218	800,000	-0,011	-0,028
-522,204	-70,992	-0,049	-0,014
-521,189	-86,197	0,184	-0,041
-520,175	106,787	-0,125	-0,110
-519,160	800,000	-0,041	-0,115
-518,145	-10,090	0,016	-0,008
-517,131	-96,223	-0,059	-0,012
-516,116	153,769	0,067	0,067
-515,102	-200,000	-0,002	0,128
-514,087	800,000	0,028	-0,060
-513,072	48,035	-0,018	-0,012
-512,058	-71,164	0,171	-0,047
-511,043	147,479	-0,118	-0,117
-510,029	194,318	0,105	0,118
-509,014	-200,000	0,010	0,146
-507,999	-200,000	-0,012	0,198
-506,985	674,584	0,062	0,119
-505,970	127,304	-0,038	0,036
-504,956	-200,000	-0,023	-0,081
-503,941	66,102	-0,054	-0,040
-502,926	261,850	-0,109	0,140
-501,912	-68,162	0,191	0,054
-500,897	-63,241	0,040	0,012
-499,883	422,919	-0,077	-0,123
-498,868	-38,141	-0,121	-0,047
-497,853	14,041	-0,094	0,054
-496,839	1,695	0,156	-0,082
-495,824	46,745	-0,080	0,055
-494,810	-136,864	0,072	-0,006
-493,795	-200,000	0,005	0,027
-492,781	0,055	-0,120	-0,063
-491,766	-200,000	-0,002	-0,070
-490,751	-7,053	-0,098	0,049
-489,737	-200,000	-0,019	0,216
-488,722	800,000	0,041	0,099
-487,708	-76,262	0,059	0,015
-486,693	-129,071	0,019	-0,002
-485,678	47,568	0,073	-0,050
-484,664	433,133	0,094	-0,151
-483,649	67,049	-0,138	0,104
-482,635	800,000	0,030	0,098
-481,620	800,000	0,026	0,074
-480,605	-200,000	0,004	0,029
-479,591	-108,775	0,018	-0,003
-478,576	-73,282	-0,095	0,025
-477,562	35,255	0,056	0,036
-476,547	-38,814	0,061	-0,023
-475,532	-200,000	0,014	-0,077
-474,518	-17,672	-0,032	-0,015
-473,503	-200,000	0,003	0,038
-472,489	-200,000	-0,011	-0,111
-471,474	136,948	0,012	-0,012
-470,459	-151,214	-0,157	-0,008
-469,445	800,000	0,072	0,176
-468,430	-26,856	0,039	-0,017
-467,416	725,931	-0,086	0,169
-466,401	30,609	0,106	-0,067
-465,386	-200,000	0,022	0,096
-464,372	-75,033	0,071	0,018
-463,357	800,000	-0,046	-0,106
-462,343	-104,401	0,062	0,010
-461,328	-200,000	0,006	0,083
-460,313	354,672	0,023	0,033
-459,299	751,239	-0,038	-0,076
-458,284	-200,000	0,003	0,157
-457,270	800,000	-0,047	0,130
-456,255	-109,420	0,084	-0,013
-455,241	73,340	-0,015	0,012
-454,226	-20,596	0,023	-0,010
-453,211	-104,994	-0,098	0,016
-452,197	-70,734	0,112	0,031
-451,182	134,202	-0,119	0,114
-450,168	-17,103	0,087	-0,040
-449,153	48,768	-0,081	-0,056
-448,138	720,939	-0,047	-0,093
-447,124	49,407	-0,030	-0,021
-446,109	-200,000	-0,031	0,111
-445,095	756,388	-0,099	0,199
-444,080	361,461	-0,044	0,066
-443,065	93,096	0,063	-0,052
-442,051	539,445	0,015	0,026
-441,036	-189,273	0,035	-0,000
-440,022	60,119	-0,070	0,051
-439,007	-200,000	0,008	-0,109
-437,992	-44,303	-0,015	0,005
-436,978	35,663	0,096	-0,062
-435,963	73,795	-0,076	-0,058
-434,949	96,625	0,088	-0,074
-433,934	178,989	-0,057	0,061
-432,919	174,428	0,061	0,065
-431,905	-200,000	0,037	-0,129
-430,890	256,308	-0,030	-0,038
-429,876	287,794	-0,020	0,026
-428,861	-22,758	0,072	0,032
-427,846	-107,251	-0,073	0,012
-426,832	60,244	-0,083	-0,060
-425,817	-136,083	-0,184	-0,016
-424,803	31,134	-0,120	-0,076
-423,788	116,525	-0,049	-0,044
-422,773	189,943	0,108	0,119
-421,759	19,721	-0,074	-0,043
-420,744	263,535	-0,040	0,051
-419,730	-6,590	0,096	0,048
-418,715	-55,422	-0,139	-0,046
-417,701	-10,512	-0,031	0,015
-416,686	154,749	-0,095	0,096
-415,671	-56,855	0,135	0,044
-414,657	576,053	-0,047	0,085
-413,642	44,682	0,093	0,063
-412,628	44,492	-0,128	0,086
-411,613	-200,000	0,009	-0,044
-410,598	-125,227	-0,033	-0,004
-409,584	-118,887	-0,049	-0,006
-408,569	-17,232	0,105	0,049
-407,555	-40,637	0,014	0,005
-406,540	-21,529	0,079	-0,035
-405,525	-108,410	-0,102	0,016
-404,511	-12,060	-0,064	-0,031
-403,496	-142,075	0,103	-0,007
-402,482	-200,000	-0,007	0,034
-401,467	425,301	0,019	0,030
-400,452	266,417	0,068	0,088
-399,438	-200,000	0,011	0,055
-398,423	347,672	-0,131	0,189
-397,409	173,634	-0,098	0,104
-396,394	800,000	0,009	0,022
-395,379	800,000	0,025	-0,070
-394,365	62,785	0,033	-0,024
-393,350	800,000	0,015	0,037
-392,336	42,401	0,038	0,026
-391,321	-184,240	-0,079	-0,001
-390,306	-200,000	-0,026	-0,124
-389,292	145,161	0,044	-0,044
-388,277	251,567	-0,031	0,038
-387,263	-200,000	0,001	-0,069
-386,248	694,600	-0,027	-0,052
-385,233	391,521	-0,039	0,059
-384,219	800,000	-0,054	0,118
-383,204	30,914	-0,045	0,028
-382,190	800,000	-0,073	-0,171
-381,175	800,000	-0,033	-0,078
-380,160	42,753	-0,169	0,113
-379,146	-32,726	0,021	0,008
-378,131	163,782	-0,054	-0,056
-377,117	-200,000	-0,012	-0,060
-376,102	800,000	-0,044	0,103
-375,088	12,168	-0,089	0,050
-374,073	800,000	-0,071	-0,203
-373,058	-117,965	0,219	-0,028
-372,044	100,040	0,091	0,078
-371,029	-200,000	0,003	-0,025
-370,015	-82,882	0,077	-0,018
-369,000	183,993	-0,079	-0,086
-367,985	118,452	0,034	0,031
-366,971	91,517	-0,063	0,052
-365,956	-200,000	0,001	-0,087
-364,942	42,970	-0,057	0,038
-363,927	-111,482	-0,028	0,004
-362,912	-200,000	-0,010	0,109
-361,898	0,853	-0,054	0,028
-360,883	-200,000	0,016	-0,195
-359,869	99,572	-0,057	-0,048
-358,854	475,930	0,016	0,027
-357,839	-200,000	0,006	0,075
-356,825	-160,732	-0,043	0,002
-355,810	439,636	0,032	0,051
-354,796	800,000	-0,042	0,097
-353,781	7,943	-0,065	-0,035
-352,766	-200,000	0,023	-0,091
-351,752	135,327	-0,095	0,090
-350,737	-21,418	0,070	-0,031
-349,723	-102,936	0,097	0,017
-348,708	-76,053	-0,010	-0,002
-347,693	-200,000	-0,001	0,064
-346,679	72,328	0,069	0,053
-345,664	-166,143	-0,074	-0,002
-344,650	-41,623	0,098	-0,037
-343,635	-200,000	-0,013	-0,066
-342,620	800,000	0,027	-0,060
-341,606	414,425	0,052	0,081
-340,591	-200,000	-0,021	0,133
-339,577	483,956	0,032	0,053
-338,562	367,419	0,070	-0,104
-337,548	800,000	0,012	0,028
-336,533	-122,372	-0,166	0,020
-335,518	-99,339	0,010	-0,002
-334,504	275,769	0,113	-0,147
-333,489	-200,000	0,030	0,143
-332,475	24,047	-0,050	0,030
-331,460	-73,634	-0,040	-0,011
-330,445	800,000	0,030	-0,086
-329,431	-200,000	-0,002	-0,049
-328,416	151,090	0,073	-0,073
-327,402	618,726	0,033	-0,062
-326,387	-200,000	-0,007	-0,061
-325,372	266,109	-0,060	-0,077
-324,358	60,378	0,063	-0,046
-323,343	-1,197	-0,088	0,045
-322,329	5,500	0,079	0,042
-321,314	800,000	-0,010	0,020
-320,299	-200,000	0,027	0,169
-319,285	-200,000	0,028	0,116
-318,270	777,051	-0,032	0,065
-317,256	-54,361	0,047	0,016
-316,241	345,832	-0,033	0,048
-315,226	95,368	0,013	-0,010
-314,212	462,323	0,035	0,058
-313,197	280,733	0,009	0,012
-312,183	-200,000	-0,013	0,044
-311,168	244,299	-0,048	-0,059
-310,153	800,000	0,026	0,077
-309,139	197,592	0,090	-0,100
-308,124	-24,399	0,054	0,023
-307,110	-180,268	0,128	-0,002
-306,095	-200,000	0,024	0,128
-305,080	305,474	-0,079	0,107
-304,066	-200,000	0,026	0,096
-303,051	39,168	-0,023	-0,015
-302,037	710,529	0,057	0,111
-301,022	-91,254	0,053	-0,011
-300,008	328,370	-0,095	-0,133
-298,993	-98,246	0,047	-0,009
-297,978	-160,914	0,139	-0,005
-296,964	-48,142	0,009	-0,003
-295,949	-200,000	-0,011	-0,066
-294,935	-200,000	0,005	-0,076
-293,920	-200,000	0,004	-0,122
-292,905	-200,000	0,024	0,082
-291,891	239,333	0,105	0,128
-290,876	70,996	-0,016	-0,012
-289,862	199,541	0,057	-0,064
-288,847	484,676	-0,063	-0,105
-287,832	800,000	0,065	-0,142
-286,818	-177,976	-0,062	-0,001
-285,803	-200,000	-0,018	0,096
-284,789	-136,842	0,141	0,012
-283,774	800,000	-0,030	0,091
-282,759	-200,000	-0,013	-0,100
-281,745	-86,529	0,037	-0,008
-280,730	118,630	-0,060	0,054
-279,716	559,864	0,021	0,038
-278,701	343,471	0,024	-0,035
-277,686	-32,820	-0,060	0,024
-276,672	342,209	0,030	-0,043
-275,657	49,531	-0,058	0,040
-274,643	269,269	-0,055	-0,071
-273,628	-43,450	-0,103	-0,038
-272,613	-200,000	0,015	-0,087
-271,599	589,727	-0,010	-0,018
-270,584	-200,000	0,002	0,062
-269,570	87,726	0,069	0,056
-268,555	24,607	-0,105	0,063
-267,540	586,312	-0,010	-0,019
-266,526	-200,000	-0,006	-0,142
-265,511	-200,000	-0,005	0,125
-264,497	448,177	0,034	-0,054
-263,482	-200,000	0,012	-0,084
-262,467	800,000	-0,049	-0,139
-261,453	341,414	-0,029	-0,041
-260,438	-6,765	-0,060	0,030
-259,424	-48,083	-0,157	-0,055
-258,409	-4,656	-0,079	-0,040
-257,395	-40,276	-0,115	-0,043
-256,380	80,447	-0,082	0,064
-255,365	224,861	0,048	0,057
-254,351	76,865	0,064	-0,049
-253,336	259,657	0,095	-0,120
-252,322	110,180	-0,033	-0,029
-251,307	783,789	-0,023	-0,047
-250,292	-200,000	-0,030	0,141
-249,278	27,227	0,129	0,079
-248,263	-2,130	0,091	0,046
-247,249	-100,102	0,080	-0,014
-246,234	175,620	-0,063	-0,067
-245,219	800,000	-0,048	-0,131
-244,205	800,000	0,024	-0,054
-243,190	800,000	0,040	0,105
-242,176	66,270	0,158	0,117
-241,161	745,384	0,051	0,100
-240,146	531,144	-0,044	0,077
-239,132	185,519	-0,042	0,045
-238,117	-1,981	-0,113	-0,058
-237,103	502,966	-0,071	-0,120
-236,088	61,705	0,049	0,035
-235,073	64,950	0,066	0,048
-234,059	54,501	-0,156	-0,109
-233,044	-132,504	-0,134	0,012
-232,030	-1,919	0,069	-0,035
-231,015	-20,835	-0,157	-0,070
-230,000	-200,000	0,006	-0,158
-228,986	-106,269	0,014	0,002
-227,971	-200,000	0,029	0,119
-226,957	-200,000	0,010	0,065
-225,942	-118,069	0,060	-0,008
-224,927	62,384	-0,084	0,061
-223,913	-21,028	0,099	-0,044
-222,898	311,950	-0,028	0,038
-221,884	48,284	-0,102	0,069
-220,869	407,128	0,064	-0,098
-219,855	89,591	-0,023	-0,018
-218,840	800,000	0,068	0,162
-217,825	-160,845	0,072	0,003
-216,811	-18,762	-0,069	0,031
-215,796	800,000	0,024	-0,054
-214,782	122,217	0,086	0,079
-213,767	504,250	-0,030	0,051
-212,752	487,608	0,054	0,090
-211,738	168,359	0,075	0,078
-210,723	-200,000	-0,011	-0,068
-209,709	-136,732	0,121	0,010
-208,694	620,263	-0,060	-0,110
-207,679	84,890	-0,124	-0,099
-206,665	-200,000	-0,003	-0,057
-205,650	146,023	0,043	0,042
-204,636	-58,024	0,156	0,049
-203,621	-145,097	0,059	-0,004
-202,606	83,282	-0,061	-0,048
-201,592	-200,000	-0,016	-0,073
-200,577	128,353	0,086	-0,079
-199,563	800,000	0,020	-0,052
-198,548	80,308	-0,056	-0,044
-197,533	-200,000	-0,001	0,046
-196,519	271,638	0,035	0,045
-195,504	20,514	-0,110	0,065
-194,490	326,131	0,040	-0,056
-193,475	435,229	-0,085	-0,135
-192,460	-160,865	0,138	0,005
-191,446	117,581	0,089	0,080
-190,431	-46,062	0,115	-0,041
-189,417	274,392	0,083	0,107
-188,402	309,878	0,083	-0,113
-187,387	-200,000	-0,028	-0,133
-186,373	-200,000	-0,021	-0,067
-185,358	-200,000	-0,022	-0,180
-184,344	330,474	0,048	-0,068
-183,329	225,706	-0,081	0,096
-182,315	-200,000	0,019	0,066
-181,300	-127,269	-0,129	-0,014
-180,285	122,639	-0,105	0,096
-179,271	-91,090	-0,078	-0,016
-178,256	-200,000	0,007	-0,106
-177,242	-200,000	-0,014	-0,129
-176,227	142,898	0,134	0,130
-175,212	272,253	-0,088	-0,113
-174,198	110,820	-0,027	-0,024
-173,183	-9,608	0,110	-0,053
-172,169	657,629	-0,025	-0,047
-171,154	-109,789	0,069	0,010
-170,139	-147,617	0,111	-0,007
-169,125	-5,329	0,080	0,040
-168,110	61,630	-0,026	-0,019
-167,096	505,207	0,035	0,059
-166,081	253,039	-0,078	-0,096
-165,066	-114,931	-0,011	0,002
-164,052	174,068	0,144	0,151
-163,037	679,964	-0,017	0,033
-162,023	290,043	-0,039	0,052
-161,008	-91,658	0,126	-0,026
-159,993	67,415	-0,064	0,047
-158,979	-200,000	-0,008	-0,155
-157,964	249,423	-0,047	0,058
-156,950	-200,000	-0,014	-0,111
-155,935	-0,856	-0,112	-0,058
-154,920	251,741	0,094	0,117
-153,906	-200,000	-0,007	0,100
-152,891	-50,889	0,087	0,030
-151,877	8,169	-0,164	0,089
-150,862	-200,000	0,003	0,055
-149,847	22,668	-0,019	-0,011
-148,833	4,505	0,077	0,041
-147,818	163,109	0,096	-0,098
-146,804	175,771	0,093	0,098
-145,789	566,154	-0,031	0,055
-144,775	65,365	-0,076	0,056
-143,760	-41,416	-0,022	0,008
-142,745	-85,880	-0,077	-0,017
-141,731	171,078	-0,048	-0,050
-140,716	237,692	0,044	-0,054
-139,702	-126,002	-0,027	-0,003
-138,687	-101,659	0,100	0,017
-137,672	694,088	0,036	-0,068
-136,658	-73,027	-0,130	-0,035
-135,643	800,000	0,070	-0,160
-134,629	-14,593	0,090	-0,042
-133,614	-125,404	0,196	0,021
-132,599	800,000	0,069	0,152
-131,585	563,740	0,047	0,083
-130,570	1,206	0,143	-0,075
-129,556	-200,000	-0,015	-0,114
-128,541	-68,977	-0,067	0,019
-127,526	800,000	0,039	-0,108
-126,512	-200,000	-0,040	0,193
-125,497	-200,000	0,017	-0,057
-124,483	-200,000	0,000	0,114
-123,468	314,282	0,084	0,115
-122,453	-117,023	-0,102	-0,013
-121,439	-73,097	-0,070	-0,018
-120,424	224,792	-0,052	-0,061
-119,410	215,659	0,099	0,114
-118,395	75,743	0,081	0,062
