DTS Sentinel unit serial number:	SN410029Multiplexer serial number:	ORYXHardware model number:	OX2-SRSoftware version number:	ORYX F/W v4,00 Oryx Data Collector v3.7.2.0data status	okinstallation	B4 Nyhavnadifferential loss correction	single-endedforward channel	channel 2reverse channel	N/Adate	2023/12/19time	04:00:13forward acquisition time	300,00reverse acquisition time	0,00gamma	499,1914k internal	0,3126k external	0,3126temperature offset calibration	1,0000default loss term (dB/km)	0,3820temperature slope calibration	1,0000multiplexer offset coefficient	1,0000multiplexer slope coefficient	1,0000fibre end	0,00T internal ref (°C)	20,97T ext. ref 1 (°C)	5,88T ext. ref 2 (°C)	5,89length (m)	temperature (°C)	Stokes	anti-Stokes-744,400	800,000	0,017	-0,048
-743,385	96,074	-0,195	0,166
-742,371	74,226	0,064	-0,050
-741,356	800,000	-0,125	0,275
-740,342	-50,616	0,128	-0,045
-739,327	-48,555	-0,309	0,110
-738,312	-75,088	0,104	-0,028
-737,298	197,851	-0,086	0,098
-736,283	523,178	0,021	0,037
-735,269	627,313	-0,121	0,229
-734,254	-6,116	-0,135	-0,068
-733,239	-71,370	-0,431	-0,119
-732,225	-45,950	0,114	-0,042
-731,210	-35,388	-0,105	0,042
-730,196	-146,610	-0,111	-0,007
-729,181	1,976	0,110	0,059
-728,167	101,125	-0,072	-0,063
-727,152	-160,742	-0,045	0,002
-726,137	-49,721	0,040	0,014
-725,123	-183,222	-0,067	-0,001
-724,108	-200,000	-0,019	-0,088
-723,094	-80,216	-0,055	-0,013
-722,079	-200,000	0,018	0,073
-721,064	65,998	0,028	-0,021
-720,050	623,854	0,062	-0,117
-719,035	-109,496	-0,171	0,027
-718,021	-8,438	-0,047	0,024
-717,006	41,635	-0,119	-0,080
-715,991	187,282	-0,079	-0,088
-714,977	-200,000	-0,014	0,050
-713,962	-11,090	0,037	-0,018
-712,948	-136,150	-0,088	0,008
-711,933	-68,284	0,097	0,028
-710,918	67,276	-0,122	-0,092
-709,904	800,000	-0,017	-0,044
-708,889	32,323	-0,082	-0,052
-707,875	55,461	-0,058	-0,042
-706,860	145,869	0,042	-0,042
-705,845	39,541	-0,037	-0,025
-704,831	-200,000	0,013	-0,057
-703,816	41,297	-0,066	0,044
-702,802	792,032	-0,076	-0,155
-701,787	-131,369	0,034	-0,003
-700,772	-157,120	-0,019	-0,001
-699,758	-128,092	-0,076	0,008
-698,743	-82,306	0,058	0,014
-697,729	541,128	0,070	0,124
-696,714	158,669	-0,041	-0,043
-695,699	800,000	0,062	-0,141
-694,685	-36,366	-0,146	-0,058
-693,670	-104,590	-0,073	0,012
-692,656	133,582	0,056	0,054
-691,641	144,600	0,004	0,004
-690,627	-14,542	-0,024	-0,011
-689,612	800,000	-0,029	0,066
-688,597	800,000	0,043	0,117
-687,583	49,230	0,067	-0,047
-686,568	151,545	-0,122	-0,124
-685,554	-37,906	-0,075	-0,029
-684,539	-200,000	-0,006	-0,064
-683,524	-200,000	-0,003	0,069
-682,510	317,905	0,015	-0,022
-681,495	-147,741	0,007	0,000
-680,481	143,615	-0,071	-0,070
-679,466	-57,198	-0,112	0,036
-678,451	-200,000	0,013	-0,119
-677,437	44,175	-0,049	0,033
-676,422	-8,367	0,064	0,032
-675,408	215,662	0,072	-0,085
-674,393	-190,740	0,044	0,000
-673,378	-200,000	0,006	-0,074
-672,364	-200,000	-0,004	-0,074
-671,349	800,000	-0,042	-0,114
-670,335	-135,793	0,135	0,012
-669,320	-113,986	-0,060	-0,009
-668,305	-200,000	0,001	-0,056
-667,291	-200,000	0,017	0,085
-666,276	-138,513	-0,192	0,015
-665,262	800,000	-0,042	-0,095
-664,247	48,927	-0,063	-0,044
-663,232	800,000	0,015	-0,041
-662,218	-140,686	-0,111	0,008
-661,203	474,945	0,076	-0,128
-660,189	-39,812	-0,084	-0,033
-659,174	-60,367	-0,091	-0,029
-658,159	-200,000	0,001	-0,020
-657,145	214,857	0,029	-0,034
-656,130	-121,786	-0,039	-0,005
-655,116	-70,545	-0,071	0,020
-654,101	17,746	0,051	0,030
-653,086	231,225	-0,030	0,037
-652,072	-200,000	0,002	-0,047
-651,057	22,496	-0,117	0,071
-650,043	-70,811	0,064	-0,018
-649,028	800,000	-0,071	-0,179
-648,014	-163,528	-0,081	-0,003
-646,999	-200,000	-0,004	-0,024
-645,984	174,968	0,035	-0,037
-644,970	800,000	-0,021	0,065
-643,955	800,000	-0,054	-0,160
-642,941	440,494	-0,112	-0,183
-641,926	-200,000	-0,002	0,025
-640,911	-200,000	0,100	0,000
-639,897	-123,564	-0,095	-0,011
-638,882	312,509	0,058	-0,081
-637,868	23,786	-0,037	-0,023
-636,853	781,333	0,002	0,004
-635,838	55,460	-0,099	0,071
-634,824	350,454	0,067	0,099
-633,809	-200,000	-0,005	0,018
-632,795	-140,869	-0,094	0,007
-631,780	132,508	0,026	0,025
-630,765	-51,113	-0,167	0,058
-629,751	-154,580	-0,111	-0,005
-628,736	444,878	-0,079	-0,128
-627,722	-28,011	-0,180	-0,077
-626,707	800,000	-0,021	-0,060
-625,692	68,305	-0,067	-0,051
-624,678	-70,185	0,069	0,019
-623,663	-200,000	-0,014	0,082
-622,649	313,417	-0,121	-0,170
-621,634	154,186	-0,103	0,105
-620,619	-200,000	-0,011	0,050
-619,605	-62,486	0,156	-0,048
-618,590	-200,000	-0,009	0,052
-617,576	103,874	-0,030	0,026
-616,561	-24,115	0,043	0,019
-615,546	800,000	0,025	-0,062
-614,532	-121,441	-0,174	0,021
-613,517	224,022	0,077	-0,092
-612,503	-200,000	0,014	-0,085
-611,488	-200,000	-0,018	-0,103
-610,474	-7,773	-0,138	0,069
-609,459	800,000	0,014	-0,039
-608,444	2,689	0,075	0,040
-607,430	-6,809	-0,080	0,040
-606,415	-200,000	0,025	-0,087
-605,401	8,718	0,071	-0,039
-604,386	-200,000	0,026	0,138
-603,371	197,627	0,023	-0,026
-602,357	118,293	-0,060	0,055
-601,342	-121,604	-0,167	0,020
-600,328	-39,861	-0,063	-0,024
-599,313	-200,000	0,017	-0,164
-598,298	-200,000	0,009	-0,059
-597,284	-128,985	-0,052	0,005
-596,269	-41,534	0,030	-0,011
-595,255	800,000	0,047	0,099
-594,240	-200,000	0,008	-0,191
-593,225	-200,000	-0,017	-0,076
-592,211	9,390	-0,133	0,074
-591,196	-185,945	-0,039	-0,000
-590,182	-200,000	0,001	-0,011
-589,167	-200,000	0,012	0,054
-588,152	800,000	-0,045	0,112
-587,138	-200,000	-0,010	-0,054
-586,123	-200,000	-0,025	-0,087
-585,109	-45,105	0,112	-0,041
-584,094	800,000	-0,019	-0,053
-583,079	196,089	0,019	0,021
-582,065	800,000	-0,013	-0,034
-581,050	-200,000	-0,012	0,058
-580,036	-26,354	0,047	-0,020
-579,021	-200,000	0,039	-0,134
-578,006	-20,109	0,064	-0,029
-576,992	76,737	-0,149	-0,117
-575,977	-107,664	0,119	0,019
-574,963	-36,255	0,092	0,036
-573,948	-200,000	-0,062	0,000
-572,934	800,000	0,030	0,072
-571,919	117,330	-0,087	-0,079
-570,904	-84,741	-0,046	-0,011
-569,890	-200,000	0,022	-0,105
-568,875	-36,708	0,038	0,015
-567,861	-31,050	0,110	0,046
-566,846	105,343	0,072	0,063
-565,831	-200,000	-0,041	0,169
-564,817	-95,734	-0,103	0,020
-563,802	-93,378	-0,107	0,022
-562,788	667,582	-0,005	0,009
-561,773	59,205	0,116	0,084
-560,758	-49,534	0,121	-0,042
-559,744	800,000	0,043	-0,124
-558,729	84,474	-0,037	-0,030
-557,715	-200,000	0,023	0,210
-556,700	478,314	-0,036	-0,060
-555,685	229,742	0,105	-0,127
-554,671	244,476	-0,062	-0,077
-553,656	165,779	0,047	-0,049
-552,642	469,294	-0,065	-0,108
-551,627	-200,000	-0,006	0,030
-550,612	149,084	0,057	0,057
-549,598	-108,779	-0,095	0,015
-548,583	-200,000	-0,034	-0,148
-547,569	76,245	-0,045	-0,036
-546,554	71,568	0,066	0,050
-545,539	75,108	-0,032	0,025
-544,525	800,000	-0,013	0,040
-543,510	-200,000	-0,025	0,114
-542,496	-200,000	-0,010	-0,133
-541,481	193,505	-0,003	0,004
-540,466	98,391	-0,075	0,064
-539,452	503,601	0,034	-0,059
-538,437	314,059	0,108	0,150
-537,423	-50,525	-0,097	0,034
-536,408	100,069	-0,135	0,116
-535,393	-200,000	0,004	0,029
-534,379	-200,000	-0,001	0,029
-533,364	-8,331	-0,072	0,036
-532,350	112,684	0,060	-0,054
-531,335	607,678	0,036	0,067
-530,321	-129,588	-0,057	0,006
-529,306	165,733	-0,079	-0,082
-528,291	800,000	0,029	-0,076
-527,277	10,661	-0,061	-0,034
-526,262	161,284	0,042	-0,044
-525,248	-91,892	0,074	0,015
-524,233	342,455	0,059	0,085
-523,218	-200,000	-0,003	-0,018
-522,204	800,000	0,045	0,105
-521,189	-200,000	0,027	-0,250
-520,175	-49,324	-0,070	-0,025
-519,160	-200,000	0,014	0,129
-518,145	800,000	0,014	-0,041
-517,131	103,952	-0,071	0,062
-516,116	279,067	-0,087	-0,115
-515,102	800,000	0,049	-0,120
-514,087	-59,589	-0,086	-0,027
-513,072	-22,677	-0,121	0,054
-512,058	-60,703	-0,064	-0,020
-511,043	213,950	0,030	0,035
-510,029	-200,000	0,001	0,119
-509,014	-127,314	0,124	0,013
-507,999	-200,000	0,030	0,101
-506,985	51,933	-0,141	-0,099
-505,970	399,237	-0,084	-0,130
-504,956	-9,722	-0,045	-0,022
-503,941	-67,821	0,072	-0,021
-502,926	453,374	-0,073	0,120
-501,912	-200,000	-0,018	0,084
-500,897	-116,316	0,116	0,016
-499,883	-90,067	0,160	-0,034
-498,868	800,000	-0,048	-0,104
-497,853	-33,153	-0,065	-0,027
-496,839	-200,000	-0,009	-0,124
-495,824	44,394	0,079	0,053
-494,810	-85,429	0,064	-0,015
-493,795	37,853	-0,029	0,019
-492,781	551,681	-0,009	-0,015
-491,766	109,032	-0,047	0,041
-490,751	-59,211	-0,019	-0,006
-489,737	-50,671	0,050	0,017
-488,722	192,185	0,059	0,065
-487,708	245,584	0,040	0,050
-486,693	-200,000	0,007	0,070
-485,678	226,179	0,076	0,091
-484,664	76,616	-0,079	-0,062
-483,649	87,907	0,062	-0,051
-482,635	-60,718	-0,133	-0,041
-481,620	800,000	-0,010	-0,026
-480,605	800,000	-0,024	0,052
-479,591	211,628	0,137	-0,159
-478,576	51,116	-0,028	-0,020
-477,562	-200,000	0,011	0,093
-476,547	-200,000	-0,017	-0,110
-475,532	-134,933	-0,097	0,009
-474,518	190,782	0,115	0,128
-473,503	-200,000	0,026	0,100
-472,489	-15,012	-0,034	-0,016
-471,474	-200,000	-0,033	0,127
-470,459	44,412	-0,070	0,047
-469,445	-200,000	0,018	-0,067
-468,430	800,000	-0,069	-0,202
-467,416	38,486	-0,124	0,081
-466,401	-200,000	0,020	0,184
-465,386	-145,959	-0,104	-0,007
-464,372	170,682	0,023	0,024
-463,357	171,712	0,059	0,063
-462,343	-91,167	-0,120	-0,025
-461,328	-200,000	-0,016	-0,132
-460,313	-200,000	-0,002	-0,085
-459,299	-200,000	0,001	0,049
-458,284	-200,000	0,028	0,109
-457,270	39,171	-0,107	-0,071
-456,255	-200,000	-0,001	-0,158
-455,241	5,205	-0,047	-0,025
-454,226	-99,524	0,072	0,013
-453,211	-62,388	0,117	0,036
-452,197	58,757	0,056	-0,041
-451,182	-1,609	-0,090	-0,046
-450,168	22,569	0,101	0,061
-449,153	-80,010	0,013	-0,003
-448,138	123,124	-0,064	0,059
-447,124	-200,000	-0,014	0,163
-446,109	67,571	-0,047	-0,035
-445,095	800,000	-0,023	0,066
-444,080	540,916	0,083	0,146
-443,065	-200,000	0,010	-0,033
-442,051	417,233	-0,105	0,165
-441,036	179,837	-0,080	-0,086
-440,022	-50,791	-0,071	-0,025
-439,007	49,481	0,081	-0,056
-437,992	800,000	0,025	-0,077
-436,978	800,000	0,077	0,177
-435,963	800,000	0,042	-0,091
-434,949	-200,000	0,028	0,147
-433,934	-56,024	-0,107	0,035
-432,919	-200,000	-0,023	0,098
-431,905	760,450	-0,056	-0,111
-430,890	-95,170	0,175	-0,034
-429,876	589,019	-0,044	0,080
-428,861	-23,587	0,126	0,056
-427,846	-93,537	0,052	-0,010
-426,832	-200,000	-0,004	-0,132
-425,817	-139,455	-0,124	-0,010
-424,803	140,793	0,073	0,071
-423,788	11,221	0,048	0,027
-422,773	-200,000	-0,031	0,108
-421,759	147,165	0,031	-0,031
-420,744	406,361	-0,077	0,120
-419,730	-200,000	-0,001	-0,057
-418,715	-70,479	-0,025	0,007
-417,701	-175,769	-0,139	0,003
-416,686	44,312	-0,055	0,037
-415,671	800,000	-0,017	0,049
-414,657	36,756	0,057	-0,037
-413,642	781,845	0,042	0,085
-412,628	-115,018	-0,103	0,014
-411,613	-200,000	0,009	0,032
-410,598	522,327	-0,007	0,011
-409,584	-200,000	-0,016	0,058
-408,569	135,615	0,065	0,062
-407,555	84,522	-0,073	0,059
-406,540	-29,050	0,088	0,037
-405,525	360,099	0,030	-0,044
-404,511	175,865	0,072	-0,077
-403,496	-200,000	-0,020	-0,128
-402,482	591,414	-0,027	0,050
-401,467	800,000	-0,040	-0,083
-400,452	169,784	0,112	0,118
-399,438	800,000	0,024	0,075
-398,423	-81,631	-0,033	0,008
-397,409	243,877	0,007	0,009
-396,394	130,140	-0,064	0,060
-395,379	800,000	-0,059	0,149
-394,365	-200,000	0,000	0,032
-393,350	-72,608	0,057	-0,015
-392,336	-200,000	0,037	0,158
-391,321	-200,000	0,002	0,026
-390,306	-200,000	0,003	-0,070
-389,292	267,271	-0,021	0,027
-388,277	329,064	0,092	-0,130
-387,263	42,201	-0,031	0,021
-386,248	-87,266	0,137	0,030
-385,233	-200,000	0,021	-0,149
-384,219	280,966	-0,070	-0,092
-383,204	800,000	-0,017	0,043
-382,190	-147,923	0,102	0,006
-381,175	144,100	0,094	0,092
-380,160	-200,000	0,000	0,018
-379,146	800,000	-0,055	-0,168
-378,131	-29,686	-0,040	-0,017
-377,117	-200,000	-0,013	0,096
-376,102	-17,177	-0,118	0,054
-375,088	-200,000	-0,025	0,208
-374,073	361,686	0,056	-0,083
-373,058	-69,626	-0,081	-0,023
-372,044	-133,910	-0,028	0,002
-371,029	-22,058	0,071	-0,031
-370,015	164,028	-0,018	0,019
-369,000	-44,185	0,111	0,041
-367,985	800,000	-0,020	0,055
-366,971	-71,036	0,026	0,007
-365,956	81,773	0,105	0,083
-364,942	-200,000	-0,034	0,195
-363,927	86,843	0,037	0,030
-362,912	-107,466	-0,096	-0,015
-361,898	-200,000	0,030	-0,145
-360,883	687,743	-0,054	-0,105
-359,869	265,066	-0,011	-0,014
-358,854	-200,000	0,017	-0,074
-357,839	-64,575	0,042	0,012
-356,825	-100,973	-0,042	-0,007
-355,810	-200,000	0,008	-0,086
-354,796	-153,523	-0,113	-0,006
-353,781	643,826	0,069	-0,130
-352,766	49,321	0,126	-0,087
-351,752	733,596	0,034	-0,067
-350,737	-169,580	0,067	-0,002
-349,723	-200,000	-0,028	-0,105
-348,708	-92,618	-0,033	0,007
-347,693	-200,000	-0,033	0,172
-346,679	-74,106	-0,053	-0,014
-345,664	-200,000	0,030	-0,127
-344,650	-172,737	0,148	0,003
-343,635	-33,848	-0,052	-0,021
-342,620	-22,935	-0,017	0,007
-341,606	-118,548	0,115	0,015
-340,591	531,241	-0,055	0,096
-339,577	-170,465	-0,142	-0,004
-338,562	133,460	-0,021	0,020
-337,548	50,126	0,068	-0,047
-336,533	800,000	0,016	-0,037
-335,518	-99,902	-0,080	0,014
-334,504	-200,000	-0,017	-0,059
-333,489	-58,577	-0,061	-0,019
-332,475	-200,000	0,009	0,127
-331,460	-86,705	-0,183	-0,041
-330,445	800,000	0,055	0,122
-329,431	-132,547	0,086	0,008
-328,416	800,000	0,038	-0,114
-327,402	-200,000	0,010	-0,060
-326,387	800,000	0,021	-0,049
-325,372	-200,000	0,011	-0,062
-324,358	800,000	-0,048	-0,155
-323,343	-200,000	-0,020	-0,114
-322,329	145,135	0,117	-0,115
-321,314	-200,000	0,007	0,069
-320,299	800,000	0,086	0,177
-319,285	800,000	0,006	-0,017
-318,270	-200,000	-0,007	-0,174
-317,256	53,884	0,032	-0,022
-316,241	107,528	0,056	0,049
-315,226	-22,537	0,232	0,102
-314,212	-112,103	0,148	0,022
-313,197	305,106	-0,006	-0,008
-312,183	-3,191	0,070	0,036
-311,168	456,476	0,024	-0,039
-310,153	-150,948	-0,065	0,004
-309,139	800,000	0,066	-0,148
-308,124	-28,335	-0,067	-0,028
-307,110	111,048	0,169	0,149
-306,095	-200,000	-0,003	-0,021
-305,080	-41,525	-0,025	0,010
-304,066	-200,000	-0,013	-0,045
-303,051	213,443	0,042	0,049
-302,037	-98,047	-0,120	0,022
-301,022	-200,000	-0,004	-0,135
-300,008	-200,000	-0,012	-0,043
-298,993	-200,000	-0,030	0,101
-297,978	40,956	0,098	-0,065
-296,964	-200,000	-0,000	0,061
-295,949	69,040	0,054	-0,040
-294,935	366,024	-0,043	-0,063
-293,920	-129,742	0,060	-0,006
-292,905	54,147	-0,048	0,034
-291,891	370,565	0,060	0,089
-290,876	800,000	-0,011	0,029
-289,862	-110,424	0,032	0,005
-288,847	11,876	-0,122	-0,069
-287,832	334,872	0,061	0,087
-286,818	311,794	-0,045	-0,062
-285,803	-200,000	0,076	0,000
-284,789	800,000	0,031	-0,081
-283,774	14,139	0,057	0,032
-282,759	117,602	0,036	-0,032
-281,745	43,065	-0,095	-0,063
-280,730	-200,000	0,001	0,016
-279,716	-200,000	0,020	-0,068
-278,701	108,893	-0,050	0,044
-277,686	-200,000	0,002	0,195
-276,672	187,730	0,063	-0,069
-275,657	218,458	-0,023	0,027
-274,643	-39,464	-0,152	0,058
-273,628	-20,386	-0,049	-0,022
-272,613	77,545	0,059	0,046
-271,599	-32,386	-0,104	0,042
-270,584	-200,000	0,012	0,113
-269,570	600,734	-0,080	0,145
-268,555	355,238	0,035	-0,051
-267,540	-200,000	-0,001	0,034
-266,526	55,077	-0,080	0,056
-265,511	143,562	-0,053	-0,052
-264,497	800,000	-0,035	-0,102
-263,482	69,435	-0,014	-0,010
-262,467	-13,625	0,111	0,052
-261,453	-200,000	-0,022	-0,141
-260,438	-104,302	0,149	-0,025
-259,424	-200,000	0,000	-0,162
-258,409	-200,000	0,003	-0,050
-257,395	-58,051	0,006	0,002
-256,380	219,167	-0,014	0,017
-255,365	-200,000	-0,014	0,235
-254,351	131,326	-0,091	0,085
-253,336	-139,151	0,134	-0,010
-252,322	292,739	-0,051	-0,068
-251,307	435,848	0,015	-0,024
-250,292	-200,000	0,022	-0,143
-249,278	256,483	-0,055	-0,069
-248,263	800,000	0,073	0,204
-247,249	10,339	0,105	0,058
-246,234	332,776	-0,047	0,067
-245,219	-158,302	-0,166	-0,007
-244,205	-200,000	0,026	-0,144
-243,190	-200,000	0,001	-0,007
-242,176	173,273	-0,106	0,111
-241,161	150,422	0,102	0,101
-240,146	4,609	0,054	0,029
-239,132	-42,667	0,090	0,033
-238,117	-67,970	-0,139	-0,039
-237,103	-91,148	-0,099	-0,021
-236,088	800,000	0,030	0,066
-235,073	50,437	0,063	0,043
-234,059	499,764	-0,044	0,074
-233,044	-89,375	0,039	0,008
-232,030	75,417	-0,097	0,074
-231,015	800,000	-0,055	-0,145
-230,000	65,842	-0,135	0,100
-228,986	252,571	-0,071	0,089
-227,971	120,686	0,057	-0,052
-226,957	124,282	-0,030	0,028
-225,942	80,328	-0,085	-0,066
-224,927	-7,313	0,093	0,046
-223,913	800,000	0,025	0,079
-222,898	65,558	0,035	-0,026
-221,884	-200,000	0,006	-0,031
-220,869	253,368	0,087	0,108
-219,855	-101,270	0,097	0,017
-218,840	-77,314	-0,042	-0,011
-217,825	254,399	0,070	-0,088
-216,811	-200,000	-0,027	-0,104
-215,796	800,000	-0,040	-0,104
-214,782	-200,000	-0,006	0,074
-213,767	182,647	-0,042	0,045
-212,752	231,684	0,039	0,047
-211,738	-118,632	-0,057	-0,007
-210,723	-11,989	0,049	0,023
-209,709	-44,729	0,095	0,034
-208,694	236,123	-0,051	-0,062
-207,679	26,904	0,112	0,068
-206,665	-184,114	0,175	-0,002
-205,650	-146,100	-0,097	0,006
-204,636	800,000	0,034	-0,096
-203,621	484,549	0,033	0,056
-202,606	-200,000	-0,012	-0,074
-201,592	-81,124	0,071	-0,017
-200,577	218,344	-0,070	-0,082
-199,563	143,316	0,093	-0,090
-198,548	-12,237	0,127	0,060
-197,533	45,066	0,090	0,061
-196,519	-200,000	0,010	0,084
-195,504	-102,552	-0,096	0,017
-194,490	-82,284	0,071	-0,017
-193,475	-200,000	0,011	0,067
-192,460	-139,568	-0,048	-0,004
-191,446	-200,000	-0,023	-0,191
-190,431	800,000	0,006	-0,017
-189,417	632,407	-0,005	-0,009
-188,402	-200,000	0,036	0,142
-187,387	800,000	-0,065	-0,177
-186,373	-102,043	0,137	0,024
-185,358	-200,000	-0,035	-0,128
-184,344	230,393	-0,024	0,029
-183,329	135,552	-0,109	0,104
-182,315	43,290	0,037	-0,025
-181,300	-200,000	-0,005	-0,040
-180,285	800,000	0,016	0,043
-179,271	-15,111	-0,163	-0,076
-178,256	-200,000	0,028	-0,101
-177,242	-33,967	0,047	-0,019
-176,227	-108,265	0,121	0,019
-175,212	442,168	-0,100	0,159
-174,198	-114,010	0,032	-0,004
-173,183	331,290	-0,021	-0,029
-172,169	24,993	0,023	0,014
-171,154	332,981	-0,022	-0,032
-170,139	49,139	0,118	-0,081
-169,125	114,947	0,030	0,026
-168,110	800,000	0,026	0,081
-167,096	4,511	0,061	-0,033
-166,081	512,433	-0,036	-0,062
-165,066	800,000	0,020	-0,056
-164,052	-111,683	0,036	-0,005
-163,037	800,000	0,014	-0,035
-162,023	-200,000	-0,009	0,040
-161,008	92,696	0,206	0,169
-159,993	-71,982	0,088	0,024
-158,979	62,460	-0,015	0,011
-157,964	17,378	0,065	0,037
-156,950	242,989	0,048	-0,059
-155,935	25,094	0,079	0,047
-154,920	800,000	0,061	0,159
-153,906	-200,000	-0,001	0,010
-152,891	22,050	0,081	0,048
-151,877	800,000	-0,058	0,156
-150,862	47,356	0,070	0,047
-149,847	-63,762	-0,048	-0,014
-148,833	-41,353	0,093	0,035
-147,818	-53,564	0,167	0,055
-146,804	-200,000	-0,012	-0,072
-145,789	448,293	0,034	-0,054
-144,775	-200,000	-0,036	-0,137
-143,760	-107,095	0,033	0,005
-142,745	-87,372	-0,107	0,023
-141,731	-107,115	-0,030	0,005
-140,716	277,516	0,020	0,026
-139,702	-128,266	0,067	-0,007
-138,687	281,335	0,060	0,079
-137,672	59,259	-0,065	-0,046
-136,658	-63,488	0,108	-0,032
-135,643	437,552	0,034	0,053
-134,629	-200,000	-0,006	0,076
-133,614	-200,000	0,044	0,151
-132,599	2,761	0,018	0,009
-131,585	-200,000	0,032	0,165
-130,570	800,000	-0,058	0,147
-129,556	252,593	0,010	0,013
-128,541	-84,939	0,031	0,007
-127,526	-200,000	-0,001	0,043
-126,512	42,259	-0,100	0,066
-125,497	-41,055	-0,074	0,028
-124,483	800,000	-0,004	0,010
-123,468	-200,000	0,021	0,077
-122,453	-200,000	0,008	0,096
-121,439	110,424	0,024	0,021
-120,424	105,393	-0,080	-0,068
-119,410	-87,444	0,083	-0,018
