DTS Sentinel unit serial number:	SN410029Multiplexer serial number:	ORYXHardware model number:	OX2-SRSoftware version number:	ORYX F/W v4,00 Oryx Data Collector v3.7.2.0data status	okinstallation	B4 Nyhavnadifferential loss correction	single-endedforward channel	channel 2reverse channel	N/Adate	2023/12/18time	23:25:13forward acquisition time	300,00reverse acquisition time	0,00gamma	499,1914k internal	0,3124k external	0,3124temperature offset calibration	1,0000default loss term (dB/km)	0,3820temperature slope calibration	1,0000multiplexer offset coefficient	1,0000multiplexer slope coefficient	1,0000fibre end	0,00T internal ref (°C)	22,19T ext. ref 1 (°C)	7,84T ext. ref 2 (°C)	7,82length (m)	temperature (°C)	Stokes	anti-Stokes-744,400	-200,000	-0,009	-0,180
-743,385	3,584	-0,232	0,126
-742,371	412,652	0,032	-0,051
-741,356	-154,487	-0,149	-0,007
-740,342	52,590	-0,043	0,031
-739,327	21,720	-0,216	0,130
-738,312	295,302	-0,009	0,013
-737,298	-67,570	-0,266	0,077
-736,283	-200,000	0,010	-0,061
-735,269	145,364	-0,159	0,159
-734,254	-200,000	-0,003	0,040
-733,239	66,030	-0,360	-0,271
-732,225	-123,416	0,144	-0,017
-731,210	-200,000	0,003	0,143
-730,196	652,141	0,074	-0,141
-729,181	-200,000	0,011	-0,170
-728,167	-197,512	-0,069	-0,000
-727,152	-41,148	-0,126	0,048
-726,137	-80,502	-0,045	-0,011
-725,123	-200,000	-0,018	0,146
-724,108	166,548	-0,066	-0,070
-723,094	-20,293	0,064	-0,029
-722,079	-200,000	-0,034	-0,114
-721,064	-200,000	0,017	-0,127
-720,050	-200,000	-0,005	-0,056
-719,035	-200,000	-0,037	-0,160
-718,021	-200,000	-0,007	-0,189
-717,006	-200,000	-0,018	-0,150
-715,991	-170,513	-0,086	0,002
-714,977	-63,302	-0,121	-0,037
-713,962	314,146	-0,029	-0,040
-712,948	800,000	-0,029	0,070
-711,933	800,000	0,051	0,110
-710,918	784,005	-0,047	-0,097
-709,904	513,619	-0,054	0,095
-708,889	-70,426	-0,099	-0,028
-707,875	-200,000	-0,013	-0,108
-706,860	-200,000	0,004	0,032
-705,845	-44,006	0,092	0,034
-704,831	-6,504	-0,035	0,018
-703,816	104,907	-0,042	0,037
-702,802	-147,903	0,091	-0,006
-701,787	-200,000	0,025	-0,150
-700,772	-17,204	-0,088	0,041
-699,758	162,543	-0,079	0,083
-698,743	-200,000	0,007	-0,035
-697,729	-200,000	0,032	0,145
-696,714	-59,762	0,031	0,010
-695,699	125,587	-0,095	-0,089
-694,685	-50,919	0,012	0,004
-693,670	-99,636	-0,116	-0,021
-692,656	-200,000	-0,006	-0,047
-691,641	-200,000	0,004	0,102
-690,627	-94,865	0,090	0,018
-689,612	109,457	0,084	0,075
-688,597	800,000	0,039	-0,118
-687,583	312,134	-0,066	0,092
-686,568	7,953	-0,102	-0,057
-685,554	-115,356	0,059	0,008
-684,539	800,000	0,012	0,037
-683,524	116,011	0,039	-0,036
-682,510	-200,000	0,006	-0,114
-681,495	244,571	-0,006	-0,008
-680,481	49,838	-0,040	0,028
-679,466	-200,000	-0,011	-0,059
-678,451	20,955	-0,115	-0,069
-677,437	800,000	-0,042	0,119
-676,422	-42,345	0,016	-0,006
-675,408	1,879	0,197	-0,105
-674,393	36,161	0,085	-0,056
-673,378	-99,008	-0,138	-0,026
-672,364	85,621	-0,035	-0,028
-671,349	318,605	-0,037	0,052
-670,335	266,245	-0,059	-0,077
-669,320	98,655	-0,026	-0,022
-668,305	577,642	0,023	0,042
-667,291	-195,917	-0,108	0,001
-666,276	800,000	-0,043	-0,106
-665,262	800,000	0,007	0,020
-664,247	56,440	0,095	0,069
-663,232	-200,000	0,006	-0,069
-662,218	121,941	0,079	-0,073
-661,203	-116,944	-0,040	0,005
-660,189	-79,302	-0,025	-0,006
-659,174	-173,160	-0,044	0,001
-658,159	517,625	0,051	-0,090
-657,145	154,705	-0,009	0,009
-656,130	-53,310	-0,075	0,025
-655,116	-83,794	0,293	0,069
-654,101	-200,000	-0,019	0,177
-653,086	-163,107	-0,113	-0,004
-652,072	-200,000	0,011	0,050
-651,057	78,737	0,043	0,034
-650,043	800,000	-0,050	-0,104
-649,028	-200,000	0,012	0,106
-648,014	-200,000	0,045	0,175
-646,999	117,727	-0,052	0,047
-645,984	-200,000	0,009	0,049
-644,970	8,742	-0,043	0,024
-643,955	190,867	-0,076	-0,085
-642,941	48,823	-0,076	0,053
-641,926	90,675	0,092	-0,077
-640,911	-200,000	-0,005	0,101
-639,897	-134,202	0,120	0,011
-638,882	-108,575	-0,153	-0,024
-637,868	-200,000	-0,006	-0,043
-636,853	-200,000	-0,009	-0,126
-635,838	-200,000	0,012	-0,086
-634,824	-200,000	0,000	-0,105
-633,809	-61,835	0,044	-0,013
-632,795	800,000	-0,039	0,080
-631,780	-200,000	0,001	0,034
-630,765	-200,000	-0,006	-0,189
-629,751	-200,000	0,028	0,111
-628,736	39,826	-0,081	0,054
-627,722	81,883	-0,074	-0,059
-626,707	-96,421	0,032	-0,006
-625,692	8,503	0,085	0,047
-624,678	400,167	0,058	0,091
-623,663	427,420	0,065	-0,105
-622,649	339,057	-0,068	-0,099
-621,634	467,111	-0,020	0,034
-620,619	489,621	-0,074	-0,126
-619,605	-44,728	0,030	-0,011
-618,590	-200,000	0,019	-0,103
-617,576	208,569	0,045	-0,052
-616,561	40,199	0,055	-0,037
-615,546	800,000	-0,047	-0,133
-614,532	-98,490	0,114	-0,021
-613,517	800,000	-0,019	-0,041
-612,503	-110,389	-0,023	0,004
-611,488	-200,000	0,004	0,173
-610,474	-82,393	-0,069	0,016
-609,459	16,047	-0,091	0,053
-608,444	-200,000	-0,014	-0,096
-607,430	555,629	-0,034	-0,061
-606,415	-17,505	0,010	0,004
-605,401	-85,338	-0,149	0,034
-604,386	-1,981	0,080	0,042
-603,371	27,288	0,098	0,061
-602,357	-4,053	-0,078	-0,040
-601,342	800,000	-0,044	-0,092
-600,328	-147,952	-0,122	-0,007
-599,313	-74,820	-0,051	-0,014
-598,298	-200,000	-0,003	-0,037
-597,284	-99,040	-0,232	0,043
-596,269	-200,000	-0,018	0,114
-595,255	800,000	-0,005	0,015
-594,240	800,000	0,013	0,038
-593,225	-200,000	0,002	-0,119
-592,211	-200,000	0,029	-0,117
-591,196	-200,000	0,022	0,146
-590,182	-200,000	-0,001	-0,071
-589,167	-29,953	0,123	-0,052
-588,152	42,002	-0,080	0,054
-587,138	36,539	-0,085	0,056
-586,123	-100,088	0,098	0,018
-585,109	-200,000	0,013	-0,076
-584,094	800,000	0,062	-0,183
-583,079	-200,000	0,012	0,119
-582,065	-149,711	0,130	-0,007
-581,050	14,757	0,087	0,050
-580,036	-200,000	0,008	0,029
-579,021	628,033	-0,054	-0,101
-578,006	-200,000	0,026	0,112
-576,992	-200,000	0,032	-0,219
-575,977	305,167	0,043	-0,059
-574,963	273,671	-0,141	0,185
-573,948	-72,706	0,108	0,029
-572,934	-92,599	0,071	-0,015
-571,919	800,000	-0,015	0,035
-570,904	800,000	-0,036	-0,075
-569,890	-200,000	0,015	-0,094
-568,875	800,000	0,017	-0,055
-567,861	-86,237	-0,044	0,010
-566,846	558,580	0,044	-0,079
-565,831	39,088	0,068	-0,045
-564,817	8,808	-0,136	0,075
-563,802	-20,593	-0,035	-0,016
-562,788	147,666	0,047	-0,047
-561,773	233,541	-0,050	-0,061
-560,758	301,173	0,069	0,095
-559,744	0,962	-0,032	0,017
-558,729	800,000	-0,022	0,062
-557,715	434,698	-0,040	0,064
-556,700	-67,405	-0,084	-0,024
-555,685	-96,265	-0,167	-0,032
-554,671	-71,533	0,089	-0,025
-553,656	-200,000	0,019	-0,074
-552,642	55,291	0,153	-0,109
-551,627	-200,000	-0,011	0,047
-550,612	-200,000	-0,015	0,085
-549,598	255,978	-0,070	0,089
-548,583	383,305	0,058	0,088
-547,569	-116,246	-0,071	0,010
-546,554	-200,000	0,002	0,052
-545,539	-200,000	-0,002	0,006
-544,525	-81,396	0,082	-0,020
-543,510	252,306	-0,080	0,101
-542,496	-200,000	-0,013	-0,047
-541,481	97,170	0,046	0,039
-540,466	-66,064	-0,080	0,024
-539,452	18,650	0,014	-0,008
-538,437	67,767	0,051	0,039
-537,423	8,967	0,022	0,012
-536,408	759,149	0,039	-0,078
-535,393	-200,000	0,013	-0,064
-534,379	-52,931	0,072	0,024
-533,364	122,653	-0,088	-0,082
-532,350	97,527	-0,053	-0,045
-531,335	-192,556	0,164	0,001
-530,321	7,934	0,034	0,019
-529,306	205,448	-0,065	0,075
-528,291	483,977	-0,059	0,099
-527,277	-200,000	0,011	-0,076
-526,262	214,628	-0,014	0,016
-525,248	179,940	-0,050	0,054
-524,233	136,454	0,067	-0,064
-523,218	-107,432	0,051	0,008
-522,204	78,465	-0,064	0,051
-521,189	-200,000	0,041	0,000
-520,175	221,598	-0,100	-0,119
-519,160	-200,000	0,001	-0,015
-518,145	-200,000	0,008	0,138
-517,131	53,303	0,064	-0,045
-516,116	-200,000	0,005	0,110
-515,102	800,000	0,027	0,079
-514,087	-200,000	-0,026	-0,088
-513,072	-200,000	0,026	-0,177
-512,058	-128,534	0,019	-0,002
-511,043	113,142	-0,081	0,072
-510,029	-74,079	0,092	0,024
-509,014	-200,000	0,020	0,090
-507,999	-66,321	0,088	-0,026
-506,985	-200,000	0,006	0,034
-505,970	596,980	-0,049	0,091
-504,956	118,112	-0,105	0,095
-503,941	272,779	-0,019	0,025
-502,926	30,822	0,062	0,039
-501,912	-84,417	0,075	0,017
-500,897	-91,032	-0,006	-0,001
-499,883	435,902	0,043	0,069
-498,868	47,118	-0,101	-0,069
-497,853	370,960	0,056	-0,084
-496,839	-3,534	-0,069	0,035
-495,824	-200,000	0,046	0,000
-494,810	800,000	-0,012	-0,034
-493,795	800,000	0,032	0,097
-492,781	416,498	-0,046	0,073
-491,766	241,255	-0,029	0,036
-490,751	38,956	-0,048	0,032
-489,737	-118,194	0,147	0,019
-488,722	382,171	0,025	0,037
-487,708	-33,749	0,054	0,022
-486,693	-10,795	0,084	-0,041
-485,678	-40,716	-0,084	-0,032
-484,664	737,538	0,012	-0,023
-483,649	235,888	-0,046	-0,056
-482,635	-92,551	-0,114	-0,023
-481,620	125,125	-0,048	-0,044
-480,605	-34,929	0,040	-0,016
-479,591	-108,591	0,047	0,007
-478,576	-200,000	0,020	0,099
-477,562	312,630	-0,051	-0,071
-476,547	402,420	-0,053	-0,083
-475,532	268,589	0,037	-0,048
-474,518	-7,609	-0,116	-0,058
-473,503	221,660	0,085	-0,101
-472,489	-141,367	-0,107	-0,008
-471,474	-200,000	0,003	0,101
-470,459	20,070	-0,038	-0,023
-469,445	-48,574	-0,042	-0,015
-468,430	-200,000	-0,020	0,232
-467,416	683,252	0,015	0,029
-466,401	-200,000	0,014	0,069
-465,386	800,000	0,040	0,085
-464,372	475,248	-0,043	-0,071
-463,357	136,797	0,029	-0,028
-462,343	26,045	-0,168	-0,103
-461,328	-200,000	0,018	-0,074
-460,313	90,103	0,057	0,047
-459,299	-200,000	0,028	-0,116
-458,284	225,845	-0,103	-0,123
-457,270	425,950	-0,037	0,059
-456,255	72,084	-0,134	-0,103
-455,241	187,954	0,061	-0,068
-454,226	10,339	-0,088	0,049
-453,211	223,594	0,066	-0,078
-452,197	-29,883	0,164	-0,068
-451,182	-200,000	-0,004	-0,104
-450,168	-171,180	-0,080	0,002
-449,153	-200,000	0,030	0,118
-448,138	-200,000	-0,008	-0,059
-447,124	-200,000	0,008	-0,038
-446,109	-180,181	0,129	0,002
-445,095	308,996	0,034	0,046
-444,080	49,236	0,117	0,081
-443,065	170,112	-0,040	0,042
-442,051	-64,652	-0,118	0,035
-441,036	-200,000	-0,012	-0,075
-440,022	166,019	0,080	-0,084
-439,007	596,938	0,016	0,030
-437,992	449,988	0,047	0,077
-436,978	800,000	-0,015	-0,036
-435,963	800,000	-0,052	0,122
-434,949	15,187	-0,107	-0,061
-433,934	654,198	0,050	0,094
-432,919	90,282	-0,089	0,073
-431,905	162,123	0,035	0,036
-430,890	150,174	0,024	0,024
-429,876	-56,994	-0,072	0,023
-428,861	246,700	-0,058	0,072
-427,846	800,000	0,057	0,117
-426,832	-200,000	-0,004	-0,042
-425,817	-200,000	-0,021	-0,071
-424,803	-170,159	0,023	-0,001
-423,788	-145,938	0,028	-0,002
-422,773	-200,000	0,022	0,107
-421,759	-200,000	0,018	0,115
-420,744	-31,426	0,095	-0,039
-419,730	404,766	-0,062	0,096
-418,715	21,809	0,071	0,042
-417,701	-172,948	-0,082	-0,002
-416,686	-200,000	0,008	0,057
-415,671	34,790	-0,092	0,059
-414,657	628,403	0,032	0,060
-413,642	-200,000	-0,033	0,113
-412,628	-80,282	0,029	-0,007
-411,613	72,438	0,021	0,016
-410,598	310,364	-0,073	0,101
-409,584	41,235	-0,017	0,012
-408,569	41,655	-0,030	-0,020
-407,555	-200,000	0,000	0,118
-406,540	190,496	-0,064	-0,071
-405,525	-200,000	-0,029	-0,150
-404,511	185,567	-0,112	-0,122
-403,496	36,371	-0,029	0,018
-402,482	623,043	-0,071	0,133
-401,467	744,246	0,056	-0,110
-400,452	800,000	0,017	-0,041
-399,438	-150,255	-0,091	0,005
-398,423	-81,769	0,070	-0,017
-397,409	800,000	0,026	0,055
-396,394	249,460	-0,037	0,047
-395,379	-54,493	0,112	0,037
-394,365	-3,048	0,017	-0,009
-393,350	-19,247	0,114	-0,052
-392,336	-54,113	0,041	0,014
-391,321	-200,000	0,002	-0,211
-390,306	-119,006	-0,136	0,017
-389,292	800,000	-0,003	-0,006
-388,277	167,475	-0,036	0,037
-387,263	84,632	0,093	0,075
-386,248	-143,590	0,095	-0,007
-385,233	-200,000	0,033	-0,189
-384,219	-129,946	-0,051	-0,005
-383,204	-27,792	-0,170	0,072
-382,190	-143,493	-0,115	-0,008
-381,175	98,901	0,060	0,051
-380,160	800,000	0,018	0,040
-379,146	271,902	0,053	0,069
-378,131	542,218	-0,071	0,125
-377,117	286,526	0,046	0,061
-376,102	50,655	-0,121	0,084
-375,088	145,750	0,032	0,032
-374,073	8,289	-0,040	0,022
-373,058	0,160	0,043	0,023
-372,044	-115,089	-0,033	-0,004
-371,029	32,536	0,171	0,108
-370,015	-200,000	0,002	-0,134
-369,000	20,321	-0,137	-0,081
-367,985	800,000	0,013	-0,028
-366,971	-42,033	0,037	-0,014
-365,956	-0,668	0,072	0,037
-364,942	-200,000	0,019	0,096
-363,927	412,283	0,050	0,078
-362,912	526,728	-0,064	0,112
-361,898	-200,000	0,004	0,080
-360,883	61,888	-0,057	0,041
-359,869	-122,870	-0,060	0,007
-358,854	337,004	0,020	-0,029
-357,839	-200,000	-0,014	-0,073
-356,825	361,594	0,032	-0,047
-355,810	-200,000	-0,001	-0,098
-354,796	501,097	-0,049	-0,083
-353,781	-57,251	-0,101	-0,033
-352,766	-78,655	0,075	-0,019
-351,752	-188,415	-0,066	0,001
-350,737	-43,868	0,059	0,022
-349,723	554,953	-0,038	-0,068
-348,708	61,890	-0,053	-0,039
-347,693	-83,771	-0,069	0,016
-346,679	-200,000	-0,004	-0,124
-345,664	112,581	-0,118	-0,104
-344,650	85,504	-0,040	0,032
-343,635	-131,072	0,220	0,021
-342,620	800,000	-0,031	0,086
-341,606	-200,000	-0,010	0,069
-340,591	370,296	0,063	0,094
-339,577	663,379	0,068	-0,129
-338,562	-200,000	-0,016	-0,052
-337,548	-200,000	0,006	-0,042
-336,533	169,459	-0,037	0,039
-335,518	154,010	0,017	-0,017
-334,504	48,616	-0,011	-0,007
-333,489	-84,279	-0,090	-0,021
-332,475	800,000	0,027	0,063
-331,460	-106,552	0,108	-0,017
-330,445	87,241	0,176	0,142
-329,431	-150,691	0,093	-0,005
-328,416	-20,265	-0,062	-0,028
-327,402	-200,000	0,005	-0,021
-326,387	-131,228	0,055	-0,005
-325,372	-200,000	-0,009	-0,070
-324,358	-200,000	0,007	-0,048
-323,343	681,884	-0,082	-0,157
-322,329	-118,030	0,084	0,011
-321,314	267,175	0,067	0,086
-320,299	-200,000	-0,001	0,023
-319,285	384,229	0,043	-0,065
-318,270	-200,000	0,035	-0,184
-317,256	185,907	0,046	-0,051
-316,241	800,000	-0,010	0,026
-315,226	578,257	0,026	0,047
-314,212	220,476	0,008	0,010
-313,197	193,675	0,096	0,106
-312,183	-144,293	0,111	0,007
-311,168	-94,272	-0,087	-0,017
-310,153	-139,191	0,065	-0,005
-309,139	0,196	0,123	-0,064
-308,124	-100,820	0,078	-0,014
-307,110	-200,000	-0,030	-0,107
-306,095	118,822	-0,024	0,022
-305,080	-200,000	0,126	-0,000
-304,066	292,229	-0,049	-0,066
-303,051	233,566	-0,045	-0,055
-302,037	800,000	0,041	-0,106
-301,022	191,505	0,059	-0,065
-300,008	-33,404	0,118	-0,048
-298,993	-100,082	-0,089	-0,016
-297,978	-47,338	0,032	0,011
-296,964	800,000	-0,021	-0,064
-295,949	134,842	-0,063	-0,060
-294,935	-200,000	0,011	-0,077
-293,920	17,919	-0,055	0,032
-292,905	19,974	0,104	-0,061
-291,891	-200,000	-0,000	0,065
-290,876	102,683	-0,015	0,013
-289,862	-113,449	0,058	-0,008
-288,847	34,298	-0,155	-0,099
-287,832	784,667	-0,066	-0,133
-286,818	34,149	-0,040	-0,026
-285,803	-63,039	-0,033	0,010
-284,789	29,417	0,087	0,054
-283,774	219,987	0,050	0,059
-282,759	-179,975	-0,046	0,001
-281,745	315,071	-0,067	-0,093
-280,730	-71,644	-0,060	0,016
-279,716	-156,118	-0,026	0,001
-278,701	-200,000	0,012	0,067
-277,686	-179,935	0,049	-0,001
-276,672	430,687	0,115	0,183
-275,657	800,000	0,024	0,068
-274,643	597,680	-0,089	0,162
-273,628	144,785	-0,103	-0,101
-272,613	-114,378	-0,048	0,007
-271,599	-64,557	0,097	0,029
-270,584	-200,000	0,037	-0,127
-269,570	709,145	0,046	0,089
-268,555	-73,475	-0,096	-0,025
-267,540	800,000	0,039	-0,125
-266,526	719,997	-0,052	-0,102
-265,511	-200,000	0,010	-0,159
-264,497	-200,000	-0,001	0,096
-263,482	-26,333	0,192	0,082
-262,467	247,666	0,062	0,077
-261,453	-200,000	-0,015	-0,064
-260,438	-64,007	-0,043	0,013
-259,424	-101,596	0,013	-0,002
-258,409	642,047	-0,052	-0,098
-257,395	75,990	0,012	0,009
-256,380	-84,735	0,234	0,053
-255,365	97,101	-0,050	-0,042
-254,351	-122,478	-0,110	0,013
-253,336	-200,000	-0,001	-0,064
-252,322	88,674	0,180	-0,146
-251,307	-200,000	-0,012	0,092
-250,292	-121,871	0,020	0,002
-249,278	-29,170	-0,030	0,013
-248,263	-132,626	0,046	0,004
-247,249	800,000	0,064	0,200
-246,234	241,631	-0,015	-0,019
-245,219	102,193	0,129	-0,110
-244,205	382,929	0,045	-0,068
-243,190	-19,627	0,032	0,014
-242,176	-200,000	0,028	0,122
-241,161	386,178	0,020	-0,031
-240,146	-22,356	0,116	0,051
-239,132	-200,000	-0,016	-0,078
-238,117	-127,820	-0,174	-0,018
-237,103	-200,000	0,002	0,072
-236,088	-154,069	-0,041	-0,002
-235,073	-152,303	0,136	0,007
-234,059	-200,000	-0,039	0,129
-233,044	800,000	0,023	-0,054
-232,030	516,720	-0,081	-0,139
-231,015	800,000	-0,032	-0,095
-230,000	-200,000	0,003	-0,081
-228,986	171,852	-0,082	-0,087
-227,971	-200,000	0,012	-0,074
-226,957	-113,421	0,122	-0,017
-225,942	-200,000	-0,008	0,036
-224,927	-200,000	0,017	0,074
-223,913	-120,057	-0,052	-0,006
-222,898	-11,343	0,093	0,045
-221,884	75,629	0,164	0,127
-220,869	672,781	0,082	-0,156
-219,855	-170,699	-0,046	0,001
-218,840	410,780	-0,087	0,134
-217,825	-90,838	-0,055	0,011
-216,811	-89,658	0,010	-0,002
-215,796	239,367	-0,055	0,067
-214,782	411,992	0,041	-0,064
-213,767	-200,000	0,011	-0,091
-212,752	-34,052	0,150	0,060
-211,738	800,000	-0,011	0,031
-210,723	800,000	0,022	-0,061
-209,709	88,917	-0,034	0,027
-208,694	-200,000	0,034	-0,109
-207,679	800,000	0,017	0,049
-206,665	-200,000	0,011	-0,063
-205,650	161,211	-0,016	-0,016
-204,636	214,816	-0,093	0,107
-203,621	24,337	-0,065	0,039
-202,606	-63,681	0,024	-0,007
-201,592	-7,640	-0,066	-0,032
-200,577	203,179	-0,129	-0,145
-199,563	-138,648	0,088	0,007
-198,548	260,154	0,044	0,056
-197,533	172,672	-0,080	0,084
-196,519	546,349	0,079	0,138
-195,504	144,898	-0,071	0,070
-194,490	27,294	-0,130	-0,080
-193,475	-200,000	-0,044	-0,143
-192,460	440,476	-0,008	-0,013
-191,446	14,213	0,077	0,044
-190,431	-200,000	-0,006	0,077
-189,417	-42,649	0,103	0,038
-188,402	-78,931	-0,104	-0,026
-187,387	-124,808	-0,118	-0,013
-186,373	800,000	0,023	-0,052
-185,358	330,562	-0,007	-0,009
-184,344	420,330	0,046	-0,072
-183,329	800,000	0,031	0,071
-182,315	748,682	0,048	0,094
-181,300	800,000	0,027	-0,054
-180,285	18,575	-0,129	-0,075
-179,271	-164,374	-0,120	0,004
-178,256	73,511	0,083	0,064
-177,242	48,490	0,156	0,106
-176,227	-200,000	-0,017	0,095
-175,212	383,722	-0,059	0,088
-174,198	800,000	-0,023	-0,075
-173,183	77,318	-0,076	-0,059
-172,169	516,826	-0,049	0,083
-171,154	70,320	0,063	0,048
-170,139	-86,239	0,072	-0,016
-169,125	208,380	-0,029	0,033
-168,110	17,062	-0,108	-0,062
-167,096	-200,000	-0,007	0,057
-166,081	97,914	-0,101	0,085
-165,066	-108,928	-0,107	0,016
-164,052	800,000	-0,028	-0,059
-163,037	-200,000	0,018	-0,106
-162,023	85,901	0,105	0,084
-161,008	800,000	0,023	0,053
-159,993	800,000	0,106	0,230
-158,979	655,670	0,046	0,087
-157,964	261,425	-0,156	-0,198
-156,950	-25,511	-0,046	-0,019
-155,935	759,940	0,026	0,052
-154,920	-200,000	-0,004	-0,040
-153,906	650,939	-0,070	0,131
-152,891	-66,610	0,025	-0,007
-151,877	-200,000	-0,004	0,061
-150,862	-200,000	-0,000	0,011
-149,847	108,750	-0,096	0,083
-148,833	204,402	-0,121	-0,137
-147,818	-200,000	-0,005	0,118
-146,804	216,124	-0,032	-0,037
-145,789	-200,000	-0,011	0,066
-144,775	-200,000	0,000	0,112
-143,760	-110,456	-0,050	-0,008
-142,745	-148,575	-0,188	-0,011
-141,731	346,820	-0,069	-0,099
-140,716	-101,818	-0,031	0,005
-139,702	385,579	0,017	-0,026
-138,687	212,903	0,078	-0,090
-137,672	147,845	-0,068	-0,067
-136,658	24,079	-0,096	-0,057
-135,643	2,363	0,075	0,040
-134,629	-200,000	-0,025	-0,088
-133,614	-83,557	0,069	0,016
-132,599	332,946	-0,022	0,031
-131,585	-200,000	-0,004	-0,021
-130,570	321,680	0,068	-0,095
-129,556	-155,756	-0,066	-0,003
-128,541	-72,710	-0,086	-0,023
-127,526	-200,000	-0,011	0,081
-126,512	77,902	0,064	0,050
-125,497	-124,499	0,048	0,005
-124,483	330,743	0,068	0,096
-123,468	78,444	-0,020	-0,015
-122,453	-200,000	-0,004	0,026
-121,439	800,000	-0,070	-0,152
-120,424	303,990	0,033	-0,045
-119,410	-32,641	-0,043	0,017
