DTS Sentinel unit serial number:	SN410029Multiplexer serial number:	ORYXHardware model number:	OX2-SRSoftware version number:	ORYX F/W v4,00 Oryx Data Collector v3.7.2.0data status	okinstallation	B4 Nyhavnadifferential loss correction	single-endedforward channel	channel 2reverse channel	N/Adate	2023/12/16time	01:05:13forward acquisition time	300,00reverse acquisition time	0,00gamma	499,1914k internal	0,3128k external	0,3128temperature offset calibration	1,0000default loss term (dB/km)	0,3820temperature slope calibration	1,0000multiplexer offset coefficient	1,0000multiplexer slope coefficient	1,0000fibre end	0,00T internal ref (°C)	21,92T ext. ref 1 (°C)	6,97T ext. ref 2 (°C)	7,15length (m)	temperature (°C)	Stokes	anti-Stokes-744,400	-200,000	-0,025	-0,138
-743,385	65,015	-0,170	0,128
-742,371	-130,360	0,086	-0,009
-741,356	151,618	-0,098	0,099
-740,342	800,000	0,035	-0,078
-739,327	-109,076	-0,214	0,033
-738,312	368,209	0,051	-0,077
-737,298	-174,617	-0,224	-0,005
-736,283	627,450	-0,013	0,024
-735,269	-93,618	-0,174	-0,035
-734,254	-200,000	0,013	0,069
-733,239	-148,352	-0,440	0,026
-732,225	67,703	0,088	0,067
-731,210	-200,000	0,020	0,135
-730,196	643,968	0,057	-0,109
-729,181	152,058	0,021	-0,022
-728,167	69,131	-0,033	-0,025
-727,152	-200,000	0,154	0,000
-726,137	362,854	-0,052	-0,078
-725,123	-200,000	0,003	-0,019
-724,108	800,000	-0,060	-0,136
-723,094	47,010	-0,114	-0,079
-722,079	140,999	-0,065	-0,064
-721,064	800,000	0,020	-0,052
-720,050	-200,000	-0,001	0,182
-719,035	-200,000	-0,001	-0,142
-718,021	134,251	0,022	-0,021
-717,006	13,973	-0,071	-0,041
-715,991	-2,965	0,113	-0,058
-714,977	334,817	-0,087	-0,126
-713,962	217,564	-0,066	-0,078
-712,948	23,134	-0,080	0,049
-711,933	117,426	0,049	0,045
-710,918	-105,476	-0,054	-0,009
-709,904	-33,253	-0,185	0,076
-708,889	-13,081	-0,145	-0,070
-707,875	-116,283	-0,065	-0,009
-706,860	26,182	-0,114	-0,070
-705,845	-200,000	-0,009	0,122
-704,831	43,824	-0,052	0,035
-703,816	-200,000	0,019	0,084
-702,802	-34,955	-0,053	-0,021
-701,787	462,715	-0,040	-0,067
-700,772	-200,000	-0,057	-0,189
-699,758	-73,765	-0,125	0,034
-698,743	77,198	0,129	-0,102
-697,729	-28,798	0,133	-0,056
-696,714	159,191	0,042	-0,043
-695,699	265,690	-0,062	0,080
-694,685	-200,000	0,024	-0,149
-693,670	31,584	-0,121	-0,077
-692,656	54,913	0,087	-0,063
-691,641	55,397	-0,053	-0,038
-690,627	67,150	0,189	0,143
-689,612	227,386	-0,029	0,035
-688,597	-72,169	0,050	0,014
-687,583	80,988	-0,055	-0,044
-686,568	-84,730	-0,089	-0,021
-685,554	800,000	-0,022	-0,046
-684,539	-89,444	-0,089	0,019
-683,524	-200,000	0,001	-0,027
-682,510	193,769	0,054	0,060
-681,495	800,000	0,004	-0,009
-680,481	-100,912	-0,051	-0,009
-679,466	240,989	-0,040	-0,050
-678,451	-55,512	-0,119	0,039
-677,437	349,510	0,025	0,037
-676,422	-53,460	-0,082	0,028
-675,408	-106,923	-0,126	0,020
-674,393	-104,650	-0,076	0,013
-673,378	266,839	-0,050	-0,065
-672,364	-200,000	-0,026	-0,182
-671,349	-200,000	-0,004	-0,044
-670,335	219,056	0,103	-0,123
-669,320	118,578	0,102	0,093
-668,305	-46,190	-0,178	-0,065
-667,291	227,968	0,087	-0,105
-666,276	800,000	0,059	-0,150
-665,262	102,828	-0,133	-0,115
-664,247	385,256	-0,012	-0,018
-663,232	-200,000	-0,001	-0,047
-662,218	797,551	-0,025	0,052
-661,203	800,000	-0,012	-0,030
-660,189	676,829	-0,016	-0,030
-659,174	800,000	0,036	-0,084
-658,159	-123,765	-0,183	-0,021
-657,145	156,808	-0,072	-0,074
-656,130	-54,339	0,090	-0,030
-655,116	-200,000	0,004	0,129
-654,101	101,602	-0,103	0,089
-653,086	-93,604	-0,056	-0,011
-652,072	-33,516	-0,063	-0,026
-651,057	-62,623	-0,085	-0,026
-650,043	-200,000	-0,044	0,217
-649,028	-28,633	0,159	-0,068
-648,014	-200,000	0,020	0,107
-646,999	800,000	0,055	-0,168
-645,984	-122,760	-0,170	-0,020
-644,970	156,680	-0,075	-0,077
-643,955	-55,613	0,085	-0,028
-642,941	202,272	-0,016	-0,018
-641,926	293,280	0,056	-0,077
-640,911	-69,881	-0,086	-0,024
-639,897	705,164	0,027	-0,053
-638,882	-200,000	0,004	-0,086
-637,868	-106,429	-0,036	-0,006
-636,853	89,963	-0,060	0,050
-635,838	215,826	-0,067	-0,079
-634,824	-122,168	-0,074	0,009
-633,809	108,364	-0,031	-0,027
-632,795	-200,000	0,003	0,056
-631,780	-29,092	-0,089	0,038
-630,765	-8,737	0,008	-0,004
-629,751	-15,630	-0,053	0,025
-628,736	-200,000	0,033	-0,151
-627,722	372,551	0,089	-0,134
-626,707	578,428	0,083	-0,150
-625,692	678,939	-0,061	0,118
-624,678	-132,068	0,046	-0,004
-623,663	42,563	0,111	-0,074
-622,649	83,148	-0,100	-0,081
-621,634	127,341	-0,076	-0,072
-620,619	568,369	-0,048	-0,087
-619,605	800,000	-0,052	0,134
-618,590	-68,469	0,042	-0,012
-617,576	501,875	-0,039	0,066
-616,561	-131,071	-0,045	-0,004
-615,546	800,000	-0,046	-0,146
-614,532	-81,900	-0,163	0,039
-613,517	-200,000	0,001	0,084
-612,503	77,472	0,044	0,034
-611,488	101,217	0,133	-0,114
-610,474	-200,000	-0,003	-0,042
-609,459	124,420	-0,094	0,088
-608,444	-147,479	-0,050	-0,003
-607,430	-162,133	-0,060	0,002
-606,415	60,214	-0,057	-0,042
-605,401	174,637	0,060	0,065
-604,386	-200,000	-0,011	0,070
-603,371	-200,000	-0,003	0,136
-602,357	5,959	-0,021	0,011
-601,342	-130,035	-0,064	-0,006
-600,328	-141,412	0,075	0,006
-599,313	-200,000	-0,003	-0,068
-598,298	-75,490	-0,131	-0,034
-597,284	-144,870	0,207	-0,014
-596,269	25,381	0,101	0,062
-595,255	-200,000	-0,004	-0,037
-594,240	252,016	-0,063	0,080
-593,225	-36,685	-0,076	-0,030
-592,211	-200,000	0,001	0,027
-591,196	412,252	-0,058	0,092
-590,182	-79,155	-0,070	0,017
-589,167	-106,170	0,118	-0,019
-588,152	-100,204	0,050	-0,009
-587,138	800,000	0,006	-0,018
-586,123	-200,000	0,003	-0,114
-585,109	349,587	-0,071	-0,104
-584,094	-200,000	0,016	-0,059
-583,079	-200,000	-0,006	0,073
-582,065	-23,565	0,067	-0,029
-581,050	250,696	0,060	-0,076
-580,036	15,548	-0,073	0,042
-579,021	-190,101	-0,039	-0,000
-578,006	544,814	-0,015	0,026
-576,992	800,000	-0,037	-0,109
-575,977	-93,671	0,165	0,033
-574,963	800,000	0,028	0,083
-573,948	93,787	0,058	0,048
-572,934	44,058	-0,073	0,050
-571,919	-200,000	-0,028	-0,130
-570,904	-37,180	-0,086	0,034
-569,890	-34,133	-0,212	-0,086
-568,875	160,704	0,067	0,069
-567,861	-86,376	-0,074	-0,017
-566,846	62,780	0,036	0,026
-565,831	-80,247	-0,059	0,014
-564,817	286,543	0,028	-0,037
-563,802	-200,000	-0,012	0,093
-562,788	398,098	-0,135	-0,210
-561,773	-200,000	0,008	-0,071
-560,758	-2,003	-0,059	0,030
-559,744	-200,000	0,008	0,089
-558,729	20,565	0,047	0,028
-557,715	-92,698	0,139	0,028
-556,700	-128,100	-0,120	-0,013
-555,685	740,871	-0,054	-0,108
-554,671	-200,000	-0,027	-0,095
-553,656	-121,776	0,103	-0,012
-552,642	247,058	0,011	0,014
-551,627	234,052	-0,084	0,102
-550,612	800,000	0,010	-0,028
-549,598	188,826	-0,073	0,081
-548,583	11,137	-0,132	-0,074
-547,569	252,763	0,042	0,054
-546,554	-200,000	-0,006	0,120
-545,539	-200,000	-0,005	-0,030
-544,525	-98,207	-0,071	-0,013
-543,510	349,057	-0,077	0,113
-542,496	-60,364	-0,165	-0,052
-541,481	800,000	0,032	0,075
-540,466	-90,165	-0,037	0,008
-539,452	377,848	0,084	-0,128
-538,437	-140,181	0,112	-0,009
-537,423	-200,000	0,022	0,138
-536,408	344,937	0,060	-0,087
-535,393	635,962	-0,074	-0,140
-534,379	800,000	-0,045	-0,093
-533,364	-44,401	0,054	0,020
-532,350	-40,914	0,147	0,056
-531,335	-200,000	0,013	-0,102
-530,321	603,695	0,012	-0,023
-529,306	-175,763	-0,031	0,001
-528,291	-200,000	-0,013	-0,044
-527,277	562,765	0,057	0,102
-526,262	-78,186	0,192	0,048
-525,248	-118,263	-0,097	-0,013
-524,233	20,804	0,019	0,011
-523,218	200,608	0,057	0,065
-522,204	-39,192	-0,130	-0,050
-521,189	-200,000	-0,010	-0,144
-520,175	-159,459	0,048	0,002
-519,160	800,000	-0,039	-0,089
-518,145	35,396	0,063	-0,040
-517,131	-200,000	-0,019	0,154
-516,116	-17,318	0,092	0,043
-515,102	-60,353	-0,025	-0,008
-514,087	-200,000	-0,014	-0,069
-513,072	168,049	-0,095	-0,099
-512,058	430,628	-0,034	-0,054
-511,043	800,000	-0,021	0,065
-510,029	-200,000	0,017	0,090
-509,014	-200,000	-0,014	-0,055
-507,999	800,000	-0,045	-0,122
-506,985	177,722	-0,071	-0,077
-505,970	110,348	0,038	-0,033
-504,956	69,393	0,067	-0,051
-503,941	336,135	0,075	0,107
-502,926	202,769	0,036	-0,041
-501,912	-22,936	0,138	-0,061
-500,897	201,152	-0,068	0,078
-499,883	54,236	0,068	0,048
-498,868	63,171	0,066	-0,049
-497,853	48,330	-0,084	-0,058
-496,839	-200,000	0,025	-0,164
-495,824	-8,820	-0,126	0,062
-494,810	146,196	0,053	0,052
-493,795	310,039	0,040	-0,056
-492,781	236,396	-0,044	-0,054
-491,766	-18,622	-0,079	0,036
-490,751	-200,000	0,009	-0,032
-489,737	-200,000	0,039	-0,163
-488,722	-46,409	0,012	0,004
-487,708	514,133	0,042	0,072
-486,693	-147,117	-0,071	0,004
-485,678	265,551	0,049	0,063
-484,664	-200,000	0,014	0,077
-483,649	-200,000	-0,019	-0,103
-482,635	800,000	-0,023	0,058
-481,620	87,313	0,048	0,039
-480,605	-31,450	0,069	0,029
-479,591	74,989	0,129	0,100
-478,576	40,106	-0,025	0,016
-477,562	-57,472	0,048	-0,016
-476,547	-200,000	0,001	-0,155
-475,532	-135,725	-0,080	0,007
-474,518	-86,762	0,097	-0,022
-473,503	39,102	0,077	-0,051
-472,489	800,000	-0,046	-0,098
-471,474	-200,000	-0,014	-0,089
-470,459	-51,649	-0,073	0,025
-469,445	-200,000	0,002	-0,076
-468,430	-200,000	-0,033	0,263
-467,416	-120,852	0,092	-0,011
-466,401	186,234	0,048	0,053
-465,386	400,007	-0,076	0,118
-464,372	-200,000	0,014	-0,056
-463,357	800,000	-0,039	-0,116
-462,343	-74,709	-0,065	-0,017
-461,328	597,140	0,030	-0,055
-460,313	-200,000	0,012	0,053
-459,299	548,065	0,088	0,155
-458,284	-153,194	0,061	0,003
-457,270	-200,000	0,013	0,107
-456,255	-14,392	-0,108	0,051
-455,241	-101,864	-0,193	0,034
-454,226	800,000	-0,010	0,025
-453,211	-200,000	-0,032	-0,115
-452,197	512,081	0,067	0,116
-451,182	-75,192	-0,086	-0,022
-450,168	-60,304	-0,076	-0,024
-449,153	-39,151	-0,053	0,021
-448,138	-98,537	-0,097	0,018
-447,124	-85,018	-0,060	0,014
-446,109	-200,000	0,036	-0,129
-445,095	-200,000	-0,002	-0,120
-444,080	-162,150	0,088	0,003
-443,065	283,626	0,036	0,047
-442,051	412,885	0,043	-0,067
-441,036	92,680	-0,053	0,044
-440,022	-200,000	0,005	0,033
-439,007	576,867	0,019	0,034
-437,992	-103,187	0,096	-0,016
-436,978	-28,199	0,081	-0,034
-435,963	-23,925	-0,036	-0,016
-434,949	800,000	0,042	0,092
-433,934	130,715	-0,058	0,055
-432,919	-84,336	-0,110	-0,025
-431,905	393,122	-0,053	-0,082
-430,890	32,648	-0,088	0,056
-429,876	12,547	-0,059	0,033
-428,861	364,787	0,019	0,028
-427,846	450,591	0,038	-0,062
-426,832	103,852	-0,089	-0,077
-425,817	-37,205	-0,062	-0,024
-424,803	-200,000	-0,005	-0,034
-423,788	-200,000	-0,009	0,230
-422,773	-103,659	-0,047	-0,008
-421,759	-200,000	0,038	0,137
-420,744	211,381	0,066	0,077
-419,730	-46,740	-0,059	-0,021
-418,715	232,847	0,081	-0,098
-417,701	-1,936	-0,078	-0,040
-416,686	800,000	0,019	0,045
-415,671	27,372	0,102	0,063
-414,657	-33,360	0,071	-0,029
-413,642	-200,000	-0,007	0,048
-412,628	-104,673	0,131	-0,022
-411,613	-20,478	0,060	-0,027
-410,598	-3,840	-0,034	0,017
-409,584	138,450	-0,033	-0,032
-408,569	-200,000	0,038	0,186
-407,555	-200,000	0,021	0,209
-406,540	213,106	0,096	0,111
-405,525	27,858	0,030	-0,019
-404,511	800,000	0,087	-0,253
-403,496	142,428	-0,114	-0,111
-402,482	161,282	-0,024	0,024
-401,467	-153,001	-0,099	-0,005
-400,452	-200,000	0,021	0,075
-399,438	-74,300	-0,090	-0,024
-398,423	299,905	-0,047	-0,064
-397,409	-54,325	0,054	-0,018
-396,394	-66,898	-0,085	-0,024
-395,379	-66,515	0,049	-0,014
-394,365	-144,234	0,075	0,005
-393,350	726,880	0,039	0,077
-392,336	59,208	0,052	-0,037
-391,321	761,588	0,037	-0,073
-390,306	-116,040	-0,105	0,014
-389,292	139,376	-0,041	-0,040
-388,277	-35,013	-0,111	0,044
-387,263	-89,681	0,124	0,026
-386,248	15,968	0,059	0,034
-385,233	24,097	0,145	-0,088
-384,219	-200,000	-0,005	-0,090
-383,204	510,354	-0,082	-0,140
-382,190	661,991	0,082	-0,155
-381,175	-130,819	0,094	-0,009
-380,160	48,049	0,162	-0,111
-379,146	591,711	-0,116	0,211
-378,131	800,000	0,052	0,113
-377,117	800,000	-0,037	-0,111
-376,102	800,000	-0,027	0,077
-375,088	-31,494	0,059	0,024
-374,073	480,957	-0,027	0,044
-373,058	-200,000	0,011	0,157
-372,044	-143,404	-0,066	0,005
-371,029	232,115	-0,048	0,058
-370,015	115,338	0,082	0,073
-369,000	242,291	-0,116	-0,142
-367,985	800,000	-0,037	0,098
-366,971	553,447	0,097	-0,171
-365,956	-200,000	-0,021	-0,119
-364,942	665,176	0,064	-0,121
-363,927	160,616	0,013	-0,014
-362,912	-193,022	-0,094	0,001
-361,898	-200,000	-0,017	-0,071
-360,883	-200,000	0,028	-0,133
-359,869	-200,000	0,019	-0,148
-358,854	488,582	-0,053	-0,089
-357,839	148,565	-0,023	0,023
-356,825	-16,943	-0,095	0,044
-355,810	800,000	0,063	0,191
-354,796	-200,000	-0,002	0,036
-353,781	45,046	-0,047	-0,032
-352,766	-15,506	-0,092	-0,043
-351,752	415,093	-0,014	0,021
-350,737	202,481	0,077	0,087
-349,723	800,000	0,024	-0,073
-348,708	21,102	0,134	-0,080
-347,693	-194,199	-0,036	-0,000
-346,679	374,494	0,034	-0,050
-345,664	-200,000	-0,032	-0,130
-344,650	-200,000	0,028	-0,103
-343,635	151,518	-0,069	0,069
-342,620	73,200	-0,022	-0,017
-341,606	-1,269	0,117	-0,060
-340,591	-200,000	-0,018	0,092
-339,577	29,216	-0,081	-0,051
-338,562	369,794	0,035	0,052
-337,548	-37,208	-0,116	-0,045
-336,533	77,715	0,072	0,056
-335,518	-200,000	0,021	0,195
-334,504	-53,558	-0,096	-0,032
-333,489	800,000	0,009	-0,026
-332,475	-200,000	-0,013	-0,126
-331,460	-200,000	0,005	0,080
-330,445	712,306	0,047	0,092
-329,431	-157,409	0,212	0,009
-328,416	21,049	0,061	0,036
-327,402	43,063	-0,048	0,032
-326,387	-200,000	-0,022	-0,071
-325,372	-26,971	0,046	-0,020
-324,358	241,817	0,003	-0,003
-323,343	213,401	-0,053	-0,061
-322,329	-117,297	0,049	-0,006
-321,314	-200,000	-0,013	-0,104
-320,299	-128,465	-0,152	-0,016
-319,285	-200,000	-0,011	-0,044
-318,270	-115,118	-0,109	0,015
-317,256	-95,544	-0,029	-0,006
-316,241	-200,000	-0,033	0,115
-315,226	247,719	0,071	0,087
-314,212	-106,471	0,131	0,021
-313,197	-200,000	-0,026	0,115
-312,183	-20,215	0,151	0,068
-311,168	-23,083	0,198	0,087
-310,153	-200,000	0,014	-0,060
-309,139	335,436	0,019	-0,028
-308,124	90,378	0,070	-0,057
-307,110	-71,556	-0,090	-0,024
-306,095	540,585	0,061	0,106
-305,080	-200,000	-0,019	0,100
-304,066	117,177	-0,057	-0,051
-303,051	465,823	0,032	-0,053
-302,037	-77,626	-0,075	0,019
-301,022	-1,343	0,045	0,023
-300,008	-45,326	0,147	-0,053
-298,993	47,463	-0,073	0,049
-297,978	61,990	0,096	-0,070
-296,964	463,780	-0,018	-0,030
-295,949	390,041	0,033	-0,051
-294,935	800,000	0,032	-0,091
-293,920	800,000	0,053	0,130
-292,905	-132,482	0,121	0,011
-291,891	-200,000	-0,008	0,170
-290,876	-200,000	0,030	0,167
-289,862	71,074	0,153	-0,116
-288,847	148,397	-0,098	-0,096
-287,832	-85,860	0,035	-0,008
-286,818	-200,000	-0,035	0,114
-285,803	-27,485	-0,061	-0,026
-284,789	579,615	0,037	-0,066
-283,774	-88,511	0,177	0,038
-282,759	-200,000	-0,048	0,000
-281,745	399,326	-0,060	0,092
-280,730	76,802	0,087	0,068
-279,716	109,395	0,029	-0,025
-278,701	14,564	0,055	0,031
-277,686	171,619	-0,018	0,019
-276,672	-200,000	0,013	-0,051
-275,657	111,112	0,099	0,087
-274,643	69,462	-0,085	-0,064
-273,628	-66,723	-0,048	0,014
-272,613	594,828	0,028	-0,051
-271,599	51,545	0,044	0,030
-270,584	-57,078	0,044	-0,014
-269,570	270,267	-0,107	0,137
-268,555	135,606	0,132	0,125
-267,540	-99,002	-0,124	-0,023
-266,526	105,419	0,078	-0,067
-265,511	-200,000	-0,006	0,079
-264,497	79,944	-0,038	-0,030
-263,482	71,228	0,040	-0,030
-262,467	248,614	-0,083	0,103
-261,453	800,000	0,043	0,094
-260,438	-6,129	-0,043	-0,021
-259,424	-143,599	-0,083	0,006
-258,409	286,665	0,051	0,067
-257,395	-200,000	0,019	0,113
-256,380	163,857	0,027	0,028
-255,365	-31,945	-0,128	0,052
-254,351	-75,255	0,153	0,040
-253,336	422,099	0,063	0,099
-252,322	-200,000	0,002	0,050
-251,307	800,000	-0,023	0,049
-250,292	178,709	-0,005	-0,005
-249,278	800,000	-0,020	-0,056
-248,263	-157,983	0,204	-0,009
-247,249	84,166	0,038	-0,031
-246,234	800,000	0,052	-0,123
-245,219	24,931	-0,105	-0,064
-244,205	-200,000	-0,001	-0,155
-243,190	-5,871	0,042	-0,021
-242,176	-121,938	0,101	0,012
-241,161	-99,661	-0,034	0,006
-240,146	108,942	-0,045	0,039
-239,132	-19,366	0,150	0,068
-238,117	-77,492	-0,051	0,013
-237,103	399,935	-0,014	-0,021
-236,088	-42,742	0,055	-0,020
-235,073	-101,419	-0,054	0,009
-234,059	-158,429	0,031	0,001
-233,044	191,172	-0,053	0,058
-232,030	102,815	-0,111	0,094
-231,015	667,012	-0,038	-0,072
-230,000	-9,767	-0,034	-0,017
-228,986	-200,000	-0,004	0,090
-227,971	268,165	0,070	0,089
-226,957	490,725	-0,084	-0,141
-225,942	-152,525	0,086	0,004
-224,927	369,745	-0,072	-0,106
-223,913	-50,548	-0,100	-0,034
-222,898	74,834	0,057	-0,044
-221,884	40,325	-0,114	-0,075
-220,869	-192,442	0,121	-0,001
-219,855	27,915	0,094	-0,058
-218,840	-136,079	0,052	0,004
-217,825	800,000	0,025	-0,058
-216,811	-46,557	-0,133	-0,047
-215,796	531,465	-0,014	-0,024
-214,782	11,315	0,010	-0,005
-213,767	-200,000	-0,030	0,105
-212,752	-41,281	0,073	0,027
-211,738	800,000	0,038	-0,090
-210,723	54,182	-0,086	0,060
-209,709	48,928	-0,103	-0,070
-208,694	-200,000	0,011	0,127
-207,679	395,592	-0,091	-0,139
-206,665	-200,000	0,011	-0,052
-205,650	-187,840	-0,057	-0,001
-204,636	-200,000	0,007	0,070
-203,621	-2,062	-0,057	-0,029
-202,606	358,204	-0,028	-0,041
-201,592	-183,914	-0,136	0,002
-200,577	54,417	-0,088	0,061
-199,563	-29,600	0,076	-0,031
-198,548	-29,136	0,019	-0,008
-197,533	-200,000	0,035	0,213
-196,519	85,390	0,053	0,042
-195,504	378,617	-0,067	0,101
-194,490	800,000	0,045	0,118
-193,475	-200,000	0,000	0,045
-192,460	-200,000	-0,019	0,078
-191,446	419,596	-0,016	-0,025
-190,431	218,150	0,171	0,199
-189,417	-200,000	0,031	0,156
-188,402	379,923	0,143	0,214
-187,387	350,725	-0,086	-0,124
-186,373	263,467	0,058	-0,073
-185,358	188,589	0,029	0,031
-184,344	-64,990	-0,050	0,015
-183,329	-200,000	-0,005	0,044
-182,315	3,857	0,090	0,048
-181,300	18,026	0,025	0,014
-180,285	-200,000	-0,005	-0,037
-179,271	-173,813	0,122	-0,003
-178,256	80,928	-0,051	-0,040
-177,242	-200,000	-0,047	0,000
-176,227	-200,000	0,007	0,077
-175,212	800,000	-0,009	-0,019
-174,198	-9,200	0,144	0,070
-173,183	160,218	0,050	0,051
-172,169	48,828	-0,081	-0,055
-171,154	-200,000	0,002	-0,013
-170,139	250,943	-0,075	0,093
-169,125	50,236	-0,072	0,049
-168,110	800,000	0,051	-0,136
-167,096	-91,114	-0,144	-0,030
-166,081	143,044	-0,016	0,016
-165,066	33,659	-0,052	-0,033
-164,052	-28,614	-0,083	-0,035
-163,037	800,000	-0,044	0,095
-162,023	508,040	0,105	-0,178
-161,008	95,015	-0,089	0,074
-159,993	-200,000	-0,006	-0,036
-158,979	800,000	0,042	0,118
-157,964	-200,000	-0,014	-0,140
-156,950	-200,000	0,016	0,084
-155,935	412,563	0,036	0,057
-154,920	61,565	-0,109	0,079
-153,906	54,169	-0,047	-0,033
-152,891	144,532	-0,034	0,033
-151,877	-152,706	0,143	-0,007
-150,862	97,363	0,060	-0,050
-149,847	-103,639	-0,101	-0,017
-148,833	-200,000	-0,015	0,090
-147,818	793,498	0,107	-0,215
-146,804	277,006	0,064	-0,082
-145,789	800,000	-0,020	0,047
-144,775	-200,000	0,005	0,140
-143,760	624,726	-0,017	-0,031
-142,745	-112,071	-0,178	-0,026
-141,731	800,000	0,056	-0,167
-140,716	-200,000	-0,026	0,099
-139,702	-134,823	0,093	0,008
-138,687	118,204	-0,029	-0,026
-137,672	-34,348	-0,052	0,021
-136,658	-127,286	-0,132	0,014
-135,643	406,650	-0,072	-0,111
-134,629	113,067	0,077	-0,068
-133,614	-200,000	-0,019	-0,115
-132,599	-200,000	-0,014	-0,047
-131,585	16,767	0,089	0,051
-130,570	-200,000	0,001	0,020
-129,556	-200,000	-0,020	0,120
-128,541	800,000	0,025	-0,068
-127,526	253,416	0,027	0,034
-126,512	800,000	0,015	0,036
-125,497	87,933	0,040	0,033
-124,483	-110,902	0,202	0,030
-123,468	-26,006	0,074	-0,031
-122,453	-58,506	-0,093	0,029
-121,439	800,000	0,025	-0,080
-120,424	-39,720	-0,063	-0,024
