DTS Sentinel unit serial number:	SN410029Multiplexer serial number:	ORYXHardware model number:	OX2-SRSoftware version number:	ORYX F/W v4,00 Oryx Data Collector v3.7.2.0data status	okinstallation	B4 Nyhavnadifferential loss correction	single-endedforward channel	channel 2reverse channel	N/Adate	2023/12/18time	18:45:13forward acquisition time	300,00reverse acquisition time	0,00gamma	499,1914k internal	0,3124k external	0,3124temperature offset calibration	1,0000default loss term (dB/km)	0,3820temperature slope calibration	1,0000multiplexer offset coefficient	1,0000multiplexer slope coefficient	1,0000fibre end	0,00T internal ref (°C)	21,94T ext. ref 1 (°C)	6,97T ext. ref 2 (°C)	6,95length (m)	temperature (°C)	Stokes	anti-Stokes-744,400	-200,000	0,022	-0,257
-743,385	16,751	-0,159	0,094
-742,371	800,000	0,051	-0,159
-741,356	122,246	-0,169	0,157
-740,342	-90,256	-0,148	-0,032
-739,327	-66,273	-0,257	0,076
-738,312	800,000	-0,065	-0,136
-737,298	-89,927	-0,196	-0,042
-736,283	40,626	0,122	-0,082
-735,269	130,166	-0,200	0,190
-734,254	77,552	-0,015	-0,012
-733,239	-120,027	-0,360	-0,045
-732,225	106,357	0,068	0,060
-731,210	43,836	-0,024	-0,016
-730,196	-200,000	-0,014	-0,059
-729,181	-200,000	0,030	-0,148
-728,167	-200,000	0,007	-0,245
-727,152	-123,994	-0,107	0,012
-726,137	-104,232	0,071	-0,012
-725,123	-79,318	0,127	-0,032
-724,108	-1,466	-0,036	0,019
-723,094	800,000	-0,060	-0,138
-722,079	228,609	-0,051	-0,062
-721,064	-200,000	-0,007	0,054
-720,050	6,016	-0,126	0,069
-719,035	800,000	0,011	0,022
-718,021	-200,000	-0,031	-0,214
-717,006	-22,519	-0,147	0,066
-715,991	74,380	-0,047	0,037
-714,977	104,479	0,072	-0,063
-713,962	-81,206	-0,128	0,031
-712,948	231,410	-0,061	-0,075
-711,933	682,028	0,076	-0,149
-710,918	68,444	-0,067	0,051
-709,904	800,000	-0,026	-0,086
-708,889	117,155	-0,088	0,081
-707,875	186,200	-0,042	0,046
-706,860	181,771	-0,052	0,057
-705,845	144,874	0,095	-0,095
-704,831	800,000	-0,015	-0,039
-703,816	-109,484	0,009	0,001
-702,802	-200,000	-0,004	-0,115
-701,787	48,941	-0,057	-0,040
-700,772	-200,000	-0,027	-0,136
-699,758	243,274	0,004	-0,005
-698,743	800,000	-0,044	-0,091
-697,729	-84,210	0,108	-0,025
-696,714	228,845	0,043	0,053
-695,699	80,479	-0,092	0,073
-694,685	26,584	-0,120	-0,075
-693,670	-39,630	-0,073	-0,028
-692,656	258,236	0,021	-0,027
-691,641	-83,640	0,040	-0,010
-690,627	-200,000	-0,012	-0,153
-689,612	-86,094	-0,058	0,013
-688,597	-62,951	-0,155	-0,047
-687,583	572,300	-0,056	-0,103
-686,568	-119,316	0,129	0,016
-685,554	55,385	-0,093	0,067
-684,539	-96,844	0,033	0,006
-683,524	800,000	-0,040	0,104
-682,510	-200,000	0,001	0,066
-681,495	42,041	-0,124	-0,083
-680,481	-200,000	-0,016	0,067
-679,466	417,486	-0,057	-0,090
-678,451	-200,000	-0,021	-0,072
-677,437	189,278	-0,055	-0,061
-676,422	-200,000	0,004	0,042
-675,408	162,934	-0,035	-0,036
-674,393	98,450	-0,092	0,079
-673,378	753,519	-0,049	0,098
-672,364	-113,628	-0,049	-0,007
-671,349	-200,000	0,001	-0,058
-670,335	-95,370	0,094	-0,019
-669,320	440,618	0,044	0,072
-668,305	82,503	0,064	-0,052
-667,291	-48,413	-0,057	-0,020
-666,276	-200,000	-0,008	-0,093
-665,262	719,303	-0,016	-0,032
-664,247	645,429	-0,044	-0,084
-663,232	-200,000	0,006	-0,052
-662,218	800,000	-0,032	-0,077
-661,203	-200,000	-0,018	0,094
-660,189	770,573	-0,066	0,133
-659,174	23,595	-0,032	-0,019
-658,159	467,869	-0,171	-0,286
-657,145	-76,006	-0,088	-0,023
-656,130	788,936	0,008	-0,017
-655,116	12,153	-0,133	-0,076
-654,101	-200,000	-0,014	-0,146
-653,086	-200,000	-0,006	-0,048
-652,072	-77,725	-0,057	-0,015
-651,057	-91,470	-0,141	0,030
-650,043	-11,418	-0,032	-0,016
-649,028	-200,000	-0,004	-0,037
-648,014	800,000	0,032	0,083
-646,999	-200,000	0,001	0,149
-645,984	-44,465	0,041	0,015
-644,970	163,479	0,089	-0,093
-643,955	-200,000	-0,040	-0,145
-642,941	-200,000	-0,012	-0,099
-641,926	285,372	-0,012	-0,016
-640,911	-200,000	-0,018	0,083
-639,897	686,053	-0,039	0,076
-638,882	650,054	-0,031	-0,060
-637,868	-8,566	0,110	-0,055
-636,853	-84,326	-0,068	-0,016
-635,838	-200,000	-0,002	-0,089
-634,824	-159,278	-0,121	0,005
-633,809	-3,449	-0,052	-0,027
-632,795	-63,884	0,110	0,033
-631,780	3,981	0,033	0,018
-630,765	319,504	-0,088	-0,124
-629,751	-200,000	-0,023	-0,171
-628,736	-200,000	-0,038	-0,176
-627,722	-200,000	0,004	-0,032
-626,707	687,876	-0,048	0,094
-625,692	-200,000	0,013	0,124
-624,678	40,568	0,072	0,048
-623,663	-101,367	0,021	0,004
-622,649	-86,031	-0,022	0,005
-621,634	800,000	-0,057	-0,126
-620,619	-24,434	-0,095	-0,042
-619,605	800,000	-0,047	0,143
-618,590	-52,610	0,107	-0,037
-617,576	314,530	0,040	-0,057
-616,561	-98,862	-0,027	-0,005
-615,546	-20,946	0,127	-0,057
-614,532	-20,588	-0,108	-0,049
-613,517	420,035	-0,075	-0,120
-612,503	39,641	-0,024	-0,016
-611,488	-98,616	-0,043	0,008
-610,474	103,652	0,064	0,055
-609,459	-131,312	-0,167	0,016
-608,444	-90,199	-0,039	-0,008
-607,430	-32,454	-0,096	-0,040
-606,415	-103,314	-0,104	-0,018
-605,401	94,002	-0,038	0,032
-604,386	800,000	0,055	0,156
-603,371	800,000	0,015	-0,045
-602,357	-68,539	0,036	-0,010
-601,342	-154,941	-0,134	0,006
-600,328	114,453	-0,050	0,045
-599,313	230,887	-0,017	0,021
-598,298	-154,211	-0,138	0,007
-597,284	184,340	0,029	0,032
-596,269	-1,660	0,046	0,024
-595,255	297,266	0,055	-0,075
-594,240	-124,600	-0,102	-0,012
-593,225	-200,000	-0,001	-0,022
-592,211	650,258	-0,029	0,056
-591,196	17,814	0,098	0,057
-590,182	135,583	0,044	0,042
-589,167	-200,000	0,018	0,102
-588,152	149,128	0,096	0,096
-587,138	127,035	0,042	0,039
-586,123	-200,000	-0,003	0,013
-585,109	211,059	-0,101	-0,118
-584,094	374,131	0,074	-0,111
-583,079	-200,000	0,016	0,070
-582,065	-200,000	0,023	-0,097
-581,050	-23,506	0,057	0,025
-580,036	294,964	-0,079	-0,107
-579,021	38,763	0,042	-0,028
-578,006	479,100	0,041	-0,070
-576,992	-109,991	0,050	0,008
-575,977	266,530	-0,038	-0,049
-574,963	-200,000	0,013	0,165
-573,948	577,743	0,034	0,061
-572,934	-200,000	0,009	-0,153
-571,919	243,684	-0,062	-0,078
-570,904	-17,737	-0,095	-0,044
-569,890	-200,000	0,018	-0,116
-568,875	-200,000	0,012	-0,139
-567,861	-200,000	0,026	0,126
-566,846	-200,000	-0,043	0,150
-565,831	84,733	-0,036	0,029
-564,817	800,000	0,014	-0,029
-563,802	-72,008	-0,087	-0,024
-562,788	708,063	-0,008	-0,016
-561,773	-200,000	0,000	-0,070
-560,758	-200,000	0,016	0,158
-559,744	800,000	-0,034	0,081
-558,729	613,747	-0,021	-0,038
-557,715	85,388	0,032	-0,026
-556,700	-100,386	-0,127	0,023
-555,685	-57,559	-0,064	-0,021
-554,671	23,381	0,181	-0,110
-553,656	166,184	0,055	0,057
-552,642	165,446	-0,035	0,037
-551,627	-200,000	-0,018	-0,208
-550,612	266,824	0,060	-0,078
-549,598	-92,256	-0,064	-0,013
-548,583	-200,000	0,002	0,042
-547,569	714,421	0,029	-0,058
-546,554	239,494	-0,024	0,030
-545,539	-19,917	0,166	-0,075
-544,525	300,416	0,089	-0,121
-543,510	-200,000	0,011	-0,140
-542,496	800,000	0,010	0,022
-541,481	221,972	0,013	0,015
-540,466	-19,774	-0,034	-0,015
-539,452	-34,183	-0,089	-0,036
-538,437	-155,069	0,092	0,004
-537,423	602,816	0,040	0,073
-536,408	209,231	0,088	0,102
-535,393	17,459	-0,036	-0,021
-534,379	301,695	0,073	0,100
-533,364	-200,000	-0,008	-0,075
-532,350	128,017	0,142	-0,133
-531,335	-7,309	0,097	0,048
-530,321	-200,000	0,021	0,224
-529,306	-122,964	-0,122	0,014
-528,291	-200,000	0,050	0,000
-527,277	65,153	0,019	-0,014
-526,262	290,785	-0,005	0,006
-525,248	-200,000	0,004	-0,034
-524,233	-200,000	-0,000	-0,021
-523,218	-8,586	0,037	-0,018
-522,204	-174,994	-0,072	0,001
-521,189	29,896	-0,015	-0,009
-520,175	-101,488	0,091	0,016
-519,160	211,902	0,082	-0,096
-518,145	131,422	-0,051	0,048
-517,131	-200,000	0,009	0,106
-516,116	166,379	-0,062	0,065
-515,102	635,405	0,038	-0,071
-514,087	-71,001	-0,073	-0,020
-513,072	324,824	-0,073	-0,103
-512,058	37,016	0,174	0,113
-511,043	138,050	-0,055	0,053
-510,029	-200,000	-0,007	0,038
-509,014	49,340	-0,020	0,014
-507,999	-4,056	-0,078	0,040
-506,985	-200,000	0,009	0,097
-505,970	-45,122	-0,040	-0,015
-504,956	800,000	-0,022	-0,065
-503,941	348,224	0,058	0,084
-502,926	-74,732	-0,122	0,032
-501,912	331,985	0,047	-0,068
-500,897	42,118	0,058	0,039
-499,883	67,472	-0,030	-0,023
-498,868	-200,000	-0,012	0,133
-497,853	67,864	-0,102	-0,077
-496,839	-154,977	-0,045	0,002
-495,824	-29,922	0,256	0,107
-494,810	-200,000	0,020	-0,114
-493,795	-200,000	0,002	-0,028
-492,781	50,893	-0,047	-0,033
-491,766	800,000	0,031	-0,083
-490,751	-200,000	0,006	-0,127
-489,737	5,341	0,088	0,048
-488,722	355,805	0,016	0,024
-487,708	35,610	0,076	0,049
-486,693	-81,453	0,072	0,017
-485,678	-34,620	-0,093	-0,038
-484,664	-126,325	-0,079	0,009
-483,649	-198,636	-0,199	0,001
-482,635	230,739	-0,034	0,041
-481,620	-8,576	0,057	-0,028
-480,605	38,116	-0,053	-0,035
-479,591	-82,538	0,054	0,013
-478,576	-73,068	-0,041	0,011
-477,562	621,708	-0,011	-0,020
-476,547	10,811	0,090	-0,050
-475,532	-200,000	0,001	-0,112
-474,518	-200,000	0,001	0,020
-473,503	581,482	-0,051	0,092
-472,489	328,429	0,053	-0,076
-471,474	-139,866	0,031	0,002
-470,459	800,000	-0,034	-0,085
-469,445	262,162	-0,034	-0,043
-468,430	102,916	0,064	-0,055
-467,416	800,000	0,032	-0,084
-466,401	324,643	0,036	-0,051
-465,386	-40,676	-0,074	-0,028
-464,372	20,508	-0,112	0,067
-463,357	-127,163	-0,049	0,005
-462,343	-91,388	-0,044	0,009
-461,328	-122,147	-0,065	0,008
-460,313	-156,702	0,096	0,004
-459,299	-200,000	0,003	0,020
-458,284	-76,671	0,075	0,019
-457,270	-200,000	-0,017	0,087
-456,255	-200,000	0,031	-0,169
-455,241	162,416	0,059	-0,061
-454,226	-124,461	0,036	-0,004
-453,211	-200,000	-0,004	0,037
-452,197	-182,148	0,118	0,002
-451,182	111,912	0,052	0,047
-450,168	-200,000	0,010	0,050
-449,153	-0,352	-0,030	-0,016
-448,138	-200,000	-0,002	-0,016
-447,124	-200,000	-0,003	-0,077
-446,109	-200,000	0,027	0,097
-445,095	5,691	-0,103	0,056
-444,080	4,850	0,112	-0,061
-443,065	800,000	0,040	0,129
-442,051	-200,000	0,021	0,119
-441,036	800,000	0,013	0,040
-440,022	18,039	0,013	-0,007
-439,007	-200,000	-0,001	-0,055
-437,992	-106,228	-0,053	-0,009
-436,978	-3,839	-0,075	-0,038
-435,963	84,361	-0,031	-0,025
-434,949	68,068	0,027	0,020
-433,934	38,549	-0,068	0,045
-432,919	-102,596	-0,122	-0,021
-431,905	258,842	-0,052	0,066
-430,890	130,681	0,036	0,034
-429,876	282,537	0,031	-0,041
-428,861	29,009	0,063	-0,039
-427,846	-200,000	0,019	-0,117
-426,832	8,284	0,009	-0,005
-425,817	23,266	-0,077	-0,046
-424,803	-157,229	0,019	-0,001
-423,788	800,000	0,029	-0,063
-422,773	-43,406	0,096	0,036
-421,759	-200,000	-0,001	0,008
-420,744	-17,979	0,095	-0,044
-419,730	435,468	-0,079	-0,127
-418,715	646,878	-0,058	0,110
-417,701	147,185	-0,042	-0,042
-416,686	-200,000	0,016	0,131
-415,671	800,000	0,064	0,142
-414,657	-200,000	0,030	0,160
-413,642	96,244	-0,011	0,009
-412,628	239,434	0,064	-0,078
-411,613	181,304	0,021	-0,023
-410,598	-200,000	-0,005	-0,173
-409,584	51,507	0,078	0,055
-408,569	-200,000	-0,018	-0,103
-407,555	-10,293	-0,091	0,044
-406,540	27,449	0,071	0,044
-405,525	460,403	0,062	0,103
-404,511	-129,053	-0,087	-0,009
-403,496	343,532	0,062	0,090
-402,482	729,170	-0,032	0,063
-401,467	-200,000	-0,029	0,158
-400,452	122,605	0,089	-0,082
-399,438	-165,446	-0,105	0,003
-398,423	-200,000	-0,009	-0,081
-397,409	177,794	0,059	-0,063
-396,394	800,000	0,023	0,069
-395,379	354,998	0,077	-0,113
-394,365	63,839	-0,044	0,033
-393,350	-52,150	0,139	-0,047
-392,336	-142,116	-0,025	-0,002
-391,321	-193,577	-0,067	0,000
-390,306	800,000	-0,099	-0,204
-389,292	-200,000	0,010	-0,121
-388,277	-200,000	-0,001	-0,104
-387,263	800,000	0,044	-0,090
-386,248	-200,000	0,030	0,197
-385,233	-200,000	0,026	0,109
-384,219	64,581	0,050	-0,037
-383,204	-200,000	0,008	-0,124
-382,190	671,666	-0,012	-0,023
-381,175	-151,704	0,056	0,003
-380,160	422,129	-0,013	0,021
-379,146	172,898	0,074	0,078
-378,131	-200,000	-0,003	0,119
-377,117	-52,884	0,049	0,017
-376,102	291,190	0,121	-0,162
-375,088	272,482	0,067	-0,087
-374,073	-70,264	-0,086	-0,024
-373,058	800,000	0,085	0,190
-372,044	27,514	0,044	-0,027
-371,029	-4,912	-0,082	-0,041
-370,015	-200,000	-0,007	0,044
-369,000	-19,497	-0,116	0,052
-367,985	-40,130	-0,123	-0,047
-366,971	-65,878	-0,139	-0,040
-365,956	800,000	0,018	0,048
-364,942	800,000	-0,015	0,046
-363,927	661,024	0,067	0,128
-362,912	-30,435	0,028	-0,011
-361,898	205,102	0,120	-0,136
-360,883	52,622	0,087	-0,061
-359,869	800,000	0,014	0,034
-358,854	-58,517	0,036	-0,011
-357,839	138,153	0,037	0,035
-356,825	-200,000	-0,001	0,048
-355,810	-39,458	-0,049	0,019
-354,796	-138,952	-0,157	-0,012
-353,781	800,000	-0,035	-0,111
-352,766	800,000	-0,046	0,128
-351,752	800,000	0,051	0,160
-350,737	-200,000	0,003	0,074
-349,723	-200,000	0,036	0,185
-348,708	-168,776	-0,057	-0,002
-347,693	192,583	-0,073	-0,081
-346,679	-200,000	-0,040	0,133
-345,664	65,945	0,074	-0,055
-344,650	5,738	-0,080	-0,043
-343,635	800,000	0,036	0,110
-342,620	60,495	-0,090	-0,066
-341,606	217,312	0,062	0,073
-340,591	343,877	-0,069	0,100
-339,577	-200,000	-0,024	-0,207
-338,562	-133,709	-0,034	0,003
-337,548	-200,000	0,002	-0,088
-336,533	507,821	0,029	-0,050
-335,518	-53,254	0,087	-0,029
-334,504	141,786	0,037	0,036
-333,489	-200,000	0,005	0,030
-332,475	-200,000	-0,016	-0,069
-331,460	29,303	-0,046	-0,028
-330,445	22,685	0,126	0,076
-329,431	-200,000	-0,003	0,143
-328,416	-200,000	0,000	0,023
-327,402	-37,573	-0,058	0,022
-326,387	-23,338	-0,104	0,046
-325,372	0,709	-0,120	-0,063
-324,358	30,297	0,079	-0,049
-323,343	290,379	0,052	-0,069
-322,329	800,000	-0,023	0,055
-321,314	3,994	0,050	0,027
-320,299	-80,862	0,020	-0,005
-319,285	-200,000	-0,025	0,108
-318,270	141,776	-0,125	-0,121
-317,256	-110,873	-0,092	0,014
-316,241	-46,756	-0,049	-0,017
-315,226	-11,142	0,081	-0,039
-314,212	-200,000	0,011	0,068
-313,197	800,000	-0,080	0,171
-312,183	361,256	0,074	0,109
-311,168	-79,770	0,112	-0,027
-310,153	526,127	0,025	-0,044
-309,139	179,563	0,058	0,062
-308,124	-200,000	0,010	-0,049
-307,110	800,000	0,013	0,031
-306,095	191,076	0,026	0,028
-305,080	-194,146	-0,007	0,000
-304,066	800,000	-0,023	0,072
-303,051	-179,505	-0,113	0,002
-302,037	-33,928	-0,070	-0,028
-301,022	186,801	-0,058	-0,063
-300,008	-194,341	0,098	-0,001
-298,993	203,567	0,077	0,088
-297,978	-9,034	0,051	-0,025
-296,964	128,645	-0,058	-0,054
-295,949	-200,000	0,018	-0,157
-294,935	148,816	-0,077	0,077
-293,920	-200,000	0,023	0,152
-292,905	-115,819	-0,076	-0,010
-291,891	-200,000	-0,003	0,224
-290,876	-122,272	-0,211	0,025
-289,862	800,000	-0,027	0,070
-288,847	334,587	0,091	-0,129
-287,832	800,000	0,034	-0,103
-286,818	-149,593	0,063	0,004
-285,803	-129,841	-0,010	-0,001
-284,789	-71,747	-0,066	0,018
-283,774	-56,544	0,073	0,024
-282,759	4,806	-0,044	0,024
-281,745	65,066	0,063	0,047
-280,730	40,961	-0,108	-0,071
-279,716	39,866	-0,110	-0,072
-278,701	55,420	0,036	-0,025
-277,686	-51,940	0,124	0,042
-276,672	800,000	0,046	0,127
-275,657	-200,000	-0,011	0,043
-274,643	-0,545	-0,141	-0,073
-273,628	199,226	0,026	-0,030
-272,613	37,323	0,031	0,020
-271,599	-56,117	-0,103	-0,033
-270,584	58,309	-0,128	0,092
-269,570	-10,079	0,161	0,078
-268,555	-14,442	-0,081	0,038
-267,540	155,260	0,024	0,024
-266,526	318,711	-0,045	-0,063
-265,511	-200,000	-0,015	-0,152
-264,497	41,440	0,060	-0,040
-263,482	316,420	0,039	-0,054
-262,467	800,000	-0,039	0,121
-261,453	-90,926	0,047	-0,010
-260,438	-97,309	-0,120	-0,023
-259,424	-125,278	-0,133	-0,015
-258,409	-72,265	0,108	0,029
-257,395	292,561	0,062	0,083
-256,380	108,494	-0,088	0,077
-255,365	-200,000	-0,009	0,070
-254,351	800,000	-0,013	0,029
-253,336	-100,122	0,007	-0,001
-252,322	111,580	-0,099	-0,088
-251,307	228,543	0,057	0,068
-250,292	49,590	0,039	0,027
-249,278	52,571	0,016	-0,011
-248,263	-149,222	0,078	0,004
-247,249	-200,000	-0,026	0,267
-246,234	272,581	0,085	-0,110
-245,219	-112,494	-0,100	-0,014
-244,205	280,091	-0,008	-0,011
-243,190	24,207	0,093	0,056
-242,176	-98,118	-0,101	0,019
-241,161	-55,604	0,088	0,029
-240,146	-28,370	0,048	-0,020
-239,132	800,000	0,040	-0,104
-238,117	320,488	0,047	0,066
-237,103	8,007	0,048	-0,026
-236,088	-200,000	0,002	-0,212
-235,073	-59,959	0,047	0,014
-234,059	159,858	0,074	-0,076
-233,044	295,170	0,068	-0,091
-232,030	446,705	0,029	0,047
-231,015	800,000	0,036	0,101
-230,000	-34,347	-0,143	-0,057
-228,986	800,000	0,056	0,115
-227,971	470,436	-0,034	0,056
-226,957	-200,000	0,042	0,234
-225,942	-200,000	-0,023	0,089
-224,927	-200,000	0,002	-0,011
-223,913	205,821	-0,075	-0,085
-222,898	-200,000	0,022	-0,082
-221,884	446,755	0,050	-0,080
-220,869	-79,319	0,037	-0,009
-219,855	-14,583	-0,042	0,020
-218,840	800,000	0,040	0,090
-217,825	-200,000	-0,044	0,180
-216,811	404,159	-0,054	-0,084
-215,796	73,871	-0,038	0,029
-214,782	-92,147	-0,039	0,008
-213,767	-158,831	0,102	-0,004
-212,752	-200,000	0,023	-0,115
-211,738	800,000	-0,014	0,042
-210,723	-45,010	-0,196	-0,071
-209,709	-61,099	-0,075	0,023
-208,694	778,887	0,030	0,060
-207,679	-104,183	0,040	-0,007
-206,665	116,845	0,093	0,083
-205,650	-68,130	0,133	-0,038
-204,636	416,275	-0,081	0,127
-203,621	-124,054	0,031	0,003
-202,606	39,446	-0,072	0,047
-201,592	-200,000	0,008	-0,164
-200,577	-200,000	-0,034	-0,128
-199,563	-63,658	0,098	-0,029
-198,548	190,123	0,055	-0,060
-197,533	-56,916	-0,036	-0,012
-196,519	-94,946	0,056	0,011
-195,504	-200,000	-0,010	-0,048
-194,490	89,602	0,071	-0,058
-193,475	-21,572	-0,050	-0,022
-192,460	-189,020	0,079	-0,001
-191,446	-8,187	0,031	0,015
-190,431	-200,000	0,006	0,072
-189,417	-48,333	-0,057	-0,020
-188,402	0,407	0,090	-0,047
-187,387	-200,000	0,030	-0,098
-186,373	10,769	-0,121	-0,067
-185,358	-200,000	-0,013	-0,043
-184,344	-1,468	-0,076	0,039
-183,329	475,917	0,047	0,077
-182,315	162,651	-0,081	0,083
-181,300	20,809	-0,105	0,062
-180,285	-200,000	-0,008	-0,043
-179,271	759,416	-0,033	-0,065
-178,256	-61,306	0,046	-0,014
-177,242	187,686	0,075	0,082
-176,227	596,190	0,028	-0,051
-175,212	800,000	-0,003	0,008
-174,198	71,951	-0,085	0,064
-173,183	-200,000	0,013	-0,064
-172,169	170,026	-0,062	0,065
-171,154	10,369	-0,160	-0,089
-170,139	-69,052	0,098	0,027
-169,125	-58,198	0,165	0,052
-168,110	450,441	-0,089	-0,143
-167,096	-200,000	0,004	-0,092
-166,081	800,000	0,012	-0,031
-165,066	-200,000	0,003	-0,069
-164,052	-200,000	-0,006	0,027
-163,037	-63,442	0,049	0,015
-162,023	-17,829	0,151	0,069
-161,008	-200,000	0,000	0,014
-159,993	67,444	-0,113	0,084
-158,979	-90,224	-0,028	-0,006
-157,964	-15,918	-0,066	-0,030
-156,950	800,000	0,011	0,023
-155,935	792,511	0,007	-0,014
-154,920	800,000	0,032	0,078
-153,906	-103,419	-0,079	0,013
-152,891	-99,535	0,100	0,018
-151,877	276,839	0,112	-0,146
-150,862	19,073	-0,025	0,015
-149,847	-200,000	0,008	-0,063
-148,833	155,239	-0,063	-0,063
-147,818	35,570	-0,117	-0,075
-146,804	-80,579	-0,094	-0,023
-145,789	27,184	-0,201	0,122
-144,775	216,609	0,068	0,079
-143,760	423,780	-0,041	-0,065
-142,745	800,000	-0,017	-0,037
-141,731	-189,649	-0,162	-0,001
-140,716	1,042	0,064	-0,033
-139,702	-200,000	0,007	0,079
-138,687	-60,185	0,095	-0,029
-137,672	-200,000	0,016	-0,156
-136,658	-91,831	0,050	-0,010
-135,643	382,092	0,023	0,034
-134,629	146,252	-0,045	-0,044
-133,614	-200,000	0,014	-0,068
-132,599	-61,138	0,061	-0,019
-131,585	387,847	-0,033	-0,050
-130,570	76,391	0,110	-0,085
-129,556	77,507	-0,107	-0,083
-128,541	156,118	-0,033	0,033
-127,526	-54,273	-0,196	-0,064
-126,512	-76,337	-0,060	0,015
-125,497	-200,000	-0,015	0,067
-124,483	800,000	0,035	-0,103
-123,468	105,038	-0,044	0,038
-122,453	800,000	-0,023	-0,049
-121,439	23,521	-0,096	-0,057
-120,424	-12,329	0,035	0,017
-119,410	-200,000	-0,025	0,097
