DTS Sentinel unit serial number:	SN410029Multiplexer serial number:	ORYXHardware model number:	OX2-SRSoftware version number:	ORYX F/W v4,00 Oryx Data Collector v3.7.2.0data status	okinstallation	B4 Nyhavnadifferential loss correction	single-endedforward channel	channel 2reverse channel	N/Adate	2023/12/18time	22:55:13forward acquisition time	300,00reverse acquisition time	0,00gamma	499,1914k internal	0,3124k external	0,3124temperature offset calibration	1,0000default loss term (dB/km)	0,3820temperature slope calibration	1,0000multiplexer offset coefficient	1,0000multiplexer slope coefficient	1,0000fibre end	0,00T internal ref (°C)	21,98T ext. ref 1 (°C)	7,60T ext. ref 2 (°C)	7,72length (m)	temperature (°C)	Stokes	anti-Stokes-744,400	246,048	-0,042	-0,053
-743,385	143,020	-0,134	0,133
-742,371	800,000	-0,008	0,027
-741,356	175,558	-0,193	0,208
-740,342	23,330	0,106	-0,065
-739,327	92,155	-0,085	0,072
-738,312	-79,638	-0,048	0,012
-737,298	80,699	-0,211	0,170
-736,283	170,369	0,028	0,029
-735,269	18,487	-0,223	0,133
-734,254	74,367	-0,037	-0,029
-733,239	-90,985	-0,405	-0,086
-732,225	30,203	0,108	0,069
-731,210	-200,000	-0,001	0,135
-730,196	-200,000	0,047	-0,180
-729,181	-200,000	-0,003	-0,064
-728,167	-200,000	0,048	0,183
-727,152	-200,000	-0,028	-0,095
-726,137	-200,000	-0,016	-0,098
-725,123	-200,000	-0,013	0,000
-724,108	13,651	-0,130	-0,075
-723,094	71,595	0,040	-0,031
-722,079	118,940	-0,097	-0,089
-721,064	188,648	-0,069	0,077
-720,050	800,000	-0,009	-0,023
-719,035	-59,683	0,076	-0,024
-718,021	-156,938	-0,105	0,005
-717,006	-200,000	0,008	-0,038
-715,991	10,652	-0,101	-0,057
-714,977	59,650	-0,143	-0,105
-713,962	-57,500	-0,049	0,016
-712,948	-128,634	-0,024	-0,002
-711,933	216,504	0,077	0,092
-710,918	355,135	0,052	-0,077
-709,904	-40,930	-0,118	-0,045
-708,889	800,000	-0,048	-0,117
-707,875	-123,428	-0,034	-0,004
-706,860	-87,331	-0,129	0,029
-705,845	-200,000	0,024	0,081
-704,831	-200,000	-0,013	0,046
-703,816	79,553	-0,115	-0,092
-702,802	-19,594	0,052	-0,024
-701,787	39,510	-0,159	-0,106
-700,772	11,982	-0,018	0,010
-699,758	-21,426	-0,154	-0,070
-698,743	-41,947	0,046	0,018
-697,729	-200,000	0,054	0,207
-696,714	800,000	0,034	0,090
-695,699	-35,640	-0,127	-0,051
-694,685	-200,000	-0,019	0,145
-693,670	18,544	-0,060	-0,035
-692,656	-200,000	-0,012	-0,092
-691,641	-200,000	-0,012	0,064
-690,627	-70,571	-0,035	0,010
-689,612	-33,685	0,097	0,039
-688,597	13,681	-0,036	0,021
-687,583	800,000	-0,031	-0,082
-686,568	-115,631	-0,056	-0,008
-685,554	2,411	-0,071	-0,038
-684,539	-200,000	-0,018	-0,092
-683,524	-200,000	0,003	0,048
-682,510	-122,965	-0,133	-0,016
-681,495	800,000	0,091	0,216
-680,481	-144,974	-0,115	-0,008
-679,466	133,575	-0,034	0,033
-678,451	-200,000	0,023	-0,112
-677,437	222,862	-0,096	0,115
-676,422	-200,000	-0,022	-0,112
-675,408	-36,809	0,035	-0,014
-674,393	-200,000	0,009	-0,070
-673,378	-200,000	0,000	-0,102
-672,364	-200,000	0,002	-0,075
-671,349	-64,289	-0,024	0,007
-670,335	-4,950	-0,120	0,061
-669,320	748,888	0,048	0,096
-668,305	-19,487	-0,048	0,022
-667,291	-148,635	-0,113	-0,007
-666,276	800,000	-0,040	0,094
-665,262	-120,988	-0,128	0,016
-664,247	800,000	-0,020	0,060
-663,232	113,416	0,079	0,071
-662,218	800,000	-0,049	0,129
-661,203	-200,000	-0,025	0,119
-660,189	188,621	-0,080	-0,089
-659,174	-200,000	-0,014	0,077
-658,159	-192,236	-0,143	-0,001
-657,145	-39,140	-0,186	0,072
-656,130	214,493	0,070	0,083
-655,116	-200,000	-0,004	0,038
-654,101	-200,000	0,032	0,115
-653,086	459,266	-0,067	0,111
-652,072	-200,000	0,001	0,088
-651,057	679,266	-0,093	0,180
-650,043	-48,897	0,105	0,037
-649,028	-200,000	-0,025	-0,121
-648,014	-77,092	0,039	0,010
-646,999	800,000	0,013	-0,036
-645,984	297,599	-0,026	-0,035
-644,970	470,228	-0,063	-0,106
-643,955	800,000	0,039	0,083
-642,941	-24,112	-0,071	0,031
-641,926	800,000	-0,022	0,054
-640,911	800,000	-0,007	-0,021
-639,897	356,976	-0,047	-0,070
-638,882	-200,000	-0,006	0,176
-637,868	-200,000	-0,034	-0,161
-636,853	-93,055	-0,137	0,028
-635,838	-200,000	0,024	-0,156
-634,824	-200,000	0,010	0,040
-633,809	150,999	-0,082	0,083
-632,795	800,000	-0,068	0,157
-631,780	69,438	0,013	-0,010
-630,765	-121,945	-0,070	0,008
-629,751	-17,157	0,023	-0,011
-628,736	46,646	-0,055	-0,038
-627,722	-200,000	-0,032	-0,145
-626,707	-200,000	-0,014	0,079
-625,692	800,000	-0,046	0,103
-624,678	109,878	-0,027	0,024
-623,663	800,000	-0,021	-0,043
-622,649	800,000	-0,024	-0,068
-621,634	59,889	-0,153	-0,112
-620,619	-200,000	-0,001	-0,040
-619,605	96,173	0,102	0,086
-618,590	144,986	-0,098	0,097
-617,576	-200,000	-0,009	0,047
-616,561	402,897	0,084	-0,131
-615,546	111,397	-0,118	-0,106
-614,532	-23,103	-0,010	0,004
-613,517	-158,288	0,124	0,005
-612,503	172,693	0,044	-0,047
-611,488	-11,074	-0,098	-0,048
-610,474	800,000	0,023	-0,049
-609,459	-26,403	-0,085	-0,037
-608,444	800,000	0,016	0,036
-607,430	165,071	0,089	-0,094
-606,415	800,000	-0,028	-0,073
-605,401	63,673	0,034	0,026
-604,386	-200,000	-0,014	0,171
-603,371	800,000	0,006	0,018
-602,357	-115,419	-0,073	0,010
-601,342	-102,379	-0,133	-0,023
-600,328	800,000	-0,009	0,018
-599,313	4,095	-0,123	0,067
-598,298	-139,541	0,088	-0,007
-597,284	-129,137	0,135	-0,014
-596,269	-200,000	0,005	-0,017
-595,255	-78,862	0,038	-0,010
-594,240	211,729	0,045	-0,052
-593,225	800,000	0,036	-0,117
-592,211	171,284	-0,064	-0,068
-591,196	535,906	0,025	-0,045
-590,182	199,489	-0,090	-0,103
-589,167	-200,000	0,002	-0,008
-588,152	-200,000	0,009	0,082
-587,138	48,411	0,029	-0,020
-586,123	-194,748	-0,007	0,000
-585,109	800,000	-0,024	-0,065
-584,094	192,802	0,091	-0,102
-583,079	-107,573	-0,131	-0,021
-582,065	-140,280	-0,025	-0,002
-581,050	106,432	-0,031	-0,027
-580,036	800,000	-0,034	0,077
-579,021	-200,000	-0,009	-0,044
-578,006	-160,430	-0,157	0,006
-576,992	-200,000	-0,004	0,019
-575,977	-200,000	0,005	0,045
-574,963	330,025	-0,072	-0,103
-573,948	-200,000	-0,027	0,126
-572,934	-200,000	0,000	0,094
-571,919	-50,940	0,042	0,015
-570,904	-200,000	-0,011	-0,047
-569,890	800,000	0,021	-0,045
-568,875	324,696	-0,080	0,114
-567,861	606,071	-0,035	-0,065
-566,846	391,321	0,065	0,100
-565,831	209,858	-0,037	0,043
-564,817	-200,000	-0,015	-0,065
-563,802	-200,000	0,003	0,119
-562,788	-200,000	-0,004	-0,093
-561,773	-121,271	0,091	0,011
-560,758	556,616	0,020	-0,036
-559,744	800,000	0,012	-0,030
-558,729	20,621	-0,098	-0,059
-557,715	62,491	0,068	-0,050
-556,700	551,177	0,043	-0,076
-555,685	-104,197	-0,116	-0,020
-554,671	800,000	-0,027	-0,056
-553,656	800,000	-0,048	-0,101
-552,642	-200,000	0,001	0,090
-551,627	-200,000	0,015	0,053
-550,612	741,631	0,040	-0,080
-549,598	-59,818	-0,081	-0,026
-548,583	-16,055	-0,047	0,022
-547,569	-177,521	0,106	-0,002
-546,554	-200,000	0,015	0,109
-545,539	35,572	0,161	0,104
-544,525	-200,000	0,033	0,302
-543,510	155,051	-0,098	0,100
-542,496	-200,000	-0,004	-0,074
-541,481	-200,000	-0,032	-0,212
-540,466	800,000	-0,024	-0,076
-539,452	-200,000	-0,013	0,154
-538,437	-70,112	0,152	-0,042
-537,423	109,274	0,055	0,049
-536,408	-39,773	-0,099	-0,038
-535,393	103,903	-0,071	0,061
-534,379	147,858	-0,094	0,093
-533,364	256,752	0,095	0,121
-532,350	800,000	0,052	-0,115
-531,335	-200,000	0,000	-0,073
-530,321	-200,000	-0,011	0,114
-529,306	-26,972	-0,124	0,053
-528,291	-200,000	0,014	-0,091
-527,277	-185,012	-0,197	0,002
-526,262	-45,559	0,118	0,043
-525,248	-128,861	0,159	0,016
-524,233	-166,150	-0,134	-0,004
-523,218	120,384	0,031	0,029
-522,204	37,892	0,032	-0,021
-521,189	-15,295	-0,134	-0,063
-520,175	30,107	0,062	0,039
-519,160	450,826	-0,077	-0,126
-518,145	304,935	0,033	-0,046
-517,131	-122,780	0,167	0,020
-516,116	188,914	0,080	-0,089
-515,102	-76,977	0,063	-0,016
-514,087	800,000	0,030	0,082
-513,072	123,800	-0,083	-0,077
-512,058	-11,483	-0,056	0,027
-511,043	800,000	0,042	0,093
-510,029	800,000	0,028	-0,077
-509,014	-64,313	0,096	0,029
-507,999	60,861	-0,075	0,055
-506,985	-115,455	0,025	-0,003
-505,970	-200,000	-0,006	-0,027
-504,956	-72,183	0,025	-0,007
-503,941	227,492	-0,099	0,119
-502,926	425,849	0,097	0,154
-501,912	-200,000	0,006	-0,066
-500,897	369,276	0,092	-0,138
-499,883	6,473	-0,102	0,056
-498,868	-93,581	-0,140	-0,028
-497,853	-111,520	0,127	0,019
-496,839	85,152	0,060	-0,049
-495,824	-1,786	0,017	-0,009
-494,810	800,000	0,059	0,133
-493,795	247,764	0,094	-0,118
-492,781	0,561	0,050	0,026
-491,766	800,000	-0,023	0,059
-490,751	121,452	-0,101	-0,093
-489,737	782,401	-0,026	-0,053
-488,722	37,867	-0,110	0,072
-487,708	800,000	-0,028	0,068
-486,693	415,302	-0,015	-0,024
-485,678	-200,000	0,002	0,030
-484,664	-94,180	-0,049	0,010
-483,649	-126,868	-0,107	-0,011
-482,635	800,000	-0,034	-0,108
-481,620	800,000	0,031	-0,087
-480,605	319,669	-0,061	-0,085
-479,591	393,521	0,047	0,072
-478,576	-200,000	-0,012	-0,071
-477,562	-28,572	-0,117	-0,050
-476,547	-200,000	-0,009	-0,068
-475,532	-98,360	-0,044	0,008
-474,518	-200,000	-0,014	-0,134
-473,503	-99,281	0,121	-0,022
-472,489	33,581	-0,028	-0,018
-471,474	514,068	0,025	0,044
-470,459	2,826	-0,051	0,027
-469,445	-200,000	0,021	0,077
-468,430	800,000	0,071	-0,168
-467,416	-200,000	0,007	-0,080
-466,401	-45,198	0,060	0,022
-465,386	-31,712	-0,036	0,015
-464,372	547,890	-0,004	0,007
-463,357	63,631	-0,124	-0,092
-462,343	105,098	0,067	-0,058
-461,328	800,000	0,030	-0,071
-460,313	83,155	-0,022	0,018
-459,299	-134,525	0,079	0,007
-458,284	-179,972	-0,066	-0,001
-457,270	436,839	0,033	-0,053
-456,255	529,882	0,025	-0,043
-455,241	-200,000	0,004	0,070
-454,226	-71,046	0,086	0,024
-453,211	-78,108	0,048	0,012
-452,197	800,000	-0,057	0,180
-451,182	-4,701	-0,166	0,084
-450,168	193,161	-0,028	0,031
-449,153	-200,000	0,021	-0,111
-448,138	71,052	-0,057	-0,043
-447,124	-139,380	-0,025	-0,002
-446,109	354,301	0,065	-0,095
-445,095	231,966	0,040	-0,049
-444,080	398,795	0,002	-0,003
-443,065	37,700	0,079	0,051
-442,051	-123,334	-0,152	0,018
-441,036	107,434	0,090	-0,079
-440,022	-30,398	0,104	-0,043
-439,007	208,641	0,141	0,162
-437,992	-92,173	0,026	-0,005
-436,978	64,029	0,106	0,078
-435,963	-128,392	0,104	-0,011
-434,949	378,327	0,046	-0,069
-433,934	184,275	-0,060	-0,065
-432,919	237,638	-0,096	-0,117
-431,905	105,953	0,059	0,052
-430,890	-113,591	0,066	0,009
-429,876	396,521	0,068	0,104
-428,861	-108,217	0,032	0,005
-427,846	-200,000	0,009	-0,207
-426,832	45,707	-0,054	-0,036
-425,817	159,608	-0,025	-0,025
-424,803	627,474	0,020	-0,037
-423,788	749,620	-0,056	-0,112
-422,773	56,771	0,138	0,099
-421,759	-96,276	0,085	-0,016
-420,744	146,058	0,057	-0,057
-419,730	800,000	-0,026	-0,073
-418,715	800,000	-0,048	-0,100
-417,701	508,521	-0,029	0,050
-416,686	488,029	0,014	0,023
-415,671	-200,000	0,008	0,045
-414,657	274,916	-0,040	-0,053
-413,642	143,999	-0,054	-0,053
-412,628	371,253	-0,033	-0,050
-411,613	-130,277	-0,211	-0,021
-410,598	349,702	0,032	-0,047
-409,584	431,543	-0,028	-0,045
-408,569	-200,000	-0,007	-0,050
-407,555	157,068	0,062	0,063
-406,540	-128,902	-0,095	-0,010
-405,525	-56,425	-0,052	0,017
-404,511	-200,000	-0,010	-0,044
-403,496	74,951	0,190	-0,147
-402,482	67,764	0,016	-0,012
-401,467	380,470	0,085	0,128
-400,452	408,792	0,047	0,074
-399,438	579,677	-0,061	-0,110
-398,423	-96,187	0,059	-0,011
-397,409	800,000	-0,006	0,017
-396,394	-35,207	-0,042	0,017
-395,379	12,092	0,042	-0,023
-394,365	195,664	-0,060	0,067
-393,350	800,000	0,036	0,074
-392,336	121,800	0,100	0,092
-391,321	202,186	0,049	-0,056
-390,306	6,396	-0,093	0,051
-389,292	19,818	-0,018	-0,011
-388,277	-29,415	0,132	0,055
-387,263	184,488	0,101	0,110
-386,248	227,094	0,093	0,111
-385,233	-63,886	0,121	0,036
-384,219	56,620	-0,037	0,027
-383,204	-174,525	0,107	-0,002
-382,190	122,937	-0,137	-0,126
-381,175	-134,708	-0,058	-0,005
-380,160	14,755	0,124	0,071
-379,146	773,746	0,020	-0,041
-378,131	-73,143	0,040	0,011
-377,117	-123,947	0,069	0,008
-376,102	-21,046	-0,088	0,040
-375,088	-200,000	-0,001	-0,093
-374,073	182,379	-0,151	-0,164
-373,058	299,638	0,048	0,065
-372,044	-200,000	0,014	0,069
-371,029	-200,000	-0,004	0,210
-370,015	-4,988	-0,033	0,016
-369,000	88,496	0,060	-0,049
-367,985	-200,000	0,001	-0,057
-366,971	-3,953	-0,051	-0,026
-365,956	223,816	0,062	0,074
-364,942	800,000	-0,039	0,117
-363,927	365,560	0,100	0,149
-362,912	-200,000	-0,039	0,173
-361,898	65,007	-0,025	0,018
-360,883	-35,865	0,018	0,007
-359,869	163,900	0,067	-0,070
-358,854	-200,000	0,000	0,050
-357,839	-14,206	-0,045	0,021
-356,825	-165,071	0,002	0,000
-355,810	-2,924	0,089	0,046
-354,796	-25,663	-0,062	0,027
-353,781	-40,524	-0,069	-0,026
-352,766	-200,000	0,014	-0,056
-351,752	327,829	0,114	0,161
-350,737	-98,710	-0,156	0,029
-349,723	-47,123	-0,134	-0,048
-348,708	-55,953	0,056	-0,018
-347,693	-7,907	0,061	-0,030
-346,679	-6,135	-0,104	-0,052
-345,664	214,199	0,098	-0,114
-344,650	-155,293	0,024	-0,001
-343,635	461,723	-0,041	-0,067
-342,620	-43,147	0,088	0,032
-341,606	-200,000	0,001	0,097
-340,591	14,612	-0,051	-0,029
-339,577	739,370	-0,058	-0,114
-338,562	-79,173	0,044	-0,011
-337,548	-200,000	0,005	-0,034
-336,533	-144,326	0,091	0,006
-335,518	8,728	-0,085	0,047
-334,504	92,380	-0,040	0,033
-333,489	234,680	-0,038	-0,046
-332,475	91,512	0,036	0,030
-331,460	-200,000	-0,000	-0,084
-330,445	-200,000	0,017	0,069
-329,431	113,726	-0,042	0,037
-328,416	134,092	0,052	0,049
-327,402	-200,000	0,013	-0,076
-326,387	99,936	-0,129	0,110
-325,372	306,770	0,082	-0,112
-324,358	-46,699	-0,089	-0,032
-323,343	-64,195	-0,080	-0,024
-322,329	-200,000	-0,029	-0,129
-321,314	162,806	-0,063	0,065
-320,299	-200,000	-0,012	0,054
-319,285	116,987	-0,034	-0,030
-318,270	252,946	-0,032	-0,040
-317,256	356,033	-0,052	-0,076
-316,241	48,719	-0,090	-0,062
-315,226	104,079	0,084	-0,072
-314,212	280,838	0,087	-0,114
-313,197	-94,779	0,146	0,029
-312,183	341,008	-0,020	-0,029
-311,168	683,140	0,022	0,042
-310,153	-122,582	-0,028	0,003
-309,139	-38,332	-0,087	0,034
-308,124	-107,493	0,171	0,027
-307,110	-200,000	0,001	0,023
-306,095	258,660	-0,045	0,057
-305,080	-52,932	0,107	-0,036
-304,066	800,000	-0,033	-0,090
-303,051	228,045	-0,023	-0,027
-302,037	658,998	0,042	0,079
-301,022	220,713	-0,098	-0,115
-300,008	-175,872	0,100	0,002
-298,993	-200,000	-0,015	0,105
-297,978	-92,252	0,093	-0,019
-296,964	-35,250	-0,142	0,056
-295,949	-80,060	0,064	0,016
-294,935	-200,000	0,001	0,047
-293,920	800,000	-0,015	0,044
-292,905	38,362	0,057	0,037
-291,891	130,735	0,115	0,108
-290,876	-200,000	-0,010	0,055
-289,862	-200,000	-0,006	0,096
-288,847	276,997	-0,076	-0,100
-287,832	800,000	0,053	-0,127
-286,818	90,904	0,038	-0,031
-285,803	-4,668	-0,025	0,013
-284,789	-155,091	-0,046	0,002
-283,774	-53,177	0,080	-0,027
-282,759	-200,000	-0,017	0,080
-281,745	-200,000	0,007	-0,025
-280,730	2,055	0,020	0,011
-279,716	-200,000	-0,012	-0,043
-278,701	-8,890	0,165	0,081
-277,686	-171,671	-0,094	0,002
-276,672	-200,000	0,009	-0,041
-275,657	128,319	-0,067	-0,062
-274,643	2,121	0,055	-0,029
-273,628	33,010	0,037	0,023
-272,613	473,887	-0,041	0,067
-271,599	589,509	0,012	-0,022
-270,584	537,411	0,021	-0,037
-269,570	-200,000	-0,023	0,116
-268,555	628,727	-0,039	0,073
-267,540	383,059	0,067	-0,100
-266,526	85,349	-0,036	-0,029
-265,511	177,418	-0,067	0,071
-264,497	-200,000	-0,014	0,107
-263,482	-134,843	-0,123	0,011
-262,467	434,024	0,083	-0,132
-261,453	303,543	0,063	0,085
-260,438	-106,787	-0,099	0,016
-259,424	-200,000	0,035	-0,153
-258,409	407,579	0,074	0,115
-257,395	292,543	0,065	-0,086
-256,380	527,699	0,021	0,036
-255,365	-200,000	-0,041	0,204
-254,351	110,262	0,012	0,011
-253,336	-4,359	-0,133	0,067
-252,322	28,835	-0,048	-0,030
-251,307	-95,313	-0,160	-0,031
-250,292	-44,920	-0,066	0,024
-249,278	20,123	-0,029	-0,017
-248,263	2,770	0,089	0,047
-247,249	-200,000	-0,015	0,102
-246,234	-50,688	0,108	-0,037
-245,219	-200,000	0,026	0,156
-244,205	-200,000	0,004	0,174
-243,190	386,141	-0,073	-0,110
-242,176	241,021	0,075	0,092
-241,161	254,715	0,088	0,111
-240,146	43,258	0,035	0,024
-239,132	456,686	0,086	0,139
-238,117	-110,453	-0,227	-0,034
-237,103	127,515	-0,063	-0,059
-236,088	-76,581	0,065	0,017
-235,073	-82,133	0,040	0,009
-234,059	-200,000	0,022	0,147
-233,044	372,391	-0,031	0,046
-232,030	173,092	-0,019	0,020
-231,015	800,000	-0,041	-0,091
-230,000	51,237	-0,053	-0,037
-228,986	-200,000	-0,014	-0,133
-227,971	-200,000	-0,001	0,059
-226,957	43,473	-0,055	0,036
-225,942	-200,000	-0,031	0,187
-224,927	371,775	-0,048	0,071
-223,913	800,000	-0,024	0,051
-222,898	-33,890	0,029	0,012
-221,884	-66,323	-0,115	-0,033
-220,869	90,495	0,136	0,111
-219,855	-172,218	0,179	-0,004
-218,840	567,153	0,063	0,113
-217,825	-200,000	-0,040	0,150
-216,811	-200,000	0,013	-0,131
-215,796	173,378	-0,027	0,029
-214,782	-200,000	-0,006	-0,123
-213,767	25,610	0,096	-0,058
-212,752	-23,202	0,050	-0,022
-211,738	34,998	0,072	0,046
-210,723	25,899	-0,037	-0,022
-209,709	-71,491	-0,098	0,026
-208,694	800,000	-0,038	-0,103
-207,679	-1,079	-0,071	-0,036
-206,665	-126,240	0,153	0,016
-205,650	398,735	-0,020	-0,031
-204,636	645,678	0,045	0,084
-203,621	128,300	0,048	-0,045
-202,606	-60,865	-0,120	0,037
-201,592	-200,000	-0,016	-0,060
-200,577	-151,122	0,097	0,005
-199,563	37,622	-0,066	-0,043
-198,548	159,158	0,044	0,045
-197,533	-128,750	0,045	0,005
-196,519	-200,000	-0,009	-0,043
-195,504	-162,529	0,028	-0,001
-194,490	-85,373	-0,085	-0,019
-193,475	485,995	-0,029	-0,048
-192,460	-200,000	0,007	-0,036
-191,446	-29,286	0,051	-0,021
-190,431	11,608	-0,080	-0,045
-189,417	-94,277	0,001	-0,000
-188,402	-42,620	-0,026	-0,009
-187,387	116,017	0,065	0,058
-186,373	-200,000	0,021	-0,082
-185,358	-65,020	-0,048	-0,014
-184,344	293,251	0,050	0,067
-183,329	-200,000	-0,001	0,010
-182,315	-200,000	0,087	0,000
-181,300	-37,941	0,102	0,039
-180,285	147,517	0,148	-0,145
-179,271	-25,581	-0,114	-0,049
-178,256	33,713	-0,041	0,026
-177,242	-200,000	0,010	0,064
-176,227	-200,000	0,016	0,058
-175,212	800,000	0,060	-0,131
-174,198	-114,743	0,062	-0,009
-173,183	-115,597	-0,126	0,017
-172,169	-4,793	0,055	0,027
-171,154	-15,480	0,078	-0,036
-170,139	-156,735	-0,074	-0,003
-169,125	800,000	0,015	-0,037
-168,110	-200,000	0,021	-0,071
-167,096	-200,000	-0,006	-0,093
-166,081	411,870	0,040	0,063
-165,066	108,327	0,040	0,035
-164,052	800,000	-0,028	-0,090
-163,037	-110,453	-0,065	-0,010
-162,023	282,769	0,059	-0,077
-161,008	153,946	0,142	0,141
-159,993	-35,708	-0,058	0,023
-158,979	-200,000	0,016	0,062
-157,964	306,728	-0,025	0,034
-156,950	800,000	0,026	0,074
-155,935	-85,349	0,079	-0,018
-154,920	800,000	-0,022	0,049
-153,906	206,997	-0,081	0,092
-152,891	-200,000	-0,017	0,077
-151,877	422,443	-0,040	0,063
-150,862	-189,720	0,068	-0,001
-149,847	-108,538	0,108	0,017
-148,833	-89,630	-0,026	0,005
-147,818	90,828	0,166	0,136
-146,804	800,000	-0,038	0,085
-145,789	157,227	0,072	0,073
-144,775	137,756	-0,115	-0,110
-143,760	-2,364	0,074	0,037
-142,745	-7,587	-0,144	-0,071
-141,731	-129,523	-0,133	-0,013
-140,716	109,284	-0,045	-0,040
-139,702	189,594	-0,175	0,191
-138,687	313,929	0,063	0,086
-137,672	800,000	-0,039	-0,115
-136,658	494,476	-0,038	0,064
-135,643	-76,739	-0,017	-0,004
-134,629	345,698	-0,034	-0,048
-133,614	114,256	-0,031	-0,028
-132,599	58,095	0,085	-0,061
-131,585	413,804	0,038	0,060
-130,570	-135,439	0,105	-0,009
-129,556	166,533	-0,034	0,035
-128,541	-200,000	-0,008	0,099
-127,526	110,357	0,101	-0,088
-126,512	505,608	0,039	-0,065
-125,497	117,343	0,037	-0,033
-124,483	-150,917	-0,124	0,007
-123,468	-164,610	-0,078	-0,003
-122,453	22,165	-0,036	-0,021
-121,439	-158,609	-0,101	-0,004
-120,424	-200,000	0,022	-0,103
-119,410	461,218	0,097	0,158
