DTS Sentinel unit serial number:	SN410029Multiplexer serial number:	ORYXHardware model number:	OX2-SRSoftware version number:	ORYX F/W v4,00 Oryx Data Collector v3.7.2.0data status	okinstallation	B4 Nyhavnadifferential loss correction	single-endedforward channel	channel 2reverse channel	N/Adate	2023/12/15time	19:55:13forward acquisition time	300,00reverse acquisition time	0,00gamma	499,1914k internal	0,3137k external	0,3137temperature offset calibration	1,0000default loss term (dB/km)	0,3820temperature slope calibration	1,0000multiplexer offset coefficient	1,0000multiplexer slope coefficient	1,0000fibre end	0,00T internal ref (°C)	20,21T ext. ref 1 (°C)	5,83T ext. ref 2 (°C)	5,96length (m)	temperature (°C)	Stokes	anti-Stokes-744,400	181,913	-0,047	-0,051
-743,385	-101,563	-0,251	0,045
-742,371	-69,615	0,140	-0,039
-741,356	92,817	-0,179	0,150
-740,342	701,920	-0,025	0,049
-739,327	-131,450	-0,133	-0,013
-738,312	-140,358	0,110	-0,008
-737,298	9,372	-0,207	0,116
-736,283	-78,778	0,080	0,020
-735,269	348,313	-0,101	0,149
-734,254	-42,104	-0,039	-0,015
-733,239	-53,662	-0,402	-0,135
-732,225	30,223	0,183	0,116
-731,210	152,136	0,093	0,094
-730,196	171,825	0,080	-0,086
-729,181	273,739	0,051	-0,067
-728,167	-55,010	0,065	-0,021
-727,152	63,521	-0,165	0,123
-726,137	53,625	-0,125	-0,089
-725,123	-200,000	-0,016	0,120
-724,108	-200,000	-0,001	0,016
-723,094	-35,408	-0,050	-0,020
-722,079	-200,000	0,018	-0,118
-721,064	33,588	-0,051	0,033
-720,050	-47,598	-0,098	0,035
-719,035	-200,000	0,021	-0,091
-718,021	-200,000	0,014	-0,059
-717,006	-103,207	-0,066	0,011
-715,991	-200,000	-0,015	0,161
-714,977	648,953	-0,051	-0,097
-713,962	620,970	-0,050	-0,094
-712,948	310,689	0,035	-0,049
-711,933	171,302	-0,064	0,069
-710,918	11,057	-0,131	0,074
-709,904	800,000	-0,033	-0,082
-708,889	-200,000	0,001	-0,070
-707,875	288,892	-0,023	-0,031
-706,860	-71,286	0,021	-0,006
-705,845	-200,000	0,013	0,106
-704,831	-44,934	-0,048	0,018
-703,816	23,344	0,134	0,082
-702,802	311,289	0,039	0,055
-701,787	-132,579	-0,157	0,015
-700,772	201,925	-0,071	-0,082
-699,758	171,786	-0,074	-0,079
-698,743	84,730	0,014	0,011
-697,729	-140,770	0,035	-0,003
-696,714	800,000	0,037	0,085
-695,699	-200,000	0,005	0,018
-694,685	41,335	0,094	-0,063
-693,670	-55,999	-0,085	-0,028
-692,656	800,000	-0,034	-0,091
-691,641	475,756	0,037	-0,062
-690,627	800,000	0,042	0,102
-689,612	496,769	-0,013	-0,022
-688,597	-65,234	0,104	-0,031
-687,583	-4,466	-0,164	-0,083
-686,568	-29,743	-0,029	-0,012
-685,554	-90,656	0,077	-0,016
-684,539	538,998	0,032	-0,056
-683,524	224,020	0,039	-0,046
-682,510	-200,000	0,020	0,106
-681,495	-160,716	-0,105	0,004
-680,481	78,389	-0,115	0,091
-679,466	35,095	-0,039	-0,025
-678,451	-133,664	-0,080	-0,007
-677,437	-20,079	-0,055	0,025
-676,422	45,952	0,053	0,036
-675,408	-113,168	-0,050	-0,007
-674,393	-47,748	0,043	0,015
-673,378	-44,736	-0,098	-0,036
-672,364	327,038	-0,016	0,023
-671,349	-1,720	-0,075	0,039
-670,335	800,000	0,024	-0,053
-669,320	430,324	-0,031	-0,049
-668,305	800,000	-0,064	0,179
-667,291	430,929	0,008	-0,012
-666,276	-185,403	0,150	-0,002
-665,262	-0,495	-0,052	0,027
-664,247	-200,000	0,023	0,165
-663,232	464,240	0,028	-0,047
-662,218	14,264	-0,105	-0,060
-661,203	-79,171	0,046	-0,011
-660,189	137,308	-0,062	0,060
-659,174	800,000	-0,033	-0,081
-658,159	154,153	-0,110	0,111
-657,145	-122,103	-0,086	-0,010
-656,130	-200,000	-0,003	-0,052
-655,116	-200,000	0,023	-0,121
-654,101	-141,541	0,143	0,011
-653,086	-200,000	0,032	-0,120
-652,072	-132,205	-0,122	0,012
-651,057	15,684	-0,074	0,043
-650,043	-121,149	-0,109	-0,013
-649,028	250,247	0,081	0,101
-648,014	684,359	0,023	-0,045
-646,999	444,499	0,018	0,029
-645,984	-126,213	0,070	-0,008
-644,970	-43,722	-0,042	0,015
-643,955	-200,000	-0,081	-0,274
-642,941	-200,000	-0,042	-0,151
-641,926	438,663	0,029	-0,046
-640,911	-119,244	-0,074	0,009
-639,897	800,000	0,002	0,006
-638,882	-98,896	-0,097	-0,018
-637,868	256,024	-0,071	-0,090
-636,853	-138,924	-0,085	0,007
-635,838	138,459	0,071	-0,069
-634,824	-5,955	-0,011	0,006
-633,809	800,000	-0,053	-0,125
-632,795	357,579	-0,092	-0,135
-631,780	-200,000	0,014	0,082
-630,765	-85,180	0,075	0,017
-629,751	64,949	-0,084	-0,063
-628,736	11,731	-0,082	-0,046
-627,722	257,767	0,047	0,060
-626,707	800,000	0,053	0,159
-625,692	-181,285	0,260	-0,004
-624,678	76,240	-0,089	-0,070
-623,663	800,000	-0,032	0,077
-622,649	-30,408	0,110	-0,046
-621,634	-200,000	0,009	-0,145
-620,619	15,326	0,080	0,046
-619,605	-200,000	-0,023	0,094
-618,590	-61,914	0,112	-0,034
-617,576	-200,000	-0,010	-0,035
-616,561	-200,000	-0,011	-0,041
-615,546	56,181	-0,163	-0,117
-614,532	-200,000	0,012	-0,040
-613,517	15,759	-0,062	0,036
-612,503	-200,000	0,008	-0,098
-611,488	800,000	-0,039	0,114
-610,474	267,822	-0,051	-0,066
-609,459	313,560	0,040	0,055
-608,444	-200,000	-0,004	-0,032
-607,430	-200,000	0,006	0,114
-606,415	800,000	-0,063	-0,138
-605,401	-92,169	-0,056	0,012
-604,386	-66,989	0,128	-0,037
-603,371	-100,745	0,064	-0,012
-602,357	-35,165	-0,132	0,053
-601,342	5,977	0,029	-0,016
-600,328	800,000	-0,056	-0,144
-599,313	-61,343	-0,061	-0,019
-598,298	53,110	-0,171	0,121
-597,284	-200,000	0,038	0,136
-596,269	560,945	0,061	0,110
-595,255	470,777	-0,064	0,107
-594,240	-200,000	-0,010	0,063
-593,225	800,000	-0,084	-0,174
-592,211	560,297	0,051	0,091
-591,196	-200,000	-0,003	-0,011
-590,182	-76,353	-0,089	0,023
-589,167	-3,990	-0,014	-0,007
-588,152	-200,000	0,035	0,151
-587,138	-11,420	-0,061	-0,029
-586,123	-200,000	-0,023	-0,087
-585,109	-76,354	0,038	0,010
-584,094	129,640	0,088	-0,083
-583,079	302,027	0,048	0,065
-582,065	-1,245	0,092	0,048
-581,050	421,440	-0,017	0,028
-580,036	422,420	-0,069	-0,110
-579,021	-84,052	0,022	0,005
-578,006	-93,575	-0,064	0,013
-576,992	-135,059	0,061	0,005
-575,977	-192,324	-0,070	0,000
-574,963	-12,153	-0,111	-0,053
-573,948	800,000	0,041	0,127
-572,934	78,166	-0,120	-0,094
-571,919	46,075	-0,042	-0,028
-570,904	-39,156	-0,283	-0,109
-569,890	80,778	0,104	-0,083
-568,875	116,121	-0,027	0,024
-567,861	800,000	0,036	-0,112
-566,846	-130,236	-0,004	0,000
-565,831	23,911	0,121	0,074
-564,817	-27,271	-0,053	0,023
-563,802	414,876	-0,023	-0,036
-562,788	-157,001	-0,076	-0,003
-561,773	294,739	0,012	0,016
-560,758	-30,395	0,090	0,038
-559,744	-21,960	0,163	-0,073
-558,729	27,038	0,078	-0,048
-557,715	16,024	-0,056	-0,032
-556,700	-6,349	0,053	-0,026
-555,685	-128,236	-0,093	0,010
-554,671	368,969	0,041	-0,061
-553,656	800,000	-0,054	-0,111
-552,642	-123,536	0,109	0,013
-551,627	-68,502	-0,130	-0,037
-550,612	-200,000	0,001	-0,039
-549,598	426,668	0,125	-0,200
-548,583	-14,522	0,056	-0,026
-547,569	105,139	0,043	0,038
-546,554	111,701	0,107	0,095
-545,539	-126,505	0,045	-0,005
-544,525	-83,612	0,187	-0,044
-543,510	-200,000	-0,009	-0,095
-542,496	-85,172	-0,098	-0,022
-541,481	22,325	-0,054	-0,032
-540,466	800,000	-0,044	-0,093
-539,452	-200,000	0,003	0,026
-538,437	800,000	0,013	0,031
-537,423	-180,098	-0,090	-0,001
-536,408	88,848	-0,010	0,008
-535,393	-56,248	-0,085	0,028
-534,379	128,619	-0,088	0,083
-533,364	-200,000	0,026	0,089
-532,350	-200,000	0,010	0,107
-531,335	424,151	-0,018	0,028
-530,321	78,852	-0,095	0,075
-529,306	-9,320	-0,086	0,042
-528,291	201,928	-0,060	0,068
-527,277	-200,000	-0,003	0,011
-526,262	-121,691	-0,105	-0,013
-525,248	192,672	0,079	-0,088
-524,233	800,000	0,015	-0,031
-523,218	-109,131	0,043	-0,007
-522,204	125,228	-0,070	-0,065
-521,189	-42,461	0,038	0,014
-520,175	457,713	0,098	-0,161
-519,160	800,000	0,028	0,067
-518,145	-200,000	0,026	-0,100
-517,131	-200,000	0,001	-0,115
-516,116	800,000	0,073	0,172
-515,102	-200,000	0,021	0,160
-514,087	-200,000	0,016	-0,119
-513,072	-200,000	0,041	-0,184
-512,058	138,947	0,018	-0,018
-511,043	-0,177	-0,117	0,061
-510,029	-49,064	0,115	-0,040
-509,014	800,000	0,021	0,047
-507,999	-200,000	-0,015	-0,078
-506,985	39,522	-0,104	-0,069
-505,970	293,523	-0,071	-0,096
-504,956	12,017	-0,077	-0,044
-503,941	-200,000	-0,004	-0,038
-502,926	324,220	0,011	-0,016
-501,912	25,711	-0,067	-0,041
-500,897	-115,154	-0,050	-0,007
-499,883	42,084	0,047	0,031
-498,868	481,873	-0,067	-0,112
-497,853	195,981	-0,074	0,082
-496,839	-200,000	-0,004	0,038
-495,824	-151,262	-0,099	-0,005
-494,810	-51,671	0,009	-0,003
-493,795	-64,403	-0,039	-0,011
-492,781	-42,571	-0,090	-0,033
-491,766	-200,000	0,015	-0,129
-490,751	-200,000	-0,008	-0,082
-489,737	-131,368	0,112	0,011
-488,722	48,444	-0,028	-0,020
-487,708	-200,000	-0,033	0,123
-486,693	315,781	-0,044	0,061
-485,678	-53,953	-0,058	0,019
-484,664	800,000	0,055	0,112
-483,649	126,064	0,034	-0,032
-482,635	800,000	-0,049	0,138
-481,620	-200,000	0,033	0,117
-480,605	116,399	0,095	0,086
-479,591	492,702	0,049	0,083
-478,576	3,204	-0,031	0,017
-477,562	490,348	0,008	-0,014
-476,547	-200,000	-0,005	0,045
-475,532	344,788	0,029	-0,041
-474,518	-97,878	0,102	-0,019
-473,503	-200,000	-0,012	0,164
-472,489	800,000	0,064	-0,147
-471,474	-200,000	0,013	-0,094
-470,459	156,321	-0,099	-0,100
-469,445	-200,000	0,010	0,046
-468,430	-22,855	-0,036	-0,016
-467,416	-65,148	0,107	0,031
-466,401	-183,361	0,075	-0,001
-465,386	196,693	0,048	0,054
-464,372	-200,000	0,007	-0,036
-463,357	311,452	0,036	0,050
-462,343	-200,000	0,003	0,096
-461,328	294,958	-0,042	-0,056
-460,313	-118,685	0,050	-0,006
-459,299	53,290	-0,053	0,038
-458,284	114,731	0,095	-0,085
-457,270	-96,959	0,017	-0,003
-456,255	-90,133	0,069	0,015
-455,241	800,000	0,036	-0,077
-454,226	18,720	0,126	0,074
-453,211	75,769	0,059	0,046
-452,197	252,950	0,039	0,049
-451,182	800,000	0,019	0,051
-450,168	-200,000	-0,011	-0,042
-449,153	-9,650	-0,040	-0,019
-448,138	-23,578	-0,102	0,045
-447,124	-200,000	-0,014	0,068
-446,109	320,857	-0,025	0,035
-445,095	800,000	0,046	0,129
-444,080	17,156	0,030	-0,018
-443,065	800,000	0,008	0,019
-442,051	-152,261	-0,097	-0,005
-441,036	-200,000	0,003	0,014
-440,022	-200,000	0,003	0,022
-439,007	454,974	-0,033	-0,054
-437,992	188,132	-0,070	-0,077
-436,978	-200,000	-0,000	0,040
-435,963	-200,000	-0,003	-0,069
-434,949	-53,126	0,099	0,033
-433,934	-14,914	-0,066	-0,031
-432,919	800,000	-0,036	-0,090
-431,905	222,034	-0,121	-0,143
-430,890	-171,645	-0,035	0,001
-429,876	-200,000	0,008	0,030
-428,861	466,581	0,053	0,088
-427,846	-126,435	-0,106	0,011
-426,832	-83,261	-0,018	-0,004
-425,817	-200,000	-0,003	0,055
-424,803	-200,000	-0,018	0,090
-423,788	660,496	0,079	0,151
-422,773	-8,657	0,056	-0,027
-421,759	370,185	0,035	-0,051
-420,744	625,590	-0,022	0,041
-419,730	27,928	0,027	0,017
-418,715	-10,290	0,039	-0,019
-417,701	98,163	0,028	-0,023
-416,686	-200,000	0,000	0,014
-415,671	264,512	0,089	0,114
-414,657	92,154	-0,058	0,048
-413,642	-93,920	0,071	0,014
-412,628	-117,930	0,096	-0,012
-411,613	-200,000	0,017	-0,091
-410,598	-200,000	-0,022	-0,149
-409,584	-89,742	0,220	-0,047
-408,569	103,066	-0,076	0,065
-407,555	800,000	0,027	0,074
-406,540	-103,202	0,110	-0,019
-405,525	212,751	0,030	0,034
-404,511	20,473	-0,089	-0,053
-403,496	87,019	0,040	-0,033
-402,482	-7,072	-0,020	0,010
-401,467	608,915	-0,029	0,053
-400,452	236,978	0,067	-0,081
-399,438	-94,056	0,092	-0,018
-398,423	800,000	0,086	0,195
-397,409	4,344	-0,014	0,007
-396,394	-79,681	-0,039	0,010
-395,379	304,081	-0,048	0,066
-394,365	800,000	0,033	-0,090
-393,350	-108,163	-0,075	0,012
-392,336	41,110	0,053	-0,035
-391,321	-113,990	-0,053	-0,007
-390,306	57,887	-0,060	0,043
-389,292	233,437	-0,088	-0,107
-388,277	-142,702	0,055	0,004
-387,263	-200,000	-0,008	-0,061
-386,248	-85,840	0,138	0,031
-385,233	-21,635	0,064	-0,029
-384,219	-169,782	-0,102	-0,003
-383,204	149,244	0,112	-0,111
-382,190	-200,000	0,026	-0,119
-381,175	244,516	0,050	0,061
-380,160	-14,765	-0,097	0,046
-379,146	-16,435	-0,140	0,065
-378,131	800,000	0,010	-0,030
-377,117	2,132	-0,112	0,059
-376,102	800,000	-0,045	0,092
-375,088	-157,358	0,146	-0,006
-374,073	46,937	-0,040	-0,027
-373,058	45,373	0,092	0,062
-372,044	97,436	0,030	0,026
-371,029	0,745	-0,083	0,044
-370,015	-200,000	0,000	-0,071
-369,000	-200,000	-0,056	-0,185
-367,985	-200,000	0,034	-0,175
-366,971	-123,751	-0,056	-0,006
-365,956	413,610	0,023	0,036
-364,942	-30,599	-0,016	-0,007
-363,927	-28,850	-0,082	-0,034
-362,912	-159,258	0,095	-0,004
-361,898	-36,238	-0,108	-0,042
-360,883	250,429	-0,037	-0,046
-359,869	-200,000	-0,013	-0,118
-358,854	480,944	0,024	0,041
-357,839	292,354	0,053	-0,070
-356,825	-200,000	0,007	0,110
-355,810	-93,913	0,167	-0,033
-354,796	800,000	0,048	0,145
-353,781	-150,084	-0,111	-0,006
-352,766	29,443	-0,149	-0,092
-351,752	800,000	-0,059	0,131
-350,737	162,482	0,068	0,070
-349,723	467,325	0,057	-0,093
-348,708	-127,456	0,077	0,008
-347,693	-200,000	0,008	-0,033
-346,679	115,440	0,131	0,117
-345,664	239,442	-0,043	-0,052
-344,650	-68,111	0,085	-0,024
-343,635	25,743	0,029	0,018
-342,620	-200,000	0,009	0,064
-341,606	-200,000	0,008	-0,064
-340,591	-162,319	0,029	-0,001
-339,577	69,118	-0,069	0,052
-338,562	-131,721	-0,041	-0,004
-337,548	93,390	0,111	-0,092
-336,533	71,175	0,022	-0,017
-335,518	-17,835	0,065	-0,030
-334,504	-76,851	0,103	-0,026
-333,489	-200,000	-0,010	0,092
-332,475	-29,303	-0,023	-0,010
-331,460	-32,129	-0,144	-0,058
-330,445	-17,065	0,085	-0,039
-329,431	-200,000	-0,056	0,237
-328,416	110,224	-0,105	0,092
-327,402	144,032	-0,125	-0,122
-326,387	-24,248	0,068	-0,030
-325,372	-200,000	0,002	-0,087
-324,358	174,697	-0,160	-0,169
-323,343	238,302	-0,021	-0,025
-322,329	800,000	-0,033	-0,073
-321,314	-200,000	-0,035	0,125
-320,299	-200,000	-0,008	0,104
-319,285	-164,101	0,122	-0,004
-318,270	611,011	0,058	0,106
-317,256	103,515	-0,094	-0,080
-316,241	157,452	-0,024	0,024
-315,226	800,000	0,019	0,058
-314,212	-40,164	-0,101	0,038
-313,197	-14,401	-0,072	0,034
-312,183	-53,287	-0,057	-0,019
-311,168	-200,000	0,009	-0,097
-310,153	800,000	0,033	0,090
-309,139	211,814	-0,040	-0,045
-308,124	383,600	0,087	-0,131
-307,110	434,486	0,065	0,104
-306,095	800,000	0,035	0,112
-305,080	65,559	0,061	0,045
-304,066	-78,219	-0,097	0,024
-303,051	-125,376	-0,077	0,008
-302,037	193,229	-0,069	-0,076
-301,022	-200,000	0,009	0,105
-300,008	117,516	0,095	0,086
-298,993	-83,274	0,154	-0,036
-297,978	255,933	-0,055	-0,069
-296,964	-200,000	0,017	-0,081
-295,949	354,204	-0,036	0,052
-294,935	320,958	-0,025	-0,035
-293,920	800,000	0,055	-0,132
-292,905	-148,054	0,086	0,005
-291,891	-31,198	-0,020	-0,008
-290,876	97,830	-0,028	0,023
-289,862	558,990	-0,018	-0,031
-288,847	19,460	-0,086	-0,050
-287,832	800,000	-0,059	0,145
-286,818	-97,713	-0,079	0,015
-285,803	800,000	0,040	0,092
-284,789	-200,000	-0,008	0,050
-283,774	-93,821	0,045	0,009
-282,759	154,198	-0,035	-0,035
-281,745	-200,000	-0,003	-0,085
-280,730	369,098	0,021	0,032
-279,716	54,747	-0,073	-0,051
-278,701	-69,603	0,188	-0,052
-277,686	800,000	0,033	0,076
-276,672	-67,230	0,101	-0,029
-275,657	-64,742	0,073	0,021
-274,643	-81,424	-0,062	0,015
-273,628	42,489	0,106	0,070
-272,613	501,409	-0,038	-0,065
-271,599	-82,540	-0,166	0,039
-270,584	408,172	0,082	0,127
-269,570	-17,848	0,088	0,040
-268,555	-200,000	-0,015	0,050
-267,540	800,000	-0,033	0,096
-266,526	800,000	-0,063	-0,139
-265,511	60,743	-0,040	0,029
-264,497	-200,000	0,028	0,157
-263,482	-67,433	0,107	0,030
-262,467	-109,935	0,097	-0,015
-261,453	-71,481	-0,035	0,009
-260,438	-3,130	-0,046	0,023
-259,424	-17,554	-0,049	-0,022
-258,409	-132,014	-0,176	-0,016
-257,395	244,209	-0,076	0,093
-256,380	-74,545	0,095	-0,025
-255,365	-200,000	0,004	-0,017
-254,351	446,916	0,047	0,076
-253,336	-200,000	0,011	0,044
-252,322	-200,000	-0,006	-0,033
-251,307	10,305	0,051	-0,028
-250,292	-41,234	0,052	-0,019
-249,278	-70,025	0,101	0,028
-248,263	-77,890	0,173	-0,043
-247,249	-45,710	-0,104	0,037
-246,234	800,000	0,033	0,072
-245,219	574,468	-0,019	0,033
-244,205	-49,566	-0,173	0,059
-243,190	-141,837	0,088	-0,006
-242,176	800,000	-0,020	-0,054
-241,161	-132,454	-0,101	-0,009
-240,146	-200,000	-0,016	0,138
-239,132	237,414	0,050	0,060
-238,117	800,000	-0,025	-0,071
-237,103	-57,023	-0,068	-0,022
-236,088	76,600	-0,116	0,089
-235,073	-67,160	0,039	-0,011
-234,059	-200,000	-0,016	0,086
-233,044	56,307	0,058	0,041
-232,030	-29,768	-0,131	0,054
-231,015	-200,000	0,015	-0,151
-230,000	52,169	-0,069	0,047
-228,986	800,000	0,034	-0,078
-227,971	-91,745	-0,015	-0,003
-226,957	-200,000	-0,004	-0,172
-225,942	-2,339	0,154	0,078
-224,927	-6,372	-0,124	0,061
-223,913	-200,000	0,003	-0,066
-222,898	-97,277	-0,025	-0,005
-221,884	130,881	-0,072	0,067
-220,869	-118,858	0,029	0,004
-219,855	147,372	0,092	-0,090
-218,840	-17,722	0,041	-0,019
-217,825	-200,000	-0,013	-0,140
-216,811	-85,034	-0,106	-0,024
-215,796	186,412	-0,028	0,030
-214,782	800,000	0,082	-0,173
-213,767	624,704	0,043	0,080
-212,752	-44,956	-0,070	-0,025
-211,738	-21,961	0,067	-0,029
-210,723	158,784	0,006	-0,006
-209,709	-200,000	-0,006	0,074
-208,694	-134,140	-0,040	-0,004
-207,679	-200,000	-0,022	0,076
-206,665	141,761	-0,081	0,078
-205,650	148,426	0,084	0,083
-204,636	800,000	0,023	0,065
-203,621	89,621	0,091	-0,074
-202,606	-200,000	-0,006	-0,130
-201,592	800,000	0,015	-0,037
-200,577	800,000	0,009	0,025
-199,563	-200,000	-0,029	0,107
-198,548	84,200	0,060	0,048
-197,533	-52,466	0,059	-0,020
-196,519	-159,615	0,114	-0,004
-195,504	-166,059	0,081	0,002
-194,490	45,136	-0,073	0,049
-193,475	-200,000	-0,017	-0,058
-192,460	564,566	-0,057	0,100
-191,446	-67,738	0,139	-0,039
-190,431	-200,000	-0,005	0,095
-189,417	6,519	-0,078	0,042
-188,402	332,726	-0,120	0,168
-187,387	576,230	0,056	0,099
-186,373	-200,000	0,002	-0,147
-185,358	-1,208	-0,068	0,035
-184,344	47,669	-0,046	0,031
-183,329	800,000	-0,051	-0,112
-182,315	800,000	-0,045	0,093
-181,300	78,259	0,104	0,081
-180,285	800,000	-0,058	0,147
-179,271	-89,449	0,021	0,004
-178,256	373,937	0,044	-0,065
-177,242	68,483	-0,069	-0,052
-176,227	197,749	0,036	-0,040
-175,212	142,974	-0,028	-0,027
-174,198	707,506	0,042	-0,080
-173,183	72,174	0,033	0,025
-172,169	800,000	0,022	0,066
-171,154	-200,000	0,021	-0,104
-170,139	-49,051	0,092	-0,032
-169,125	274,322	0,080	0,103
-168,110	-129,893	0,023	-0,002
-167,096	-90,890	-0,163	-0,034
-166,081	-200,000	-0,001	-0,066
-165,066	-147,057	-0,122	-0,007
-164,052	-44,263	0,084	0,030
-163,037	-15,442	-0,088	0,041
-162,023	298,474	-0,037	-0,049
-161,008	-200,000	0,045	0,148
-159,993	74,905	-0,055	-0,042
-158,979	129,192	0,055	-0,051
-157,964	-99,306	0,190	0,034
-156,950	-85,488	-0,040	0,009
-155,935	95,225	0,036	0,030
-154,920	-200,000	-0,016	0,118
-153,906	-200,000	0,020	0,085
-152,891	403,776	0,055	-0,084
-151,877	487,170	0,020	-0,032
-150,862	-78,671	-0,140	-0,034
-149,847	800,000	-0,012	-0,035
-148,833	-200,000	-0,000	-0,090
-147,818	156,277	-0,046	0,046
-146,804	-18,905	0,100	0,045
-145,789	-127,507	0,136	0,014
-144,775	-200,000	-0,006	-0,072
-143,760	74,796	0,053	-0,041
-142,745	-167,424	0,126	-0,004
-141,731	13,934	0,066	-0,037
-140,716	640,160	-0,071	0,132
-139,702	-200,000	-0,036	0,171
-138,687	-200,000	0,001	0,054
-137,672	-65,594	-0,048	0,014
-136,658	-1,999	0,055	-0,028
-135,643	-3,840	-0,142	-0,071
-134,629	800,000	0,012	-0,034
-133,614	-25,485	0,012	-0,005
-132,599	800,000	0,057	-0,175
-131,585	383,477	0,037	-0,055
-130,570	171,366	0,017	-0,018
-129,556	-200,000	-0,000	-0,059
-128,541	-121,801	0,082	-0,010
-127,526	84,254	-0,107	0,085
-126,512	10,626	0,128	0,071
-125,497	-200,000	-0,015	0,070
-124,483	-200,000	-0,001	-0,097
-123,468	-200,000	-0,002	-0,027
-122,453	447,428	-0,151	-0,241
-121,439	86,420	0,040	-0,032
-120,424	290,968	-0,049	0,065
-119,410	-157,367	-0,122	-0,005
