DTS Sentinel unit serial number:	SN410029Multiplexer serial number:	ORYXHardware model number:	OX2-SRSoftware version number:	ORYX F/W v4,00 Oryx Data Collector v3.7.2.0data status	okinstallation	B4 Nyhavnadifferential loss correction	single-endedforward channel	channel 2reverse channel	N/Adate	2023/12/15time	15:25:13forward acquisition time	300,00reverse acquisition time	0,00gamma	499,1914k internal	0,3154k external	0,3154temperature offset calibration	1,0000default loss term (dB/km)	0,3820temperature slope calibration	1,0000multiplexer offset coefficient	1,0000multiplexer slope coefficient	1,0000fibre end	0,00T internal ref (°C)	16,28T ext. ref 1 (°C)	2,67T ext. ref 2 (°C)	2,82length (m)	temperature (°C)	Stokes	anti-Stokes-744,400	-200,000	0,013	-0,091
-743,385	-169,270	-0,389	0,010
-742,371	438,890	0,028	0,045
-741,356	-97,122	-0,317	-0,061
-740,342	-154,006	0,141	0,007
-739,327	-187,690	-0,343	0,003
-738,312	122,381	0,150	-0,138
-737,298	-141,976	-0,384	0,028
-736,283	-43,909	0,200	0,074
-735,269	-47,393	-0,159	0,057
-734,254	72,984	-0,072	0,056
-733,239	-28,309	-0,331	-0,140
-732,225	19,489	0,156	0,092
-731,210	800,000	-0,020	0,062
-730,196	-44,598	0,035	0,013
-729,181	574,035	-0,052	-0,094
-728,167	800,000	0,062	-0,159
-727,152	-154,915	-0,167	-0,008
-726,137	215,309	-0,109	0,128
-725,123	-36,092	-0,099	-0,039
-724,108	92,855	-0,082	-0,068
-723,094	47,231	-0,042	-0,029
-722,079	800,000	0,051	0,105
-721,064	-200,000	0,006	-0,071
-720,050	-200,000	0,026	-0,103
-719,035	-74,354	-0,085	-0,022
-718,021	110,636	-0,018	-0,016
-717,006	-130,520	-0,127	-0,013
-715,991	353,064	-0,102	-0,150
-714,977	-200,000	-0,000	-0,048
-713,962	-81,472	-0,081	0,019
-712,948	-200,000	0,039	-0,138
-711,933	-47,055	-0,183	0,066
-710,918	-74,305	0,081	0,021
-709,904	545,084	-0,062	0,109
-708,889	67,438	-0,040	-0,030
-707,875	-200,000	0,004	0,032
-706,860	311,245	0,051	-0,071
-705,845	-187,189	-0,104	0,001
-704,831	-3,722	0,092	-0,047
-703,816	800,000	-0,014	0,041
-702,802	335,368	-0,033	-0,048
-701,787	-103,457	-0,047	0,008
-700,772	-200,000	-0,010	-0,062
-699,758	703,674	0,061	-0,119
-698,743	-200,000	0,012	0,157
-697,729	-200,000	-0,013	-0,064
-696,714	800,000	-0,013	-0,028
-695,699	-48,796	-0,071	0,025
-694,685	425,548	-0,054	-0,085
-693,670	603,951	0,032	0,058
-692,656	-200,000	-0,006	-0,037
-691,641	-55,523	0,047	-0,015
-690,627	36,319	0,069	-0,045
-689,612	-200,000	0,011	0,106
-688,597	480,009	-0,093	0,156
-687,583	-52,714	-0,049	-0,017
-686,568	-190,113	-0,039	-0,000
-685,554	-200,000	0,019	-0,095
-684,539	5,791	-0,078	-0,042
-683,524	55,089	0,071	0,050
-682,510	-25,125	0,028	-0,012
-681,495	694,766	-0,040	0,077
-680,481	-200,000	-0,002	-0,111
-679,466	800,000	-0,064	-0,162
-678,451	314,420	-0,032	0,044
-677,437	-15,861	-0,017	0,008
-676,422	-200,000	-0,003	-0,058
-675,408	256,324	-0,062	0,079
-674,393	20,019	-0,030	0,018
-673,378	-125,159	-0,172	-0,019
-672,364	142,160	-0,023	-0,022
-671,349	-117,595	-0,026	0,003
-670,335	200,017	0,095	-0,107
-669,320	28,720	-0,018	-0,011
-668,305	375,111	0,030	0,045
-667,291	478,754	-0,023	-0,038
-666,276	800,000	0,046	-0,112
-665,262	-122,325	-0,083	0,010
-664,247	-200,000	0,015	0,089
-663,232	-197,403	0,038	-0,000
-662,218	84,201	0,057	0,046
-661,203	-27,986	-0,046	0,019
-660,189	-200,000	0,007	-0,038
-659,174	800,000	0,012	0,034
-658,159	800,000	0,017	0,050
-657,145	-17,793	-0,060	-0,027
-656,130	166,349	0,142	-0,148
-655,116	369,922	0,024	0,036
-654,101	325,234	0,046	-0,065
-653,086	230,831	0,067	-0,081
-652,072	-79,372	0,171	0,042
-651,057	-178,146	-0,144	-0,002
-650,043	68,430	0,096	-0,073
-649,028	-33,005	0,036	0,015
-648,014	-77,081	-0,082	-0,021
-646,999	-200,000	0,004	0,146
-645,984	-200,000	0,017	0,134
-644,970	491,263	-0,072	-0,121
-643,955	-200,000	0,024	-0,103
-642,941	800,000	-0,025	-0,062
-641,926	66,346	-0,074	-0,055
-640,911	-78,557	0,046	0,012
-639,897	39,534	0,023	-0,015
-638,882	-20,856	0,084	0,038
-637,868	2,563	-0,063	-0,033
-636,853	96,775	-0,044	-0,037
-635,838	526,055	0,036	-0,062
-634,824	-35,119	-0,042	0,017
-633,809	-57,645	-0,034	0,011
-632,795	800,000	0,039	-0,079
-631,780	-20,994	-0,113	-0,051
-630,765	368,186	0,081	-0,121
-629,751	354,127	-0,068	-0,100
-628,736	800,000	-0,085	-0,208
-627,722	397,542	-0,063	-0,098
-626,707	152,096	-0,037	-0,037
-625,692	-103,106	0,049	-0,008
-624,678	415,544	-0,012	-0,020
-623,663	241,901	0,042	0,051
-622,649	-166,600	-0,063	0,002
-621,634	-67,170	-0,107	-0,031
-620,619	-135,461	0,056	0,005
-619,605	194,555	-0,024	-0,026
-618,590	-24,527	-0,006	0,002
-617,576	-132,348	-0,118	-0,011
-616,561	-200,000	0,006	-0,031
-615,546	800,000	-0,014	0,030
-614,532	-46,943	-0,153	0,054
-613,517	800,000	-0,046	0,109
-612,503	262,608	-0,062	-0,080
-611,488	-106,307	0,077	-0,013
-610,474	239,783	-0,142	0,174
-609,459	800,000	0,021	0,044
-608,444	397,232	0,015	-0,023
-607,430	80,132	-0,118	-0,093
-606,415	-129,662	-0,032	0,003
-605,401	-90,346	0,079	-0,017
-604,386	7,268	0,085	-0,047
-603,371	-200,000	0,010	0,109
-602,357	78,739	-0,075	0,059
-601,342	-44,194	-0,101	-0,037
-600,328	133,732	-0,106	-0,101
-599,313	-58,313	-0,093	0,030
-598,298	543,416	0,034	0,059
-597,284	249,756	-0,023	-0,028
-596,269	-200,000	-0,018	0,061
-595,255	-93,446	-0,250	0,050
-594,240	-151,622	-0,025	0,001
-593,225	229,861	-0,064	-0,077
-592,211	590,078	0,073	-0,132
-591,196	-200,000	0,023	-0,104
-590,182	-200,000	0,002	0,032
-589,167	105,051	0,010	0,008
-588,152	-200,000	0,000	0,135
-587,138	-148,850	0,087	-0,005
-586,123	-200,000	0,003	0,017
-585,109	-160,667	-0,144	0,006
-584,094	252,331	0,009	-0,012
-583,079	-200,000	-0,017	-0,183
-582,065	-85,395	0,065	-0,015
-581,050	-64,417	0,057	0,017
-580,036	579,639	0,042	-0,076
-579,021	164,452	-0,144	0,149
-578,006	800,000	-0,017	0,037
-576,992	324,227	0,125	-0,175
-575,977	-51,026	-0,044	0,015
-574,963	-54,191	0,084	0,028
-573,948	520,518	-0,091	0,158
-572,934	-200,000	-0,005	0,094
-571,919	21,871	-0,088	-0,052
-570,904	110,613	-0,070	-0,062
-569,890	41,273	-0,118	-0,078
-568,875	-200,000	0,003	0,098
-567,861	118,952	0,073	0,066
-566,846	169,075	-0,033	0,035
-565,831	-48,521	-0,125	-0,044
-564,817	-200,000	0,032	0,107
-563,802	-11,000	-0,046	-0,022
-562,788	335,280	0,050	0,071
-561,773	192,037	-0,032	-0,036
-560,758	28,832	0,041	0,025
-559,744	-200,000	0,009	0,079
-558,729	776,400	0,044	-0,088
-557,715	-75,277	-0,050	-0,013
-556,700	-200,000	-0,012	-0,046
-555,685	719,894	-0,072	0,141
-554,671	-200,000	-0,016	0,122
-553,656	259,741	0,090	-0,114
-552,642	-117,008	0,020	0,003
-551,627	-17,303	-0,068	-0,031
-550,612	-200,000	-0,006	0,050
-549,598	76,532	-0,050	0,039
-548,583	-200,000	-0,047	0,000
-547,569	67,387	0,086	0,064
-546,554	-181,720	-0,093	-0,001
-545,539	294,895	-0,024	-0,033
-544,525	-2,893	0,087	0,044
-543,510	550,885	0,077	-0,135
-542,496	-172,742	-0,158	-0,004
-541,481	-71,347	0,064	0,017
-540,466	-200,000	0,007	-0,048
-539,452	800,000	0,021	-0,044
-538,437	-15,097	0,067	-0,031
-537,423	462,437	-0,056	0,092
-536,408	-127,622	0,101	-0,011
-535,393	486,713	-0,014	0,024
-534,379	-200,000	-0,005	-0,252
-533,364	-200,000	-0,009	0,087
-532,350	-200,000	0,004	0,119
-531,335	400,019	0,051	0,079
-530,321	800,000	0,091	0,192
-529,306	800,000	-0,072	-0,165
-528,291	-200,000	-0,002	0,049
-527,277	-158,550	0,069	-0,003
-526,262	-200,000	-0,006	-0,138
-525,248	800,000	-0,041	-0,117
-524,233	24,817	0,098	0,059
-523,218	-200,000	-0,015	0,085
-522,204	139,902	-0,058	-0,056
-521,189	-200,000	0,009	0,089
-520,175	-200,000	0,028	-0,171
-519,160	176,397	-0,130	-0,138
-518,145	800,000	0,024	0,052
-517,131	12,757	0,152	-0,085
-516,116	-200,000	0,013	0,059
-515,102	-200,000	0,006	0,112
-514,087	90,285	0,039	-0,032
-513,072	75,234	-0,039	-0,030
-512,058	800,000	0,036	-0,101
-511,043	-71,071	0,227	0,062
-510,029	-110,006	0,266	-0,040
-509,014	800,000	0,069	0,169
-507,999	229,346	0,077	0,092
-506,985	-200,000	-0,007	0,131
-505,970	-200,000	-0,022	0,106
-504,956	-167,644	-0,086	-0,002
-503,941	-200,000	0,026	-0,093
-502,926	-200,000	0,005	0,071
-501,912	151,373	0,059	0,059
-500,897	235,205	-0,082	0,099
-499,883	395,841	-0,038	-0,058
-498,868	110,820	0,065	0,057
-497,853	800,000	-0,031	-0,069
-496,839	-47,314	-0,084	-0,030
-495,824	291,663	0,036	0,047
-494,810	-70,355	0,032	0,009
-493,795	8,338	-0,046	-0,025
-492,781	-200,000	-0,004	0,057
-491,766	119,405	0,047	-0,042
-490,751	-200,000	0,024	-0,126
-489,737	-125,303	-0,139	0,015
-488,722	-200,000	0,009	0,053
-487,708	-200,000	0,011	0,134
-486,693	-83,631	-0,117	0,027
-485,678	130,329	0,054	0,051
-484,664	-148,066	-0,102	0,006
-483,649	-106,695	0,124	0,020
-482,635	800,000	0,018	0,048
-481,620	77,815	0,111	0,086
-480,605	60,923	0,043	0,031
-479,591	-52,596	0,069	0,023
-478,576	151,679	0,134	-0,133
-477,562	-200,000	0,006	-0,054
-476,547	-30,325	-0,175	-0,072
-475,532	48,479	0,083	0,057
-474,518	-142,861	0,095	-0,007
-473,503	-200,000	0,024	0,112
-472,489	131,372	0,060	0,056
-471,474	489,243	0,013	0,021
-470,459	100,875	-0,015	0,013
-469,445	-200,000	0,013	0,075
-468,430	800,000	-0,057	0,120
-467,416	188,486	0,068	0,074
-466,401	126,688	-0,035	0,032
-465,386	193,612	-0,052	0,058
-464,372	187,783	0,060	0,066
-463,357	136,958	0,067	0,064
-462,343	-200,000	-0,012	-0,116
-461,328	244,493	-0,052	-0,064
-460,313	800,000	-0,056	-0,116
-459,299	50,015	0,115	-0,079
-458,284	-85,077	-0,109	0,025
-457,270	-189,402	-0,092	0,001
-456,255	-107,254	-0,036	-0,006
-455,241	263,821	0,042	-0,054
-454,226	800,000	-0,008	0,025
-453,211	44,604	0,085	-0,057
-452,197	229,660	-0,114	0,136
-451,182	86,224	-0,122	-0,098
-450,168	144,563	-0,035	0,034
-449,153	-200,000	0,005	0,097
-448,138	-109,646	-0,106	0,016
-447,124	579,574	-0,033	-0,060
-446,109	-48,145	0,057	-0,020
-445,095	-14,264	0,096	0,045
-444,080	-63,630	0,126	-0,037
-443,065	-91,732	0,160	0,033
-442,051	106,813	0,100	-0,087
-441,036	-15,890	0,077	-0,036
-440,022	33,494	-0,123	-0,078
-439,007	-175,359	-0,083	0,002
-437,992	177,121	-0,052	-0,055
-436,978	4,534	-0,129	-0,069
-435,963	800,000	-0,012	-0,030
-434,949	231,502	0,092	0,111
-433,934	-10,248	0,040	-0,019
-432,919	800,000	-0,044	-0,138
-431,905	-2,424	-0,102	-0,052
-430,890	-200,000	-0,019	-0,078
-429,876	-107,883	0,143	0,023
-428,861	506,332	-0,009	-0,016
-427,846	-73,563	0,066	0,018
-426,832	800,000	0,047	0,113
-425,817	-200,000	0,025	0,159
-424,803	-200,000	0,032	0,203
-423,788	-200,000	-0,002	0,138
-422,773	-162,757	0,074	-0,003
-421,759	-55,053	0,092	0,030
-420,744	328,884	-0,025	0,036
-419,730	-200,000	0,009	-0,118
-418,715	28,354	0,116	-0,071
-417,701	83,048	-0,100	-0,079
-416,686	21,100	-0,115	-0,068
-415,671	-200,000	-0,027	-0,137
-414,657	-130,488	0,068	-0,007
-413,642	-18,712	-0,082	0,037
-412,628	388,747	0,075	0,113
-411,613	27,826	0,075	-0,046
-410,598	-23,278	0,012	0,005
-409,584	64,732	0,076	0,056
-408,569	-125,741	0,049	0,005
-407,555	484,959	0,064	0,107
-406,540	112,048	0,071	0,063
-405,525	-200,000	-0,011	-0,047
-404,511	-200,000	-0,012	-0,045
-403,496	-132,274	-0,063	0,006
-402,482	384,949	-0,052	0,079
-401,467	-200,000	0,001	-0,078
-400,452	-83,933	0,051	0,012
-399,438	203,553	0,029	0,033
-398,423	317,214	-0,037	-0,051
-397,409	-65,861	-0,094	-0,027
-396,394	83,078	-0,122	0,097
-395,379	224,910	0,067	0,079
-394,365	567,295	0,074	0,132
-393,350	715,040	-0,015	-0,030
-392,336	147,515	-0,032	0,032
-391,321	-55,549	0,024	0,008
-390,306	-200,000	0,015	-0,131
-389,292	-64,968	-0,054	-0,016
-388,277	414,415	0,056	-0,087
-387,263	-42,625	-0,100	0,037
-386,248	259,548	0,087	0,110
-385,233	338,356	0,090	0,128
-384,219	-4,667	-0,040	0,020
-383,204	550,888	-0,019	-0,034
-382,190	800,000	0,010	0,033
-381,175	-12,520	0,080	0,038
-380,160	-200,000	-0,021	0,123
-379,146	-121,019	0,104	0,013
-378,131	-96,844	0,022	0,004
-377,117	-122,134	-0,045	-0,005
-376,102	-200,000	-0,019	-0,202
-375,088	-200,000	0,013	-0,104
-374,073	-62,543	0,219	0,066
-373,058	173,976	0,046	0,048
-372,044	357,575	0,053	-0,078
-371,029	39,752	-0,047	0,030
-370,015	-84,013	0,077	-0,018
-369,000	-200,000	0,039	-0,199
-367,985	-200,000	-0,006	-0,049
-366,971	50,734	-0,090	0,062
-365,956	131,130	0,079	0,074
-364,942	-200,000	-0,002	-0,029
-363,927	330,566	-0,072	-0,101
-362,912	-200,000	0,001	0,006
-361,898	-50,251	-0,102	0,035
-360,883	-200,000	0,017	-0,118
-359,869	-200,000	0,008	-0,151
-358,854	-120,113	0,108	-0,013
-357,839	183,601	0,069	0,075
-356,825	129,431	0,043	0,040
-355,810	-200,000	-0,037	0,166
-354,796	-11,668	-0,126	-0,060
-353,781	421,980	-0,040	-0,063
-352,766	415,891	0,022	0,034
-351,752	70,461	0,095	0,072
-350,737	-200,000	-0,007	-0,068
-349,723	-83,818	0,052	-0,012
-348,708	-200,000	0,004	-0,015
-347,693	-134,074	0,023	-0,002
-346,679	-2,443	-0,081	0,041
-345,664	-46,815	-0,083	0,029
-344,650	-200,000	-0,046	0,178
-343,635	-200,000	0,053	0,199
-342,620	800,000	0,027	-0,085
-341,606	442,775	0,056	-0,089
-340,591	51,999	0,057	-0,040
-339,577	800,000	0,065	-0,199
-338,562	368,252	-0,013	-0,019
-337,548	201,604	-0,038	-0,042
-336,533	-168,183	0,072	0,002
-335,518	338,138	0,059	0,084
-334,504	120,200	0,023	0,021
-333,489	59,682	-0,069	-0,049
-332,475	83,634	-0,148	0,117
-331,460	-200,000	-0,011	-0,166
-330,445	-200,000	-0,014	0,131
-329,431	700,021	0,060	0,115
-328,416	-8,836	0,074	0,036
-327,402	154,431	0,053	0,053
-326,387	-136,543	0,072	-0,006
-325,372	48,927	0,095	0,065
-324,358	103,090	-0,064	0,055
-323,343	-200,000	0,014	-0,074
-322,329	-180,220	0,120	-0,002
-321,314	800,000	-0,056	0,126
-320,299	-135,993	0,107	-0,009
-319,285	154,121	0,035	0,035
-318,270	626,187	0,023	-0,041
-317,256	-61,327	0,081	-0,025
-316,241	800,000	0,039	0,091
-315,226	311,467	-0,028	-0,039
-314,212	365,939	0,041	0,060
-313,197	-200,000	-0,002	0,077
-312,183	-3,440	0,022	0,011
-311,168	487,327	-0,064	-0,107
-310,153	104,335	-0,116	-0,099
-309,139	110,997	-0,103	-0,090
-308,124	432,888	-0,067	-0,106
-307,110	22,992	0,049	-0,029
-306,095	800,000	-0,037	0,108
-305,080	-98,569	0,054	0,010
-304,066	283,745	0,057	-0,074
-303,051	28,138	-0,061	-0,037
-302,037	-200,000	-0,001	0,142
-301,022	800,000	0,040	0,110
-300,008	-200,000	-0,012	0,143
-298,993	119,331	0,020	0,018
-297,978	174,321	0,063	-0,066
-296,964	-200,000	0,001	-0,015
-295,949	451,048	0,041	-0,066
-294,935	719,633	-0,052	-0,101
-293,920	-68,047	0,019	-0,005
-292,905	87,264	0,036	0,029
-291,891	-200,000	0,006	0,022
-290,876	800,000	0,053	0,157
-289,862	-200,000	0,134	0,000
-288,847	581,074	-0,057	-0,102
-287,832	-108,185	-0,098	-0,015
-286,818	737,815	-0,039	-0,076
-285,803	-81,639	-0,031	0,007
-284,789	800,000	0,083	-0,187
-283,774	6,297	0,096	-0,051
-282,759	268,716	-0,012	0,015
-281,745	10,031	0,049	-0,027
-280,730	-200,000	-0,003	-0,062
-279,716	-111,017	0,080	0,012
-278,701	-37,770	0,052	0,020
-277,686	-4,177	0,106	0,053
-276,672	-200,000	0,002	-0,132
-275,657	800,000	-0,025	-0,074
-274,643	86,053	-0,020	-0,016
-273,628	83,035	-0,037	0,029
-272,613	-30,814	-0,166	0,067
-271,599	-10,654	-0,152	0,073
-270,584	800,000	-0,038	-0,118
-269,570	800,000	-0,021	0,055
-268,555	-148,972	-0,096	0,006
-267,540	-86,943	-0,086	-0,019
-266,526	67,689	-0,053	-0,039
-265,511	-96,886	0,106	0,020
-264,497	-200,000	0,013	0,069
-263,482	-200,000	0,003	-0,022
-262,467	-200,000	0,038	0,134
-261,453	-200,000	0,006	0,022
-260,438	800,000	0,006	0,013
-259,424	261,563	-0,110	-0,138
-258,409	540,480	-0,011	0,020
-257,395	-53,183	-0,067	0,022
-256,380	-23,537	0,122	-0,053
-255,365	-17,905	0,037	0,017
-254,351	71,971	0,039	-0,029
-253,336	800,000	-0,024	0,067
-252,322	42,055	-0,160	0,105
-251,307	-200,000	0,007	-0,147
-250,292	223,016	0,064	0,075
-249,278	187,559	-0,026	0,028
-248,263	129,576	-0,043	0,040
-247,249	206,918	-0,061	-0,069
-246,234	-11,479	-0,188	-0,089
-245,219	-48,638	0,106	-0,037
-244,205	-200,000	-0,007	0,120
-243,190	-26,329	0,107	-0,045
-242,176	800,000	-0,010	-0,032
-241,161	-39,873	0,056	0,021
-240,146	-200,000	-0,057	0,199
-239,132	-157,337	-0,044	0,002
-238,117	226,143	0,071	-0,084
-237,103	226,604	-0,043	0,050
-236,088	-200,000	-0,000	-0,035
-235,073	147,063	0,045	-0,044
-234,059	341,788	0,085	0,121
-233,044	-200,000	-0,020	-0,089
-232,030	183,957	-0,084	-0,090
-231,015	800,000	-0,064	-0,153
-230,000	800,000	-0,046	-0,124
-228,986	26,136	-0,048	0,029
-227,971	800,000	0,055	0,133
-226,957	480,348	0,063	0,103
-225,942	156,115	0,135	0,135
-224,927	460,612	0,060	-0,096
-223,913	-31,121	-0,079	-0,032
-222,898	711,014	-0,062	-0,120
-221,884	-163,374	-0,125	0,004
-220,869	1,444	0,022	-0,012
-219,855	-11,959	0,084	0,040
-218,840	-200,000	-0,014	0,146
-217,825	-98,214	-0,198	-0,036
-216,811	800,000	0,033	-0,071
-215,796	-7,385	-0,224	-0,109
-214,782	-15,724	0,128	0,059
-213,767	800,000	-0,014	0,037
-212,752	203,440	0,092	-0,103
-211,738	657,983	-0,025	-0,047
-210,723	-200,000	-0,000	-0,017
-209,709	800,000	-0,021	-0,045
-208,694	-200,000	0,011	0,057
-207,679	210,772	0,022	-0,026
-206,665	171,651	0,031	0,032
-205,650	-200,000	-0,010	0,109
-204,636	-200,000	0,037	0,137
-203,621	-71,340	-0,128	-0,034
-202,606	-200,000	-0,016	0,179
-201,592	275,481	-0,038	0,049
-200,577	36,446	-0,061	0,039
-199,563	-200,000	0,007	0,074
-198,548	-140,784	0,089	-0,007
-197,533	473,713	0,050	-0,081
-196,519	-200,000	0,006	-0,029
-195,504	-200,000	0,008	-0,032
-194,490	73,676	0,062	0,047
-193,475	-162,510	-0,142	-0,005
-192,460	-200,000	0,002	0,026
-191,446	-39,716	0,122	-0,046
-190,431	0,170	0,055	-0,028
-189,417	173,631	-0,031	0,032
-188,402	800,000	0,053	-0,150
-187,387	168,396	-0,071	0,073
-186,373	246,267	-0,032	-0,040
-185,358	-169,187	-0,046	0,001
-184,344	184,130	0,051	0,054
-183,329	-200,000	0,006	0,041
-182,315	46,248	-0,069	-0,046
-181,300	800,000	0,017	-0,043
-180,285	207,101	-0,092	-0,103
-179,271	-2,359	-0,084	-0,042
-178,256	-200,000	0,046	-0,154
-177,242	167,332	0,093	-0,095
-176,227	-72,367	0,084	0,022
-175,212	-200,000	0,019	0,146
-174,198	-200,000	0,009	0,071
-173,183	-28,043	-0,042	-0,018
-172,169	338,224	-0,036	0,051
-171,154	-200,000	0,007	-0,172
-170,139	-200,000	0,012	-0,066
-169,125	-200,000	0,010	0,093
-168,110	-10,141	0,025	0,012
-167,096	800,000	-0,022	-0,058
-166,081	-200,000	0,005	-0,055
-165,066	-6,400	-0,118	-0,058
-164,052	-62,247	0,067	-0,020
-163,037	800,000	0,016	0,042
-162,023	800,000	-0,027	0,064
-161,008	-200,000	-0,011	0,083
-159,993	-200,000	0,003	0,018
-158,979	-7,705	0,127	-0,062
-157,964	-200,000	0,009	-0,031
-156,950	-172,447	-0,198	0,004
-155,935	11,489	-0,126	-0,069
-154,920	-200,000	0,021	-0,114
-153,906	103,745	0,060	0,051
-152,891	63,436	0,090	-0,065
-151,877	189,495	-0,114	-0,123
-150,862	800,000	0,035	-0,103
-149,847	-178,955	-0,091	0,001
-148,833	-142,820	0,089	0,006
-147,818	-47,705	-0,105	-0,036
-146,804	282,692	-0,108	0,141
-145,789	-78,285	0,048	0,012
-144,775	-139,916	-0,089	0,007
-143,760	162,942	0,016	0,016
-142,745	-200,000	-0,001	0,050
-141,731	771,720	0,027	0,053
-140,716	332,058	0,019	0,026
-139,702	-200,000	-0,003	0,070
-138,687	256,408	0,078	0,096
-137,672	442,963	-0,089	-0,141
-136,658	669,675	-0,134	-0,251
-135,643	-200,000	0,010	-0,060
-134,629	-94,422	-0,115	0,022
-133,614	-61,994	0,098	0,029
-132,599	-113,220	0,146	-0,021
-131,585	-40,668	-0,106	-0,039
-130,570	204,343	0,077	-0,086
-129,556	-65,188	0,033	-0,009
-128,541	21,900	-0,070	-0,041
-127,526	-156,144	-0,144	0,006
-126,512	723,849	-0,043	0,082
-125,497	-200,000	0,034	-0,128
-124,483	-200,000	0,006	0,134
-123,468	-200,000	0,007	-0,083
-122,453	-200,000	-0,001	-0,048
-121,439	-200,000	-0,002	-0,081
-120,424	-2,740	-0,157	-0,079
-119,410	-49,970	0,124	0,042
