DTS Sentinel unit serial number:	SN410029Multiplexer serial number:	ORYXHardware model number:	OX2-SRSoftware version number:	ORYX F/W v4,00 Oryx Data Collector v3.7.2.0data status	okinstallation	B4 Nyhavnadifferential loss correction	single-endedforward channel	channel 2reverse channel	N/Adate	2023/12/16time	08:05:13forward acquisition time	300,00reverse acquisition time	0,00gamma	499,1914k internal	0,3127k external	0,3127temperature offset calibration	1,0000default loss term (dB/km)	0,3820temperature slope calibration	1,0000multiplexer offset coefficient	1,0000multiplexer slope coefficient	1,0000fibre end	0,00T internal ref (°C)	22,43T ext. ref 1 (°C)	8,15T ext. ref 2 (°C)	8,30length (m)	temperature (°C)	Stokes	anti-Stokes-744,400	-200,000	0,018	0,090
-743,385	60,224	-0,222	0,163
-742,371	-17,807	0,240	-0,112
-741,356	309,298	-0,142	0,198
-740,342	-109,903	-0,058	0,009
-739,327	-34,016	-0,190	0,077
-738,312	-200,000	-0,034	-0,130
-737,298	104,944	-0,101	0,089
-736,283	-163,307	0,105	-0,004
-735,269	68,827	-0,281	0,214
-734,254	-200,000	0,034	-0,135
-733,239	-46,655	-0,375	-0,136
-732,225	-67,297	0,215	-0,063
-731,210	-200,000	-0,009	0,108
-730,196	84,314	0,082	0,067
-729,181	77,041	0,086	-0,068
-728,167	800,000	-0,008	0,017
-727,152	109,201	-0,044	0,039
-726,137	628,601	-0,061	-0,116
-725,123	-27,417	0,032	-0,014
-724,108	-200,000	-0,037	-0,188
-723,094	-200,000	0,005	-0,142
-722,079	-200,000	0,011	-0,078
-721,064	-142,702	-0,101	-0,007
-720,050	308,496	-0,037	-0,052
-719,035	800,000	0,044	-0,117
-718,021	-200,000	0,032	-0,128
-717,006	155,296	-0,047	0,048
-715,991	79,723	-0,126	-0,100
-714,977	-200,000	0,003	-0,017
-713,962	551,410	-0,052	-0,093
-712,948	800,000	0,034	0,089
-711,933	800,000	-0,022	-0,056
-710,918	-79,474	0,023	-0,006
-709,904	-55,606	-0,086	0,028
-708,889	218,405	-0,041	-0,049
-707,875	-200,000	0,038	-0,157
-706,860	605,258	-0,051	0,094
-705,845	186,498	0,042	0,047
-704,831	-200,000	0,008	-0,038
-703,816	-75,573	0,008	0,002
-702,802	-36,935	-0,057	-0,023
-701,787	-126,056	-0,028	-0,003
-700,772	-200,000	-0,007	-0,036
-699,758	-136,764	-0,083	0,007
-698,743	191,115	0,056	0,062
-697,729	268,270	0,011	0,015
-696,714	800,000	-0,028	-0,066
-695,699	800,000	0,044	-0,117
-694,685	526,053	0,075	-0,132
-693,670	-94,015	-0,053	0,011
-692,656	28,272	0,029	-0,018
-691,641	-200,000	0,004	0,021
-690,627	111,935	0,134	0,120
-689,612	-200,000	0,004	0,095
-688,597	29,109	0,033	0,021
-687,583	489,430	0,137	-0,234
-686,568	-76,457	-0,137	0,035
-685,554	-129,647	-0,073	0,007
-684,539	-200,000	-0,021	-0,112
-683,524	-21,733	0,092	0,041
-682,510	-200,000	0,001	0,116
-681,495	639,932	-0,089	-0,170
-680,481	-200,000	0,022	-0,091
-679,466	-200,000	-0,026	-0,127
-678,451	2,768	-0,206	-0,111
-677,437	800,000	0,022	-0,053
-676,422	-119,317	0,145	0,019
-675,408	-200,000	-0,008	-0,027
-674,393	-82,138	-0,084	-0,020
-673,378	-42,801	0,102	-0,038
-672,364	-15,142	-0,044	0,021
-671,349	96,220	-0,024	-0,021
-670,335	-200,000	0,016	0,068
-669,320	-200,000	-0,024	-0,088
-668,305	-200,000	0,015	-0,066
-667,291	35,682	-0,084	0,055
-666,276	-121,596	-0,189	0,023
-665,262	347,050	-0,091	-0,134
-664,247	800,000	0,012	0,032
-663,232	-94,548	-0,026	-0,005
-662,218	74,187	0,061	-0,048
-661,203	255,789	-0,015	-0,019
-660,189	-56,433	0,081	0,026
-659,174	800,000	-0,076	-0,219
-658,159	-23,875	-0,082	-0,036
-657,145	-3,179	-0,075	-0,039
-656,130	-26,359	-0,082	0,036
-655,116	206,986	0,064	0,074
-654,101	-95,200	-0,087	0,017
-653,086	756,187	-0,011	0,023
-652,072	149,781	-0,009	0,009
-651,057	-200,000	0,015	-0,159
-650,043	-200,000	-0,027	-0,177
-649,028	-200,000	0,002	0,024
-648,014	-200,000	0,016	0,100
-646,999	-200,000	0,013	0,079
-645,984	52,572	-0,041	-0,029
-644,970	109,012	0,038	-0,034
-643,955	800,000	0,034	-0,093
-642,941	-17,063	-0,119	-0,055
-641,926	-138,943	0,073	0,006
-640,911	-68,212	0,067	-0,019
-639,897	-132,104	0,103	0,010
-638,882	740,918	0,053	0,106
-637,868	800,000	0,035	0,096
-636,853	81,146	-0,141	-0,113
-635,838	-200,000	-0,021	-0,227
-634,824	319,752	-0,053	-0,075
-633,809	121,900	-0,051	0,047
-632,795	-101,684	-0,043	-0,008
-631,780	46,390	0,041	0,028
-630,765	-200,000	-0,004	-0,068
-629,751	-200,000	0,003	0,043
-628,736	64,057	0,120	-0,089
-627,722	149,460	0,039	-0,039
-626,707	-76,249	0,008	0,002
-625,692	-106,445	0,217	-0,036
-624,678	-112,279	-0,006	0,001
-623,663	800,000	0,047	-0,128
-622,649	441,204	-0,045	-0,073
-621,634	127,751	-0,068	-0,064
-620,619	263,884	-0,030	-0,039
-619,605	191,273	0,051	0,057
-618,590	584,905	0,047	0,086
-617,576	137,370	0,083	0,081
-616,561	-200,000	-0,006	0,000
-615,546	-20,366	-0,091	-0,041
-614,532	280,118	0,073	-0,097
-613,517	-200,000	0,010	0,062
-612,503	180,599	0,088	0,096
-611,488	13,861	0,053	0,031
-610,474	-43,795	0,120	-0,045
-609,459	-127,278	-0,059	0,006
-608,444	206,921	-0,083	-0,096
-607,430	46,984	-0,119	-0,082
-606,415	-24,028	-0,169	-0,074
-605,401	4,330	0,067	0,036
-604,386	-200,000	-0,018	0,140
-603,371	27,118	0,117	0,073
-602,357	800,000	-0,015	0,047
-601,342	383,112	0,067	-0,103
-600,328	-66,718	0,085	0,025
-599,313	79,921	0,072	-0,057
-598,298	219,650	0,053	0,063
-597,284	-134,064	0,118	-0,011
-596,269	131,911	-0,053	0,050
-595,255	-2,699	0,069	0,036
-594,240	-148,884	-0,014	-0,001
-593,225	330,945	-0,068	-0,098
-592,211	42,672	-0,129	-0,087
-591,196	-68,918	0,065	-0,019
-590,182	-43,370	-0,133	-0,050
-589,167	-82,413	0,093	0,022
-588,152	-200,000	0,005	0,033
-587,138	237,283	-0,029	-0,035
-586,123	-95,346	-0,050	0,010
-585,109	-32,883	-0,067	0,027
-584,094	800,000	-0,031	0,080
-583,079	800,000	0,043	-0,119
-582,065	-200,000	-0,020	-0,084
-581,050	262,396	-0,027	0,035
-580,036	162,159	0,119	0,123
-579,021	47,366	-0,079	-0,054
-578,006	477,149	-0,055	-0,093
-576,992	-158,223	0,097	-0,004
-575,977	397,482	0,032	0,050
-574,963	-92,825	-0,028	-0,006
-573,948	-200,000	-0,001	0,028
-572,934	402,411	-0,014	-0,022
-571,919	-200,000	-0,022	0,097
-570,904	184,871	-0,053	-0,059
-569,890	-200,000	-0,001	-0,021
-568,875	367,807	-0,018	-0,027
-567,861	-46,854	0,052	-0,019
-566,846	-72,126	0,091	0,025
-565,831	70,113	-0,031	-0,023
-564,817	-26,381	0,164	0,071
-563,802	-200,000	0,008	-0,085
-562,788	800,000	0,008	0,022
-561,773	538,345	-0,090	0,159
-560,758	19,373	0,075	-0,044
-559,744	-65,219	0,030	-0,009
-558,729	139,468	0,099	0,096
-557,715	58,835	0,019	0,014
-556,700	95,101	-0,060	-0,051
-555,685	800,000	0,032	-0,075
-554,671	-200,000	-0,019	0,063
-553,656	-129,929	-0,072	-0,007
-552,642	386,241	0,040	-0,062
-551,627	-200,000	-0,005	-0,231
-550,612	-200,000	-0,001	0,046
-549,598	800,000	-0,016	-0,044
-548,583	16,967	-0,096	-0,056
-547,569	-200,000	-0,015	0,091
-546,554	-9,342	0,106	0,052
-545,539	-3,586	-0,037	0,019
-544,525	-200,000	0,012	0,176
-543,510	-200,000	0,009	0,078
-542,496	92,278	0,004	0,003
-541,481	-200,000	-0,005	0,078
-540,466	114,389	-0,079	-0,071
-539,452	31,055	0,051	-0,032
-538,437	277,405	0,089	0,117
-537,423	-55,553	-0,124	-0,041
-536,408	252,198	0,050	-0,062
-535,393	607,503	-0,045	-0,083
-534,379	-133,094	-0,218	-0,020
-533,364	-200,000	-0,165	0,000
-532,350	-121,161	-0,073	-0,009
-531,335	659,436	0,034	-0,065
-530,321	181,891	-0,024	-0,026
-529,306	130,620	-0,088	-0,083
-528,291	-200,000	-0,041	-0,233
-527,277	64,383	-0,129	-0,096
-526,262	-200,000	0,002	-0,025
-525,248	800,000	0,032	0,085
-524,233	-46,091	-0,010	0,003
-523,218	87,094	0,099	0,080
-522,204	-200,000	0,032	-0,119
-521,189	-200,000	0,035	-0,159
-520,175	-45,073	0,124	-0,045
-519,160	-38,836	0,083	0,032
-518,145	-200,000	-0,022	-0,131
-517,131	-76,845	0,069	-0,018
-516,116	800,000	0,006	0,017
-515,102	800,000	0,058	-0,133
-514,087	800,000	0,055	-0,138
-513,072	-96,701	-0,104	-0,020
-512,058	-53,157	-0,036	-0,012
-511,043	282,993	-0,082	0,109
-510,029	149,000	0,030	0,030
-509,014	-150,793	-0,014	-0,001
-507,999	282,583	-0,011	-0,015
-506,985	-200,000	0,010	-0,064
-505,970	-200,000	0,025	-0,099
-504,956	679,789	-0,047	0,091
-503,941	-200,000	0,026	0,098
-502,926	234,390	-0,040	-0,048
-501,912	-200,000	-0,035	0,128
-500,897	-153,611	0,021	-0,001
-499,883	-139,964	-0,068	-0,005
-498,868	128,016	0,111	-0,105
-497,853	17,231	-0,031	0,018
-496,839	-13,062	-0,128	0,061
-495,824	7,551	0,089	-0,049
-494,810	800,000	0,052	-0,130
-493,795	-85,368	-0,057	-0,013
-492,781	318,398	-0,049	0,069
-491,766	-62,091	0,093	-0,029
-490,751	-24,381	-0,177	-0,077
-489,737	-200,000	-0,013	0,079
-488,722	785,236	0,030	0,060
-487,708	48,548	-0,096	0,066
-486,693	-29,463	0,127	-0,053
-485,678	-200,000	0,015	-0,094
-484,664	598,844	0,092	0,169
-483,649	-200,000	0,051	-0,182
-482,635	516,138	0,048	0,084
-481,620	-200,000	-0,023	0,155
-480,605	-133,894	-0,066	-0,006
-479,591	-200,000	-0,032	0,115
-478,576	-200,000	0,005	-0,052
-477,562	-200,000	0,008	-0,105
-476,547	-200,000	0,053	-0,229
-475,532	188,937	-0,069	-0,076
-474,518	8,321	0,073	0,040
-473,503	-26,303	0,103	0,044
-472,489	-67,256	-0,081	0,023
-471,474	55,499	0,037	0,026
-470,459	26,799	0,128	-0,079
-469,445	303,282	-0,115	-0,157
-468,430	-200,000	-0,002	-0,013
-467,416	605,121	-0,034	-0,063
-466,401	800,000	0,060	0,138
-465,386	-8,583	0,071	-0,035
-464,372	637,024	0,072	-0,135
-463,357	800,000	0,053	0,125
-462,343	-200,000	-0,003	-0,106
-461,328	378,869	0,034	-0,052
-460,313	-57,400	-0,175	0,056
-459,299	305,174	-0,042	-0,057
-458,284	-164,368	0,134	-0,004
-457,270	-39,653	-0,094	-0,036
-456,255	800,000	-0,016	0,044
-455,241	656,015	-0,014	-0,027
-454,226	31,338	-0,021	0,013
-453,211	184,231	-0,031	-0,034
-452,197	36,264	0,131	-0,085
-451,182	111,971	0,037	0,033
-450,168	-99,364	-0,122	-0,022
-449,153	25,470	0,072	-0,044
-448,138	-141,326	0,131	0,010
-447,124	-122,849	0,071	0,008
-446,109	600,987	-0,013	-0,025
-445,095	-200,000	-0,001	-0,056
-444,080	23,624	0,041	0,025
-443,065	-110,806	-0,101	-0,015
-442,051	-200,000	-0,000	0,054
-441,036	-113,988	-0,092	0,013
-440,022	464,692	-0,054	-0,089
-439,007	-56,856	-0,044	0,014
-437,992	355,762	0,024	-0,035
-436,978	-5,102	0,043	-0,022
-435,963	800,000	-0,049	0,123
-434,949	94,251	0,039	0,032
-433,934	-64,413	-0,140	0,042
-432,919	-5,475	-0,134	0,067
-431,905	355,939	0,052	0,076
-430,890	-200,000	0,006	0,086
-429,876	-75,092	0,101	-0,026
-428,861	51,868	0,091	0,063
-427,846	-109,869	0,050	0,008
-426,832	184,907	0,029	0,032
-425,817	25,308	-0,134	0,081
-424,803	-200,000	-0,014	0,056
-423,788	-46,421	-0,091	0,033
-422,773	-140,038	-0,134	-0,010
-421,759	-200,000	-0,003	0,057
-420,744	343,054	-0,064	-0,092
-419,730	497,087	-0,052	0,088
-418,715	762,290	-0,026	0,052
-417,701	98,293	-0,082	-0,069
-416,686	668,091	0,031	0,059
-415,671	322,556	0,027	-0,038
-414,657	52,135	0,057	0,040
-413,642	214,615	0,064	0,075
-412,628	718,271	0,028	0,054
-411,613	-180,205	0,072	0,001
-410,598	800,000	-0,002	-0,005
-409,584	482,618	0,078	0,131
-408,569	800,000	-0,029	0,064
-407,555	-59,637	0,023	-0,007
-406,540	-200,000	-0,013	0,115
-405,525	63,709	-0,060	-0,044
-404,511	341,285	-0,024	-0,034
-403,496	-108,185	0,076	0,012
-402,482	-110,770	0,163	0,024
-401,467	-107,829	-0,094	0,015
-400,452	152,547	-0,041	-0,041
-399,438	256,807	-0,058	-0,073
-398,423	-49,942	-0,122	-0,042
-397,409	356,479	-0,014	-0,021
-396,394	63,915	-0,162	0,119
-395,379	-19,899	0,121	-0,055
-394,365	-200,000	-0,024	0,113
-393,350	-83,595	0,056	-0,013
-392,336	-25,238	0,049	-0,021
-391,321	800,000	0,042	-0,111
-390,306	-65,992	-0,214	-0,062
-389,292	-29,821	0,048	0,020
-388,277	-200,000	-0,002	0,109
-387,263	234,895	-0,065	-0,079
-386,248	-200,000	0,025	0,126
-385,233	640,734	0,042	0,078
-384,219	-200,000	0,030	-0,134
-383,204	-20,764	-0,076	0,034
-382,190	671,979	-0,041	0,079
-381,175	208,456	0,094	0,108
-380,160	172,619	0,106	0,112
-379,146	-200,000	-0,007	0,157
-378,131	-200,000	-0,006	0,088
-377,117	800,000	-0,038	0,094
-376,102	267,291	-0,025	-0,032
-375,088	245,633	0,052	0,065
-374,073	800,000	-0,004	-0,011
-373,058	800,000	-0,032	0,100
-372,044	-200,000	-0,023	0,114
-371,029	800,000	-0,018	0,059
-370,015	366,322	0,072	-0,107
-369,000	546,045	0,051	-0,089
-367,985	-89,258	-0,084	0,018
-366,971	-32,044	-0,033	-0,014
-365,956	127,087	0,035	-0,032
-364,942	-200,000	-0,029	-0,135
-363,927	578,780	-0,021	0,037
-362,912	76,809	-0,063	0,049
-361,898	639,280	-0,008	0,014
-360,883	800,000	-0,019	-0,055
-359,869	-72,027	-0,115	-0,031
-358,854	800,000	-0,051	0,105
-357,839	0,565	-0,011	0,006
-356,825	88,451	0,097	0,079
-355,810	800,000	0,047	-0,131
-354,796	-200,000	-0,013	0,064
-353,781	-53,481	0,062	-0,021
-352,766	85,089	-0,079	-0,064
-351,752	-200,000	0,035	0,150
-350,737	-73,584	-0,076	-0,020
-349,723	800,000	0,052	0,124
-348,708	800,000	-0,042	0,135
-347,693	-200,000	-0,001	0,128
-346,679	67,211	0,056	0,042
-345,664	-2,619	0,093	-0,048
-344,650	-99,747	-0,089	-0,016
-343,635	207,500	-0,030	0,034
-342,620	800,000	0,035	0,074
-341,606	-29,707	-0,095	-0,040
-340,591	800,000	0,043	-0,089
-339,577	800,000	-0,043	0,094
-338,562	800,000	-0,028	0,059
-337,548	-24,806	0,157	-0,068
-336,533	461,078	-0,044	0,072
-335,518	-200,000	-0,004	-0,062
-334,504	27,575	-0,026	0,016
-333,489	-67,967	0,121	0,034
-332,475	160,677	-0,013	-0,013
-331,460	-200,000	0,007	-0,039
-330,445	-200,000	0,002	0,013
-329,431	30,276	-0,086	-0,054
-328,416	-14,702	0,077	0,036
-327,402	800,000	0,041	0,086
-326,387	109,413	-0,112	0,098
-325,372	10,561	-0,142	-0,079
-324,358	-70,296	-0,112	0,031
-323,343	-56,794	-0,127	-0,041
-322,329	260,151	-0,089	0,113
-321,314	800,000	0,022	0,054
-320,299	-22,902	0,138	-0,061
-319,285	187,113	-0,040	0,044
-318,270	800,000	-0,042	0,128
-317,256	-30,142	-0,069	0,029
-316,241	16,812	-0,054	-0,031
-315,226	-200,000	-0,011	0,098
-314,212	-63,258	0,077	-0,023
-313,197	434,613	0,079	-0,126
-312,183	-200,000	0,006	-0,072
-311,168	747,790	0,024	0,047
-310,153	-139,995	-0,077	0,006
-309,139	-200,000	0,010	-0,047
-308,124	87,166	-0,095	-0,077
-307,110	34,688	-0,143	-0,091
-306,095	800,000	-0,030	0,082
-305,080	100,493	-0,024	0,020
-304,066	-200,000	-0,010	-0,037
-303,051	-115,486	-0,064	-0,009
-302,037	219,272	-0,085	0,100
-301,022	-114,152	0,121	0,017
-300,008	-200,000	-0,032	-0,120
-298,993	-52,941	-0,114	0,038
-297,978	196,608	0,074	-0,082
-296,964	-200,000	0,000	0,055
-295,949	136,648	-0,068	0,065
-294,935	407,177	0,030	0,047
-293,920	423,641	-0,044	0,070
-292,905	-76,644	0,108	-0,028
-291,891	304,039	0,074	0,101
-290,876	4,048	0,046	-0,025
-289,862	348,307	-0,047	-0,068
-288,847	308,787	0,044	-0,060
-287,832	800,000	-0,021	-0,055
-286,818	800,000	-0,028	-0,067
-285,803	-200,000	0,084	0,000
-284,789	-200,000	-0,011	-0,059
-283,774	499,809	-0,066	0,112
-282,759	-113,707	-0,070	0,010
-281,745	285,068	0,058	-0,077
-280,730	800,000	-0,042	0,096
-279,716	-200,000	0,011	-0,037
-278,701	-135,107	0,017	0,002
-277,686	800,000	0,027	-0,064
-276,672	-125,907	-0,095	-0,010
-275,657	-95,740	-0,049	0,010
-274,643	-200,000	-0,074	0,000
-273,628	-58,610	0,085	-0,027
-272,613	800,000	0,049	0,135
-271,599	273,786	-0,075	-0,097
-270,584	-5,539	0,064	0,032
-269,570	302,205	0,033	0,045
-268,555	-20,279	-0,075	0,034
-267,540	-17,309	0,140	0,064
-266,526	701,490	-0,063	-0,122
-265,511	800,000	-0,041	-0,128
-264,497	-200,000	-0,020	-0,069
-263,482	-10,928	0,146	-0,070
-262,467	351,526	-0,051	0,074
-261,453	-200,000	-0,005	0,094
-260,438	-73,471	-0,103	-0,027
-259,424	111,285	-0,112	-0,099
-258,409	19,986	-0,125	-0,073
-257,395	-90,929	0,100	-0,021
-256,380	800,000	0,057	0,181
-255,365	-34,454	0,054	-0,022
-254,351	230,444	-0,086	-0,103
-253,336	78,345	-0,040	-0,031
-252,322	-200,000	0,013	-0,051
-251,307	-134,636	-0,118	0,010
-250,292	553,918	0,034	-0,060
-249,278	58,971	0,059	-0,042
-248,263	114,802	-0,058	0,051
-247,249	-102,298	0,104	0,018
-246,234	-154,190	-0,056	0,003
-245,219	103,433	-0,087	-0,075
-244,205	800,000	-0,070	-0,195
-243,190	613,118	-0,035	-0,064
-242,176	85,618	0,132	0,106
-241,161	-112,246	0,054	0,008
-240,146	116,193	0,115	0,103
-239,132	-200,000	-0,002	-0,064
-238,117	-200,000	-0,018	-0,105
-237,103	-200,000	-0,003	-0,037
-236,088	800,000	0,036	-0,074
-235,073	-45,563	0,077	0,028
-234,059	-19,508	0,069	-0,031
-233,044	-200,000	0,014	-0,093
-232,030	800,000	0,043	-0,124
-231,015	-200,000	0,001	-0,020
-230,000	77,538	-0,125	0,097
-228,986	383,573	-0,036	-0,055
-227,971	800,000	0,025	-0,078
-226,957	25,714	0,070	-0,042
-225,942	-200,000	-0,015	0,057
-224,927	210,201	0,061	0,069
-223,913	-8,776	-0,080	-0,039
-222,898	-200,000	-0,002	0,035
-221,884	55,782	0,133	0,094
-220,869	-13,848	0,018	-0,008
-219,855	145,044	-0,061	0,059
-218,840	-200,000	0,010	0,072
-217,825	-200,000	0,002	0,019
-216,811	-200,000	0,026	-0,104
-215,796	-46,721	-0,123	0,044
-214,782	-101,937	0,078	-0,014
-213,767	-62,654	-0,139	0,042
-212,752	-36,894	0,048	-0,019
-211,738	-200,000	-0,006	0,067
-210,723	-200,000	-0,023	-0,110
-209,709	800,000	-0,026	-0,063
-208,694	-36,629	-0,073	-0,029
-207,679	-42,847	0,054	0,020
-206,665	-115,196	0,147	-0,020
-205,650	455,628	0,049	-0,080
-204,636	41,133	-0,113	0,074
-203,621	179,931	0,027	-0,029
-202,606	54,945	0,082	-0,057
-201,592	491,624	-0,068	-0,114
-200,577	800,000	-0,095	-0,195
-199,563	-200,000	0,043	0,163
-198,548	428,596	0,120	0,189
-197,533	196,935	0,133	-0,148
-196,519	-50,883	0,058	0,020
-195,504	717,540	-0,031	-0,060
-194,490	-7,362	-0,207	-0,102
-193,475	-200,000	0,003	-0,058
-192,460	-155,529	0,129	0,006
-191,446	800,000	0,026	0,063
-190,431	13,875	0,131	0,074
-189,417	39,454	0,153	0,100
-188,402	800,000	0,044	0,139
-187,387	800,000	0,022	-0,059
-186,373	-200,000	0,002	0,077
-185,358	-32,862	0,016	0,007
-184,344	222,247	0,115	0,135
-183,329	-200,000	-0,010	0,127
-182,315	115,173	0,065	0,058
-181,300	500,267	-0,065	0,110
-180,285	-200,000	-0,004	-0,044
-179,271	-17,811	0,008	-0,004
-178,256	-39,070	-0,095	-0,036
-177,242	800,000	-0,007	-0,018
-176,227	278,756	-0,054	0,070
-175,212	800,000	-0,082	0,223
-174,198	150,961	0,138	-0,137
-173,183	795,996	-0,042	-0,085
-172,169	-200,000	-0,015	0,079
-171,154	261,385	-0,017	-0,021
-170,139	235,531	0,096	-0,115
-169,125	90,928	0,115	-0,094
-168,110	-108,859	0,187	0,029
-167,096	-49,863	0,139	0,048
-166,081	-13,081	-0,117	0,055
-165,066	160,460	-0,130	-0,132
-164,052	-94,939	0,046	-0,009
-163,037	-200,000	-0,011	0,128
-162,023	-72,450	-0,012	-0,003
-161,008	545,029	-0,034	0,059
-159,993	-200,000	0,036	0,130
-158,979	-111,449	0,088	-0,013
-157,964	236,019	0,035	-0,043
-156,950	290,143	-0,024	0,032
-155,935	65,511	-0,052	-0,039
-154,920	-52,993	0,086	-0,029
-153,906	800,000	-0,068	0,195
-152,891	31,523	-0,047	0,029
-151,877	-200,000	0,035	-0,145
-150,862	-200,000	-0,020	-0,168
-149,847	800,000	0,064	-0,133
-148,833	-143,827	-0,107	0,007
-147,818	399,110	0,051	0,078
-146,804	-108,024	-0,137	0,021
-145,789	476,289	0,058	0,096
-144,775	-98,047	0,076	-0,014
-143,760	-200,000	0,021	-0,171
-142,745	-200,000	0,028	-0,150
-141,731	66,468	-0,051	0,037
-140,716	-200,000	0,003	0,040
-139,702	-200,000	0,005	0,018
-138,687	-2,341	0,190	0,097
-137,672	-200,000	-0,033	0,151
-136,658	20,530	-0,081	0,047
-135,643	27,683	0,069	-0,042
-134,629	800,000	0,011	0,036
-133,614	226,359	-0,075	0,089
-132,599	94,674	0,100	0,082
-131,585	-32,330	-0,035	-0,014
-130,570	129,566	0,059	-0,054
-129,556	93,657	-0,039	-0,032
-128,541	179,273	0,059	-0,063
-127,526	-19,372	-0,034	-0,015
-126,512	-200,000	-0,031	-0,121
-125,497	-56,839	0,092	-0,029
-124,483	-200,000	0,001	0,111
-123,468	125,412	0,050	0,046
-122,453	-156,116	0,053	0,002
-121,439	800,000	-0,042	0,100
-120,424	609,096	0,033	0,059
-119,410	-200,000	0,006	0,050
