DTS Sentinel unit serial number:	SN410029Multiplexer serial number:	ORYXHardware model number:	OX2-SRSoftware version number:	ORYX F/W v4,00 Oryx Data Collector v3.7.2.0data status	okinstallation	B4 Nyhavnadifferential loss correction	single-endedforward channel	channel 2reverse channel	N/Adate	2023/12/19time	11:55:14forward acquisition time	300,00reverse acquisition time	0,00gamma	499,1914k internal	0,3127k external	0,3127temperature offset calibration	1,0000default loss term (dB/km)	0,3820temperature slope calibration	1,0000multiplexer offset coefficient	1,0000multiplexer slope coefficient	1,0000fibre end	0,00T internal ref (°C)	19,68T ext. ref 1 (°C)	4,47T ext. ref 2 (°C)	4,42length (m)	temperature (°C)	Stokes	anti-Stokes-744,400	-101,776	0,148	-0,026
-743,385	-86,684	-0,282	0,064
-742,371	474,038	0,093	-0,157
-741,356	88,383	-0,202	0,167
-740,342	-200,000	-0,006	0,099
-739,327	-177,187	-0,350	0,006
-738,312	54,531	0,124	-0,089
-737,298	-48,230	-0,276	0,099
-736,283	800,000	-0,007	-0,017
-735,269	-106,428	-0,261	-0,043
-734,254	630,942	-0,039	-0,074
-733,239	-126,080	-0,460	-0,051
-732,225	-19,845	0,073	-0,033
-731,210	-158,696	0,095	0,004
-730,196	237,797	0,051	0,064
-729,181	-137,907	-0,100	0,008
-728,167	30,151	-0,063	0,040
-727,152	-80,662	0,062	-0,015
-726,137	176,338	-0,047	0,051
-725,123	-97,179	-0,116	-0,022
-724,108	26,174	-0,086	-0,053
-723,094	800,000	-0,032	-0,071
-722,079	-200,000	0,002	-0,158
-721,064	171,449	0,054	-0,057
-720,050	379,907	-0,040	0,061
-719,035	536,723	0,036	0,064
-718,021	-200,000	-0,014	-0,135
-717,006	67,134	-0,042	-0,032
-715,991	636,660	-0,076	-0,143
-714,977	800,000	-0,024	-0,072
-713,962	-200,000	-0,027	-0,110
-712,948	-69,811	0,107	-0,030
-711,933	-12,379	-0,037	-0,018
-710,918	-200,000	0,010	-0,080
-709,904	-185,051	-0,179	-0,002
-708,889	212,973	-0,135	-0,159
-707,875	52,987	-0,038	-0,027
-706,860	-200,000	-0,003	-0,026
-705,845	-68,617	0,014	-0,004
-704,831	-200,000	-0,135	0,000
-703,816	-200,000	0,005	0,084
-702,802	565,023	0,033	-0,060
-701,787	-162,466	-0,129	0,005
-700,772	63,504	-0,025	-0,019
-699,758	-200,000	-0,009	-0,046
-698,743	-113,884	0,064	-0,009
-697,729	246,668	0,012	0,015
-696,714	-200,000	-0,009	0,066
-695,699	-200,000	0,011	-0,078
-694,685	-108,490	0,069	0,011
-693,670	128,796	-0,115	-0,109
-692,656	19,270	-0,076	-0,045
-691,641	142,134	0,079	0,078
-690,627	-126,724	-0,276	-0,030
-689,612	126,255	0,110	0,103
-688,597	-55,061	-0,068	0,023
-687,583	-200,000	0,002	-0,173
-686,568	-200,000	0,022	-0,105
-685,554	16,694	-0,174	-0,102
-684,539	-200,000	0,002	0,053
-683,524	-200,000	0,018	-0,101
-682,510	-98,303	0,116	-0,022
-681,495	52,238	-0,068	-0,048
-680,481	-200,000	-0,041	-0,192
-679,466	308,544	0,095	-0,133
-678,451	-15,674	-0,143	-0,068
-677,437	-70,273	-0,080	0,022
-676,422	-167,199	-0,096	-0,003
-675,408	-51,511	0,095	0,033
-674,393	-48,903	-0,074	0,026
-673,378	-116,601	-0,141	0,019
-672,364	-27,104	0,105	-0,045
-671,349	-14,742	-0,105	-0,050
-670,335	-200,000	-0,013	-0,055
-669,320	18,074	-0,023	-0,014
-668,305	-23,258	0,051	-0,023
-667,291	-157,469	-0,106	-0,005
-666,276	800,000	0,062	-0,137
-665,262	-200,000	0,002	-0,078
-664,247	-200,000	-0,002	-0,091
-663,232	282,327	0,060	-0,080
-662,218	3,967	0,041	0,022
-661,203	-132,555	-0,044	0,004
-660,189	-13,874	-0,112	-0,053
-659,174	248,201	0,099	-0,124
-658,159	113,094	-0,120	-0,108
-657,145	-6,557	-0,032	-0,016
-656,130	-200,000	-0,004	-0,101
-655,116	-41,095	-0,047	-0,018
-654,101	69,673	0,031	0,024
-653,086	354,460	-0,094	0,139
-652,072	-51,315	0,054	0,019
-651,057	215,923	-0,110	-0,130
-650,043	110,196	-0,062	-0,055
-649,028	253,303	-0,048	-0,061
-648,014	167,556	-0,031	-0,032
-646,999	-200,000	0,002	0,088
-645,984	-85,450	-0,026	0,006
-644,970	78,663	-0,063	0,050
-643,955	800,000	-0,013	0,041
-642,941	7,499	-0,080	-0,044
-641,926	-200,000	0,013	-0,047
-640,911	72,551	0,096	-0,074
-639,897	66,204	-0,074	-0,056
-638,882	800,000	-0,039	0,114
-637,868	31,244	-0,085	0,054
-636,853	-84,655	0,132	-0,031
-635,838	629,932	-0,067	0,126
-634,824	313,293	0,069	0,097
-633,809	171,338	-0,041	-0,044
-632,795	-101,845	-0,098	0,017
-631,780	-171,322	0,055	-0,001
-630,765	-98,563	-0,111	0,021
-629,751	478,639	-0,094	-0,159
-628,736	353,798	0,061	-0,091
-627,722	187,815	-0,054	0,060
-626,707	49,155	-0,056	-0,039
-625,692	-35,837	0,087	-0,035
-624,678	800,000	-0,051	0,110
-623,663	76,657	-0,060	-0,047
-622,649	21,745	-0,055	0,033
-621,634	-141,435	-0,096	0,007
-620,619	87,488	0,058	-0,048
-619,605	-25,985	-0,150	-0,065
-618,590	112,618	-0,052	-0,047
-617,576	800,000	-0,015	-0,041
-616,561	260,786	-0,104	0,133
-615,546	323,930	0,021	0,030
-614,532	-200,000	-0,008	-0,073
-613,517	-200,000	0,004	-0,065
-612,503	800,000	0,110	-0,257
-611,488	367,010	0,041	0,061
-610,474	-143,848	0,150	-0,010
-609,459	800,000	0,022	-0,062
-608,444	356,052	0,022	-0,032
-607,430	-115,468	0,033	0,005
-606,415	501,249	0,039	-0,067
-605,401	-8,548	0,142	-0,070
-604,386	-200,000	-0,002	0,107
-603,371	-200,000	-0,008	0,111
-602,357	11,277	0,109	0,062
-601,342	-200,000	-0,013	0,074
-600,328	439,034	-0,023	-0,037
-599,313	482,192	0,038	-0,064
-598,298	-200,000	0,003	-0,014
-597,284	76,404	0,065	-0,051
-596,269	26,571	0,070	0,044
-595,255	315,653	0,070	0,098
-594,240	-119,765	-0,019	0,002
-593,225	84,831	-0,124	-0,101
-592,211	-138,646	-0,061	-0,005
-591,196	122,194	0,029	-0,026
-590,182	2,815	0,156	0,083
-589,167	-110,501	-0,118	-0,018
-588,152	-200,000	0,007	-0,047
-587,138	207,180	0,057	0,065
-586,123	-66,527	-0,135	0,039
-585,109	-180,505	-0,067	-0,001
-584,094	-200,000	-0,025	0,124
-583,079	-47,112	0,189	0,068
-582,065	-28,664	0,077	-0,033
-581,050	-87,918	0,011	0,002
-580,036	35,786	-0,089	-0,058
-579,021	-33,951	-0,092	0,037
-578,006	-200,000	-0,014	-0,067
-576,992	-200,000	-0,011	-0,072
-575,977	564,781	0,065	0,116
-574,963	440,316	0,079	0,127
-573,948	-65,921	0,065	0,019
-572,934	-200,000	-0,011	0,198
-571,919	749,116	-0,030	0,061
-570,904	-50,892	-0,024	-0,008
-569,890	323,487	-0,077	-0,109
-568,875	-30,284	0,060	0,025
-567,861	197,409	0,090	-0,102
-566,846	-200,000	0,014	0,147
-565,831	-118,229	0,070	-0,009
-564,817	147,743	-0,104	0,103
-563,802	51,290	-0,106	0,074
-562,788	-200,000	0,018	-0,064
-561,773	-200,000	-0,000	-0,009
-560,758	130,315	-0,028	0,027
-559,744	-135,917	0,088	-0,008
-558,729	-167,586	0,076	-0,002
-557,715	-200,000	0,006	-0,042
-556,700	-200,000	0,006	0,043
-555,685	284,082	-0,078	-0,104
-554,671	-29,419	-0,033	-0,014
-553,656	-99,558	0,086	-0,016
-552,642	-200,000	-0,001	0,136
-551,627	-56,186	-0,077	-0,025
-550,612	-3,972	-0,132	-0,067
-549,598	-200,000	-0,016	0,057
-548,583	-43,554	0,102	0,038
-547,569	50,258	0,088	-0,061
-546,554	-142,936	-0,056	-0,004
-545,539	-90,244	0,154	-0,033
-544,525	24,981	-0,151	0,092
-543,510	-38,969	-0,138	-0,054
-542,496	28,752	-0,103	0,064
-541,481	-113,645	0,090	-0,013
-540,466	-112,397	0,037	-0,005
-539,452	-33,958	0,074	-0,030
-538,437	515,330	-0,040	0,069
-537,423	210,484	0,059	0,068
-536,408	-110,569	-0,121	0,018
-535,393	800,000	-0,077	-0,161
-534,379	800,000	0,065	-0,187
-533,364	-26,796	-0,179	0,077
-532,350	800,000	0,041	0,132
-531,335	321,393	-0,058	0,081
-530,321	-200,000	-0,016	-0,072
-529,306	-200,000	0,012	0,000
-528,291	-197,859	0,133	-0,001
-527,277	-131,611	-0,263	0,025
-526,262	-76,803	0,067	-0,017
-525,248	391,298	0,094	0,144
-524,233	-28,791	0,115	0,049
-523,218	123,833	-0,107	-0,099
-522,204	151,151	0,008	0,008
-521,189	-200,000	0,009	0,043
-520,175	-136,338	-0,081	-0,007
-519,160	-200,000	0,019	0,098
-518,145	-200,000	0,028	-0,096
-517,131	-28,705	0,085	0,036
-516,116	-200,000	0,003	0,135
-515,102	425,105	0,041	-0,066
-514,087	-144,459	-0,097	-0,007
-513,072	71,606	-0,075	-0,058
-512,058	-60,592	0,075	0,023
-511,043	800,000	0,028	-0,080
-510,029	25,287	0,107	-0,065
-509,014	59,013	0,040	-0,029
-507,999	58,215	-0,120	-0,087
-506,985	273,676	-0,049	-0,064
-505,970	-200,000	0,010	0,072
-504,956	-125,022	-0,079	0,009
-503,941	481,478	-0,020	0,034
-502,926	331,645	0,021	0,030
-501,912	800,000	-0,018	0,054
-500,897	38,680	-0,046	-0,030
-499,883	58,170	-0,059	-0,042
-498,868	-9,288	-0,079	0,039
-497,853	250,724	0,046	0,058
-496,839	-116,676	0,103	0,014
-495,824	75,630	0,054	0,042
-494,810	81,055	0,038	-0,030
-493,795	-200,000	0,017	0,102
-492,781	35,546	0,140	0,090
-491,766	-125,914	-0,062	0,007
-490,751	-143,108	-0,042	0,003
-489,737	467,780	-0,049	0,081
-488,722	69,997	0,053	-0,040
-487,708	-200,000	0,001	-0,105
-486,693	-200,000	0,061	0,209
-485,678	800,000	-0,022	0,050
-484,664	298,924	-0,078	-0,107
-483,649	-200,000	0,003	-0,137
-482,635	-45,557	-0,039	-0,014
-481,620	526,763	0,037	0,064
-480,605	40,601	-0,133	-0,088
-479,591	-10,729	0,074	0,036
-478,576	-140,927	-0,077	0,006
-477,562	-48,129	0,084	0,030
-476,547	75,538	0,082	0,064
-475,532	-87,821	0,069	-0,015
-474,518	89,275	0,071	0,058
-473,503	136,061	-0,058	-0,056
-472,489	800,000	0,018	0,051
-471,474	241,716	0,091	-0,112
-470,459	-200,000	-0,033	0,159
-469,445	-200,000	0,002	-0,020
-468,430	19,372	-0,025	-0,015
-467,416	-200,000	0,025	-0,103
-466,401	184,876	-0,059	-0,065
-465,386	138,046	-0,070	-0,068
-464,372	-52,708	-0,023	0,008
-463,357	-23,650	-0,083	0,037
-462,343	692,357	0,021	-0,041
-461,328	-200,000	0,023	-0,176
-460,313	-38,495	-0,105	0,041
-459,299	-6,789	0,035	-0,017
-458,284	-71,288	0,158	0,043
-457,270	-200,000	-0,002	0,035
-456,255	371,984	0,033	-0,049
-455,241	-200,000	0,007	0,034
-454,226	-157,761	0,070	-0,003
-453,211	-75,592	-0,148	0,038
-452,197	4,709	0,111	0,060
-451,182	141,623	0,077	0,075
-450,168	285,372	0,090	-0,120
-449,153	-99,380	0,041	0,008
-448,138	191,928	-0,035	-0,039
-447,124	14,181	0,041	-0,023
-446,109	316,367	-0,026	0,036
-445,095	-176,906	0,115	-0,002
-444,080	800,000	0,017	0,055
-443,065	800,000	0,062	0,141
-442,051	-58,343	-0,054	-0,017
-441,036	-200,000	-0,018	-0,152
-440,022	641,019	-0,069	-0,129
-439,007	250,747	-0,063	-0,079
-437,992	40,586	-0,054	0,036
-436,978	84,192	0,126	0,101
-435,963	166,685	0,031	0,033
-434,949	-200,000	0,002	-0,028
-433,934	231,103	-0,107	-0,129
-432,919	272,352	0,021	0,027
-431,905	-200,000	-0,020	-0,076
-430,890	-200,000	-0,004	0,073
-429,876	-167,780	-0,130	0,004
-428,861	-11,876	-0,072	-0,035
-427,846	800,000	0,022	-0,048
-426,832	93,291	-0,029	0,024
-425,817	141,790	-0,106	-0,103
-424,803	-200,000	0,016	-0,117
-423,788	140,516	0,102	0,099
-422,773	129,134	0,030	-0,028
-421,759	51,275	0,083	0,058
-420,744	800,000	-0,055	0,124
-419,730	29,001	-0,027	-0,017
-418,715	367,789	0,027	-0,040
-417,701	-200,000	-0,032	0,145
-416,686	-39,016	0,053	0,020
-415,671	-62,579	0,149	0,045
-414,657	-73,746	-0,041	-0,011
-413,642	-165,461	-0,031	0,001
-412,628	-63,520	0,007	0,002
-411,613	-200,000	0,028	-0,127
-410,598	-200,000	-0,034	-0,114
-409,584	190,416	0,023	-0,025
-408,569	309,641	0,060	0,083
-407,555	-51,326	0,090	-0,031
-406,540	79,292	0,097	-0,076
-405,525	800,000	-0,078	-0,214
-404,511	27,617	-0,188	-0,116
-403,496	-113,442	0,152	-0,022
-402,482	289,709	0,076	-0,102
-401,467	-200,000	-0,048	0,186
-400,452	121,038	0,106	0,097
-399,438	231,525	0,061	-0,073
-398,423	800,000	0,021	0,045
-397,409	800,000	-0,035	-0,079
-396,394	-200,000	-0,033	0,144
-395,379	201,622	-0,064	-0,072
-394,365	-0,198	-0,085	0,044
-393,350	-200,000	0,007	0,082
-392,336	800,000	-0,017	0,051
-391,321	-200,000	-0,021	-0,073
-390,306	-40,858	0,052	-0,020
-389,292	183,597	0,031	0,033
-388,277	-200,000	0,013	-0,044
-387,263	-78,091	0,070	-0,018
-386,248	439,634	0,041	-0,066
-385,233	155,891	-0,124	-0,125
-384,219	223,480	-0,029	-0,034
-383,204	31,310	-0,038	-0,024
-382,190	-200,000	-0,019	0,065
-381,175	-11,939	-0,109	-0,052
-380,160	150,046	0,045	0,045
-379,146	800,000	0,025	0,061
-378,131	-86,843	-0,085	-0,019
-377,117	-200,000	0,018	-0,104
-376,102	-200,000	-0,007	0,038
-375,088	59,615	-0,029	-0,021
-374,073	318,344	0,015	0,021
-373,058	90,195	0,070	0,058
-372,044	-120,255	-0,152	-0,019
-371,029	59,698	-0,143	0,103
-370,015	64,870	-0,087	0,064
-369,000	-200,000	-0,009	0,083
-367,985	-113,796	-0,109	-0,015
-366,971	800,000	0,057	-0,120
-365,956	230,547	-0,076	0,091
-364,942	-200,000	0,000	0,070
-363,927	-200,000	-0,002	-0,058
-362,912	-40,338	-0,121	0,046
-361,898	-118,354	0,148	0,019
-360,883	373,788	-0,101	-0,151
-359,869	-15,662	-0,059	0,028
-358,854	227,948	-0,055	-0,066
-357,839	34,221	0,132	0,084
-356,825	-144,670	0,154	-0,010
-355,810	5,004	-0,135	0,072
-354,796	671,012	0,079	0,151
-353,781	220,218	0,021	0,025
-352,766	-200,000	-0,016	-0,052
-351,752	-64,532	-0,099	0,029
-350,737	-134,075	0,116	-0,010
-349,723	211,665	0,067	0,077
-348,708	230,430	0,081	-0,097
-347,693	94,002	-0,024	0,020
-346,679	-0,624	-0,112	0,058
-345,664	-31,642	0,061	-0,025
-344,650	-200,000	-0,017	-0,109
-343,635	-166,231	-0,120	0,004
-342,620	-164,675	-0,066	-0,002
-341,606	-119,913	-0,112	0,014
-340,591	-78,186	0,070	-0,017
-339,577	338,180	-0,030	-0,043
-338,562	511,266	0,034	-0,058
-337,548	-76,051	0,065	-0,017
-336,533	4,448	0,017	-0,009
-335,518	800,000	0,061	-0,129
-334,504	-76,749	0,116	-0,029
-333,489	221,071	-0,037	-0,043
-332,475	-200,000	0,009	-0,035
-331,460	-200,000	0,001	-0,021
-330,445	-96,851	-0,043	0,008
-329,431	-17,491	0,175	0,080
-328,416	-200,000	0,004	0,068
-327,402	-53,682	-0,035	-0,012
-326,387	-167,079	-0,217	-0,006
-325,372	192,530	0,056	-0,061
-324,358	87,165	-0,070	0,057
-323,343	131,718	0,046	0,043
-322,329	-200,000	0,003	0,018
-321,314	177,095	0,062	0,066
-320,299	218,164	-0,106	0,124
-319,285	-200,000	-0,035	-0,115
-318,270	2,494	-0,108	-0,057
-317,256	-200,000	0,004	0,018
-316,241	800,000	-0,002	0,004
-315,226	268,258	-0,016	0,021
-314,212	125,813	-0,066	-0,061
-313,197	350,734	-0,047	0,068
-312,183	378,922	-0,027	0,041
-311,168	-52,203	-0,116	-0,039
-310,153	-200,000	0,011	0,059
-309,139	-200,000	-0,001	0,054
-308,124	114,295	0,014	-0,013
-307,110	462,709	0,078	-0,128
-306,095	800,000	-0,038	0,111
-305,080	-26,689	0,034	0,015
-304,066	-19,272	-0,091	-0,041
-303,051	128,891	0,073	-0,068
-302,037	-85,512	-0,117	-0,026
-301,022	393,897	0,026	-0,040
-300,008	251,947	-0,040	0,050
-298,993	-200,000	0,016	0,129
-297,978	800,000	0,019	-0,043
-296,964	279,687	-0,130	-0,170
-295,949	378,539	-0,037	-0,055
-294,935	795,886	-0,032	0,065
-293,920	-141,764	0,230	-0,017
-292,905	-200,000	0,002	-0,034
-291,891	18,871	-0,040	0,023
-290,876	-27,930	0,023	0,010
-289,862	578,588	0,069	0,125
-288,847	-200,000	0,005	0,048
-287,832	190,373	-0,048	-0,053
-286,818	70,223	-0,122	-0,092
-285,803	2,707	0,075	0,040
-284,789	800,000	0,025	0,059
-283,774	-200,000	0,043	0,152
-282,759	-200,000	0,001	0,207
-281,745	138,914	-0,021	0,020
-280,730	-200,000	-0,032	-0,122
-279,716	665,338	0,009	-0,018
-278,701	-78,341	-0,083	-0,021
-277,686	-200,000	-0,025	0,187
-276,672	-200,000	-0,008	-0,047
-275,657	800,000	-0,028	0,057
-274,643	800,000	-0,068	-0,137
-273,628	-200,000	-0,001	-0,077
-272,613	-49,387	0,018	-0,006
-271,599	403,789	0,026	0,040
-270,584	124,913	-0,063	0,058
-269,570	-139,739	0,030	0,002
-268,555	-174,816	0,050	-0,001
-267,540	270,359	-0,109	-0,141
-266,526	800,000	-0,028	-0,089
-265,511	-200,000	-0,002	0,037
-264,497	-136,518	0,017	-0,001
-263,482	-116,458	-0,007	0,001
-262,467	-78,636	0,128	0,032
-261,453	-98,654	0,091	-0,017
-260,438	-117,530	0,047	-0,006
-259,424	419,134	0,040	0,062
-258,409	-200,000	-0,006	-0,019
-257,395	-11,823	0,108	0,052
-256,380	-200,000	-0,021	0,157
-255,365	513,207	-0,036	-0,062
-254,351	-64,467	-0,065	0,019
-253,336	800,000	-0,025	-0,074
-252,322	319,443	0,071	-0,099
-251,307	47,804	-0,070	0,048
-250,292	-155,500	0,074	0,003
-249,278	-200,000	0,015	0,051
-248,263	800,000	0,022	0,051
-247,249	82,840	-0,060	-0,047
-246,234	211,294	0,055	-0,064
-245,219	-121,474	0,113	0,014
-244,205	454,945	-0,058	-0,095
-243,190	-200,000	-0,003	-0,021
-242,176	-200,000	-0,018	-0,114
-241,161	-200,000	0,015	-0,062
-240,146	-200,000	0,004	0,080
-239,132	-59,002	-0,093	-0,029
-238,117	-15,432	-0,119	-0,055
-237,103	60,012	0,047	-0,034
-236,088	-43,031	0,117	-0,043
-235,073	54,311	0,114	-0,080
-234,059	-10,956	-0,031	0,015
-233,044	-119,577	-0,133	0,017
-232,030	738,012	0,036	-0,072
-231,015	37,443	0,105	-0,068
-230,000	40,177	-0,126	-0,082
-228,986	-200,000	0,035	0,155
-227,971	342,769	0,087	0,124
-226,957	60,288	-0,117	0,084
-225,942	-200,000	0,049	0,170
-224,927	785,732	-0,118	0,236
-223,913	-163,713	0,046	-0,002
-222,898	-68,768	-0,065	-0,018
-221,884	-35,330	0,050	-0,020
-220,869	-160,273	0,157	0,006
-219,855	8,495	-0,032	0,017
-218,840	-200,000	0,013	0,106
-217,825	-49,374	0,042	0,015
-216,811	33,438	-0,151	-0,095
-215,796	465,349	-0,060	-0,099
-214,782	113,634	-0,072	0,064
-213,767	-94,075	0,143	0,028
-212,752	0,531	0,113	0,059
-211,738	142,306	0,073	0,071
-210,723	-7,589	-0,061	-0,030
-209,709	800,000	0,053	-0,169
-208,694	-200,000	-0,003	-0,013
-207,679	109,228	0,070	-0,061
-206,665	-156,030	0,171	-0,008
-205,650	74,481	-0,113	-0,087
-204,636	493,995	0,096	-0,161
-203,621	232,938	0,141	-0,170
-202,606	-200,000	-0,012	-0,052
-201,592	64,019	0,024	0,018
-200,577	-200,000	-0,013	-0,089
-199,563	20,867	0,088	0,052
-198,548	-200,000	0,015	0,103
-197,533	-200,000	0,003	-0,061
-196,519	340,979	0,075	0,107
-195,504	304,478	-0,036	0,049
-194,490	-136,781	0,137	-0,011
-193,475	65,179	-0,170	-0,125
-192,460	144,660	0,081	-0,079
-191,446	800,000	-0,038	0,097
-190,431	800,000	0,019	0,050
-189,417	-195,819	-0,156	-0,001
-188,402	101,460	-0,075	0,064
-187,387	-200,000	-0,005	0,072
-186,373	164,042	0,031	0,032
-185,358	800,000	-0,019	-0,046
-184,344	-200,000	-0,004	0,053
-183,329	334,005	0,089	0,126
-182,315	-200,000	-0,002	-0,053
-181,300	-200,000	-0,010	-0,076
-180,285	-200,000	0,010	0,070
-179,271	800,000	0,025	-0,078
-178,256	118,828	-0,056	-0,050
-177,242	-32,614	0,153	0,062
-176,227	-97,168	0,093	0,018
-175,212	-15,117	0,083	0,039
-174,198	57,779	-0,029	0,021
-173,183	-112,364	-0,177	-0,026
-172,169	800,000	0,035	0,073
-171,154	800,000	-0,019	-0,053
-170,139	217,596	0,107	0,124
-169,125	-23,665	0,060	-0,026
-168,110	800,000	-0,005	0,012
-167,096	82,553	0,023	-0,018
-166,081	800,000	0,067	-0,172
-165,066	800,000	0,053	-0,146
-164,052	645,105	-0,050	0,093
-163,037	-86,440	-0,095	0,021
-162,023	-200,000	-0,015	-0,125
-161,008	108,197	0,099	0,086
-159,993	6,390	-0,043	-0,023
-158,979	7,168	-0,103	-0,056
-157,964	621,021	-0,060	-0,109
-156,950	-71,201	0,036	-0,010
-155,935	-78,229	0,095	0,024
-154,920	-54,391	0,041	0,014
-153,906	-200,000	0,033	0,108
-152,891	171,814	0,078	0,082
-151,877	83,644	-0,011	0,008
-150,862	800,000	0,016	0,039
-149,847	-47,815	-0,013	-0,004
-148,833	-200,000	0,010	0,043
-147,818	-166,595	0,113	0,003
-146,804	398,606	0,082	0,126
-145,789	425,595	-0,044	-0,070
-144,775	-200,000	-0,041	-0,181
-143,760	-200,000	-0,061	-0,205
-142,745	-200,000	-0,029	0,098
-141,731	-0,673	-0,119	0,061
-140,716	800,000	0,039	-0,102
-139,702	82,627	-0,092	-0,072
-138,687	800,000	-0,033	-0,089
-137,672	-200,000	-0,000	0,077
-136,658	-44,953	-0,100	0,036
-135,643	-20,857	-0,138	0,061
-134,629	307,265	-0,034	0,046
-133,614	-200,000	-0,017	0,101
-132,599	352,198	0,025	0,036
-131,585	800,000	0,023	0,053
-130,570	216,994	-0,092	-0,107
-129,556	-169,394	0,096	0,002
-128,541	190,373	-0,054	-0,059
-127,526	2,745	0,053	0,028
-126,512	705,543	-0,024	0,047
-125,497	-200,000	-0,002	0,011
-124,483	-56,892	0,086	0,027
-123,468	-73,982	0,114	0,030
-122,453	92,071	-0,058	-0,048
-121,439	83,680	0,072	-0,057
-120,424	84,895	-0,035	0,028
-119,410	-83,806	0,056	-0,013
