DTS Sentinel unit serial number:	SN410029Multiplexer serial number:	ORYXHardware model number:	OX2-SRSoftware version number:	ORYX F/W v4,00 Oryx Data Collector v3.7.2.0data status	okinstallation	B4 Nyhavnadifferential loss correction	single-endedforward channel	channel 2reverse channel	N/Adate	2023/12/16time	12:40:13forward acquisition time	300,00reverse acquisition time	0,00gamma	499,1914k internal	0,3126k external	0,3126temperature offset calibration	1,0000default loss term (dB/km)	0,3820temperature slope calibration	1,0000multiplexer offset coefficient	1,0000multiplexer slope coefficient	1,0000fibre end	0,00T internal ref (°C)	24,18T ext. ref 1 (°C)	10,41T ext. ref 2 (°C)	10,56length (m)	temperature (°C)	Stokes	anti-Stokes-744,400	226,373	0,106	-0,129
-743,385	-48,289	-0,294	0,105
-742,371	93,805	-0,047	-0,039
-741,356	246,658	-0,174	0,219
-740,342	-58,248	0,051	0,017
-739,327	-79,827	-0,171	0,042
-738,312	-16,677	0,064	-0,030
-737,298	-181,507	-0,220	0,003
-736,283	-12,846	-0,087	-0,042
-735,269	316,256	-0,166	0,233
-734,254	800,000	-0,045	-0,125
-733,239	-87,605	-0,315	-0,070
-732,225	384,886	0,083	-0,127
-731,210	356,397	-0,040	0,059
-730,196	147,384	-0,089	-0,089
-729,181	-200,000	-0,035	-0,143
-728,167	800,000	0,003	0,007
-727,152	-200,000	0,010	0,079
-726,137	-200,000	-0,016	-0,121
-725,123	89,025	-0,121	-0,100
-724,108	30,451	-0,187	-0,118
-723,094	-81,819	-0,088	-0,021
-722,079	-200,000	-0,003	-0,013
-721,064	800,000	0,028	-0,076
-720,050	310,611	0,007	0,010
-719,035	153,586	-0,070	-0,071
-718,021	-8,240	-0,133	-0,066
-717,006	-3,528	-0,130	-0,067
-715,991	-173,282	-0,231	-0,005
-714,977	-113,222	0,071	0,010
-713,962	800,000	0,010	-0,024
-712,948	21,576	0,063	-0,038
-711,933	662,820	-0,038	-0,073
-710,918	268,672	-0,014	0,018
-709,904	-57,833	0,135	0,044
-708,889	-103,464	-0,127	-0,022
-707,875	40,111	-0,043	0,028
-706,860	91,366	-0,028	0,023
-705,845	-140,328	0,063	0,005
-704,831	261,748	0,106	-0,137
-703,816	101,249	-0,136	-0,118
-702,802	8,736	-0,122	-0,068
-701,787	800,000	0,047	-0,113
-700,772	29,343	-0,144	0,090
-699,758	-200,000	0,002	-0,088
-698,743	-200,000	-0,001	-0,132
-697,729	125,042	-0,151	0,142
-696,714	49,897	0,034	0,024
-695,699	795,919	0,015	0,030
-694,685	-200,000	0,004	-0,149
-693,670	241,659	-0,068	0,085
-692,656	64,819	0,022	0,016
-691,641	-200,000	-0,017	0,068
-690,627	32,168	0,066	0,043
-689,612	94,761	-0,065	-0,055
-688,597	700,183	-0,032	-0,063
-687,583	-200,000	0,003	-0,110
-686,568	760,185	0,090	-0,182
-685,554	334,325	-0,047	-0,068
-684,539	800,000	0,064	0,184
-683,524	-200,000	-0,008	0,029
-682,510	-200,000	-0,003	0,108
-681,495	90,864	0,097	-0,081
-680,481	-178,967	-0,058	0,001
-679,466	84,775	-0,215	-0,175
-678,451	800,000	-0,025	-0,081
-677,437	-33,330	-0,023	-0,009
-676,422	-200,000	-0,011	0,046
-675,408	-100,839	-0,154	-0,028
-674,393	23,172	-0,090	-0,055
-673,378	429,966	0,051	-0,082
-672,364	54,222	-0,064	-0,046
-671,349	93,490	-0,006	0,005
-670,335	184,653	0,138	0,152
-669,320	-200,000	0,041	-0,217
-668,305	28,128	0,103	-0,065
-667,291	30,449	0,057	-0,036
-666,276	365,545	0,062	-0,093
-665,262	-200,000	-0,024	-0,123
-664,247	46,877	-0,100	-0,069
-663,232	-200,000	-0,017	0,104
-662,218	530,058	0,017	0,031
-661,203	232,744	0,114	0,139
-660,189	800,000	0,057	-0,140
-659,174	-128,727	-0,187	0,019
-658,159	-200,000	-0,003	-0,031
-657,145	354,466	-0,030	-0,045
-656,130	800,000	0,030	-0,070
-655,116	416,171	-0,060	0,096
-654,101	-67,305	-0,046	-0,013
-653,086	-175,197	0,073	0,001
-652,072	-152,319	-0,068	-0,004
-651,057	-65,311	-0,096	-0,029
-650,043	164,426	-0,045	0,047
-649,028	147,097	-0,065	-0,065
-648,014	-55,501	0,144	0,048
-646,999	800,000	0,017	0,048
-645,984	-9,088	0,043	-0,021
-644,970	57,121	-0,126	-0,091
-643,955	-200,000	0,014	-0,054
-642,941	75,628	-0,038	0,030
-641,926	105,469	0,064	-0,056
-640,911	124,951	-0,062	-0,058
-639,897	439,046	-0,042	0,069
-638,882	800,000	-0,056	0,126
-637,868	-4,412	0,072	-0,037
-636,853	-200,000	-0,007	-0,039
-635,838	520,883	-0,068	-0,119
-634,824	143,472	0,049	-0,049
-633,809	-52,095	0,060	0,020
-632,795	-200,000	0,009	0,080
-631,780	-105,241	0,099	0,017
-630,765	-95,148	-0,111	-0,022
-629,751	224,731	-0,122	0,146
-628,736	-169,217	-0,047	0,001
-627,722	-200,000	-0,032	-0,223
-626,707	800,000	-0,028	0,085
-625,692	154,606	-0,014	0,014
-624,678	44,325	0,052	-0,036
-623,663	-72,278	-0,145	0,040
-622,649	-31,917	-0,215	-0,089
-621,634	288,299	-0,025	0,033
-620,619	169,419	0,052	-0,055
-619,605	-120,691	0,070	0,009
-618,590	-83,242	-0,110	0,026
-617,576	800,000	0,027	0,061
-616,561	-200,000	0,011	0,044
-615,546	-126,154	-0,104	0,011
-614,532	-33,430	0,090	0,037
-613,517	-200,000	0,001	-0,100
-612,503	-200,000	-0,001	0,004
-611,488	326,897	0,026	-0,037
-610,474	189,035	0,048	-0,054
-609,459	118,919	0,068	-0,063
-608,444	-40,416	-0,071	0,027
-607,430	121,111	-0,067	0,062
-606,415	-146,550	-0,096	0,006
-605,401	-97,427	0,113	0,022
-604,386	-77,817	-0,072	0,018
-603,371	-200,000	-0,015	0,064
-602,357	418,579	0,028	-0,044
-601,342	-83,009	-0,071	-0,017
-600,328	292,048	-0,073	-0,099
-599,313	-50,699	0,062	-0,021
-598,298	800,000	-0,042	-0,124
-597,284	31,742	0,096	0,061
-596,269	103,838	-0,007	0,006
-595,255	471,780	0,032	0,053
-594,240	288,171	-0,038	0,050
-593,225	-200,000	-0,018	-0,194
-592,211	163,856	-0,106	-0,111
-591,196	-104,162	-0,042	-0,007
-590,182	47,255	-0,095	-0,065
-589,167	-200,000	-0,041	0,171
-588,152	616,680	-0,012	0,022
-587,138	-66,089	0,032	-0,010
-586,123	-5,341	-0,053	-0,027
-585,109	50,345	-0,074	0,051
-584,094	258,594	0,041	-0,052
-583,079	282,791	-0,032	-0,043
-582,065	-114,606	0,229	-0,032
-581,050	380,186	0,036	-0,054
-580,036	800,000	0,025	-0,077
-579,021	6,569	-0,129	-0,071
-578,006	-9,095	0,037	0,018
-576,992	21,660	-0,129	-0,078
-575,977	-115,170	0,082	0,011
-574,963	-77,393	-0,123	0,031
-573,948	132,935	0,055	-0,052
-572,934	-41,344	-0,083	-0,031
-571,919	-200,000	0,004	-0,027
-570,904	59,506	0,036	-0,026
-569,890	310,624	-0,128	-0,178
-568,875	312,413	0,071	0,099
-567,861	800,000	-0,029	-0,083
-566,846	-200,000	-0,000	0,022
-565,831	11,539	-0,098	0,056
-564,817	384,809	0,072	0,110
-563,802	800,000	0,046	-0,137
-562,788	-200,000	0,017	-0,088
-561,773	800,000	-0,025	-0,052
-560,758	-91,400	0,012	-0,003
-559,744	323,695	0,102	0,144
-558,729	209,570	-0,058	-0,067
-557,715	-200,000	-0,003	0,030
-556,700	-200,000	-0,021	-0,125
-555,685	284,657	0,045	-0,060
-554,671	-83,128	0,110	0,026
-553,656	-200,000	-0,036	0,144
-552,642	800,000	0,029	0,067
-551,627	-200,000	-0,015	0,273
-550,612	-130,807	0,065	-0,006
-549,598	-125,155	-0,034	-0,004
-548,583	-200,000	-0,004	-0,027
-547,569	-28,383	0,130	0,055
-546,554	32,114	0,031	0,020
-545,539	-200,000	0,012	-0,060
-544,525	-200,000	-0,019	0,071
-543,510	-200,000	-0,015	-0,069
-542,496	61,022	0,060	-0,044
-541,481	4,983	-0,062	-0,034
-540,466	-200,000	-0,016	-0,068
-539,452	-94,244	0,020	0,004
-538,437	-200,000	0,020	0,089
-537,423	625,203	0,064	0,119
-536,408	-43,621	-0,020	-0,008
-535,393	-48,558	-0,077	0,027
-534,379	98,489	0,100	-0,086
-533,364	800,000	-0,030	0,071
-532,350	-200,000	-0,006	0,113
-531,335	19,057	-0,082	0,049
-530,321	-38,560	-0,077	0,030
-529,306	435,039	0,029	0,047
-528,291	143,654	-0,045	0,044
-527,277	70,451	0,083	-0,063
-526,262	-27,585	-0,060	0,026
-525,248	-200,000	0,005	0,038
-524,233	554,471	0,019	0,034
-523,218	77,528	-0,135	-0,106
-522,204	255,024	-0,090	-0,114
-521,189	436,901	0,027	0,043
-520,175	800,000	-0,028	-0,082
-519,160	297,591	-0,083	-0,113
-518,145	-181,806	-0,080	-0,001
-517,131	223,686	-0,060	0,071
-516,116	-52,331	0,170	0,058
-515,102	64,553	0,099	-0,074
-514,087	-200,000	0,029	-0,117
-513,072	-18,440	-0,077	-0,035
-512,058	-200,000	-0,027	-0,206
-511,043	521,647	-0,065	-0,113
-510,029	-65,175	0,058	-0,017
-509,014	800,000	-0,063	0,195
-507,999	10,939	-0,023	-0,013
-506,985	-62,597	0,105	0,032
-505,970	-200,000	-0,008	-0,055
-504,956	85,545	0,025	0,020
-503,941	-21,713	-0,050	-0,022
-502,926	158,870	0,002	-0,002
-501,912	-108,396	0,102	0,016
-500,897	345,211	-0,068	-0,099
-499,883	217,157	-0,082	-0,097
-498,868	80,603	-0,046	0,036
-497,853	-77,285	-0,041	0,010
-496,839	800,000	0,038	0,123
-495,824	84,389	-0,041	-0,033
-494,810	-200,000	-0,038	0,165
-493,795	-91,497	-0,042	0,009
-492,781	213,459	-0,064	0,074
-491,766	-90,079	0,125	0,027
-490,751	586,068	0,056	0,101
-489,737	800,000	-0,052	-0,111
-488,722	-45,609	0,105	-0,038
-487,708	62,144	0,141	0,103
-486,693	246,088	-0,081	-0,101
-485,678	800,000	0,046	-0,137
-484,664	39,395	-0,099	-0,065
-483,649	-50,668	-0,025	0,009
-482,635	619,294	0,005	0,009
-481,620	212,293	0,048	0,056
-480,605	-200,000	0,004	0,110
-479,591	800,000	0,032	-0,078
-478,576	689,407	0,020	-0,038
-477,562	64,116	-0,108	-0,080
-476,547	2,376	-0,157	-0,083
-475,532	-200,000	0,001	0,022
-474,518	223,462	0,063	0,075
-473,503	-200,000	-0,007	0,099
-472,489	313,289	0,072	0,099
-471,474	-127,845	-0,131	0,014
-470,459	-142,767	-0,155	0,011
-469,445	45,279	-0,117	-0,079
-468,430	-47,268	0,060	-0,021
-467,416	800,000	0,038	0,092
-466,401	533,001	0,060	0,105
-465,386	85,655	-0,018	0,015
-464,372	36,028	-0,039	0,025
-463,357	-2,575	-0,100	-0,052
-462,343	-200,000	0,025	-0,101
-461,328	800,000	0,049	-0,104
-460,313	268,452	0,026	0,034
-459,299	132,865	0,030	-0,028
-458,284	-37,637	0,101	0,039
-457,270	800,000	-0,033	0,090
-456,255	75,347	-0,079	-0,062
-455,241	190,589	-0,031	-0,034
-454,226	100,336	0,129	-0,110
-453,211	125,422	0,030	0,028
-452,197	72,312	0,063	0,048
-451,182	15,413	-0,062	-0,036
-450,168	-200,000	-0,000	-0,060
-449,153	-200,000	0,024	-0,104
-448,138	-65,285	-0,025	0,007
-447,124	40,919	-0,043	-0,029
-446,109	2,861	0,067	0,036
-445,095	-150,198	0,160	0,009
-444,080	-118,004	0,105	0,014
-443,065	134,427	-0,090	0,086
-442,051	20,500	-0,106	0,063
-441,036	-41,736	0,045	0,017
-440,022	210,315	-0,059	-0,069
-439,007	-134,847	-0,054	0,005
-437,992	-111,965	0,073	-0,011
-436,978	-200,000	0,010	0,125
-435,963	45,791	0,082	-0,055
-434,949	101,968	-0,086	0,074
-433,934	-3,676	-0,103	0,052
-432,919	148,271	0,065	0,064
-431,905	-144,473	-0,022	0,001
-430,890	2,723	0,137	-0,073
-429,876	-200,000	0,024	0,091
-428,861	304,076	0,048	-0,066
-427,846	233,687	-0,046	0,056
-426,832	519,634	-0,075	-0,129
-425,817	-200,000	-0,004	-0,024
-424,803	800,000	-0,081	0,172
-423,788	-4,144	0,147	-0,074
-422,773	-200,000	-0,000	0,033
-421,759	-200,000	-0,004	-0,032
-420,744	-200,000	-0,012	0,043
-419,730	97,024	0,064	-0,054
-418,715	800,000	0,023	-0,065
-417,701	-200,000	-0,014	-0,080
-416,686	-93,234	0,091	0,018
-415,671	-34,104	0,024	0,009
-414,657	-169,833	0,092	-0,002
-413,642	35,924	0,018	-0,012
-412,628	54,480	-0,030	-0,021
-411,613	-132,985	0,017	-0,002
-410,598	-108,969	-0,148	-0,023
-409,584	211,047	0,106	-0,123
-408,569	-154,668	0,060	0,003
-407,555	-200,000	-0,010	0,237
-406,540	663,272	-0,054	0,103
-405,525	-88,133	-0,111	0,024
-404,511	-183,204	0,101	0,001
-403,496	800,000	-0,021	-0,062
-402,482	-194,839	0,042	-0,000
-401,467	-200,000	0,003	0,094
-400,452	54,500	0,146	0,103
-399,438	304,295	-0,086	0,117
-398,423	-67,722	0,059	0,017
-397,409	-200,000	0,002	0,029
-396,394	-200,000	-0,026	-0,237
-395,379	188,894	-0,095	-0,105
-394,365	-74,551	-0,039	-0,010
-393,350	47,250	-0,015	-0,010
-392,336	-200,000	0,004	0,012
-391,321	408,854	0,073	-0,114
-390,306	146,467	0,095	-0,094
-389,292	800,000	-0,027	-0,068
-388,277	-29,328	0,046	0,019
-387,263	-128,095	0,145	0,015
-386,248	-134,325	0,100	-0,009
-385,233	75,200	0,181	0,140
-384,219	800,000	0,057	-0,180
-383,204	-113,767	0,069	-0,010
-382,190	333,770	0,023	-0,032
-381,175	33,237	0,081	0,051
-380,160	-16,655	0,093	0,043
-379,146	-98,205	0,037	0,007
-378,131	656,630	-0,013	0,025
-377,117	50,231	-0,115	0,079
-376,102	800,000	-0,033	0,102
-375,088	39,577	0,094	-0,061
-374,073	481,704	-0,068	0,114
-373,058	800,000	0,006	0,015
-372,044	-200,000	-0,009	0,039
-371,029	106,928	0,082	0,072
-370,015	309,987	-0,029	-0,040
-369,000	-53,389	0,048	-0,016
-367,985	-200,000	-0,011	-0,039
-366,971	10,689	-0,031	-0,017
-365,956	437,015	-0,043	0,070
-364,942	800,000	-0,041	-0,084
-363,927	82,089	0,128	0,102
-362,912	-9,941	-0,066	0,032
-361,898	-92,151	-0,097	-0,020
-360,883	445,022	-0,080	-0,129
-359,869	-72,938	-0,137	0,037
-358,854	-200,000	-0,027	0,102
-357,839	-200,000	0,020	0,075
-356,825	-200,000	0,002	-0,104
-355,810	182,883	-0,028	-0,030
-354,796	565,917	-0,064	0,115
-353,781	800,000	0,027	-0,081
-352,766	228,073	-0,115	-0,138
-351,752	69,128	0,058	-0,043
-350,737	-200,000	-0,012	0,113
-349,723	-7,353	0,129	0,064
-348,708	-139,296	-0,069	-0,005
-347,693	-73,401	0,087	0,023
-346,679	405,994	0,026	-0,040
-345,664	102,069	0,032	-0,027
-344,650	434,212	0,055	-0,089
-343,635	800,000	0,043	-0,100
-342,620	-97,934	0,130	0,024
-341,606	219,311	0,040	0,047
-340,591	291,098	0,017	0,023
-339,577	356,806	-0,033	0,049
-338,562	174,142	-0,060	0,064
-337,548	172,789	0,035	-0,037
-336,533	176,035	-0,110	-0,117
-335,518	-6,845	-0,118	0,059
-334,504	800,000	0,010	0,031
-333,489	800,000	0,040	0,118
-332,475	303,551	-0,031	-0,043
-331,460	-3,043	-0,124	0,063
-330,445	726,714	-0,047	-0,093
-329,431	77,375	-0,037	-0,029
-328,416	-108,247	0,087	0,014
-327,402	61,256	0,048	0,035
-326,387	-200,000	0,032	0,113
-325,372	-200,000	-0,011	-0,064
-324,358	800,000	-0,090	-0,225
-323,343	-200,000	-0,007	0,128
-322,329	-200,000	0,013	0,082
-321,314	-76,291	0,040	-0,010
-320,299	197,035	0,084	0,093
-319,285	-200,000	0,001	0,082
-318,270	322,996	-0,056	0,078
-317,256	-148,912	-0,043	-0,003
-316,241	-119,000	-0,072	-0,009
-315,226	148,915	0,041	-0,041
-314,212	295,438	-0,005	0,007
-313,197	-200,000	0,014	0,139
-312,183	-67,998	-0,090	0,026
-311,168	-117,856	0,033	0,004
-310,153	-141,071	-0,145	-0,011
-309,139	9,013	0,037	0,020
-308,124	4,476	-0,055	0,030
-307,110	-95,743	-0,069	-0,013
-306,095	-12,011	0,158	0,075
-305,080	-3,899	-0,116	0,059
-304,066	-99,818	0,094	-0,017
-303,051	-195,293	-0,180	0,001
-302,037	49,126	-0,041	0,028
-301,022	800,000	0,017	0,048
-300,008	800,000	0,039	0,094
-298,993	-73,455	0,127	-0,034
-297,978	68,357	0,096	-0,072
-296,964	-90,990	-0,065	0,014
-295,949	22,678	0,045	-0,027
-294,935	800,000	-0,011	-0,030
-293,920	506,572	-0,033	-0,056
-292,905	654,910	0,039	-0,074
-291,891	-185,130	0,120	-0,001
-290,876	-30,052	-0,159	0,066
-289,862	-10,567	-0,051	-0,025
-288,847	-200,000	0,014	-0,077
-287,832	800,000	-0,052	-0,106
-286,818	800,000	0,027	0,073
-285,803	-100,841	0,114	-0,020
-284,789	11,855	-0,082	0,046
-283,774	257,651	0,064	-0,081
-282,759	-81,981	-0,012	-0,003
-281,745	-93,702	0,033	-0,007
-280,730	-145,351	-0,020	-0,001
-279,716	-200,000	-0,007	-0,069
-278,701	-110,825	0,092	0,014
-277,686	79,465	0,054	-0,042
-276,672	-200,000	0,004	-0,077
-275,657	-152,437	0,022	0,001
-274,643	79,521	-0,110	-0,087
-273,628	800,000	0,007	-0,019
-272,613	622,354	-0,059	0,109
-271,599	-55,353	0,015	0,005
-270,584	800,000	0,021	-0,051
-269,570	60,570	0,070	-0,050
-268,555	-15,051	0,126	0,059
-267,540	-42,818	-0,033	0,012
-266,526	800,000	0,009	0,026
-265,511	-140,850	0,057	-0,004
-264,497	373,621	0,086	-0,128
-263,482	-32,431	-0,044	-0,018
-262,467	800,000	0,077	0,167
-261,453	-200,000	-0,008	0,056
-260,438	800,000	-0,025	0,077
-259,424	-18,292	-0,087	-0,040
-258,409	20,090	0,093	0,055
-257,395	-106,035	0,082	0,013
-256,380	-200,000	0,038	0,157
-255,365	456,006	-0,065	-0,106
-254,351	-200,000	-0,008	-0,033
-253,336	-200,000	0,014	0,067
-252,322	-14,935	-0,016	0,007
-251,307	-81,373	0,112	-0,027
-250,292	800,000	-0,051	0,120
-249,278	44,859	0,090	0,060
-248,263	0,704	0,092	0,048
-247,249	-62,254	0,155	-0,047
-246,234	-87,571	-0,062	-0,014
-245,219	341,638	-0,072	-0,104
-244,205	800,000	0,042	-0,095
-243,190	-190,258	-0,171	-0,001
-242,176	115,909	0,088	0,079
-241,161	-200,000	0,032	-0,120
-240,146	82,689	-0,052	-0,041
-239,132	800,000	-0,022	0,067
-238,117	-200,000	-0,007	-0,031
-237,103	74,773	0,039	-0,030
-236,088	146,598	0,039	0,039
-235,073	34,120	0,085	0,054
-234,059	-9,876	-0,037	-0,018
-233,044	-200,000	-0,002	-0,009
-232,030	186,764	-0,035	-0,038
-231,015	404,739	0,021	-0,033
-230,000	800,000	-0,012	-0,025
-228,986	495,836	0,014	-0,024
-227,971	-69,548	0,096	0,027
-226,957	217,453	0,121	0,141
-225,942	-200,000	0,004	0,154
-224,927	91,208	-0,117	-0,096
-223,913	-111,077	-0,192	-0,028
-222,898	37,697	0,028	0,018
-221,884	-116,288	0,073	-0,010
-220,869	285,027	0,084	0,111
-219,855	-44,969	0,046	-0,017
-218,840	142,861	0,074	-0,072
-217,825	-200,000	-0,019	0,078
-216,811	-54,522	-0,089	0,029
-215,796	-6,240	-0,068	0,034
-214,782	46,390	-0,033	-0,022
-213,767	-155,314	-0,028	-0,001
-212,752	800,000	-0,094	0,249
-211,738	800,000	0,044	0,110
-210,723	-200,000	0,005	-0,108
-209,709	155,491	-0,108	-0,108
-208,694	-200,000	0,021	-0,073
-207,679	-99,888	-0,073	0,013
-206,665	-33,405	-0,025	-0,010
-205,650	800,000	0,043	0,099
-204,636	544,601	-0,041	0,073
-203,621	-141,515	0,053	0,004
-202,606	-73,427	0,025	-0,007
-201,592	416,428	-0,057	0,088
-200,577	-25,079	-0,117	-0,050
-199,563	769,564	-0,035	0,070
-198,548	-200,000	0,006	0,044
-197,533	-200,000	0,020	0,066
-196,519	-200,000	-0,043	0,159
-195,504	-200,000	-0,019	0,097
-194,490	-200,000	0,030	-0,214
-193,475	-200,000	0,007	-0,178
-192,460	463,757	0,025	-0,041
-191,446	-200,000	0,065	0,000
-190,431	-60,732	0,151	0,046
-189,417	-88,733	-0,121	-0,026
-188,402	513,472	0,043	-0,073
-187,387	800,000	0,021	-0,048
-186,373	6,035	-0,094	-0,051
-185,358	-191,854	-0,034	-0,000
-184,344	800,000	0,023	-0,053
-183,329	200,045	0,020	0,022
-182,315	-21,137	0,021	-0,009
-181,300	-175,561	0,107	-0,002
-180,285	123,911	0,097	-0,089
-179,271	-200,000	-0,019	-0,205
-178,256	-200,000	-0,013	0,109
-177,242	-200,000	-0,030	-0,105
-176,227	-10,712	-0,031	-0,015
-175,212	-200,000	0,037	0,119
-174,198	-200,000	0,002	0,035
-173,183	-200,000	-0,005	-0,161
-172,169	218,916	0,097	0,113
-171,154	-200,000	-0,026	-0,106
-170,139	-108,549	0,182	0,028
-169,125	-84,800	0,047	0,011
-168,110	145,648	-0,012	-0,012
-167,096	-200,000	0,006	-0,136
-166,081	-200,000	-0,013	0,072
-165,066	-158,533	-0,141	0,006
-164,052	-33,503	0,086	0,034
-163,037	136,498	0,062	-0,059
-162,023	665,811	-0,089	0,168
-161,008	800,000	0,034	0,079
-159,993	58,842	-0,059	0,042
-158,979	658,163	-0,046	-0,087
-157,964	292,544	-0,014	-0,018
-156,950	800,000	-0,036	-0,097
-155,935	-200,000	0,043	0,209
-154,920	287,108	-0,085	0,112
-153,906	-162,642	-0,070	0,002
-152,891	19,483	0,025	-0,015
-151,877	-14,726	-0,086	0,040
-150,862	-200,000	-0,014	0,089
-149,847	-119,203	0,057	-0,007
-148,833	800,000	0,007	0,016
-147,818	49,897	0,038	-0,026
-146,804	198,241	0,070	0,078
-145,789	-200,000	-0,010	-0,083
-144,775	111,710	0,083	-0,073
-143,760	800,000	0,018	0,039
-142,745	307,835	0,047	-0,064
-141,731	-200,000	-0,021	-0,075
-140,716	-200,000	0,008	-0,064
-139,702	538,431	0,021	0,036
-138,687	-200,000	-0,011	0,098
-137,672	98,830	-0,106	0,089
-136,658	699,627	-0,084	-0,161
-135,643	-90,142	-0,048	0,010
-134,629	-13,509	-0,129	0,060
-133,614	349,911	0,036	0,052
-132,599	96,884	-0,115	0,096
-131,585	-121,558	0,082	-0,010
-130,570	196,401	-0,010	-0,011
-129,556	-69,838	0,008	0,002
-128,541	297,830	0,056	-0,075
-127,526	-200,000	0,076	0,000
-126,512	26,675	0,089	-0,054
-125,497	-21,916	-0,066	-0,029
-124,483	-76,074	0,116	-0,030
-123,468	195,889	-0,082	0,091
-122,453	-200,000	-0,025	0,132
-121,439	800,000	-0,020	0,050
-120,424	-200,000	0,019	0,092
-119,410	-172,483	-0,065	0,001
-118,395	-157,173	0,059	0,003
