DTS Sentinel unit serial number:	SN410029Multiplexer serial number:	ORYXHardware model number:	OX2-SRSoftware version number:	ORYX F/W v4,00 Oryx Data Collector v3.7.2.0data status	okinstallation	B4 Nyhavnadifferential loss correction	single-endedforward channel	channel 2reverse channel	N/Adate	2023/12/16time	13:30:13forward acquisition time	300,00reverse acquisition time	0,00gamma	499,1914k internal	0,3126k external	0,3126temperature offset calibration	1,0000default loss term (dB/km)	0,3820temperature slope calibration	1,0000multiplexer offset coefficient	1,0000multiplexer slope coefficient	1,0000fibre end	0,00T internal ref (°C)	24,82T ext. ref 1 (°C)	11,18T ext. ref 2 (°C)	11,40length (m)	temperature (°C)	Stokes	anti-Stokes-744,400	459,142	-0,062	-0,104
-743,385	-90,515	-0,268	0,057
-742,371	24,515	-0,023	0,014
-741,356	128,708	-0,152	0,144
-740,342	800,000	-0,055	-0,164
-739,327	386,726	-0,133	0,205
-738,312	800,000	-0,031	-0,100
-737,298	7,421	-0,167	0,093
-736,283	-108,185	-0,100	-0,016
-735,269	-172,820	-0,120	-0,003
-734,254	-91,159	0,114	0,024
-733,239	-61,881	-0,411	-0,127
-732,225	-78,815	0,086	0,022
-731,210	-200,000	0,006	0,062
-730,196	-27,313	-0,066	0,028
-729,181	-200,000	-0,022	0,075
-728,167	-200,000	-0,016	-0,124
-727,152	54,862	-0,104	-0,075
-726,137	800,000	-0,030	-0,096
-725,123	204,651	-0,090	-0,104
-724,108	151,948	-0,056	-0,057
-723,094	-200,000	-0,003	-0,033
-722,079	-200,000	-0,041	-0,154
-721,064	-66,915	0,154	-0,045
-720,050	800,000	-0,031	-0,081
-719,035	-71,019	-0,030	0,008
-718,021	174,988	0,048	0,052
-717,006	-200,000	0,001	-0,030
-715,991	-200,000	-0,024	-0,144
-714,977	245,069	-0,101	-0,127
-713,962	-53,149	0,126	-0,043
-712,948	-200,000	0,011	-0,142
-711,933	-138,630	-0,053	0,004
-710,918	-156,834	-0,210	-0,009
-709,904	-115,428	-0,085	-0,012
-708,889	459,376	-0,064	-0,106
-707,875	263,904	-0,089	-0,115
-706,860	-124,170	-0,099	0,011
-705,845	-54,318	-0,005	-0,002
-704,831	-71,178	0,051	0,014
-703,816	60,741	0,111	-0,081
-702,802	-121,612	-0,060	-0,007
-701,787	-26,567	0,091	-0,039
-700,772	-86,382	-0,057	-0,013
-699,758	-200,000	-0,013	-0,116
-698,743	624,432	0,024	0,044
-697,729	-200,000	0,020	0,148
-696,714	-200,000	-0,009	-0,196
-695,699	-193,530	-0,028	-0,000
-694,685	-106,401	-0,175	-0,029
-693,670	-26,360	-0,074	0,032
-692,656	-130,890	-0,091	0,009
-691,641	-65,407	0,085	-0,025
-690,627	86,725	-0,038	-0,031
-689,612	-33,469	-0,029	-0,012
-688,597	-200,000	-0,008	-0,046
-687,583	40,660	-0,110	0,074
-686,568	135,017	-0,078	-0,075
-685,554	-101,801	0,194	-0,035
-684,539	227,642	0,084	0,102
-683,524	-0,206	0,023	-0,012
-682,510	115,269	0,071	0,064
-681,495	-96,010	-0,093	-0,018
-680,481	2,324	-0,117	0,063
-679,466	790,000	-0,032	0,067
-678,451	-200,000	0,010	-0,130
-677,437	-45,536	-0,155	-0,057
-676,422	-200,000	0,001	0,034
-675,408	15,044	-0,031	0,018
-674,393	-200,000	0,006	-0,029
-673,378	105,023	-0,100	-0,088
-672,364	141,375	-0,056	-0,056
-671,349	-69,048	-0,119	-0,034
-670,335	800,000	0,062	0,134
-669,320	-200,000	0,001	-0,040
-668,305	81,019	-0,017	0,013
-667,291	-200,000	0,014	-0,139
-666,276	72,794	0,079	-0,062
-665,262	58,277	0,028	0,020
-664,247	542,007	-0,051	-0,091
-663,232	-200,000	0,029	0,113
-662,218	129,773	0,013	-0,012
-661,203	800,000	0,057	0,140
-660,189	178,858	-0,031	-0,033
-659,174	22,533	0,097	-0,059
-658,159	218,156	0,004	0,005
-657,145	800,000	-0,031	-0,089
-656,130	297,157	0,023	-0,031
-655,116	-200,000	-0,013	-0,073
-654,101	-95,642	-0,040	0,008
-653,086	88,848	-0,119	0,098
-652,072	-154,056	-0,103	-0,005
-651,057	-147,369	0,013	0,001
-650,043	-200,000	0,024	-0,085
-649,028	-7,856	0,019	-0,010
-648,014	-141,229	0,093	-0,007
-646,999	-72,487	0,066	0,018
-645,984	800,000	-0,026	0,068
-644,970	262,935	-0,060	-0,077
-643,955	800,000	0,061	-0,130
-642,941	385,406	-0,095	-0,146
-641,926	145,113	0,053	0,053
-640,911	-44,207	-0,051	0,019
-639,897	-123,408	-0,045	-0,005
-638,882	-23,364	0,128	0,057
-637,868	41,618	-0,052	0,035
-636,853	216,227	-0,084	-0,099
-635,838	298,191	-0,043	-0,059
-634,824	91,064	-0,137	-0,114
-633,809	481,417	-0,038	0,064
-632,795	-74,105	0,083	0,022
-631,780	-200,000	0,028	0,091
-630,765	-59,695	-0,051	-0,016
-629,751	-200,000	-0,026	-0,140
-628,736	-200,000	-0,007	0,092
-627,722	672,403	-0,034	0,066
-626,707	-200,000	0,002	-0,029
-625,692	-200,000	0,042	0,168
-624,678	0,525	0,095	-0,050
-623,663	480,331	0,060	-0,100
-622,649	-79,450	-0,062	0,015
-621,634	-43,720	-0,079	0,029
-620,619	-38,115	-0,062	-0,024
-619,605	-200,000	0,000	-0,134
-618,590	-200,000	0,005	-0,061
-617,576	180,838	0,106	0,116
-616,561	-200,000	-0,027	-0,121
-615,546	74,939	-0,139	-0,108
-614,532	-27,055	-0,123	-0,053
-613,517	-200,000	0,004	-0,146
-612,503	800,000	0,016	0,045
-611,488	235,743	0,015	0,018
-610,474	87,410	0,023	0,019
-609,459	62,731	-0,042	0,031
-608,444	589,421	-0,059	-0,108
-607,430	433,702	-0,031	-0,050
-606,415	-200,000	0,020	-0,172
-605,401	274,193	0,046	0,060
-604,386	800,000	0,049	0,111
-603,371	21,552	0,082	-0,049
-602,357	800,000	-0,032	-0,096
-601,342	15,162	-0,082	-0,048
-600,328	489,465	0,031	0,053
-599,313	-147,960	-0,092	0,006
-598,298	-200,000	-0,005	-0,171
-597,284	543,160	0,052	0,093
-596,269	200,650	-0,058	0,066
-595,255	7,174	0,063	0,035
-594,240	790,111	-0,033	-0,067
-593,225	800,000	0,028	0,085
-592,211	766,705	-0,083	-0,168
-591,196	-92,619	0,014	-0,003
-590,182	56,985	0,182	0,131
-589,167	-115,402	0,134	0,019
-588,152	315,211	-0,046	-0,065
-587,138	800,000	-0,044	0,104
-586,123	553,624	-0,082	0,147
-585,109	-67,777	0,093	-0,027
-584,094	323,080	0,071	-0,100
-583,079	-129,715	0,213	-0,021
-582,065	-158,318	0,029	0,001
-581,050	317,889	0,037	0,052
-580,036	50,997	-0,031	-0,021
-579,021	-160,466	-0,146	0,006
-578,006	38,825	0,027	-0,018
-576,992	385,587	-0,029	-0,045
-575,977	464,504	0,076	-0,126
-574,963	65,721	0,060	0,045
-573,948	7,103	0,030	-0,016
-572,934	-98,929	-0,043	-0,008
-571,919	800,000	-0,025	0,071
-570,904	-186,825	-0,062	0,001
-569,890	66,678	0,087	-0,065
-568,875	-119,440	0,004	-0,000
-567,861	84,631	0,061	-0,049
-566,846	497,658	0,042	0,071
-565,831	-200,000	-0,021	-0,122
-564,817	-200,000	0,033	-0,182
-563,802	132,229	-0,067	0,064
-562,788	-146,168	-0,046	-0,003
-561,773	-200,000	-0,000	0,049
-560,758	-200,000	0,015	0,063
-559,744	-30,653	-0,066	-0,027
-558,729	-33,046	0,025	-0,010
-557,715	781,983	-0,030	-0,062
-556,700	-95,556	-0,035	0,007
-555,685	-53,786	-0,111	-0,037
-554,671	800,000	0,035	0,075
-553,656	779,217	-0,084	0,171
-552,642	-5,319	0,063	-0,032
-551,627	-15,254	-0,117	0,055
-550,612	-32,102	0,088	-0,036
-549,598	-196,343	-0,057	-0,000
-548,583	217,880	0,074	0,087
-547,569	-122,460	-0,043	-0,005
-546,554	-200,000	0,007	-0,040
-545,539	122,597	0,072	0,066
-544,525	14,602	0,052	0,030
-543,510	275,667	0,084	-0,111
-542,496	15,795	0,054	0,032
-541,481	800,000	-0,008	0,025
-540,466	-200,000	0,015	-0,093
-539,452	-200,000	0,002	0,061
-538,437	-3,935	0,071	-0,036
-537,423	464,542	-0,069	0,115
-536,408	-4,166	0,051	0,026
-535,393	800,000	-0,014	0,030
-534,379	-200,000	0,015	0,122
-533,364	524,615	0,015	0,026
-532,350	-35,847	-0,037	-0,015
-531,335	235,412	-0,016	-0,019
-530,321	53,398	-0,025	0,017
-529,306	99,767	0,025	0,021
-528,291	-200,000	0,010	0,065
-527,277	-120,128	0,103	-0,013
-526,262	639,145	-0,040	-0,076
-525,248	-200,000	0,025	-0,136
-524,233	-136,726	0,114	0,010
-523,218	107,923	0,021	-0,018
-522,204	-95,953	0,089	-0,017
-521,189	-43,086	-0,057	0,021
-520,175	-136,797	-0,050	0,004
-519,160	-200,000	-0,017	0,119
-518,145	664,613	-0,072	0,137
-517,131	-79,341	0,055	0,014
-516,116	143,006	-0,012	0,012
-515,102	325,483	0,038	0,053
-514,087	-200,000	0,012	0,127
-513,072	-30,503	-0,046	0,019
-512,058	8,916	0,084	-0,047
-511,043	800,000	0,018	-0,052
-510,029	490,481	0,049	0,083
-509,014	800,000	-0,028	-0,077
-507,999	-98,271	0,039	-0,007
-506,985	128,700	-0,059	0,055
-505,970	800,000	0,016	0,038
-504,956	-200,000	-0,001	0,024
-503,941	183,083	0,033	-0,036
-502,926	800,000	0,025	0,072
-501,912	-150,576	-0,084	-0,005
-500,897	-200,000	-0,018	0,129
-499,883	622,078	0,032	-0,060
-498,868	161,565	-0,065	-0,068
-497,853	-200,000	-0,037	0,129
-496,839	-119,831	0,105	-0,013
-495,824	211,061	-0,030	-0,034
-494,810	-84,484	0,141	0,033
-493,795	-200,000	0,001	-0,021
-492,781	-200,000	-0,021	-0,142
-491,766	254,698	-0,089	-0,113
-490,751	800,000	-0,055	-0,126
-489,737	268,778	-0,065	-0,085
-488,722	800,000	0,026	-0,076
-487,708	18,928	0,055	0,032
-486,693	-3,536	0,059	0,030
-485,678	145,809	0,131	0,130
-484,664	-51,833	-0,143	-0,049
-483,649	800,000	-0,080	-0,172
-482,635	-37,543	0,086	0,034
-481,620	-200,000	0,010	0,056
-480,605	27,620	-0,108	0,067
-479,591	-56,200	-0,070	-0,023
-478,576	138,125	-0,036	-0,034
-477,562	61,508	-0,080	-0,059
-476,547	-200,000	-0,008	-0,057
-475,532	15,864	0,036	0,021
-474,518	19,100	-0,072	0,043
-473,503	150,931	-0,016	-0,016
-472,489	-50,422	0,076	0,026
-471,474	-115,211	-0,080	0,011
-470,459	800,000	0,015	-0,043
-469,445	-200,000	-0,010	-0,104
-468,430	178,031	-0,067	0,072
-467,416	-200,000	0,014	0,174
-466,401	-85,172	0,014	-0,003
-465,386	-200,000	-0,001	0,082
-464,372	-200,000	0,015	-0,078
-463,357	800,000	-0,036	-0,116
-462,343	629,777	-0,016	0,029
-461,328	-81,326	-0,054	-0,013
-460,313	-62,409	0,101	0,031
-459,299	-65,512	0,103	0,030
-458,284	228,659	-0,065	-0,078
-457,270	362,325	-0,062	-0,091
-456,255	-77,839	0,068	0,017
-455,241	-151,338	-0,134	0,007
-454,226	-40,384	-0,054	-0,021
-453,211	29,780	-0,082	-0,051
-452,197	800,000	0,049	0,121
-451,182	-200,000	0,007	0,046
-450,168	-158,384	-0,187	-0,008
-449,153	-200,000	-0,001	-0,061
-448,138	-200,000	-0,013	-0,067
-447,124	44,353	-0,129	-0,087
-446,109	55,122	0,100	0,071
-445,095	165,517	-0,087	-0,090
-444,080	-135,728	0,018	0,002
-443,065	729,964	0,028	-0,055
-442,051	37,774	0,109	0,071
-441,036	585,212	-0,032	-0,058
-440,022	-200,000	0,043	-0,223
-439,007	432,715	-0,035	0,057
-437,992	-120,983	0,183	-0,022
-436,978	105,121	0,009	0,007
-435,963	800,000	0,021	-0,052
-434,949	241,384	0,005	-0,006
-433,934	-200,000	-0,015	0,069
-432,919	800,000	0,051	-0,106
-431,905	-61,151	0,156	0,048
-430,890	2,656	-0,049	-0,026
-429,876	-200,000	0,033	0,193
-428,861	236,447	0,063	0,077
-427,846	-200,000	-0,005	-0,048
-426,832	-200,000	0,006	0,058
-425,817	800,000	-0,005	0,011
-424,803	-200,000	0,012	0,065
-423,788	800,000	0,041	0,105
-422,773	-34,515	0,056	0,023
-421,759	264,133	0,085	0,109
-420,744	340,385	-0,072	0,104
-419,730	800,000	-0,041	0,118
-418,715	800,000	-0,054	-0,133
-417,701	218,681	-0,066	-0,078
-416,686	-19,443	0,102	-0,046
-415,671	-51,954	0,135	0,046
-414,657	64,101	0,157	0,116
-413,642	-200,000	-0,003	-0,013
-412,628	-168,162	-0,051	-0,001
-411,613	2,658	-0,160	-0,085
-410,598	117,945	0,031	0,028
-409,584	-200,000	-0,012	0,178
-408,569	800,000	-0,029	0,079
-407,555	800,000	-0,030	0,064
-406,540	-73,106	-0,015	-0,004
-405,525	-200,000	-0,003	0,023
-404,511	169,358	0,013	-0,014
-403,496	-200,000	0,010	0,057
-402,482	681,191	0,014	-0,028
-401,467	342,072	0,042	-0,060
-400,452	-147,946	0,043	-0,003
-399,438	800,000	-0,017	0,044
-398,423	-200,000	0,015	-0,261
-397,409	395,965	0,076	-0,118
-396,394	421,010	-0,086	-0,136
-395,379	110,344	0,068	0,060
-394,365	271,308	0,038	0,049
-393,350	-17,504	0,167	0,077
-392,336	800,000	0,012	0,031
-391,321	-78,980	-0,153	-0,038
-390,306	185,670	-0,012	0,013
-389,292	-200,000	-0,037	-0,122
-388,277	194,912	0,064	0,071
-387,263	79,435	-0,103	0,081
-386,248	-66,827	0,077	0,022
-385,233	66,060	0,077	0,057
-384,219	388,553	0,032	-0,049
-383,204	-159,873	-0,193	-0,008
-382,190	107,462	-0,067	0,059
-381,175	-58,550	-0,111	0,035
-380,160	-75,539	0,139	0,036
-379,146	-200,000	-0,010	0,159
-378,131	800,000	-0,018	-0,047
-377,117	-200,000	0,007	0,091
-376,102	12,388	-0,090	0,051
-375,088	22,298	-0,127	-0,076
-374,073	307,970	0,066	-0,091
-373,058	-90,259	0,031	-0,007
-372,044	74,248	-0,065	0,050
-371,029	-15,979	-0,069	-0,032
-370,015	-200,000	0,017	-0,111
-369,000	-126,386	-0,100	0,011
-367,985	323,664	0,039	0,055
-366,971	186,475	0,029	-0,032
-365,956	1,638	-0,058	0,031
-364,942	-200,000	0,006	0,044
-363,927	-114,101	0,062	0,009
-362,912	-63,480	0,128	-0,038
-361,898	800,000	-0,015	-0,033
-360,883	800,000	-0,058	-0,135
-359,869	800,000	-0,043	-0,118
-358,854	61,625	-0,042	-0,031
-357,839	488,303	-0,056	0,094
-356,825	-200,000	-0,014	0,145
-355,810	97,186	-0,077	0,065
-354,796	127,181	-0,040	-0,038
-353,781	21,433	-0,086	-0,051
-352,766	333,371	-0,089	0,127
-351,752	21,975	-0,023	0,014
-350,737	264,363	0,085	0,109
-349,723	-33,721	0,037	0,015
-348,708	-200,000	-0,011	0,072
-347,693	-91,724	-0,065	-0,014
-346,679	197,691	-0,189	-0,212
-345,664	-200,000	-0,007	-0,079
-344,650	88,059	0,048	-0,039
-343,635	87,767	-0,127	0,104
-342,620	3,872	0,095	-0,050
-341,606	53,695	0,064	0,045
-340,591	800,000	0,031	-0,100
-339,577	-8,375	0,067	-0,033
-338,562	-28,313	0,010	0,004
-337,548	-53,849	0,020	-0,007
-336,533	-200,000	0,010	0,140
-335,518	74,038	0,098	-0,075
-334,504	-77,298	-0,100	0,025
-333,489	-23,327	0,068	-0,030
-332,475	316,531	-0,015	0,021
-331,460	800,000	-0,039	-0,083
-330,445	-200,000	0,001	-0,062
-329,431	99,838	0,100	-0,085
-328,416	-136,985	-0,058	0,005
-327,402	121,342	-0,059	0,054
-326,387	-78,365	0,042	0,011
-325,372	18,301	0,040	0,024
-324,358	-200,000	0,008	-0,054
-323,343	-80,408	-0,055	-0,013
-322,329	-63,456	-0,049	0,015
-321,314	85,400	0,079	-0,063
-320,299	-200,000	0,005	-0,058
-319,285	-200,000	0,007	0,040
-318,270	-69,666	-0,037	0,010
-317,256	800,000	-0,035	-0,103
-316,241	800,000	0,020	-0,050
-315,226	-200,000	-0,005	0,033
-314,212	113,093	0,080	-0,071
-313,197	800,000	-0,032	-0,086
-312,183	-69,746	0,076	-0,021
-311,168	-200,000	0,008	0,110
-310,153	96,350	0,036	-0,030
-309,139	-200,000	0,007	-0,188
-308,124	173,920	-0,046	0,049
-307,110	-200,000	-0,044	0,161
-306,095	-55,291	-0,035	0,012
-305,080	-135,957	0,013	-0,001
-304,066	-200,000	-0,000	0,080
-303,051	-35,211	-0,069	0,027
-302,037	-106,180	0,048	-0,008
-301,022	538,106	0,047	0,082
-300,008	39,382	-0,081	0,053
-298,993	-200,000	-0,036	0,171
-297,978	-25,209	0,065	-0,028
-296,964	800,000	0,044	-0,110
-295,949	674,057	-0,038	-0,072
-294,935	75,425	-0,068	0,053
-293,920	407,532	-0,031	0,049
-292,905	-169,451	0,077	0,002
-291,891	-121,161	-0,163	-0,020
-290,876	800,000	0,054	-0,128
-289,862	103,303	-0,038	0,033
-288,847	66,965	-0,011	0,008
-287,832	40,623	-0,076	0,050
-286,818	254,361	0,074	-0,092
-285,803	16,022	0,115	-0,066
-284,789	11,431	-0,028	0,016
-283,774	78,384	-0,094	0,073
-282,759	-200,000	-0,016	-0,074
-281,745	74,574	-0,016	-0,012
-280,730	12,035	-0,070	-0,040
-279,716	83,987	-0,012	0,009
-278,701	-36,377	0,048	-0,019
-277,686	-48,727	-0,051	0,018
-276,672	107,996	0,075	0,066
-275,657	37,096	0,093	-0,060
-274,643	-200,000	-0,008	-0,027
-273,628	10,455	0,153	0,085
-272,613	800,000	0,014	0,033
-271,599	800,000	0,043	0,094
-270,584	-23,651	0,125	-0,055
-269,570	342,968	0,017	0,024
-268,555	800,000	0,045	-0,111
-267,540	146,397	-0,078	-0,077
-266,526	73,643	-0,065	0,050
-265,511	-8,928	-0,070	0,034
-264,497	346,639	-0,020	-0,028
-263,482	31,906	-0,026	-0,016
-262,467	-200,000	-0,015	0,100
-261,453	201,129	0,061	0,068
-260,438	-21,285	-0,089	-0,040
-259,424	-84,269	-0,092	-0,021
-258,409	-137,220	-0,118	0,010
-257,395	603,726	0,020	0,037
-256,380	-133,590	0,123	0,011
-255,365	411,595	0,022	0,035
-254,351	-3,247	-0,127	0,065
-253,336	800,000	-0,023	-0,059
-252,322	-150,153	-0,046	0,003
-251,307	-99,780	-0,151	-0,027
-250,292	486,082	0,085	0,142
-249,278	-200,000	-0,004	0,065
-248,263	-101,424	0,100	0,018
-247,249	35,268	-0,034	0,022
-246,234	-18,154	-0,063	-0,029
-245,219	800,000	0,017	0,036
-244,205	751,486	0,053	-0,106
-243,190	33,709	0,135	-0,086
-242,176	-200,000	0,019	-0,137
-241,161	411,514	0,033	0,052
-240,146	-84,780	-0,076	0,017
-239,132	47,700	0,082	0,056
-238,117	-25,317	-0,030	0,013
-237,103	-3,132	-0,045	0,023
-236,088	-200,000	0,014	0,048
-235,073	549,389	0,011	-0,019
-234,059	-1,021	0,041	-0,021
-233,044	124,728	0,048	0,044
-232,030	506,691	-0,029	-0,050
-231,015	559,980	0,024	0,042
-230,000	-24,374	-0,039	0,017
-228,986	800,000	-0,027	0,062
-227,971	-200,000	-0,006	-0,070
-226,957	800,000	-0,057	0,151
-225,942	97,633	-0,027	0,022
-224,927	95,853	0,069	-0,057
-223,913	48,416	-0,022	0,015
-222,898	-42,837	-0,140	-0,052
-221,884	19,340	-0,123	-0,072
-220,869	-200,000	0,013	0,117
-219,855	-8,649	0,144	-0,070
-218,840	-124,646	0,134	0,015
-217,825	-39,659	-0,100	0,038
-216,811	210,415	0,023	0,026
-215,796	800,000	0,031	-0,091
-214,782	18,919	-0,056	-0,032
-213,767	128,392	-0,118	-0,110
-212,752	800,000	0,059	0,122
-211,738	-113,584	-0,028	-0,004
-210,723	-88,951	0,179	0,038
-209,709	200,931	-0,051	0,057
-208,694	-41,508	0,026	0,010
-207,679	-200,000	0,114	-0,000
-206,665	-3,048	0,101	-0,051
-205,650	254,396	0,030	0,038
-204,636	-95,060	0,120	-0,023
-203,621	-33,018	-0,105	0,042
-202,606	800,000	0,020	-0,047
-201,592	800,000	-0,015	-0,032
-200,577	-97,491	0,049	0,009
-199,563	800,000	0,011	0,033
-198,548	350,858	-0,097	0,140
-197,533	-200,000	-0,002	0,095
-196,519	-78,614	0,091	0,022
-195,504	800,000	0,027	0,072
-194,490	-200,000	-0,004	-0,029
-193,475	184,330	-0,073	-0,079
-192,460	-169,742	-0,082	-0,002
-191,446	-200,000	0,011	0,065
-190,431	159,926	0,107	-0,108
-189,417	-200,000	0,014	0,045
-188,402	683,379	-0,041	-0,078
-187,387	-136,424	-0,241	-0,020
-186,373	677,718	0,023	-0,043
-185,358	24,817	-0,083	0,050
-184,344	98,877	-0,083	-0,070
-183,329	54,036	0,156	0,109
-182,315	800,000	0,019	-0,063
-181,300	180,654	-0,026	0,028
-180,285	-200,000	-0,014	0,083
-179,271	-9,401	-0,068	-0,033
-178,256	-200,000	0,028	-0,098
-177,242	-114,371	-0,031	-0,004
-176,227	70,252	0,017	0,013
-175,212	-97,642	0,074	-0,014
-174,198	-130,223	0,147	-0,014
-173,183	-200,000	0,003	0,061
-172,169	-200,000	0,019	-0,201
-171,154	351,790	-0,014	-0,020
-170,139	735,181	0,066	-0,129
-169,125	122,065	0,067	0,061
-168,110	-200,000	0,018	0,211
-167,096	-89,103	-0,040	0,009
-166,081	-95,168	-0,022	-0,004
-165,066	-110,274	-0,096	0,014
-164,052	333,837	-0,034	-0,047
-163,037	-200,000	-0,001	0,076
-162,023	-56,604	0,189	-0,061
-161,008	338,114	0,055	0,078
-159,993	-57,648	-0,067	0,021
-158,979	217,958	0,068	-0,079
-157,964	-35,311	0,098	-0,039
-156,950	14,360	-0,094	0,053
-155,935	236,881	-0,045	0,054
-154,920	142,517	0,074	0,071
-153,906	511,199	-0,063	0,108
-152,891	-68,766	0,051	0,014
-151,877	369,540	-0,028	-0,041
-150,862	-51,503	-0,147	-0,050
-149,847	-200,000	-0,006	0,085
-148,833	-200,000	-0,001	0,058
-147,818	-48,256	0,090	-0,031
-146,804	128,067	0,056	0,052
-145,789	-51,307	0,019	0,006
-144,775	115,135	-0,092	-0,082
-143,760	800,000	-0,039	0,113
-142,745	-200,000	0,008	0,125
-141,731	768,541	-0,034	-0,068
-140,716	129,361	0,104	-0,097
-139,702	20,050	0,141	0,083
-138,687	-135,837	0,101	-0,009
-137,672	800,000	0,015	0,046
-136,658	197,435	-0,021	0,024
-135,643	-200,000	0,012	-0,073
-134,629	-79,509	0,010	-0,003
-133,614	-101,526	0,072	0,013
-132,599	-200,000	0,005	0,089
-131,585	327,462	0,037	0,051
-130,570	487,795	-0,019	-0,031
-129,556	-200,000	0,016	0,082
-128,541	-49,355	-0,054	0,019
-127,526	-48,680	-0,046	0,016
-126,512	800,000	0,021	0,049
-125,497	-103,775	0,019	0,003
-124,483	-200,000	-0,009	-0,079
-123,468	797,955	0,034	0,068
-122,453	-200,000	-0,035	0,155
-121,439	-12,672	-0,051	-0,024
-120,424	800,000	0,029	-0,090
-119,410	359,991	-0,036	-0,052
-118,395	299,633	0,085	0,114
