DTS Sentinel unit serial number:	SN410029Multiplexer serial number:	ORYXHardware model number:	OX2-SRSoftware version number:	ORYX F/W v4,00 Oryx Data Collector v3.7.2.0data status	okinstallation	B4 Nyhavnadifferential loss correction	single-endedforward channel	channel 2reverse channel	N/Adate	2023/12/19time	06:05:13forward acquisition time	300,00reverse acquisition time	0,00gamma	499,1914k internal	0,3127k external	0,3127temperature offset calibration	1,0000default loss term (dB/km)	0,3820temperature slope calibration	1,0000multiplexer offset coefficient	1,0000multiplexer slope coefficient	1,0000fibre end	0,00T internal ref (°C)	21,10T ext. ref 1 (°C)	6,42T ext. ref 2 (°C)	6,59length (m)	temperature (°C)	Stokes	anti-Stokes-744,400	327,630	-0,073	-0,104
-743,385	-66,294	-0,170	0,050
-742,371	-113,338	0,140	0,020
-741,356	-76,952	-0,166	-0,043
-740,342	311,520	0,057	0,079
-739,327	187,793	-0,211	0,235
-738,312	-77,884	0,059	-0,015
-737,298	155,165	-0,164	0,168
-736,283	204,179	-0,020	-0,023
-735,269	-3,749	-0,281	0,145
-734,254	-88,419	-0,028	-0,006
-733,239	-176,059	-0,475	-0,009
-732,225	-56,350	0,114	-0,037
-731,210	589,971	0,110	0,202
-730,196	-145,205	-0,052	-0,003
-729,181	441,597	-0,070	-0,114
-728,167	86,238	0,050	-0,041
-727,152	249,670	0,045	0,057
-726,137	-133,355	-0,091	-0,008
-725,123	800,000	0,033	-0,094
-724,108	184,195	-0,069	-0,077
-723,094	800,000	-0,093	-0,209
-722,079	-28,612	-0,088	-0,037
-721,064	-58,262	-0,032	0,010
-720,050	-200,000	-0,020	0,078
-719,035	-135,154	-0,030	0,003
-718,021	556,484	0,024	-0,042
-717,006	30,824	-0,035	0,022
-715,991	471,234	-0,050	-0,085
-714,977	-36,258	0,102	0,041
-713,962	132,849	-0,013	-0,013
-712,948	-200,000	0,011	-0,075
-711,933	21,623	-0,040	0,024
-710,918	-200,000	0,002	-0,078
-709,904	-65,366	-0,093	0,028
-708,889	-200,000	-0,020	0,067
-707,875	-200,000	-0,009	-0,101
-706,860	-68,352	-0,133	0,038
-705,845	161,585	-0,087	-0,090
-704,831	800,000	-0,037	0,083
-703,816	161,728	0,070	0,073
-702,802	657,106	0,033	0,063
-701,787	800,000	-0,072	-0,226
-700,772	-16,013	-0,100	0,047
-699,758	348,492	-0,065	0,095
-698,743	-84,516	0,194	0,045
-697,729	-45,029	0,176	-0,065
-696,714	18,685	-0,137	0,081
-695,699	40,718	0,017	0,012
-694,685	181,955	-0,039	-0,043
-693,670	560,045	0,060	-0,108
-692,656	-200,000	0,042	-0,210
-691,641	731,610	-0,035	0,069
-690,627	-105,378	0,143	-0,024
-689,612	326,602	-0,028	-0,040
-688,597	-131,464	0,098	0,009
-687,583	66,789	-0,116	-0,087
-686,568	118,792	-0,056	-0,051
-685,554	-200,000	-0,006	-0,104
-684,539	274,074	0,043	-0,056
-683,524	616,255	-0,020	0,038
-682,510	168,825	-0,089	0,095
-681,495	95,456	-0,151	-0,128
-680,481	-200,000	0,035	-0,160
-679,466	-200,000	0,023	-0,117
-678,451	-36,211	0,013	0,005
-677,437	89,386	-0,077	0,064
-676,422	133,754	0,041	0,039
-675,408	442,131	-0,017	-0,027
-674,393	800,000	-0,037	0,094
-673,378	-200,000	-0,009	0,093
-672,364	294,496	-0,012	0,016
-671,349	-200,000	0,059	0,000
-670,335	236,410	0,071	0,087
-669,320	34,192	-0,031	-0,020
-668,305	800,000	-0,042	-0,088
-667,291	-17,620	-0,019	-0,009
-666,276	-200,000	0,018	-0,065
-665,262	-30,221	-0,180	-0,076
-664,247	2,178	-0,081	-0,043
-663,232	-109,000	0,091	0,014
-662,218	-102,121	-0,061	-0,011
-661,203	-200,000	0,021	0,127
-660,189	-1,209	-0,169	-0,088
-659,174	37,363	-0,107	-0,070
-658,159	83,977	-0,100	0,081
-657,145	800,000	0,025	-0,065
-656,130	42,170	0,079	-0,053
-655,116	123,179	-0,046	-0,043
-654,101	800,000	-0,034	0,082
-653,086	800,000	-0,068	0,181
-652,072	-200,000	0,021	0,128
-651,057	-200,000	0,005	-0,061
-650,043	-135,928	-0,044	-0,004
-649,028	663,441	-0,048	-0,092
-648,014	-20,226	-0,096	0,044
-646,999	-42,933	0,129	0,048
-645,984	567,943	0,034	-0,062
-644,970	-200,000	-0,020	-0,082
-643,955	37,235	0,032	0,021
-642,941	58,448	-0,076	0,055
-641,926	-200,000	-0,055	0,204
-640,911	800,000	-0,043	0,138
-639,897	6,622	-0,048	-0,026
-638,882	800,000	-0,034	-0,096
-637,868	-200,000	0,039	-0,164
-636,853	277,636	0,035	0,047
-635,838	-200,000	-0,006	0,037
-634,824	93,123	0,074	-0,062
-633,809	-133,111	0,063	-0,006
-632,795	787,480	-0,070	0,143
-631,780	273,562	0,072	-0,095
-630,765	581,696	-0,066	0,121
-629,751	451,854	-0,071	-0,117
-628,736	402,669	-0,018	-0,028
-627,722	587,667	0,051	-0,094
-626,707	-200,000	0,029	0,111
-625,692	16,925	-0,021	0,012
-624,678	230,054	0,098	-0,119
-623,663	-56,461	-0,080	-0,026
-622,649	351,181	-0,069	-0,102
-621,634	-38,334	0,071	0,028
-620,619	-80,718	-0,067	0,016
-619,605	-200,000	0,036	0,128
-618,590	800,000	0,033	-0,095
-617,576	451,993	-0,011	0,018
-616,561	196,257	-0,035	0,039
-615,546	800,000	-0,026	-0,084
-614,532	-200,000	-0,017	-0,117
-613,517	-200,000	0,003	-0,032
-612,503	-83,468	-0,080	-0,019
-611,488	309,245	0,056	0,078
-610,474	162,802	0,020	-0,021
-609,459	209,971	-0,037	0,043
-608,444	47,486	-0,135	0,093
-607,430	408,112	0,034	0,054
-606,415	251,255	0,041	0,051
-605,401	-39,357	0,046	-0,018
-604,386	69,603	-0,043	-0,032
-603,371	-142,934	0,176	0,012
-602,357	-99,329	-0,031	-0,006
-601,342	235,810	0,070	-0,086
-600,328	251,753	0,003	-0,004
-599,313	-76,735	0,123	-0,032
-598,298	197,693	0,026	0,029
-597,284	392,731	-0,059	0,091
-596,269	-59,009	0,107	0,034
-595,255	800,000	0,021	-0,064
-594,240	197,027	0,072	-0,081
-593,225	-20,120	-0,118	0,054
-592,211	-73,107	-0,121	0,033
-591,196	-200,000	-0,010	-0,056
-590,182	-29,523	-0,034	-0,014
-589,167	-200,000	-0,017	-0,057
-588,152	800,000	-0,004	-0,011
-587,138	-121,490	-0,097	-0,012
-586,123	75,175	-0,135	0,106
-585,109	-113,280	-0,155	-0,022
-584,094	201,885	-0,031	0,036
-583,079	223,284	0,023	-0,028
-582,065	800,000	0,031	-0,080
-581,050	303,905	-0,054	0,074
-580,036	391,582	-0,029	0,045
-579,021	-2,854	-0,142	-0,073
-578,006	-112,867	-0,048	-0,007
-576,992	800,000	-0,004	0,008
-575,977	295,090	-0,064	-0,087
-574,963	8,665	0,096	-0,053
-573,948	-58,440	-0,095	0,030
-572,934	288,046	0,082	0,110
-571,919	-81,056	-0,123	-0,030
-570,904	110,860	0,085	0,076
-569,890	-73,648	-0,152	0,041
-568,875	256,562	0,063	0,080
-567,861	-200,000	0,038	0,140
-566,846	-102,412	0,078	0,014
-565,831	121,462	-0,019	0,017
-564,817	-53,584	-0,035	0,012
-563,802	-5,584	-0,078	0,040
-562,788	-64,192	-0,122	0,037
-561,773	-111,240	-0,064	-0,010
-560,758	-200,000	0,015	0,073
-559,744	800,000	0,011	-0,026
-558,729	234,161	-0,073	-0,090
-557,715	-1,941	0,046	-0,024
-556,700	-139,891	0,029	0,002
-555,685	800,000	0,066	-0,166
-554,671	374,460	0,048	0,073
-553,656	-162,676	-0,048	-0,002
-552,642	-200,000	-0,012	-0,086
-551,627	415,597	-0,050	0,079
-550,612	285,881	-0,097	-0,129
-549,598	47,160	0,166	0,114
-548,583	-121,016	0,113	0,014
-547,569	34,960	-0,174	-0,112
-546,554	-66,093	0,253	0,074
-545,539	569,843	0,042	0,075
-544,525	-53,638	0,101	0,034
-543,510	-122,086	-0,034	0,004
-542,496	143,079	-0,041	0,040
-541,481	51,200	-0,078	0,055
-540,466	70,314	-0,081	0,062
-539,452	-200,000	-0,009	-0,040
-538,437	50,496	-0,069	0,048
-537,423	-134,446	-0,052	-0,005
-536,408	-65,940	-0,078	-0,023
-535,393	-200,000	-0,012	-0,064
-534,379	-86,471	0,073	0,016
-533,364	-200,000	0,003	0,016
-532,350	-116,160	0,089	-0,012
-531,335	390,663	-0,033	-0,050
-530,321	-131,745	-0,048	-0,005
-529,306	190,090	0,044	0,049
-528,291	-70,282	-0,030	0,008
-527,277	800,000	-0,036	0,084
-526,262	644,995	-0,011	-0,021
-525,248	-131,559	-0,073	0,007
-524,233	-200,000	-0,007	-0,066
-523,218	220,746	-0,026	-0,030
-522,204	17,648	0,037	0,022
-521,189	259,100	0,034	-0,044
-520,175	690,020	-0,081	-0,157
-519,160	-200,000	0,009	-0,146
-518,145	-200,000	0,019	0,066
-517,131	-200,000	0,003	0,027
-516,116	24,765	-0,152	0,093
-515,102	164,484	-0,067	0,069
-514,087	19,580	0,117	-0,069
-513,072	-29,297	0,127	-0,053
-512,058	95,697	0,108	-0,091
-511,043	-83,483	0,093	-0,022
-510,029	-137,779	0,157	-0,013
-509,014	-61,249	-0,024	-0,007
-507,999	-200,000	-0,024	0,104
-506,985	93,820	-0,103	0,086
-505,970	-200,000	-0,006	0,061
-504,956	228,220	-0,094	-0,113
-503,941	-0,812	-0,034	-0,018
-502,926	-70,495	-0,103	0,029
-501,912	-200,000	0,010	0,079
-500,897	800,000	0,049	0,129
-499,883	120,707	-0,077	-0,071
-498,868	22,036	-0,110	-0,066
-497,853	-200,000	-0,017	-0,085
-496,839	-85,890	0,124	-0,028
-495,824	105,521	-0,098	-0,085
-494,810	-30,895	0,073	0,030
-493,795	-200,000	0,024	-0,111
-492,781	222,611	0,066	-0,079
-491,766	-200,000	-0,029	-0,140
-490,751	800,000	0,039	0,095
-489,737	321,561	0,031	-0,043
-488,722	-135,803	0,056	-0,005
-487,708	-108,246	0,080	0,013
-486,693	-144,276	-0,103	-0,007
-485,678	80,074	-0,075	0,060
-484,664	-200,000	0,003	0,027
-483,649	800,000	0,012	0,027
-482,635	147,338	0,022	-0,022
-481,620	316,841	0,116	0,162
-480,605	800,000	0,042	0,103
-479,591	-4,261	-0,066	0,034
-478,576	43,941	-0,010	-0,006
-477,562	-150,392	0,082	-0,005
-476,547	467,793	0,032	-0,052
-475,532	-132,263	0,075	-0,007
-474,518	710,448	-0,016	0,031
-473,503	-200,000	0,002	0,047
-472,489	203,225	-0,029	-0,033
-471,474	-12,192	-0,035	0,017
-470,459	-27,457	0,125	-0,053
-469,445	800,000	0,021	-0,045
-468,430	-74,232	-0,122	-0,032
-467,416	418,852	-0,010	0,015
-466,401	332,224	-0,057	-0,081
-465,386	33,339	0,116	0,074
-464,372	-200,000	0,002	0,053
-463,357	-123,165	-0,109	0,013
-462,343	800,000	-0,059	-0,127
-461,328	119,955	-0,080	-0,073
-460,313	-2,224	0,123	-0,063
-459,299	614,728	0,121	0,224
-458,284	-152,036	0,109	0,006
-457,270	-55,655	0,078	-0,026
-456,255	25,042	-0,075	-0,046
-455,241	-104,628	-0,116	-0,019
-454,226	-200,000	0,013	-0,058
-453,211	9,634	-0,070	0,039
-452,197	800,000	-0,018	-0,039
-451,182	15,096	0,116	-0,067
-450,168	800,000	0,050	0,114
-449,153	62,840	-0,087	0,064
-448,138	375,459	-0,096	0,145
-447,124	-113,296	0,022	-0,003
-446,109	499,543	0,028	-0,047
-445,095	26,343	0,026	0,016
-444,080	15,362	0,056	0,032
-443,065	126,378	0,166	0,155
-442,051	-200,000	-0,008	-0,054
-441,036	-54,524	-0,040	0,013
-440,022	648,954	-0,079	-0,149
-439,007	24,499	0,166	0,101
-437,992	179,397	0,021	0,022
-436,978	-200,000	-0,012	0,044
-435,963	72,324	0,033	-0,025
-434,949	8,844	-0,059	-0,033
-433,934	-29,150	0,011	-0,005
-432,919	691,490	-0,051	-0,098
-431,905	96,883	0,040	0,034
-430,890	800,000	-0,017	-0,048
-429,876	248,410	0,158	0,197
-428,861	800,000	0,026	0,071
-427,846	109,620	0,040	0,035
-426,832	-200,000	0,003	0,020
-425,817	177,785	-0,070	0,075
-424,803	215,446	0,078	-0,091
-423,788	290,489	-0,024	0,032
-422,773	-71,576	-0,086	0,024
-421,759	32,158	-0,051	-0,032
-420,744	-119,126	-0,062	0,008
-419,730	-200,000	0,154	0,000
-418,715	800,000	0,026	-0,062
-417,701	-22,468	-0,033	-0,015
-416,686	-141,333	0,054	-0,004
-415,671	533,858	-0,036	0,063
-414,657	-191,256	-0,052	-0,000
-413,642	60,341	0,090	0,066
-412,628	800,000	-0,014	0,031
-411,613	-200,000	-0,001	-0,101
-410,598	101,139	0,045	0,039
-409,584	800,000	-0,017	-0,038
-408,569	133,674	0,112	0,107
-407,555	-41,301	-0,039	-0,015
-406,540	627,253	-0,010	0,018
-405,525	-82,151	-0,054	-0,013
-404,511	-200,000	-0,003	-0,022
-403,496	-200,000	-0,010	-0,107
-402,482	-200,000	0,015	-0,061
-401,467	97,515	0,041	0,035
-400,452	310,062	0,063	0,086
-399,438	800,000	0,053	0,119
-398,423	-158,496	-0,175	0,007
-397,409	14,889	0,072	0,041
-396,394	23,204	-0,048	0,029
-395,379	-102,034	0,066	0,012
-394,365	800,000	-0,014	-0,032
-393,350	-70,263	0,086	-0,024
-392,336	98,245	-0,090	0,076
-391,321	-67,097	-0,034	0,010
-390,306	-200,000	0,001	-0,101
-389,292	-162,872	-0,035	0,001
-388,277	77,339	0,102	-0,080
-387,263	4,460	0,072	-0,039
-386,248	292,843	-0,050	0,067
-385,233	338,973	-0,095	-0,136
-384,219	376,643	0,040	0,061
-383,204	-84,400	0,010	-0,002
-382,190	-200,000	0,007	-0,100
-381,175	557,630	-0,078	0,139
-380,160	97,219	0,028	0,023
-379,146	158,716	0,056	-0,057
-378,131	800,000	0,068	0,177
-377,117	44,212	-0,039	-0,026
-376,102	649,774	0,048	-0,091
-375,088	50,481	-0,074	-0,051
-374,073	-200,000	0,014	-0,226
-373,058	-200,000	0,001	-0,040
-372,044	160,935	0,043	-0,044
-371,029	501,934	-0,030	0,051
-370,015	40,404	0,087	-0,057
-369,000	244,088	0,089	0,110
-367,985	680,229	-0,052	0,100
-366,971	32,593	-0,010	0,007
-365,956	-200,000	-0,002	-0,099
-364,942	-200,000	0,002	0,049
-363,927	800,000	0,030	-0,094
-362,912	-200,000	0,016	0,062
-361,898	697,634	-0,036	-0,070
-360,883	-13,280	-0,063	-0,030
-359,869	13,228	0,042	-0,024
-358,854	435,128	0,086	0,137
-357,839	-29,041	-0,161	-0,068
-356,825	-84,054	0,122	0,028
-355,810	177,270	0,055	-0,059
-354,796	235,606	0,029	0,035
-353,781	-131,874	-0,093	-0,009
-352,766	36,919	0,109	0,071
-351,752	91,476	-0,130	0,107
-350,737	-200,000	-0,001	0,103
-349,723	387,529	0,041	0,062
-348,708	408,741	-0,082	-0,128
-347,693	-200,000	0,014	0,070
-346,679	621,611	-0,112	-0,207
-345,664	765,366	-0,054	-0,108
-344,650	203,817	0,154	-0,175
-343,635	410,250	-0,071	-0,110
-342,620	-200,000	0,002	-0,008
-341,606	0,171	0,115	-0,060
-340,591	-146,476	0,092	-0,006
-339,577	659,173	0,060	-0,114
-338,562	-166,661	-0,075	-0,002
-337,548	142,308	0,103	-0,100
-336,533	-200,000	0,014	0,069
-335,518	-106,708	0,103	-0,017
-334,504	800,000	0,028	0,076
-333,489	-115,705	-0,051	-0,007
-332,475	-200,000	0,006	0,045
-331,460	-112,681	0,017	0,002
-330,445	-200,000	-0,017	0,066
-329,431	-33,350	0,033	-0,013
-328,416	-200,000	-0,004	-0,135
-327,402	-118,372	-0,058	0,007
-326,387	210,740	-0,073	-0,084
-325,372	-200,000	0,015	-0,167
-324,358	253,813	-0,024	-0,030
-323,343	-200,000	-0,002	-0,137
-322,329	-76,035	0,034	-0,009
-321,314	800,000	-0,023	0,060
-320,299	278,522	-0,004	-0,005
-319,285	-34,410	0,176	0,070
-318,270	800,000	0,028	0,066
-317,256	-181,852	-0,083	0,001
-316,241	218,447	0,092	-0,108
-315,226	800,000	0,025	0,052
-314,212	58,796	-0,105	-0,075
-313,197	-138,038	0,054	0,004
-312,183	0,768	-0,009	0,005
-311,168	81,545	0,044	-0,035
-310,153	186,883	-0,194	-0,211
-309,139	577,352	-0,063	-0,114
-308,124	41,819	-0,041	0,027
-307,110	-88,699	-0,072	-0,015
-306,095	-200,000	0,025	0,119
-305,080	62,937	-0,032	0,023
-304,066	800,000	0,040	-0,094
-303,051	800,000	0,057	-0,177
-302,037	-48,290	-0,071	0,025
-301,022	-5,666	0,038	0,019
-300,008	800,000	-0,020	0,051
-298,993	68,059	0,116	0,086
-297,978	800,000	0,035	-0,109
-296,964	-73,385	0,181	-0,048
-295,949	377,214	0,026	-0,040
-294,935	106,185	-0,052	0,045
-293,920	-8,823	0,100	0,049
-292,905	464,838	-0,053	0,087
-291,891	204,452	0,051	-0,058
-290,876	-200,000	-0,034	0,166
-289,862	800,000	-0,026	0,064
-288,847	-200,000	0,002	-0,109
-287,832	317,207	0,107	-0,148
-286,818	-99,842	-0,069	-0,013
-285,803	-33,262	-0,161	0,065
-284,789	58,915	-0,109	-0,078
-283,774	-200,000	-0,005	-0,081
-282,759	-200,000	-0,005	0,043
-281,745	75,642	0,051	-0,040
-280,730	205,942	-0,037	0,042
-279,716	-38,396	0,162	-0,062
-278,701	800,000	0,043	0,112
-277,686	-200,000	0,027	0,145
-276,672	800,000	0,068	0,175
-275,657	800,000	-0,029	0,081
-274,643	-62,192	-0,108	0,033
-273,628	708,240	-0,028	-0,055
-272,613	248,092	-0,036	0,045
-271,599	24,078	0,037	-0,022
-270,584	20,132	0,015	-0,009
-269,570	800,000	0,039	0,096
-268,555	-26,965	0,073	0,031
-267,540	345,754	0,029	0,042
-266,526	258,712	0,082	-0,104
-265,511	204,212	-0,131	-0,149
-264,497	13,062	0,060	0,034
-263,482	4,800	0,037	0,020
-262,467	40,779	-0,025	0,017
-261,453	-200,000	-0,008	-0,072
-260,438	-200,000	-0,003	-0,121
-259,424	191,386	-0,080	0,089
-258,409	800,000	-0,030	-0,062
-257,395	800,000	0,066	0,138
-256,380	-200,000	-0,001	0,057
-255,365	-71,082	0,070	-0,019
-254,351	-53,686	0,079	-0,026
-253,336	-148,993	0,112	-0,006
-252,322	23,407	-0,096	-0,057
-251,307	392,599	0,036	-0,055
-250,292	-200,000	0,000	-0,036
-249,278	333,252	0,065	0,092
-248,263	-200,000	-0,023	0,115
-247,249	112,443	0,051	-0,045
-246,234	124,658	0,002	-0,002
-245,219	800,000	-0,053	-0,159
-244,205	-193,150	-0,094	-0,001
-243,190	87,009	0,077	0,062
-242,176	274,449	-0,097	0,126
-241,161	197,874	-0,020	-0,023
-240,146	739,860	0,031	-0,060
-239,132	70,953	-0,083	-0,063
-238,117	-200,000	-0,027	-0,088
-237,103	152,444	0,062	-0,062
-236,088	193,263	0,058	-0,064
-235,073	732,390	-0,020	0,040
-234,059	-138,977	-0,143	-0,011
-233,044	-58,689	-0,057	0,018
-232,030	419,295	0,087	-0,137
-231,015	-200,000	0,003	-0,115
-230,000	800,000	0,065	-0,157
-228,986	116,967	0,059	-0,053
-227,971	-200,000	-0,005	0,041
-226,957	-38,519	0,118	0,045
-225,942	-200,000	-0,003	0,103
-224,927	-200,000	-0,005	-0,076
-223,913	-152,271	-0,074	-0,004
-222,898	-28,458	-0,075	-0,032
-221,884	12,724	0,119	-0,067
-220,869	800,000	-0,038	-0,092
-219,855	800,000	0,040	0,103
-218,840	-54,719	-0,053	-0,017
-217,825	351,107	-0,146	0,211
-216,811	-200,000	0,003	0,046
-215,796	98,698	-0,080	0,067
-214,782	117,357	-0,073	-0,066
-213,767	24,633	0,085	-0,051
-212,752	-130,054	-0,071	-0,007
-211,738	-148,506	0,032	-0,002
-210,723	-135,536	0,085	0,007
-209,709	22,295	-0,072	0,043
-208,694	55,215	0,122	-0,086
-207,679	-149,105	-0,057	-0,003
-206,665	-170,776	0,083	-0,002
-205,650	675,443	0,051	0,098
-204,636	113,077	-0,071	-0,062
-203,621	-200,000	-0,012	0,106
-202,606	687,577	-0,041	-0,079
-201,592	800,000	0,027	-0,081
-200,577	13,232	-0,084	0,048
-199,563	800,000	-0,014	-0,041
-198,548	71,466	0,135	0,102
-197,533	573,049	-0,044	0,078
-196,519	-200,000	0,017	0,121
-195,504	-189,782	-0,033	-0,000
-194,490	-200,000	-0,000	0,157
-193,475	-55,607	-0,037	-0,012
-192,460	-200,000	-0,009	0,081
-191,446	459,552	-0,037	0,060
-190,431	414,406	0,048	0,075
-189,417	-93,161	0,106	-0,021
-188,402	111,858	0,117	0,103
-187,387	-82,788	-0,077	-0,018
-186,373	654,686	0,044	0,082
-185,358	26,779	-0,140	0,085
-184,344	800,000	0,036	0,115
-183,329	-200,000	-0,020	0,137
-182,315	800,000	0,040	0,119
-181,300	-100,518	-0,044	-0,008
-180,285	-168,761	0,111	-0,003
-179,271	636,175	-0,022	0,041
-178,256	-56,382	0,038	0,012
-177,242	533,810	0,021	0,036
-176,227	15,253	0,054	-0,031
-175,212	118,854	-0,054	0,049
-174,198	-149,854	-0,096	-0,005
-173,183	165,889	0,050	0,051
-172,169	-16,308	-0,178	-0,082
-171,154	171,933	-0,040	-0,042
-170,139	143,903	0,073	-0,071
-169,125	800,000	-0,022	-0,058
-168,110	555,390	-0,045	0,078
-167,096	78,654	-0,154	-0,120
-166,081	-18,832	0,182	-0,082
-165,066	324,088	-0,108	-0,151
-164,052	-78,468	-0,051	0,013
-163,037	800,000	-0,030	-0,063
-162,023	74,840	-0,062	0,047
-161,008	-200,000	-0,003	0,105
-159,993	800,000	0,050	0,143
-158,979	-38,334	-0,076	-0,029
-157,964	-37,178	-0,044	-0,017
-156,950	-200,000	-0,039	0,147
-155,935	197,230	-0,043	-0,047
-154,920	-53,355	0,111	0,037
-153,906	-200,000	-0,009	0,126
-152,891	-21,277	-0,034	0,015
-151,877	-59,281	0,119	-0,037
-150,862	-200,000	0,008	-0,083
-149,847	702,538	0,042	-0,081
-148,833	252,187	-0,091	0,113
-147,818	-74,162	0,125	0,033
-146,804	-50,900	0,213	0,072
-145,789	-164,454	-0,104	0,003
-144,775	399,259	0,060	0,092
-143,760	-200,000	-0,013	0,047
-142,745	-200,000	-0,004	0,018
-141,731	-200,000	-0,016	-0,067
-140,716	91,820	0,143	-0,117
-139,702	-95,254	-0,166	0,032
-138,687	-177,022	0,070	0,001
-137,672	-99,248	-0,107	-0,020
-136,658	564,436	0,033	0,058
-135,643	84,190	-0,068	0,054
-134,629	608,379	-0,032	-0,058
-133,614	-61,306	-0,028	0,009
-132,599	508,857	-0,042	-0,070
-131,585	800,000	-0,041	0,117
-130,570	-67,123	-0,084	-0,024
-129,556	40,552	0,050	0,032
-128,541	-79,771	0,046	0,011
-127,526	-128,963	0,076	-0,008
-126,512	-200,000	0,030	0,102
-125,497	154,305	0,005	0,005
-124,483	716,371	0,044	-0,086
-123,468	-93,673	-0,067	-0,013
-122,453	-200,000	0,030	-0,099
-121,439	-200,000	-0,017	-0,063
-120,424	-43,019	-0,040	0,015
-119,410	-200,000	-0,004	-0,069
