DTS Sentinel unit serial number:	SN410029Multiplexer serial number:	ORYXHardware model number:	OX2-SRSoftware version number:	ORYX F/W v4,00 Oryx Data Collector v3.7.2.0data status	okinstallation	B4 Nyhavnadifferential loss correction	single-endedforward channel	channel 2reverse channel	N/Adate	2023/12/16time	02:15:13forward acquisition time	300,00reverse acquisition time	0,00gamma	499,1914k internal	0,3128k external	0,3128temperature offset calibration	1,0000default loss term (dB/km)	0,3820temperature slope calibration	1,0000multiplexer offset coefficient	1,0000multiplexer slope coefficient	1,0000fibre end	0,00T internal ref (°C)	21,94T ext. ref 1 (°C)	7,16T ext. ref 2 (°C)	7,38length (m)	temperature (°C)	Stokes	anti-Stokes-744,400	18,762	-0,114	-0,068
-743,385	-163,314	-0,220	-0,008
-742,371	26,095	0,119	-0,073
-741,356	-32,259	-0,191	0,079
-740,342	-127,991	-0,096	-0,010
-739,327	-29,983	-0,173	0,073
-738,312	210,620	-0,033	-0,039
-737,298	-82,884	-0,219	-0,052
-736,283	219,591	0,053	-0,064
-735,269	-200,000	-0,024	0,150
-734,254	800,000	0,018	-0,060
-733,239	-8,393	-0,251	-0,125
-732,225	88,692	-0,036	-0,030
-731,210	-88,058	-0,107	0,024
-730,196	119,651	-0,099	-0,091
-729,181	-200,000	-0,006	0,135
-728,167	-49,151	0,145	0,051
-727,152	55,498	-0,045	-0,033
-726,137	273,511	-0,018	-0,023
-725,123	352,470	-0,152	-0,225
-724,108	286,414	0,054	-0,072
-723,094	198,714	-0,083	-0,095
-722,079	56,083	0,033	-0,024
-721,064	-200,000	0,050	-0,210
-720,050	271,724	-0,019	-0,026
-719,035	59,292	-0,090	0,066
-718,021	666,799	0,072	-0,139
-717,006	2,224	-0,070	-0,037
-715,991	-200,000	-0,019	-0,113
-714,977	-200,000	-0,006	0,107
-713,962	-87,174	-0,019	-0,004
-712,948	56,574	-0,054	-0,039
-711,933	328,826	0,009	0,012
-710,918	-200,000	-0,005	0,047
-709,904	-200,000	0,012	-0,179
-708,889	449,465	-0,137	-0,225
-707,875	144,952	-0,028	0,028
-706,860	365,899	-0,059	-0,088
-705,845	-39,199	-0,064	0,025
-704,831	445,195	0,047	0,077
-703,816	100,111	0,025	0,022
-702,802	-144,833	-0,059	0,004
-701,787	-200,000	-0,011	0,048
-700,772	800,000	-0,023	0,071
-699,758	-38,384	0,040	0,016
-698,743	195,387	0,064	0,072
-697,729	-4,582	0,015	0,008
-696,714	556,653	0,042	-0,076
-695,699	-200,000	0,002	-0,016
-694,685	424,646	-0,090	-0,145
-693,670	454,334	-0,049	-0,081
-692,656	-200,000	0,018	-0,109
-691,641	-200,000	0,048	-0,183
-690,627	-200,000	0,007	-0,058
-689,612	70,162	0,139	-0,106
-688,597	-200,000	0,003	0,038
-687,583	124,722	-0,041	0,038
-686,568	-88,494	-0,080	0,017
-685,554	-40,303	0,068	0,026
-684,539	344,834	0,048	0,070
-683,524	800,000	0,037	0,087
-682,510	-200,000	0,030	0,216
-681,495	-25,589	-0,084	0,037
-680,481	110,999	0,029	-0,026
-679,466	800,000	-0,026	0,065
-678,451	-79,798	0,121	0,030
-677,437	-200,000	0,016	0,085
-676,422	-200,000	-0,021	0,127
-675,408	-56,264	-0,084	0,028
-674,393	-12,007	0,112	0,054
-673,378	581,371	-0,058	-0,106
-672,364	-9,381	-0,113	-0,056
-671,349	-108,565	-0,068	-0,011
-670,335	27,070	0,038	-0,024
-669,320	69,530	0,089	0,068
-668,305	-200,000	0,030	0,194
-667,291	66,496	-0,070	0,053
-666,276	254,605	0,098	0,125
-665,262	-200,000	-0,005	-0,037
-664,247	-138,852	-0,065	-0,005
-663,232	165,914	0,056	0,059
-662,218	-200,000	0,255	0,001
-661,203	-15,950	0,034	0,016
-660,189	141,559	0,068	-0,067
-659,174	800,000	0,029	-0,076
-658,159	-200,000	0,018	-0,088
-657,145	-200,000	0,054	-0,000
-656,130	-200,000	-0,006	-0,019
-655,116	800,000	0,049	0,137
-654,101	-200,000	-0,025	0,112
-653,086	-200,000	-0,007	0,034
-652,072	-123,485	-0,033	-0,004
-651,057	791,615	0,030	-0,061
-650,043	800,000	-0,013	-0,035
-649,028	800,000	-0,002	-0,006
-648,014	-119,226	0,153	-0,020
-646,999	286,079	-0,065	0,087
-645,984	-200,000	-0,003	0,056
-644,970	40,837	0,122	-0,081
-643,955	-153,195	-0,025	0,001
-642,941	127,194	0,061	0,057
-641,926	-60,524	-0,066	0,021
-640,911	-200,000	-0,014	-0,097
-639,897	93,553	0,023	0,019
-638,882	-151,183	-0,038	-0,002
-637,868	209,426	-0,019	0,022
-636,853	-200,000	-0,011	-0,104
-635,838	-200,000	-0,021	-0,070
-634,824	185,082	-0,028	0,031
-633,809	800,000	0,034	-0,106
-632,795	88,646	-0,036	0,029
-631,780	-122,191	-0,024	-0,003
-630,765	-40,880	-0,104	0,040
-629,751	-148,026	-0,166	0,010
-628,736	97,095	-0,029	0,025
-627,722	345,623	-0,085	-0,125
-626,707	109,133	-0,005	-0,005
-625,692	-200,000	0,015	0,068
-624,678	-21,222	0,120	-0,054
-623,663	-178,516	0,110	-0,002
-622,649	-143,061	-0,063	-0,004
-621,634	-200,000	-0,012	0,058
-620,619	800,000	0,013	0,042
-619,605	-57,910	-0,069	0,022
-618,590	-200,000	0,025	0,089
-617,576	-14,315	0,071	-0,034
-616,561	9,168	0,070	-0,039
-615,546	-200,000	-0,021	-0,075
-614,532	289,467	0,043	-0,057
-613,517	-200,000	-0,012	-0,059
-612,503	502,804	-0,053	0,092
-611,488	-200,000	0,033	0,116
-610,474	-200,000	-0,022	-0,087
-609,459	511,969	-0,025	-0,043
-608,444	261,379	-0,112	-0,144
-607,430	715,270	-0,060	-0,118
-606,415	800,000	0,025	0,081
-605,401	-76,152	-0,065	0,017
-604,386	192,759	-0,036	-0,040
-603,371	10,141	0,132	0,074
-602,357	-200,000	-0,040	0,160
-601,342	-112,969	0,062	-0,009
-600,328	-200,000	-0,016	-0,136
-599,313	157,398	-0,025	0,025
-598,298	177,629	-0,129	0,140
-597,284	-43,953	-0,068	-0,025
-596,269	249,433	-0,085	0,107
-595,255	-200,000	0,009	0,054
-594,240	600,351	-0,028	0,052
-593,225	487,097	0,059	0,100
-592,211	800,000	0,037	0,086
-591,196	395,533	-0,015	-0,024
-590,182	24,364	0,070	0,043
-589,167	55,937	0,046	0,033
-588,152	400,737	0,067	0,105
-587,138	-200,000	-0,006	0,035
-586,123	756,348	0,045	0,090
-585,109	-200,000	0,009	-0,063
-584,094	11,428	-0,047	0,027
-583,079	89,794	0,049	0,041
-582,065	-29,505	-0,020	-0,008
-581,050	-80,777	-0,076	0,019
-580,036	99,244	0,046	-0,040
-579,021	509,651	0,020	0,035
-578,006	-200,000	0,014	-0,111
-576,992	-200,000	-0,021	-0,146
-575,977	175,541	0,088	0,094
-574,963	-200,000	0,049	0,243
-573,948	454,655	0,091	0,150
-572,934	228,288	-0,074	0,089
-571,919	-200,000	-0,005	0,121
-570,904	33,688	-0,051	0,033
-569,890	155,308	-0,045	0,046
-568,875	800,000	0,025	0,077
-567,861	122,119	-0,075	0,069
-566,846	144,736	0,138	0,137
-565,831	-116,880	-0,110	-0,015
-564,817	-200,000	-0,016	-0,115
-563,802	800,000	-0,026	-0,076
-562,788	-0,181	-0,111	0,058
-561,773	-200,000	-0,016	0,061
-560,758	-200,000	-0,005	0,039
-559,744	181,705	-0,057	0,062
-558,729	-200,000	0,018	-0,073
-557,715	375,874	-0,036	-0,054
-556,700	-95,404	-0,037	0,007
-555,685	-116,339	0,127	-0,017
-554,671	-200,000	0,005	0,145
-553,656	-171,108	-0,099	0,002
-552,642	800,000	0,031	0,087
-551,627	-150,005	-0,113	-0,006
-550,612	-200,000	0,009	0,114
-549,598	-200,000	0,012	-0,125
-548,583	800,000	0,077	0,160
-547,569	-200,000	0,020	-0,114
-546,554	180,723	-0,015	0,016
-545,539	630,366	-0,042	0,078
-544,525	532,143	-0,092	0,161
-543,510	-82,364	0,023	-0,006
-542,496	-60,241	0,110	0,034
-541,481	194,615	0,036	0,040
-540,466	26,651	0,084	0,052
-539,452	-200,000	0,002	-0,069
-538,437	800,000	-0,009	0,022
-537,423	47,861	0,011	-0,007
-536,408	-79,777	0,050	0,012
-535,393	-40,158	-0,121	-0,046
-534,379	-200,000	-0,009	-0,070
-533,364	10,248	0,096	-0,054
-532,350	18,928	0,080	-0,047
-531,335	-84,948	0,164	-0,038
-530,321	-94,385	-0,175	-0,035
-529,306	-200,000	-0,003	0,020
-528,291	276,136	-0,112	-0,147
-527,277	-0,298	-0,094	0,049
-526,262	-129,179	0,053	-0,005
-525,248	787,268	0,073	0,149
-524,233	20,028	-0,033	-0,020
-523,218	-200,000	0,018	0,158
-522,204	-26,273	-0,078	0,034
-521,189	249,595	-0,027	-0,034
-520,175	-104,752	-0,067	0,011
-519,160	175,879	-0,056	-0,060
-518,145	-80,700	0,169	0,041
-517,131	-82,491	0,117	0,028
-516,116	-200,000	0,014	0,091
-515,102	-113,311	-0,033	-0,005
-514,087	47,330	-0,067	-0,046
-513,072	-89,196	0,013	0,003
-512,058	-200,000	0,028	-0,101
-511,043	-127,072	0,075	-0,008
-510,029	77,732	-0,055	0,043
-509,014	-65,028	0,074	-0,022
-507,999	-200,000	0,000	-0,115
-506,985	800,000	-0,024	-0,074
-505,970	-200,000	-0,029	-0,098
-504,956	58,411	-0,129	-0,093
-503,941	-200,000	0,044	-0,165
-502,926	-176,450	0,165	0,003
-501,912	-200,000	0,003	0,042
-500,897	-200,000	0,026	-0,204
-499,883	295,789	-0,104	-0,141
-498,868	296,026	0,083	0,112
-497,853	-200,000	0,005	-0,030
-496,839	20,792	0,038	-0,023
-495,824	-3,800	-0,033	-0,017
-494,810	-200,000	-0,011	-0,041
-493,795	-200,000	-0,023	0,102
-492,781	624,120	-0,053	-0,098
-491,766	156,881	0,052	-0,053
-490,751	800,000	-0,047	-0,145
-489,737	-200,000	0,006	0,100
-488,722	118,375	0,018	-0,017
-487,708	800,000	-0,043	0,122
-486,693	-200,000	-0,011	0,101
-485,678	514,704	0,057	-0,098
-484,664	-51,487	-0,070	-0,024
-483,649	800,000	-0,014	0,040
-482,635	-21,870	0,063	0,028
-481,620	-135,562	-0,153	-0,013
-480,605	-127,996	0,075	0,008
-479,591	2,567	-0,009	-0,005
-478,576	-53,035	0,028	0,010
-477,562	-88,922	-0,078	-0,017
-476,547	27,106	0,032	0,020
-475,532	-200,000	0,014	-0,201
-474,518	-116,516	-0,085	0,011
-473,503	95,192	0,091	-0,076
-472,489	-200,000	-0,018	-0,114
-471,474	-118,937	-0,124	0,016
-470,459	800,000	0,027	0,060
-469,445	-114,638	0,104	-0,014
-468,430	-122,449	0,069	0,008
-467,416	107,008	0,168	-0,147
-466,401	5,514	0,073	0,040
-465,386	-104,554	0,072	0,012
-464,372	-123,274	0,040	0,005
-463,357	-31,397	-0,113	-0,047
-462,343	38,634	0,105	-0,069
-461,328	800,000	-0,041	-0,117
-460,313	-168,265	-0,006	-0,000
-459,299	800,000	0,045	0,138
-458,284	-200,000	-0,012	-0,145
-457,270	-200,000	0,029	0,173
-456,255	-122,161	-0,175	-0,021
-455,241	-200,000	0,006	0,069
-454,226	-200,000	-0,010	0,039
-453,211	800,000	-0,054	-0,124
-452,197	339,347	0,104	0,149
-451,182	122,350	0,037	-0,034
-450,168	-200,000	-0,002	-0,061
-449,153	-2,754	-0,058	0,030
-448,138	238,716	0,040	-0,049
-447,124	44,915	0,112	-0,076
-446,109	-133,527	0,013	0,001
-445,095	-200,000	-0,008	0,049
-444,080	32,138	-0,150	0,095
-443,065	800,000	0,015	-0,046
-442,051	-4,069	0,008	0,004
-441,036	800,000	-0,010	-0,021
-440,022	180,295	-0,072	0,078
-439,007	135,434	-0,088	-0,084
-437,992	115,720	0,050	0,045
-436,978	283,575	0,074	-0,098
-435,963	-200,000	-0,004	-0,044
-434,949	277,617	-0,069	-0,090
-433,934	453,794	-0,055	0,090
-432,919	-200,000	0,021	0,096
-431,905	-101,881	-0,081	0,014
-430,890	149,723	0,071	0,071
-429,876	-200,000	0,012	0,102
-428,861	91,987	-0,054	0,045
-427,846	-106,000	-0,074	0,012
-426,832	238,905	0,042	0,051
-425,817	122,516	0,094	-0,087
-424,803	137,023	-0,047	-0,045
-423,788	-97,707	0,111	-0,021
-422,773	10,495	0,076	0,042
-421,759	-9,836	-0,112	-0,055
-420,744	-200,000	-0,002	0,045
-419,730	-200,000	-0,007	0,060
-418,715	-200,000	-0,007	0,092
-417,701	-18,916	0,069	0,031
-416,686	-200,000	-0,001	-0,040
-415,671	-200,000	0,019	-0,071
-414,657	271,323	-0,010	-0,013
-413,642	-200,000	0,004	-0,167
-412,628	222,768	-0,072	-0,086
-411,613	283,063	0,060	-0,079
-410,598	-0,345	-0,036	0,019
-409,584	689,550	0,076	-0,147
-408,569	800,000	-0,047	0,131
-407,555	-200,000	0,005	-0,126
-406,540	51,966	-0,042	-0,029
-405,525	-11,167	0,086	-0,042
-404,511	-200,000	-0,025	-0,174
-403,496	-200,000	-0,021	-0,084
-402,482	-151,002	-0,099	-0,005
-401,467	-64,848	-0,033	-0,010
-400,452	596,358	-0,036	0,065
-399,438	-119,985	-0,013	-0,002
-398,423	-200,000	-0,006	-0,071
-397,409	100,034	-0,040	0,034
-396,394	-33,209	-0,149	0,060
-395,379	-200,000	0,011	-0,155
-394,365	493,235	-0,010	-0,017
-393,350	-200,000	-0,015	-0,087
-392,336	-31,161	-0,150	0,062
-391,321	-76,945	-0,078	0,020
-390,306	76,962	0,076	-0,059
-389,292	33,653	0,021	-0,014
-388,277	102,614	0,138	-0,118
-387,263	-169,783	0,102	-0,003
-386,248	36,783	0,110	0,071
-385,233	531,632	0,028	0,049
-384,219	102,338	0,077	-0,066
-383,204	11,064	-0,082	-0,046
-382,190	-115,713	-0,117	0,016
-381,175	-200,000	0,005	0,037
-380,160	-78,322	0,115	-0,029
-379,146	-104,082	0,215	0,036
-378,131	-200,000	0,001	0,031
-377,117	22,924	0,156	0,094
-376,102	-200,000	0,003	-0,207
-375,088	-200,000	0,033	-0,146
-374,073	226,463	-0,033	-0,039
-373,058	-89,856	-0,071	0,015
-372,044	-200,000	-0,028	0,142
-371,029	-92,300	0,060	0,012
-370,015	-200,000	0,034	0,152
-369,000	-11,246	-0,027	-0,013
-367,985	-36,523	-0,062	-0,024
-366,971	314,441	-0,122	-0,169
-365,956	-200,000	0,011	-0,081
-364,942	-200,000	0,011	0,127
-363,927	-104,597	0,119	0,020
-362,912	-60,518	-0,079	0,024
-361,898	800,000	-0,046	0,116
-360,883	800,000	0,044	-0,131
-359,869	54,355	-0,090	-0,063
-358,854	800,000	0,007	0,021
-357,839	699,864	-0,046	0,089
-356,825	132,650	0,103	0,097
-355,810	122,272	-0,015	-0,014
-354,796	96,502	-0,091	0,077
-353,781	-200,000	-0,025	-0,125
-352,766	51,346	0,069	-0,048
-351,752	214,742	0,076	-0,089
-350,737	-66,755	0,170	0,049
-349,723	-200,000	0,020	-0,094
-348,708	-38,774	0,016	-0,006
-347,693	800,000	0,039	0,083
-346,679	735,569	-0,085	0,167
-345,664	506,253	0,065	-0,112
-344,650	-11,503	0,084	0,040
-343,635	32,011	0,111	-0,070
-342,620	-200,000	0,022	-0,181
-341,606	153,532	-0,020	0,020
-340,591	-45,315	-0,129	0,047
-339,577	-144,517	0,136	0,009
-338,562	800,000	0,046	-0,118
-337,548	-200,000	-0,006	-0,038
-336,533	-200,000	-0,018	0,217
-335,518	-96,470	0,040	-0,008
-334,504	-54,675	0,089	0,029
-333,489	278,976	0,009	-0,012
-332,475	-41,917	-0,130	0,049
-331,460	702,085	-0,032	-0,062
-330,445	19,446	0,030	-0,017
-329,431	-200,000	0,010	0,051
-328,416	-200,000	0,003	-0,056
-327,402	-200,000	-0,014	-0,096
-326,387	159,887	-0,049	-0,050
-325,372	653,017	0,050	-0,094
-324,358	169,154	0,112	-0,117
-323,343	47,848	-0,081	-0,056
-322,329	-51,359	0,019	0,006
-321,314	-60,472	0,092	-0,028
-320,299	800,000	-0,041	-0,091
-319,285	-200,000	0,009	0,154
-318,270	19,458	0,029	-0,017
-317,256	-200,000	0,030	-0,120
-316,241	-200,000	0,004	0,071
-315,226	42,794	0,036	0,024
-314,212	537,695	0,027	-0,047
-313,197	-40,738	-0,188	0,071
-312,183	800,000	-0,040	0,083
-311,168	370,775	0,052	-0,077
-310,153	-116,253	-0,225	0,030
-309,139	0,480	0,034	-0,018
-308,124	225,910	-0,056	-0,067
-307,110	457,960	0,038	0,062
-306,095	-200,000	0,029	0,190
-305,080	800,000	0,020	-0,064
-304,066	-16,250	-0,109	-0,050
-303,051	800,000	-0,042	-0,110
-302,037	-68,162	0,053	-0,015
-301,022	-200,000	0,026	0,091
-300,008	-92,814	0,108	0,022
-298,993	39,562	-0,019	0,013
-297,978	-200,000	-0,018	-0,097
-296,964	-10,302	-0,029	-0,014
-295,949	297,368	-0,012	-0,016
-294,935	361,217	0,028	-0,041
-293,920	548,491	-0,073	-0,129
-292,905	98,597	0,032	-0,027
-291,891	800,000	-0,048	-0,147
-290,876	-122,631	0,098	-0,011
-289,862	207,303	-0,057	0,065
-288,847	651,486	-0,033	0,062
-287,832	175,099	0,066	-0,070
-286,818	-200,000	-0,015	0,104
-285,803	-200,000	0,013	0,099
-284,789	354,217	0,039	0,058
-283,774	-51,005	0,044	0,015
-282,759	43,611	0,027	-0,018
-281,745	800,000	0,026	-0,056
-280,730	176,692	0,065	-0,069
-279,716	800,000	0,026	-0,068
-278,701	-200,000	0,036	0,137
-277,686	800,000	-0,035	0,096
-276,672	71,888	0,043	-0,033
-275,657	800,000	-0,032	-0,068
-274,643	-44,184	-0,083	-0,030
-273,628	-80,561	-0,188	0,045
-272,613	11,681	-0,067	0,038
-271,599	79,581	-0,048	0,037
-270,584	800,000	-0,074	0,164
-269,570	-200,000	0,028	0,171
-268,555	-200,000	0,015	-0,082
-267,540	-200,000	0,013	-0,193
-266,526	202,868	0,051	0,057
-265,511	62,443	-0,087	0,064
-264,497	-200,000	-0,026	-0,112
-263,482	-9,582	-0,029	0,014
-262,467	-152,572	0,128	0,007
-261,453	-185,550	-0,135	0,001
-260,438	800,000	-0,055	-0,139
-259,424	181,402	-0,124	-0,133
-258,409	309,989	0,035	0,048
-257,395	-200,000	0,029	-0,098
-256,380	87,036	0,079	0,063
-255,365	343,518	0,036	0,052
-254,351	-200,000	0,041	-0,137
-253,336	7,641	0,031	-0,017
-252,322	531,197	-0,039	0,068
-251,307	27,823	0,005	-0,003
-250,292	-124,048	0,120	-0,014
-249,278	-200,000	0,006	0,121
-248,263	-200,000	0,000	0,130
-247,249	212,731	-0,045	0,052
-246,234	-200,000	-0,035	-0,117
-245,219	430,469	-0,029	0,045
-244,205	-57,766	-0,101	0,032
-243,190	-80,340	-0,097	0,023
-242,176	154,437	0,083	0,083
-241,161	-200,000	-0,003	-0,031
-240,146	125,355	0,023	0,021
-239,132	800,000	-0,007	0,016
-238,117	-80,700	-0,025	0,006
-237,103	-200,000	0,000	0,058
-236,088	100,056	-0,064	-0,054
-235,073	41,131	0,101	0,067
-234,059	179,472	0,074	-0,079
-233,044	548,144	0,029	0,050
-232,030	-104,200	0,103	0,017
-231,015	438,397	-0,017	0,028
-230,000	-23,895	-0,052	0,023
-228,986	180,157	0,063	-0,068
-227,971	800,000	0,013	-0,029
-226,957	-82,005	0,119	0,028
-225,942	-94,291	-0,114	-0,022
-224,927	-200,000	0,004	-0,092
-223,913	-200,000	0,004	0,122
-222,898	474,372	0,073	0,121
-221,884	454,313	-0,062	0,100
-220,869	41,623	0,042	-0,028
-219,855	19,732	0,102	-0,060
-218,840	75,770	0,110	-0,084
-217,825	133,321	-0,094	-0,089
-216,811	-200,000	0,005	-0,085
-215,796	26,585	-0,141	-0,086
-214,782	403,185	0,099	-0,152
-213,767	-36,690	0,032	-0,013
-212,752	337,771	0,018	0,025
-211,738	-200,000	0,043	0,176
-210,723	34,201	-0,024	0,015
-209,709	-200,000	0,012	-0,086
-208,694	-148,038	-0,148	-0,009
-207,679	163,108	0,074	0,076
-206,665	253,697	0,064	0,080
-205,650	-70,458	-0,123	-0,034
-204,636	-26,634	-0,004	-0,002
-203,621	-81,865	-0,109	0,026
-202,606	-200,000	-0,002	0,061
-201,592	64,149	-0,038	-0,028
-200,577	54,537	-0,046	0,033
-199,563	-1,436	0,041	-0,021
-198,548	331,042	0,062	0,087
-197,533	-10,990	0,033	-0,016
-196,519	608,012	-0,079	0,145
-195,504	16,167	-0,034	-0,020
-194,490	-13,577	-0,095	0,045
-193,475	-200,000	-0,019	-0,156
-192,460	-125,904	-0,057	-0,006
-191,446	800,000	0,027	0,076
-190,431	516,277	0,036	0,061
-189,417	116,436	0,076	0,067
-188,402	45,674	-0,085	-0,057
-187,387	-97,887	-0,075	0,014
-186,373	158,416	-0,061	-0,062
-185,358	-200,000	0,042	-0,144
-184,344	-66,170	0,030	0,009
-183,329	86,614	-0,102	0,082
-182,315	-200,000	-0,008	0,106
-181,300	-44,733	0,152	-0,055
-180,285	50,547	0,102	-0,070
-179,271	-92,270	-0,144	0,029
-178,256	-42,387	-0,129	-0,048
-177,242	-200,000	0,014	0,047
-176,227	-200,000	0,009	0,036
-175,212	800,000	0,023	-0,069
-174,198	236,699	-0,124	0,149
-173,183	-80,320	0,039	-0,009
-172,169	-60,874	-0,097	0,030
-171,154	476,173	-0,009	0,015
-170,139	-200,000	-0,008	-0,041
-169,125	420,709	0,073	0,115
-168,110	-134,382	-0,051	0,004
-167,096	127,192	0,128	0,118
-166,081	800,000	0,017	-0,046
-165,066	14,030	-0,169	-0,095
-164,052	-36,347	0,067	0,026
-163,037	-200,000	0,040	0,178
-162,023	-129,290	0,124	-0,012
-161,008	-28,399	-0,076	0,032
-159,993	-200,000	-0,015	0,077
-158,979	520,206	0,037	-0,063
-157,964	95,286	0,129	-0,107
-156,950	-200,000	-0,014	0,076
-155,935	800,000	0,068	0,162
-154,920	-200,000	-0,031	0,134
-153,906	721,071	0,039	-0,076
-152,891	-82,441	0,042	0,010
-151,877	39,533	-0,072	0,047
-150,862	-26,072	-0,029	0,012
-149,847	36,114	0,043	-0,027
-148,833	-76,141	-0,137	-0,035
-147,818	800,000	0,021	-0,061
-146,804	-148,599	-0,078	0,005
-145,789	-20,701	-0,009	-0,004
-144,775	-36,797	-0,061	-0,024
-143,760	192,224	0,116	0,128
-142,745	-150,024	-0,084	-0,005
-141,731	800,000	-0,017	0,054
-140,716	-60,546	0,108	0,033
-139,702	23,045	0,138	0,082
-138,687	-200,000	0,018	-0,071
-137,672	-61,651	0,164	0,050
-136,658	-200,000	-0,004	-0,043
-135,643	-200,000	0,006	0,043
-134,629	-200,000	0,089	-0,000
-133,614	-90,056	-0,040	0,008
-132,599	800,000	0,024	0,072
-131,585	800,000	0,051	0,158
-130,570	412,880	-0,075	-0,116
-129,556	177,768	0,040	-0,043
-128,541	-200,000	-0,002	-0,055
-127,526	130,589	0,051	-0,048
-126,512	646,877	-0,009	0,017
-125,497	800,000	0,031	0,089
-124,483	-200,000	0,010	0,046
-123,468	279,738	0,065	-0,084
-122,453	-200,000	0,017	0,130
-121,439	188,313	0,021	0,022
-120,424	176,091	-0,068	-0,072
-119,410	-41,886	0,028	0,010
