DTS Sentinel unit serial number:	SN410029Multiplexer serial number:	ORYXHardware model number:	OX2-SRSoftware version number:	ORYX F/W v4,00 Oryx Data Collector v3.7.2.0data status	okinstallation	B4 Nyhavnadifferential loss correction	single-endedforward channel	channel 2reverse channel	N/Adate	2023/12/19time	11:25:13forward acquisition time	300,00reverse acquisition time	0,00gamma	499,1914k internal	0,3128k external	0,3128temperature offset calibration	1,0000default loss term (dB/km)	0,3820temperature slope calibration	1,0000multiplexer offset coefficient	1,0000multiplexer slope coefficient	1,0000fibre end	0,00T internal ref (°C)	19,81T ext. ref 1 (°C)	4,55T ext. ref 2 (°C)	4,51length (m)	temperature (°C)	Stokes	anti-Stokes-744,400	-177,982	0,145	0,003
-743,385	-74,069	-0,265	0,071
-742,371	357,229	-0,018	-0,026
-741,356	-26,954	-0,158	0,068
-740,342	623,754	0,054	-0,101
-739,327	30,050	-0,175	0,111
-738,312	-70,481	0,066	0,018
-737,298	-112,476	-0,285	-0,042
-736,283	-143,107	0,180	-0,013
-735,269	40,374	-0,155	0,103
-734,254	-66,038	0,140	-0,041
-733,239	-120,074	-0,401	-0,051
-732,225	200,139	0,128	0,146
-731,210	-200,000	0,000	0,024
-730,196	-80,299	-0,050	0,012
-729,181	53,982	-0,081	-0,058
-728,167	-48,254	0,065	-0,023
-727,152	41,173	-0,077	-0,052
-726,137	-70,689	-0,114	0,032
-725,123	800,000	0,033	-0,096
-724,108	-200,000	-0,009	-0,255
-723,094	307,249	-0,044	-0,061
-722,079	-12,934	-0,137	-0,066
-721,064	167,795	-0,057	0,060
-720,050	-50,665	-0,141	0,049
-719,035	798,155	0,025	-0,052
-718,021	729,790	0,073	-0,146
-717,006	87,534	-0,103	-0,085
-715,991	800,000	-0,072	-0,149
-714,977	-48,201	0,032	-0,011
-713,962	-85,398	-0,111	-0,026
-712,948	54,319	0,021	0,015
-711,933	71,829	0,026	-0,020
-710,918	-200,000	-0,012	-0,048
-709,904	-9,783	-0,174	-0,086
-708,889	209,702	-0,093	-0,109
-707,875	699,762	-0,037	-0,072
-706,860	358,316	-0,059	0,088
-705,845	411,508	0,048	-0,077
-704,831	136,873	0,081	0,079
-703,816	-135,641	-0,166	-0,014
-702,802	800,000	0,061	0,127
-701,787	-107,544	-0,052	0,008
-700,772	-121,895	0,018	0,002
-699,758	800,000	-0,054	-0,122
-698,743	309,869	-0,112	0,156
-697,729	20,644	-0,112	-0,067
-696,714	-39,325	0,031	-0,012
-695,699	-200,000	0,013	0,051
-694,685	-191,948	-0,052	-0,000
-693,670	38,560	0,070	-0,046
-692,656	153,436	0,015	0,015
-691,641	-200,000	-0,013	-0,063
-690,627	-200,000	-0,013	-0,140
-689,612	-38,275	-0,091	-0,035
-688,597	-200,000	-0,002	-0,047
-687,583	-200,000	-0,005	-0,099
-686,568	729,851	0,010	0,021
-685,554	154,681	-0,068	-0,070
-684,539	-165,778	0,060	-0,002
-683,524	382,747	0,028	-0,042
-682,510	800,000	-0,009	-0,026
-681,495	-200,000	-0,044	-0,232
-680,481	-200,000	-0,046	-0,169
-679,466	800,000	0,050	-0,127
-678,451	127,223	-0,187	0,177
-677,437	-200,000	0,005	0,066
-676,422	-5,683	-0,060	-0,031
-675,408	-48,482	0,138	0,049
-674,393	145,619	0,033	0,033
-673,378	321,515	0,014	0,019
-672,364	800,000	0,050	-0,145
-671,349	800,000	-0,068	-0,148
-670,335	294,350	0,015	0,021
-669,320	484,667	-0,077	0,130
-668,305	-68,897	0,044	-0,013
-667,291	800,000	-0,023	0,059
-666,276	800,000	-0,037	0,089
-665,262	138,878	-0,056	-0,055
-664,247	426,028	-0,033	-0,053
-663,232	-168,295	0,099	-0,003
-662,218	100,939	-0,077	-0,066
-661,203	800,000	-0,030	0,093
-660,189	800,000	-0,019	0,050
-659,174	-200,000	0,004	0,067
-658,159	106,763	-0,040	-0,035
-657,145	467,059	-0,023	-0,039
-656,130	-200,000	0,002	-0,019
-655,116	-169,963	-0,053	-0,001
-654,101	800,000	-0,032	-0,069
-653,086	10,371	-0,057	0,032
-652,072	162,776	-0,145	-0,151
-651,057	800,000	0,017	-0,052
-650,043	118,886	-0,093	-0,085
-649,028	-161,686	-0,097	0,004
-648,014	-200,000	0,010	-0,071
-646,999	-200,000	-0,005	0,044
-645,984	-146,543	0,093	0,006
-644,970	800,000	0,051	-0,123
-643,955	800,000	-0,004	-0,009
-642,941	369,516	-0,081	-0,122
-641,926	-200,000	0,002	0,018
-640,911	364,375	0,010	-0,015
-639,897	6,655	0,185	0,101
-638,882	-200,000	-0,013	0,204
-637,868	-200,000	0,013	0,123
-636,853	301,150	0,051	-0,070
-635,838	-130,533	0,118	0,012
-634,824	88,874	-0,164	-0,135
-633,809	-200,000	-0,003	0,120
-632,795	-200,000	0,017	-0,058
-631,780	193,743	0,058	0,065
-630,765	4,810	0,068	0,037
-629,751	800,000	-0,089	-0,194
-628,736	390,007	-0,038	-0,059
-627,722	240,150	0,048	-0,060
-626,707	-197,134	0,032	0,000
-625,692	-150,299	0,060	-0,003
-624,678	-29,669	0,087	-0,037
-623,663	-59,089	0,021	-0,007
-622,649	206,949	-0,120	0,139
-621,634	-13,153	0,097	0,047
-620,619	-154,390	0,052	0,003
-619,605	75,466	0,104	0,081
-618,590	800,000	0,051	0,128
-617,576	69,720	0,043	0,033
-616,561	800,000	0,061	0,140
-615,546	101,780	0,056	0,048
-614,532	113,563	-0,129	-0,116
-613,517	800,000	-0,036	-0,074
-612,503	-200,000	-0,017	-0,122
-611,488	-74,694	-0,056	0,015
-610,474	-200,000	-0,003	0,112
-609,459	9,235	0,060	-0,034
-608,444	-200,000	0,018	-0,147
-607,430	257,406	-0,094	0,120
-606,415	174,191	0,059	0,063
-605,401	19,053	0,053	0,032
-604,386	-9,387	0,116	0,057
-603,371	-65,497	-0,180	0,053
-602,357	60,184	-0,068	0,050
-601,342	-200,000	0,001	-0,050
-600,328	30,614	-0,072	-0,046
-599,313	155,971	0,078	-0,080
-598,298	-200,000	-0,009	-0,033
-597,284	-22,852	0,042	0,019
-596,269	-200,000	-0,004	0,043
-595,255	37,994	-0,040	0,026
-594,240	800,000	-0,009	0,023
-593,225	-94,452	0,085	0,017
-592,211	800,000	0,017	-0,037
-591,196	-11,232	-0,126	-0,061
-590,182	800,000	0,030	-0,077
-589,167	737,459	0,047	-0,093
-588,152	30,543	-0,053	-0,033
-587,138	-200,000	-0,009	0,052
-586,123	257,224	0,055	-0,071
-585,109	-200,000	-0,033	-0,162
-584,094	41,747	-0,075	-0,050
-583,079	184,772	0,091	0,100
-582,065	58,437	0,009	-0,007
-581,050	800,000	0,022	-0,049
-580,036	-200,000	0,011	0,066
-579,021	2,217	-0,141	-0,075
-578,006	-200,000	-0,007	0,051
-576,992	39,187	-0,103	0,068
-575,977	-200,000	-0,013	0,093
-574,963	-32,386	-0,147	-0,060
-573,948	393,247	0,122	0,188
-572,934	204,023	0,022	-0,026
-571,919	-34,940	-0,121	-0,048
-570,904	764,747	-0,029	0,058
-569,890	-7,213	-0,124	-0,062
-568,875	-4,569	0,062	0,031
-567,861	71,292	-0,142	0,109
-566,846	76,594	-0,111	0,087
-565,831	151,893	0,216	-0,218
-564,817	70,807	-0,041	-0,031
-563,802	279,047	0,054	-0,072
-562,788	193,199	0,022	-0,025
-561,773	16,874	0,058	-0,034
-560,758	478,604	0,024	-0,040
-559,744	418,251	-0,024	-0,038
-558,729	-200,000	-0,040	-0,147
-557,715	17,606	0,077	0,045
-556,700	-200,000	-0,011	-0,056
-555,685	-200,000	0,014	-0,096
-554,671	-10,169	0,045	-0,022
-553,656	-73,523	0,015	-0,004
-552,642	83,610	0,050	0,040
-551,627	99,943	0,105	0,090
-550,612	333,324	-0,040	0,058
-549,598	800,000	0,037	0,081
-548,583	765,796	-0,035	-0,071
-547,569	274,758	-0,083	-0,108
-546,554	-63,188	0,040	-0,012
-545,539	-47,812	-0,059	0,021
-544,525	393,484	0,087	0,134
-543,510	220,853	-0,030	-0,035
-542,496	-200,000	0,026	0,094
-541,481	100,626	-0,115	-0,099
-540,466	190,567	-0,125	-0,139
-539,452	-200,000	-0,004	-0,102
-538,437	576,325	0,047	0,085
-537,423	12,728	-0,016	0,009
-536,408	-200,000	-0,016	0,055
-535,393	78,881	-0,191	0,151
-534,379	800,000	0,022	-0,058
-533,364	-200,000	-0,003	-0,050
-532,350	87,048	0,009	-0,007
-531,335	647,584	-0,057	-0,107
-530,321	33,466	0,065	0,042
-529,306	275,289	0,021	0,028
-528,291	-125,411	-0,187	0,021
-527,277	311,914	-0,021	0,030
-526,262	113,179	0,049	-0,044
-525,248	-200,000	-0,021	-0,171
-524,233	-169,203	-0,152	0,004
-523,218	245,341	0,059	-0,074
-522,204	-76,813	-0,084	-0,022
-521,189	800,000	-0,038	-0,086
-520,175	-200,000	-0,017	0,060
-519,160	800,000	-0,032	0,090
-518,145	525,948	-0,046	0,080
-517,131	-47,665	0,062	-0,022
-516,116	800,000	0,063	0,164
-515,102	89,410	-0,063	0,052
-514,087	-200,000	-0,019	-0,204
-513,072	800,000	0,026	-0,075
-512,058	-200,000	0,019	0,065
-511,043	-113,218	-0,102	0,015
-510,029	800,000	0,027	-0,077
-509,014	22,901	-0,046	0,028
-507,999	168,478	0,074	0,078
-506,985	-56,338	-0,086	0,028
-505,970	800,000	-0,054	-0,114
-504,956	62,211	-0,076	0,056
-503,941	800,000	0,028	-0,057
-502,926	800,000	0,043	0,103
-501,912	800,000	0,032	-0,080
-500,897	110,444	-0,129	-0,115
-499,883	-43,298	0,038	-0,014
-498,868	114,400	0,068	-0,061
-497,853	-200,000	-0,018	0,067
-496,839	343,864	0,044	0,064
-495,824	-2,383	0,045	-0,023
-494,810	-200,000	0,012	0,066
-493,795	-88,194	0,010	-0,002
-492,781	171,193	-0,063	0,067
-491,766	-70,630	-0,128	-0,035
-490,751	-109,655	0,070	-0,011
-489,737	-200,000	0,001	0,050
-488,722	-200,000	-0,009	0,144
-487,708	-200,000	-0,014	0,198
-486,693	-200,000	0,014	-0,048
-485,678	800,000	0,025	-0,058
-484,664	-200,000	0,002	-0,104
-483,649	-200,000	0,000	-0,019
-482,635	-27,452	0,064	-0,027
-481,620	-200,000	0,017	0,079
-480,605	-200,000	-0,023	0,084
-479,591	-7,881	0,200	0,099
-478,576	538,554	-0,030	-0,052
-477,562	-200,000	-0,006	-0,068
-476,547	11,782	-0,096	-0,054
-475,532	800,000	-0,025	0,074
-474,518	-41,497	0,053	0,020
-473,503	-44,347	0,060	0,022
-472,489	23,003	-0,014	0,009
-471,474	65,206	-0,039	-0,029
-470,459	-49,583	-0,121	-0,042
-469,445	9,501	-0,134	0,075
-468,430	253,359	0,058	-0,073
-467,416	353,403	0,062	0,090
-466,401	581,321	0,071	0,129
-465,386	-200,000	0,049	0,192
-464,372	-51,859	0,144	0,049
-463,357	-28,041	-0,123	0,052
-462,343	800,000	-0,033	0,076
-461,328	-10,446	-0,047	-0,023
-460,313	-200,000	0,004	0,099
-459,299	15,788	0,105	0,061
-458,284	-200,000	0,002	-0,028
-457,270	-14,845	0,134	-0,063
-456,255	-101,556	-0,044	0,008
-455,241	-200,000	0,007	-0,114
-454,226	-39,605	-0,019	0,007
-453,211	-200,000	-0,005	-0,115
-452,197	-55,911	0,203	-0,066
-451,182	-200,000	-0,028	0,118
-450,168	800,000	0,007	0,018
-449,153	152,157	-0,017	0,017
-448,138	271,062	-0,048	-0,062
-447,124	150,655	0,078	-0,078
-446,109	-200,000	-0,007	-0,122
-445,095	-200,000	0,040	-0,131
-444,080	-99,339	0,098	-0,018
-443,065	-200,000	0,021	-0,105
-442,051	-200,000	-0,000	-0,033
-441,036	-106,620	-0,085	-0,014
-440,022	-59,745	0,110	-0,034
-439,007	-20,858	-0,026	0,012
-437,992	192,289	0,011	-0,012
-436,978	-130,865	-0,047	-0,005
-435,963	-200,000	0,000	0,148
-434,949	-200,000	-0,010	-0,034
-433,934	800,000	0,048	-0,127
-432,919	186,098	-0,010	0,011
-431,905	800,000	-0,007	-0,022
-430,890	-3,618	0,115	0,059
-429,876	-135,903	0,118	-0,010
-428,861	33,614	-0,059	0,037
-427,846	-200,000	0,025	-0,084
-426,832	155,022	-0,081	0,082
-425,817	298,654	-0,059	-0,080
-424,803	-200,000	-0,005	0,049
-423,788	-60,664	0,079	-0,024
-422,773	-200,000	0,016	0,112
-421,759	320,305	-0,020	0,028
-420,744	294,903	-0,046	-0,063
-419,730	-15,636	-0,094	0,044
-418,715	-120,732	-0,041	0,005
-417,701	-200,000	0,001	-0,079
-416,686	-96,497	-0,075	-0,015
-415,671	24,092	-0,027	-0,016
-414,657	-126,073	0,108	0,012
-413,642	131,754	0,116	0,110
-412,628	-200,000	0,003	0,101
-411,613	-200,000	-0,009	-0,079
-410,598	157,979	-0,206	-0,210
-409,584	800,000	-0,026	-0,066
-408,569	-20,665	0,125	-0,056
-407,555	687,959	-0,018	-0,035
-406,540	800,000	0,014	0,042
-405,525	800,000	0,012	-0,038
-404,511	-200,000	-0,018	0,058
-403,496	18,786	0,101	-0,059
-402,482	244,264	0,027	-0,033
-401,467	-200,000	0,019	-0,082
-400,452	36,882	0,152	0,099
-399,438	1,225	-0,091	0,048
-398,423	315,369	-0,013	0,018
-397,409	-3,285	-0,141	-0,072
-396,394	-86,649	-0,082	-0,018
-395,379	-200,000	0,043	-0,139
-394,365	-41,487	0,090	0,034
-393,350	-200,000	0,027	0,094
-392,336	396,368	-0,056	0,086
-391,321	-82,748	0,117	0,027
-390,306	-200,000	-0,016	-0,164
-389,292	-200,000	-0,033	-0,114
-388,277	-109,401	-0,125	-0,019
-387,263	-172,765	0,122	0,003
-386,248	464,942	0,051	-0,084
-385,233	574,301	-0,049	0,089
-384,219	-144,417	-0,128	0,009
-383,204	800,000	-0,038	-0,121
-382,190	42,161	-0,044	-0,029
-381,175	562,807	0,047	0,084
-380,160	215,359	0,101	-0,118
-379,146	800,000	0,028	-0,063
-378,131	-42,925	-0,094	0,035
-377,117	-127,025	0,066	-0,007
-376,102	800,000	-0,029	-0,060
-375,088	-131,032	0,067	0,007
-374,073	-7,212	-0,052	-0,026
-373,058	189,256	-0,059	0,065
-372,044	42,424	0,121	0,081
-371,029	-200,000	-0,026	0,289
-370,015	-91,016	0,036	0,008
-369,000	35,677	0,038	-0,024
-367,985	800,000	-0,074	-0,161
-366,971	-24,170	-0,083	-0,036
-365,956	-32,462	0,107	-0,044
-364,942	101,450	0,104	0,089
-363,927	4,494	0,031	-0,016
-362,912	252,535	0,010	0,012
-361,898	72,368	-0,038	0,029
-360,883	39,443	-0,015	0,010
-359,869	300,950	-0,026	0,036
-358,854	-200,000	-0,004	0,110
-357,839	800,000	-0,031	-0,083
-356,825	588,020	0,062	0,112
-355,810	-200,000	-0,046	0,152
-354,796	117,179	-0,061	0,055
-353,781	143,162	0,056	0,054
-352,766	-200,000	-0,007	-0,111
-351,752	-40,630	0,083	-0,032
-350,737	-191,659	-0,036	0,000
-349,723	-132,779	-0,082	-0,008
-348,708	95,407	-0,062	0,051
-347,693	800,000	0,013	0,031
-346,679	68,490	-0,070	-0,052
-345,664	134,183	0,127	-0,121
-344,650	124,811	0,068	0,063
-343,635	-200,000	0,006	0,118
-342,620	-42,072	-0,158	0,059
-341,606	-71,317	-0,022	0,006
-340,591	-76,419	-0,107	0,027
-339,577	75,472	-0,175	-0,135
-338,562	215,273	-0,087	-0,101
-337,548	92,295	-0,111	0,092
-336,533	-35,178	0,153	-0,061
-335,518	89,732	-0,064	-0,052
-334,504	7,135	-0,066	-0,036
-333,489	-200,000	0,015	0,056
-332,475	-63,430	-0,092	-0,028
-331,460	121,349	-0,142	-0,130
-330,445	78,318	0,030	-0,023
-329,431	74,827	-0,030	0,023
-328,416	59,739	0,086	0,062
-327,402	-3,205	-0,008	0,004
-326,387	-130,861	-0,054	0,005
-325,372	270,874	0,028	-0,036
-324,358	-91,620	-0,034	0,007
-323,343	800,000	-0,009	0,026
-322,329	319,847	0,057	0,079
-321,314	-200,000	-0,004	-0,094
-320,299	-114,621	-0,102	-0,014
-319,285	48,644	-0,018	0,012
-318,270	-69,564	-0,091	-0,025
-317,256	-200,000	0,005	0,037
-316,241	71,914	-0,067	0,051
-315,226	5,829	0,040	-0,022
-314,212	156,297	0,020	-0,020
-313,197	-74,595	0,078	0,020
-312,183	-136,660	0,109	0,009
-311,168	529,663	-0,020	0,034
-310,153	-1,342	-0,087	-0,045
-309,139	332,822	-0,063	-0,089
-308,124	-200,000	-0,012	0,110
-307,110	200,128	0,043	0,048
-306,095	3,135	0,154	0,082
-305,080	-170,710	0,063	-0,002
-304,066	165,179	-0,053	0,055
-303,051	197,303	-0,069	-0,077
-302,037	677,739	0,072	-0,138
-301,022	-40,765	-0,070	0,026
-300,008	82,511	0,079	0,062
-298,993	722,810	0,029	0,057
-297,978	227,203	-0,052	-0,062
-296,964	-15,664	0,129	-0,060
-295,949	-145,293	0,041	-0,003
-294,935	-200,000	-0,003	-0,052
-293,920	-200,000	-0,004	-0,073
-292,905	-200,000	-0,024	0,123
-291,891	58,577	0,118	0,085
-290,876	-41,228	-0,093	-0,035
-289,862	505,375	-0,025	-0,042
-288,847	-159,869	-0,133	-0,005
-287,832	448,409	-0,088	-0,142
-286,818	-200,000	-0,005	-0,111
-285,803	-133,915	0,082	-0,007
-284,789	484,183	-0,060	0,101
-283,774	364,580	0,036	0,053
-282,759	-31,780	-0,059	-0,024
-281,745	800,000	-0,044	-0,128
-280,730	-200,000	0,006	-0,093
-279,716	-89,374	0,104	-0,022
-278,701	409,164	0,018	-0,028
-277,686	800,000	-0,033	-0,086
-276,672	339,435	0,074	0,106
-275,657	-90,203	-0,085	0,018
-274,643	72,601	-0,118	-0,090
-273,628	-81,162	0,104	-0,025
-272,613	-61,231	0,051	-0,016
-271,599	85,263	-0,069	0,055
-270,584	-200,000	-0,022	-0,085
-269,570	-76,899	0,045	-0,012
-268,555	74,126	0,091	0,070
-267,540	-30,309	-0,083	0,034
-266,526	-97,241	0,099	0,019
-265,511	800,000	-0,047	-0,101
-264,497	-155,474	0,029	-0,001
-263,482	49,827	0,051	-0,035
-262,467	-153,599	0,097	0,005
-261,453	55,852	-0,139	0,099
-260,438	267,015	-0,041	-0,052
-259,424	-200,000	0,019	0,105
-258,409	96,932	0,138	-0,116
-257,395	21,738	0,088	0,053
-256,380	29,998	0,013	-0,008
-255,365	-106,082	0,119	0,019
-254,351	-56,946	0,083	-0,027
-253,336	-105,118	-0,068	0,011
-252,322	-170,646	-0,045	-0,001
-251,307	-138,032	-0,106	-0,008
-250,292	-38,169	0,109	-0,042
-249,278	-200,000	0,015	0,097
-248,263	-200,000	0,010	0,095
-247,249	631,616	-0,091	0,168
-246,234	-200,000	0,006	0,028
-245,219	275,998	0,035	-0,046
-244,205	-78,387	-0,091	0,023
-243,190	-36,863	0,129	0,050
-242,176	268,682	0,052	-0,067
-241,161	-200,000	0,008	-0,080
-240,146	196,153	0,081	0,090
-239,132	-63,172	-0,038	0,011
-238,117	800,000	-0,010	0,029
-237,103	-102,458	-0,068	0,012
-236,088	35,246	-0,047	-0,030
-235,073	-193,855	0,048	-0,000
-234,059	-200,000	0,025	-0,104
-233,044	800,000	-0,044	-0,108
-232,030	-18,378	-0,024	-0,011
-231,015	-80,900	-0,046	0,011
-230,000	476,981	0,028	-0,046
-228,986	-79,055	0,146	0,036
-227,971	800,000	0,021	-0,049
-226,957	266,597	0,005	0,006
-225,942	800,000	-0,022	0,059
-224,927	800,000	0,024	0,064
-223,913	33,946	-0,071	0,045
-222,898	76,488	-0,040	0,031
-221,884	9,455	0,187	0,103
-220,869	672,675	0,060	-0,114
-219,855	-135,554	0,037	0,003
-218,840	108,987	-0,022	-0,020
-217,825	26,516	-0,036	-0,022
-216,811	24,445	-0,065	0,039
-215,796	63,867	-0,080	-0,058
-214,782	-7,878	0,086	-0,042
-213,767	56,500	0,060	0,043
-212,752	168,545	0,026	0,027
-211,738	196,502	0,114	-0,127
-210,723	161,292	0,100	0,102
-209,709	-162,472	0,142	0,005
-208,694	-15,143	0,050	-0,023
-207,679	800,000	-0,043	0,119
-206,665	679,782	-0,015	0,029
-205,650	210,072	0,105	0,120
-204,636	161,330	0,063	0,064
-203,621	641,753	-0,015	-0,027
-202,606	60,100	-0,071	0,051
-201,592	670,123	-0,038	-0,071
-200,577	485,261	-0,084	-0,140
-199,563	800,000	0,037	0,081
-198,548	194,482	-0,080	0,089
-197,533	-130,760	-0,104	-0,010
-196,519	64,846	0,097	0,072
-195,504	87,621	-0,060	0,048
-194,490	142,416	0,017	-0,016
-193,475	66,642	-0,050	-0,037
-192,460	-200,000	0,021	0,074
-191,446	-200,000	0,006	-0,063
-190,431	-163,060	0,048	0,002
-189,417	-185,701	0,188	0,002
-188,402	267,260	0,048	0,062
-187,387	-34,643	-0,011	0,004
-186,373	-101,631	-0,018	-0,003
-185,358	800,000	0,034	0,087
-184,344	-101,077	0,092	0,016
-183,329	800,000	-0,049	0,152
-182,315	800,000	-0,023	0,064
-181,300	-15,280	-0,074	0,035
-180,285	323,717	-0,063	0,088
-179,271	182,043	-0,024	-0,026
-178,256	-84,869	0,145	-0,033
-177,242	-16,936	0,011	0,005
-176,227	800,000	0,077	0,224
-175,212	64,056	-0,089	0,065
-174,198	226,215	0,031	-0,037
-173,183	-200,000	0,029	-0,095
-172,169	-200,000	0,025	-0,083
-171,154	-48,809	0,132	-0,046
-170,139	40,647	0,104	0,068
-169,125	-91,333	-0,068	-0,014
-168,110	31,234	0,026	-0,016
-167,096	170,563	-0,064	0,067
-166,081	173,912	-0,031	0,033
-165,066	-0,503	-0,166	-0,085
-164,052	22,817	-0,108	-0,064
-163,037	-130,260	-0,109	0,011
-162,023	-143,171	-0,093	-0,006
-161,008	-83,424	0,183	0,042
-159,993	-136,436	-0,089	-0,007
-158,979	-200,000	-0,027	-0,126
-157,964	128,335	-0,068	-0,063
-156,950	-112,991	-0,031	-0,004
-155,935	-200,000	-0,004	-0,012
-154,920	-200,000	0,018	0,106
-153,906	125,816	-0,029	0,027
-152,891	-154,606	-0,112	-0,005
-151,877	-200,000	-0,006	-0,079
-150,862	433,098	0,040	0,063
-149,847	404,598	0,055	-0,085
-148,833	-200,000	0,005	0,057
-147,818	-97,401	0,080	-0,015
-146,804	447,574	-0,069	0,111
-145,789	800,000	0,081	0,171
-144,775	-200,000	0,011	0,082
-143,760	291,961	-0,025	-0,033
-142,745	-200,000	-0,005	-0,143
-141,731	28,673	0,109	-0,067
-140,716	37,944	0,161	0,104
-139,702	651,982	-0,015	0,027
-138,687	649,205	0,061	0,114
-137,672	-90,329	0,107	-0,022
-136,658	-118,166	-0,143	0,018
-135,643	85,979	0,101	0,081
-134,629	249,705	-0,046	0,057
-133,614	290,697	0,103	0,136
-132,599	800,000	-0,032	0,094
-131,585	-200,000	0,020	0,120
-130,570	613,557	-0,024	0,045
-129,556	-141,890	0,192	0,014
-128,541	226,705	-0,097	-0,115
-127,526	-136,676	0,190	0,016
-126,512	800,000	-0,021	0,056
-125,497	497,966	0,036	0,061
-124,483	59,930	0,075	0,053
-123,468	800,000	-0,042	-0,113
-122,453	-173,234	-0,207	0,004
-121,439	515,341	0,035	-0,060
-120,424	-41,020	-0,058	0,022
-119,410	-26,861	-0,029	-0,012
-118,395	162,347	0,119	-0,121
