DTS Sentinel unit serial number:	SN410029Multiplexer serial number:	ORYXHardware model number:	OX2-SRSoftware version number:	ORYX F/W v4,00 Oryx Data Collector v3.7.2.0data status	okinstallation	B4 Nyhavnadifferential loss correction	single-endedforward channel	channel 2reverse channel	N/Adate	2023/12/16time	03:25:13forward acquisition time	300,00reverse acquisition time	0,00gamma	499,1914k internal	0,3128k external	0,3128temperature offset calibration	1,0000default loss term (dB/km)	0,3820temperature slope calibration	1,0000multiplexer offset coefficient	1,0000multiplexer slope coefficient	1,0000fibre end	0,00T internal ref (°C)	22,00T ext. ref 1 (°C)	7,12T ext. ref 2 (°C)	7,29length (m)	temperature (°C)	Stokes	anti-Stokes-744,400	-200,000	-0,008	0,039
-743,385	-137,289	-0,202	0,017
-742,371	307,290	0,048	0,066
-741,356	213,545	-0,159	0,187
-740,342	800,000	0,014	-0,041
-739,327	682,839	-0,123	0,239
-738,312	347,699	-0,049	-0,072
-737,298	-160,352	-0,249	-0,010
-736,283	-11,336	0,082	-0,040
-735,269	-138,369	-0,106	-0,009
-734,254	-12,181	0,075	0,037
-733,239	-49,426	-0,386	-0,136
-732,225	-55,860	0,156	-0,051
-731,210	208,112	0,101	0,118
-730,196	-165,848	-0,105	0,003
-729,181	-45,688	-0,138	0,050
-728,167	302,644	0,063	-0,088
-727,152	76,272	-0,091	-0,072
-726,137	800,000	0,048	-0,120
-725,123	544,537	-0,034	0,060
-724,108	800,000	-0,066	-0,142
-723,094	-14,270	-0,226	-0,108
-722,079	151,425	-0,135	-0,136
-721,064	-200,000	0,013	-0,083
-720,050	325,320	0,110	-0,157
-719,035	243,224	-0,094	-0,117
-718,021	536,049	-0,029	-0,051
-717,006	-200,000	-0,024	-0,152
-715,991	46,987	-0,062	-0,042
-714,977	113,499	-0,122	0,110
-713,962	-75,522	-0,032	-0,008
-712,948	-200,000	0,024	-0,081
-711,933	437,757	-0,072	-0,117
-710,918	800,000	-0,030	0,096
-709,904	-200,000	-0,001	-0,089
-708,889	800,000	-0,035	-0,075
-707,875	-140,295	-0,177	0,014
-706,860	13,511	-0,085	0,049
-705,845	-117,529	-0,067	0,009
-704,831	-145,387	-0,107	0,007
-703,816	280,694	0,049	-0,066
-702,802	-115,782	-0,048	-0,007
-701,787	-146,539	-0,114	-0,007
-700,772	-33,427	-0,065	-0,027
-699,758	800,000	0,023	-0,072
-698,743	-11,692	-0,057	0,028
-697,729	-21,137	-0,088	-0,040
-696,714	800,000	0,028	0,084
-695,699	800,000	-0,015	-0,042
-694,685	246,773	0,019	0,024
-693,670	105,699	-0,071	-0,062
-692,656	81,908	0,050	-0,040
-691,641	-200,000	0,002	-0,042
-690,627	-200,000	0,000	-0,006
-689,612	-144,918	0,186	-0,012
-688,597	345,670	-0,035	0,051
-687,583	-137,493	-0,170	-0,014
-686,568	307,693	-0,112	-0,156
-685,554	10,875	-0,046	-0,026
-684,539	-73,022	0,082	0,022
-683,524	-78,235	0,036	0,009
-682,510	-200,000	0,010	-0,057
-681,495	75,411	-0,084	-0,066
-680,481	-200,000	-0,002	0,029
-679,466	-103,780	0,083	-0,014
-678,451	-121,384	0,129	-0,016
-677,437	-137,915	-0,100	-0,008
-676,422	46,373	-0,030	-0,021
-675,408	243,245	-0,014	0,018
-674,393	26,502	-0,080	-0,049
-673,378	800,000	-0,082	-0,223
-672,364	-143,153	-0,109	-0,008
-671,349	800,000	-0,040	-0,121
-670,335	-101,514	0,153	-0,027
-669,320	249,033	0,026	0,033
-668,305	154,516	-0,021	-0,021
-667,291	197,697	0,031	0,035
-666,276	-74,056	0,033	0,009
-665,262	545,494	-0,100	-0,178
-664,247	-200,000	0,003	-0,044
-663,232	212,555	-0,122	-0,143
-662,218	42,650	0,104	0,070
-661,203	800,000	0,012	0,039
-660,189	108,728	0,080	-0,071
-659,174	422,135	0,031	-0,050
-658,159	-200,000	0,003	0,068
-657,145	-200,000	-0,016	-0,156
-656,130	-200,000	0,007	-0,100
-655,116	-88,437	-0,134	0,029
-654,101	119,724	0,102	0,094
-653,086	-107,637	0,073	-0,012
-652,072	800,000	-0,053	-0,109
-651,057	-93,604	-0,065	-0,013
-650,043	-25,104	-0,184	-0,080
-649,028	363,301	0,027	0,040
-648,014	-81,906	0,075	-0,018
-646,999	81,808	-0,072	-0,058
-645,984	-200,000	0,001	-0,007
-644,970	360,999	0,074	-0,111
-643,955	179,848	-0,024	-0,027
-642,941	-200,000	0,013	-0,122
-641,926	65,250	0,144	0,108
-640,911	-147,079	0,065	-0,004
-639,897	3,287	-0,081	-0,043
-638,882	800,000	-0,045	0,126
-637,868	-94,685	0,103	-0,020
-636,853	-44,595	-0,099	-0,036
-635,838	6,379	0,198	-0,109
-634,824	-200,000	-0,028	-0,124
-633,809	-91,017	0,131	0,028
-632,795	-200,000	-0,005	0,053
-631,780	4,483	0,154	-0,084
-630,765	-150,052	-0,100	-0,006
-629,751	62,114	-0,055	0,040
-628,736	-200,000	-0,003	-0,077
-627,722	292,261	-0,061	-0,083
-626,707	-200,000	0,022	-0,082
-625,692	260,821	0,024	0,031
-624,678	-200,000	-0,010	0,122
-623,663	800,000	-0,029	0,068
-622,649	800,000	0,029	-0,090
-621,634	86,826	-0,120	-0,098
-620,619	-200,000	0,013	0,056
-619,605	-200,000	-0,040	0,187
-618,590	-200,000	-0,012	-0,138
-617,576	-108,248	-0,136	-0,022
-616,561	800,000	0,055	0,126
-615,546	-200,000	0,025	-0,092
-614,532	8,869	0,083	-0,046
-613,517	-29,448	-0,074	-0,031
-612,503	411,337	-0,038	0,060
-611,488	-134,233	-0,056	0,005
-610,474	-63,793	-0,058	0,017
-609,459	257,628	-0,081	-0,104
-608,444	288,015	-0,095	-0,128
-607,430	-127,198	-0,032	0,003
-606,415	123,752	0,053	-0,049
-605,401	800,000	-0,025	0,083
-604,386	800,000	-0,006	-0,019
-603,371	800,000	0,073	0,158
-602,357	-200,000	-0,025	-0,093
-601,342	-63,167	0,089	-0,027
-600,328	426,985	-0,090	-0,144
-599,313	179,744	0,050	-0,055
-598,298	-200,000	-0,001	0,049
-597,284	17,721	0,076	-0,045
-596,269	-15,312	0,064	-0,030
-595,255	800,000	-0,045	-0,097
-594,240	368,217	-0,052	0,078
-593,225	232,200	-0,131	-0,159
-592,211	208,423	0,102	-0,119
-591,196	221,109	0,090	-0,108
-590,182	36,776	0,057	-0,037
-589,167	-200,000	-0,006	-0,047
-588,152	-116,531	0,032	-0,004
-587,138	219,089	0,080	-0,095
-586,123	-96,043	-0,153	-0,030
-585,109	53,210	0,012	0,009
-584,094	114,489	-0,028	-0,025
-583,079	136,689	0,082	0,079
-582,065	-56,301	0,014	-0,005
-581,050	-71,662	0,111	-0,030
-580,036	122,292	-0,066	0,061
-579,021	-200,000	-0,019	-0,069
-578,006	-23,335	0,033	0,015
-576,992	-200,000	0,013	-0,047
-575,977	-103,368	0,029	0,005
-574,963	211,882	0,090	0,105
-573,948	-200,000	0,026	0,086
-572,934	-73,543	0,044	0,012
-571,919	800,000	-0,072	-0,162
-570,904	-120,187	-0,126	0,016
-569,890	-139,898	-0,123	-0,009
-568,875	-65,113	-0,062	0,018
-567,861	738,362	0,034	0,068
-566,846	-18,627	-0,120	0,055
-565,831	-70,393	-0,093	-0,026
-564,817	800,000	-0,024	-0,069
-563,802	-35,167	-0,110	0,044
-562,788	180,319	0,009	0,010
-561,773	-200,000	0,011	-0,074
-560,758	270,457	-0,124	0,161
-559,744	100,610	0,090	-0,077
-558,729	179,276	0,027	0,029
-557,715	-99,374	0,148	0,027
-556,700	601,372	-0,039	-0,071
-555,685	-136,574	-0,049	0,004
-554,671	-71,057	-0,032	0,009
-553,656	-78,033	0,115	-0,029
-552,642	-200,000	-0,015	0,065
-551,627	-200,000	0,003	0,030
-550,612	800,000	0,069	0,164
-549,598	-9,527	-0,083	0,041
-548,583	185,370	-0,047	-0,052
-547,569	-176,269	0,060	-0,001
-546,554	-200,000	-0,014	-0,073
-545,539	800,000	-0,012	-0,039
-544,525	6,095	-0,106	0,058
-543,510	628,313	-0,064	-0,120
-542,496	39,054	-0,120	-0,079
-541,481	275,644	-0,045	-0,059
-540,466	390,339	0,119	-0,182
-539,452	-78,498	-0,118	-0,030
-538,437	378,488	0,065	0,099
-537,423	-200,000	-0,008	0,135
-536,408	-200,000	0,001	0,076
-535,393	-200,000	0,008	0,098
-534,379	263,060	-0,057	0,073
-533,364	-133,272	-0,080	-0,007
-532,350	-200,000	0,023	-0,106
-531,335	-200,000	0,017	0,103
-530,321	-35,679	-0,062	-0,025
-529,306	800,000	0,024	0,061
-528,291	-36,689	-0,085	-0,033
-527,277	-55,241	0,016	-0,005
-526,262	-200,000	-0,007	-0,062
-525,248	-111,540	-0,031	-0,005
-524,233	800,000	-0,004	0,012
-523,218	-24,306	0,075	-0,033
-522,204	800,000	-0,039	0,096
-521,189	-14,158	-0,119	-0,056
-520,175	-8,625	-0,072	0,035
-519,160	95,102	0,072	-0,061
-518,145	64,804	0,046	-0,034
-517,131	-200,000	-0,019	0,083
-516,116	-25,798	-0,088	-0,038
-515,102	326,949	-0,035	-0,049
-514,087	-200,000	-0,014	0,076
-513,072	800,000	-0,033	-0,082
-512,058	45,461	0,079	0,054
-511,043	-9,652	0,089	0,043
-510,029	5,092	0,091	-0,049
-509,014	724,154	-0,027	0,053
-507,999	-200,000	0,002	0,054
-506,985	-35,297	0,046	-0,018
-505,970	-104,010	-0,104	0,018
-504,956	-2,986	-0,078	-0,040
-503,941	-83,764	0,080	-0,019
-502,926	5,398	0,063	0,034
-501,912	-200,000	-0,014	0,082
-500,897	21,124	0,018	-0,011
-499,883	-200,000	0,001	-0,074
-498,868	233,443	-0,052	0,063
-497,853	87,077	-0,147	-0,120
-496,839	260,719	0,053	-0,067
-495,824	37,449	0,071	0,046
-494,810	109,134	-0,039	0,034
-493,795	25,470	0,084	0,052
-492,781	-200,000	-0,004	-0,014
-491,766	800,000	0,052	0,119
-490,751	-87,428	-0,109	-0,024
-489,737	-140,087	-0,124	-0,009
-488,722	383,192	0,031	-0,047
-487,708	20,172	-0,188	0,111
-486,693	82,533	0,084	0,067
-485,678	32,837	-0,044	-0,028
-484,664	800,000	-0,035	-0,081
-483,649	-200,000	0,006	-0,062
-482,635	-187,236	0,161	0,002
-481,620	-179,619	0,084	0,001
-480,605	800,000	-0,027	-0,059
-479,591	-52,434	0,097	0,033
-478,576	-137,145	-0,095	0,008
-477,562	-200,000	-0,044	-0,169
-476,547	19,574	-0,024	0,014
-475,532	800,000	-0,020	0,048
-474,518	-200,000	0,008	0,119
-473,503	800,000	-0,027	-0,078
-472,489	81,953	0,043	-0,035
-471,474	-4,501	-0,041	0,021
-470,459	-200,000	0,026	-0,120
-469,445	48,483	-0,069	-0,048
-468,430	-200,000	-0,019	-0,081
-467,416	-200,000	0,004	-0,041
-466,401	-58,961	-0,028	0,009
-465,386	-18,938	-0,070	-0,032
-464,372	-200,000	0,026	0,151
-463,357	59,839	-0,013	0,009
-462,343	19,762	0,063	-0,037
-461,328	-31,395	-0,060	-0,025
-460,313	-85,910	-0,071	-0,016
-459,299	450,817	-0,025	0,040
-458,284	32,601	0,148	0,094
-457,270	61,629	-0,050	-0,036
-456,255	-76,299	-0,075	0,019
-455,241	-103,168	-0,083	0,014
-454,226	284,869	0,057	0,076
-453,211	-200,000	-0,008	0,060
-452,197	169,892	-0,093	0,098
-451,182	-200,000	0,008	0,053
-450,168	-153,599	-0,066	0,003
-449,153	-98,819	-0,101	-0,019
-448,138	90,171	0,142	-0,117
-447,124	-60,254	-0,096	0,030
-446,109	-102,590	0,083	-0,014
-445,095	800,000	0,039	0,102
-444,080	26,340	0,068	0,042
-443,065	-200,000	0,000	-0,001
-442,051	6,436	0,023	0,013
-441,036	530,814	-0,040	-0,070
-440,022	29,705	-0,155	-0,097
-439,007	58,877	0,075	-0,054
-437,992	108,126	0,058	0,051
-436,978	-200,000	-0,016	0,116
-435,963	-200,000	0,065	0,233
-434,949	213,386	-0,059	0,069
-433,934	-106,426	-0,107	-0,017
-432,919	14,186	0,060	0,034
-431,905	232,782	0,041	-0,049
-430,890	800,000	0,035	0,108
-429,876	634,007	0,049	-0,093
-428,861	-132,314	0,026	0,002
-427,846	479,785	0,060	0,100
-426,832	314,383	-0,078	-0,108
-425,817	128,023	0,072	-0,068
-424,803	447,495	-0,083	-0,135
-423,788	739,791	0,064	0,127
-422,773	-200,000	-0,000	0,135
-421,759	-145,578	-0,078	0,005
-420,744	-133,700	0,076	-0,007
-419,730	17,521	-0,064	-0,037
-418,715	-200,000	0,010	-0,076
-417,701	-93,741	-0,294	0,059
-416,686	119,219	0,073	0,067
-415,671	-101,512	-0,051	0,009
-414,657	294,819	-0,045	-0,061
-413,642	-132,226	-0,013	0,001
-412,628	800,000	-0,024	0,054
-411,613	-8,414	-0,159	-0,078
-410,598	800,000	-0,031	-0,066
-409,584	800,000	0,051	-0,129
-408,569	-195,558	0,108	0,001
-407,555	144,607	0,056	-0,055
-406,540	105,744	0,050	0,043
-405,525	800,000	-0,040	0,083
-404,511	-200,000	-0,015	0,064
-403,496	729,816	0,013	0,025
-402,482	192,282	0,095	-0,105
-401,467	228,370	0,112	-0,135
-400,452	-56,295	0,131	0,042
-399,438	258,909	0,114	-0,145
-398,423	-75,168	0,142	-0,037
-397,409	-58,145	-0,128	-0,041
-396,394	800,000	0,076	0,156
-395,379	-90,548	0,037	-0,008
-394,365	-17,570	-0,065	0,030
-393,350	800,000	-0,064	0,201
-392,336	244,898	0,036	0,045
-391,321	800,000	0,023	-0,058
-390,306	154,342	-0,116	-0,117
-389,292	10,827	-0,022	0,012
-388,277	800,000	-0,095	-0,219
-387,263	-71,246	0,071	0,019
-386,248	800,000	0,033	0,089
-385,233	800,000	-0,066	-0,147
-384,219	-2,720	0,059	-0,030
-383,204	158,799	-0,083	-0,085
-382,190	655,898	-0,058	0,111
-381,175	253,274	0,059	0,075
-380,160	-104,631	-0,092	0,015
-379,146	-200,000	0,001	-0,039
-378,131	-159,380	-0,142	-0,006
-377,117	800,000	0,011	0,024
-376,102	-200,000	0,039	-0,159
-375,088	-200,000	-0,009	-0,117
-374,073	-85,037	0,092	-0,021
-373,058	87,443	0,086	0,070
-372,044	-158,946	-0,123	-0,005
-371,029	-200,000	0,002	0,062
-370,015	800,000	-0,052	0,126
-369,000	-38,701	0,048	-0,018
-367,985	-200,000	0,013	0,104
-366,971	284,106	-0,055	0,073
-365,956	-200,000	0,001	0,076
-364,942	154,385	0,038	0,038
-363,927	800,000	0,042	-0,134
-362,912	800,000	-0,024	0,051
-361,898	-163,133	0,007	0,000
-360,883	192,571	0,046	-0,051
-359,869	77,003	0,056	-0,044
-358,854	-200,000	0,005	0,092
-357,839	700,660	-0,048	-0,093
-356,825	-77,734	0,082	-0,021
-355,810	800,000	0,081	0,208
-354,796	171,102	0,067	-0,071
-353,781	-200,000	0,002	-0,155
-352,766	-8,262	0,038	0,019
-351,752	237,222	0,020	0,024
-350,737	104,568	-0,026	0,022
-349,723	383,486	0,056	0,085
-348,708	-200,000	-0,002	0,080
-347,693	101,650	-0,013	-0,012
-346,679	800,000	0,039	-0,118
-345,664	161,579	-0,067	0,069
-344,650	-200,000	-0,017	0,094
-343,635	193,747	-0,092	0,102
-342,620	17,798	0,126	-0,073
-341,606	-71,079	0,119	0,033
-340,591	-177,005	-0,087	0,002
-339,577	480,666	0,039	-0,065
-338,562	124,651	0,090	-0,083
-337,548	191,126	-0,012	0,013
-336,533	392,172	0,044	-0,066
-335,518	-13,035	0,128	0,061
-334,504	-200,000	-0,009	0,107
-333,489	-33,411	0,050	0,020
-332,475	49,193	-0,193	-0,133
-331,460	-73,783	-0,096	-0,025
-330,445	101,089	-0,023	-0,020
-329,431	-130,628	0,090	0,009
-328,416	800,000	-0,010	-0,028
-327,402	-200,000	0,020	0,066
-326,387	153,915	0,014	0,014
-325,372	472,650	-0,018	-0,030
-324,358	25,399	-0,042	-0,026
-323,343	109,398	0,058	0,050
-322,329	34,009	-0,025	0,016
-321,314	-200,000	-0,003	-0,083
-320,299	-170,059	0,146	-0,004
-319,285	693,206	0,048	-0,093
-318,270	-124,396	-0,082	-0,009
-317,256	800,000	0,032	-0,102
-316,241	234,574	-0,090	-0,108
-315,226	327,620	0,079	0,111
-314,212	209,634	0,100	0,115
-313,197	-74,007	0,138	0,036
-312,183	-82,109	-0,075	-0,018
-311,168	-152,659	-0,101	0,005
-310,153	-29,113	-0,036	-0,015
-309,139	-29,034	-0,055	-0,023
-308,124	488,728	0,084	0,141
-307,110	66,196	-0,070	-0,052
-306,095	249,495	0,048	0,060
-305,080	354,439	0,080	0,117
-304,066	-200,000	-0,008	0,079
-303,051	-129,764	-0,138	-0,014
-302,037	-40,736	-0,117	-0,044
-301,022	-109,106	0,138	0,021
-300,008	-148,828	0,129	0,008
-298,993	287,219	0,105	0,140
-297,978	-200,000	-0,015	0,208
-296,964	273,406	0,057	-0,073
-295,949	610,016	0,047	-0,087
-294,935	-200,000	-0,001	0,108
-293,920	800,000	0,013	-0,026
-292,905	-15,731	0,135	-0,063
-291,891	147,112	0,106	0,105
-290,876	-4,074	0,135	0,068
-289,862	385,070	-0,062	-0,093
-288,847	-105,981	-0,047	0,008
-287,832	190,527	0,059	-0,065
-286,818	-200,000	-0,025	0,103
-285,803	172,892	-0,125	-0,132
-284,789	-200,000	-0,041	0,144
-283,774	-134,320	-0,147	-0,013
-282,759	-200,000	-0,021	-0,069
-281,745	259,236	0,050	0,063
-280,730	-200,000	-0,014	-0,047
-279,716	12,644	0,017	-0,010
-278,701	-200,000	-0,019	0,091
-277,686	316,356	-0,078	0,108
-276,672	-200,000	-0,041	0,207
-275,657	-100,757	0,106	0,019
-274,643	-111,404	-0,046	0,007
-273,628	800,000	-0,030	-0,062
-272,613	-200,000	-0,003	-0,065
-271,599	350,685	0,071	0,103
-270,584	-72,814	-0,086	-0,023
-269,570	8,140	0,069	-0,038
-268,555	800,000	0,017	0,053
-267,540	5,041	0,024	0,013
-266,526	731,637	0,022	0,044
-265,511	132,158	0,069	0,065
-264,497	151,716	0,128	0,128
-263,482	-68,307	0,110	-0,031
-262,467	-32,268	0,044	0,018
-261,453	-21,644	0,062	0,027
-260,438	-86,525	-0,108	-0,024
-259,424	728,958	-0,073	0,143
-258,409	-43,799	-0,138	-0,051
-257,395	-126,732	0,045	-0,005
-256,380	499,424	-0,137	-0,232
-255,365	-200,000	-0,036	-0,154
-254,351	8,317	-0,072	-0,039
-253,336	581,227	-0,033	0,060
-252,322	-131,119	0,109	-0,010
-251,307	-66,194	0,049	-0,014
-250,292	-134,996	0,090	0,008
-249,278	234,378	0,068	0,082
-248,263	-32,031	0,069	-0,028
-247,249	68,869	-0,072	-0,054
-246,234	-200,000	0,005	0,036
-245,219	-200,000	-0,022	-0,075
-244,205	-200,000	0,023	-0,129
-243,190	-10,323	0,156	-0,075
-242,176	236,796	0,025	-0,030
-241,161	134,420	0,078	0,074
-240,146	-200,000	0,037	0,156
-239,132	287,396	0,035	-0,046
-238,117	-76,091	0,066	-0,017
-237,103	656,888	-0,051	0,097
-236,088	494,785	0,052	-0,087
-235,073	-200,000	0,141	0,000
-234,059	800,000	-0,059	0,121
-233,044	457,996	0,056	-0,092
-232,030	-200,000	-0,045	0,168
-231,015	599,527	-0,048	0,088
-230,000	22,845	0,166	-0,099
-228,986	-32,173	-0,093	0,038
-227,971	-100,285	0,058	-0,010
-226,957	-48,653	-0,018	0,006
-225,942	230,424	0,051	0,060
-224,927	8,849	-0,020	0,011
-223,913	46,427	-0,090	-0,060
-222,898	800,000	-0,029	0,070
-221,884	-98,887	-0,093	0,017
-220,869	-200,000	0,009	-0,125
-219,855	20,881	0,092	-0,054
-218,840	800,000	0,078	0,160
-217,825	594,354	0,049	0,090
-216,811	167,242	-0,076	-0,079
-215,796	495,803	0,066	-0,110
-214,782	-22,315	-0,085	0,038
-213,767	132,022	0,024	0,023
-212,752	103,675	-0,045	0,039
-211,738	-200,000	-0,002	-0,029
-210,723	-66,472	-0,061	-0,018
-209,709	471,981	-0,088	-0,146
-208,694	37,666	0,100	0,065
-207,679	140,136	0,068	-0,065
-206,665	486,062	-0,019	-0,032
-205,650	-47,494	-0,064	0,023
-204,636	276,956	-0,032	-0,041
-203,621	346,757	0,026	0,037
-202,606	287,106	-0,089	0,117
-201,592	-12,683	-0,062	-0,029
-200,577	800,000	-0,005	-0,017
-199,563	-20,351	-0,092	-0,041
-198,548	217,993	-0,048	0,056
-197,533	39,877	0,171	-0,112
-196,519	-57,104	0,160	0,051
-195,504	-28,076	0,069	0,029
-194,490	-200,000	0,006	-0,068
-193,475	-200,000	0,022	0,073
-192,460	-116,198	0,017	-0,002
-191,446	800,000	-0,046	0,118
-190,431	-200,000	0,029	0,196
-189,417	-200,000	-0,001	0,129
-188,402	274,781	-0,088	-0,114
-187,387	-200,000	0,007	-0,052
-186,373	7,229	0,140	0,076
-185,358	45,247	0,033	-0,022
-184,344	-56,477	-0,039	0,013
-183,329	408,761	0,046	0,072
-182,315	177,713	-0,023	0,025
-181,300	242,965	-0,057	-0,069
-180,285	57,391	-0,040	0,028
-179,271	79,788	-0,170	-0,133
-178,256	383,589	-0,034	-0,051
-177,242	-166,663	0,083	-0,002
-176,227	768,537	0,060	0,119
-175,212	-200,000	-0,005	-0,032
-174,198	-51,648	-0,064	-0,022
-173,183	120,112	-0,024	-0,021
-172,169	-15,417	-0,188	0,087
-171,154	-200,000	0,024	-0,148
-170,139	570,559	0,005	0,009
-169,125	-27,502	0,089	0,038
-168,110	800,000	-0,022	0,048
-167,096	800,000	-0,034	0,093
-166,081	800,000	0,069	-0,160
-165,066	-174,510	-0,094	-0,002
-164,052	210,704	0,061	0,070
-163,037	-92,154	-0,029	-0,006
-162,023	80,593	0,131	0,102
-161,008	-4,401	0,025	-0,013
-159,993	-200,000	-0,007	-0,058
-158,979	-200,000	-0,034	-0,126
-157,964	-138,162	-0,158	0,013
-156,950	-200,000	0,004	-0,068
-155,935	38,512	0,017	0,011
-154,920	60,674	-0,073	-0,053
-153,906	134,993	0,048	0,045
-152,891	-167,500	-0,122	0,003
-151,877	800,000	0,035	0,071
-150,862	-200,000	-0,012	-0,072
-149,847	-4,901	-0,090	-0,045
-148,833	361,371	0,129	0,189
-147,818	379,292	0,084	0,126
-146,804	-183,897	-0,124	-0,001
-145,789	-200,000	0,025	0,163
-144,775	-43,263	-0,157	0,058
-143,760	162,820	-0,088	0,090
-142,745	14,728	-0,186	-0,105
-141,731	-200,000	0,020	-0,155
-140,716	-200,000	0,018	-0,095
-139,702	800,000	0,016	0,037
-138,687	88,542	0,141	0,114
-137,672	-200,000	-0,004	-0,049
-136,658	132,613	0,064	0,060
-135,643	-40,806	0,132	0,050
-134,629	186,234	0,042	-0,045
-133,614	-200,000	0,008	0,047
-132,599	-200,000	-0,009	0,048
-131,585	468,432	-0,107	0,175
-130,570	800,000	0,022	0,056
-129,556	800,000	-0,019	0,059
-128,541	31,269	-0,048	0,030
-127,526	229,280	0,037	0,044
-126,512	227,433	0,064	0,076
-125,497	125,741	0,082	0,075
-124,483	800,000	-0,021	-0,062
-123,468	-74,440	-0,062	0,016
-122,453	800,000	0,011	0,030
-121,439	279,347	0,080	0,103
-120,424	-200,000	-0,001	-0,182
-119,410	395,856	-0,052	-0,079
