DTS Sentinel unit serial number:	SN410029Multiplexer serial number:	ORYXHardware model number:	OX2-SRSoftware version number:	ORYX F/W v4,00 Oryx Data Collector v3.7.2.0data status	okinstallation	B4 Nyhavnadifferential loss correction	single-endedforward channel	channel 2reverse channel	N/Adate	2023/12/19time	14:05:13forward acquisition time	300,00reverse acquisition time	0,00gamma	499,1914k internal	0,3128k external	0,3128temperature offset calibration	1,0000default loss term (dB/km)	0,3820temperature slope calibration	1,0000multiplexer offset coefficient	1,0000multiplexer slope coefficient	1,0000fibre end	0,00T internal ref (°C)	19,38T ext. ref 1 (°C)	4,54T ext. ref 2 (°C)	4,52length (m)	temperature (°C)	Stokes	anti-Stokes-744,400	800,000	0,028	0,070
-743,385	-2,853	-0,235	0,122
-742,371	38,197	0,150	0,099
-741,356	23,533	-0,115	0,070
-740,342	-33,918	0,046	-0,019
-739,327	15,447	-0,114	0,066
-738,312	179,676	0,055	0,060
-737,298	-12,724	-0,283	0,137
-736,283	769,795	0,036	-0,074
-735,269	-16,314	-0,228	0,107
-734,254	5,959	-0,065	-0,036
-733,239	-88,714	-0,424	-0,093
-732,225	38,542	0,129	-0,085
-731,210	-63,224	0,160	0,049
-730,196	-174,871	0,105	-0,002
-729,181	-0,721	-0,130	-0,069
-728,167	800,000	-0,012	-0,024
-727,152	248,942	-0,048	0,061
-726,137	160,921	0,103	-0,107
-725,123	-3,126	0,054	0,028
-724,108	211,611	-0,079	-0,092
-723,094	-200,000	-0,005	-0,091
-722,079	-74,554	0,010	-0,003
-721,064	-200,000	0,009	0,045
-720,050	-128,275	-0,043	0,005
-719,035	-200,000	-0,044	-0,153
-718,021	-61,404	-0,034	-0,011
-717,006	49,992	-0,071	0,049
-715,991	-200,000	-0,018	-0,170
-714,977	164,282	-0,036	-0,038
-713,962	431,460	-0,068	-0,109
-712,948	95,916	-0,125	-0,106
-711,933	-107,937	0,030	0,005
-710,918	-200,000	0,005	0,100
-709,904	-87,495	-0,074	-0,016
-708,889	-200,000	0,001	-0,081
-707,875	-200,000	0,048	-0,201
-706,860	800,000	-0,049	-0,102
-705,845	-36,344	-0,027	0,011
-704,831	-200,000	0,005	-0,091
-703,816	-48,782	-0,026	-0,009
-702,802	6,027	-0,137	0,075
-701,787	800,000	-0,016	-0,041
-700,772	-200,000	-0,014	-0,115
-699,758	-200,000	-0,022	0,094
-698,743	800,000	0,044	0,143
-697,729	-80,784	0,045	0,011
-696,714	-200,000	-0,018	-0,065
-695,699	-29,901	-0,061	0,026
-694,685	-9,058	-0,120	0,059
-693,670	261,821	-0,035	-0,045
-692,656	3,900	0,079	0,043
-691,641	-200,000	0,067	0,000
-690,627	-200,000	0,062	0,253
-689,612	-59,528	0,067	0,021
-688,597	-200,000	-0,035	0,124
-687,583	-21,857	0,032	-0,015
-686,568	-200,000	-0,002	-0,006
-685,554	800,000	0,090	-0,188
-684,539	-200,000	-0,017	-0,107
-683,524	31,334	-0,101	0,064
-682,510	800,000	-0,018	-0,054
-681,495	203,903	0,089	-0,103
-680,481	184,596	-0,049	-0,054
-679,466	-200,000	-0,009	-0,063
-678,451	-16,154	-0,067	0,031
-677,437	-163,396	0,134	0,005
-676,422	82,052	0,100	0,080
-675,408	-38,313	0,079	0,031
-674,393	-152,513	-0,125	-0,007
-673,378	83,452	-0,029	-0,024
-672,364	-200,000	0,041	-0,195
-671,349	-33,686	-0,064	0,026
-670,335	800,000	0,029	0,079
-669,320	60,441	0,058	-0,043
-668,305	800,000	0,062	-0,171
-667,291	800,000	0,039	0,093
-666,276	-144,385	-0,072	0,005
-665,262	-200,000	-0,056	-0,251
-664,247	194,817	0,172	-0,194
-663,232	528,684	0,074	-0,129
-662,218	-200,000	0,001	0,159
-661,203	142,789	0,063	0,062
-660,189	788,143	-0,058	-0,120
-659,174	57,800	0,049	0,035
-658,159	380,024	-0,097	-0,148
-657,145	272,115	-0,077	-0,101
-656,130	-93,267	0,040	-0,008
-655,116	800,000	0,035	-0,109
-654,101	102,098	0,106	-0,092
-653,086	-124,588	0,009	0,001
-652,072	800,000	-0,049	-0,109
-651,057	397,323	0,005	0,008
-650,043	41,275	0,053	-0,036
-649,028	-200,000	0,001	-0,061
-648,014	-96,137	-0,123	-0,024
-646,999	-45,528	-0,052	0,019
-645,984	102,626	-0,070	0,060
-644,970	-152,255	-0,110	-0,006
-643,955	431,508	-0,042	0,067
-642,941	614,557	0,075	-0,141
-641,926	-149,909	-0,152	0,009
-640,911	530,277	0,049	-0,086
-639,897	18,211	0,158	0,093
-638,882	-161,052	0,122	0,005
-637,868	-101,441	0,101	0,018
-636,853	-5,110	-0,178	0,090
-635,838	52,485	0,057	0,040
-634,824	204,293	-0,055	0,063
-633,809	-200,000	-0,010	0,111
-632,795	-131,874	0,085	-0,008
-631,780	-36,446	0,069	0,027
-630,765	-88,103	0,050	-0,011
-629,751	-56,842	0,034	0,011
-628,736	800,000	-0,025	0,063
-627,722	81,512	-0,059	-0,047
-626,707	-200,000	0,017	-0,080
-625,692	192,659	0,099	-0,110
-624,678	800,000	0,010	-0,024
-623,663	-63,910	-0,113	0,034
-622,649	351,663	0,024	-0,036
-621,634	114,150	0,047	-0,043
-620,619	-23,082	-0,114	0,051
-619,605	104,676	0,054	-0,047
-618,590	-123,529	0,021	0,002
-617,576	20,494	0,075	0,045
-616,561	-44,946	-0,056	-0,021
-615,546	87,705	-0,105	-0,086
-614,532	800,000	-0,055	-0,162
-613,517	800,000	-0,026	-0,065
-612,503	-200,000	-0,020	-0,110
-611,488	-0,514	0,009	0,005
-610,474	-47,430	-0,094	-0,034
-609,459	274,401	-0,026	-0,034
-608,444	124,932	-0,039	0,036
-607,430	800,000	0,017	-0,053
-606,415	68,760	-0,039	0,030
-605,401	-133,596	0,074	0,007
-604,386	800,000	-0,041	-0,102
-603,371	-200,000	-0,000	0,016
-602,357	442,261	-0,059	0,096
-601,342	-65,626	-0,093	-0,027
-600,328	800,000	-0,024	-0,069
-599,313	55,471	0,103	0,074
-598,298	800,000	0,025	-0,075
-597,284	-76,892	0,057	-0,015
-596,269	-182,255	0,071	-0,001
-595,255	254,316	-0,090	-0,114
-594,240	800,000	-0,067	-0,167
-593,225	-7,704	0,055	-0,027
-592,211	-200,000	0,030	-0,101
-591,196	120,111	0,047	0,043
-590,182	-60,808	-0,064	-0,020
-589,167	800,000	-0,024	-0,065
-588,152	-19,517	0,089	-0,041
-587,138	-101,616	0,048	0,009
-586,123	223,185	-0,076	-0,091
-585,109	387,120	-0,046	-0,071
-584,094	470,411	-0,055	-0,091
-583,079	42,247	0,095	-0,063
-582,065	129,453	0,006	-0,006
-581,050	498,409	0,054	0,092
-580,036	-100,810	0,031	0,006
-579,021	355,144	-0,056	-0,082
-578,006	-200,000	0,001	0,116
-576,992	13,121	-0,037	0,021
-575,977	800,000	-0,029	0,067
-574,963	-92,965	0,109	0,022
-573,948	149,407	-0,124	0,124
-572,934	-100,210	-0,092	-0,017
-571,919	172,189	-0,113	-0,120
-570,904	-200,000	-0,019	-0,117
-569,890	-26,518	-0,083	0,036
-568,875	-126,235	0,107	0,012
-567,861	280,978	0,036	0,047
-566,846	-200,000	0,018	0,068
-565,831	-200,000	-0,022	-0,082
-564,817	-89,428	-0,045	-0,010
-563,802	800,000	-0,039	-0,096
-562,788	193,403	0,075	0,084
-561,773	-200,000	0,016	0,085
-560,758	-200,000	0,010	0,105
-559,744	165,873	0,119	0,124
-558,729	50,739	0,007	0,005
-557,715	-87,996	-0,182	-0,040
-556,700	-200,000	0,018	-0,073
-555,685	-16,134	0,062	-0,029
-554,671	-200,000	0,002	0,049
-553,656	123,763	0,131	0,121
-552,642	800,000	0,033	-0,105
-551,627	16,193	-0,029	-0,017
-550,612	177,548	0,044	0,048
-549,598	21,538	-0,139	0,083
-548,583	800,000	0,034	0,082
-547,569	-126,728	0,032	-0,003
-546,554	800,000	-0,051	-0,143
-545,539	800,000	-0,017	0,047
-544,525	-118,721	-0,151	-0,019
-543,510	800,000	-0,028	-0,063
-542,496	800,000	-0,017	0,047
-541,481	-131,847	-0,119	-0,011
-540,466	800,000	0,039	0,105
-539,452	325,137	0,013	-0,018
-538,437	-53,263	-0,067	0,023
-537,423	338,906	-0,065	-0,093
-536,408	-32,424	0,151	0,062
-535,393	-101,782	0,086	-0,015
-534,379	-200,000	-0,015	0,144
-533,364	-0,527	-0,087	-0,045
-532,350	-53,308	-0,106	0,036
-531,335	800,000	-0,026	0,084
-530,321	187,180	-0,094	0,103
-529,306	61,140	0,092	-0,067
-528,291	-25,584	-0,052	0,023
-527,277	-27,205	0,046	-0,020
-526,262	284,234	-0,029	-0,038
-525,248	-176,143	-0,052	0,001
-524,233	-165,897	-0,037	0,001
-523,218	-32,495	0,032	-0,013
-522,204	-93,375	-0,033	0,007
-521,189	102,046	0,054	0,046
-520,175	-200,000	0,035	-0,146
-519,160	45,275	0,054	-0,037
-518,145	105,328	-0,073	0,064
-517,131	190,412	-0,129	0,143
-516,116	-200,000	0,007	-0,059
-515,102	541,597	-0,065	0,114
-514,087	93,322	-0,071	0,059
-513,072	800,000	0,013	-0,028
-512,058	-200,000	-0,029	-0,162
-511,043	800,000	0,104	0,221
-510,029	-200,000	-0,006	0,069
-509,014	-87,090	0,139	-0,031
-507,999	224,941	-0,070	-0,084
-506,985	150,922	0,096	-0,096
-505,970	336,261	-0,060	0,086
-504,956	-200,000	-0,006	-0,044
-503,941	-23,938	-0,157	0,069
-502,926	-34,915	0,069	0,028
-501,912	-200,000	-0,002	0,027
-500,897	263,277	0,034	0,044
-499,883	520,382	-0,079	0,137
-498,868	-200,000	-0,023	-0,103
-497,853	19,166	-0,087	0,051
-496,839	221,874	-0,059	-0,070
-495,824	209,117	0,050	0,058
-494,810	-172,984	0,072	-0,002
-493,795	-200,000	0,014	-0,090
-492,781	608,146	0,063	-0,116
-491,766	39,646	0,078	-0,051
-490,751	365,793	0,073	-0,109
-489,737	21,307	-0,055	0,033
-488,722	85,219	0,129	0,104
-487,708	579,056	0,056	0,102
-486,693	800,000	0,036	-0,099
-485,678	-67,331	-0,077	0,022
-484,664	-54,539	0,025	-0,008
-483,649	746,258	0,036	-0,071
-482,635	-200,000	-0,015	0,052
-481,620	256,226	0,030	0,038
-480,605	800,000	-0,007	-0,017
-479,591	800,000	0,062	0,149
-478,576	-200,000	0,004	0,048
-477,562	83,813	0,068	0,054
-476,547	45,488	-0,055	-0,037
-475,532	-200,000	-0,013	0,083
-474,518	-42,001	-0,041	0,015
-473,503	-123,371	0,104	-0,012
-472,489	-114,297	0,072	-0,010
-471,474	161,513	0,100	-0,103
-470,459	-200,000	0,007	-0,042
-469,445	35,004	0,062	-0,040
-468,430	-200,000	-0,003	0,075
-467,416	264,064	-0,054	0,069
-466,401	401,093	0,052	0,080
-465,386	-48,194	0,096	-0,034
-464,372	331,839	-0,023	-0,033
-463,357	-102,730	-0,089	-0,015
-462,343	316,855	0,033	0,045
-461,328	44,292	-0,056	0,038
-460,313	-200,000	0,002	-0,008
-459,299	23,475	0,044	0,026
-458,284	800,000	-0,039	0,082
-457,270	-200,000	-0,018	0,097
-456,255	-163,963	-0,077	0,003
-455,241	-143,002	-0,062	0,004
-454,226	120,736	-0,066	-0,061
-453,211	-200,000	0,019	-0,090
-452,197	-5,523	0,136	-0,068
-451,182	791,777	0,022	0,045
-450,168	800,000	-0,030	0,064
-449,153	-200,000	0,002	-0,009
-448,138	800,000	-0,067	-0,169
-447,124	305,068	-0,086	-0,118
-446,109	253,613	-0,039	-0,049
-445,095	127,081	-0,043	0,040
-444,080	-200,000	0,036	-0,141
-443,065	-200,000	-0,018	-0,141
-442,051	27,691	-0,059	-0,037
-441,036	332,843	0,054	-0,077
-440,022	800,000	0,036	0,094
-439,007	800,000	-0,023	0,066
-437,992	134,573	0,087	0,083
-436,978	-200,000	-0,013	0,142
-435,963	800,000	-0,039	0,105
-434,949	800,000	0,045	-0,101
-433,934	-200,000	0,003	-0,071
-432,919	-7,455	-0,042	-0,021
-431,905	67,921	-0,091	0,068
-430,890	263,176	-0,043	0,054
-429,876	163,158	0,131	0,136
-428,861	108,730	0,075	-0,066
-427,846	-200,000	-0,023	-0,142
-426,832	800,000	-0,066	-0,176
-425,817	-200,000	-0,027	0,143
-424,803	-89,962	0,076	-0,016
-423,788	78,432	-0,068	-0,054
-422,773	-74,229	0,069	-0,018
-421,759	-91,549	0,097	-0,020
-420,744	-138,366	0,060	-0,005
-419,730	265,358	0,039	-0,050
-418,715	143,094	-0,077	-0,075
-417,701	800,000	-0,029	0,089
-416,686	-200,000	0,037	-0,173
-415,671	-137,798	-0,046	-0,004
-414,657	-55,573	0,124	0,040
-413,642	800,000	0,026	0,081
-412,628	-51,485	-0,184	-0,063
-411,613	-200,000	0,029	0,126
-410,598	-115,330	0,140	-0,019
-409,584	149,264	0,082	0,081
-408,569	-71,047	0,152	-0,042
-407,555	374,536	-0,054	-0,081
-406,540	76,901	0,098	0,077
-405,525	-18,496	0,079	0,036
-404,511	800,000	0,054	-0,159
-403,496	-200,000	-0,001	-0,011
-402,482	263,563	-0,027	0,034
-401,467	800,000	0,021	0,059
-400,452	-68,543	-0,040	-0,011
-399,438	-139,340	-0,052	0,004
-398,423	800,000	0,029	-0,092
-397,409	-163,000	-0,133	-0,005
-396,394	144,693	-0,027	-0,027
-395,379	800,000	0,033	-0,090
-394,365	-200,000	0,007	-0,035
-393,350	-190,639	0,157	0,001
-392,336	-7,486	-0,024	-0,012
-391,321	480,724	0,066	-0,110
-390,306	-87,999	-0,036	-0,008
-389,292	-200,000	0,023	-0,128
-388,277	231,197	0,070	-0,084
-387,263	800,000	-0,032	0,069
-386,248	-92,348	0,082	-0,017
-385,233	787,081	-0,077	0,157
-384,219	91,737	-0,097	-0,080
-383,204	-200,000	0,014	-0,056
-382,190	-200,000	0,013	0,051
-381,175	301,287	-0,098	-0,134
-380,160	240,256	-0,040	0,050
-379,146	-34,927	0,094	0,037
-378,131	800,000	0,015	0,034
-377,117	800,000	-0,047	-0,104
-376,102	800,000	0,028	-0,069
-375,088	800,000	-0,034	-0,080
-374,073	75,404	-0,174	0,135
-373,058	-200,000	-0,026	0,088
-372,044	-67,256	-0,017	0,005
-371,029	10,557	0,083	0,046
-370,015	143,469	-0,003	-0,003
-369,000	122,387	-0,027	-0,025
-367,985	800,000	-0,087	-0,194
-366,971	-153,958	0,011	-0,001
-365,956	139,322	0,091	-0,088
-364,942	208,014	0,062	0,072
-363,927	98,971	-0,036	-0,030
-362,912	471,830	0,046	-0,077
-361,898	73,182	-0,029	0,023
-360,883	235,977	-0,049	0,060
-359,869	30,421	0,061	-0,038
-358,854	378,675	-0,074	0,111
-357,839	-134,019	0,200	-0,018
-356,825	173,616	0,101	0,107
-355,810	-10,562	0,138	0,067
-354,796	-70,903	-0,095	0,026
-353,781	800,000	0,020	-0,054
-352,766	-200,000	0,010	-0,058
-351,752	171,138	-0,038	0,040
-350,737	77,673	-0,118	0,092
-349,723	87,969	0,124	-0,101
-348,708	-200,000	-0,016	0,132
-347,693	184,271	0,052	0,057
-346,679	-97,141	0,092	-0,017
-345,664	-85,781	-0,051	-0,011
-344,650	190,085	0,055	0,060
-343,635	0,008	0,078	-0,040
-342,620	491,534	0,025	-0,042
-341,606	800,000	-0,018	-0,037
-340,591	-65,316	-0,099	-0,029
-339,577	745,430	0,047	-0,094
-338,562	-33,649	-0,049	-0,020
-337,548	59,968	0,106	-0,077
-336,533	800,000	0,044	-0,112
-335,518	64,015	0,066	-0,048
-334,504	800,000	0,059	0,125
-333,489	-112,084	-0,134	-0,019
-332,475	-50,442	-0,082	-0,028
-331,460	169,889	-0,026	-0,027
-330,445	56,285	-0,070	-0,050
-329,431	-200,000	0,009	0,073
-328,416	179,601	0,031	0,033
-327,402	78,382	-0,020	0,016
-326,387	41,618	0,082	0,054
-325,372	-200,000	0,000	0,074
-324,358	-200,000	0,001	-0,087
-323,343	-200,000	0,015	-0,112
-322,329	-200,000	-0,027	-0,159
-321,314	91,547	-0,121	0,100
-320,299	790,950	-0,014	0,029
-319,285	-31,497	0,047	-0,019
-318,270	71,345	-0,029	-0,022
-317,256	62,492	-0,042	-0,031
-316,241	62,749	0,059	0,043
-315,226	-108,132	0,064	0,010
-314,212	39,814	-0,062	0,041
-313,197	299,288	0,045	0,061
-312,183	148,969	-0,035	-0,035
-311,168	-150,185	0,030	0,002
-310,153	-111,460	-0,042	-0,006
-309,139	9,168	-0,061	0,034
-308,124	-200,000	0,054	0,202
-307,110	-200,000	-0,002	0,078
-306,095	148,542	-0,039	0,038
-305,080	14,948	-0,121	0,069
-304,066	-80,824	-0,047	0,011
-303,051	-152,204	-0,092	0,005
-302,037	-56,376	-0,046	-0,015
-301,022	191,803	-0,073	0,081
-300,008	99,458	0,083	-0,070
-298,993	-104,527	0,091	0,015
-297,978	-200,000	0,008	-0,075
-296,964	800,000	0,036	0,094
-295,949	128,891	-0,044	-0,041
-294,935	742,065	-0,038	-0,075
-293,920	355,448	-0,091	-0,133
-292,905	-200,000	0,013	0,081
-291,891	-38,415	0,057	0,022
-290,876	-200,000	-0,011	0,119
-289,862	-200,000	0,002	0,050
-288,847	-8,288	-0,062	0,031
-287,832	-10,538	0,079	0,038
-286,818	-200,000	0,040	0,193
-285,803	423,506	0,129	0,204
-284,789	158,316	0,092	0,093
-283,774	454,075	-0,030	-0,048
-282,759	-5,884	0,067	-0,033
-281,745	-200,000	-0,005	0,047
-280,730	-200,000	0,017	-0,056
-279,716	313,061	0,050	-0,069
-278,701	-55,820	0,087	0,028
-277,686	-200,000	-0,005	0,078
-276,672	-39,069	0,091	-0,035
-275,657	800,000	-0,032	-0,075
-274,643	-185,077	-0,024	-0,000
-273,628	-200,000	0,002	0,021
-272,613	-200,000	0,004	-0,030
-271,599	800,000	0,062	0,167
-270,584	-200,000	0,011	0,070
-269,570	-32,668	-0,089	-0,036
-268,555	-78,220	0,122	0,030
-267,540	-200,000	-0,011	-0,115
-266,526	800,000	-0,011	-0,024
-265,511	-115,232	0,034	-0,005
-264,497	-200,000	-0,004	-0,097
-263,482	432,926	0,058	-0,092
-262,467	288,851	-0,082	0,109
-261,453	744,145	0,037	-0,074
-260,438	-144,961	-0,075	-0,005
-259,424	-134,102	-0,164	-0,015
-258,409	800,000	-0,050	-0,132
-257,395	-102,660	-0,044	0,008
-256,380	-133,279	0,061	-0,006
-255,365	800,000	0,017	0,047
-254,351	-6,667	-0,082	0,041
-253,336	-200,000	-0,010	0,057
-252,322	-126,406	-0,080	0,009
-251,307	41,549	-0,076	-0,050
-250,292	34,752	-0,135	0,086
-249,278	98,503	0,090	0,075
-248,263	219,473	0,055	-0,064
-247,249	-200,000	0,021	0,093
-246,234	800,000	-0,022	0,060
-245,219	-56,247	-0,168	0,054
-244,205	-200,000	-0,016	-0,065
-243,190	205,646	0,116	-0,132
-242,176	-75,732	-0,083	0,021
-241,161	-89,231	0,198	-0,042
-240,146	68,971	-0,065	-0,049
-239,132	289,626	-0,069	0,092
-238,117	312,543	0,113	0,155
-237,103	340,778	-0,049	-0,070
-236,088	131,556	-0,041	-0,039
-235,073	19,769	0,052	0,030
-234,059	59,424	0,091	0,065
-233,044	-200,000	0,005	0,086
-232,030	66,749	-0,047	-0,035
-231,015	183,805	-0,051	-0,055
-230,000	-200,000	-0,018	0,063
-228,986	-112,345	-0,060	-0,009
-227,971	173,862	0,067	-0,071
-226,957	-112,357	0,046	0,007
-225,942	-200,000	-0,066	0,000
-224,927	5,134	-0,086	-0,046
-223,913	144,299	0,109	-0,106
-222,898	-200,000	0,005	-0,080
-221,884	-200,000	0,007	0,126
-220,869	-200,000	-0,013	0,101
-219,855	173,798	-0,105	0,111
-218,840	-50,271	0,195	0,067
-217,825	71,129	0,039	0,029
-216,811	-138,601	0,040	-0,003
-215,796	107,231	-0,090	-0,078
-214,782	239,986	0,023	0,028
-213,767	354,401	0,052	0,076
-212,752	16,074	-0,055	0,031
-211,738	404,888	0,050	0,077
-210,723	-200,000	0,004	0,060
-209,709	-200,000	-0,021	-0,159
-208,694	-22,338	0,048	-0,021
-207,679	271,083	-0,046	0,059
-206,665	-31,423	0,096	-0,039
-205,650	800,000	0,048	0,122
-204,636	800,000	-0,023	-0,060
-203,621	800,000	0,038	0,097
-202,606	-116,829	-0,065	0,009
-201,592	210,472	-0,092	-0,105
-200,577	-60,251	-0,118	-0,036
-199,563	-124,579	0,127	-0,014
-198,548	-200,000	-0,015	0,052
-197,533	800,000	0,014	-0,034
-196,519	34,877	0,027	0,017
-195,504	82,213	0,098	-0,077
-194,490	18,838	-0,056	-0,032
-193,475	44,373	-0,111	-0,074
-192,460	-200,000	-0,003	0,082
-191,446	403,860	-0,078	-0,120
-190,431	311,853	-0,032	0,044
-189,417	363,658	-0,061	0,089
-188,402	800,000	-0,026	0,070
-187,387	800,000	0,039	0,082
-186,373	-132,282	0,092	0,009
-185,358	-130,050	-0,093	0,009
-184,344	-16,526	0,067	0,031
-183,329	-10,704	-0,092	0,044
-182,315	261,150	0,055	0,070
-181,300	116,213	0,027	-0,024
-180,285	-144,520	0,161	0,011
-179,271	-94,100	-0,057	0,011
-178,256	34,419	-0,097	0,062
-177,242	125,873	0,080	-0,074
-176,227	-200,000	0,001	0,061
-175,212	-64,219	0,066	0,020
-174,198	-35,085	-0,085	-0,034
-173,183	85,815	-0,056	-0,045
-172,169	-6,845	0,045	0,022
-171,154	-200,000	-0,005	-0,046
-170,139	-50,579	0,133	-0,045
-169,125	-115,283	-0,221	0,030
-168,110	-200,000	-0,005	0,026
-167,096	370,962	-0,070	-0,103
-166,081	-200,000	-0,045	-0,181
-165,066	43,477	0,069	-0,046
-164,052	179,045	0,083	-0,088
-163,037	12,873	0,080	-0,045
-162,023	266,787	0,072	-0,092
-161,008	100,664	0,103	0,087
-159,993	130,284	0,078	0,072
-158,979	425,246	-0,043	0,067
-157,964	269,489	-0,039	-0,050
-156,950	-200,000	0,002	0,037
-155,935	-25,919	-0,089	0,038
-154,920	-200,000	-0,018	-0,101
-153,906	-200,000	0,054	0,185
-152,891	-29,890	-0,076	0,031
-151,877	-200,000	0,009	-0,060
-150,862	120,736	-0,056	0,051
-149,847	176,310	0,028	0,030
-148,833	752,348	0,029	0,057
-147,818	-200,000	-0,026	0,212
-146,804	-200,000	0,011	0,087
-145,789	-133,651	0,076	0,007
-144,775	-200,000	-0,005	-0,067
-143,760	207,124	-0,090	-0,102
-142,745	-77,123	-0,086	0,022
-141,731	-200,000	0,012	-0,150
-140,716	138,451	0,100	0,096
-139,702	597,164	0,094	0,169
-138,687	-200,000	0,012	-0,067
-137,672	800,000	-0,014	0,037
-136,658	419,027	0,049	0,076
-135,643	319,500	-0,025	-0,035
-134,629	85,393	0,057	-0,045
-133,614	-200,000	-0,018	0,118
-132,599	616,073	0,059	0,108
-131,585	99,549	0,074	0,062
-130,570	15,956	-0,130	0,074
-129,556	-166,632	-0,131	-0,004
-128,541	128,449	-0,111	-0,103
-127,526	-80,807	0,125	-0,030
-126,512	-200,000	-0,022	-0,099
-125,497	578,471	-0,036	0,065
-124,483	731,127	0,027	-0,052
-123,468	-52,452	0,065	0,022
-122,453	-200,000	0,021	0,080
-121,439	33,102	0,020	0,013
-120,424	156,748	0,147	-0,147
-119,410	166,623	0,032	-0,033
-118,395	800,000	0,042	0,084
