DTS Sentinel unit serial number:	SN410029Multiplexer serial number:	ORYXHardware model number:	OX2-SRSoftware version number:	ORYX F/W v4,00 Oryx Data Collector v3.7.2.0data status	okinstallation	B4 Nyhavnadifferential loss correction	single-endedforward channel	channel 2reverse channel	N/Adate	2023/12/19time	13:45:13forward acquisition time	300,00reverse acquisition time	0,00gamma	499,1914k internal	0,3127k external	0,3127temperature offset calibration	1,0000default loss term (dB/km)	0,3820temperature slope calibration	1,0000multiplexer offset coefficient	1,0000multiplexer slope coefficient	1,0000fibre end	0,00T internal ref (°C)	19,39T ext. ref 1 (°C)	4,35T ext. ref 2 (°C)	4,28length (m)	temperature (°C)	Stokes	anti-Stokes-744,400	112,421	-0,056	-0,051
-743,385	5,319	-0,191	0,105
-742,371	231,137	-0,080	-0,097
-741,356	-86,597	-0,139	0,031
-740,342	65,388	-0,088	-0,067
-739,327	114,355	-0,231	0,209
-738,312	150,936	0,109	0,110
-737,298	251,740	-0,076	0,096
-736,283	800,000	0,011	-0,027
-735,269	-22,243	-0,213	0,096
-734,254	-89,141	-0,067	0,015
-733,239	-65,387	-0,402	-0,120
-732,225	-117,193	0,240	0,032
-731,210	-77,299	0,085	0,022
-730,196	-107,042	-0,056	-0,009
-729,181	800,000	0,048	-0,103
-728,167	-200,000	0,009	-0,118
-727,152	1,757	0,081	0,044
-726,137	-200,000	0,032	-0,148
-725,123	800,000	-0,045	-0,124
-724,108	800,000	-0,061	-0,187
-723,094	-118,847	-0,054	0,007
-722,079	-200,000	-0,028	-0,098
-721,064	292,534	-0,079	-0,108
-720,050	67,726	0,130	-0,099
-719,035	-60,535	-0,159	-0,050
-718,021	-200,000	0,008	-0,056
-717,006	181,501	0,077	-0,085
-715,991	90,741	-0,039	0,033
-714,977	119,086	-0,161	-0,148
-713,962	-200,000	0,033	-0,111
-712,948	347,230	-0,023	0,033
-711,933	-3,473	-0,091	0,047
-710,918	99,137	-0,066	-0,056
-709,904	63,854	-0,086	-0,064
-708,889	800,000	-0,028	-0,069
-707,875	800,000	-0,079	-0,243
-706,860	-200,000	-0,026	-0,171
-705,845	800,000	-0,042	0,101
-704,831	592,884	-0,048	0,089
-703,816	17,518	0,041	0,024
-702,802	-200,000	0,011	0,066
-701,787	-78,261	0,189	-0,048
-700,772	254,747	-0,061	-0,077
-699,758	-108,216	0,030	0,005
-698,743	-42,065	0,022	0,008
-697,729	-126,109	0,174	-0,019
-696,714	-58,300	-0,147	0,047
-695,699	-32,076	-0,038	0,016
-694,685	27,144	-0,218	0,136
-693,670	-200,000	-0,009	-0,099
-692,656	488,155	-0,040	-0,069
-691,641	-19,169	0,162	-0,075
-690,627	-200,000	0,016	0,155
-689,612	800,000	-0,012	-0,025
-688,597	800,000	-0,037	-0,077
-687,583	-164,923	-0,179	0,006
-686,568	-40,996	0,115	-0,044
-685,554	226,267	0,031	0,037
-684,539	100,292	-0,043	0,037
-683,524	267,549	-0,055	0,071
-682,510	327,083	0,130	0,186
-681,495	228,027	-0,133	-0,161
-680,481	-200,000	-0,006	0,091
-679,466	-200,000	-0,001	-0,041
-678,451	-12,752	-0,039	-0,019
-677,437	-200,000	-0,021	0,077
-676,422	-200,000	0,004	0,134
-675,408	800,000	0,038	-0,100
-674,393	-47,394	-0,118	-0,042
-673,378	800,000	0,012	0,025
-672,364	116,568	-0,149	-0,136
-671,349	-109,710	0,094	-0,014
-670,335	33,626	0,110	-0,071
-669,320	388,520	0,051	-0,079
-668,305	-28,450	0,082	-0,035
-667,291	-200,000	0,011	-0,043
-666,276	-200,000	-0,004	-0,183
-665,262	-105,651	-0,026	-0,004
-664,247	-200,000	0,029	0,134
-663,232	205,836	0,160	0,185
-662,218	58,125	-0,091	0,066
-661,203	578,798	-0,066	0,120
-660,189	-141,608	0,226	0,017
-659,174	-89,962	-0,090	-0,019
-658,159	-200,000	0,006	-0,100
-657,145	-42,957	0,060	0,023
-656,130	-200,000	-0,008	0,096
-655,116	254,247	0,089	0,113
-654,101	800,000	-0,011	0,025
-653,086	344,613	-0,070	0,102
-652,072	452,822	-0,055	-0,090
-651,057	228,337	-0,044	-0,053
-650,043	7,459	-0,057	0,032
-649,028	-38,643	0,061	0,024
-648,014	-156,095	0,130	0,006
-646,999	-95,131	0,162	0,032
-645,984	227,749	0,080	0,097
-644,970	-72,764	-0,090	-0,025
-643,955	-200,000	-0,035	0,123
-642,941	-200,000	-0,012	-0,095
-641,926	-200,000	-0,005	0,092
-640,911	-143,593	-0,102	-0,007
-639,897	99,980	0,063	0,054
-638,882	397,158	-0,074	0,115
-637,868	-102,090	0,086	0,015
-636,853	19,353	0,077	0,046
-635,838	366,731	0,016	0,024
-634,824	-119,893	-0,096	0,012
-633,809	-104,455	0,081	0,014
-632,795	-26,569	0,057	-0,025
-631,780	-200,000	-0,042	0,215
-630,765	267,988	-0,119	-0,155
-629,751	519,882	-0,020	-0,036
-628,736	-28,504	-0,113	-0,048
-627,722	800,000	0,047	-0,099
-626,707	95,911	0,101	0,086
-625,692	800,000	0,007	-0,015
-624,678	510,593	0,053	0,092
-623,663	548,470	-0,047	-0,083
-622,649	-90,473	-0,108	-0,023
-621,634	342,301	-0,025	-0,036
-620,619	-149,395	-0,011	-0,001
-619,605	-78,562	-0,006	0,001
-618,590	124,361	0,037	-0,034
-617,576	-200,000	-0,027	0,100
-616,561	125,640	-0,014	0,014
-615,546	272,206	0,044	-0,058
-614,532	800,000	0,049	-0,136
-613,517	79,091	-0,107	0,085
-612,503	12,571	0,109	-0,062
-611,488	-32,002	0,084	-0,035
-610,474	-97,132	-0,074	0,014
-609,459	721,167	0,040	0,079
-608,444	754,907	-0,040	-0,080
-607,430	57,057	-0,075	0,054
-606,415	-5,717	-0,106	-0,054
-605,401	510,082	-0,050	0,087
-604,386	800,000	-0,028	0,069
-603,371	-200,000	-0,021	0,093
-602,357	-200,000	-0,006	-0,106
-601,342	-149,485	-0,099	-0,006
-600,328	-200,000	-0,027	-0,110
-599,313	102,799	-0,073	-0,063
-598,298	131,517	0,133	-0,127
-597,284	544,815	0,011	-0,019
-596,269	-200,000	-0,014	0,065
-595,255	512,294	0,054	0,094
-594,240	83,407	-0,076	-0,061
-593,225	-94,429	-0,143	0,029
-592,211	-200,000	0,022	0,140
-591,196	800,000	0,006	-0,012
-590,182	335,221	-0,028	-0,041
-589,167	800,000	-0,015	-0,036
-588,152	74,260	-0,047	-0,037
-587,138	-57,648	-0,035	0,011
-586,123	-200,000	0,047	-0,164
-585,109	-154,551	-0,033	-0,002
-584,094	298,827	0,095	-0,129
-583,079	-200,000	-0,002	-0,012
-582,065	423,949	0,064	0,102
-581,050	79,076	-0,070	0,056
-580,036	61,053	-0,073	0,053
-579,021	-200,000	0,008	-0,077
-578,006	345,457	0,076	-0,110
-576,992	800,000	0,028	-0,085
-575,977	22,606	0,004	-0,002
-574,963	-87,050	0,138	0,031
-573,948	10,595	-0,060	0,034
-572,934	-33,158	0,096	0,039
-571,919	124,965	-0,033	-0,031
-570,904	800,000	0,038	0,094
-569,890	-65,369	0,125	-0,037
-568,875	78,199	0,017	-0,013
-567,861	800,000	-0,038	-0,107
-566,846	145,434	0,088	-0,087
-565,831	320,454	0,062	0,088
-564,817	-179,351	0,056	0,001
-563,802	-18,903	0,105	0,048
-562,788	-200,000	-0,009	-0,068
-561,773	653,592	0,020	0,037
-560,758	294,950	0,057	0,077
-559,744	123,506	0,020	-0,018
-558,729	-200,000	-0,005	0,130
-557,715	30,133	-0,056	-0,035
-556,700	115,222	-0,046	0,041
-555,685	-187,689	-0,044	-0,000
-554,671	2,264	-0,129	-0,069
-553,656	157,896	0,064	-0,065
-552,642	-200,000	-0,024	0,088
-551,627	-200,000	-0,002	0,158
-550,612	-63,341	-0,138	0,042
-549,598	-103,628	-0,111	-0,019
-548,583	-2,915	-0,049	-0,025
-547,569	800,000	0,008	-0,025
-546,554	100,460	0,112	0,096
-545,539	-200,000	-0,011	0,052
-544,525	800,000	-0,044	0,142
-543,510	-80,985	-0,132	0,032
-542,496	-200,000	0,005	-0,052
-541,481	343,474	0,034	0,049
-540,466	-200,000	-0,006	0,037
-539,452	-145,895	0,134	-0,009
-538,437	-200,000	-0,015	0,123
-537,423	-127,711	-0,091	-0,010
-536,408	-200,000	0,001	-0,006
-535,393	800,000	-0,066	-0,139
-534,379	-200,000	0,008	0,050
-533,364	133,262	0,019	0,018
-532,350	-35,868	0,139	0,055
-531,335	-200,000	0,026	0,109
-530,321	-200,000	0,000	0,062
-529,306	-72,052	0,023	-0,006
-528,291	800,000	-0,018	0,058
-527,277	-118,593	-0,012	-0,002
-526,262	135,032	0,089	-0,086
-525,248	-9,111	-0,072	0,035
-524,233	-106,356	0,026	-0,004
-523,218	-196,468	0,020	0,000
-522,204	-200,000	-0,027	0,094
-521,189	-200,000	-0,014	0,097
-520,175	800,000	-0,016	-0,051
-519,160	-63,565	-0,082	-0,025
-518,145	564,659	0,015	0,026
-517,131	-200,000	-0,006	0,041
-516,116	-200,000	0,017	0,065
-515,102	-200,000	0,020	-0,077
-514,087	800,000	-0,072	-0,225
-513,072	800,000	0,046	-0,114
-512,058	-73,894	0,068	0,018
-511,043	-200,000	0,020	0,116
-510,029	627,041	-0,036	0,067
-509,014	-200,000	0,018	0,089
-507,999	291,030	0,038	0,052
-506,985	800,000	-0,061	-0,153
-505,970	-200,000	-0,012	0,116
-504,956	355,260	0,034	-0,050
-503,941	-78,360	0,147	-0,037
-502,926	-139,018	0,081	0,006
-501,912	12,501	-0,068	0,039
-500,897	192,700	-0,074	0,083
-499,883	-200,000	0,004	-0,077
-498,868	134,374	0,013	0,012
-497,853	512,759	0,033	-0,058
-496,839	214,821	-0,030	-0,035
-495,824	-89,606	0,061	0,013
-494,810	91,225	0,046	-0,038
-493,795	-43,995	-0,003	-0,001
-492,781	353,280	-0,035	-0,052
-491,766	-12,434	-0,032	0,015
-490,751	-72,167	-0,181	0,049
-489,737	5,186	-0,105	-0,057
-488,722	289,309	0,093	-0,125
-487,708	224,182	0,079	0,094
-486,693	-200,000	-0,011	-0,081
-485,678	800,000	-0,048	-0,122
-484,664	800,000	-0,012	-0,026
-483,649	29,814	-0,118	-0,074
-482,635	54,505	0,042	-0,030
-481,620	793,783	0,051	-0,104
-480,605	800,000	-0,049	0,115
-479,591	-200,000	0,010	0,119
-478,576	-200,000	0,022	0,123
-477,562	-54,901	-0,122	-0,040
-476,547	-200,000	0,006	0,055
-475,532	-200,000	-0,001	-0,051
-474,518	441,711	-0,055	0,089
-473,503	91,688	0,073	0,060
-472,489	30,365	0,081	0,051
-471,474	-200,000	0,003	-0,020
-470,459	-200,000	0,003	0,167
-469,445	92,000	0,057	-0,047
-468,430	-122,093	-0,129	0,015
-467,416	-30,597	0,092	0,038
-466,401	-200,000	0,015	-0,104
-465,386	350,763	0,021	0,030
-464,372	99,601	-0,071	0,061
-463,357	800,000	-0,030	-0,088
-462,343	52,181	0,039	-0,027
-461,328	106,632	0,035	0,031
-460,313	-200,000	-0,011	0,084
-459,299	145,549	-0,084	0,083
-458,284	551,989	0,045	0,080
-457,270	81,954	0,083	0,066
-456,255	550,058	-0,020	-0,035
-455,241	-148,494	-0,148	0,009
-454,226	93,125	-0,080	0,067
-453,211	-3,719	-0,061	0,031
-452,197	800,000	0,033	0,080
-451,182	156,149	0,032	0,033
-450,168	-50,510	-0,097	-0,033
-449,153	-175,804	-0,077	-0,001
-448,138	179,245	-0,053	0,057
-447,124	3,862	-0,072	-0,039
-446,109	-200,000	-0,096	0,000
-445,095	239,876	0,060	-0,074
-444,080	-200,000	-0,014	0,106
-443,065	-200,000	0,007	0,069
-442,051	-85,590	-0,076	-0,017
-441,036	-74,736	-0,098	0,026
-440,022	-200,000	0,000	-0,261
-439,007	-153,412	0,065	0,003
-437,992	2,793	-0,024	0,013
-436,978	-161,431	0,163	0,006
-435,963	-33,086	0,058	-0,023
-434,949	42,482	-0,127	-0,085
-433,934	-85,543	-0,085	0,019
-432,919	-200,000	0,149	-0,001
-431,905	462,586	-0,109	-0,180
-430,890	397,535	-0,040	0,062
-429,876	79,742	0,102	0,080
-428,861	-80,588	-0,129	-0,031
-427,846	7,485	-0,063	-0,034
-426,832	-200,000	-0,037	-0,164
-425,817	371,865	-0,020	0,030
-424,803	-200,000	-0,014	-0,053
-423,788	79,621	-0,072	0,057
-422,773	52,477	0,085	0,060
-421,759	-30,025	-0,082	0,034
-420,744	-105,129	0,156	-0,026
-419,730	508,326	-0,108	-0,184
-418,715	2,477	-0,021	0,011
-417,701	124,387	0,135	0,125
-416,686	187,689	-0,081	-0,089
-415,671	-146,193	0,085	-0,005
-414,657	-44,417	0,071	0,026
-413,642	-162,891	-0,167	0,006
-412,628	33,146	0,077	0,049
-411,613	-200,000	0,020	0,124
-410,598	-184,590	-0,198	0,002
-409,584	-200,000	-0,012	-0,059
-408,569	-134,087	0,110	0,010
-407,555	120,950	0,023	0,021
-406,540	-60,614	-0,043	0,013
-405,525	34,378	0,116	0,074
-404,511	800,000	0,027	-0,084
-403,496	-98,875	0,051	-0,009
-402,482	90,762	0,119	0,098
-401,467	77,503	0,083	0,065
-400,452	-83,532	-0,026	-0,006
-399,438	-54,876	0,018	0,006
-398,423	800,000	0,036	-0,092
-397,409	-130,475	0,133	0,013
-396,394	70,111	0,075	0,057
-395,379	153,827	-0,077	-0,077
-394,365	-109,627	0,044	-0,007
-393,350	-70,779	0,179	-0,049
-392,336	800,000	-0,039	0,095
-391,321	-36,181	-0,112	0,044
-390,306	417,552	-0,058	-0,091
-389,292	12,232	0,039	0,022
-388,277	41,846	-0,012	-0,008
-387,263	800,000	0,026	0,075
-386,248	199,042	0,066	0,074
-385,233	800,000	0,020	-0,043
-384,219	-200,000	-0,013	0,080
-383,204	143,281	0,026	-0,025
-382,190	26,809	-0,096	-0,059
-381,175	238,815	0,029	-0,035
-380,160	-138,808	0,104	0,008
-379,146	404,652	0,061	0,095
-378,131	-135,604	0,149	-0,013
-377,117	-102,166	-0,083	0,015
-376,102	345,582	-0,014	0,021
-375,088	800,000	-0,027	0,074
-374,073	800,000	-0,029	0,072
-373,058	-55,731	0,118	-0,038
-372,044	-111,606	-0,047	-0,007
-371,029	-2,072	-0,104	0,054
-370,015	296,658	-0,040	-0,054
-369,000	-200,000	-0,023	-0,085
-367,985	-65,896	-0,048	0,014
-366,971	-200,000	-0,003	-0,095
-365,956	-35,028	-0,135	-0,054
-364,942	-200,000	-0,016	0,096
-363,927	800,000	0,006	-0,014
-362,912	-200,000	0,014	0,069
-361,898	30,521	-0,073	0,045
-360,883	-157,109	-0,184	-0,008
-359,869	-200,000	0,014	0,056
-358,854	800,000	0,046	-0,118
-357,839	-200,000	0,010	-0,041
-356,825	458,328	-0,016	0,026
-355,810	800,000	0,033	0,098
-354,796	-109,217	-0,033	0,005
-353,781	800,000	-0,066	-0,191
-352,766	-158,177	-0,056	-0,002
-351,752	-200,000	-0,026	-0,195
-350,737	-200,000	0,006	0,092
-349,723	132,727	0,071	0,067
-348,708	-200,000	0,041	-0,146
-347,693	77,117	0,047	-0,036
-346,679	-35,577	-0,036	0,014
-345,664	259,928	-0,093	0,118
-344,650	-0,279	-0,136	-0,071
-343,635	800,000	0,013	0,030
-342,620	172,117	0,088	-0,093
-341,606	102,793	0,025	-0,021
-340,591	80,806	-0,022	-0,017
-339,577	-200,000	0,008	-0,112
-338,562	800,000	0,007	-0,016
-337,548	210,245	0,100	-0,116
-336,533	-114,453	0,130	0,018
-335,518	-43,786	0,116	0,042
-334,504	171,200	0,037	0,039
-333,489	18,984	-0,025	0,015
-332,475	120,921	0,073	0,067
-331,460	-128,076	-0,070	-0,007
-330,445	35,482	0,113	0,072
-329,431	54,387	0,019	-0,013
-328,416	75,882	0,077	-0,060
-327,402	-35,201	0,082	-0,033
-326,387	-97,802	0,071	-0,013
-325,372	-76,104	0,151	-0,039
-324,358	800,000	-0,047	-0,149
-323,343	-79,514	0,044	-0,011
-322,329	267,741	0,092	0,118
-321,314	-110,846	0,114	0,017
-320,299	183,976	-0,102	0,111
-319,285	-200,000	0,007	-0,038
-318,270	547,378	-0,050	-0,088
-317,256	-141,763	-0,103	0,007
-316,241	-172,930	-0,103	0,002
-315,226	245,175	0,027	-0,033
-314,212	-23,021	-0,028	0,012
-313,197	-200,000	-0,012	0,072
-312,183	-200,000	0,007	0,110
-311,168	33,168	0,032	-0,020
-310,153	728,963	-0,076	-0,150
-309,139	-200,000	0,006	-0,048
-308,124	-15,790	0,089	-0,041
-307,110	132,498	0,042	-0,039
-306,095	-200,000	0,040	0,139
-305,080	-94,952	-0,128	0,025
-304,066	99,285	0,042	-0,036
-303,051	800,000	-0,041	-0,097
-302,037	739,312	0,059	-0,116
-301,022	-52,835	0,122	0,041
-300,008	-200,000	-0,014	-0,151
-298,993	-0,052	-0,058	0,030
-297,978	740,639	0,048	0,094
-296,964	-200,000	-0,015	-0,048
-295,949	299,507	-0,049	-0,066
-294,935	-200,000	0,002	-0,015
-293,920	-200,000	0,025	-0,090
-292,905	114,674	-0,112	-0,100
-291,891	-81,982	-0,106	-0,025
-290,876	-130,514	0,115	0,011
-289,862	-200,000	-0,016	0,058
-288,847	-14,607	-0,087	-0,041
-287,832	800,000	-0,016	-0,048
-286,818	-116,640	0,100	0,013
-285,803	465,642	-0,046	0,075
-284,789	-157,915	0,020	-0,001
-283,774	-200,000	0,023	-0,084
-282,759	-73,778	-0,049	-0,013
-281,745	18,087	-0,111	-0,064
-280,730	800,000	-0,076	0,162
-279,716	135,061	-0,095	0,090
-278,701	800,000	0,020	0,042
-277,686	34,348	0,188	-0,119
-276,672	-200,000	0,001	0,133
-275,657	53,459	-0,031	0,022
-274,643	-200,000	-0,008	-0,048
-273,628	183,472	0,121	-0,131
-272,613	-200,000	-0,006	0,032
-271,599	-200,000	-0,009	-0,109
-270,584	14,154	-0,079	0,045
-269,570	432,967	0,068	-0,107
-268,555	268,566	0,030	-0,039
-267,540	71,272	-0,035	-0,026
-266,526	-11,083	0,103	-0,050
-265,511	-24,314	0,056	-0,024
-264,497	138,504	0,092	-0,089
-263,482	249,290	-0,082	0,102
-262,467	5,674	0,129	0,070
-261,453	265,869	-0,082	0,105
-260,438	-200,000	0,009	0,044
-259,424	-13,934	0,128	0,060
-258,409	475,489	-0,027	-0,045
-257,395	116,287	-0,025	0,023
-256,380	101,817	0,067	0,057
-255,365	-200,000	-0,027	0,190
-254,351	-104,148	-0,051	-0,009
-253,336	-200,000	0,003	0,149
-252,322	85,593	-0,019	-0,016
-251,307	-78,401	-0,075	0,019
-250,292	162,682	0,065	-0,066
-249,278	-165,733	0,146	-0,005
-248,263	46,013	-0,050	-0,034
-247,249	-200,000	0,036	0,171
-246,234	7,463	-0,155	-0,084
-245,219	-85,262	-0,077	-0,017
-244,205	105,930	-0,026	-0,022
-243,190	37,334	-0,080	-0,052
-242,176	-101,995	0,111	0,019
-241,161	606,389	0,114	0,208
-240,146	800,000	0,025	-0,076
-239,132	-136,579	-0,070	-0,006
-238,117	314,625	0,085	-0,117
-237,103	-114,911	0,086	-0,012
-236,088	-100,703	-0,158	0,028
-235,073	728,995	0,009	0,017
-234,059	334,315	0,021	0,029
-233,044	-200,000	0,145	-0,000
-232,030	-80,110	0,032	0,008
-231,015	800,000	-0,040	0,099
-230,000	-200,000	0,005	0,071
-228,986	-19,806	-0,091	0,041
-227,971	800,000	-0,055	-0,120
-226,957	490,170	-0,029	0,048
-225,942	-200,000	-0,010	0,038
-224,927	800,000	-0,037	0,115
-223,913	-200,000	0,021	-0,133
-222,898	-1,585	0,072	-0,037
-221,884	67,748	0,064	0,047
-220,869	224,580	0,144	0,170
-219,855	306,134	-0,050	-0,067
-218,840	800,000	0,021	0,065
-217,825	33,798	0,043	0,027
-216,811	-200,000	0,004	-0,028
-215,796	-200,000	-0,024	-0,156
-214,782	-124,045	0,028	-0,003
-213,767	-200,000	-0,019	0,094
-212,752	800,000	-0,018	-0,053
-211,738	800,000	-0,025	-0,058
-210,723	694,547	-0,041	0,078
-209,709	800,000	0,050	0,154
-208,694	-10,504	-0,153	0,074
-207,679	800,000	0,012	0,026
-206,665	72,493	-0,093	-0,071
-205,650	80,078	-0,059	0,047
-204,636	2,828	0,153	-0,081
-203,621	179,738	-0,049	-0,052
-202,606	155,386	-0,092	0,093
-201,592	624,213	-0,021	-0,039
-200,577	335,508	0,008	-0,012
-199,563	-66,028	-0,068	-0,020
-198,548	220,530	0,072	-0,084
-197,533	-200,000	-0,013	-0,070
-196,519	-200,000	0,014	0,097
-195,504	133,145	0,019	0,018
-194,490	800,000	-0,015	-0,043
-193,475	800,000	0,032	-0,087
-192,460	-192,334	0,131	0,001
-191,446	-200,000	-0,012	0,111
-190,431	-185,774	0,093	0,001
-189,417	172,431	-0,055	-0,058
-188,402	-200,000	-0,019	-0,127
-187,387	-52,462	-0,107	-0,036
-186,373	-61,557	-0,124	-0,038
-185,358	773,918	-0,040	-0,080
-184,344	800,000	0,039	0,080
-183,329	266,240	-0,053	0,068
-182,315	43,276	-0,028	0,019
-181,300	153,296	-0,014	0,014
-180,285	6,234	0,060	-0,032
-179,271	257,596	-0,017	-0,022
-178,256	314,715	0,096	-0,132
-177,242	-71,781	-0,207	-0,056
-176,227	-23,454	-0,052	-0,023
-175,212	-200,000	0,008	0,054
-174,198	-87,270	0,140	-0,031
-173,183	703,574	0,042	-0,082
-172,169	-200,000	-0,003	0,029
-171,154	286,869	-0,006	0,008
-170,139	-200,000	-0,009	0,088
-169,125	-200,000	-0,004	-0,046
-168,110	58,334	0,060	0,043
-167,096	22,653	-0,154	-0,091
-166,081	72,471	0,026	-0,020
-165,066	-200,000	-0,009	-0,066
-164,052	800,000	0,043	-0,132
-163,037	264,524	0,013	0,017
-162,023	-200,000	0,013	-0,085
-161,008	367,253	0,036	-0,054
-159,993	415,493	-0,012	-0,019
-158,979	53,140	-0,082	0,057
-157,964	-200,000	-0,031	-0,103
-156,950	52,080	0,022	0,015
-155,935	800,000	0,014	0,043
-154,920	-175,795	0,089	-0,002
-153,906	-67,052	0,017	0,005
-152,891	637,356	-0,050	-0,093
-151,877	800,000	0,012	0,026
-150,862	-80,325	-0,072	-0,017
-149,847	113,169	-0,078	-0,069
-148,833	800,000	-0,009	-0,019
-147,818	-78,539	0,025	0,006
-146,804	-128,357	-0,026	-0,003
-145,789	306,911	0,080	-0,108
-144,775	-42,668	-0,136	-0,050
-143,760	685,620	-0,051	-0,097
-142,745	-25,607	0,088	-0,037
-141,731	-92,181	0,112	-0,023
-140,716	-74,038	0,114	0,030
-139,702	-200,000	0,000	0,111
-138,687	302,962	-0,076	0,103
-137,672	353,615	-0,037	-0,054
-136,658	800,000	0,021	-0,044
-135,643	-55,435	-0,106	-0,034
-134,629	-200,000	-0,002	-0,047
-133,614	-148,550	0,022	0,001
-132,599	-115,773	0,109	0,015
-131,585	-200,000	0,017	-0,089
-130,570	-17,315	-0,071	0,033
-129,556	-200,000	-0,033	-0,180
-128,541	-200,000	0,017	-0,073
-127,526	485,816	-0,032	-0,054
-126,512	744,606	-0,036	0,071
-125,497	400,110	-0,042	0,064
-124,483	3,832	0,041	-0,022
-123,468	-99,252	-0,125	0,023
-122,453	723,025	-0,045	-0,087
-121,439	400,836	-0,041	-0,063
-120,424	-144,308	0,028	0,002
-119,410	-1,751	0,193	0,098
