DTS Sentinel unit serial number:	SN410029Multiplexer serial number:	ORYXHardware model number:	OX2-SRSoftware version number:	ORYX F/W v4,00 Oryx Data Collector v3.7.2.0data status	okinstallation	B4 Nyhavnadifferential loss correction	single-endedforward channel	channel 2reverse channel	N/Adate	2023/12/18time	15:00:13forward acquisition time	300,00reverse acquisition time	0,00gamma	499,1914k internal	0,3201k external	0,3201temperature offset calibration	1,0000default loss term (dB/km)	0,3820temperature slope calibration	1,0000multiplexer offset coefficient	1,0000multiplexer slope coefficient	1,0000fibre end	0,00T internal ref (°C)	10,32T ext. ref 1 (°C)	7,10T ext. ref 2 (°C)	7,19length (m)	temperature (°C)	Stokes	anti-Stokes-744,400	-200,000	-0,003	0,083
-743,385	-36,938	-0,260	-0,101
-742,371	800,000	0,016	-0,046
-741,356	-102,665	-0,316	-0,054
-740,342	137,834	0,092	0,087
-739,327	-127,363	-0,385	0,040
-738,312	39,866	0,071	0,046
-737,298	-123,467	-0,465	-0,053
-736,283	79,327	0,209	0,163
-735,269	17,212	-0,217	0,125
-734,254	-92,044	0,077	-0,016
-733,239	-60,860	-0,577	-0,176
-732,225	-153,677	0,224	-0,011
-731,210	-87,035	0,093	-0,020
-730,196	-200,000	-0,012	0,044
-729,181	219,928	0,036	-0,043
-728,167	181,310	0,045	-0,048
-727,152	-0,691	-0,043	-0,022
-726,137	-42,533	-0,183	0,068
-725,123	800,000	-0,087	0,225
-724,108	-200,000	-0,025	-0,139
-723,094	-38,043	0,075	0,029
-722,079	388,255	-0,102	-0,154
-721,064	-200,000	-0,003	-0,024
-720,050	-200,000	0,004	-0,077
-719,035	-27,232	-0,107	0,045
-718,021	105,878	-0,068	0,058
-717,006	301,780	-0,060	-0,081
-715,991	800,000	-0,014	-0,029
-714,977	328,547	0,061	-0,086
-713,962	-200,000	-0,027	0,141
-712,948	627,514	-0,050	-0,091
-711,933	148,745	0,115	0,113
-710,918	-200,000	-0,007	-0,110
-709,904	-200,000	-0,004	-0,020
-708,889	25,363	-0,018	-0,011
-707,875	-200,000	-0,026	-0,099
-706,860	-109,513	0,079	0,012
-705,845	307,954	-0,127	0,173
-704,831	-162,232	-0,049	-0,002
-703,816	-9,042	-0,060	-0,029
-702,802	372,722	-0,020	-0,029
-701,787	-127,326	-0,228	0,024
-700,772	50,746	-0,111	-0,076
-699,758	31,555	0,054	-0,034
-698,743	429,528	0,097	-0,153
-697,729	737,018	-0,011	0,021
-696,714	-200,000	-0,008	0,077
-695,699	-200,000	-0,016	-0,079
-694,685	-78,279	0,063	0,016
-693,670	205,187	-0,041	-0,046
-692,656	-200,000	0,023	-0,085
-691,641	10,207	0,161	-0,088
-690,627	-200,000	-0,010	-0,198
-689,612	-200,000	-0,031	0,127
-688,597	-56,623	-0,090	0,029
-687,583	11,241	-0,084	-0,046
-686,568	277,200	0,090	-0,117
-685,554	278,042	-0,031	-0,041
-684,539	-39,930	-0,194	0,073
-683,524	-38,237	0,133	-0,051
-682,510	-107,611	-0,082	-0,013
-681,495	800,000	0,030	-0,084
-680,481	281,526	-0,018	-0,023
-679,466	664,138	0,031	-0,059
-678,451	220,961	-0,093	-0,108
-677,437	-200,000	-0,022	0,076
-676,422	-91,528	0,130	-0,027
-675,408	-200,000	-0,039	0,125
-674,393	-47,116	-0,083	0,029
-673,378	-200,000	-0,014	-0,073
-672,364	-25,070	-0,103	0,044
-671,349	-200,000	-0,013	0,048
-670,335	-137,359	0,106	0,009
-669,320	-138,493	-0,041	-0,003
-668,305	-200,000	0,013	-0,130
-667,291	7,341	0,015	0,008
-666,276	-200,000	-0,002	-0,044
-665,262	233,285	-0,031	-0,038
-664,247	559,710	-0,020	0,035
-663,232	-200,000	-0,010	-0,090
-662,218	-196,828	0,069	0,000
-661,203	31,762	-0,071	0,044
-660,189	-200,000	-0,001	0,149
-659,174	157,049	-0,096	-0,096
-658,159	800,000	0,052	-0,131
-657,145	13,398	0,073	-0,041
-656,130	468,496	0,033	-0,054
-655,116	-200,000	0,023	0,088
-654,101	6,627	-0,052	0,028
-653,086	-200,000	-0,008	-0,077
-652,072	-96,584	0,074	0,014
-651,057	-15,329	-0,178	-0,082
-650,043	550,739	0,070	-0,122
-649,028	-6,418	0,119	0,058
-648,014	159,398	-0,034	0,034
-646,999	18,053	0,039	0,023
-645,984	60,356	0,117	0,084
-644,970	-135,488	-0,129	0,011
-643,955	800,000	-0,045	-0,091
-642,941	425,144	-0,072	-0,113
-641,926	44,898	0,148	-0,099
-640,911	-75,225	0,093	0,024
-639,897	260,332	-0,041	0,051
-638,882	-134,828	0,128	-0,011
-637,868	199,150	-0,015	-0,017
-636,853	-146,284	-0,074	-0,005
-635,838	-34,502	-0,090	0,036
-634,824	24,721	-0,055	-0,033
-633,809	2,902	-0,020	0,010
-632,795	-119,392	-0,125	-0,016
-631,780	-200,000	-0,016	-0,114
-630,765	-200,000	-0,014	0,056
-629,751	-200,000	0,012	-0,182
-628,736	-69,432	-0,260	-0,072
-627,722	800,000	-0,063	0,158
-626,707	-200,000	0,003	-0,081
-625,692	-25,775	-0,054	0,023
-624,678	800,000	0,004	0,010
-623,663	298,857	0,020	0,027
-622,649	-200,000	0,003	0,060
-621,634	212,470	-0,100	0,114
-620,619	800,000	0,059	-0,127
-619,605	52,731	0,039	-0,027
-618,590	32,471	0,088	-0,055
-617,576	-42,690	0,131	0,048
-616,561	-200,000	0,065	-0,000
-615,546	800,000	-0,046	0,108
-614,532	114,948	0,023	-0,020
-613,517	-200,000	-0,002	-0,151
-612,503	209,861	-0,068	-0,077
-611,488	187,034	0,042	0,045
-610,474	-200,000	-0,029	0,141
-609,459	800,000	0,056	-0,131
-608,444	-200,000	-0,020	-0,231
-607,430	49,390	-0,088	0,060
-606,415	-76,317	-0,101	0,026
-605,401	800,000	-0,031	0,077
-604,386	85,455	-0,060	0,048
-603,371	-77,144	-0,020	-0,005
-602,357	-112,651	0,139	-0,020
-601,342	552,859	-0,045	0,078
-600,328	263,705	-0,074	0,093
-599,313	194,608	0,052	0,057
-598,298	68,323	0,040	-0,029
-597,284	-196,641	0,091	0,000
-596,269	-200,000	0,010	0,040
-595,255	199,798	-0,041	0,045
-594,240	-57,226	-0,045	0,014
-593,225	537,879	-0,069	-0,119
-592,211	-11,152	-0,104	0,049
-591,196	-150,529	0,103	-0,006
-590,182	92,902	-0,061	0,050
-589,167	-137,783	-0,030	-0,002
-588,152	-200,000	-0,013	-0,056
-587,138	-109,441	-0,133	0,020
-586,123	-200,000	-0,032	0,176
-585,109	139,036	-0,046	-0,044
-584,094	-200,000	0,010	0,065
-583,079	-65,822	0,016	-0,005
-582,065	-117,620	-0,053	0,007
-581,050	-115,560	-0,125	-0,017
-580,036	800,000	0,040	-0,105
-579,021	120,144	-0,082	-0,073
-578,006	74,852	-0,075	0,057
-576,992	-122,484	0,071	0,008
-575,977	-140,253	0,110	-0,008
-574,963	800,000	0,083	-0,168
-573,948	461,378	0,096	0,155
-572,934	139,381	-0,062	-0,059
-571,919	372,553	-0,019	-0,028
-570,904	231,498	-0,120	-0,142
-569,890	-200,000	0,013	-0,078
-568,875	235,338	-0,076	-0,091
-567,861	320,803	-0,038	0,052
-566,846	529,669	-0,091	0,156
-565,831	123,904	-0,091	0,082
-564,817	-58,624	-0,014	0,004
-563,802	-167,236	-0,094	-0,003
-562,788	495,869	-0,056	0,094
-561,773	-153,476	0,097	0,005
-560,758	120,802	0,053	0,048
-559,744	105,644	0,056	-0,048
-558,729	-200,000	0,015	0,072
-557,715	-200,000	-0,011	0,064
-556,700	-101,524	-0,145	0,025
-555,685	-200,000	-0,000	0,036
-554,671	61,721	-0,092	-0,066
-553,656	2,512	0,105	0,055
-552,642	174,315	0,029	0,030
-551,627	-56,987	0,047	-0,015
-550,612	141,731	-0,045	-0,043
-549,598	-45,102	0,032	-0,011
-548,583	-3,192	-0,070	-0,035
-547,569	15,302	0,058	-0,033
-546,554	-81,686	0,097	0,023
-545,539	-200,000	0,017	0,092
-544,525	-72,333	0,131	-0,035
-543,510	800,000	-0,056	-0,123
-542,496	-200,000	0,004	-0,099
-541,481	800,000	-0,064	-0,166
-540,466	800,000	0,019	-0,040
-539,452	758,626	0,013	0,026
-538,437	118,001	0,067	-0,060
-537,423	-20,318	-0,176	-0,078
-536,408	800,000	-0,024	-0,070
-535,393	-25,535	0,047	0,020
-534,379	114,344	-0,055	-0,048
-533,364	-25,051	-0,098	-0,042
-532,350	800,000	-0,048	0,105
-531,335	800,000	0,006	-0,015
-530,321	-112,534	0,246	0,035
-529,306	-200,000	-0,005	0,024
-528,291	-68,444	-0,043	0,012
-527,277	316,992	-0,055	-0,075
-526,262	800,000	0,047	0,116
-525,248	11,807	0,102	0,057
-524,233	800,000	0,054	0,127
-523,218	800,000	-0,038	0,109
-522,204	-51,128	0,038	0,013
-521,189	-200,000	-0,008	-0,026
-520,175	-22,604	-0,162	0,070
-519,160	-200,000	-0,038	0,180
-518,145	127,683	-0,032	-0,030
-517,131	-200,000	-0,007	0,091
-516,116	121,020	0,110	0,099
-515,102	-200,000	-0,008	0,046
-514,087	-200,000	0,003	0,033
-513,072	800,000	0,004	-0,010
-512,058	157,110	0,121	-0,121
-511,043	600,553	0,041	-0,073
-510,029	800,000	0,013	0,032
-509,014	77,255	0,037	-0,029
-507,999	-200,000	0,005	0,109
-506,985	-104,551	0,103	-0,017
-505,970	-200,000	0,010	0,051
-504,956	800,000	-0,045	-0,116
-503,941	-200,000	-0,018	0,198
-502,926	800,000	0,026	-0,070
-501,912	141,350	0,030	0,029
-500,897	393,980	-0,045	0,067
-499,883	-200,000	0,004	0,027
-498,868	115,032	-0,020	-0,017
-497,853	23,813	-0,027	0,016
-496,839	-200,000	-0,010	-0,042
-495,824	-200,000	0,004	-0,117
-494,810	173,781	-0,044	-0,046
-493,795	-52,254	-0,074	-0,025
-492,781	-32,225	-0,059	-0,024
-491,766	161,618	0,064	-0,064
-490,751	60,751	-0,119	-0,085
-489,737	800,000	0,047	0,108
-488,722	-101,212	0,048	0,008
-487,708	-200,000	-0,002	-0,082
-486,693	-152,804	0,062	-0,003
-485,678	-200,000	0,028	0,117
-484,664	78,308	-0,070	0,054
-483,649	-200,000	-0,002	0,052
-482,635	-86,596	0,051	0,011
-481,620	15,131	-0,051	0,028
-480,605	800,000	0,016	-0,039
-479,591	-95,895	0,157	-0,030
-478,576	-130,678	0,124	0,012
-477,562	-125,555	-0,048	-0,005
-476,547	137,679	-0,029	0,027
-475,532	-21,389	-0,024	-0,011
-474,518	-200,000	0,002	-0,008
-473,503	-40,308	-0,020	0,007
-472,489	-200,000	0,029	-0,107
-471,474	-112,503	-0,014	-0,002
-470,459	-200,000	0,006	-0,030
-469,445	-159,571	0,121	0,005
-468,430	-15,875	0,065	0,030
-467,416	-200,000	-0,027	0,131
-466,401	188,057	0,084	-0,090
-465,386	-200,000	-0,003	0,097
-464,372	800,000	-0,028	-0,066
-463,357	43,261	-0,048	0,031
-462,343	562,572	-0,049	-0,085
-461,328	337,538	0,055	0,078
-460,313	385,579	-0,027	-0,041
-459,299	800,000	0,024	-0,048
-458,284	-66,663	0,122	-0,035
-457,270	98,740	-0,098	-0,082
-456,255	-6,058	0,112	-0,055
-455,241	-2,391	-0,066	-0,033
-454,226	258,650	-0,085	0,105
-453,211	-200,000	0,018	0,074
-452,197	335,590	-0,076	-0,107
-451,182	800,000	0,041	0,120
-450,168	-200,000	0,005	0,121
-449,153	-23,205	-0,055	-0,024
-448,138	556,361	0,018	0,031
-447,124	-200,000	-0,007	0,040
-446,109	-200,000	0,034	0,118
-445,095	-6,781	0,156	-0,076
-444,080	-45,403	0,058	-0,021
-443,065	-200,000	-0,006	0,063
-442,051	-200,000	0,002	-0,089
-441,036	154,125	-0,041	-0,040
-440,022	-138,585	-0,097	0,008
-439,007	-200,000	-0,005	-0,089
-437,992	800,000	-0,050	0,118
-436,978	578,036	0,028	-0,050
-435,963	-200,000	0,002	0,006
-434,949	-200,000	0,007	-0,064
-433,934	15,659	-0,096	-0,054
-432,919	800,000	0,030	0,071
-431,905	-39,255	-0,130	-0,049
-430,890	60,102	0,087	-0,062
-429,876	518,848	0,029	0,050
-428,861	514,100	-0,040	-0,067
-427,846	-200,000	-0,050	0,183
-426,832	92,806	-0,026	-0,021
-425,817	800,000	-0,039	-0,094
-424,803	13,819	0,060	0,033
-423,788	193,646	0,101	-0,110
-422,773	527,579	-0,068	0,115
-421,759	780,625	0,024	0,046
-420,744	114,814	-0,142	-0,124
-419,730	167,627	0,026	-0,026
-418,715	108,565	-0,075	-0,064
-417,701	-114,193	-0,090	0,012
-416,686	71,663	0,074	-0,055
-415,671	116,136	-0,062	0,055
-414,657	-200,000	-0,002	-0,025
-413,642	-200,000	-0,003	-0,021
-412,628	-104,281	0,085	0,014
-411,613	90,784	0,081	-0,065
-410,598	-200,000	0,012	-0,127
-409,584	345,785	0,074	0,105
-408,569	-113,121	0,029	0,004
-407,555	55,981	-0,068	0,047
-406,540	-85,446	-0,111	0,025
-405,525	-137,235	-0,056	-0,005
-404,511	800,000	0,058	-0,130
-403,496	398,806	0,040	-0,060
-402,482	49,352	-0,130	0,088
-401,467	-53,014	-0,015	0,005
-400,452	-19,134	0,117	0,052
-399,438	-200,000	0,007	-0,035
-398,423	-200,000	-0,005	0,096
-397,409	-200,000	-0,015	-0,100
-396,394	-200,000	-0,026	-0,093
-395,379	-20,827	0,187	0,082
-394,365	323,435	0,038	0,053
-393,350	100,195	0,159	0,132
-392,336	-200,000	-0,027	0,093
-391,321	-23,114	0,018	0,008
-390,306	800,000	-0,012	0,026
-389,292	-61,588	0,040	0,012
-388,277	-188,000	0,073	-0,001
-387,263	800,000	0,044	-0,100
-386,248	-117,992	0,083	-0,011
-385,233	-62,433	-0,035	-0,010
-384,219	241,311	-0,014	0,017
-383,204	-153,881	0,087	-0,004
-382,190	4,381	0,108	0,056
-381,175	192,341	-0,040	-0,043
-380,160	237,816	-0,030	-0,036
-379,146	234,384	0,051	0,060
-378,131	800,000	0,023	-0,062
-377,117	177,432	-0,061	-0,064
-376,102	-149,530	-0,139	-0,008
-375,088	-200,000	-0,006	-0,063
-374,073	401,071	-0,070	0,106
-373,058	154,030	-0,081	0,080
-372,044	11,912	0,153	-0,084
-371,029	800,000	0,023	0,062
-370,015	101,417	0,074	-0,062
-369,000	-200,000	-0,026	-0,146
-367,985	206,461	-0,065	-0,073
-366,971	106,789	0,042	-0,036
-365,956	-200,000	0,028	0,144
-364,942	-200,000	0,014	-0,119
-363,927	156,608	0,099	-0,098
-362,912	-200,000	0,003	-0,069
-361,898	101,272	-0,092	-0,077
-360,883	800,000	-0,036	-0,079
-359,869	139,989	-0,053	0,050
-358,854	800,000	-0,032	-0,078
-357,839	-58,469	0,194	-0,060
-356,825	800,000	0,043	0,105
-355,810	-200,000	0,018	0,074
-354,796	167,650	0,085	-0,087
-353,781	-78,628	-0,053	-0,013
-352,766	-56,656	0,046	-0,014
-351,752	-200,000	-0,035	0,145
-350,737	167,016	0,057	0,058
-349,723	321,412	0,059	0,081
-348,708	-200,000	0,028	0,213
-347,693	-56,024	-0,128	-0,041
-346,679	800,000	0,045	-0,122
-345,664	613,144	-0,025	-0,045
-344,650	-200,000	-0,018	-0,093
-343,635	800,000	-0,024	0,058
-342,620	-58,243	-0,135	0,042
-341,606	800,000	0,054	0,127
-340,591	-10,079	-0,067	0,032
-339,577	-200,000	-0,009	-0,105
-338,562	-69,476	-0,158	0,043
-337,548	800,000	0,026	0,075
-336,533	-200,000	0,013	0,142
-335,518	564,024	-0,027	0,047
-334,504	361,214	0,087	0,125
-333,489	101,533	-0,033	0,027
-332,475	116,603	0,122	0,107
-331,460	-200,000	0,006	0,044
-330,445	66,098	-0,107	-0,077
-329,431	10,934	0,023	-0,013
-328,416	364,831	0,035	0,050
-327,402	458,163	0,011	-0,018
-326,387	-137,401	0,016	-0,001
-325,372	-107,041	-0,065	-0,010
-324,358	190,742	-0,010	0,010
-323,343	-200,000	-0,003	-0,132
-322,329	-69,321	0,080	0,022
-321,314	-200,000	-0,002	0,175
-320,299	-161,407	-0,042	-0,002
-319,285	62,609	-0,147	0,105
-318,270	-95,638	0,034	-0,006
-317,256	475,244	0,041	0,066
-316,241	-200,000	-0,005	-0,036
-315,226	647,878	0,045	-0,083
-314,212	28,232	-0,093	0,056
-313,197	-42,166	-0,145	0,053
-312,183	-174,633	-0,054	0,001
-311,168	151,578	-0,090	-0,088
-310,153	34,324	0,076	-0,047
-309,139	-200,000	0,003	-0,012
-308,124	64,066	0,033	-0,024
-307,110	26,190	0,091	0,054
-306,095	279,692	-0,046	0,059
-305,080	800,000	0,016	0,044
-304,066	-34,342	-0,071	-0,028
-303,051	-81,834	-0,065	0,015
-302,037	651,608	0,010	0,019
-301,022	224,347	-0,027	-0,032
-300,008	166,471	0,079	-0,080
-298,993	-33,681	0,108	-0,042
-297,978	800,000	-0,022	-0,058
-296,964	-151,343	0,041	-0,002
-295,949	800,000	0,039	-0,120
-294,935	248,179	0,013	-0,016
-293,920	-165,388	0,067	0,002
-292,905	-200,000	0,015	0,062
-291,891	-200,000	0,004	0,035
-290,876	-200,000	0,021	0,085
-289,862	800,000	-0,007	0,015
-288,847	-200,000	0,018	-0,060
-287,832	-74,492	-0,065	-0,017
-286,818	-200,000	-0,006	0,040
-285,803	-145,813	0,066	-0,004
-284,789	-200,000	0,006	0,104
-283,774	617,674	-0,062	0,112
-282,759	-200,000	0,009	-0,069
-281,745	176,421	-0,085	-0,088
-280,730	79,407	-0,013	0,010
-279,716	-200,000	-0,023	-0,137
-278,701	-200,000	-0,004	0,083
-277,686	711,259	-0,053	0,101
-276,672	264,877	0,049	0,062
-275,657	-200,000	0,003	-0,032
-274,643	-200,000	0,016	-0,118
-273,628	-200,000	-0,055	-0,179
-272,613	-200,000	0,009	0,043
-271,599	64,981	0,093	0,067
-270,584	121,042	-0,055	0,049
-269,570	800,000	0,015	-0,038
-268,555	364,231	-0,015	-0,021
-267,540	46,582	-0,136	0,090
-266,526	62,994	-0,091	-0,065
-265,511	264,421	-0,058	0,073
-264,497	-200,000	-0,008	0,034
-263,482	-47,154	-0,106	0,037
-262,467	334,057	0,044	-0,060
-261,453	-80,372	0,188	-0,045
-260,438	165,884	-0,129	-0,130
-259,424	-119,694	-0,098	0,012
-258,409	366,830	-0,006	0,009
-257,395	249,547	0,072	0,087
-256,380	-35,884	0,223	-0,086
-255,365	327,382	0,046	-0,063
-254,351	-51,051	0,083	0,028
-253,336	800,000	-0,035	-0,100
-252,322	800,000	0,045	-0,098
-251,307	467,463	0,047	0,075
-250,292	-101,617	0,101	-0,017
-249,278	-136,208	0,177	-0,015
-248,263	319,647	0,051	-0,069
-247,249	-200,000	0,022	0,082
-246,234	254,114	-0,044	-0,053
-245,219	81,753	0,085	-0,065
-244,205	-123,949	-0,126	-0,014
-243,190	18,201	0,057	0,032
-242,176	-200,000	-0,011	-0,048
-241,161	-200,000	0,006	-0,066
-240,146	-200,000	-0,004	0,111
-239,132	-200,000	0,016	-0,114
-238,117	13,443	0,070	-0,039
-237,103	-72,126	0,171	-0,045
-236,088	748,402	-0,070	0,135
-235,073	-200,000	0,011	0,066
-234,059	-129,333	0,114	0,011
-233,044	17,439	0,108	0,061
-232,030	16,677	-0,042	-0,024
-231,015	-200,000	-0,004	-0,063
-230,000	89,049	-0,026	-0,021
-228,986	-54,886	-0,098	-0,031
-227,971	8,732	0,108	0,058
-226,957	149,258	-0,063	0,061
-225,942	117,089	0,117	-0,103
-224,927	183,714	-0,039	0,041
-223,913	75,540	-0,159	-0,119
-222,898	800,000	0,058	-0,133
-221,884	-200,000	-0,028	-0,140
-220,869	-32,723	-0,100	0,040
-219,855	88,246	0,106	-0,083
-218,840	-33,720	-0,091	0,036
-217,825	-200,000	0,028	0,186
-216,811	-200,000	-0,011	0,042
-215,796	-200,000	-0,054	-0,189
-214,782	118,496	0,055	0,049
-213,767	-108,966	-0,019	0,003
-212,752	625,068	-0,018	-0,033
-211,738	-64,460	-0,124	0,036
-210,723	800,000	0,027	0,082
-209,709	72,356	-0,024	0,018
-208,694	-27,385	-0,166	0,069
-207,679	-23,472	-0,126	-0,054
-206,665	-89,954	0,117	0,024
-205,650	149,818	-0,099	-0,095
-204,636	138,925	0,083	0,077
-203,621	-19,514	0,084	-0,037
-202,606	800,000	0,032	0,081
-201,592	-200,000	0,007	-0,086
-200,577	-81,518	-0,051	0,012
-199,563	-171,969	0,086	-0,002
-198,548	800,000	0,049	-0,150
-197,533	800,000	0,055	0,139
-196,519	-200,000	-0,026	0,089
-195,504	-200,000	-0,020	0,144
-194,490	319,491	0,042	0,057
-193,475	-200,000	-0,007	-0,089
-192,460	231,068	-0,024	0,028
-191,446	-104,242	0,102	0,017
-190,431	88,019	-0,117	0,092
-189,417	2,587	0,054	0,028
-188,402	14,925	0,058	-0,032
-187,387	-101,749	0,090	-0,015
-186,373	-200,000	-0,022	-0,168
-185,358	425,472	0,033	0,051
-184,344	800,000	0,064	0,174
-183,329	800,000	0,098	-0,256
-182,315	-133,860	0,126	-0,011
-181,300	-19,976	0,059	0,026
-180,285	459,304	0,036	0,057
-179,271	82,171	-0,065	-0,050
-178,256	800,000	0,052	-0,113
-177,242	59,586	0,127	0,089
-176,227	8,403	-0,055	0,029
-175,212	-19,408	0,103	-0,045
-174,198	83,880	-0,064	-0,049
-173,183	90,261	-0,094	-0,075
-172,169	166,880	-0,105	-0,106
-171,154	224,758	-0,053	-0,061
-170,139	560,816	0,027	-0,047
-169,125	-81,167	-0,113	0,026
-168,110	48,064	0,129	0,085
-167,096	-70,378	-0,063	0,017
-166,081	-200,000	-0,025	0,119
-165,066	201,038	0,033	-0,036
-164,052	73,729	-0,156	-0,117
-163,037	393,981	0,036	0,054
-162,023	263,057	0,077	0,095
-161,008	-66,003	-0,156	0,044
-159,993	800,000	-0,017	0,044
-158,979	-200,000	-0,014	-0,071
-157,964	-200,000	-0,011	-0,114
-156,950	635,116	0,041	0,074
-155,935	-200,000	-0,028	0,104
-154,920	23,733	-0,128	0,075
-153,906	-200,000	-0,010	0,127
-152,891	800,000	-0,042	-0,122
-151,877	-200,000	-0,010	0,049
-150,862	-200,000	-0,019	0,116
-149,847	-200,000	0,012	-0,073
-148,833	-200,000	0,010	-0,035
-147,818	144,895	0,093	0,089
-146,804	-200,000	0,011	0,076
-145,789	115,910	0,188	0,163
-144,775	-72,060	-0,109	0,028
-143,760	329,996	0,068	-0,094
-142,745	180,768	-0,024	0,025
-141,731	209,271	-0,014	0,016
-140,716	41,819	0,109	-0,070
-139,702	242,650	0,082	-0,097
-138,687	78,362	-0,129	0,098
-137,672	-200,000	-0,003	-0,027
-136,658	325,143	0,017	-0,024
-135,643	800,000	0,028	-0,073
-134,629	-24,664	-0,075	-0,032
-133,614	800,000	-0,002	0,005
-132,599	-200,000	0,009	-0,047
-131,585	-130,212	0,065	0,006
-130,570	800,000	0,036	-0,086
-129,556	-32,740	-0,074	-0,029
-128,541	-8,723	-0,053	-0,025
-127,526	-200,000	-0,012	0,076
-126,512	332,950	-0,024	0,033
-125,497	800,000	-0,021	0,044
-124,483	-200,000	-0,021	0,116
-123,468	-10,577	-0,039	0,018
-122,453	-102,572	-0,063	0,011
-121,439	800,000	0,032	-0,097
-120,424	-200,000	-0,007	-0,077
