DTS Sentinel unit serial number:	SN410029Multiplexer serial number:	ORYXHardware model number:	OX2-SRSoftware version number:	ORYX F/W v4,00 Oryx Data Collector v3.7.2.0data status	okinstallation	B4 Nyhavnadifferential loss correction	single-endedforward channel	channel 2reverse channel	N/Adate	2023/12/19time	04:30:13forward acquisition time	300,00reverse acquisition time	0,00gamma	499,1914k internal	0,3127k external	0,3127temperature offset calibration	1,0000default loss term (dB/km)	0,3820temperature slope calibration	1,0000multiplexer offset coefficient	1,0000multiplexer slope coefficient	1,0000fibre end	0,00T internal ref (°C)	20,93T ext. ref 1 (°C)	6,19T ext. ref 2 (°C)	6,28length (m)	temperature (°C)	Stokes	anti-Stokes-744,400	800,000	-0,062	-0,153
-743,385	240,801	-0,125	0,155
-742,371	-200,000	0,014	0,121
-741,356	-200,000	-0,035	0,262
-740,342	40,770	-0,081	0,055
-739,327	-70,973	-0,258	0,072
-738,312	-200,000	-0,022	-0,074
-737,298	-36,506	-0,198	0,079
-736,283	-136,686	-0,055	-0,005
-735,269	-103,132	-0,209	0,036
-734,254	-200,000	0,029	-0,109
-733,239	-91,808	-0,394	-0,082
-732,225	-47,276	0,223	-0,080
-731,210	-29,111	-0,074	-0,031
-730,196	-84,421	-0,175	-0,041
-729,181	800,000	-0,030	0,081
-728,167	-200,000	-0,009	0,048
-727,152	-20,137	-0,065	0,030
-726,137	-145,025	0,046	-0,003
-725,123	-105,093	-0,177	0,030
-724,108	800,000	0,022	0,067
-723,094	-0,002	-0,193	-0,102
-722,079	-46,984	-0,119	-0,043
-721,064	297,328	0,012	0,016
-720,050	-117,913	-0,053	0,007
-719,035	-200,000	0,004	-0,140
-718,021	147,134	-0,085	0,085
-717,006	-85,046	-0,017	0,004
-715,991	147,418	-0,056	0,056
-714,977	-200,000	0,022	-0,091
-713,962	-89,366	-0,096	-0,021
-712,948	551,485	0,021	-0,038
-711,933	66,809	-0,075	0,057
-710,918	93,424	0,049	0,041
-709,904	372,972	0,012	-0,018
-708,889	-200,000	-0,030	0,120
-707,875	-158,965	0,041	0,002
-706,860	-10,515	0,104	-0,051
-705,845	183,565	0,053	0,059
-704,831	-21,689	-0,038	-0,017
-703,816	368,727	0,030	-0,045
-702,802	-110,580	-0,023	-0,004
-701,787	-200,000	0,011	-0,104
-700,772	-200,000	-0,034	-0,119
-699,758	556,211	0,073	-0,131
-698,743	-108,061	-0,095	-0,015
-697,729	-18,471	0,145	0,067
-696,714	-200,000	-0,002	-0,049
-695,699	321,003	-0,082	-0,116
-694,685	-200,000	0,019	-0,158
-693,670	102,954	-0,168	-0,147
-692,656	-200,000	0,044	-0,193
-691,641	-114,451	0,132	-0,019
-690,627	404,767	-0,087	0,136
-689,612	36,776	-0,054	0,035
-688,597	-200,000	-0,040	0,135
-687,583	380,248	0,041	-0,063
-686,568	-147,772	-0,039	0,002
-685,554	-200,000	0,007	0,024
-684,539	308,101	0,111	-0,154
-683,524	18,433	0,073	-0,043
-682,510	-60,859	0,151	0,047
-681,495	63,111	-0,154	0,114
-680,481	-42,149	-0,086	0,032
-679,466	61,039	-0,081	0,059
-678,451	-81,036	0,130	0,032
-677,437	-121,732	-0,096	-0,012
-676,422	-35,904	0,052	0,021
-675,408	-51,350	-0,128	0,044
-674,393	-37,261	-0,107	-0,042
-673,378	-150,253	-0,120	0,007
-672,364	494,255	-0,050	-0,086
-671,349	146,024	-0,046	-0,046
-670,335	-200,000	-0,003	-0,048
-669,320	687,786	0,016	-0,031
-668,305	3,435	0,056	0,030
-667,291	63,042	0,037	-0,027
-666,276	203,383	-0,042	-0,048
-665,262	800,000	-0,021	-0,055
-664,247	-110,324	-0,097	-0,015
-663,232	297,712	-0,049	0,067
-662,218	602,282	-0,030	0,056
-661,203	-134,695	-0,052	0,005
-660,189	391,896	-0,032	0,050
-659,174	-200,000	-0,021	-0,140
-658,159	638,271	0,039	-0,074
-657,145	800,000	-0,020	0,046
-656,130	-200,000	0,000	0,019
-655,116	158,080	0,047	-0,049
-654,101	-97,769	-0,112	-0,021
-653,086	-14,922	0,018	-0,009
-652,072	34,724	0,017	-0,011
-651,057	-132,963	-0,046	0,004
-650,043	203,423	-0,125	-0,143
-649,028	-200,000	0,002	-0,104
-648,014	78,672	0,067	-0,053
-646,999	33,692	-0,108	0,070
-645,984	-47,166	-0,086	0,031
-644,970	-200,000	0,007	0,146
-643,955	-200,000	-0,033	0,117
-642,941	-1,093	-0,057	0,030
-641,926	12,861	0,061	-0,035
-640,911	-200,000	0,015	0,134
-639,897	-158,780	-0,135	0,006
-638,882	-200,000	0,014	0,112
-637,868	-32,091	-0,130	0,054
-636,853	-200,000	0,053	-0,182
-635,838	104,585	-0,083	-0,073
-634,824	-200,000	-0,007	0,024
-633,809	382,581	0,044	0,068
-632,795	-111,952	-0,058	0,009
-631,780	82,060	0,014	-0,011
-630,765	-200,000	-0,017	0,140
-629,751	-7,662	0,075	-0,037
-628,736	-48,770	-0,061	-0,022
-627,722	80,929	0,153	-0,122
-626,707	800,000	0,041	0,092
-625,692	135,895	0,117	0,113
-624,678	252,496	-0,093	0,117
-623,663	699,736	-0,060	0,118
-622,649	441,697	-0,059	0,096
-621,634	170,065	-0,087	-0,092
-620,619	-200,000	0,014	-0,052
-619,605	800,000	0,034	0,084
-618,590	-70,678	0,034	0,009
-617,576	-175,573	0,115	0,002
-616,561	102,894	0,054	-0,047
-615,546	285,137	-0,068	-0,092
-614,532	800,000	0,034	-0,092
-613,517	688,207	0,042	-0,082
-612,503	-79,723	0,092	0,023
-611,488	132,973	-0,072	0,069
-610,474	113,452	0,034	-0,031
-609,459	478,277	0,045	0,076
-608,444	-42,609	-0,032	0,012
-607,430	-200,000	-0,010	0,090
-606,415	208,600	0,061	-0,070
-605,401	-22,238	0,157	-0,070
-604,386	800,000	0,062	-0,169
-603,371	218,611	-0,025	0,030
-602,357	-92,503	0,058	0,012
-601,342	-200,000	-0,007	-0,071
-600,328	750,568	-0,054	-0,109
-599,313	141,907	-0,155	-0,152
-598,298	-200,000	-0,001	0,052
-597,284	6,114	0,090	0,049
-596,269	-200,000	0,007	-0,062
-595,255	233,966	0,056	0,068
-594,240	195,418	0,092	0,104
-593,225	22,695	-0,053	-0,032
-592,211	800,000	-0,066	-0,197
-591,196	-200,000	-0,011	0,038
-590,182	794,351	0,067	0,137
-589,167	800,000	-0,061	-0,136
-588,152	571,338	0,045	-0,081
-587,138	-200,000	0,003	0,059
-586,123	-131,121	-0,146	0,014
-585,109	-200,000	-0,009	-0,145
-584,094	-200,000	-0,004	-0,097
-583,079	116,465	0,032	0,029
-582,065	-200,000	0,063	0,286
-581,050	323,559	0,015	0,021
-580,036	81,008	0,064	-0,051
-579,021	23,163	-0,067	-0,040
-578,006	-200,000	0,000	-0,054
-576,992	-67,540	0,067	0,019
-575,977	602,676	-0,031	-0,056
-574,963	138,976	-0,059	-0,057
-573,948	-200,000	-0,008	0,181
-572,934	90,141	0,084	-0,069
-571,919	20,123	0,045	-0,027
-570,904	229,903	0,110	-0,133
-569,890	-108,654	-0,097	0,015
-568,875	42,895	-0,116	0,078
-567,861	122,962	0,064	-0,060
-566,846	-72,542	0,120	0,032
-565,831	-200,000	-0,014	0,110
-564,817	-79,906	0,047	-0,012
-563,802	-87,663	-0,042	0,009
-562,788	-119,394	-0,059	0,008
-561,773	320,539	-0,078	-0,110
-560,758	124,888	-0,038	0,035
-559,744	-200,000	0,014	0,235
-558,729	-200,000	-0,003	0,082
-557,715	6,119	-0,058	-0,032
-556,700	-158,481	-0,098	-0,004
-555,685	800,000	0,035	0,108
-554,671	41,114	0,009	-0,006
-553,656	-26,469	0,126	-0,055
-552,642	-131,042	-0,042	-0,004
-551,627	-200,000	0,011	0,065
-550,612	-200,000	-0,004	-0,074
-549,598	-200,000	0,036	-0,145
-548,583	418,951	0,027	-0,043
-547,569	-17,384	0,100	-0,046
-546,554	-200,000	-0,033	0,122
-545,539	-200,000	-0,037	0,180
-544,525	2,772	-0,091	0,049
-543,510	-99,531	-0,079	0,015
-542,496	-38,106	0,053	0,021
-541,481	-200,000	-0,011	0,170
-540,466	185,218	0,036	0,040
-539,452	436,443	-0,036	-0,058
-538,437	330,606	0,070	0,100
-537,423	366,269	0,064	0,096
-536,408	-5,953	-0,093	0,047
-535,393	800,000	0,076	-0,190
-534,379	-156,028	-0,087	-0,004
-533,364	800,000	0,005	-0,016
-532,350	-44,085	-0,079	0,029
-531,335	-200,000	0,032	0,119
-530,321	-95,708	0,031	0,006
-529,306	260,558	-0,062	-0,079
-528,291	-200,000	-0,000	0,081
-527,277	-121,034	-0,070	0,009
-526,262	183,089	0,015	0,017
-525,248	-92,223	0,096	0,020
-524,233	800,000	-0,030	-0,077
-523,218	149,095	0,072	0,072
-522,204	14,602	-0,094	0,054
-521,189	-158,891	-0,107	0,004
-520,175	800,000	-0,035	-0,102
-519,160	-200,000	-0,053	-0,252
-518,145	206,133	-0,079	-0,091
-517,131	-84,374	0,140	-0,032
-516,116	241,334	-0,088	-0,109
-515,102	-59,283	0,028	0,009
-514,087	-51,029	-0,060	-0,021
-513,072	-164,565	-0,109	-0,004
-512,058	-101,445	-0,092	0,016
-511,043	800,000	0,027	0,057
-510,029	386,842	-0,063	0,097
-509,014	163,754	0,032	0,033
-507,999	-158,332	0,087	0,004
-506,985	-200,000	-0,001	-0,120
-505,970	800,000	0,034	-0,102
-504,956	-7,029	-0,064	0,032
-503,941	84,163	0,035	-0,028
-502,926	-200,000	0,017	0,059
-501,912	253,530	0,008	0,010
-500,897	87,767	0,063	-0,052
-499,883	800,000	-0,010	-0,021
-498,868	800,000	0,014	-0,040
-497,853	-168,383	-0,109	-0,003
-496,839	193,033	0,067	-0,075
-495,824	-48,410	0,107	-0,038
-494,810	202,388	-0,104	0,118
-493,795	-53,169	-0,112	-0,038
-492,781	-200,000	-0,013	0,066
-491,766	800,000	0,012	-0,025
-490,751	-33,060	-0,036	-0,014
-489,737	400,347	-0,039	0,061
-488,722	800,000	0,045	-0,116
-487,708	-18,996	-0,044	0,020
-486,693	-200,000	0,002	-0,056
-485,678	-168,716	-0,051	-0,001
-484,664	800,000	0,026	-0,063
-483,649	-87,883	-0,128	-0,028
-482,635	800,000	0,027	0,075
-481,620	238,120	0,085	-0,104
-480,605	-30,928	0,186	0,077
-479,591	-141,176	0,071	0,005
-478,576	-29,041	-0,073	-0,031
-477,562	-200,000	0,031	-0,158
-476,547	800,000	0,039	-0,118
-475,532	-200,000	-0,006	-0,057
-474,518	800,000	-0,010	0,031
-473,503	301,144	-0,065	0,089
-472,489	800,000	-0,026	0,067
-471,474	-157,900	-0,091	0,004
-470,459	-25,523	0,206	-0,089
-469,445	-93,737	-0,032	0,006
-468,430	250,137	-0,031	-0,038
-467,416	66,501	-0,066	0,049
-466,401	-83,670	0,083	0,019
-465,386	621,370	-0,062	-0,116
-464,372	-16,414	-0,036	-0,017
-463,357	181,409	-0,082	-0,089
-462,343	800,000	-0,049	-0,138
-461,328	-200,000	0,010	0,102
-460,313	-200,000	-0,021	0,071
-459,299	-200,000	0,001	-0,061
-458,284	-73,010	0,132	0,035
-457,270	360,932	-0,020	-0,030
-456,255	-120,649	0,122	0,015
-455,241	-23,111	-0,083	-0,037
-454,226	-200,000	-0,000	0,008
-453,211	432,816	0,010	0,017
-452,197	674,883	-0,035	-0,068
-451,182	-200,000	0,003	-0,092
-450,168	-187,390	-0,065	0,001
-449,153	800,000	0,054	-0,125
-448,138	-82,036	-0,124	-0,030
-447,124	384,908	0,088	0,134
-446,109	588,918	0,038	-0,070
-445,095	-153,052	0,123	0,006
-444,080	-99,406	0,087	0,016
-443,065	800,000	0,039	-0,110
-442,051	800,000	-0,034	-0,079
-441,036	800,000	0,046	-0,118
-440,022	800,000	-0,026	0,053
-439,007	-42,375	0,164	0,061
-437,992	-200,000	0,018	-0,096
-436,978	-164,260	0,088	-0,003
-435,963	-74,545	0,118	0,031
-434,949	142,604	0,039	0,038
-433,934	207,819	0,019	0,022
-432,919	-200,000	0,008	-0,170
-431,905	183,392	0,016	-0,017
-430,890	-53,038	-0,162	0,054
-429,876	-18,778	-0,130	0,059
-428,861	-200,000	0,014	0,069
-427,846	2,733	-0,122	0,065
-426,832	-22,132	0,075	-0,033
-425,817	-200,000	-0,013	0,078
-424,803	-200,000	-0,009	0,095
-423,788	49,940	-0,127	0,088
-422,773	-200,000	0,032	0,105
-421,759	800,000	-0,017	-0,046
-420,744	800,000	0,036	-0,106
-419,730	25,988	0,053	0,033
-418,715	8,816	-0,039	-0,022
-417,701	41,826	0,054	-0,036
-416,686	-93,745	-0,048	0,010
-415,671	-200,000	-0,004	0,102
-414,657	285,677	-0,101	0,134
-413,642	-200,000	-0,007	0,029
-412,628	-74,582	0,058	-0,015
-411,613	101,527	-0,139	-0,119
-410,598	339,740	-0,031	-0,044
-409,584	-20,465	0,111	-0,050
-408,569	800,000	-0,011	0,033
-407,555	-200,000	0,014	0,067
-406,540	296,110	-0,044	0,059
-405,525	-56,095	0,057	-0,019
-404,511	800,000	-0,029	0,095
-403,496	353,186	-0,051	-0,074
-402,482	-48,268	0,081	0,028
-401,467	380,519	-0,064	0,096
-400,452	123,247	-0,023	0,021
-399,438	435,186	0,026	0,042
-398,423	61,743	0,057	0,042
-397,409	-200,000	-0,039	-0,166
-396,394	15,677	0,074	0,043
-395,379	-200,000	0,020	-0,111
-394,365	-200,000	-0,029	0,204
-393,350	800,000	0,047	0,125
-392,336	-200,000	0,010	-0,056
-391,321	-50,887	-0,190	0,065
-390,306	-36,753	0,083	-0,033
-389,292	-200,000	0,014	-0,106
-388,277	68,238	-0,045	0,034
-387,263	179,076	-0,019	-0,021
-386,248	262,869	0,039	0,050
-385,233	8,476	-0,062	-0,034
-384,219	19,178	-0,066	-0,039
-383,204	-23,776	-0,118	-0,052
-382,190	-200,000	0,040	-0,159
-381,175	-200,000	-0,013	-0,065
-380,160	8,701	-0,054	-0,030
-379,146	275,251	0,011	-0,014
-378,131	-84,404	-0,088	-0,020
-377,117	-90,475	0,117	-0,025
-376,102	13,200	-0,101	-0,057
-375,088	800,000	-0,074	-0,151
-374,073	567,771	-0,049	-0,087
-373,058	-140,281	0,144	-0,011
-372,044	331,285	-0,035	0,050
-371,029	-200,000	-0,012	0,130
-370,015	-200,000	-0,044	0,146
-369,000	800,000	0,029	-0,073
-367,985	126,176	-0,024	0,022
-366,971	176,043	-0,064	0,068
-365,956	-200,000	0,000	0,072
-364,942	125,347	0,047	0,044
-363,927	230,028	-0,107	0,129
-362,912	86,854	0,070	-0,057
-361,898	323,736	0,075	-0,105
-360,883	123,617	-0,058	0,054
-359,869	121,034	0,063	-0,058
-358,854	-134,348	-0,041	0,004
-357,839	-29,446	-0,027	-0,011
-356,825	447,078	-0,043	0,070
-355,810	396,047	0,027	0,041
-354,796	-200,000	-0,033	-0,154
-353,781	-200,000	0,009	0,145
-352,766	523,930	-0,083	-0,144
-351,752	298,187	0,020	-0,027
-350,737	316,911	-0,030	0,042
-349,723	800,000	-0,033	-0,086
-348,708	284,706	-0,081	0,107
-347,693	800,000	0,046	0,096
-346,679	-200,000	-0,008	0,045
-345,664	800,000	-0,065	0,188
-344,650	118,107	0,025	-0,022
-343,635	-200,000	-0,005	0,101
-342,620	-29,484	0,109	0,045
-341,606	373,154	-0,060	-0,090
-340,591	-200,000	0,013	0,059
-339,577	800,000	-0,046	-0,129
-338,562	-200,000	0,034	-0,132
-337,548	-200,000	-0,020	-0,117
-336,533	-3,707	0,045	-0,023
-335,518	102,266	0,164	0,141
-334,504	425,563	0,045	0,071
-333,489	325,408	0,058	-0,082
-332,475	-200,000	-0,001	-0,012
-331,460	-200,000	0,001	-0,007
-330,445	-12,047	0,094	-0,045
-329,431	277,911	-0,129	0,169
-328,416	-200,000	0,003	-0,031
-327,402	-124,029	0,065	-0,007
-326,387	-200,000	0,008	0,043
-325,372	-55,486	-0,042	0,014
-324,358	-200,000	0,014	-0,050
-323,343	-200,000	0,019	0,180
-322,329	383,869	-0,040	0,061
-321,314	800,000	0,035	0,105
-320,299	-200,000	0,028	0,142
-319,285	48,074	0,068	-0,047
-318,270	-141,516	0,028	-0,002
-317,256	-159,134	0,067	-0,003
-316,241	-72,316	-0,155	0,042
-315,226	776,545	-0,048	-0,097
-314,212	361,437	0,088	-0,130
-313,197	-200,000	0,006	0,057
-312,183	-117,190	-0,040	0,005
-311,168	-20,618	-0,120	0,054
-310,153	-200,000	-0,011	-0,097
-309,139	197,446	-0,029	-0,033
-308,124	90,150	-0,054	-0,044
-307,110	72,585	0,158	-0,121
-306,095	-112,985	-0,129	-0,018
-305,080	-83,876	0,082	0,019
-304,066	535,156	-0,070	-0,121
-303,051	-77,418	0,123	-0,031
-302,037	800,000	-0,026	-0,083
-301,022	90,645	0,082	0,068
-300,008	-200,000	-0,000	0,129
-298,993	800,000	0,020	0,056
-297,978	49,489	0,103	-0,071
-296,964	63,591	-0,131	-0,096
-295,949	-200,000	-0,003	0,032
-294,935	108,902	-0,055	0,048
-293,920	115,333	0,113	0,101
-292,905	51,644	0,032	-0,022
-291,891	800,000	0,014	0,042
-290,876	-64,638	0,144	-0,042
-289,862	-200,000	-0,005	-0,075
-288,847	170,621	-0,054	-0,056
-287,832	-200,000	0,024	-0,193
-286,818	158,987	0,081	-0,083
-285,803	33,145	0,045	0,028
-284,789	505,342	0,069	0,117
-283,774	-60,372	0,087	-0,027
-282,759	41,257	0,080	-0,053
-281,745	96,786	0,042	-0,035
-280,730	-41,585	-0,069	-0,026
-279,716	116,281	-0,068	-0,061
-278,701	-11,875	0,107	0,051
-277,686	-10,787	0,148	0,071
-276,672	67,475	0,081	0,060
-275,657	-200,000	0,032	-0,138
-274,643	-200,000	0,016	-0,094
-273,628	-63,294	0,105	0,031
-272,613	-145,284	-0,209	-0,014
-271,599	-130,307	-0,115	0,011
-270,584	-73,976	0,018	-0,005
-269,570	79,418	-0,048	-0,037
-268,555	-107,584	0,189	0,030
-267,540	800,000	-0,011	-0,026
-266,526	586,413	-0,069	-0,124
-265,511	-112,272	0,104	-0,015
-264,497	-11,376	0,068	-0,032
-263,482	31,417	0,056	-0,035
-262,467	800,000	0,035	0,105
-261,453	288,822	-0,066	0,087
-260,438	-200,000	-0,004	0,046
-259,424	54,674	-0,048	-0,034
-258,409	-62,560	0,004	0,001
-257,395	800,000	0,019	-0,041
-256,380	-117,805	0,105	0,014
-255,365	-200,000	-0,003	-0,056
-254,351	-41,916	-0,083	0,031
-253,336	355,657	-0,050	0,072
-252,322	26,979	0,049	0,030
-251,307	166,395	-0,049	0,050
-250,292	-147,932	0,040	-0,002
-249,278	16,092	-0,064	0,037
-248,263	117,571	0,056	0,050
-247,249	-22,906	-0,084	0,037
-246,234	614,681	0,049	-0,090
-245,219	326,202	-0,012	-0,017
-244,205	-200,000	-0,027	-0,102
-243,190	-200,000	0,001	0,014
-242,176	-5,851	0,032	0,016
-241,161	-145,857	0,098	0,006
-240,146	355,089	-0,038	-0,055
-239,132	-35,819	-0,077	-0,030
-238,117	-99,692	0,035	-0,006
-237,103	70,092	-0,065	-0,049
-236,088	-200,000	0,008	-0,082
-235,073	-46,738	-0,097	0,035
-234,059	78,302	0,024	-0,019
-233,044	120,244	0,115	0,104
-232,030	85,774	0,094	0,075
-231,015	34,978	-0,069	0,044
-230,000	-200,000	0,037	0,133
-228,986	-62,868	0,126	0,038
-227,971	-200,000	0,016	-0,063
-226,957	-175,826	0,044	0,001
-225,942	-200,000	0,022	0,133
-224,927	280,323	0,044	0,057
-223,913	-82,400	-0,117	-0,027
-222,898	-87,359	-0,118	0,026
-221,884	-200,000	-0,004	-0,106
-220,869	-200,000	-0,009	-0,037
-219,855	-37,460	0,103	-0,040
-218,840	-200,000	-0,002	0,116
-217,825	-200,000	0,021	0,172
-216,811	800,000	-0,027	-0,062
-215,796	-6,209	-0,086	-0,043
-214,782	-71,957	-0,067	-0,018
-213,767	-100,038	0,037	0,007
-212,752	-96,147	-0,103	-0,020
-211,738	-91,869	-0,093	0,019
-210,723	-200,000	0,012	-0,053
-209,709	-200,000	0,004	-0,097
-208,694	-200,000	-0,001	0,025
-207,679	147,842	0,125	0,123
-206,665	-200,000	0,028	-0,129
-205,650	-108,934	0,074	0,011
-204,636	157,445	-0,083	-0,083
-203,621	-121,125	0,070	0,008
-202,606	-167,177	-0,101	-0,003
-201,592	800,000	-0,034	0,070
-200,577	-200,000	-0,015	0,069
-199,563	207,710	0,047	0,054
-198,548	-99,786	-0,058	-0,010
-197,533	-49,514	-0,096	0,033
-196,519	-64,772	0,054	0,016
-195,504	-27,427	-0,076	-0,032
-194,490	143,536	0,053	-0,051
-193,475	502,032	0,068	-0,115
-192,460	110,832	-0,139	-0,122
-191,446	-55,082	0,095	0,031
-190,431	-25,717	0,047	0,020
-189,417	-200,000	0,006	0,045
-188,402	70,178	-0,087	0,065
-187,387	-200,000	-0,002	0,007
-186,373	-80,319	0,072	-0,018
-185,358	-155,147	-0,078	0,004
-184,344	715,158	0,030	-0,058
-183,329	366,735	0,069	-0,102
-182,315	160,850	0,057	0,058
-181,300	44,614	0,020	-0,013
-180,285	-158,952	-0,058	0,002
-179,271	-62,558	-0,131	0,040
-178,256	-200,000	0,018	0,123
-177,242	219,177	0,036	-0,042
-176,227	-200,000	0,023	0,134
-175,212	113,658	-0,122	0,108
-174,198	764,365	-0,005	0,010
-173,183	-200,000	0,002	-0,079
-172,169	105,994	-0,073	0,062
-171,154	187,291	-0,067	0,073
-170,139	-84,993	-0,160	0,036
-169,125	406,175	0,050	-0,078
-168,110	-200,000	-0,009	0,119
-167,096	-120,650	-0,106	-0,013
-166,081	800,000	-0,068	-0,165
-165,066	263,092	-0,109	-0,138
-164,052	80,807	0,086	0,067
-163,037	607,048	0,005	0,009
-162,023	166,765	0,125	0,130
-161,008	-84,395	-0,063	0,014
-159,993	-43,604	0,082	0,030
-158,979	-23,978	0,087	-0,038
-157,964	-200,000	0,002	-0,028
-156,950	800,000	0,007	0,016
-155,935	800,000	0,031	0,079
-154,920	134,622	0,024	0,022
-153,906	-54,761	0,053	0,017
-152,891	-45,683	0,022	-0,008
-151,877	28,136	-0,041	0,025
-150,862	-22,890	0,086	-0,037
-149,847	137,481	0,051	0,049
-148,833	-200,000	0,006	-0,139
-147,818	800,000	0,029	0,071
-146,804	800,000	-0,029	-0,061
-145,789	-18,147	-0,051	0,023
-144,775	-167,443	-0,023	0,001
-143,760	27,223	0,035	-0,021
-142,745	800,000	0,008	-0,020
-141,731	213,875	0,047	0,054
-140,716	51,394	0,065	0,045
-139,702	31,652	-0,069	-0,043
-138,687	92,159	0,014	-0,011
-137,672	32,597	-0,121	0,076
-136,658	800,000	-0,004	-0,010
-135,643	-200,000	0,012	-0,093
-134,629	800,000	0,016	-0,038
-133,614	476,600	0,065	0,107
-132,599	226,890	-0,092	0,108
-131,585	800,000	-0,106	0,230
-130,570	-200,000	0,016	0,052
-129,556	781,673	-0,043	-0,085
-128,541	278,080	-0,050	0,065
-127,526	443,069	0,033	-0,053
-126,512	-95,951	-0,068	-0,013
-125,497	-105,831	0,133	0,022
-124,483	79,440	-0,169	-0,132
-123,468	-200,000	0,035	0,156
-122,453	-200,000	-0,012	-0,076
-121,439	-200,000	0,018	-0,099
-120,424	33,354	-0,108	-0,068
-119,410	56,635	0,090	0,064
