DTS Sentinel unit serial number:	SN410029Multiplexer serial number:	ORYXHardware model number:	OX2-SRSoftware version number:	ORYX F/W v4,00 Oryx Data Collector v3.7.2.0data status	okinstallation	B4 Nyhavnadifferential loss correction	single-endedforward channel	channel 2reverse channel	N/Adate	2023/12/15time	15:15:13forward acquisition time	300,00reverse acquisition time	0,00gamma	499,1914k internal	0,3155k external	0,3155temperature offset calibration	1,0000default loss term (dB/km)	0,3820temperature slope calibration	1,0000multiplexer offset coefficient	1,0000multiplexer slope coefficient	1,0000fibre end	0,00T internal ref (°C)	16,07T ext. ref 1 (°C)	2,46T ext. ref 2 (°C)	2,54length (m)	temperature (°C)	Stokes	anti-Stokes-744,400	800,000	-0,048	0,135
-743,385	-200,000	-0,275	-0,000
-742,371	20,308	0,042	0,025
-741,356	-37,992	-0,255	0,100
-740,342	-197,959	0,151	0,001
-739,327	-46,066	-0,312	0,113
-738,312	-200,000	-0,004	0,108
-737,298	-67,872	-0,290	0,083
-736,283	316,199	0,115	0,160
-735,269	-104,027	-0,154	0,026
-734,254	-112,405	0,101	-0,015
-733,239	-118,760	-0,411	-0,053
-732,225	51,122	0,176	0,123
-731,210	-119,230	-0,050	0,006
-730,196	39,612	0,087	-0,058
-729,181	-56,618	-0,178	0,058
-728,167	254,146	-0,046	-0,059
-727,152	499,738	-0,011	0,018
-726,137	692,903	-0,055	-0,107
-725,123	202,481	-0,130	-0,149
-724,108	800,000	0,050	-0,108
-723,094	-110,162	-0,109	-0,017
-722,079	449,556	0,075	-0,123
-721,064	-98,385	0,022	-0,004
-720,050	400,390	-0,054	0,084
-719,035	-60,399	0,073	-0,023
-718,021	63,011	-0,079	0,058
-717,006	-200,000	-0,008	-0,246
-715,991	-128,581	0,123	-0,013
-714,977	-200,000	0,000	-0,088
-713,962	800,000	-0,025	0,068
-712,948	212,187	0,037	-0,043
-711,933	212,262	-0,046	0,053
-710,918	-200,000	0,015	-0,167
-709,904	6,344	-0,070	-0,038
-708,889	800,000	0,016	-0,039
-707,875	85,656	-0,102	-0,082
-706,860	800,000	0,013	-0,036
-705,845	-98,103	0,080	-0,015
-704,831	-108,273	-0,156	0,025
-703,816	-200,000	0,000	0,086
-702,802	-5,458	-0,061	0,031
-701,787	-4,069	-0,019	0,010
-700,772	429,216	-0,056	-0,089
-699,758	110,951	-0,029	-0,026
-698,743	800,000	0,010	-0,022
-697,729	91,204	-0,087	-0,072
-696,714	-104,018	-0,039	0,007
-695,699	377,092	0,033	0,049
-694,685	-200,000	-0,018	0,114
-693,670	-86,626	-0,036	-0,008
-692,656	-24,947	0,087	-0,038
-691,641	524,746	0,030	0,053
-690,627	525,932	0,089	0,155
-689,612	438,330	-0,039	-0,064
-688,597	438,954	-0,048	-0,078
-687,583	800,000	-0,094	-0,247
-686,568	800,000	-0,013	-0,037
-685,554	-110,790	0,081	0,012
-684,539	-121,312	-0,112	0,014
-683,524	54,484	0,002	-0,001
-682,510	282,087	-0,031	-0,041
-681,495	-106,343	-0,059	0,010
-680,481	175,466	-0,106	0,113
-679,466	142,366	-0,100	-0,097
-678,451	-140,370	-0,123	-0,009
-677,437	479,946	-0,049	-0,082
-676,422	310,943	0,045	0,062
-675,408	181,773	-0,102	0,111
-674,393	800,000	-0,054	-0,163
-673,378	-9,304	-0,074	0,036
-672,364	800,000	-0,029	0,088
-671,349	-64,010	-0,071	-0,021
-670,335	178,641	0,040	-0,044
-669,320	-200,000	0,031	0,108
-668,305	21,207	-0,102	-0,061
-667,291	92,924	0,113	0,094
-666,276	89,058	-0,036	0,029
-665,262	-200,000	-0,031	-0,210
-664,247	126,249	0,074	0,069
-663,232	-107,605	-0,151	-0,024
-662,218	241,528	-0,056	0,069
-661,203	44,598	0,086	0,058
-660,189	390,297	-0,064	0,098
-659,174	800,000	0,030	-0,084
-658,159	800,000	-0,063	0,130
-657,145	-54,512	-0,106	-0,035
-656,130	-200,000	0,002	-0,181
-655,116	30,327	-0,064	-0,040
-654,101	-5,813	0,081	-0,041
-653,086	-104,046	-0,087	0,015
-652,072	-23,354	0,113	-0,050
-651,057	33,295	0,042	-0,027
-650,043	-33,002	-0,163	-0,066
-649,028	9,628	0,067	-0,037
-648,014	-200,000	-0,024	0,124
-646,999	-63,793	0,196	-0,059
-645,984	-1,780	-0,130	-0,067
-644,970	137,407	0,052	0,050
-643,955	352,034	-0,071	-0,103
-642,941	-200,000	-0,009	-0,067
-641,926	-200,000	-0,003	0,021
-640,911	800,000	0,014	-0,028
-639,897	800,000	0,032	0,068
-638,882	-107,241	-0,167	-0,027
-637,868	23,508	0,048	0,029
-636,853	800,000	-0,036	0,103
-635,838	-120,955	-0,146	-0,018
-634,824	80,205	-0,092	-0,073
-633,809	-200,000	0,002	0,073
-632,795	-183,781	-0,009	0,000
-631,780	69,004	-0,130	0,098
-630,765	198,693	0,072	0,081
-629,751	99,248	0,035	-0,030
-628,736	338,117	-0,059	-0,085
-627,722	-200,000	0,014	-0,063
-626,707	94,627	0,059	0,049
-625,692	-15,669	0,155	0,072
-624,678	-200,000	-0,001	0,008
-623,663	100,934	0,092	-0,079
-622,649	137,909	0,052	-0,050
-621,634	800,000	0,056	-0,135
-620,619	117,267	0,076	-0,068
-619,605	-200,000	0,012	-0,071
-618,590	97,623	0,073	-0,062
-617,576	11,661	-0,107	-0,060
-616,561	-200,000	0,009	0,091
-615,546	268,839	-0,062	-0,080
-614,532	800,000	-0,033	-0,070
-613,517	565,193	0,043	-0,077
-612,503	-200,000	-0,020	-0,097
-611,488	94,454	0,043	-0,036
-610,474	-90,524	0,178	0,037
-609,459	-200,000	0,012	-0,109
-608,444	-92,137	-0,149	-0,031
-607,430	49,683	0,018	-0,013
-606,415	-200,000	0,041	-0,159
-605,401	360,207	0,020	-0,029
-604,386	551,772	0,060	0,107
-603,371	-84,047	0,176	-0,041
-602,357	182,511	-0,043	0,047
-601,342	-200,000	-0,007	0,030
-600,328	-200,000	-0,053	-0,205
-599,313	607,939	-0,034	-0,062
-598,298	-200,000	0,009	-0,076
-597,284	-79,932	-0,095	-0,023
-596,269	-200,000	-0,005	0,023
-595,255	234,891	-0,153	0,185
-594,240	167,328	-0,066	-0,069
-593,225	-109,025	-0,099	0,015
-592,211	-19,320	0,060	-0,027
-591,196	158,431	-0,020	0,021
-590,182	373,915	0,029	0,044
-589,167	259,914	0,096	-0,122
-588,152	326,021	-0,064	-0,090
-587,138	800,000	0,019	-0,043
-586,123	800,000	-0,037	-0,108
-585,109	-150,559	0,063	-0,003
-584,094	18,036	-0,016	-0,009
-583,079	44,381	-0,076	-0,051
-582,065	-200,000	0,019	-0,151
-581,050	200,639	-0,048	-0,055
-580,036	-92,156	-0,098	0,020
-579,021	800,000	0,021	0,044
-578,006	-200,000	-0,004	-0,073
-576,992	55,480	0,040	0,028
-575,977	-80,072	0,068	0,017
-574,963	317,658	-0,058	0,081
-573,948	800,000	0,041	-0,088
-572,934	-174,576	-0,105	0,002
-571,919	-39,820	-0,136	-0,052
-570,904	623,279	-0,079	-0,146
-569,890	605,465	-0,019	-0,034
-568,875	92,851	-0,104	-0,086
-567,861	305,420	-0,051	-0,070
-566,846	800,000	-0,029	-0,062
-565,831	17,558	-0,063	-0,037
-564,817	-200,000	0,020	-0,090
-563,802	497,597	0,076	-0,129
-562,788	800,000	-0,040	0,105
-561,773	-200,000	-0,007	-0,153
-560,758	89,355	0,051	0,042
-559,744	800,000	-0,027	-0,065
-558,729	-25,438	-0,021	-0,009
-557,715	-42,314	-0,031	0,011
-556,700	-93,584	-0,071	-0,014
-555,685	-85,366	-0,149	0,034
-554,671	-153,666	0,096	0,005
-553,656	102,961	0,112	-0,096
-552,642	-200,000	0,008	0,087
-551,627	800,000	-0,041	0,119
-550,612	-26,045	0,046	-0,020
-549,598	-117,575	-0,083	0,011
-548,583	800,000	0,056	-0,114
-547,569	186,967	-0,060	0,065
-546,554	-200,000	0,021	0,075
-545,539	547,728	0,013	0,023
-544,525	-96,976	0,020	-0,004
-543,510	-86,684	-0,175	-0,039
-542,496	450,160	-0,034	-0,056
-541,481	-54,936	0,186	-0,061
-540,466	190,113	-0,072	-0,079
-539,452	254,105	0,069	0,087
-538,437	-200,000	0,004	0,140
-537,423	346,579	0,011	0,016
-536,408	-46,323	0,158	-0,057
-535,393	-77,032	0,108	-0,027
-534,379	62,681	-0,077	-0,056
-533,364	441,210	0,039	0,062
-532,350	-200,000	-0,021	0,073
-531,335	-135,716	0,006	0,001
-530,321	-142,797	0,051	-0,004
-529,306	-37,190	-0,176	-0,068
-528,291	88,240	0,028	0,023
-527,277	-163,995	-0,061	0,002
-526,262	581,607	0,031	-0,056
-525,248	422,810	-0,084	-0,133
-524,233	376,343	0,060	-0,091
-523,218	203,364	0,080	0,091
-522,204	239,924	0,053	0,065
-521,189	100,279	-0,079	-0,067
-520,175	35,452	0,073	0,047
-519,160	-14,933	-0,098	-0,046
-518,145	-200,000	0,009	0,133
-517,131	-95,935	0,095	0,018
-516,116	-46,569	0,116	0,041
-515,102	-200,000	-0,007	-0,114
-514,087	-139,379	-0,017	-0,001
-513,072	-70,505	0,024	0,006
-512,058	-102,564	-0,162	0,028
-511,043	-181,857	0,214	-0,003
-510,029	673,629	0,057	0,109
-509,014	763,440	-0,013	0,027
-507,999	-50,119	0,096	0,033
-506,985	-12,697	-0,045	0,021
-505,970	-85,832	-0,056	0,013
-504,956	-65,672	0,027	0,008
-503,941	229,332	0,027	-0,033
-502,926	-200,000	-0,014	0,081
-501,912	313,046	-0,019	0,026
-500,897	-200,000	-0,008	-0,133
-499,883	-69,587	0,077	-0,021
-498,868	593,950	0,052	-0,094
-497,853	-10,551	0,107	-0,052
-496,839	800,000	0,034	-0,107
-495,824	-200,000	-0,089	0,000
-494,810	-43,579	-0,115	0,042
-493,795	-200,000	-0,010	-0,070
-492,781	-118,230	-0,116	0,015
-491,766	-185,862	-0,030	0,000
-490,751	-188,259	-0,120	-0,001
-489,737	800,000	0,032	0,069
-488,722	-200,000	0,020	0,175
-487,708	46,235	-0,127	0,086
-486,693	-200,000	0,012	0,125
-485,678	-32,663	0,104	-0,042
-484,664	97,690	-0,018	-0,015
-483,649	80,912	-0,074	-0,058
-482,635	-143,135	0,028	0,002
-481,620	-89,689	0,094	0,020
-480,605	-66,558	0,048	0,014
-479,591	-39,916	0,108	-0,041
-478,576	800,000	-0,016	-0,039
-477,562	800,000	-0,024	-0,075
-476,547	697,371	-0,062	-0,120
-475,532	408,133	-0,031	0,049
-474,518	-17,627	0,136	0,062
-473,503	-55,007	0,073	0,024
-472,489	10,015	0,109	-0,060
-471,474	-109,917	-0,096	0,014
-470,459	158,955	-0,037	-0,037
-469,445	223,947	-0,043	-0,051
-468,430	-200,000	-0,007	-0,065
-467,416	-200,000	-0,018	-0,095
-466,401	3,969	0,052	-0,028
-465,386	-68,865	0,087	0,024
-464,372	800,000	-0,025	-0,080
-463,357	800,000	-0,024	-0,051
-462,343	800,000	-0,027	-0,078
-461,328	-200,000	0,000	-0,095
-460,313	-200,000	0,000	0,047
-459,299	115,959	0,088	0,078
-458,284	-39,108	-0,077	0,029
-457,270	-200,000	0,005	0,057
-456,255	334,657	0,020	-0,029
-455,241	800,000	-0,021	-0,060
-454,226	-200,000	-0,013	-0,103
-453,211	42,425	0,077	0,051
-452,197	162,954	0,012	0,012
-451,182	-24,945	0,112	-0,048
-450,168	507,435	-0,095	0,162
-449,153	134,752	0,038	-0,036
-448,138	-39,184	-0,150	0,057
-447,124	50,268	0,056	-0,038
-446,109	800,000	-0,016	-0,046
-445,095	-155,571	0,075	0,003
-444,080	-133,672	0,023	0,002
-443,065	-25,591	-0,051	0,022
-442,051	-14,399	-0,105	0,049
-441,036	75,097	0,069	-0,053
-440,022	-120,060	-0,077	-0,010
-439,007	27,985	0,083	-0,051
-437,992	-200,000	-0,002	0,173
-436,978	-200,000	0,041	0,179
-435,963	-200,000	-0,000	-0,058
-434,949	390,558	0,020	-0,030
-433,934	-200,000	0,023	-0,085
-432,919	-132,647	0,010	0,001
-431,905	800,000	-0,025	0,077
-430,890	362,651	0,006	-0,009
-429,876	-200,000	0,004	-0,021
-428,861	-200,000	0,003	-0,091
-427,846	-82,302	0,094	-0,022
-426,832	-88,881	-0,106	-0,023
-425,817	-200,000	0,004	-0,049
-424,803	-73,215	0,042	0,011
-423,788	-200,000	0,007	0,108
-422,773	-125,545	0,137	0,015
-421,759	75,760	0,112	0,086
-420,744	-200,000	-0,039	-0,135
-419,730	325,884	-0,062	-0,087
-418,715	-109,981	0,149	0,022
-417,701	-34,072	-0,168	-0,067
-416,686	74,586	0,108	-0,082
-415,671	170,057	0,106	0,110
-414,657	800,000	-0,075	0,155
-413,642	314,225	0,052	0,071
-412,628	-200,000	-0,006	0,050
-411,613	-93,131	-0,151	-0,030
-410,598	-92,482	-0,030	-0,006
-409,584	16,400	0,034	-0,020
-408,569	-200,000	-0,010	-0,082
-407,555	-200,000	0,018	-0,083
-406,540	-200,000	-0,013	-0,111
-405,525	357,860	-0,097	0,142
-404,511	-83,327	-0,137	0,032
-403,496	-200,000	0,022	-0,111
-402,482	-14,047	-0,081	0,038
-401,467	371,422	-0,043	0,064
-400,452	-200,000	0,002	-0,051
-399,438	-102,726	0,053	-0,009
-398,423	484,297	0,026	-0,043
-397,409	-200,000	0,002	-0,085
-396,394	-200,000	0,054	-0,175
-395,379	-82,472	0,142	-0,033
-394,365	-180,101	-0,058	-0,001
-393,350	-44,363	-0,116	0,042
-392,336	-200,000	-0,006	0,069
-391,321	255,528	-0,064	0,080
-390,306	-200,000	-0,015	-0,062
-389,292	-117,013	0,082	0,011
-388,277	353,826	-0,038	-0,055
-387,263	37,241	0,017	-0,011
-386,248	800,000	-0,021	0,048
-385,233	186,240	-0,083	-0,090
-384,219	800,000	0,049	0,115
-383,204	-158,917	0,109	0,004
-382,190	800,000	0,025	0,065
-381,175	-56,052	0,111	0,036
-380,160	-200,000	-0,013	0,076
-379,146	-200,000	0,003	-0,043
-378,131	16,556	-0,064	0,037
-377,117	370,084	0,058	0,085
-376,102	-152,140	-0,125	0,006
-375,088	27,811	-0,028	-0,017
-374,073	-200,000	0,034	0,128
-373,058	113,135	0,135	0,119
-372,044	-14,175	-0,053	-0,025
-371,029	226,108	0,007	0,008
-370,015	-200,000	0,008	-0,124
-369,000	-91,923	-0,117	-0,024
-367,985	236,685	-0,092	-0,111
-366,971	52,401	0,071	-0,049
-365,956	800,000	-0,044	0,112
-364,942	94,356	0,042	0,035
-363,927	-102,939	-0,064	0,011
-362,912	-200,000	-0,005	0,134
-361,898	-200,000	-0,011	-0,078
-360,883	145,724	-0,106	-0,103
-359,869	800,000	0,038	0,096
-358,854	-122,349	0,049	0,006
-357,839	-200,000	-0,042	0,156
-356,825	-200,000	0,037	0,170
-355,810	4,813	-0,100	0,053
-354,796	-92,970	0,113	-0,023
-353,781	173,577	-0,058	0,061
-352,766	800,000	0,033	-0,072
-351,752	-189,443	-0,090	0,001
-350,737	-157,233	0,195	-0,008
-349,723	334,661	0,039	0,056
-348,708	-200,000	-0,016	0,115
-347,693	144,756	0,028	-0,028
-346,679	-200,000	0,033	-0,158
-345,664	14,673	-0,117	-0,066
-344,650	800,000	-0,034	-0,081
-343,635	37,091	-0,045	0,029
-342,620	-10,838	-0,101	0,048
-341,606	24,502	0,088	0,052
-340,591	800,000	-0,014	0,030
-339,577	97,380	-0,110	-0,092
-338,562	-200,000	0,021	0,071
-337,548	-175,825	-0,130	0,002
-336,533	-0,431	0,179	0,092
-335,518	800,000	0,028	0,089
-334,504	800,000	0,033	0,091
-333,489	-200,000	-0,013	0,062
-332,475	-86,468	-0,097	0,021
-331,460	112,784	0,029	-0,026
-330,445	-171,788	0,139	0,003
-329,431	800,000	-0,041	0,084
-328,416	800,000	0,020	0,055
-327,402	-167,202	0,052	0,002
-326,387	591,805	0,035	0,063
-325,372	-7,798	-0,087	0,042
-324,358	-142,010	-0,093	-0,007
-323,343	2,248	0,069	-0,036
-322,329	161,444	0,073	-0,074
-321,314	-200,000	-0,006	0,052
-320,299	312,202	0,039	0,054
-319,285	-116,202	-0,100	-0,013
-318,270	103,075	-0,092	0,078
-317,256	-74,604	0,047	0,012
-316,241	-69,834	0,068	-0,019
-315,226	-80,717	0,069	-0,017
-314,212	-108,886	0,018	-0,003
-313,197	-200,000	0,025	-0,081
-312,183	100,407	-0,087	-0,073
-311,168	-200,000	0,005	-0,128
-310,153	155,335	0,022	0,022
-309,139	-57,593	-0,069	-0,022
-308,124	136,892	0,033	-0,032
-307,110	-89,080	0,039	0,008
-306,095	75,688	0,060	0,046
-305,080	-37,950	-0,127	-0,049
-304,066	800,000	-0,016	-0,040
-303,051	206,872	0,020	-0,023
-302,037	800,000	0,009	0,026
-301,022	-200,000	-0,000	-0,033
-300,008	335,652	-0,056	-0,078
-298,993	-50,631	0,057	0,019
-297,978	32,057	-0,120	-0,075
-296,964	-200,000	-0,015	0,133
-295,949	-200,000	0,004	0,091
-294,935	-77,291	0,104	0,026
-293,920	-200,000	0,054	0,233
-292,905	141,592	0,026	-0,025
-291,891	800,000	0,056	0,118
-290,876	214,490	-0,067	0,077
-289,862	-200,000	0,009	0,120
-288,847	800,000	-0,034	-0,081
-287,832	91,297	-0,027	0,022
-286,818	-148,758	0,105	-0,006
-285,803	73,502	0,035	-0,027
-284,789	-94,175	0,053	-0,010
-283,774	444,547	0,067	0,107
-282,759	16,952	0,117	-0,067
-281,745	-96,214	0,009	-0,002
-280,730	-200,000	0,022	-0,132
-279,716	-200,000	-0,004	0,023
-278,701	-11,491	0,051	0,024
-277,686	-105,045	0,039	0,006
-276,672	-200,000	-0,001	0,118
-275,657	800,000	-0,016	0,048
-274,643	-200,000	0,029	-0,104
-273,628	-20,436	-0,079	-0,035
-272,613	497,539	0,046	0,077
-271,599	800,000	0,045	0,131
-270,584	77,630	0,123	0,095
-269,570	-200,000	0,002	0,057
-268,555	-200,000	0,037	0,125
-267,540	72,918	0,036	-0,027
-266,526	13,755	-0,088	-0,049
-265,511	356,020	0,012	0,017
-264,497	38,659	0,057	0,037
-263,482	800,000	0,035	-0,071
-262,467	549,338	-0,050	0,088
-261,453	-64,438	0,146	0,043
-260,438	-200,000	-0,025	0,115
-259,424	-86,406	-0,175	-0,039
-258,409	33,079	-0,054	-0,034
-257,395	8,606	0,084	-0,046
-256,380	-200,000	0,004	0,027
-255,365	-200,000	0,016	0,074
-254,351	-200,000	0,002	0,066
-253,336	116,493	-0,027	0,024
-252,322	23,741	-0,098	-0,058
-251,307	-55,106	-0,068	0,022
-250,292	-200,000	-0,013	0,083
-249,278	-67,359	-0,236	0,067
-248,263	-14,866	-0,139	0,064
-247,249	168,091	0,049	0,050
-246,234	98,534	0,034	0,029
-245,219	-94,133	-0,048	-0,009
-244,205	172,240	0,082	-0,085
-243,190	16,321	-0,020	0,012
-242,176	-200,000	0,002	0,092
-241,161	446,738	0,056	0,089
-240,146	36,607	-0,012	-0,007
-239,132	800,000	-0,012	-0,029
-238,117	-26,812	-0,061	0,025
-237,103	-200,000	0,026	0,101
-236,088	55,500	0,123	-0,086
-235,073	-133,131	0,050	-0,005
-234,059	-200,000	-0,002	-0,013
-233,044	297,238	0,053	-0,071
-232,030	-200,000	-0,023	-0,081
-231,015	355,270	-0,039	0,057
-230,000	-200,000	-0,015	0,063
-228,986	27,867	0,076	0,046
-227,971	-200,000	0,030	0,100
-226,957	51,077	-0,152	0,104
-225,942	-69,075	-0,105	-0,029
-224,927	-200,000	-0,013	-0,062
-223,913	-200,000	0,016	-0,102
-222,898	8,228	-0,120	0,065
-221,884	649,112	-0,043	-0,080
-220,869	788,079	0,024	-0,047
-219,855	111,763	0,061	0,053
-218,840	595,555	-0,015	-0,027
-217,825	421,448	-0,043	0,068
-216,811	-200,000	0,007	0,093
-215,796	-6,908	-0,141	0,069
-214,782	800,000	-0,041	-0,101
-213,767	36,429	0,109	0,070
-212,752	800,000	0,061	0,132
-211,738	-85,093	0,076	0,017
-210,723	185,633	0,049	0,052
-209,709	-200,000	0,016	0,140
-208,694	-133,432	-0,184	0,017
-207,679	800,000	0,037	-0,101
-206,665	63,325	0,095	-0,069
-205,650	800,000	-0,054	0,129
-204,636	-34,390	0,133	0,052
-203,621	97,623	0,045	-0,037
-202,606	-79,645	-0,013	0,003
-201,592	223,633	0,078	-0,091
-200,577	252,305	0,013	0,016
-199,563	228,303	0,087	0,102
-198,548	-200,000	0,011	0,075
-197,533	48,471	-0,045	0,030
-196,519	800,000	-0,022	-0,054
-195,504	-200,000	-0,019	0,064
-194,490	-160,497	0,031	0,001
-193,475	800,000	0,036	-0,093
-192,460	140,551	0,047	0,045
-191,446	6,292	-0,060	-0,032
-190,431	221,673	0,070	0,082
-189,417	-131,790	-0,142	0,013
-188,402	-107,918	0,034	0,005
-187,387	350,842	-0,085	0,121
-186,373	-200,000	0,009	0,114
-185,358	16,283	0,027	-0,015
-184,344	444,068	0,070	0,111
-183,329	74,571	-0,149	0,113
-182,315	-200,000	-0,034	0,149
-181,300	-200,000	-0,003	0,052
-180,285	426,948	-0,021	-0,033
-179,271	-12,096	0,043	-0,020
-178,256	-200,000	-0,008	-0,108
-177,242	72,295	0,037	-0,028
-176,227	-200,000	-0,022	0,072
-175,212	-117,836	-0,116	-0,015
-174,198	-200,000	-0,001	-0,106
-173,183	9,169	0,139	-0,076
-172,169	-200,000	-0,047	-0,226
-171,154	-200,000	0,037	-0,166
-170,139	-15,187	-0,128	-0,059
-169,125	-14,181	0,096	0,044
-168,110	-38,785	-0,098	-0,037
-167,096	104,530	0,064	0,055
-166,081	-39,732	0,071	0,027
-165,066	-200,000	0,007	0,055
-164,052	186,418	-0,048	0,051
-163,037	-14,511	-0,031	0,014
-162,023	86,566	0,062	-0,049
-161,008	361,994	0,081	-0,118
-159,993	-29,622	0,038	0,016
-158,979	-17,519	-0,137	-0,062
-157,964	-151,544	-0,062	0,003
-156,950	0,761	-0,073	-0,038
-155,935	447,667	-0,044	-0,070
-154,920	800,000	0,031	-0,088
-153,906	-200,000	-0,006	-0,080
-152,891	41,109	0,108	0,070
-151,877	677,595	-0,038	-0,072
-150,862	-200,000	-0,006	0,083
-149,847	-200,000	-0,002	-0,009
-148,833	-200,000	-0,000	-0,023
-147,818	-200,000	0,004	0,045
-146,804	164,555	-0,059	0,060
-145,789	-200,000	-0,002	0,084
-144,775	-200,000	0,059	-0,191
-143,760	-37,294	0,161	-0,062
-142,745	-200,000	-0,001	0,025
-141,731	800,000	0,021	0,055
-140,716	-91,226	0,041	-0,008
-139,702	-35,488	0,111	-0,043
-138,687	-200,000	0,021	0,109
-137,672	382,803	-0,026	0,039
-136,658	-99,196	-0,034	0,006
-135,643	149,774	0,086	0,084
-134,629	-82,542	-0,052	0,012
-133,614	-45,700	0,145	0,052
-132,599	115,924	0,038	0,034
-131,585	-82,348	-0,146	0,034
-130,570	202,835	-0,073	-0,082
-129,556	-200,000	0,015	-0,068
-128,541	-104,382	-0,081	-0,013
-127,526	800,000	-0,010	-0,021
-126,512	74,708	-0,039	0,030
-125,497	397,151	0,040	0,061
-124,483	800,000	0,023	0,055
-123,468	-200,000	0,034	-0,115
-122,453	690,774	-0,056	-0,106
-121,439	-35,158	0,065	-0,025
-120,424	-200,000	-0,017	-0,067
-119,410	800,000	-0,052	0,141
