DTS Sentinel unit serial number:	SN410029Multiplexer serial number:	ORYXHardware model number:	OX2-SRSoftware version number:	ORYX F/W v4,00 Oryx Data Collector v3.7.2.0data status	okinstallation	B4 Nyhavnadifferential loss correction	single-endedforward channel	channel 2reverse channel	N/Adate	2023/12/16time	04:35:13forward acquisition time	300,00reverse acquisition time	0,00gamma	499,1914k internal	0,3128k external	0,3128temperature offset calibration	1,0000default loss term (dB/km)	0,3820temperature slope calibration	1,0000multiplexer offset coefficient	1,0000multiplexer slope coefficient	1,0000fibre end	0,00T internal ref (°C)	22,00T ext. ref 1 (°C)	7,22T ext. ref 2 (°C)	7,39length (m)	temperature (°C)	Stokes	anti-Stokes-744,400	45,823	-0,075	0,052
-743,385	24,972	-0,212	0,131
-742,371	-200,000	-0,000	0,004
-741,356	47,682	-0,244	0,169
-740,342	-200,000	0,010	0,065
-739,327	64,185	-0,202	0,151
-738,312	340,008	-0,063	0,091
-737,298	66,915	-0,227	0,172
-736,283	-44,527	0,156	-0,058
-735,269	54,684	-0,236	0,169
-734,254	-32,081	-0,045	-0,019
-733,239	-32,612	-0,339	-0,140
-732,225	249,291	0,068	-0,086
-731,210	800,000	-0,039	0,117
-730,196	111,812	-0,091	-0,082
-729,181	-76,179	-0,133	0,035
-728,167	-193,575	0,037	-0,000
-727,152	-200,000	0,006	-0,098
-726,137	-187,274	-0,057	-0,001
-725,123	-94,015	0,072	-0,015
-724,108	-62,738	-0,066	-0,020
-723,094	800,000	-0,077	-0,215
-722,079	17,373	0,006	-0,003
-721,064	-200,000	-0,000	-0,020
-720,050	-200,000	-0,011	-0,140
-719,035	-126,436	0,095	0,010
-718,021	-68,326	-0,064	-0,018
-717,006	265,633	-0,023	0,030
-715,991	800,000	-0,065	-0,135
-714,977	800,000	0,022	-0,048
-713,962	129,894	0,022	0,021
-712,948	56,314	0,036	0,026
-711,933	-200,000	0,000	-0,013
-710,918	312,203	0,024	0,033
-709,904	-12,871	0,015	0,007
-708,889	800,000	-0,034	-0,084
-707,875	-200,000	0,014	-0,124
-706,860	28,677	0,042	-0,026
-705,845	79,433	-0,083	0,066
-704,831	33,419	-0,053	-0,034
-703,816	56,928	0,086	-0,062
-702,802	692,998	0,016	-0,032
-701,787	-3,138	-0,043	0,022
-700,772	265,520	-0,070	0,091
-699,758	-1,069	-0,093	-0,049
-698,743	559,649	0,056	0,101
-697,729	120,363	0,079	0,073
-696,714	332,853	0,039	0,057
-695,699	-107,614	0,228	0,037
-694,685	-43,928	-0,046	0,017
-693,670	109,052	-0,080	-0,071
-692,656	84,873	0,053	0,043
-691,641	-200,000	0,002	-0,052
-690,627	-107,878	0,007	0,001
-689,612	800,000	0,030	0,077
-688,597	-83,819	-0,065	0,015
-687,583	394,321	-0,073	-0,114
-686,568	-5,791	-0,054	0,027
-685,554	-66,448	0,105	0,031
-684,539	-131,341	0,018	-0,002
-683,524	190,177	0,113	-0,126
-682,510	-177,273	-0,117	0,002
-681,495	-200,000	-0,001	-0,071
-680,481	-199,191	0,073	-0,000
-679,466	117,436	-0,085	-0,078
-678,451	-99,085	-0,105	0,020
-677,437	113,435	0,110	0,099
-676,422	-50,256	-0,034	-0,012
-675,408	800,000	-0,038	-0,106
-674,393	487,495	-0,027	-0,046
-673,378	51,673	-0,129	0,091
-672,364	-200,000	0,008	-0,098
-671,349	766,812	-0,021	-0,042
-670,335	126,085	0,110	-0,103
-669,320	800,000	-0,040	0,101
-668,305	254,137	0,044	0,055
-667,291	83,261	-0,153	-0,124
-666,276	121,985	0,040	-0,037
-665,262	207,913	-0,048	-0,056
-664,247	-110,210	-0,069	0,011
-663,232	-200,000	0,005	-0,066
-662,218	-133,902	-0,099	-0,009
-661,203	404,251	0,047	0,074
-660,189	109,383	-0,084	-0,075
-659,174	-131,789	0,016	-0,002
-658,159	226,438	-0,045	-0,054
-657,145	137,036	0,098	-0,095
-656,130	624,148	0,032	-0,060
-655,116	-200,000	-0,017	0,071
-654,101	215,482	-0,035	0,041
-653,086	-200,000	0,006	-0,070
-652,072	562,418	-0,042	0,076
-651,057	183,047	-0,095	-0,104
-650,043	714,651	-0,068	0,134
-649,028	-200,000	0,010	-0,069
-648,014	-84,722	-0,097	0,022
-646,999	68,187	-0,093	0,071
-645,984	800,000	-0,070	-0,188
-644,970	43,496	0,066	0,045
-643,955	228,128	-0,047	0,057
-642,941	-3,486	0,053	-0,027
-641,926	-29,343	0,058	-0,024
-640,911	-39,763	-0,083	0,032
-639,897	-200,000	0,025	0,084
-638,882	800,000	-0,021	-0,064
-637,868	153,348	0,102	0,103
-636,853	800,000	0,035	-0,084
-635,838	-200,000	0,000	-0,085
-634,824	-50,730	0,016	-0,005
-633,809	-200,000	-0,005	-0,110
-632,795	-24,933	0,056	0,025
-631,780	74,207	-0,112	0,087
-630,765	-56,862	-0,195	0,063
-629,751	-1,214	-0,055	-0,029
-628,736	800,000	-0,047	-0,148
-627,722	109,229	0,128	0,114
-626,707	800,000	0,029	-0,063
-625,692	-9,710	0,071	-0,035
-624,678	-200,000	-0,010	0,118
-623,663	-200,000	0,007	-0,098
-622,649	-80,693	0,020	0,005
-621,634	800,000	0,064	-0,150
-620,619	-174,572	-0,104	0,002
-619,605	71,892	0,169	0,130
-618,590	-143,465	0,028	-0,002
-617,576	21,456	0,056	-0,034
-616,561	-182,100	-0,025	-0,000
-615,546	102,861	0,051	-0,044
-614,532	-200,000	0,011	-0,062
-613,517	-10,412	-0,183	0,090
-612,503	-158,061	0,190	-0,008
-611,488	66,108	-0,117	0,088
-610,474	-158,678	-0,068	-0,003
-609,459	-66,919	-0,048	0,014
-608,444	-85,616	0,192	-0,044
-607,430	11,999	-0,021	0,012
-606,415	-200,000	-0,002	0,125
-605,401	-72,277	-0,131	0,036
-604,386	-200,000	-0,007	-0,043
-603,371	386,465	0,042	0,064
-602,357	602,802	0,029	-0,054
-601,342	-147,404	-0,153	-0,009
-600,328	-76,670	-0,161	-0,042
-599,313	-42,179	0,011	0,004
-598,298	693,737	-0,023	-0,045
-597,284	260,040	-0,128	-0,164
-596,269	-62,217	-0,059	0,018
-595,255	800,000	0,048	0,103
-594,240	-200,000	-0,037	-0,122
-593,225	-21,331	-0,113	-0,051
-592,211	610,191	-0,061	-0,113
-591,196	159,243	0,049	-0,051
-590,182	101,688	0,118	0,102
-589,167	-141,157	-0,048	0,004
-588,152	800,000	0,057	-0,120
-587,138	-200,000	-0,040	-0,195
-586,123	-200,000	-0,026	-0,085
-585,109	59,003	0,071	-0,052
-584,094	-200,000	-0,002	-0,050
-583,079	800,000	-0,046	0,100
-582,065	-81,425	0,249	-0,060
-581,050	491,845	-0,078	0,133
-580,036	-175,556	-0,054	0,001
-579,021	157,763	-0,119	-0,122
-578,006	227,086	-0,049	-0,059
-576,992	517,556	-0,049	-0,085
-575,977	422,056	-0,069	-0,109
-574,963	800,000	0,053	0,170
-573,948	-134,967	0,102	0,009
-572,934	145,475	-0,030	0,029
-571,919	24,333	-0,139	-0,085
-570,904	439,104	-0,041	-0,067
-569,890	-52,486	0,072	0,024
-568,875	-200,000	-0,009	0,165
-567,861	-200,000	-0,013	-0,056
-566,846	-200,000	-0,004	0,013
-565,831	-135,649	-0,035	-0,003
-564,817	-32,629	0,052	-0,021
-563,802	117,439	0,069	-0,063
-562,788	-62,992	0,079	-0,024
-561,773	-200,000	0,017	-0,077
-560,758	177,423	-0,037	0,040
-559,744	116,802	-0,046	-0,041
-558,729	453,464	0,041	0,068
-557,715	-157,561	0,187	-0,008
-556,700	-90,602	0,029	0,006
-555,685	-29,697	-0,120	0,050
-554,671	473,390	-0,007	-0,012
-553,656	800,000	0,045	0,097
-552,642	298,238	0,052	0,071
-551,627	-133,869	0,088	0,008
-550,612	120,652	-0,146	-0,134
-549,598	-200,000	0,013	0,061
-548,583	392,194	-0,064	-0,098
-547,569	800,000	-0,025	-0,057
-546,554	-179,133	0,024	-0,000
-545,539	-38,901	0,094	0,036
-544,525	-8,774	0,123	-0,061
-543,510	-200,000	0,018	0,153
-542,496	800,000	-0,082	0,189
-541,481	-200,000	0,009	0,049
-540,466	-200,000	0,006	0,075
-539,452	-200,000	0,022	-0,107
-538,437	35,336	-0,046	-0,030
-537,423	599,419	0,013	-0,024
-536,408	-119,409	-0,093	0,012
-535,393	800,000	0,033	-0,076
-534,379	-37,370	-0,096	-0,038
-533,364	800,000	0,007	0,020
-532,350	564,976	-0,010	0,019
-531,335	7,400	-0,108	0,060
-530,321	-200,000	-0,040	0,138
-529,306	800,000	-0,040	-0,103
-528,291	-88,501	-0,239	0,052
-527,277	50,493	0,058	-0,040
-526,262	-200,000	-0,037	-0,153
-525,248	800,000	0,015	0,043
-524,233	-115,393	0,150	-0,021
-523,218	-102,158	0,052	-0,009
-522,204	-109,180	-0,119	-0,019
-521,189	-30,118	0,081	0,034
-520,175	-200,000	-0,045	-0,178
-519,160	587,486	0,033	0,060
-518,145	-52,819	0,075	-0,025
-517,131	-21,947	-0,035	0,016
-516,116	-0,141	-0,021	0,011
-515,102	800,000	-0,030	-0,085
-514,087	800,000	-0,049	-0,103
-513,072	92,039	-0,072	0,060
-512,058	-88,533	-0,004	0,001
-511,043	150,274	-0,091	0,091
-510,029	75,406	0,055	-0,043
-509,014	445,880	-0,049	-0,079
-507,999	-121,574	-0,043	-0,005
-506,985	-71,150	-0,106	0,029
-505,970	-200,000	0,012	-0,079
-504,956	-26,583	-0,123	-0,053
-503,941	-200,000	-0,009	0,125
-502,926	-7,547	0,041	-0,021
-501,912	800,000	0,024	-0,071
-500,897	65,268	0,046	-0,034
-499,883	-47,741	-0,097	-0,035
-498,868	-0,162	-0,132	-0,069
-497,853	174,831	-0,040	0,043
-496,839	-164,540	0,095	0,003
-495,824	346,969	0,018	-0,026
-494,810	146,135	0,117	-0,116
-493,795	473,554	-0,014	0,023
-492,781	-200,000	0,003	0,013
-491,766	-38,102	-0,041	0,016
-490,751	71,435	-0,059	-0,045
-489,737	98,477	0,039	-0,033
-488,722	-61,790	0,154	0,047
-487,708	520,995	0,076	0,132
-486,693	-157,136	0,139	0,006
-485,678	-27,558	0,064	-0,027
-484,664	-44,073	-0,049	-0,018
-483,649	-120,968	-0,047	-0,006
-482,635	800,000	-0,042	0,101
-481,620	-200,000	0,001	0,068
-480,605	666,809	-0,146	0,278
-479,591	180,586	-0,069	0,074
-478,576	125,419	0,020	0,018
-477,562	-35,030	-0,064	0,026
-476,547	-165,059	0,047	0,001
-475,532	-200,000	0,008	-0,109
-474,518	91,245	0,074	0,062
-473,503	800,000	0,008	0,024
-472,489	-97,558	0,104	-0,020
-471,474	-200,000	-0,020	-0,106
-470,459	13,311	0,029	-0,017
-469,445	-200,000	-0,000	0,049
-468,430	-138,045	-0,059	-0,005
-467,416	-114,680	-0,216	-0,030
-466,401	-26,739	0,030	-0,013
-465,386	337,056	-0,030	-0,043
-464,372	-200,000	0,007	-0,042
-463,357	176,784	-0,114	-0,122
-462,343	108,062	-0,117	-0,103
-461,328	-200,000	0,023	-0,117
-460,313	338,782	-0,012	0,017
-459,299	-121,902	0,209	-0,025
-458,284	-60,276	0,061	0,019
-457,270	-8,789	0,113	0,056
-456,255	-52,117	0,046	0,016
-455,241	800,000	0,024	0,064
-454,226	-135,630	-0,066	0,006
-453,211	-68,033	0,090	0,026
-452,197	115,281	0,064	-0,058
-451,182	-53,469	0,089	-0,030
-450,168	52,927	-0,037	0,026
-449,153	800,000	-0,058	0,139
-448,138	-200,000	-0,006	-0,211
-447,124	758,384	0,067	0,135
-446,109	74,012	-0,046	0,036
-445,095	140,201	0,053	-0,052
-444,080	12,735	0,014	0,008
-443,065	-200,000	0,014	0,053
-442,051	782,054	-0,052	-0,105
-441,036	337,946	0,021	0,030
-440,022	800,000	-0,029	0,072
-439,007	-71,004	0,115	-0,031
-437,992	-24,936	0,103	0,045
-436,978	170,042	0,052	0,055
-435,963	-200,000	0,027	0,140
-434,949	-97,654	-0,058	-0,011
-433,934	493,847	-0,062	0,106
-432,919	217,798	0,091	0,106
-431,905	-200,000	-0,035	0,144
-430,890	445,141	0,015	0,024
-429,876	-200,000	-0,006	0,046
-428,861	-106,859	0,103	0,017
-427,846	-200,000	0,014	0,071
-426,832	-200,000	-0,051	-0,207
-425,817	231,176	-0,101	-0,122
-424,803	800,000	-0,021	-0,055
-423,788	-121,139	0,050	-0,006
-422,773	-200,000	-0,002	-0,024
-421,759	-152,231	-0,148	0,008
-420,744	-3,917	-0,041	-0,021
-419,730	-200,000	-0,014	-0,192
-418,715	-74,290	0,112	-0,029
-417,701	800,000	-0,061	-0,165
-416,686	800,000	0,048	-0,141
-415,671	-200,000	0,002	-0,042
-414,657	617,904	0,075	0,139
-413,642	-75,717	-0,046	0,012
-412,628	58,295	-0,055	-0,040
-411,613	57,637	-0,078	-0,056
-410,598	-111,961	0,049	0,007
-409,584	-95,053	0,064	-0,013
-408,569	800,000	-0,032	0,083
-407,555	135,658	0,131	0,125
-406,540	-141,950	0,056	0,004
-405,525	46,126	0,036	0,024
-404,511	-169,780	0,032	-0,001
-403,496	-57,768	0,047	0,015
-402,482	225,586	0,048	-0,057
-401,467	-169,961	0,033	0,001
-400,452	-131,271	0,084	0,008
-399,438	-200,000	0,002	0,067
-398,423	46,136	-0,161	-0,109
-397,409	-200,000	0,008	-0,136
-396,394	800,000	-0,041	-0,117
-395,379	-200,000	-0,008	-0,058
-394,365	483,233	0,051	-0,086
-393,350	-200,000	-0,019	0,075
-392,336	138,136	-0,027	-0,026
-391,321	-200,000	-0,001	0,017
-390,306	-71,505	-0,041	0,011
-389,292	182,204	0,072	-0,078
-388,277	-200,000	-0,014	-0,200
-387,263	116,799	0,134	0,121
-386,248	-200,000	-0,012	0,141
-385,233	89,851	-0,107	-0,088
-384,219	-66,148	-0,050	0,015
-383,204	-94,208	0,078	0,016
-382,190	0,976	-0,073	0,038
-381,175	-200,000	-0,030	0,129
-380,160	800,000	0,042	0,122
-379,146	324,703	0,027	0,039
-378,131	800,000	0,006	0,020
-377,117	1,515	0,087	0,046
-376,102	-200,000	-0,027	-0,148
-375,088	150,331	0,023	0,023
-374,073	-109,662	0,080	-0,012
-373,058	-1,859	0,172	-0,088
-372,044	-200,000	0,025	-0,095
-371,029	326,144	0,050	-0,071
-370,015	-200,000	-0,013	-0,082
-369,000	-200,000	0,008	0,083
-367,985	601,882	0,069	0,126
-366,971	-34,604	0,116	0,046
-365,956	247,761	-0,038	-0,047
-364,942	-65,667	0,115	-0,034
-363,927	-37,460	-0,057	-0,022
-362,912	123,418	-0,077	-0,071
-361,898	-200,000	-0,003	0,121
-360,883	118,720	0,006	-0,006
-359,869	-200,000	-0,003	-0,050
-358,854	172,589	-0,035	0,037
-357,839	-29,990	0,064	0,027
-356,825	-123,510	-0,106	-0,012
-355,810	-154,283	-0,134	0,007
-354,796	-90,727	0,044	0,009
-353,781	404,524	-0,035	-0,055
-352,766	305,664	0,038	0,051
-351,752	-98,126	0,034	-0,006
-350,737	704,276	-0,024	0,047
-349,723	-136,952	0,076	0,006
-348,708	-116,215	0,108	0,014
-347,693	170,086	0,032	-0,034
-346,679	144,594	-0,049	-0,048
-345,664	-200,000	-0,008	0,063
-344,650	-10,522	0,044	-0,021
-343,635	2,837	0,023	0,012
-342,620	-200,000	0,011	0,135
-341,606	800,000	-0,064	0,141
-340,591	-48,527	-0,055	0,019
-339,577	800,000	-0,013	0,042
-338,562	-75,069	-0,122	0,032
-337,548	397,491	-0,063	0,098
-336,533	146,829	0,167	0,165
-335,518	800,000	0,049	0,139
-334,504	-70,604	0,122	0,033
-333,489	-62,166	0,116	-0,035
-332,475	-200,000	-0,006	-0,097
-331,460	800,000	0,007	0,020
-330,445	173,837	-0,065	0,069
-329,431	-200,000	-0,020	0,154
-328,416	-176,710	-0,035	0,001
-327,402	800,000	0,046	0,106
-326,387	-117,245	-0,044	0,006
-325,372	-90,148	-0,042	0,009
-324,358	399,863	0,016	0,025
-323,343	-156,299	0,112	-0,005
-322,329	-200,000	-0,005	0,033
-321,314	67,213	0,123	0,091
-320,299	347,293	0,077	0,111
-319,285	-200,000	-0,007	0,087
-318,270	800,000	-0,040	0,123
-317,256	200,455	0,081	-0,091
-316,241	-118,984	-0,043	-0,005
-315,226	800,000	0,043	-0,093
-314,212	250,463	0,082	0,102
-313,197	195,659	0,059	-0,066
-312,183	-200,000	-0,026	0,114
-311,168	-200,000	-0,017	0,057
-310,153	-200,000	-0,015	-0,083
-309,139	28,359	-0,067	-0,042
-308,124	-200,000	-0,007	-0,026
-307,110	-72,655	0,087	0,023
-306,095	141,264	0,081	0,079
-305,080	204,581	-0,055	0,063
-304,066	-200,000	0,031	-0,156
-303,051	22,443	0,067	-0,040
-302,037	28,674	0,091	0,056
-301,022	36,605	-0,071	0,046
-300,008	165,777	-0,045	-0,046
-298,993	-200,000	-0,010	-0,071
-297,978	53,786	0,084	0,059
-296,964	663,092	-0,062	0,118
-295,949	-138,227	-0,101	0,008
-294,935	800,000	-0,002	-0,005
-293,920	-200,000	-0,026	0,163
-292,905	94,996	-0,020	0,016
-291,891	223,959	0,041	-0,049
-290,876	-10,908	0,072	0,035
-289,862	124,558	-0,118	-0,109
-288,847	-10,606	0,015	-0,007
-287,832	106,758	-0,051	0,044
-286,818	21,521	0,048	-0,029
-285,803	151,565	0,084	0,083
-284,789	-151,846	0,137	-0,007
-283,774	800,000	0,056	0,148
-282,759	-200,000	0,015	-0,100
-281,745	237,970	0,060	0,073
-280,730	195,451	0,079	0,088
-279,716	-9,095	0,106	0,051
-278,701	-200,000	0,011	0,071
-277,686	292,366	0,027	-0,036
-276,672	-160,945	0,116	0,004
-275,657	-200,000	-0,008	-0,058
-274,643	-18,999	0,028	-0,013
-273,628	44,387	-0,109	-0,073
-272,613	304,040	-0,085	-0,116
-271,599	-200,000	-0,022	0,099
-270,584	-107,303	-0,034	0,005
-269,570	282,587	0,079	0,104
-268,555	62,329	0,068	0,050
-267,540	47,754	0,041	-0,028
-266,526	-200,000	0,022	-0,101
-265,511	149,320	0,035	-0,035
-264,497	-55,370	-0,073	-0,024
-263,482	106,422	0,075	0,065
-262,467	175,947	0,082	0,087
-261,453	-200,000	-0,012	-0,160
-260,438	-200,000	0,028	-0,164
-259,424	147,439	-0,036	-0,035
-258,409	53,616	0,019	-0,013
-257,395	-100,865	-0,088	0,016
-256,380	-4,419	0,054	-0,027
-255,365	-200,000	0,017	0,188
-254,351	78,281	-0,062	0,049
-253,336	230,186	-0,022	0,026
-252,322	-200,000	0,023	0,074
-251,307	-200,000	-0,006	-0,092
-250,292	-128,880	-0,051	0,005
-249,278	-200,000	0,009	0,134
-248,263	-85,701	0,092	0,021
-247,249	-160,062	-0,056	-0,002
-246,234	-200,000	0,009	-0,090
-245,219	81,026	-0,187	0,147
-244,205	-103,888	-0,030	-0,005
-243,190	323,396	0,021	-0,030
-242,176	351,831	-0,018	0,027
-241,161	-200,000	-0,001	-0,065
-240,146	-79,200	-0,089	0,022
-239,132	-106,440	-0,159	0,026
-238,117	800,000	0,017	-0,052
-237,103	800,000	-0,040	0,093
-236,088	-200,000	-0,022	0,186
-235,073	-200,000	-0,004	0,083
-234,059	6,758	0,062	0,034
-233,044	31,587	-0,061	0,038
-232,030	139,217	-0,018	0,017
-231,015	-200,000	0,019	-0,215
-230,000	800,000	-0,060	-0,174
-228,986	-200,000	0,012	-0,068
-227,971	-103,500	0,020	-0,003
-226,957	800,000	-0,056	0,145
-225,942	-200,000	0,004	0,025
-224,927	63,383	0,127	-0,093
-223,913	-72,637	-0,035	-0,009
-222,898	451,190	-0,066	-0,107
-221,884	-137,838	-0,048	0,004
-220,869	-200,000	0,007	0,099
-219,855	41,630	0,170	0,112
-218,840	85,166	-0,147	0,118
-217,825	-200,000	0,009	-0,142
-216,811	-31,931	-0,077	-0,031
-215,796	-200,000	0,020	0,113
-214,782	155,074	0,051	-0,051
-213,767	0,231	-0,134	0,070
-212,752	-69,549	-0,020	0,005
-211,738	355,468	0,046	0,066
-210,723	800,000	-0,024	-0,060
-209,709	-133,932	0,135	-0,012
-208,694	800,000	0,047	-0,117
-207,679	188,845	-0,050	0,054
-206,665	-200,000	0,004	0,055
-205,650	53,965	0,051	0,035
-204,636	50,149	0,070	-0,048
-203,621	257,659	-0,093	0,117
-202,606	766,574	0,061	0,122
-201,592	-61,562	-0,100	0,030
-200,577	105,147	-0,026	-0,023
-199,563	800,000	-0,007	0,018
-198,548	114,046	-0,052	0,046
-197,533	800,000	-0,033	-0,085
-196,519	800,000	-0,051	0,159
-195,504	-150,615	0,070	0,004
-194,490	-173,073	-0,108	0,002
-193,475	71,270	-0,168	-0,127
-192,460	37,637	-0,029	-0,019
-191,446	54,392	-0,086	-0,060
-190,431	800,000	-0,009	-0,026
-189,417	63,877	0,101	0,074
-188,402	-28,164	-0,113	-0,047
-187,387	7,636	-0,118	0,064
-186,373	236,139	0,054	-0,065
-185,358	-200,000	-0,013	-0,127
-184,344	569,851	-0,039	0,070
-183,329	7,614	0,125	0,068
-182,315	320,215	-0,047	-0,065
-181,300	-200,000	0,004	0,047
-180,285	60,674	-0,066	-0,047
-179,271	800,000	0,034	0,077
-178,256	-200,000	-0,017	-0,071
-177,242	17,745	0,087	-0,050
-176,227	-200,000	0,013	-0,064
-175,212	-148,365	-0,058	-0,003
-174,198	-24,622	-0,080	-0,035
-173,183	800,000	-0,025	0,055
-172,169	-200,000	0,017	0,069
-171,154	-28,975	0,096	-0,040
-170,139	497,517	-0,073	0,122
-169,125	185,636	0,071	-0,077
-168,110	800,000	0,010	0,023
-167,096	-200,000	-0,043	0,153
-166,081	-2,480	0,192	-0,098
-165,066	3,699	-0,248	-0,131
-164,052	-200,000	-0,009	-0,061
-163,037	-200,000	-0,015	-0,122
-162,023	-57,813	0,070	0,022
-161,008	-10,091	0,106	0,051
-159,993	-98,651	-0,220	-0,040
-158,979	50,183	0,084	-0,057
-157,964	800,000	-0,037	-0,110
-156,950	-200,000	0,000	-0,154
-155,935	800,000	-0,058	-0,123
-154,920	55,316	0,016	-0,011
-153,906	800,000	0,039	-0,104
-152,891	-163,004	0,014	-0,000
-151,877	-62,522	0,048	-0,014
-150,862	4,904	-0,069	-0,037
-149,847	127,672	-0,094	-0,087
-148,833	-87,323	0,116	-0,025
-147,818	-113,600	0,137	0,019
-146,804	-200,000	-0,028	0,133
-145,789	-200,000	0,012	0,087
-144,775	22,606	-0,172	0,102
-143,760	-128,303	-0,081	0,008
-142,745	-41,222	0,040	0,015
-141,731	221,003	-0,058	-0,068
-140,716	261,105	-0,117	0,147
-139,702	-200,000	-0,008	0,027
-138,687	0,219	-0,092	0,048
-137,672	2,256	0,059	0,031
-136,658	-200,000	-0,000	-0,072
-135,643	146,985	0,008	0,008
-134,629	-200,000	0,028	0,152
-133,614	-47,202	-0,135	0,048
-132,599	69,152	0,094	0,070
-131,585	-200,000	0,047	0,196
-130,570	245,511	-0,038	0,046
-129,556	800,000	-0,019	-0,039
-128,541	-116,877	-0,047	-0,006
-127,526	-109,306	0,088	0,013
-126,512	143,149	-0,012	0,011
-125,497	145,034	0,104	0,101
-124,483	-200,000	-0,000	-0,099
-123,468	-45,411	-0,108	0,039
-122,453	-200,000	0,018	-0,074
-121,439	388,599	-0,067	0,101
-120,424	-4,596	-0,054	0,027
-119,410	-200,000	-0,007	0,052
