DTS Sentinel unit serial number:	SN410029Multiplexer serial number:	ORYXHardware model number:	OX2-SRSoftware version number:	ORYX F/W v4,00 Oryx Data Collector v3.7.2.0data status	okinstallation	B4 Nyhavnadifferential loss correction	single-endedforward channel	channel 2reverse channel	N/Adate	2023/12/19time	03:35:13forward acquisition time	300,00reverse acquisition time	0,00gamma	499,1914k internal	0,3125k external	0,3125temperature offset calibration	1,0000default loss term (dB/km)	0,3820temperature slope calibration	1,0000multiplexer offset coefficient	1,0000multiplexer slope coefficient	1,0000fibre end	0,00T internal ref (°C)	21,08T ext. ref 1 (°C)	5,68T ext. ref 2 (°C)	5,62length (m)	temperature (°C)	Stokes	anti-Stokes-744,400	-6,088	0,051	-0,026
-743,385	-31,115	-0,349	0,146
-742,371	-96,860	0,122	0,024
-741,356	213,027	-0,169	0,200
-740,342	-52,976	0,051	0,018
-739,327	75,799	-0,231	0,181
-738,312	-200,000	-0,004	-0,016
-737,298	-153,425	-0,295	0,015
-736,283	-200,000	0,024	-0,119
-735,269	164,582	-0,152	0,160
-734,254	82,427	0,060	0,048
-733,239	-39,184	-0,317	-0,123
-732,225	272,729	0,070	-0,092
-731,210	800,000	-0,024	0,069
-730,196	-200,000	0,008	-0,059
-729,181	157,112	-0,055	-0,057
-728,167	-200,000	-0,009	-0,134
-727,152	393,788	-0,040	-0,062
-726,137	-126,938	0,149	0,016
-725,123	-177,095	-0,195	0,004
-724,108	43,486	0,071	-0,048
-723,094	62,040	-0,080	-0,060
-722,079	800,000	-0,081	-0,237
-721,064	22,831	0,041	0,025
-720,050	-200,000	-0,003	0,047
-719,035	-31,275	-0,115	0,048
-718,021	-143,687	-0,036	-0,002
-717,006	-149,198	0,149	0,009
-715,991	11,502	0,026	-0,015
-714,977	417,890	0,084	-0,133
-713,962	288,625	-0,013	-0,017
-712,948	176,632	0,078	-0,085
-711,933	-61,639	-0,110	0,034
-710,918	85,705	0,076	-0,062
-709,904	-200,000	0,009	-0,157
-708,889	800,000	-0,030	-0,063
-707,875	-167,895	-0,094	-0,003
-706,860	437,500	-0,032	-0,051
-705,845	271,210	0,056	0,074
-704,831	18,885	-0,073	-0,043
-703,816	-200,000	-0,009	-0,033
-702,802	800,000	0,034	-0,075
-701,787	800,000	-0,037	-0,096
-700,772	155,825	0,036	0,037
-699,758	-6,584	0,050	0,025
-698,743	-89,782	0,025	0,005
-697,729	342,998	0,098	-0,143
-696,714	-64,314	-0,053	0,016
-695,699	20,646	-0,088	-0,053
-694,685	-58,124	-0,080	-0,026
-693,670	0,724	-0,131	-0,069
-692,656	-142,957	0,083	-0,006
-691,641	184,062	0,025	0,027
-690,627	129,124	-0,057	0,054
-689,612	-200,000	0,020	-0,086
-688,597	-200,000	0,004	0,075
-687,583	463,333	0,066	-0,110
-686,568	-0,381	-0,024	-0,013
-685,554	118,557	-0,109	-0,100
-684,539	800,000	-0,020	-0,045
-683,524	50,772	-0,066	0,046
-682,510	-200,000	0,014	0,078
-681,495	131,772	0,049	-0,047
-680,481	3,168	-0,082	-0,044
-679,466	-27,077	-0,159	-0,068
-678,451	800,000	0,030	-0,088
-677,437	-200,000	0,006	0,031
-676,422	800,000	-0,023	-0,055
-675,408	-200,000	0,007	0,116
-674,393	0,833	0,061	0,032
-673,378	-61,246	-0,030	0,009
-672,364	87,783	-0,098	-0,080
-671,349	-200,000	-0,037	0,130
-670,335	-200,000	0,018	0,082
-669,320	-59,909	-0,088	-0,028
-668,305	548,099	-0,028	0,050
-667,291	34,318	0,042	-0,027
-666,276	124,709	0,090	-0,084
-665,262	-129,211	-0,088	0,009
-664,247	-200,000	-0,005	-0,143
-663,232	575,788	0,044	0,080
-662,218	-162,547	0,107	0,004
-661,203	108,154	0,030	0,026
-660,189	-200,000	-0,032	0,141
-659,174	-200,000	-0,002	0,123
-658,159	-88,578	-0,190	0,042
-657,145	-3,107	-0,066	-0,034
-656,130	-200,000	0,003	-0,035
-655,116	47,741	0,020	0,014
-654,101	-200,000	-0,001	0,068
-653,086	-200,000	0,000	0,003
-652,072	-109,180	-0,177	-0,028
-651,057	-200,000	-0,002	0,121
-650,043	585,681	-0,032	-0,058
-649,028	-78,709	0,030	0,007
-648,014	324,432	-0,095	-0,135
-646,999	800,000	-0,036	0,078
-645,984	-144,751	-0,074	0,005
-644,970	800,000	0,048	0,138
-643,955	-113,345	-0,035	-0,005
-642,941	-200,000	-0,011	-0,083
-641,926	-102,823	-0,072	-0,013
-640,911	800,000	0,016	0,042
-639,897	0,342	-0,094	-0,050
-638,882	-82,569	-0,104	-0,025
-637,868	-15,103	0,044	-0,021
-636,853	-200,000	0,015	-0,070
-635,838	-189,407	-0,087	0,001
-634,824	-200,000	-0,051	-0,169
-633,809	528,636	0,034	-0,060
-632,795	-200,000	0,008	0,040
-631,780	-125,392	-0,091	0,010
-630,765	800,000	-0,034	-0,078
-629,751	-200,000	0,010	-0,130
-628,736	-90,762	-0,149	-0,032
-627,722	-168,688	-0,075	-0,002
-626,707	391,000	-0,057	-0,088
-625,692	71,136	0,153	-0,118
-624,678	-96,885	-0,064	0,012
-623,663	73,239	0,020	0,015
-622,649	414,774	-0,053	-0,085
-621,634	27,845	-0,160	-0,100
-620,619	-150,619	-0,055	0,003
-619,605	117,083	0,099	-0,090
-618,590	-3,352	0,050	0,026
-617,576	-38,422	0,114	-0,044
-616,561	696,336	0,060	0,117
-615,546	264,104	0,101	-0,131
-614,532	-200,000	-0,052	-0,200
-613,517	-95,821	-0,097	0,019
-612,503	-200,000	-0,023	0,124
-611,488	-200,000	-0,024	0,146
-610,474	-84,589	0,049	0,011
-609,459	-200,000	-0,014	0,061
-608,444	-155,358	0,071	0,003
-607,430	800,000	-0,071	-0,173
-606,415	800,000	0,047	-0,131
-605,401	470,573	0,050	-0,084
-604,386	262,022	0,037	-0,048
-603,371	6,604	0,139	0,076
-602,357	-200,000	0,002	-0,046
-601,342	88,430	0,070	0,058
-600,328	48,007	0,054	-0,037
-599,313	-17,780	0,023	0,011
-598,298	800,000	-0,033	-0,073
-597,284	238,722	0,131	0,161
-596,269	718,916	-0,057	0,113
-595,255	800,000	-0,057	-0,178
-594,240	-0,716	-0,158	0,083
-593,225	45,056	-0,091	-0,062
-592,211	269,178	0,079	-0,103
-591,196	718,068	-0,025	0,050
-590,182	-56,297	-0,026	-0,009
-589,167	27,459	0,166	-0,103
-588,152	-200,000	0,001	0,020
-587,138	-200,000	-0,016	-0,062
-586,123	-153,065	0,063	-0,003
-585,109	22,079	0,061	-0,037
-584,094	-39,117	-0,037	-0,014
-583,079	-200,000	0,005	-0,081
-582,065	-128,148	0,125	0,013
-581,050	-81,878	0,043	0,010
-580,036	74,695	0,030	-0,023
-579,021	195,588	-0,081	-0,092
-578,006	65,622	-0,079	-0,059
-576,992	120,573	0,103	-0,095
-575,977	-2,501	0,035	-0,018
-574,963	172,696	0,095	0,101
-573,948	402,065	-0,089	-0,138
-572,934	-200,000	0,005	-0,066
-571,919	-68,302	-0,080	0,023
-570,904	-200,000	-0,030	0,100
-569,890	45,272	-0,135	-0,092
-568,875	324,732	0,031	0,044
-567,861	-200,000	0,000	0,071
-566,846	-200,000	-0,014	0,049
-565,831	2,959	-0,130	-0,070
-564,817	-200,000	0,000	-0,046
-563,802	703,230	-0,043	-0,084
-562,788	38,634	-0,028	0,018
-561,773	-61,825	0,031	-0,010
-560,758	-27,812	0,122	0,052
-559,744	579,106	0,026	-0,047
-558,729	15,114	0,047	-0,027
-557,715	-66,410	-0,112	-0,033
-556,700	-143,157	0,077	0,005
-555,685	42,716	0,090	-0,060
-554,671	22,291	-0,082	-0,050
-553,656	-102,861	-0,070	0,012
-552,642	251,902	0,044	0,055
-551,627	-70,295	0,023	-0,006
-550,612	481,046	-0,096	-0,162
-549,598	696,111	-0,038	-0,074
-548,583	-18,697	-0,036	-0,016
-547,569	-200,000	-0,003	-0,019
-546,554	76,433	-0,104	-0,081
-545,539	800,000	-0,057	0,125
-544,525	-200,000	0,065	0,227
-543,510	-96,110	0,010	-0,002
-542,496	-200,000	0,018	-0,118
-541,481	173,922	-0,047	0,051
-540,466	7,828	0,026	0,014
-539,452	266,273	0,120	0,156
-538,437	490,943	-0,025	0,043
-537,423	85,343	0,159	0,129
-536,408	800,000	-0,041	0,102
-535,393	-46,667	-0,099	-0,036
-534,379	800,000	-0,032	0,084
-533,364	131,689	-0,050	0,048
-532,350	-133,120	0,135	-0,012
-531,335	401,238	0,021	-0,033
-530,321	-97,938	-0,131	0,025
-529,306	27,885	0,012	0,008
-528,291	295,878	-0,050	-0,067
-527,277	25,807	0,029	-0,018
-526,262	320,297	-0,062	0,087
-525,248	653,763	-0,051	-0,096
-524,233	-200,000	-0,028	0,168
-523,218	-65,000	0,151	0,045
-522,204	156,639	-0,016	0,016
-521,189	601,526	-0,063	0,116
-520,175	382,005	0,046	-0,070
-519,160	17,518	-0,157	0,092
-518,145	-200,000	0,027	-0,114
-517,131	564,982	0,004	-0,007
-516,116	570,499	0,068	0,122
-515,102	-200,000	0,014	0,109
-514,087	-200,000	0,022	0,104
-513,072	-78,675	0,067	0,017
-512,058	-135,377	-0,086	-0,007
-511,043	800,000	0,008	-0,024
-510,029	-74,014	0,087	0,023
-509,014	-200,000	-0,001	0,091
-507,999	800,000	-0,059	0,127
-506,985	111,139	0,011	0,010
-505,970	-100,762	0,184	-0,033
-504,956	-109,618	-0,040	0,006
-503,941	568,347	-0,044	-0,079
-502,926	800,000	-0,033	-0,096
-501,912	-1,536	0,105	-0,055
-500,897	-104,445	-0,067	0,011
-499,883	39,374	-0,049	-0,032
-498,868	87,039	-0,096	0,078
-497,853	-200,000	0,026	-0,089
-496,839	144,533	-0,010	-0,009
-495,824	8,639	-0,013	0,007
-494,810	497,246	0,069	0,117
-493,795	170,268	-0,073	0,077
-492,781	-50,909	-0,104	-0,036
-491,766	-171,017	0,100	0,002
-490,751	-200,000	0,020	0,166
-489,737	-21,895	-0,186	0,083
-488,722	-85,722	0,086	0,020
-487,708	180,043	0,072	0,077
-486,693	-87,025	0,108	-0,024
-485,678	-200,000	-0,012	-0,089
-484,664	-200,000	0,030	0,200
-483,649	-200,000	0,009	0,098
-482,635	-168,131	-0,197	0,006
-481,620	-200,000	-0,016	0,068
-480,605	-200,000	-0,020	0,092
-479,591	-200,000	-0,041	0,177
-478,576	37,348	0,038	0,025
-477,562	737,359	-0,048	-0,096
-476,547	-49,316	-0,027	0,009
-475,532	-129,837	-0,077	-0,008
-474,518	598,680	0,071	-0,130
-473,503	101,790	-0,100	-0,086
-472,489	800,000	0,016	0,048
-471,474	93,891	0,061	0,051
-470,459	800,000	0,032	0,074
-469,445	49,847	-0,067	-0,046
-468,430	-50,919	0,088	0,030
-467,416	800,000	-0,027	0,084
-466,401	-200,000	-0,030	-0,116
-465,386	-55,184	0,133	-0,044
-464,372	158,196	0,044	0,045
-463,357	112,200	0,095	-0,084
-462,343	-200,000	-0,006	-0,043
-461,328	122,301	0,044	-0,040
-460,313	800,000	0,005	0,010
-459,299	367,701	0,068	0,101
-458,284	-44,753	0,114	0,042
-457,270	-94,731	0,089	0,018
-456,255	61,118	0,078	0,057
-455,241	56,563	-0,096	0,069
-454,226	36,710	-0,068	0,044
-453,211	495,866	-0,033	-0,057
-452,197	320,363	-0,062	-0,087
-451,182	-200,000	-0,006	0,035
-450,168	11,279	0,136	0,076
-449,153	-49,279	-0,109	0,038
-448,138	-200,000	-0,031	-0,168
-447,124	-72,467	0,029	0,008
-446,109	340,701	-0,027	0,039
-445,095	592,831	0,017	0,032
-444,080	-4,799	0,140	0,071
-443,065	-200,000	-0,013	0,081
-442,051	14,323	0,090	0,051
-441,036	800,000	-0,051	0,125
-440,022	-200,000	-0,009	0,045
-439,007	-74,505	-0,027	-0,007
-437,992	-107,205	-0,067	-0,011
-436,978	-200,000	-0,012	-0,121
-435,963	-200,000	-0,011	-0,141
-434,949	-130,936	-0,039	-0,004
-433,934	17,776	-0,026	-0,015
-432,919	41,859	-0,049	-0,033
-431,905	-36,240	-0,060	0,024
-430,890	-200,000	0,002	0,138
-429,876	91,377	0,071	0,058
-428,861	-55,098	0,078	0,026
-427,846	145,235	-0,053	-0,052
-426,832	-159,555	-0,173	-0,007
-425,817	-102,294	0,233	-0,041
-424,803	-200,000	-0,012	0,053
-423,788	371,369	-0,011	-0,017
-422,773	-200,000	0,001	0,086
-421,759	519,595	-0,014	-0,024
-420,744	-104,704	0,106	-0,018
-419,730	11,234	-0,127	-0,071
-418,715	-147,118	0,079	-0,005
-417,701	-200,000	-0,006	-0,118
-416,686	147,658	0,064	-0,064
-415,671	-200,000	0,018	0,120
-414,657	-65,359	0,083	-0,025
-413,642	-200,000	-0,004	0,041
-412,628	-70,625	-0,096	0,026
-411,613	-2,999	-0,145	0,074
-410,598	-30,087	-0,140	-0,058
-409,584	222,227	0,082	-0,097
-408,569	-26,512	-0,195	0,084
-407,555	-200,000	-0,035	-0,148
-406,540	800,000	0,025	-0,063
-405,525	800,000	0,043	0,111
-404,511	-200,000	-0,014	-0,116
-403,496	-67,593	-0,126	0,036
-402,482	-200,000	0,016	-0,148
-401,467	235,036	-0,028	-0,034
-400,452	121,751	0,106	-0,098
-399,438	-49,658	-0,156	0,054
-398,423	7,968	0,053	-0,029
-397,409	800,000	0,019	-0,054
-396,394	385,497	0,073	0,111
-395,379	181,455	0,049	-0,053
-394,365	-40,936	0,095	0,036
-393,350	226,637	-0,081	0,097
-392,336	800,000	0,045	-0,094
-391,321	800,000	-0,063	0,153
-390,306	450,576	-0,032	0,053
-389,292	-200,000	0,022	0,081
-388,277	-10,554	0,031	-0,015
-387,263	-113,776	0,045	0,006
-386,248	54,852	-0,034	-0,024
-385,233	-200,000	0,009	0,044
-384,219	311,009	0,075	-0,103
-383,204	301,073	0,054	-0,073
-382,190	-200,000	0,007	-0,102
-381,175	5,946	0,052	-0,028
-380,160	800,000	0,068	-0,155
-379,146	-91,703	0,193	0,040
-378,131	53,679	0,085	0,060
-377,117	-141,751	-0,149	0,011
-376,102	-200,000	-0,022	-0,124
-375,088	800,000	-0,025	-0,052
-374,073	44,846	-0,056	-0,038
-373,058	-99,421	0,127	0,023
-372,044	800,000	0,024	0,051
-371,029	334,676	-0,139	-0,198
-370,015	753,730	-0,020	-0,039
-369,000	100,722	0,183	-0,156
-367,985	119,494	-0,039	-0,035
-366,971	147,258	0,085	-0,084
-365,956	-134,349	0,057	0,005
-364,942	-200,000	0,016	-0,066
-363,927	-65,097	-0,053	-0,016
-362,912	-200,000	-0,010	0,035
-361,898	-25,862	0,173	0,074
-360,883	-54,462	-0,186	-0,061
-359,869	-1,912	0,042	0,022
-358,854	-113,672	0,075	0,011
-357,839	73,790	0,095	0,073
-356,825	33,200	0,116	-0,074
-355,810	-200,000	-0,014	-0,084
-354,796	-200,000	-0,026	0,108
-353,781	-100,569	-0,034	-0,006
-352,766	-78,358	0,135	0,034
-351,752	-153,187	-0,043	-0,002
-350,737	-200,000	0,028	0,095
-349,723	131,183	0,083	0,078
-348,708	64,037	-0,113	0,083
-347,693	147,766	-0,089	0,088
-346,679	70,698	-0,072	0,055
-345,664	219,847	-0,027	-0,031
-344,650	11,733	-0,044	-0,024
-343,635	507,568	0,056	-0,096
-342,620	284,776	-0,054	0,072
-341,606	779,011	-0,054	0,110
-340,591	-200,000	0,001	-0,189
-339,577	168,019	0,026	0,027
-338,562	591,512	-0,059	-0,107
-337,548	-200,000	0,025	-0,173
-336,533	-138,411	-0,050	0,004
-335,518	-200,000	0,010	0,157
-334,504	-89,268	-0,119	-0,026
-333,489	171,269	0,019	0,020
-332,475	-90,800	-0,153	-0,032
-331,460	800,000	-0,029	0,062
-330,445	124,060	0,071	-0,065
-329,431	-6,944	0,180	-0,090
-328,416	800,000	0,054	0,128
-327,402	372,615	-0,031	0,046
-326,387	-200,000	0,003	0,082
-325,372	10,802	-0,056	0,031
-324,358	-138,621	-0,092	0,007
-323,343	14,866	0,113	0,065
-322,329	800,000	0,025	-0,069
-321,314	-8,683	0,095	0,047
-320,299	-118,467	0,135	-0,017
-319,285	13,921	-0,069	0,039
-318,270	-103,797	0,100	0,017
-317,256	-200,000	0,002	0,134
-316,241	64,280	0,075	-0,056
-315,226	-200,000	0,003	-0,033
-314,212	-37,949	0,175	-0,068
-313,197	275,941	0,052	0,068
-312,183	-200,000	-0,005	0,083
-311,168	53,727	0,138	-0,097
-310,153	-7,038	-0,100	-0,049
-309,139	-160,703	-0,067	0,003
-308,124	223,789	0,025	0,030
-307,110	-115,502	0,061	0,008
-306,095	-200,000	0,020	0,113
-305,080	197,746	0,040	-0,044
-304,066	-113,843	0,082	-0,012
-303,051	-61,566	-0,070	-0,021
-302,037	578,350	-0,072	0,130
-301,022	800,000	0,040	0,106
-300,008	141,323	0,098	-0,095
-298,993	800,000	0,015	-0,031
-297,978	118,658	0,060	0,055
-296,964	208,831	-0,016	0,019
-295,949	-200,000	-0,020	-0,106
-294,935	98,334	-0,069	0,058
-293,920	-200,000	0,016	0,067
-292,905	207,990	-0,042	-0,048
-291,891	661,545	0,074	0,140
-290,876	-200,000	0,008	-0,034
-289,862	480,287	-0,048	0,080
-288,847	145,554	-0,031	-0,030
-287,832	-35,725	-0,119	0,047
-286,818	393,318	0,033	-0,050
-285,803	-21,701	0,120	0,053
-284,789	23,202	0,060	-0,036
-283,774	-28,652	0,123	-0,051
-282,759	-200,000	0,004	0,099
-281,745	15,574	0,057	-0,032
-280,730	-166,343	-0,189	0,006
-279,716	149,897	-0,029	0,028
-278,701	480,373	0,049	0,082
-277,686	800,000	-0,037	0,112
-276,672	-200,000	0,016	0,130
-275,657	-200,000	0,004	0,038
-274,643	-109,767	0,065	0,010
-273,628	-200,000	-0,018	-0,189
-272,613	-200,000	-0,024	-0,137
-271,599	800,000	-0,006	0,011
-270,584	12,322	-0,041	0,023
-269,570	2,422	0,107	-0,057
-268,555	800,000	0,074	0,196
-267,540	181,338	-0,031	0,033
-266,526	431,698	-0,093	-0,148
-265,511	134,218	-0,040	-0,038
-264,497	-200,000	-0,011	-0,036
-263,482	-200,000	0,031	0,099
-262,467	46,062	-0,041	-0,028
-261,453	332,254	-0,129	-0,182
-260,438	-11,861	0,070	-0,033
-259,424	800,000	0,036	0,113
-258,409	-95,212	-0,080	0,016
-257,395	-116,576	0,049	-0,006
-256,380	92,099	-0,059	-0,049
-255,365	40,834	-0,087	-0,057
-254,351	-144,082	0,075	0,005
-253,336	800,000	-0,042	0,095
-252,322	14,160	-0,081	0,046
-251,307	-200,000	0,004	0,060
-250,292	-200,000	-0,017	0,109
-249,278	35,056	0,120	-0,076
-248,263	-200,000	0,011	0,212
-247,249	88,331	0,143	0,116
-246,234	-54,054	0,100	0,033
-245,219	-2,901	-0,142	-0,072
-244,205	-200,000	-0,015	0,081
-243,190	-163,381	0,108	0,004
-242,176	-103,816	0,037	-0,006
-241,161	-200,000	-0,002	0,139
-240,146	-100,382	-0,146	0,026
-239,132	-31,823	0,042	-0,017
-238,117	800,000	-0,038	0,092
-237,103	-200,000	-0,001	-0,087
-236,088	192,235	0,011	-0,013
-235,073	85,697	-0,041	0,033
-234,059	-200,000	-0,001	-0,060
-233,044	-200,000	-0,015	-0,079
-232,030	37,418	0,054	-0,035
-231,015	-200,000	-0,034	-0,170
-230,000	17,044	0,086	-0,049
-228,986	-111,251	0,042	0,006
-227,971	-27,154	0,036	0,015
-226,957	-109,310	0,109	-0,017
-225,942	-43,289	0,067	0,024
-224,927	800,000	0,042	-0,098
-223,913	39,355	0,053	-0,034
-222,898	-112,067	-0,080	0,012
-221,884	-200,000	0,008	0,053
-220,869	-200,000	0,008	0,076
-219,855	169,778	0,072	0,076
-218,840	-77,750	-0,025	0,006
-217,825	-40,922	-0,078	-0,029
-216,811	484,787	-0,032	0,053
-215,796	-200,000	-0,004	0,060
-214,782	-157,675	0,048	-0,002
-213,767	58,963	-0,127	-0,091
-212,752	800,000	0,035	0,101
-211,738	800,000	-0,007	-0,023
-210,723	800,000	0,015	-0,047
-209,709	-200,000	-0,012	-0,054
-208,694	279,884	-0,073	0,095
-207,679	566,602	-0,075	-0,133
-206,665	25,956	0,102	-0,062
-205,650	68,038	-0,068	0,051
-204,636	641,108	0,055	0,103
-203,621	800,000	0,041	0,089
-202,606	280,191	-0,061	-0,080
-201,592	-139,791	-0,118	-0,009
-200,577	800,000	0,054	-0,136
-199,563	-35,899	-0,195	-0,077
-198,548	-200,000	-0,008	0,122
-197,533	486,523	-0,029	0,049
-196,519	553,392	0,037	0,065
-195,504	800,000	0,025	0,081
-194,490	12,228	-0,159	-0,089
-193,475	148,668	-0,068	0,067
-192,460	-200,000	-0,001	0,030
-191,446	800,000	0,027	0,086
-190,431	53,611	0,058	0,041
-189,417	12,036	0,150	-0,084
-188,402	800,000	0,044	-0,100
-187,387	-56,556	-0,101	0,033
-186,373	800,000	-0,013	-0,036
-185,358	-83,950	-0,044	-0,010
-184,344	75,763	0,051	-0,039
-183,329	800,000	0,045	-0,111
-182,315	-200,000	-0,026	-0,093
-181,300	265,642	-0,013	-0,016
-180,285	410,020	-0,067	-0,104
-179,271	-200,000	-0,049	-0,164
-178,256	438,330	-0,057	0,091
-177,242	-200,000	0,015	0,058
-176,227	185,949	-0,141	0,153
-175,212	-24,475	-0,098	-0,042
-174,198	401,191	0,078	0,120
-173,183	-47,313	-0,085	-0,030
-172,169	800,000	0,046	-0,102
-171,154	-186,791	0,046	-0,000
-170,139	361,639	0,075	-0,110
-169,125	-200,000	-0,038	0,161
-168,110	-200,000	-0,000	0,023
-167,096	453,505	0,042	-0,069
-166,081	118,608	-0,111	-0,099
-165,066	763,447	-0,066	-0,130
-164,052	-200,000	0,007	-0,050
-163,037	45,507	-0,007	0,005
-162,023	-200,000	0,007	0,087
-161,008	800,000	-0,033	0,083
-159,993	-200,000	-0,002	0,167
-158,979	-200,000	-0,015	0,099
-157,964	-6,048	0,055	-0,027
-156,950	-49,752	-0,070	-0,024
-155,935	79,012	-0,045	-0,035
-154,920	4,917	0,091	0,049
-153,906	-200,000	0,006	-0,053
-152,891	-200,000	0,007	-0,072
-151,877	218,213	-0,053	0,061
-150,862	-104,491	0,115	0,019
-149,847	-200,000	-0,016	-0,153
-148,833	761,003	-0,055	0,109
-147,818	-154,699	-0,066	0,003
-146,804	108,347	0,155	0,135
-145,789	-76,688	0,108	-0,027
-144,775	-21,567	-0,106	0,047
-143,760	-200,000	-0,009	-0,033
-142,745	800,000	-0,035	0,077
-141,731	427,542	0,080	0,126
-140,716	-152,490	-0,171	-0,009
-139,702	-85,820	0,115	0,026
-138,687	-200,000	0,027	0,147
-137,672	139,901	0,037	-0,036
-136,658	-102,067	-0,078	0,013
-135,643	800,000	-0,017	-0,036
-134,629	-157,024	-0,050	-0,002
-133,614	-89,283	-0,054	0,011
-132,599	60,044	-0,022	-0,016
-131,585	8,071	0,115	0,063
-130,570	800,000	0,054	-0,123
-129,556	-13,097	-0,111	0,052
-128,541	-154,094	-0,090	-0,004
-127,526	-102,462	-0,092	-0,016
-126,512	-98,598	0,052	0,009
-125,497	-14,904	0,134	-0,062
-124,483	-200,000	-0,008	0,075
-123,468	-174,026	0,093	-0,002
-122,453	-1,507	0,095	0,048
-121,439	-120,094	-0,166	-0,020
-120,424	96,452	-0,114	-0,095
-119,410	299,991	0,065	-0,087
-118,395	-200,000	0,017	-0,075
