DTS Sentinel unit serial number:	SN410029Multiplexer serial number:	ORYXHardware model number:	OX2-SRSoftware version number:	ORYX F/W v4,00 Oryx Data Collector v3.7.2.0data status	okinstallation	B4 Nyhavnadifferential loss correction	single-endedforward channel	channel 2reverse channel	N/Adate	2023/12/16time	11:05:13forward acquisition time	300,00reverse acquisition time	0,00gamma	499,1914k internal	0,3125k external	0,3125temperature offset calibration	1,0000default loss term (dB/km)	0,3820temperature slope calibration	1,0000multiplexer offset coefficient	1,0000multiplexer slope coefficient	1,0000fibre end	0,00T internal ref (°C)	23,51T ext. ref 1 (°C)	9,21T ext. ref 2 (°C)	9,37length (m)	temperature (°C)	Stokes	anti-Stokes-744,400	45,972	0,041	-0,028
-743,385	-57,348	-0,359	0,117
-742,371	-70,110	0,082	-0,023
-741,356	-56,364	-0,263	0,086
-740,342	11,341	0,107	-0,061
-739,327	-53,888	-0,262	0,088
-738,312	103,261	-0,120	-0,105
-737,298	110,663	-0,251	0,225
-736,283	158,620	0,099	-0,103
-735,269	376,469	-0,129	0,196
-734,254	251,035	0,044	-0,056
-733,239	-150,488	-0,381	0,021
-732,225	-200,000	0,011	-0,103
-731,210	-141,027	0,106	-0,008
-730,196	28,514	0,077	-0,048
-729,181	-12,129	-0,089	0,043
-728,167	-80,132	0,085	-0,021
-727,152	-123,130	-0,065	-0,008
-726,137	76,047	-0,050	0,039
-725,123	117,742	-0,027	-0,025
-724,108	-142,229	-0,271	-0,020
-723,094	-200,000	0,017	-0,121
-722,079	57,762	0,057	-0,042
-721,064	364,665	0,048	0,072
-720,050	-59,470	0,033	-0,010
-719,035	185,563	-0,042	0,046
-718,021	487,005	0,019	-0,033
-717,006	-19,140	-0,070	-0,032
-715,991	-200,000	0,019	-0,096
-714,977	600,921	0,039	-0,073
-713,962	-200,000	-0,008	0,048
-712,948	195,289	-0,077	0,087
-711,933	800,000	0,049	-0,109
-710,918	-200,000	-0,030	0,133
-709,904	-170,946	-0,124	-0,003
-708,889	-153,261	0,036	0,002
-707,875	-200,000	-0,046	0,227
-706,860	91,973	0,076	-0,063
-705,845	95,200	0,088	-0,075
-704,831	97,331	0,054	0,046
-703,816	46,505	0,044	-0,030
-702,802	-55,219	0,050	-0,017
-701,787	607,286	-0,045	-0,084
-700,772	576,558	0,076	-0,139
-699,758	268,929	0,100	0,131
-698,743	-200,000	-0,047	0,178
-697,729	396,189	0,131	0,204
-696,714	800,000	0,034	-0,088
-695,699	-200,000	-0,096	0,000
-694,685	-200,000	-0,005	0,046
-693,670	-38,135	-0,077	-0,030
-692,656	107,857	-0,040	-0,035
-691,641	194,184	0,112	-0,126
-690,627	-118,111	-0,098	0,013
-689,612	-200,000	-0,006	0,080
-688,597	-28,748	0,077	0,033
-687,583	304,649	-0,050	-0,069
-686,568	-71,350	-0,020	-0,005
-685,554	38,318	-0,057	0,038
-684,539	4,106	0,190	0,103
-683,524	-200,000	0,034	-0,152
-682,510	800,000	0,061	0,138
-681,495	-14,431	0,028	0,014
-680,481	-109,167	-0,161	-0,025
-679,466	-100,457	-0,121	0,022
-678,451	43,646	-0,212	-0,144
-677,437	189,237	-0,038	0,042
-676,422	277,766	-0,097	0,129
-675,408	800,000	0,027	-0,077
-674,393	-200,000	0,064	0,219
-673,378	800,000	0,027	-0,075
-672,364	354,849	-0,093	-0,139
-671,349	800,000	-0,029	-0,078
-670,335	146,382	0,058	-0,058
-669,320	675,264	-0,039	-0,076
-668,305	-88,727	0,109	-0,024
-667,291	144,636	0,105	0,104
-666,276	75,772	-0,050	-0,039
-665,262	627,759	-0,055	0,104
-664,247	-113,358	0,037	-0,005
-663,232	-7,070	0,080	-0,040
-662,218	-50,101	0,102	0,036
-661,203	800,000	-0,050	0,142
-660,189	800,000	-0,027	-0,087
-659,174	-200,000	0,006	-0,063
-658,159	147,195	-0,046	-0,046
-657,145	475,688	-0,010	-0,018
-656,130	52,275	0,039	0,027
-655,116	-200,000	-0,000	0,034
-654,101	-9,625	0,053	0,026
-653,086	-200,000	-0,010	-0,040
-652,072	-200,000	-0,005	-0,164
-651,057	-26,901	-0,138	-0,060
-650,043	448,549	-0,023	-0,038
-649,028	-200,000	-0,010	0,103
-648,014	130,519	0,122	0,116
-646,999	-200,000	-0,004	0,075
-645,984	-200,000	-0,009	0,088
-644,970	504,798	-0,030	0,052
-643,955	-184,538	0,063	-0,001
-642,941	-100,912	-0,097	-0,018
-641,926	-101,581	-0,168	0,030
-640,911	-140,064	0,121	0,009
-639,897	20,174	-0,078	-0,047
-638,882	156,381	0,030	-0,031
-637,868	-133,028	-0,079	0,007
-636,853	-128,937	-0,128	0,013
-635,838	11,757	-0,071	-0,040
-634,824	-14,393	-0,024	-0,011
-633,809	27,385	0,023	-0,014
-632,795	-137,073	0,047	0,004
-631,780	-67,459	-0,127	0,037
-630,765	115,249	-0,079	0,072
-629,751	-200,000	0,031	-0,101
-628,736	-143,942	-0,065	0,004
-627,722	-200,000	0,004	-0,043
-626,707	-200,000	0,032	0,145
-625,692	447,225	-0,057	-0,093
-624,678	-200,000	-0,024	0,114
-623,663	-200,000	0,006	0,103
-622,649	288,409	-0,041	-0,055
-621,634	51,645	-0,098	-0,069
-620,619	64,882	-0,082	0,061
-619,605	-200,000	0,000	0,120
-618,590	-13,463	0,067	0,032
-617,576	800,000	0,065	-0,143
-616,561	-200,000	-0,028	-0,151
-615,546	800,000	-0,062	-0,147
-614,532	273,407	-0,018	0,024
-613,517	330,633	-0,032	-0,045
-612,503	138,716	-0,053	0,052
-611,488	-102,651	0,057	0,010
-610,474	101,019	0,092	-0,080
-609,459	-62,070	-0,080	0,025
-608,444	-109,136	-0,050	-0,008
-607,430	211,616	-0,069	-0,080
-606,415	-129,281	0,123	-0,013
-605,401	-192,501	-0,095	-0,001
-604,386	53,281	0,093	0,066
-603,371	-200,000	-0,006	-0,051
-602,357	453,552	0,036	0,059
-601,342	-143,943	-0,066	-0,005
-600,328	-178,317	-0,041	-0,001
-599,313	-200,000	0,045	-0,149
-598,298	41,449	0,025	0,017
-597,284	-200,000	-0,018	-0,062
-596,269	-200,000	-0,015	-0,058
-595,255	217,329	-0,047	0,056
-594,240	24,704	-0,084	0,051
-593,225	-120,414	0,023	-0,003
-592,211	800,000	-0,026	-0,060
-591,196	178,970	-0,056	-0,061
-590,182	-46,663	0,035	-0,013
-589,167	17,955	0,052	-0,030
-588,152	146,418	-0,106	-0,105
-587,138	-200,000	0,002	0,079
-586,123	-200,000	-0,007	-0,034
-585,109	-102,922	-0,127	0,022
-584,094	171,156	0,038	0,040
-583,079	43,069	-0,118	-0,080
-582,065	186,409	0,060	-0,066
-581,050	-111,488	0,018	-0,003
-580,036	15,202	0,046	0,027
-579,021	46,082	-0,034	-0,023
-578,006	800,000	0,041	-0,116
-576,992	-200,000	0,027	-0,150
-575,977	-200,000	0,000	0,004
-574,963	46,796	0,032	-0,022
-573,948	-200,000	0,030	0,159
-572,934	-118,630	-0,110	0,014
-571,919	800,000	0,034	-0,086
-570,904	-200,000	0,001	0,006
-569,890	-127,815	-0,220	0,023
-568,875	-51,726	0,044	-0,015
-567,861	112,802	-0,122	0,109
-566,846	-200,000	-0,014	-0,108
-565,831	-5,918	-0,056	0,028
-564,817	338,877	-0,055	-0,080
-563,802	30,528	-0,024	-0,015
-562,788	-150,874	0,025	-0,001
-561,773	-118,955	0,029	0,004
-560,758	-104,029	-0,134	0,023
-559,744	-200,000	0,013	0,184
-558,729	-200,000	-0,018	0,122
-557,715	-169,350	-0,111	-0,003
-556,700	-37,820	-0,110	-0,043
-555,685	-200,000	0,028	-0,113
-554,671	-104,184	-0,038	-0,006
-553,656	102,363	0,087	-0,076
-552,642	-200,000	-0,010	-0,143
-551,627	-184,042	-0,130	0,002
-550,612	72,801	-0,058	-0,045
-549,598	-99,608	-0,122	-0,023
-548,583	-50,340	0,066	-0,023
-547,569	-200,000	-0,029	0,099
-546,554	800,000	-0,018	0,044
-545,539	352,847	-0,103	0,151
-544,525	-136,914	0,110	-0,009
-543,510	517,934	0,023	-0,040
-542,496	29,047	-0,143	-0,089
-541,481	297,874	0,034	-0,046
-540,466	-200,000	-0,006	-0,021
-539,452	573,496	0,073	0,133
-538,437	378,878	0,050	0,076
-537,423	800,000	-0,018	0,044
-536,408	37,467	-0,095	-0,062
-535,393	-200,000	-0,010	-0,071
-534,379	-121,904	-0,182	-0,022
-533,364	244,651	-0,067	-0,084
-532,350	-200,000	-0,027	-0,147
-531,335	800,000	0,050	-0,142
-530,321	-63,651	0,019	-0,006
-529,306	-181,249	0,034	0,000
-528,291	77,029	0,067	0,052
-527,277	-200,000	0,000	-0,043
-526,262	529,324	0,049	-0,086
-525,248	-200,000	0,022	-0,142
-524,233	-40,909	0,093	0,035
-523,218	536,483	-0,067	0,118
-522,204	89,395	-0,081	-0,066
-521,189	-200,000	0,019	-0,120
-520,175	4,170	-0,042	0,023
-519,160	-200,000	-0,017	-0,080
-518,145	-200,000	0,011	0,084
-517,131	-200,000	0,001	0,065
-516,116	18,892	0,164	0,097
-515,102	74,090	0,066	-0,051
-514,087	-200,000	0,033	-0,134
-513,072	-19,615	-0,079	-0,036
-512,058	189,772	0,108	-0,120
-511,043	-21,830	-0,073	-0,033
-510,029	-97,399	-0,077	0,015
-509,014	135,155	0,075	-0,072
-507,999	-129,592	-0,049	0,005
-506,985	128,897	-0,039	0,036
-505,970	-200,000	-0,006	-0,038
-504,956	-200,000	0,008	-0,076
-503,941	-200,000	0,013	0,079
-502,926	-5,103	0,023	0,012
-501,912	-200,000	0,004	-0,023
-500,897	168,934	-0,026	0,028
-499,883	-179,221	-0,055	0,001
-498,868	-88,201	-0,121	-0,027
-497,853	-200,000	0,007	-0,199
-496,839	800,000	-0,034	-0,084
-495,824	-23,835	0,139	0,061
-494,810	-123,988	0,150	0,017
-493,795	800,000	0,046	0,133
-492,781	-200,000	0,004	-0,091
-491,766	125,490	-0,107	-0,099
-490,751	-78,929	0,128	-0,032
-489,737	560,564	0,055	0,098
-488,722	800,000	0,051	0,126
-487,708	-200,000	0,030	0,120
-486,693	153,909	0,037	0,038
-485,678	-140,418	0,060	-0,005
-484,664	-83,141	-0,049	-0,012
-483,649	652,592	-0,048	-0,091
-482,635	800,000	-0,016	-0,038
-481,620	787,210	0,046	0,093
-480,605	201,068	0,055	-0,063
-479,591	-116,102	-0,040	-0,005
-478,576	87,372	0,044	-0,036
-477,562	-51,604	0,057	-0,019
-476,547	800,000	0,007	-0,017
-475,532	-200,000	0,011	-0,067
-474,518	-200,000	0,013	-0,123
-473,503	800,000	0,058	0,118
-472,489	132,867	-0,038	0,036
-471,474	193,338	-0,104	0,116
-470,459	281,614	-0,031	-0,042
-469,445	-200,000	0,023	0,078
-468,430	-200,000	-0,012	0,050
-467,416	800,000	-0,031	-0,074
-466,401	-200,000	0,007	-0,137
-465,386	562,637	0,038	0,067
-464,372	-144,181	-0,157	-0,011
-463,357	-122,344	0,152	-0,018
-462,343	136,908	-0,108	0,104
-461,328	800,000	0,043	-0,092
-460,313	-66,261	-0,137	-0,040
-459,299	800,000	-0,005	-0,011
-458,284	-28,997	-0,075	0,031
-457,270	-147,089	0,113	0,007
-456,255	800,000	0,048	-0,108
-455,241	-200,000	0,009	-0,170
-454,226	800,000	-0,023	-0,062
-453,211	-41,198	-0,104	-0,039
-452,197	-121,752	-0,054	-0,007
-451,182	663,843	0,091	0,174
-450,168	145,820	0,061	0,061
-449,153	-121,321	-0,083	0,010
-448,138	148,991	-0,065	-0,065
-447,124	297,074	0,087	-0,117
-446,109	-200,000	0,000	-0,031
-445,095	-36,008	0,041	0,016
-444,080	-63,339	-0,067	-0,020
-443,065	288,873	-0,048	0,064
-442,051	20,325	-0,110	-0,065
-441,036	-136,651	-0,125	-0,010
-440,022	-158,128	0,139	0,006
-439,007	156,030	0,083	0,084
-437,992	440,069	0,099	0,160
-436,978	-200,000	-0,011	0,063
-435,963	129,646	0,037	-0,035
-434,949	-200,000	0,023	0,109
-433,934	621,070	-0,062	-0,115
-432,919	-105,890	0,178	0,029
-431,905	191,236	-0,077	-0,086
-430,890	153,241	0,127	0,128
-429,876	800,000	0,053	0,128
-428,861	158,580	0,078	0,080
-427,846	-200,000	-0,019	-0,159
-426,832	-91,826	-0,112	-0,023
-425,817	95,976	-0,076	-0,064
-424,803	-0,730	-0,097	-0,051
-423,788	10,645	0,098	0,055
-422,773	351,080	0,073	0,106
-421,759	-65,182	0,129	0,038
-420,744	-24,713	0,157	-0,068
-419,730	-200,000	-0,020	0,081
-418,715	-200,000	0,033	0,109
-417,701	286,796	-0,058	-0,077
-416,686	81,088	0,124	-0,099
-415,671	-65,415	-0,092	0,027
-414,657	-200,000	0,036	0,192
-413,642	-200,000	0,003	-0,036
-412,628	-28,032	-0,093	-0,040
-411,613	499,812	-0,036	0,061
-410,598	-36,012	-0,061	-0,024
-409,584	18,150	-0,027	0,016
-408,569	-61,859	-0,049	0,015
-407,555	81,618	-0,031	0,024
-406,540	-61,618	0,055	0,017
-405,525	583,189	-0,031	-0,057
-404,511	-3,774	0,057	0,029
-403,496	-41,786	-0,123	-0,046
-402,482	-39,504	0,138	0,053
-401,467	800,000	0,068	0,143
-400,452	211,421	0,030	-0,035
-399,438	42,559	0,121	-0,081
-398,423	-2,254	-0,109	0,056
-397,409	-52,239	-0,128	0,043
-396,394	158,582	-0,010	-0,010
-395,379	-200,000	-0,005	0,038
-394,365	-93,445	0,057	0,011
-393,350	-200,000	0,002	0,028
-392,336	-87,389	0,121	0,027
-391,321	-200,000	0,012	-0,079
-390,306	137,911	-0,071	-0,068
-389,292	800,000	0,056	-0,138
-388,277	-200,000	-0,015	0,084
-387,263	-27,262	0,180	0,076
-386,248	564,871	0,042	0,075
-385,233	800,000	-0,044	0,097
-384,219	-180,512	0,065	-0,001
-383,204	-200,000	-0,022	-0,131
-382,190	-29,708	-0,071	-0,029
-381,175	-199,003	0,044	0,000
-380,160	160,718	0,041	-0,042
-379,146	222,151	0,076	0,091
-378,131	707,422	-0,059	0,115
-377,117	-200,000	-0,009	0,090
-376,102	800,000	-0,014	-0,043
-375,088	263,720	-0,073	-0,093
-374,073	-163,404	0,110	-0,004
-373,058	705,795	-0,015	0,030
-372,044	-200,000	0,005	0,109
-371,029	109,760	0,086	0,075
-370,015	-200,000	-0,142	0,000
-369,000	-46,088	0,020	-0,007
-367,985	-27,565	-0,076	-0,032
-366,971	-32,237	-0,063	0,026
-365,956	468,352	-0,023	0,038
-364,942	687,005	0,029	-0,056
-363,927	-93,379	-0,084	0,017
-362,912	-43,733	0,086	-0,032
-361,898	-200,000	-0,004	0,019
-360,883	-200,000	-0,038	-0,143
-359,869	-124,484	-0,085	0,010
-358,854	800,000	0,033	0,071
-357,839	334,300	0,053	0,076
-356,825	-200,000	0,011	0,082
-355,810	-200,000	0,026	0,139
-354,796	-200,000	-0,019	-0,062
-353,781	121,733	-0,121	-0,111
-352,766	174,384	0,060	0,063
-351,752	40,659	0,145	0,096
-350,737	800,000	0,050	0,119
-349,723	-169,954	0,093	0,002
-348,708	4,189	-0,063	0,034
-347,693	149,239	0,018	-0,018
-346,679	23,517	0,030	-0,018
-345,664	-200,000	-0,006	-0,073
-344,650	-200,000	-0,008	0,133
-343,635	483,919	-0,078	0,130
-342,620	296,324	-0,023	-0,031
-341,606	128,539	-0,069	0,064
-340,591	96,436	0,098	0,083
-339,577	276,377	0,107	-0,140
-338,562	800,000	-0,023	-0,048
-337,548	-122,049	-0,043	0,005
-336,533	-64,127	0,088	-0,026
-335,518	-137,573	0,164	0,013
-334,504	800,000	-0,036	0,086
-333,489	-95,628	-0,068	0,013
-332,475	239,243	-0,047	0,058
-331,460	800,000	-0,006	0,018
-330,445	800,000	0,042	-0,116
-329,431	-121,755	0,046	0,006
-328,416	-47,505	0,098	-0,035
-327,402	-46,248	-0,062	-0,022
-326,387	-200,000	-0,005	0,154
-325,372	419,491	0,056	-0,088
-324,358	-200,000	-0,003	0,061
-323,343	-186,133	-0,082	-0,001
-322,329	-28,956	0,111	-0,046
-321,314	-95,294	0,073	-0,014
-320,299	538,989	-0,029	0,051
-319,285	320,250	-0,053	-0,074
-318,270	393,547	-0,035	-0,053
-317,256	702,984	-0,110	-0,213
-316,241	1,194	-0,016	-0,009
-315,226	306,410	0,047	-0,064
-314,212	800,000	0,082	0,180
-313,197	-200,000	-0,007	-0,119
-312,183	0,177	-0,082	-0,043
-311,168	-200,000	-0,012	0,096
-310,153	800,000	0,025	-0,068
-309,139	86,450	0,061	0,049
-308,124	115,378	0,082	0,073
-307,110	-108,448	-0,053	0,008
-306,095	-200,000	0,040	0,152
-305,080	800,000	-0,011	-0,030
-304,066	-200,000	-0,009	-0,099
-303,051	-200,000	0,011	0,055
-302,037	-49,735	-0,113	0,039
-301,022	276,975	0,037	-0,048
-300,008	-31,124	0,206	0,085
-298,993	-46,769	-0,132	-0,047
-297,978	117,984	-0,098	0,088
-296,964	51,253	0,036	0,025
-295,949	-200,000	0,007	-0,111
-294,935	-45,205	0,058	-0,021
-293,920	105,482	-0,120	0,103
-292,905	-200,000	-0,006	0,035
-291,891	-122,811	-0,077	0,009
-290,876	696,269	0,044	0,084
-289,862	356,846	-0,065	-0,095
-288,847	-200,000	-0,010	-0,151
-287,832	-200,000	-0,006	-0,057
-286,818	324,914	-0,033	-0,046
-285,803	118,265	0,101	0,091
-284,789	174,798	0,103	0,109
-283,774	800,000	0,017	0,046
-282,759	-128,505	-0,071	-0,007
-281,745	-200,000	-0,000	0,006
-280,730	800,000	0,018	-0,058
-279,716	115,668	-0,098	0,088
-278,701	1,168	0,145	0,076
-277,686	-200,000	0,094	-0,000
-276,672	-83,940	0,200	0,046
-275,657	-200,000	0,002	-0,057
-274,643	-88,492	-0,120	0,026
-273,628	57,395	-0,051	-0,037
-272,613	800,000	-0,021	0,045
-271,599	-77,131	-0,088	0,022
-270,584	208,525	0,043	-0,049
-269,570	130,921	0,130	0,122
-268,555	-81,938	-0,029	0,007
-267,540	-69,917	-0,056	0,015
-266,526	353,789	-0,132	-0,192
-265,511	162,200	-0,118	-0,121
-264,497	-200,000	0,007	-0,027
-263,482	-19,136	0,043	-0,019
-262,467	106,774	0,027	-0,023
-261,453	800,000	0,042	0,105
-260,438	352,116	0,051	0,074
-259,424	300,643	0,075	-0,102
-258,409	777,562	-0,030	-0,060
-257,395	640,304	-0,027	0,051
-256,380	-200,000	0,001	0,024
-255,365	155,786	-0,027	-0,027
-254,351	151,731	-0,060	0,060
-253,336	144,800	0,038	-0,038
-252,322	209,807	-0,095	-0,109
-251,307	-200,000	0,009	-0,066
-250,292	-69,133	-0,110	-0,031
-249,278	142,555	0,037	0,036
-248,263	-104,343	0,061	-0,010
-247,249	142,187	0,054	-0,052
-246,234	-18,843	0,025	0,011
-245,219	67,435	-0,088	-0,066
-244,205	125,757	0,024	0,022
-243,190	0,827	-0,084	0,044
-242,176	53,866	0,049	-0,034
-241,161	-200,000	0,010	0,063
-240,146	4,412	-0,083	0,044
-239,132	432,561	0,035	-0,056
-238,117	-64,247	-0,111	-0,033
-237,103	-200,000	0,007	-0,144
-236,088	500,282	-0,044	-0,074
-235,073	325,435	-0,101	0,142
-234,059	-92,305	0,078	0,016
-233,044	54,548	0,092	0,065
-232,030	65,909	-0,035	-0,026
-231,015	-200,000	-0,008	-0,040
-230,000	168,828	0,052	0,054
-228,986	41,280	-0,087	-0,058
-227,971	579,138	0,050	0,090
-226,957	800,000	0,026	0,074
-225,942	-200,000	0,024	0,092
-224,927	-92,417	0,020	0,004
-223,913	-18,736	0,112	-0,051
-222,898	16,490	-0,041	0,024
-221,884	576,739	-0,060	0,107
-220,869	-200,000	-0,045	0,000
-219,855	206,740	0,080	0,091
-218,840	102,497	0,082	0,070
-217,825	-120,596	0,005	0,001
-216,811	-134,983	0,106	0,009
-215,796	-23,241	-0,138	0,060
-214,782	348,167	0,037	0,054
-213,767	24,238	0,075	0,045
-212,752	-118,829	-0,044	0,006
-211,738	800,000	0,029	0,085
-210,723	-200,000	0,002	0,010
-209,709	-200,000	-0,011	0,180
-208,694	-200,000	-0,009	-0,082
-207,679	-55,064	-0,055	-0,018
-206,665	322,162	0,039	0,055
-205,650	639,207	-0,060	0,112
-204,636	-17,023	0,054	0,025
-203,621	800,000	0,024	-0,058
-202,606	-118,255	-0,134	0,017
-201,592	4,404	0,076	-0,041
-200,577	107,231	-0,147	-0,127
-199,563	800,000	0,030	-0,067
-198,548	-83,844	0,105	-0,024
-197,533	50,249	-0,115	0,079
-196,519	352,034	0,064	-0,093
-195,504	-105,422	-0,069	-0,011
-194,490	311,681	0,055	0,075
-193,475	519,240	-0,047	0,080
-192,460	-200,000	0,002	0,095
-191,446	210,153	-0,060	0,069
-190,431	-40,155	0,029	0,011
-189,417	17,384	0,052	-0,030
-188,402	68,358	-0,037	0,028
-187,387	-110,289	0,073	-0,011
-186,373	-60,126	-0,099	0,031
-185,358	800,000	-0,018	-0,054
-184,344	-200,000	0,009	-0,125
-183,329	117,747	0,050	-0,044
-182,315	800,000	-0,031	-0,070
-181,300	-200,000	0,006	-0,156
-180,285	425,499	0,026	-0,041
-179,271	67,417	-0,059	0,044
-178,256	61,505	-0,088	-0,063
-177,242	-23,909	0,094	-0,041
-176,227	-129,397	0,064	0,006
-175,212	603,995	-0,047	-0,086
-174,198	-163,795	0,085	-0,003
-173,183	-200,000	0,002	-0,060
-172,169	-155,672	0,168	0,008
-171,154	-200,000	0,011	0,126
-170,139	49,334	0,059	0,041
-169,125	11,737	0,093	-0,052
-168,110	-131,233	0,073	0,007
-167,096	-132,295	0,048	-0,004
-166,081	126,363	0,043	0,039
-165,066	-26,776	-0,037	0,016
-164,052	227,205	0,067	-0,080
-163,037	216,139	-0,032	0,037
-162,023	79,444	0,074	-0,058
-161,008	-66,918	0,127	-0,036
-159,993	-38,193	0,037	0,014
-158,979	-200,000	0,011	0,066
-157,964	-83,755	-0,106	-0,024
-156,950	-200,000	0,037	0,122
-155,935	21,090	0,145	-0,086
-154,920	21,020	0,123	0,072
-153,906	-54,922	0,158	0,052
-152,891	22,768	0,057	-0,034
-151,877	71,274	-0,057	-0,043
-150,862	-200,000	-0,034	-0,139
-149,847	275,262	-0,089	-0,115
-148,833	104,518	0,137	-0,118
-147,818	385,775	-0,011	-0,017
-146,804	-32,094	0,023	-0,009
-145,789	196,022	0,130	-0,144
-144,775	-200,000	-0,006	0,029
-143,760	97,138	0,034	-0,028
-142,745	-145,291	-0,051	-0,003
-141,731	-200,000	-0,047	-0,199
-140,716	-200,000	0,014	-0,092
-139,702	-126,076	0,079	0,008
-138,687	-35,517	0,048	0,019
-137,672	-85,461	-0,047	0,011
-136,658	-200,000	-0,004	-0,062
-135,643	-200,000	0,014	-0,047
-134,629	249,085	-0,015	0,019
-133,614	125,670	-0,106	0,097
-132,599	145,971	0,103	0,101
-131,585	249,429	0,105	0,129
-130,570	205,019	0,055	0,063
-129,556	800,000	-0,059	-0,149
-128,541	440,230	-0,036	0,057
-127,526	160,137	0,052	-0,052
-126,512	249,073	-0,058	-0,072
-125,497	89,461	0,171	0,139
-124,483	-200,000	-0,033	-0,108
-123,468	657,125	-0,023	0,044
-122,453	132,226	0,052	-0,048
-121,439	-200,000	0,013	0,104
-120,424	-122,727	-0,009	0,001
