DTS Sentinel unit serial number:	SN410029Multiplexer serial number:	ORYXHardware model number:	OX2-SRSoftware version number:	ORYX F/W v4,00 Oryx Data Collector v3.7.2.0data status	okinstallation	B4 Nyhavnadifferential loss correction	single-endedforward channel	channel 2reverse channel	N/Adate	2023/12/19time	07:45:13forward acquisition time	300,00reverse acquisition time	0,00gamma	499,1914k internal	0,3126k external	0,3126temperature offset calibration	1,0000default loss term (dB/km)	0,3820temperature slope calibration	1,0000multiplexer offset coefficient	1,0000multiplexer slope coefficient	1,0000fibre end	0,00T internal ref (°C)	21,12T ext. ref 1 (°C)	5,80T ext. ref 2 (°C)	5,85length (m)	temperature (°C)	Stokes	anti-Stokes-744,400	-200,000	0,029	0,106
-743,385	107,792	-0,130	0,115
-742,371	-200,000	0,007	0,065
-741,356	-171,398	-0,314	0,008
-740,342	-85,605	0,058	-0,013
-739,327	17,131	-0,226	0,133
-738,312	167,562	0,109	-0,115
-737,298	-106,899	-0,285	0,047
-736,283	-65,002	-0,086	0,026
-735,269	100,114	-0,171	0,148
-734,254	-200,000	0,004	-0,115
-733,239	-100,982	-0,437	-0,079
-732,225	171,878	0,125	0,134
-731,210	-200,000	0,014	0,139
-730,196	-200,000	-0,039	-0,153
-729,181	221,725	0,070	-0,083
-728,167	90,541	-0,010	0,008
-727,152	-125,616	-0,107	0,012
-726,137	-1,363	-0,098	0,051
-725,123	383,925	-0,077	-0,118
-724,108	800,000	-0,053	-0,171
-723,094	17,236	-0,067	-0,040
-722,079	221,542	-0,097	-0,116
-721,064	122,309	0,112	-0,105
-720,050	-200,000	0,007	-0,091
-719,035	191,092	-0,045	-0,050
-718,021	800,000	-0,026	-0,071
-717,006	143,184	-0,052	-0,051
-715,991	222,562	-0,135	-0,162
-714,977	-200,000	0,004	-0,080
-713,962	800,000	-0,039	-0,128
-712,948	-35,576	-0,080	0,032
-711,933	430,782	-0,051	-0,083
-710,918	226,598	-0,071	0,085
-709,904	1,309	-0,071	0,038
-708,889	265,790	-0,050	-0,065
-707,875	-61,370	-0,099	-0,031
-706,860	60,614	-0,040	0,030
-705,845	-200,000	0,027	0,100
-704,831	-14,812	0,039	-0,019
-703,816	-200,000	0,013	0,132
-702,802	51,690	-0,050	0,035
-701,787	-160,095	0,034	0,001
-700,772	-57,816	-0,062	0,020
-699,758	-200,000	-0,003	0,085
-698,743	-45,978	0,114	-0,042
-697,729	10,564	-0,034	-0,019
-696,714	36,879	0,122	0,080
-695,699	30,746	-0,067	-0,042
-694,685	163,709	-0,118	-0,124
-693,670	612,606	0,033	-0,062
-692,656	419,865	-0,067	-0,107
-691,641	410,914	0,034	-0,053
-690,627	553,873	0,029	-0,051
-689,612	409,636	-0,041	-0,065
-688,597	-200,000	-0,030	-0,150
-687,583	356,592	-0,077	0,114
-686,568	43,419	0,038	0,026
-685,554	-200,000	0,004	0,044
-684,539	112,748	0,023	-0,020
-683,524	437,692	0,051	-0,082
-682,510	89,934	0,039	-0,032
-681,495	773,637	0,063	-0,128
-680,481	-63,284	-0,117	-0,036
-679,466	142,161	0,085	0,084
-678,451	398,530	-0,088	-0,138
-677,437	-200,000	0,003	0,091
-676,422	216,629	0,031	0,037
-675,408	-3,416	0,143	0,074
-674,393	165,681	-0,025	0,027
-673,378	-41,357	-0,062	0,024
-672,364	-183,207	-0,058	0,001
-671,349	-20,844	0,079	0,036
-670,335	-200,000	-0,016	-0,065
-669,320	-200,000	-0,000	-0,102
-668,305	257,701	0,030	0,039
-667,291	-200,000	0,042	-0,182
-666,276	-34,723	-0,077	-0,031
-665,262	711,777	-0,058	-0,115
-664,247	-28,725	-0,052	-0,022
-663,232	-48,086	0,019	0,007
-662,218	-155,501	0,078	-0,004
-661,203	800,000	-0,042	0,100
-660,189	58,959	-0,100	-0,073
-659,174	-200,000	-0,059	-0,288
-658,159	-200,000	0,006	-0,164
-657,145	800,000	0,047	0,107
-656,130	396,564	-0,068	0,105
-655,116	55,371	-0,068	0,049
-654,101	6,115	-0,175	0,096
-653,086	78,977	-0,039	-0,031
-652,072	-117,777	-0,116	-0,015
-651,057	800,000	-0,043	-0,095
-650,043	342,395	-0,039	0,057
-649,028	-200,000	0,013	-0,089
-648,014	-200,000	0,004	-0,107
-646,999	124,074	0,015	-0,014
-645,984	639,357	-0,024	-0,046
-644,970	107,557	-0,052	-0,046
-643,955	-124,226	-0,142	0,016
-642,941	-200,000	0,015	-0,082
-641,926	207,880	-0,032	-0,037
-640,911	-57,218	0,093	0,030
-639,897	-200,000	0,015	-0,075
-638,882	800,000	0,098	0,220
-637,868	590,806	-0,063	0,116
-636,853	-85,273	-0,112	-0,026
-635,838	-47,510	0,043	0,016
-634,824	160,097	-0,078	-0,081
-633,809	-200,000	-0,001	0,092
-632,795	800,000	0,029	0,074
-631,780	800,000	-0,078	0,208
-630,765	176,575	-0,106	0,114
-629,751	-34,516	0,044	-0,018
-628,736	214,556	-0,060	-0,071
-627,722	-2,390	-0,068	-0,035
-626,707	800,000	-0,023	-0,052
-625,692	-200,000	-0,006	0,151
-624,678	-200,000	-0,012	0,075
-623,663	18,314	-0,016	-0,010
-622,649	533,757	-0,057	-0,100
-621,634	-13,884	0,140	-0,067
-620,619	-84,007	-0,113	0,026
-619,605	-78,408	-0,031	0,008
-618,590	-21,169	-0,010	-0,004
-617,576	-200,000	0,010	-0,120
-616,561	800,000	-0,006	-0,020
-615,546	426,164	0,059	-0,095
-614,532	41,797	-0,167	-0,112
-613,517	569,761	-0,065	-0,117
-612,503	-93,913	0,024	-0,005
-611,488	28,634	-0,088	-0,055
-610,474	-49,455	-0,076	-0,027
-609,459	800,000	-0,041	-0,110
-608,444	800,000	-0,034	-0,084
-607,430	23,821	0,003	-0,002
-606,415	800,000	-0,076	0,161
-605,401	-200,000	-0,015	0,067
-604,386	323,948	0,109	0,155
-603,371	-200,000	0,008	0,061
-602,357	-34,862	0,060	0,024
-601,342	800,000	0,007	0,015
-600,328	135,875	0,077	0,074
-599,313	800,000	-0,008	-0,026
-598,298	800,000	-0,030	0,080
-597,284	-200,000	-0,018	0,239
-596,269	40,206	0,061	0,040
-595,255	-200,000	0,010	-0,037
-594,240	540,825	-0,054	-0,096
-593,225	-97,512	-0,043	-0,008
-592,211	-15,124	-0,029	-0,014
-591,196	800,000	0,038	0,107
-590,182	340,283	-0,013	0,018
-589,167	148,385	-0,020	0,020
-588,152	430,361	-0,052	-0,083
-587,138	-200,000	-0,011	-0,133
-586,123	-160,517	-0,066	0,003
-585,109	-72,704	-0,050	0,013
-584,094	591,503	-0,073	-0,135
-583,079	-94,540	0,018	0,004
-582,065	-29,168	0,045	0,019
-581,050	800,000	-0,033	0,073
-580,036	800,000	0,040	0,113
-579,021	-36,360	-0,086	0,034
-578,006	141,274	-0,144	-0,141
-576,992	-86,676	-0,101	0,023
-575,977	-151,370	-0,043	0,002
-574,963	800,000	-0,022	-0,061
-573,948	75,094	-0,073	0,057
-572,934	259,619	-0,030	0,039
-571,919	-97,633	-0,077	-0,015
-570,904	430,846	-0,116	-0,187
-569,890	136,781	-0,087	-0,084
-568,875	533,942	-0,049	-0,086
-567,861	-66,531	0,038	0,011
-566,846	800,000	0,058	0,153
-565,831	-8,080	0,031	-0,015
-564,817	-200,000	0,008	-0,034
-563,802	293,330	-0,028	0,038
-562,788	-200,000	0,014	-0,077
-561,773	-200,000	0,035	0,120
-560,758	-108,715	0,108	-0,017
-559,744	-174,174	-0,115	-0,002
-558,729	54,798	0,130	-0,092
-557,715	181,766	0,000	0,000
-556,700	800,000	-0,037	-0,082
-555,685	22,558	0,065	0,039
-554,671	-200,000	-0,013	-0,080
-553,656	800,000	0,048	0,112
-552,642	800,000	-0,012	-0,037
-551,627	179,344	0,112	0,121
-550,612	56,367	0,035	-0,025
-549,598	-20,873	0,084	0,038
-548,583	-169,204	0,044	0,001
-547,569	-200,000	-0,027	-0,090
-546,554	107,270	0,139	0,122
-545,539	198,090	-0,024	-0,027
-544,525	118,890	0,057	0,052
-543,510	-200,000	-0,021	-0,088
-542,496	-66,167	-0,095	-0,028
-541,481	327,005	0,021	-0,030
-540,466	273,792	-0,051	-0,067
-539,452	-26,740	0,034	0,015
-538,437	-200,000	0,001	0,121
-537,423	-111,074	-0,087	-0,013
-536,408	-162,594	-0,039	0,001
-535,393	-200,000	0,001	-0,049
-534,379	-200,000	-0,002	-0,109
-533,364	145,517	0,024	-0,024
-532,350	124,242	0,044	-0,041
-531,335	58,639	-0,063	-0,046
-530,321	717,072	0,078	0,153
-529,306	95,224	0,058	0,049
-528,291	-200,000	-0,004	-0,118
-527,277	119,029	-0,080	-0,073
-526,262	194,111	0,071	-0,079
-525,248	420,266	0,098	-0,156
-524,233	18,347	-0,008	0,005
-523,218	-37,284	-0,052	0,021
-522,204	-36,805	-0,091	-0,036
-521,189	-200,000	-0,004	-0,083
-520,175	-106,950	0,055	-0,009
-519,160	-200,000	0,003	-0,116
-518,145	800,000	0,083	0,215
-517,131	800,000	-0,032	-0,099
-516,116	-200,000	-0,012	-0,089
-515,102	800,000	0,067	0,217
-514,087	70,958	0,050	-0,038
-513,072	800,000	-0,015	0,035
-512,058	199,037	-0,061	-0,069
-511,043	264,489	0,101	-0,130
-510,029	-200,000	-0,007	-0,060
-509,014	-200,000	0,027	-0,133
-507,999	-200,000	-0,004	0,040
-506,985	-111,601	0,123	-0,018
-505,970	-200,000	-0,042	-0,142
-504,956	-200,000	-0,024	0,099
-503,941	800,000	-0,021	-0,062
-502,926	-40,126	0,082	0,031
-501,912	-200,000	0,053	0,174
-500,897	800,000	0,022	0,051
-499,883	57,630	-0,124	-0,089
-498,868	268,342	0,025	-0,033
-497,853	-200,000	-0,018	0,063
-496,839	93,186	0,134	0,112
-495,824	-200,000	-0,046	-0,244
-494,810	-120,954	-0,020	-0,002
-493,795	102,054	0,061	-0,053
-492,781	-200,000	-0,017	-0,210
-491,766	800,000	-0,016	-0,052
-490,751	800,000	0,016	-0,050
-489,737	23,175	-0,036	0,022
-488,722	800,000	0,014	-0,030
-487,708	3,797	0,088	-0,047
-486,693	-200,000	-0,025	0,083
-485,678	68,810	-0,091	0,069
-484,664	-132,620	0,026	-0,002
-483,649	20,172	-0,018	0,011
-482,635	-200,000	0,018	0,131
-481,620	-51,897	0,043	0,015
-480,605	-10,530	0,172	0,084
-479,591	297,844	0,010	0,013
-478,576	260,739	0,025	-0,032
-477,562	800,000	-0,059	-0,130
-476,547	-122,398	-0,112	0,013
-475,532	469,686	0,057	-0,095
-474,518	37,897	0,031	0,021
-473,503	269,682	0,060	-0,078
-472,489	-51,729	0,047	-0,016
-471,474	160,137	0,060	0,062
-470,459	-9,110	0,098	-0,048
-469,445	244,074	-0,114	-0,142
-468,430	176,376	-0,095	-0,102
-467,416	201,188	0,094	-0,107
-466,401	-114,880	0,073	-0,010
-465,386	422,983	-0,058	0,092
-464,372	54,658	-0,014	0,010
-463,357	800,000	-0,026	0,074
-462,343	328,211	0,041	0,058
-461,328	10,857	-0,119	-0,067
-460,313	18,941	-0,054	0,032
-459,299	94,395	0,134	0,112
-458,284	362,348	-0,080	0,119
-457,270	800,000	0,032	0,072
-456,255	117,893	-0,070	-0,063
-455,241	-200,000	-0,018	0,092
-454,226	224,024	-0,049	-0,058
-453,211	-200,000	-0,000	-0,086
-452,197	224,830	0,066	-0,079
-451,182	26,387	0,123	-0,075
-450,168	-200,000	0,009	-0,070
-449,153	-200,000	-0,008	-0,072
-448,138	-143,758	-0,133	0,009
-447,124	-200,000	0,016	-0,107
-446,109	-65,575	-0,133	-0,039
-445,095	213,236	0,044	0,051
-444,080	-200,000	0,003	0,189
-443,065	7,764	0,070	0,038
-442,051	800,000	-0,013	-0,029
-441,036	-62,196	-0,142	0,043
-440,022	228,310	-0,007	-0,009
-439,007	800,000	-0,028	0,089
-437,992	147,357	0,003	-0,003
-436,978	800,000	0,079	0,173
-435,963	118,285	-0,021	0,019
-434,949	-20,347	-0,074	-0,033
-433,934	115,004	-0,037	0,033
-432,919	-200,000	0,006	0,035
-431,905	176,536	-0,142	-0,152
-430,890	31,549	-0,106	-0,067
-429,876	374,719	0,080	-0,121
-428,861	366,079	0,045	-0,067
-427,846	727,380	-0,072	-0,142
-426,832	800,000	0,017	-0,054
-425,817	800,000	-0,056	0,155
-424,803	455,067	-0,018	0,030
-423,788	-200,000	0,027	0,097
-422,773	39,276	0,185	0,122
-421,759	-110,844	0,107	0,016
-420,744	-200,000	-0,004	-0,097
-419,730	375,970	0,054	-0,081
-418,715	222,279	0,024	-0,029
-417,701	-200,000	0,004	-0,043
-416,686	4,615	0,073	0,039
-415,671	-29,130	0,097	-0,041
-414,657	-134,727	0,130	0,011
-413,642	53,101	-0,066	-0,046
-412,628	0,422	0,092	-0,048
-411,613	112,608	-0,145	-0,129
-410,598	164,222	-0,079	0,082
-409,584	156,670	0,087	0,089
-408,569	-65,098	0,164	0,048
-407,555	-78,798	0,133	0,033
-406,540	-13,475	0,131	0,062
-405,525	-14,630	0,095	-0,045
-404,511	300,389	0,023	0,031
-403,496	422,704	0,072	-0,113
-402,482	536,077	-0,071	0,124
-401,467	-79,157	-0,119	0,029
-400,452	-200,000	-0,013	0,045
-399,438	147,215	-0,039	0,038
-398,423	274,301	0,015	-0,019
-397,409	-200,000	-0,005	0,020
-396,394	-200,000	0,023	0,078
-395,379	-200,000	0,025	0,082
-394,365	-200,000	0,010	-0,060
-393,350	800,000	0,002	-0,004
-392,336	-182,717	-0,032	0,000
-391,321	-59,597	-0,035	-0,011
-390,306	36,547	-0,142	0,092
-389,292	72,147	-0,074	0,056
-388,277	-200,000	0,026	-0,113
-387,263	800,000	0,007	-0,020
-386,248	-113,269	0,123	-0,018
-385,233	-70,140	-0,074	0,021
-384,219	-200,000	0,003	0,016
-383,204	-4,446	-0,154	0,078
-382,190	49,706	-0,115	-0,079
-381,175	-138,613	-0,114	0,009
-380,160	800,000	-0,051	-0,115
-379,146	800,000	-0,030	-0,091
-378,131	231,004	0,120	0,145
-377,117	2,220	0,024	0,012
-376,102	323,637	0,119	-0,168
-375,088	440,099	-0,036	-0,058
-374,073	-31,214	-0,043	-0,018
-373,058	-200,000	0,017	0,117
-372,044	-200,000	-0,012	0,095
-371,029	174,936	0,059	0,063
-370,015	54,253	-0,074	0,052
-369,000	183,612	0,097	-0,106
-367,985	-200,000	-0,031	-0,105
-366,971	-200,000	0,010	0,049
-365,956	-23,670	-0,070	0,031
-364,942	-34,793	-0,092	-0,037
-363,927	56,175	0,073	0,052
-362,912	-143,090	0,151	0,011
-361,898	-200,000	-0,004	-0,061
-360,883	-200,000	0,018	-0,082
-359,869	800,000	0,054	0,117
-358,854	-115,864	0,085	-0,011
-357,839	800,000	0,026	0,066
-356,825	-47,590	-0,135	0,048
-355,810	27,573	0,011	-0,007
-354,796	-50,065	-0,154	0,053
-353,781	-200,000	0,033	-0,131
-352,766	104,094	-0,080	-0,069
-351,752	800,000	-0,035	-0,087
-350,737	391,879	-0,045	0,069
-349,723	-200,000	0,017	-0,118
-348,708	-200,000	0,014	0,082
-347,693	800,000	-0,039	-0,094
-346,679	168,554	-0,064	-0,066
-345,664	420,095	-0,045	-0,071
-344,650	159,304	0,046	-0,047
-343,635	-179,315	0,087	0,001
-342,620	103,634	0,088	-0,076
-341,606	178,803	0,019	-0,021
-340,591	65,912	-0,178	-0,132
-339,577	-200,000	0,004	0,034
-338,562	-200,000	-0,008	0,050
-337,548	-39,733	0,119	0,045
-336,533	-64,721	-0,105	-0,031
-335,518	-43,500	0,143	0,053
-334,504	18,291	0,141	0,082
-333,489	-200,000	-0,013	-0,054
-332,475	-89,290	0,107	0,023
-331,460	122,275	-0,129	-0,118
-330,445	401,897	-0,013	-0,020
-329,431	800,000	-0,044	0,099
-328,416	-200,000	-0,004	0,240
-327,402	195,047	-0,101	0,113
-326,387	51,956	0,128	-0,089
-325,372	-40,695	0,076	-0,029
-324,358	-130,350	-0,153	-0,015
-323,343	-1,884	-0,014	-0,007
-322,329	-82,171	0,128	0,030
-321,314	-200,000	0,000	-0,044
-320,299	-94,819	0,194	0,038
-319,285	91,044	-0,093	0,076
-318,270	-200,000	0,012	0,052
-317,256	-128,375	-0,039	0,004
-316,241	144,635	-0,042	-0,041
-315,226	-67,763	-0,079	0,023
-314,212	479,950	0,030	0,050
-313,197	-200,000	-0,004	-0,016
-312,183	305,231	0,069	0,093
-311,168	-200,000	0,275	-0,001
-310,153	109,883	0,064	-0,056
-309,139	-200,000	-0,002	0,120
-308,124	-38,304	0,165	0,064
-307,110	-200,000	-0,003	0,112
-306,095	-9,779	0,106	-0,051
-305,080	-200,000	-0,048	0,158
-304,066	-91,694	-0,122	-0,025
-303,051	-200,000	0,002	-0,075
-302,037	-200,000	-0,013	0,075
-301,022	250,029	-0,040	0,049
-300,008	-200,000	0,109	0,000
-298,993	38,867	0,151	0,098
-297,978	-13,956	0,052	-0,024
-296,964	-96,832	-0,151	-0,029
-295,949	-123,414	0,092	-0,011
-294,935	-200,000	-0,011	-0,057
-293,920	-200,000	-0,005	-0,028
-292,905	416,653	-0,024	0,037
-291,891	91,984	0,049	0,040
-290,876	175,386	-0,040	0,043
-289,862	72,329	0,138	0,105
-288,847	-69,420	0,105	0,029
-287,832	-3,648	-0,055	0,028
-286,818	-153,927	-0,103	0,005
-285,803	52,720	-0,048	-0,034
-284,789	175,867	-0,038	0,040
-283,774	76,968	-0,062	0,048
-282,759	-146,292	-0,044	0,003
-281,745	51,101	-0,116	0,081
-280,730	15,889	-0,062	-0,036
-279,716	-200,000	-0,010	-0,109
-278,701	417,115	0,057	0,090
-277,686	-11,867	-0,064	0,031
-276,672	-200,000	0,019	-0,116
-275,657	10,900	0,067	0,037
-274,643	116,127	0,035	0,031
-273,628	-46,132	-0,069	-0,025
-272,613	22,065	-0,015	0,009
-271,599	-200,000	-0,019	0,081
-270,584	-83,479	0,212	-0,049
-269,570	-65,540	0,025	0,007
-268,555	155,283	-0,081	0,081
-267,540	-18,590	0,057	0,026
-266,526	179,650	0,079	0,085
-265,511	-43,044	-0,156	-0,058
-264,497	218,589	-0,044	-0,051
-263,482	800,000	0,034	0,095
-262,467	-22,488	-0,085	0,037
-261,453	320,744	0,047	-0,065
-260,438	611,920	-0,066	0,120
-259,424	-200,000	-0,016	-0,118
-258,409	24,212	-0,108	-0,065
-257,395	800,000	-0,030	-0,074
-256,380	800,000	0,032	-0,092
-255,365	-200,000	-0,019	0,081
-254,351	-33,225	0,019	-0,008
-253,336	128,582	-0,068	-0,063
-252,322	-200,000	-0,003	-0,071
-251,307	-141,001	-0,096	0,007
-250,292	-200,000	0,002	0,030
-249,278	129,583	0,018	0,017
-248,263	1,337	0,091	0,048
-247,249	-200,000	-0,018	0,059
-246,234	147,466	-0,048	0,047
-245,219	-140,069	0,079	-0,006
-244,205	-31,365	-0,039	-0,016
-243,190	21,880	0,079	0,047
-242,176	-65,109	0,135	0,040
-241,161	-88,036	0,101	0,022
-240,146	-71,663	-0,070	0,019
-239,132	800,000	0,033	-0,073
-238,117	-152,837	-0,231	0,012
-237,103	-200,000	-0,017	-0,088
-236,088	-200,000	0,006	0,042
-235,073	-14,255	0,066	0,031
-234,059	461,098	0,036	-0,059
-233,044	-39,954	-0,130	-0,049
-232,030	106,014	-0,055	-0,048
-231,015	226,082	-0,067	-0,079
-230,000	-71,445	-0,049	-0,013
-228,986	-200,000	-0,030	0,184
-227,971	-200,000	0,027	0,124
-226,957	800,000	0,011	0,022
-225,942	10,795	-0,024	-0,013
-224,927	238,076	-0,070	-0,085
-223,913	-82,410	-0,122	0,029
-222,898	-27,597	-0,053	-0,022
-221,884	9,247	0,071	-0,039
-220,869	-30,659	-0,166	0,068
-219,855	-46,130	-0,060	-0,021
-218,840	800,000	0,020	-0,051
-217,825	584,067	0,053	0,096
-216,811	800,000	0,021	-0,047
-215,796	89,614	-0,098	-0,080
-214,782	800,000	0,022	0,055
-213,767	348,263	-0,055	0,080
-212,752	63,068	0,016	-0,012
-211,738	11,453	0,098	-0,055
-210,723	13,735	0,035	-0,020
-209,709	153,393	-0,082	-0,082
-208,694	-137,756	0,004	-0,000
-207,679	-153,897	0,116	0,006
-206,665	-95,441	0,085	0,016
-205,650	12,135	-0,062	0,035
-204,636	-9,259	-0,063	-0,030
-203,621	800,000	-0,035	-0,073
-202,606	-200,000	-0,015	-0,072
-201,592	-200,000	0,004	-0,043
-200,577	800,000	0,016	-0,040
-199,563	-29,762	0,081	-0,033
-198,548	800,000	0,058	-0,153
-197,533	-200,000	0,008	0,040
-196,519	-113,234	-0,097	-0,014
-195,504	226,075	-0,069	0,082
-194,490	74,315	0,122	-0,094
-193,475	-93,794	-0,017	-0,003
-192,460	-200,000	0,023	0,131
-191,446	-163,005	0,172	-0,006
-190,431	-155,219	0,123	-0,006
-189,417	800,000	0,038	0,110
-188,402	516,681	0,054	-0,092
-187,387	52,082	0,058	-0,040
-186,373	385,930	-0,022	-0,033
-185,358	49,876	-0,055	0,038
-184,344	800,000	0,081	0,195
-183,329	252,275	0,092	0,115
-182,315	800,000	0,024	0,073
-181,300	-200,000	0,019	0,072
-180,285	-200,000	-0,001	0,027
-179,271	424,910	-0,030	-0,048
-178,256	-68,687	-0,151	0,042
-177,242	-40,077	0,140	0,053
-176,227	-200,000	0,016	-0,144
-175,212	-200,000	0,021	0,133
-174,198	800,000	-0,041	-0,105
-173,183	-81,085	-0,126	-0,030
-172,169	128,135	0,111	0,103
-171,154	-65,468	-0,133	-0,039
-170,139	33,474	0,054	0,034
-169,125	-132,052	0,025	0,002
-168,110	800,000	0,057	0,114
-167,096	800,000	0,030	0,068
-166,081	800,000	0,045	0,137
-165,066	-111,019	-0,058	0,009
-164,052	-200,000	0,011	0,100
-163,037	28,625	0,078	0,048
-162,023	-86,514	0,119	0,026
-161,008	-31,651	-0,109	-0,044
-159,993	800,000	0,021	-0,055
-158,979	-30,558	-0,152	-0,062
-157,964	-145,737	-0,045	-0,003
-156,950	113,852	0,058	0,051
-155,935	800,000	0,064	0,136
-154,920	21,316	0,138	-0,082
-153,906	-200,000	0,006	-0,042
-152,891	466,190	0,019	-0,032
-151,877	-93,305	0,064	0,013
-150,862	106,722	-0,078	-0,067
-149,847	-37,851	-0,095	0,037
-148,833	-133,959	0,067	-0,006
-147,818	800,000	0,091	0,185
-146,804	370,530	-0,064	0,095
-145,789	-200,000	0,008	0,056
-144,775	800,000	0,038	0,087
-143,760	-24,232	0,080	0,035
-142,745	-200,000	0,011	-0,037
-141,731	-48,683	0,042	0,014
-140,716	-200,000	-0,004	-0,015
-139,702	14,264	-0,102	0,058
-138,687	-200,000	0,010	0,037
-137,672	-159,338	-0,114	-0,005
-136,658	-200,000	-0,024	-0,183
-135,643	278,947	-0,080	-0,104
-134,629	138,310	-0,056	-0,053
-133,614	-200,000	0,002	-0,069
-132,599	-119,718	0,111	-0,014
-131,585	3,522	0,043	0,023
-130,570	-93,623	0,098	-0,020
-129,556	800,000	0,010	-0,024
-128,541	766,320	-0,018	-0,036
-127,526	-200,000	-0,004	0,016
-126,512	157,099	-0,043	-0,043
-125,497	-200,000	-0,025	0,084
-124,483	800,000	0,041	0,113
-123,468	-76,479	-0,114	0,029
-122,453	688,124	0,022	0,043
-121,439	-32,702	-0,136	-0,055
-120,424	-200,000	0,017	-0,079
-119,410	-128,954	0,046	0,005
