DTS Sentinel unit serial number:	SN410029Multiplexer serial number:	ORYXHardware model number:	OX2-SRSoftware version number:	ORYX F/W v4,00 Oryx Data Collector v3.7.2.0data status	okinstallation	B4 Nyhavnadifferential loss correction	single-endedforward channel	channel 2reverse channel	N/Adate	2023/12/18time	21:55:13forward acquisition time	300,00reverse acquisition time	0,00gamma	499,1914k internal	0,3124k external	0,3124temperature offset calibration	1,0000default loss term (dB/km)	0,3820temperature slope calibration	1,0000multiplexer offset coefficient	1,0000multiplexer slope coefficient	1,0000fibre end	0,00T internal ref (°C)	21,85T ext. ref 1 (°C)	7,20T ext. ref 2 (°C)	7,14length (m)	temperature (°C)	Stokes	anti-Stokes-744,400	150,918	0,067	-0,068
-743,385	87,153	-0,233	0,191
-742,371	-200,000	-0,019	-0,104
-741,356	136,143	-0,227	0,221
-740,342	-17,502	0,163	0,076
-739,327	-68,757	-0,257	0,074
-738,312	118,229	-0,061	-0,056
-737,298	-44,414	-0,343	0,127
-736,283	-6,334	0,174	-0,088
-735,269	-14,863	-0,290	0,138
-734,254	63,517	0,034	0,025
-733,239	51,320	-0,243	-0,172
-732,225	329,576	0,056	-0,080
-731,210	246,901	-0,039	0,049
-730,196	-126,587	0,093	0,010
-729,181	94,448	0,042	-0,036
-728,167	-200,000	0,012	0,058
-727,152	174,037	-0,091	-0,099
-726,137	784,008	0,015	-0,031
-725,123	336,746	-0,076	-0,110
-724,108	139,197	-0,156	-0,153
-723,094	48,222	-0,176	-0,122
-722,079	800,000	-0,030	-0,083
-721,064	78,844	-0,036	0,029
-720,050	157,967	-0,036	-0,037
-719,035	-106,918	-0,042	-0,007
-718,021	170,538	0,044	0,047
-717,006	-37,369	-0,118	-0,047
-715,991	-200,000	0,000	-0,013
-714,977	800,000	0,022	-0,059
-713,962	36,557	0,083	-0,055
-712,948	-200,000	0,007	0,086
-711,933	93,291	-0,011	-0,009
-710,918	22,105	-0,073	-0,044
-709,904	-200,000	0,025	-0,168
-708,889	800,000	-0,049	-0,121
-707,875	-140,141	0,155	0,012
-706,860	193,272	-0,022	-0,025
-705,845	223,754	-0,042	0,050
-704,831	204,768	-0,043	0,050
-703,816	800,000	0,033	-0,085
-702,802	-200,000	0,014	0,083
-701,787	-74,149	-0,179	0,048
-700,772	16,002	-0,069	-0,041
-699,758	-102,166	-0,142	0,025
-698,743	635,125	0,070	0,133
-697,729	111,074	-0,111	0,099
-696,714	134,509	0,084	0,081
-695,699	244,094	0,016	0,020
-694,685	-15,793	-0,069	-0,032
-693,670	115,588	0,073	-0,066
-692,656	-200,000	0,007	0,047
-691,641	800,000	-0,052	0,144
-690,627	-86,274	0,197	0,045
-689,612	-200,000	-0,005	-0,042
-688,597	5,575	0,047	0,026
-687,583	175,270	0,056	-0,060
-686,568	168,570	0,051	-0,054
-685,554	-200,000	0,008	-0,117
-684,539	-200,000	0,012	0,052
-683,524	-54,224	0,051	-0,017
-682,510	-70,452	-0,122	0,034
-681,495	154,885	-0,105	-0,107
-680,481	-51,654	-0,069	-0,024
-679,466	61,220	-0,145	-0,107
-678,451	212,769	-0,071	0,084
-677,437	457,883	0,029	-0,048
-676,422	-200,000	-0,016	0,084
-675,408	176,455	0,025	-0,027
-674,393	9,139	0,019	0,011
-673,378	192,255	-0,033	-0,038
-672,364	240,738	-0,088	-0,109
-671,349	555,528	-0,073	0,131
-670,335	800,000	0,033	0,093
-669,320	89,677	0,060	0,050
-668,305	-200,000	-0,024	0,091
-667,291	-200,000	-0,031	-0,126
-666,276	-200,000	-0,000	-0,053
-665,262	55,666	-0,073	-0,053
-664,247	-200,000	0,003	-0,031
-663,232	800,000	0,017	0,049
-662,218	-148,390	-0,043	0,003
-661,203	493,227	0,089	0,152
-660,189	-200,000	-0,015	0,132
-659,174	-200,000	-0,010	-0,071
-658,159	207,325	-0,058	-0,067
-657,145	-200,000	0,028	-0,109
-656,130	-200,000	-0,007	-0,088
-655,116	-117,181	0,107	-0,014
-654,101	-170,887	0,041	-0,001
-653,086	207,680	-0,037	0,043
-652,072	40,720	0,099	-0,066
-651,057	-47,132	-0,110	-0,039
-650,043	-45,641	-0,028	-0,010
-649,028	-86,536	0,107	0,024
-648,014	30,681	-0,047	0,030
-646,999	-39,462	-0,024	-0,009
-645,984	105,483	-0,055	-0,048
-644,970	30,958	-0,086	-0,054
-643,955	343,188	-0,031	-0,045
-642,941	335,978	-0,053	-0,076
-641,926	260,205	0,082	-0,105
-640,911	63,436	-0,101	0,075
-639,897	452,063	0,078	0,129
-638,882	27,647	0,136	0,085
-637,868	-200,000	0,020	0,100
-636,853	325,171	-0,028	-0,039
-635,838	2,051	-0,056	0,030
-634,824	-200,000	0,022	-0,146
-633,809	-50,268	0,216	-0,075
-632,795	68,035	0,075	-0,057
-631,780	17,454	0,103	-0,061
-630,765	59,988	-0,070	0,051
-629,751	-200,000	-0,007	-0,152
-628,736	29,970	-0,061	-0,039
-627,722	800,000	0,024	-0,051
-626,707	800,000	0,030	-0,072
-625,692	-200,000	0,009	-0,037
-624,678	-17,928	-0,119	-0,055
-623,663	166,942	-0,090	0,095
-622,649	-48,278	-0,202	-0,072
-621,634	21,294	-0,066	-0,040
-620,619	59,401	-0,059	-0,043
-619,605	32,833	0,080	0,051
-618,590	-200,000	-0,013	-0,048
-617,576	38,076	0,038	0,025
-616,561	76,037	0,079	-0,062
-615,546	231,316	-0,045	-0,055
-614,532	-79,792	-0,088	0,022
-613,517	413,724	0,041	-0,064
-612,503	50,838	-0,126	-0,088
-611,488	-200,000	-0,011	0,140
-610,474	590,537	0,025	0,047
-609,459	656,582	0,045	-0,086
-608,444	253,140	-0,066	-0,084
-607,430	482,434	0,012	-0,021
-606,415	800,000	0,071	-0,157
-605,401	211,552	0,044	0,052
-604,386	30,094	0,079	0,050
-603,371	-200,000	-0,021	-0,085
-602,357	185,132	-0,048	0,053
-601,342	27,062	-0,107	-0,066
-600,328	-101,676	-0,156	-0,028
-599,313	218,187	-0,086	-0,102
-598,298	-34,649	0,045	0,018
-597,284	166,386	0,078	0,082
-596,269	86,851	0,149	0,121
-595,255	-200,000	0,043	0,149
-594,240	-79,422	0,080	0,020
-593,225	399,306	-0,042	-0,065
-592,211	677,115	-0,020	0,039
-591,196	800,000	-0,073	-0,157
-590,182	-200,000	0,007	0,051
-589,167	165,001	0,064	0,067
-588,152	241,902	-0,085	0,106
-587,138	-31,398	0,119	0,050
-586,123	-22,566	-0,173	0,077
-585,109	16,432	-0,136	-0,079
-584,094	800,000	-0,027	0,083
-583,079	-68,591	-0,038	-0,011
-582,065	800,000	0,035	0,110
-581,050	25,265	0,034	0,021
-580,036	800,000	0,020	-0,046
-579,021	800,000	0,009	0,025
-578,006	135,555	-0,090	-0,086
-576,992	-200,000	-0,008	0,055
-575,977	-108,754	0,064	0,010
-574,963	-200,000	-0,006	0,159
-573,948	-200,000	0,013	0,051
-572,934	146,613	0,047	0,047
-571,919	609,891	-0,047	0,087
-570,904	-200,000	-0,011	-0,101
-569,890	-200,000	0,006	-0,027
-568,875	-136,416	-0,111	-0,009
-567,861	-200,000	-0,001	-0,017
-566,846	377,151	0,059	0,089
-565,831	-200,000	0,013	-0,082
-564,817	-200,000	0,020	-0,146
-563,802	-200,000	0,006	-0,078
-562,788	85,508	-0,073	0,059
-561,773	800,000	0,041	-0,124
-560,758	-80,473	0,059	0,014
-559,744	-200,000	-0,011	0,047
-558,729	-200,000	-0,050	0,199
-557,715	-200,000	0,035	0,118
-556,700	-200,000	-0,006	-0,071
-555,685	338,902	0,053	-0,077
-554,671	-200,000	-0,017	-0,061
-553,656	-104,357	0,080	-0,014
-552,642	-62,029	0,090	0,028
-551,627	-200,000	0,021	0,129
-550,612	587,107	0,018	-0,034
-549,598	63,365	0,037	-0,027
-548,583	562,423	-0,086	-0,155
-547,569	326,235	-0,068	-0,096
-546,554	-65,470	0,095	-0,028
-545,539	-200,000	-0,001	0,085
-544,525	298,553	0,037	0,050
-543,510	51,149	-0,126	-0,088
-542,496	283,108	-0,039	-0,052
-541,481	800,000	0,057	0,121
-540,466	794,814	0,036	0,073
-539,452	35,239	-0,074	0,048
-538,437	-200,000	-0,021	0,071
-537,423	85,593	0,108	0,088
-536,408	-200,000	0,009	-0,057
-535,393	800,000	0,015	0,048
-534,379	-200,000	-0,032	0,114
-533,364	800,000	0,032	-0,094
-532,350	89,012	0,036	0,030
-531,335	800,000	-0,026	0,053
-530,321	-57,605	-0,048	-0,015
-529,306	16,485	0,090	0,053
-528,291	-91,578	-0,093	-0,019
-527,277	-8,010	-0,016	0,008
-526,262	800,000	0,013	0,042
-525,248	140,524	-0,081	-0,079
-524,233	-200,000	-0,016	0,115
-523,218	-149,078	0,112	-0,007
-522,204	800,000	-0,038	-0,081
-521,189	126,691	-0,084	0,078
-520,175	55,255	-0,057	0,041
-519,160	45,270	-0,175	-0,119
-518,145	-200,000	0,044	-0,183
-517,131	-182,543	0,112	0,001
-516,116	800,000	0,032	-0,075
-515,102	-131,916	-0,084	0,008
-514,087	-159,919	0,119	0,005
-513,072	800,000	0,048	-0,109
-512,058	-154,011	-0,073	-0,004
-511,043	-166,601	-0,026	-0,001
-510,029	-200,000	0,023	0,074
-509,014	-200,000	-0,010	-0,063
-507,999	800,000	-0,016	-0,047
-506,985	800,000	-0,013	0,036
-505,970	800,000	-0,036	-0,100
-504,956	68,546	-0,092	0,069
-503,941	-200,000	0,003	0,035
-502,926	-200,000	0,011	-0,170
-501,912	-200,000	0,005	0,186
-500,897	104,655	-0,055	-0,048
-499,883	-55,892	0,122	-0,040
-498,868	800,000	-0,024	-0,068
-497,853	125,389	-0,029	0,027
-496,839	800,000	0,024	-0,052
-495,824	-26,250	0,059	0,026
-494,810	-200,000	-0,024	0,119
-493,795	-128,748	-0,081	0,008
-492,781	755,811	-0,054	0,108
-491,766	-72,773	-0,026	-0,007
-490,751	-200,000	-0,014	-0,112
-489,737	800,000	0,036	-0,079
-488,722	-152,265	0,022	0,001
-487,708	-127,979	0,161	-0,017
-486,693	339,422	-0,030	-0,044
-485,678	100,264	-0,080	-0,068
-484,664	-149,568	0,122	0,007
-483,649	-21,252	0,051	-0,023
-482,635	-200,000	0,004	-0,092
-481,620	-2,790	0,029	0,015
-480,605	-200,000	-0,019	0,118
-479,591	70,184	-0,126	-0,096
-478,576	-200,000	0,006	-0,082
-477,562	-107,730	-0,037	-0,006
-476,547	-14,414	-0,169	-0,080
-475,532	20,505	0,028	-0,017
-474,518	-200,000	-0,001	0,051
-473,503	140,281	0,053	0,052
-472,489	71,454	-0,050	0,039
-471,474	-200,000	-0,019	-0,136
-470,459	-171,535	0,042	-0,001
-469,445	-131,536	0,087	-0,008
-468,430	-200,000	-0,001	0,039
-467,416	146,486	-0,053	0,052
-466,401	177,446	0,014	-0,015
-465,386	-48,502	0,060	-0,021
-464,372	-55,335	0,112	0,037
-463,357	-98,693	0,058	-0,011
-462,343	-180,482	-0,063	0,001
-461,328	142,441	-0,097	-0,095
-460,313	-200,000	-0,016	-0,120
-459,299	192,691	-0,029	-0,033
-458,284	-28,848	0,081	0,034
-457,270	583,686	0,074	-0,135
-456,255	307,635	0,038	-0,052
-455,241	478,798	0,061	-0,101
-454,226	23,750	-0,049	-0,030
-453,211	71,962	-0,123	0,094
-452,197	-66,273	0,137	0,040
-451,182	800,000	-0,051	0,124
-450,168	759,028	0,029	0,058
-449,153	287,100	-0,041	-0,054
-448,138	-200,000	-0,022	-0,175
-447,124	137,674	-0,039	0,037
-446,109	-89,767	0,037	0,008
-445,095	-54,198	-0,064	-0,021
-444,080	-70,340	-0,132	-0,037
-443,065	-81,737	-0,103	0,025
-442,051	107,003	0,177	-0,155
-441,036	-115,937	-0,032	0,004
-440,022	800,000	0,021	-0,045
-439,007	51,617	-0,082	0,057
-437,992	-52,629	0,064	-0,022
-436,978	-200,000	-0,006	-0,083
-435,963	-142,279	-0,094	-0,007
-434,949	-57,016	-0,072	-0,023
-433,934	196,385	-0,052	-0,058
-432,919	190,798	0,103	-0,114
-431,905	-37,355	0,020	0,008
-430,890	-65,373	-0,074	0,022
-429,876	-36,171	-0,120	0,048
-428,861	-107,126	0,084	0,014
-427,846	-36,726	-0,081	0,032
-426,832	564,301	-0,028	-0,050
-425,817	318,520	-0,030	-0,042
-424,803	-200,000	-0,007	-0,045
-423,788	800,000	-0,009	0,021
-422,773	-92,938	0,129	0,026
-421,759	-23,172	-0,120	-0,053
-420,744	-110,850	-0,103	-0,015
-419,730	98,201	-0,105	-0,089
-418,715	381,134	-0,071	0,108
-417,701	39,327	-0,086	-0,056
-416,686	-200,000	-0,016	-0,094
-415,671	160,256	-0,077	-0,079
-414,657	295,486	-0,030	-0,041
-413,642	-200,000	-0,082	0,000
-412,628	-200,000	-0,015	-0,072
-411,613	359,042	-0,014	-0,020
-410,598	-141,648	0,082	-0,006
-409,584	-200,000	-0,015	0,054
-408,569	206,060	0,087	-0,100
-407,555	281,172	0,009	-0,012
-406,540	-152,366	-0,039	0,002
-405,525	156,916	0,061	-0,062
-404,511	293,199	0,024	0,033
-403,496	800,000	0,034	0,085
-402,482	-200,000	-0,008	0,063
-401,467	-200,000	0,002	-0,029
-400,452	800,000	0,055	0,133
-399,438	-166,671	-0,066	-0,002
-398,423	798,074	-0,071	0,144
-397,409	265,401	0,104	0,134
-396,394	-119,142	-0,052	-0,007
-395,379	800,000	0,068	0,218
-394,365	800,000	0,082	0,264
-393,350	-25,439	0,090	-0,039
-392,336	314,138	0,031	0,043
-391,321	-92,251	-0,133	0,027
-390,306	-134,943	-0,025	-0,002
-389,292	80,946	-0,060	-0,047
-388,277	-35,641	-0,104	0,041
-387,263	-200,000	0,007	-0,163
-386,248	-2,429	0,022	0,012
-385,233	740,957	-0,035	-0,070
-384,219	-127,221	-0,088	-0,009
-383,204	800,000	-0,025	-0,079
-382,190	388,608	-0,020	0,031
-381,175	-52,124	0,136	0,046
-380,160	-200,000	0,017	0,097
-379,146	800,000	0,020	0,062
-378,131	800,000	-0,084	0,233
-377,117	-200,000	-0,010	0,098
-376,102	174,184	-0,085	-0,090
-375,088	189,561	-0,048	-0,053
-374,073	47,178	-0,015	-0,010
-373,058	169,884	-0,072	-0,076
-372,044	-38,781	0,091	-0,035
-371,029	-62,709	0,123	-0,037
-370,015	-98,788	-0,052	0,010
-369,000	-92,606	-0,051	0,010
-367,985	-200,000	0,022	-0,118
-366,971	47,992	-0,118	0,081
-365,956	4,892	-0,126	-0,068
-364,942	386,580	0,017	0,025
-363,927	-200,000	0,021	0,086
-362,912	14,181	0,069	-0,039
-361,898	319,310	-0,043	0,060
-360,883	-200,000	0,020	-0,120
-359,869	28,009	-0,116	0,072
-358,854	18,856	0,054	0,031
-357,839	-77,549	0,145	-0,037
-356,825	38,397	0,081	-0,053
-355,810	-200,000	0,029	0,150
-354,796	245,584	-0,072	0,089
-353,781	-200,000	0,008	-0,033
-352,766	-126,620	-0,108	0,012
-351,752	-41,028	0,136	-0,051
-350,737	403,758	0,054	0,083
-349,723	254,427	0,012	-0,015
-348,708	86,223	0,065	-0,052
-347,693	800,000	0,030	-0,082
-346,679	339,213	0,056	0,080
-345,664	-64,431	-0,068	-0,020
-344,650	-56,554	-0,062	0,020
-343,635	240,262	0,059	0,072
-342,620	23,793	0,111	0,067
-341,606	197,837	-0,029	0,032
-340,591	-12,479	-0,102	0,049
-339,577	122,855	-0,093	0,085
-338,562	63,546	-0,028	0,021
-337,548	192,155	0,094	-0,104
-336,533	7,633	0,102	-0,056
-335,518	-136,594	0,100	0,008
-334,504	800,000	0,037	0,081
-333,489	-110,994	0,104	-0,015
-332,475	-148,877	-0,111	0,006
-331,460	171,864	0,070	-0,074
-330,445	110,875	-0,049	-0,043
-329,431	-200,000	0,001	0,020
-328,416	77,959	-0,040	-0,031
-327,402	201,460	0,034	-0,039
-326,387	335,771	0,068	0,097
-325,372	800,000	-0,025	-0,054
-324,358	371,604	0,008	-0,012
-323,343	-200,000	0,028	-0,091
-322,329	171,210	0,072	0,076
-321,314	800,000	-0,024	0,072
-320,299	800,000	-0,063	0,166
-319,285	194,256	-0,060	0,067
-318,270	-200,000	0,001	-0,031
-317,256	273,956	0,083	-0,108
-316,241	772,886	-0,007	-0,015
-315,226	103,115	0,095	0,081
-314,212	406,026	-0,116	0,179
-313,197	84,774	-0,004	0,003
-312,183	-125,317	0,034	-0,004
-311,168	559,329	0,017	-0,031
-310,153	57,680	-0,018	-0,013
-309,139	-27,583	-0,189	-0,080
-308,124	-200,000	0,007	-0,028
-307,110	-63,209	0,056	0,017
-306,095	73,763	0,129	0,099
-305,080	800,000	0,006	0,014
-304,066	-200,000	0,018	-0,081
-303,051	-200,000	0,026	-0,147
-302,037	-14,787	0,185	-0,086
-301,022	-84,823	0,027	-0,006
-300,008	-200,000	-0,009	0,066
-298,993	84,362	0,128	0,102
-297,978	800,000	-0,018	0,058
-296,964	227,086	0,040	-0,048
-295,949	10,969	0,045	-0,025
-294,935	-80,294	0,111	0,027
-293,920	800,000	0,030	-0,089
-292,905	353,067	0,047	0,069
-291,891	-200,000	-0,019	0,105
-290,876	-200,000	0,015	0,100
-289,862	800,000	-0,050	-0,137
-288,847	800,000	-0,021	-0,063
-287,832	-68,082	0,097	-0,027
-286,818	-140,263	0,067	0,005
-285,803	800,000	0,014	-0,037
-284,789	-200,000	0,000	-0,139
-283,774	477,920	0,062	0,102
-282,759	71,839	0,011	-0,008
-281,745	-21,231	-0,064	0,029
-280,730	800,000	-0,022	0,064
-279,716	-200,000	-0,016	-0,077
-278,701	-121,981	-0,049	0,006
-277,686	105,888	-0,044	0,038
-276,672	281,485	-0,020	0,026
-275,657	-164,345	0,037	-0,001
-274,643	800,000	-0,040	0,086
-273,628	65,271	-0,078	-0,058
-272,613	81,594	-0,025	0,020
-271,599	23,110	0,143	0,086
-270,584	190,436	0,050	0,055
-269,570	-200,000	0,012	-0,052
-268,555	800,000	0,038	0,084
-267,540	-105,707	0,143	0,024
-266,526	-200,000	-0,024	0,090
-265,511	-107,362	0,055	0,009
-264,497	800,000	0,045	0,094
-263,482	172,779	-0,015	0,015
-262,467	-28,985	0,109	0,046
-261,453	-200,000	0,005	0,048
-260,438	12,220	-0,022	-0,013
-259,424	29,277	0,049	-0,030
-258,409	-200,000	0,022	0,093
-257,395	800,000	0,040	0,096
-256,380	-200,000	-0,006	0,124
-255,365	89,357	-0,077	-0,063
-254,351	-103,105	-0,216	0,037
-253,336	-200,000	-0,005	-0,098
-252,322	292,829	-0,079	0,105
-251,307	37,959	-0,056	0,036
-250,292	-200,000	-0,024	-0,084
-249,278	721,702	0,039	0,076
-248,263	-200,000	0,019	0,068
-247,249	-9,077	-0,047	0,023
-246,234	25,041	0,084	-0,051
-245,219	-200,000	-0,003	0,052
-244,205	194,717	-0,114	-0,126
-243,190	34,165	0,093	0,059
-242,176	175,645	0,053	0,056
-241,161	438,424	0,101	0,161
-240,146	235,937	-0,020	-0,024
-239,132	-115,054	-0,140	-0,019
-238,117	22,315	-0,096	-0,057
-237,103	754,644	-0,039	-0,077
-236,088	800,000	0,038	-0,112
-235,073	-200,000	0,014	0,134
-234,059	14,214	-0,060	0,034
-233,044	98,983	0,099	0,084
-232,030	342,419	0,073	0,105
-231,015	-200,000	0,003	-0,093
-230,000	800,000	0,032	0,069
-228,986	18,795	0,100	0,058
-227,971	800,000	0,040	-0,116
-226,957	-200,000	0,029	0,165
-225,942	161,417	0,027	-0,028
-224,927	-200,000	-0,023	0,086
-223,913	-200,000	-0,007	-0,071
-222,898	127,598	0,075	-0,070
-221,884	213,319	0,096	-0,111
-220,869	20,895	0,054	-0,032
-219,855	-200,000	0,025	-0,127
-218,840	-46,736	0,030	-0,011
-217,825	-130,890	-0,140	0,013
-216,811	759,492	-0,065	-0,130
-215,796	-27,677	-0,053	-0,022
-214,782	211,283	-0,029	0,033
-213,767	252,358	0,072	0,089
-212,752	487,868	0,044	0,073
-211,738	-65,456	-0,064	0,019
-210,723	-200,000	0,002	0,065
-209,709	56,916	-0,166	-0,118
-208,694	-200,000	0,010	-0,127
-207,679	49,629	-0,069	-0,047
-206,665	-146,995	-0,103	0,006
-205,650	50,783	-0,041	0,028
-204,636	13,170	-0,048	0,027
-203,621	166,701	0,066	0,069
-202,606	-112,916	-0,100	0,014
-201,592	800,000	-0,040	-0,125
-200,577	800,000	0,072	-0,176
-199,563	-115,313	-0,018	0,002
-198,548	214,221	0,063	-0,072
-197,533	55,896	-0,088	-0,062
-196,519	-89,589	-0,011	0,002
-195,504	-200,000	-0,012	-0,161
-194,490	-116,162	-0,027	0,004
-193,475	785,019	-0,014	0,029
-192,460	148,505	0,047	-0,047
-191,446	180,306	-0,022	-0,023
-190,431	459,711	-0,032	0,052
-189,417	43,198	-0,042	0,028
-188,402	51,811	0,097	-0,067
-187,387	-140,855	-0,041	-0,003
-186,373	-32,478	0,120	-0,049
-185,358	-32,681	-0,078	0,031
-184,344	467,841	0,044	-0,072
-183,329	-200,000	0,003	-0,034
-182,315	189,157	0,125	0,137
-181,300	123,568	-0,066	0,061
-180,285	-200,000	0,006	-0,075
-179,271	9,093	-0,105	-0,058
-178,256	-200,000	0,007	-0,092
-177,242	-122,620	0,064	-0,007
-176,227	-97,127	0,160	-0,030
-175,212	-200,000	0,010	0,174
-174,198	800,000	-0,030	0,068
-173,183	199,333	-0,011	-0,012
-172,169	-179,363	-0,060	0,001
-171,154	110,674	-0,052	-0,046
-170,139	-35,576	0,009	-0,003
-169,125	-109,134	-0,099	0,015
-168,110	-200,000	-0,018	0,089
-167,096	-16,351	0,120	-0,055
-166,081	-200,000	0,000	0,062
-165,066	479,576	0,061	-0,101
-164,052	131,817	-0,092	-0,086
-163,037	-200,000	0,019	0,130
-162,023	701,537	0,057	0,110
-161,008	-200,000	0,003	0,244
-159,993	-200,000	0,017	0,094
-158,979	12,798	-0,019	0,010
-157,964	246,683	0,047	0,058
-156,950	49,294	0,115	-0,078
-155,935	-161,096	0,092	0,003
-154,920	-35,353	0,185	-0,073
-153,906	0,790	-0,145	0,075
-152,891	116,557	0,124	0,111
-151,877	283,737	-0,063	-0,083
-150,862	-86,445	0,103	-0,023
-149,847	12,665	-0,148	-0,083
-148,833	-200,000	-0,014	-0,151
-147,818	800,000	0,011	-0,024
-146,804	759,124	0,059	0,117
-145,789	661,110	-0,008	0,016
-144,775	45,659	-0,086	-0,058
-143,760	800,000	-0,055	-0,130
-142,745	800,000	-0,074	-0,154
-141,731	-13,236	0,101	0,047
-140,716	-110,353	-0,111	0,017
-139,702	91,777	0,100	0,082
-138,687	722,498	-0,024	-0,047
-137,672	497,312	0,025	-0,042
-136,658	99,852	-0,113	-0,095
-135,643	800,000	0,030	0,075
-134,629	144,047	0,097	0,095
-133,614	136,829	-0,063	0,060
-132,599	-200,000	-0,030	0,102
-131,585	800,000	0,056	0,141
-130,570	102,133	-0,066	-0,056
-129,556	695,513	0,014	0,027
-128,541	0,794	-0,133	-0,069
-127,526	23,475	0,121	0,072
-126,512	114,070	-0,067	-0,060
-125,497	-200,000	-0,006	0,130
-124,483	-40,189	0,164	0,062
-123,468	669,157	-0,034	-0,064
-122,453	88,545	0,111	0,090
-121,439	-111,890	-0,094	-0,014
-120,424	88,574	0,090	-0,073
-119,410	-200,000	0,008	-0,138
-118,395	586,311	0,083	-0,149
