DTS Sentinel unit serial number:	SN410029Multiplexer serial number:	ORYXHardware model number:	OX2-SRSoftware version number:	ORYX F/W v4,00 Oryx Data Collector v3.7.2.0data status	okinstallation	B4 Nyhavnadifferential loss correction	single-endedforward channel	channel 2reverse channel	N/Adate	2023/12/19time	08:00:13forward acquisition time	300,00reverse acquisition time	0,00gamma	499,1914k internal	0,3126k external	0,3126temperature offset calibration	1,0000default loss term (dB/km)	0,3820temperature slope calibration	1,0000multiplexer offset coefficient	1,0000multiplexer slope coefficient	1,0000fibre end	0,00T internal ref (°C)	20,99T ext. ref 1 (°C)	5,54T ext. ref 2 (°C)	5,63length (m)	temperature (°C)	Stokes	anti-Stokes-744,400	142,323	0,061	0,060
-743,385	-48,189	-0,260	0,093
-742,371	-200,000	-0,006	0,032
-741,356	93,538	-0,163	0,138
-740,342	-99,789	0,094	-0,017
-739,327	-123,580	-0,292	0,034
-738,312	346,449	-0,021	0,031
-737,298	-136,923	-0,185	0,016
-736,283	-34,075	0,069	0,028
-735,269	88,420	-0,198	0,164
-734,254	-200,000	-0,027	0,091
-733,239	-121,063	-0,388	-0,048
-732,225	-65,436	0,069	-0,021
-731,210	-103,589	0,072	-0,013
-730,196	185,734	-0,056	0,062
-729,181	104,182	-0,025	-0,022
-728,167	-61,580	0,137	0,043
-727,152	800,000	0,003	0,008
-726,137	-124,641	-0,134	-0,015
-725,123	-46,071	-0,027	-0,010
-724,108	-42,146	-0,161	-0,061
-723,094	428,508	-0,094	-0,151
-722,079	800,000	0,018	-0,043
-721,064	121,800	-0,076	-0,070
-720,050	800,000	-0,061	-0,145
-719,035	-136,219	0,043	-0,004
-718,021	-163,126	-0,049	0,002
-717,006	148,283	-0,062	-0,063
-715,991	800,000	0,004	0,011
-714,977	-64,558	0,148	-0,044
-713,962	258,351	-0,065	-0,083
-712,948	-200,000	-0,002	0,038
-711,933	530,428	0,058	-0,103
-710,918	-51,494	-0,115	0,040
-709,904	319,229	-0,026	0,037
-708,889	-200,000	0,005	-0,095
-707,875	169,717	-0,068	0,073
-706,860	645,822	-0,059	-0,112
-705,845	-13,080	0,100	0,048
-704,831	227,421	0,117	-0,142
-703,816	800,000	-0,052	-0,114
-702,802	-7,100	-0,088	-0,044
-701,787	159,222	0,024	-0,025
-700,772	41,709	0,044	-0,030
-699,758	51,579	0,068	0,048
-698,743	-200,000	0,006	0,064
-697,729	524,601	0,049	0,087
-696,714	121,509	0,051	0,048
-695,699	-75,360	0,035	0,009
-694,685	-26,536	-0,023	0,010
-693,670	-87,947	-0,145	-0,032
-692,656	-128,161	0,033	-0,003
-691,641	363,602	0,020	0,030
-690,627	93,292	0,017	0,015
-689,612	211,669	-0,051	-0,060
-688,597	702,145	-0,019	0,037
-687,583	-124,135	-0,180	-0,021
-686,568	800,000	-0,030	-0,091
-685,554	-149,693	0,109	-0,006
-684,539	244,320	0,054	-0,068
-683,524	-200,000	0,030	-0,108
-682,510	-59,482	-0,070	-0,022
-681,495	-85,966	-0,185	-0,042
-680,481	94,276	-0,080	0,067
-679,466	37,425	-0,156	-0,103
-678,451	-186,421	-0,023	0,000
-677,437	106,269	0,080	0,071
-676,422	-82,964	-0,034	-0,008
-675,408	-200,000	0,007	-0,151
-674,393	10,162	0,065	-0,036
-673,378	-72,068	-0,109	-0,030
-672,364	-185,901	-0,223	0,002
-671,349	-200,000	-0,002	-0,084
-670,335	59,498	0,070	-0,051
-669,320	9,514	0,073	-0,041
-668,305	-120,312	-0,086	0,011
-667,291	7,432	-0,184	-0,102
-666,276	511,912	0,055	-0,095
-665,262	800,000	-0,012	0,037
-664,247	89,507	-0,072	0,060
-663,232	800,000	-0,023	0,058
-662,218	-200,000	0,004	0,074
-661,203	-49,074	0,093	-0,033
-660,189	30,664	0,062	-0,039
-659,174	-17,897	0,020	-0,009
-658,159	800,000	-0,063	-0,146
-657,145	-200,000	-0,006	0,084
-656,130	382,171	0,010	-0,015
-655,116	800,000	-0,059	0,129
-654,101	-200,000	-0,050	0,166
-653,086	402,176	0,042	0,066
-652,072	-200,000	0,009	-0,084
-651,057	-115,428	-0,087	-0,012
-650,043	147,917	-0,072	-0,072
-649,028	46,874	0,107	-0,074
-648,014	59,786	0,031	-0,022
-646,999	25,390	-0,034	0,021
-645,984	800,000	-0,017	0,046
-644,970	197,017	-0,029	-0,033
-643,955	-37,565	-0,081	-0,032
-642,941	-200,000	-0,013	-0,064
-641,926	67,194	-0,077	0,058
-640,911	800,000	0,005	0,012
-639,897	-200,000	-0,020	0,133
-638,882	800,000	-0,008	0,021
-637,868	-103,019	-0,114	0,020
-636,853	-10,314	-0,126	-0,062
-635,838	508,889	-0,052	-0,091
-634,824	26,043	0,073	-0,045
-633,809	800,000	0,043	0,089
-632,795	-200,000	0,006	0,050
-631,780	-106,709	-0,062	-0,010
-630,765	-200,000	0,018	-0,120
-629,751	613,784	0,039	-0,074
-628,736	-81,470	0,057	-0,014
-627,722	-200,000	-0,021	-0,155
-626,707	-76,376	-0,083	0,021
-625,692	244,141	-0,075	0,093
-624,678	173,337	-0,022	-0,023
-623,663	-56,431	0,066	0,022
-622,649	-118,078	-0,035	-0,005
-621,634	113,307	-0,083	0,075
-620,619	-170,050	-0,088	0,002
-619,605	-30,730	-0,121	0,051
-618,590	-13,868	-0,021	-0,010
-617,576	-200,000	-0,015	0,075
-616,561	-67,823	-0,082	-0,024
-615,546	-200,000	-0,006	-0,062
-614,532	-116,333	-0,041	0,006
-613,517	-140,996	0,132	-0,010
-612,503	612,162	-0,036	-0,066
-611,488	86,209	0,026	-0,021
-610,474	225,887	0,048	-0,057
-609,459	-128,825	-0,015	0,002
-608,444	-29,743	-0,064	0,027
-607,430	195,007	0,054	-0,060
-606,415	-12,691	-0,030	0,015
-605,401	44,487	0,159	0,108
-604,386	-200,000	-0,060	0,208
-603,371	254,041	-0,030	0,038
-602,357	-96,017	0,045	0,009
-601,342	-68,225	-0,086	-0,025
-600,328	-200,000	-0,032	-0,133
-599,313	-111,698	-0,039	0,006
-598,298	-200,000	0,002	0,069
-597,284	-46,928	-0,074	-0,027
-596,269	586,975	-0,108	0,198
-595,255	353,420	0,063	-0,094
-594,240	100,008	-0,072	0,062
-593,225	-200,000	-0,013	-0,066
-592,211	197,536	0,075	-0,085
-591,196	52,999	0,038	0,027
-590,182	-200,000	0,025	-0,111
-589,167	800,000	0,047	0,096
-588,152	800,000	0,070	0,150
-587,138	28,503	0,031	0,020
-586,123	-200,000	0,004	-0,084
-585,109	16,795	0,107	-0,063
-584,094	695,249	-0,017	-0,033
-583,079	118,751	-0,069	0,063
-582,065	62,844	0,087	0,064
-581,050	800,000	-0,059	0,135
-580,036	-160,127	-0,200	0,008
-579,021	130,146	0,091	-0,087
-578,006	96,502	-0,086	-0,073
-576,992	800,000	0,010	0,021
-575,977	225,033	0,043	0,052
-574,963	110,707	-0,137	0,122
-573,948	-200,000	0,022	0,176
-572,934	-79,099	0,103	0,026
-571,919	25,368	-0,035	0,022
-570,904	45,216	0,099	-0,067
-569,890	-79,568	0,120	-0,030
-568,875	-43,678	0,048	0,018
-567,861	-48,610	-0,179	-0,063
-566,846	-200,000	0,012	0,046
-565,831	800,000	0,074	0,198
-564,817	118,698	-0,036	-0,033
-563,802	-18,261	-0,077	-0,035
-562,788	270,775	0,031	-0,040
-561,773	556,334	0,038	-0,068
-560,758	-199,503	0,180	0,001
-559,744	-0,511	-0,087	0,045
-558,729	-200,000	0,028	-0,143
-557,715	-200,000	-0,028	-0,101
-556,700	-75,079	-0,067	-0,018
-555,685	-200,000	0,038	-0,129
-554,671	-200,000	-0,027	-0,149
-553,656	-200,000	0,000	0,138
-552,642	-23,318	0,195	-0,086
-551,627	156,912	-0,064	0,066
-550,612	259,264	-0,062	-0,079
-549,598	-200,000	-0,009	-0,113
-548,583	-200,000	-0,013	-0,065
-547,569	8,672	-0,144	-0,080
-546,554	-200,000	0,044	0,148
-545,539	265,769	0,040	-0,051
-544,525	-27,012	-0,110	-0,047
-543,510	-38,215	-0,133	-0,052
-542,496	-69,248	-0,099	-0,028
-541,481	-200,000	0,004	-0,021
-540,466	11,724	-0,035	-0,020
-539,452	-48,990	-0,174	0,061
-538,437	-27,758	0,062	0,027
-537,423	469,570	0,064	-0,106
-536,408	607,138	-0,108	-0,200
-535,393	260,921	-0,097	-0,124
-534,379	-200,000	0,042	-0,250
-533,364	-176,022	-0,033	-0,001
-532,350	-11,566	0,185	0,090
-531,335	-200,000	-0,016	0,104
-530,321	-200,000	0,029	0,128
-529,306	406,009	-0,102	0,159
-528,291	-82,218	-0,050	-0,012
-527,277	-128,048	-0,151	-0,016
-526,262	-99,123	-0,068	0,013
-525,248	-70,446	-0,149	-0,041
-524,233	-169,405	0,129	-0,003
-523,218	288,459	0,103	0,138
-522,204	-200,000	-0,015	-0,100
-521,189	800,000	0,031	-0,067
-520,175	-174,782	-0,107	0,002
-519,160	-110,476	-0,091	0,014
-518,145	201,160	0,103	0,118
-517,131	39,244	0,089	-0,059
-516,116	-63,905	0,053	0,016
-515,102	19,125	0,063	-0,037
-514,087	-98,743	0,141	-0,026
-513,072	-200,000	0,013	-0,251
-512,058	64,871	-0,103	0,077
-511,043	-69,174	0,115	0,032
-510,029	800,000	0,037	0,079
-509,014	-200,000	0,019	0,067
-507,999	55,611	-0,036	-0,025
-506,985	-200,000	0,014	-0,083
-505,970	35,888	-0,150	-0,097
-504,956	-200,000	0,010	-0,063
-503,941	369,970	-0,078	-0,117
-502,926	-120,049	0,096	-0,012
-501,912	-153,117	0,125	-0,006
-500,897	-200,000	-0,004	-0,015
-499,883	-5,158	0,062	-0,031
-498,868	99,860	-0,061	0,052
-497,853	58,678	0,072	-0,052
-496,839	65,969	0,042	-0,032
-495,824	-200,000	-0,038	-0,167
-494,810	-200,000	-0,012	0,125
-493,795	-20,811	0,043	0,019
-492,781	617,175	-0,043	0,080
-491,766	-200,000	-0,006	-0,068
-490,751	-1,600	-0,073	0,038
-489,737	-20,454	-0,022	0,010
-488,722	-200,000	0,005	0,070
-487,708	-115,415	-0,021	-0,003
-486,693	-143,275	0,057	-0,004
-485,678	-0,810	-0,066	0,035
-484,664	308,633	-0,014	0,019
-483,649	468,928	-0,083	-0,138
-482,635	-200,000	-0,008	-0,083
-481,620	-54,392	0,093	-0,031
-480,605	-83,180	0,072	-0,017
-479,591	-14,000	0,024	0,012
-478,576	52,860	0,031	-0,022
-477,562	-12,774	0,097	-0,046
-476,547	83,818	-0,116	-0,093
-475,532	157,586	-0,080	-0,082
-474,518	-200,000	-0,008	-0,120
-473,503	55,313	0,146	0,104
-472,489	-114,696	-0,089	0,012
-471,474	-116,446	-0,112	-0,015
-470,459	-93,353	-0,124	-0,025
-469,445	76,317	0,069	-0,054
-468,430	-200,000	-0,003	0,104
-467,416	111,104	-0,060	-0,053
-466,401	-148,171	-0,074	0,004
-465,386	433,694	0,018	0,029
-464,372	-96,600	-0,052	0,010
-463,357	-87,889	-0,070	0,015
-462,343	-57,723	-0,139	0,045
-461,328	-57,849	0,023	0,007
-460,313	-108,741	-0,060	0,009
-459,299	800,000	-0,014	-0,045
-458,284	613,517	0,051	0,094
-457,270	392,822	0,038	0,059
-456,255	-43,545	-0,032	0,012
-455,241	-69,739	-0,060	0,017
-454,226	350,120	0,107	0,156
-453,211	-57,326	-0,117	0,037
-452,197	171,250	0,056	0,059
-451,182	-159,506	0,120	-0,005
-450,168	-60,454	0,151	0,047
-449,153	465,195	-0,066	0,109
-448,138	-200,000	-0,009	-0,042
-447,124	-137,380	0,048	0,004
-446,109	317,450	0,099	-0,138
-445,095	-52,042	-0,095	-0,032
-444,080	-26,777	0,154	-0,066
-443,065	-140,681	-0,010	0,001
-442,051	-200,000	0,031	-0,106
-441,036	-171,165	0,097	-0,002
-440,022	124,244	-0,088	0,081
-439,007	198,632	-0,023	0,026
-437,992	81,147	-0,065	-0,052
-436,978	-200,000	0,003	0,024
-435,963	192,907	-0,067	0,075
-434,949	100,090	0,095	-0,081
-433,934	-200,000	-0,003	-0,056
-432,919	84,127	0,036	-0,029
-431,905	800,000	-0,032	-0,084
-430,890	125,874	0,053	-0,049
-429,876	-58,769	-0,033	0,010
-428,861	765,158	0,026	0,053
-427,846	234,193	0,023	0,027
-426,832	-90,351	-0,052	-0,011
-425,817	-9,178	-0,041	0,020
-424,803	-200,000	-0,032	-0,134
-423,788	-89,255	-0,038	0,008
-422,773	43,103	0,038	0,025
-421,759	192,959	0,058	0,065
-420,744	258,023	-0,086	-0,108
-419,730	800,000	-0,028	0,083
-418,715	83,513	-0,109	-0,087
-417,701	596,883	-0,017	-0,032
-416,686	55,009	-0,084	0,060
-415,671	-127,394	0,149	0,016
-414,657	97,627	0,094	0,080
-413,642	800,000	-0,016	-0,051
-412,628	-12,846	-0,083	-0,040
-411,613	79,455	0,053	-0,042
-410,598	440,014	-0,042	0,068
-409,584	-86,595	0,054	-0,012
-408,569	-19,796	-0,074	0,034
-407,555	800,000	0,013	-0,027
-406,540	565,849	-0,032	0,057
-405,525	153,170	-0,108	0,109
-404,511	800,000	0,026	-0,074
-403,496	800,000	0,062	-0,159
-402,482	-90,137	0,137	-0,029
-401,467	333,966	0,019	-0,027
-400,452	800,000	-0,043	0,106
-399,438	182,300	0,067	-0,073
-398,423	181,722	-0,013	0,014
-397,409	-178,714	-0,014	0,000
-396,394	-37,099	-0,063	0,025
-395,379	213,420	-0,028	-0,032
-394,365	-33,225	0,072	-0,029
-393,350	-76,181	0,049	0,013
-392,336	-44,730	-0,114	0,042
-391,321	-200,000	-0,018	-0,063
-390,306	65,301	-0,161	0,119
-389,292	800,000	-0,049	-0,129
-388,277	0,424	-0,063	-0,033
-387,263	800,000	0,005	-0,013
-386,248	-170,027	0,043	0,001
-385,233	89,748	-0,055	-0,045
-384,219	-64,326	0,040	0,012
-383,204	-200,000	-0,019	0,103
-382,190	-200,000	0,001	0,027
-381,175	-179,059	0,180	-0,003
-380,160	800,000	0,024	-0,069
-379,146	-200,000	-0,010	0,055
-378,131	-81,052	0,018	-0,004
-377,117	640,568	0,084	0,158
-376,102	-90,540	-0,091	0,019
-375,088	-175,073	0,022	0,000
-374,073	-133,993	0,141	-0,013
-373,058	166,566	-0,063	0,066
-372,044	32,989	-0,109	-0,069
-371,029	-172,313	0,090	0,002
-370,015	-200,000	0,037	0,202
-369,000	98,236	0,126	-0,106
-367,985	745,842	-0,053	-0,105
-366,971	-23,153	0,043	0,019
-365,956	-149,260	-0,082	-0,005
-364,942	-75,479	0,061	0,016
-363,927	-166,495	0,098	0,003
-362,912	800,000	0,040	-0,101
-361,898	800,000	0,017	-0,035
-360,883	-114,294	-0,158	-0,022
-359,869	130,766	0,108	0,102
-358,854	-52,323	0,099	-0,033
-357,839	-49,443	-0,110	-0,038
-356,825	-200,000	-0,010	0,083
-355,810	317,473	-0,038	0,053
-354,796	-200,000	0,020	0,071
-353,781	-200,000	-0,018	-0,131
-352,766	-200,000	-0,005	-0,040
-351,752	214,721	0,081	-0,095
-350,737	-73,352	0,210	0,056
-349,723	-2,484	-0,069	0,035
-348,708	-200,000	0,005	0,094
-347,693	-200,000	-0,001	0,151
-346,679	800,000	-0,012	0,029
-345,664	800,000	-0,070	0,144
-344,650	800,000	0,045	0,101
-343,635	-200,000	0,012	0,070
-342,620	668,485	0,019	0,036
-341,606	800,000	-0,017	0,043
-340,591	-200,000	0,025	-0,108
-339,577	136,711	-0,083	0,080
-338,562	143,246	0,105	-0,103
-337,548	800,000	0,015	0,030
-336,533	21,997	0,105	0,062
-335,518	-26,258	-0,084	-0,036
-334,504	-145,164	0,041	0,003
-333,489	44,708	0,070	-0,047
-332,475	-37,872	-0,168	-0,065
-331,460	151,440	-0,091	-0,091
-330,445	-200,000	0,008	0,029
-329,431	127,934	0,103	0,096
-328,416	-70,542	0,123	-0,034
-327,402	-10,146	0,138	0,067
-326,387	-200,000	0,015	0,091
-325,372	-25,864	-0,100	0,043
-324,358	-129,884	-0,095	-0,009
-323,343	800,000	-0,045	-0,120
-322,329	-33,770	-0,011	0,004
-321,314	530,675	-0,078	0,136
-320,299	800,000	-0,047	0,126
-319,285	-200,000	0,013	0,117
-318,270	-200,000	-0,002	0,073
-317,256	-122,038	-0,142	0,017
-316,241	232,931	-0,014	-0,017
-315,226	-200,000	-0,013	-0,053
-314,212	-97,523	-0,083	0,016
-313,197	192,553	0,089	0,098
-312,183	-40,157	0,144	0,055
-311,168	-200,000	0,023	-0,125
-310,153	207,073	0,064	-0,073
-309,139	88,600	0,014	-0,011
-308,124	-71,464	0,088	-0,024
-307,110	-47,332	0,098	-0,035
-306,095	800,000	0,030	-0,062
-305,080	-47,394	0,021	-0,008
-304,066	316,010	0,051	0,070
-303,051	17,843	-0,101	0,059
-302,037	-94,252	0,080	-0,016
-301,022	117,009	0,097	0,087
-300,008	1,609	0,109	0,057
-298,993	-200,000	0,036	0,143
-297,978	287,286	0,044	0,058
-296,964	-171,652	0,138	0,003
-295,949	289,782	0,031	0,041
-294,935	-139,725	-0,079	-0,006
-293,920	-91,828	-0,119	0,025
-292,905	10,429	0,063	-0,035
-291,891	800,000	-0,046	0,105
-290,876	800,000	0,024	0,071
-289,862	800,000	0,035	0,076
-288,847	134,157	-0,074	-0,070
-287,832	23,673	0,080	0,048
-286,818	800,000	-0,026	0,080
-285,803	-41,690	0,065	0,024
-284,789	-200,000	0,000	-0,086
-283,774	-200,000	0,017	0,084
-282,759	-200,000	0,043	0,141
-281,745	-115,569	-0,085	0,012
-280,730	75,333	-0,077	0,060
-279,716	-200,000	0,007	0,069
-278,701	800,000	-0,020	-0,047
-277,686	-126,171	-0,032	0,003
-276,672	-200,000	0,004	0,032
-275,657	-200,000	0,017	0,059
-274,643	800,000	-0,045	-0,095
-273,628	-200,000	0,019	0,080
-272,613	-64,507	-0,164	-0,048
-271,599	-31,265	0,063	0,026
-270,584	-3,336	0,024	0,012
-269,570	113,821	-0,043	-0,038
-268,555	66,462	-0,030	-0,022
-267,540	-200,000	-0,020	-0,087
-266,526	-7,866	0,056	0,028
-265,511	9,406	-0,026	-0,014
-264,497	-117,446	-0,008	-0,001
-263,482	-200,000	0,008	-0,031
-262,467	-200,000	0,025	-0,117
-261,453	800,000	-0,008	-0,021
-260,438	-56,837	-0,133	-0,043
-259,424	42,062	0,031	-0,020
-258,409	-109,027	0,134	-0,021
-257,395	123,233	0,043	-0,039
-256,380	-105,680	0,138	-0,023
-255,365	286,985	0,030	-0,040
-254,351	-200,000	0,001	-0,050
-253,336	-95,600	-0,214	-0,042
-252,322	664,460	-0,034	-0,064
-251,307	46,187	0,035	0,024
-250,292	-200,000	-0,011	0,038
-249,278	304,050	-0,040	-0,054
-248,263	38,144	0,076	-0,050
-247,249	-200,000	-0,030	-0,103
-246,234	-143,649	-0,211	0,014
-245,219	-125,275	-0,066	-0,007
-244,205	-200,000	-0,018	0,080
-243,190	200,685	0,074	0,084
-242,176	17,058	0,112	0,065
-241,161	18,867	0,062	0,036
-240,146	-200,000	0,005	-0,072
-239,132	-200,000	-0,011	-0,068
-238,117	79,202	0,037	-0,029
-237,103	-33,149	-0,154	-0,062
-236,088	-69,757	0,092	0,025
-235,073	437,762	-0,055	0,088
-234,059	-200,000	-0,026	0,136
-233,044	-107,946	0,155	0,024
-232,030	442,081	0,035	0,056
-231,015	119,098	-0,062	0,056
-230,000	-200,000	-0,031	-0,102
-228,986	19,475	-0,098	0,058
-227,971	-58,637	0,108	0,034
-226,957	-119,099	0,087	0,011
-225,942	228,425	0,092	-0,109
-224,927	-37,974	0,134	0,052
-223,913	257,467	0,057	0,072
-222,898	-103,577	0,020	0,003
-221,884	52,210	0,095	0,066
-220,869	-200,000	0,003	-0,013
-219,855	-95,273	0,073	0,014
-218,840	38,139	0,173	0,112
-217,825	800,000	0,033	0,089
-216,811	-19,381	-0,115	0,052
-215,796	800,000	-0,034	-0,075
-214,782	21,206	-0,173	-0,102
-213,767	423,096	0,059	0,093
-212,752	-49,914	0,064	-0,022
-211,738	800,000	0,048	-0,102
-210,723	281,551	0,022	0,029
-209,709	-200,000	-0,007	0,023
-208,694	-200,000	0,020	-0,154
-207,679	800,000	-0,075	-0,162
-206,665	-132,389	-0,057	-0,005
-205,650	-110,126	0,159	-0,024
-204,636	-16,637	-0,110	0,051
-203,621	-200,000	0,029	0,129
-202,606	-200,000	-0,014	0,076
-201,592	-176,191	-0,080	-0,001
-200,577	602,817	-0,029	0,052
-199,563	579,043	0,029	0,052
-198,548	800,000	0,016	0,041
-197,533	30,586	-0,099	0,062
-196,519	-59,963	-0,084	0,026
-195,504	497,022	-0,023	-0,039
-194,490	800,000	0,066	-0,178
-193,475	-200,000	0,004	0,059
-192,460	-133,090	0,033	0,003
-191,446	239,036	-0,088	-0,106
-190,431	800,000	0,019	0,047
-189,417	130,850	-0,028	0,026
-188,402	224,047	0,030	-0,035
-187,387	-200,000	0,000	-0,086
-186,373	-123,259	0,085	0,010
-185,358	122,404	-0,099	0,090
-184,344	211,758	0,013	-0,015
-183,329	800,000	-0,042	-0,101
-182,315	191,230	-0,063	0,069
-181,300	-114,240	0,051	0,007
-180,285	-121,634	0,050	-0,006
-179,271	-200,000	0,001	-0,061
-178,256	38,658	-0,040	-0,026
-177,242	-126,057	0,023	-0,002
-176,227	66,222	-0,043	0,032
-175,212	-200,000	-0,036	0,193
-174,198	665,486	0,064	-0,121
-173,183	-200,000	-0,010	-0,055
-172,169	-200,000	-0,002	-0,228
-171,154	800,000	-0,028	-0,068
-170,139	96,097	0,109	-0,091
-169,125	78,310	-0,126	-0,098
-168,110	-180,079	0,049	-0,001
-167,096	-200,000	-0,003	0,048
-166,081	800,000	-0,021	-0,051
-165,066	-200,000	-0,010	-0,079
-164,052	353,006	0,057	0,083
-163,037	156,468	0,132	0,133
-162,023	-200,000	0,011	0,170
-161,008	118,434	-0,065	0,058
-159,993	33,637	0,074	-0,047
-158,979	-136,019	0,064	0,005
-157,964	229,860	-0,066	-0,078
-156,950	174,952	-0,035	-0,037
-155,935	-4,292	0,015	-0,008
-154,920	-200,000	0,011	0,114
-153,906	-200,000	0,011	-0,125
-152,891	-177,780	0,163	-0,003
-151,877	748,978	-0,041	-0,080
-150,862	-19,045	-0,099	-0,044
-149,847	-12,422	0,091	-0,043
-148,833	800,000	0,028	-0,067
-147,818	170,358	0,061	0,063
-146,804	212,287	0,138	0,158
-145,789	-200,000	-0,014	0,071
-144,775	-200,000	-0,017	-0,135
-143,760	-200,000	-0,039	-0,130
-142,745	127,057	-0,080	-0,074
-141,731	-200,000	0,010	-0,080
-140,716	-200,000	-0,003	-0,023
-139,702	-185,630	-0,092	0,001
-138,687	-200,000	-0,026	-0,131
-137,672	800,000	0,008	0,026
-136,658	-106,768	-0,161	-0,026
-135,643	194,075	0,077	-0,085
-134,629	303,461	-0,052	0,071
-133,614	-200,000	-0,043	0,199
-132,599	281,440	-0,068	0,089
-131,585	800,000	-0,037	-0,118
-130,570	-5,572	-0,043	-0,021
-129,556	21,730	-0,102	-0,060
-128,541	800,000	-0,016	-0,042
-127,526	-200,000	0,022	-0,155
-126,512	6,318	0,052	0,028
-125,497	-163,697	0,093	-0,003
-124,483	-177,806	0,090	0,002
-123,468	-61,680	-0,129	0,039
-122,453	-200,000	0,012	0,039
-121,439	800,000	-0,023	-0,058
-120,424	-200,000	0,029	-0,139
