DTS Sentinel unit serial number:	SN410029Multiplexer serial number:	ORYXHardware model number:	OX2-SRSoftware version number:	ORYX F/W v4,00 Oryx Data Collector v3.7.2.0data status	okinstallation	B4 Nyhavnadifferential loss correction	single-endedforward channel	channel 2reverse channel	N/Adate	2023/12/18time	21:20:13forward acquisition time	300,00reverse acquisition time	0,00gamma	499,1914k internal	0,3124k external	0,3124temperature offset calibration	1,0000default loss term (dB/km)	0,3820temperature slope calibration	1,0000multiplexer offset coefficient	1,0000multiplexer slope coefficient	1,0000fibre end	0,00T internal ref (°C)	21,85T ext. ref 1 (°C)	7,10T ext. ref 2 (°C)	7,03length (m)	temperature (°C)	Stokes	anti-Stokes-744,400	-129,317	0,111	0,011
-743,385	-200,000	0,041	0,236
-742,371	-173,509	0,011	-0,000
-741,356	-70,682	-0,331	0,093
-740,342	167,679	0,041	-0,043
-739,327	-0,168	-0,301	0,159
-738,312	88,990	-0,041	0,034
-737,298	-93,336	-0,296	0,061
-736,283	225,097	0,137	-0,165
-735,269	46,624	-0,214	0,148
-734,254	-138,116	0,096	-0,008
-733,239	-121,948	-0,415	0,050
-732,225	703,586	-0,051	-0,100
-731,210	220,026	-0,016	0,019
-730,196	192,831	0,015	0,017
-729,181	161,961	-0,079	0,082
-728,167	-61,696	0,048	-0,015
-727,152	-137,136	-0,033	0,003
-726,137	27,771	-0,046	-0,029
-725,123	58,990	-0,123	-0,090
-724,108	800,000	-0,023	-0,057
-723,094	800,000	-0,035	-0,090
-722,079	-200,000	-0,030	-0,102
-721,064	-100,295	0,117	-0,021
-720,050	18,066	-0,078	-0,046
-719,035	239,862	0,074	0,092
-718,021	788,013	0,016	-0,033
-717,006	-125,572	-0,144	-0,016
-715,991	-200,000	-0,000	-0,049
-714,977	93,370	-0,144	-0,121
-713,962	210,474	0,062	-0,073
-712,948	173,711	0,101	-0,109
-711,933	218,332	0,065	-0,077
-710,918	-17,240	-0,094	-0,044
-709,904	349,631	-0,017	-0,025
-708,889	-200,000	-0,009	-0,034
-707,875	-200,000	0,012	-0,084
-706,860	732,669	0,049	-0,098
-705,845	800,000	0,036	-0,111
-704,831	721,957	0,021	0,043
-703,816	190,637	0,008	0,009
-702,802	237,271	0,084	-0,104
-701,787	-200,000	0,024	-0,189
-700,772	705,900	-0,044	0,087
-699,758	-200,000	0,001	0,139
-698,743	87,284	0,082	0,067
-697,729	129,587	-0,059	0,056
-696,714	-200,000	0,006	-0,040
-695,699	-71,113	-0,093	0,026
-694,685	-65,058	-0,017	-0,005
-693,670	-34,136	-0,071	0,029
-692,656	36,181	0,102	0,067
-691,641	339,089	0,047	0,068
-690,627	-200,000	-0,015	-0,077
-689,612	-12,047	0,113	0,055
-688,597	-136,807	-0,069	-0,006
-687,583	-138,206	0,045	0,004
-686,568	783,643	-0,078	-0,160
-685,554	33,565	0,133	-0,086
-684,539	-200,000	-0,013	0,091
-683,524	-171,285	0,048	0,001
-682,510	800,000	0,013	0,033
-681,495	-64,073	0,012	0,004
-680,481	-82,312	0,065	0,016
-679,466	64,393	-0,062	-0,046
-678,451	106,438	-0,148	-0,130
-677,437	-200,000	-0,027	-0,091
-676,422	-110,594	0,083	0,013
-675,408	37,248	-0,050	-0,033
-674,393	800,000	-0,030	0,072
-673,378	-200,000	-0,007	-0,050
-672,364	-95,014	0,087	0,017
-671,349	626,425	-0,060	0,114
-670,335	800,000	0,028	-0,060
-669,320	800,000	0,004	-0,012
-668,305	378,719	0,040	-0,061
-667,291	-30,125	0,019	0,008
-666,276	65,995	0,040	-0,030
-665,262	137,452	-0,050	0,048
-664,247	-200,000	-0,004	-0,105
-663,232	79,218	-0,055	0,044
-662,218	136,181	0,067	0,065
-661,203	65,904	0,077	0,058
-660,189	163,237	-0,112	-0,117
-659,174	44,969	-0,111	0,075
-658,159	-167,949	0,089	-0,003
-657,145	-8,183	0,029	0,015
-656,130	412,377	0,042	-0,067
-655,116	138,778	0,161	0,157
-654,101	60,422	-0,080	0,059
-653,086	-200,000	-0,009	0,135
-652,072	592,158	0,061	0,112
-651,057	800,000	-0,014	0,041
-650,043	136,889	0,070	0,068
-649,028	-75,119	0,059	0,016
-648,014	-200,000	-0,018	-0,080
-646,999	-87,191	0,081	-0,018
-645,984	-200,000	0,002	-0,018
-644,970	-75,317	0,090	0,024
-643,955	800,000	-0,024	0,052
-642,941	152,785	-0,055	-0,056
-641,926	-69,718	0,125	-0,035
-640,911	-64,006	-0,184	0,055
-639,897	682,097	0,055	0,108
-638,882	-200,000	-0,027	0,220
-637,868	232,493	-0,066	0,080
-636,853	-200,000	-0,026	0,096
-635,838	800,000	-0,045	0,100
-634,824	494,616	-0,045	-0,077
-633,809	-109,461	0,172	-0,027
-632,795	-31,040	0,248	0,104
-631,780	800,000	-0,026	0,079
-630,765	800,000	0,020	-0,057
-629,751	-59,108	-0,026	0,008
-628,736	-200,000	0,013	0,112
-627,722	23,146	0,056	-0,034
-626,707	600,401	-0,024	0,045
-625,692	233,770	-0,038	-0,047
-624,678	30,492	0,065	-0,041
-623,663	-72,798	0,034	-0,009
-622,649	-11,469	0,028	-0,014
-621,634	-23,828	-0,132	-0,058
-620,619	219,594	0,083	-0,099
-619,605	-200,000	-0,001	0,010
-618,590	800,000	0,016	-0,045
-617,576	-200,000	0,013	0,094
-616,561	164,301	0,065	-0,068
-615,546	-128,464	0,089	-0,009
-614,532	295,862	-0,090	-0,123
-613,517	-14,554	0,149	0,071
-612,503	-112,725	-0,029	0,004
-611,488	-150,189	0,049	0,003
-610,474	160,637	0,017	-0,018
-609,459	-200,000	0,009	0,044
-608,444	-200,000	-0,005	0,113
-607,430	326,510	-0,064	0,092
-606,415	4,468	-0,071	-0,038
-605,401	-30,758	0,094	0,039
-604,386	305,881	-0,055	0,076
-603,371	-52,835	0,152	-0,052
-602,357	61,010	-0,059	-0,043
-601,342	-159,680	-0,103	0,004
-600,328	-200,000	0,025	-0,088
-599,313	-7,896	-0,127	-0,063
-598,298	-93,761	0,104	0,021
-597,284	-113,664	-0,144	0,021
-596,269	436,662	-0,038	0,061
-595,255	486,399	0,043	-0,072
-594,240	-200,000	0,062	0,000
-593,225	146,728	-0,018	-0,018
-592,211	-200,000	-0,038	-0,140
-591,196	800,000	-0,039	0,088
-590,182	-200,000	-0,006	0,043
-589,167	-200,000	-0,015	0,107
-588,152	194,779	-0,049	-0,055
-587,138	-63,655	0,058	-0,018
-586,123	-200,000	-0,017	-0,059
-585,109	-20,885	-0,142	-0,064
-584,094	-89,459	-0,056	-0,012
-583,079	-29,508	0,171	0,072
-582,065	738,099	-0,002	0,003
-581,050	-200,000	-0,010	0,047
-580,036	-9,780	-0,134	0,066
-579,021	-137,140	-0,060	0,005
-578,006	-200,000	0,007	-0,076
-576,992	-111,514	-0,095	0,014
-575,977	-87,731	0,053	-0,012
-574,963	-75,848	0,062	-0,016
-573,948	-113,896	-0,159	-0,023
-572,934	39,158	-0,096	0,064
-571,919	800,000	-0,032	0,080
-570,904	-105,459	-0,080	-0,013
-569,890	263,423	0,042	0,054
-568,875	330,668	-0,048	0,069
-567,861	57,424	0,047	0,034
-566,846	-50,943	0,148	0,051
-565,831	-200,000	-0,004	0,015
-564,817	-200,000	-0,020	-0,162
-563,802	-200,000	0,049	-0,178
-562,788	118,440	0,151	-0,138
-561,773	75,977	0,091	0,071
-560,758	-52,116	0,095	0,033
-559,744	94,713	-0,061	0,051
-558,729	733,719	0,104	-0,206
-557,715	800,000	-0,060	-0,193
-556,700	46,125	-0,085	0,058
-555,685	197,657	-0,084	-0,096
-554,671	800,000	-0,014	0,037
-553,656	5,486	-0,047	-0,026
-552,642	-200,000	0,063	0,214
-551,627	-200,000	0,007	-0,221
-550,612	-7,546	-0,114	-0,057
-549,598	134,813	0,043	0,041
-548,583	-31,298	-0,050	-0,021
-547,569	-200,000	-0,006	0,135
-546,554	681,977	0,081	-0,157
-545,539	-178,074	0,112	0,002
-544,525	800,000	-0,103	-0,214
-543,510	-78,908	-0,022	0,005
-542,496	-10,091	-0,092	-0,045
-541,481	439,211	0,031	-0,050
-540,466	800,000	-0,028	-0,077
-539,452	25,841	-0,018	-0,011
-538,437	-138,156	-0,191	0,015
-537,423	97,386	0,092	0,078
-536,408	800,000	0,095	0,201
-535,393	800,000	-0,018	0,043
-534,379	-200,000	0,039	-0,181
-533,364	-169,051	-0,031	0,001
-532,350	-200,000	0,008	-0,178
-531,335	222,688	-0,045	-0,053
-530,321	53,540	0,028	-0,020
-529,306	800,000	-0,024	-0,058
-528,291	-22,457	-0,161	-0,072
-527,277	-166,025	-0,202	0,006
-526,262	214,500	0,014	0,016
-525,248	-200,000	0,005	0,040
-524,233	-184,263	-0,033	-0,000
-523,218	-106,614	-0,194	0,032
-522,204	59,720	-0,138	0,101
-521,189	-84,066	-0,019	0,004
-520,175	-44,089	-0,195	-0,072
-519,160	-148,701	-0,071	0,004
-518,145	291,246	0,049	0,066
-517,131	-37,643	0,069	0,027
-516,116	236,455	-0,073	-0,089
-515,102	219,967	-0,096	-0,114
-514,087	183,047	-0,141	-0,153
-513,072	-200,000	-0,031	-0,102
-512,058	117,008	-0,087	-0,079
-511,043	-166,873	-0,059	-0,002
-510,029	793,010	-0,039	0,079
-509,014	-14,212	0,061	0,029
-507,999	-95,592	0,182	0,036
-506,985	-200,000	-0,009	-0,073
-505,970	-64,554	-0,110	0,033
-504,956	-64,501	0,126	-0,038
-503,941	800,000	-0,045	0,115
-502,926	35,544	-0,032	0,020
-501,912	44,285	0,170	0,115
-500,897	-183,508	-0,175	-0,002
-499,883	-121,353	0,067	-0,008
-498,868	49,700	-0,061	0,042
-497,853	173,250	-0,018	0,020
-496,839	-200,000	-0,008	0,054
-495,824	-200,000	0,004	0,119
-494,810	87,593	0,033	-0,027
-493,795	243,410	0,055	0,069
-492,781	5,615	0,140	-0,076
-491,766	-200,000	-0,006	-0,162
-490,751	265,112	0,011	-0,014
-489,737	504,268	0,039	0,067
-488,722	121,267	0,033	0,030
-487,708	800,000	0,054	0,127
-486,693	-200,000	0,019	0,083
-485,678	135,509	0,022	-0,021
-484,664	-200,000	-0,013	-0,060
-483,649	-200,000	-0,014	0,080
-482,635	-200,000	-0,006	0,029
-481,620	241,060	-0,039	0,048
-480,605	-155,011	0,053	-0,003
-479,591	800,000	-0,068	0,169
-478,576	-0,129	0,065	-0,034
-477,562	-109,354	-0,122	0,019
-476,547	-69,251	-0,032	-0,009
-475,532	-200,000	-0,005	-0,075
-474,518	800,000	0,053	0,116
-473,503	800,000	0,023	0,050
-472,489	460,273	-0,070	0,115
-471,474	-93,713	-0,121	-0,024
-470,459	-101,174	-0,019	-0,003
-469,445	300,330	-0,022	-0,029
-468,430	641,165	0,054	0,102
-467,416	-84,400	-0,041	-0,010
-466,401	-98,493	0,138	0,026
-465,386	610,184	-0,029	-0,053
-464,372	218,497	0,051	-0,060
-463,357	124,116	0,062	0,057
-462,343	-6,881	-0,117	0,058
-461,328	92,610	-0,048	-0,040
-460,313	-200,000	-0,012	-0,048
-459,299	-150,580	0,024	0,001
-458,284	-105,966	0,157	-0,026
-457,270	-111,572	0,038	0,006
-456,255	-200,000	0,003	0,065
-455,241	77,846	0,108	-0,085
-454,226	14,923	-0,055	0,032
-453,211	334,003	0,108	-0,155
-452,197	-200,000	0,012	0,081
-451,182	-200,000	0,002	0,062
-450,168	218,815	-0,062	0,073
-449,153	372,754	-0,034	0,050
-448,138	-200,000	0,003	-0,019
-447,124	471,901	0,038	0,064
-446,109	-200,000	0,012	0,041
-445,095	800,000	-0,018	0,040
-444,080	800,000	0,034	0,079
-443,065	800,000	0,029	0,061
-442,051	800,000	-0,037	-0,102
-441,036	800,000	0,018	-0,055
-440,022	88,172	-0,069	-0,056
-439,007	-200,000	0,016	-0,126
-437,992	605,421	-0,027	-0,050
-436,978	-200,000	-0,018	0,089
-435,963	-200,000	0,000	-0,039
-434,949	31,725	-0,089	0,056
-433,934	-200,000	0,006	-0,090
-432,919	-200,000	0,003	-0,017
-431,905	800,000	-0,035	-0,107
-430,890	392,577	0,089	0,136
-429,876	-50,598	0,105	0,036
-428,861	-73,506	-0,056	0,015
-427,846	800,000	-0,006	0,013
-426,832	800,000	-0,048	-0,142
-425,817	189,740	-0,083	-0,091
-424,803	-91,866	0,084	-0,017
-423,788	-113,358	0,088	0,013
-422,773	800,000	-0,036	0,108
-421,759	5,100	0,082	0,044
-420,744	-135,336	-0,081	0,007
-419,730	-69,449	-0,087	0,024
-418,715	-93,406	-0,069	-0,014
-417,701	800,000	-0,045	-0,140
-416,686	-77,585	-0,037	-0,009
-415,671	-200,000	-0,009	0,103
-414,657	800,000	-0,036	-0,076
-413,642	-83,163	0,043	0,010
-412,628	151,613	-0,014	-0,014
-411,613	800,000	-0,025	0,063
-410,598	-17,795	-0,030	0,014
-409,584	-55,441	0,040	-0,013
-408,569	-51,413	0,076	-0,026
-407,555	-200,000	0,023	0,096
-406,540	-200,000	-0,018	0,114
-405,525	27,593	0,022	0,013
-404,511	17,689	0,089	-0,052
-403,496	286,018	0,037	-0,049
-402,482	163,850	-0,076	-0,079
-401,467	309,632	0,067	0,093
-400,452	-98,893	0,088	0,016
-399,438	59,733	-0,144	-0,105
-398,423	78,949	-0,041	-0,032
-397,409	-200,000	-0,008	0,042
-396,394	-200,000	0,011	-0,162
-395,379	-106,224	-0,135	-0,022
-394,365	362,012	0,058	0,086
-393,350	10,368	0,068	-0,038
-392,336	-80,999	-0,063	0,015
-391,321	146,017	-0,092	0,091
-390,306	-43,311	0,005	0,002
-389,292	-30,249	-0,053	0,022
-388,277	291,890	0,040	-0,053
-387,263	11,314	-0,087	0,049
-386,248	-200,000	0,010	0,175
-385,233	162,559	-0,023	-0,024
-384,219	-200,000	-0,027	0,108
-383,204	-200,000	0,003	-0,021
-382,190	142,085	-0,050	-0,049
-381,175	-200,000	-0,010	0,120
-380,160	800,000	-0,007	0,020
-379,146	800,000	0,034	-0,084
-378,131	-14,812	0,125	0,059
-377,117	-86,089	0,135	0,030
-376,102	85,366	-0,153	0,124
-375,088	-38,090	-0,094	0,036
-374,073	-93,934	0,049	-0,010
-373,058	467,454	-0,025	0,042
-372,044	207,818	0,107	0,122
-371,029	112,790	-0,090	0,080
-370,015	-68,577	0,016	-0,005
-369,000	669,969	0,080	-0,153
-367,985	303,384	-0,075	-0,102
-366,971	-3,409	-0,091	-0,046
-365,956	105,161	0,107	-0,093
-364,942	-21,143	0,109	0,049
-363,927	-47,275	0,122	0,043
-362,912	-200,000	0,006	0,059
-361,898	-200,000	-0,004	-0,038
-360,883	-200,000	0,012	-0,056
-359,869	230,383	0,028	0,033
-358,854	-70,491	0,091	0,025
-357,839	-35,178	0,202	-0,080
-356,825	189,896	-0,034	-0,038
-355,810	23,990	0,096	-0,058
-354,796	-120,895	-0,043	-0,005
-353,781	145,090	-0,132	-0,130
-352,766	138,829	0,062	-0,060
-351,752	-160,672	-0,218	0,008
-350,737	-155,621	0,045	-0,002
-349,723	-11,292	-0,076	-0,037
-348,708	-173,102	0,117	0,003
-347,693	164,979	0,061	-0,063
-346,679	-43,977	-0,041	0,015
-345,664	-41,395	-0,080	-0,030
-344,650	2,751	-0,107	0,057
-343,635	-200,000	0,037	0,122
-342,620	24,266	0,173	-0,105
-341,606	151,789	-0,074	-0,074
-340,591	643,869	0,064	-0,121
-339,577	-46,842	0,051	-0,018
-338,562	-94,468	0,080	-0,016
-337,548	-200,000	-0,010	0,051
-336,533	104,777	0,100	0,086
-335,518	-73,949	0,174	-0,046
-334,504	150,623	-0,094	0,094
-333,489	-200,000	0,002	0,019
-332,475	710,775	-0,012	-0,024
-331,460	356,947	-0,095	-0,139
-330,445	-143,164	0,070	0,005
-329,431	-131,326	0,101	0,010
-328,416	13,266	0,092	-0,052
-327,402	-102,865	0,054	-0,009
-326,387	147,203	-0,036	-0,036
-325,372	16,809	-0,075	-0,043
-324,358	421,062	-0,036	0,057
-323,343	-200,000	0,016	-0,067
-322,329	800,000	0,022	-0,059
-321,314	56,091	-0,037	-0,026
-320,299	-200,000	-0,007	0,196
-319,285	277,902	0,038	0,050
-318,270	16,025	0,083	0,048
-317,256	-200,000	-0,042	-0,179
-316,241	319,275	-0,019	0,027
-315,226	122,142	0,068	-0,062
-314,212	614,963	0,023	-0,042
-313,197	346,784	-0,059	0,085
-312,183	43,330	0,082	0,055
-311,168	-200,000	0,012	-0,046
-310,153	273,812	-0,068	-0,088
-309,139	119,241	-0,041	0,038
-308,124	-59,674	0,122	0,038
-307,110	-147,447	-0,021	-0,001
-306,095	335,174	0,062	0,089
-305,080	570,232	-0,027	-0,049
-304,066	-124,212	0,038	-0,004
-303,051	-111,887	-0,044	-0,006
-302,037	328,276	-0,026	0,036
-301,022	-200,000	-0,029	-0,105
-300,008	532,186	0,019	-0,033
-298,993	800,000	0,026	0,072
-297,978	-174,839	0,049	-0,001
-296,964	24,891	0,094	0,057
-295,949	-73,058	-0,108	-0,029
-294,935	103,808	-0,094	0,081
-293,920	390,615	0,024	-0,037
-292,905	-200,000	0,001	-0,089
-291,891	672,365	-0,045	0,086
-290,876	-200,000	-0,014	-0,052
-289,862	-200,000	0,012	-0,058
-288,847	-184,896	0,130	-0,001
-287,832	-134,879	-0,111	-0,010
-286,818	6,928	0,036	0,019
-285,803	-147,658	0,102	-0,006
-284,789	86,010	-0,120	-0,097
-283,774	800,000	-0,039	-0,086
-282,759	18,745	0,118	0,069
-281,745	-87,666	-0,108	-0,024
-280,730	-29,679	-0,110	-0,046
-279,716	187,120	0,030	-0,033
-278,701	64,875	0,062	0,045
-277,686	187,905	0,026	0,028
-276,672	395,720	0,042	0,064
-275,657	218,141	0,045	-0,053
-274,643	212,334	-0,020	0,023
-273,628	126,085	-0,061	0,057
-272,613	800,000	-0,039	-0,117
-271,599	448,522	-0,024	-0,039
-270,584	29,403	-0,087	0,054
-269,570	152,176	-0,025	-0,025
-268,555	299,325	0,021	0,029
-267,540	12,492	-0,153	0,086
-266,526	389,841	-0,037	-0,057
-265,511	-200,000	-0,010	-0,069
-264,497	252,349	0,107	0,133
-263,482	800,000	0,014	-0,042
-262,467	133,518	0,065	0,061
-261,453	122,733	-0,096	0,088
-260,438	-200,000	0,014	-0,092
-259,424	165,878	0,022	0,023
-258,409	-200,000	-0,009	0,042
-257,395	347,137	0,056	0,080
-256,380	295,762	0,086	-0,116
-255,365	178,352	-0,029	0,031
-254,351	-200,000	0,007	-0,039
-253,336	-200,000	0,022	-0,176
-252,322	-12,193	-0,139	0,066
-251,307	-200,000	0,014	-0,056
-250,292	-106,459	-0,048	-0,008
-249,278	271,467	0,138	0,178
-248,263	-29,265	0,093	0,039
-247,249	-200,000	0,013	0,222
-246,234	102,337	-0,063	-0,054
-245,219	25,019	0,049	-0,030
-244,205	128,234	-0,077	0,072
-243,190	450,292	0,064	-0,104
-242,176	76,641	-0,043	-0,033
-241,161	425,995	0,035	0,055
-240,146	193,018	0,039	0,044
-239,132	-68,213	-0,059	-0,017
-238,117	-61,658	-0,174	-0,053
-237,103	159,513	-0,091	-0,092
-236,088	192,078	-0,005	-0,005
-235,073	364,481	0,040	0,059
-234,059	23,061	0,035	0,021
-233,044	-200,000	0,003	0,080
-232,030	378,583	-0,043	-0,065
-231,015	-110,308	-0,098	-0,015
-230,000	473,634	-0,030	-0,049
-228,986	-69,078	-0,087	0,024
-227,971	75,997	0,061	-0,047
-226,957	77,935	0,114	0,088
-225,942	-200,000	-0,029	0,102
-224,927	-94,311	0,056	-0,011
-223,913	378,811	0,106	0,159
-222,898	376,307	-0,079	0,119
-221,884	75,477	0,079	0,061
-220,869	261,498	0,064	0,081
-219,855	580,422	0,061	0,110
-218,840	-200,000	0,002	0,058
-217,825	22,605	-0,124	0,074
-216,811	-100,803	-0,103	-0,018
-215,796	425,209	-0,032	-0,050
-214,782	800,000	-0,029	-0,089
-213,767	148,820	0,044	-0,043
-212,752	-121,015	-0,006	0,001
-211,738	32,900	0,055	0,035
-210,723	47,072	-0,034	-0,023
-209,709	-200,000	0,007	0,036
-208,694	31,686	-0,091	0,057
-207,679	-200,000	-0,013	-0,065
-206,665	489,619	-0,120	0,202
-205,650	-200,000	0,008	-0,035
-204,636	800,000	-0,047	-0,112
-203,621	-19,418	-0,047	0,021
-202,606	800,000	0,042	-0,100
-201,592	-113,630	-0,123	0,017
-200,577	509,682	0,072	-0,123
-199,563	92,004	0,032	-0,026
-198,548	-20,502	-0,044	-0,019
-197,533	800,000	-0,029	0,078
-196,519	-200,000	-0,000	-0,023
-195,504	-200,000	-0,006	-0,022
-194,490	54,456	-0,080	-0,056
-193,475	-200,000	0,027	-0,163
-192,460	63,059	-0,075	-0,055
-191,446	-168,664	0,058	-0,002
-190,431	579,286	-0,077	0,137
-189,417	-92,621	0,105	0,021
-188,402	57,809	-0,103	0,074
-187,387	-95,296	0,022	0,004
-186,373	556,893	0,047	-0,082
-185,358	-200,000	-0,003	-0,201
-184,344	48,014	0,196	0,134
-183,329	-200,000	-0,017	0,120
-182,315	-130,216	0,130	-0,013
-181,300	800,000	0,026	0,073
-180,285	-200,000	-0,015	0,054
-179,271	-46,756	0,139	-0,049
-178,256	166,032	0,032	-0,033
-177,242	800,000	0,031	-0,070
-176,227	800,000	-0,009	-0,024
-175,212	40,313	0,117	0,077
-174,198	670,059	-0,080	-0,152
-173,183	-200,000	-0,023	-0,134
-172,169	297,994	0,071	-0,095
-171,154	-200,000	-0,000	-0,007
-170,139	-200,000	-0,034	-0,133
-169,125	276,360	0,068	0,088
-168,110	321,128	0,077	0,107
-167,096	70,549	0,071	0,054
-166,081	-164,922	0,169	0,005
-165,066	173,636	-0,077	-0,081
-164,052	-200,000	0,006	-0,141
-163,037	-64,706	0,092	0,027
-162,023	-98,798	0,077	0,014
-161,008	-200,000	-0,021	0,163
-159,993	-23,198	0,061	-0,027
-158,979	800,000	-0,028	-0,063
-157,964	800,000	0,037	-0,107
-156,950	-62,998	-0,072	-0,021
-155,935	64,538	-0,040	-0,029
-154,920	-43,423	0,161	0,059
-153,906	-200,000	-0,026	0,149
-152,891	800,000	-0,025	0,064
-151,877	30,776	-0,163	-0,101
-150,862	-200,000	0,009	-0,034
-149,847	513,212	-0,050	-0,084
-148,833	-200,000	0,026	0,140
-147,818	-200,000	-0,005	0,080
-146,804	224,401	0,035	0,041
-145,789	-129,927	0,137	0,013
-144,775	800,000	0,042	0,101
-143,760	93,375	-0,119	-0,098
-142,745	-152,777	-0,018	-0,001
-141,731	205,666	0,040	0,045
-140,716	35,904	0,101	0,064
-139,702	8,481	0,101	-0,055
-138,687	56,128	0,028	0,020
-137,672	-200,000	-0,023	0,131
-136,658	800,000	-0,034	0,076
-135,643	-60,809	-0,139	0,043
-134,629	-43,171	-0,117	-0,043
-133,614	-27,361	0,065	0,028
-132,599	-139,721	0,117	-0,009
-131,585	280,682	0,085	0,111
-130,570	83,009	-0,088	-0,069
-129,556	113,053	0,137	-0,121
-128,541	-27,243	-0,089	0,038
-127,526	545,828	-0,031	-0,053
-126,512	800,000	-0,080	0,173
-125,497	17,016	0,181	0,104
-124,483	90,957	-0,093	0,076
-123,468	-200,000	-0,020	0,106
-122,453	-59,627	-0,080	0,025
-121,439	-53,025	-0,084	-0,028
-120,424	800,000	-0,063	0,169
-119,410	-10,959	0,137	0,066
-118,395	-29,424	0,041	-0,017
