DTS Sentinel unit serial number:	SN410029Multiplexer serial number:	ORYXHardware model number:	OX2-SRSoftware version number:	ORYX F/W v4,00 Oryx Data Collector v3.7.2.0data status	okinstallation	B4 Nyhavnadifferential loss correction	single-endedforward channel	channel 2reverse channel	N/Adate	2023/12/16time	12:05:13forward acquisition time	300,00reverse acquisition time	0,00gamma	499,1914k internal	0,3126k external	0,3126temperature offset calibration	1,0000default loss term (dB/km)	0,3820temperature slope calibration	1,0000multiplexer offset coefficient	1,0000multiplexer slope coefficient	1,0000fibre end	0,00T internal ref (°C)	23,95T ext. ref 1 (°C)	9,77T ext. ref 2 (°C)	9,92length (m)	temperature (°C)	Stokes	anti-Stokes-744,400	-200,000	0,014	-0,147
-743,385	152,873	-0,207	0,211
-742,371	-109,512	0,047	-0,007
-741,356	183,886	-0,171	0,189
-740,342	-75,129	-0,072	-0,019
-739,327	-32,648	-0,245	0,101
-738,312	800,000	0,032	-0,075
-737,298	184,284	-0,214	0,236
-736,283	-200,000	0,011	-0,064
-735,269	416,688	0,040	0,064
-734,254	77,494	0,056	-0,044
-733,239	-127,204	-0,374	-0,040
-732,225	-200,000	-0,007	-0,033
-731,210	-111,074	0,118	-0,018
-730,196	268,456	0,056	-0,073
-729,181	800,000	-0,069	-0,197
-728,167	244,669	-0,014	0,017
-727,152	-200,000	-0,006	-0,113
-726,137	-8,117	-0,026	0,013
-725,123	118,043	0,050	-0,046
-724,108	-200,000	0,006	0,054
-723,094	459,966	-0,045	-0,076
-722,079	-80,816	-0,071	-0,018
-721,064	-51,215	0,062	0,021
-720,050	58,901	-0,095	-0,070
-719,035	-155,714	-0,142	0,007
-718,021	-0,024	-0,120	0,063
-717,006	-200,000	-0,011	-0,068
-715,991	279,528	-0,092	-0,122
-714,977	-20,973	0,035	-0,016
-713,962	-200,000	0,009	-0,053
-712,948	-58,710	-0,051	-0,016
-711,933	551,392	0,061	-0,109
-710,918	-200,000	-0,020	-0,080
-709,904	362,332	-0,091	-0,136
-708,889	165,737	-0,064	-0,067
-707,875	-200,000	-0,016	-0,117
-706,860	-92,192	-0,139	0,029
-705,845	-72,188	0,029	0,008
-704,831	-200,000	-0,000	0,065
-703,816	-42,877	-0,040	0,015
-702,802	181,405	0,037	0,041
-701,787	-200,000	-0,014	-0,284
-700,772	781,009	-0,044	-0,090
-699,758	-115,657	0,043	-0,006
-698,743	-55,987	-0,112	0,037
-697,729	320,561	-0,035	0,050
-696,714	-70,058	0,040	-0,011
-695,699	-200,000	-0,013	-0,050
-694,685	181,833	-0,091	-0,099
-693,670	-200,000	0,006	-0,084
-692,656	-200,000	0,009	0,035
-691,641	-200,000	-0,035	-0,137
-690,627	800,000	0,033	-0,096
-689,612	10,634	-0,113	-0,064
-688,597	228,803	-0,035	-0,042
-687,583	800,000	-0,076	-0,163
-686,568	-200,000	0,047	-0,193
-685,554	222,214	0,058	-0,070
-684,539	800,000	0,031	-0,093
-683,524	-52,153	0,126	0,043
-682,510	151,185	-0,086	-0,087
-681,495	220,721	-0,079	-0,094
-680,481	-200,000	0,031	-0,174
-679,466	2,612	-0,042	-0,023
-678,451	90,309	-0,019	-0,016
-677,437	-200,000	0,005	-0,069
-676,422	667,519	0,029	0,057
-675,408	236,728	-0,019	-0,023
-674,393	-200,000	-0,006	-0,047
-673,378	800,000	-0,031	0,072
-672,364	-200,000	0,010	-0,170
-671,349	-125,443	0,015	-0,002
-670,335	-50,997	-0,128	0,044
-669,320	85,642	0,065	0,053
-668,305	-29,516	-0,023	0,010
-667,291	-200,000	-0,014	-0,088
-666,276	-167,352	-0,053	0,002
-665,262	-200,000	-0,008	0,084
-664,247	26,643	0,020	-0,013
-663,232	116,123	0,042	-0,038
-662,218	-30,750	0,043	-0,018
-661,203	199,070	0,036	-0,041
-660,189	-200,000	0,001	0,056
-659,174	-40,637	-0,084	-0,032
-658,159	382,467	0,078	-0,119
-657,145	-31,822	-0,068	-0,028
-656,130	109,041	-0,040	-0,036
-655,116	131,522	0,068	0,065
-654,101	82,102	0,109	0,087
-653,086	-200,000	-0,013	0,128
-652,072	-156,252	0,072	0,003
-651,057	800,000	-0,043	-0,096
-650,043	-44,667	0,044	-0,016
-649,028	4,236	0,091	0,049
-648,014	-200,000	-0,029	0,100
-646,999	729,172	0,047	0,094
-645,984	9,126	-0,074	-0,041
-644,970	-121,322	0,081	0,010
-643,955	-200,000	0,002	0,019
-642,941	71,638	-0,051	-0,039
-641,926	800,000	-0,025	-0,060
-640,911	781,805	-0,030	0,062
-639,897	-85,197	0,081	0,019
-638,882	-87,162	-0,071	0,016
-637,868	800,000	-0,068	0,172
-636,853	-200,000	-0,008	0,055
-635,838	-62,189	-0,063	-0,019
-634,824	147,833	-0,023	0,023
-633,809	800,000	-0,012	0,031
-632,795	87,189	0,060	-0,049
-631,780	-15,319	0,092	-0,043
-630,765	-76,663	-0,175	-0,045
-629,751	778,172	-0,030	-0,061
-628,736	275,927	-0,058	-0,076
-627,722	105,371	0,045	0,039
-626,707	-59,243	0,067	-0,021
-625,692	-158,632	0,115	-0,005
-624,678	800,000	0,058	0,165
-623,663	17,022	0,134	0,078
-622,649	-76,493	-0,061	-0,016
-621,634	-12,426	-0,056	0,027
-620,619	-22,358	0,082	-0,037
-619,605	-90,111	-0,111	0,024
-618,590	-200,000	0,025	-0,124
-617,576	-200,000	-0,002	-0,076
-616,561	47,092	0,054	-0,037
-615,546	436,825	-0,059	-0,095
-614,532	-200,000	0,017	-0,067
-613,517	-39,158	-0,204	-0,079
-612,503	62,559	0,107	-0,079
-611,488	166,766	0,035	0,036
-610,474	-200,000	0,022	0,074
-609,459	727,982	0,043	-0,086
-608,444	-134,220	0,042	0,004
-607,430	198,810	0,063	-0,072
-606,415	20,686	0,026	0,016
-605,401	-59,065	-0,103	-0,033
-604,386	181,156	0,042	-0,046
-603,371	-60,566	0,163	0,051
-602,357	800,000	0,032	0,072
-601,342	-200,000	-0,050	-0,206
-600,328	-200,000	-0,011	-0,118
-599,313	15,260	-0,187	-0,108
-598,298	-200,000	-0,002	0,103
-597,284	70,760	0,149	0,114
-596,269	-200,000	0,027	-0,195
-595,255	-200,000	-0,007	-0,023
-594,240	7,633	0,027	0,015
-593,225	-81,038	0,123	0,030
-592,211	721,563	-0,039	0,078
-591,196	800,000	0,054	0,149
-590,182	-200,000	0,007	-0,075
-589,167	-12,172	0,153	-0,074
-588,152	800,000	0,030	0,083
-587,138	113,004	0,055	0,049
-586,123	-200,000	0,019	0,170
-585,109	-65,528	0,076	0,022
-584,094	800,000	0,008	0,021
-583,079	-112,538	-0,040	0,006
-582,065	-134,308	0,097	-0,009
-581,050	60,235	-0,098	-0,072
-580,036	-200,000	-0,028	-0,154
-579,021	46,454	0,098	-0,067
-578,006	-200,000	0,006	-0,042
-576,992	-200,000	-0,004	-0,113
-575,977	176,088	-0,059	-0,064
-574,963	95,842	0,088	0,074
-573,948	49,829	-0,060	-0,041
-572,934	-58,730	-0,033	0,011
-571,919	-200,000	-0,000	0,128
-570,904	-200,000	0,015	0,063
-569,890	97,020	-0,082	-0,070
-568,875	800,000	-0,014	0,034
-567,861	141,143	0,064	0,063
-566,846	756,798	0,054	-0,109
-565,831	573,687	-0,040	-0,073
-564,817	18,675	-0,136	-0,080
-563,802	277,791	0,018	-0,023
-562,788	800,000	0,034	0,103
-561,773	-200,000	0,005	0,065
-560,758	-200,000	0,004	-0,091
-559,744	194,933	0,115	0,129
-558,729	-31,064	0,060	-0,025
-557,715	140,923	-0,046	-0,045
-556,700	152,458	0,038	-0,038
-555,685	171,056	0,092	-0,097
-554,671	800,000	-0,033	0,071
-553,656	800,000	-0,013	0,039
-552,642	-200,000	-0,013	0,061
-551,627	-200,000	0,013	0,110
-550,612	243,190	-0,061	-0,076
-549,598	-200,000	0,012	-0,051
-548,583	-81,980	-0,063	-0,015
-547,569	-97,488	0,097	-0,018
-546,554	90,448	-0,094	0,078
-545,539	609,879	0,061	-0,113
-544,525	418,953	0,015	-0,023
-543,510	710,806	-0,040	-0,079
-542,496	-77,307	-0,037	-0,009
-541,481	800,000	-0,028	-0,088
-540,466	238,744	-0,103	-0,127
-539,452	151,306	-0,068	0,069
-538,437	96,790	0,143	-0,121
-537,423	272,352	0,122	-0,159
-536,408	587,395	0,073	-0,133
-535,393	-130,716	-0,228	-0,022
-534,379	-200,000	-0,003	-0,126
-533,364	133,980	0,103	-0,099
-532,350	-200,000	0,006	-0,044
-531,335	120,052	0,011	0,010
-530,321	-200,000	0,003	-0,015
-529,306	-80,197	-0,057	-0,014
-528,291	-24,522	-0,061	0,027
-527,277	-200,000	-0,004	-0,081
-526,262	-200,000	0,004	-0,063
-525,248	-200,000	-0,031	0,117
-524,233	0,192	0,026	0,014
-523,218	27,595	0,015	0,009
-522,204	74,098	0,170	-0,132
-521,189	800,000	-0,061	-0,138
-520,175	800,000	0,017	0,041
-519,160	-34,571	-0,074	-0,030
-518,145	-12,932	0,086	0,041
-517,131	-85,096	0,161	0,037
-516,116	466,798	0,111	-0,184
-515,102	-200,000	0,013	-0,117
-514,087	96,582	-0,108	-0,092
-513,072	27,231	0,011	0,007
-512,058	168,133	-0,089	-0,093
-511,043	-200,000	-0,004	0,131
-510,029	32,447	0,050	0,032
-509,014	-176,686	0,040	0,001
-507,999	112,549	-0,037	-0,033
-506,985	126,757	0,031	0,029
-505,970	800,000	0,038	0,097
-504,956	-74,966	0,060	-0,016
-503,941	-200,000	0,017	-0,090
-502,926	-144,948	0,044	-0,003
-501,912	-200,000	-0,008	0,129
-500,897	549,204	-0,013	-0,023
-499,883	-83,991	-0,181	0,042
-498,868	83,353	-0,059	-0,048
-497,853	-15,482	-0,044	0,021
-496,839	189,239	0,019	-0,021
-495,824	-200,000	-0,002	0,178
-494,810	-200,000	-0,002	-0,029
-493,795	-75,465	-0,035	-0,009
-492,781	800,000	-0,005	-0,011
-491,766	-101,479	-0,058	0,010
-490,751	489,844	-0,040	-0,068
-489,737	-200,000	-0,000	0,085
-488,722	10,582	-0,054	0,030
-487,708	55,320	0,037	0,026
-486,693	139,714	0,052	0,050
-485,678	55,950	0,103	0,074
-484,664	27,690	-0,120	-0,074
-483,649	-200,000	-0,017	-0,071
-482,635	270,002	-0,121	-0,157
-481,620	800,000	-0,036	0,084
-480,605	447,170	0,053	0,086
-479,591	37,640	0,030	-0,019
-478,576	-200,000	0,003	0,044
-477,562	339,639	0,057	0,083
-476,547	61,069	-0,066	0,048
-475,532	-103,690	-0,045	-0,008
-474,518	-71,046	0,044	-0,012
-473,503	287,880	0,077	0,103
-472,489	-39,983	0,144	0,055
-471,474	124,408	-0,035	0,032
-470,459	-2,533	0,151	-0,078
-469,445	-200,000	0,028	-0,168
-468,430	53,616	0,046	-0,032
-467,416	168,211	0,036	0,038
-466,401	800,000	0,079	0,205
-465,386	-200,000	0,037	0,122
-464,372	800,000	0,024	-0,077
-463,357	-117,454	0,098	-0,013
-462,343	-13,079	0,134	0,064
-461,328	-168,715	-0,085	0,002
-460,313	-67,839	-0,072	0,020
-459,299	-86,297	0,107	0,024
-458,284	800,000	-0,034	0,086
-457,270	-200,000	0,041	0,207
-456,255	754,832	0,011	0,023
-455,241	224,736	-0,128	-0,152
-454,226	-200,000	0,014	-0,125
-453,211	-2,213	-0,060	0,031
-452,197	237,385	-0,053	0,065
-451,182	800,000	-0,038	0,085
-450,168	-200,000	-0,007	-0,082
-449,153	-200,000	-0,015	0,104
-448,138	14,500	-0,068	-0,039
-447,124	62,208	-0,107	-0,078
-446,109	94,444	-0,061	-0,051
-445,095	800,000	0,019	-0,044
-444,080	-150,893	0,167	0,009
-443,065	-200,000	0,023	-0,077
-442,051	-44,546	-0,007	0,003
-441,036	-200,000	0,015	-0,209
-440,022	126,231	0,038	-0,035
-439,007	-200,000	-0,003	-0,042
-437,992	208,149	0,038	-0,043
-436,978	-27,892	0,023	-0,010
-435,963	-82,263	0,062	0,015
-434,949	10,496	0,039	-0,022
-433,934	461,322	0,047	0,078
-432,919	52,767	-0,031	0,022
-431,905	283,895	-0,039	-0,052
-430,890	-121,384	-0,039	-0,005
-429,876	800,000	0,019	0,051
-428,861	-200,000	0,020	-0,177
-427,846	-90,054	-0,070	0,015
-426,832	-114,635	0,106	-0,015
-425,817	-200,000	0,012	0,040
-424,803	800,000	0,007	-0,021
-423,788	-50,434	0,114	0,039
-422,773	0,284	0,091	-0,048
-421,759	634,535	0,053	0,099
-420,744	70,044	0,109	0,082
-419,730	68,218	0,046	0,035
-418,715	800,000	-0,053	-0,172
-417,701	197,368	-0,077	-0,087
-416,686	15,537	0,136	-0,078
-415,671	-200,000	0,010	-0,073
-414,657	215,975	0,032	0,038
-413,642	141,739	0,041	0,040
-412,628	-82,317	-0,143	-0,034
-411,613	-200,000	-0,031	-0,145
-410,598	162,947	-0,043	0,045
-409,584	800,000	0,026	-0,061
-408,569	257,015	0,076	-0,096
-407,555	-50,462	-0,025	-0,009
-406,540	-8,687	-0,084	0,041
-405,525	597,903	0,035	0,065
-404,511	75,544	-0,074	-0,057
-403,496	-93,688	0,033	0,007
-402,482	334,980	-0,060	0,085
-401,467	-103,886	0,098	-0,017
-400,452	-200,000	-0,043	-0,197
-399,438	22,678	0,072	0,043
-398,423	800,000	0,028	0,081
-397,409	27,795	0,077	-0,048
-396,394	-84,789	0,136	0,031
-395,379	107,743	0,013	0,012
-394,365	-200,000	-0,020	0,103
-393,350	-200,000	-0,005	0,101
-392,336	800,000	0,030	0,062
-391,321	-70,450	-0,079	0,022
-390,306	247,165	0,023	-0,029
-389,292	-200,000	0,004	-0,041
-388,277	-176,217	0,009	-0,000
-387,263	800,000	-0,025	0,068
-386,248	249,798	0,022	0,028
-385,233	788,300	0,048	-0,096
-384,219	-200,000	0,005	-0,034
-383,204	-200,000	-0,004	-0,050
-382,190	-86,445	-0,177	-0,040
-381,175	-71,417	0,017	-0,005
-380,160	800,000	-0,033	0,084
-379,146	306,388	-0,014	0,020
-378,131	-60,630	0,069	-0,021
-377,117	449,220	-0,041	-0,066
-376,102	-200,000	0,008	-0,171
-375,088	-54,860	0,009	0,003
-374,073	-200,000	0,016	0,055
-373,058	397,020	0,006	0,010
-372,044	66,915	0,047	-0,035
-371,029	-80,364	0,025	0,006
-370,015	-92,209	0,160	0,033
-369,000	800,000	0,028	0,069
-367,985	735,781	-0,040	0,078
-366,971	-33,857	-0,116	-0,047
-365,956	197,822	0,052	-0,059
-364,942	388,611	-0,080	-0,121
-363,927	-2,800	0,130	0,066
-362,912	189,744	0,052	0,058
-361,898	-106,566	0,033	-0,005
-360,883	132,762	-0,021	-0,020
-359,869	39,902	0,156	-0,103
-358,854	-200,000	0,002	-0,119
-357,839	744,015	0,040	0,078
-356,825	21,327	0,085	0,051
-355,810	248,941	0,084	0,104
-354,796	202,871	-0,052	-0,060
-353,781	-45,721	-0,037	-0,013
-352,766	-70,930	0,082	-0,022
-351,752	299,260	-0,035	-0,047
-350,737	428,782	0,033	0,053
-349,723	16,073	-0,046	-0,026
-348,708	800,000	-0,005	0,013
-347,693	400,695	0,028	-0,043
-346,679	-20,950	0,110	-0,049
-345,664	7,339	-0,113	0,062
-344,650	46,422	-0,055	0,038
-343,635	800,000	0,019	-0,054
-342,620	378,125	-0,043	-0,065
-341,606	800,000	-0,023	0,073
-340,591	577,100	-0,067	-0,121
-339,577	-200,000	0,005	0,025
-338,562	191,502	-0,133	-0,147
-337,548	-156,617	-0,134	0,006
-336,533	-52,747	-0,073	0,025
-335,518	-200,000	-0,023	-0,087
-334,504	-95,844	0,042	-0,008
-333,489	361,590	0,028	0,042
-332,475	18,989	-0,020	-0,012
-331,460	329,996	-0,075	-0,107
-330,445	-149,935	-0,181	-0,010
-329,431	-130,580	0,164	-0,016
-328,416	800,000	0,002	0,005
-327,402	57,914	-0,089	-0,063
-326,387	208,485	-0,097	-0,111
-325,372	128,228	0,033	0,031
-324,358	800,000	-0,003	0,010
-323,343	4,379	-0,079	-0,042
-322,329	-158,853	-0,030	-0,001
-321,314	553,902	0,033	0,058
-320,299	-200,000	0,018	0,137
-319,285	-105,243	-0,061	-0,010
-318,270	155,406	-0,042	-0,043
-317,256	-68,438	-0,108	-0,031
-316,241	-170,234	-0,054	0,001
-315,226	193,416	0,056	0,062
-314,212	800,000	-0,025	0,061
-313,197	64,285	0,106	0,078
-312,183	-27,769	-0,174	0,074
-311,168	800,000	0,047	-0,113
-310,153	676,245	-0,052	-0,100
-309,139	50,927	-0,069	0,048
-308,124	301,850	0,007	-0,009
-307,110	-165,842	-0,086	-0,003
-306,095	-73,093	-0,067	-0,018
-305,080	496,301	0,105	0,177
-304,066	391,726	-0,011	-0,017
-303,051	-126,548	-0,113	-0,012
-302,037	-200,000	-0,016	-0,062
-301,022	-84,214	0,125	-0,029
-300,008	478,243	-0,064	0,107
-298,993	8,613	0,003	-0,002
-297,978	-120,331	-0,081	0,010
-296,964	96,800	-0,044	-0,037
-295,949	-21,399	0,042	0,019
-294,935	16,786	-0,168	-0,097
-293,920	293,754	0,029	0,039
-292,905	311,831	0,079	0,109
-291,891	500,798	-0,029	0,049
-290,876	800,000	0,027	0,081
-289,862	6,964	-0,059	0,032
-288,847	-200,000	0,011	0,077
-287,832	-200,000	0,032	0,106
-286,818	-200,000	-0,004	-0,052
-285,803	-101,162	0,098	-0,017
-284,789	549,924	-0,055	0,096
-283,774	800,000	0,033	0,071
-282,759	-72,072	0,060	-0,016
-281,745	-200,000	-0,032	0,184
-280,730	5,220	-0,047	0,025
-279,716	800,000	-0,052	-0,109
-278,701	113,854	0,045	0,040
-277,686	800,000	0,057	0,136
-276,672	-200,000	-0,006	0,097
-275,657	-104,374	-0,133	-0,022
-274,643	314,613	-0,045	0,062
-273,628	800,000	-0,031	-0,063
-272,613	-200,000	0,020	0,111
-271,599	800,000	0,035	0,096
-270,584	-200,000	-0,001	0,041
-269,570	800,000	-0,043	0,124
-268,555	-95,657	-0,101	0,020
-267,540	35,887	0,043	-0,028
-266,526	-200,000	-0,002	0,065
-265,511	420,343	0,077	-0,122
-264,497	800,000	0,013	0,035
-263,482	-200,000	-0,013	0,096
-262,467	-200,000	-0,003	0,128
-261,453	-200,000	0,024	0,101
-260,438	212,789	-0,054	-0,062
-259,424	71,012	-0,114	-0,086
-258,409	61,044	-0,082	-0,060
-257,395	-59,303	-0,097	-0,030
-256,380	297,018	-0,062	-0,083
-255,365	68,315	-0,027	-0,020
-254,351	15,979	0,061	-0,035
-253,336	-155,655	0,114	0,005
-252,322	-200,000	-0,000	0,003
-251,307	8,311	-0,087	-0,048
-250,292	-200,000	0,021	0,088
-249,278	-200,000	0,023	0,160
-248,263	343,897	0,075	0,108
-247,249	85,000	-0,075	0,060
-246,234	374,997	-0,066	0,099
-245,219	800,000	-0,054	-0,120
-244,205	-118,587	-0,072	-0,009
-243,190	-200,000	-0,002	0,020
-242,176	754,452	-0,059	0,118
-241,161	-54,910	0,110	0,036
-240,146	800,000	-0,030	0,091
-239,132	-52,537	-0,016	-0,006
-238,117	-193,880	-0,100	0,001
-237,103	-200,000	-0,009	-0,072
-236,088	90,485	0,042	0,034
-235,073	182,292	-0,081	0,087
-234,059	800,000	0,027	0,075
-233,044	-200,000	0,015	0,132
-232,030	800,000	0,029	0,061
-231,015	800,000	-0,028	-0,073
-230,000	308,515	-0,022	0,030
-228,986	198,983	0,043	0,048
-227,971	119,363	-0,014	-0,013
-226,957	370,151	0,063	0,094
-225,942	355,177	-0,025	-0,037
-224,927	-200,000	0,011	-0,164
-223,913	-87,722	0,095	0,021
-222,898	-200,000	-0,022	-0,194
-221,884	767,674	0,105	-0,210
-220,869	150,381	0,140	-0,139
-219,855	-86,402	0,044	-0,010
-218,840	-200,000	0,001	0,050
-217,825	656,737	-0,055	-0,104
-216,811	-35,618	-0,149	-0,059
-215,796	251,924	0,072	0,089
-214,782	-200,000	0,010	0,145
-213,767	-90,931	0,063	0,013
-212,752	-145,778	0,149	-0,010
-211,738	-200,000	-0,003	0,101
-210,723	-200,000	-0,028	0,128
-209,709	279,541	-0,080	0,104
-208,694	426,988	-0,058	-0,091
-207,679	-200,000	-0,006	-0,078
-206,665	30,164	0,082	-0,051
-205,650	-20,130	-0,108	0,048
-204,636	-86,552	-0,040	-0,009
-203,621	194,993	-0,113	-0,125
-202,606	-200,000	-0,018	0,125
-201,592	-173,675	-0,114	0,002
-200,577	-71,886	0,076	0,020
-199,563	-61,552	-0,073	0,022
-198,548	83,745	-0,093	0,074
-197,533	-13,908	0,118	-0,055
-196,519	-200,000	0,028	0,093
-195,504	153,612	-0,107	-0,107
-194,490	-61,436	0,009	0,003
-193,475	101,803	-0,093	0,079
-192,460	800,000	-0,016	-0,050
-191,446	-5,354	0,099	0,049
-190,431	236,691	0,021	0,026
-189,417	-200,000	0,006	0,026
-188,402	3,955	-0,133	-0,071
-187,387	291,009	-0,151	-0,201
-186,373	56,871	-0,014	0,010
-185,358	31,434	-0,065	0,041
-184,344	-108,934	0,125	0,019
-183,329	483,120	0,044	0,074
-182,315	415,858	0,033	0,051
-181,300	-200,000	0,028	0,090
-180,285	-200,000	-0,015	0,095
-179,271	43,804	0,060	-0,040
-178,256	-70,374	-0,095	-0,026
-177,242	106,072	-0,069	0,059
-176,227	-200,000	-0,015	0,116
-175,212	476,833	0,036	0,060
-174,198	129,317	-0,091	0,085
-173,183	-72,431	-0,045	0,012
-172,169	-66,113	-0,062	-0,018
-171,154	-79,328	0,139	-0,034
-170,139	-29,538	-0,146	-0,060
-169,125	-200,000	0,002	0,094
-168,110	170,826	-0,087	0,091
-167,096	-200,000	0,005	-0,101
-166,081	24,201	0,085	0,051
-165,066	206,215	-0,042	-0,048
-164,052	141,241	0,150	-0,144
-163,037	-28,095	-0,088	-0,037
-162,023	311,759	0,065	0,089
-161,008	-200,000	-0,045	-0,186
-159,993	800,000	0,030	0,084
-158,979	-113,504	0,027	-0,004
-157,964	-200,000	-0,009	0,053
-156,950	-200,000	-0,006	0,062
-155,935	131,714	-0,072	-0,068
-154,920	-200,000	0,022	0,161
-153,906	-200,000	-0,003	0,133
-152,891	-50,885	0,105	0,036
-151,877	800,000	-0,028	-0,069
-150,862	51,930	-0,148	-0,103
-149,847	800,000	-0,078	-0,169
-148,833	325,489	0,067	-0,093
-147,818	363,804	-0,039	0,057
-146,804	-200,000	-0,029	0,122
-145,789	800,000	-0,029	0,087
-144,775	44,640	-0,069	-0,046
-143,760	-200,000	0,012	-0,045
-142,745	10,008	0,060	0,033
-141,731	55,262	0,036	0,025
-140,716	730,409	0,017	0,032
-139,702	85,667	-0,064	0,051
-138,687	800,000	0,054	0,141
-137,672	80,601	-0,051	0,040
-136,658	-200,000	0,006	-0,114
-135,643	-77,599	-0,099	-0,025
-134,629	-29,534	-0,102	-0,042
-133,614	800,000	-0,015	0,037
-132,599	125,343	-0,024	0,022
-131,585	-44,839	-0,050	0,018
-130,570	-200,000	0,003	-0,077
-129,556	-99,752	0,108	0,019
-128,541	-147,400	-0,086	0,005
-127,526	25,099	0,081	0,049
-126,512	-200,000	-0,028	0,164
-125,497	-48,863	0,032	0,011
-124,483	220,671	0,025	0,030
-123,468	800,000	0,065	-0,180
-122,453	197,333	-0,004	0,005
-121,439	722,085	-0,043	0,084
-120,424	-141,942	-0,150	0,011
-119,410	800,000	0,041	-0,109
-118,395	38,942	0,043	-0,028
