DTS Sentinel unit serial number:	SN410029Multiplexer serial number:	ORYXHardware model number:	OX2-SRSoftware version number:	ORYX F/W v4,00 Oryx Data Collector v3.7.2.0data status	okinstallation	B4 Nyhavnadifferential loss correction	single-endedforward channel	channel 2reverse channel	N/Adate	2023/12/18time	18:20:13forward acquisition time	300,00reverse acquisition time	0,00gamma	499,1914k internal	0,3124k external	0,3124temperature offset calibration	1,0000default loss term (dB/km)	0,3820temperature slope calibration	1,0000multiplexer offset coefficient	1,0000multiplexer slope coefficient	1,0000fibre end	0,00T internal ref (°C)	21,92T ext. ref 1 (°C)	7,11T ext. ref 2 (°C)	7,12length (m)	temperature (°C)	Stokes	anti-Stokes-744,400	800,000	0,051	-0,136
-743,385	110,105	-0,149	0,134
-742,371	-200,000	-0,020	-0,242
-741,356	63,718	-0,227	0,170
-740,342	-200,000	0,002	-0,073
-739,327	-30,563	-0,120	-0,050
-738,312	-200,000	-0,030	-0,135
-737,298	-40,557	-0,270	0,104
-736,283	20,204	0,102	-0,061
-735,269	-73,061	-0,106	0,029
-734,254	800,000	-0,055	-0,127
-733,239	-186,063	-0,503	0,005
-732,225	677,015	0,048	0,094
-731,210	800,000	-0,023	0,074
-730,196	105,415	-0,087	-0,076
-729,181	34,207	-0,094	-0,061
-728,167	696,556	-0,069	0,135
-727,152	-80,317	-0,080	0,020
-726,137	800,000	0,007	-0,016
-725,123	-200,000	-0,019	0,078
-724,108	800,000	-0,051	-0,123
-723,094	147,293	-0,064	-0,064
-722,079	-200,000	-0,058	-0,227
-721,064	70,706	-0,137	-0,105
-720,050	106,374	0,099	0,087
-719,035	329,401	-0,035	0,051
-718,021	145,222	-0,093	-0,092
-717,006	288,895	0,032	-0,043
-715,991	-200,000	-0,010	-0,081
-714,977	800,000	-0,077	-0,175
-713,962	800,000	0,077	-0,173
-712,948	605,989	-0,022	0,040
-711,933	30,950	-0,043	0,027
-710,918	-148,020	-0,075	-0,005
-709,904	-79,768	-0,122	0,030
-708,889	-62,239	-0,068	-0,021
-707,875	-98,989	0,030	-0,006
-706,860	-200,000	-0,016	0,109
-705,845	-200,000	-0,017	0,074
-704,831	18,548	0,093	0,055
-703,816	33,336	0,101	0,065
-702,802	1,197	-0,084	0,045
-701,787	-200,000	-0,027	-0,157
-700,772	-122,591	0,102	-0,012
-699,758	726,699	-0,054	0,108
-698,743	276,168	0,084	0,111
-697,729	101,871	-0,047	0,041
-696,714	77,032	-0,053	0,042
-695,699	165,753	0,079	-0,084
-694,685	24,966	0,067	0,041
-693,670	463,469	0,020	0,033
-692,656	-177,420	0,065	0,001
-691,641	128,033	0,069	0,065
-690,627	44,588	0,118	-0,081
-689,612	-200,000	-0,015	-0,092
-688,597	-200,000	0,012	0,087
-687,583	523,251	-0,073	-0,128
-686,568	359,226	-0,072	-0,108
-685,554	-200,000	-0,024	-0,117
-684,539	1,703	-0,090	0,048
-683,524	-26,468	0,211	-0,092
-682,510	176,777	-0,058	0,063
-681,495	-16,569	-0,116	-0,054
-680,481	-200,000	-0,026	0,169
-679,466	115,476	-0,032	0,029
-678,451	147,939	0,077	0,077
-677,437	-126,807	-0,162	-0,018
-676,422	-66,856	0,060	-0,018
-675,408	12,467	-0,055	0,032
-674,393	60,436	-0,173	0,127
-673,378	84,615	0,162	-0,131
-672,364	375,464	-0,062	-0,095
-671,349	-200,000	-0,039	-0,149
-670,335	479,474	-0,034	0,057
-669,320	281,983	-0,035	0,046
-668,305	-90,948	-0,098	-0,021
-667,291	-77,756	0,038	-0,010
-666,276	-181,250	0,058	0,001
-665,262	-6,238	-0,134	-0,068
-664,247	-121,869	-0,031	-0,004
-663,232	17,559	0,040	-0,023
-662,218	192,349	0,026	0,029
-661,203	-200,000	-0,008	-0,106
-660,189	800,000	-0,029	-0,069
-659,174	-200,000	-0,001	-0,040
-658,159	101,603	0,034	0,030
-657,145	800,000	0,044	-0,123
-656,130	-200,000	-0,007	-0,048
-655,116	395,315	0,041	0,064
-654,101	-77,654	0,103	-0,026
-653,086	-71,774	-0,151	0,041
-652,072	793,835	0,091	-0,187
-651,057	-40,341	0,091	0,035
-650,043	17,991	-0,085	0,050
-649,028	-46,017	-0,053	-0,019
-648,014	1,076	0,125	0,066
-646,999	-200,000	-0,005	-0,060
-645,984	59,963	-0,036	-0,026
-644,970	-164,181	-0,089	0,003
-643,955	-127,304	0,068	-0,007
-642,941	-200,000	0,027	-0,153
-641,926	-200,000	0,027	-0,195
-640,911	161,618	0,010	0,010
-639,897	-123,638	0,122	0,014
-638,882	-200,000	-0,007	-0,040
-637,868	91,163	0,081	-0,068
-636,853	-46,350	-0,061	-0,022
-635,838	-200,000	-0,004	-0,029
-634,824	125,591	0,028	0,026
-633,809	-150,066	0,178	0,010
-632,795	-200,000	-0,015	0,136
-631,780	-200,000	-0,005	-0,073
-630,765	-200,000	-0,018	-0,107
-629,751	-200,000	0,032	-0,228
-628,736	535,358	-0,006	0,011
-627,722	-114,694	-0,026	-0,004
-626,707	-90,042	0,182	0,039
-625,692	-200,000	0,014	0,089
-624,678	800,000	0,039	-0,112
-623,663	17,214	-0,033	0,020
-622,649	-44,430	0,086	-0,032
-621,634	230,307	-0,023	-0,029
-620,619	-200,000	-0,011	-0,046
-619,605	310,826	0,098	-0,136
-618,590	800,000	-0,009	0,021
-617,576	314,807	0,051	-0,071
-616,561	48,510	-0,090	0,062
-615,546	79,148	0,104	0,082
-614,532	-1,882	-0,032	-0,016
-613,517	-61,477	-0,123	-0,038
-612,503	-51,771	0,106	-0,037
-611,488	-115,532	-0,043	0,006
-610,474	-85,863	0,046	0,011
-609,459	800,000	0,054	-0,118
-608,444	38,647	0,053	-0,035
-607,430	-200,000	0,039	-0,179
-606,415	-49,913	-0,050	-0,018
-605,401	298,766	0,065	0,089
-604,386	-134,767	0,051	0,005
-603,371	-152,076	0,084	-0,004
-602,357	218,843	0,061	0,072
-601,342	-20,831	0,034	-0,015
-600,328	-93,681	-0,083	-0,017
-599,313	-166,475	0,141	0,004
-598,298	189,461	-0,052	0,058
-597,284	-43,160	0,025	0,009
-596,269	-200,000	-0,004	0,134
-595,255	-167,865	0,074	0,002
-594,240	167,276	0,074	0,078
-593,225	93,842	-0,106	-0,089
-592,211	737,346	0,027	-0,053
-591,196	800,000	-0,051	0,145
-590,182	-200,000	0,009	-0,088
-589,167	-95,913	-0,104	-0,020
-588,152	54,334	0,052	-0,037
-587,138	-40,085	-0,076	0,029
-586,123	12,195	0,074	0,042
-585,109	-200,000	0,038	-0,131
-584,094	-200,000	0,047	-0,161
-583,079	303,128	0,018	0,025
-582,065	-13,933	0,161	-0,077
-581,050	-176,344	0,078	0,001
-580,036	-200,000	-0,008	-0,073
-579,021	800,000	0,064	-0,138
-578,006	-200,000	-0,017	-0,194
-576,992	203,628	0,106	0,122
-575,977	800,000	-0,038	0,097
-574,963	-192,178	-0,089	0,001
-573,948	120,925	-0,094	-0,086
-572,934	-88,920	0,119	-0,026
-571,919	-26,463	-0,050	-0,021
-570,904	594,349	-0,050	0,093
-569,890	72,540	-0,047	-0,037
-568,875	800,000	0,029	-0,080
-567,861	-104,530	0,050	0,009
-566,846	-200,000	-0,013	0,161
-565,831	-200,000	-0,012	-0,064
-564,817	-200,000	-0,006	0,026
-563,802	90,595	0,051	-0,042
-562,788	82,123	-0,148	-0,118
-561,773	-77,557	-0,025	-0,006
-560,758	-3,703	0,130	0,067
-559,744	-4,929	-0,051	0,026
-558,729	-63,268	-0,062	0,019
-557,715	224,944	-0,105	-0,126
-556,700	-200,000	-0,009	-0,137
-555,685	168,794	0,034	0,036
-554,671	767,838	-0,008	0,016
-553,656	-28,742	0,052	-0,022
-552,642	-200,000	-0,004	0,115
-551,627	800,000	-0,061	0,161
-550,612	14,119	-0,146	0,084
-549,598	-48,227	-0,107	-0,038
-548,583	183,496	0,111	0,122
-547,569	100,242	0,090	0,077
-546,554	389,752	-0,006	-0,009
-545,539	800,000	0,039	0,113
-544,525	-79,212	0,130	-0,032
-543,510	800,000	0,037	0,116
-542,496	89,576	0,011	-0,009
-541,481	-192,305	-0,091	0,001
-540,466	-200,000	-0,010	-0,035
-539,452	148,095	-0,035	-0,035
-538,437	30,961	-0,092	0,058
-537,423	-95,207	0,038	0,007
-536,408	800,000	0,022	0,049
-535,393	-200,000	0,001	0,055
-534,379	255,268	-0,137	-0,174
-533,364	-200,000	0,025	-0,161
-532,350	-9,206	0,049	-0,024
-531,335	-200,000	-0,004	-0,018
-530,321	-16,275	0,174	0,081
-529,306	-200,000	0,007	0,032
-528,291	176,430	0,024	-0,026
-527,277	-102,528	-0,120	0,021
-526,262	-74,543	-0,101	0,027
-525,248	640,654	-0,008	-0,016
-524,233	347,902	-0,053	-0,078
-523,218	800,000	-0,044	0,093
-522,204	-200,000	-0,013	-0,091
-521,189	117,999	-0,115	-0,105
-520,175	198,747	-0,023	-0,026
-519,160	66,132	-0,016	-0,012
-518,145	-113,849	0,113	0,016
-517,131	-101,362	0,030	-0,005
-516,116	-53,930	0,134	0,045
-515,102	356,306	0,042	-0,062
-514,087	-63,659	-0,051	-0,015
-513,072	96,448	0,118	-0,100
-512,058	-98,721	-0,016	-0,003
-511,043	-89,511	-0,075	0,016
-510,029	395,899	-0,090	0,139
-509,014	800,000	0,018	-0,038
-507,999	215,398	0,018	0,021
-506,985	-112,398	-0,133	-0,019
-505,970	800,000	0,027	0,083
-504,956	-111,507	0,128	-0,019
-503,941	103,097	-0,033	0,028
-502,926	-67,465	0,085	0,025
-501,912	-200,000	0,017	0,102
-500,897	248,479	0,077	0,097
-499,883	-200,000	0,014	0,096
-498,868	-200,000	-0,007	-0,030
-497,853	118,148	-0,113	0,103
-496,839	-27,750	-0,183	0,078
-495,824	-200,000	0,003	-0,085
-494,810	-61,708	0,064	-0,020
-493,795	113,621	-0,060	0,054
-492,781	-26,235	0,051	0,022
-491,766	-36,848	-0,122	-0,048
-490,751	800,000	-0,028	0,086
-489,737	30,765	0,112	0,071
-488,722	800,000	-0,050	-0,105
-487,708	186,071	0,056	-0,061
-486,693	-119,603	0,046	-0,006
-485,678	-197,500	-0,056	-0,000
-484,664	-99,742	0,227	-0,042
-483,649	145,121	0,146	0,144
-482,635	-56,849	-0,093	-0,030
-481,620	74,892	0,155	0,120
-480,605	-81,041	-0,042	0,010
-479,591	566,490	0,007	0,012
-478,576	-150,211	0,077	-0,004
-477,562	23,891	-0,162	0,099
-476,547	85,909	-0,121	0,098
-475,532	-157,004	0,111	-0,005
-474,518	-104,236	-0,160	0,027
-473,503	456,283	0,102	0,167
-472,489	217,655	-0,065	0,077
-471,474	-92,576	0,113	0,023
-470,459	-200,000	-0,003	0,181
-469,445	-124,774	-0,035	-0,004
-468,430	86,081	-0,029	0,024
-467,416	-200,000	0,003	0,137
-466,401	-123,495	0,085	0,010
-465,386	-15,414	0,072	0,034
-464,372	54,774	0,061	-0,043
-463,357	-110,915	0,035	0,005
-462,343	19,404	-0,114	-0,067
-461,328	-200,000	0,016	-0,075
-460,313	410,056	0,073	-0,115
-459,299	43,043	0,112	-0,075
-458,284	-88,039	-0,082	0,018
-457,270	-200,000	-0,008	-0,108
-456,255	-200,000	0,008	-0,154
-455,241	150,249	-0,021	0,021
-454,226	-167,449	-0,171	0,005
-453,211	610,299	0,035	0,065
-452,197	13,388	-0,023	0,013
-451,182	-27,815	-0,090	-0,038
-450,168	-200,000	-0,005	0,033
-449,153	510,668	-0,046	-0,078
-448,138	-53,050	-0,031	-0,010
-447,124	-105,595	0,062	-0,010
-446,109	-200,000	0,033	-0,111
-445,095	438,671	0,079	-0,127
-444,080	190,627	-0,039	-0,043
-443,065	-200,000	0,033	0,181
-442,051	14,417	0,113	0,065
-441,036	63,637	-0,021	0,016
-440,022	-200,000	0,006	-0,130
-439,007	558,078	0,068	-0,122
-437,992	-87,007	0,050	0,011
-436,978	101,951	-0,130	0,111
-435,963	-27,994	0,089	0,038
-434,949	-200,000	0,029	-0,099
-433,934	564,298	-0,035	0,063
-432,919	560,155	0,036	0,065
-431,905	-118,870	-0,099	0,013
-430,890	-83,257	0,032	-0,007
-429,876	-200,000	0,008	0,114
-428,861	-200,000	-0,014	-0,048
-427,846	-200,000	-0,009	-0,114
-426,832	-200,000	0,002	0,018
-425,817	184,945	0,094	-0,103
-424,803	146,356	-0,040	-0,040
-423,788	-200,000	0,003	-0,025
-422,773	-200,000	-0,004	0,020
-421,759	125,372	-0,093	-0,087
-420,744	678,447	-0,040	0,077
-419,730	800,000	-0,054	-0,149
-418,715	-200,000	-0,024	-0,138
-417,701	-200,000	-0,004	-0,015
-416,686	-36,685	-0,065	0,026
-415,671	3,177	0,038	-0,020
-414,657	-200,000	-0,001	-0,007
-413,642	50,300	-0,058	0,040
-412,628	31,269	-0,082	0,052
-411,613	-28,287	0,096	0,041
-410,598	272,324	0,160	-0,208
-409,584	800,000	-0,011	-0,028
-408,569	-200,000	-0,025	0,161
-407,555	-200,000	0,007	0,168
-406,540	-74,889	-0,104	-0,027
-405,525	8,400	-0,071	-0,039
-404,511	274,668	-0,057	-0,075
-403,496	-64,078	-0,094	0,028
-402,482	11,756	-0,074	0,042
-401,467	107,766	0,103	0,090
-400,452	-200,000	0,005	0,167
-399,438	-86,781	-0,048	0,011
-398,423	160,050	-0,050	-0,051
-397,409	201,658	0,018	0,021
-396,394	169,496	-0,074	-0,077
-395,379	-58,735	-0,051	-0,016
-394,365	187,200	0,066	-0,073
-393,350	-103,693	0,080	-0,014
-392,336	800,000	0,006	0,018
-391,321	77,297	-0,026	-0,021
-390,306	-70,481	0,172	-0,048
-389,292	-33,126	-0,111	-0,045
-388,277	126,336	0,073	-0,068
-387,263	204,456	0,120	0,137
-386,248	-200,000	0,018	-0,122
-385,233	190,284	-0,088	0,097
-384,219	-44,779	-0,170	0,062
-383,204	-200,000	-0,006	0,104
-382,190	-27,391	0,043	-0,018
-381,175	624,366	-0,065	-0,122
-380,160	61,902	-0,050	0,037
-379,146	653,553	0,118	0,223
-378,131	467,714	-0,024	0,039
-377,117	56,155	-0,054	-0,038
-376,102	-200,000	0,004	-0,057
-375,088	-200,000	0,007	-0,107
-374,073	2,352	0,069	-0,037
-373,058	-50,559	0,131	0,045
-372,044	-200,000	-0,012	-0,070
-371,029	-97,814	0,108	0,020
-370,015	800,000	-0,023	0,067
-369,000	-104,657	0,084	0,014
-367,985	-133,310	-0,093	-0,008
-366,971	598,692	-0,043	-0,078
-365,956	238,465	0,074	-0,090
-364,942	168,285	-0,055	0,058
-363,927	-200,000	-0,002	-0,008
-362,912	-200,000	-0,010	0,060
-361,898	433,975	-0,080	-0,127
-360,883	78,450	-0,149	0,117
-359,869	800,000	-0,076	0,201
-358,854	-200,000	0,007	0,062
-357,839	-200,000	0,028	0,219
-356,825	326,623	0,067	-0,095
-355,810	5,597	-0,168	0,091
-354,796	800,000	-0,021	-0,047
-353,781	12,545	0,094	-0,053
-352,766	800,000	-0,010	0,025
-351,752	-104,450	0,043	-0,007
-350,737	49,625	0,072	0,050
-349,723	-34,463	-0,127	0,051
-348,708	309,262	0,057	0,079
-347,693	33,666	0,106	-0,067
-346,679	1,932	-0,048	0,025
-345,664	-23,902	-0,099	-0,043
-344,650	164,721	-0,050	0,052
-343,635	99,332	0,091	0,077
-342,620	-64,774	0,042	-0,012
-341,606	38,671	-0,191	-0,125
-340,591	-3,209	0,080	0,041
-339,577	14,086	-0,048	0,027
-338,562	306,378	-0,038	-0,052
-337,548	-187,710	-0,061	-0,001
-336,533	-200,000	0,010	0,044
-335,518	411,283	0,052	0,081
-334,504	298,884	0,022	-0,030
-333,489	-200,000	0,020	-0,167
-332,475	281,222	-0,136	-0,179
-331,460	-141,957	0,023	-0,002
-330,445	-114,180	-0,027	0,004
-329,431	483,356	-0,048	-0,080
-328,416	-132,630	-0,021	-0,002
-327,402	-38,127	0,124	0,048
-326,387	76,811	0,108	0,084
-325,372	-200,000	-0,005	0,071
-324,358	294,723	0,045	-0,060
-323,343	32,174	0,115	0,073
-322,329	99,479	-0,019	0,016
-321,314	316,769	0,044	-0,061
-320,299	-36,609	0,064	-0,025
-319,285	-200,000	-0,012	-0,042
-318,270	181,118	-0,084	-0,091
-317,256	-133,750	0,150	-0,014
-316,241	-117,146	0,027	0,004
-315,226	-16,594	-0,048	0,022
-314,212	677,672	0,084	0,160
-313,197	195,365	0,045	0,051
-312,183	-146,098	-0,222	0,014
-311,168	144,496	0,120	-0,118
-310,153	-200,000	-0,037	-0,147
-309,139	48,850	-0,025	0,017
-308,124	99,657	0,126	-0,106
-307,110	120,191	0,037	0,033
-306,095	-97,150	0,046	-0,009
-305,080	-65,495	-0,063	0,018
-304,066	476,539	-0,036	-0,060
-303,051	310,764	-0,090	-0,124
-302,037	-48,274	0,064	0,023
-301,022	131,512	0,009	0,008
-300,008	-200,000	0,013	-0,062
-298,993	-111,691	0,110	-0,016
-297,978	542,982	0,008	-0,014
-296,964	-114,343	0,021	0,003
-295,949	-200,000	-0,000	-0,014
-294,935	-200,000	-0,010	-0,130
-293,920	367,118	-0,066	-0,098
-292,905	-200,000	-0,036	0,156
-291,891	566,465	0,110	0,197
-290,876	95,497	0,131	0,109
-289,862	220,045	0,041	0,048
-288,847	-200,000	-0,011	-0,106
-287,832	382,861	-0,099	-0,149
-286,818	5,319	0,054	-0,029
-285,803	-200,000	0,001	0,098
-284,789	-200,000	-0,008	0,046
-283,774	800,000	0,040	0,094
-282,759	-115,651	-0,042	-0,006
-281,745	-116,961	-0,079	-0,010
-280,730	5,589	-0,070	0,038
-279,716	-12,184	-0,114	0,055
-278,701	-200,000	0,040	0,136
-277,686	-200,000	0,017	0,173
-276,672	220,305	-0,107	0,126
-275,657	800,000	0,048	0,139
-274,643	197,580	-0,051	0,057
-273,628	197,488	-0,040	-0,044
-272,613	104,291	-0,066	0,057
-271,599	800,000	-0,015	-0,038
-270,584	347,861	0,024	0,035
-269,570	260,370	-0,024	-0,031
-268,555	800,000	0,031	0,074
-267,540	9,158	-0,114	0,063
-266,526	-200,000	0,001	-0,013
-265,511	3,935	0,094	-0,050
-264,497	-41,110	0,135	-0,051
-263,482	-200,000	-0,004	-0,135
-262,467	-200,000	-0,003	-0,022
-261,453	176,148	-0,031	0,032
-260,438	345,013	-0,024	0,034
-259,424	-130,142	-0,072	0,007
-258,409	-200,000	-0,001	-0,007
-257,395	-103,210	0,163	0,028
-256,380	-107,689	0,022	-0,003
-255,365	-44,046	0,078	0,028
-254,351	-126,046	-0,191	0,021
-253,336	205,251	-0,134	-0,153
-252,322	-200,000	0,008	-0,087
-251,307	-74,680	0,100	0,026
-250,292	-126,196	0,029	0,003
-249,278	-200,000	0,019	0,071
-248,263	-200,000	0,006	0,032
-247,249	-200,000	-0,001	0,029
-246,234	-68,053	-0,121	0,034
-245,219	49,096	-0,044	-0,030
-244,205	450,536	0,028	-0,046
-243,190	358,944	-0,059	0,086
-242,176	-109,248	-0,204	-0,031
-241,161	-166,690	-0,050	0,001
-240,146	-200,000	0,010	-0,037
-239,132	800,000	-0,001	0,004
-238,117	-129,177	-0,135	0,014
-237,103	-90,196	0,017	-0,003
-236,088	-184,476	0,040	-0,000
-235,073	-87,441	0,126	0,028
-234,059	-51,590	0,112	-0,038
-233,044	177,262	-0,064	-0,068
-232,030	-43,641	-0,082	-0,030
-231,015	-102,002	0,104	-0,018
-230,000	191,059	-0,066	-0,073
-228,986	-200,000	-0,001	0,053
-227,971	-200,000	0,031	0,111
-226,957	-86,975	-0,053	0,012
-225,942	-9,689	-0,043	0,021
-224,927	-183,705	-0,051	0,001
-223,913	800,000	0,043	0,089
-222,898	-5,136	-0,053	-0,026
-221,884	298,537	-0,041	0,055
-220,869	-124,606	0,081	0,009
-219,855	-19,864	0,027	-0,012
-218,840	-200,000	-0,003	-0,025
-217,825	181,381	0,053	-0,057
-216,811	127,222	-0,082	-0,076
-215,796	153,823	-0,095	0,095
-214,782	-80,650	0,061	0,015
-213,767	-163,154	0,064	-0,002
-212,752	-125,813	-0,205	-0,022
-211,738	-200,000	0,002	-0,098
-210,723	800,000	0,016	-0,050
-209,709	-4,472	-0,062	-0,031
-208,694	-116,882	0,036	-0,005
-207,679	-200,000	-0,002	-0,008
-206,665	-200,000	-0,014	-0,064
-205,650	-40,473	0,112	-0,042
-204,636	-137,537	0,067	-0,005
-203,621	-59,526	0,061	-0,019
-202,606	92,390	0,082	0,067
-201,592	-118,111	-0,097	0,012
-200,577	26,681	0,084	0,051
-199,563	-151,154	-0,107	-0,006
-198,548	-93,391	0,059	-0,012
-197,533	20,996	0,028	-0,017
-196,519	306,184	-0,116	0,158
-195,504	-162,676	-0,050	-0,002
-194,490	-53,445	0,026	0,009
-193,475	60,832	-0,036	0,026
-192,460	359,133	0,023	-0,033
-191,446	6,867	0,054	0,029
-190,431	800,000	0,046	0,118
-189,417	652,868	-0,027	-0,051
-188,402	-95,478	-0,063	-0,012
-187,387	-178,477	-0,067	-0,001
-186,373	-149,581	-0,042	-0,002
-185,358	-29,450	-0,103	0,043
-184,344	-94,552	-0,103	-0,020
-183,329	225,030	-0,056	0,066
-182,315	-67,161	0,124	-0,035
-181,300	-111,940	-0,100	0,015
-180,285	800,000	0,019	-0,053
-179,271	36,735	-0,060	0,039
-178,256	405,876	0,034	0,052
-177,242	-168,145	0,157	-0,004
-176,227	11,758	0,103	0,058
-175,212	-200,000	0,002	0,106
-174,198	112,516	-0,073	-0,064
-173,183	800,000	-0,040	0,085
-172,169	61,877	0,033	0,024
-171,154	776,952	-0,074	-0,148
-170,139	-48,974	0,038	-0,013
-169,125	-87,449	-0,112	0,025
-168,110	405,954	-0,067	0,103
-167,096	-160,066	-0,046	0,002
-166,081	-187,397	-0,110	0,001
-165,066	3,063	-0,066	-0,035
-164,052	-200,000	0,034	0,118
-163,037	50,343	0,045	-0,031
-162,023	208,977	0,049	-0,057
-161,008	410,936	-0,092	-0,143
-159,993	-200,000	0,020	-0,103
-158,979	800,000	-0,038	-0,109
-157,964	-135,847	-0,045	-0,004
-156,950	-0,726	-0,070	-0,036
-155,935	-200,000	0,041	0,134
-154,920	141,708	0,046	0,045
-153,906	-32,036	0,136	0,055
-152,891	-135,792	-0,044	0,004
-151,877	-200,000	0,001	-0,096
-150,862	2,001	0,072	0,038
-149,847	189,878	0,044	-0,048
-148,833	800,000	0,025	0,066
-147,818	118,796	0,070	0,063
-146,804	-178,773	0,098	0,002
-145,789	107,379	0,054	-0,047
-144,775	6,900	0,109	-0,059
-143,760	281,556	-0,053	-0,069
-142,745	8,307	-0,039	-0,021
-141,731	7,151	0,064	0,035
-140,716	800,000	-0,006	0,014
-139,702	-166,093	0,109	0,003
-138,687	115,473	0,058	-0,051
-137,672	102,443	-0,058	0,049
-136,658	-200,000	-0,013	-0,079
-135,643	-200,000	-0,005	-0,143
-134,629	-6,353	0,113	0,056
-133,614	-26,876	0,179	-0,076
-132,599	8,637	0,125	-0,068
-131,585	-173,696	-0,019	0,000
-130,570	-200,000	0,001	-0,038
-129,556	800,000	0,042	-0,093
-128,541	338,898	-0,079	-0,112
-127,526	800,000	0,032	-0,079
-126,512	-41,391	0,135	-0,050
-125,497	33,380	-0,055	0,035
-124,483	-60,935	-0,041	0,012
-123,468	102,917	-0,114	-0,097
-122,453	800,000	0,062	0,131
-121,439	-24,076	-0,124	-0,054
-120,424	-31,266	0,079	0,032
-119,410	-123,844	-0,056	0,006
