DTS Sentinel unit serial number:	SN410029Multiplexer serial number:	ORYXHardware model number:	OX2-SRSoftware version number:	ORYX F/W v4,00 Oryx Data Collector v3.7.2.0data status	okinstallation	B4 Nyhavnadifferential loss correction	single-endedforward channel	channel 2reverse channel	N/Adate	2023/12/18time	22:45:13forward acquisition time	300,00reverse acquisition time	0,00gamma	499,1914k internal	0,3124k external	0,3124temperature offset calibration	1,0000default loss term (dB/km)	0,3820temperature slope calibration	1,0000multiplexer offset coefficient	1,0000multiplexer slope coefficient	1,0000fibre end	0,00T internal ref (°C)	21,92T ext. ref 1 (°C)	7,45T ext. ref 2 (°C)	7,55length (m)	temperature (°C)	Stokes	anti-Stokes-744,400	64,940	0,058	-0,044
-743,385	-137,291	-0,370	-0,031
-742,371	390,010	0,034	0,053
-741,356	174,007	-0,198	0,213
-740,342	-200,000	0,016	0,113
-739,327	-57,220	-0,296	0,096
-738,312	800,000	0,025	-0,058
-737,298	21,961	-0,280	0,170
-736,283	-41,184	0,076	0,029
-735,269	285,976	-0,122	0,164
-734,254	800,000	0,055	0,115
-733,239	-116,123	-0,343	-0,047
-732,225	800,000	0,032	-0,068
-731,210	-200,000	-0,022	-0,102
-730,196	-200,000	0,005	0,142
-729,181	56,780	0,079	0,057
-728,167	0,526	-0,038	0,020
-727,152	-112,563	0,167	0,025
-726,137	70,823	-0,069	-0,053
-725,123	-48,081	0,051	-0,018
-724,108	-22,185	-0,114	-0,051
-723,094	-80,988	-0,095	-0,023
-722,079	747,754	0,029	0,058
-721,064	-200,000	-0,005	0,051
-720,050	-36,992	-0,041	-0,016
-719,035	-74,572	-0,158	-0,042
-718,021	-102,069	-0,033	-0,006
-717,006	-200,000	0,000	-0,226
-715,991	377,998	-0,048	0,073
-714,977	-200,000	0,014	-0,084
-713,962	524,455	-0,020	0,036
-712,948	97,247	0,047	-0,040
-711,933	31,540	0,068	0,043
-710,918	125,191	0,049	-0,046
-709,904	317,065	0,022	0,031
-708,889	-113,967	-0,116	-0,017
-707,875	689,719	0,031	-0,060
-706,860	-102,161	0,030	-0,005
-705,845	-65,634	0,050	-0,015
-704,831	0,731	-0,132	0,070
-703,816	496,592	0,053	0,091
-702,802	271,034	0,038	-0,050
-701,787	-1,149	-0,086	-0,045
-700,772	267,080	0,053	-0,070
-699,758	800,000	-0,010	-0,032
-698,743	800,000	0,013	-0,036
-697,729	-56,123	0,045	-0,015
-696,714	172,706	0,091	0,097
-695,699	-96,766	0,090	-0,017
-694,685	-200,000	-0,028	-0,117
-693,670	800,000	-0,044	-0,120
-692,656	183,858	0,007	-0,007
-691,641	61,596	0,046	0,034
-690,627	665,638	-0,049	0,094
-689,612	-1,527	0,025	-0,013
-688,597	410,433	-0,068	-0,108
-687,583	-141,398	0,049	-0,004
-686,568	159,877	-0,070	-0,072
-685,554	646,923	-0,021	-0,041
-684,539	-200,000	0,009	0,095
-683,524	67,432	0,106	0,080
-682,510	159,711	0,076	0,079
-681,495	-197,376	-0,039	-0,000
-680,481	645,838	-0,034	-0,064
-679,466	-200,000	-0,007	-0,051
-678,451	-87,131	-0,069	-0,015
-677,437	202,903	-0,108	-0,124
-676,422	21,239	0,070	0,042
-675,408	-200,000	-0,021	0,119
-674,393	64,583	0,050	0,037
-673,378	-200,000	-0,016	0,081
-672,364	1,985	-0,048	-0,026
-671,349	800,000	-0,067	-0,161
-670,335	-200,000	-0,004	0,023
-669,320	-47,243	0,070	-0,025
-668,305	265,671	-0,116	0,151
-667,291	-200,000	-0,011	0,107
-666,276	-106,283	-0,035	-0,006
-665,262	-83,962	-0,056	-0,013
-664,247	800,000	0,065	-0,143
-663,232	800,000	0,017	0,045
-662,218	24,446	-0,054	0,033
-661,203	117,632	0,030	0,027
-660,189	-102,127	0,051	-0,009
-659,174	-200,000	0,023	-0,099
-658,159	-109,932	-0,150	-0,023
-657,145	216,501	0,111	-0,131
-656,130	-200,000	0,038	-0,163
-655,116	-200,000	-0,004	-0,068
-654,101	140,468	-0,137	-0,134
-653,086	-17,446	-0,029	-0,014
-652,072	-200,000	-0,022	0,078
-651,057	800,000	0,031	-0,066
-650,043	-200,000	-0,023	-0,113
-649,028	800,000	-0,048	0,128
-648,014	410,477	-0,020	0,031
-646,999	-200,000	-0,002	0,057
-645,984	57,370	0,086	-0,062
-644,970	-200,000	-0,007	0,074
-643,955	393,671	-0,063	0,098
-642,941	800,000	0,015	-0,041
-641,926	-200,000	-0,012	-0,103
-640,911	94,033	0,094	-0,079
-639,897	734,080	-0,055	0,109
-638,882	800,000	0,047	0,103
-637,868	800,000	-0,050	0,108
-636,853	-104,867	-0,096	-0,016
-635,838	-200,000	-0,030	-0,108
-634,824	-200,000	0,031	-0,230
-633,809	-29,669	-0,091	0,038
-632,795	800,000	-0,061	-0,127
-631,780	-183,789	-0,067	0,001
-630,765	289,863	0,053	0,071
-629,751	87,883	-0,143	0,117
-628,736	327,902	-0,030	-0,043
-627,722	800,000	-0,060	0,158
-626,707	326,730	0,030	-0,043
-625,692	-200,000	-0,027	-0,135
-624,678	125,548	-0,024	-0,023
-623,663	132,381	-0,033	-0,032
-622,649	601,196	0,080	-0,147
-621,634	-200,000	-0,002	-0,020
-620,619	-64,830	0,050	0,015
-619,605	-104,719	0,150	-0,025
-618,590	-54,585	0,135	-0,045
-617,576	185,212	0,102	-0,112
-616,561	716,228	-0,048	-0,094
-615,546	-200,000	-0,024	0,089
-614,532	-126,179	-0,050	-0,005
-613,517	390,951	0,007	0,011
-612,503	10,107	0,017	0,010
-611,488	-53,210	-0,031	0,010
-610,474	-200,000	-0,000	-0,023
-609,459	39,942	-0,093	0,062
-608,444	179,823	0,023	0,025
-607,430	-200,000	0,006	-0,078
-606,415	-200,000	0,002	-0,109
-605,401	-79,355	-0,120	-0,030
-604,386	-200,000	0,012	0,163
-603,371	800,000	0,033	0,083
-602,357	398,965	-0,078	0,121
-601,342	800,000	0,016	0,047
-600,328	-121,877	-0,090	-0,011
-599,313	33,329	0,132	-0,085
-598,298	390,254	0,072	-0,111
-597,284	1,613	0,176	-0,094
-596,269	-141,996	0,106	-0,008
-595,255	-200,000	-0,001	0,111
-594,240	-200,000	-0,005	-0,022
-593,225	-200,000	0,012	0,066
-592,211	-200,000	0,009	-0,098
-591,196	800,000	-0,024	-0,059
-590,182	143,340	0,085	0,084
-589,167	-200,000	0,002	-0,062
-588,152	67,732	-0,065	-0,049
-587,138	129,064	-0,019	-0,018
-586,123	-168,129	0,087	-0,002
-585,109	800,000	-0,057	-0,129
-584,094	-200,000	0,032	-0,175
-583,079	-200,000	-0,006	-0,060
-582,065	70,638	0,092	-0,071
-581,050	-143,860	0,164	-0,011
-580,036	383,790	0,058	-0,089
-579,021	490,573	0,067	-0,114
-578,006	-200,000	-0,001	0,052
-576,992	4,753	-0,111	-0,060
-575,977	-200,000	0,006	-0,078
-574,963	-200,000	0,026	0,087
-573,948	-86,676	0,152	0,034
-572,934	800,000	-0,047	0,119
-571,919	-37,317	-0,105	0,041
-570,904	-200,000	-0,016	-0,076
-569,890	55,256	-0,026	-0,019
-568,875	-48,722	-0,081	0,029
-567,861	-200,000	0,014	-0,114
-566,846	88,124	-0,092	-0,075
-565,831	800,000	-0,014	0,042
-564,817	153,647	-0,079	-0,080
-563,802	-115,378	-0,043	0,006
-562,788	236,372	-0,063	0,078
-561,773	-200,000	-0,009	-0,060
-560,758	5,909	0,068	0,037
-559,744	644,376	-0,057	-0,109
-558,729	800,000	0,050	0,125
-557,715	800,000	-0,017	-0,037
-556,700	-51,975	0,050	-0,017
-555,685	-6,819	0,056	-0,028
-554,671	-111,410	0,045	0,007
-553,656	486,354	0,057	0,096
-552,642	290,649	-0,031	0,041
-551,627	-12,128	0,032	0,015
-550,612	-106,738	-0,155	0,025
-549,598	-99,426	-0,136	-0,025
-548,583	584,559	-0,034	0,062
-547,569	162,125	-0,039	0,040
-546,554	-166,403	0,115	-0,003
-545,539	-24,946	0,045	-0,020
-544,525	-40,448	-0,132	-0,050
-543,510	678,716	0,044	0,085
-542,496	-141,212	0,066	0,005
-541,481	-200,000	-0,009	-0,087
-540,466	-200,000	-0,031	0,118
-539,452	-200,000	-0,020	0,087
-538,437	278,800	0,053	-0,070
-537,423	-71,955	-0,036	0,010
-536,408	55,564	-0,074	-0,053
-535,393	-182,764	0,047	-0,001
-534,379	-118,482	-0,091	-0,012
-533,364	800,000	-0,011	-0,035
-532,350	-5,223	-0,177	-0,090
-531,335	-115,615	0,084	0,011
-530,321	-166,045	0,058	0,002
-529,306	800,000	-0,022	-0,055
-528,291	48,190	0,010	-0,007
-527,277	69,552	0,085	0,065
-526,262	22,058	0,090	0,054
-525,248	65,094	0,016	-0,012
-524,233	94,598	-0,083	0,070
-523,218	-141,154	0,078	0,006
-522,204	175,120	0,019	0,020
-521,189	-37,952	-0,078	0,030
-520,175	268,590	0,067	0,087
-519,160	800,000	-0,045	0,126
-518,145	-200,000	0,008	-0,027
-517,131	-35,880	-0,056	-0,022
-516,116	104,414	-0,019	0,017
-515,102	46,933	0,103	-0,070
-514,087	-200,000	-0,006	-0,090
-513,072	59,770	-0,063	-0,046
-512,058	-200,000	-0,022	0,117
-511,043	-198,877	0,073	-0,000
-510,029	211,188	-0,013	-0,015
-509,014	112,271	-0,047	-0,042
-507,999	-33,614	-0,077	-0,031
-506,985	-135,972	0,157	-0,013
-505,970	214,459	-0,084	-0,099
-504,956	24,762	0,062	-0,038
-503,941	-50,049	0,099	0,034
-502,926	-0,832	0,119	0,062
-501,912	-54,814	0,107	0,036
-500,897	-200,000	0,008	-0,077
-499,883	-200,000	0,004	-0,038
-498,868	53,710	-0,024	0,017
-497,853	70,490	-0,186	0,142
-496,839	69,756	0,069	-0,052
-495,824	-153,884	0,060	0,003
-494,810	30,528	-0,024	-0,015
-493,795	-123,607	0,054	-0,006
-492,781	85,551	-0,150	-0,121
-491,766	-200,000	-0,005	-0,140
-490,751	84,483	-0,101	-0,081
-489,737	-114,652	0,111	-0,015
-488,722	-33,463	-0,053	-0,021
-487,708	-111,761	0,090	0,013
-486,693	58,527	0,072	0,052
-485,678	-30,991	0,069	-0,028
-484,664	52,484	-0,050	-0,035
-483,649	-128,637	-0,088	0,009
-482,635	-117,048	0,018	0,002
-481,620	800,000	0,082	-0,193
-480,605	47,255	0,114	0,078
-479,591	-200,000	-0,003	0,039
-478,576	-200,000	-0,040	-0,171
-477,562	742,176	-0,028	-0,057
-476,547	36,176	0,091	-0,059
-475,532	800,000	-0,041	-0,092
-474,518	494,379	0,053	0,091
-473,503	152,755	0,053	-0,054
-472,489	18,019	0,079	0,046
-471,474	524,758	-0,112	0,195
-470,459	634,473	-0,094	0,176
-469,445	-200,000	-0,009	-0,076
-468,430	-200,000	0,025	-0,121
-467,416	79,307	0,034	-0,027
-466,401	-3,631	0,067	-0,034
-465,386	78,004	0,136	0,107
-464,372	800,000	-0,047	0,116
-463,357	-42,507	-0,091	0,034
-462,343	453,421	0,006	-0,010
-461,328	-200,000	-0,174	-0,000
-460,313	-115,493	0,151	-0,021
-459,299	-200,000	0,023	0,079
-458,284	118,243	0,143	0,130
-457,270	23,907	-0,145	0,088
-456,255	23,338	-0,091	-0,055
-455,241	96,644	-0,073	0,062
-454,226	-200,000	0,008	-0,034
-453,211	-16,489	-0,122	0,057
-452,197	-75,815	0,066	-0,017
-451,182	800,000	-0,020	0,065
-450,168	-200,000	-0,003	0,049
-449,153	-200,000	0,016	-0,083
-448,138	-200,000	0,012	-0,100
-447,124	513,293	0,054	-0,093
-446,109	253,736	0,048	-0,060
-445,095	-59,954	0,084	0,026
-444,080	-153,364	0,126	-0,006
-443,065	-5,829	0,025	0,012
-442,051	9,879	0,020	0,011
-441,036	-200,000	0,043	-0,168
-440,022	-162,392	0,026	-0,001
-439,007	-200,000	-0,005	-0,048
-437,992	155,179	-0,122	0,124
-436,978	-200,000	0,028	0,174
-435,963	194,633	0,089	0,099
-434,949	-200,000	0,025	-0,116
-433,934	-95,214	0,056	-0,011
-432,919	-126,119	0,076	-0,008
-431,905	-137,788	0,019	-0,002
-430,890	-41,789	0,146	0,055
-429,876	-182,992	-0,048	-0,001
-428,861	23,819	-0,052	-0,031
-427,846	425,622	0,043	0,069
-426,832	-150,436	-0,010	-0,001
-425,817	-84,223	-0,076	-0,018
-424,803	156,099	0,070	-0,071
-423,788	-200,000	0,011	-0,054
-422,773	-169,323	0,083	-0,002
-421,759	-200,000	0,019	0,065
-420,744	-143,150	-0,064	-0,004
-419,730	-44,158	0,032	0,012
-418,715	-120,256	0,087	0,011
-417,701	-76,135	-0,127	-0,033
-416,686	-104,723	-0,110	-0,018
-415,671	800,000	0,017	0,041
-414,657	76,571	-0,067	0,052
-413,642	-200,000	-0,004	0,050
-412,628	0,223	-0,093	0,048
-411,613	109,262	-0,020	0,018
-410,598	-60,893	-0,052	-0,016
-409,584	-110,945	-0,054	0,008
-408,569	197,803	0,061	0,068
-407,555	800,000	-0,046	-0,106
-406,540	83,778	0,099	0,079
-405,525	-121,020	-0,163	0,020
-404,511	-97,723	-0,029	-0,005
-403,496	489,972	-0,105	-0,178
-402,482	702,641	0,037	-0,071
-401,467	800,000	0,024	0,051
-400,452	800,000	0,049	-0,113
-399,438	643,589	-0,034	0,064
-398,423	39,983	0,036	0,024
-397,409	380,416	-0,037	-0,056
-396,394	-66,440	0,056	-0,016
-395,379	190,703	0,049	0,054
-394,365	85,307	0,143	0,115
-393,350	-200,000	0,028	0,204
-392,336	-29,121	-0,067	-0,028
-391,321	-11,494	0,034	-0,017
-390,306	-200,000	0,029	-0,131
-389,292	-29,885	0,091	0,038
-388,277	-18,209	0,047	0,022
-387,263	253,143	-0,035	0,044
-386,248	30,386	0,085	0,053
-385,233	-200,000	-0,012	-0,127
-384,219	152,702	0,118	-0,119
-383,204	800,000	0,002	0,006
-382,190	800,000	-0,057	-0,140
-381,175	-97,919	-0,088	0,016
-380,160	-23,065	0,125	0,055
-379,146	-143,713	0,162	-0,011
-378,131	88,786	0,079	0,064
-377,117	208,693	-0,061	-0,070
-376,102	59,792	0,088	-0,064
-375,088	64,477	-0,127	-0,094
-374,073	-107,719	0,061	0,010
-373,058	11,929	-0,108	-0,061
-372,044	-152,538	-0,018	0,001
-371,029	-49,382	0,091	-0,032
-370,015	800,000	-0,070	-0,168
-369,000	84,040	-0,085	0,068
-367,985	-200,000	-0,024	0,108
-366,971	74,371	-0,075	-0,058
-365,956	102,061	0,090	0,077
-364,942	-200,000	0,001	-0,044
-363,927	-200,000	0,027	-0,160
-362,912	248,738	-0,002	0,003
-361,898	-200,000	0,012	-0,045
-360,883	516,129	-0,044	0,075
-359,869	-200,000	0,010	0,131
-358,854	-123,886	-0,027	0,003
-357,839	-135,561	-0,082	0,007
-356,825	519,682	0,028	0,048
-355,810	-200,000	0,001	0,034
-354,796	66,478	-0,143	-0,106
-353,781	155,590	0,067	-0,068
-352,766	-84,109	-0,013	-0,003
-351,752	-94,730	-0,071	0,014
-350,737	-2,494	0,082	0,042
-349,723	79,763	-0,084	0,066
-348,708	152,450	-0,016	0,016
-347,693	-200,000	-0,028	0,120
-346,679	97,464	-0,038	-0,032
-345,664	-107,374	-0,115	-0,018
-344,650	89,461	-0,029	-0,023
-343,635	-200,000	0,000	0,052
-342,620	800,000	0,048	-0,130
-341,606	-200,000	-0,044	-0,170
-340,591	-125,444	-0,062	-0,007
-339,577	-152,926	-0,056	-0,003
-338,562	-39,701	-0,021	-0,008
-337,548	140,738	0,014	-0,013
-336,533	800,000	-0,043	0,099
-335,518	144,231	0,072	-0,071
-334,504	137,819	-0,124	0,119
-333,489	800,000	-0,010	0,029
-332,475	134,015	-0,125	0,119
-331,460	-200,000	0,021	0,124
-330,445	12,515	-0,036	0,020
-329,431	153,236	-0,051	0,051
-328,416	298,332	-0,018	-0,024
-327,402	4,579	0,097	-0,052
-326,387	-200,000	-0,009	0,106
-325,372	503,401	-0,062	-0,106
-324,358	-113,227	0,056	-0,008
-323,343	44,151	-0,108	0,072
-322,329	72,360	0,114	-0,087
-321,314	-110,780	0,178	0,027
-320,299	260,191	-0,009	-0,012
-319,285	-200,000	-0,006	-0,057
-318,270	268,657	-0,036	-0,046
-317,256	-36,036	-0,103	-0,041
-316,241	427,460	-0,013	0,021
-315,226	82,349	-0,086	0,068
-314,212	241,439	0,053	-0,065
-313,197	35,597	-0,073	-0,047
-312,183	-200,000	-0,016	0,061
-311,168	9,595	0,076	0,042
-310,153	95,785	-0,029	0,024
-309,139	-110,325	-0,131	-0,020
-308,124	-44,593	-0,117	0,043
-307,110	11,308	0,089	-0,050
-306,095	76,040	0,150	0,116
-305,080	-82,280	0,083	0,020
-304,066	76,847	-0,075	-0,058
-303,051	-200,000	-0,012	-0,042
-302,037	243,032	0,052	-0,064
-301,022	-200,000	-0,013	-0,056
-300,008	-36,438	0,035	0,014
-298,993	-200,000	0,009	-0,055
-297,978	-200,000	0,004	0,054
-296,964	57,795	-0,053	0,038
-295,949	-25,424	-0,183	0,079
-294,935	99,268	-0,045	0,038
-293,920	-200,000	0,003	0,015
-292,905	-149,443	0,033	0,002
-291,891	11,949	-0,052	0,029
-290,876	-68,785	0,046	-0,013
-289,862	-49,321	-0,160	-0,056
-288,847	342,901	0,013	0,019
-287,832	-200,000	0,010	-0,047
-286,818	-200,000	0,005	-0,092
-285,803	-2,130	-0,069	0,035
-284,789	267,302	0,098	0,126
-283,774	2,419	-0,026	0,014
-282,759	205,926	0,062	0,071
-281,745	-200,000	-0,011	0,055
-280,730	-110,660	-0,112	-0,017
-279,716	-1,774	-0,108	0,055
-278,701	-94,058	0,138	-0,027
-277,686	-200,000	0,001	0,073
-276,672	-200,000	0,000	-0,052
-275,657	-39,045	0,154	-0,059
-274,643	-58,828	0,058	0,018
-273,628	-200,000	0,004	-0,047
-272,613	45,870	-0,030	-0,020
-271,599	-113,861	0,116	0,016
-270,584	-23,066	0,145	0,063
-269,570	-200,000	-0,010	0,059
-268,555	800,000	-0,014	-0,044
-267,540	34,137	-0,059	0,038
-266,526	120,966	-0,040	0,036
-265,511	-200,000	-0,001	-0,074
-264,497	-30,989	0,114	0,047
-263,482	-75,131	0,072	0,019
-262,467	327,525	0,140	0,197
-261,453	277,114	-0,056	0,073
-260,438	-200,000	-0,025	-0,092
-259,424	-35,790	-0,050	-0,020
-258,409	-200,000	0,004	0,018
-257,395	-18,386	0,112	-0,051
-256,380	311,951	0,080	0,110
-255,365	-200,000	0,007	0,082
-254,351	-21,535	-0,046	0,020
-253,336	-200,000	0,001	0,015
-252,322	-119,766	-0,134	-0,017
-251,307	-35,714	0,054	0,021
-250,292	96,070	-0,046	0,038
-249,278	286,989	0,031	-0,040
-248,263	97,602	-0,006	0,005
-247,249	171,610	0,035	0,037
-246,234	-104,969	-0,082	0,014
-245,219	118,194	-0,057	-0,051
-244,205	-200,000	0,028	-0,140
-243,190	44,565	-0,030	0,020
-242,176	785,513	0,023	-0,047
-241,161	474,240	0,021	-0,035
-240,146	-200,000	0,019	0,077
-239,132	-152,225	-0,128	-0,007
-238,117	80,355	0,058	-0,046
-237,103	663,051	-0,011	-0,021
-236,088	-200,000	0,003	0,056
-235,073	-41,056	-0,067	0,025
-234,059	251,692	0,051	-0,064
-233,044	117,413	0,144	0,130
-232,030	-200,000	-0,002	0,019
-231,015	-50,797	-0,131	-0,045
-230,000	-200,000	0,009	-0,066
-228,986	-93,452	0,056	-0,011
-227,971	800,000	-0,045	0,132
-226,957	379,078	-0,060	0,090
-225,942	388,373	0,060	0,091
-224,927	-200,000	0,000	0,118
-223,913	800,000	-0,026	-0,059
-222,898	-172,635	-0,059	0,001
-221,884	383,240	-0,042	-0,063
-220,869	-200,000	-0,004	0,049
-219,855	-200,000	0,037	0,180
-218,840	143,266	0,037	0,036
-217,825	-56,009	0,140	0,045
-216,811	655,939	-0,048	0,090
-215,796	-115,191	-0,217	-0,030
-214,782	-200,000	-0,008	-0,155
-213,767	-160,888	0,070	-0,003
-212,752	-95,187	0,143	0,028
-211,738	800,000	-0,031	0,086
-210,723	57,573	0,066	0,047
-209,709	800,000	-0,030	-0,074
-208,694	41,707	0,050	-0,033
-207,679	-81,777	0,095	0,022
-206,665	435,979	0,066	0,104
-205,650	-200,000	0,003	-0,019
-204,636	800,000	0,007	-0,017
-203,621	-200,000	-0,032	0,113
-202,606	-200,000	-0,003	0,092
-201,592	-180,342	0,078	0,001
-200,577	-158,527	-0,096	-0,004
-199,563	214,478	-0,091	0,106
-198,548	125,017	-0,053	0,049
-197,533	-21,641	0,132	-0,058
-196,519	127,293	-0,061	0,056
-195,504	46,135	0,063	-0,043
-194,490	-200,000	-0,009	0,034
-193,475	-33,517	0,041	0,016
-192,460	-200,000	-0,032	-0,108
-191,446	468,833	0,025	-0,040
-190,431	150,709	0,060	0,060
-189,417	174,629	0,058	-0,061
-188,402	143,700	-0,052	-0,050
-187,387	568,176	-0,022	0,039
-186,373	444,275	-0,039	-0,062
-185,358	263,091	-0,048	0,061
-184,344	-29,098	-0,085	0,035
-183,329	-160,162	-0,104	-0,004
-182,315	43,068	-0,052	-0,034
-181,300	-200,000	-0,013	-0,119
-180,285	-200,000	-0,000	-0,165
-179,271	-30,496	-0,059	0,024
-178,256	-117,090	0,083	0,011
-177,242	52,906	-0,129	-0,090
-176,227	-107,699	0,061	0,010
-175,212	81,066	0,052	0,041
-174,198	83,458	-0,061	0,048
-173,183	49,480	-0,074	0,051
-172,169	-38,931	0,099	-0,038
-171,154	169,877	-0,098	-0,102
-170,139	800,000	-0,030	-0,076
-169,125	-200,000	-0,020	0,067
-168,110	-200,000	0,028	0,129
-167,096	-130,178	-0,119	-0,012
-166,081	228,700	0,105	0,125
-165,066	-200,000	0,013	-0,121
-164,052	-130,583	-0,052	0,005
-163,037	86,379	0,023	0,019
-162,023	-200,000	0,009	0,088
-161,008	21,079	-0,074	-0,043
-159,993	766,520	0,039	0,077
-158,979	-200,000	0,021	0,113
-157,964	86,420	-0,041	-0,033
-156,950	-200,000	0,001	0,026
-155,935	-200,000	-0,015	-0,097
-154,920	-150,316	0,083	-0,005
-153,906	-76,957	0,026	0,007
-152,891	-200,000	-0,015	-0,168
-151,877	187,068	0,047	-0,051
-150,862	-200,000	-0,010	-0,034
-149,847	196,262	-0,014	0,016
-148,833	-23,278	-0,142	0,062
-147,818	-43,531	0,050	0,018
-146,804	775,569	-0,043	-0,086
-145,789	86,459	0,086	-0,069
-144,775	800,000	0,024	0,056
-143,760	-163,535	-0,120	-0,004
-142,745	32,018	0,073	-0,046
-141,731	696,798	-0,039	-0,074
-140,716	654,660	0,032	0,060
-139,702	530,932	0,058	-0,099
-138,687	27,570	0,051	0,031
-137,672	672,959	-0,055	-0,105
-136,658	800,000	-0,011	0,032
-135,643	-54,433	-0,138	-0,045
-134,629	-200,000	-0,011	-0,124
-133,614	800,000	0,061	0,167
-132,599	-74,633	0,041	-0,011
-131,585	800,000	0,006	0,015
-130,570	-114,889	-0,024	0,003
-129,556	800,000	-0,021	0,056
-128,541	57,586	0,063	0,045
-127,526	-200,000	-0,018	-0,107
-126,512	-200,000	-0,010	-0,101
-125,497	265,897	0,075	0,095
-124,483	-20,135	-0,063	0,028
-123,468	800,000	0,031	-0,072
-122,453	60,326	0,039	-0,028
-121,439	73,535	0,118	-0,090
-120,424	609,556	-0,043	0,079
-119,410	-100,445	0,023	0,004
