DTS Sentinel unit serial number:	SN410029Multiplexer serial number:	ORYXHardware model number:	OX2-SRSoftware version number:	ORYX F/W v4,00 Oryx Data Collector v3.7.2.0data status	okinstallation	B4 Nyhavnadifferential loss correction	single-endedforward channel	channel 2reverse channel	N/Adate	2023/12/15time	17:15:13forward acquisition time	300,00reverse acquisition time	0,00gamma	499,1914k internal	0,3142k external	0,3142temperature offset calibration	1,0000default loss term (dB/km)	0,3820temperature slope calibration	1,0000multiplexer offset coefficient	1,0000multiplexer slope coefficient	1,0000fibre end	0,00T internal ref (°C)	18,17T ext. ref 1 (°C)	3,92T ext. ref 2 (°C)	4,03length (m)	temperature (°C)	Stokes	anti-Stokes-744,400	-8,736	-0,057	0,028
-743,385	-30,210	-0,154	0,064
-742,371	-153,343	0,255	0,013
-741,356	-57,863	-0,286	-0,092
-740,342	-150,851	0,108	-0,006
-739,327	-98,587	-0,249	0,047
-738,312	-18,807	0,049	0,023
-737,298	75,279	-0,257	0,201
-736,283	153,693	0,055	0,056
-735,269	-133,697	-0,196	0,018
-734,254	88,786	0,076	-0,063
-733,239	-42,451	-0,365	-0,137
-732,225	337,756	0,120	0,174
-731,210	129,103	-0,141	-0,134
-730,196	218,404	-0,142	-0,169
-729,181	-200,000	0,051	0,177
-728,167	-200,000	0,015	-0,144
-727,152	514,569	-0,023	0,040
-726,137	-73,382	-0,075	-0,020
-725,123	71,521	-0,010	0,008
-724,108	121,288	-0,050	0,046
-723,094	800,000	0,043	-0,120
-722,079	-200,000	-0,024	-0,087
-721,064	77,384	-0,052	-0,041
-720,050	-107,574	0,074	-0,012
-719,035	-200,000	0,003	0,029
-718,021	262,153	-0,060	-0,078
-717,006	800,000	-0,060	-0,126
-715,991	299,422	-0,063	-0,086
-714,977	649,432	-0,058	0,111
-713,962	717,964	-0,030	-0,059
-712,948	-108,044	0,201	0,032
-711,933	197,646	-0,029	0,032
-710,918	-177,516	-0,093	0,002
-709,904	-120,484	-0,085	-0,011
-708,889	334,883	0,047	0,068
-707,875	142,064	-0,018	-0,017
-706,860	90,345	0,075	0,062
-705,845	-81,677	0,060	-0,014
-704,831	800,000	-0,017	-0,039
-703,816	713,676	-0,035	0,070
-702,802	1,508	-0,105	-0,055
-701,787	108,466	0,086	-0,076
-700,772	-81,039	-0,074	-0,018
-699,758	800,000	0,017	0,044
-698,743	764,617	0,040	0,081
-697,729	28,571	-0,043	-0,027
-696,714	77,292	-0,036	0,028
-695,699	237,344	0,040	0,049
-694,685	70,927	-0,064	0,049
-693,670	800,000	-0,026	-0,058
-692,656	-200,000	-0,011	-0,141
-691,641	437,716	-0,105	0,170
-690,627	272,207	-0,080	0,104
-689,612	42,891	0,106	-0,071
-688,597	32,076	-0,128	-0,081
-687,583	-200,000	-0,060	-0,202
-686,568	236,366	-0,006	0,007
-685,554	339,734	0,029	0,042
-684,539	-69,652	0,069	0,019
-683,524	166,742	0,013	-0,014
-682,510	-22,468	0,026	0,012
-681,495	-200,000	-0,004	-0,035
-680,481	651,833	-0,046	-0,088
-679,466	136,825	-0,060	0,058
-678,451	267,056	0,006	0,008
-677,437	386,619	-0,040	-0,061
-676,422	-45,193	-0,117	-0,043
-675,408	-200,000	-0,002	0,196
-674,393	-200,000	0,016	-0,113
-673,378	225,713	-0,036	-0,044
-672,364	150,760	-0,053	-0,053
-671,349	800,000	0,040	-0,086
-670,335	800,000	0,014	-0,032
-669,320	-200,000	-0,013	-0,122
-668,305	-131,840	0,101	0,010
-667,291	33,826	-0,099	0,063
-666,276	76,623	-0,051	0,040
-665,262	-151,537	-0,185	-0,010
-664,247	44,710	-0,099	-0,067
-663,232	746,275	-0,074	0,148
-662,218	800,000	0,024	0,066
-661,203	4,617	0,109	0,059
-660,189	-157,368	-0,123	-0,005
-659,174	39,203	0,056	0,037
-658,159	-200,000	0,005	-0,194
-657,145	-40,723	-0,071	-0,027
-656,130	158,225	0,115	0,118
-655,116	14,325	0,206	0,118
-654,101	-164,462	-0,071	-0,002
-653,086	-200,000	-0,012	-0,085
-652,072	29,628	-0,096	-0,060
-651,057	27,682	-0,098	-0,061
-650,043	28,308	-0,119	-0,074
-649,028	107,903	0,078	-0,069
-648,014	61,059	-0,102	0,075
-646,999	-37,431	0,153	0,060
-645,984	-108,007	-0,141	0,022
-644,970	-51,089	-0,070	-0,024
-643,955	16,176	-0,029	0,017
-642,941	167,965	-0,038	0,040
-641,926	-63,617	0,028	0,008
-640,911	23,929	-0,119	0,072
-639,897	-120,717	0,084	0,010
-638,882	-48,281	0,058	-0,020
-637,868	86,593	0,078	-0,063
-636,853	-159,770	-0,068	0,003
-635,838	115,702	0,012	0,010
-634,824	800,000	0,040	0,087
-633,809	-200,000	-0,036	0,206
-632,795	-200,000	-0,008	0,058
-631,780	19,886	0,113	0,067
-630,765	426,215	-0,078	-0,125
-629,751	82,661	-0,065	-0,052
-628,736	125,840	0,052	0,049
-627,722	5,563	-0,137	-0,074
-626,707	-88,642	-0,068	-0,015
-625,692	513,283	0,075	0,130
-624,678	-45,363	-0,036	-0,013
-623,663	211,680	0,041	-0,048
-622,649	-182,971	-0,042	0,001
-621,634	100,356	-0,107	0,092
-620,619	-58,933	0,082	0,026
-619,605	-200,000	0,032	-0,114
-618,590	-200,000	-0,007	0,030
-617,576	-129,874	0,059	-0,006
-616,561	-200,000	0,023	-0,137
-615,546	-26,607	-0,210	-0,090
-614,532	-200,000	-0,029	0,128
-613,517	-52,356	-0,215	-0,073
-612,503	-200,000	-0,014	0,109
-611,488	122,079	0,072	-0,066
-610,474	27,399	-0,122	-0,075
-609,459	-93,312	-0,060	0,012
-608,444	92,184	0,022	0,018
-607,430	-200,000	0,014	-0,081
-606,415	800,000	-0,032	-0,094
-605,401	190,559	0,032	-0,035
-604,386	-43,954	0,074	-0,027
-603,371	800,000	0,025	-0,056
-602,357	-200,000	-0,015	-0,048
-601,342	291,502	-0,077	-0,104
-600,328	19,854	-0,090	0,053
-599,313	800,000	0,028	0,075
-598,298	-43,722	0,137	-0,051
-597,284	800,000	0,071	-0,155
-596,269	-187,764	-0,092	-0,001
-595,255	163,594	0,045	0,047
-594,240	333,530	0,054	-0,078
-593,225	-0,975	0,022	-0,011
-592,211	800,000	-0,017	-0,045
-591,196	60,438	-0,142	0,103
-590,182	509,508	0,039	-0,067
-589,167	-200,000	-0,021	0,111
-588,152	-41,364	0,124	0,047
-587,138	-200,000	0,008	-0,108
-586,123	-200,000	0,002	0,009
-585,109	-20,493	-0,128	0,058
-584,094	-63,399	0,070	0,021
-583,079	-52,788	0,085	-0,029
-582,065	72,159	-0,049	0,038
-581,050	292,418	0,029	0,039
-580,036	-63,356	-0,138	0,042
-579,021	129,154	-0,033	-0,031
-578,006	-200,000	-0,012	0,083
-576,992	800,000	-0,055	-0,144
-575,977	337,092	0,042	-0,060
-574,963	-200,000	0,043	0,217
-573,948	85,141	0,135	0,109
-572,934	69,706	0,142	0,108
-571,919	-200,000	-0,016	-0,112
-570,904	-63,584	0,016	0,005
-569,890	-200,000	-0,006	-0,046
-568,875	-200,000	0,022	-0,100
-567,861	-111,586	0,058	0,009
-566,846	121,367	0,135	0,124
-565,831	120,000	0,057	-0,052
-564,817	669,999	-0,040	-0,077
-563,802	-82,803	-0,054	0,013
-562,788	113,836	-0,094	-0,084
-561,773	193,263	0,131	-0,146
-560,758	82,108	0,003	0,002
-559,744	2,787	-0,015	0,008
-558,729	504,377	-0,061	0,105
-557,715	-5,119	0,049	-0,025
-556,700	565,783	-0,024	0,042
-555,685	-16,074	0,136	-0,063
-554,671	316,985	0,098	-0,136
-553,656	-71,223	-0,036	-0,010
-552,642	-61,975	-0,109	0,033
-551,627	400,414	-0,102	0,158
-550,612	3,141	0,058	0,031
-549,598	-103,475	-0,144	-0,025
-548,583	-69,179	-0,100	-0,028
-547,569	-24,849	-0,128	-0,056
-546,554	264,222	-0,058	0,075
-545,539	667,686	-0,057	0,109
-544,525	800,000	0,077	0,170
-543,510	-200,000	-0,010	0,054
-542,496	-200,000	-0,018	-0,113
-541,481	75,569	0,039	0,030
-540,466	-200,000	0,014	0,141
-539,452	163,014	-0,039	0,040
-538,437	773,677	-0,048	0,096
-537,423	-200,000	0,017	0,055
-536,408	41,622	0,160	0,106
-535,393	-98,365	-0,050	0,009
-534,379	154,003	-0,145	-0,146
-533,364	-21,814	-0,191	-0,085
-532,350	-200,000	0,025	-0,094
-531,335	-170,485	-0,052	-0,001
-530,321	409,360	-0,058	-0,090
-529,306	532,855	0,032	-0,055
-528,291	-46,742	-0,094	-0,034
-527,277	543,659	0,032	-0,057
-526,262	800,000	0,087	0,202
-525,248	-96,606	-0,096	0,018
-524,233	-47,932	0,041	0,014
-523,218	307,860	-0,027	0,037
-522,204	800,000	-0,016	-0,038
-521,189	-200,000	0,022	-0,143
-520,175	-73,948	-0,111	0,029
-519,160	800,000	-0,019	-0,041
-518,145	-54,549	0,054	-0,018
-517,131	-200,000	-0,001	0,048
-516,116	234,859	0,033	-0,041
-515,102	-200,000	-0,011	-0,069
-514,087	41,357	-0,071	0,047
-513,072	-200,000	0,006	-0,039
-512,058	800,000	0,021	-0,050
-511,043	800,000	-0,042	-0,130
-510,029	800,000	-0,026	-0,062
-509,014	-200,000	-0,028	0,127
-507,999	-200,000	0,007	-0,038
-506,985	272,064	0,031	0,040
-505,970	-143,967	-0,084	-0,006
-504,956	-200,000	-0,020	0,159
-503,941	-65,440	0,081	-0,024
-502,926	-100,073	0,032	-0,006
-501,912	-1,926	0,123	-0,063
-500,897	-179,427	0,096	0,002
-499,883	-200,000	-0,001	0,098
-498,868	384,700	-0,038	-0,057
-497,853	-200,000	-0,009	-0,038
-496,839	23,321	0,133	-0,080
-495,824	-57,964	0,107	0,034
-494,810	-200,000	-0,036	-0,122
-493,795	-200,000	-0,017	-0,099
-492,781	-91,255	-0,005	-0,001
-491,766	-50,782	-0,077	0,027
-490,751	36,320	0,048	-0,031
-489,737	-70,208	0,134	-0,037
-488,722	692,855	0,037	-0,071
-487,708	-57,410	0,064	-0,020
-486,693	800,000	0,037	-0,082
-485,678	332,343	-0,096	-0,136
-484,664	-200,000	0,014	-0,096
-483,649	-200,000	0,007	0,114
-482,635	800,000	-0,039	-0,109
-481,620	800,000	0,024	0,078
-480,605	-200,000	-0,017	0,113
-479,591	37,591	0,046	-0,030
-478,576	800,000	0,025	-0,059
-477,562	34,043	-0,092	-0,059
-476,547	-200,000	-0,003	0,027
-475,532	293,277	0,065	-0,087
-474,518	-200,000	-0,014	0,057
-473,503	3,092	-0,036	0,019
-472,489	50,898	0,029	-0,020
-471,474	711,566	-0,066	0,128
-470,459	324,550	-0,033	0,046
-469,445	-63,209	-0,037	-0,011
-468,430	296,936	0,074	-0,100
-467,416	-200,000	0,000	-0,033
-466,401	-12,093	-0,057	-0,027
-465,386	31,504	-0,050	0,032
-464,372	-200,000	0,002	0,062
-463,357	-200,000	-0,039	-0,156
-462,343	348,448	0,057	0,082
-461,328	800,000	-0,027	-0,083
-460,313	34,479	0,119	0,076
-459,299	155,436	0,082	-0,083
-458,284	800,000	0,033	-0,077
-457,270	-200,000	-0,027	-0,149
-456,255	-30,315	-0,049	-0,020
-455,241	-200,000	0,035	-0,121
-454,226	232,830	0,053	0,064
-453,211	-200,000	-0,006	0,023
-452,197	800,000	-0,016	0,049
-451,182	-200,000	0,002	0,078
-450,168	467,570	-0,025	0,042
-449,153	199,932	0,018	0,020
-448,138	800,000	-0,039	0,089
-447,124	317,893	-0,029	0,040
-446,109	751,066	0,032	0,063
-445,095	800,000	0,068	0,172
-444,080	-200,000	0,002	0,023
-443,065	-200,000	0,002	-0,029
-442,051	-90,176	0,056	0,012
-441,036	800,000	0,035	-0,079
-440,022	5,031	0,116	-0,062
-439,007	341,500	-0,030	0,043
-437,992	51,450	0,048	-0,033
-436,978	40,880	0,098	0,064
-435,963	-33,653	0,103	-0,041
-434,949	800,000	-0,011	-0,032
-433,934	-27,495	-0,031	-0,013
-432,919	273,502	0,058	-0,076
-431,905	-47,734	-0,026	-0,009
-430,890	-200,000	-0,011	0,070
-429,876	143,616	0,128	0,125
-428,861	469,616	-0,086	0,142
-427,846	65,158	-0,099	0,073
-426,832	11,313	0,070	0,039
-425,817	103,146	0,085	0,073
-424,803	162,137	0,066	-0,068
-423,788	-90,559	-0,007	0,001
-422,773	180,796	0,065	0,070
-421,759	205,407	-0,023	-0,027
-420,744	-48,395	0,052	0,018
-419,730	123,070	-0,105	-0,096
-418,715	800,000	0,022	0,052
-417,701	-33,232	-0,079	-0,032
-416,686	12,408	-0,122	-0,069
-415,671	-200,000	0,005	-0,064
-414,657	16,235	0,073	0,042
-413,642	-200,000	-0,012	-0,077
-412,628	-200,000	0,012	0,058
-411,613	-31,832	0,069	-0,028
-410,598	229,129	0,173	-0,207
-409,584	41,102	0,035	0,023
-408,569	-200,000	-0,026	0,090
-407,555	114,525	-0,079	0,070
-406,540	707,923	0,081	0,157
-405,525	-200,000	-0,001	-0,077
-404,511	74,776	-0,064	0,049
-403,496	-200,000	-0,023	0,079
-402,482	-200,000	-0,015	0,071
-401,467	-171,963	0,153	-0,004
-400,452	-200,000	-0,003	-0,095
-399,438	-200,000	0,003	0,044
-398,423	-200,000	0,014	-0,057
-397,409	800,000	-0,045	-0,141
-396,394	-9,527	-0,186	-0,090
-395,379	-200,000	0,045	-0,175
-394,365	-42,044	0,079	-0,029
-393,350	-83,483	0,047	-0,011
-392,336	75,215	-0,020	0,015
-391,321	-200,000	-0,004	0,070
-390,306	-4,912	-0,036	-0,018
-389,292	-72,459	-0,074	-0,020
-388,277	-56,113	0,136	-0,044
-387,263	-200,000	0,016	0,075
-386,248	-111,934	0,045	0,007
-385,233	-61,077	-0,123	-0,038
-384,219	195,047	0,061	-0,067
-383,204	3,521	-0,141	-0,075
-382,190	653,113	-0,097	-0,182
-381,175	-106,436	-0,094	-0,015
-380,160	375,421	0,021	0,032
-379,146	538,309	-0,040	-0,070
-378,131	-71,456	-0,041	-0,011
-377,117	-200,000	-0,029	0,092
-376,102	233,272	-0,048	-0,058
-375,088	-200,000	-0,011	-0,116
-374,073	421,603	-0,100	-0,157
-373,058	404,248	0,045	0,069
-372,044	-168,899	0,148	-0,004
-371,029	-200,000	0,008	0,077
-370,015	800,000	0,070	0,150
-369,000	-21,610	-0,179	0,079
-367,985	-26,281	0,114	-0,048
-366,971	-111,890	-0,093	0,013
-365,956	800,000	0,038	-0,104
-364,942	132,609	0,184	-0,173
-363,927	-200,000	-0,002	-0,022
-362,912	-11,228	-0,021	0,010
-361,898	-200,000	-0,044	0,187
-360,883	182,382	-0,092	-0,099
-359,869	800,000	0,033	-0,098
-358,854	41,269	-0,040	0,027
-357,839	-200,000	-0,047	0,199
-356,825	800,000	-0,034	0,070
-355,810	-67,504	-0,062	-0,018
-354,796	-200,000	-0,022	-0,101
-353,781	20,456	0,033	0,020
-352,766	800,000	0,050	0,139
-351,752	-200,000	-0,019	0,135
-350,737	15,597	0,037	0,021
-349,723	156,504	-0,126	-0,127
-348,708	-42,525	-0,109	0,040
-347,693	-53,415	0,039	-0,013
-346,679	747,944	-0,066	-0,131
-345,664	-200,000	0,010	-0,115
-344,650	-200,000	0,001	-0,104
-343,635	-200,000	0,005	0,139
-342,620	-87,654	-0,078	0,017
-341,606	183,159	-0,031	-0,033
-340,591	243,829	-0,037	0,046
-339,577	-200,000	-0,013	-0,089
-338,562	687,820	-0,019	-0,037
-337,548	-63,865	-0,104	-0,031
-336,533	800,000	0,029	0,083
-335,518	-200,000	0,025	0,097
-334,504	-21,297	0,101	0,045
-333,489	129,300	-0,045	-0,042
-332,475	-200,000	-0,004	0,054
-331,460	103,222	-0,064	-0,055
-330,445	340,031	0,034	-0,049
-329,431	-134,237	0,067	0,006
-328,416	-196,534	0,295	0,001
-327,402	148,400	0,060	0,059
-326,387	252,472	0,106	-0,132
-325,372	30,624	0,061	0,038
-324,358	-200,000	-0,003	-0,037
-323,343	-52,546	0,135	-0,045
-322,329	-200,000	-0,015	0,076
-321,314	-73,623	0,044	0,012
-320,299	263,382	0,020	0,025
-319,285	-113,541	-0,024	-0,003
-318,270	-46,656	0,026	0,009
-317,256	580,251	-0,066	-0,118
-316,241	800,000	0,042	-0,103
-315,226	125,057	0,050	0,045
-314,212	373,933	-0,060	0,089
-313,197	98,034	0,074	0,062
-312,183	116,434	0,108	0,097
-311,168	-121,381	-0,019	-0,002
-310,153	-200,000	0,002	-0,110
-309,139	800,000	-0,016	-0,041
-308,124	-49,106	-0,036	-0,012
-307,110	165,150	0,052	-0,053
-306,095	102,249	-0,046	0,039
-305,080	-200,000	0,008	0,086
-304,066	215,631	0,072	0,083
-303,051	376,760	-0,038	0,056
-302,037	54,119	0,054	-0,037
-301,022	35,566	0,073	0,047
-300,008	-200,000	0,012	0,080
-298,993	12,822	-0,086	-0,048
-297,978	-200,000	-0,009	0,033
-296,964	638,841	-0,002	0,004
-295,949	-85,028	-0,228	-0,052
-294,935	123,079	0,045	0,041
-293,920	147,990	0,043	0,043
-292,905	162,430	0,112	0,114
-291,891	-106,936	-0,148	-0,024
-290,876	800,000	-0,016	0,051
-289,862	-200,000	0,004	0,040
-288,847	800,000	-0,035	0,082
-287,832	-200,000	-0,002	-0,084
-286,818	771,147	0,035	-0,069
-285,803	-48,876	0,087	-0,030
-284,789	800,000	0,043	-0,089
-283,774	-177,627	0,087	-0,002
-282,759	800,000	0,019	0,051
-281,745	800,000	-0,043	0,110
-280,730	-51,039	-0,048	0,016
-279,716	-10,720	-0,029	0,014
-278,701	-200,000	-0,001	-0,031
-277,686	-200,000	-0,032	0,141
-276,672	172,241	-0,031	-0,032
-275,657	-200,000	0,026	0,091
-274,643	-200,000	0,001	0,072
-273,628	-83,008	0,031	-0,007
-272,613	-159,665	0,098	-0,004
-271,599	515,919	0,046	-0,078
-270,584	800,000	0,008	0,017
-269,570	78,143	0,032	0,025
-268,555	-55,375	0,042	-0,013
-267,540	-200,000	0,004	-0,076
-266,526	-107,148	0,043	-0,007
-265,511	72,290	-0,079	0,059
-264,497	381,918	0,089	0,133
-263,482	-96,365	0,136	0,026
-262,467	-113,188	0,028	0,004
-261,453	-81,941	0,052	0,012
-260,438	-200,000	-0,016	0,132
-259,424	151,484	0,094	0,093
-258,409	800,000	-0,015	-0,039
-257,395	76,391	-0,052	0,040
-256,380	-86,093	0,020	0,005
-255,365	-84,418	0,116	0,026
-254,351	-200,000	-0,019	0,099
-253,336	76,490	-0,165	-0,127
-252,322	322,262	0,020	-0,028
-251,307	341,071	0,043	-0,061
-250,292	226,937	0,033	-0,039
-249,278	-130,268	-0,165	-0,016
-248,263	49,266	0,052	0,035
-247,249	-200,000	0,017	0,137
-246,234	-200,000	-0,005	0,064
-245,219	-200,000	0,003	-0,059
-244,205	-184,942	-0,124	-0,001
-243,190	652,336	0,048	-0,091
-242,176	800,000	0,018	0,041
-241,161	-49,849	-0,074	0,025
-240,146	-200,000	0,035	0,131
-239,132	154,328	-0,096	0,096
-238,117	-25,288	-0,109	-0,047
-237,103	96,081	-0,092	0,076
-236,088	63,603	0,071	-0,051
-235,073	-6,790	-0,028	-0,014
-234,059	426,111	-0,072	0,113
-233,044	91,465	0,008	0,007
-232,030	-85,461	-0,047	-0,010
-231,015	-21,700	-0,104	-0,046
-230,000	-21,762	-0,160	0,070
-228,986	800,000	0,037	-0,075
-227,971	-200,000	0,010	-0,039
-226,957	-200,000	-0,011	-0,045
-225,942	44,125	0,142	0,095
-224,927	188,723	0,068	0,074
-223,913	-200,000	0,025	-0,088
-222,898	289,904	0,061	-0,081
-221,884	800,000	0,046	-0,097
-220,869	-139,294	-0,031	0,002
-219,855	-200,000	0,011	0,106
-218,840	109,640	0,112	0,097
-217,825	16,602	-0,018	-0,010
-216,811	136,752	0,063	-0,059
-215,796	-200,000	-0,033	-0,116
-214,782	800,000	0,045	-0,104
-213,767	197,903	0,136	-0,151
-212,752	-84,305	-0,066	0,015
-211,738	-13,232	0,043	0,020
-210,723	-200,000	-0,010	0,184
-209,709	61,003	-0,054	-0,039
-208,694	-200,000	0,002	-0,046
-207,679	42,126	-0,034	-0,022
-206,665	800,000	0,036	0,113
-205,650	279,726	0,063	0,082
-204,636	158,958	-0,048	0,049
-203,621	-200,000	-0,009	0,039
-202,606	-200,000	-0,014	0,088
-201,592	-111,247	-0,076	0,011
-200,577	38,661	-0,073	-0,047
-199,563	375,139	-0,037	0,055
-198,548	800,000	-0,031	0,094
-197,533	-179,962	0,134	-0,002
-196,519	412,959	-0,015	-0,023
-195,504	-90,814	0,016	-0,003
-194,490	800,000	-0,020	-0,063
-193,475	98,551	0,005	-0,004
-192,460	-90,158	-0,054	-0,011
-191,446	-41,631	0,091	0,034
-190,431	432,152	0,063	0,099
-189,417	-200,000	0,020	-0,073
-188,402	52,443	-0,144	0,099
-187,387	-77,517	-0,128	-0,032
-186,373	249,495	0,043	-0,053
-185,358	-200,000	-0,007	-0,035
-184,344	147,716	0,087	-0,085
-183,329	-153,734	-0,105	-0,005
-182,315	70,294	0,145	0,109
-181,300	-43,438	-0,103	0,037
-180,285	-200,000	0,001	0,011
-179,271	-200,000	-0,014	0,080
-178,256	276,387	-0,028	-0,036
-177,242	-125,641	-0,052	-0,006
-176,227	375,659	-0,024	-0,036
-175,212	-200,000	0,004	-0,083
-174,198	-200,000	0,011	0,039
-173,183	767,876	-0,067	-0,133
-172,169	124,144	-0,075	-0,068
-171,154	-200,000	0,012	-0,123
-170,139	-133,831	0,123	-0,011
-169,125	80,058	-0,098	0,076
-168,110	-200,000	0,023	0,079
-167,096	-117,269	-0,037	-0,005
-166,081	-200,000	0,007	0,071
-165,066	42,290	-0,024	-0,016
-164,052	117,082	-0,073	0,065
-163,037	36,569	0,039	0,025
-162,023	345,610	-0,032	0,045
-161,008	800,000	0,046	-0,111
-159,993	157,304	0,077	-0,077
-158,979	328,027	-0,034	0,047
-157,964	800,000	0,051	-0,139
-156,950	-78,096	-0,135	-0,033
-155,935	15,863	0,056	0,032
-154,920	-23,282	-0,047	-0,020
-153,906	800,000	0,015	-0,039
-152,891	800,000	0,027	0,073
-151,877	-39,993	-0,095	0,036
-150,862	-200,000	-0,022	-0,139
-149,847	-200,000	-0,021	-0,178
-148,833	-200,000	0,011	0,053
-147,818	279,503	0,092	-0,119
-146,804	-64,263	-0,119	-0,035
-145,789	252,148	0,049	0,061
-144,775	-49,891	-0,105	0,036
-143,760	-140,363	0,138	0,010
-142,745	118,796	-0,066	-0,059
-141,731	-200,000	-0,014	-0,053
-140,716	-200,000	0,012	-0,044
-139,702	179,911	-0,046	-0,048
-138,687	45,428	0,069	-0,046
-137,672	-200,000	-0,007	-0,086
-136,658	-120,119	-0,140	-0,017
-135,643	800,000	0,056	0,123
-134,629	-59,143	0,061	-0,019
-133,614	800,000	-0,057	-0,128
-132,599	-145,303	0,133	0,009
-131,585	79,262	0,081	0,062
-130,570	21,369	-0,106	0,062
-129,556	800,000	-0,024	-0,051
-128,541	75,641	-0,137	-0,105
-127,526	307,120	0,026	-0,035
-126,512	151,915	0,015	-0,015
-125,497	248,131	-0,050	-0,061
-124,483	-26,371	0,071	0,030
-123,468	-15,989	-0,086	-0,039
-122,453	657,420	0,060	-0,112
-121,439	-200,000	-0,020	-0,068
-120,424	800,000	0,086	-0,178
-119,410	-200,000	-0,003	-0,076
