DTS Sentinel unit serial number:	SN410029Multiplexer serial number:	ORYXHardware model number:	OX2-SRSoftware version number:	ORYX F/W v4,00 Oryx Data Collector v3.7.2.0data status	okinstallation	B4 Nyhavnadifferential loss correction	single-endedforward channel	channel 2reverse channel	N/Adate	2023/12/16time	09:25:13forward acquisition time	300,00reverse acquisition time	0,00gamma	499,1914k internal	0,3126k external	0,3126temperature offset calibration	1,0000default loss term (dB/km)	0,3820temperature slope calibration	1,0000multiplexer offset coefficient	1,0000multiplexer slope coefficient	1,0000fibre end	0,00T internal ref (°C)	23,00T ext. ref 1 (°C)	8,81T ext. ref 2 (°C)	8,98length (m)	temperature (°C)	Stokes	anti-Stokes-744,400	800,000	-0,053	-0,124
-743,385	15,825	-0,110	0,064
-742,371	146,891	-0,014	0,014
-741,356	800,000	-0,105	0,294
-740,342	81,815	-0,006	-0,005
-739,327	-153,607	-0,204	-0,010
-738,312	-200,000	-0,005	-0,125
-737,298	-43,798	-0,243	0,091
-736,283	161,562	0,063	-0,066
-735,269	68,997	-0,176	0,134
-734,254	268,545	0,128	-0,168
-733,239	-56,333	-0,343	-0,113
-732,225	-71,836	0,132	0,036
-731,210	58,268	-0,043	0,032
-730,196	-2,429	0,081	-0,042
-729,181	800,000	-0,004	0,010
-728,167	-73,850	0,067	-0,018
-727,152	-149,000	0,159	0,009
-726,137	-141,557	-0,125	-0,009
-725,123	535,586	-0,118	-0,209
-724,108	337,711	0,107	-0,155
-723,094	-4,699	-0,045	0,023
-722,079	234,674	-0,064	0,078
-721,064	-200,000	0,024	-0,082
-720,050	-200,000	0,005	-0,049
-719,035	22,430	0,030	-0,018
-718,021	-108,751	0,074	0,012
-717,006	126,752	0,058	-0,055
-715,991	-18,616	-0,115	-0,053
-714,977	-200,000	-0,011	-0,134
-713,962	-200,000	0,014	-0,065
-712,948	569,338	-0,044	-0,080
-711,933	-200,000	-0,009	-0,105
-710,918	-200,000	-0,009	-0,099
-709,904	-200,000	-0,026	-0,132
-708,889	317,578	-0,053	-0,075
-707,875	461,457	-0,075	-0,125
-706,860	-11,497	0,042	0,020
-705,845	-200,000	0,020	0,096
-704,831	800,000	-0,089	0,184
-703,816	800,000	0,041	0,094
-702,802	299,349	-0,081	-0,111
-701,787	199,613	0,021	0,024
-700,772	293,722	-0,031	0,042
-699,758	-98,799	-0,063	-0,012
-698,743	294,446	-0,084	-0,114
-697,729	349,473	0,026	-0,039
-696,714	346,829	-0,024	-0,035
-695,699	131,997	-0,083	-0,079
-694,685	150,952	-0,110	-0,111
-693,670	43,359	0,108	-0,073
-692,656	-200,000	-0,007	0,116
-691,641	-200,000	0,002	0,080
-690,627	-200,000	-0,023	0,161
-689,612	20,646	-0,066	0,040
-688,597	-23,226	0,099	0,044
-687,583	307,929	-0,074	0,102
-686,568	589,445	-0,061	0,112
-685,554	-200,000	0,010	-0,116
-684,539	-200,000	-0,023	-0,151
-683,524	404,470	-0,034	0,054
-682,510	91,657	0,102	0,085
-681,495	-200,000	-0,017	-0,215
-680,481	319,880	0,034	-0,048
-679,466	91,507	0,080	0,067
-678,451	504,910	0,116	0,200
-677,437	-119,815	-0,110	-0,014
-676,422	-150,948	-0,089	0,005
-675,408	800,000	0,037	0,088
-674,393	-200,000	-0,005	-0,129
-673,378	-200,000	0,015	-0,085
-672,364	201,267	-0,074	-0,085
-671,349	-200,000	0,021	-0,104
-670,335	-188,015	0,113	0,001
-669,320	-145,070	0,146	-0,010
-668,305	387,928	0,030	0,046
-667,291	14,589	-0,035	-0,020
-666,276	348,505	-0,052	-0,077
-665,262	401,825	-0,094	0,147
-664,247	175,355	0,024	-0,026
-663,232	800,000	-0,031	-0,064
-662,218	135,702	0,025	0,024
-661,203	432,881	0,041	0,067
-660,189	-67,514	0,067	-0,019
-659,174	197,814	-0,023	0,026
-658,159	800,000	-0,078	-0,195
-657,145	-200,000	-0,067	-0,281
-656,130	-200,000	-0,035	-0,119
-655,116	45,413	-0,039	-0,026
-654,101	800,000	0,049	0,147
-653,086	-200,000	0,007	-0,137
-652,072	100,435	-0,136	-0,117
-651,057	73,204	0,031	-0,024
-650,043	-200,000	0,014	-0,073
-649,028	-90,645	0,018	-0,004
-648,014	276,533	-0,038	-0,050
-646,999	57,587	-0,065	0,047
-645,984	-116,997	-0,112	0,015
-644,970	70,167	-0,104	0,080
-643,955	-103,077	-0,049	-0,009
-642,941	-67,200	-0,080	0,023
-641,926	796,726	-0,077	0,158
-640,911	3,346	-0,023	-0,012
-639,897	452,065	0,015	-0,024
-638,882	-11,402	0,126	0,061
-637,868	272,827	0,013	-0,017
-636,853	-38,646	-0,101	0,039
-635,838	-7,197	0,103	0,052
-634,824	-146,532	-0,099	0,006
-633,809	-99,386	0,111	0,021
-632,795	92,790	-0,046	-0,038
-631,780	85,266	0,112	-0,091
-630,765	117,373	0,061	0,056
-629,751	45,802	0,125	-0,085
-628,736	46,701	-0,108	-0,074
-627,722	127,779	-0,034	0,032
-626,707	-200,000	0,006	0,039
-625,692	800,000	-0,056	0,174
-624,678	-55,293	0,107	0,036
-623,663	78,456	0,009	0,007
-622,649	459,060	-0,090	-0,148
-621,634	800,000	-0,033	-0,079
-620,619	-55,401	-0,063	-0,021
-619,605	26,896	-0,028	0,017
-618,590	-200,000	-0,024	0,143
-617,576	800,000	0,062	0,169
-616,561	82,157	-0,085	0,068
-615,546	238,647	-0,074	-0,092
-614,532	-200,000	0,021	0,083
-613,517	800,000	0,027	0,073
-612,503	-200,000	-0,026	-0,146
-611,488	-16,131	-0,063	-0,030
-610,474	313,216	0,048	-0,067
-609,459	-119,023	0,025	-0,003
-608,444	-200,000	-0,017	-0,151
-607,430	40,210	-0,045	0,030
-606,415	-185,687	0,060	0,001
-605,401	96,244	-0,113	-0,096
-604,386	800,000	-0,045	0,136
-603,371	-200,000	-0,004	-0,043
-602,357	-85,087	-0,075	0,017
-601,342	112,921	-0,062	-0,056
-600,328	65,773	-0,109	-0,081
-599,313	196,228	-0,037	-0,041
-598,298	-61,227	0,076	0,024
-597,284	-200,000	0,016	0,068
-596,269	-71,957	0,053	0,014
-595,255	535,036	0,036	-0,064
-594,240	166,345	-0,048	-0,050
-593,225	60,996	-0,054	0,039
-592,211	-158,803	0,075	0,003
-591,196	259,442	-0,028	-0,036
-590,182	54,101	-0,090	-0,064
-589,167	-64,852	0,082	0,024
-588,152	-200,000	-0,010	0,083
-587,138	-26,201	-0,107	-0,046
-586,123	285,701	0,052	-0,069
-585,109	482,952	0,025	-0,042
-584,094	-200,000	-0,010	-0,060
-583,079	56,985	0,091	-0,065
-582,065	13,181	0,086	0,049
-581,050	800,000	-0,020	0,058
-580,036	-22,700	-0,069	0,031
-579,021	-97,024	-0,081	0,016
-578,006	-200,000	-0,019	-0,109
-576,992	-200,000	-0,008	-0,033
-575,977	-49,060	-0,045	0,016
-574,963	386,940	0,048	-0,074
-573,948	-47,362	0,141	-0,051
-572,934	24,906	0,050	0,031
-571,919	469,795	-0,075	-0,125
-570,904	-100,713	-0,052	0,009
-569,890	117,782	-0,101	-0,092
-568,875	286,490	-0,039	0,052
-567,861	-113,840	0,195	-0,028
-566,846	-200,000	0,024	-0,089
-565,831	61,141	-0,038	0,028
-564,817	95,192	-0,070	0,059
-563,802	248,870	-0,072	-0,090
-562,788	-69,552	-0,094	-0,026
-561,773	-39,601	-0,042	-0,016
-560,758	275,286	-0,038	-0,050
-559,744	-200,000	0,006	0,049
-558,729	800,000	-0,035	0,091
-557,715	60,984	-0,171	-0,125
-556,700	-160,561	0,015	-0,001
-555,685	-200,000	-0,022	-0,086
-554,671	190,957	0,052	0,058
-553,656	78,712	0,082	0,065
-552,642	195,762	0,064	-0,072
-551,627	-200,000	-0,003	0,110
-550,612	-200,000	0,002	0,022
-549,598	-200,000	-0,015	-0,105
-548,583	-200,000	-0,010	0,066
-547,569	711,482	0,029	-0,058
-546,554	-16,637	-0,051	-0,024
-545,539	-46,831	0,108	-0,039
-544,525	190,076	-0,047	-0,052
-543,510	-200,000	0,006	-0,021
-542,496	333,442	-0,012	-0,018
-541,481	271,853	-0,049	-0,064
-540,466	-200,000	-0,002	0,186
-539,452	25,365	-0,097	0,059
-538,437	86,241	-0,016	-0,013
-537,423	216,150	0,063	0,074
-536,408	-93,153	0,095	0,019
-535,393	159,919	-0,029	-0,030
-534,379	-1,681	0,053	-0,028
-533,364	-97,714	-0,065	0,012
-532,350	-151,717	0,089	-0,005
-531,335	27,663	0,119	-0,074
-530,321	427,734	-0,044	-0,071
-529,306	-98,346	-0,056	0,011
-528,291	-200,000	0,027	-0,231
-527,277	800,000	-0,080	-0,168
-526,262	176,843	0,096	-0,103
-525,248	800,000	-0,068	-0,139
-524,233	-200,000	-0,012	0,134
-523,218	800,000	0,027	0,078
-522,204	167,397	-0,045	-0,047
-521,189	-123,197	-0,105	-0,012
-520,175	-200,000	-0,025	-0,093
-519,160	-200,000	0,004	-0,080
-518,145	197,355	-0,030	0,033
-517,131	50,014	0,140	-0,097
-516,116	299,025	-0,048	0,066
-515,102	252,635	-0,022	-0,027
-514,087	-53,944	-0,089	-0,030
-513,072	800,000	-0,018	0,043
-512,058	800,000	0,048	0,101
-511,043	-137,986	-0,009	-0,001
-510,029	-200,000	0,018	-0,110
-509,014	-80,517	0,120	-0,029
-507,999	800,000	0,017	-0,043
-506,985	800,000	0,044	0,106
-505,970	-200,000	0,001	-0,015
-504,956	-107,167	-0,155	-0,025
-503,941	19,134	0,100	-0,059
-502,926	394,893	-0,016	0,025
-501,912	-110,733	0,142	0,021
-500,897	30,284	-0,028	0,017
-499,883	-128,718	-0,096	0,010
-498,868	147,786	-0,059	-0,059
-497,853	-200,000	0,018	-0,093
-496,839	244,804	0,014	-0,018
-495,824	-197,034	0,240	-0,001
-494,810	-200,000	0,026	-0,090
-493,795	212,272	0,058	-0,067
-492,781	800,000	0,050	0,103
-491,766	-200,000	0,034	-0,203
-490,751	-71,977	0,083	-0,023
-489,737	235,412	0,093	-0,113
-488,722	800,000	0,035	-0,074
-487,708	-71,687	0,209	0,057
-486,693	-200,000	0,008	-0,026
-485,678	110,608	-0,062	0,055
-484,664	-200,000	-0,023	0,136
-483,649	85,701	-0,031	0,025
-482,635	-200,000	-0,014	-0,076
-481,620	-200,000	0,009	0,094
-480,605	357,847	0,047	0,069
-479,591	295,908	0,019	0,026
-478,576	535,774	-0,044	-0,078
-477,562	-200,000	-0,003	-0,017
-476,547	22,984	-0,114	0,069
-475,532	-200,000	-0,001	0,007
-474,518	-109,762	-0,045	0,007
-473,503	33,785	0,055	-0,035
-472,489	565,167	-0,060	0,108
-471,474	-136,913	0,080	0,007
-470,459	28,891	0,064	-0,040
-469,445	-200,000	0,007	0,066
-468,430	-83,032	-0,113	-0,027
-467,416	-200,000	0,004	-0,113
-466,401	-200,000	0,003	-0,034
-465,386	58,461	-0,120	0,087
-464,372	55,745	-0,085	0,061
-463,357	632,104	-0,082	0,153
-462,343	0,027	-0,059	-0,031
-461,328	-134,135	-0,188	0,017
-460,313	-164,356	-0,075	0,002
-459,299	-115,612	-0,072	0,010
-458,284	800,000	0,012	0,030
-457,270	800,000	-0,045	0,094
-456,255	724,046	0,009	0,017
-455,241	285,368	-0,086	-0,114
-454,226	800,000	-0,031	-0,095
-453,211	157,526	-0,043	0,044
-452,197	-52,137	-0,070	0,024
-451,182	361,959	0,030	-0,044
-450,168	-200,000	-0,017	-0,069
-449,153	-59,013	-0,092	-0,029
-448,138	-4,934	-0,081	-0,041
-447,124	-171,844	0,111	-0,003
-446,109	-56,393	-0,054	0,017
-445,095	-200,000	-0,005	0,049
-444,080	104,370	0,066	-0,057
-443,065	-200,000	-0,012	0,127
-442,051	368,976	0,045	0,067
-441,036	-200,000	-0,009	-0,067
-440,022	-200,000	0,011	0,107
-439,007	-200,000	-0,031	0,126
-437,992	-200,000	0,040	0,146
-436,978	117,448	-0,088	0,079
-435,963	-200,000	0,013	0,149
-434,949	27,329	-0,047	-0,029
-433,934	-200,000	-0,008	-0,107
-432,919	-200,000	-0,007	-0,061
-431,905	113,999	-0,058	0,052
-430,890	115,019	0,115	-0,103
-429,876	379,972	0,036	-0,055
-428,861	151,027	-0,101	0,102
-427,846	-200,000	0,008	-0,078
-426,832	-34,615	-0,040	-0,016
-425,817	-56,673	-0,115	-0,037
-424,803	-93,237	-0,186	0,038
-423,788	-51,902	0,117	0,040
-422,773	-200,000	-0,001	-0,059
-421,759	7,937	0,030	0,017
-420,744	-181,568	-0,049	-0,001
-419,730	800,000	-0,060	-0,134
-418,715	-6,187	-0,100	0,050
-417,701	-200,000	0,003	0,019
-416,686	-200,000	-0,005	0,046
-415,671	54,691	-0,029	0,021
-414,657	-107,515	0,108	-0,017
-413,642	277,444	-0,010	0,013
-412,628	223,876	-0,146	-0,174
-411,613	21,893	-0,062	-0,037
-410,598	233,556	0,032	-0,039
-409,584	59,400	0,045	0,033
-408,569	535,642	0,028	0,049
-407,555	79,143	-0,028	0,022
-406,540	150,629	-0,049	-0,049
-405,525	-33,843	0,065	0,026
-404,511	179,686	-0,135	-0,145
-403,496	196,191	0,071	-0,079
-402,482	-200,000	-0,019	-0,133
-401,467	-200,000	0,003	0,115
-400,452	-93,700	0,170	-0,034
-399,438	-200,000	-0,009	0,072
-398,423	-148,925	-0,096	0,006
-397,409	-16,609	0,059	0,027
-396,394	94,005	0,032	-0,027
-395,379	-200,000	-0,001	-0,162
-394,365	-93,213	0,092	-0,019
-393,350	120,248	0,101	0,092
-392,336	122,945	-0,069	-0,064
-391,321	800,000	0,053	0,143
-390,306	87,407	-0,026	-0,021
-389,292	-27,588	-0,117	-0,050
-388,277	159,187	-0,042	-0,043
-387,263	-200,000	-0,001	-0,134
-386,248	-59,268	-0,059	0,019
-385,233	800,000	-0,013	0,030
-384,219	190,416	0,064	0,071
-383,204	-9,165	-0,015	-0,007
-382,190	24,521	-0,077	-0,047
-381,175	64,145	0,052	0,039
-380,160	-200,000	-0,010	0,088
-379,146	-200,000	-0,024	-0,088
-378,131	-200,000	0,008	0,135
-377,117	-84,755	0,170	0,039
-376,102	198,289	-0,061	-0,068
-375,088	-200,000	0,005	-0,019
-374,073	-19,350	0,104	-0,047
-373,058	800,000	-0,036	-0,110
-372,044	8,622	0,126	-0,069
-371,029	-50,001	-0,111	-0,038
-370,015	192,656	-0,041	-0,045
-369,000	240,182	0,081	-0,099
-367,985	-34,605	0,084	-0,034
-366,971	233,285	-0,048	-0,058
-365,956	98,563	-0,027	0,023
-364,942	-123,795	0,072	-0,008
-363,927	93,034	0,055	-0,045
-362,912	-200,000	-0,006	-0,052
-361,898	800,000	-0,014	0,035
-360,883	251,898	0,060	-0,075
-359,869	-80,250	0,080	-0,019
-358,854	-132,524	0,079	0,007
-357,839	-40,155	0,064	-0,024
-356,825	-100,158	-0,105	0,019
-355,810	-200,000	-0,007	-0,076
-354,796	365,311	0,023	-0,033
-353,781	-98,997	0,053	0,010
-352,766	14,297	-0,079	0,045
-351,752	-67,456	0,089	0,025
-350,737	-75,312	0,102	-0,027
-349,723	-191,148	0,136	-0,001
-348,708	6,921	-0,029	-0,016
-347,693	-88,875	-0,045	-0,010
-346,679	545,030	0,026	-0,046
-345,664	-200,000	-0,008	-0,092
-344,650	-51,941	0,037	-0,012
-343,635	-88,867	-0,063	0,014
-342,620	-82,497	0,242	-0,057
-341,606	370,033	0,064	-0,095
-340,591	572,876	-0,052	-0,094
-339,577	197,417	-0,078	-0,087
-338,562	-200,000	0,003	-0,053
-337,548	-200,000	0,006	-0,032
-336,533	-200,000	0,024	-0,121
-335,518	-200,000	0,007	0,034
-334,504	-48,761	-0,127	0,045
-333,489	-200,000	0,011	0,040
-332,475	800,000	-0,014	-0,039
-331,460	-200,000	0,006	0,095
-330,445	237,395	0,036	0,044
-329,431	-113,259	-0,136	0,019
-328,416	388,872	0,078	0,118
-327,402	-66,946	0,040	-0,011
-326,387	32,492	0,038	-0,024
-325,372	-76,992	-0,122	-0,031
-324,358	196,972	-0,014	-0,015
-323,343	63,936	-0,058	0,043
-322,329	376,785	-0,070	-0,104
-321,314	124,105	0,050	0,046
-320,299	-5,562	0,059	-0,029
-319,285	284,422	0,077	-0,102
-318,270	-37,469	-0,145	0,056
-317,256	-200,000	0,007	0,120
-316,241	528,376	-0,069	0,120
-315,226	-200,000	-0,035	-0,117
-314,212	-78,525	-0,042	-0,010
-313,197	108,919	-0,057	-0,050
-312,183	-148,981	0,147	0,009
-311,168	-169,888	-0,053	0,001
-310,153	800,000	-0,025	0,060
-309,139	-200,000	0,004	-0,024
-308,124	-84,887	-0,111	0,025
-307,110	114,651	0,036	0,032
-306,095	295,116	0,058	-0,078
-305,080	800,000	0,029	0,059
-304,066	800,000	-0,026	-0,066
-303,051	-85,016	-0,014	-0,003
-302,037	-41,583	-0,097	0,036
-301,022	-200,000	0,007	0,060
-300,008	240,489	-0,013	0,016
-298,993	-43,960	0,036	0,013
-297,978	-200,000	0,001	0,092
-296,964	800,000	-0,059	0,125
-295,949	-127,009	0,101	0,011
-294,935	-200,000	0,001	-0,017
-293,920	-58,930	-0,030	0,009
-292,905	54,811	0,075	0,053
-291,891	251,848	0,074	0,093
-290,876	-200,000	0,035	0,236
-289,862	90,241	-0,063	-0,051
-288,847	-47,956	0,040	-0,014
-287,832	-72,717	0,014	0,004
-286,818	-200,000	0,003	0,186
-285,803	396,939	0,002	-0,003
-284,789	-200,000	0,005	0,129
-283,774	38,450	0,131	0,085
-282,759	-200,000	-0,014	0,058
-281,745	769,888	-0,041	-0,081
-280,730	-200,000	0,038	0,000
-279,716	610,164	0,048	0,088
-278,701	238,490	-0,069	0,084
-277,686	800,000	0,047	0,132
-276,672	-17,180	-0,064	0,029
-275,657	6,793	0,091	0,049
-274,643	-200,000	0,004	-0,053
-273,628	584,921	-0,051	0,092
-272,613	-141,843	0,042	-0,003
-271,599	103,117	0,166	0,142
-270,584	290,309	0,016	0,022
-269,570	800,000	0,054	0,147
-268,555	93,221	-0,046	0,038
-267,540	308,341	0,049	-0,067
-266,526	-156,570	0,035	-0,002
-265,511	-183,506	0,079	0,001
-264,497	24,355	0,176	0,106
-263,482	800,000	0,072	0,193
-262,467	800,000	-0,041	0,088
-261,453	800,000	-0,032	0,068
-260,438	-144,363	0,062	-0,004
-259,424	-57,430	0,031	-0,010
-258,409	-46,296	-0,083	-0,030
-257,395	-33,072	0,116	0,047
-256,380	-200,000	0,046	0,000
-255,365	-200,000	0,009	0,083
-254,351	-193,659	0,031	0,000
-253,336	75,391	0,041	0,032
-252,322	506,272	0,040	0,067
-251,307	34,156	0,086	0,054
-250,292	800,000	0,010	-0,023
-249,278	-133,348	0,094	-0,009
-248,263	800,000	-0,032	0,084
-247,249	84,556	-0,088	0,070
-246,234	-97,138	-0,109	0,021
-245,219	582,988	-0,061	-0,109
-244,205	109,255	0,054	-0,047
-243,190	800,000	-0,032	-0,095
-242,176	251,218	-0,109	0,135
-241,161	800,000	-0,019	0,053
-240,146	-49,255	0,082	0,029
-239,132	800,000	0,036	0,076
-238,117	-171,990	-0,057	-0,001
-237,103	231,602	0,070	-0,084
-236,088	162,963	-0,131	-0,134
-235,073	-8,294	0,083	0,040
-234,059	-200,000	-0,001	0,074
-233,044	-42,388	0,075	0,028
-232,030	634,489	-0,062	-0,116
-231,015	-200,000	0,002	-0,010
-230,000	-200,000	-0,007	-0,178
-228,986	-200,000	-0,013	-0,142
-227,971	-12,492	-0,030	0,014
-226,957	358,269	0,040	-0,059
-225,942	-149,275	0,183	-0,011
-224,927	-200,000	0,026	-0,085
-223,913	340,927	0,057	0,081
-222,898	-200,000	0,062	0,000
-221,884	-200,000	-0,011	-0,064
-220,869	-200,000	0,010	0,110
-219,855	383,858	0,021	-0,031
-218,840	800,000	0,037	0,090
-217,825	99,968	-0,070	0,059
-216,811	-75,345	-0,155	-0,040
-215,796	198,339	0,099	-0,110
-214,782	266,248	0,078	0,099
-213,767	-200,000	0,003	-0,145
-212,752	-61,027	0,148	0,045
-211,738	-200,000	-0,014	0,064
-210,723	-200,000	-0,003	0,033
-209,709	800,000	-0,012	-0,036
-208,694	50,903	-0,070	-0,048
-207,679	44,112	0,090	-0,060
-206,665	111,628	0,024	-0,021
-205,650	-200,000	-0,016	0,061
-204,636	-200,000	0,019	0,080
-203,621	48,214	0,033	-0,023
-202,606	-89,658	-0,152	-0,032
-201,592	-200,000	0,006	0,120
-200,577	-200,000	-0,003	-0,053
-199,563	90,894	0,059	-0,048
-198,548	55,679	-0,032	0,023
-197,533	-200,000	-0,017	0,069
-196,519	-33,565	0,096	0,039
-195,504	630,096	-0,020	-0,037
-194,490	-49,578	0,045	-0,016
-193,475	225,061	-0,080	-0,095
-192,460	-200,000	-0,010	-0,115
-191,446	688,074	0,097	-0,187
-190,431	-33,219	-0,106	0,043
-189,417	-200,000	0,015	0,118
-188,402	-92,615	0,083	0,017
-187,387	-116,868	-0,104	0,014
-186,373	157,284	0,059	-0,059
-185,358	-200,000	-0,019	0,072
-184,344	-200,000	-0,025	0,107
-183,329	203,698	0,011	-0,012
-182,315	8,549	0,040	0,022
-181,300	185,830	-0,021	-0,023
-180,285	-200,000	0,002	0,020
-179,271	250,295	-0,041	-0,051
-178,256	800,000	-0,040	0,085
-177,242	-78,334	0,047	0,012
-176,227	-26,377	-0,042	-0,018
-175,212	-200,000	0,029	0,135
-174,198	-200,000	-0,008	0,038
-173,183	800,000	0,019	-0,044
-172,169	254,355	0,071	-0,088
-171,154	-200,000	0,053	0,191
-170,139	-83,067	-0,090	-0,021
-169,125	-79,051	0,069	-0,017
-168,110	14,757	-0,083	0,047
-167,096	168,972	0,122	0,127
-166,081	-173,545	-0,040	-0,001
-165,066	-30,284	0,078	-0,032
-164,052	71,607	-0,017	-0,013
-163,037	800,000	-0,013	-0,042
-162,023	-200,000	0,000	0,006
-161,008	288,489	0,042	0,056
-159,993	146,132	0,067	0,065
-158,979	32,018	-0,045	0,028
-157,964	-200,000	-0,034	0,145
-156,950	23,935	-0,044	-0,026
-155,935	181,728	-0,036	-0,039
-154,920	-200,000	0,001	-0,041
-153,906	-200,000	0,010	0,094
-152,891	19,741	-0,031	-0,018
-151,877	800,000	0,027	0,070
-150,862	76,213	0,065	-0,050
-149,847	-160,201	-0,139	-0,005
-148,833	-89,089	-0,055	-0,012
-147,818	-200,000	-0,011	-0,042
-146,804	-87,240	0,074	0,016
-145,789	-146,073	0,193	-0,012
-144,775	2,387	-0,070	-0,037
-143,760	-200,000	0,034	0,115
-142,745	-149,300	-0,114	-0,007
-141,731	-64,709	0,115	0,034
-140,716	-200,000	-0,026	0,108
-139,702	-111,432	0,170	0,025
-138,687	42,419	-0,078	0,052
-137,672	800,000	-0,032	0,091
-136,658	330,592	0,063	-0,088
-135,643	14,152	-0,058	-0,033
-134,629	-109,685	-0,076	-0,011
-133,614	-47,088	0,124	0,044
-132,599	151,637	-0,042	-0,041
-131,585	196,800	0,082	0,090
-130,570	-200,000	-0,004	0,068
-129,556	12,078	0,132	-0,073
-128,541	123,811	-0,038	0,035
-127,526	324,031	-0,056	0,078
-126,512	-128,762	0,202	-0,020
-125,497	203,865	-0,036	-0,040
-124,483	-47,943	-0,135	0,047
-123,468	800,000	0,018	0,054
-122,453	440,966	-0,092	-0,147
-121,439	202,007	-0,152	0,171
-120,424	18,572	-0,055	-0,032
