DTS Sentinel unit serial number:	SN410029Multiplexer serial number:	ORYXHardware model number:	OX2-SRSoftware version number:	ORYX F/W v4,00 Oryx Data Collector v3.7.2.0data status	okinstallation	B4 Nyhavnadifferential loss correction	single-endedforward channel	channel 2reverse channel	N/Adate	2023/12/15time	17:40:13forward acquisition time	300,00reverse acquisition time	0,00gamma	499,1914k internal	0,3141k external	0,3141temperature offset calibration	1,0000default loss term (dB/km)	0,3820temperature slope calibration	1,0000multiplexer offset coefficient	1,0000multiplexer slope coefficient	1,0000fibre end	0,00T internal ref (°C)	18,52T ext. ref 1 (°C)	4,26T ext. ref 2 (°C)	4,31length (m)	temperature (°C)	Stokes	anti-Stokes-744,400	-45,909	0,043	0,016
-743,385	-49,809	-0,246	0,086
-742,371	-133,681	0,047	0,004
-741,356	106,701	-0,192	0,168
-740,342	62,383	0,117	0,086
-739,327	-17,748	-0,248	0,115
-738,312	-200,000	0,017	-0,066
-737,298	-104,275	-0,270	-0,046
-736,283	-66,516	0,067	0,020
-735,269	-132,644	-0,371	-0,035
-734,254	-4,946	0,129	-0,065
-733,239	30,063	-0,386	-0,243
-732,225	6,914	0,134	0,074
-731,210	-84,032	-0,137	-0,032
-730,196	211,791	-0,039	0,046
-729,181	800,000	-0,030	0,066
-728,167	800,000	0,021	-0,056
-727,152	-70,468	-0,166	-0,046
-726,137	49,934	-0,067	0,047
-725,123	-200,000	-0,004	-0,045
-724,108	17,331	-0,172	-0,101
-723,094	274,022	-0,142	-0,186
-722,079	235,413	0,092	0,113
-721,064	163,563	-0,142	-0,148
-720,050	43,632	0,053	0,036
-719,035	-200,000	0,023	0,121
-718,021	292,914	0,048	0,065
-717,006	56,069	-0,070	0,050
-715,991	-200,000	-0,000	-0,134
-714,977	100,513	0,035	-0,030
-713,962	-200,000	0,004	-0,119
-712,948	-200,000	0,016	-0,112
-711,933	-200,000	0,013	0,052
-710,918	26,025	-0,135	0,083
-709,904	-4,899	-0,043	-0,022
-708,889	26,606	-0,068	0,042
-707,875	-200,000	0,012	-0,099
-706,860	-81,425	0,209	-0,051
-705,845	211,578	-0,035	-0,040
-704,831	-29,809	0,126	-0,053
-703,816	70,249	0,034	-0,026
-702,802	-200,000	0,007	-0,137
-701,787	-54,837	-0,161	-0,053
-700,772	-200,000	0,009	-0,139
-699,758	-20,777	0,024	0,011
-698,743	141,593	0,065	0,064
-697,729	-9,837	0,026	-0,013
-696,714	-200,000	-0,003	0,045
-695,699	275,049	-0,022	-0,029
-694,685	-200,000	0,002	0,031
-693,670	19,470	-0,117	0,069
-692,656	-200,000	-0,027	0,098
-691,641	23,416	-0,067	0,041
-690,627	37,458	-0,010	-0,006
-689,612	800,000	0,052	-0,138
-688,597	-67,470	-0,153	0,044
-687,583	-200,000	-0,004	-0,097
-686,568	212,445	-0,078	-0,091
-685,554	-50,948	-0,049	0,017
-684,539	-200,000	-0,025	0,198
-683,524	800,000	-0,028	0,084
-682,510	108,757	0,039	0,034
-681,495	-148,939	0,038	0,002
-680,481	-17,146	0,036	-0,017
-679,466	-199,521	-0,195	0,001
-678,451	-48,404	-0,049	-0,017
-677,437	-200,000	-0,001	0,045
-676,422	113,100	0,040	-0,036
-675,408	-200,000	0,000	0,035
-674,393	-68,449	-0,089	0,025
-673,378	800,000	0,023	0,051
-672,364	114,825	0,026	-0,023
-671,349	-106,193	-0,033	0,005
-670,335	11,652	0,159	-0,090
-669,320	800,000	0,016	-0,048
-668,305	-34,449	-0,100	0,040
-667,291	685,802	-0,062	0,120
-666,276	-17,347	-0,126	-0,058
-665,262	-200,000	-0,042	-0,156
-664,247	-116,546	0,109	-0,015
-663,232	-145,711	0,077	-0,005
-662,218	-111,762	0,114	0,017
-661,203	-128,923	-0,235	0,024
-660,189	136,687	0,064	0,062
-659,174	346,628	-0,049	-0,071
-658,159	-86,006	-0,161	0,036
-657,145	180,292	-0,105	-0,114
-656,130	-88,898	-0,116	0,025
-655,116	-200,000	0,022	0,092
-654,101	58,877	-0,094	0,068
-653,086	7,539	-0,053	-0,029
-652,072	-27,190	-0,147	0,063
-651,057	-121,351	-0,170	0,021
-650,043	-38,140	-0,055	0,021
-649,028	800,000	-0,031	0,068
-648,014	37,934	-0,021	0,014
-646,999	712,725	-0,016	0,031
-645,984	133,688	0,072	-0,069
-644,970	131,987	0,054	-0,052
-643,955	-49,833	-0,202	-0,071
-642,941	145,007	-0,068	-0,067
-641,926	-129,753	-0,057	-0,006
-640,911	6,109	0,118	0,064
-639,897	800,000	0,003	-0,006
-638,882	171,025	-0,138	0,146
-637,868	-61,865	-0,041	-0,013
-636,853	368,184	-0,062	-0,092
-635,838	800,000	-0,024	-0,072
-634,824	167,820	-0,046	-0,048
-633,809	39,309	-0,053	0,035
-632,795	-200,000	-0,021	0,105
-631,780	-200,000	-0,001	0,014
-630,765	800,000	-0,083	0,174
-629,751	62,100	0,069	0,051
-628,736	30,388	-0,132	-0,083
-627,722	-200,000	0,009	0,058
-626,707	-93,576	0,077	0,016
-625,692	252,603	0,028	-0,035
-624,678	-200,000	0,008	-0,029
-623,663	-132,386	0,161	-0,015
-622,649	544,631	-0,051	-0,090
-621,634	-200,000	0,017	-0,063
-620,619	114,847	0,078	0,070
-619,605	55,802	-0,161	0,115
-618,590	661,292	0,056	0,107
-617,576	800,000	0,043	-0,132
-616,561	314,082	-0,065	-0,090
-615,546	800,000	-0,036	-0,097
-614,532	-200,000	-0,004	-0,094
-613,517	-147,951	-0,061	-0,004
-612,503	29,408	0,132	-0,083
-611,488	18,627	-0,187	-0,110
-610,474	-200,000	-0,008	-0,043
-609,459	-43,273	0,092	-0,034
-608,444	-27,949	-0,051	-0,022
-607,430	-89,351	0,066	0,014
-606,415	-200,000	-0,001	-0,015
-605,401	-200,000	-0,004	-0,079
-604,386	-131,272	-0,191	-0,018
-603,371	744,452	0,112	0,222
-602,357	206,206	-0,038	0,044
-601,342	-124,203	-0,108	0,012
-600,328	-52,498	-0,101	0,034
-599,313	-200,000	0,061	-0,209
-598,298	-81,600	-0,071	-0,017
-597,284	-200,000	-0,024	0,105
-596,269	40,195	0,119	-0,078
-595,255	15,481	-0,010	-0,006
-594,240	-200,000	-0,002	0,012
-593,225	-87,233	0,091	0,020
-592,211	-103,054	0,035	0,006
-591,196	306,977	0,007	-0,010
-590,182	-184,354	0,067	-0,001
-589,167	-121,437	0,144	0,017
-588,152	247,017	-0,044	0,055
-587,138	-75,249	-0,016	0,004
-586,123	20,254	-0,108	-0,064
-585,109	-200,000	0,045	-0,162
-584,094	-177,372	-0,014	-0,000
-583,079	-151,385	0,030	-0,002
-582,065	-200,000	-0,066	-0,000
-581,050	407,434	-0,014	-0,022
-580,036	-200,000	-0,017	-0,087
-579,021	406,180	-0,031	0,048
-578,006	3,260	-0,055	-0,029
-576,992	229,344	-0,011	0,014
-575,977	209,200	0,011	0,013
-574,963	-9,345	0,143	-0,070
-573,948	295,642	0,011	-0,015
-572,934	3,378	0,068	-0,036
-571,919	-200,000	-0,009	0,054
-570,904	-200,000	0,011	-0,078
-569,890	-200,000	-0,002	0,054
-568,875	-200,000	-0,009	0,086
-567,861	-200,000	-0,009	0,114
-566,846	558,062	0,036	0,064
-565,831	-136,467	0,061	-0,005
-564,817	-181,716	-0,077	0,001
-563,802	-104,288	0,112	-0,019
-562,788	434,352	-0,045	0,072
-561,773	-113,173	0,136	0,020
-560,758	372,112	0,069	0,104
-559,744	168,677	0,067	0,070
-558,729	49,345	0,048	-0,033
-557,715	-110,921	-0,128	-0,019
-556,700	800,000	-0,051	0,162
-555,685	-114,538	0,047	-0,007
-554,671	-200,000	-0,039	0,153
-553,656	-11,522	0,052	-0,025
-552,642	-200,000	0,008	0,027
-551,627	800,000	-0,048	0,131
-550,612	-11,890	0,080	0,039
-549,598	188,602	-0,099	-0,109
-548,583	800,000	-0,053	0,135
-547,569	800,000	-0,050	-0,138
-546,554	-150,098	0,082	0,005
-545,539	-200,000	0,017	-0,074
-544,525	-200,000	0,032	0,112
-543,510	-92,250	-0,187	0,039
-542,496	280,068	-0,081	-0,106
-541,481	0,393	-0,121	-0,063
-540,466	252,713	0,044	-0,056
-539,452	-67,954	0,178	0,051
-538,437	800,000	0,017	0,055
-537,423	168,408	0,045	-0,048
-536,408	73,325	-0,104	0,080
-535,393	-61,792	-0,075	-0,023
-534,379	24,805	0,021	0,013
-533,364	-17,246	0,051	-0,024
-532,350	800,000	0,022	0,049
-531,335	101,618	0,094	-0,080
-530,321	800,000	0,017	-0,046
-529,306	80,387	-0,105	-0,083
-528,291	-58,308	-0,129	-0,041
-527,277	-62,170	-0,134	-0,041
-526,262	800,000	-0,018	-0,048
-525,248	-200,000	0,006	-0,079
-524,233	-200,000	-0,004	0,030
-523,218	293,700	-0,011	0,014
-522,204	-43,282	-0,044	-0,016
-521,189	353,705	-0,020	0,029
-520,175	-94,398	-0,082	-0,016
-519,160	34,465	-0,078	0,050
-518,145	84,118	-0,048	0,038
-517,131	127,308	-0,047	0,044
-516,116	14,554	-0,081	0,046
-515,102	-85,768	-0,063	0,014
-514,087	78,769	-0,133	-0,104
-513,072	-200,000	0,022	-0,100
-512,058	23,773	0,042	-0,026
-511,043	800,000	-0,044	-0,129
-510,029	296,509	0,076	-0,103
-509,014	216,480	0,086	0,101
-507,999	-20,203	0,061	0,028
-506,985	256,957	-0,036	-0,046
-505,970	148,375	-0,056	-0,056
-504,956	-7,654	0,055	-0,027
-503,941	693,565	-0,032	0,062
-502,926	-200,000	-0,015	-0,160
-501,912	800,000	0,049	0,118
-500,897	70,261	-0,154	-0,117
-499,883	17,367	-0,041	0,024
-498,868	-124,971	-0,115	-0,013
-497,853	-200,000	0,003	-0,049
-496,839	800,000	-0,026	0,055
-495,824	30,025	0,101	0,063
-494,810	499,621	-0,038	0,064
-493,795	800,000	0,035	0,077
-492,781	-200,000	-0,011	-0,156
-491,766	131,350	-0,109	-0,103
-490,751	-200,000	-0,000	0,047
-489,737	-200,000	0,029	-0,199
-488,722	-200,000	-0,015	-0,082
-487,708	-51,746	0,047	-0,016
-486,693	-137,137	0,129	-0,011
-485,678	119,782	0,121	-0,110
-484,664	-97,505	-0,112	-0,021
-483,649	-53,574	0,103	-0,034
-482,635	599,422	-0,007	0,013
-481,620	729,274	0,067	0,132
-480,605	-200,000	0,015	0,051
-479,591	-200,000	0,030	0,104
-478,576	-22,263	-0,077	0,034
-477,562	800,000	-0,028	-0,071
-476,547	800,000	-0,020	0,050
-475,532	-200,000	-0,026	0,101
-474,518	-87,779	0,096	-0,021
-473,503	67,287	0,074	0,055
-472,489	339,883	-0,086	0,124
-471,474	-80,150	0,151	0,037
-470,459	161,843	-0,097	0,100
-469,445	506,410	-0,076	0,130
-468,430	-162,607	0,062	-0,002
-467,416	136,544	0,060	0,058
-466,401	1,541	0,042	0,022
-465,386	331,565	0,072	0,102
-464,372	-200,000	0,041	0,178
-463,357	-137,255	-0,080	-0,007
-462,343	800,000	0,073	-0,183
-461,328	-79,359	0,046	-0,011
-460,313	-200,000	-0,015	0,126
-459,299	33,140	-0,066	0,042
-458,284	101,383	0,114	0,097
-457,270	800,000	-0,039	0,115
-456,255	-200,000	0,019	0,120
-455,241	-51,318	-0,078	0,027
-454,226	273,330	0,086	-0,111
-453,211	3,836	0,057	-0,030
-452,197	291,124	0,025	-0,033
-451,182	-200,000	-0,005	0,049
-450,168	722,150	-0,039	-0,076
-449,153	-6,292	-0,065	-0,032
-448,138	158,222	0,014	-0,014
-447,124	-91,083	-0,110	-0,023
-446,109	212,624	-0,061	-0,070
-445,095	800,000	0,051	0,139
-444,080	-200,000	0,005	0,071
-443,065	-48,800	0,079	-0,028
-442,051	65,376	0,075	0,055
-441,036	800,000	0,006	-0,020
-440,022	593,045	-0,104	-0,189
-439,007	-19,912	-0,126	0,057
-437,992	35,333	0,104	-0,067
-436,978	81,851	0,135	0,107
-435,963	308,822	0,079	0,108
-434,949	-200,000	0,002	0,022
-433,934	800,000	0,051	-0,134
-432,919	184,286	0,022	0,024
-431,905	140,406	0,048	-0,046
-430,890	163,983	0,103	-0,106
-429,876	59,760	0,077	-0,056
-428,861	-200,000	0,019	0,093
-427,846	-200,000	0,008	-0,204
-426,832	-200,000	0,016	-0,183
-425,817	95,232	-0,070	-0,058
-424,803	61,206	0,109	-0,079
-423,788	-200,000	0,003	0,031
-422,773	-200,000	0,017	-0,093
-421,759	188,300	0,020	0,022
-420,744	-200,000	0,017	-0,084
-419,730	-183,893	-0,128	-0,002
-418,715	161,358	-0,084	-0,086
-417,701	-54,564	-0,086	0,028
-416,686	196,460	-0,081	0,090
-415,671	-150,301	-0,023	0,001
-414,657	726,822	0,029	-0,056
-413,642	253,945	-0,040	-0,050
-412,628	101,065	-0,104	-0,089
-411,613	15,929	0,044	0,026
-410,598	-200,000	-0,008	-0,040
-409,584	-200,000	-0,023	0,101
-408,569	-200,000	0,007	0,065
-407,555	800,000	0,049	0,124
-406,540	440,279	0,043	-0,070
-405,525	-200,000	0,012	0,108
-404,511	-172,606	0,043	0,001
-403,496	800,000	-0,105	-0,222
-402,482	-1,432	0,080	0,041
-401,467	202,205	0,040	0,046
-400,452	264,087	-0,081	-0,104
-399,438	2,936	0,069	0,036
-398,423	-1,460	-0,071	0,037
-397,409	-200,000	-0,012	0,054
-396,394	68,892	-0,123	-0,092
-395,379	-116,932	0,130	-0,017
-394,365	1,473	0,067	0,035
-393,350	-200,000	-0,002	0,191
-392,336	602,394	0,084	0,154
-391,321	2,289	0,009	0,005
-390,306	800,000	0,027	0,070
-389,292	800,000	0,022	0,061
-388,277	800,000	0,016	0,036
-387,263	-200,000	0,009	-0,037
-386,248	234,547	0,100	0,120
-385,233	-62,074	0,047	-0,014
-384,219	-200,000	-0,026	-0,095
-383,204	142,684	0,103	0,100
-382,190	792,229	0,025	0,050
-381,175	-92,560	0,028	-0,006
-380,160	-141,612	-0,216	-0,016
-379,146	-20,699	0,130	0,058
-378,131	-200,000	-0,000	-0,047
-377,117	-200,000	-0,002	0,021
-376,102	-26,947	-0,009	-0,004
-375,088	-166,984	-0,040	0,001
-374,073	-200,000	-0,005	-0,078
-373,058	177,758	0,074	-0,079
-372,044	-8,606	0,114	0,056
-371,029	63,736	0,041	0,030
-370,015	-53,432	0,110	-0,037
-369,000	55,630	-0,059	-0,041
-367,985	-130,480	-0,088	-0,009
-366,971	251,222	0,017	0,021
-365,956	-101,922	-0,135	-0,024
-364,942	800,000	-0,016	0,045
-363,927	800,000	-0,048	-0,144
-362,912	-200,000	-0,002	0,086
-361,898	11,580	-0,056	-0,031
-360,883	-20,386	0,030	-0,014
-359,869	800,000	0,047	-0,096
-358,854	-110,846	0,143	0,021
-357,839	-129,822	0,087	-0,009
-356,825	107,952	-0,109	0,095
-355,810	-200,000	-0,001	0,112
-354,796	-200,000	-0,002	0,043
-353,781	800,000	0,021	0,057
-352,766	-137,838	0,102	0,008
-351,752	392,164	-0,047	0,072
-350,737	-200,000	0,015	-0,069
-349,723	-52,084	0,127	-0,043
-348,708	69,687	0,128	-0,096
-347,693	-16,073	-0,147	-0,068
-346,679	-192,708	0,078	0,001
-345,664	800,000	-0,020	0,044
-344,650	-185,829	0,058	0,001
-343,635	8,912	0,013	0,007
-342,620	268,118	0,040	-0,051
-341,606	-200,000	0,013	0,132
-340,591	92,406	-0,102	0,084
-339,577	38,519	-0,075	-0,049
-338,562	293,975	0,025	-0,033
-337,548	-56,943	0,065	0,021
-336,533	-200,000	-0,009	0,106
-335,518	178,470	0,065	0,070
-334,504	-200,000	0,000	0,020
-333,489	-77,638	-0,104	0,026
-332,475	-165,039	0,077	0,002
-331,460	-200,000	-0,009	-0,079
-330,445	739,447	-0,070	-0,138
-329,431	320,800	-0,053	0,074
-328,416	-163,525	0,142	0,005
-327,402	-6,504	0,040	-0,020
-326,387	52,484	0,071	-0,049
-325,372	-157,181	0,137	-0,006
-324,358	348,885	-0,079	-0,113
-323,343	-152,350	-0,109	0,006
-322,329	-200,000	0,042	0,141
-321,314	-70,612	0,168	0,046
-320,299	-100,764	0,082	-0,014
-319,285	178,534	-0,065	-0,070
-318,270	-200,000	-0,009	-0,050
-317,256	-143,554	0,092	-0,006
-316,241	712,616	-0,025	0,049
-315,226	800,000	-0,037	0,099
-314,212	365,222	-0,037	-0,055
-313,197	104,357	-0,076	-0,065
-312,183	-200,000	-0,012	0,130
-311,168	-75,309	-0,111	-0,029
-310,153	-23,329	-0,017	0,007
-309,139	-3,886	-0,124	-0,062
-308,124	47,399	0,070	-0,047
-307,110	-181,553	0,133	-0,002
-306,095	-83,160	-0,147	-0,034
-305,080	-200,000	-0,003	-0,055
-304,066	125,908	-0,007	0,007
-303,051	-200,000	-0,019	-0,201
-302,037	287,087	0,073	-0,097
-301,022	-177,519	-0,211	0,004
-300,008	51,063	0,043	-0,030
-298,993	800,000	0,035	-0,078
-297,978	800,000	-0,031	0,087
-296,964	-93,450	-0,164	0,033
-295,949	184,911	-0,053	0,057
-294,935	800,000	0,029	0,079
-293,920	-171,121	0,091	-0,002
-292,905	55,422	-0,159	0,112
-291,891	743,389	0,064	0,127
-290,876	-130,049	-0,031	0,003
-289,862	-200,000	-0,006	-0,126
-288,847	5,703	0,069	0,037
-287,832	86,792	0,036	0,029
-286,818	-200,000	0,005	0,148
-285,803	-200,000	-0,011	0,061
-284,789	303,177	-0,017	0,023
-283,774	-57,121	-0,123	0,039
-282,759	38,022	0,052	0,034
-281,745	-200,000	-0,017	-0,118
-280,730	48,774	-0,112	-0,077
-279,716	800,000	-0,026	0,053
-278,701	-19,445	-0,074	0,033
-277,686	-29,010	-0,035	0,015
-276,672	-141,976	-0,091	0,006
-275,657	-200,000	-0,002	0,031
-274,643	288,534	-0,061	-0,080
-273,628	198,160	-0,075	-0,084
-272,613	-139,589	0,092	-0,007
-271,599	175,233	0,083	-0,087
-270,584	625,019	0,033	0,061
-269,570	800,000	-0,040	-0,101
-268,555	15,520	0,122	-0,070
-267,540	-42,806	-0,010	-0,004
-266,526	-101,864	-0,115	0,020
-265,511	23,347	0,052	0,031
-264,497	-200,000	0,019	0,071
-263,482	-41,398	-0,031	-0,012
-262,467	7,354	-0,034	-0,018
-261,453	-200,000	0,023	0,088
-260,438	800,000	0,061	-0,134
-259,424	74,932	-0,054	-0,041
-258,409	-200,000	-0,003	-0,029
-257,395	800,000	0,023	0,063
-256,380	10,317	0,136	0,075
-255,365	297,058	0,148	0,197
-254,351	-200,000	0,010	-0,092
-253,336	53,538	-0,042	-0,029
-252,322	800,000	-0,034	-0,079
-251,307	281,404	-0,050	-0,066
-250,292	-14,762	0,069	-0,032
-249,278	283,265	0,037	0,048
-248,263	-200,000	0,009	-0,030
-247,249	41,616	-0,046	-0,030
-246,234	800,000	-0,007	-0,023
-245,219	800,000	-0,030	-0,062
-244,205	-200,000	-0,010	-0,083
-243,190	-200,000	0,014	-0,084
-242,176	-94,270	0,052	-0,010
-241,161	-200,000	0,018	0,124
-240,146	800,000	-0,068	0,213
-239,132	48,447	0,073	0,050
-238,117	130,155	0,006	-0,005
-237,103	800,000	0,041	-0,104
-236,088	59,346	-0,088	0,063
-235,073	75,418	0,034	-0,026
-234,059	229,343	0,087	0,103
-233,044	-118,279	0,171	0,022
-232,030	-200,000	-0,008	0,036
-231,015	-200,000	0,004	-0,012
-230,000	94,993	-0,126	-0,104
-228,986	109,837	-0,061	0,053
-227,971	-27,071	-0,142	0,060
-226,957	800,000	0,035	0,106
-225,942	92,006	-0,055	0,045
-224,927	208,070	0,099	-0,113
-223,913	535,094	-0,046	-0,079
-222,898	800,000	0,046	-0,094
-221,884	-0,313	-0,077	0,039
-220,869	-200,000	-0,001	-0,043
-219,855	9,493	0,056	0,031
-218,840	-89,591	0,188	-0,040
-217,825	-200,000	-0,044	-0,144
-216,811	-26,792	0,150	0,063
-215,796	-200,000	-0,015	-0,055
-214,782	-200,000	0,003	-0,014
-213,767	-19,843	0,015	-0,007
-212,752	-153,514	-0,096	0,005
-211,738	-74,640	-0,126	-0,033
-210,723	-200,000	0,006	-0,070
-209,709	-107,974	-0,062	-0,010
-208,694	16,038	-0,119	0,068
-207,679	-200,000	0,016	0,065
-206,665	118,963	-0,102	0,092
-205,650	-120,610	0,105	0,013
-204,636	442,870	-0,078	0,125
-203,621	50,859	0,116	-0,080
-202,606	-200,000	0,006	0,027
-201,592	-68,867	-0,070	-0,019
-200,577	181,504	-0,041	0,043
-199,563	-31,483	0,141	0,057
-198,548	-200,000	0,022	0,108
-197,533	-2,851	0,165	0,083
-196,519	800,000	-0,042	0,122
-195,504	800,000	-0,049	0,113
-194,490	800,000	-0,074	-0,172
-193,475	-200,000	-0,022	-0,098
-192,460	800,000	-0,012	-0,032
-191,446	800,000	0,083	-0,170
-190,431	724,872	-0,051	0,098
-189,417	254,602	-0,036	0,044
-188,402	800,000	-0,009	-0,027
-187,387	604,154	-0,040	0,073
-186,373	525,683	-0,062	0,106
-185,358	800,000	-0,012	-0,035
-184,344	109,282	0,038	-0,033
-183,329	215,757	0,069	0,080
-182,315	-40,257	-0,056	-0,021
-181,300	-200,000	-0,000	-0,076
-180,285	-187,715	-0,090	0,001
-179,271	-86,846	-0,076	-0,017
-178,256	-200,000	-0,003	-0,155
-177,242	74,421	0,109	-0,083
-176,227	-134,991	0,077	0,007
-175,212	-69,826	0,082	0,022
-174,198	6,693	0,041	0,022
-173,183	-107,115	-0,113	-0,018
-172,169	800,000	-0,046	-0,102
-171,154	87,476	0,008	0,006
-170,139	711,842	0,044	0,085
-169,125	-84,749	0,117	-0,026
-168,110	-56,439	-0,110	0,035
-167,096	-69,122	0,149	0,041
-166,081	64,696	-0,047	0,035
-165,066	142,278	-0,120	-0,115
-164,052	325,016	0,068	-0,095
-163,037	-58,581	0,138	-0,043
-162,023	-151,417	0,039	-0,002
-161,008	712,140	0,047	0,090
-159,993	800,000	-0,033	0,088
-158,979	72,498	0,071	-0,054
-157,964	-200,000	-0,001	-0,123
-156,950	-97,060	-0,063	0,012
-155,935	88,960	0,107	0,087
-154,920	6,855	0,086	-0,046
-153,906	118,940	-0,120	0,107
-152,891	39,349	-0,061	0,039
-151,877	57,438	-0,118	-0,083
-150,862	-79,702	-0,057	0,014
-149,847	-44,985	-0,082	0,029
-148,833	408,345	0,041	-0,063
-147,818	-33,520	-0,073	0,029
-146,804	235,001	0,120	0,144
-145,789	731,238	0,050	-0,098
-144,775	-200,000	-0,018	0,132
-143,760	-17,298	0,077	-0,035
-142,745	800,000	-0,033	-0,104
-141,731	13,583	0,152	0,085
-140,716	755,733	-0,048	0,095
-139,702	-70,854	-0,033	0,009
-138,687	-64,961	-0,105	-0,031
-137,672	-200,000	0,004	-0,083
-136,658	-119,366	0,031	0,004
-135,643	-200,000	0,000	0,019
-134,629	-62,261	0,027	0,008
-133,614	68,862	0,113	-0,084
-132,599	70,855	0,038	-0,028
-131,585	264,825	-0,109	0,137
-130,570	68,836	-0,095	-0,070
-129,556	-1,657	0,091	-0,046
-128,541	386,899	-0,068	-0,101
-127,526	-94,411	-0,107	-0,021
-126,512	-200,000	0,002	-0,084
-125,497	800,000	0,111	0,243
-124,483	-200,000	0,023	0,079
-123,468	-200,000	-0,004	-0,031
-122,453	-200,000	-0,017	-0,098
-121,439	-162,156	-0,078	0,003
-120,424	-200,000	0,006	0,114
-119,410	43,402	0,095	-0,063
-118,395	174,756	0,053	-0,055
