DTS Sentinel unit serial number:	SN410029Multiplexer serial number:	ORYXHardware model number:	OX2-SRSoftware version number:	ORYX F/W v4,00 Oryx Data Collector v3.7.2.0data status	okinstallation	B4 Nyhavnadifferential loss correction	single-endedforward channel	channel 2reverse channel	N/Adate	2023/12/15time	22:10:13forward acquisition time	300,00reverse acquisition time	0,00gamma	499,1914k internal	0,3132k external	0,3132temperature offset calibration	1,0000default loss term (dB/km)	0,3820temperature slope calibration	1,0000multiplexer offset coefficient	1,0000multiplexer slope coefficient	1,0000fibre end	0,00T internal ref (°C)	21,24T ext. ref 1 (°C)	6,54T ext. ref 2 (°C)	6,75length (m)	temperature (°C)	Stokes	anti-Stokes-744,400	-26,904	-0,075	-0,033
-743,385	-27,659	-0,193	0,083
-742,371	-60,973	0,096	0,030
-741,356	-115,423	-0,290	0,040
-740,342	327,605	0,044	0,063
-739,327	-115,692	-0,265	0,036
-738,312	-161,553	-0,138	0,005
-737,298	-121,703	-0,228	0,028
-736,283	-200,000	0,002	0,109
-735,269	254,268	-0,266	0,338
-734,254	17,320	0,048	0,028
-733,239	-49,631	-0,281	0,099
-732,225	-27,963	0,063	0,027
-731,210	-150,308	0,179	-0,010
-730,196	800,000	0,030	0,078
-729,181	-14,011	-0,024	-0,012
-728,167	632,383	-0,039	0,073
-727,152	123,768	-0,045	-0,042
-726,137	573,750	-0,035	-0,064
-725,123	-200,000	-0,013	-0,141
-724,108	15,274	-0,083	-0,048
-723,094	-89,260	-0,054	-0,012
-722,079	92,505	-0,044	-0,037
-721,064	389,291	-0,065	-0,100
-720,050	650,111	0,021	0,041
-719,035	-32,760	-0,043	0,018
-718,021	-45,102	0,058	0,021
-717,006	-88,047	-0,069	-0,015
-715,991	97,637	-0,151	-0,129
-714,977	88,024	-0,013	-0,011
-713,962	-200,000	0,008	0,049
-712,948	-168,230	-0,170	-0,005
-711,933	-88,126	0,154	0,034
-710,918	19,483	0,036	0,021
-709,904	335,135	-0,054	0,078
-708,889	-7,252	-0,050	0,025
-707,875	387,339	-0,060	-0,092
-706,860	113,639	0,083	-0,075
-705,845	532,657	-0,053	0,094
-704,831	-200,000	0,006	0,128
-703,816	-5,657	-0,121	-0,061
-702,802	385,276	-0,065	0,100
-701,787	38,143	-0,163	-0,107
-700,772	800,000	0,040	0,088
-699,758	-86,718	-0,081	-0,018
-698,743	-200,000	0,006	-0,089
-697,729	-80,568	-0,172	0,042
-696,714	-100,437	0,044	0,008
-695,699	-36,692	-0,150	0,060
-694,685	-103,590	-0,141	0,024
-693,670	-200,000	-0,023	-0,192
-692,656	-200,000	0,018	-0,077
-691,641	800,000	0,077	-0,179
-690,627	800,000	0,027	-0,087
-689,612	89,767	0,060	0,050
-688,597	-190,131	-0,114	-0,001
-687,583	477,062	-0,014	-0,023
-686,568	206,800	0,046	-0,053
-685,554	-21,186	0,132	-0,060
-684,539	-169,787	-0,039	0,001
-683,524	-200,000	0,000	-0,037
-682,510	142,315	-0,072	0,071
-681,495	-23,212	0,053	-0,024
-680,481	-39,697	-0,043	-0,017
-679,466	-133,477	-0,237	-0,022
-678,451	-118,318	-0,045	-0,006
-677,437	-200,000	-0,026	0,180
-676,422	-34,061	0,086	-0,035
-675,408	103,401	-0,032	0,028
-674,393	-43,306	0,049	-0,018
-673,378	-200,000	-0,010	0,072
-672,364	-104,862	-0,171	-0,029
-671,349	648,074	-0,015	-0,028
-670,335	150,583	-0,011	0,011
-669,320	-36,851	-0,069	-0,027
-668,305	-120,682	-0,076	-0,009
-667,291	65,286	-0,125	-0,094
-666,276	-200,000	0,003	-0,116
-665,262	800,000	0,045	-0,117
-664,247	111,108	-0,058	-0,051
-663,232	-200,000	-0,000	0,084
-662,218	-200,000	0,014	0,077
-661,203	800,000	0,034	0,078
-660,189	227,837	-0,062	-0,074
-659,174	2,499	0,042	0,023
-658,159	77,389	-0,040	-0,031
-657,145	-41,822	-0,149	-0,056
-656,130	78,586	0,046	-0,036
-655,116	-168,875	-0,023	0,001
-654,101	-117,572	-0,001	-0,000
-653,086	-67,034	0,119	-0,034
-652,072	17,081	-0,091	0,053
-651,057	-9,185	-0,148	0,073
-650,043	21,136	0,082	-0,049
-649,028	-200,000	0,034	-0,133
-648,014	800,000	-0,020	-0,062
-646,999	-160,752	0,101	0,004
-645,984	-4,847	-0,118	-0,060
-644,970	-200,000	0,002	-0,021
-643,955	800,000	0,043	0,127
-642,941	-200,000	0,035	-0,160
-641,926	-104,077	-0,102	0,017
-640,911	251,889	0,027	-0,035
-639,897	509,771	0,052	0,090
-638,882	-120,539	-0,145	-0,018
-637,868	49,456	0,114	0,079
-636,853	34,564	-0,069	-0,044
-635,838	23,769	0,099	-0,061
-634,824	-200,000	-0,022	-0,129
-633,809	-60,006	0,053	0,017
-632,795	-10,049	-0,113	0,056
-631,780	-200,000	0,011	0,069
-630,765	54,276	-0,079	0,056
-629,751	360,357	0,053	-0,078
-628,736	-200,000	-0,022	-0,118
-627,722	-156,239	0,088	-0,004
-626,707	-200,000	0,012	0,083
-625,692	210,640	-0,096	-0,111
-624,678	-29,037	0,019	0,008
-623,663	606,779	0,057	-0,106
-622,649	-4,880	-0,021	0,011
-621,634	320,921	-0,018	0,026
-620,619	194,142	0,029	0,032
-619,605	239,252	0,077	0,095
-618,590	124,014	-0,051	-0,048
-617,576	58,019	0,073	-0,053
-616,561	-14,311	-0,178	-0,084
-615,546	800,000	0,011	-0,036
-614,532	370,135	0,019	-0,028
-613,517	338,396	-0,147	-0,212
-612,503	-163,772	-0,050	0,002
-611,488	601,788	0,055	-0,102
-610,474	-44,473	0,110	0,041
-609,459	102,249	-0,083	0,071
-608,444	-26,014	-0,025	0,011
-607,430	-200,000	-0,008	0,042
-606,415	-18,857	-0,067	0,031
-605,401	-111,171	0,067	-0,010
-604,386	168,776	0,043	-0,045
-603,371	501,471	0,070	0,119
-602,357	431,975	-0,029	-0,047
-601,342	-135,822	0,135	0,012
-600,328	40,956	-0,049	-0,033
-599,313	595,412	0,057	-0,105
-598,298	-106,004	-0,085	0,014
-597,284	281,916	0,051	0,068
-596,269	313,997	-0,034	0,048
-595,255	-65,444	0,095	0,028
-594,240	-38,422	-0,039	-0,015
-593,225	84,507	0,047	-0,038
-592,211	99,418	-0,031	0,026
-591,196	-22,632	-0,030	0,013
-590,182	-200,000	-0,017	-0,125
-589,167	-137,762	0,039	-0,003
-588,152	-88,049	-0,042	-0,009
-587,138	36,122	-0,053	-0,034
-586,123	436,580	-0,067	-0,109
-585,109	800,000	0,041	-0,096
-584,094	246,880	0,040	0,050
-583,079	169,083	-0,023	-0,024
-582,065	-200,000	-0,014	-0,248
-581,050	454,936	0,039	-0,064
-580,036	-120,892	-0,093	-0,011
-579,021	-0,105	-0,092	-0,048
-578,006	-200,000	0,030	-0,183
-576,992	-11,304	-0,149	0,072
-575,977	34,666	-0,164	0,106
-574,963	-20,949	-0,115	0,052
-573,948	800,000	-0,019	0,044
-572,934	181,901	0,061	0,067
-571,919	-200,000	0,032	-0,116
-570,904	800,000	0,026	-0,079
-569,890	-200,000	0,011	-0,079
-568,875	8,248	0,128	0,071
-567,861	-188,675	0,084	0,001
-566,846	-107,549	0,048	0,008
-565,831	115,574	-0,053	-0,047
-564,817	-46,596	0,134	-0,048
-563,802	-200,000	0,031	-0,187
-562,788	800,000	-0,028	-0,079
-561,773	-200,000	-0,012	-0,068
-560,758	529,377	0,053	0,093
-559,744	-60,070	0,063	0,020
-558,729	800,000	-0,045	-0,131
-557,715	62,920	-0,095	-0,070
-556,700	629,986	-0,068	0,128
-555,685	-120,980	-0,036	-0,004
-554,671	-200,000	-0,008	-0,061
-553,656	646,487	-0,081	0,154
-552,642	570,652	-0,063	0,114
-551,627	71,153	-0,091	0,069
-550,612	-154,198	-0,078	-0,004
-549,598	94,984	-0,078	0,066
-548,583	-71,905	-0,108	0,029
-547,569	-114,379	-0,134	0,019
-546,554	55,496	0,012	-0,009
-545,539	26,221	0,129	-0,079
-544,525	-200,000	-0,004	-0,152
-543,510	-200,000	-0,005	-0,103
-542,496	-114,027	-0,100	-0,014
-541,481	191,685	-0,084	-0,093
-540,466	-200,000	-0,028	-0,169
-539,452	800,000	0,029	-0,083
-538,437	76,516	0,087	-0,068
-537,423	13,574	0,124	0,071
-536,408	-174,380	0,070	-0,001
-535,393	513,227	-0,045	-0,077
-534,379	-153,074	-0,118	0,006
-533,364	82,438	-0,121	0,096
-532,350	-200,000	-0,005	0,066
-531,335	46,879	0,051	-0,035
-530,321	219,162	0,045	-0,053
-529,306	-104,513	-0,176	-0,030
-528,291	-159,563	0,066	-0,003
-527,277	-200,000	0,011	-0,073
-526,262	-200,000	0,004	0,082
-525,248	-192,979	0,149	0,001
-524,233	-62,902	-0,044	-0,013
-523,218	393,276	0,054	0,083
-522,204	-24,541	-0,081	0,035
-521,189	276,380	0,005	0,007
-520,175	-200,000	-0,022	-0,080
-519,160	800,000	0,029	-0,072
-518,145	-42,226	0,089	0,033
-517,131	169,868	0,083	0,087
-516,116	60,138	-0,013	-0,009
-515,102	45,957	0,074	-0,050
-514,087	68,336	-0,066	0,050
-513,072	-57,172	-0,043	0,014
-512,058	323,150	0,065	0,091
-511,043	-88,643	0,051	-0,011
-510,029	-80,147	0,162	0,040
-509,014	-200,000	0,003	0,037
-507,999	-42,538	-0,072	-0,027
-506,985	800,000	0,022	-0,051
-505,970	153,183	-0,036	0,036
-504,956	49,477	-0,144	-0,099
-503,941	231,537	-0,021	0,025
-502,926	-200,000	-0,023	0,079
-501,912	-200,000	-0,001	0,072
-500,897	101,494	-0,067	0,057
-499,883	-100,441	0,098	0,018
-498,868	-31,705	-0,143	-0,059
-497,853	800,000	-0,037	-0,112
-496,839	-200,000	-0,012	-0,092
-495,824	-147,331	-0,085	0,005
-494,810	-200,000	0,010	0,044
-493,795	-38,680	0,085	0,033
-492,781	106,989	-0,018	-0,016
-491,766	44,759	-0,097	0,066
-490,751	-40,271	0,157	-0,060
-489,737	44,628	-0,097	-0,065
-488,722	59,058	0,125	0,091
-487,708	48,960	0,105	-0,073
-486,693	-111,093	-0,047	0,007
-485,678	800,000	0,028	-0,059
-484,664	-163,537	-0,091	0,003
-483,649	-151,469	0,061	0,003
-482,635	-200,000	0,003	0,063
-481,620	-165,660	-0,109	-0,003
-480,605	685,833	-0,056	0,109
-479,591	178,569	-0,088	0,095
-478,576	-18,063	0,093	0,043
-477,562	800,000	-0,065	0,142
-476,547	-200,000	0,010	-0,100
-475,532	-200,000	-0,041	-0,145
-474,518	87,635	0,024	0,020
-473,503	20,150	-0,029	0,017
-472,489	322,158	0,069	-0,096
-471,474	-8,324	-0,052	0,026
-470,459	-60,210	-0,091	-0,028
-469,445	614,007	-0,035	-0,064
-468,430	-200,000	0,010	-0,038
-467,416	26,726	0,038	0,023
-466,401	-113,731	-0,076	0,011
-465,386	150,428	-0,045	-0,045
-464,372	744,443	-0,009	-0,019
-463,357	-200,000	0,040	-0,146
-462,343	17,560	0,077	0,045
-461,328	6,688	0,028	-0,015
-460,313	-200,000	-0,020	-0,137
-459,299	744,532	0,025	-0,050
-458,284	-63,438	-0,116	0,035
-457,270	17,213	0,029	0,017
-456,255	375,270	-0,065	-0,098
-455,241	165,012	-0,030	-0,031
-454,226	141,185	-0,010	-0,010
-453,211	411,025	-0,028	0,044
-452,197	-200,000	0,011	-0,042
-451,182	-93,442	-0,161	0,033
-450,168	-89,176	0,071	0,015
-449,153	81,241	-0,052	0,042
-448,138	-1,774	-0,042	0,022
-447,124	-144,469	-0,072	0,005
-446,109	282,806	0,016	-0,022
-445,095	800,000	0,050	0,135
-444,080	42,731	0,044	-0,029
-443,065	32,576	-0,032	0,020
-442,051	-59,210	-0,106	-0,033
-441,036	-200,000	-0,000	-0,028
-440,022	-125,336	0,205	-0,023
-439,007	-200,000	0,001	-0,068
-437,992	311,238	0,027	-0,037
-436,978	-106,396	-0,113	-0,018
-435,963	303,015	0,051	-0,070
-434,949	84,470	-0,129	0,104
-433,934	-200,000	-0,031	0,109
-432,919	-200,000	-0,005	-0,049
-431,905	-191,222	0,046	-0,000
-430,890	-200,000	-0,019	-0,134
-429,876	-59,339	0,130	-0,041
-428,861	-103,341	-0,059	-0,010
-427,846	270,617	0,034	0,044
-426,832	72,787	0,141	-0,108
-425,817	341,010	-0,046	-0,066
-424,803	-200,000	0,030	-0,114
-423,788	-200,000	-0,001	-0,038
-422,773	395,767	0,089	0,137
-421,759	-8,510	0,014	-0,007
-420,744	188,068	-0,039	0,043
-419,730	451,792	0,037	0,061
-418,715	251,858	-0,015	0,019
-417,701	41,896	-0,128	-0,085
-416,686	174,454	0,084	-0,089
-415,671	492,339	0,070	0,119
-414,657	-200,000	-0,011	0,143
-413,642	800,000	0,056	-0,150
-412,628	-2,291	0,057	-0,029
-411,613	64,231	-0,067	-0,049
-410,598	-200,000	-0,009	0,085
-409,584	671,225	0,055	0,105
-408,569	-21,436	0,209	0,093
-407,555	92,448	0,083	0,069
-406,540	470,571	-0,044	-0,073
-405,525	308,254	-0,036	-0,049
-404,511	426,463	-0,015	-0,024
-403,496	-97,178	0,147	0,028
-402,482	166,319	0,060	0,063
-401,467	0,422	0,040	0,021
-400,452	-148,475	-0,087	-0,005
-399,438	-44,592	-0,085	-0,031
-398,423	79,415	0,110	-0,086
-397,409	-82,813	-0,109	-0,026
-396,394	-78,255	-0,070	-0,018
-395,379	140,224	0,118	-0,114
-394,365	-200,000	0,007	0,083
-393,350	-38,805	0,088	-0,034
-392,336	-200,000	-0,036	0,160
-391,321	800,000	0,052	0,120
-390,306	-200,000	-0,050	-0,000
-389,292	711,425	0,019	-0,036
-388,277	-200,000	0,003	-0,087
-387,263	800,000	0,047	0,105
-386,248	7,709	0,050	0,027
-385,233	146,931	-0,084	0,083
-384,219	22,816	0,062	-0,037
-383,204	-6,628	-0,027	-0,013
-382,190	693,878	-0,033	0,064
-381,175	-54,615	-0,069	-0,023
-380,160	-200,000	0,018	0,092
-379,146	537,226	0,026	0,046
-378,131	-57,725	0,194	-0,062
-377,117	54,933	0,040	0,028
-376,102	8,861	0,034	0,019
-375,088	82,268	0,063	-0,050
-374,073	-200,000	-0,013	0,143
-373,058	204,549	-0,032	0,036
-372,044	235,490	-0,116	0,140
-371,029	-51,504	0,049	0,017
-370,015	-50,494	0,014	-0,005
-369,000	152,641	0,035	0,035
-367,985	0,503	-0,065	0,034
-366,971	800,000	-0,043	0,124
-365,956	-200,000	0,008	0,055
-364,942	-200,000	0,005	0,078
-363,927	-92,770	-0,137	0,028
-362,912	-200,000	0,021	0,105
-361,898	103,144	0,030	0,026
-360,883	2,861	-0,129	-0,069
-359,869	-144,013	-0,092	-0,006
-358,854	-200,000	0,021	0,153
-357,839	800,000	-0,028	-0,073
-356,825	178,205	0,066	0,070
-355,810	496,943	-0,031	0,053
-354,796	-84,790	-0,059	-0,013
-353,781	2,992	0,048	0,026
-352,766	-91,473	-0,052	-0,011
-351,752	-136,707	0,010	-0,001
-350,737	-200,000	0,035	0,147
-349,723	89,949	0,039	0,032
-348,708	-14,466	-0,045	0,021
-347,693	-39,258	-0,073	-0,028
-346,679	-200,000	-0,022	-0,182
-345,664	-103,574	-0,146	0,025
-344,650	800,000	-0,033	0,067
-343,635	-68,429	-0,083	-0,023
-342,620	-90,600	0,175	-0,037
-341,606	155,566	0,095	0,096
-340,591	800,000	-0,035	-0,079
-339,577	474,487	0,036	-0,059
-338,562	315,590	-0,071	-0,098
-337,548	101,724	0,100	-0,086
-336,533	202,682	0,083	-0,094
-335,518	-40,647	0,101	-0,038
-334,504	65,800	0,088	-0,065
-333,489	106,007	0,055	0,048
-332,475	-66,199	-0,041	0,012
-331,460	-32,343	0,043	0,017
-330,445	137,044	-0,056	-0,053
-329,431	115,136	-0,042	0,037
-328,416	7,152	0,091	0,050
-327,402	177,467	0,025	0,027
-326,387	-3,780	0,158	-0,080
-325,372	7,487	0,064	0,035
-324,358	154,134	-0,037	0,037
-323,343	71,558	-0,094	-0,071
-322,329	-23,509	0,095	-0,042
-321,314	618,460	0,045	0,083
-320,299	206,653	-0,118	0,134
-319,285	120,517	-0,055	-0,050
-318,270	-200,000	-0,019	-0,119
-317,256	-200,000	0,001	-0,052
-316,241	-10,698	0,085	0,041
-315,226	-200,000	-0,008	0,040
-314,212	-200,000	0,049	0,170
-313,197	-128,038	0,123	0,013
-312,183	-200,000	0,013	0,130
-311,168	-200,000	0,013	-0,054
-310,153	-18,611	0,049	-0,022
-309,139	-200,000	0,001	-0,055
-308,124	4,262	0,149	-0,079
-307,110	-200,000	-0,002	0,053
-306,095	217,119	-0,077	0,089
-305,080	-58,423	0,071	-0,022
-304,066	-106,444	0,058	-0,009
-303,051	292,506	0,038	-0,051
-302,037	121,776	-0,122	-0,112
-301,022	-200,000	0,012	0,142
-300,008	-200,000	0,004	0,226
-298,993	800,000	0,064	0,187
-297,978	-116,934	0,055	0,007
-296,964	82,418	-0,106	-0,084
-295,949	-49,953	0,106	-0,037
-294,935	162,032	-0,034	-0,035
-293,920	-121,941	0,136	-0,016
-292,905	800,000	-0,045	0,114
-291,891	-200,000	0,019	0,092
-290,876	-200,000	0,001	0,065
-289,862	146,089	-0,090	-0,088
-288,847	-144,851	-0,065	0,004
-287,832	752,641	-0,061	0,121
-286,818	152,318	0,025	0,025
-285,803	800,000	0,007	-0,020
-284,789	140,423	0,105	-0,101
-283,774	187,351	0,054	0,059
-282,759	536,833	0,036	-0,062
-281,745	210,362	-0,064	-0,073
-280,730	454,952	0,057	-0,092
-279,716	-13,635	0,119	-0,056
-278,701	800,000	0,022	-0,068
-277,686	-93,844	0,070	-0,014
-276,672	-200,000	-0,001	-0,044
-275,657	-26,942	-0,054	-0,023
-274,643	165,905	-0,038	0,039
-273,628	2,443	0,064	0,033
-272,613	-200,000	-0,020	0,119
-271,599	72,825	0,104	-0,079
-270,584	-163,758	0,146	-0,005
-269,570	-54,601	-0,021	0,007
-268,555	800,000	0,010	-0,031
-267,540	800,000	-0,027	0,086
-266,526	-200,000	0,015	-0,099
-265,511	67,223	-0,116	-0,086
-264,497	-200,000	-0,024	0,127
-263,482	-200,000	-0,008	0,068
-262,467	-200,000	-0,000	0,039
-261,453	497,687	0,059	0,099
-260,438	55,724	-0,029	0,021
-259,424	-44,530	-0,180	0,065
-258,409	-152,267	0,072	0,004
-257,395	-126,222	0,040	-0,004
-256,380	800,000	0,060	0,126
-255,365	-200,000	0,027	0,169
-254,351	800,000	-0,037	0,088
-253,336	-200,000	-0,000	0,016
-252,322	-200,000	-0,029	0,113
-251,307	800,000	-0,044	-0,105
-250,292	-21,630	-0,014	-0,006
-249,278	148,243	0,058	-0,057
-248,263	800,000	0,040	0,094
-247,249	-8,149	-0,101	0,049
-246,234	-54,412	-0,023	0,008
-245,219	-116,048	-0,081	-0,011
-244,205	800,000	0,031	-0,071
-243,190	-22,642	-0,085	0,037
-242,176	799,676	-0,046	0,093
-241,161	56,072	0,095	0,067
-240,146	-200,000	0,003	-0,035
-239,132	277,457	-0,032	0,041
-238,117	253,607	0,074	-0,093
-237,103	-200,000	-0,010	-0,046
-236,088	773,179	-0,035	0,070
-235,073	-200,000	-0,034	0,151
-234,059	16,119	0,024	0,014
-233,044	-45,768	-0,192	0,069
-232,030	-61,501	-0,167	-0,051
-231,015	4,821	0,086	-0,046
-230,000	61,411	0,054	-0,039
-228,986	-200,000	0,011	-0,065
-227,971	31,429	0,118	-0,074
-226,957	-42,237	-0,156	0,058
-225,942	135,391	0,094	0,089
-224,927	-200,000	0,002	0,072
-223,913	613,441	0,072	-0,131
-222,898	253,978	0,091	0,113
-221,884	800,000	-0,015	-0,043
-220,869	599,736	0,078	0,142
-219,855	-84,205	-0,046	-0,011
-218,840	168,735	0,024	-0,025
-217,825	800,000	0,024	-0,067
-216,811	-68,954	-0,194	-0,054
-215,796	159,237	-0,045	-0,046
-214,782	166,019	0,053	0,055
-213,767	800,000	-0,041	-0,101
-212,752	800,000	-0,023	0,048
-211,738	800,000	-0,061	0,133
-210,723	-39,784	-0,081	0,031
-209,709	162,577	-0,028	0,029
-208,694	-44,425	0,019	-0,007
-207,679	-26,585	-0,031	0,013
-206,665	357,890	0,036	0,052
-205,650	800,000	-0,038	-0,079
-204,636	-3,394	0,154	0,078
-203,621	227,436	-0,052	-0,061
-202,606	285,180	-0,038	-0,049
-201,592	621,536	-0,005	0,009
-200,577	270,181	0,058	-0,075
-199,563	-200,000	-0,005	-0,027
-198,548	29,748	-0,090	0,055
-197,533	165,608	-0,002	-0,002
-196,519	-23,906	-0,060	0,026
-195,504	62,559	0,098	-0,072
-194,490	56,842	0,084	0,059
-193,475	-33,117	-0,109	0,044
-192,460	51,250	0,075	-0,052
-191,446	-200,000	0,028	0,196
-190,431	-200,000	0,038	0,145
-189,417	-200,000	0,020	0,116
-188,402	222,239	-0,053	0,063
-187,387	800,000	-0,042	-0,090
-186,373	-106,429	-0,130	0,021
-185,358	-2,349	-0,079	-0,040
-184,344	-30,880	0,082	0,034
-183,329	316,072	0,016	0,022
-182,315	-141,834	-0,071	0,005
-181,300	-83,762	-0,058	-0,013
-180,285	-178,365	0,170	-0,003
-179,271	100,713	-0,063	-0,053
-178,256	125,866	0,055	-0,050
-177,242	446,380	0,030	-0,048
-176,227	-51,745	0,125	-0,042
-175,212	-60,068	-0,017	-0,005
-174,198	-200,000	-0,031	-0,114
-173,183	253,431	-0,102	-0,126
-172,169	-200,000	0,001	0,026
-171,154	170,565	-0,112	-0,117
-170,139	376,504	0,067	0,100
-169,125	-200,000	0,062	0,202
-168,110	-42,945	0,133	0,049
-167,096	509,866	0,039	0,066
-166,081	-107,539	0,065	0,010
-165,066	-200,000	0,012	-0,084
-164,052	-7,180	-0,099	-0,049
-163,037	276,408	-0,060	0,078
-162,023	-200,000	-0,011	0,143
-161,008	800,000	0,078	-0,173
-159,993	19,514	0,140	-0,081
-158,979	-200,000	-0,007	-0,182
-157,964	45,061	-0,081	0,054
-156,950	-200,000	0,006	-0,034
-155,935	-200,000	-0,012	0,093
-154,920	-34,388	-0,059	0,023
-153,906	556,150	0,027	0,047
-152,891	-200,000	0,001	0,009
-151,877	-200,000	-0,023	-0,103
-150,862	372,325	-0,028	-0,042
-149,847	133,782	-0,115	-0,108
-148,833	800,000	0,016	0,038
-147,818	439,215	0,055	0,088
-146,804	246,566	0,064	-0,078
-145,789	-0,974	0,035	-0,018
-144,775	-30,146	-0,117	-0,048
-143,760	316,459	-0,053	0,073
-142,745	-200,000	-0,015	0,142
-141,731	800,000	0,019	0,041
-140,716	-13,464	-0,139	-0,065
-139,702	800,000	-0,024	0,051
-138,687	-21,332	0,089	0,039
-137,672	-200,000	-0,015	0,062
-136,658	800,000	-0,010	-0,022
-135,643	-200,000	0,020	-0,183
-134,629	521,151	0,043	0,073
-133,614	-151,504	0,065	0,003
-132,599	91,193	0,038	0,031
-131,585	-59,649	-0,075	0,023
-130,570	-3,015	-0,089	-0,045
-129,556	17,976	0,035	-0,020
-128,541	92,916	0,084	-0,069
-127,526	-115,957	0,194	-0,026
-126,512	136,386	0,085	-0,080
-125,497	-200,000	0,006	-0,036
-124,483	800,000	-0,011	-0,034
-123,468	-200,000	0,013	-0,052
-122,453	38,733	-0,002	0,001
-121,439	-200,000	-0,028	-0,127
-120,424	302,109	-0,045	0,061
-119,410	-24,814	0,137	-0,059
-118,395	579,361	0,041	-0,073
