DTS Sentinel unit serial number:	SN410029Multiplexer serial number:	ORYXHardware model number:	OX2-SRSoftware version number:	ORYX F/W v4,00 Oryx Data Collector v3.7.2.0data status	okinstallation	B4 Nyhavnadifferential loss correction	single-endedforward channel	channel 2reverse channel	N/Adate	2023/12/19time	04:20:13forward acquisition time	300,00reverse acquisition time	0,00gamma	499,1914k internal	0,3126k external	0,3126temperature offset calibration	1,0000default loss term (dB/km)	0,3820temperature slope calibration	1,0000multiplexer offset coefficient	1,0000multiplexer slope coefficient	1,0000fibre end	0,00T internal ref (°C)	20,93T ext. ref 1 (°C)	6,13T ext. ref 2 (°C)	6,29length (m)	temperature (°C)	Stokes	anti-Stokes-744,400	800,000	-0,045	-0,129
-743,385	-95,026	-0,211	0,042
-742,371	800,000	0,035	-0,081
-741,356	102,815	-0,194	0,169
-740,342	239,742	0,049	-0,061
-739,327	128,607	-0,312	0,296
-738,312	333,378	0,123	-0,178
-737,298	34,862	-0,279	0,181
-736,283	-200,000	0,008	-0,155
-735,269	120,743	-0,176	0,163
-734,254	-200,000	-0,017	0,130
-733,239	-100,513	-0,440	-0,080
-732,225	51,362	0,110	0,077
-731,210	-200,000	-0,010	-0,084
-730,196	66,513	-0,073	0,055
-729,181	-200,000	-0,014	-0,055
-728,167	21,787	-0,070	0,043
-727,152	-125,149	0,123	0,014
-726,137	-8,195	-0,081	-0,041
-725,123	165,238	-0,067	-0,070
-724,108	-100,372	-0,119	0,022
-723,094	227,829	-0,143	-0,173
-722,079	800,000	0,047	-0,136
-721,064	21,750	-0,071	-0,043
-720,050	-200,000	0,021	-0,126
-719,035	4,257	-0,071	-0,038
-718,021	800,000	-0,020	-0,048
-717,006	628,006	-0,042	-0,080
-715,991	-147,205	-0,075	-0,005
-714,977	-158,306	-0,161	-0,007
-713,962	-144,507	0,118	0,008
-712,948	800,000	-0,035	0,093
-711,933	800,000	-0,041	0,115
-710,918	-159,374	-0,091	-0,004
-709,904	517,230	-0,030	-0,052
-708,889	754,865	-0,064	-0,129
-707,875	-110,426	-0,083	-0,013
-706,860	-200,000	-0,003	-0,090
-705,845	800,000	0,029	0,081
-704,831	700,845	0,062	-0,121
-703,816	152,135	-0,012	0,012
-702,802	-200,000	-0,009	-0,089
-701,787	39,101	-0,093	0,062
-700,772	728,383	-0,070	-0,140
-699,758	-6,040	-0,017	-0,008
-698,743	41,953	-0,035	0,023
-697,729	32,314	-0,125	-0,080
-696,714	76,761	0,084	0,066
-695,699	20,956	-0,149	-0,090
-694,685	46,450	-0,137	-0,094
-693,670	-71,711	0,142	0,039
-692,656	443,803	-0,027	0,044
-691,641	-37,969	0,127	0,050
-690,627	51,484	-0,046	-0,032
-689,612	800,000	0,036	0,116
-688,597	26,838	-0,028	0,017
-687,583	-200,000	0,007	-0,101
-686,568	-93,758	-0,248	-0,050
-685,554	-176,159	0,033	0,001
-684,539	564,401	0,018	0,033
-683,524	-200,000	0,038	0,194
-682,510	-200,000	0,003	-0,012
-681,495	211,628	0,055	0,064
-680,481	-179,547	0,045	0,001
-679,466	146,176	-0,085	-0,085
-678,451	258,858	0,029	0,038
-677,437	346,177	-0,064	0,094
-676,422	135,796	0,057	0,056
-675,408	714,483	0,007	-0,013
-674,393	-200,000	0,002	0,132
-673,378	59,524	-0,085	-0,062
-672,364	-46,874	-0,068	-0,024
-671,349	-42,789	0,080	-0,030
-670,335	-94,461	0,097	0,019
-669,320	-83,353	-0,070	0,017
-668,305	134,762	-0,023	0,022
-667,291	-41,143	0,045	0,017
-666,276	-164,731	-0,140	-0,005
-665,262	-200,000	-0,008	-0,099
-664,247	10,012	0,032	-0,018
-663,232	466,086	-0,050	0,083
-662,218	-7,561	0,041	0,021
-661,203	-141,508	-0,142	-0,010
-660,189	-200,000	0,022	-0,119
-659,174	-34,407	0,035	-0,014
-658,159	20,316	-0,112	-0,067
-657,145	-49,268	0,056	-0,020
-656,130	-200,000	-0,011	-0,043
-655,116	-200,000	-0,003	-0,018
-654,101	-24,705	0,062	0,027
-653,086	79,165	-0,117	-0,093
-652,072	-55,048	-0,171	0,057
-651,057	-200,000	-0,017	-0,062
-650,043	-200,000	0,004	-0,176
-649,028	72,742	-0,104	-0,080
-648,014	68,298	0,040	0,030
-646,999	-98,899	0,077	0,014
-645,984	413,359	-0,041	-0,064
-644,970	92,506	0,065	0,054
-643,955	-181,354	-0,118	0,002
-642,941	800,000	-0,058	-0,162
-641,926	-176,797	-0,021	0,000
-640,911	425,085	-0,037	-0,059
-639,897	-57,558	-0,153	-0,050
-638,882	-44,839	-0,229	0,084
-637,868	-79,824	0,030	0,007
-636,853	-71,276	0,064	0,018
-635,838	-200,000	-0,010	-0,098
-634,824	307,398	0,011	-0,016
-633,809	-200,000	-0,006	-0,083
-632,795	-200,000	-0,017	-0,110
-631,780	-200,000	0,010	0,138
-630,765	-200,000	0,006	0,182
-629,751	-200,000	0,009	-0,053
-628,736	588,228	0,011	0,021
-627,722	800,000	0,013	-0,028
-626,707	-200,000	0,041	-0,154
-625,692	-63,842	0,117	-0,035
-624,678	189,225	-0,044	-0,049
-623,663	-200,000	0,013	0,077
-622,649	19,776	0,132	-0,079
-621,634	222,918	0,038	-0,046
-620,619	326,172	-0,023	-0,032
-619,605	154,704	0,027	-0,027
-618,590	-106,133	0,153	0,025
-617,576	320,989	-0,027	-0,038
-616,561	37,925	-0,063	-0,041
-615,546	-83,332	-0,133	0,031
-614,532	-188,713	0,099	-0,001
-613,517	-200,000	-0,028	-0,158
-612,503	5,875	0,154	-0,084
-611,488	-200,000	-0,000	0,062
-610,474	529,834	0,030	0,053
-609,459	800,000	-0,048	-0,132
-608,444	560,997	0,038	-0,068
-607,430	596,710	-0,048	0,089
-606,415	-92,848	-0,068	-0,014
-605,401	345,957	0,094	0,137
-604,386	-200,000	-0,044	0,188
-603,371	109,198	0,106	0,094
-602,357	240,405	-0,128	-0,159
-601,342	-200,000	0,014	-0,047
-600,328	-200,000	-0,015	-0,112
-599,313	116,850	-0,120	-0,109
-598,298	-24,704	-0,079	-0,035
-597,284	53,093	-0,093	0,066
-596,269	40,067	0,016	-0,010
-595,255	-111,829	-0,140	0,021
-594,240	326,897	-0,056	-0,080
-593,225	-22,507	0,043	-0,019
-592,211	347,394	0,080	-0,117
-591,196	255,740	0,102	-0,130
-590,182	-108,726	-0,135	0,021
-589,167	97,843	0,101	0,086
-588,152	-186,674	-0,084	0,001
-587,138	217,286	-0,057	0,067
-586,123	-200,000	0,019	-0,069
-585,109	-150,771	-0,128	0,007
-584,094	800,000	-0,030	-0,061
-583,079	-42,777	-0,014	-0,005
-582,065	5,074	-0,113	0,061
-581,050	148,713	-0,067	0,067
-580,036	243,385	-0,030	0,037
-579,021	800,000	-0,071	-0,199
-578,006	-66,842	-0,061	-0,018
-576,992	-200,000	0,002	-0,031
-575,977	800,000	-0,029	-0,078
-574,963	-84,217	-0,107	-0,025
-573,948	345,793	0,075	0,110
-572,934	148,922	0,079	-0,080
-571,919	-93,587	-0,053	-0,011
-570,904	-200,000	0,002	0,061
-569,890	-200,000	0,016	0,059
-568,875	-200,000	0,012	0,121
-567,861	79,816	-0,111	0,088
-566,846	-99,232	-0,053	0,010
-565,831	97,283	0,040	0,034
-564,817	800,000	0,020	0,054
-563,802	800,000	0,074	-0,170
-562,788	-157,153	0,055	-0,002
-561,773	800,000	0,039	-0,103
-560,758	800,000	0,032	0,103
-559,744	421,821	0,056	0,089
-558,729	-200,000	0,018	-0,107
-557,715	425,533	0,048	-0,076
-556,700	71,817	0,063	0,048
-555,685	-200,000	0,001	-0,107
-554,671	3,898	0,039	-0,021
-553,656	800,000	-0,032	0,081
-552,642	25,625	0,063	0,038
-551,627	-124,522	-0,070	-0,008
-550,612	-150,020	0,178	-0,010
-549,598	163,623	-0,026	-0,027
-548,583	517,393	0,049	-0,086
-547,569	59,753	0,040	-0,029
-546,554	756,272	-0,099	0,198
-545,539	-200,000	0,006	0,064
-544,525	800,000	-0,023	-0,056
-543,510	-101,598	-0,087	-0,015
-542,496	161,957	-0,043	0,045
-541,481	-51,379	0,119	-0,041
-540,466	-47,901	0,085	-0,030
-539,452	800,000	0,030	0,077
-538,437	800,000	0,081	0,194
-537,423	25,261	-0,109	-0,067
-536,408	-112,579	-0,026	0,004
-535,393	607,555	0,057	-0,106
-534,379	800,000	-0,036	-0,081
-533,364	606,212	-0,015	0,027
-532,350	-200,000	0,029	0,167
-531,335	199,514	-0,081	-0,092
-530,321	-57,809	0,004	0,001
-529,306	23,983	0,113	0,069
-528,291	-148,286	0,156	-0,009
-527,277	-134,379	-0,080	-0,007
-526,262	35,410	-0,054	-0,035
-525,248	-84,084	0,103	0,024
-524,233	171,658	-0,069	0,074
-523,218	-19,724	-0,075	-0,034
-522,204	-200,000	0,001	0,052
-521,189	-50,420	-0,101	-0,035
-520,175	-200,000	-0,012	-0,068
-519,160	-135,465	-0,079	-0,007
-518,145	23,198	-0,052	0,031
-517,131	800,000	-0,037	0,111
-516,116	-200,000	-0,016	0,073
-515,102	-44,247	0,106	0,039
-514,087	42,875	-0,062	0,042
-513,072	-200,000	0,004	-0,063
-512,058	502,402	0,063	0,107
-511,043	347,361	0,063	-0,092
-510,029	-123,981	-0,162	0,019
-509,014	800,000	-0,012	-0,031
-507,999	9,641	-0,090	0,050
-506,985	-17,902	0,072	0,033
-505,970	-200,000	0,002	0,157
-504,956	-115,194	-0,073	0,010
-503,941	782,056	0,043	-0,088
-502,926	239,546	-0,056	0,068
-501,912	-38,676	0,129	0,050
-500,897	-147,452	0,132	0,008
-499,883	173,314	0,033	-0,035
-498,868	-200,000	-0,004	0,046
-497,853	-200,000	0,009	-0,093
-496,839	6,906	0,119	0,065
-495,824	-200,000	-0,010	0,069
-494,810	-76,415	0,133	0,034
-493,795	117,549	0,070	0,064
-492,781	-55,408	-0,077	0,025
-491,766	577,263	0,015	0,028
-490,751	800,000	-0,010	-0,025
-489,737	-15,297	-0,118	0,055
-488,722	86,883	0,091	0,074
-487,708	800,000	-0,027	0,082
-486,693	-65,929	0,081	0,024
-485,678	81,649	-0,032	-0,026
-484,664	22,851	0,011	-0,007
-483,649	311,497	0,066	-0,091
-482,635	107,383	-0,037	-0,032
-481,620	800,000	-0,029	0,075
-480,605	-86,281	0,145	0,033
-479,591	242,249	0,037	-0,046
-478,576	-91,210	0,150	-0,031
-477,562	-122,692	0,142	0,017
-476,547	-200,000	0,005	0,058
-475,532	-135,583	-0,098	0,008
-474,518	57,269	-0,034	-0,025
-473,503	800,000	0,007	-0,017
-472,489	-1,733	0,063	0,033
-471,474	800,000	0,048	-0,119
-470,459	-200,000	-0,039	0,133
-469,445	367,393	-0,024	0,035
-468,430	-31,500	-0,050	-0,021
-467,416	-76,732	0,136	-0,035
-466,401	-200,000	0,002	0,087
-465,386	-129,575	0,101	-0,010
-464,372	800,000	-0,022	-0,068
-463,357	59,457	0,059	-0,043
-462,343	-200,000	-0,002	0,071
-461,328	800,000	0,042	-0,117
-460,313	339,179	0,023	-0,033
-459,299	-106,194	-0,037	-0,006
-458,284	158,849	-0,057	0,059
-457,270	800,000	0,015	0,034
-456,255	-200,000	0,019	-0,076
-455,241	75,197	-0,064	0,050
-454,226	800,000	-0,015	-0,047
-453,211	-200,000	0,007	-0,084
-452,197	-200,000	0,014	-0,099
-451,182	-31,542	-0,058	0,024
-450,168	-91,284	0,070	-0,015
-449,153	-200,000	0,008	-0,026
-448,138	422,460	-0,110	-0,174
-447,124	-134,494	-0,111	-0,010
-446,109	-96,929	-0,061	0,012
-445,095	639,329	-0,024	0,046
-444,080	-74,651	-0,062	0,016
-443,065	-200,000	-0,022	-0,120
-442,051	800,000	-0,025	-0,071
-441,036	-200,000	0,003	-0,075
-440,022	139,278	0,013	0,013
-439,007	800,000	-0,014	-0,034
-437,992	144,228	0,048	0,047
-436,978	-25,317	0,162	0,070
-435,963	656,729	0,105	-0,200
-434,949	95,192	-0,032	-0,027
-433,934	391,302	-0,072	-0,111
-432,919	-200,000	-0,006	-0,093
-431,905	-100,776	0,181	0,032
-430,890	-163,536	0,175	0,006
-429,876	-78,449	-0,065	0,016
-428,861	199,235	0,059	0,067
-427,846	663,914	0,043	-0,082
-426,832	-50,122	-0,159	0,055
-425,817	-200,000	0,015	-0,122
-424,803	-88,246	0,181	-0,040
-423,788	-122,385	-0,066	0,008
-422,773	309,288	-0,035	-0,049
-421,759	-200,000	-0,049	0,170
-420,744	45,505	0,042	0,028
-419,730	800,000	0,039	-0,086
-418,715	-143,162	0,075	0,005
-417,701	299,285	-0,022	0,030
-416,686	-38,186	-0,082	-0,032
-415,671	-11,083	0,167	0,081
-414,657	351,641	-0,080	0,117
-413,642	-12,469	0,025	0,012
-412,628	-200,000	0,006	-0,044
-411,613	433,244	-0,076	0,122
-410,598	101,716	-0,051	-0,044
-409,584	-200,000	-0,013	0,110
-408,569	143,947	0,091	-0,089
-407,555	-200,000	-0,018	0,099
-406,540	-200,000	-0,006	-0,099
-405,525	-200,000	-0,019	-0,076
-404,511	-200,000	0,000	-0,059
-403,496	-154,073	-0,055	0,003
-402,482	-200,000	-0,032	0,116
-401,467	-200,000	-0,014	0,143
-400,452	800,000	-0,017	-0,046
-399,438	-27,065	-0,078	0,033
-398,423	181,919	-0,058	0,062
-397,409	800,000	-0,029	0,082
-396,394	800,000	-0,030	-0,090
-395,379	-200,000	-0,028	-0,132
-394,365	9,057	0,021	0,011
-393,350	-48,147	-0,043	-0,015
-392,336	-200,000	-0,014	-0,047
-391,321	113,249	-0,035	-0,031
-390,306	108,861	-0,093	-0,082
-389,292	-126,676	0,043	-0,005
-388,277	535,704	0,059	0,104
-387,263	21,038	0,029	0,017
-386,248	-120,761	0,079	0,010
-385,233	800,000	0,019	0,043
-384,219	-129,379	0,094	-0,009
-383,204	800,000	-0,027	-0,081
-382,190	-100,577	-0,039	0,007
-381,175	730,492	0,055	0,108
-380,160	136,906	0,073	0,070
-379,146	318,891	-0,006	0,009
-378,131	-200,000	0,061	0,200
-377,117	-200,000	0,007	0,059
-376,102	195,868	-0,065	-0,073
-375,088	90,231	-0,057	-0,046
-374,073	-200,000	0,039	0,150
-373,058	524,993	-0,021	0,036
-372,044	184,877	0,154	0,168
-371,029	-200,000	-0,018	0,169
-370,015	-200,000	-0,005	0,017
-369,000	395,452	-0,079	-0,122
-367,985	25,585	-0,024	0,014
-366,971	131,484	0,030	0,029
-365,956	-57,920	0,025	0,008
-364,942	28,594	-0,101	0,062
-363,927	-200,000	0,007	-0,109
-362,912	800,000	0,046	0,128
-361,898	800,000	0,048	-0,111
-360,883	-9,843	-0,004	-0,002
-359,869	16,683	-0,082	0,047
-358,854	-200,000	0,014	-0,050
-357,839	-200,000	0,004	-0,116
-356,825	-35,279	0,089	-0,036
-355,810	-110,806	0,097	-0,015
-354,796	-47,930	-0,149	0,053
-353,781	65,019	-0,066	-0,049
-352,766	-47,281	0,039	-0,014
-351,752	-200,000	0,060	-0,205
-350,737	66,356	0,073	0,054
-349,723	308,072	0,039	0,053
-348,708	-153,964	0,112	0,005
-347,693	-107,691	0,078	0,012
-346,679	-100,131	-0,058	-0,010
-345,664	-8,020	-0,016	-0,008
-344,650	177,522	0,033	-0,036
-343,635	57,966	0,066	0,047
-342,620	477,897	0,101	-0,168
-341,606	800,000	-0,031	0,086
-340,591	-200,000	0,007	0,069
-339,577	389,605	-0,030	-0,046
-338,562	211,892	-0,083	-0,097
-337,548	105,916	-0,057	0,049
-336,533	800,000	0,008	-0,024
-335,518	-200,000	0,010	-0,050
-334,504	-56,090	0,054	-0,018
-333,489	160,817	-0,028	0,029
-332,475	789,417	-0,056	-0,112
-331,460	392,660	-0,060	0,091
-330,445	120,804	0,024	-0,022
-329,431	144,741	0,114	-0,111
-328,416	249,301	0,024	0,030
-327,402	-133,131	0,179	0,016
-326,387	-200,000	0,018	0,086
-325,372	-128,619	-0,106	-0,011
-324,358	-200,000	-0,003	-0,028
-323,343	-87,855	0,097	0,021
-322,329	-102,715	-0,104	0,018
-321,314	800,000	0,036	-0,098
-320,299	484,268	0,022	0,037
-319,285	123,186	0,115	0,105
-318,270	-186,823	0,088	-0,001
-317,256	-6,209	-0,041	-0,020
-316,241	800,000	-0,036	-0,109
-315,226	104,717	-0,099	-0,085
-314,212	800,000	0,035	0,092
-313,197	-144,638	0,102	0,007
-312,183	518,617	0,042	-0,071
-311,168	-20,263	0,150	0,067
-310,153	-200,000	-0,000	0,059
-309,139	9,121	-0,105	0,058
-308,124	-127,562	-0,100	0,010
-307,110	52,746	0,084	0,059
-306,095	-52,663	-0,075	0,025
-305,080	46,260	0,071	-0,048
-304,066	-107,168	0,098	-0,016
-303,051	209,803	-0,110	-0,126
-302,037	-200,000	0,056	-0,192
-301,022	-200,000	0,003	0,041
-300,008	-200,000	0,002	0,025
-298,993	-4,478	0,111	0,056
-297,978	1,066	-0,124	0,065
-296,964	129,491	-0,014	0,013
-295,949	-78,025	0,116	-0,029
-294,935	129,015	-0,048	0,045
-293,920	345,994	0,048	0,070
-292,905	-3,297	-0,059	-0,030
-291,891	-1,237	-0,126	0,065
-290,876	342,891	0,057	0,082
-289,862	-200,000	-0,001	-0,141
-288,847	217,173	0,068	-0,080
-287,832	-9,196	-0,085	-0,042
-286,818	137,855	0,051	-0,049
-285,803	-24,256	0,092	0,040
-284,789	363,285	0,034	-0,051
-283,774	-90,282	-0,060	-0,013
-282,759	372,597	-0,083	0,123
-281,745	55,358	-0,096	0,068
-280,730	-200,000	-0,026	-0,184
-279,716	6,934	0,027	-0,015
-278,701	795,346	-0,033	0,067
-277,686	82,210	-0,064	0,051
-276,672	282,107	0,057	0,074
-275,657	-66,105	0,076	-0,022
-274,643	580,479	0,020	-0,037
-273,628	793,712	-0,032	0,064
-272,613	-33,611	-0,078	-0,031
-271,599	800,000	0,028	0,085
-270,584	800,000	-0,007	0,021
-269,570	30,491	0,053	0,033
-268,555	-21,642	-0,059	0,026
-267,540	-200,000	0,014	-0,098
-266,526	800,000	0,007	0,014
-265,511	254,274	-0,047	-0,059
-264,497	-200,000	0,006	0,118
-263,482	183,724	0,083	-0,090
-262,467	79,081	-0,031	-0,024
-261,453	-6,130	-0,120	0,060
-260,438	25,988	0,049	0,030
-259,424	535,057	-0,055	-0,096
-258,409	257,405	0,036	0,045
-257,395	-29,096	-0,054	-0,023
-256,380	-157,575	0,160	0,007
-255,365	800,000	0,021	-0,043
-254,351	-200,000	0,010	0,066
-253,336	800,000	-0,018	0,039
-252,322	-200,000	0,014	-0,075
-251,307	66,571	-0,068	-0,051
-250,292	-200,000	-0,014	0,081
-249,278	-28,434	0,172	-0,072
-248,263	-124,327	0,202	0,023
-247,249	-144,113	0,014	0,001
-246,234	-40,867	-0,096	0,036
-245,219	216,252	-0,046	-0,053
-244,205	-70,779	-0,105	-0,029
-243,190	466,931	0,038	-0,062
-242,176	-122,589	-0,036	0,004
-241,161	-200,000	-0,062	0,231
-240,146	-200,000	0,012	0,039
-239,132	-149,363	-0,062	0,004
-238,117	110,593	0,073	-0,064
-237,103	747,047	-0,053	0,104
-236,088	-105,470	-0,069	-0,011
-235,073	-200,000	-0,003	0,045
-234,059	-200,000	-0,011	-0,089
-233,044	-200,000	-0,030	0,122
-232,030	90,284	0,070	-0,057
-231,015	-20,570	-0,108	-0,048
-230,000	135,099	-0,056	-0,053
-228,986	266,779	0,093	0,119
-227,971	-200,000	-0,007	0,171
-226,957	-37,521	0,051	0,020
-225,942	800,000	0,049	0,132
-224,927	48,198	0,102	0,070
-223,913	59,633	-0,102	0,073
-222,898	13,140	-0,089	-0,050
-221,884	651,110	0,034	-0,063
-220,869	11,454	0,075	-0,042
-219,855	383,204	-0,073	0,109
-218,840	-152,160	0,096	-0,005
-217,825	627,916	-0,047	-0,087
-216,811	-30,379	-0,115	-0,047
-215,796	800,000	0,029	-0,061
-214,782	-200,000	-0,003	-0,114
-213,767	800,000	-0,025	-0,078
-212,752	-145,404	-0,135	0,009
-211,738	-134,813	-0,054	-0,005
-210,723	4,371	0,073	-0,039
-209,709	-200,000	0,002	-0,127
-208,694	48,059	0,024	0,016
-207,679	5,034	-0,172	-0,092
-206,665	-200,000	0,015	-0,088
-205,650	12,806	0,011	-0,006
-204,636	-53,523	0,087	0,029
-203,621	211,074	-0,066	-0,076
-202,606	103,131	-0,129	0,110
-201,592	43,127	-0,141	-0,093
-200,577	-12,364	0,046	-0,022
-199,563	800,000	-0,057	-0,139
-198,548	356,285	0,157	0,229
-197,533	-71,383	0,027	-0,007
-196,519	118,230	0,037	0,033
-195,504	89,763	-0,129	0,105
-194,490	-200,000	0,002	-0,140
-193,475	-158,750	-0,099	0,004
-192,460	800,000	-0,014	0,029
-191,446	800,000	0,048	-0,148
-190,431	530,008	0,069	-0,119
-189,417	235,973	-0,060	-0,073
-188,402	-29,074	0,039	0,016
-187,387	-96,964	0,012	0,002
-186,373	800,000	-0,021	-0,044
-185,358	-127,851	-0,094	-0,010
-184,344	-200,000	0,007	0,175
-183,329	-116,367	0,042	0,006
-182,315	-200,000	0,005	-0,037
-181,300	17,621	-0,112	0,065
-180,285	-44,745	-0,176	0,064
-179,271	800,000	-0,017	0,049
-178,256	-130,413	-0,041	-0,004
-177,242	33,649	0,039	0,025
-176,227	-200,000	0,005	0,092
-175,212	-82,672	0,072	-0,017
-174,198	-143,564	0,090	-0,006
-173,183	-200,000	0,012	-0,131
-172,169	-59,792	-0,146	0,045
-171,154	60,753	0,012	-0,008
-170,139	800,000	-0,010	0,032
-169,125	226,745	-0,042	0,050
-168,110	800,000	0,063	0,171
-167,096	-200,000	-0,001	0,104
-166,081	-89,096	-0,102	0,022
-165,066	-57,124	-0,155	0,049
-164,052	800,000	0,061	0,186
-163,037	800,000	-0,011	-0,036
-162,023	-200,000	-0,024	-0,078
-161,008	-200,000	-0,026	0,093
-159,993	6,864	0,155	-0,084
-158,979	800,000	-0,033	-0,076
-157,964	25,911	0,025	0,015
-156,950	-200,000	0,003	0,023
-155,935	-200,000	-0,017	0,110
-154,920	192,244	-0,034	0,038
-153,906	23,201	0,061	0,036
-152,891	-200,000	-0,008	-0,049
-151,877	-200,000	0,053	-0,178
-150,862	-88,706	-0,171	-0,037
-149,847	141,955	-0,081	-0,078
-148,833	129,473	0,011	-0,011
-147,818	-107,259	0,074	0,012
-146,804	800,000	-0,032	0,102
-145,789	-200,000	0,009	0,038
-144,775	-200,000	0,009	-0,039
-143,760	-200,000	0,002	-0,117
-142,745	-15,402	0,051	-0,024
-141,731	-100,883	0,060	-0,011
-140,716	34,647	0,111	-0,070
-139,702	-131,290	0,127	0,012
-138,687	-17,217	0,042	-0,019
-137,672	-131,585	-0,045	-0,004
-136,658	-101,468	0,048	-0,008
-135,643	-163,305	0,034	0,001
-134,629	215,102	0,091	0,105
-133,614	800,000	-0,027	0,073
-132,599	-83,650	-0,034	0,008
-131,585	800,000	0,062	0,152
-130,570	-1,680	0,032	0,017
-129,556	0,936	-0,031	-0,016
-128,541	14,167	0,180	-0,102
-127,526	800,000	-0,025	-0,079
-126,512	15,707	0,050	0,029
-125,497	263,324	-0,040	0,051
-124,483	704,300	0,057	0,110
-123,468	-200,000	0,009	-0,085
-122,453	-115,400	-0,087	0,012
-121,439	111,717	0,057	0,050
-120,424	-200,000	0,031	-0,110
-119,410	20,739	-0,009	0,005
