DTS Sentinel unit serial number:	SN410029Multiplexer serial number:	ORYXHardware model number:	OX2-SRSoftware version number:	ORYX F/W v4,00 Oryx Data Collector v3.7.2.0data status	okinstallation	B4 Nyhavnadifferential loss correction	single-endedforward channel	channel 2reverse channel	N/Adate	2023/12/15time	23:35:13forward acquisition time	300,00reverse acquisition time	0,00gamma	499,1914k internal	0,3129k external	0,3129temperature offset calibration	1,0000default loss term (dB/km)	0,3820temperature slope calibration	1,0000multiplexer offset coefficient	1,0000multiplexer slope coefficient	1,0000fibre end	0,00T internal ref (°C)	21,75T ext. ref 1 (°C)	6,82T ext. ref 2 (°C)	6,98length (m)	temperature (°C)	Stokes	anti-Stokes-744,400	733,215	0,040	0,080
-743,385	120,112	-0,175	0,162
-742,371	102,464	0,032	0,028
-741,356	800,000	-0,029	0,087
-740,342	17,851	-0,102	0,061
-739,327	-50,946	-0,178	-0,062
-738,312	469,579	-0,062	-0,105
-737,298	-113,415	-0,249	0,036
-736,283	462,543	-0,030	0,049
-735,269	161,722	-0,178	0,186
-734,254	-200,000	0,020	-0,066
-733,239	-155,597	-0,414	-0,019
-732,225	-104,018	0,057	-0,010
-731,210	131,774	-0,119	-0,114
-730,196	-200,000	0,015	-0,068
-729,181	-200,000	0,023	-0,114
-728,167	-120,963	0,126	0,016
-727,152	100,948	-0,090	-0,078
-726,137	472,821	0,025	-0,042
-725,123	800,000	0,072	-0,152
-724,108	112,121	0,011	0,009
-723,094	-133,297	-0,176	-0,016
-722,079	-200,000	0,006	-0,095
-721,064	-200,000	0,004	0,013
-720,050	79,868	0,055	0,044
-719,035	52,175	0,082	0,058
-718,021	212,220	-0,006	-0,007
-717,006	-200,000	0,028	-0,092
-715,991	-200,000	0,044	-0,150
-714,977	800,000	-0,053	-0,173
-713,962	112,885	-0,091	0,082
-712,948	-115,279	-0,078	0,011
-711,933	-200,000	-0,011	-0,060
-710,918	800,000	-0,005	-0,015
-709,904	-179,919	-0,055	0,001
-708,889	-200,000	0,009	-0,059
-707,875	-200,000	0,006	-0,162
-706,860	325,494	-0,052	-0,074
-705,845	-61,822	0,090	-0,028
-704,831	-200,000	0,004	0,098
-703,816	-200,000	-0,024	0,079
-702,802	81,862	-0,038	-0,031
-701,787	-37,203	-0,183	-0,072
-700,772	-83,040	0,031	-0,007
-699,758	-137,899	-0,102	-0,008
-698,743	144,363	-0,005	0,005
-697,729	800,000	-0,065	-0,134
-696,714	-200,000	-0,022	-0,109
-695,699	-95,153	-0,083	-0,016
-694,685	275,648	0,032	-0,042
-693,670	638,001	0,038	0,072
-692,656	-106,949	-0,057	0,009
-691,641	-52,374	0,098	0,033
-690,627	-87,116	0,047	-0,011
-689,612	800,000	0,013	0,036
-688,597	-200,000	0,015	0,057
-687,583	-200,000	-0,006	0,069
-686,568	-73,199	-0,124	-0,033
-685,554	-53,807	0,117	0,039
-684,539	391,510	0,072	-0,111
-683,524	-200,000	-0,022	0,123
-682,510	-41,760	0,100	-0,038
-681,495	323,308	-0,066	-0,094
-680,481	210,798	0,067	0,078
-679,466	21,163	-0,127	-0,076
-678,451	-200,000	-0,007	-0,135
-677,437	78,123	-0,069	-0,055
-676,422	-200,000	-0,001	-0,053
-675,408	37,202	0,222	0,146
-674,393	-146,226	-0,160	-0,010
-673,378	-77,313	-0,082	0,021
-672,364	1,778	-0,128	-0,068
-671,349	-26,770	0,088	-0,038
-670,335	800,000	-0,065	-0,176
-669,320	540,591	0,021	0,038
-668,305	-200,000	-0,011	-0,074
-667,291	-51,875	-0,068	0,023
-666,276	-200,000	0,015	-0,092
-665,262	-108,975	-0,085	-0,013
-664,247	-109,200	-0,164	-0,026
-663,232	-200,000	-0,034	-0,122
-662,218	-200,000	0,028	0,110
-661,203	-32,038	0,041	0,017
-660,189	-200,000	0,004	0,044
-659,174	-88,945	-0,217	0,047
-658,159	215,281	-0,042	-0,049
-657,145	-200,000	0,012	-0,212
-656,130	-189,921	-0,145	0,001
-655,116	348,901	0,085	-0,125
-654,101	173,456	0,066	0,071
-653,086	313,671	-0,010	0,014
-652,072	800,000	0,016	-0,034
-651,057	-200,000	-0,014	-0,172
-650,043	0,194	-0,155	-0,082
-649,028	104,179	-0,085	0,074
-648,014	599,277	0,055	-0,102
-646,999	433,121	-0,035	-0,056
-645,984	114,868	0,059	0,054
-644,970	800,000	-0,029	0,087
-643,955	-200,000	-0,003	0,064
-642,941	-200,000	-0,007	0,042
-641,926	19,196	-0,056	0,033
-640,911	31,496	0,063	-0,040
-639,897	800,000	-0,057	0,134
-638,882	-117,184	-0,138	0,018
-637,868	-200,000	0,021	-0,130
-636,853	800,000	0,009	0,029
-635,838	551,715	-0,070	-0,125
-634,824	-88,420	-0,077	-0,017
-633,809	510,943	0,092	0,160
-632,795	800,000	-0,056	0,150
-631,780	-200,000	-0,002	0,057
-630,765	24,833	-0,105	-0,064
-629,751	183,972	0,080	-0,088
-628,736	24,566	-0,095	0,058
-627,722	-200,000	-0,013	0,167
-626,707	-60,930	0,077	0,024
-625,692	800,000	0,041	0,085
-624,678	-200,000	-0,035	-0,139
-623,663	-162,290	-0,039	0,001
-622,649	800,000	-0,025	-0,060
-621,634	40,748	0,081	-0,054
-620,619	7,035	-0,068	-0,038
-619,605	-59,894	-0,056	-0,018
-618,590	-63,958	-0,023	0,007
-617,576	648,458	-0,092	0,175
-616,561	73,672	-0,063	-0,049
-615,546	800,000	-0,033	-0,085
-614,532	-28,590	-0,143	0,061
-613,517	-200,000	-0,012	0,106
-612,503	173,266	0,073	-0,078
-611,488	-125,707	0,058	0,006
-610,474	-200,000	0,037	0,161
-609,459	-86,088	-0,086	0,020
-608,444	-200,000	0,008	-0,035
-607,430	-71,020	-0,084	0,023
-606,415	523,695	0,034	-0,060
-605,401	-200,000	0,015	0,050
-604,386	347,645	-0,038	-0,055
-603,371	-25,951	0,140	0,061
-602,357	510,491	0,091	-0,157
-601,342	-162,882	-0,116	-0,004
-600,328	174,751	-0,073	0,078
-599,313	36,402	0,067	0,044
-598,298	-103,883	-0,098	-0,017
-597,284	-31,786	0,050	-0,021
-596,269	-200,000	0,032	-0,107
-595,255	-200,000	-0,015	0,078
-594,240	-200,000	-0,010	0,040
-593,225	-48,623	0,051	-0,018
-592,211	-200,000	-0,012	0,071
-591,196	649,815	0,047	0,088
-590,182	82,498	0,127	0,102
-589,167	279,108	0,013	0,017
-588,152	347,031	-0,090	0,132
-587,138	800,000	-0,013	0,028
-586,123	-117,115	0,115	-0,015
-585,109	800,000	-0,010	0,022
-584,094	800,000	0,018	-0,040
-583,079	800,000	0,043	0,110
-582,065	-103,008	-0,006	-0,001
-581,050	800,000	-0,026	-0,058
-580,036	9,430	0,019	-0,011
-579,021	215,708	-0,042	-0,049
-578,006	-52,563	-0,058	-0,020
-576,992	260,216	0,072	-0,092
-575,977	292,950	0,078	-0,105
-574,963	-16,583	0,138	0,064
-573,948	800,000	0,047	-0,145
-572,934	125,943	-0,025	-0,023
-571,919	-45,568	-0,159	-0,058
-570,904	36,572	0,128	-0,083
-569,890	-54,567	-0,066	0,022
-568,875	-200,000	-0,023	-0,155
-567,861	-53,332	0,068	-0,023
-566,846	800,000	0,043	-0,103
-565,831	-200,000	-0,003	0,020
-564,817	156,659	-0,059	0,060
-563,802	765,696	-0,028	0,056
-562,788	52,212	0,092	0,064
-561,773	120,542	0,071	-0,065
-560,758	318,496	0,116	0,163
-559,744	-200,000	-0,012	0,051
-558,729	64,551	-0,049	0,036
-557,715	207,712	-0,086	0,100
-556,700	-200,000	-0,001	0,014
-555,685	-200,000	-0,002	-0,050
-554,671	19,268	0,123	0,073
-553,656	34,642	0,066	0,042
-552,642	-4,831	-0,122	-0,062
-551,627	62,595	-0,036	0,026
-550,612	-57,853	-0,102	-0,033
-549,598	-121,919	-0,162	0,019
-548,583	2,087	-0,100	-0,053
-547,569	9,754	0,037	-0,021
-546,554	-200,000	-0,002	0,173
-545,539	-108,803	0,126	0,020
-544,525	35,104	-0,056	0,036
-543,510	800,000	0,067	0,168
-542,496	800,000	-0,079	0,168
-541,481	-9,970	-0,074	-0,036
-540,466	451,646	0,042	0,068
-539,452	-30,858	-0,089	-0,037
-538,437	97,189	-0,019	-0,016
-537,423	-200,000	0,005	-0,081
-536,408	4,411	0,060	0,033
-535,393	176,594	-0,155	-0,166
-534,379	-200,000	0,008	-0,078
-533,364	119,546	0,041	0,038
-532,350	800,000	-0,058	-0,145
-531,335	267,642	0,039	0,050
-530,321	-200,000	-0,004	0,055
-529,306	163,941	0,082	-0,085
-528,291	800,000	0,072	-0,182
-527,277	-49,056	0,020	0,007
-526,262	36,169	0,022	-0,014
-525,248	406,184	-0,030	0,046
-524,233	-110,001	0,043	-0,007
-523,218	150,058	0,104	-0,104
-522,204	-42,484	-0,037	-0,014
-521,189	800,000	-0,024	-0,058
-520,175	-79,703	-0,053	0,013
-519,160	-110,084	-0,029	0,004
-518,145	-62,921	0,058	0,018
-517,131	275,544	0,070	0,092
-516,116	800,000	0,071	0,153
-515,102	800,000	0,072	0,157
-514,087	758,882	-0,004	0,008
-513,072	800,000	-0,040	-0,119
-512,058	-89,844	0,042	0,009
-511,043	31,674	-0,074	-0,047
-510,029	-130,460	0,079	0,008
-509,014	347,515	0,115	0,167
-507,999	800,000	-0,029	-0,077
-506,985	59,253	0,082	0,059
-505,970	800,000	0,021	-0,061
-504,956	7,845	-0,073	-0,040
-503,941	518,514	0,011	0,018
-502,926	-137,466	-0,038	-0,003
-501,912	-35,960	0,085	-0,034
-500,897	-72,515	0,081	0,022
-499,883	-152,883	-0,152	0,008
-498,868	85,994	-0,030	-0,025
-497,853	-125,009	-0,075	-0,008
-496,839	464,827	0,078	-0,129
-495,824	33,571	-0,037	-0,024
-494,810	174,983	0,102	0,109
-493,795	-147,915	-0,102	0,006
-492,781	-200,000	0,022	-0,106
-491,766	247,112	0,044	-0,055
-490,751	260,193	-0,092	-0,118
-489,737	-200,000	-0,032	-0,127
-488,722	334,647	-0,067	0,096
-487,708	800,000	-0,048	0,143
-486,693	-200,000	-0,003	0,095
-485,678	-200,000	-0,014	0,052
-484,664	546,205	-0,041	-0,073
-483,649	631,887	-0,021	-0,039
-482,635	89,417	-0,075	-0,061
-481,620	175,704	-0,079	0,084
-480,605	-21,312	-0,018	-0,008
-479,591	-7,742	0,032	-0,016
-478,576	-200,000	0,032	-0,124
-477,562	172,593	0,041	-0,044
-476,547	-200,000	0,001	-0,067
-475,532	-138,700	-0,008	-0,001
-474,518	-29,863	-0,011	-0,005
-473,503	25,737	0,013	-0,008
-472,489	424,338	0,040	-0,063
-471,474	-200,000	0,029	0,146
-470,459	152,625	0,039	-0,039
-469,445	-37,982	-0,050	-0,020
-468,430	-200,000	0,000	-0,011
-467,416	-173,117	0,113	-0,002
-466,401	-20,520	0,118	0,053
-465,386	-68,477	0,027	0,008
-464,372	-200,000	0,000	0,140
-463,357	800,000	0,040	-0,090
-462,343	-28,972	-0,096	0,040
-461,328	800,000	-0,036	-0,100
-460,313	22,529	-0,037	-0,022
-459,299	100,345	0,136	0,116
-458,284	-135,225	-0,039	-0,003
-457,270	21,303	0,066	0,039
-456,255	-114,290	0,039	0,005
-455,241	156,521	-0,082	0,084
-454,226	800,000	0,058	-0,155
-453,211	800,000	-0,032	-0,069
-452,197	-126,809	0,027	-0,003
-451,182	26,113	0,066	0,041
-450,168	-77,066	-0,014	0,004
-449,153	-200,000	0,015	-0,091
-448,138	-180,132	0,049	0,001
-447,124	-59,130	0,087	0,027
-446,109	67,295	-0,101	-0,076
-445,095	-105,681	0,136	0,022
-444,080	-200,000	0,052	-0,185
-443,065	298,684	0,088	0,119
-442,051	-40,492	0,026	-0,010
-441,036	144,250	-0,055	-0,054
-440,022	-110,601	-0,111	-0,017
-439,007	205,359	0,054	0,061
-437,992	138,817	0,073	-0,071
-436,978	272,943	0,022	0,029
-435,963	-20,265	-0,045	-0,020
-434,949	218,729	-0,068	-0,080
-433,934	-200,000	0,016	-0,130
-432,919	38,569	-0,110	-0,072
-431,905	487,612	-0,052	0,087
-430,890	61,717	0,051	0,037
-429,876	65,192	0,124	0,092
-428,861	-71,179	0,138	-0,038
-427,846	-127,194	-0,128	0,014
-426,832	627,761	0,069	0,128
-425,817	-200,000	-0,009	0,033
-424,803	800,000	-0,057	-0,120
-423,788	-131,852	0,081	0,008
-422,773	-117,502	0,036	0,005
-421,759	94,845	-0,078	-0,065
-420,744	-62,047	-0,123	-0,037
-419,730	64,323	-0,086	0,064
-418,715	-148,882	-0,113	-0,007
-417,701	-119,891	-0,108	0,013
-416,686	133,559	-0,112	-0,106
-415,671	182,855	0,046	-0,050
-414,657	-47,077	-0,091	-0,033
-413,642	-180,386	-0,064	0,001
-412,628	-86,953	-0,168	-0,037
-411,613	96,205	-0,087	0,073
-410,598	-35,055	0,093	0,037
-409,584	-75,311	0,131	0,034
-408,569	345,294	-0,085	0,123
-407,555	-53,636	0,107	0,036
-406,540	-200,000	-0,003	-0,055
-405,525	-200,000	0,046	-0,156
-404,511	223,779	-0,107	-0,126
-403,496	800,000	-0,049	-0,101
-402,482	12,846	-0,016	0,009
-401,467	22,883	-0,052	0,031
-400,452	29,249	0,064	-0,040
-399,438	-200,000	-0,008	0,054
-398,423	791,151	0,010	0,021
-397,409	147,942	-0,024	-0,023
-396,394	142,344	0,119	0,116
-395,379	-49,818	0,104	-0,036
-394,365	-129,334	0,026	0,003
-393,350	514,054	0,040	-0,069
-392,336	300,893	-0,011	-0,015
-391,321	-80,355	0,098	-0,024
-390,306	158,789	-0,090	-0,091
-389,292	-150,215	0,027	0,002
-388,277	315,155	0,059	0,082
-387,263	8,999	0,073	0,040
-386,248	-58,706	-0,100	0,032
-385,233	-94,797	0,010	0,002
-384,219	-200,000	0,021	-0,090
-383,204	-200,000	-0,031	0,114
-382,190	23,133	0,046	0,028
-381,175	-26,265	0,126	-0,054
-380,160	-200,000	-0,006	0,106
-379,146	32,095	0,028	-0,018
-378,131	80,248	0,089	-0,070
-377,117	-57,439	0,126	0,040
-376,102	-200,000	0,042	-0,185
-375,088	-200,000	-0,020	-0,066
-374,073	-69,326	-0,105	0,029
-373,058	800,000	-0,018	-0,041
-372,044	35,124	0,080	0,051
-371,029	240,560	0,082	0,101
-370,015	800,000	-0,014	-0,039
-369,000	267,472	-0,086	-0,111
-367,985	239,312	0,066	0,080
-366,971	800,000	0,010	-0,028
-365,956	800,000	0,023	0,067
-364,942	229,147	0,055	0,065
-363,927	515,307	-0,030	-0,052
-362,912	-122,776	0,101	0,012
-361,898	-200,000	0,015	0,084
-360,883	-94,517	0,199	-0,039
-359,869	-37,042	-0,058	0,023
-358,854	-98,494	-0,131	0,024
-357,839	-200,000	0,024	-0,132
-356,825	-24,395	0,074	0,032
-355,810	-200,000	0,000	-0,007
-354,796	105,812	-0,080	0,070
-353,781	25,867	-0,067	-0,041
-352,766	101,558	0,066	-0,057
-351,752	87,611	0,063	0,051
-350,737	-31,985	0,067	-0,028
-349,723	-21,751	-0,161	0,071
-348,708	800,000	0,036	-0,110
-347,693	-111,602	0,117	0,017
-346,679	112,744	-0,046	0,041
-345,664	24,690	0,038	-0,023
-344,650	132,650	-0,069	-0,065
-343,635	-200,000	0,017	-0,064
-342,620	95,195	0,055	0,046
-341,606	-200,000	-0,001	0,076
-340,591	-57,127	0,080	0,026
-339,577	121,753	-0,007	0,006
-338,562	29,113	-0,033	-0,021
-337,548	517,477	-0,018	-0,031
-336,533	-100,023	0,061	0,011
-335,518	104,467	0,036	-0,031
-334,504	-200,000	0,008	0,099
-333,489	186,966	-0,022	-0,024
-332,475	132,956	-0,032	-0,030
-331,460	-98,870	-0,053	0,010
-330,445	128,671	-0,064	0,059
-329,431	-86,063	-0,076	-0,017
-328,416	800,000	-0,015	-0,041
-327,402	-23,032	0,096	-0,042
-326,387	380,408	-0,067	0,101
-325,372	-40,928	-0,129	0,049
-324,358	-200,000	-0,017	0,122
-323,343	-200,000	0,005	0,054
-322,329	779,145	0,052	0,104
-321,314	-174,567	0,111	-0,002
-320,299	113,346	0,069	0,062
-319,285	-200,000	0,014	0,158
-318,270	-53,675	-0,125	0,041
-317,256	-30,906	-0,087	-0,036
-316,241	-200,000	-0,018	0,068
-315,226	25,501	-0,103	0,063
-314,212	89,521	-0,041	-0,033
-313,197	63,245	0,062	0,045
-312,183	423,352	0,048	0,076
-311,168	95,719	-0,091	-0,076
-310,153	-77,234	-0,073	0,019
-309,139	71,718	0,023	-0,018
-308,124	-70,054	-0,048	-0,013
-307,110	427,393	-0,039	0,061
-306,095	63,488	-0,014	0,010
-305,080	-71,974	-0,064	-0,017
-304,066	15,954	0,064	-0,037
-303,051	-200,000	0,035	-0,122
-302,037	22,011	-0,084	0,050
-301,022	800,000	-0,057	-0,161
-300,008	18,624	0,065	0,038
-298,993	-56,249	0,144	-0,047
-297,978	75,711	-0,066	-0,051
-296,964	-200,000	0,002	0,077
-295,949	800,000	0,064	0,174
-294,935	-6,152	-0,129	0,064
-293,920	-96,612	-0,111	0,021
-292,905	-200,000	-0,024	0,086
-291,891	800,000	0,031	0,081
-290,876	-46,051	-0,060	-0,022
-289,862	96,937	0,080	0,067
-288,847	187,732	0,055	-0,060
-287,832	-22,972	-0,104	0,045
-286,818	-200,000	-0,004	-0,069
-285,803	-97,958	0,198	0,037
-284,789	-14,936	-0,056	-0,026
-283,774	702,296	-0,025	-0,048
-282,759	-200,000	-0,046	0,172
-281,745	255,722	-0,057	0,072
-280,730	-200,000	0,010	-0,108
-279,716	-111,978	0,021	-0,003
-278,701	800,000	0,018	0,042
-277,686	-156,528	0,136	-0,006
-276,672	241,672	0,088	0,107
-275,657	-200,000	-0,003	-0,082
-274,643	-59,173	-0,115	-0,036
-273,628	-200,000	0,001	0,034
-272,613	293,386	-0,010	-0,014
-271,599	-128,962	0,058	-0,006
-270,584	389,329	0,018	-0,028
-269,570	125,302	0,037	-0,034
-268,555	77,907	-0,136	0,106
-267,540	370,471	0,036	-0,054
-266,526	-162,967	-0,162	-0,006
-265,511	678,679	-0,032	0,062
-264,497	134,441	-0,079	0,075
-263,482	-200,000	0,046	0,167
-262,467	-15,747	0,082	-0,038
-261,453	78,425	-0,088	0,069
-260,438	800,000	-0,009	0,022
-259,424	6,772	-0,054	-0,029
-258,409	103,466	-0,102	-0,087
-257,395	-200,000	-0,019	0,067
-256,380	800,000	-0,053	0,154
-255,365	-12,757	-0,100	0,048
-254,351	-200,000	0,014	-0,100
-253,336	332,223	0,141	-0,199
-252,322	74,874	-0,085	-0,065
-251,307	-136,065	-0,157	-0,013
-250,292	-200,000	0,004	-0,088
-249,278	-106,454	-0,082	-0,013
-248,263	747,978	-0,053	-0,105
-247,249	-113,568	0,064	-0,009
-246,234	-25,342	0,030	-0,013
-245,219	-200,000	-0,007	0,028
-244,205	-200,000	0,024	-0,221
-243,190	-53,511	0,089	-0,030
-242,176	-122,057	0,130	0,015
-241,161	241,732	-0,028	-0,034
-240,146	42,147	0,071	0,047
-239,132	126,962	-0,088	-0,081
-238,117	272,049	0,015	0,020
-237,103	320,522	-0,060	-0,084
-236,088	428,977	0,009	0,014
-235,073	-136,051	0,083	-0,007
-234,059	-71,361	0,097	-0,026
-233,044	-200,000	0,012	0,132
-232,030	-119,835	-0,165	0,021
-231,015	-200,000	-0,002	-0,016
-230,000	-200,000	0,009	-0,035
-228,986	-125,207	-0,101	0,011
-227,971	122,183	0,145	0,132
-226,957	96,047	-0,107	0,089
-225,942	-112,438	-0,156	-0,022
-224,927	355,521	-0,078	-0,113
-223,913	-155,814	-0,036	-0,002
-222,898	97,552	-0,048	-0,040
-221,884	-119,355	-0,089	0,011
-220,869	246,665	0,079	0,097
-219,855	283,962	0,139	-0,183
-218,840	-158,127	-0,095	-0,004
-217,825	166,438	0,071	-0,074
-216,811	-200,000	0,005	-0,081
-215,796	-200,000	0,014	0,078
-214,782	74,205	-0,009	0,007
-213,767	800,000	0,011	0,023
-212,752	800,000	-0,037	0,102
-211,738	-200,000	0,032	-0,128
-210,723	-59,311	-0,051	-0,016
-209,709	-200,000	-0,013	-0,045
-208,694	96,986	0,042	0,035
-207,679	-200,000	-0,008	-0,086
-206,665	-99,786	-0,126	0,023
-205,650	175,651	0,061	-0,064
-204,636	-37,367	0,122	-0,047
-203,621	-200,000	-0,022	0,094
-202,606	-11,341	0,117	0,056
-201,592	-158,981	0,115	-0,005
-200,577	45,604	-0,070	-0,047
-199,563	174,594	-0,047	0,049
-198,548	-200,000	0,036	-0,167
-197,533	800,000	-0,032	0,087
-196,519	-200,000	0,001	-0,071
-195,504	800,000	-0,043	-0,100
-194,490	-136,893	-0,060	-0,005
-193,475	800,000	-0,025	-0,064
-192,460	126,955	0,071	-0,066
-191,446	95,346	0,087	-0,072
-190,431	141,169	0,050	0,048
-189,417	-200,000	0,009	-0,060
-188,402	-200,000	-0,006	-0,101
-187,387	280,147	0,071	-0,092
-186,373	800,000	-0,065	-0,167
-185,358	-92,985	0,078	-0,016
-184,344	141,240	0,056	-0,054
-183,329	-200,000	-0,012	0,056
-182,315	-127,900	0,096	-0,010
-181,300	4,396	0,093	0,050
-180,285	800,000	0,015	0,034
-179,271	-154,168	0,049	-0,002
-178,256	-67,638	0,075	0,021
-177,242	-124,841	0,093	-0,010
-176,227	-20,879	0,017	-0,008
-175,212	800,000	-0,029	-0,078
-174,198	168,406	0,041	0,042
-173,183	-200,000	-0,001	0,105
-172,169	97,127	-0,058	0,049
-171,154	-200,000	0,005	-0,125
-170,139	98,073	0,034	0,028
-169,125	-61,385	-0,059	0,018
-168,110	223,539	-0,040	0,047
-167,096	800,000	-0,068	-0,162
-166,081	-200,000	0,005	0,056
-165,066	760,586	-0,063	0,125
-164,052	-200,000	-0,005	0,115
-163,037	8,275	-0,093	0,051
-162,023	-109,725	0,133	-0,020
-161,008	-161,243	0,178	-0,007
-159,993	306,577	0,055	-0,075
-158,979	800,000	-0,021	0,063
-157,964	182,962	0,028	-0,030
-156,950	-200,000	0,003	-0,116
-155,935	171,463	-0,081	0,085
-154,920	-200,000	0,024	0,094
-153,906	-200,000	0,032	0,152
-152,891	-16,430	-0,023	-0,010
-151,877	-127,229	-0,118	0,012
-150,862	-134,978	-0,056	-0,005
-149,847	-94,787	0,068	0,013
-148,833	-200,000	-0,015	0,052
-147,818	166,555	0,076	0,078
-146,804	150,879	-0,091	-0,090
-145,789	79,166	-0,078	-0,061
-144,775	-102,866	-0,192	0,033
-143,760	83,888	-0,031	-0,024
-142,745	-81,213	0,039	0,009
-141,731	-125,828	0,025	0,003
-140,716	95,494	0,092	-0,076
-139,702	-79,582	0,070	0,017
-138,687	-200,000	0,020	-0,120
-137,672	216,442	-0,033	0,038
-136,658	-200,000	0,042	-0,175
-135,643	800,000	0,037	-0,078
-134,629	-200,000	0,009	0,175
-133,614	800,000	0,081	-0,180
-132,599	57,532	-0,021	-0,015
-131,585	800,000	-0,027	0,062
-130,570	-168,125	0,043	-0,001
-129,556	-119,978	-0,038	0,005
-128,541	21,777	-0,043	0,025
-127,526	-123,792	0,148	0,017
-126,512	-36,704	-0,080	0,031
-125,497	316,462	0,104	0,143
-124,483	277,709	-0,055	0,071
-123,468	0,993	0,137	-0,071
-122,453	-200,000	-0,017	-0,065
-121,439	11,938	-0,214	-0,119
-120,424	-70,824	0,055	-0,015
-119,410	14,114	0,032	-0,018
