DTS Sentinel unit serial number:	SN410029Multiplexer serial number:	ORYXHardware model number:	OX2-SRSoftware version number:	ORYX F/W v4,00 Oryx Data Collector v3.7.2.0data status	okinstallation	B4 Nyhavnadifferential loss correction	single-endedforward channel	channel 2reverse channel	N/Adate	2023/12/19time	04:40:13forward acquisition time	300,00reverse acquisition time	0,00gamma	499,1914k internal	0,3126k external	0,3126temperature offset calibration	1,0000default loss term (dB/km)	0,3820temperature slope calibration	1,0000multiplexer offset coefficient	1,0000multiplexer slope coefficient	1,0000fibre end	0,00T internal ref (°C)	20,94T ext. ref 1 (°C)	6,20T ext. ref 2 (°C)	6,35length (m)	temperature (°C)	Stokes	anti-Stokes-744,400	324,970	0,076	-0,109
-743,385	-37,050	-0,219	0,087
-742,371	400,861	-0,008	0,013
-741,356	2,560	-0,167	0,090
-740,342	93,716	0,053	0,045
-739,327	-79,621	-0,240	0,060
-738,312	94,109	0,119	-0,100
-737,298	-149,998	-0,133	0,008
-736,283	-200,000	0,010	-0,060
-735,269	159,761	-0,108	0,112
-734,254	-200,000	0,007	0,073
-733,239	-9,588	-0,440	-0,217
-732,225	-135,320	0,214	-0,019
-731,210	482,587	0,074	0,125
-730,196	455,649	-0,021	-0,034
-729,181	-200,000	0,009	-0,048
-728,167	-10,123	-0,048	0,024
-727,152	-98,049	0,025	-0,005
-726,137	-200,000	-0,003	0,074
-725,123	-22,209	-0,095	-0,043
-724,108	-59,478	-0,102	-0,032
-723,094	347,370	-0,079	0,115
-722,079	-6,290	-0,129	0,065
-721,064	-91,063	0,160	-0,034
-720,050	-200,000	0,010	0,034
-719,035	-200,000	-0,018	-0,077
-718,021	-102,909	0,009	-0,002
-717,006	40,554	-0,177	-0,118
-715,991	-90,236	-0,125	-0,027
-714,977	150,929	-0,087	-0,088
-713,962	64,896	0,092	-0,069
-712,948	-200,000	-0,008	-0,217
-711,933	-52,176	0,072	0,025
-710,918	164,280	0,042	0,045
-709,904	-40,901	-0,210	-0,081
-708,889	800,000	0,014	-0,046
-707,875	-200,000	-0,012	0,050
-706,860	800,000	0,026	-0,086
-705,845	266,862	-0,039	0,051
-704,831	-200,000	0,021	0,296
-703,816	-145,097	0,036	0,002
-702,802	273,250	-0,058	0,076
-701,787	227,386	-0,080	-0,097
-700,772	800,000	-0,046	0,110
-699,758	-23,669	-0,105	0,047
-698,743	-200,000	-0,009	0,045
-697,729	82,428	0,073	-0,059
-696,714	285,414	-0,069	0,093
-695,699	451,837	-0,051	-0,084
-694,685	800,000	0,021	-0,055
-693,670	800,000	-0,059	-0,144
-692,656	17,498	0,055	-0,032
-691,641	-200,000	0,001	-0,023
-690,627	75,777	0,084	-0,066
-689,612	-200,000	0,024	0,080
-688,597	62,739	-0,032	-0,023
-687,583	800,000	-0,056	-0,152
-686,568	78,038	0,060	-0,048
-685,554	222,659	-0,061	-0,073
-684,539	-200,000	-0,009	0,138
-683,524	6,891	0,017	-0,010
-682,510	-83,187	-0,143	-0,034
-681,495	800,000	-0,073	-0,152
-680,481	542,780	-0,056	-0,100
-679,466	800,000	0,019	-0,046
-678,451	800,000	0,065	-0,170
-677,437	-94,058	-0,105	-0,021
-676,422	156,470	-0,089	0,091
-675,408	-83,706	-0,145	0,034
-674,393	-200,000	-0,018	0,165
-673,378	-41,415	-0,082	-0,031
-672,364	800,000	-0,045	-0,115
-671,349	-200,000	0,036	-0,141
-670,335	800,000	-0,065	-0,142
-669,320	118,242	0,046	0,042
-668,305	760,956	0,045	-0,091
-667,291	-62,018	-0,065	0,020
-666,276	279,774	-0,030	-0,040
-665,262	57,649	0,064	-0,046
-664,247	67,418	-0,012	-0,009
-663,232	206,824	-0,085	-0,099
-662,218	-39,745	0,093	-0,036
-661,203	-200,000	0,006	-0,045
-660,189	800,000	-0,032	0,068
-659,174	184,258	-0,037	-0,040
-658,159	383,107	-0,140	-0,214
-657,145	306,677	-0,063	-0,087
-656,130	233,976	0,067	-0,082
-655,116	350,540	0,006	0,009
-654,101	-13,355	0,055	-0,026
-653,086	-128,164	0,045	0,005
-652,072	-72,122	-0,010	-0,003
-651,057	102,871	-0,090	-0,079
-650,043	-181,295	-0,073	-0,001
-649,028	-43,141	-0,010	0,004
-648,014	-200,000	0,001	0,035
-646,999	488,561	0,065	0,111
-645,984	-200,000	-0,003	0,042
-644,970	266,115	-0,145	-0,188
-643,955	115,474	0,138	-0,125
-642,941	-200,000	0,003	0,020
-641,926	13,699	-0,074	0,042
-640,911	358,897	-0,008	-0,011
-639,897	800,000	-0,034	0,092
-638,882	97,868	0,109	0,093
-637,868	-105,447	0,156	0,026
-636,853	-77,498	-0,069	0,018
-635,838	129,535	-0,029	-0,028
-634,824	16,567	0,043	0,025
-633,809	369,399	0,054	0,081
-632,795	667,545	-0,068	0,131
-631,780	-200,000	0,009	0,118
-630,765	-64,314	-0,051	-0,015
-629,751	800,000	0,004	-0,010
-628,736	131,381	0,053	-0,051
-627,722	121,547	0,081	0,075
-626,707	438,212	0,039	-0,063
-625,692	-73,111	-0,094	-0,025
-624,678	-40,571	0,109	0,042
-623,663	-200,000	-0,016	0,091
-622,649	-179,120	-0,099	-0,002
-621,634	642,846	-0,047	-0,088
-620,619	800,000	0,026	-0,067
-619,605	33,527	-0,075	0,048
-618,590	41,413	0,048	-0,032
-617,576	24,102	-0,031	-0,019
-616,561	-56,832	-0,062	0,020
-615,546	62,741	0,031	-0,023
-614,532	-166,852	0,080	0,002
-613,517	-200,000	0,025	-0,214
-612,503	-200,000	0,017	-0,092
-611,488	46,090	0,138	0,095
-610,474	-200,000	-0,002	0,029
-609,459	800,000	-0,024	-0,066
-608,444	5,274	-0,125	-0,068
-607,430	198,022	0,093	0,106
-606,415	-200,000	0,009	-0,111
-605,401	-200,000	0,018	0,114
-604,386	-26,297	0,177	-0,077
-603,371	287,150	0,003	0,004
-602,357	-200,000	0,007	0,024
-601,342	-200,000	-0,027	0,163
-600,328	-157,683	0,055	-0,002
-599,313	-200,000	-0,023	-0,148
-598,298	356,849	-0,041	-0,060
-597,284	-110,693	0,067	-0,010
-596,269	22,921	0,082	0,050
-595,255	277,090	0,045	0,059
-594,240	-121,542	-0,053	0,006
-593,225	-70,808	-0,126	-0,035
-592,211	800,000	-0,040	-0,123
-591,196	183,916	-0,060	-0,066
-590,182	-149,303	-0,022	-0,001
-589,167	800,000	0,055	-0,172
-588,152	-98,234	0,062	0,012
-587,138	85,917	-0,042	0,034
-586,123	-200,000	-0,009	-0,061
-585,109	-165,994	0,149	-0,005
-584,094	209,225	-0,117	-0,136
-583,079	148,905	0,055	-0,055
-582,065	643,001	-0,014	-0,027
-581,050	402,578	0,033	-0,052
-580,036	-200,000	-0,004	-0,017
-579,021	-123,010	-0,124	-0,015
-578,006	-200,000	0,006	-0,023
-576,992	-106,635	-0,028	-0,005
-575,977	-91,458	0,031	0,006
-574,963	-200,000	-0,007	-0,031
-573,948	-200,000	0,021	0,091
-572,934	37,578	0,097	-0,063
-571,919	186,543	-0,090	-0,099
-570,904	-137,218	0,037	0,003
-569,890	-67,036	0,204	0,059
-568,875	-139,684	-0,041	0,003
-567,861	324,723	-0,027	-0,039
-566,846	611,843	0,066	-0,122
-565,831	800,000	0,020	-0,051
-564,817	-53,326	-0,146	0,049
-563,802	-200,000	-0,000	-0,011
-562,788	-101,389	-0,022	-0,004
-561,773	-107,706	0,054	-0,009
-560,758	-200,000	0,004	0,125
-559,744	675,657	-0,082	0,157
-558,729	278,061	0,043	-0,056
-557,715	-121,350	-0,108	-0,013
-556,700	350,217	-0,011	0,016
-555,685	-181,556	0,138	-0,002
-554,671	-200,000	0,022	-0,073
-553,656	800,000	0,016	-0,049
-552,642	-200,000	0,006	0,046
-551,627	150,261	0,085	0,086
-550,612	-200,000	0,025	-0,117
-549,598	83,451	-0,131	-0,105
-548,583	-64,324	0,150	0,045
-547,569	-55,452	-0,066	-0,022
-546,554	800,000	0,045	0,133
-545,539	20,649	0,118	0,070
-544,525	24,371	0,052	0,031
-543,510	-200,000	0,001	-0,032
-542,496	86,432	-0,060	-0,049
-541,481	-96,446	-0,067	-0,013
-540,466	-200,000	0,007	0,093
-539,452	693,000	0,010	0,020
-538,437	800,000	0,119	0,251
-537,423	-111,085	-0,063	0,010
-536,408	-130,027	0,075	-0,008
-535,393	163,289	0,068	-0,071
-534,379	-20,778	-0,053	-0,024
-533,364	800,000	-0,008	0,024
-532,350	-200,000	0,002	0,071
-531,335	210,945	-0,050	-0,058
-530,321	210,196	0,038	-0,044
-529,306	-108,851	-0,180	0,028
-528,291	15,544	-0,015	-0,009
-527,277	-200,000	-0,004	-0,135
-526,262	-200,000	0,002	0,019
-525,248	17,321	0,110	0,065
-524,233	65,003	-0,035	0,026
-523,218	-200,000	-0,009	0,033
-522,204	-200,000	-0,007	0,038
-521,189	219,993	-0,043	0,051
-520,175	-200,000	0,006	0,041
-519,160	-200,000	0,009	0,044
-518,145	502,241	-0,014	0,023
-517,131	183,343	0,061	0,067
-516,116	-120,255	0,145	-0,018
-515,102	477,938	0,050	0,085
-514,087	-200,000	-0,006	0,073
-513,072	70,816	-0,133	-0,102
-512,058	59,902	-0,048	0,035
-511,043	-200,000	-0,013	0,122
-510,029	-200,000	-0,023	0,115
-509,014	-72,300	0,109	0,030
-507,999	800,000	0,042	-0,101
-506,985	-200,000	0,009	-0,080
-505,970	85,069	-0,037	-0,030
-504,956	-54,831	-0,086	0,029
-503,941	-93,926	0,117	0,024
-502,926	53,638	-0,029	0,021
-501,912	800,000	0,038	-0,082
-500,897	800,000	-0,031	-0,089
-499,883	800,000	0,042	-0,113
-498,868	-34,035	-0,045	0,018
-497,853	-84,983	-0,072	0,016
-496,839	-200,000	0,023	0,106
-495,824	800,000	-0,036	0,108
-494,810	243,741	0,070	0,087
-493,795	-200,000	0,013	-0,163
-492,781	70,047	-0,055	-0,042
-491,766	-200,000	0,017	-0,066
-490,751	29,499	-0,038	-0,024
-489,737	12,807	-0,078	0,044
-488,722	203,138	0,063	0,072
-487,708	83,875	0,095	0,076
-486,693	-200,000	-0,002	-0,039
-485,678	-49,001	-0,098	0,034
-484,664	338,141	-0,052	-0,075
-483,649	-200,000	-0,014	-0,066
-482,635	-32,685	-0,120	0,049
-481,620	512,660	0,050	-0,086
-480,605	310,679	-0,033	0,046
-479,591	316,376	0,102	0,143
-478,576	-12,678	0,110	-0,053
-477,562	-49,896	-0,112	-0,039
-476,547	133,917	0,074	-0,071
-475,532	184,580	0,106	-0,116
-474,518	-51,919	0,095	-0,032
-473,503	-200,000	0,013	-0,065
-472,489	273,512	0,087	-0,114
-471,474	800,000	0,040	0,093
-470,459	-200,000	-0,003	-0,020
-469,445	800,000	-0,028	-0,091
-468,430	-200,000	-0,001	-0,051
-467,416	248,218	-0,046	0,057
-466,401	14,718	0,119	-0,068
-465,386	-200,000	0,017	0,181
-464,372	-200,000	-0,010	0,075
-463,357	800,000	-0,048	-0,135
-462,343	-85,656	-0,098	0,022
-461,328	176,968	-0,032	0,034
-460,313	-200,000	-0,015	-0,061
-459,299	164,524	0,029	-0,030
-458,284	10,692	0,130	-0,073
-457,270	85,546	-0,094	0,076
-456,255	-200,000	0,039	-0,137
-455,241	275,453	-0,049	0,065
-454,226	-114,271	-0,157	-0,022
-453,211	-200,000	-0,051	0,198
-452,197	-200,000	0,015	0,122
-451,182	-200,000	0,023	0,126
-450,168	-33,877	0,124	0,050
-449,153	570,410	-0,028	0,050
-448,138	800,000	-0,069	-0,142
-447,124	56,742	-0,079	-0,057
-446,109	-23,585	0,151	-0,066
-445,095	30,601	0,042	0,027
-444,080	34,863	0,180	0,116
-443,065	-200,000	0,008	-0,046
-442,051	19,831	-0,100	0,059
-441,036	20,461	0,102	-0,060
-440,022	-51,890	-0,153	-0,052
-439,007	-121,695	-0,088	-0,011
-437,992	-136,128	-0,015	-0,001
-436,978	-38,900	0,091	0,035
-435,963	-108,051	-0,181	0,029
-434,949	-110,726	0,094	0,014
-433,934	-200,000	0,032	-0,129
-432,919	-200,000	0,014	0,136
-431,905	-16,723	0,015	0,007
-430,890	-28,927	-0,033	-0,014
-429,876	80,115	0,129	0,102
-428,861	300,281	-0,120	-0,163
-427,846	6,688	0,048	0,026
-426,832	35,883	0,055	-0,035
-425,817	-117,673	-0,025	0,003
-424,803	-200,000	0,025	-0,096
-423,788	-155,981	0,222	0,010
-422,773	800,000	-0,045	0,112
-421,759	9,138	-0,033	0,018
-420,744	-75,034	-0,091	0,024
-419,730	62,501	-0,053	0,039
-418,715	295,567	0,053	-0,071
-417,701	800,000	-0,023	0,054
-416,686	-38,599	0,049	-0,019
-415,671	115,826	0,129	0,116
-414,657	-196,217	0,051	0,000
-413,642	281,560	0,074	-0,097
-412,628	-64,680	-0,147	0,043
-411,613	-200,000	-0,006	-0,067
-410,598	518,462	-0,051	-0,088
-409,584	800,000	0,052	0,167
-408,569	-200,000	-0,015	-0,069
-407,555	-200,000	0,000	-0,033
-406,540	800,000	0,023	-0,058
-405,525	-200,000	0,053	-0,175
-404,511	-79,016	-0,137	-0,034
-403,496	-200,000	-0,002	-0,057
-402,482	-200,000	0,012	-0,066
-401,467	-200,000	-0,007	-0,116
-400,452	-165,018	0,085	0,003
-399,438	352,247	-0,048	0,070
-398,423	-91,337	0,077	0,016
-397,409	800,000	0,044	-0,108
-396,394	-200,000	-0,034	0,142
-395,379	-168,718	0,084	0,002
-394,365	-200,000	-0,007	0,064
-393,350	-74,674	0,180	-0,047
-392,336	800,000	-0,029	-0,062
-391,321	4,780	-0,069	-0,037
-390,306	800,000	-0,019	0,050
-389,292	225,852	-0,031	0,037
-388,277	800,000	0,042	0,088
-387,263	-110,708	-0,110	-0,017
-386,248	-153,572	-0,113	0,006
-385,233	-126,801	-0,085	-0,009
-384,219	548,002	0,016	0,027
-383,204	523,549	0,041	-0,070
-382,190	142,640	-0,104	-0,101
-381,175	-94,124	0,024	-0,005
-380,160	-149,169	0,104	-0,006
-379,146	265,279	-0,070	0,090
-378,131	-103,678	0,038	0,006
-377,117	109,139	0,044	-0,038
-376,102	800,000	0,013	0,031
-375,088	-18,039	0,075	-0,034
-374,073	-76,780	-0,109	0,028
-373,058	800,000	0,054	0,119
-372,044	-19,089	-0,101	-0,046
-371,029	-200,000	-0,024	0,105
-370,015	86,034	-0,059	0,048
-369,000	-156,463	-0,034	0,002
-367,985	-200,000	0,016	-0,177
-366,971	-120,394	-0,177	0,022
-365,956	-71,765	-0,065	-0,018
-364,942	-200,000	-0,041	0,141
-363,927	21,971	-0,106	-0,063
-362,912	108,127	0,069	-0,060
-361,898	-125,583	0,125	-0,014
-360,883	-200,000	-0,018	-0,060
-359,869	187,088	0,039	-0,043
-358,854	-200,000	-0,025	-0,159
-357,839	258,363	0,008	0,010
-356,825	800,000	-0,015	0,037
-355,810	-55,365	0,018	-0,006
-354,796	0,940	0,072	0,038
-353,781	-200,000	-0,016	-0,062
-352,766	800,000	-0,019	0,048
-351,752	800,000	0,044	-0,113
-350,737	-91,782	-0,032	-0,007
-349,723	178,058	-0,025	0,027
-348,708	265,324	-0,033	-0,042
-347,693	800,000	0,018	-0,043
-346,679	255,111	-0,088	-0,111
-345,664	36,905	0,028	-0,018
-344,650	-85,157	0,116	0,026
-343,635	-15,481	0,075	0,035
-342,620	-200,000	-0,004	0,045
-341,606	-124,362	0,082	0,009
-340,591	107,267	0,107	0,093
-339,577	-200,000	-0,011	-0,070
-338,562	150,623	-0,061	-0,061
-337,548	800,000	0,035	-0,099
-336,533	-200,000	0,005	-0,051
-335,518	292,331	0,062	-0,083
-334,504	-113,719	-0,091	0,013
-333,489	277,115	0,083	-0,109
-332,475	142,657	-0,020	0,019
-331,460	716,541	0,067	0,131
-330,445	567,477	-0,031	0,056
-329,431	89,195	-0,074	0,060
-328,416	-200,000	-0,000	0,153
-327,402	716,392	0,039	0,076
-326,387	295,849	-0,041	0,056
-325,372	800,000	-0,002	0,005
-324,358	474,115	0,078	-0,129
-323,343	71,073	-0,062	0,047
-322,329	-200,000	0,009	0,134
-321,314	652,640	0,054	0,102
-320,299	132,154	-0,034	0,032
-319,285	-200,000	0,013	-0,071
-318,270	51,070	-0,019	-0,013
-317,256	-181,618	-0,143	0,002
-316,241	-151,050	-0,076	0,004
-315,226	260,773	-0,025	-0,032
-314,212	38,405	-0,032	0,021
-313,197	465,425	0,033	0,055
-312,183	-4,849	-0,106	-0,054
-311,168	800,000	-0,032	-0,074
-310,153	-63,710	-0,103	0,031
-309,139	-64,572	0,127	0,037
-308,124	-91,318	0,049	0,010
-307,110	-42,312	-0,125	-0,046
-306,095	-165,261	0,065	0,002
-305,080	-52,897	0,038	0,013
-304,066	-200,000	0,004	-0,030
-303,051	-200,000	-0,017	-0,228
-302,037	237,609	0,041	-0,050
-301,022	800,000	0,030	-0,088
-300,008	-96,865	0,055	0,010
-298,993	-59,095	-0,051	-0,016
-297,978	-177,711	0,106	-0,002
-296,964	11,964	0,052	0,029
-295,949	490,046	0,041	0,068
-294,935	800,000	0,034	0,083
-293,920	-200,000	0,009	-0,028
-292,905	411,019	0,065	0,102
-291,891	441,254	-0,089	0,143
-290,876	-78,365	-0,102	0,025
-289,862	800,000	-0,051	0,131
-288,847	-67,744	-0,086	-0,025
-287,832	-200,000	0,004	-0,089
-286,818	800,000	0,028	-0,080
-285,803	-112,738	-0,074	-0,011
-284,789	-108,762	0,165	-0,026
-283,774	-72,153	0,157	0,042
-282,759	-200,000	0,020	-0,099
-281,745	-122,935	-0,144	0,017
-280,730	-46,925	-0,158	0,056
-279,716	145,408	0,091	-0,090
-278,701	-101,905	0,034	0,006
-277,686	-200,000	0,025	0,092
-276,672	-200,000	-0,003	0,047
-275,657	397,286	-0,061	0,094
-274,643	-131,107	0,081	-0,008
-273,628	97,990	-0,064	0,054
-272,613	-200,000	-0,038	0,164
-271,599	800,000	0,034	-0,088
-270,584	-200,000	0,019	0,070
-269,570	217,522	0,066	0,077
-268,555	-10,211	0,132	0,064
-267,540	168,754	0,105	-0,110
-266,526	-200,000	0,006	-0,024
-265,511	-3,861	-0,097	-0,049
-264,497	-200,000	-0,009	-0,101
-263,482	459,741	-0,093	0,152
-262,467	-200,000	-0,006	0,066
-261,453	132,602	0,062	0,059
-260,438	-200,000	-0,001	-0,053
-259,424	-46,199	-0,142	-0,051
-258,409	98,451	0,035	0,029
-257,395	154,576	-0,032	0,032
-256,380	166,145	0,129	0,133
-255,365	-31,206	0,106	0,044
-254,351	4,217	-0,077	-0,041
-253,336	-87,148	0,077	0,017
-252,322	-49,644	-0,121	-0,042
-251,307	62,186	-0,066	0,048
-250,292	710,075	-0,009	-0,018
-249,278	195,928	-0,024	0,027
-248,263	-200,000	0,023	0,129
-247,249	-200,000	-0,012	0,078
-246,234	-200,000	0,006	-0,145
-245,219	800,000	0,002	-0,005
-244,205	256,038	-0,043	0,054
-243,190	-200,000	-0,005	-0,037
-242,176	241,747	-0,031	0,038
-241,161	-200,000	0,010	0,035
-240,146	-152,445	0,080	0,004
-239,132	-200,000	-0,003	0,021
-238,117	70,953	0,032	-0,024
-237,103	228,904	-0,043	0,052
-236,088	800,000	0,036	0,095
-235,073	-200,000	-0,011	-0,110
-234,059	756,683	-0,047	0,093
-233,044	528,437	0,027	-0,047
-232,030	-200,000	-0,002	-0,043
-231,015	598,246	0,037	-0,067
-230,000	-146,692	-0,157	-0,010
-228,986	265,034	-0,053	0,067
-227,971	116,248	0,012	0,011
-226,957	236,659	0,040	0,048
-225,942	800,000	-0,029	-0,058
-224,927	-200,000	-0,010	-0,077
-223,913	-58,082	-0,088	-0,028
-222,898	-200,000	0,035	-0,116
-221,884	0,474	-0,103	0,054
-220,869	38,986	-0,103	-0,067
-219,855	93,153	-0,069	0,057
-218,840	34,921	0,081	-0,052
-217,825	45,545	-0,007	-0,005
-216,811	32,202	-0,126	0,079
-215,796	552,313	0,023	0,040
-214,782	-144,691	-0,043	0,003
-213,767	135,390	0,038	0,036
-212,752	-200,000	0,003	-0,015
-211,738	-96,458	-0,128	-0,024
-210,723	-80,195	-0,036	-0,009
-209,709	-200,000	0,012	-0,043
-208,694	-200,000	-0,004	0,015
-207,679	289,074	-0,042	0,056
-206,665	-100,710	-0,064	0,011
-205,650	25,411	0,060	0,036
-204,636	-200,000	0,014	0,176
-203,621	-170,532	-0,055	-0,001
-202,606	108,165	0,092	-0,080
-201,592	465,528	0,102	-0,167
-200,577	-48,768	-0,059	-0,020
-199,563	474,567	-0,118	-0,195
-198,548	550,483	0,022	0,039
-197,533	-200,000	-0,024	0,099
-196,519	157,944	-0,071	0,072
-195,504	332,849	-0,105	-0,149
-194,490	32,443	0,092	-0,058
-193,475	-59,731	-0,248	0,077
-192,460	124,706	-0,009	-0,008
-191,446	-3,142	0,044	-0,022
-190,431	165,890	-0,078	0,081
-189,417	-142,263	0,059	-0,004
-188,402	-120,453	0,185	-0,023
-187,387	-58,739	-0,133	0,042
-186,373	316,719	-0,051	-0,070
-185,358	41,402	0,067	0,044
-184,344	-200,000	-0,023	0,131
-183,329	66,803	0,057	-0,042
-182,315	688,789	-0,012	0,023
-181,300	366,186	-0,039	-0,058
-180,285	-143,628	-0,119	0,008
-179,271	163,885	0,056	-0,057
-178,256	15,383	0,037	-0,021
-177,242	-1,808	0,102	0,052
-176,227	-200,000	-0,007	-0,026
-175,212	23,225	-0,048	0,029
-174,198	91,462	0,022	0,018
-173,183	-200,000	-0,017	-0,208
-172,169	-23,245	0,037	0,016
-171,154	30,802	-0,064	0,040
-170,139	-200,000	-0,010	0,069
-169,125	-200,000	-0,005	-0,025
-168,110	-154,991	-0,023	0,001
-167,096	-200,000	0,019	-0,101
-166,081	-200,000	0,034	-0,162
-165,066	94,468	0,041	-0,034
-164,052	279,852	-0,103	0,135
-163,037	-200,000	0,025	0,151
-162,023	35,751	-0,044	0,028
-161,008	51,325	-0,079	-0,054
-159,993	-14,894	0,112	-0,052
-158,979	800,000	-0,049	-0,115
-157,964	-185,142	-0,097	-0,001
-156,950	-200,000	0,002	-0,043
-155,935	800,000	0,026	-0,063
-154,920	-200,000	-0,001	0,110
-153,906	-200,000	0,000	0,129
-152,891	800,000	0,088	0,189
-151,877	-3,859	-0,071	0,036
-150,862	280,316	-0,069	0,090
-149,847	-33,764	0,021	-0,008
-148,833	124,554	-0,038	0,035
-147,818	-94,164	-0,132	0,026
-146,804	-100,845	0,169	-0,030
-145,789	800,000	-0,023	0,050
-144,775	-68,047	-0,118	-0,033
-143,760	-92,541	0,073	-0,015
-142,745	14,291	0,098	0,055
-141,731	203,437	-0,057	-0,064
-140,716	549,289	-0,036	-0,064
-139,702	429,408	0,018	0,028
-138,687	269,824	-0,054	0,069
-137,672	-144,710	-0,130	0,009
-136,658	69,390	0,074	-0,055
-135,643	69,563	0,041	-0,031
-134,629	9,126	0,074	0,041
-133,614	800,000	-0,030	0,090
-132,599	-200,000	0,005	-0,058
-131,585	460,392	-0,067	0,108
-130,570	462,811	0,042	-0,069
-129,556	7,796	-0,049	0,027
-128,541	606,527	0,026	-0,047
-127,526	800,000	0,012	-0,035
-126,512	800,000	0,029	0,081
-125,497	18,261	0,005	0,003
-124,483	119,234	0,070	-0,063
-123,468	65,342	-0,081	-0,060
-122,453	-25,886	0,054	-0,023
-121,439	-174,037	-0,042	0,001
-120,424	192,893	0,050	-0,055
-119,410	34,388	0,060	-0,038
