DTS Sentinel unit serial number:	SN410029Multiplexer serial number:	ORYXHardware model number:	OX2-SRSoftware version number:	ORYX F/W v4,00 Oryx Data Collector v3.7.2.0data status	okinstallation	B4 Nyhavnadifferential loss correction	single-endedforward channel	channel 2reverse channel	N/Adate	2023/12/16time	09:55:13forward acquisition time	300,00reverse acquisition time	0,00gamma	499,1914k internal	0,3126k external	0,3126temperature offset calibration	1,0000default loss term (dB/km)	0,3820temperature slope calibration	1,0000multiplexer offset coefficient	1,0000multiplexer slope coefficient	1,0000fibre end	0,00T internal ref (°C)	23,17T ext. ref 1 (°C)	8,84T ext. ref 2 (°C)	9,01length (m)	temperature (°C)	Stokes	anti-Stokes-744,400	569,954	0,117	-0,212
-743,385	12,615	-0,256	0,147
-742,371	-93,849	0,088	-0,018
-741,356	197,564	-0,169	0,193
-740,342	64,638	0,086	-0,065
-739,327	34,900	-0,166	0,108
-738,312	41,573	0,080	0,054
-737,298	-56,952	-0,229	0,075
-736,283	800,000	0,032	-0,085
-735,269	-147,093	-0,256	0,016
-734,254	-64,628	0,076	-0,023
-733,239	-83,010	-0,478	-0,114
-732,225	83,115	0,101	-0,082
-731,210	667,634	0,036	-0,070
-730,196	800,000	0,019	0,042
-729,181	35,176	-0,024	0,016
-728,167	19,239	-0,093	0,055
-727,152	-200,000	-0,029	0,131
-726,137	-7,695	-0,096	-0,048
-725,123	-54,440	-0,104	0,035
-724,108	-104,764	-0,074	-0,013
-723,094	178,592	-0,044	-0,048
-722,079	-200,000	0,029	-0,129
-721,064	-200,000	0,035	-0,131
-720,050	800,000	-0,022	0,064
-719,035	-169,513	-0,050	-0,001
-718,021	-167,622	-0,079	-0,002
-717,006	-178,094	-0,047	-0,001
-715,991	228,806	-0,064	-0,077
-714,977	389,350	-0,029	-0,044
-713,962	134,835	-0,026	-0,025
-712,948	-200,000	0,013	0,081
-711,933	262,914	0,083	-0,108
-710,918	-49,829	-0,048	-0,017
-709,904	82,361	-0,080	-0,064
-708,889	-200,000	-0,061	-0,216
-707,875	-200,000	0,001	-0,228
-706,860	800,000	-0,044	-0,129
-705,845	800,000	-0,031	0,074
-704,831	207,187	0,055	0,064
-703,816	-12,981	-0,051	-0,024
-702,802	-115,233	-0,112	0,016
-701,787	-23,048	0,012	0,005
-700,772	-13,796	-0,096	-0,046
-699,758	70,627	-0,029	0,022
-698,743	6,932	-0,099	-0,055
-697,729	-96,438	-0,020	0,004
-696,714	-63,521	-0,089	-0,027
-695,699	-122,620	-0,117	-0,014
-694,685	-65,884	-0,123	-0,036
-693,670	-28,059	-0,020	0,009
-692,656	-64,172	-0,107	-0,032
-691,641	555,745	0,052	-0,093
-690,627	216,967	-0,069	-0,082
-689,612	-155,382	-0,073	0,003
-688,597	-200,000	-0,029	0,102
-687,583	-200,000	-0,025	-0,227
-686,568	-119,610	0,018	0,002
-685,554	212,999	-0,081	-0,095
-684,539	800,000	0,019	0,059
-683,524	-155,286	0,075	-0,004
-682,510	6,891	-0,178	-0,098
-681,495	318,570	0,061	-0,087
-680,481	-200,000	-0,011	-0,252
-679,466	376,982	-0,031	-0,047
-678,451	175,797	-0,092	0,100
-677,437	-23,467	0,085	-0,038
-676,422	800,000	0,027	0,062
-675,408	37,650	-0,045	0,030
-674,393	800,000	-0,009	-0,026
-673,378	153,228	-0,089	-0,090
-672,364	800,000	-0,030	-0,066
-671,349	-200,000	-0,024	0,084
-670,335	19,122	0,159	0,095
-669,320	800,000	0,032	-0,083
-668,305	800,000	0,021	0,044
-667,291	547,906	-0,061	0,109
-666,276	-200,000	0,002	-0,061
-665,262	617,997	-0,092	-0,173
-664,247	-200,000	-0,045	-0,175
-663,232	800,000	0,025	0,059
-662,218	188,489	-0,027	-0,030
-661,203	13,161	0,074	-0,042
-660,189	-200,000	-0,016	0,062
-659,174	-55,764	0,116	-0,038
-658,159	130,721	-0,083	-0,079
-657,145	-106,815	-0,099	-0,016
-656,130	800,000	0,052	-0,138
-655,116	145,650	0,142	-0,141
-654,101	289,984	0,056	0,075
-653,086	-46,852	-0,074	0,027
-652,072	415,382	-0,061	-0,097
-651,057	-36,755	-0,111	-0,044
-650,043	215,221	-0,107	-0,126
-649,028	-106,484	-0,117	0,019
-648,014	800,000	-0,038	0,097
-646,999	257,048	-0,025	0,032
-645,984	-200,000	-0,025	0,095
-644,970	127,746	0,020	-0,019
-643,955	-95,123	-0,134	-0,027
-642,941	-72,653	-0,258	-0,070
-641,926	800,000	-0,031	0,089
-640,911	176,777	-0,100	0,108
-639,897	127,073	0,023	-0,021
-638,882	-200,000	0,013	-0,076
-637,868	-7,730	-0,102	-0,051
-636,853	651,365	0,012	-0,023
-635,838	160,136	-0,038	-0,040
-634,824	-200,000	0,003	-0,144
-633,809	-15,412	0,042	-0,020
-632,795	-200,000	-0,005	0,046
-631,780	147,132	0,076	0,076
-630,765	-89,575	-0,063	0,014
-629,751	-15,281	-0,165	-0,078
-628,736	-200,000	0,023	-0,152
-627,722	-73,512	0,055	0,015
-626,707	800,000	-0,018	0,058
-625,692	478,086	-0,071	-0,120
-624,678	27,099	-0,051	0,032
-623,663	-200,000	0,019	0,086
-622,649	307,143	-0,077	0,107
-621,634	-17,060	-0,063	0,030
-620,619	731,147	-0,018	0,036
-619,605	800,000	0,028	0,063
-618,590	62,012	0,073	-0,054
-617,576	132,123	0,032	0,030
-616,561	393,386	0,063	0,098
-615,546	323,492	-0,058	-0,082
-614,532	108,672	-0,014	-0,013
-613,517	98,792	0,033	0,028
-612,503	64,314	-0,121	0,090
-611,488	228,440	0,082	-0,100
-610,474	127,242	-0,046	0,043
-609,459	59,186	0,072	-0,053
-608,444	480,205	-0,052	-0,088
-607,430	-73,156	-0,065	0,018
-606,415	-115,167	-0,126	-0,018
-605,401	800,000	-0,038	-0,107
-604,386	-200,000	0,001	-0,066
-603,371	48,046	0,129	0,089
-602,357	-200,000	0,001	-0,022
-601,342	-200,000	0,008	0,075
-600,328	800,000	0,030	-0,093
-599,313	-194,085	0,026	-0,000
-598,298	350,103	-0,036	-0,052
-597,284	698,263	0,005	-0,011
-596,269	110,067	-0,096	0,086
-595,255	458,932	-0,091	0,150
-594,240	780,316	-0,020	0,040
-593,225	-200,000	0,019	-0,119
-592,211	-200,000	0,018	-0,192
-591,196	-19,185	0,021	0,010
-590,182	-200,000	-0,024	0,080
-589,167	9,998	-0,057	-0,032
-588,152	-51,924	-0,045	-0,015
-587,138	615,208	-0,056	0,104
-586,123	629,825	0,072	-0,135
-585,109	-38,646	-0,080	-0,031
-584,094	800,000	0,010	0,025
-583,079	800,000	0,039	0,113
-582,065	-83,454	0,155	0,036
-581,050	87,878	0,024	0,019
-580,036	309,260	0,052	0,072
-579,021	573,071	0,040	-0,072
-578,006	427,013	-0,024	0,038
-576,992	122,798	-0,033	-0,031
-575,977	27,375	-0,051	-0,031
-574,963	22,513	-0,066	0,040
-573,948	-63,742	0,189	0,057
-572,934	-46,713	0,093	0,034
-571,919	-109,297	-0,038	-0,006
-570,904	175,986	-0,058	-0,062
-569,890	136,463	0,077	-0,074
-568,875	800,000	-0,009	0,024
-567,861	-16,101	0,079	-0,037
-566,846	58,285	0,064	-0,046
-565,831	-125,050	-0,189	0,021
-564,817	415,282	-0,066	-0,104
-563,802	800,000	0,060	-0,176
-562,788	360,449	0,046	-0,068
-561,773	472,727	0,094	0,157
-560,758	800,000	0,018	0,055
-559,744	-149,769	-0,066	-0,004
-558,729	-200,000	-0,001	-0,061
-557,715	-47,497	-0,171	-0,061
-556,700	651,268	0,050	-0,095
-555,685	-200,000	0,004	-0,059
-554,671	469,955	-0,027	-0,044
-553,656	119,114	0,070	-0,064
-552,642	-200,000	-0,019	0,080
-551,627	180,100	0,037	-0,041
-550,612	-77,070	-0,012	-0,003
-549,598	800,000	-0,039	-0,125
-548,583	34,368	-0,147	-0,095
-547,569	-200,000	0,018	0,185
-546,554	800,000	-0,056	0,140
-545,539	-200,000	0,002	-0,032
-544,525	-200,000	0,013	0,070
-543,510	800,000	-0,044	-0,139
-542,496	86,804	0,014	0,011
-541,481	368,874	0,005	-0,008
-540,466	495,528	0,092	-0,156
-539,452	56,923	0,054	0,039
-538,437	-55,396	0,048	0,016
-537,423	61,827	0,002	0,001
-536,408	20,642	0,115	-0,069
-535,393	800,000	-0,019	-0,055
-534,379	-149,118	0,055	-0,003
-533,364	-98,466	-0,086	0,016
-532,350	14,245	-0,019	-0,011
-531,335	800,000	-0,048	0,145
-530,321	641,033	-0,084	0,159
-529,306	-200,000	0,006	-0,042
-528,291	-73,395	-0,108	-0,029
-527,277	-130,348	0,021	0,002
-526,262	197,232	-0,055	-0,062
-525,248	129,062	0,073	0,069
-524,233	206,866	0,067	0,077
-523,218	480,835	0,038	0,064
-522,204	-35,312	-0,086	0,034
-521,189	-158,133	-0,134	0,006
-520,175	368,982	-0,047	-0,071
-519,160	6,290	-0,128	-0,070
-518,145	-200,000	0,007	0,077
-517,131	353,176	0,036	0,052
-516,116	-194,417	0,177	-0,001
-515,102	-200,000	-0,008	-0,049
-514,087	-200,000	0,005	0,157
-513,072	-200,000	0,015	0,132
-512,058	800,000	-0,031	-0,090
-511,043	241,577	-0,077	-0,095
-510,029	625,652	0,042	-0,078
-509,014	40,963	-0,064	-0,042
-507,999	-200,000	-0,029	-0,105
-506,985	800,000	-0,022	0,067
-505,970	264,060	-0,062	0,080
-504,956	-200,000	0,001	0,031
-503,941	101,707	-0,120	-0,103
-502,926	-200,000	-0,007	-0,069
-501,912	-200,000	0,016	-0,122
-500,897	-26,290	0,130	0,056
-499,883	193,112	-0,100	0,111
-498,868	-18,971	-0,128	-0,058
-497,853	800,000	0,035	0,105
-496,839	18,724	-0,122	0,072
-495,824	-200,000	0,020	-0,149
-494,810	-200,000	-0,017	-0,073
-493,795	800,000	-0,054	0,128
-492,781	257,428	-0,039	-0,050
-491,766	-48,329	-0,048	-0,017
-490,751	-200,000	-0,004	0,072
-489,737	728,618	0,035	0,069
-488,722	275,946	0,080	0,105
-487,708	800,000	-0,008	-0,016
-486,693	20,306	-0,058	-0,034
-485,678	147,196	0,093	0,092
-484,664	173,441	0,037	0,039
-483,649	-200,000	0,024	-0,130
-482,635	800,000	-0,012	0,027
-481,620	-23,684	0,082	0,036
-480,605	-17,401	0,007	0,003
-479,591	-200,000	-0,033	-0,140
-478,576	102,667	-0,144	0,124
-477,562	-101,232	0,133	0,024
-476,547	-200,000	0,023	0,092
-475,532	12,487	-0,052	0,029
-474,518	-200,000	-0,037	-0,146
-473,503	-15,433	0,133	0,063
-472,489	-99,172	-0,120	-0,022
-471,474	-200,000	-0,019	0,239
-470,459	3,937	0,066	0,035
-469,445	238,729	-0,017	0,021
-468,430	716,401	-0,016	-0,031
-467,416	-200,000	-0,048	0,185
-466,401	-200,000	0,006	0,176
-465,386	-126,363	0,066	0,007
-464,372	194,829	-0,042	-0,048
-463,357	-82,847	0,030	0,007
-462,343	357,419	-0,072	-0,106
-461,328	-5,681	-0,053	0,027
-460,313	-95,309	-0,077	0,015
-459,299	37,488	0,153	-0,100
-458,284	61,830	0,118	-0,087
-457,270	-13,639	0,063	-0,030
-456,255	26,226	-0,088	0,054
-455,241	118,110	-0,124	-0,112
-454,226	0,562	-0,129	-0,068
-453,211	66,862	0,044	-0,033
-452,197	-200,000	-0,002	0,055
-451,182	-200,000	0,001	-0,029
-450,168	-43,252	-0,064	-0,024
-449,153	-124,272	-0,105	-0,012
-448,138	720,232	-0,044	0,086
-447,124	800,000	-0,017	0,054
-446,109	-200,000	0,021	0,105
-445,095	70,751	-0,013	-0,010
-444,080	212,575	0,115	0,134
-443,065	482,628	0,057	-0,095
-442,051	-127,337	-0,068	0,007
-441,036	-200,000	-0,033	-0,117
-440,022	-200,000	-0,020	0,072
-439,007	49,464	-0,051	-0,035
-437,992	15,068	-0,076	-0,044
-436,978	-200,000	0,006	-0,035
-435,963	800,000	-0,070	0,202
-434,949	800,000	0,060	0,136
-433,934	125,010	0,071	0,066
-432,919	-0,937	-0,129	-0,067
-431,905	429,662	-0,019	-0,031
-430,890	-200,000	-0,037	0,145
-429,876	-93,806	-0,082	0,017
-428,861	539,719	0,064	-0,112
-427,846	230,512	-0,017	-0,021
-426,832	117,925	-0,062	0,056
-425,817	249,399	0,056	-0,069
-424,803	68,782	-0,078	-0,059
-423,788	-68,144	-0,018	-0,005
-422,773	-200,000	0,000	-0,006
-421,759	360,852	-0,036	0,053
-420,744	29,884	0,064	-0,040
-419,730	-0,639	-0,016	-0,009
-418,715	-136,826	0,018	0,001
-417,701	-200,000	-0,011	-0,048
-416,686	-108,171	-0,052	-0,008
-415,671	448,961	0,057	-0,093
-414,657	2,513	0,048	0,025
-413,642	30,726	0,087	0,055
-412,628	788,217	-0,036	0,072
-411,613	-142,377	-0,043	-0,003
-410,598	-160,790	-0,089	0,003
-409,584	-159,514	0,062	0,002
-408,569	-81,461	-0,054	0,013
-407,555	800,000	-0,020	0,045
-406,540	-5,088	0,013	-0,007
-405,525	800,000	-0,037	0,081
-404,511	-200,000	0,012	-0,135
-403,496	-200,000	0,019	-0,111
-402,482	52,107	0,058	0,040
-401,467	55,879	0,051	0,036
-400,452	-126,149	0,086	-0,009
-399,438	-200,000	0,025	0,106
-398,423	5,880	0,127	0,069
-397,409	327,053	-0,091	-0,129
-396,394	-200,000	0,002	-0,029
-395,379	17,883	0,128	0,075
-394,365	-200,000	-0,019	0,079
-393,350	51,447	0,152	0,106
-392,336	42,490	0,059	-0,039
-391,321	-54,295	-0,091	-0,030
-390,306	-118,821	-0,161	-0,021
-389,292	235,734	-0,052	-0,063
-388,277	-200,000	-0,045	-0,202
-387,263	53,122	0,029	-0,021
-386,248	800,000	0,051	0,161
-385,233	800,000	0,056	0,151
-384,219	-30,806	-0,082	-0,034
-383,204	-101,276	-0,082	-0,014
-382,190	-51,336	-0,171	-0,059
-381,175	-11,082	-0,054	0,026
-380,160	667,019	0,031	-0,060
-379,146	106,495	0,166	0,144
-378,131	-34,587	-0,141	0,057
-377,117	325,641	0,042	0,059
-376,102	222,922	0,082	-0,097
-375,088	41,254	0,044	-0,029
-374,073	81,544	0,140	-0,111
-373,058	-129,478	0,126	-0,013
-372,044	-157,344	-0,075	-0,003
-371,029	30,451	0,059	-0,037
-370,015	40,848	0,044	0,029
-369,000	-156,146	0,074	-0,003
-367,985	28,805	0,066	-0,041
-366,971	-73,268	0,055	0,015
-365,956	-200,000	0,018	-0,085
-364,942	-87,682	-0,121	0,027
-363,927	-9,437	-0,082	-0,040
-362,912	263,311	-0,009	0,012
-361,898	103,266	-0,127	-0,109
-360,883	-121,245	-0,057	0,007
-359,869	800,000	-0,068	-0,171
-358,854	-74,342	0,182	-0,048
-357,839	800,000	-0,038	0,089
-356,825	573,438	0,051	-0,091
-355,810	-200,000	-0,006	-0,046
-354,796	635,278	-0,039	0,074
-353,781	-148,179	-0,106	0,006
-352,766	-90,250	0,071	0,015
-351,752	-25,221	-0,010	0,004
-350,737	357,707	0,099	-0,145
-349,723	-32,928	0,062	0,025
-348,708	-27,501	0,092	-0,039
-347,693	-105,392	0,112	0,019
-346,679	-94,545	-0,107	-0,021
-345,664	206,144	0,037	-0,042
-344,650	800,000	-0,026	0,074
-343,635	35,186	0,085	0,054
-342,620	28,702	0,036	0,022
-341,606	-148,002	0,069	-0,004
-340,591	-61,954	0,048	-0,015
-339,577	-45,033	0,083	-0,030
-338,562	496,919	0,032	0,053
-337,548	634,163	0,030	-0,056
-336,533	498,460	-0,075	-0,127
-335,518	0,695	0,062	0,033
-334,504	644,606	-0,023	0,043
-333,489	643,987	0,052	0,098
-332,475	-102,972	0,014	0,002
-331,460	-200,000	0,004	-0,033
-330,445	112,469	0,043	-0,038
-329,431	-40,098	-0,069	0,026
-328,416	5,142	-0,018	-0,010
-327,402	7,148	0,089	0,049
-326,387	636,008	0,049	0,091
-325,372	297,757	-0,061	0,082
-324,358	494,740	-0,081	-0,137
-323,343	63,911	0,021	0,015
-322,329	72,005	0,106	-0,081
-321,314	-200,000	-0,016	-0,060
-320,299	800,000	-0,029	0,060
-319,285	-36,531	-0,042	-0,017
-318,270	31,103	0,037	-0,023
-317,256	-43,359	-0,098	-0,036
-316,241	-200,000	0,007	0,046
-315,226	51,331	-0,004	0,003
-314,212	800,000	0,049	0,133
-313,197	520,720	0,063	0,109
-312,183	-139,424	-0,099	0,008
-311,168	-187,196	0,105	-0,001
-310,153	653,947	-0,023	0,044
-309,139	-200,000	-0,005	-0,131
-308,124	800,000	-0,043	-0,124
-307,110	-82,862	0,061	-0,014
-306,095	-200,000	0,014	-0,051
-305,080	27,159	0,133	0,082
-304,066	800,000	-0,010	0,031
-303,051	108,698	-0,041	-0,036
-302,037	489,699	-0,034	0,058
-301,022	800,000	0,005	0,014
-300,008	168,694	0,038	-0,039
-298,993	-34,483	-0,144	-0,057
-297,978	-67,653	-0,083	0,024
-296,964	103,302	-0,038	0,033
-295,949	-200,000	-0,014	-0,190
-294,935	69,075	-0,044	-0,033
-293,920	541,577	0,039	-0,068
-292,905	-44,553	-0,080	0,029
-291,891	800,000	0,027	-0,071
-290,876	673,819	0,018	-0,034
-289,862	175,792	-0,093	-0,099
-288,847	-131,890	-0,074	-0,007
-287,832	336,193	-0,074	0,105
-286,818	603,015	0,031	-0,056
-285,803	225,872	-0,018	0,021
-284,789	-47,611	0,100	0,035
-283,774	531,728	0,073	0,126
-282,759	800,000	0,042	-0,096
-281,745	339,077	0,059	0,084
-280,730	-200,000	-0,001	0,033
-279,716	-12,161	-0,015	0,007
-278,701	233,655	-0,093	-0,112
-277,686	-73,379	0,126	-0,033
-276,672	-41,326	0,097	-0,037
-275,657	-200,000	0,018	-0,074
-274,643	-200,000	-0,006	-0,073
-273,628	144,827	0,116	-0,113
-272,613	-200,000	0,005	0,101
-271,599	678,948	0,088	0,168
-270,584	800,000	0,068	-0,149
-269,570	800,000	-0,018	0,050
-268,555	517,299	0,022	0,038
-267,540	-101,317	-0,149	0,026
-266,526	-200,000	0,019	-0,153
-265,511	-79,311	-0,074	0,018
-264,497	191,916	0,090	0,099
-263,482	800,000	0,032	-0,087
-262,467	55,131	0,126	0,089
-261,453	800,000	-0,014	0,035
-260,438	-97,839	-0,049	-0,009
-259,424	71,965	0,097	-0,074
-258,409	351,422	-0,027	0,039
-257,395	-200,000	0,014	-0,089
-256,380	96,329	-0,057	0,047
-255,365	-41,506	0,139	-0,052
-254,351	-200,000	0,024	0,110
-253,336	-200,000	0,026	0,124
-252,322	-66,730	0,032	-0,009
-251,307	-158,823	-0,079	0,003
-250,292	154,985	0,037	0,037
-249,278	-12,708	0,091	0,043
-248,263	-200,000	0,008	0,073
-247,249	-200,000	0,009	0,124
-246,234	-200,000	-0,018	0,103
-245,219	117,991	0,110	0,099
-244,205	-200,000	-0,092	0,000
-243,190	-123,586	0,107	-0,012
-242,176	-34,988	0,131	0,052
-241,161	91,335	0,043	-0,036
-240,146	57,476	-0,023	-0,016
-239,132	697,250	-0,020	-0,038
-238,117	-200,000	-0,022	-0,079
-237,103	800,000	0,013	-0,028
-236,088	106,008	0,049	-0,042
-235,073	-165,650	-0,066	0,002
-234,059	-93,850	0,049	0,010
-233,044	6,267	0,112	0,060
-232,030	-69,169	-0,155	-0,043
-231,015	-96,718	-0,095	-0,018
-230,000	-200,000	-0,021	0,137
-228,986	3,245	0,025	-0,013
-227,971	-45,886	-0,087	-0,031
-226,957	140,400	0,050	-0,048
-225,942	-83,390	0,075	0,017
-224,927	-200,000	0,009	0,072
-223,913	-70,146	-0,122	0,034
-222,898	-200,000	-0,000	-0,112
-221,884	-200,000	0,034	0,112
-220,869	249,367	0,051	0,064
-219,855	-200,000	0,012	0,123
-218,840	-200,000	0,034	0,149
-217,825	-200,000	0,020	0,100
-216,811	219,830	0,157	-0,184
-215,796	396,056	0,104	-0,159
-214,782	-63,255	-0,062	0,018
-213,767	791,970	0,020	0,040
-212,752	-39,711	-0,013	0,005
-211,738	-200,000	-0,003	-0,013
-210,723	-90,354	0,098	0,021
-209,709	90,297	-0,079	0,064
-208,694	354,843	-0,036	-0,052
-207,679	-200,000	0,005	-0,039
-206,665	-200,000	0,049	0,189
-205,650	30,753	0,160	0,100
-204,636	-55,402	0,015	-0,005
-203,621	800,000	-0,029	0,079
-202,606	-30,170	-0,120	-0,050
-201,592	464,138	-0,019	-0,031
-200,577	-10,983	-0,017	0,008
-199,563	-8,767	0,084	-0,041
-198,548	-200,000	0,013	0,102
-197,533	14,260	0,096	-0,055
-196,519	-200,000	0,026	-0,112
-195,504	323,006	-0,066	-0,092
-194,490	-200,000	0,001	-0,121
-193,475	86,747	0,025	0,020
-192,460	-22,947	0,033	-0,015
-191,446	472,589	-0,091	0,150
-190,431	196,916	0,141	0,157
-189,417	110,020	0,082	0,072
-188,402	219,142	0,080	-0,093
-187,387	115,377	-0,163	-0,145
-186,373	510,177	0,060	-0,102
-185,358	56,430	0,065	0,046
-184,344	148,177	-0,074	-0,073
-183,329	-84,998	0,225	0,051
-182,315	800,000	-0,021	-0,065
-181,300	267,284	-0,032	-0,040
-180,285	10,987	-0,091	0,050
-179,271	84,973	-0,135	-0,108
-178,256	770,759	-0,027	0,054
-177,242	-8,513	0,096	-0,047
-176,227	620,034	0,026	-0,047
-175,212	-200,000	0,002	-0,027
-174,198	-52,979	0,066	-0,022
-173,183	-200,000	0,005	0,074
-172,169	800,000	0,058	-0,129
-171,154	157,101	0,052	0,053
-170,139	97,028	-0,136	-0,114
-169,125	800,000	0,024	0,069
-168,110	800,000	0,044	-0,122
-167,096	800,000	-0,042	0,125
-166,081	-200,000	-0,009	-0,141
-165,066	9,268	-0,127	0,070
-164,052	132,824	-0,085	0,080
-163,037	-200,000	0,009	-0,064
-162,023	-74,859	0,055	-0,014
-161,008	-3,589	0,159	-0,080
-159,993	-200,000	0,008	0,088
-158,979	347,514	-0,009	0,013
-157,964	-24,288	0,072	0,031
-156,950	-179,363	-0,051	-0,001
-155,935	100,054	0,029	0,024
-154,920	-155,804	-0,089	0,004
-153,906	54,758	0,050	0,035
-152,891	770,157	0,026	0,051
-151,877	-35,884	-0,119	-0,047
-150,862	31,363	-0,142	0,089
-149,847	99,764	-0,063	-0,053
-148,833	-200,000	0,000	-0,100
-147,818	-56,959	0,115	-0,037
-146,804	-165,131	0,139	0,004
-145,789	589,845	0,044	-0,079
-144,775	-111,030	-0,110	0,016
-143,760	46,955	-0,042	0,029
-142,745	800,000	0,033	0,071
-141,731	227,901	-0,021	-0,025
-140,716	800,000	-0,028	-0,076
-139,702	-52,909	0,119	-0,040
-138,687	-138,129	0,082	0,007
-137,672	235,893	0,044	-0,053
-136,658	-56,308	-0,028	0,009
-135,643	115,949	-0,121	-0,108
-134,629	-200,000	-0,014	-0,113
-133,614	-200,000	0,017	-0,063
-132,599	-200,000	0,019	0,081
-131,585	-38,226	0,070	0,027
-130,570	353,317	-0,017	-0,025
-129,556	-67,576	-0,050	-0,014
-128,541	800,000	-0,050	-0,148
-127,526	-16,482	-0,084	-0,039
-126,512	-200,000	0,025	-0,125
-125,497	800,000	-0,021	0,066
-124,483	-91,736	-0,119	0,024
-123,468	16,536	-0,013	0,007
-122,453	96,105	0,084	-0,069
-121,439	194,930	0,019	0,021
-120,424	800,000	0,037	-0,092
-119,410	91,072	0,110	0,090
-118,395	154,821	-0,117	0,116
