DTS Sentinel unit serial number:	SN410029Multiplexer serial number:	ORYXHardware model number:	OX2-SRSoftware version number:	ORYX F/W v4,00 Oryx Data Collector v3.7.2.0data status	okinstallation	B4 Nyhavnadifferential loss correction	single-endedforward channel	channel 2reverse channel	N/Adate	2023/12/19time	05:00:13forward acquisition time	300,00reverse acquisition time	0,00gamma	499,1914k internal	0,3127k external	0,3127temperature offset calibration	1,0000default loss term (dB/km)	0,3820temperature slope calibration	1,0000multiplexer offset coefficient	1,0000multiplexer slope coefficient	1,0000fibre end	0,00T internal ref (°C)	20,97T ext. ref 1 (°C)	6,21T ext. ref 2 (°C)	6,20length (m)	temperature (°C)	Stokes	anti-Stokes-744,400	110,312	-0,063	-0,056
-743,385	-45,572	-0,319	0,117
-742,371	-75,242	0,137	-0,036
-741,356	-65,661	-0,340	0,101
-740,342	40,264	0,129	-0,087
-739,327	49,611	-0,193	0,135
-738,312	800,000	-0,010	-0,025
-737,298	-157,718	-0,178	-0,008
-736,283	26,045	0,071	-0,044
-735,269	72,395	-0,215	0,167
-734,254	-100,594	-0,089	0,016
-733,239	-73,196	-0,460	-0,125
-732,225	69,960	-0,047	-0,036
-731,210	58,750	0,039	0,029
-730,196	-200,000	0,019	0,079
-729,181	-200,000	0,030	-0,125
-728,167	-200,000	0,028	0,107
-727,152	-200,000	0,027	-0,149
-726,137	-40,265	0,076	-0,029
-725,123	-47,090	-0,166	-0,060
-724,108	-200,000	-0,039	-0,140
-723,094	34,545	-0,104	-0,068
-722,079	-23,051	-0,033	0,015
-721,064	-200,000	-0,019	-0,100
-720,050	-200,000	0,004	0,022
-719,035	-30,255	-0,050	-0,021
-718,021	-159,983	-0,110	0,004
-717,006	264,343	-0,061	-0,080
-715,991	577,303	-0,084	-0,152
-714,977	129,829	0,039	0,037
-713,962	73,444	0,044	-0,034
-712,948	135,884	0,081	0,079
-711,933	-3,798	-0,170	-0,088
-710,918	-31,154	-0,164	0,068
-709,904	-152,703	-0,172	0,009
-708,889	-81,894	-0,083	0,020
-707,875	-165,695	0,045	-0,001
-706,860	19,540	0,136	0,081
-705,845	132,694	-0,060	0,058
-704,831	185,003	0,106	-0,117
-703,816	-200,000	0,022	0,106
-702,802	293,311	-0,068	0,093
-701,787	-6,953	-0,053	0,026
-700,772	-102,267	-0,011	0,002
-699,758	-11,176	0,142	0,069
-698,743	-200,000	-0,009	0,033
-697,729	-200,000	-0,019	0,090
-696,714	-200,000	0,021	0,173
-695,699	355,835	-0,046	-0,068
-694,685	-200,000	0,020	-0,113
-693,670	32,963	-0,260	-0,167
-692,656	-136,840	0,037	-0,003
-691,641	-77,462	0,033	-0,009
-690,627	197,696	0,079	0,090
-689,612	-154,973	0,110	0,005
-688,597	321,819	0,044	-0,062
-687,583	800,000	0,032	0,079
-686,568	250,901	-0,124	0,157
-685,554	800,000	0,087	-0,188
-684,539	-200,000	-0,005	0,022
-683,524	-17,862	0,047	-0,022
-682,510	597,161	0,068	0,126
-681,495	-200,000	0,001	0,031
-680,481	-200,000	-0,007	-0,094
-679,466	-30,653	-0,126	-0,053
-678,451	-200,000	-0,014	-0,060
-677,437	-200,000	0,012	0,206
-676,422	786,397	-0,056	0,115
-675,408	432,032	-0,015	0,024
-674,393	-38,826	-0,119	-0,046
-673,378	-200,000	-0,017	-0,126
-672,364	440,105	0,037	-0,060
-671,349	-200,000	-0,026	-0,183
-670,335	-56,901	0,043	0,014
-669,320	26,721	-0,138	-0,085
-668,305	-105,661	0,089	0,015
-667,291	-200,000	-0,027	0,094
-666,276	-51,264	-0,059	-0,020
-665,262	722,304	-0,037	0,073
-664,247	-200,000	0,012	-0,085
-663,232	54,334	-0,069	0,049
-662,218	183,277	-0,041	0,045
-661,203	226,866	-0,038	0,046
-660,189	77,482	0,090	0,071
-659,174	800,000	-0,048	-0,147
-658,159	-138,011	0,090	-0,007
-657,145	370,600	0,054	0,082
-656,130	-99,858	-0,073	-0,013
-655,116	63,973	0,026	0,020
-654,101	-60,608	0,166	-0,052
-653,086	-128,749	0,065	-0,007
-652,072	249,872	0,065	0,082
-651,057	404,902	-0,014	0,021
-650,043	800,000	-0,007	-0,015
-649,028	81,727	0,017	-0,014
-648,014	-48,412	0,128	0,045
-646,999	265,074	0,035	0,046
-645,984	800,000	0,058	0,133
-644,970	-101,788	-0,090	-0,016
-643,955	287,536	-0,074	-0,099
-642,941	-187,193	-0,112	-0,001
-641,926	800,000	0,035	-0,100
-640,911	116,473	0,040	-0,036
-639,897	-174,697	-0,093	-0,002
-638,882	45,164	-0,086	0,059
-637,868	255,322	-0,078	-0,100
-636,853	-200,000	0,031	-0,137
-635,838	-68,085	-0,058	0,017
-634,824	41,269	0,081	-0,054
-633,809	-161,350	0,054	-0,002
-632,795	-200,000	0,029	0,191
-631,780	-144,166	-0,081	0,006
-630,765	-84,265	-0,092	0,021
-629,751	96,275	-0,022	-0,019
-628,736	800,000	0,052	-0,123
-627,722	-200,000	-0,010	0,089
-626,707	-108,359	-0,118	-0,019
-625,692	800,000	0,043	0,140
-624,678	38,039	0,152	0,100
-623,663	90,403	-0,079	-0,066
-622,649	-9,306	-0,162	-0,080
-621,634	-22,501	-0,065	-0,029
-620,619	-24,339	0,052	0,023
-619,605	637,749	-0,033	0,063
-618,590	230,913	0,105	-0,127
-617,576	210,495	-0,109	0,127
-616,561	800,000	-0,018	0,052
-615,546	-200,000	-0,001	0,072
-614,532	-200,000	-0,021	-0,127
-613,517	-150,114	-0,080	-0,005
-612,503	75,062	-0,107	-0,083
-611,488	-31,148	0,089	-0,037
-610,474	800,000	0,013	-0,033
-609,459	-200,000	0,009	-0,052
-608,444	-70,966	-0,088	-0,024
-607,430	193,925	-0,049	0,055
-606,415	540,315	-0,009	-0,016
-605,401	101,870	0,125	0,108
-604,386	54,571	0,089	0,063
-603,371	14,046	-0,034	-0,020
-602,357	-200,000	-0,021	0,084
-601,342	50,727	0,077	-0,054
-600,328	506,554	-0,040	-0,068
-599,313	453,501	-0,065	-0,107
-598,298	800,000	0,023	0,050
-597,284	-200,000	-0,018	-0,090
-596,269	-200,000	-0,010	0,041
-595,255	784,802	-0,042	0,087
-594,240	156,853	-0,075	0,076
-593,225	-200,000	0,024	-0,124
-592,211	1,647	-0,176	0,093
-591,196	-100,295	-0,143	-0,026
-590,182	85,153	0,047	0,038
-589,167	-71,204	-0,026	0,007
-588,152	-200,000	0,011	-0,249
-587,138	612,557	-0,035	-0,066
-586,123	-78,293	-0,110	0,028
-585,109	71,108	-0,059	0,045
-584,094	205,741	0,012	0,013
-583,079	518,424	0,046	0,080
-582,065	197,768	-0,058	0,066
-581,050	244,961	0,053	0,066
-580,036	-89,422	-0,105	-0,023
-579,021	61,573	-0,133	-0,098
-578,006	0,750	0,064	-0,034
-576,992	-109,191	0,058	0,009
-575,977	138,985	-0,070	0,068
-574,963	800,000	0,031	0,070
-573,948	483,664	-0,037	-0,062
-572,934	70,385	-0,041	0,031
-571,919	-160,740	-0,236	-0,009
-570,904	800,000	0,036	-0,111
-569,890	-200,000	0,004	-0,055
-568,875	-40,609	0,088	0,034
-567,861	386,914	-0,126	0,193
-566,846	-112,338	0,103	0,015
-565,831	-49,101	-0,014	-0,005
-564,817	-114,379	-0,042	0,006
-563,802	800,000	0,023	0,062
-562,788	189,670	-0,065	-0,072
-561,773	-96,675	0,065	-0,013
-560,758	-200,000	0,006	-0,060
-559,744	800,000	-0,024	-0,073
-558,729	547,113	0,027	0,048
-557,715	322,847	-0,016	-0,022
-556,700	537,754	-0,024	0,042
-555,685	172,030	0,015	-0,016
-554,671	-36,439	-0,116	-0,046
-553,656	800,000	-0,037	0,077
-552,642	55,730	-0,005	-0,003
-551,627	-159,382	0,025	-0,001
-550,612	-200,000	0,016	-0,055
-549,598	248,870	-0,019	-0,024
-548,583	551,711	-0,066	-0,117
-547,569	9,443	0,035	0,019
-546,554	131,332	-0,075	0,072
-545,539	79,672	0,018	-0,014
-544,525	102,940	-0,072	0,062
-543,510	197,038	0,055	0,062
-542,496	-8,139	0,133	0,066
-541,481	-35,100	0,178	-0,071
-540,466	137,604	0,046	-0,044
-539,452	-82,125	-0,095	-0,023
-538,437	606,369	0,057	0,106
-537,423	-37,382	0,020	-0,008
-536,408	-200,000	0,022	-0,098
-535,393	62,529	-0,136	0,100
-534,379	-200,000	0,007	-0,086
-533,364	-79,970	-0,038	-0,009
-532,350	429,595	-0,068	0,109
-531,335	194,673	-0,068	-0,076
-530,321	-32,320	-0,022	0,009
-529,306	203,637	-0,065	0,075
-528,291	800,000	0,034	-0,099
-527,277	35,581	0,073	-0,047
-526,262	377,090	-0,022	0,033
-525,248	41,687	0,127	-0,085
-524,233	800,000	0,033	-0,075
-523,218	36,810	0,092	0,060
-522,204	-200,000	-0,011	0,097
-521,189	781,081	0,029	-0,060
-520,175	-200,000	0,011	0,077
-519,160	-37,107	0,039	0,015
-518,145	800,000	-0,018	0,045
-517,131	800,000	0,040	0,122
-516,116	800,000	0,024	0,078
-515,102	-200,000	-0,017	-0,067
-514,087	-116,284	-0,130	0,018
-513,072	800,000	0,040	0,094
-512,058	135,883	0,078	-0,075
-511,043	-200,000	0,018	0,074
-510,029	4,269	0,146	0,079
-509,014	181,054	0,041	-0,045
-507,999	-116,571	-0,136	0,018
-506,985	255,329	-0,045	-0,057
-505,970	406,302	-0,070	-0,109
-504,956	-48,641	-0,065	0,023
-503,941	220,825	-0,071	0,084
-502,926	129,384	-0,083	-0,078
-501,912	205,188	0,022	-0,025
-500,897	-102,445	-0,049	0,009
-499,883	-200,000	-0,013	0,093
-498,868	-200,000	0,010	-0,050
-497,853	33,582	0,029	-0,019
-496,839	800,000	-0,048	-0,102
-495,824	800,000	0,045	-0,104
-494,810	72,927	0,169	0,130
-493,795	800,000	0,069	0,148
-492,781	423,246	-0,092	-0,147
-491,766	-200,000	0,001	-0,017
-490,751	73,467	0,032	-0,025
-489,737	-125,909	-0,088	0,010
-488,722	70,089	0,102	0,077
-487,708	-75,660	-0,092	0,024
-486,693	-41,728	-0,070	-0,026
-485,678	552,641	0,033	0,058
-484,664	-200,000	-0,003	-0,068
-483,649	-150,062	0,061	-0,003
-482,635	-200,000	-0,021	-0,147
-481,620	85,113	-0,046	0,037
-480,605	-111,697	0,241	-0,036
-479,591	455,939	0,007	0,012
-478,576	52,105	-0,053	0,037
-477,562	-121,860	0,143	-0,017
-476,547	618,667	-0,081	0,151
-475,532	-200,000	-0,025	0,107
-474,518	-200,000	-0,002	0,073
-473,503	385,868	-0,069	0,105
-472,489	-200,000	0,003	0,019
-471,474	-18,241	0,133	0,061
-470,459	-200,000	0,019	-0,099
-469,445	-84,866	-0,145	-0,033
-468,430	439,752	-0,036	0,058
-467,416	-49,902	0,091	0,032
-466,401	258,704	-0,026	0,032
-465,386	-200,000	-0,011	0,038
-464,372	-31,574	0,014	0,006
-463,357	291,813	-0,087	-0,117
-462,343	-200,000	0,014	-0,144
-461,328	135,460	0,085	-0,081
-460,313	-118,920	-0,119	-0,015
-459,299	776,333	-0,047	-0,095
-458,284	-56,798	0,075	0,024
-457,270	135,611	-0,067	-0,064
-456,255	101,054	-0,130	-0,111
-455,241	-162,653	-0,142	-0,005
-454,226	-125,643	-0,033	0,004
-453,211	94,764	0,058	0,048
-452,197	423,197	-0,103	0,163
-451,182	49,214	0,097	-0,067
-450,168	-200,000	0,003	0,062
-449,153	-200,000	0,009	-0,140
-448,138	-143,781	-0,050	0,003
-447,124	-96,697	-0,157	0,030
-446,109	-28,011	-0,085	0,036
-445,095	-200,000	0,030	0,103
-444,080	82,229	0,143	0,114
-443,065	75,149	0,105	0,081
-442,051	-148,452	-0,161	-0,010
-441,036	247,718	-0,028	0,035
-440,022	-200,000	0,023	0,104
-439,007	-144,402	0,045	0,003
-437,992	11,510	0,060	-0,033
-436,978	4,864	-0,067	-0,036
-435,963	-200,000	-0,006	0,090
-434,949	-200,000	-0,009	0,101
-433,934	-200,000	0,000	-0,015
-432,919	116,437	-0,113	-0,102
-431,905	-143,048	-0,105	-0,007
-430,890	59,022	0,042	0,030
-429,876	-40,586	0,124	0,047
-428,861	-200,000	-0,027	-0,126
-427,846	42,232	-0,057	0,038
-426,832	126,512	-0,046	0,043
-425,817	-200,000	0,024	-0,090
-424,803	-142,658	-0,106	-0,008
-423,788	-21,229	-0,139	0,062
-422,773	-200,000	0,014	0,124
-421,759	20,115	0,249	0,147
-420,744	-200,000	0,013	-0,078
-419,730	-200,000	-0,025	-0,129
-418,715	800,000	-0,010	-0,024
-417,701	-178,279	0,127	0,002
-416,686	56,777	0,075	0,054
-415,671	277,666	0,030	-0,040
-414,657	335,788	0,051	0,073
-413,642	-200,000	0,009	0,060
-412,628	-143,465	0,061	0,004
-411,613	-117,061	0,085	0,011
-410,598	-127,887	-0,081	-0,009
-409,584	-200,000	-0,006	-0,058
-408,569	-14,116	0,166	0,078
-407,555	67,784	0,015	-0,011
-406,540	-91,860	-0,069	-0,014
-405,525	520,922	-0,034	-0,059
-404,511	5,900	-0,068	0,037
-403,496	-130,131	-0,047	0,005
-402,482	-35,003	0,058	-0,023
-401,467	-96,678	0,103	0,020
-400,452	-3,211	0,088	0,045
-399,438	800,000	-0,040	-0,105
-398,423	-46,222	0,166	-0,060
-397,409	-200,000	0,003	0,090
-396,394	-55,931	-0,043	-0,014
-395,379	-200,000	-0,007	-0,040
-394,365	-20,383	-0,102	0,046
-393,350	742,973	-0,059	-0,116
-392,336	-117,570	0,093	-0,012
-391,321	102,255	0,028	-0,024
-390,306	-158,844	-0,179	0,007
-389,292	-48,958	-0,105	0,037
-388,277	-70,565	0,053	0,014
-387,263	-37,500	-0,053	0,021
-386,248	456,658	0,051	-0,083
-385,233	318,676	0,089	0,124
-384,219	-41,673	-0,051	0,019
-383,204	26,660	0,002	-0,001
-382,190	800,000	0,032	0,074
-381,175	325,957	-0,069	-0,097
-380,160	800,000	0,010	-0,023
-379,146	-112,358	0,204	0,030
-378,131	-200,000	-0,007	-0,074
-377,117	131,041	-0,074	0,070
-376,102	-200,000	0,008	-0,056
-375,088	46,499	0,021	-0,014
-374,073	-41,011	0,044	-0,017
-373,058	289,039	0,059	0,079
-372,044	-62,331	-0,087	-0,026
-371,029	-190,548	-0,067	0,001
-370,015	-200,000	0,131	-0,000
-369,000	20,590	-0,048	0,028
-367,985	669,370	0,022	0,042
-366,971	-123,865	-0,062	-0,007
-365,956	285,856	0,074	0,099
-364,942	-200,000	-0,026	0,102
-363,927	370,711	-0,025	0,038
-362,912	418,881	-0,034	0,054
-361,898	-200,000	0,008	-0,053
-360,883	-200,000	-0,003	-0,016
-359,869	-200,000	-0,022	-0,080
-358,854	-200,000	0,032	-0,112
-357,839	-200,000	0,008	0,064
-356,825	-46,364	0,018	0,007
-355,810	-200,000	0,002	0,063
-354,796	-200,000	-0,015	-0,119
-353,781	-27,248	-0,058	0,025
-352,766	-52,306	-0,035	-0,012
-351,752	-200,000	-0,003	-0,018
-350,737	-143,068	0,128	0,009
-349,723	-170,505	0,146	-0,004
-348,708	616,920	0,075	0,139
-347,693	64,290	0,065	-0,048
-346,679	-24,018	0,048	0,021
-345,664	51,014	0,020	-0,014
-344,650	-99,486	0,149	0,027
-343,635	25,002	0,095	-0,057
-342,620	2,666	0,080	-0,042
-341,606	76,448	0,078	-0,061
-340,591	-200,000	0,007	-0,108
-339,577	800,000	-0,055	-0,150
-338,562	119,556	-0,040	-0,036
-337,548	76,784	-0,048	0,037
-336,533	347,550	0,017	0,024
-335,518	319,179	0,132	-0,183
-334,504	38,284	0,065	0,043
-333,489	-200,000	-0,007	0,077
-332,475	800,000	-0,054	0,110
-331,460	-65,505	-0,093	-0,027
-330,445	800,000	0,031	0,075
-329,431	-139,302	0,110	-0,009
-328,416	74,111	0,083	0,064
-327,402	243,892	-0,030	-0,036
-326,387	-200,000	-0,001	-0,091
-325,372	371,311	-0,051	0,076
-324,358	270,387	-0,055	0,072
-323,343	-200,000	-0,022	-0,073
-322,329	34,668	-0,084	-0,054
-321,314	151,232	0,095	0,095
-320,299	599,531	0,046	0,085
-319,285	800,000	-0,007	0,020
-318,270	-6,457	0,001	0,000
-317,256	-200,000	-0,011	-0,068
-316,241	-200,000	0,001	0,016
-315,226	74,731	0,098	0,076
-314,212	-200,000	-0,005	0,075
-313,197	325,088	0,091	0,128
-312,183	99,215	0,045	-0,038
-311,168	-147,553	0,039	-0,002
-310,153	-98,730	-0,056	0,010
-309,139	-200,000	-0,004	-0,087
-308,124	-41,292	0,057	0,021
-307,110	553,380	-0,023	0,040
-306,095	-48,803	-0,045	0,016
-305,080	-40,455	-0,096	-0,036
-304,066	158,065	0,061	-0,062
-303,051	185,871	0,057	-0,062
-302,037	-200,000	-0,014	-0,089
-301,022	28,518	-0,062	0,039
-300,008	312,784	-0,034	-0,046
-298,993	800,000	-0,020	0,043
-297,978	-200,000	0,019	0,076
-296,964	24,864	0,040	0,024
-295,949	800,000	-0,054	-0,137
-294,935	-200,000	-0,000	-0,177
-293,920	27,189	-0,065	-0,040
-292,905	800,000	0,018	0,037
-291,891	-200,000	0,023	0,169
-290,876	628,924	-0,034	0,064
-289,862	-200,000	-0,003	-0,085
-288,847	164,978	-0,028	0,029
-287,832	120,328	-0,028	-0,026
-286,818	-78,133	0,134	-0,034
-285,803	-200,000	0,013	0,080
-284,789	1,028	0,142	-0,074
-283,774	-17,419	0,042	-0,019
-282,759	-200,000	-0,027	0,105
-281,745	96,985	-0,024	0,020
-280,730	800,000	0,016	0,045
-279,716	21,740	-0,026	-0,015
-278,701	-96,450	-0,074	0,014
-277,686	12,998	0,085	-0,048
-276,672	96,291	0,049	-0,041
-275,657	-190,223	-0,072	-0,001
-274,643	-100,581	-0,112	-0,020
-273,628	-200,000	0,024	-0,133
-272,613	442,298	0,012	0,019
-271,599	-146,090	0,181	-0,011
-270,584	-200,000	0,002	0,076
-269,570	-200,000	0,018	-0,087
-268,555	21,141	-0,092	-0,055
-267,540	60,590	0,040	-0,029
-266,526	729,717	0,082	-0,162
-265,511	-200,000	-0,003	-0,079
-264,497	184,874	-0,168	-0,183
-263,482	800,000	-0,054	-0,117
-262,467	303,573	0,110	-0,149
-261,453	-200,000	-0,004	0,059
-260,438	-200,000	-0,007	0,027
-259,424	193,625	-0,061	0,067
-258,409	-200,000	0,003	0,017
-257,395	133,155	-0,022	-0,020
-256,380	235,667	-0,036	-0,043
-255,365	-200,000	0,004	-0,120
-254,351	-42,854	-0,059	0,022
-253,336	-200,000	0,007	-0,064
-252,322	676,792	0,044	-0,085
-251,307	579,256	0,009	-0,017
-250,292	168,820	0,082	-0,086
-249,278	-200,000	-0,005	-0,052
-248,263	800,000	0,078	0,189
-247,249	69,897	-0,098	0,074
-246,234	-200,000	0,026	-0,115
-245,219	-200,000	0,014	-0,157
-244,205	135,947	0,033	-0,031
-243,190	82,803	0,047	-0,037
-242,176	800,000	0,029	0,083
-241,161	189,641	-0,090	0,099
-240,146	800,000	-0,024	0,061
-239,132	-200,000	-0,007	-0,068
-238,117	-99,740	0,131	0,024
-237,103	-200,000	-0,013	-0,062
-236,088	-200,000	0,024	0,085
-235,073	-200,000	-0,027	0,131
-234,059	-200,000	0,010	0,092
-233,044	-132,816	0,118	-0,011
-232,030	800,000	-0,060	0,150
-231,015	-135,062	0,071	0,006
-230,000	800,000	-0,025	-0,058
-228,986	-104,067	0,066	-0,011
-227,971	-200,000	0,045	-0,150
-226,957	800,000	0,029	0,084
-225,942	-3,240	0,031	-0,016
-224,927	-21,944	-0,121	-0,053
-223,913	-200,000	-0,009	-0,111
-222,898	800,000	0,008	-0,023
-221,884	-25,832	0,029	0,013
-220,869	570,662	0,066	0,118
-219,855	-200,000	0,025	0,186
-218,840	-200,000	-0,004	0,076
-217,825	-200,000	-0,005	0,057
-216,811	-200,000	-0,014	-0,056
-215,796	98,181	0,056	0,047
-214,782	800,000	0,039	0,087
-213,767	-200,000	-0,039	-0,139
-212,752	800,000	0,024	-0,049
-211,738	-200,000	0,023	-0,144
-210,723	-200,000	-0,015	0,081
-209,709	800,000	0,022	-0,068
-208,694	-11,773	0,068	-0,032
-207,679	-200,000	-0,015	-0,059
-206,665	-200,000	-0,025	-0,094
-205,650	70,060	0,116	-0,087
-204,636	-1,975	0,055	0,028
-203,621	800,000	-0,062	0,167
-202,606	4,151	-0,078	-0,041
-201,592	781,548	0,014	-0,028
-200,577	-93,804	-0,070	-0,014
-199,563	289,651	-0,090	-0,120
-198,548	9,418	0,069	0,038
-197,533	391,546	0,066	0,100
-196,519	-139,194	-0,145	0,011
-195,504	-68,032	-0,059	0,017
-194,490	-200,000	0,020	-0,166
-193,475	-101,169	-0,227	-0,040
-192,460	-2,658	-0,021	0,010
-191,446	-104,418	-0,013	-0,002
-190,431	-96,066	0,166	0,032
-189,417	-200,000	0,004	0,138
-188,402	469,526	0,035	0,058
-187,387	-200,000	0,002	0,029
-186,373	-177,766	-0,131	0,002
-185,358	-200,000	-0,005	0,023
-184,344	29,896	0,077	-0,048
-183,329	-91,989	0,146	-0,030
-182,315	-152,781	0,090	-0,005
-181,300	-200,000	-0,020	0,187
-180,285	-86,896	-0,127	-0,028
-179,271	-200,000	0,012	-0,096
-178,256	-104,001	0,073	-0,012
-177,242	138,006	0,013	0,012
-176,227	676,016	0,032	0,060
-175,212	800,000	0,049	0,099
-174,198	-134,851	-0,111	-0,010
-173,183	44,872	-0,027	0,018
-172,169	-200,000	-0,039	0,167
-171,154	800,000	-0,062	0,126
-170,139	-125,867	0,057	0,006
-169,125	-131,119	-0,060	0,006
-168,110	631,584	0,031	0,058
-167,096	-200,000	0,029	0,106
-166,081	-9,720	0,042	0,020
-165,066	800,000	-0,077	-0,168
-164,052	499,658	-0,030	0,051
-163,037	-200,000	-0,013	0,051
-162,023	-198,796	0,104	0,000
-161,008	-116,444	-0,070	-0,009
-159,993	50,837	-0,048	-0,033
-158,979	-101,567	-0,051	0,009
-157,964	-200,000	0,006	-0,085
-156,950	-200,000	-0,033	-0,167
-155,935	-45,953	0,054	0,019
-154,920	145,252	-0,007	-0,007
-153,906	-8,560	0,248	0,121
-152,891	800,000	0,045	-0,095
-151,877	164,168	-0,012	-0,012
-150,862	-20,156	-0,059	0,026
-149,847	164,521	-0,076	-0,078
-148,833	-200,000	0,015	0,117
-147,818	-97,918	0,034	0,006
-146,804	-42,011	-0,124	0,046
-145,789	193,402	0,089	0,099
-144,775	73,292	0,141	0,107
-143,760	172,242	-0,050	-0,053
-142,745	-151,023	-0,063	0,003
-141,731	-200,000	-0,023	0,091
-140,716	81,355	-0,104	0,082
-139,702	-21,894	0,126	0,055
-138,687	402,976	0,056	-0,086
-137,672	800,000	0,052	0,109
-136,658	78,246	0,032	0,025
-135,643	452,060	0,033	-0,053
-134,629	214,666	-0,084	-0,097
-133,614	800,000	0,057	0,116
-132,599	550,025	-0,074	0,129
-131,585	32,334	-0,114	0,071
-130,570	800,000	-0,020	-0,058
-129,556	-11,213	0,043	-0,021
-128,541	800,000	-0,069	-0,157
-127,526	-110,202	0,130	0,020
-126,512	-100,247	0,059	0,010
-125,497	-53,067	0,097	0,032
-124,483	355,889	-0,044	0,064
-123,468	-65,431	0,109	0,032
-122,453	18,050	-0,028	0,016
-121,439	-200,000	0,016	0,055
-120,424	-66,664	-0,040	0,011
-119,410	-200,000	0,080	0,000
