DTS Sentinel unit serial number:	SN410029Multiplexer serial number:	ORYXHardware model number:	OX2-SRSoftware version number:	ORYX F/W v4,00 Oryx Data Collector v3.7.2.0data status	okinstallation	B4 Nyhavnadifferential loss correction	single-endedforward channel	channel 2reverse channel	N/Adate	2023/12/15time	22:20:13forward acquisition time	300,00reverse acquisition time	0,00gamma	499,1914k internal	0,3132k external	0,3132temperature offset calibration	1,0000default loss term (dB/km)	0,3820temperature slope calibration	1,0000multiplexer offset coefficient	1,0000multiplexer slope coefficient	1,0000fibre end	0,00T internal ref (°C)	21,31T ext. ref 1 (°C)	6,60T ext. ref 2 (°C)	6,77length (m)	temperature (°C)	Stokes	anti-Stokes-744,400	-200,000	-0,018	-0,119
-743,385	-83,826	-0,211	0,050
-742,371	-33,554	-0,034	0,014
-741,356	-126,113	-0,181	0,020
-740,342	-200,000	0,113	-0,000
-739,327	-126,564	-0,241	-0,026
-738,312	-200,000	0,000	-0,004
-737,298	-20,269	-0,193	0,088
-736,283	2,414	0,115	-0,061
-735,269	-174,929	-0,172	0,003
-734,254	-55,474	0,032	0,011
-733,239	-85,790	-0,358	-0,082
-732,225	127,619	0,091	-0,086
-731,210	-200,000	0,023	0,094
-730,196	488,945	0,045	0,076
-729,181	661,187	-0,043	-0,082
-728,167	11,579	-0,026	0,015
-727,152	-50,719	-0,146	-0,051
-726,137	-200,000	0,022	-0,121
-725,123	-154,775	-0,074	0,004
-724,108	-200,000	0,025	-0,093
-723,094	177,887	-0,093	-0,101
-722,079	420,332	-0,101	-0,161
-721,064	-200,000	-0,032	-0,127
-720,050	-200,000	-0,022	0,100
-719,035	-128,128	-0,077	0,008
-718,021	-104,080	-0,124	-0,021
-717,006	-200,000	0,013	-0,157
-715,991	-200,000	-0,018	-0,062
-714,977	800,000	-0,040	-0,105
-713,962	800,000	-0,055	-0,142
-712,948	-200,000	0,006	0,060
-711,933	175,495	0,070	-0,075
-710,918	-138,513	-0,085	0,007
-709,904	-200,000	-0,005	-0,106
-708,889	-200,000	-0,006	0,059
-707,875	134,453	-0,060	-0,058
-706,860	118,345	-0,038	0,034
-705,845	581,017	0,037	-0,068
-704,831	800,000	-0,026	0,057
-703,816	30,877	0,124	-0,079
-702,802	118,287	-0,050	0,046
-701,787	-200,000	0,013	-0,045
-700,772	18,570	-0,123	-0,073
-699,758	13,043	-0,091	0,052
-698,743	171,365	-0,034	0,036
-697,729	174,523	-0,050	-0,054
-696,714	-200,000	0,010	-0,117
-695,699	-49,555	0,059	-0,021
-694,685	254,155	-0,022	-0,028
-693,670	43,434	0,066	-0,045
-692,656	-63,169	0,036	0,011
-691,641	63,353	0,129	0,096
-690,627	172,946	-0,053	-0,056
-689,612	-200,000	-0,038	0,129
-688,597	25,478	0,063	-0,039
-687,583	-200,000	0,003	0,084
-686,568	800,000	-0,031	-0,069
-685,554	800,000	-0,010	0,028
-684,539	217,923	-0,041	-0,048
-683,524	-32,423	-0,046	-0,019
-682,510	-200,000	-0,057	0,249
-681,495	445,094	0,105	0,171
-680,481	-190,396	-0,087	0,001
-679,466	24,360	-0,109	-0,066
-678,451	-200,000	-0,043	-0,317
-677,437	800,000	0,003	-0,006
-676,422	-7,426	0,070	0,035
-675,408	-14,109	-0,158	0,075
-674,393	637,519	-0,021	0,040
-673,378	-200,000	0,003	-0,013
-672,364	391,665	-0,067	-0,103
-671,349	346,438	-0,058	-0,085
-670,335	-190,240	0,090	-0,001
-669,320	-200,000	0,016	0,136
-668,305	648,764	-0,044	0,084
-667,291	-128,299	-0,051	0,005
-666,276	800,000	-0,066	-0,210
-665,262	223,350	0,027	-0,033
-664,247	-97,589	-0,080	0,015
-663,232	-119,078	0,160	-0,020
-662,218	-63,188	0,064	0,020
-661,203	-7,339	-0,042	0,021
-660,189	-200,000	0,025	0,090
-659,174	-200,000	-0,008	-0,160
-658,159	800,000	0,047	-0,117
-657,145	166,649	-0,028	-0,030
-656,130	-200,000	0,017	-0,262
-655,116	250,573	-0,082	-0,103
-654,101	106,125	-0,044	-0,039
-653,086	-159,797	-0,095	0,004
-652,072	-200,000	-0,035	0,115
-651,057	153,876	0,041	-0,041
-650,043	285,272	-0,005	0,006
-649,028	102,780	-0,074	0,064
-648,014	163,316	0,069	0,072
-646,999	337,166	0,060	-0,087
-645,984	4,287	0,027	0,015
-644,970	325,790	0,039	-0,056
-643,955	-200,000	0,010	-0,067
-642,941	36,488	0,151	-0,099
-641,926	-97,883	-0,157	0,030
-640,911	-200,000	-0,010	-0,135
-639,897	420,899	0,074	-0,117
-638,882	129,364	0,061	0,057
-637,868	-200,000	0,021	0,149
-636,853	82,022	-0,027	0,021
-635,838	-200,000	-0,003	-0,063
-634,824	-101,292	-0,059	0,011
-633,809	-200,000	-0,013	0,054
-632,795	800,000	0,035	0,095
-631,780	-200,000	0,008	0,108
-630,765	-14,009	0,161	0,076
-629,751	-200,000	0,002	0,055
-628,736	265,904	-0,022	-0,029
-627,722	209,921	-0,037	-0,043
-626,707	285,703	-0,040	0,053
-625,692	5,528	0,098	0,053
-624,678	183,622	-0,011	0,012
-623,663	800,000	0,080	0,205
-622,649	158,632	0,033	0,034
-621,634	800,000	-0,035	-0,091
-620,619	336,535	0,086	-0,124
-619,605	742,468	-0,051	0,101
-618,590	800,000	0,061	0,167
-617,576	-200,000	-0,063	0,210
-616,561	-200,000	0,016	-0,077
-615,546	540,805	0,006	-0,010
-614,532	-200,000	-0,000	0,035
-613,517	16,893	-0,132	0,077
-612,503	-52,505	0,014	-0,005
-611,488	-0,523	0,087	0,045
-610,474	-17,173	-0,033	-0,015
-609,459	621,037	-0,079	-0,148
-608,444	250,459	-0,033	-0,042
-607,430	-151,265	-0,049	-0,003
-606,415	41,774	-0,078	0,052
-605,401	800,000	-0,024	-0,078
-604,386	69,792	0,016	-0,012
-603,371	-200,000	0,008	-0,070
-602,357	514,816	-0,089	0,155
-601,342	-49,589	-0,068	0,024
-600,328	-48,093	0,075	-0,027
-599,313	-200,000	0,026	-0,126
-598,298	-200,000	0,037	-0,127
-597,284	-153,437	0,118	0,006
-596,269	-157,569	-0,078	0,003
-595,255	-122,033	0,094	-0,011
-594,240	35,307	0,060	-0,039
-593,225	126,320	-0,110	-0,103
-592,211	-4,207	-0,034	-0,017
-591,196	-200,000	0,046	-0,171
-590,182	485,674	0,064	0,108
-589,167	800,000	-0,045	0,140
-588,152	-200,000	-0,019	0,099
-587,138	800,000	-0,062	-0,148
-586,123	800,000	-0,061	-0,152
-585,109	-200,000	-0,015	-0,066
-584,094	-200,000	-0,002	-0,089
-583,079	87,349	-0,050	-0,041
-582,065	800,000	0,041	0,130
-581,050	-31,969	0,090	-0,037
-580,036	-47,662	-0,086	-0,031
-579,021	45,008	-0,016	-0,011
-578,006	-200,000	0,012	-0,090
-576,992	44,275	-0,082	-0,055
-575,977	800,000	0,037	-0,092
-574,963	800,000	-0,068	0,152
-573,948	-38,378	-0,055	0,022
-572,934	15,880	0,069	-0,040
-571,919	-131,414	-0,082	-0,008
-570,904	-200,000	0,000	0,062
-569,890	-40,617	-0,117	0,045
-568,875	26,035	-0,015	-0,009
-567,861	-98,640	0,126	0,024
-566,846	-66,151	-0,159	0,047
-565,831	357,280	0,075	0,111
-564,817	356,322	-0,065	-0,097
-563,802	-116,147	0,161	-0,022
-562,788	-6,287	-0,072	-0,036
-561,773	-12,217	-0,162	-0,078
-560,758	-200,000	-0,018	0,107
-559,744	295,462	-0,010	-0,014
-558,729	387,300	-0,087	0,133
-557,715	40,186	0,005	0,003
-556,700	-152,582	-0,134	0,007
-555,685	44,368	0,068	0,046
-554,671	-200,000	0,001	0,098
-553,656	800,000	0,004	-0,009
-552,642	-200,000	0,005	0,161
-551,627	299,710	-0,070	0,095
-550,612	290,916	-0,069	0,093
-549,598	184,272	0,108	-0,118
-548,583	-31,932	-0,167	-0,069
-547,569	-200,000	0,028	0,097
-546,554	-16,059	-0,065	-0,030
-545,539	24,119	-0,102	0,062
-544,525	280,734	-0,021	0,028
-543,510	-98,750	-0,113	0,021
-542,496	-200,000	-0,002	0,075
-541,481	753,457	-0,027	0,054
-540,466	110,437	0,110	-0,097
-539,452	-200,000	0,001	0,010
-538,437	-42,671	0,111	-0,042
-537,423	-200,000	0,031	-0,161
-536,408	800,000	-0,029	-0,085
-535,393	-200,000	0,014	-0,108
-534,379	207,086	-0,049	-0,056
-533,364	209,917	0,091	0,106
-532,350	-200,000	-0,002	-0,050
-531,335	-58,966	-0,110	0,035
-530,321	214,063	0,035	0,041
-529,306	462,641	-0,040	0,066
-528,291	-76,117	0,055	0,014
-527,277	-24,378	0,022	0,010
-526,262	-124,360	0,022	-0,002
-525,248	-200,000	-0,034	0,144
-524,233	800,000	-0,011	-0,026
-523,218	-2,753	0,066	0,034
-522,204	-84,120	-0,057	-0,013
-521,189	249,892	-0,051	0,064
-520,175	147,829	0,091	0,091
-519,160	72,817	-0,020	-0,016
-518,145	-93,212	0,150	-0,030
-517,131	-175,278	-0,037	-0,001
-516,116	-200,000	0,011	0,100
-515,102	44,218	-0,025	-0,017
-514,087	-174,705	-0,067	-0,001
-513,072	-139,945	0,035	-0,003
-512,058	443,811	0,029	-0,046
-511,043	-200,000	-0,010	-0,120
-510,029	3,536	0,084	0,045
-509,014	198,581	0,038	0,043
-507,999	92,601	0,115	0,095
-506,985	-200,000	0,018	-0,088
-505,970	-96,169	-0,120	0,023
-504,956	79,647	0,103	0,081
-503,941	263,270	-0,110	-0,141
-502,926	345,384	0,070	-0,101
-501,912	800,000	-0,015	0,043
-500,897	800,000	-0,036	0,085
-499,883	-189,014	-0,171	-0,001
-498,868	487,776	-0,032	0,054
-497,853	224,726	-0,082	-0,098
-496,839	-200,000	-0,003	-0,115
-495,824	-31,428	0,127	-0,052
-494,810	-172,557	0,091	0,002
-493,795	378,785	-0,051	0,077
-492,781	255,087	0,009	0,012
-491,766	122,215	0,047	0,043
-490,751	-200,000	0,018	-0,066
-489,737	-200,000	-0,017	0,134
-488,722	1,123	-0,074	0,039
-487,708	-200,000	0,009	0,086
-486,693	-84,274	0,080	0,018
-485,678	61,635	-0,050	0,037
-484,664	766,347	-0,028	0,056
-483,649	137,012	0,096	-0,092
-482,635	-200,000	-0,003	-0,029
-481,620	-200,000	0,004	-0,133
-480,605	-200,000	-0,013	-0,044
-479,591	-200,000	-0,030	-0,147
-478,576	-119,360	-0,162	0,021
-477,562	107,873	-0,079	-0,069
-476,547	372,714	-0,062	-0,093
-475,532	800,000	-0,043	-0,108
-474,518	-200,000	-0,014	-0,061
-473,503	-40,607	-0,042	-0,016
-472,489	331,577	-0,050	0,071
-471,474	267,073	0,085	-0,109
-470,459	283,928	-0,110	-0,146
-469,445	-200,000	0,001	-0,031
-468,430	62,901	0,093	-0,068
-467,416	-88,809	0,098	-0,021
-466,401	-56,442	-0,125	-0,041
-465,386	-200,000	-0,014	0,099
-464,372	236,757	-0,083	0,102
-463,357	-33,803	-0,081	0,033
-462,343	80,303	-0,103	0,081
-461,328	-76,288	-0,087	-0,022
-460,313	470,489	0,010	-0,017
-459,299	-200,000	0,023	0,114
-458,284	6,726	0,078	0,043
-457,270	800,000	0,010	0,026
-456,255	-200,000	0,015	0,067
-455,241	-200,000	-0,021	-0,097
-454,226	141,712	0,073	0,071
-453,211	311,010	0,027	0,037
-452,197	-7,084	-0,052	-0,026
-451,182	-3,847	0,021	0,011
-450,168	-200,000	-0,016	0,065
-449,153	800,000	0,031	-0,090
-448,138	345,930	-0,095	-0,138
-447,124	-29,422	-0,156	0,065
-446,109	-102,784	-0,102	-0,018
-445,095	368,530	0,049	-0,073
-444,080	736,402	0,051	0,101
-443,065	800,000	-0,017	0,050
-442,051	154,422	-0,011	0,011
-441,036	-4,532	0,065	-0,033
-440,022	328,803	0,026	0,037
-439,007	-200,000	-0,011	0,143
-437,992	-52,586	0,220	-0,074
-436,978	-200,000	-0,018	0,079
-435,963	-108,461	0,059	0,009
-434,949	20,603	-0,014	-0,008
-433,934	725,341	-0,091	-0,179
-432,919	-67,752	0,061	0,017
-431,905	800,000	-0,029	0,068
-430,890	-152,976	0,062	0,003
-429,876	107,711	0,051	-0,044
-428,861	-73,862	-0,076	0,020
-427,846	-21,242	-0,041	-0,019
-426,832	322,257	0,031	-0,043
-425,817	114,388	-0,093	-0,083
-424,803	-37,635	0,096	-0,037
-423,788	265,735	-0,075	0,096
-422,773	800,000	-0,012	0,038
-421,759	-200,000	0,004	0,080
-420,744	-200,000	0,021	0,145
-419,730	-18,846	-0,136	-0,062
-418,715	-73,183	-0,103	0,027
-417,701	308,355	0,042	-0,057
-416,686	-100,550	0,110	-0,020
-415,671	800,000	0,035	-0,110
-414,657	230,967	0,063	-0,075
-413,642	152,317	0,093	-0,094
-412,628	45,435	-0,094	0,063
-411,613	-85,963	0,083	0,019
-410,598	-105,029	-0,039	-0,006
-409,584	177,098	0,009	-0,010
-408,569	-200,000	-0,023	0,134
-407,555	-37,404	0,127	0,050
-406,540	-200,000	-0,017	0,071
-405,525	-37,208	-0,088	-0,034
-404,511	-151,604	-0,074	-0,004
-403,496	-64,030	-0,025	0,007
-402,482	-53,819	0,017	0,006
-401,467	446,642	-0,039	0,063
-400,452	57,078	0,160	-0,114
-399,438	15,957	0,052	-0,030
-398,423	-200,000	0,001	-0,027
-397,409	145,844	-0,037	-0,036
-396,394	-113,601	0,027	0,004
-395,379	-200,000	-0,028	-0,093
-394,365	-200,000	-0,009	0,082
-393,350	-28,241	-0,045	0,019
-392,336	189,736	0,048	-0,053
-391,321	-200,000	0,020	0,065
-390,306	-112,116	-0,045	0,007
-389,292	145,143	0,058	-0,057
-388,277	800,000	0,039	-0,112
-387,263	-20,177	-0,123	0,055
-386,248	-66,272	-0,101	0,029
-385,233	-200,000	-0,005	0,192
-384,219	800,000	-0,014	0,042
-383,204	800,000	-0,059	-0,163
-382,190	-200,000	0,017	-0,089
-381,175	627,272	-0,024	0,045
-380,160	-121,718	0,048	0,006
-379,146	-200,000	0,003	0,034
-378,131	-127,427	0,146	0,015
-377,117	800,000	-0,006	-0,015
-376,102	328,149	-0,084	-0,118
-375,088	800,000	0,009	-0,024
-374,073	180,203	0,159	-0,171
-373,058	-76,425	0,034	-0,009
-372,044	624,518	-0,033	-0,062
-371,029	151,998	-0,035	0,035
-370,015	139,756	0,125	-0,120
-369,000	47,461	0,064	-0,044
-367,985	-59,403	0,130	-0,041
-366,971	594,862	-0,054	-0,099
-365,956	163,848	0,025	-0,025
-364,942	47,483	0,176	0,120
-363,927	69,430	0,104	0,078
-362,912	-200,000	-0,000	0,066
-361,898	-200,000	-0,004	0,050
-360,883	-112,822	-0,089	-0,013
-359,869	-39,863	-0,082	-0,031
-358,854	-200,000	0,009	-0,098
-357,839	-109,563	0,080	0,012
-356,825	-87,604	0,055	0,012
-355,810	-200,000	0,022	-0,074
-354,796	40,788	-0,098	-0,065
-353,781	800,000	0,020	0,056
-352,766	311,415	0,050	0,069
-351,752	-55,770	0,078	-0,025
-350,737	-114,800	0,061	-0,008
-349,723	-25,118	0,144	-0,062
-348,708	126,487	-0,086	0,079
-347,693	-73,110	-0,072	-0,019
-346,679	800,000	-0,066	0,139
-345,664	51,949	-0,071	-0,049
-344,650	-200,000	0,046	0,180
-343,635	-200,000	-0,005	-0,105
-342,620	-145,214	0,081	-0,005
-341,606	15,120	-0,034	0,019
-340,591	33,612	-0,049	-0,031
-339,577	-59,776	-0,027	0,008
-338,562	800,000	0,042	-0,091
-337,548	800,000	-0,041	0,107
-336,533	476,764	0,071	0,118
-335,518	-46,668	-0,136	-0,048
-334,504	-200,000	-0,013	0,052
-333,489	540,296	-0,014	-0,024
-332,475	-200,000	-0,015	0,069
-331,460	124,449	0,054	-0,050
-330,445	252,406	-0,021	-0,026
-329,431	-96,213	0,073	-0,014
-328,416	-36,055	0,162	0,064
-327,402	-38,264	-0,080	0,031
-326,387	-123,929	0,031	-0,004
-325,372	-92,223	-0,164	-0,034
-324,358	200,947	-0,043	-0,048
-323,343	-82,851	-0,088	0,021
-322,329	25,617	0,115	-0,070
-321,314	252,855	0,089	0,112
-320,299	800,000	-0,064	0,134
-319,285	-36,751	0,114	0,045
-318,270	800,000	0,009	0,026
-317,256	-200,000	0,008	-0,031
-316,241	35,555	0,102	0,065
-315,226	67,302	0,089	0,067
-314,212	-2,279	0,125	0,064
-313,197	115,764	-0,125	0,112
-312,183	-200,000	0,017	-0,079
-311,168	289,408	-0,068	-0,090
-310,153	470,849	-0,135	-0,223
-309,139	-129,060	0,101	-0,010
-308,124	79,754	-0,016	-0,012
-307,110	97,564	0,045	0,038
-306,095	800,000	-0,015	0,035
-305,080	-200,000	0,001	0,090
-304,066	800,000	-0,039	0,100
-303,051	-11,709	-0,038	-0,018
-302,037	799,661	0,010	-0,020
-301,022	-103,225	0,163	0,028
-300,008	-47,624	0,132	0,047
-298,993	221,390	-0,060	0,071
-297,978	-101,877	0,124	-0,022
-296,964	-84,187	-0,128	-0,029
-295,949	-51,764	0,149	-0,050
-294,935	800,000	0,034	-0,076
-293,920	800,000	0,046	0,112
-292,905	369,571	0,034	0,050
-291,891	-200,000	-0,001	0,148
-290,876	-143,413	-0,043	0,003
-289,862	212,116	-0,032	0,037
-288,847	502,090	-0,032	-0,054
-287,832	33,638	-0,076	-0,048
-286,818	-200,000	0,004	0,058
-285,803	-200,000	-0,008	-0,058
-284,789	314,777	0,025	-0,035
-283,774	8,338	-0,032	0,018
-282,759	-94,250	-0,093	0,018
-281,745	-200,000	0,028	0,217
-280,730	-87,333	-0,079	-0,017
-279,716	707,925	-0,024	-0,047
-278,701	11,727	0,048	-0,027
-277,686	1,570	0,095	0,050
-276,672	-6,389	0,133	0,066
-275,657	-200,000	0,007	0,105
-274,643	800,000	-0,053	-0,155
-273,628	5,338	-0,014	0,007
-272,613	115,875	0,049	0,043
-271,599	-67,808	0,077	0,022
-270,584	-200,000	0,012	0,061
-269,570	-120,004	0,083	-0,010
-268,555	800,000	-0,009	0,024
-267,540	-200,000	-0,012	-0,051
-266,526	-200,000	-0,000	-0,132
-265,511	-200,000	-0,031	0,137
-264,497	329,770	0,020	0,028
-263,482	-52,602	0,088	0,030
-262,467	-148,593	0,097	-0,006
-261,453	800,000	0,020	-0,060
-260,438	125,504	-0,029	-0,026
-259,424	-135,351	-0,086	0,007
-258,409	-200,000	-0,005	-0,037
-257,395	411,002	-0,020	0,031
-256,380	-200,000	-0,018	-0,105
-255,365	287,136	-0,019	0,025
-254,351	-200,000	0,001	0,092
-253,336	-69,947	-0,069	-0,019
-252,322	800,000	-0,014	-0,045
-251,307	122,671	-0,121	0,110
-250,292	800,000	0,038	0,099
-249,278	-200,000	0,001	0,003
-248,263	292,488	-0,066	-0,088
-247,249	-200,000	-0,022	-0,081
-246,234	-18,537	0,115	0,052
-245,219	179,277	-0,077	-0,082
-244,205	-200,000	-0,000	-0,097
-243,190	-200,000	0,017	-0,096
-242,176	-138,729	-0,105	0,008
-241,161	140,225	0,118	0,113
-240,146	-200,000	-0,046	0,206
-239,132	66,884	0,038	0,028
-238,117	398,146	-0,046	-0,070
-237,103	623,348	-0,086	-0,159
-236,088	127,281	-0,030	-0,028
-235,073	171,767	0,016	-0,017
-234,059	131,844	0,160	0,150
-233,044	-54,762	-0,082	-0,027
-232,030	-200,000	0,015	-0,113
-231,015	650,668	0,021	0,039
-230,000	-200,000	-0,001	-0,058
-228,986	-92,448	0,102	0,021
-227,971	-200,000	0,004	-0,092
-226,957	-200,000	-0,019	-0,171
-225,942	56,728	-0,045	-0,032
-224,927	800,000	-0,031	-0,077
-223,913	-57,110	0,056	0,018
-222,898	-200,000	0,017	-0,071
-221,884	-18,342	-0,034	-0,015
-220,869	-200,000	0,011	0,037
-219,855	-200,000	-0,031	-0,101
-218,840	800,000	0,049	0,124
-217,825	-200,000	-0,001	-0,047
-216,811	-93,074	-0,101	0,020
-215,796	-81,721	-0,077	0,018
-214,782	-168,942	0,047	-0,001
-213,767	-44,096	0,106	0,039
-212,752	-200,000	-0,012	0,103
-211,738	256,970	0,020	-0,025
-210,723	321,476	0,054	0,074
-209,709	-200,000	0,007	0,055
-208,694	-200,000	-0,012	0,139
-207,679	73,207	0,052	-0,040
-206,665	84,728	0,078	-0,062
-205,650	-200,000	0,037	0,141
-204,636	800,000	-0,038	0,098
-203,621	226,315	0,064	-0,076
-202,606	-200,000	-0,022	0,138
-201,592	-36,972	-0,022	-0,008
-200,577	779,890	-0,057	-0,115
-199,563	800,000	0,031	0,095
-198,548	53,856	-0,144	0,101
-197,533	344,976	0,025	-0,035
-196,519	-30,352	-0,045	-0,018
-195,504	-96,656	0,043	-0,008
-194,490	88,570	-0,102	-0,082
-193,475	800,000	0,008	0,023
-192,460	-200,000	0,017	0,069
-191,446	24,583	-0,028	0,017
-190,431	-200,000	0,015	-0,103
-189,417	800,000	0,050	0,115
-188,402	8,356	-0,037	-0,020
-187,387	-200,000	0,013	-0,152
-186,373	-161,614	-0,104	0,004
-185,358	9,449	0,043	0,024
-184,344	-136,319	0,108	0,009
-183,329	46,380	0,111	0,075
-182,315	493,993	-0,092	-0,155
-181,300	800,000	0,033	-0,069
-180,285	476,749	-0,083	-0,137
-179,271	-200,000	-0,003	0,031
-178,256	-200,000	0,010	-0,147
-177,242	-31,423	-0,160	0,065
-176,227	31,675	0,110	-0,069
-175,212	-200,000	-0,023	0,174
-174,198	800,000	-0,058	-0,141
-173,183	584,574	-0,076	-0,136
-172,169	-200,000	-0,015	-0,060
-171,154	185,090	-0,120	0,130
-170,139	-152,007	0,117	0,006
-169,125	-200,000	0,023	-0,086
-168,110	681,049	0,035	-0,066
-167,096	-200,000	0,008	-0,050
-166,081	27,296	-0,067	-0,041
-165,066	-143,574	-0,076	-0,005
-164,052	89,626	0,020	0,016
-163,037	-38,300	0,053	0,020
-162,023	800,000	0,057	-0,128
-161,008	-94,366	0,075	0,015
-159,993	194,527	-0,020	0,022
-158,979	736,822	0,016	0,032
-157,964	-200,000	-0,015	-0,075
-156,950	350,443	0,089	-0,128
-155,935	511,339	-0,040	-0,068
-154,920	-200,000	-0,019	0,095
-153,906	-200,000	0,010	0,054
-152,891	124,647	0,057	0,052
-151,877	34,252	-0,096	0,061
-150,862	693,401	-0,070	0,133
-149,847	800,000	-0,023	-0,073
-148,833	54,908	-0,058	0,040
-147,818	800,000	0,012	0,034
-146,804	-134,219	-0,166	-0,015
-145,789	-105,612	0,040	-0,006
-144,775	16,712	-0,125	0,072
-143,760	-112,774	-0,168	0,024
-142,745	-83,926	-0,034	0,008
-141,731	-112,916	-0,123	-0,017
-140,716	-200,000	0,022	-0,076
-139,702	416,316	-0,050	0,078
-138,687	-80,129	0,075	0,018
-137,672	800,000	-0,037	0,089
-136,658	700,003	0,034	-0,064
-135,643	292,118	0,005	0,006
-134,629	249,045	-0,057	-0,070
-133,614	53,701	-0,059	0,041
-132,599	-200,000	-0,006	0,166
-131,585	589,919	0,053	0,096
-130,570	-200,000	-0,003	0,080
-129,556	-200,000	-0,009	-0,043
-128,541	107,624	0,057	-0,049
-127,526	16,820	0,053	0,030
-126,512	590,857	0,034	-0,061
-125,497	29,988	-0,076	0,047
-124,483	-200,000	-0,014	0,130
-123,468	-147,811	-0,249	-0,015
-122,453	242,413	-0,040	-0,049
-121,439	183,983	-0,011	-0,012
-120,424	-147,097	-0,089	0,005
