DTS Sentinel unit serial number:	SN410029Multiplexer serial number:	ORYXHardware model number:	OX2-SRSoftware version number:	ORYX F/W v4,00 Oryx Data Collector v3.7.2.0data status	okinstallation	B4 Nyhavnadifferential loss correction	single-endedforward channel	channel 2reverse channel	N/Adate	2023/12/16time	00:15:13forward acquisition time	300,00reverse acquisition time	0,00gamma	499,1914k internal	0,3127k external	0,3127temperature offset calibration	1,0000default loss term (dB/km)	0,3820temperature slope calibration	1,0000multiplexer offset coefficient	1,0000multiplexer slope coefficient	1,0000fibre end	0,00T internal ref (°C)	21,95T ext. ref 1 (°C)	6,74T ext. ref 2 (°C)	6,93length (m)	temperature (°C)	Stokes	anti-Stokes-744,400	-200,000	0,008	-0,111
-743,385	296,608	-0,182	0,250
-742,371	800,000	0,027	0,072
-741,356	80,855	-0,212	0,170
-740,342	17,307	0,062	-0,037
-739,327	26,007	-0,313	0,194
-738,312	-200,000	0,030	-0,167
-737,298	-55,626	-0,192	0,064
-736,283	15,565	0,122	0,071
-735,269	-160,573	-0,173	0,007
-734,254	234,348	0,098	0,121
-733,239	-111,097	-0,500	-0,075
-732,225	-99,345	0,252	0,047
-731,210	-92,410	0,053	-0,011
-730,196	-200,000	-0,002	-0,057
-729,181	-39,880	-0,105	0,041
-728,167	-59,471	-0,162	0,051
-727,152	-200,000	-0,015	-0,058
-726,137	800,000	0,048	-0,109
-725,123	74,133	-0,074	-0,057
-724,108	26,710	-0,156	-0,097
-723,094	180,228	0,013	0,014
-722,079	496,224	-0,085	-0,146
-721,064	-101,229	-0,180	-0,032
-720,050	14,839	0,103	0,060
-719,035	631,758	-0,007	0,013
-718,021	-182,435	-0,127	-0,002
-717,006	722,424	0,021	0,042
-715,991	398,219	-0,097	-0,152
-714,977	-44,449	-0,127	-0,047
-713,962	122,472	0,063	-0,059
-712,948	800,000	0,058	-0,150
-711,933	-132,238	-0,087	-0,008
-710,918	-43,335	-0,127	0,047
-709,904	-49,255	-0,090	0,032
-708,889	491,098	0,013	-0,022
-707,875	275,024	-0,132	-0,174
-706,860	36,139	-0,098	-0,064
-705,845	498,769	0,026	-0,045
-704,831	137,991	0,040	0,039
-703,816	-200,000	-0,004	-0,036
-702,802	128,293	0,081	-0,077
-701,787	-196,703	-0,118	0,001
-700,772	7,621	0,038	-0,021
-699,758	417,062	0,052	-0,082
-698,743	475,529	-0,014	0,023
-697,729	93,489	-0,017	-0,014
-696,714	664,672	-0,019	0,036
-695,699	169,020	-0,106	-0,112
-694,685	147,898	-0,100	-0,100
-693,670	-200,000	-0,026	-0,092
-692,656	125,091	-0,013	-0,012
-691,641	102,500	-0,157	-0,137
-690,627	120,445	-0,078	-0,072
-689,612	-123,903	-0,031	0,004
-688,597	-200,000	-0,038	0,128
-687,583	327,454	-0,072	-0,102
-686,568	8,826	-0,083	0,046
-685,554	-200,000	0,015	-0,136
-684,539	-8,050	0,096	-0,048
-683,524	-137,675	0,165	-0,014
-682,510	-200,000	0,005	0,072
-681,495	-79,619	-0,040	-0,010
-680,481	525,172	-0,040	-0,071
-679,466	287,383	-0,049	-0,065
-678,451	800,000	-0,027	0,058
-677,437	86,486	-0,018	0,015
-676,422	205,555	-0,034	0,039
-675,408	-188,129	-0,131	0,001
-674,393	-200,000	-0,008	0,064
-673,378	-115,274	-0,064	-0,009
-672,364	-200,000	-0,011	-0,036
-671,349	800,000	-0,015	0,043
-670,335	-131,555	-0,021	0,002
-669,320	800,000	0,059	0,163
-668,305	24,100	-0,217	-0,133
-667,291	-200,000	0,032	-0,129
-666,276	-0,599	0,015	-0,008
-665,262	-200,000	0,011	-0,081
-664,247	-200,000	0,016	-0,103
-663,232	182,358	-0,052	-0,057
-662,218	-23,599	0,068	0,030
-661,203	260,182	-0,044	-0,057
-660,189	444,232	0,082	0,134
-659,174	-62,613	-0,064	-0,020
-658,159	-200,000	0,010	-0,135
-657,145	413,494	-0,093	-0,148
-656,130	162,285	0,128	-0,133
-655,116	800,000	-0,007	0,021
-654,101	-200,000	0,010	-0,033
-653,086	482,336	-0,015	-0,026
-652,072	460,727	-0,038	0,063
-651,057	127,901	-0,074	0,070
-650,043	137,560	0,035	-0,034
-649,028	6,819	-0,087	-0,048
-648,014	-200,000	0,026	-0,084
-646,999	-64,288	-0,082	-0,025
-645,984	594,761	-0,025	-0,045
-644,970	-200,000	0,005	-0,027
-643,955	-41,393	-0,081	-0,031
-642,941	800,000	0,077	-0,189
-641,926	-200,000	-0,008	-0,093
-640,911	-200,000	0,009	0,086
-639,897	-200,000	0,005	0,093
-638,882	-200,000	0,005	-0,030
-637,868	800,000	-0,060	-0,146
-636,853	-89,125	-0,054	-0,012
-635,838	-200,000	0,002	-0,110
-634,824	-22,971	0,093	-0,041
-633,809	800,000	0,006	0,016
-632,795	-200,000	-0,010	-0,047
-631,780	-59,533	0,106	-0,034
-630,765	105,113	0,073	-0,064
-629,751	-71,331	-0,115	0,032
-628,736	535,533	-0,003	0,006
-627,722	-56,353	0,037	0,012
-626,707	-59,733	-0,157	-0,050
-625,692	-200,000	-0,016	-0,194
-624,678	376,116	0,036	-0,054
-623,663	-42,614	-0,103	-0,039
-622,649	723,741	-0,047	-0,094
-621,634	-200,000	-0,018	0,085
-620,619	142,623	0,036	-0,035
-619,605	800,000	-0,021	-0,063
-618,590	10,434	0,122	0,069
-617,576	-35,163	-0,063	0,025
-616,561	374,277	-0,042	-0,064
-615,546	-20,318	0,032	0,014
-614,532	800,000	-0,048	-0,123
-613,517	-26,859	-0,076	0,033
-612,503	9,585	0,099	0,056
-611,488	-200,000	-0,004	0,157
-610,474	234,504	-0,078	-0,096
-609,459	105,973	-0,065	-0,057
-608,444	595,996	-0,049	-0,089
-607,430	591,912	-0,074	-0,136
-606,415	-6,785	0,108	-0,054
-605,401	204,621	-0,048	-0,055
-604,386	-200,000	-0,036	0,121
-603,371	800,000	0,040	-0,130
-602,357	-61,121	0,060	-0,019
-601,342	800,000	-0,021	0,061
-600,328	4,170	-0,037	-0,020
-599,313	-98,500	-0,075	0,014
-598,298	727,937	0,072	-0,143
-597,284	800,000	0,019	-0,057
-596,269	1,062	0,073	-0,039
-595,255	-7,031	-0,126	-0,063
-594,240	-111,435	-0,096	-0,014
-593,225	-200,000	0,024	-0,115
-592,211	71,426	0,078	-0,060
-591,196	-0,253	-0,022	-0,011
-590,182	800,000	0,055	-0,116
-589,167	77,360	-0,051	-0,040
-588,152	-200,000	0,010	-0,105
-587,138	-200,000	-0,013	0,074
-586,123	109,688	-0,090	0,079
-585,109	78,699	-0,074	-0,059
-584,094	800,000	0,029	-0,091
-583,079	-200,000	0,010	-0,088
-582,065	-200,000	-0,004	0,021
-581,050	800,000	-0,029	0,090
-580,036	-200,000	0,018	0,137
-579,021	612,537	-0,086	-0,160
-578,006	5,561	0,085	0,046
-576,992	-117,956	-0,106	-0,014
-575,977	-200,000	0,015	-0,085
-574,963	-104,325	0,101	0,017
-573,948	-176,429	-0,036	0,001
-572,934	-81,937	0,058	0,014
-571,919	-172,900	-0,071	-0,002
-570,904	-200,000	0,004	-0,031
-569,890	800,000	-0,018	-0,039
-568,875	488,211	0,021	0,035
-567,861	-148,895	0,057	-0,003
-566,846	-200,000	0,002	-0,064
-565,831	137,619	-0,058	0,056
-564,817	800,000	0,049	0,115
-563,802	99,015	-0,156	0,133
-562,788	-200,000	0,010	-0,049
-561,773	516,992	-0,073	-0,126
-560,758	800,000	0,050	0,118
-559,744	-42,453	0,056	-0,021
-558,729	21,522	0,022	-0,013
-557,715	81,102	-0,161	0,129
-556,700	800,000	-0,023	0,050
-555,685	188,619	0,010	-0,011
-554,671	-34,350	0,029	-0,012
-553,656	-56,694	0,059	-0,019
-552,642	-30,506	0,099	-0,041
-551,627	235,400	0,030	-0,036
-550,612	-16,167	0,162	-0,076
-549,598	-6,082	-0,057	-0,029
-548,583	540,265	0,062	-0,110
-547,569	-200,000	-0,002	-0,107
-546,554	-200,000	-0,023	-0,123
-545,539	-28,563	0,026	-0,011
-544,525	-90,513	-0,027	-0,006
-543,510	-169,057	-0,099	-0,003
-542,496	-56,813	-0,126	-0,041
-541,481	86,859	0,057	0,046
-540,466	-200,000	-0,012	0,056
-539,452	800,000	0,011	-0,034
-538,437	197,761	0,031	0,035
-537,423	127,902	-0,041	-0,039
-536,408	25,124	-0,035	-0,022
-535,393	-200,000	0,015	0,069
-534,379	800,000	0,021	-0,045
-533,364	61,525	0,063	-0,046
-532,350	-164,515	-0,110	-0,004
-531,335	-15,197	0,174	-0,082
-530,321	165,737	0,071	0,074
-529,306	-29,591	0,067	0,028
-528,291	-200,000	0,011	-0,197
-527,277	19,102	-0,089	-0,053
-526,262	800,000	0,026	-0,074
-525,248	800,000	-0,042	0,133
-524,233	276,525	0,060	0,079
-523,218	13,472	0,036	0,021
-522,204	800,000	0,028	0,077
-521,189	-200,000	0,025	0,109
-520,175	123,594	-0,091	0,085
-519,160	40,828	-0,050	-0,033
-518,145	-161,078	0,036	-0,001
-517,131	-41,617	0,122	0,046
-516,116	800,000	0,055	0,135
-515,102	-200,000	0,006	0,054
-514,087	12,405	-0,043	0,024
-513,072	76,897	-0,057	0,044
-512,058	463,075	0,038	-0,063
-511,043	-29,769	0,110	-0,046
-510,029	258,118	0,083	0,105
-509,014	21,395	0,074	0,044
-507,999	179,835	0,051	0,055
-506,985	249,834	0,060	0,075
-505,970	61,891	0,092	0,067
-504,956	249,004	0,009	0,011
-503,941	217,044	-0,057	0,067
-502,926	177,461	0,029	0,031
-501,912	-39,432	0,079	0,030
-500,897	16,916	0,035	0,020
-499,883	124,936	0,101	-0,094
-498,868	124,539	-0,037	-0,034
-497,853	337,019	-0,041	0,059
-496,839	-200,000	0,015	0,099
-495,824	124,161	0,123	0,114
-494,810	-146,883	0,057	0,004
-493,795	-126,968	-0,121	-0,013
-492,781	-82,412	-0,096	-0,023
-491,766	800,000	-0,040	0,120
-490,751	800,000	-0,015	-0,046
-489,737	271,034	0,074	-0,096
-488,722	-200,000	-0,009	-0,113
-487,708	472,965	0,060	0,100
-486,693	176,211	0,037	0,039
-485,678	44,303	-0,109	-0,073
-484,664	51,288	0,023	-0,016
-483,649	-131,422	-0,107	0,010
-482,635	-200,000	0,014	0,121
-481,620	137,535	0,084	0,081
-480,605	-200,000	-0,007	-0,139
-479,591	570,251	-0,080	-0,145
-478,576	585,317	-0,095	0,173
-477,562	-200,000	-0,010	0,057
-476,547	-200,000	0,010	-0,099
-475,532	-200,000	0,028	-0,173
-474,518	0,760	-0,089	0,047
-473,503	257,645	0,067	-0,085
-472,489	-51,878	-0,030	-0,010
-471,474	29,725	-0,073	-0,046
-470,459	-200,000	-0,033	-0,116
-469,445	475,546	-0,059	-0,099
-468,430	345,562	-0,097	-0,141
-467,416	358,020	0,037	0,055
-466,401	-167,213	0,071	0,002
-465,386	-200,000	-0,006	-0,042
-464,372	323,367	-0,019	0,026
-463,357	91,812	0,027	0,023
-462,343	800,000	-0,050	-0,139
-461,328	-155,335	0,049	-0,002
-460,313	-102,517	-0,078	0,014
-459,299	114,418	0,074	0,067
-458,284	-70,757	-0,022	-0,006
-457,270	464,397	-0,040	-0,066
-456,255	-64,354	0,069	0,020
-455,241	-182,549	-0,070	0,001
-454,226	-59,291	-0,138	0,043
-453,211	-25,716	0,200	0,086
-452,197	-158,744	-0,144	0,006
-451,182	800,000	-0,018	0,038
-450,168	800,000	0,045	0,126
-449,153	78,714	0,042	-0,033
-448,138	-106,621	-0,066	-0,011
-447,124	240,784	0,046	0,057
-446,109	800,000	-0,034	-0,093
-445,095	260,413	-0,068	0,087
-444,080	-200,000	0,036	0,137
-443,065	209,762	0,151	0,175
-442,051	-200,000	-0,008	-0,084
-441,036	800,000	-0,011	0,030
-440,022	-120,488	0,102	-0,013
-439,007	-200,000	-0,019	0,172
-437,992	744,205	0,033	0,065
-436,978	89,106	0,021	0,017
-435,963	-12,559	-0,116	0,055
-434,949	16,804	-0,166	-0,096
-433,934	-144,740	-0,059	0,004
-432,919	-100,499	-0,070	0,013
-431,905	101,271	0,135	0,115
-430,890	524,861	-0,056	0,098
-429,876	-150,487	0,063	0,003
-428,861	-144,013	0,060	0,004
-427,846	800,000	-0,053	-0,139
-426,832	63,611	0,037	0,027
-425,817	514,863	-0,010	-0,017
-424,803	91,809	0,089	-0,073
-423,788	-66,010	-0,019	-0,005
-422,773	-104,592	0,125	-0,021
-421,759	-157,045	0,017	-0,001
-420,744	-200,000	0,002	-0,008
-419,730	26,283	0,053	0,033
-418,715	-200,000	-0,015	-0,153
-417,701	-200,000	0,003	0,087
-416,686	-3,929	-0,046	0,023
-415,671	-200,000	0,014	0,103
-414,657	368,086	0,082	0,122
-413,642	30,436	-0,085	0,053
-412,628	-104,419	-0,100	-0,017
-411,613	-200,000	-0,001	0,017
-410,598	10,375	-0,159	0,088
-409,584	-200,000	-0,032	0,123
-408,569	-137,157	-0,080	-0,007
-407,555	800,000	0,026	0,074
-406,540	114,873	-0,094	0,084
-405,525	-172,097	-0,094	0,002
-404,511	-200,000	-0,001	0,040
-403,496	209,901	-0,024	0,028
-402,482	31,432	0,092	0,058
-401,467	74,974	-0,093	0,072
-400,452	-200,000	0,006	0,136
-399,438	-110,386	0,048	-0,007
-398,423	194,095	-0,017	0,019
-397,409	14,006	0,069	-0,039
-396,394	-200,000	0,004	0,065
-395,379	800,000	-0,042	-0,123
-394,365	123,295	0,134	0,123
-393,350	-92,919	0,102	0,021
-392,336	164,170	0,130	0,135
-391,321	-33,597	-0,072	-0,029
-390,306	800,000	0,015	-0,040
-389,292	-191,349	-0,033	0,000
-388,277	52,125	0,028	-0,019
-387,263	32,239	0,079	-0,050
-386,248	471,653	-0,027	-0,045
-385,233	150,353	0,082	-0,082
-384,219	-124,950	-0,113	-0,013
-383,204	13,734	-0,091	-0,051
-382,190	800,000	-0,007	0,013
-381,175	-70,982	0,072	0,020
-380,160	-200,000	-0,006	-0,025
-379,146	454,424	0,034	0,055
-378,131	-200,000	-0,050	0,168
-377,117	243,640	0,015	-0,018
-376,102	80,024	0,006	-0,005
-375,088	-200,000	-0,025	-0,105
-374,073	183,559	-0,026	0,028
-373,058	-200,000	0,007	0,039
-372,044	-200,000	-0,012	-0,042
-371,029	266,332	0,041	0,052
-370,015	260,685	-0,051	-0,065
-369,000	-174,499	-0,093	-0,002
-367,985	800,000	-0,054	-0,165
-366,971	-137,566	0,114	-0,009
-365,956	93,886	0,026	0,022
-364,942	800,000	-0,070	0,168
-363,927	-170,640	0,063	0,002
-362,912	-142,243	-0,123	0,009
-361,898	53,650	-0,114	0,080
-360,883	-200,000	0,000	0,117
-359,869	105,749	-0,058	0,050
-358,854	527,097	0,042	0,073
-357,839	5,302	0,076	-0,041
-356,825	334,116	0,056	0,080
-355,810	3,768	-0,049	-0,026
-354,796	-200,000	-0,006	0,129
-353,781	-59,258	-0,062	-0,019
-352,766	800,000	0,044	-0,102
-351,752	-200,000	0,054	-0,206
-350,737	-171,588	-0,110	0,003
-349,723	-200,000	0,008	-0,095
-348,708	180,810	0,048	0,051
-347,693	268,292	-0,034	0,044
-346,679	172,879	0,027	0,029
-345,664	-143,620	-0,122	-0,008
-344,650	-200,000	0,015	-0,054
-343,635	165,694	-0,021	-0,022
-342,620	-27,405	0,134	0,057
-341,606	800,000	0,025	0,062
-340,591	-42,467	-0,029	-0,011
-339,577	230,949	0,062	0,074
-338,562	-52,480	-0,083	-0,028
-337,548	211,424	0,035	0,040
-336,533	-200,000	-0,014	0,107
-335,518	439,544	0,044	0,071
-334,504	20,473	0,067	0,040
-333,489	96,651	0,008	-0,007
-332,475	-176,773	-0,177	-0,003
-331,460	800,000	-0,037	-0,076
-330,445	-0,592	-0,097	0,050
-329,431	-200,000	-0,000	-0,069
-328,416	38,478	0,039	0,025
-327,402	-200,000	0,019	0,083
-326,387	-64,217	0,134	-0,040
-325,372	177,143	-0,065	0,069
-324,358	74,458	0,058	0,045
-323,343	800,000	-0,022	-0,067
-322,329	-77,091	0,057	-0,014
-321,314	121,408	0,109	0,099
-320,299	-157,527	-0,195	-0,008
-319,285	4,591	0,095	-0,051
-318,270	173,463	-0,080	-0,085
-317,256	-164,882	-0,122	-0,004
-316,241	91,545	0,083	-0,069
-315,226	-52,380	0,045	-0,015
-314,212	800,000	-0,033	0,080
-313,197	10,928	-0,030	0,017
-312,183	572,558	-0,033	-0,059
-311,168	-97,457	0,048	-0,009
-310,153	347,921	-0,054	-0,078
-309,139	800,000	-0,024	-0,063
-308,124	-121,763	0,043	-0,005
-307,110	-200,000	0,011	0,198
-306,095	800,000	0,048	0,126
-305,080	-200,000	0,003	0,107
-304,066	268,196	-0,053	0,068
-303,051	-200,000	-0,030	0,106
-302,037	-200,000	0,016	-0,078
-301,022	-180,873	-0,086	-0,001
-300,008	758,861	0,032	0,063
-298,993	-76,840	-0,045	-0,011
-297,978	800,000	0,002	-0,006
-296,964	119,911	0,083	0,075
-295,949	115,930	0,034	0,030
-294,935	500,925	-0,097	-0,164
-293,920	488,948	0,017	-0,028
-292,905	-63,141	-0,056	0,017
-291,891	800,000	-0,012	0,032
-290,876	115,687	-0,056	-0,050
-289,862	731,791	-0,039	-0,076
-288,847	-100,144	0,076	0,014
-287,832	-200,000	-0,012	-0,047
-286,818	-106,627	0,116	0,019
-285,803	-46,321	0,104	-0,037
-284,789	289,207	0,072	0,096
-283,774	800,000	0,040	0,111
-282,759	-136,769	0,042	-0,004
-281,745	-47,549	-0,077	0,027
-280,730	-27,666	-0,122	-0,052
-279,716	-25,645	0,048	0,021
-278,701	-185,310	-0,045	0,000
-277,686	800,000	0,024	-0,053
-276,672	-130,998	-0,119	-0,011
-275,657	-102,536	-0,069	-0,012
-274,643	180,423	0,033	0,036
-273,628	517,948	-0,020	-0,035
-272,613	532,307	0,072	-0,125
-271,599	-200,000	-0,006	0,022
-270,584	728,646	-0,032	0,063
-269,570	564,437	-0,104	0,185
-268,555	800,000	0,015	0,034
-267,540	228,524	-0,069	-0,083
-266,526	-18,454	0,052	0,024
-265,511	-200,000	-0,003	-0,078
-264,497	-109,552	0,155	0,024
-263,482	-200,000	0,016	-0,068
-262,467	35,243	0,051	0,033
-261,453	800,000	0,035	0,091
-260,438	50,020	0,069	-0,048
-259,424	157,677	0,095	-0,096
-258,409	-200,000	-0,021	-0,082
-257,395	14,958	-0,053	0,030
-256,380	-74,247	-0,028	-0,007
-255,365	311,874	0,130	-0,178
-254,351	0,512	0,128	0,067
-253,336	125,371	0,053	0,049
-252,322	-58,537	-0,170	-0,054
-251,307	-134,406	0,125	0,011
-250,292	-105,435	0,086	-0,014
-249,278	-21,783	-0,010	-0,004
-248,263	448,517	0,054	0,087
-247,249	-149,479	0,110	-0,006
-246,234	-90,078	0,122	0,026
-245,219	13,062	-0,091	0,051
-244,205	800,000	0,018	0,045
-243,190	-200,000	-0,014	0,046
-242,176	754,191	0,051	0,101
-241,161	83,526	0,122	0,097
-240,146	61,176	-0,028	0,021
-239,132	800,000	-0,026	0,082
-238,117	-200,000	-0,001	0,002
-237,103	526,638	-0,038	0,065
-236,088	86,064	-0,058	-0,046
-235,073	541,658	-0,030	0,052
-234,059	253,928	-0,068	0,085
-233,044	800,000	-0,033	-0,093
-232,030	-46,693	0,035	0,013
-231,015	-54,796	-0,083	0,027
-230,000	-137,939	-0,061	0,005
-228,986	-66,151	-0,112	-0,032
-227,971	800,000	-0,019	0,046
-226,957	800,000	0,040	0,129
-225,942	800,000	0,033	0,083
-224,927	45,270	-0,051	-0,034
-223,913	-97,299	0,050	-0,009
-222,898	478,178	-0,087	-0,143
-221,884	800,000	-0,012	-0,027
-220,869	37,896	0,063	-0,041
-219,855	-125,063	0,070	-0,008
-218,840	168,795	-0,027	0,028
-217,825	-62,213	-0,073	0,022
-216,811	800,000	0,029	0,081
-215,796	-200,000	-0,017	0,103
-214,782	30,726	0,035	0,022
-213,767	-56,565	0,162	-0,052
-212,752	800,000	-0,046	0,101
-211,738	231,268	0,042	0,050
-210,723	-200,000	-0,005	0,030
-209,709	-125,546	0,056	0,006
-208,694	800,000	0,019	-0,041
-207,679	345,784	-0,055	-0,079
-206,665	385,996	0,023	0,034
-205,650	800,000	0,074	-0,152
-204,636	-200,000	0,012	0,105
-203,621	-200,000	-0,039	0,177
-202,606	99,030	-0,030	-0,025
-201,592	800,000	-0,037	-0,092
-200,577	270,951	0,097	-0,125
-199,563	-200,000	0,022	-0,110
-198,548	-54,202	-0,093	-0,031
-197,533	222,700	0,029	-0,034
-196,519	136,947	0,016	-0,015
-195,504	-106,650	0,082	-0,013
-194,490	-200,000	-0,020	-0,079
-193,475	233,102	0,025	-0,030
-192,460	48,723	0,073	-0,050
-191,446	-60,927	0,065	-0,020
-190,431	-200,000	0,009	-0,041
-189,417	-136,779	0,050	0,004
-188,402	-71,437	-0,090	-0,024
-187,387	-27,507	-0,117	0,049
-186,373	-190,883	0,134	0,001
-185,358	-31,991	-0,053	0,022
-184,344	-200,000	0,034	0,143
-183,329	47,710	-0,030	-0,021
-182,315	204,922	-0,060	0,068
-181,300	-45,572	-0,109	-0,039
-180,285	800,000	-0,016	0,033
-179,271	38,699	-0,092	-0,060
-178,256	151,299	0,080	-0,079
-177,242	209,537	-0,014	-0,016
-176,227	-113,718	-0,086	-0,012
-175,212	69,321	-0,071	0,053
-174,198	-75,219	0,084	-0,022
-173,183	341,664	-0,060	-0,085
-172,169	122,858	0,050	-0,046
-171,154	800,000	-0,033	-0,083
-170,139	284,163	-0,039	0,052
-169,125	682,940	0,055	-0,104
-168,110	21,019	-0,007	-0,004
-167,096	411,906	-0,062	-0,096
-166,081	-200,000	-0,006	-0,149
-165,066	30,212	-0,058	-0,036
-164,052	449,657	0,027	0,043
-163,037	61,194	0,085	0,062
-162,023	238,341	0,154	0,186
-161,008	-200,000	-0,022	0,075
-159,993	800,000	-0,016	-0,045
-158,979	210,742	-0,049	-0,056
-157,964	-31,103	0,069	-0,028
-156,950	26,222	0,137	-0,083
-155,935	-200,000	0,001	-0,083
-154,920	-42,993	0,049	0,018
-153,906	226,771	-0,047	0,055
-152,891	-108,968	0,052	-0,008
-151,877	-145,963	-0,040	0,003
-150,862	-200,000	-0,004	-0,099
-149,847	151,480	0,057	0,056
-148,833	-96,418	-0,080	-0,015
-147,818	800,000	-0,012	-0,035
-146,804	42,853	-0,119	0,079
-145,789	-31,250	0,039	-0,016
-144,775	110,380	0,088	-0,077
-143,760	800,000	-0,025	-0,061
-142,745	800,000	-0,091	-0,198
-141,731	71,666	0,097	0,073
-140,716	100,043	0,058	0,049
-139,702	-51,521	-0,027	-0,009
-138,687	31,010	-0,024	0,015
-137,672	-71,926	-0,036	0,010
-136,658	36,633	-0,093	-0,059
-135,643	423,695	0,055	-0,086
-134,629	201,421	-0,023	-0,025
-133,614	438,969	-0,050	0,080
-132,599	370,218	-0,058	0,085
-131,585	126,332	0,029	0,027
-130,570	398,649	-0,093	0,142
-129,556	115,689	-0,067	0,060
-128,541	248,677	-0,064	0,079
-127,526	-192,072	0,083	0,001
-126,512	-200,000	-0,043	0,150
-125,497	-200,000	-0,001	-0,010
-124,483	-200,000	0,037	0,149
-123,468	90,679	0,028	-0,023
-122,453	-72,149	-0,222	-0,059
-121,439	-200,000	0,038	-0,155
-120,424	48,272	0,029	-0,019
-119,410	-63,207	0,087	-0,026
