DTS Sentinel unit serial number:	SN410029Multiplexer serial number:	ORYXHardware model number:	OX2-SRSoftware version number:	ORYX F/W v4,00 Oryx Data Collector v3.7.2.0data status	okinstallation	B4 Nyhavnadifferential loss correction	single-endedforward channel	channel 2reverse channel	N/Adate	2023/12/16time	01:40:13forward acquisition time	300,00reverse acquisition time	0,00gamma	499,1914k internal	0,3128k external	0,3128temperature offset calibration	1,0000default loss term (dB/km)	0,3820temperature slope calibration	1,0000multiplexer offset coefficient	1,0000multiplexer slope coefficient	1,0000fibre end	0,00T internal ref (°C)	21,93T ext. ref 1 (°C)	7,07T ext. ref 2 (°C)	7,25length (m)	temperature (°C)	Stokes	anti-Stokes-744,400	414,191	0,035	-0,056
-743,385	-31,031	-0,257	0,107
-742,371	-200,000	0,013	0,072
-741,356	-50,510	-0,214	0,075
-740,342	333,556	-0,035	-0,050
-739,327	-136,046	-0,303	-0,026
-738,312	-200,000	-0,012	0,052
-737,298	-200,000	-0,192	-0,000
-736,283	-200,000	0,025	-0,121
-735,269	17,383	-0,190	0,112
-734,254	800,000	-0,016	-0,046
-733,239	-179,878	-0,360	-0,006
-732,225	88,500	0,101	-0,084
-731,210	-200,000	-0,008	0,046
-730,196	-152,518	-0,159	-0,008
-729,181	-200,000	-0,002	0,052
-728,167	745,263	-0,036	-0,071
-727,152	800,000	0,023	0,055
-726,137	178,740	-0,071	0,077
-725,123	101,280	0,002	0,001
-724,108	-130,682	0,123	-0,012
-723,094	800,000	0,026	-0,083
-722,079	119,961	-0,071	-0,066
-721,064	71,604	0,094	-0,073
-720,050	79,892	-0,070	-0,056
-719,035	-72,485	0,068	0,018
-718,021	113,071	-0,039	0,036
-717,006	-138,544	-0,176	0,014
-715,991	-184,433	-0,195	-0,002
-714,977	-135,471	0,046	0,004
-713,962	35,352	0,049	-0,032
-712,948	431,664	0,020	-0,032
-711,933	-94,675	-0,086	0,017
-710,918	-100,174	-0,146	-0,027
-709,904	-115,478	-0,031	0,004
-708,889	-70,599	0,053	-0,015
-707,875	231,658	-0,152	-0,186
-706,860	-200,000	0,014	-0,069
-705,845	-80,081	-0,059	0,015
-704,831	137,492	0,112	-0,109
-703,816	361,278	-0,133	-0,199
-702,802	130,361	-0,124	-0,118
-701,787	-200,000	-0,050	-0,192
-700,772	-97,568	-0,088	-0,017
-699,758	193,195	-0,056	0,063
-698,743	127,916	-0,033	0,031
-697,729	-200,000	0,005	-0,072
-696,714	-39,998	0,120	0,046
-695,699	-39,658	-0,065	0,025
-694,685	800,000	-0,065	-0,148
-693,670	148,653	-0,127	0,127
-692,656	-200,000	0,004	0,042
-691,641	-200,000	0,009	-0,212
-690,627	-31,462	-0,109	-0,045
-689,612	-200,000	-0,018	-0,084
-688,597	637,261	0,022	-0,041
-687,583	800,000	-0,057	-0,128
-686,568	345,471	-0,107	0,157
-685,554	116,358	0,076	-0,069
-684,539	-200,000	0,000	0,008
-683,524	-108,733	0,078	0,012
-682,510	-36,358	-0,083	-0,033
-681,495	-200,000	0,010	0,061
-680,481	-97,322	-0,211	-0,040
-679,466	-36,949	-0,081	-0,032
-678,451	296,747	-0,076	0,103
-677,437	-200,000	0,004	0,048
-676,422	-39,816	-0,032	-0,012
-675,408	-200,000	-0,045	-0,151
-674,393	-200,000	-0,017	0,085
-673,378	251,889	-0,030	0,037
-672,364	28,531	-0,061	-0,038
-671,349	800,000	0,053	0,123
-670,335	-158,138	0,046	0,002
-669,320	67,011	-0,060	0,045
-668,305	-80,228	-0,057	0,014
-667,291	32,383	-0,084	-0,054
-666,276	800,000	0,026	-0,085
-665,262	-200,000	-0,051	-0,204
-664,247	-200,000	0,002	-0,019
-663,232	144,658	0,051	-0,050
-662,218	360,316	-0,028	0,042
-661,203	-200,000	0,005	-0,061
-660,189	111,515	0,050	0,045
-659,174	215,645	-0,056	0,066
-658,159	-166,745	-0,047	0,001
-657,145	-200,000	-0,012	-0,067
-656,130	-85,799	-0,065	-0,015
-655,116	800,000	-0,034	-0,109
-654,101	800,000	-0,057	0,122
-653,086	109,004	-0,131	-0,116
-652,072	-200,000	0,015	-0,099
-651,057	-200,000	0,005	-0,072
-650,043	-200,000	0,029	-0,292
-649,028	800,000	-0,042	-0,117
-648,014	381,245	0,055	0,083
-646,999	-200,000	-0,013	-0,186
-645,984	-200,000	-0,023	0,099
-644,970	-170,628	0,066	-0,002
-643,955	366,212	-0,058	-0,086
-642,941	800,000	0,015	-0,032
-641,926	-200,000	-0,000	-0,110
-640,911	-127,747	-0,108	-0,011
-639,897	-200,000	-0,011	-0,070
-638,882	227,620	-0,014	-0,017
-637,868	-88,019	-0,145	-0,032
-636,853	-200,000	-0,026	-0,102
-635,838	-174,356	-0,056	-0,001
-634,824	111,853	-0,094	-0,084
-633,809	621,994	0,051	-0,096
-632,795	149,448	-0,014	-0,014
-631,780	-200,000	0,024	-0,083
-630,765	-200,000	0,021	0,081
-629,751	800,000	-0,040	-0,129
-628,736	-90,819	-0,064	0,014
-627,722	800,000	-0,070	-0,158
-626,707	-200,000	0,029	-0,142
-625,692	-191,014	-0,059	0,000
-624,678	-127,798	0,073	-0,008
-623,663	39,690	-0,047	0,031
-622,649	-62,794	0,031	-0,009
-621,634	132,883	0,080	-0,076
-620,619	-118,524	-0,165	0,021
-619,605	-200,000	0,013	-0,070
-618,590	-200,000	-0,009	-0,084
-617,576	327,816	0,108	0,154
-616,561	-88,171	-0,150	0,033
-615,546	99,875	-0,071	0,061
-614,532	74,910	-0,087	-0,068
-613,517	-200,000	-0,000	-0,038
-612,503	-200,000	-0,016	-0,098
-611,488	800,000	0,053	-0,124
-610,474	572,734	-0,038	-0,069
-609,459	-91,238	-0,039	0,008
-608,444	242,531	0,113	-0,141
-607,430	-200,000	-0,032	0,156
-606,415	-200,000	-0,003	0,051
-605,401	137,905	-0,036	-0,035
-604,386	800,000	-0,070	-0,145
-603,371	-137,639	0,080	-0,007
-602,357	-200,000	-0,007	0,043
-601,342	800,000	-0,014	0,039
-600,328	525,951	0,013	-0,022
-599,313	527,612	0,051	-0,089
-598,298	310,658	0,041	-0,056
-597,284	28,059	0,076	-0,047
-596,269	800,000	-0,027	0,078
-595,255	-200,000	-0,005	0,071
-594,240	251,416	0,034	-0,043
-593,225	-85,275	-0,039	-0,009
-592,211	-200,000	-0,029	0,101
-591,196	74,465	0,046	-0,035
-590,182	285,111	-0,014	0,019
-589,167	-54,247	-0,080	0,027
-588,152	72,707	-0,064	0,050
-587,138	-200,000	0,012	-0,135
-586,123	-154,623	0,088	-0,004
-585,109	800,000	-0,046	-0,097
-584,094	96,259	-0,070	-0,059
-583,079	-106,701	-0,052	0,009
-582,065	75,314	0,115	-0,090
-581,050	-200,000	-0,012	-0,050
-580,036	146,121	-0,021	-0,021
-579,021	-68,395	-0,085	-0,024
-578,006	800,000	0,054	0,112
-576,992	800,000	0,029	0,077
-575,977	-37,521	-0,031	-0,012
-574,963	128,759	0,006	-0,006
-573,948	800,000	-0,035	-0,081
-572,934	-98,634	-0,129	0,024
-571,919	-105,517	0,070	0,012
-570,904	0,981	-0,050	0,026
-569,890	800,000	-0,072	-0,181
-568,875	-200,000	-0,012	-0,090
-567,861	34,062	0,113	0,073
-566,846	-68,138	0,136	0,039
-565,831	-200,000	-0,001	-0,108
-564,817	-79,008	-0,053	-0,013
-563,802	185,279	-0,034	0,037
-562,788	-200,000	0,008	0,154
-561,773	156,372	-0,126	0,129
-560,758	124,090	-0,072	0,067
-559,744	92,319	0,036	0,030
-558,729	91,315	0,034	-0,028
-557,715	800,000	0,017	-0,051
-556,700	365,942	-0,117	-0,174
-555,685	-63,187	-0,113	0,034
-554,671	-200,000	-0,013	0,105
-553,656	-26,883	0,047	0,020
-552,642	36,358	0,074	-0,048
-551,627	327,653	0,060	0,085
-550,612	-46,166	-0,154	0,056
-549,598	-125,634	0,032	-0,003
-548,583	-37,111	-0,141	-0,056
-547,569	86,228	0,083	-0,068
-546,554	-113,597	0,197	0,028
-545,539	691,269	0,026	0,051
-544,525	37,943	0,064	-0,042
-543,510	-176,096	-0,098	-0,002
-542,496	406,433	0,066	-0,104
-541,481	-103,653	0,090	0,015
-540,466	-127,360	0,031	0,003
-539,452	-200,000	0,002	0,101
-538,437	14,401	0,105	0,060
-537,423	258,939	-0,023	0,029
-536,408	379,635	0,069	0,105
-535,393	88,891	-0,125	0,103
-534,379	-132,656	-0,030	-0,003
-533,364	-131,951	0,042	0,004
-532,350	17,027	0,066	0,039
-531,335	-131,432	-0,088	0,008
-530,321	-200,000	-0,004	0,190
-529,306	800,000	0,022	-0,048
-528,291	204,093	-0,035	-0,040
-527,277	82,776	-0,129	-0,103
-526,262	-200,000	-0,019	-0,121
-525,248	-200,000	-0,017	-0,177
-524,233	-200,000	0,049	-0,194
-523,218	134,966	-0,005	0,005
-522,204	800,000	-0,013	0,027
-521,189	41,964	-0,157	-0,105
-520,175	-200,000	0,033	-0,147
-519,160	333,736	0,048	-0,068
-518,145	800,000	0,023	-0,059
-517,131	311,207	0,068	0,095
-516,116	-82,653	-0,152	-0,036
-515,102	-200,000	-0,012	0,165
-514,087	800,000	0,007	0,023
-513,072	475,172	-0,049	-0,081
-512,058	730,095	-0,047	-0,094
-511,043	67,869	-0,069	0,052
-510,029	13,274	-0,050	0,029
-509,014	-110,479	-0,044	-0,007
-507,999	-66,222	-0,027	0,008
-506,985	28,858	-0,037	-0,023
-505,970	-55,223	0,030	-0,010
-504,956	220,671	0,049	-0,058
-503,941	152,938	-0,063	-0,063
-502,926	-143,269	0,061	0,004
-501,912	-200,000	-0,006	-0,024
-500,897	69,923	0,130	0,098
-499,883	77,851	0,072	0,056
-498,868	-20,621	-0,090	-0,041
-497,853	11,832	0,049	-0,028
-496,839	122,254	0,117	-0,108
-495,824	235,700	-0,057	0,070
-494,810	-23,346	0,132	0,058
-493,795	-200,000	-0,036	0,160
-492,781	463,843	-0,052	-0,085
-491,766	-40,862	-0,154	0,059
-490,751	-200,000	-0,014	-0,052
-489,737	718,253	-0,032	-0,062
-488,722	-200,000	0,006	0,045
-487,708	-69,883	0,164	0,046
-486,693	787,973	0,037	-0,074
-485,678	-200,000	-0,021	-0,135
-484,664	-200,000	-0,001	-0,090
-483,649	-200,000	-0,023	-0,123
-482,635	-200,000	0,002	-0,037
-481,620	-165,065	0,107	-0,003
-480,605	17,140	0,050	0,029
-479,591	-200,000	0,001	0,050
-478,576	-149,225	0,108	0,006
-477,562	-200,000	-0,002	-0,009
-476,547	-149,868	0,044	-0,003
-475,532	800,000	0,028	0,086
-474,518	75,130	-0,091	0,071
-473,503	-101,169	-0,036	-0,006
-472,489	378,248	-0,060	0,091
-471,474	-200,000	-0,008	0,089
-470,459	-130,702	-0,056	-0,005
-469,445	-84,225	-0,140	-0,032
-468,430	-200,000	0,023	-0,100
-467,416	-7,419	-0,062	0,031
-466,401	800,000	-0,039	0,096
-465,386	501,080	0,017	0,029
-464,372	26,265	-0,099	0,061
-463,357	-200,000	0,025	-0,097
-462,343	-96,344	-0,035	-0,007
-461,328	122,510	0,080	0,074
-460,313	74,856	0,031	0,024
-459,299	-76,417	0,141	0,036
-458,284	-200,000	-0,036	0,168
-457,270	-3,009	0,076	-0,039
-456,255	-39,198	-0,028	-0,011
-455,241	-200,000	-0,001	0,144
-454,226	-135,749	-0,069	0,006
-453,211	-200,000	0,026	0,185
-452,197	-92,712	0,092	0,019
-451,182	-65,590	0,079	0,023
-450,168	-200,000	-0,008	0,110
-449,153	-200,000	-0,018	-0,133
-448,138	646,187	0,050	0,095
-447,124	-200,000	-0,017	0,067
-446,109	555,865	-0,010	0,017
-445,095	-23,902	0,062	-0,027
-444,080	-151,689	-0,019	-0,001
-443,065	6,011	-0,123	0,067
-442,051	278,646	0,071	0,093
-441,036	384,924	-0,094	-0,143
-440,022	-200,000	0,044	-0,159
-439,007	-200,000	0,016	0,081
-437,992	44,647	0,085	-0,057
-436,978	-124,630	-0,083	0,009
-435,963	287,190	0,049	0,065
-434,949	-37,313	-0,144	-0,056
-433,934	253,977	-0,008	0,010
-432,919	800,000	-0,026	0,066
-431,905	6,565	-0,084	0,046
-430,890	-180,010	0,206	0,003
-429,876	-64,892	0,129	0,038
-428,861	160,260	-0,122	0,125
-427,846	79,358	-0,051	0,040
-426,832	-200,000	-0,005	-0,054
-425,817	22,264	0,084	0,050
-424,803	-192,025	0,093	-0,001
-423,788	-200,000	0,016	0,076
-422,773	800,000	-0,054	-0,144
-421,759	267,486	0,022	-0,028
-420,744	634,009	-0,045	0,084
-419,730	3,880	0,079	-0,042
-418,715	31,783	0,118	-0,075
-417,701	702,230	0,074	0,143
-416,686	560,682	-0,017	0,031
-415,671	-200,000	0,025	-0,094
-414,657	-200,000	0,004	0,132
-413,642	274,638	0,050	-0,065
-412,628	800,000	0,032	0,085
-411,613	588,851	-0,050	0,090
-410,598	733,937	-0,043	0,085
-409,584	104,016	0,045	-0,039
-408,569	38,706	0,137	0,089
-407,555	129,113	-0,075	-0,070
-406,540	7,873	0,041	0,022
-405,525	-38,427	-0,029	0,011
-404,511	-200,000	0,009	-0,087
-403,496	269,063	-0,033	0,042
-402,482	-8,453	0,026	0,013
-401,467	-200,000	-0,005	0,066
-400,452	136,796	0,056	-0,054
-399,438	800,000	0,016	-0,042
-398,423	-68,327	0,095	-0,027
-397,409	526,548	0,042	-0,073
-396,394	5,829	0,057	0,031
-395,379	483,479	-0,073	0,122
-394,365	-179,220	0,143	0,002
-393,350	800,000	0,032	0,068
-392,336	490,485	-0,031	-0,052
-391,321	-106,457	0,004	0,001
-390,306	-35,482	-0,284	0,113
-389,292	800,000	0,075	-0,188
-388,277	64,992	0,052	-0,039
-387,263	-40,216	0,135	0,051
-386,248	-200,000	0,011	0,040
-385,233	-200,000	-0,027	0,110
-384,219	13,056	0,084	0,048
-383,204	-200,000	-0,018	0,096
-382,190	35,463	0,045	0,029
-381,175	-200,000	-0,026	0,088
-380,160	-101,779	0,127	-0,022
-379,146	-200,000	0,014	-0,101
-378,131	-200,000	-0,020	-0,136
-377,117	142,803	-0,103	-0,101
-376,102	-200,000	-0,005	-0,073
-375,088	-13,944	-0,045	0,021
-374,073	355,935	-0,071	0,104
-373,058	-95,206	-0,117	0,023
-372,044	184,544	0,091	0,099
-371,029	82,352	0,091	-0,072
-370,015	70,055	-0,090	0,068
-369,000	174,757	0,058	0,062
-367,985	277,475	-0,068	0,089
-366,971	60,674	-0,143	-0,104
-365,956	19,768	0,095	-0,056
-364,942	153,416	0,035	0,035
-363,927	-88,291	0,217	-0,047
-362,912	-197,340	0,080	-0,000
-361,898	4,192	-0,140	-0,075
-360,883	-152,093	-0,113	0,006
-359,869	578,706	0,043	-0,078
-358,854	-200,000	0,007	0,046
-357,839	800,000	-0,060	0,162
-356,825	378,957	-0,103	0,155
-355,810	107,183	0,099	0,086
-354,796	-90,308	0,140	0,029
-353,781	-200,000	-0,023	-0,144
-352,766	109,292	-0,114	0,100
-351,752	19,423	-0,026	-0,015
-350,737	239,663	0,069	0,084
-349,723	-200,000	-0,040	0,175
-348,708	800,000	-0,032	0,067
-347,693	-157,356	0,045	0,002
-346,679	180,019	-0,202	-0,217
-345,664	-200,000	-0,020	-0,114
-344,650	-39,169	0,132	0,050
-343,635	-0,582	0,044	-0,023
-342,620	-61,837	0,130	-0,040
-341,606	294,674	0,059	-0,079
-340,591	182,645	0,099	-0,107
-339,577	52,067	-0,062	-0,043
-338,562	793,175	0,043	-0,086
-337,548	-51,326	-0,136	-0,046
-336,533	-44,402	0,132	-0,048
-335,518	197,167	0,053	0,059
-334,504	28,473	0,014	-0,009
-333,489	-200,000	0,018	-0,062
-332,475	-119,264	-0,103	0,013
-331,460	-2,694	-0,042	0,021
-330,445	-9,161	-0,042	0,021
-329,431	-200,000	-0,017	-0,101
-328,416	-0,059	0,012	-0,006
-327,402	-200,000	0,009	-0,105
-326,387	208,226	-0,013	0,014
-325,372	122,020	-0,140	-0,128
-324,358	-33,546	0,150	0,061
-323,343	800,000	0,044	0,102
-322,329	118,808	-0,022	0,020
-321,314	-42,802	0,191	0,071
-320,299	281,641	-0,104	0,136
-319,285	368,105	0,044	-0,066
-318,270	-27,892	0,027	-0,012
-317,256	-174,921	0,059	-0,001
-316,241	34,375	-0,058	0,037
-315,226	-105,007	-0,084	-0,014
-314,212	-200,000	-0,005	-0,096
-313,197	800,000	-0,025	0,060
-312,183	-119,279	0,113	-0,014
-311,168	-98,580	-0,058	-0,011
-310,153	669,530	0,049	0,094
-309,139	225,162	-0,063	-0,074
-308,124	-100,643	0,106	-0,019
-307,110	-121,246	0,079	0,010
-306,095	800,000	0,040	0,104
-305,080	97,692	-0,032	-0,027
-304,066	30,561	-0,112	-0,070
-303,051	323,142	-0,032	-0,045
-302,037	9,479	-0,152	-0,084
-301,022	557,913	-0,097	0,172
-300,008	-14,958	0,125	0,058
-298,993	-200,000	-0,005	0,133
-297,978	800,000	0,121	0,264
-296,964	107,185	-0,083	0,072
-295,949	-200,000	0,010	-0,039
-294,935	223,246	-0,070	-0,083
-293,920	-200,000	-0,015	-0,112
-292,905	608,510	0,017	0,031
-291,891	152,050	0,079	0,079
-290,876	-200,000	0,005	0,060
-289,862	-149,247	-0,046	0,003
-288,847	-57,975	-0,169	0,054
-287,832	312,665	-0,049	0,067
-286,818	-139,897	0,136	-0,010
-285,803	-200,000	0,052	0,179
-284,789	-63,641	0,111	0,033
-283,774	800,000	-0,031	-0,073
-282,759	-200,000	-0,006	0,033
-281,745	-149,217	0,070	-0,004
-280,730	465,681	-0,068	-0,111
-279,716	-68,658	0,091	-0,026
-278,701	800,000	0,054	0,120
-277,686	-39,375	0,023	-0,009
-276,672	-189,130	-0,063	-0,001
-275,657	-184,977	-0,122	0,001
-274,643	-200,000	0,020	0,150
-273,628	162,077	-0,136	0,139
-272,613	-103,943	-0,090	-0,015
-271,599	-176,033	0,036	-0,001
-270,584	-200,000	-0,022	0,100
-269,570	-200,000	0,015	0,077
-268,555	-200,000	0,010	-0,064
-267,540	-101,502	-0,014	-0,002
-266,526	800,000	-0,021	0,050
-265,511	800,000	0,026	0,083
-264,497	-200,000	0,026	0,088
-263,482	-200,000	0,007	0,075
-262,467	440,944	0,044	0,071
-261,453	53,416	-0,085	0,059
-260,438	-200,000	0,007	0,133
-259,424	-200,000	0,002	-0,020
-258,409	-200,000	0,003	-0,102
-257,395	142,541	-0,098	0,095
-256,380	-200,000	0,006	0,039
-255,365	-200,000	0,016	-0,109
-254,351	409,578	0,035	0,055
-253,336	-13,583	0,128	-0,060
-252,322	800,000	-0,047	-0,110
-251,307	-200,000	0,009	0,045
-250,292	-43,409	0,026	-0,010
-249,278	102,770	-0,069	-0,059
-248,263	-23,329	0,174	-0,076
-247,249	-200,000	0,013	-0,083
-246,234	139,115	-0,083	0,080
-245,219	578,625	0,072	-0,128
-244,205	584,896	-0,037	-0,067
-243,190	-57,669	-0,045	0,014
-242,176	-122,443	0,054	-0,006
-241,161	800,000	-0,021	0,068
-240,146	-150,760	-0,052	0,003
-239,132	-200,000	-0,002	-0,031
-238,117	-200,000	0,014	-0,124
-237,103	800,000	0,022	-0,054
-236,088	-43,042	0,054	-0,020
-235,073	-200,000	0,016	0,076
-234,059	99,223	-0,171	0,144
-233,044	800,000	-0,051	0,114
-232,030	498,085	0,032	-0,055
-231,015	800,000	-0,077	-0,218
-230,000	-200,000	0,022	0,090
-228,986	-128,511	0,092	-0,009
-227,971	209,158	-0,034	0,039
-226,957	-105,524	0,136	0,022
-225,942	-55,619	0,106	0,034
-224,927	-200,000	0,004	-0,013
-223,913	800,000	0,046	0,131
-222,898	-200,000	0,028	-0,123
-221,884	754,547	0,006	0,012
-220,869	-75,945	0,168	-0,043
-219,855	-200,000	-0,003	-0,013
-218,840	154,392	0,108	0,108
-217,825	212,243	-0,037	0,042
-216,811	280,410	-0,044	0,058
-215,796	174,814	-0,066	0,069
-214,782	181,867	0,148	-0,159
-213,767	800,000	-0,011	-0,027
-212,752	-0,234	-0,025	-0,013
-211,738	-124,708	0,051	0,006
-210,723	-200,000	0,035	0,142
-209,709	-200,000	-0,020	0,088
-208,694	-200,000	-0,001	-0,017
-207,679	338,100	0,031	-0,044
-206,665	800,000	-0,029	-0,064
-205,650	224,610	0,057	0,067
-204,636	-200,000	0,000	-0,007
-203,621	640,251	0,055	-0,103
-202,606	-45,510	0,073	-0,026
-201,592	-93,364	-0,155	-0,031
-200,577	136,215	-0,038	-0,036
-199,563	43,528	0,042	0,028
-198,548	363,279	-0,035	-0,051
-197,533	-70,844	0,078	-0,021
-196,519	-69,871	-0,073	-0,020
-195,504	-200,000	-0,019	-0,107
-194,490	-26,609	-0,193	-0,082
-193,475	-122,750	-0,098	0,011
-192,460	-65,020	0,054	-0,016
-191,446	66,960	-0,055	0,041
-190,431	-200,000	-0,019	0,087
-189,417	-200,000	0,004	0,046
-188,402	-200,000	0,028	-0,111
-187,387	-137,887	-0,063	-0,005
-186,373	-9,661	-0,053	-0,026
-185,358	-139,950	0,167	-0,013
-184,344	-65,681	-0,087	0,025
-183,329	-81,696	0,121	-0,029
-182,315	-129,410	0,177	0,018
-181,300	29,401	0,091	-0,056
-180,285	-29,869	0,057	-0,023
-179,271	645,872	-0,036	-0,067
-178,256	-200,000	0,008	0,088
-177,242	198,149	0,051	0,057
-176,227	-46,364	-0,096	0,034
-175,212	-30,392	-0,021	0,008
-174,198	-121,062	-0,100	0,012
-173,183	57,753	-0,063	0,045
-172,169	171,621	-0,056	0,059
-171,154	310,430	-0,069	-0,094
-170,139	431,808	-0,070	-0,111
-169,125	-200,000	0,000	0,069
-168,110	-121,282	0,130	-0,016
-167,096	119,009	0,033	-0,030
-166,081	-66,774	-0,132	0,038
-165,066	453,487	-0,041	-0,066
-164,052	82,515	-0,052	0,041
-163,037	-200,000	-0,022	-0,171
-162,023	-200,000	0,032	0,222
-161,008	92,920	0,064	-0,053
-159,993	-200,000	0,031	-0,116
-158,979	41,780	-0,125	0,082
-157,964	-22,863	-0,103	0,045
-156,950	100,200	0,058	-0,049
-155,935	800,000	-0,034	-0,069
-154,920	21,462	0,051	0,030
-153,906	-124,751	0,045	0,005
-152,891	336,704	0,058	-0,082
-151,877	353,975	-0,008	-0,012
-150,862	-200,000	0,005	0,040
-149,847	-86,721	0,095	-0,021
-148,833	-200,000	0,012	-0,100
-147,818	-63,260	0,105	-0,031
-146,804	341,190	0,052	0,074
-145,789	-21,526	0,035	0,015
-144,775	-47,287	0,069	-0,024
-143,760	800,000	-0,025	-0,063
-142,745	13,947	-0,075	0,042
-141,731	-47,402	-0,107	-0,038
-140,716	-145,705	0,098	-0,006
-139,702	800,000	0,029	-0,061
-138,687	303,378	-0,110	0,148
-137,672	-134,764	0,073	0,006
-136,658	64,390	-0,155	-0,113
-135,643	56,614	-0,109	-0,077
-134,629	36,627	-0,134	-0,086
-133,614	33,235	-0,126	0,079
-132,599	327,766	-0,092	0,129
-131,585	-200,000	0,016	-0,141
-130,570	-200,000	-0,016	-0,052
-129,556	800,000	-0,039	-0,084
-128,541	800,000	-0,038	-0,118
-127,526	800,000	-0,012	0,038
-126,512	-200,000	0,002	0,093
-125,497	-200,000	-0,015	0,048
-124,483	-43,791	-0,005	0,002
-123,468	800,000	0,038	0,116
-122,453	542,233	0,045	-0,078
-121,439	-104,341	0,080	0,013
