DTS Sentinel unit serial number:	SN410029Multiplexer serial number:	ORYXHardware model number:	OX2-SRSoftware version number:	ORYX F/W v4,00 Oryx Data Collector v3.7.2.0data status	okinstallation	B4 Nyhavnadifferential loss correction	single-endedforward channel	channel 2reverse channel	N/Adate	2023/12/19time	03:55:13forward acquisition time	300,00reverse acquisition time	0,00gamma	499,1914k internal	0,3126k external	0,3126temperature offset calibration	1,0000default loss term (dB/km)	0,3820temperature slope calibration	1,0000multiplexer offset coefficient	1,0000multiplexer slope coefficient	1,0000fibre end	0,00T internal ref (°C)	21,00T ext. ref 1 (°C)	5,81T ext. ref 2 (°C)	5,80length (m)	temperature (°C)	Stokes	anti-Stokes-744,400	-100,613	0,099	-0,018
-743,385	-74,169	-0,192	0,051
-742,371	53,355	-0,031	-0,022
-741,356	-27,276	-0,331	0,143
-740,342	-32,466	0,074	0,031
-739,327	104,046	-0,269	0,236
-738,312	-200,000	0,014	-0,098
-737,298	-6,880	-0,184	0,093
-736,283	-200,000	0,035	-0,178
-735,269	56,704	-0,181	0,131
-734,254	167,037	0,077	0,081
-733,239	-8,010	-0,354	-0,177
-732,225	35,129	0,099	-0,064
-731,210	87,350	-0,067	0,056
-730,196	800,000	0,011	0,024
-729,181	800,000	0,065	0,187
-728,167	100,403	-0,135	-0,116
-727,152	-200,000	-0,005	-0,022
-726,137	800,000	-0,082	-0,249
-725,123	396,315	-0,067	-0,104
-724,108	-200,000	-0,007	-0,227
-723,094	-23,178	-0,031	0,014
-722,079	-200,000	-0,018	-0,070
-721,064	-200,000	-0,020	-0,074
-720,050	-5,235	-0,050	-0,026
-719,035	-200,000	0,002	-0,019
-718,021	-124,854	-0,206	-0,023
-717,006	19,818	-0,128	-0,077
-715,991	-106,540	-0,206	0,034
-714,977	-48,306	-0,095	0,034
-713,962	800,000	0,074	-0,173
-712,948	800,000	-0,024	-0,067
-711,933	210,106	-0,061	-0,072
-710,918	-109,446	0,078	-0,012
-709,904	115,641	-0,035	-0,032
-708,889	-200,000	0,004	-0,049
-707,875	800,000	-0,056	-0,175
-706,860	-200,000	-0,016	-0,063
-705,845	316,220	0,066	0,093
-704,831	-133,979	0,081	0,007
-703,816	800,000	-0,036	-0,091
-702,802	-42,861	-0,109	-0,041
-701,787	-17,662	-0,004	0,002
-700,772	376,429	-0,072	-0,109
-699,758	-12,775	-0,133	0,064
-698,743	92,299	0,084	0,071
-697,729	-69,917	0,036	0,010
-696,714	310,683	0,019	-0,027
-695,699	-130,359	0,130	-0,013
-694,685	291,422	0,023	0,031
-693,670	800,000	-0,042	-0,137
-692,656	143,390	0,070	-0,070
-691,641	-19,961	0,049	0,022
-690,627	-200,000	-0,004	0,096
-689,612	-200,000	-0,036	0,000
-688,597	-16,210	-0,048	-0,023
-687,583	800,000	-0,016	-0,041
-686,568	800,000	0,032	-0,104
-685,554	347,664	-0,076	-0,111
-684,539	800,000	-0,006	-0,014
-683,524	-200,000	0,018	-0,104
-682,510	701,204	0,044	0,086
-681,495	800,000	-0,028	0,059
-680,481	800,000	0,040	-0,088
-679,466	577,927	-0,066	-0,121
-678,451	-200,000	-0,002	-0,010
-677,437	-200,000	0,008	0,079
-676,422	655,392	-0,040	0,077
-675,408	-41,038	-0,088	0,034
-674,393	785,406	-0,064	0,131
-673,378	800,000	0,025	-0,079
-672,364	-77,586	0,110	0,028
-671,349	157,591	-0,052	-0,053
-670,335	-125,499	0,035	-0,004
-669,320	-165,780	-0,089	0,003
-668,305	-200,000	0,002	0,067
-667,291	-22,319	-0,030	0,013
-666,276	800,000	-0,043	-0,095
-665,262	-86,224	-0,070	-0,016
-664,247	800,000	-0,049	-0,109
-663,232	-31,996	0,037	-0,015
-662,218	800,000	0,023	0,052
-661,203	314,676	-0,071	-0,099
-660,189	55,558	-0,038	-0,027
-659,174	101,204	-0,139	-0,120
-658,159	-200,000	0,019	-0,083
-657,145	60,755	-0,158	-0,116
-656,130	-159,604	0,109	-0,004
-655,116	-35,996	-0,084	0,034
-654,101	173,240	-0,088	-0,094
-653,086	455,707	0,063	0,103
-652,072	-134,695	0,122	0,011
-651,057	18,909	0,064	-0,038
-650,043	-35,591	-0,118	-0,047
-649,028	479,902	0,062	-0,105
-648,014	184,230	0,054	0,060
-646,999	-200,000	-0,001	0,197
-645,984	800,000	-0,072	0,152
-644,970	631,073	-0,054	0,101
-643,955	-200,000	0,003	-0,022
-642,941	-200,000	-0,010	-0,102
-641,926	-124,468	-0,193	-0,022
-640,911	31,201	-0,107	0,068
-639,897	-200,000	0,002	-0,084
-638,882	-69,700	0,131	0,037
-637,868	-200,000	0,006	-0,081
-636,853	-200,000	-0,009	-0,066
-635,838	69,776	0,057	-0,044
-634,824	-200,000	-0,008	-0,120
-633,809	800,000	0,005	-0,012
-632,795	171,248	-0,024	0,026
-631,780	-200,000	-0,001	0,071
-630,765	-200,000	0,020	0,072
-629,751	126,146	0,093	-0,087
-628,736	336,969	-0,054	-0,078
-627,722	-90,927	-0,135	-0,028
-626,707	379,180	-0,067	-0,103
-625,692	800,000	-0,022	0,062
-624,678	-200,000	-0,006	0,063
-623,663	311,682	0,031	-0,043
-622,649	-200,000	0,008	-0,089
-621,634	-139,352	-0,108	0,008
-620,619	800,000	-0,040	0,085
-619,605	188,492	0,031	0,034
-618,590	800,000	0,049	0,144
-617,576	-48,060	0,066	0,023
-616,561	800,000	-0,042	-0,117
-615,546	-29,195	-0,136	0,057
-614,532	606,561	0,058	-0,107
-613,517	-142,330	-0,302	-0,022
-612,503	340,249	-0,062	-0,090
-611,488	-138,520	0,116	0,009
-610,474	712,817	0,102	0,202
-609,459	-26,700	0,131	0,056
-608,444	800,000	0,068	-0,161
-607,430	205,941	0,023	0,027
-606,415	88,351	-0,043	0,035
-605,401	-200,000	0,035	0,129
-604,386	88,193	0,098	-0,080
-603,371	40,594	0,128	0,085
-602,357	800,000	-0,032	0,066
-601,342	-165,811	-0,027	-0,001
-600,328	165,888	-0,052	0,054
-599,313	99,641	-0,011	-0,009
-598,298	63,384	-0,129	0,095
-597,284	326,968	-0,062	-0,088
-596,269	-114,826	0,074	0,010
-595,255	154,893	0,117	0,119
-594,240	-40,292	0,092	0,035
-593,225	-20,751	-0,125	-0,057
-592,211	70,168	-0,081	0,062
-591,196	-27,199	0,091	-0,039
-590,182	-200,000	-0,044	0,160
-589,167	-134,865	-0,012	-0,001
-588,152	117,357	-0,072	0,065
-587,138	118,274	0,035	-0,032
-586,123	-59,851	0,039	0,012
-585,109	800,000	-0,031	-0,072
-584,094	194,432	0,056	0,063
-583,079	-96,072	0,068	0,013
-582,065	495,999	0,031	0,053
-581,050	171,091	0,037	0,039
-580,036	295,050	-0,037	-0,050
-579,021	89,409	-0,054	-0,044
-578,006	-31,694	-0,086	0,036
-576,992	13,503	0,055	-0,032
-575,977	-81,992	0,072	-0,017
-574,963	15,884	0,064	-0,037
-573,948	-200,000	-0,004	-0,083
-572,934	800,000	0,014	0,036
-571,919	800,000	-0,038	0,085
-570,904	800,000	0,012	-0,032
-569,890	133,273	-0,124	-0,119
-568,875	387,648	-0,055	0,084
-567,861	-200,000	-0,007	-0,093
-566,846	60,701	0,067	0,049
-565,831	49,684	0,072	-0,050
-564,817	-72,194	-0,038	0,010
-563,802	-24,524	-0,066	0,029
-562,788	57,733	0,104	0,075
-561,773	-200,000	-0,016	-0,077
-560,758	-11,629	-0,008	-0,004
-559,744	165,229	0,089	-0,093
-558,729	-160,287	0,148	-0,006
-557,715	-51,990	-0,049	-0,017
-556,700	800,000	-0,021	-0,049
-555,685	800,000	-0,047	-0,118
-554,671	-200,000	0,004	-0,119
-553,656	115,318	0,075	-0,068
-552,642	-31,651	-0,042	0,018
-551,627	-120,777	0,098	0,012
-550,612	286,411	-0,067	-0,089
-549,598	800,000	-0,026	0,059
-548,583	-200,000	-0,011	0,053
-547,569	-200,000	-0,005	0,042
-546,554	-98,670	0,050	0,009
-545,539	800,000	-0,027	-0,087
-544,525	196,662	0,141	0,158
-543,510	447,621	0,047	0,076
-542,496	48,798	0,134	-0,093
-541,481	313,332	-0,027	0,037
-540,466	800,000	-0,076	-0,163
-539,452	-138,668	0,137	-0,011
-538,437	88,215	0,052	-0,042
-537,423	30,798	0,149	0,094
-536,408	-200,000	-0,006	0,034
-535,393	-171,666	0,064	-0,002
-534,379	-15,198	-0,112	0,053
-533,364	-9,507	0,086	0,042
-532,350	2,199	0,153	0,082
-531,335	-87,695	0,076	-0,017
-530,321	-200,000	0,042	0,139
-529,306	-200,000	-0,008	0,107
-528,291	-11,537	-0,025	-0,012
-527,277	34,924	-0,177	-0,114
-526,262	-148,355	-0,045	-0,003
-525,248	60,794	0,105	-0,077
-524,233	12,104	0,076	-0,043
-523,218	-200,000	-0,039	0,153
-522,204	95,963	0,037	-0,032
-521,189	108,586	-0,111	-0,097
-520,175	28,931	-0,071	-0,044
-519,160	20,941	-0,087	0,052
-518,145	800,000	-0,068	-0,211
-517,131	-200,000	0,034	0,214
-516,116	800,000	0,027	0,072
-515,102	-29,834	0,063	0,027
-514,087	-65,282	-0,072	0,021
-513,072	47,393	-0,025	0,017
-512,058	-47,848	0,060	-0,021
-511,043	89,512	-0,100	0,082
-510,029	113,412	0,020	0,018
-509,014	-98,864	-0,113	0,021
-507,999	800,000	0,036	-0,088
-506,985	-200,000	-0,004	0,086
-505,970	63,490	-0,045	0,033
-504,956	-191,797	-0,141	-0,001
-503,941	-200,000	0,027	0,124
-502,926	203,463	0,052	0,060
-501,912	156,786	-0,067	0,068
-500,897	638,005	-0,030	-0,056
-499,883	-179,699	0,106	0,002
-498,868	617,217	-0,009	0,017
-497,853	277,208	0,046	-0,061
-496,839	44,099	-0,121	0,082
-495,824	529,215	0,063	0,110
-494,810	26,671	-0,046	0,028
-493,795	-200,000	-0,014	-0,118
-492,781	193,345	-0,028	0,032
-491,766	800,000	-0,019	-0,048
-490,751	-10,500	-0,133	0,065
-489,737	122,313	-0,105	-0,097
-488,722	33,279	-0,018	0,012
-487,708	-200,000	-0,030	0,103
-486,693	38,856	0,120	0,079
-485,678	-52,982	-0,037	0,012
-484,664	-200,000	0,008	-0,117
-483,649	-63,596	-0,112	-0,034
-482,635	22,125	0,055	0,033
-481,620	166,691	0,078	-0,082
-480,605	-161,904	0,110	-0,004
-479,591	182,534	0,035	-0,038
-478,576	800,000	0,052	-0,138
-477,562	-200,000	0,024	-0,137
-476,547	500,628	-0,056	0,096
-475,532	50,066	0,087	-0,061
-474,518	220,027	-0,058	-0,068
-473,503	800,000	-0,046	0,103
-472,489	-20,761	0,100	0,045
-471,474	58,139	0,087	-0,062
-470,459	-61,367	-0,111	-0,034
-469,445	-200,000	-0,023	-0,124
-468,430	210,736	-0,048	0,056
-467,416	-200,000	0,018	-0,062
-466,401	-200,000	0,016	0,078
-465,386	137,250	-0,059	0,056
-464,372	800,000	-0,037	-0,086
-463,357	410,257	0,040	0,062
-462,343	179,142	-0,023	-0,025
-461,328	156,550	-0,009	0,009
-460,313	800,000	0,019	-0,043
-459,299	-11,240	0,081	0,039
-458,284	-200,000	0,021	-0,109
-457,270	234,854	0,047	-0,057
-456,255	-2,157	0,066	0,034
-455,241	112,394	-0,035	-0,031
-454,226	103,945	-0,045	0,039
-453,211	14,223	-0,059	0,034
-452,197	-200,000	0,009	0,044
-451,182	-54,405	0,147	-0,049
-450,168	614,144	0,061	-0,113
-449,153	-200,000	0,004	-0,136
-448,138	800,000	0,070	-0,229
-447,124	800,000	-0,032	-0,100
-446,109	221,966	0,073	-0,087
-445,095	-159,286	0,092	-0,004
-444,080	-3,522	-0,085	0,043
-443,065	-94,050	0,031	0,006
-442,051	-1,589	0,072	0,037
-441,036	-75,673	-0,051	-0,013
-440,022	174,221	0,072	-0,077
-439,007	496,999	-0,031	-0,052
-437,992	-114,951	0,121	0,017
-436,978	305,891	0,035	0,049
-435,963	-200,000	0,003	-0,047
-434,949	-73,256	0,025	0,007
-433,934	193,472	-0,095	-0,106
-432,919	-200,000	-0,001	-0,116
-431,905	-125,760	0,091	0,010
-430,890	-129,129	-0,124	0,013
-429,876	51,057	0,116	-0,080
-428,861	800,000	-0,058	0,135
-427,846	-7,082	-0,103	0,051
-426,832	-200,000	-0,012	0,108
-425,817	800,000	-0,060	-0,131
-424,803	-200,000	-0,009	0,030
-423,788	-135,361	0,108	0,009
-422,773	33,808	-0,047	0,030
-421,759	74,291	-0,077	0,059
-420,744	800,000	0,047	0,111
-419,730	502,782	0,029	0,049
-418,715	2,468	0,076	0,040
-417,701	-16,293	-0,055	0,026
-416,686	238,727	0,124	0,152
-415,671	-114,825	0,034	0,005
-414,657	-200,000	-0,007	0,128
-413,642	115,665	0,060	0,054
-412,628	309,519	-0,048	-0,066
-411,613	133,756	-0,072	-0,068
-410,598	144,574	0,036	0,036
-409,584	697,042	-0,054	0,104
-408,569	-114,258	0,161	-0,023
-407,555	-47,707	0,016	0,006
-406,540	16,738	0,091	-0,053
-405,525	-7,598	0,059	0,029
-404,511	-99,119	-0,040	-0,007
-403,496	-200,000	0,010	-0,050
-402,482	7,887	0,054	0,030
-401,467	-74,919	-0,110	0,029
-400,452	75,149	0,075	0,058
-399,438	800,000	0,041	0,096
-398,423	-54,748	-0,083	-0,027
-397,409	-200,000	-0,004	0,117
-396,394	-200,000	-0,018	-0,100
-395,379	298,736	-0,011	0,014
-394,365	60,761	-0,020	0,014
-393,350	354,570	0,032	-0,046
-392,336	-156,696	0,101	-0,005
-391,321	-200,000	0,003	0,021
-390,306	-200,000	-0,034	0,170
-389,292	-200,000	-0,029	-0,110
-388,277	-54,498	-0,096	0,032
-387,263	-89,714	0,075	0,016
-386,248	51,848	-0,077	0,054
-385,233	-184,387	0,085	-0,001
-384,219	-200,000	0,035	0,142
-383,204	101,248	0,046	-0,039
-382,190	61,630	0,029	0,021
-381,175	557,168	0,054	-0,096
-380,160	83,390	-0,031	-0,025
-379,146	238,637	0,060	0,074
-378,131	-200,000	0,003	-0,015
-377,117	381,676	-0,024	-0,037
-376,102	-200,000	-0,008	-0,061
-375,088	482,954	0,046	0,077
-374,073	-200,000	-0,015	0,057
-373,058	127,136	-0,061	0,056
-372,044	-37,909	-0,045	0,017
-371,029	-42,118	0,153	0,057
-370,015	108,200	0,087	0,076
-369,000	-91,159	-0,057	0,012
-367,985	250,033	-0,120	-0,150
-366,971	-200,000	0,017	0,065
-365,956	-6,153	-0,055	-0,028
-364,942	144,605	0,048	-0,047
-363,927	-25,847	-0,111	-0,048
-362,912	-59,328	-0,099	-0,031
-361,898	133,673	-0,073	-0,070
-360,883	253,517	-0,093	-0,117
-359,869	-200,000	0,013	-0,100
-358,854	342,842	-0,029	-0,042
-357,839	50,694	-0,081	0,056
-356,825	111,550	0,120	0,106
-355,810	-200,000	0,035	0,179
-354,796	-43,434	-0,073	0,027
-353,781	-2,597	-0,141	0,072
-352,766	800,000	-0,056	0,156
-351,752	72,919	-0,008	0,006
-350,737	764,114	0,054	-0,108
-349,723	800,000	-0,005	0,017
-348,708	-37,461	-0,048	0,019
-347,693	23,684	-0,079	-0,048
-346,679	-74,437	-0,120	0,032
-345,664	-76,610	0,024	-0,006
-344,650	21,480	-0,108	-0,064
-343,635	250,007	0,112	-0,139
-342,620	-148,447	0,101	-0,006
-341,606	31,830	0,062	-0,039
-340,591	-112,224	0,067	-0,010
-339,577	239,987	0,097	-0,119
-338,562	125,290	0,082	0,076
-337,548	-62,127	-0,059	0,018
-336,533	-200,000	0,014	-0,054
-335,518	-0,073	-0,085	0,044
-334,504	450,949	0,044	0,072
-333,489	-74,495	0,053	0,014
-332,475	67,495	-0,086	-0,064
-331,460	-200,000	0,016	-0,061
-330,445	172,905	-0,049	0,051
-329,431	-82,243	-0,024	-0,006
-328,416	327,367	0,042	-0,059
-327,402	-200,000	-0,012	0,110
-326,387	519,980	0,029	-0,049
-325,372	800,000	-0,043	-0,099
-324,358	800,000	0,034	-0,075
-323,343	161,509	-0,102	0,105
-322,329	-108,529	0,128	-0,020
-321,314	102,955	0,087	0,074
-320,299	-140,253	0,057	-0,004
-319,285	-107,916	0,074	-0,012
-318,270	-101,803	-0,045	0,008
-317,256	-2,816	-0,129	-0,066
-316,241	-200,000	0,019	0,091
-315,226	19,614	-0,066	0,039
-314,212	752,552	-0,050	0,100
-313,197	225,588	0,003	-0,003
-312,183	-200,000	-0,013	0,045
-311,168	-161,985	-0,086	-0,003
-310,153	800,000	-0,053	-0,111
-309,139	75,504	0,061	0,047
-308,124	-48,847	-0,026	-0,009
-307,110	-123,795	0,069	0,008
-306,095	800,000	-0,031	0,081
-305,080	800,000	0,017	0,046
-304,066	-50,445	-0,141	-0,049
-303,051	-23,635	-0,137	-0,060
-302,037	-200,000	0,010	-0,046
-301,022	14,591	0,060	-0,034
-300,008	34,966	0,092	0,059
-298,993	592,848	0,023	0,042
-297,978	-89,938	0,088	0,019
-296,964	-106,153	0,047	0,008
-295,949	-114,842	-0,130	0,018
-294,935	-104,625	-0,079	0,013
-293,920	-200,000	0,012	-0,062
-292,905	68,326	0,044	-0,033
-291,891	156,786	-0,060	0,061
-290,876	244,316	0,079	0,097
-289,862	446,747	-0,075	0,121
-288,847	800,000	-0,011	-0,023
-287,832	-200,000	-0,010	-0,047
-286,818	800,000	-0,074	0,164
-285,803	-200,000	0,016	0,127
-284,789	-68,226	-0,080	0,022
-283,774	-53,629	-0,032	0,011
-282,759	371,904	-0,053	-0,079
-281,745	287,588	-0,061	-0,081
-280,730	591,920	-0,081	0,146
-279,716	-200,000	0,014	-0,075
-278,701	464,296	0,034	0,055
-277,686	-149,931	0,167	0,009
-276,672	49,978	0,066	-0,046
-275,657	4,405	0,090	-0,048
-274,643	189,344	-0,020	-0,022
-273,628	-37,164	-0,113	-0,044
-272,613	116,992	-0,073	0,065
-271,599	-83,300	0,134	-0,031
-270,584	-200,000	-0,010	0,033
-269,570	-35,694	0,072	0,028
-268,555	-200,000	0,014	-0,127
-267,540	156,714	-0,030	-0,030
-266,526	-200,000	-0,004	0,085
-265,511	-200,000	0,002	0,051
-264,497	-86,005	0,072	0,016
-263,482	270,441	0,097	-0,125
-262,467	118,235	0,080	0,072
-261,453	-154,369	-0,063	-0,003
-260,438	-57,218	-0,134	-0,043
-259,424	800,000	-0,021	-0,056
-258,409	430,228	-0,062	0,098
-257,395	140,781	-0,032	-0,031
-256,380	192,046	0,111	-0,123
-255,365	800,000	-0,025	-0,053
-254,351	800,000	-0,014	0,031
-253,336	-200,000	-0,002	-0,070
-252,322	668,873	-0,076	-0,144
-251,307	197,070	-0,100	-0,111
-250,292	-109,910	0,167	-0,025
-249,278	-96,065	0,062	-0,012
-248,263	-52,953	0,080	-0,027
-247,249	8,634	0,153	0,084
-246,234	112,321	0,054	-0,048
-245,219	344,829	-0,054	-0,078
-244,205	181,566	-0,035	-0,038
-243,190	800,000	-0,062	0,130
-242,176	-163,678	0,127	-0,004
-241,161	-155,875	0,156	-0,007
-240,146	-200,000	-0,011	0,096
-239,132	-154,289	0,128	-0,006
-238,117	-38,967	-0,128	-0,049
-237,103	800,000	-0,017	0,034
-236,088	-113,114	0,086	-0,012
-235,073	-78,444	0,093	-0,023
-234,059	-5,362	0,144	0,072
-233,044	-200,000	-0,018	0,076
-232,030	-200,000	-0,013	0,070
-231,015	440,252	-0,098	-0,157
-230,000	-200,000	-0,008	-0,144
-228,986	58,097	-0,096	-0,069
-227,971	-200,000	-0,001	-0,080
-226,957	-110,524	0,119	-0,018
-225,942	-200,000	0,003	0,023
-224,927	-163,414	-0,104	0,004
-223,913	360,725	0,077	-0,112
-222,898	156,397	-0,094	-0,095
-221,884	438,225	0,054	-0,087
-220,869	86,792	-0,226	0,182
-219,855	137,935	-0,085	-0,081
-218,840	266,552	0,024	-0,030
-217,825	-200,000	0,006	-0,040
-216,811	-200,000	-0,005	-0,054
-215,796	-90,269	-0,116	0,024
-214,782	-65,265	-0,120	-0,035
-213,767	-81,206	0,085	-0,020
-212,752	-200,000	0,000	-0,027
-211,738	-64,882	-0,038	-0,011
-210,723	-54,810	-0,215	-0,070
-209,709	-122,116	-0,134	0,016
-208,694	-200,000	0,027	-0,151
-207,679	-168,655	-0,125	0,003
-206,665	-109,738	0,036	-0,005
-205,650	-200,000	0,000	0,085
-204,636	88,358	0,060	-0,048
-203,621	256,224	0,063	0,078
-202,606	-200,000	0,000	-0,029
-201,592	94,689	0,118	0,098
-200,577	281,599	0,039	-0,051
-199,563	-200,000	0,026	0,100
-198,548	-200,000	0,001	0,029
-197,533	-200,000	0,022	0,081
-196,519	-200,000	-0,017	-0,129
-195,504	-41,650	-0,172	-0,064
-194,490	-146,970	-0,120	-0,007
-193,475	-200,000	0,022	-0,118
-192,460	-200,000	-0,003	0,129
-191,446	90,916	0,077	0,063
-190,431	-109,550	0,092	0,014
-189,417	-110,582	-0,161	-0,024
-188,402	194,547	0,062	-0,069
-187,387	-200,000	0,018	-0,153
-186,373	-200,000	-0,003	0,017
-185,358	50,732	0,095	0,065
-184,344	800,000	-0,015	-0,032
-183,329	-47,109	0,167	0,059
-182,315	-200,000	-0,014	-0,053
-181,300	-122,071	-0,163	0,019
-180,285	10,736	0,058	-0,032
-179,271	-200,000	-0,015	-0,159
-178,256	-200,000	-0,016	-0,143
-177,242	-200,000	0,030	-0,163
-176,227	77,826	-0,060	0,047
-175,212	800,000	-0,048	0,137
-174,198	209,578	0,082	-0,094
-173,183	396,605	0,117	-0,179
-172,169	20,711	-0,055	0,032
-171,154	216,329	0,030	0,035
-170,139	126,122	-0,069	0,064
-169,125	-24,545	-0,037	0,016
-168,110	3,395	0,095	0,050
-167,096	87,314	-0,118	-0,095
-166,081	-2,073	0,059	0,030
-165,066	152,269	-0,119	-0,118
-164,052	800,000	0,072	0,195
-163,037	800,000	0,038	0,095
-162,023	800,000	0,070	0,161
-161,008	-17,796	-0,046	-0,021
-159,993	96,135	-0,060	-0,050
-158,979	800,000	-0,019	0,054
-157,964	800,000	-0,068	0,143
-156,950	274,174	-0,039	0,050
-155,935	54,387	-0,043	-0,030
-154,920	195,181	-0,090	0,100
-153,906	798,447	0,072	0,146
-152,891	670,998	-0,013	0,024
-151,877	126,733	-0,078	-0,072
-150,862	-104,497	0,059	0,010
-149,847	181,282	-0,059	-0,063
-148,833	319,348	0,034	0,047
-147,818	-200,000	0,004	0,074
-146,804	-51,819	-0,118	-0,040
-145,789	488,286	0,060	-0,100
-144,775	-79,667	-0,082	-0,020
-143,760	-22,627	-0,128	0,056
-142,745	-68,261	-0,058	0,016
-141,731	83,846	0,079	0,063
-140,716	800,000	-0,017	0,051
-139,702	110,336	-0,016	0,014
-138,687	-200,000	-0,005	-0,092
-137,672	-33,442	-0,047	0,019
-136,658	19,351	0,060	-0,035
-135,643	-22,841	-0,191	-0,084
-134,629	384,407	0,035	-0,052
-133,614	25,810	0,092	0,056
-132,599	800,000	-0,015	-0,031
-131,585	800,000	-0,039	-0,087
-130,570	-11,894	-0,133	-0,063
-129,556	139,261	-0,172	0,164
-128,541	-200,000	0,037	0,118
-127,526	-159,510	-0,090	-0,004
-126,512	-200,000	0,000	0,088
-125,497	800,000	0,021	0,064
-124,483	662,999	-0,027	0,051
-123,468	-60,554	0,064	0,020
-122,453	321,554	-0,116	-0,160
-121,439	107,909	0,050	-0,044
-120,424	-200,000	-0,017	0,087
-119,410	-200,000	-0,044	-0,184
