DTS Sentinel unit serial number:	SN410029Multiplexer serial number:	ORYXHardware model number:	OX2-SRSoftware version number:	ORYX F/W v4,00 Oryx Data Collector v3.7.2.0data status	okinstallation	B4 Nyhavnadifferential loss correction	single-endedforward channel	channel 2reverse channel	N/Adate	2023/12/19time	04:55:13forward acquisition time	300,00reverse acquisition time	0,00gamma	499,1914k internal	0,3126k external	0,3126temperature offset calibration	1,0000default loss term (dB/km)	0,3820temperature slope calibration	1,0000multiplexer offset coefficient	1,0000multiplexer slope coefficient	1,0000fibre end	0,00T internal ref (°C)	20,96T ext. ref 1 (°C)	6,30T ext. ref 2 (°C)	6,39length (m)	temperature (°C)	Stokes	anti-Stokes-744,400	791,246	-0,025	-0,052
-743,385	-98,019	-0,268	0,051
-742,371	-106,873	0,298	-0,049
-741,356	-90,601	-0,272	0,058
-740,342	-200,000	0,046	0,156
-739,327	47,780	-0,206	0,143
-738,312	115,604	-0,064	-0,058
-737,298	-13,194	-0,227	0,110
-736,283	248,148	0,030	-0,038
-735,269	462,111	-0,153	0,255
-734,254	-21,733	-0,029	-0,013
-733,239	-37,121	-0,417	-0,165
-732,225	-63,086	0,185	0,056
-731,210	-200,000	-0,005	0,078
-730,196	-67,956	0,044	-0,013
-729,181	29,978	-0,071	0,045
-728,167	-66,035	-0,118	-0,035
-727,152	0,731	-0,164	0,087
-726,137	585,539	-0,017	0,031
-725,123	-80,979	-0,010	-0,002
-724,108	-200,000	-0,013	-0,236
-723,094	289,618	-0,069	-0,094
-722,079	-27,144	-0,058	-0,025
-721,064	-200,000	-0,002	0,021
-720,050	-109,641	-0,025	0,004
-719,035	143,506	-0,048	-0,047
-718,021	-46,631	0,045	0,016
-717,006	-39,062	-0,133	-0,052
-715,991	-7,202	-0,133	-0,067
-714,977	13,992	-0,074	-0,043
-713,962	182,084	-0,027	-0,029
-712,948	62,077	0,043	0,032
-711,933	-85,834	0,091	-0,021
-710,918	500,910	-0,053	-0,091
-709,904	84,367	-0,083	0,068
-708,889	42,653	0,041	0,028
-707,875	279,124	-0,075	-0,100
-706,860	-200,000	-0,001	-0,122
-705,845	800,000	0,022	-0,050
-704,831	138,979	0,054	0,053
-703,816	52,980	0,099	0,070
-702,802	307,576	-0,056	0,078
-701,787	5,254	0,055	0,030
-700,772	-200,000	0,011	0,056
-699,758	204,079	-0,067	0,077
-698,743	-9,033	0,055	-0,027
-697,729	36,910	-0,053	0,035
-696,714	305,029	-0,032	0,045
-695,699	-14,516	-0,056	-0,027
-694,685	-55,563	-0,123	-0,041
-693,670	30,878	0,029	-0,018
-692,656	-27,520	-0,105	-0,045
-691,641	-66,871	-0,055	-0,016
-690,627	-53,018	0,017	-0,006
-689,612	-137,765	-0,107	-0,009
-688,597	-200,000	0,007	0,060
-687,583	88,768	-0,025	-0,021
-686,568	-200,000	-0,036	0,000
-685,554	-73,234	-0,221	-0,060
-684,539	-75,891	-0,086	0,023
-683,524	800,000	0,025	0,072
-682,510	800,000	0,038	0,107
-681,495	2,537	0,142	0,076
-680,481	-200,000	-0,010	-0,133
-679,466	194,237	-0,147	-0,166
-678,451	800,000	-0,026	-0,070
-677,437	800,000	0,010	-0,025
-676,422	800,000	-0,047	0,120
-675,408	-117,398	0,046	0,006
-674,393	35,872	0,077	0,050
-673,378	-50,853	-0,209	-0,073
-672,364	-200,000	0,030	-0,111
-671,349	61,590	0,021	0,016
-670,335	-200,000	-0,013	-0,049
-669,320	529,414	0,031	0,055
-668,305	273,597	0,025	-0,033
-667,291	-138,410	-0,084	-0,007
-666,276	-200,000	0,010	-0,061
-665,262	-172,991	-0,127	0,003
-664,247	721,984	0,095	-0,188
-663,232	57,139	0,022	-0,016
-662,218	308,959	0,081	-0,112
-661,203	-76,820	-0,084	0,022
-660,189	74,677	0,059	-0,046
-659,174	-200,000	0,033	0,141
-658,159	-96,457	0,134	-0,026
-657,145	11,689	-0,055	-0,031
-656,130	61,151	-0,062	0,045
-655,116	-200,000	-0,003	0,096
-654,101	-5,401	0,087	0,044
-653,086	85,762	0,084	0,068
-652,072	-59,606	-0,087	0,028
-651,057	-200,000	-0,020	-0,076
-650,043	333,273	0,020	0,029
-649,028	-200,000	-0,019	-0,176
-648,014	-200,000	0,008	0,102
-646,999	702,918	-0,062	0,122
-645,984	-161,618	-0,033	-0,001
-644,970	-200,000	0,014	0,138
-643,955	297,044	0,089	-0,122
-642,941	66,319	-0,057	-0,043
-641,926	800,000	0,018	0,038
-640,911	194,018	0,056	0,063
-639,897	426,703	0,023	0,036
-638,882	-200,000	0,009	-0,052
-637,868	-200,000	-0,014	-0,099
-636,853	-143,241	0,204	-0,014
-635,838	-37,874	0,026	-0,010
-634,824	198,807	-0,050	-0,057
-633,809	268,400	0,070	-0,091
-632,795	-200,000	-0,003	0,020
-631,780	287,650	0,073	0,098
-630,765	-22,850	-0,077	0,034
-629,751	-200,000	-0,008	-0,107
-628,736	12,653	-0,158	-0,090
-627,722	-58,637	0,084	0,027
-626,707	19,546	-0,104	-0,062
-625,692	-200,000	-0,006	0,038
-624,678	800,000	-0,013	0,034
-623,663	234,881	-0,040	0,049
-622,649	-200,000	0,017	-0,070
-621,634	194,985	-0,069	-0,078
-620,619	-144,351	-0,037	0,003
-619,605	-200,000	0,026	-0,093
-618,590	-14,870	0,105	-0,050
-617,576	-200,000	-0,006	-0,116
-616,561	800,000	0,046	-0,111
-615,546	148,834	-0,101	-0,101
-614,532	-200,000	-0,019	0,068
-613,517	-9,059	-0,126	0,062
-612,503	-200,000	-0,010	0,094
-611,488	-200,000	0,011	0,130
-610,474	43,252	-0,023	-0,016
-609,459	-187,703	0,122	0,001
-608,444	387,623	-0,034	0,053
-607,430	-81,629	-0,050	-0,012
-606,415	91,791	-0,047	-0,039
-605,401	800,000	-0,059	0,170
-604,386	-120,982	0,014	-0,002
-603,371	375,553	-0,022	-0,034
-602,357	73,722	0,071	-0,055
-601,342	445,948	-0,078	-0,128
-600,328	-9,819	-0,143	-0,070
-599,313	-10,027	0,092	0,045
-598,298	-22,965	0,032	0,014
-597,284	800,000	0,027	0,079
-596,269	431,477	0,046	0,074
-595,255	177,622	0,072	-0,078
-594,240	-138,417	-0,044	0,004
-593,225	-200,000	0,048	-0,179
-592,211	-200,000	0,021	-0,129
-591,196	-92,595	0,039	0,008
-590,182	800,000	0,030	0,087
-589,167	-200,000	-0,007	0,139
-588,152	-28,718	-0,035	0,015
-587,138	-200,000	0,001	-0,007
-586,123	330,210	-0,059	-0,085
-585,109	-136,978	-0,051	-0,004
-584,094	20,138	-0,100	-0,059
-583,079	33,851	0,144	0,092
-582,065	-200,000	0,002	0,100
-581,050	770,619	-0,036	0,073
-580,036	34,428	-0,043	-0,028
-579,021	578,963	0,031	-0,056
-578,006	214,540	-0,040	0,047
-576,992	152,097	-0,089	-0,090
-575,977	-130,366	0,121	-0,012
-574,963	-200,000	-0,024	-0,095
-573,948	595,531	-0,060	-0,110
-572,934	238,477	-0,059	-0,073
-571,919	-200,000	0,001	0,010
-570,904	-155,427	0,031	-0,001
-569,890	800,000	0,042	-0,101
-568,875	395,834	0,019	0,029
-567,861	-200,000	0,010	-0,061
-566,846	578,124	0,041	0,074
-565,831	-200,000	0,004	-0,089
-564,817	136,672	0,086	0,083
-563,802	-200,000	-0,018	0,060
-562,788	-27,174	0,056	-0,024
-561,773	71,123	0,044	-0,034
-560,758	800,000	0,034	0,090
-559,744	259,098	-0,028	-0,035
-558,729	-200,000	-0,094	0,000
-557,715	302,327	-0,080	-0,109
-556,700	800,000	0,016	0,034
-555,685	-118,257	-0,166	-0,022
-554,671	417,739	0,034	0,054
-553,656	-200,000	-0,013	0,088
-552,642	214,445	0,084	0,098
-551,627	26,754	0,127	0,078
-550,612	127,312	0,025	-0,024
-549,598	18,052	0,069	-0,041
-548,583	-200,000	-0,023	0,086
-547,569	96,097	0,108	0,091
-546,554	-99,266	0,049	0,009
-545,539	33,637	-0,103	-0,066
-544,525	607,174	0,045	0,084
-543,510	800,000	0,036	-0,092
-542,496	198,571	-0,009	-0,010
-541,481	-200,000	-0,005	-0,048
-540,466	-142,288	-0,065	-0,005
-539,452	-141,404	0,146	-0,011
-538,437	-59,592	0,060	0,019
-537,423	43,920	0,042	0,029
-536,408	300,782	-0,070	-0,096
-535,393	-52,889	0,129	-0,043
-534,379	800,000	0,042	-0,103
-533,364	-200,000	-0,009	-0,067
-532,350	147,796	0,031	0,031
-531,335	-200,000	0,022	-0,090
-530,321	253,241	0,126	-0,159
-529,306	800,000	-0,054	-0,159
-528,291	-136,105	0,162	-0,014
-527,277	-200,000	0,002	-0,100
-526,262	-200,000	-0,001	-0,078
-525,248	-69,114	0,057	0,016
-524,233	-128,099	-0,051	0,005
-523,218	316,493	0,026	-0,036
-522,204	251,812	0,023	-0,029
-521,189	-101,784	0,106	0,019
-520,175	-118,135	-0,162	0,021
-519,160	-200,000	-0,037	-0,242
-518,145	800,000	0,034	-0,074
-517,131	800,000	-0,008	0,019
-516,116	94,954	0,086	0,072
-515,102	800,000	0,033	-0,087
-514,087	800,000	-0,029	-0,076
-513,072	-43,739	-0,104	0,039
-512,058	507,587	-0,044	0,076
-511,043	800,000	-0,032	0,088
-510,029	134,614	0,032	-0,031
-509,014	-200,000	0,007	-0,029
-507,999	800,000	-0,035	-0,098
-506,985	800,000	-0,046	-0,106
-505,970	160,259	-0,052	-0,053
-504,956	-200,000	0,006	0,031
-503,941	8,827	0,070	-0,039
-502,926	374,802	0,033	0,050
-501,912	-129,797	0,019	-0,002
-500,897	800,000	0,047	0,098
-499,883	-200,000	0,033	0,131
-498,868	800,000	0,018	0,038
-497,853	-98,815	-0,178	0,033
-496,839	22,444	-0,117	0,070
-495,824	800,000	-0,014	-0,042
-494,810	-36,957	0,159	0,062
-493,795	800,000	0,046	0,097
-492,781	-200,000	-0,022	0,074
-491,766	-40,372	0,124	0,047
-490,751	-5,809	0,046	-0,023
-489,737	106,006	0,081	-0,071
-488,722	800,000	-0,013	0,032
-487,708	484,550	-0,019	0,031
-486,693	-200,000	0,003	0,021
-485,678	-200,000	0,012	-0,041
-484,664	-54,291	-0,146	-0,048
-483,649	-133,444	-0,115	-0,011
-482,635	-200,000	-0,004	0,137
-481,620	-30,246	-0,102	-0,042
-480,605	-117,667	-0,103	-0,014
-479,591	347,263	-0,064	0,094
-478,576	252,793	-0,020	0,025
-477,562	800,000	0,018	-0,038
-476,547	800,000	-0,064	0,162
-475,532	154,802	-0,028	0,029
-474,518	-41,780	-0,081	-0,030
-473,503	-200,000	-0,007	0,125
-472,489	223,402	-0,033	-0,039
-471,474	59,753	0,018	0,013
-470,459	-191,172	-0,094	0,001
-469,445	-32,817	0,080	-0,032
-468,430	-101,853	-0,097	-0,017
-467,416	800,000	-0,007	0,016
-466,401	800,000	-0,028	0,081
-465,386	-200,000	-0,000	0,153
-464,372	-200,000	0,027	-0,148
-463,357	800,000	-0,013	-0,029
-462,343	-137,110	-0,101	-0,008
-461,328	-200,000	0,012	0,063
-460,313	-70,417	0,101	-0,028
-459,299	-200,000	0,031	-0,121
-458,284	-140,505	0,099	0,007
-457,270	-61,137	0,151	0,047
-456,255	392,737	-0,063	-0,097
-455,241	-88,944	-0,162	-0,035
-454,226	-151,214	0,033	0,002
-453,211	59,722	-0,059	-0,043
-452,197	224,038	-0,099	0,118
-451,182	109,587	0,061	0,053
-450,168	-200,000	-0,005	-0,037
-449,153	340,002	0,067	0,097
-448,138	-90,602	-0,087	-0,018
-447,124	47,275	-0,052	-0,036
-446,109	107,532	-0,084	-0,074
-445,095	53,794	0,064	-0,045
-444,080	162,936	0,022	-0,023
-443,065	12,710	-0,035	-0,020
-442,051	800,000	-0,049	-0,099
-441,036	800,000	0,008	0,024
-440,022	-106,505	-0,021	0,003
-439,007	97,616	0,081	-0,068
-437,992	-35,631	0,051	0,020
-436,978	-102,312	-0,080	-0,014
-435,963	-63,849	0,099	0,030
-434,949	-13,745	-0,186	0,088
-433,934	-200,000	-0,009	-0,042
-432,919	494,859	0,111	-0,189
-431,905	128,012	-0,029	0,027
-430,890	49,081	0,044	-0,030
-429,876	36,231	-0,030	-0,019
-428,861	-120,036	-0,135	0,017
-427,846	800,000	-0,008	0,019
-426,832	800,000	-0,056	-0,143
-425,817	800,000	0,032	0,093
-424,803	295,338	0,122	-0,165
-423,788	-101,248	0,086	0,015
-422,773	35,377	0,030	-0,019
-421,759	65,246	0,094	0,070
-420,744	36,785	-0,150	-0,097
-419,730	152,311	-0,151	-0,152
-418,715	341,188	0,072	-0,104
-417,701	-200,000	-0,000	0,118
-416,686	124,814	-0,060	-0,055
-415,671	-200,000	-0,006	0,034
-414,657	800,000	-0,028	0,081
-413,642	119,673	0,031	0,029
-412,628	184,104	-0,041	0,044
-411,613	436,143	0,082	-0,132
-410,598	12,361	0,060	0,034
-409,584	-200,000	-0,002	-0,090
-408,569	85,941	0,173	0,140
-407,555	-200,000	-0,006	0,107
-406,540	-200,000	0,028	0,116
-405,525	-84,728	-0,033	-0,008
-404,511	-107,161	-0,071	0,011
-403,496	0,914	-0,057	0,030
-402,482	42,393	0,067	0,045
-401,467	-143,767	0,119	-0,008
-400,452	-63,263	0,053	-0,016
-399,438	800,000	-0,041	0,090
-398,423	-200,000	0,003	-0,030
-397,409	-200,000	0,037	-0,127
-396,394	35,961	-0,093	-0,060
-395,379	762,196	0,104	0,208
-394,365	75,031	-0,033	-0,026
-393,350	132,041	0,072	0,068
-392,336	429,428	-0,013	0,021
-391,321	56,416	0,042	-0,030
-390,306	-141,390	-0,225	0,016
-389,292	698,735	0,050	0,096
-388,277	36,202	0,128	0,083
-387,263	400,649	-0,029	0,044
-386,248	35,915	0,124	0,080
-385,233	800,000	-0,004	0,011
-384,219	173,292	-0,096	-0,102
-383,204	424,202	0,045	-0,071
-382,190	570,145	-0,037	-0,066
-381,175	597,251	0,045	0,081
-380,160	-14,218	-0,053	0,025
-379,146	-137,670	0,042	0,003
-378,131	-115,712	-0,064	0,009
-377,117	660,515	-0,009	0,018
-376,102	-7,151	0,091	0,045
-375,088	-44,432	-0,070	0,026
-374,073	-200,000	0,007	-0,081
-373,058	339,935	0,055	0,079
-372,044	-47,946	-0,069	-0,024
-371,029	800,000	-0,023	0,053
-370,015	800,000	-0,006	-0,015
-369,000	-200,000	0,050	-0,175
-367,985	-64,181	-0,158	0,047
-366,971	800,000	-0,013	0,030
-365,956	353,278	-0,021	0,030
-364,942	200,489	-0,041	0,046
-363,927	-121,067	0,105	-0,013
-362,912	-200,000	-0,008	0,037
-361,898	252,599	0,009	-0,011
-360,883	800,000	-0,019	0,042
-359,869	-200,000	-0,041	-0,157
-358,854	131,289	0,055	0,051
-357,839	240,795	0,047	0,057
-356,825	699,606	0,076	-0,148
-355,810	800,000	0,023	0,049
-354,796	364,049	-0,025	-0,037
-353,781	70,166	-0,057	-0,043
-352,766	-200,000	-0,001	0,087
-351,752	10,107	0,066	0,037
-350,737	-200,000	0,005	-0,134
-349,723	218,475	0,073	-0,085
-348,708	340,519	-0,045	-0,064
-347,693	269,754	-0,038	-0,049
-346,679	69,788	-0,101	0,077
-345,664	800,000	-0,035	-0,095
-344,650	-200,000	-0,009	0,051
-343,635	-158,495	-0,038	0,002
-342,620	230,068	-0,034	-0,041
-341,606	188,805	0,057	0,062
-340,591	800,000	0,049	-0,142
-339,577	-22,215	0,089	0,039
-338,562	800,000	-0,065	-0,161
-337,548	132,299	0,032	0,030
-336,533	-5,902	0,139	0,070
-335,518	-89,852	-0,133	0,028
-334,504	-106,792	-0,088	0,014
-333,489	210,642	-0,084	0,097
-332,475	450,532	0,010	-0,017
-331,460	126,138	-0,068	-0,063
-330,445	93,425	0,084	-0,070
-329,431	800,000	0,008	0,021
-328,416	245,733	0,042	0,051
-327,402	-80,623	-0,055	0,013
-326,387	361,500	0,049	-0,072
-325,372	28,826	-0,112	-0,069
-324,358	-200,000	-0,004	0,043
-323,343	589,310	0,037	-0,066
-322,329	-200,000	0,001	0,077
-321,314	240,016	0,042	0,051
-320,299	-29,434	0,123	0,051
-319,285	-117,769	-0,074	0,010
-318,270	624,043	-0,020	-0,036
-317,256	199,102	-0,059	-0,066
-316,241	763,733	0,074	0,148
-315,226	800,000	0,011	-0,034
-314,212	-200,000	0,022	-0,084
-313,197	710,306	0,010	0,019
-312,183	-200,000	0,008	-0,039
-311,168	800,000	-0,032	0,085
-310,153	800,000	-0,035	-0,085
-309,139	617,998	-0,027	0,050
-308,124	800,000	-0,040	-0,100
-307,110	26,946	0,087	0,053
-306,095	-121,931	0,141	0,017
-305,080	-156,763	-0,087	0,004
-304,066	689,019	-0,015	0,029
-303,051	51,187	0,041	-0,028
-302,037	-200,000	-0,006	-0,021
-301,022	800,000	-0,026	0,075
-300,008	36,702	0,197	0,127
-298,993	-86,775	0,106	-0,024
-297,978	-200,000	-0,000	0,027
-296,964	284,502	0,082	-0,108
-295,949	-129,041	0,076	-0,008
-294,935	343,275	-0,032	-0,046
-293,920	297,811	-0,068	0,092
-292,905	-200,000	0,023	0,199
-291,891	-200,000	0,005	-0,019
-290,876	158,732	0,018	0,019
-289,862	52,059	0,084	0,059
-288,847	-200,000	0,011	-0,151
-287,832	-200,000	-0,007	-0,058
-286,818	800,000	-0,024	-0,060
-285,803	111,020	-0,033	0,029
-284,789	680,002	-0,015	-0,029
-283,774	54,857	0,088	-0,062
-282,759	-200,000	0,001	0,034
-281,745	-200,000	0,016	0,124
-280,730	-200,000	-0,001	-0,085
-279,716	50,755	-0,099	0,069
-278,701	-200,000	0,034	0,125
-277,686	800,000	-0,015	0,045
-276,672	800,000	0,004	-0,012
-275,657	-200,000	0,013	-0,100
-274,643	15,925	-0,083	-0,048
-273,628	-18,302	-0,115	0,053
-272,613	-200,000	0,009	0,081
-271,599	-200,000	-0,019	-0,089
-270,584	-200,000	0,046	0,151
-269,570	-200,000	0,035	0,152
-268,555	410,024	0,034	-0,053
-267,540	-10,797	-0,106	0,051
-266,526	115,613	0,055	0,049
-265,511	160,053	-0,006	-0,006
-264,497	565,400	-0,060	0,108
-263,482	-91,812	0,083	0,017
-262,467	-200,000	0,019	0,165
-261,453	60,213	0,090	-0,065
-260,438	-200,000	-0,009	-0,064
-259,424	-200,000	0,008	-0,070
-258,409	800,000	-0,035	0,112
-257,395	-11,499	-0,108	-0,052
-256,380	-39,438	0,042	0,016
-255,365	325,727	0,097	0,136
-254,351	82,168	0,055	0,044
-253,336	-200,000	-0,002	-0,034
-252,322	-200,000	-0,010	0,038
-251,307	800,000	0,034	0,081
-250,292	254,118	0,034	0,043
-249,278	800,000	-0,028	0,086
-248,263	543,989	0,064	-0,112
-247,249	364,573	-0,068	0,101
-246,234	-19,925	0,014	-0,006
-245,219	87,208	-0,105	-0,084
-244,205	-200,000	0,009	-0,153
-243,190	432,881	0,021	-0,033
-242,176	44,957	-0,085	0,057
-241,161	-114,905	0,108	0,015
-240,146	228,538	-0,063	-0,075
-239,132	-169,025	0,135	0,004
-238,117	42,161	0,058	-0,038
-237,103	-53,269	-0,105	0,035
-236,088	-42,104	-0,162	0,060
-235,073	-76,232	0,105	0,027
-234,059	82,760	-0,048	0,038
-233,044	-107,533	-0,052	-0,008
-232,030	800,000	0,025	0,061
-231,015	-156,094	-0,047	-0,002
-230,000	-200,000	0,022	-0,096
-228,986	122,731	-0,076	0,069
-227,971	800,000	-0,033	0,078
-226,957	-200,000	0,020	-0,122
-225,942	-70,016	0,006	-0,002
-224,927	800,000	0,023	0,051
-223,913	379,129	-0,039	-0,058
-222,898	87,764	-0,127	-0,102
-221,884	-62,257	0,120	-0,036
-220,869	172,685	0,103	0,108
-219,855	20,666	0,093	-0,055
-218,840	33,574	0,072	-0,046
-217,825	83,911	-0,089	-0,071
-216,811	-200,000	0,011	-0,078
-215,796	3,962	0,123	-0,065
-214,782	147,707	0,012	-0,012
-213,767	156,345	0,028	0,028
-212,752	56,314	-0,034	0,024
-211,738	296,548	-0,080	0,107
-210,723	-200,000	0,016	-0,077
-209,709	-200,000	0,001	0,032
-208,694	208,649	-0,054	0,062
-207,679	-200,000	0,015	0,052
-206,665	349,182	-0,015	0,022
-205,650	723,256	0,072	0,141
-204,636	-5,772	0,128	0,064
-203,621	800,000	-0,036	0,102
-202,606	-126,053	-0,054	-0,006
-201,592	800,000	0,024	0,057
-200,577	-64,844	-0,072	0,021
-199,563	800,000	-0,038	0,078
-198,548	-66,372	0,092	-0,027
-197,533	-34,914	0,038	0,015
-196,519	-200,000	0,005	-0,056
-195,504	-200,000	0,003	-0,037
-194,490	-8,977	0,049	-0,024
-193,475	-200,000	-0,006	-0,174
-192,460	313,325	-0,069	-0,095
-191,446	58,645	-0,037	0,026
-190,431	207,560	0,122	0,139
-189,417	800,000	0,054	-0,151
-188,402	-29,928	-0,016	-0,007
-187,387	103,346	-0,122	-0,104
-186,373	-200,000	0,027	0,090
-185,358	-200,000	0,029	-0,101
-184,344	0,080	0,027	-0,014
-183,329	-105,899	0,083	0,013
-182,315	800,000	-0,040	0,084
-181,300	800,000	-0,050	0,153
-180,285	373,060	0,012	-0,018
-179,271	-200,000	-0,011	-0,074
-178,256	-200,000	-0,004	0,024
-177,242	-200,000	0,008	0,169
-176,227	738,577	-0,043	0,085
-175,212	-200,000	-0,007	0,118
-174,198	-200,000	-0,031	0,151
-173,183	470,039	0,005	0,007
-172,169	243,138	-0,086	-0,106
-171,154	463,391	-0,027	-0,045
-170,139	800,000	-0,054	-0,130
-169,125	-78,668	-0,055	0,013
-168,110	800,000	-0,071	0,174
-167,096	36,490	-0,029	-0,018
-166,081	-71,626	-0,109	-0,029
-165,066	800,000	0,009	-0,024
-164,052	-93,368	-0,063	-0,013
-163,037	-18,893	-0,104	0,047
-162,023	133,146	0,046	0,043
-161,008	-200,000	0,013	0,077
-159,993	146,446	0,216	0,211
-158,979	-200,000	-0,000	0,010
-157,964	-132,056	-0,143	-0,013
-156,950	-16,786	-0,092	-0,042
-155,935	519,809	-0,069	-0,118
-154,920	273,102	0,104	-0,133
-153,906	217,393	-0,024	0,028
-152,891	-14,992	-0,048	-0,022
-151,877	89,788	0,044	0,036
-150,862	-200,000	-0,008	-0,026
-149,847	251,898	-0,016	0,019
-148,833	-131,426	0,124	0,012
-147,818	-65,738	0,063	0,018
-146,804	203,988	-0,057	-0,065
-145,789	461,305	-0,091	-0,148
-144,775	-200,000	0,051	-0,169
-143,760	40,791	-0,044	-0,029
-142,745	154,596	0,047	0,047
-141,731	644,112	0,063	-0,117
-140,716	-200,000	0,007	-0,082
-139,702	-200,000	-0,026	0,084
-138,687	63,287	-0,173	0,126
-137,672	-97,873	0,099	-0,018
-136,658	-200,000	0,086	-0,000
-135,643	97,250	-0,092	-0,077
-134,629	302,749	-0,054	-0,073
-133,614	-3,527	-0,098	0,049
-132,599	-200,000	0,008	-0,137
-131,585	35,859	0,147	-0,094
-130,570	-200,000	-0,000	0,071
-129,556	623,840	-0,040	0,074
-128,541	718,193	0,035	-0,067
-127,526	800,000	-0,029	0,064
-126,512	-94,343	-0,078	0,015
-125,497	800,000	0,011	-0,032
-124,483	-106,978	0,064	0,010
-123,468	-66,168	0,061	-0,018
-122,453	-200,000	-0,012	-0,056
-121,439	569,880	-0,042	-0,074
-120,424	579,618	-0,031	-0,056
-119,410	303,659	-0,031	-0,041
