DTS Sentinel unit serial number:	SN410029Multiplexer serial number:	ORYXHardware model number:	OX2-SRSoftware version number:	ORYX F/W v4,00 Oryx Data Collector v3.7.2.0data status	okinstallation	B4 Nyhavnadifferential loss correction	single-endedforward channel	channel 2reverse channel	N/Adate	2023/12/15time	18:55:13forward acquisition time	300,00reverse acquisition time	0,00gamma	499,1914k internal	0,3138k external	0,3138temperature offset calibration	1,0000default loss term (dB/km)	0,3820temperature slope calibration	1,0000multiplexer offset coefficient	1,0000multiplexer slope coefficient	1,0000fibre end	0,00T internal ref (°C)	19,46T ext. ref 1 (°C)	5,45T ext. ref 2 (°C)	5,59length (m)	temperature (°C)	Stokes	anti-Stokes-744,400	-200,000	-0,008	0,088
-743,385	-88,749	-0,395	0,086
-742,371	-89,471	0,226	0,049
-741,356	-68,855	-0,251	0,071
-740,342	-138,003	0,059	0,005
-739,327	-60,832	-0,147	0,046
-738,312	-45,996	0,097	-0,035
-737,298	-94,239	-0,243	-0,049
-736,283	-111,183	0,182	0,027
-735,269	156,178	-0,188	0,192
-734,254	413,273	0,038	-0,060
-733,239	-53,586	-0,391	-0,132
-732,225	-31,784	0,157	0,065
-731,210	800,000	0,055	0,127
-730,196	720,187	-0,058	0,115
-729,181	-80,298	-0,150	-0,037
-728,167	800,000	-0,027	-0,074
-727,152	80,723	-0,132	-0,106
-726,137	32,965	0,105	-0,067
-725,123	-200,000	-0,047	-0,179
-724,108	-200,000	0,008	-0,094
-723,094	-200,000	-0,005	-0,147
-722,079	-200,000	-0,025	-0,147
-721,064	63,411	-0,102	-0,076
-720,050	-4,389	0,166	-0,085
-719,035	-200,000	-0,005	0,062
-718,021	-161,371	-0,131	-0,005
-717,006	-45,982	-0,127	-0,046
-715,991	-96,014	-0,024	-0,005
-714,977	170,517	-0,085	-0,091
-713,962	-0,258	-0,108	-0,057
-712,948	88,321	0,139	0,114
-711,933	-101,168	-0,115	-0,021
-710,918	-200,000	-0,013	0,090
-709,904	-27,927	-0,084	-0,036
-708,889	800,000	-0,039	-0,103
-707,875	-200,000	-0,045	-0,164
-706,860	66,157	-0,025	0,019
-705,845	-139,417	-0,060	-0,005
-704,831	76,328	0,146	0,114
-703,816	-200,000	-0,025	0,110
-702,802	-10,319	-0,155	-0,076
-701,787	-200,000	0,039	-0,195
-700,772	59,021	0,024	-0,018
-699,758	663,408	0,044	0,085
-698,743	-57,865	-0,085	-0,027
-697,729	642,371	0,022	0,041
-696,714	626,349	-0,051	-0,095
-695,699	-200,000	-0,017	-0,084
-694,685	-19,373	-0,073	-0,034
-693,670	87,224	0,059	-0,048
-692,656	800,000	-0,007	-0,020
-691,641	-200,000	-0,002	-0,057
-690,627	-7,679	0,076	0,038
-689,612	-119,081	0,106	-0,014
-688,597	-200,000	-0,026	0,097
-687,583	-128,850	-0,135	0,014
-686,568	258,043	-0,055	-0,071
-685,554	34,513	0,120	0,077
-684,539	51,404	-0,069	0,049
-683,524	-25,385	0,046	-0,020
-682,510	-13,601	0,041	0,019
-681,495	-1,492	0,118	-0,061
-680,481	448,867	-0,115	-0,188
-679,466	-162,770	0,115	-0,004
-678,451	-23,246	-0,097	-0,043
-677,437	308,044	0,049	-0,067
-676,422	262,767	0,032	0,041
-675,408	800,000	-0,006	0,018
-674,393	0,811	-0,059	-0,031
-673,378	106,961	-0,046	-0,041
-672,364	-62,868	0,122	-0,037
-671,349	561,485	0,011	-0,021
-670,335	-19,549	0,078	-0,036
-669,320	-200,000	0,000	0,060
-668,305	49,935	0,041	-0,029
-667,291	-150,403	0,039	0,002
-666,276	763,271	-0,046	0,094
-665,262	440,653	-0,108	-0,176
-664,247	-153,671	-0,071	0,004
-663,232	-8,736	-0,051	-0,025
-662,218	-74,753	-0,119	0,031
-661,203	222,434	-0,039	0,046
-660,189	251,494	0,028	-0,036
-659,174	-67,330	-0,052	0,015
-658,159	800,000	0,043	0,106
-657,145	333,746	-0,060	-0,086
-656,130	800,000	-0,024	-0,074
-655,116	-50,252	0,088	-0,031
-654,101	800,000	-0,025	-0,054
-653,086	-200,000	-0,002	-0,036
-652,072	-137,948	-0,073	0,006
-651,057	362,835	-0,039	-0,058
-650,043	91,422	0,047	-0,039
-649,028	-200,000	-0,029	-0,147
-648,014	-135,311	0,067	0,006
-646,999	-200,000	0,011	0,082
-645,984	772,962	0,059	0,120
-644,970	-200,000	0,017	-0,056
-643,955	800,000	0,030	-0,086
-642,941	-36,303	-0,055	-0,022
-641,926	273,877	-0,101	0,133
-640,911	751,955	0,042	0,084
-639,897	-200,000	-0,001	0,045
-638,882	43,391	0,081	0,054
-637,868	800,000	-0,017	-0,052
-636,853	-200,000	-0,019	-0,100
-635,838	-161,394	-0,121	-0,005
-634,824	800,000	-0,036	0,076
-633,809	-31,890	0,079	-0,033
-632,795	-22,285	0,032	-0,014
-631,780	438,629	-0,047	-0,076
-630,765	-103,841	0,064	-0,011
-629,751	714,303	0,031	-0,062
-628,736	800,000	-0,055	-0,116
-627,722	-4,326	-0,035	-0,018
-626,707	-200,000	0,036	-0,132
-625,692	243,476	0,074	-0,092
-624,678	-200,000	0,018	-0,060
-623,663	-37,737	-0,035	-0,014
-622,649	-160,466	0,062	0,002
-621,634	5,648	0,178	-0,097
-620,619	800,000	-0,043	-0,122
-619,605	-147,676	0,101	-0,006
-618,590	800,000	0,048	0,139
-617,576	176,522	-0,053	-0,056
-616,561	-75,580	-0,067	-0,017
-615,546	-23,419	-0,136	-0,060
-614,532	214,026	0,063	-0,074
-613,517	800,000	0,038	0,108
-612,503	255,771	-0,067	0,084
-611,488	298,694	0,070	0,096
-610,474	20,411	0,026	-0,015
-609,459	108,315	0,033	0,029
-608,444	-159,889	-0,111	-0,004
-607,430	-133,967	-0,075	-0,007
-606,415	-100,358	-0,117	-0,021
-605,401	-32,911	-0,063	0,026
-604,386	163,628	-0,068	0,070
-603,371	32,045	0,053	-0,033
-602,357	-130,981	0,137	0,013
-601,342	82,503	-0,023	0,018
-600,328	205,753	0,039	-0,045
-599,313	800,000	0,010	0,022
-598,298	357,359	0,049	-0,073
-597,284	-65,817	-0,048	0,014
-596,269	-60,286	0,160	0,050
-595,255	111,125	0,048	-0,042
-594,240	161,329	0,099	-0,102
-593,225	373,200	-0,104	-0,157
-592,211	-200,000	0,026	-0,095
-591,196	41,253	0,065	0,043
-590,182	393,764	-0,048	0,074
-589,167	169,026	0,105	-0,111
-588,152	-200,000	-0,038	-0,147
-587,138	-200,000	-0,020	0,117
-586,123	147,412	-0,091	0,091
-585,109	118,915	0,077	0,070
-584,094	10,845	-0,082	0,046
-583,079	-200,000	0,010	-0,077
-582,065	97,794	0,122	0,103
-581,050	-0,625	0,004	-0,002
-580,036	-53,046	-0,093	-0,032
-579,021	-200,000	0,003	-0,063
-578,006	688,959	-0,037	0,071
-576,992	-200,000	-0,011	-0,065
-575,977	532,562	0,051	0,090
-574,963	800,000	-0,035	0,104
-573,948	8,007	0,037	-0,020
-572,934	-200,000	0,011	0,043
-571,919	800,000	0,038	-0,122
-570,904	51,418	0,077	-0,054
-569,890	-200,000	0,008	-0,097
-568,875	-197,290	0,093	-0,000
-567,861	210,291	-0,071	-0,082
-566,846	-200,000	0,011	-0,144
-565,831	81,069	-0,062	0,049
-564,817	800,000	-0,009	-0,024
-563,802	270,900	-0,104	0,135
-562,788	-163,679	-0,083	0,003
-561,773	494,189	-0,038	-0,065
-560,758	710,723	0,027	0,052
-559,744	-148,104	0,184	0,011
-558,729	183,508	-0,066	0,072
-557,715	-31,987	0,055	-0,022
-556,700	-186,882	-0,074	-0,001
-555,685	-200,000	0,048	-0,196
-554,671	65,561	0,089	-0,066
-553,656	-200,000	0,034	0,150
-552,642	38,175	0,074	-0,049
-551,627	-200,000	-0,001	-0,007
-550,612	-166,502	-0,158	0,005
-549,598	800,000	0,004	-0,012
-548,583	-163,442	-0,085	0,003
-547,569	50,306	-0,142	0,099
-546,554	-200,000	0,013	-0,055
-545,539	800,000	0,025	-0,068
-544,525	-72,956	-0,023	-0,006
-543,510	701,243	-0,045	-0,087
-542,496	-200,000	-0,001	-0,086
-541,481	70,777	-0,090	-0,069
-540,466	269,126	-0,016	0,020
-539,452	-164,491	-0,014	0,000
-538,437	800,000	0,013	0,041
-537,423	-147,153	-0,076	0,005
-536,408	47,356	0,037	-0,025
-535,393	248,789	0,036	0,045
-534,379	66,241	0,024	-0,018
-533,364	-84,152	0,062	0,014
-532,350	-200,000	-0,016	-0,070
-531,335	-31,279	0,130	0,054
-530,321	148,398	0,074	0,074
-529,306	46,113	0,101	-0,069
-528,291	20,619	-0,139	0,083
-527,277	800,000	0,045	-0,122
-526,262	80,900	-0,046	-0,036
-525,248	164,169	-0,036	0,038
-524,233	-80,674	0,153	-0,037
-523,218	-11,210	-0,201	-0,097
-522,204	-200,000	0,039	-0,138
-521,189	-200,000	-0,010	0,058
-520,175	415,374	-0,050	0,079
-519,160	800,000	0,064	-0,142
-518,145	-47,456	0,077	-0,027
-517,131	-200,000	0,015	0,077
-516,116	63,218	-0,050	0,037
-515,102	67,661	0,092	0,069
-514,087	248,066	0,082	-0,102
-513,072	-60,910	0,050	-0,016
-512,058	-200,000	-0,020	-0,176
-511,043	800,000	-0,030	0,078
-510,029	60,621	-0,055	0,040
-509,014	800,000	-0,032	-0,075
-507,999	267,538	-0,039	-0,050
-506,985	-7,039	0,074	-0,037
-505,970	321,704	0,057	-0,080
-504,956	-200,000	0,008	-0,099
-503,941	346,255	-0,006	-0,009
-502,926	173,892	-0,068	0,073
-501,912	-181,309	0,093	0,001
-500,897	-200,000	0,005	0,043
-499,883	-47,785	-0,096	0,034
-498,868	-200,000	0,005	-0,060
-497,853	800,000	-0,034	0,089
-496,839	800,000	0,012	-0,028
-495,824	25,061	0,080	-0,049
-494,810	-200,000	0,003	0,053
-493,795	-62,733	0,127	0,038
-492,781	-200,000	-0,028	-0,121
-491,766	234,202	0,029	-0,036
-490,751	-4,354	-0,107	-0,054
-489,737	38,116	0,129	0,084
-488,722	800,000	-0,068	0,170
-487,708	187,233	0,029	0,032
-486,693	-112,908	0,055	0,008
-485,678	200,087	-0,040	-0,045
-484,664	800,000	-0,042	0,122
-483,649	-70,563	-0,114	0,032
-482,635	135,793	-0,059	0,056
-481,620	220,704	-0,042	0,050
-480,605	41,224	-0,007	0,005
-479,591	-200,000	0,046	0,187
-478,576	782,856	0,051	0,104
-477,562	458,921	-0,068	0,111
-476,547	-150,538	-0,058	-0,003
-475,532	119,251	-0,102	-0,093
-474,518	-200,000	-0,009	-0,089
-473,503	-200,000	0,061	0,201
-472,489	-69,061	-0,047	0,013
-471,474	-98,824	0,028	0,005
-470,459	-200,000	-0,023	-0,118
-469,445	800,000	-0,046	-0,117
-468,430	-146,171	0,019	0,001
-467,416	161,056	-0,111	-0,114
-466,401	90,355	0,032	-0,026
-465,386	671,920	-0,048	0,091
-464,372	238,250	-0,038	0,046
-463,357	20,289	-0,162	-0,096
-462,343	305,501	-0,074	0,101
-461,328	-200,000	0,001	-0,080
-460,313	-43,547	-0,062	0,023
-459,299	-200,000	-0,039	-0,126
-458,284	-106,246	0,072	0,012
-457,270	102,171	0,079	0,068
-456,255	13,753	-0,078	0,044
-455,241	-200,000	0,043	-0,170
-454,226	-200,000	0,004	-0,093
-453,211	-155,580	0,058	-0,003
-452,197	-124,278	-0,038	-0,004
-451,182	-200,000	0,004	-0,066
-450,168	68,416	-0,074	0,056
-449,153	-200,000	0,026	0,105
-448,138	64,773	-0,024	-0,017
-447,124	-200,000	0,002	-0,084
-446,109	12,196	-0,154	0,087
-445,095	197,542	0,125	0,140
-444,080	800,000	-0,045	-0,137
-443,065	-200,000	0,031	0,156
-442,051	257,760	-0,094	-0,119
-441,036	473,265	-0,010	-0,017
-440,022	-200,000	-0,006	-0,025
-439,007	800,000	0,031	0,067
-437,992	-11,962	0,182	-0,087
-436,978	-108,040	-0,095	0,015
-435,963	-161,081	0,111	-0,004
-434,949	428,730	-0,106	0,168
-433,934	149,373	-0,070	0,070
-432,919	16,011	-0,006	0,003
-431,905	800,000	0,020	-0,057
-430,890	800,000	0,061	0,154
-429,876	-61,862	0,107	0,033
-428,861	800,000	-0,012	0,037
-427,846	-14,410	-0,110	-0,052
-426,832	-200,000	0,003	0,079
-425,817	75,104	0,083	-0,064
-424,803	504,450	0,093	0,158
-423,788	444,102	-0,107	-0,173
-422,773	655,382	0,041	0,078
-421,759	800,000	-0,022	-0,057
-420,744	-200,000	0,009	-0,091
-419,730	-200,000	-0,008	-0,038
-418,715	-80,175	-0,120	-0,029
-417,701	-200,000	-0,039	0,132
-416,686	800,000	0,059	0,177
-415,671	260,345	-0,030	-0,038
-414,657	-200,000	0,009	-0,109
-413,642	200,466	-0,030	-0,033
-412,628	-200,000	0,012	-0,106
-411,613	362,441	-0,061	-0,090
-410,598	-17,294	0,107	-0,049
-409,584	7,238	-0,019	-0,010
-408,569	445,001	-0,017	0,027
-407,555	-36,221	0,041	0,016
-406,540	800,000	0,034	0,110
-405,525	-27,461	0,090	0,038
-404,511	-11,587	-0,063	-0,030
-403,496	88,449	-0,105	0,085
-402,482	-200,000	0,033	-0,142
-401,467	-200,000	-0,022	0,117
-400,452	54,214	-0,119	-0,084
-399,438	299,153	0,022	0,030
-398,423	167,793	-0,109	-0,113
-397,409	283,919	-0,055	-0,073
-396,394	331,642	0,079	-0,111
-395,379	-200,000	-0,010	-0,106
-394,365	-66,253	-0,163	0,047
-393,350	-200,000	0,037	0,154
-392,336	249,825	-0,051	0,064
-391,321	35,063	-0,100	-0,064
-390,306	-120,750	-0,036	0,004
-389,292	800,000	0,041	-0,087
-388,277	800,000	-0,046	-0,107
-387,263	-124,386	0,069	0,008
-386,248	405,759	0,029	0,044
-385,233	800,000	-0,021	-0,058
-384,219	-200,000	0,001	-0,032
-383,204	474,221	0,040	-0,067
-382,190	-200,000	-0,017	-0,074
-381,175	800,000	0,047	0,111
-380,160	381,348	0,031	0,047
-379,146	88,752	-0,032	-0,026
-378,131	-200,000	0,124	0,000
-377,117	-58,517	-0,078	-0,025
-376,102	-199,645	-0,093	0,000
-375,088	120,494	0,108	-0,098
-374,073	545,283	0,079	-0,139
-373,058	6,393	0,026	-0,014
-372,044	187,741	-0,056	0,061
-371,029	800,000	0,019	0,044
-370,015	-47,816	0,149	0,052
-369,000	114,437	-0,079	-0,070
-367,985	-6,333	-0,111	-0,055
-366,971	-65,664	-0,056	-0,016
-365,956	95,187	0,024	0,020
-364,942	-102,627	-0,022	-0,004
-363,927	-113,201	-0,055	-0,008
-362,912	-92,258	-0,084	-0,017
-361,898	-68,589	0,128	0,036
-360,883	800,000	-0,039	0,117
-359,869	216,795	-0,019	0,022
-358,854	-131,913	-0,095	-0,009
-357,839	800,000	-0,021	-0,062
-356,825	97,835	-0,099	0,083
-355,810	299,893	-0,029	-0,039
-354,796	-108,262	-0,054	0,008
-353,781	-12,537	0,041	0,020
-352,766	-43,061	-0,092	0,034
-351,752	800,000	-0,046	0,141
-350,737	345,342	-0,055	0,079
-349,723	83,917	0,045	0,036
-348,708	17,035	0,042	-0,024
-347,693	29,817	-0,085	0,053
-346,679	103,991	-0,119	-0,102
-345,664	-99,974	-0,095	-0,017
-344,650	-162,368	0,060	-0,002
-343,635	-200,000	0,001	-0,055
-342,620	359,633	0,084	0,123
-341,606	-200,000	0,011	0,200
-340,591	-200,000	-0,015	-0,089
-339,577	-200,000	0,003	0,039
-338,562	800,000	0,037	-0,085
-337,548	-200,000	-0,003	-0,084
-336,533	98,229	-0,096	-0,081
-335,518	-107,397	0,044	0,007
-334,504	-34,721	-0,118	-0,047
-333,489	-200,000	0,010	0,083
-332,475	-29,654	-0,100	-0,041
-331,460	9,224	0,074	0,041
-330,445	479,077	-0,049	0,082
-329,431	-75,677	0,053	0,014
-328,416	800,000	-0,033	0,067
-327,402	97,532	-0,059	-0,050
-326,387	57,476	-0,034	-0,024
-325,372	-85,016	-0,118	-0,027
-324,358	36,847	-0,068	0,044
-323,343	188,792	0,073	-0,080
-322,329	245,174	0,058	0,071
-321,314	800,000	-0,034	0,082
-320,299	-99,888	-0,141	0,026
-319,285	206,133	0,079	0,090
-318,270	82,415	-0,051	-0,041
-317,256	800,000	-0,019	0,052
-316,241	800,000	0,041	-0,089
-315,226	-200,000	0,013	-0,075
-314,212	264,928	0,083	0,106
-313,197	145,203	-0,060	-0,059
-312,183	-200,000	0,023	-0,083
-311,168	95,427	-0,033	-0,028
-310,153	-134,743	0,018	0,002
-309,139	-200,000	0,017	-0,179
-308,124	265,312	0,013	0,017
-307,110	-129,170	0,174	0,018
-306,095	-200,000	0,002	0,032
-305,080	227,994	0,067	0,080
-304,066	36,238	-0,040	0,025
-303,051	-60,490	-0,098	-0,030
-302,037	800,000	0,022	-0,065
-301,022	249,559	-0,062	-0,077
-300,008	-200,000	-0,017	0,136
-298,993	-74,675	0,035	0,009
-297,978	-17,882	0,117	0,053
-296,964	-53,553	-0,062	-0,021
-295,949	-200,000	0,000	0,030
-294,935	108,169	0,034	0,029
-293,920	119,825	0,041	0,037
-292,905	152,405	0,088	-0,087
-291,891	-124,374	0,121	0,014
-290,876	469,917	0,031	0,051
-289,862	261,817	-0,019	0,024
-288,847	-200,000	0,001	-0,075
-287,832	40,636	-0,135	-0,089
-286,818	239,552	0,078	-0,094
-285,803	-31,581	0,056	-0,023
-284,789	80,381	-0,207	-0,162
-283,774	197,218	-0,019	0,021
-282,759	-146,712	-0,059	-0,004
-281,745	-200,000	0,025	-0,148
-280,730	106,434	-0,085	-0,073
-279,716	156,098	-0,058	-0,058
-278,701	-200,000	-0,032	0,126
-277,686	-157,506	0,019	-0,001
-276,672	244,146	-0,027	-0,033
-275,657	-62,356	-0,052	-0,016
-274,643	58,651	0,125	-0,089
-273,628	-200,000	-0,007	0,031
-272,613	-39,100	0,101	-0,038
-271,599	67,111	0,108	-0,080
-270,584	403,076	0,129	0,199
-269,570	-200,000	-0,004	0,084
-268,555	81,173	-0,039	0,031
-267,540	-200,000	-0,016	-0,102
-266,526	49,084	-0,027	-0,018
-265,511	532,134	0,054	0,093
-264,497	107,882	-0,006	0,005
-263,482	186,086	0,089	0,096
-262,467	-200,000	0,006	0,073
-261,453	800,000	0,045	-0,100
-260,438	206,962	0,059	-0,067
-259,424	-200,000	-0,023	-0,107
-258,409	279,625	-0,056	-0,073
-257,395	-146,752	0,058	0,004
-256,380	-21,747	0,064	-0,028
-255,365	-28,827	-0,108	-0,045
-254,351	-200,000	0,003	-0,074
-253,336	-200,000	-0,007	0,124
-252,322	47,513	-0,033	0,022
-251,307	800,000	0,065	0,155
-250,292	374,494	0,082	0,122
-249,278	-200,000	-0,008	0,246
-248,263	-200,000	0,016	0,087
-247,249	624,265	0,063	0,116
-246,234	747,302	0,020	-0,039
-245,219	-125,852	-0,086	0,009
-244,205	800,000	-0,053	-0,112
-243,190	-46,878	0,066	0,023
-242,176	-67,009	0,157	0,045
-241,161	-200,000	0,045	0,146
-240,146	105,550	-0,064	0,055
-239,132	-200,000	0,032	-0,115
-238,117	-25,787	-0,086	0,037
-237,103	708,734	-0,010	0,019
-236,088	7,261	-0,066	-0,036
-235,073	-170,224	-0,151	0,004
-234,059	413,098	0,037	0,058
-233,044	0,526	0,075	0,039
-232,030	800,000	0,039	-0,098
-231,015	74,861	-0,071	-0,055
-230,000	-200,000	-0,010	-0,098
-228,986	268,284	-0,060	0,077
-227,971	-200,000	-0,017	0,088
-226,957	-88,228	0,177	0,038
-225,942	198,580	-0,028	-0,031
-224,927	800,000	0,054	-0,148
-223,913	-58,132	-0,128	0,040
-222,898	151,445	-0,086	0,085
-221,884	-51,318	0,040	-0,014
-220,869	264,175	0,145	0,184
-219,855	-145,911	0,131	-0,008
-218,840	35,940	-0,039	-0,025
-217,825	389,283	-0,038	-0,058
-216,811	23,726	0,076	-0,045
-215,796	-63,800	-0,154	0,046
-214,782	136,960	0,125	0,119
-213,767	-76,233	-0,042	0,011
-212,752	-200,000	-0,036	0,124
-211,738	-27,021	-0,037	0,016
-210,723	-4,831	0,185	-0,092
-209,709	-200,000	0,010	0,115
-208,694	21,714	0,136	-0,080
-207,679	221,305	-0,006	-0,007
-206,665	26,285	0,150	0,091
-205,650	-200,000	-0,003	0,104
-204,636	50,974	0,040	0,028
-203,621	-200,000	0,014	0,105
-202,606	-15,079	0,065	0,030
-201,592	293,491	-0,070	-0,093
-200,577	-0,664	0,134	0,069
-199,563	-200,000	-0,002	0,111
-198,548	800,000	0,023	-0,049
-197,533	219,834	-0,127	0,148
-196,519	800,000	0,012	-0,029
-195,504	800,000	0,013	-0,036
-194,490	-200,000	0,023	0,088
-193,475	800,000	0,055	-0,116
-192,460	-116,241	-0,057	-0,008
-191,446	430,606	-0,033	0,052
-190,431	800,000	-0,021	0,066
-189,417	281,278	0,061	0,079
-188,402	30,343	-0,081	-0,050
-187,387	-5,966	-0,105	-0,052
-186,373	12,700	-0,081	0,045
-185,358	164,264	-0,033	0,034
-184,344	-151,872	0,097	-0,005
-183,329	-103,477	0,150	-0,025
-182,315	-146,153	0,152	0,010
-181,300	-12,414	-0,167	0,079
-180,285	-102,059	0,059	0,010
-179,271	-29,514	0,040	-0,017
-178,256	800,000	-0,029	0,080
-177,242	316,186	0,029	0,040
-176,227	-38,688	0,041	0,016
-175,212	800,000	0,039	0,098
-174,198	800,000	-0,033	-0,093
-173,183	-134,363	0,025	0,002
-172,169	32,701	0,041	-0,026
-171,154	-200,000	0,004	0,019
-170,139	17,542	0,076	-0,044
-169,125	130,769	-0,107	-0,100
-168,110	-200,000	-0,005	0,150
-167,096	800,000	0,024	0,052
-166,081	800,000	-0,030	0,063
-165,066	-200,000	0,020	0,074
-164,052	5,169	-0,042	0,023
-163,037	488,507	0,031	-0,051
-162,023	-118,006	0,115	-0,015
-161,008	800,000	-0,022	0,045
-159,993	422,004	-0,096	0,150
-158,979	-111,955	0,125	-0,018
-157,964	800,000	-0,047	-0,113
-156,950	14,003	0,091	0,051
-155,935	346,315	0,041	0,059
-154,920	800,000	-0,011	0,025
-153,906	334,171	0,080	-0,113
-152,891	688,838	-0,044	-0,084
-151,877	800,000	0,022	-0,070
-150,862	-35,256	-0,155	-0,061
-149,847	105,523	0,074	0,064
-148,833	191,640	-0,024	-0,027
-147,818	215,591	0,089	0,103
-146,804	475,874	0,030	0,050
-145,789	800,000	0,016	-0,044
-144,775	-200,000	0,007	-0,158
-143,760	-17,929	-0,040	0,018
-142,745	-156,804	-0,069	0,003
-141,731	-53,984	0,095	-0,031
-140,716	800,000	-0,027	-0,065
-139,702	-19,699	0,087	-0,039
-138,687	800,000	-0,015	0,038
-137,672	800,000	0,010	0,029
-136,658	-53,910	-0,010	0,003
-135,643	-54,487	-0,101	0,033
-134,629	161,611	0,042	-0,042
-133,614	297,896	0,066	0,088
-132,599	110,835	-0,102	0,089
-131,585	800,000	0,010	0,031
-130,570	-55,841	-0,071	-0,023
-129,556	-200,000	0,001	0,004
-128,541	561,204	0,020	-0,036
-127,526	-200,000	-0,034	-0,152
-126,512	-155,800	0,112	0,005
-125,497	-84,987	0,068	0,015
-124,483	-93,402	0,131	0,026
-123,468	-27,663	-0,036	0,015
-122,453	-61,486	-0,110	0,033
-121,439	96,191	0,106	0,087
-120,424	62,801	-0,076	-0,055
-119,410	345,695	0,055	0,078
