DTS Sentinel unit serial number:	SN410029Multiplexer serial number:	ORYXHardware model number:	OX2-SRSoftware version number:	ORYX F/W v4,00 Oryx Data Collector v3.7.2.0data status	okinstallation	B4 Nyhavnadifferential loss correction	single-endedforward channel	channel 2reverse channel	N/Adate	2023/12/16time	05:10:13forward acquisition time	300,00reverse acquisition time	0,00gamma	499,1914k internal	0,3127k external	0,3127temperature offset calibration	1,0000default loss term (dB/km)	0,3820temperature slope calibration	1,0000multiplexer offset coefficient	1,0000multiplexer slope coefficient	1,0000fibre end	0,00T internal ref (°C)	22,07T ext. ref 1 (°C)	7,31T ext. ref 2 (°C)	7,46length (m)	temperature (°C)	Stokes	anti-Stokes-744,400	-111,036	0,144	-0,022
-743,385	-134,918	-0,178	0,016
-742,371	257,487	0,071	0,091
-741,356	-75,729	-0,221	0,058
-740,342	342,559	0,044	-0,064
-739,327	-6,612	-0,308	0,155
-738,312	-141,668	0,108	0,008
-737,298	-11,917	-0,133	0,065
-736,283	103,072	0,058	0,050
-735,269	-196,957	-0,105	0,000
-734,254	-6,189	0,073	0,037
-733,239	-71,912	-0,348	-0,096
-732,225	-49,626	0,146	-0,051
-731,210	53,145	0,136	0,097
-730,196	356,310	-0,038	0,056
-729,181	257,430	0,025	-0,032
-728,167	311,777	0,082	-0,115
-727,152	-41,349	-0,110	-0,042
-726,137	-51,600	0,034	-0,012
-725,123	-200,000	0,001	-0,183
-724,108	-7,546	-0,120	-0,060
-723,094	-200,000	-0,018	-0,130
-722,079	-200,000	-0,012	-0,155
-721,064	-19,991	-0,129	-0,059
-720,050	180,377	-0,061	0,067
-719,035	30,876	-0,119	-0,076
-718,021	800,000	0,037	-0,115
-717,006	800,000	-0,018	-0,052
-715,991	89,460	-0,057	-0,047
-714,977	101,944	0,058	0,050
-713,962	800,000	-0,062	-0,155
-712,948	-200,000	0,009	0,140
-711,933	-116,973	0,056	-0,008
-710,918	-103,262	0,130	-0,023
-709,904	432,473	0,029	-0,046
-708,889	-37,834	-0,149	-0,059
-707,875	9,005	0,020	0,011
-706,860	-7,364	-0,054	-0,027
-705,845	-200,000	0,000	-0,056
-704,831	-200,000	0,009	-0,053
-703,816	109,468	-0,093	-0,083
-702,802	-151,471	-0,029	0,002
-701,787	-1,307	0,022	-0,011
-700,772	325,767	0,016	0,023
-699,758	-200,000	0,010	0,044
-698,743	-9,644	-0,109	0,054
-697,729	-200,000	-0,015	-0,050
-696,714	-200,000	-0,006	-0,093
-695,699	-58,942	0,016	0,005
-694,685	-163,333	-0,085	0,003
-693,670	123,856	-0,006	0,005
-692,656	600,918	-0,066	0,122
-691,641	-200,000	-0,005	-0,027
-690,627	-38,809	-0,041	0,016
-689,612	800,000	-0,058	0,138
-688,597	800,000	-0,010	-0,032
-687,583	112,817	0,135	-0,122
-686,568	49,538	0,089	0,062
-685,554	310,373	-0,052	-0,073
-684,539	91,243	0,096	-0,080
-683,524	117,948	0,045	0,041
-682,510	-200,000	-0,017	-0,074
-681,495	-200,000	-0,038	-0,165
-680,481	-200,000	-0,006	-0,171
-679,466	504,337	0,018	0,032
-678,451	-69,562	-0,108	0,031
-677,437	159,765	0,027	0,028
-676,422	800,000	-0,024	-0,057
-675,408	257,293	0,034	0,044
-674,393	161,648	0,012	-0,013
-673,378	627,287	0,038	-0,071
-672,364	-200,000	-0,004	0,065
-671,349	438,531	0,080	-0,130
-670,335	-74,077	-0,107	-0,029
-669,320	118,119	0,079	0,073
-668,305	-85,048	-0,128	-0,029
-667,291	-16,088	0,073	0,034
-666,276	-163,242	0,150	-0,005
-665,262	93,267	-0,043	-0,036
-664,247	-76,053	-0,098	-0,026
-663,232	-200,000	-0,000	0,129
-662,218	55,709	0,071	0,051
-661,203	5,004	-0,148	0,080
-660,189	755,172	0,045	0,091
-659,174	-200,000	-0,021	-0,145
-658,159	177,477	0,099	-0,108
-657,145	800,000	-0,012	-0,032
-656,130	293,300	0,066	0,089
-655,116	800,000	0,041	0,132
-654,101	800,000	0,061	-0,162
-653,086	-43,494	-0,133	-0,050
-652,072	-166,910	-0,118	0,004
-651,057	800,000	0,016	-0,053
-650,043	247,541	-0,068	-0,085
-649,028	800,000	-0,038	0,109
-648,014	92,390	-0,037	-0,031
-646,999	304,543	0,074	0,103
-645,984	800,000	0,014	0,036
-644,970	-200,000	-0,008	0,041
-643,955	204,161	-0,064	-0,074
-642,941	192,801	-0,117	-0,131
-641,926	155,122	0,035	0,036
-640,911	-200,000	0,010	-0,151
-639,897	486,933	-0,035	-0,059
-638,882	196,716	0,062	0,070
-637,868	800,000	-0,036	0,076
-636,853	297,890	-0,066	-0,090
-635,838	-41,465	-0,078	-0,030
-634,824	-200,000	-0,006	0,019
-633,809	57,129	0,030	-0,021
-632,795	1,063	0,095	0,050
-631,780	107,525	0,075	0,066
-630,765	-200,000	0,008	-0,036
-629,751	68,591	-0,099	0,076
-628,736	715,583	-0,044	-0,087
-627,722	-65,550	0,048	-0,014
-626,707	596,682	0,054	0,099
-625,692	388,477	-0,051	-0,078
-624,678	40,069	0,048	0,032
-623,663	634,551	-0,045	0,085
-622,649	-130,102	-0,089	-0,009
-621,634	176,965	-0,055	-0,059
-620,619	-7,320	0,081	-0,040
-619,605	-146,935	-0,168	-0,011
-618,590	-118,015	-0,044	-0,006
-617,576	-63,251	0,063	-0,019
-616,561	-51,840	0,072	0,025
-615,546	-200,000	-0,006	0,079
-614,532	-200,000	-0,004	0,092
-613,517	315,735	0,014	0,020
-612,503	800,000	0,021	-0,046
-611,488	-2,927	0,011	0,006
-610,474	-124,920	0,152	0,017
-609,459	303,947	-0,090	0,123
-608,444	356,396	0,068	-0,100
-607,430	579,216	-0,083	-0,151
-606,415	17,628	0,089	-0,052
-605,401	-93,180	0,026	0,005
-604,386	422,335	0,059	-0,095
-603,371	-104,563	-0,053	-0,009
-602,357	-200,000	0,012	0,137
-601,342	800,000	-0,032	-0,068
-600,328	-200,000	-0,027	-0,142
-599,313	-9,023	-0,063	-0,031
-598,298	-101,704	0,050	0,009
-597,284	507,136	0,024	0,041
-596,269	-200,000	-0,002	0,021
-595,255	666,111	-0,009	-0,018
-594,240	-200,000	-0,004	-0,066
-593,225	-6,692	-0,055	0,028
-592,211	183,728	-0,089	-0,098
-591,196	372,190	-0,018	-0,027
-590,182	8,145	0,034	0,019
-589,167	241,807	-0,078	-0,097
-588,152	-200,000	-0,001	0,059
-587,138	-82,154	-0,084	0,020
-586,123	330,621	-0,034	0,048
-585,109	-128,604	-0,114	-0,012
-584,094	307,356	-0,021	0,029
-583,079	800,000	-0,034	0,104
-582,065	-98,901	-0,036	0,007
-581,050	-200,000	-0,008	0,044
-580,036	-19,261	-0,093	0,042
-579,021	-200,000	-0,006	0,061
-578,006	-200,000	0,013	-0,054
-576,992	-38,144	-0,074	-0,029
-575,977	231,530	0,062	0,076
-574,963	-77,080	-0,041	0,010
-573,948	35,201	-0,063	0,041
-572,934	-200,000	0,013	0,094
-571,919	-142,719	-0,072	0,005
-570,904	-200,000	0,039	-0,149
-569,890	-200,000	-0,034	-0,125
-568,875	147,479	-0,078	0,077
-567,861	-200,000	-0,005	-0,082
-566,846	3,949	0,021	-0,011
-565,831	74,614	0,072	-0,056
-564,817	-141,345	0,081	-0,006
-563,802	134,676	-0,033	0,032
-562,788	123,998	-0,046	-0,043
-561,773	-200,000	-0,003	-0,114
-560,758	572,448	0,022	-0,039
-559,744	-59,097	-0,066	0,021
-558,729	701,397	-0,026	-0,051
-557,715	391,520	-0,029	-0,044
-556,700	76,518	0,058	-0,045
-555,685	-71,995	0,078	0,021
-554,671	-3,005	-0,121	-0,062
-553,656	82,325	-0,082	-0,066
-552,642	800,000	-0,016	-0,047
-551,627	646,038	0,013	0,025
-550,612	210,377	-0,069	-0,080
-549,598	-152,940	-0,169	0,009
-548,583	10,899	-0,093	0,052
-547,569	263,459	0,041	0,053
-546,554	583,001	-0,047	0,086
-545,539	800,000	-0,035	0,079
-544,525	-200,000	-0,019	0,207
-543,510	-200,000	-0,031	0,141
-542,496	-200,000	0,004	0,080
-541,481	8,731	-0,018	0,010
-540,466	-80,702	0,127	0,031
-539,452	-47,735	0,042	-0,015
-538,437	-200,000	0,000	-0,131
-537,423	70,633	0,095	0,073
-536,408	-200,000	-0,026	0,084
-535,393	365,830	-0,066	-0,098
-534,379	35,666	0,151	-0,098
-533,364	-49,855	-0,046	0,016
-532,350	143,366	-0,069	-0,068
-531,335	800,000	0,070	0,157
-530,321	460,862	0,039	0,065
-529,306	358,797	0,059	-0,088
-528,291	231,701	-0,061	-0,073
-527,277	800,000	-0,010	-0,026
-526,262	302,818	0,048	-0,066
-525,248	800,000	0,078	0,162
-524,233	114,539	-0,112	-0,101
-523,218	234,183	-0,058	0,071
-522,204	-94,987	-0,092	0,018
-521,189	29,916	-0,116	-0,073
-520,175	-91,065	-0,104	0,022
-519,160	-200,000	-0,016	-0,114
-518,145	-131,987	0,018	-0,002
-517,131	30,025	0,126	-0,079
-516,116	49,523	0,156	-0,108
-515,102	-111,709	-0,121	-0,018
-514,087	800,000	0,014	-0,031
-513,072	800,000	-0,048	-0,124
-512,058	-82,910	-0,033	0,008
-511,043	-31,100	-0,112	-0,046
-510,029	32,379	0,199	0,126
-509,014	253,070	-0,089	0,113
-507,999	-185,821	-0,126	0,001
-506,985	-200,000	-0,007	0,045
-505,970	339,109	0,022	-0,031
-504,956	214,414	0,077	-0,090
-503,941	-200,000	-0,017	0,077
-502,926	235,454	0,044	0,054
-501,912	331,145	0,136	0,195
-500,897	-200,000	-0,003	0,071
-499,883	28,941	-0,088	-0,055
-498,868	168,187	0,024	-0,026
-497,853	173,986	-0,112	-0,119
-496,839	-73,379	0,095	0,025
-495,824	-200,000	0,033	-0,113
-494,810	-46,548	0,102	0,037
-493,795	248,387	0,037	0,046
-492,781	-200,000	-0,019	0,080
-491,766	-28,173	-0,066	0,028
-490,751	-200,000	0,007	-0,055
-489,737	0,111	-0,102	-0,053
-488,722	-200,000	-0,004	-0,063
-487,708	-111,859	0,101	-0,015
-486,693	-200,000	0,008	-0,039
-485,678	-200,000	0,025	0,151
-484,664	800,000	0,050	-0,161
-483,649	97,143	0,013	-0,011
-482,635	119,286	0,083	0,075
-481,620	-80,354	-0,058	-0,014
-480,605	379,536	-0,025	0,038
-479,591	-15,502	-0,140	0,065
-478,576	376,520	-0,044	-0,067
-477,562	-200,000	-0,003	0,042
-476,547	-158,813	-0,049	-0,002
-475,532	159,049	-0,041	0,042
-474,518	-69,484	0,115	-0,032
-473,503	-200,000	0,028	0,149
-472,489	800,000	0,055	0,129
-471,474	-73,801	-0,039	0,010
-470,459	-200,000	0,033	-0,179
-469,445	800,000	0,054	-0,118
-468,430	-150,837	0,026	0,001
-467,416	242,540	-0,052	-0,065
-466,401	800,000	-0,026	-0,072
-465,386	9,155	0,022	0,012
-464,372	179,435	-0,047	-0,051
-463,357	-173,322	0,150	-0,003
-462,343	-200,000	-0,021	0,086
-461,328	-52,185	-0,125	0,042
-460,313	800,000	-0,011	0,023
-459,299	-7,793	0,047	-0,023
-458,284	55,943	0,096	-0,068
-457,270	32,579	0,062	0,039
-456,255	387,564	0,051	-0,078
-455,241	-200,000	0,004	0,063
-454,226	728,219	-0,034	-0,068
-453,211	-200,000	0,003	-0,099
-452,197	27,118	0,034	-0,021
-451,182	-200,000	0,007	-0,068
-450,168	19,250	-0,073	0,043
-449,153	-200,000	-0,003	0,068
-448,138	-200,000	-0,019	0,064
-447,124	-200,000	0,018	-0,098
-446,109	-74,188	-0,017	-0,005
-445,095	-200,000	0,032	-0,106
-444,080	-200,000	0,003	0,036
-443,065	-58,137	-0,064	-0,020
-442,051	-74,506	0,055	0,014
-441,036	61,827	0,101	-0,074
-440,022	-150,483	0,193	0,011
-439,007	-200,000	-0,030	-0,102
-437,992	-200,000	-0,000	0,170
-436,978	118,191	0,107	0,097
-435,963	-200,000	-0,001	0,038
-434,949	-200,000	0,011	-0,149
-433,934	-200,000	0,003	0,132
-432,919	263,661	-0,053	-0,069
-431,905	143,730	-0,019	0,019
-430,890	65,631	0,065	0,048
-429,876	61,012	-0,073	-0,053
-428,861	37,325	0,154	-0,100
-427,846	800,000	-0,044	-0,108
-426,832	69,139	-0,040	0,031
-425,817	-200,000	0,002	-0,060
-424,803	34,662	-0,099	0,063
-423,788	58,032	0,094	-0,068
-422,773	-200,000	0,015	0,107
-421,759	-200,000	0,016	-0,091
-420,744	111,362	0,039	0,035
-419,730	140,536	-0,118	-0,115
-418,715	764,359	-0,075	-0,151
-417,701	-200,000	0,025	0,092
-416,686	-80,046	-0,045	0,011
-415,671	45,759	0,075	0,051
-414,657	-200,000	0,014	0,077
-413,642	35,945	0,062	0,040
-412,628	-200,000	0,004	0,129
-411,613	163,441	-0,067	-0,070
-410,598	220,796	-0,033	0,039
-409,584	10,817	0,038	-0,021
-408,569	73,414	0,080	0,062
-407,555	341,539	-0,084	-0,121
-406,540	800,000	-0,052	0,121
-405,525	-200,000	0,008	-0,057
-404,511	800,000	-0,044	-0,113
-403,496	-104,872	-0,055	0,009
-402,482	-200,000	-0,027	-0,139
-401,467	474,332	-0,026	0,043
-400,452	-200,000	-0,011	0,167
-399,438	-108,490	0,068	0,011
-398,423	-200,000	-0,015	-0,173
-397,409	-85,770	0,030	-0,007
-396,394	-132,426	0,154	0,014
-395,379	-184,067	-0,164	0,002
-394,365	-76,409	0,076	-0,019
-393,350	800,000	0,038	0,107
-392,336	305,976	0,028	-0,038
-391,321	-161,857	-0,115	-0,004
-390,306	-36,749	0,058	-0,023
-389,292	800,000	-0,034	-0,075
-388,277	182,926	-0,014	-0,016
-387,263	85,861	-0,099	0,080
-386,248	-12,096	0,092	0,044
-385,233	23,018	-0,107	-0,064
-384,219	335,853	0,088	-0,126
-383,204	-60,632	-0,058	0,018
-382,190	-127,801	0,114	0,012
-381,175	372,245	-0,033	-0,049
-380,160	699,294	-0,026	-0,051
-379,146	800,000	0,016	0,034
-378,131	-178,394	0,055	0,001
-377,117	-71,901	0,101	-0,027
-376,102	90,592	0,013	-0,011
-375,088	720,361	0,041	-0,080
-374,073	230,885	0,089	-0,108
-373,058	-135,689	-0,032	0,003
-372,044	-14,345	-0,140	0,066
-371,029	751,997	0,056	0,111
-370,015	-200,000	0,006	-0,046
-369,000	662,682	0,037	-0,070
-367,985	116,715	-0,109	0,098
-366,971	-200,000	0,005	-0,060
-365,956	800,000	0,071	-0,174
-364,942	-200,000	-0,004	-0,093
-363,927	-114,016	-0,023	0,003
-362,912	28,776	-0,068	0,042
-361,898	162,012	0,060	0,061
-360,883	-86,707	-0,067	-0,015
-359,869	-39,286	-0,101	-0,039
-358,854	-2,412	0,076	-0,039
-357,839	2,985	-0,052	-0,027
-356,825	-137,634	0,103	-0,008
-355,810	-22,292	0,035	-0,015
-354,796	63,618	0,020	0,015
-353,781	422,586	-0,025	-0,040
-352,766	43,610	-0,059	-0,039
-351,752	-200,000	0,022	0,079
-350,737	-115,370	0,142	0,019
-349,723	-13,698	-0,058	-0,027
-348,708	629,531	-0,065	0,121
-347,693	-1,717	-0,051	-0,026
-346,679	-32,666	-0,066	-0,027
-345,664	800,000	0,044	-0,131
-344,650	6,562	0,134	-0,073
-343,635	780,479	0,035	0,070
-342,620	145,788	-0,072	0,071
-341,606	800,000	0,015	0,044
-340,591	800,000	-0,048	0,131
-339,577	800,000	0,035	0,111
-338,562	-36,789	0,021	-0,008
-337,548	181,047	0,040	-0,043
-336,533	-200,000	-0,016	-0,068
-335,518	800,000	0,023	-0,068
-334,504	-112,436	-0,037	-0,005
-333,489	357,567	-0,071	-0,103
-332,475	278,962	-0,019	-0,025
-331,460	-15,613	-0,121	-0,056
-330,445	36,781	-0,075	0,048
-329,431	-200,000	-0,014	0,063
-328,416	-19,188	0,084	0,038
-327,402	-200,000	0,016	0,091
-326,387	-160,144	-0,014	0,001
-325,372	-200,000	0,027	-0,223
-324,358	-200,000	-0,018	0,064
-323,343	383,880	0,040	-0,061
-322,329	-200,000	-0,012	0,085
-321,314	-200,000	-0,008	0,035
-320,299	800,000	-0,044	0,095
-319,285	239,514	0,075	0,091
-318,270	-6,554	-0,061	0,030
-317,256	-200,000	-0,011	-0,063
-316,241	317,181	0,031	-0,043
-315,226	75,387	0,079	0,061
-314,212	100,331	0,057	0,048
-313,197	-200,000	-0,008	0,063
-312,183	-200,000	0,002	0,089
-311,168	-200,000	0,007	-0,135
-310,153	800,000	-0,040	-0,088
-309,139	-146,363	0,044	-0,003
-308,124	800,000	-0,012	-0,026
-307,110	398,048	0,021	-0,033
-306,095	654,103	-0,024	0,045
-305,080	455,163	0,014	0,022
-304,066	666,215	-0,016	-0,031
-303,051	147,856	-0,073	-0,072
-302,037	493,942	-0,029	-0,049
-301,022	235,354	-0,046	-0,056
-300,008	-90,455	0,079	-0,017
-298,993	-3,472	0,089	0,045
-297,978	-22,966	-0,131	-0,058
-296,964	800,000	-0,038	-0,079
-295,949	-200,000	-0,018	0,083
-294,935	-128,592	-0,061	-0,006
-293,920	64,753	0,057	0,042
-292,905	-26,986	-0,064	0,027
-291,891	-200,000	0,020	0,121
-290,876	249,322	0,110	0,137
-289,862	800,000	0,040	0,108
-288,847	-200,000	-0,026	-0,116
-287,832	800,000	-0,048	-0,119
-286,818	284,511	0,015	-0,020
-285,803	625,335	-0,078	-0,144
-284,789	-67,665	0,094	0,027
-283,774	-195,473	0,019	0,000
-282,759	573,898	-0,035	-0,063
-281,745	23,389	-0,062	-0,037
-280,730	252,924	0,069	-0,087
-279,716	-29,910	-0,060	0,025
-278,701	800,000	0,062	0,126
-277,686	-8,365	0,114	0,056
-276,672	49,166	0,095	0,065
-275,657	-200,000	0,008	0,064
-274,643	181,685	0,021	0,022
-273,628	90,422	-0,129	-0,106
-272,613	49,737	-0,050	0,035
-271,599	-200,000	0,017	0,087
-270,584	8,819	-0,052	0,029
-269,570	-73,434	-0,102	0,027
-268,555	94,702	0,052	0,044
-267,540	1,791	0,091	-0,048
-266,526	32,131	0,054	-0,034
-265,511	496,520	-0,024	0,041
-264,497	-18,720	0,182	0,083
-263,482	800,000	0,003	-0,008
-262,467	-200,000	0,005	0,069
-261,453	-151,111	0,084	-0,005
-260,438	137,952	0,067	-0,065
-259,424	18,205	-0,046	0,026
-258,409	-200,000	0,000	0,012
-257,395	800,000	-0,025	0,055
-256,380	107,106	0,020	0,017
-255,365	81,091	0,046	0,036
-254,351	800,000	0,015	-0,036
-253,336	-108,325	0,047	0,007
-252,322	-112,857	-0,074	0,011
-251,307	-200,000	0,015	-0,113
-250,292	-86,712	-0,125	0,028
-249,278	-74,106	-0,047	0,012
-248,263	-21,628	0,091	0,040
-247,249	800,000	-0,022	-0,055
-246,234	441,132	-0,042	-0,067
-245,219	-200,000	-0,007	-0,038
-244,205	-200,000	-0,011	0,071
-243,190	57,112	0,037	-0,026
-242,176	-200,000	0,017	-0,112
-241,161	398,290	0,058	0,089
-240,146	676,593	-0,056	0,106
-239,132	-200,000	0,026	-0,085
-238,117	767,310	0,045	-0,090
-237,103	800,000	0,032	-0,074
-236,088	-200,000	-0,010	0,035
-235,073	105,614	-0,038	0,033
-234,059	-200,000	-0,012	0,114
-233,044	473,768	-0,068	0,112
-232,030	322,726	-0,037	0,052
-231,015	79,198	-0,130	0,102
-230,000	659,725	0,115	-0,216
-228,986	800,000	-0,025	-0,051
-227,971	-56,829	-0,046	0,015
-226,957	-200,000	-0,003	0,095
-225,942	-170,078	0,083	0,002
-224,927	-200,000	0,016	0,070
-223,913	-31,206	-0,038	-0,015
-222,898	130,920	0,106	0,099
-221,884	-200,000	-0,025	0,101
-220,869	144,139	0,059	0,057
-219,855	231,992	0,112	0,134
-218,840	-200,000	0,008	0,030
-217,825	-84,938	-0,030	-0,007
-216,811	256,943	0,049	-0,062
-215,796	800,000	-0,032	0,075
-214,782	-200,000	-0,024	0,178
-213,767	800,000	0,052	0,143
-212,752	32,331	0,107	0,067
-211,738	-200,000	-0,008	-0,030
-210,723	758,091	0,013	-0,027
-209,709	-25,969	0,062	-0,027
-208,694	186,232	-0,164	-0,178
-207,679	-124,070	-0,036	-0,004
-206,665	88,336	-0,022	-0,018
-205,650	50,845	0,129	0,089
-204,636	-200,000	-0,007	0,157
-203,621	-91,498	0,105	0,022
-202,606	-113,131	-0,094	-0,013
-201,592	-200,000	-0,024	-0,135
-200,577	-4,099	0,095	0,048
-199,563	173,789	0,077	0,081
-198,548	516,835	-0,056	0,096
-197,533	301,132	0,007	0,010
-196,519	350,159	0,067	0,097
-195,504	-88,595	-0,068	-0,015
-194,490	-200,000	-0,030	-0,139
-193,475	-163,023	-0,064	0,002
-192,460	107,273	0,081	0,070
-191,446	800,000	0,019	-0,038
-190,431	-200,000	0,011	-0,051
-189,417	-160,129	0,060	0,002
-188,402	-58,201	-0,045	0,014
-187,387	-110,322	0,057	0,008
-186,373	-200,000	-0,027	-0,097
-185,358	-200,000	0,012	0,059
-184,344	-63,108	0,146	0,044
-183,329	-200,000	0,033	0,196
-182,315	549,927	0,034	0,059
-181,300	-78,991	-0,048	-0,012
-180,285	800,000	0,055	-0,144
-179,271	800,000	-0,016	0,032
-178,256	800,000	0,006	0,017
-177,242	268,724	-0,037	0,047
-176,227	-200,000	0,001	0,176
-175,212	800,000	0,038	-0,107
-174,198	-200,000	-0,005	0,029
-173,183	-4,515	-0,074	-0,037
-172,169	-200,000	0,000	-0,135
-171,154	387,278	0,036	-0,055
-170,139	-200,000	0,016	-0,092
-169,125	-92,833	-0,039	-0,008
-168,110	20,280	0,011	-0,006
-167,096	-147,044	0,054	0,003
-166,081	181,396	0,058	0,062
-165,066	26,478	0,123	-0,075
-164,052	800,000	0,042	-0,119
-163,037	200,213	-0,033	0,037
-162,023	-40,251	-0,054	0,021
-161,008	297,214	-0,094	0,126
-159,993	800,000	-0,046	-0,115
-158,979	-192,253	-0,104	-0,001
-157,964	615,193	0,035	-0,065
-156,950	-200,000	0,013	0,066
-155,935	-105,115	0,017	0,003
-154,920	800,000	0,061	0,170
-153,906	716,811	-0,023	0,045
-152,891	286,628	0,013	-0,017
-151,877	211,372	0,048	-0,055
-150,862	42,692	-0,070	0,046
-149,847	-82,526	-0,085	-0,020
-148,833	800,000	0,049	0,131
-147,818	275,937	0,061	0,078
-146,804	244,826	0,024	0,029
-145,789	716,860	0,069	0,134
-144,775	103,005	-0,037	0,031
-143,760	-23,196	-0,072	-0,031
-142,745	-25,193	0,079	0,034
-141,731	402,798	0,019	0,029
-140,716	763,709	0,008	-0,017
-139,702	702,594	-0,052	-0,100
-138,687	-157,880	-0,086	0,004
-137,672	3,207	0,079	0,041
-136,658	-200,000	-0,010	-0,046
-135,643	159,250	-0,106	0,107
-134,629	800,000	-0,018	0,057
-133,614	-78,626	0,054	-0,013
-132,599	-48,347	0,126	0,044
-131,585	249,900	0,145	0,180
-130,570	-96,640	0,132	-0,025
-129,556	-31,425	-0,004	-0,002
-128,541	-135,614	-0,077	-0,007
-127,526	346,813	0,042	-0,061
-126,512	-200,000	-0,002	-0,045
-125,497	131,625	0,120	0,112
-124,483	76,225	0,059	-0,046
-123,468	-200,000	0,002	-0,054
-122,453	-24,110	-0,100	-0,043
-121,439	68,912	0,058	-0,044
-120,424	156,981	0,119	-0,120
-119,410	-83,365	0,099	-0,023
-118,395	87,415	-0,123	0,099
