DTS Sentinel unit serial number:	SN410029Multiplexer serial number:	ORYXHardware model number:	OX2-SRSoftware version number:	ORYX F/W v4,00 Oryx Data Collector v3.7.2.0data status	okinstallation	B4 Nyhavnadifferential loss correction	single-endedforward channel	channel 2reverse channel	N/Adate	2023/12/19time	13:55:13forward acquisition time	300,00reverse acquisition time	0,00gamma	499,1914k internal	0,3128k external	0,3128temperature offset calibration	1,0000default loss term (dB/km)	0,3820temperature slope calibration	1,0000multiplexer offset coefficient	1,0000multiplexer slope coefficient	1,0000fibre end	0,00T internal ref (°C)	19,38T ext. ref 1 (°C)	4,45T ext. ref 2 (°C)	4,42length (m)	temperature (°C)	Stokes	anti-Stokes-744,400	-57,559	0,126	0,041
-743,385	-82,765	-0,275	-0,066
-742,371	367,479	-0,012	0,018
-741,356	-71,381	-0,187	0,052
-740,342	-37,101	0,091	-0,036
-739,327	-84,978	-0,283	0,066
-738,312	800,000	-0,032	-0,089
-737,298	-18,057	-0,366	0,170
-736,283	800,000	0,047	0,131
-735,269	166,358	-0,132	0,140
-734,254	-40,114	0,089	-0,034
-733,239	-174,330	-0,466	0,010
-732,225	563,802	0,051	0,092
-731,210	456,984	0,034	-0,056
-730,196	49,617	0,088	0,061
-729,181	156,582	-0,018	0,019
-728,167	32,886	-0,075	-0,048
-727,152	-8,095	-0,079	-0,040
-726,137	800,000	-0,045	0,106
-725,123	-200,000	0,009	-0,207
-724,108	800,000	-0,062	-0,140
-723,094	-54,316	0,077	-0,026
-722,079	43,417	-0,199	-0,135
-721,064	104,721	-0,061	0,054
-720,050	800,000	-0,044	0,138
-719,035	181,233	-0,071	-0,078
-718,021	143,465	-0,054	-0,053
-717,006	800,000	-0,046	-0,102
-715,991	800,000	-0,009	-0,026
-714,977	-200,000	0,047	-0,157
-713,962	-13,520	-0,078	-0,037
-712,948	-200,000	-0,023	-0,121
-711,933	71,093	0,030	-0,023
-710,918	52,621	0,087	-0,062
-709,904	-200,000	0,002	-0,031
-708,889	-200,000	-0,016	0,056
-707,875	223,455	-0,067	0,081
-706,860	439,783	0,029	0,047
-705,845	-71,080	0,157	-0,044
-704,831	800,000	-0,049	0,141
-703,816	-159,626	0,026	-0,001
-702,802	800,000	0,063	-0,162
-701,787	92,707	-0,094	-0,079
-700,772	-200,000	-0,022	-0,104
-699,758	800,000	-0,038	-0,115
-698,743	800,000	0,057	0,143
-697,729	317,014	0,032	0,046
-696,714	-200,000	0,003	0,021
-695,699	800,000	-0,014	-0,035
-694,685	-200,000	0,013	-0,088
-693,670	-200,000	-0,017	-0,118
-692,656	71,051	-0,110	0,084
-691,641	116,284	0,061	0,055
-690,627	153,392	0,103	0,105
-689,612	-41,053	0,075	-0,029
-688,597	800,000	-0,014	-0,029
-687,583	509,057	-0,031	-0,053
-686,568	-86,099	-0,100	0,023
-685,554	800,000	-0,041	0,105
-684,539	-200,000	-0,021	0,122
-683,524	121,867	-0,127	0,118
-682,510	226,437	-0,071	0,085
-681,495	-200,000	-0,015	-0,074
-680,481	-90,075	0,030	-0,006
-679,466	251,686	-0,126	-0,160
-678,451	-200,000	-0,005	-0,050
-677,437	800,000	-0,050	-0,136
-676,422	360,723	-0,043	-0,065
-675,408	130,323	0,045	0,043
-674,393	800,000	-0,077	0,194
-673,378	-52,416	-0,106	-0,036
-672,364	-127,843	-0,027	-0,003
-671,349	312,756	-0,013	-0,018
-670,335	252,191	-0,119	0,151
-669,320	82,382	-0,082	-0,066
-668,305	-200,000	0,020	0,099
-667,291	528,360	-0,034	0,060
-666,276	-75,110	-0,184	-0,048
-665,262	261,502	-0,043	-0,056
-664,247	-200,000	-0,005	-0,122
-663,232	135,389	-0,036	0,034
-662,218	-200,000	-0,001	0,053
-661,203	607,548	-0,016	-0,030
-660,189	-200,000	0,003	0,062
-659,174	-118,679	-0,038	0,005
-658,159	-54,896	0,183	0,061
-657,145	-48,634	0,068	0,024
-656,130	767,564	0,056	-0,114
-655,116	-124,757	-0,101	0,011
-654,101	-34,367	0,107	-0,043
-653,086	584,830	0,041	0,074
-652,072	800,000	0,012	-0,036
-651,057	-155,806	-0,056	0,003
-650,043	553,805	0,033	-0,059
-649,028	-200,000	-0,011	-0,094
-648,014	-10,412	-0,062	-0,030
-646,999	800,000	-0,035	0,081
-645,984	164,415	-0,068	-0,071
-644,970	800,000	-0,062	-0,156
-643,955	-200,000	-0,018	-0,105
-642,941	-200,000	-0,006	0,026
-641,926	148,083	0,117	0,117
-640,911	341,286	0,070	-0,102
-639,897	-200,000	0,025	0,141
-638,882	-200,000	0,002	-0,053
-637,868	381,817	-0,091	0,139
-636,853	17,272	-0,047	0,028
-635,838	287,875	-0,036	0,049
-634,824	-97,760	-0,086	0,016
-633,809	-200,000	-0,002	0,052
-632,795	-86,274	0,041	0,009
-631,780	272,419	0,088	0,115
-630,765	800,000	-0,027	-0,060
-629,751	125,455	-0,043	-0,040
-628,736	402,952	-0,065	-0,101
-627,722	-200,000	0,007	0,091
-626,707	16,634	0,074	-0,043
-625,692	800,000	0,071	0,225
-624,678	-200,000	-0,008	0,036
-623,663	800,000	-0,081	-0,167
-622,649	-47,717	0,013	0,005
-621,634	182,370	-0,068	0,074
-620,619	800,000	0,014	0,044
-619,605	267,736	-0,069	0,090
-618,590	19,955	0,044	0,026
-617,576	17,837	-0,059	-0,035
-616,561	-57,624	0,087	-0,028
-615,546	70,413	-0,087	0,067
-614,532	379,951	0,058	-0,088
-613,517	800,000	0,050	-0,151
-612,503	-73,116	-0,073	0,020
-611,488	326,378	-0,071	0,101
-610,474	-200,000	0,000	-0,055
-609,459	-34,188	0,032	0,013
-608,444	-200,000	0,004	-0,071
-607,430	-200,000	0,013	-0,128
-606,415	-200,000	-0,028	-0,091
-605,401	-129,544	0,108	-0,011
-604,386	53,941	-0,105	-0,074
-603,371	800,000	-0,036	-0,114
-602,357	-67,807	-0,104	0,030
-601,342	-42,547	0,062	0,023
-600,328	-200,000	-0,034	0,128
-599,313	178,367	-0,112	-0,121
-598,298	-138,816	0,061	0,005
-597,284	-37,103	-0,050	0,020
-596,269	109,411	0,063	0,056
-595,255	-74,553	-0,040	-0,011
-594,240	-41,581	-0,092	-0,035
-593,225	28,860	-0,159	-0,099
-592,211	59,863	0,023	-0,017
-591,196	-161,410	0,025	0,001
-590,182	-43,183	0,111	0,041
-589,167	182,813	-0,070	0,077
-588,152	-131,835	-0,051	0,005
-587,138	-200,000	-0,001	0,091
-586,123	-102,599	0,086	-0,015
-585,109	-14,434	-0,134	0,063
-584,094	-200,000	0,030	0,176
-583,079	-36,783	-0,024	-0,009
-582,065	238,927	-0,003	0,004
-581,050	191,031	0,052	0,058
-580,036	-200,000	-0,024	0,131
-579,021	-44,314	-0,196	0,072
-578,006	-51,561	0,066	-0,023
-576,992	-20,156	-0,022	-0,010
-575,977	-163,277	0,059	-0,002
-574,963	-151,743	0,105	-0,006
-573,948	800,000	0,023	0,069
-572,934	-200,000	-0,012	-0,118
-571,919	-42,902	-0,066	-0,025
-570,904	-200,000	0,007	-0,064
-569,890	243,478	-0,100	-0,124
-568,875	-64,966	0,050	-0,015
-567,861	-62,099	-0,050	-0,015
-566,846	590,910	0,031	-0,057
-565,831	12,124	-0,086	0,049
-564,817	-200,000	-0,011	-0,065
-563,802	140,980	-0,177	-0,173
-562,788	-53,305	0,065	0,022
-561,773	-200,000	-0,023	0,082
-560,758	5,538	0,041	-0,022
-559,744	-30,314	-0,087	-0,036
-558,729	-14,225	-0,080	-0,038
-557,715	-200,000	-0,021	-0,104
-556,700	430,806	0,077	-0,124
-555,685	-200,000	-0,025	-0,129
-554,671	27,367	-0,025	-0,015
-553,656	-84,162	0,088	0,020
-552,642	-103,825	0,091	-0,016
-551,627	381,353	-0,080	0,121
-550,612	-200,000	0,062	0,000
-549,598	-200,000	-0,031	-0,118
-548,583	536,582	-0,093	-0,164
-547,569	233,751	0,089	-0,109
-546,554	364,767	0,021	-0,031
-545,539	608,421	0,035	-0,065
-544,525	32,489	-0,063	0,040
-543,510	-200,000	0,031	0,113
-542,496	-200,000	-0,037	-0,139
-541,481	-13,813	0,062	-0,029
-540,466	800,000	0,063	0,135
-539,452	675,408	-0,066	0,127
-538,437	29,696	-0,043	-0,027
-537,423	-126,640	0,188	0,020
-536,408	94,747	0,070	-0,059
-535,393	316,571	-0,040	-0,055
-534,379	800,000	0,030	-0,071
-533,364	-200,000	0,016	-0,084
-532,350	-169,906	0,059	-0,002
-531,335	302,542	0,023	0,032
-530,321	-200,000	0,021	-0,080
-529,306	-200,000	0,012	0,061
-528,291	-200,000	-0,001	-0,019
-527,277	688,657	0,030	0,058
-526,262	4,242	0,077	-0,041
-525,248	-200,000	-0,012	-0,056
-524,233	-105,002	0,031	-0,005
-523,218	46,112	0,100	0,068
-522,204	22,933	-0,170	-0,103
-521,189	54,601	-0,085	-0,061
-520,175	800,000	-0,019	-0,055
-519,160	-122,387	-0,154	-0,018
-518,145	246,734	0,055	-0,068
-517,131	5,990	0,118	0,064
-516,116	-200,000	0,024	0,154
-515,102	126,095	-0,137	0,128
-514,087	510,654	-0,076	-0,130
-513,072	-35,351	-0,037	0,015
-512,058	-200,000	0,041	-0,200
-511,043	59,596	0,050	0,036
-510,029	249,734	0,057	0,071
-509,014	409,370	0,094	0,147
-507,999	138,923	-0,089	-0,086
-506,985	-200,000	-0,004	-0,038
-505,970	-200,000	-0,004	-0,024
-504,956	-124,679	0,072	-0,008
-503,941	-200,000	-0,002	-0,100
-502,926	-21,380	0,003	-0,001
-501,912	23,242	0,068	-0,041
-500,897	-200,000	-0,012	-0,044
-499,883	121,835	-0,041	0,038
-498,868	154,744	0,028	0,029
-497,853	176,453	0,056	0,061
-496,839	800,000	0,062	-0,147
-495,824	18,618	-0,064	-0,038
-494,810	800,000	0,040	0,117
-493,795	317,055	-0,068	0,096
-492,781	-48,765	0,045	0,016
-491,766	625,491	0,014	-0,027
-490,751	594,044	-0,024	-0,043
-489,737	225,546	0,024	0,028
-488,722	800,000	0,042	-0,115
-487,708	800,000	0,017	0,047
-486,693	408,770	0,088	0,138
-485,678	800,000	0,063	0,139
-484,664	39,415	-0,043	-0,028
-483,649	-200,000	0,015	0,105
-482,635	-35,966	-0,171	0,068
-481,620	202,794	-0,059	0,068
-480,605	711,389	-0,016	-0,032
-479,591	-163,678	-0,029	-0,001
-478,576	131,955	0,031	-0,029
-477,562	121,482	-0,092	-0,085
-476,547	92,276	0,071	-0,059
-475,532	-183,215	-0,015	0,000
-474,518	-123,587	0,146	0,017
-473,503	-200,000	0,011	0,140
-472,489	800,000	-0,066	0,139
-471,474	-69,925	-0,113	0,032
-470,459	38,142	-0,044	-0,029
-469,445	184,179	-0,015	-0,017
-468,430	-12,724	-0,113	-0,054
-467,416	-200,000	-0,033	0,110
-466,401	-98,765	0,085	-0,016
-465,386	-27,005	-0,033	0,014
-464,372	-29,415	0,133	0,056
-463,357	800,000	0,031	0,086
-462,343	800,000	0,023	-0,049
-461,328	-166,130	-0,094	0,003
-460,313	-48,604	-0,095	-0,033
-459,299	-192,488	0,207	0,001
-458,284	-43,794	0,149	-0,055
-457,270	156,448	0,083	0,084
-456,255	-48,165	-0,122	-0,043
-455,241	-200,000	-0,011	-0,079
-454,226	-38,061	-0,068	-0,027
-453,211	90,564	0,021	-0,018
-452,197	-200,000	-0,013	-0,053
-451,182	289,080	-0,029	0,038
-450,168	374,502	-0,004	-0,006
-449,153	-200,000	0,006	-0,131
-448,138	36,713	0,017	0,011
-447,124	128,949	0,071	0,066
-446,109	155,677	-0,116	-0,118
-445,095	-200,000	0,032	-0,150
-444,080	-200,000	-0,056	-0,241
-443,065	343,370	0,064	0,093
-442,051	-200,000	0,001	-0,045
-441,036	509,544	-0,061	0,105
-440,022	-6,746	-0,132	0,066
-439,007	272,329	0,078	0,102
-437,992	-72,297	0,116	0,031
-436,978	800,000	0,034	-0,081
-435,963	-118,181	0,052	-0,007
-434,949	233,831	-0,050	-0,061
-433,934	750,594	-0,016	0,032
-432,919	145,076	-0,061	-0,060
-431,905	158,697	0,022	-0,022
-430,890	-200,000	-0,026	0,096
-429,876	-200,000	0,030	0,169
-428,861	5,479	0,093	0,050
-427,846	-200,000	-0,021	-0,115
-426,832	-43,685	-0,057	-0,021
-425,817	-97,693	-0,094	-0,018
-424,803	91,860	0,062	0,052
-423,788	-56,595	0,221	-0,072
-422,773	281,737	0,038	-0,050
-421,759	-200,000	-0,008	0,070
-420,744	147,214	0,054	0,053
-419,730	246,296	0,037	-0,046
-418,715	-200,000	-0,010	-0,057
-417,701	-200,000	-0,013	0,092
-416,686	-22,934	0,017	0,007
-415,671	-158,423	0,039	0,002
-414,657	-109,602	-0,089	-0,014
-413,642	-85,788	0,135	0,030
-412,628	34,083	0,066	0,042
-411,613	162,752	-0,026	0,026
-410,598	-67,525	0,023	0,007
-409,584	159,821	0,052	0,053
-408,569	47,605	0,034	-0,024
-407,555	-26,465	0,056	-0,024
-406,540	800,000	-0,027	0,084
-405,525	86,948	-0,044	-0,036
-404,511	-200,000	-0,042	-0,174
-403,496	-84,386	0,091	-0,021
-402,482	-172,382	-0,147	-0,003
-401,467	-146,427	0,017	-0,001
-400,452	-200,000	-0,005	0,089
-399,438	-89,225	0,042	0,009
-398,423	255,132	-0,041	0,052
-397,409	67,327	-0,017	0,013
-396,394	-47,891	-0,024	0,008
-395,379	800,000	-0,056	0,124
-394,365	89,766	-0,114	0,093
-393,350	-200,000	-0,011	-0,151
-392,336	70,669	0,086	0,065
-391,321	-200,000	0,002	-0,089
-390,306	-39,012	-0,043	0,017
-389,292	-126,718	0,069	-0,007
-388,277	-161,954	-0,139	0,005
-387,263	353,643	0,052	0,076
-386,248	56,376	-0,110	0,078
-385,233	-200,000	0,004	0,017
-384,219	26,638	0,070	-0,043
-383,204	258,437	-0,131	-0,166
-382,190	68,087	0,034	0,026
-381,175	-3,157	-0,109	-0,055
-380,160	-200,000	0,003	-0,061
-379,146	800,000	-0,043	-0,115
-378,131	474,781	-0,024	0,041
-377,117	178,210	0,011	-0,012
-376,102	11,474	0,013	0,007
-375,088	-128,110	0,166	0,017
-374,073	-137,426	-0,194	0,016
-373,058	200,445	0,049	0,055
-372,044	35,794	-0,066	0,042
-371,029	709,650	-0,038	0,074
-370,015	558,397	-0,051	0,090
-369,000	-46,880	-0,061	0,022
-367,985	75,636	-0,127	-0,098
-366,971	111,039	0,049	-0,043
-365,956	-4,103	-0,055	0,028
-364,942	-163,120	0,137	-0,005
-363,927	-64,540	0,093	0,027
-362,912	-185,220	0,116	-0,001
-361,898	-18,981	0,094	0,043
-360,883	-152,280	-0,161	-0,008
-359,869	-200,000	0,010	-0,122
-358,854	-32,742	-0,045	-0,018
-357,839	81,667	0,035	-0,028
-356,825	-168,038	0,119	-0,003
-355,810	703,516	0,036	-0,071
-354,796	44,049	-0,073	-0,049
-353,781	-200,000	0,015	-0,081
-352,766	203,495	-0,133	0,151
-351,752	-152,565	-0,044	-0,002
-350,737	-200,000	-0,006	0,038
-349,723	52,564	-0,079	0,055
-348,708	800,000	-0,048	-0,133
-347,693	538,245	0,054	-0,095
-346,679	134,037	0,072	0,068
-345,664	-200,000	0,013	-0,109
-344,650	-103,603	-0,004	-0,001
-343,635	140,079	-0,042	-0,041
-342,620	-109,974	-0,133	0,020
-341,606	800,000	-0,014	-0,031
-340,591	97,048	-0,146	0,123
-339,577	60,572	0,022	0,016
-338,562	193,649	-0,077	-0,085
-337,548	321,619	0,038	-0,053
-336,533	-163,299	0,069	0,002
-335,518	800,000	-0,033	0,091
-334,504	-200,000	-0,004	0,112
-333,489	-86,986	0,078	-0,017
-332,475	800,000	0,048	-0,121
-331,460	105,319	-0,130	-0,113
-330,445	-96,450	0,045	-0,009
-329,431	800,000	-0,023	-0,064
-328,416	-119,989	-0,167	0,021
-327,402	-72,189	0,032	0,009
-326,387	179,226	0,083	0,089
-325,372	333,938	0,106	0,151
-324,358	121,765	-0,033	-0,030
-323,343	-68,797	-0,084	0,024
-322,329	5,457	0,021	-0,011
-321,314	172,805	0,109	0,115
-320,299	-59,489	0,111	0,035
-319,285	-40,068	0,115	0,043
-318,270	203,878	-0,036	0,041
-317,256	-114,590	-0,114	0,016
-316,241	800,000	0,030	-0,072
-315,226	-3,615	-0,132	0,067
-314,212	11,361	-0,046	0,026
-313,197	202,323	0,059	-0,066
-312,183	800,000	-0,009	0,018
-311,168	-200,000	0,003	-0,077
-310,153	44,751	0,084	-0,056
-309,139	-44,246	-0,086	-0,031
-308,124	130,656	0,078	0,073
-307,110	800,000	0,080	0,164
-306,095	565,169	-0,067	0,119
-305,080	-56,781	-0,075	-0,024
-304,066	-200,000	-0,001	-0,069
-303,051	339,974	0,070	0,100
-302,037	185,108	0,062	0,067
-301,022	-200,000	-0,010	-0,074
-300,008	785,028	-0,027	-0,055
-298,993	-200,000	0,003	0,113
-297,978	135,247	0,016	0,016
-296,964	800,000	0,033	-0,086
-295,949	749,658	-0,005	0,011
-294,935	800,000	0,032	0,069
-293,920	-200,000	0,010	0,069
-292,905	454,309	-0,038	-0,061
-291,891	326,637	0,072	0,101
-290,876	306,118	-0,075	0,103
-289,862	239,181	-0,086	0,105
-288,847	215,288	0,024	-0,027
-287,832	33,354	-0,030	-0,019
-286,818	288,410	0,048	0,064
-285,803	-58,756	0,079	-0,025
-284,789	800,000	-0,044	-0,112
-283,774	800,000	-0,010	-0,025
-282,759	-128,111	-0,081	0,008
-281,745	-200,000	-0,039	-0,129
-280,730	-200,000	-0,000	0,010
-279,716	122,480	-0,078	0,071
-278,701	106,966	0,061	0,053
-277,686	221,687	-0,066	0,077
-276,672	-200,000	0,014	-0,053
-275,657	238,319	0,078	0,095
-274,643	-200,000	-0,002	-0,055
-273,628	136,179	-0,119	-0,113
-272,613	-200,000	0,019	-0,092
-271,599	13,586	-0,022	-0,012
-270,584	800,000	0,024	0,072
-269,570	-200,000	-0,000	0,101
-268,555	-200,000	0,015	0,073
-267,540	-58,418	-0,099	-0,031
-266,526	-2,500	0,116	0,059
-265,511	180,584	-0,086	-0,092
-264,497	-200,000	0,011	0,080
-263,482	-200,000	-0,000	0,030
-262,467	-200,000	0,001	0,136
-261,453	-200,000	-0,022	0,148
-260,438	-111,297	0,047	-0,007
-259,424	103,521	-0,017	0,014
-258,409	45,254	-0,083	0,056
-257,395	44,745	0,006	-0,004
-256,380	88,183	0,027	0,022
-255,365	-26,843	0,102	-0,043
-254,351	800,000	0,014	-0,040
-253,336	137,132	-0,051	0,049
-252,322	114,372	0,072	-0,064
-251,307	117,565	-0,027	-0,024
-250,292	100,477	0,022	0,019
-249,278	-124,894	0,098	0,011
-248,263	-200,000	0,021	0,140
-247,249	-200,000	0,036	-0,136
-246,234	115,352	0,035	-0,031
-245,219	-25,017	0,163	-0,070
-244,205	104,165	-0,156	-0,134
-243,190	800,000	0,024	0,061
-242,176	800,000	-0,034	0,081
-241,161	-65,727	0,118	0,034
-240,146	-200,000	0,004	-0,097
-239,132	98,411	0,061	0,051
-238,117	-27,263	0,072	-0,030
-237,103	-14,780	-0,082	-0,038
-236,088	-164,487	0,066	0,002
-235,073	5,385	-0,014	0,008
-234,059	197,028	0,132	0,147
-233,044	556,981	-0,012	0,021
-232,030	-200,000	-0,053	-0,187
-231,015	-103,855	0,040	-0,007
-230,000	84,501	-0,128	-0,102
-228,986	106,169	0,016	-0,014
-227,971	-137,470	0,117	0,009
-226,957	109,212	0,101	0,089
-225,942	25,737	0,154	0,094
-224,927	-163,194	-0,037	-0,001
-223,913	-129,599	-0,085	-0,008
-222,898	-2,644	0,085	0,043
-221,884	-200,000	-0,013	-0,088
-220,869	387,078	-0,108	0,163
-219,855	-4,571	0,124	-0,062
-218,840	-200,000	0,003	-0,056
-217,825	-82,464	0,072	-0,017
-216,811	-200,000	0,004	0,018
-215,796	126,384	-0,083	0,077
-214,782	-103,665	0,046	-0,008
-213,767	-200,000	0,008	-0,053
-212,752	-200,000	0,001	0,142
-211,738	142,830	0,124	0,120
-210,723	260,422	-0,071	-0,089
-209,709	-200,000	0,001	0,013
-208,694	-200,000	-0,007	0,079
-207,679	-200,000	-0,026	-0,091
-206,665	-37,498	-0,075	0,029
-205,650	-147,003	0,102	-0,006
-204,636	-18,384	0,091	0,041
-203,621	-200,000	0,016	-0,100
-202,606	-200,000	0,007	-0,050
-201,592	-200,000	-0,009	-0,060
-200,577	-138,081	-0,112	-0,009
-199,563	-200,000	-0,002	0,024
-198,548	800,000	-0,019	-0,047
-197,533	-200,000	0,031	0,208
-196,519	237,419	0,078	0,094
-195,504	179,095	0,026	-0,028
-194,490	298,777	0,047	-0,063
-193,475	118,525	-0,041	0,037
-192,460	151,554	0,071	-0,070
-191,446	31,809	0,046	0,029
-190,431	-128,548	-0,105	-0,011
-189,417	-200,000	-0,030	0,124
-188,402	-156,621	-0,063	-0,003
-187,387	-55,546	-0,002	-0,001
-186,373	-98,927	-0,017	0,003
-185,358	354,293	0,029	0,042
-184,344	-170,568	0,123	0,003
-183,329	667,193	-0,007	-0,013
-182,315	171,734	0,038	0,040
-181,300	-52,234	-0,149	-0,050
-180,285	-123,849	-0,117	0,013
-179,271	49,273	0,002	-0,001
-178,256	119,980	-0,082	0,074
-177,242	-56,386	-0,023	-0,007
-176,227	77,691	0,094	0,073
-175,212	97,692	-0,121	-0,102
-174,198	-18,077	-0,062	-0,028
-173,183	227,931	0,078	-0,093
-172,169	-66,884	-0,048	-0,014
-171,154	800,000	-0,054	-0,111
-170,139	-200,000	0,003	0,048
-169,125	-200,000	0,014	-0,076
-168,110	-67,112	-0,023	0,007
-167,096	159,750	0,085	-0,086
-166,081	-200,000	0,019	-0,071
-165,066	-112,049	0,057	0,008
-164,052	-200,000	0,030	-0,117
-163,037	193,907	0,061	-0,067
-162,023	-200,000	-0,009	0,033
-161,008	-102,017	0,156	0,027
-159,993	-153,288	-0,164	-0,008
-158,979	-200,000	0,022	0,154
-157,964	60,355	-0,027	0,019
-156,950	800,000	0,061	-0,130
-155,935	-83,877	0,094	0,021
-154,920	-155,166	0,166	0,008
-153,906	569,596	0,013	0,024
-152,891	800,000	0,050	0,106
-151,877	-35,978	0,039	-0,015
-150,862	800,000	-0,062	-0,166
-149,847	133,322	0,088	-0,083
-148,833	31,925	-0,075	-0,047
-147,818	-200,000	0,015	-0,079
-146,804	583,390	0,045	0,080
-145,789	-200,000	0,004	-0,046
-144,775	64,460	0,048	0,035
-143,760	800,000	-0,083	-0,185
-142,745	-200,000	-0,021	-0,079
-141,731	298,634	-0,040	0,054
-140,716	184,560	-0,051	-0,055
-139,702	432,048	-0,074	0,117
-138,687	13,630	-0,069	0,039
-137,672	-200,000	-0,016	0,087
-136,658	-200,000	-0,001	0,050
-135,643	800,000	0,018	0,052
-134,629	-200,000	0,014	-0,051
-133,614	-89,356	0,069	-0,015
-132,599	-200,000	0,009	-0,191
-131,585	135,234	0,042	0,040
-130,570	-188,439	-0,059	0,001
-129,556	266,846	-0,070	0,089
-128,541	-122,879	-0,051	-0,006
-127,526	-128,139	0,036	0,004
-126,512	219,236	0,134	0,156
-125,497	-200,000	0,017	-0,068
-124,483	-200,000	0,005	-0,188
-123,468	-110,360	0,076	-0,011
-122,453	-13,785	-0,057	-0,027
-121,439	-96,994	0,104	-0,020
-120,424	800,000	0,017	-0,050
