DTS Sentinel unit serial number:	SN410029Multiplexer serial number:	ORYXHardware model number:	OX2-SRSoftware version number:	ORYX F/W v4,00 Oryx Data Collector v3.7.2.0data status	okinstallation	B4 Nyhavnadifferential loss correction	single-endedforward channel	channel 2reverse channel	N/Adate	2023/12/18time	22:15:13forward acquisition time	300,00reverse acquisition time	0,00gamma	499,1914k internal	0,3124k external	0,3124temperature offset calibration	1,0000default loss term (dB/km)	0,3820temperature slope calibration	1,0000multiplexer offset coefficient	1,0000multiplexer slope coefficient	1,0000fibre end	0,00T internal ref (°C)	21,87T ext. ref 1 (°C)	7,23T ext. ref 2 (°C)	7,19length (m)	temperature (°C)	Stokes	anti-Stokes-744,400	-13,336	0,157	0,075
-743,385	-49,768	-0,244	0,086
-742,371	38,378	0,046	0,031
-741,356	147,395	-0,076	0,077
-740,342	-90,036	0,128	-0,028
-739,327	17,998	-0,263	0,155
-738,312	52,440	-0,049	-0,035
-737,298	20,647	-0,164	0,099
-736,283	13,673	0,029	0,017
-735,269	33,130	-0,264	0,170
-734,254	45,663	-0,021	-0,015
-733,239	-114,038	-0,446	-0,064
-732,225	287,302	0,021	0,028
-731,210	-197,537	-0,095	0,000
-730,196	145,712	0,100	-0,100
-729,181	105,525	0,055	-0,048
-728,167	-200,000	-0,034	-0,151
-727,152	-200,000	-0,010	-0,051
-726,137	800,000	0,031	-0,074
-725,123	790,096	-0,038	-0,078
-724,108	134,656	-0,155	-0,150
-723,094	9,189	0,052	-0,029
-722,079	-69,210	-0,079	-0,023
-721,064	-20,653	-0,169	-0,077
-720,050	-200,000	-0,005	0,058
-719,035	211,700	0,027	-0,032
-718,021	82,445	-0,114	0,092
-717,006	162,912	-0,060	0,063
-715,991	-200,000	-0,031	-0,143
-714,977	113,164	0,071	-0,064
-713,962	764,516	-0,032	-0,065
-712,948	-47,500	-0,075	-0,027
-711,933	-141,436	-0,055	0,004
-710,918	-152,169	0,041	0,002
-709,904	-120,218	-0,078	-0,010
-708,889	7,321	-0,093	0,052
-707,875	800,000	0,054	-0,147
-706,860	-112,017	-0,089	0,013
-705,845	-200,000	0,001	0,065
-704,831	211,423	-0,082	0,096
-703,816	64,836	-0,097	-0,073
-702,802	-200,000	0,006	-0,101
-701,787	146,216	-0,091	-0,091
-700,772	-200,000	0,003	-0,029
-699,758	-95,580	0,100	-0,020
-698,743	-1,271	-0,036	-0,019
-697,729	194,830	-0,006	0,007
-696,714	-100,375	-0,062	-0,011
-695,699	41,852	0,057	-0,038
-694,685	117,701	-0,086	0,079
-693,670	-200,000	-0,008	0,028
-692,656	370,519	-0,115	-0,174
-691,641	-165,756	0,106	-0,003
-690,627	159,183	0,121	0,126
-689,612	44,936	0,032	0,022
-688,597	-200,000	-0,023	0,134
-687,583	371,511	0,129	-0,196
-686,568	-162,439	-0,072	0,003
-685,554	535,058	0,016	0,029
-684,539	127,786	0,102	0,096
-683,524	88,929	-0,035	-0,029
-682,510	-200,000	-0,016	0,058
-681,495	-7,833	-0,025	-0,013
-680,481	-200,000	-0,001	-0,035
-679,466	150,087	-0,025	-0,026
-678,451	536,752	-0,061	0,108
-677,437	-200,000	0,011	-0,040
-676,422	-200,000	-0,003	-0,068
-675,408	272,243	0,031	0,040
-674,393	-26,196	0,137	0,060
-673,378	11,035	0,057	-0,032
-672,364	28,497	-0,076	-0,047
-671,349	-200,000	-0,025	-0,144
-670,335	-200,000	0,025	-0,085
-669,320	-200,000	0,004	-0,082
-668,305	47,095	0,031	0,021
-667,291	-130,394	-0,070	0,007
-666,276	800,000	0,025	0,057
-665,262	-52,562	0,068	0,023
-664,247	138,020	0,024	0,024
-663,232	-7,271	-0,064	-0,032
-662,218	235,510	-0,024	-0,030
-661,203	800,000	-0,013	0,029
-660,189	-12,879	-0,042	-0,020
-659,174	-126,016	-0,158	-0,017
-658,159	-45,291	-0,054	-0,020
-657,145	800,000	0,020	0,049
-656,130	715,069	-0,058	0,115
-655,116	96,715	0,121	0,102
-654,101	0,097	-0,142	0,075
-653,086	58,489	0,057	-0,041
-652,072	-200,000	-0,007	0,046
-651,057	-179,972	-0,153	-0,002
-650,043	-96,086	-0,145	-0,028
-649,028	800,000	-0,039	0,089
-648,014	336,163	0,051	0,074
-646,999	-200,000	0,003	-0,058
-645,984	109,466	-0,054	-0,048
-644,970	-104,787	0,057	-0,010
-643,955	0,620	0,030	-0,016
-642,941	-11,257	-0,118	-0,057
-641,926	-35,282	0,071	0,028
-640,911	286,277	-0,029	-0,039
-639,897	512,168	0,066	0,114
-638,882	283,319	0,058	0,077
-637,868	156,793	-0,091	-0,093
-636,853	800,000	0,010	-0,023
-635,838	36,070	0,046	0,030
-634,824	-138,800	-0,112	0,009
-633,809	-35,187	0,158	0,063
-632,795	800,000	-0,030	0,093
-631,780	-200,000	0,020	-0,078
-630,765	-200,000	0,009	-0,034
-629,751	342,898	0,049	0,072
-628,736	212,216	-0,028	-0,033
-627,722	-36,014	-0,085	0,034
-626,707	249,734	0,095	-0,120
-625,692	124,447	0,035	0,033
-624,678	-200,000	0,003	0,082
-623,663	800,000	0,035	-0,088
-622,649	445,643	-0,043	-0,070
-621,634	609,695	-0,028	0,052
-620,619	303,724	0,116	0,160
-619,605	314,759	0,085	-0,120
-618,590	-124,246	0,071	0,008
-617,576	-0,687	-0,060	-0,032
-616,561	-77,281	0,091	0,023
-615,546	-86,550	-0,109	-0,025
-614,532	-200,000	-0,009	0,156
-613,517	30,631	-0,088	-0,056
-612,503	-139,971	0,167	0,013
-611,488	-99,351	0,216	0,040
-610,474	-21,209	-0,052	0,023
-609,459	800,000	0,014	-0,042
-608,444	-143,503	0,171	0,012
-607,430	-200,000	-0,012	-0,139
-606,415	47,901	0,112	-0,077
-605,401	-161,958	-0,147	0,005
-604,386	-50,096	-0,035	0,012
-603,371	-156,198	0,061	-0,003
-602,357	-200,000	0,007	0,132
-601,342	581,678	0,031	0,057
-600,328	267,538	0,036	-0,047
-599,313	-200,000	0,001	-0,048
-598,298	241,798	-0,090	-0,112
-597,284	277,427	0,063	0,084
-596,269	-93,154	0,102	0,021
-595,255	353,399	-0,017	0,024
-594,240	45,152	-0,081	0,055
-593,225	800,000	-0,031	0,081
-592,211	-13,328	-0,069	-0,033
-591,196	-200,000	-0,024	-0,102
-590,182	-37,610	-0,093	-0,037
-589,167	-200,000	-0,005	0,090
-588,152	-74,536	0,052	-0,014
-587,138	256,369	0,023	-0,029
-586,123	80,644	-0,191	-0,153
-585,109	319,735	-0,024	-0,034
-584,094	-80,854	-0,049	-0,012
-583,079	211,519	-0,031	0,037
-582,065	160,540	0,050	0,052
-581,050	226,029	0,081	0,097
-580,036	20,989	-0,123	0,074
-579,021	-200,000	0,009	-0,071
-578,006	355,925	-0,018	0,027
-576,992	-200,000	0,004	-0,175
-575,977	757,076	-0,036	0,072
-574,963	573,764	-0,069	-0,126
-573,948	270,105	-0,042	0,054
-572,934	-200,000	0,003	-0,123
-571,919	-50,675	-0,045	0,015
-570,904	-200,000	-0,001	-0,064
-569,890	272,233	-0,025	-0,033
-568,875	25,480	0,117	-0,072
-567,861	71,113	0,054	0,041
-566,846	442,661	0,098	0,159
-565,831	-0,641	-0,028	-0,015
-564,817	-138,427	-0,077	-0,006
-563,802	-200,000	-0,005	-0,138
-562,788	-23,909	-0,149	-0,066
-561,773	-135,691	0,076	0,007
-560,758	-200,000	0,018	0,090
-559,744	-5,702	0,124	0,063
-558,729	186,548	-0,020	0,022
-557,715	64,363	-0,135	-0,101
-556,700	-43,398	-0,140	-0,052
-555,685	91,782	-0,049	-0,040
-554,671	714,639	0,024	-0,047
-553,656	-200,000	-0,011	-0,036
-552,642	-200,000	0,001	0,036
-551,627	-200,000	0,007	-0,049
-550,612	21,099	-0,100	-0,060
-549,598	-200,000	0,008	-0,113
-548,583	-9,777	-0,134	0,066
-547,569	-200,000	0,009	0,083
-546,554	655,564	0,072	-0,137
-545,539	-114,424	0,135	-0,019
-544,525	72,483	0,088	-0,068
-543,510	-63,869	0,112	-0,034
-542,496	-0,408	0,051	0,027
-541,481	-159,999	0,101	-0,004
-540,466	-200,000	-0,016	0,094
-539,452	239,344	0,037	-0,046
-538,437	226,906	-0,031	-0,038
-537,423	-16,405	-0,078	0,036
-536,408	699,211	0,015	-0,029
-535,393	-200,000	0,003	-0,019
-534,379	46,339	0,050	0,034
-533,364	115,480	-0,057	-0,051
-532,350	775,896	0,064	0,130
-531,335	491,365	0,020	-0,034
-530,321	59,400	-0,095	0,069
-529,306	800,000	0,026	0,068
-528,291	176,940	-0,099	0,106
-527,277	-200,000	0,002	0,037
-526,262	50,813	-0,059	-0,041
-525,248	-130,174	0,016	-0,002
-524,233	78,246	0,089	0,070
-523,218	-200,000	-0,049	-0,205
-522,204	12,679	0,045	0,025
-521,189	211,240	-0,063	0,074
-520,175	131,988	-0,129	-0,123
-519,160	-200,000	0,003	0,025
-518,145	-200,000	-0,032	0,184
-517,131	73,136	0,090	0,070
-516,116	-200,000	-0,027	0,092
-515,102	-200,000	0,021	0,092
-514,087	-200,000	0,005	-0,108
-513,072	800,000	0,044	0,094
-512,058	258,797	0,048	0,062
-511,043	277,386	-0,028	0,037
-510,029	-200,000	0,006	-0,056
-509,014	729,073	0,036	0,071
-507,999	800,000	-0,026	-0,066
-506,985	-200,000	0,032	0,143
-505,970	322,306	-0,097	0,137
-504,956	-200,000	-0,006	-0,024
-503,941	-200,000	-0,010	0,047
-502,926	-22,068	0,062	0,028
-501,912	133,428	0,102	0,098
-500,897	-95,352	0,082	-0,016
-499,883	-164,565	-0,046	0,002
-498,868	308,622	0,069	-0,096
-497,853	689,323	0,030	-0,058
-496,839	-68,939	-0,104	0,029
-495,824	382,825	0,016	-0,025
-494,810	800,000	0,064	-0,150
-493,795	800,000	-0,014	-0,044
-492,781	-200,000	-0,157	0,000
-491,766	-38,841	-0,180	0,070
-490,751	-200,000	-0,004	-0,069
-489,737	39,700	0,020	-0,013
-488,722	12,055	0,084	0,048
-487,708	-200,000	0,017	0,108
-486,693	-200,000	-0,004	-0,025
-485,678	800,000	-0,014	0,035
-484,664	198,425	0,077	-0,087
-483,649	-5,402	0,140	-0,071
-482,635	800,000	-0,020	0,050
-481,620	2,673	0,082	0,044
-480,605	-16,738	0,138	0,064
-479,591	-151,319	0,058	0,003
-478,576	94,209	0,169	-0,142
-477,562	-108,874	-0,045	-0,007
-476,547	-200,000	-0,016	-0,058
-475,532	45,283	0,060	-0,041
-474,518	-200,000	-0,004	0,171
-473,503	-133,406	0,034	-0,003
-472,489	800,000	0,012	0,026
-471,474	-71,497	0,105	0,029
-470,459	90,916	-0,074	-0,062
-469,445	-200,000	-0,008	0,058
-468,430	-200,000	0,011	-0,110
-467,416	-70,769	-0,050	-0,014
-466,401	-73,965	-0,134	-0,036
-465,386	-200,000	-0,124	-0,000
-464,372	76,124	-0,042	-0,032
-463,357	118,827	-0,044	0,040
-462,343	800,000	-0,016	0,034
-461,328	800,000	0,047	-0,102
-460,313	-60,418	0,095	0,030
-459,299	756,943	0,062	0,125
-458,284	-200,000	0,007	0,058
-457,270	259,548	0,062	-0,079
-456,255	286,479	-0,036	0,048
-455,241	81,013	-0,091	-0,072
-454,226	-200,000	-0,008	-0,048
-453,211	354,525	0,030	0,044
-452,197	800,000	0,026	0,062
-451,182	-200,000	0,008	-0,030
-450,168	-74,029	0,022	0,006
-449,153	-84,233	-0,120	-0,028
-448,138	81,506	-0,111	-0,088
-447,124	800,000	0,031	-0,069
-446,109	39,070	0,029	-0,019
-445,095	-72,315	0,036	0,010
-444,080	66,473	0,125	0,094
-443,065	401,761	-0,032	-0,049
-442,051	522,847	0,040	-0,069
-441,036	350,274	-0,032	-0,046
-440,022	270,390	-0,083	-0,108
-439,007	238,186	0,108	-0,132
-437,992	115,868	0,037	-0,034
-436,978	679,439	-0,012	0,024
-435,963	261,041	-0,094	0,120
-434,949	-171,948	-0,101	0,002
-433,934	-169,366	0,013	0,000
-432,919	-149,905	0,059	-0,003
-431,905	-8,189	-0,122	0,060
-430,890	-56,191	0,086	-0,028
-429,876	50,141	-0,103	-0,072
-428,861	17,106	0,092	0,054
-427,846	-200,000	-0,008	-0,067
-426,832	137,998	-0,112	0,108
-425,817	-31,535	-0,057	-0,024
-424,803	800,000	0,021	-0,064
-423,788	-103,184	0,065	-0,011
-422,773	-5,207	-0,021	0,011
-421,759	81,219	0,032	0,025
-420,744	559,702	-0,046	-0,082
-419,730	745,633	0,014	0,029
-418,715	-20,290	-0,119	-0,054
-417,701	12,432	-0,138	0,078
-416,686	-95,062	-0,055	-0,011
-415,671	-70,241	0,045	-0,012
-414,657	632,670	0,028	0,051
-413,642	800,000	0,038	-0,108
-412,628	311,013	0,076	-0,106
-411,613	164,784	-0,089	-0,093
-410,598	800,000	0,016	-0,037
-409,584	-200,000	0,003	-0,063
-408,569	-18,341	0,127	0,058
-407,555	800,000	0,038	0,100
-406,540	184,770	0,058	0,063
-405,525	-200,000	-0,005	-0,149
-404,511	126,044	-0,046	-0,043
-403,496	8,745	0,098	-0,054
-402,482	159,996	0,035	-0,036
-401,467	-165,358	0,099	0,003
-400,452	-135,616	0,034	0,003
-399,438	-86,533	0,109	0,024
-398,423	39,715	-0,104	-0,068
-397,409	-96,113	-0,054	-0,010
-396,394	47,855	-0,114	0,078
-395,379	48,312	-0,030	0,020
-394,365	800,000	-0,018	-0,042
-393,350	-200,000	-0,009	0,066
-392,336	-66,245	-0,084	0,024
-391,321	-70,546	0,098	-0,027
-390,306	468,801	-0,003	-0,005
-389,292	-58,716	-0,087	-0,028
-388,277	-76,146	0,157	-0,040
-387,263	-200,000	0,022	0,153
-386,248	-82,268	-0,060	-0,014
-385,233	35,318	-0,076	0,049
-384,219	81,809	-0,028	-0,022
-383,204	-41,077	0,076	0,029
-382,190	798,138	-0,029	-0,059
-381,175	800,000	-0,039	-0,102
-380,160	275,882	0,050	0,066
-379,146	-155,614	0,151	-0,007
-378,131	296,420	0,070	0,095
-377,117	90,183	-0,028	-0,023
-376,102	54,347	-0,190	-0,135
-375,088	-96,435	-0,125	-0,024
-374,073	145,608	-0,043	-0,042
-373,058	66,058	0,033	-0,025
-372,044	-34,325	0,046	0,018
-371,029	1,108	-0,009	-0,005
-370,015	-23,413	0,118	-0,052
-369,000	229,652	0,055	-0,066
-367,985	-148,533	-0,086	-0,005
-366,971	-24,469	-0,100	-0,043
-365,956	130,183	0,050	0,047
-364,942	125,971	0,026	-0,024
-363,927	-200,000	0,001	-0,053
-362,912	277,781	0,029	-0,038
-361,898	446,636	-0,025	-0,041
-360,883	-200,000	0,001	0,108
-359,869	-200,000	-0,023	-0,090
-358,854	26,617	0,072	-0,044
-357,839	-48,674	0,135	0,047
-356,825	800,000	0,028	0,062
-355,810	-153,764	-0,087	-0,004
-354,796	202,481	-0,059	0,067
-353,781	800,000	-0,021	-0,055
-352,766	-200,000	-0,020	-0,071
-351,752	-200,000	-0,010	0,033
-350,737	-127,258	-0,051	-0,005
-349,723	92,741	0,052	-0,043
-348,708	800,000	0,038	-0,086
-347,693	-200,000	0,013	-0,082
-346,679	-89,935	-0,055	0,012
-345,664	-12,236	-0,065	0,031
-344,650	47,581	-0,124	0,085
-343,635	-34,397	0,055	-0,022
-342,620	-102,261	0,045	-0,008
-341,606	569,358	0,056	-0,100
-340,591	-87,663	0,112	0,025
-339,577	516,816	-0,081	-0,139
-338,562	180,163	-0,076	-0,082
-337,548	-102,229	-0,079	0,014
-336,533	-72,758	-0,050	-0,013
-335,518	143,981	0,064	0,063
-334,504	-107,507	-0,142	0,023
-333,489	-36,639	-0,165	-0,065
-332,475	-50,258	-0,155	0,053
-331,460	-80,327	0,083	0,020
-330,445	-12,956	0,055	0,026
-329,431	85,602	0,060	-0,048
-328,416	-10,663	-0,090	-0,044
-327,402	-200,000	-0,022	0,107
-326,387	-81,998	-0,113	0,027
-325,372	280,148	0,032	-0,042
-324,358	578,680	0,028	0,050
-323,343	53,504	-0,056	0,040
-322,329	-69,966	-0,039	0,011
-321,314	-200,000	-0,004	0,028
-320,299	-200,000	-0,009	0,089
-319,285	-15,227	0,067	-0,031
-318,270	-200,000	-0,019	-0,093
-317,256	191,137	-0,141	0,155
-316,241	-16,256	-0,065	0,030
-315,226	141,082	0,067	0,065
-314,212	-200,000	-0,021	0,105
-313,197	-200,000	0,007	0,107
-312,183	-49,241	-0,128	0,045
-311,168	-0,290	-0,093	-0,048
-310,153	800,000	0,012	-0,024
-309,139	-58,360	0,107	0,034
-308,124	800,000	0,052	-0,110
-307,110	800,000	-0,024	-0,076
-306,095	-28,829	-0,077	0,032
-305,080	800,000	-0,061	0,140
-304,066	800,000	-0,091	0,195
-303,051	470,915	0,035	0,059
-302,037	-134,068	-0,091	-0,008
-301,022	213,591	0,119	0,137
-300,008	412,404	0,082	0,128
-298,993	-200,000	0,003	0,034
-297,978	-177,277	0,048	-0,001
-296,964	-171,150	-0,076	0,002
-295,949	318,830	-0,140	-0,194
-294,935	66,153	0,125	-0,093
-293,920	176,799	0,148	-0,158
-292,905	161,000	0,119	0,122
-291,891	737,276	0,005	0,010
-290,876	628,948	0,065	0,122
-289,862	204,952	0,045	0,052
-288,847	105,644	0,053	-0,046
-287,832	15,835	0,069	-0,040
-286,818	-121,102	-0,056	-0,007
-285,803	-9,371	0,046	0,022
-284,789	800,000	0,012	-0,037
-283,774	-73,478	-0,042	-0,011
-282,759	104,762	0,049	0,043
-281,745	-160,932	-0,043	-0,002
-280,730	-95,002	0,096	-0,019
-279,716	131,850	-0,063	-0,059
-278,701	103,392	-0,066	0,056
-277,686	-200,000	0,033	0,190
-276,672	-200,000	0,030	0,129
-275,657	-200,000	0,013	-0,063
-274,643	-114,630	0,137	0,019
-273,628	800,000	0,026	-0,055
-272,613	115,723	-0,100	-0,089
-271,599	110,656	0,061	0,054
-270,584	57,306	0,017	0,012
-269,570	-200,000	0,013	-0,055
-268,555	50,103	0,154	0,106
-267,540	-198,656	-0,107	-0,000
-266,526	355,929	-0,030	0,043
-265,511	-200,000	-0,007	-0,070
-264,497	-200,000	0,016	-0,089
-263,482	80,058	0,058	0,046
-262,467	-200,000	0,009	-0,050
-261,453	-38,466	-0,085	-0,033
-260,438	800,000	0,014	-0,042
-259,424	-200,000	0,027	-0,123
-258,409	104,492	-0,120	-0,103
-257,395	72,112	0,050	-0,038
-256,380	-31,588	0,064	0,026
-255,365	-200,000	-0,009	-0,121
-254,351	43,960	-0,059	0,040
-253,336	170,049	0,056	0,058
-252,322	186,042	-0,093	-0,101
-251,307	-200,000	0,032	-0,109
-250,292	-12,687	-0,125	0,059
-249,278	-30,245	0,065	0,027
-248,263	-67,415	0,186	-0,053
-247,249	34,435	0,106	-0,068
-246,234	-150,595	-0,010	-0,001
-245,219	-200,000	-0,007	-0,139
-244,205	-200,000	0,078	-0,000
-243,190	31,970	0,043	0,027
-242,176	800,000	0,088	0,260
-241,161	-200,000	-0,013	0,076
-240,146	479,388	-0,031	0,052
-239,132	800,000	0,048	-0,134
-238,117	-200,000	-0,003	0,031
-237,103	46,407	-0,123	-0,083
-236,088	47,515	-0,053	-0,036
-235,073	-73,468	-0,072	0,019
-234,059	-200,000	0,012	-0,056
-233,044	800,000	-0,022	0,053
-232,030	273,900	-0,046	-0,060
-231,015	668,741	0,061	-0,116
-230,000	37,400	-0,064	0,042
-228,986	800,000	0,010	0,033
-227,971	-3,663	0,143	-0,072
-226,957	191,563	-0,040	0,044
-225,942	800,000	-0,002	-0,005
-224,927	-200,000	-0,003	0,046
-223,913	172,692	0,081	-0,085
-222,898	800,000	0,002	-0,005
-221,884	39,223	-0,050	-0,033
-220,869	-200,000	-0,003	0,063
-219,855	-200,000	0,010	0,106
-218,840	800,000	0,027	0,085
-217,825	-200,000	-0,014	-0,055
-216,811	-200,000	0,001	-0,075
-215,796	31,260	0,084	-0,052
-214,782	-88,680	0,128	-0,028
-213,767	-17,484	-0,050	0,023
-212,752	-98,786	0,102	-0,019
-211,738	-23,756	0,043	0,019
-210,723	-200,000	-0,039	-0,150
-209,709	-91,767	-0,138	0,028
-208,694	-200,000	0,043	-0,190
-207,679	800,000	-0,030	0,075
-206,665	-200,000	-0,009	0,061
-205,650	-158,551	0,099	0,004
-204,636	-200,000	0,014	0,052
-203,621	-200,000	0,013	0,071
-202,606	-200,000	0,014	0,178
-201,592	175,730	0,088	-0,093
-200,577	98,236	-0,097	-0,082
-199,563	-200,000	0,003	0,069
-198,548	76,917	0,121	0,094
-197,533	-200,000	-0,014	0,061
-196,519	800,000	0,024	0,067
-195,504	336,637	-0,055	-0,078
-194,490	119,009	-0,070	-0,063
-193,475	265,584	-0,107	-0,136
-192,460	-156,838	-0,061	-0,003
-191,446	-118,107	-0,008	-0,001
-190,431	397,376	0,088	0,134
-189,417	-200,000	0,016	-0,073
-188,402	416,032	-0,066	-0,103
-187,387	-200,000	0,008	0,095
-186,373	-70,136	0,065	0,018
-185,358	-149,812	-0,094	0,005
-184,344	276,792	0,062	0,080
-183,329	117,650	-0,111	0,099
-182,315	-200,000	0,000	0,125
-181,300	386,947	-0,036	0,054
-180,285	800,000	0,031	0,087
-179,271	-200,000	0,012	-0,065
-178,256	165,709	0,036	-0,038
-177,242	-118,244	-0,093	-0,012
-176,227	800,000	-0,069	0,162
-175,212	172,268	0,005	0,005
-174,198	-200,000	-0,007	0,081
-173,183	26,607	-0,042	-0,026
-172,169	8,069	-0,078	-0,042
-171,154	-200,000	0,021	-0,109
-170,139	-19,758	0,045	-0,020
-169,125	78,973	0,029	0,022
-168,110	-200,000	0,009	0,211
-167,096	540,148	-0,052	0,090
-166,081	-66,803	-0,080	-0,023
-165,066	-200,000	-0,006	0,129
-164,052	3,134	-0,103	0,054
-163,037	800,000	0,011	-0,033
-162,023	-200,000	0,002	0,201
-161,008	-200,000	-0,028	0,160
-159,993	106,938	-0,040	0,034
-158,979	-200,000	0,038	-0,137
-157,964	-200,000	-0,020	-0,146
-156,950	419,807	-0,078	-0,122
-155,935	-33,566	0,084	0,034
-154,920	10,774	0,082	0,045
-153,906	-200,000	-0,001	0,006
-152,891	-21,494	-0,097	0,043
-151,877	282,904	0,089	0,116
-150,862	231,017	-0,061	-0,073
-149,847	90,109	0,075	-0,061
-148,833	440,337	0,024	0,039
-147,818	47,070	-0,080	-0,054
-146,804	142,005	0,034	0,033
-145,789	-110,761	0,081	-0,012
-144,775	-45,267	-0,062	-0,022
-143,760	738,757	-0,051	-0,100
-142,745	800,000	0,024	-0,071
-141,731	-200,000	-0,009	-0,060
-140,716	-200,000	-0,014	0,123
-139,702	800,000	0,053	0,136
-138,687	800,000	-0,040	0,084
-137,672	173,874	-0,046	-0,048
-136,658	-200,000	0,020	-0,122
-135,643	800,000	-0,043	-0,110
-134,629	-75,847	0,066	-0,017
-133,614	800,000	0,041	0,098
-132,599	639,003	-0,020	0,038
-131,585	764,651	-0,072	0,143
-130,570	-94,833	-0,075	-0,015
-129,556	734,900	-0,068	-0,133
-128,541	91,933	-0,021	0,017
-127,526	-55,207	0,129	-0,042
-126,512	45,679	0,117	0,079
-125,497	-68,066	-0,023	0,006
-124,483	-200,000	-0,003	0,090
-123,468	43,656	0,017	0,012
-122,453	-39,545	-0,017	-0,006
-121,439	607,068	0,060	0,109
-120,424	413,926	0,010	-0,016
-119,410	0,551	0,115	0,060
-118,395	-128,513	0,148	0,015
