DTS Sentinel unit serial number:	SN410029Multiplexer serial number:	ORYXHardware model number:	OX2-SRSoftware version number:	ORYX F/W v4,00 Oryx Data Collector v3.7.2.0data status	okinstallation	B4 Nyhavnadifferential loss correction	single-endedforward channel	channel 2reverse channel	N/Adate	2023/12/15time	14:50:13forward acquisition time	300,00reverse acquisition time	0,00gamma	499,1914k internal	0,3158k external	0,3158temperature offset calibration	1,0000default loss term (dB/km)	0,3820temperature slope calibration	1,0000multiplexer offset coefficient	1,0000multiplexer slope coefficient	1,0000fibre end	0,00T internal ref (°C)	15,53T ext. ref 1 (°C)	1,99T ext. ref 2 (°C)	2,11length (m)	temperature (°C)	Stokes	anti-Stokes-744,400	-119,112	0,082	0,010
-743,385	-129,015	-0,176	0,018
-742,371	47,484	0,183	-0,125
-741,356	-102,623	-0,267	-0,046
-740,342	134,280	0,023	-0,022
-739,327	-105,141	-0,311	0,052
-738,312	111,277	0,093	0,083
-737,298	-88,171	-0,281	0,062
-736,283	-109,716	0,117	-0,018
-735,269	-98,077	-0,196	0,037
-734,254	-200,000	0,110	0,000
-733,239	-84,045	-0,470	-0,109
-732,225	30,314	0,092	0,058
-731,210	-160,760	-0,046	-0,002
-730,196	800,000	0,007	-0,024
-729,181	800,000	0,041	-0,104
-728,167	800,000	0,012	-0,037
-727,152	20,006	-0,108	-0,064
-726,137	173,560	-0,070	0,075
-725,123	-76,838	0,031	-0,008
-724,108	800,000	-0,065	-0,173
-723,094	800,000	-0,062	-0,143
-722,079	-200,000	0,046	-0,164
-721,064	17,387	-0,077	-0,045
-720,050	505,675	-0,017	-0,029
-719,035	-200,000	0,047	-0,177
-718,021	199,620	-0,052	-0,059
-717,006	800,000	0,050	-0,125
-715,991	13,407	-0,072	-0,041
-714,977	800,000	-0,054	-0,143
-713,962	617,669	0,034	0,064
-712,948	800,000	-0,038	0,079
-711,933	58,467	-0,094	-0,068
-710,918	476,052	-0,061	-0,102
-709,904	800,000	0,031	-0,089
-708,889	800,000	-0,053	-0,147
-707,875	-200,000	0,015	-0,055
-706,860	800,000	0,002	0,006
-705,845	-3,715	-0,113	-0,058
-704,831	600,643	-0,017	0,032
-703,816	28,656	-0,045	-0,028
-702,802	387,650	0,038	-0,058
-701,787	13,981	-0,044	0,025
-700,772	205,843	-0,075	-0,086
-699,758	800,000	-0,039	0,088
-698,743	-144,418	0,198	0,013
-697,729	388,040	-0,060	-0,092
-696,714	800,000	-0,023	-0,062
-695,699	202,850	-0,040	-0,045
-694,685	-25,849	-0,175	0,076
-693,670	347,718	-0,091	-0,132
-692,656	367,419	-0,060	0,089
-691,641	32,566	-0,075	-0,048
-690,627	-129,730	0,099	-0,010
-689,612	7,862	-0,040	-0,022
-688,597	-81,463	-0,150	-0,036
-687,583	-132,811	-0,051	0,005
-686,568	731,896	-0,062	-0,123
-685,554	280,575	-0,078	0,103
-684,539	-163,202	-0,052	0,002
-683,524	-128,161	-0,061	0,006
-682,510	-200,000	0,013	-0,149
-681,495	530,683	-0,076	-0,133
-680,481	61,461	-0,082	-0,060
-679,466	-200,000	0,012	-0,104
-678,451	617,095	0,037	-0,069
-677,437	752,948	-0,060	-0,121
-676,422	190,848	0,053	-0,059
-675,408	-5,218	-0,046	-0,023
-674,393	641,280	0,033	0,062
-673,378	365,863	-0,050	-0,074
-672,364	-200,000	-0,017	-0,082
-671,349	-71,108	-0,106	-0,029
-670,335	-83,296	-0,018	-0,004
-669,320	237,878	-0,049	-0,060
-668,305	73,101	-0,023	0,018
-667,291	-200,000	-0,010	-0,119
-666,276	-200,000	-0,018	-0,182
-665,262	-200,000	-0,001	-0,057
-664,247	-76,892	0,067	0,017
-663,232	-200,000	-0,015	0,056
-662,218	302,619	-0,040	0,055
-661,203	101,808	0,034	-0,029
-660,189	-21,507	0,091	-0,040
-659,174	-177,493	-0,095	0,002
-658,159	250,614	0,103	-0,129
-657,145	-200,000	-0,025	0,156
-656,130	52,675	-0,125	0,087
-655,116	-200,000	-0,017	-0,082
-654,101	105,024	-0,051	0,044
-653,086	-35,052	-0,128	0,051
-652,072	-28,368	-0,073	0,031
-651,057	-155,152	-0,031	0,001
-650,043	-76,386	-0,143	-0,037
-649,028	3,244	0,120	-0,064
-648,014	-200,000	0,028	-0,118
-646,999	800,000	-0,014	-0,039
-645,984	230,843	-0,039	-0,047
-644,970	166,022	0,014	0,015
-643,955	-200,000	0,001	0,008
-642,941	110,240	-0,050	-0,044
-641,926	800,000	-0,036	0,103
-640,911	800,000	-0,023	0,068
-639,897	800,000	-0,043	-0,090
-638,882	154,334	0,032	-0,033
-637,868	-94,105	-0,084	0,017
-636,853	-34,067	-0,124	-0,050
-635,838	-135,645	-0,044	-0,004
-634,824	-10,411	-0,131	-0,063
-633,809	-200,000	0,019	0,072
-632,795	-200,000	-0,004	0,141
-631,780	800,000	0,041	-0,130
-630,765	-35,714	-0,068	-0,027
-629,751	-200,000	0,020	-0,090
-628,736	531,399	-0,026	-0,045
-627,722	-92,747	0,209	0,042
-626,707	-28,179	0,105	-0,045
-625,692	-150,122	0,049	0,003
-624,678	-200,000	-0,038	0,123
-623,663	401,861	0,024	0,037
-622,649	110,627	0,021	-0,018
-621,634	346,471	-0,082	-0,119
-620,619	147,494	-0,033	0,033
-619,605	-55,417	0,033	-0,011
-618,590	-28,783	0,063	-0,027
-617,576	150,906	-0,035	-0,035
-616,561	-66,590	-0,038	-0,011
-615,546	800,000	-0,030	0,074
-614,532	-98,289	-0,068	0,013
-613,517	-53,235	-0,091	-0,030
-612,503	-28,847	0,130	-0,055
-611,488	33,161	-0,078	0,049
-610,474	-181,025	-0,094	-0,001
-609,459	128,397	-0,089	0,083
-608,444	-102,788	-0,051	0,009
-607,430	-190,937	0,093	-0,001
-606,415	-117,288	-0,077	-0,010
-605,401	800,000	-0,056	0,125
-604,386	-200,000	0,023	-0,137
-603,371	269,813	0,104	0,134
-602,357	-103,534	0,067	0,011
-601,342	167,588	-0,024	0,025
-600,328	-39,686	-0,105	-0,040
-599,313	800,000	-0,022	0,069
-598,298	182,324	0,017	-0,018
-597,284	175,480	-0,057	0,061
-596,269	19,960	0,050	-0,029
-595,255	219,708	-0,069	-0,081
-594,240	-200,000	0,002	-0,146
-593,225	-121,768	0,010	0,001
-592,211	-131,610	-0,178	-0,017
-591,196	-200,000	-0,015	-0,155
-590,182	-170,629	-0,058	0,001
-589,167	-94,758	0,140	0,028
-588,152	-200,000	-0,029	-0,096
-587,138	-84,643	-0,057	0,013
-586,123	-80,128	-0,058	-0,014
-585,109	137,742	0,115	-0,110
-584,094	800,000	-0,018	-0,050
-583,079	116,110	-0,115	0,103
-582,065	308,942	0,036	0,050
-581,050	-86,777	0,048	0,011
-580,036	-167,758	0,227	-0,006
-579,021	-12,205	-0,175	-0,084
-578,006	-32,980	0,045	-0,018
-576,992	28,627	-0,070	-0,043
-575,977	-0,652	0,079	-0,041
-574,963	-46,525	-0,057	0,020
-573,948	627,806	-0,018	0,033
-572,934	-120,639	-0,064	-0,008
-571,919	8,577	-0,087	0,048
-570,904	178,107	-0,080	0,086
-569,890	800,000	0,024	-0,065
-568,875	158,846	0,124	0,126
-567,861	-200,000	0,014	-0,101
-566,846	232,710	-0,047	-0,057
-565,831	800,000	0,044	-0,097
-564,817	176,753	-0,048	-0,051
-563,802	460,043	-0,022	-0,037
-562,788	-38,606	-0,088	-0,034
-561,773	-71,663	0,030	0,008
-560,758	-92,580	0,138	0,028
-559,744	-200,000	-0,006	0,052
-558,729	192,672	0,091	0,100
-557,715	-200,000	0,013	0,045
-556,700	-200,000	0,008	-0,038
-555,685	654,958	-0,024	0,046
-554,671	800,000	0,034	0,079
-553,656	-200,000	0,014	0,130
-552,642	176,106	0,071	-0,075
-551,627	171,187	-0,065	0,069
-550,612	-19,614	-0,102	-0,046
-549,598	-64,740	-0,075	0,022
-548,583	-200,000	0,007	-0,157
-547,569	61,056	0,127	0,092
-546,554	-200,000	0,013	0,093
-545,539	75,859	0,114	0,088
-544,525	-200,000	0,037	0,153
-543,510	39,840	-0,071	-0,046
-542,496	294,951	0,116	-0,155
-541,481	523,669	-0,086	-0,148
-540,466	-158,707	0,124	-0,005
-539,452	800,000	-0,030	0,088
-538,437	422,809	0,033	0,052
-537,423	800,000	0,037	-0,108
-536,408	-25,533	0,127	-0,055
-535,393	-200,000	0,019	-0,115
-534,379	298,626	-0,037	0,050
-533,364	800,000	0,056	0,121
-532,350	-40,006	0,124	-0,047
-531,335	284,846	0,041	0,055
-530,321	321,525	-0,061	-0,086
-529,306	-200,000	0,002	0,021
-528,291	49,113	-0,011	0,007
-527,277	-110,678	-0,115	-0,017
-526,262	-99,197	-0,132	0,024
-525,248	-82,258	0,056	-0,013
-524,233	425,211	-0,061	0,096
-523,218	-67,286	-0,075	0,021
-522,204	-28,408	-0,029	0,012
-521,189	800,000	0,010	0,024
-520,175	-200,000	0,006	0,027
-519,160	-87,717	-0,046	0,010
-518,145	-89,344	0,066	0,014
-517,131	800,000	-0,029	0,064
-516,116	2,432	-0,070	0,037
-515,102	154,748	0,032	0,032
-514,087	800,000	0,051	0,126
-513,072	-175,235	-0,036	-0,001
-512,058	300,011	-0,075	-0,102
-511,043	553,401	0,051	-0,090
-510,029	800,000	-0,012	-0,027
-509,014	-48,912	-0,057	0,020
-507,999	-40,448	0,018	-0,007
-506,985	800,000	0,009	0,028
-505,970	-51,202	-0,148	-0,050
-504,956	67,672	-0,050	-0,037
-503,941	800,000	-0,014	-0,037
-502,926	769,256	0,024	-0,047
-501,912	173,007	0,093	0,098
-500,897	-200,000	-0,035	-0,169
-499,883	656,918	0,005	-0,010
-498,868	265,693	0,080	-0,102
-497,853	-72,668	-0,021	-0,006
-496,839	58,301	-0,102	-0,073
-495,824	-200,000	0,003	-0,110
-494,810	-44,830	-0,054	-0,019
-493,795	-200,000	-0,006	0,038
-492,781	124,533	0,103	-0,094
-491,766	184,388	0,035	0,038
-490,751	-67,495	0,152	0,043
-489,737	-29,127	0,007	-0,003
-488,722	-115,769	0,066	-0,009
-487,708	290,229	0,050	-0,066
-486,693	-142,680	-0,039	-0,003
-485,678	800,000	-0,053	-0,140
-484,664	122,792	-0,094	-0,086
-483,649	120,890	-0,116	0,106
-482,635	800,000	0,043	-0,098
-481,620	189,377	0,104	0,114
-480,605	149,989	-0,114	-0,113
-479,591	84,400	-0,070	0,055
-478,576	6,134	-0,094	-0,051
-477,562	524,536	-0,027	0,046
-476,547	204,418	0,057	-0,065
-475,532	-42,382	-0,154	-0,057
-474,518	-200,000	-0,021	-0,080
-473,503	66,359	-0,135	-0,100
-472,489	-37,058	0,054	-0,021
-471,474	349,305	-0,006	0,008
-470,459	-2,710	-0,103	-0,053
-469,445	225,802	0,074	-0,088
-468,430	-103,623	-0,095	0,016
-467,416	800,000	0,025	-0,072
-466,401	-117,954	-0,091	-0,012
-465,386	33,778	-0,041	0,026
-464,372	262,424	0,082	-0,105
-463,357	800,000	-0,033	-0,083
-462,343	415,193	-0,047	-0,073
-461,328	-200,000	-0,001	-0,049
-460,313	-122,239	0,016	-0,002
-459,299	-74,784	0,091	0,024
-458,284	658,524	0,023	0,043
-457,270	-134,259	-0,119	-0,011
-456,255	9,508	0,045	0,025
-455,241	-200,000	0,006	0,028
-454,226	-200,000	-0,013	-0,078
-453,211	-173,664	-0,185	0,004
-452,197	78,906	0,098	-0,077
-451,182	-194,445	0,011	0,000
-450,168	-55,769	0,096	-0,031
-449,153	-200,000	0,007	-0,036
-448,138	148,845	-0,034	0,034
-447,124	1,660	-0,023	-0,012
-446,109	-186,573	0,069	0,001
-445,095	-200,000	-0,002	0,105
-444,080	-74,356	0,075	-0,020
-443,065	46,223	-0,040	-0,027
-442,051	-14,819	-0,034	-0,016
-441,036	-200,000	0,008	-0,026
-440,022	19,662	-0,011	0,006
-439,007	-200,000	-0,012	-0,181
-437,992	33,206	0,101	0,064
-436,978	-166,481	0,048	-0,001
-435,963	-48,149	0,060	0,021
-434,949	4,540	-0,046	0,025
-433,934	-200,000	0,013	-0,112
-432,919	539,552	-0,026	-0,045
-431,905	82,606	-0,057	0,045
-430,890	-102,051	0,039	-0,007
-429,876	248,746	0,084	0,104
-428,861	4,056	0,046	0,024
-427,846	110,290	0,027	-0,024
-426,832	-200,000	0,003	-0,146
-425,817	800,000	0,041	0,088
-424,803	39,499	-0,167	-0,109
-423,788	-200,000	0,002	0,086
-422,773	800,000	0,050	0,148
-421,759	717,952	0,069	0,133
-420,744	96,913	-0,081	0,068
-419,730	791,986	0,052	-0,104
-418,715	22,284	-0,102	-0,060
-417,701	800,000	0,033	-0,072
-416,686	-200,000	0,029	0,184
-415,671	-200,000	0,016	0,061
-414,657	-8,033	0,077	0,037
-413,642	-200,000	-0,024	0,099
-412,628	-82,854	0,078	-0,018
-411,613	753,183	0,042	-0,083
-410,598	-200,000	0,004	-0,048
-409,584	-200,000	0,013	-0,044
-408,569	496,340	0,023	0,039
-407,555	800,000	0,085	0,210
-406,540	59,670	-0,036	0,026
-405,525	255,044	0,084	-0,104
-404,511	800,000	0,032	-0,102
-403,496	-200,000	-0,006	0,098
-402,482	800,000	0,023	-0,049
-401,467	-12,567	0,172	0,081
-400,452	-200,000	0,001	-0,012
-399,438	-21,109	0,065	-0,029
-398,423	124,025	-0,036	-0,033
-397,409	-97,748	-0,139	0,026
-396,394	800,000	0,049	-0,139
-395,379	70,758	-0,093	0,070
-394,365	339,458	-0,061	-0,087
-393,350	-24,453	0,109	0,047
-392,336	-200,000	-0,001	0,084
-391,321	118,397	0,027	0,024
-390,306	-102,416	-0,011	0,002
-389,292	-200,000	0,009	0,031
-388,277	-24,286	0,104	0,045
-387,263	800,000	-0,010	-0,028
-386,248	-65,688	0,042	-0,012
-385,233	-200,000	-0,002	0,207
-384,219	-49,202	-0,069	-0,024
-383,204	-200,000	-0,003	0,113
-382,190	-200,000	0,014	-0,059
-381,175	800,000	-0,055	-0,133
-380,160	-200,000	-0,000	-0,010
-379,146	-200,000	-0,011	0,208
-378,131	496,364	-0,046	0,078
-377,117	40,715	-0,149	0,098
-376,102	-200,000	0,006	-0,022
-375,088	705,711	0,033	0,064
-374,073	-156,358	0,076	-0,003
-373,058	-60,939	-0,014	0,004
-372,044	40,456	-0,080	0,052
-371,029	800,000	0,066	0,137
-370,015	-63,858	-0,132	-0,039
-369,000	-200,000	-0,008	-0,030
-367,985	73,407	0,140	-0,106
-366,971	-119,468	-0,047	-0,006
-365,956	-200,000	0,014	-0,066
-364,942	-71,275	0,081	0,022
-363,927	800,000	-0,040	0,120
-362,912	62,306	-0,070	0,051
-361,898	63,216	-0,125	0,091
-360,883	294,921	-0,074	0,099
-359,869	464,890	0,006	0,010
-358,854	-158,206	0,159	-0,007
-357,839	-105,991	0,076	-0,012
-356,825	128,242	0,064	0,059
-355,810	455,657	-0,044	0,071
-354,796	-174,818	-0,029	0,001
-353,781	40,756	-0,121	0,079
-352,766	800,000	-0,050	0,118
-351,752	-200,000	0,003	0,055
-350,737	-144,391	0,038	0,003
-349,723	-34,918	0,053	-0,021
-348,708	-54,955	-0,096	0,031
-347,693	-84,758	-0,114	-0,026
-346,679	549,320	0,089	-0,156
-345,664	-200,000	-0,001	0,120
-344,650	683,657	0,072	0,137
-343,635	800,000	0,010	-0,026
-342,620	-11,845	-0,055	0,026
-341,606	-146,228	-0,173	-0,011
-340,591	-173,266	0,087	0,002
-339,577	78,115	-0,082	0,063
-338,562	142,610	0,068	-0,066
-337,548	800,000	0,014	0,033
-336,533	-103,992	0,187	0,031
-335,518	-200,000	0,017	0,000
-334,504	800,000	-0,030	0,061
-333,489	15,730	-0,141	-0,080
-332,475	22,525	-0,135	-0,080
-331,460	265,115	0,044	0,056
-330,445	800,000	0,016	-0,032
-329,431	800,000	-0,035	0,081
-328,416	-138,492	0,085	-0,007
-327,402	-147,992	-0,139	0,008
-326,387	73,298	-0,060	0,046
-325,372	-199,559	-0,161	-0,001
-324,358	151,459	0,050	-0,050
-323,343	-200,000	0,012	-0,082
-322,329	269,420	0,073	-0,093
-321,314	516,442	0,054	0,092
-320,299	-10,852	-0,042	-0,020
-319,285	467,119	0,066	0,107
-318,270	-35,343	0,062	0,024
-317,256	-72,465	-0,112	-0,030
-316,241	251,994	0,031	0,038
-315,226	-5,193	0,097	0,048
-314,212	99,492	-0,078	0,065
-313,197	55,534	0,091	0,064
-312,183	120,688	0,041	0,037
-311,168	631,977	-0,091	0,169
-310,153	89,369	0,016	-0,013
-309,139	-200,000	0,038	0,154
-308,124	41,692	0,099	0,065
-307,110	196,661	-0,063	0,069
-306,095	-200,000	0,029	-0,092
-305,080	164,310	0,051	-0,052
-304,066	-114,298	-0,075	0,010
-303,051	-200,000	-0,021	0,070
-302,037	-200,000	-0,008	0,106
-301,022	800,000	0,011	-0,034
-300,008	-62,825	-0,104	-0,031
-298,993	161,767	0,040	0,041
-297,978	-200,000	0,014	0,069
-296,964	-63,226	-0,084	0,025
-295,949	-200,000	-0,047	-0,194
-294,935	-200,000	0,023	0,086
-293,920	112,368	0,076	0,067
-292,905	-200,000	-0,000	-0,040
-291,891	-200,000	0,009	0,058
-290,876	97,816	0,005	0,004
-289,862	-200,000	0,006	-0,048
-288,847	317,030	0,063	-0,087
-287,832	20,271	-0,062	-0,036
-286,818	278,137	0,090	-0,117
-285,803	189,375	0,110	-0,120
-284,789	-200,000	0,031	0,162
-283,774	-65,152	-0,047	-0,014
-282,759	-200,000	-0,005	0,070
-281,745	-45,639	-0,114	-0,041
-280,730	-40,068	0,102	-0,038
-279,716	3,214	-0,134	0,070
-278,701	63,305	0,105	-0,076
-277,686	110,497	0,084	0,073
-276,672	-90,141	0,075	-0,016
-275,657	-200,000	0,001	-0,005
-274,643	164,941	-0,107	-0,109
-273,628	-172,551	-0,056	-0,001
-272,613	155,003	0,092	-0,091
-271,599	88,245	0,019	-0,016
-270,584	-200,000	-0,035	0,122
-269,570	-29,646	-0,069	0,029
-268,555	775,281	0,030	0,060
-267,540	-83,519	-0,067	-0,016
-266,526	95,094	0,069	-0,057
-265,511	143,284	-0,114	0,109
-264,497	-140,273	0,098	0,007
-263,482	-125,546	0,047	0,005
-262,467	-33,354	-0,067	0,027
-261,453	-200,000	0,012	-0,149
-260,438	-84,397	-0,123	-0,028
-259,424	32,837	0,083	0,052
-258,409	800,000	0,024	0,053
-257,395	-42,184	-0,113	0,042
-256,380	-200,000	-0,026	0,103
-255,365	-200,000	0,009	0,067
-254,351	-200,000	0,016	0,061
-253,336	-200,000	0,012	-0,045
-252,322	-200,000	-0,017	-0,103
-251,307	77,461	0,069	-0,053
-250,292	-149,280	0,187	-0,011
-249,278	235,113	0,065	0,077
-248,263	800,000	0,038	0,104
-247,249	203,952	0,040	0,044
-246,234	397,774	-0,053	-0,081
-245,219	6,565	-0,116	-0,062
-244,205	74,371	-0,040	0,030
-243,190	299,353	0,070	-0,093
-242,176	7,116	-0,094	0,050
-241,161	800,000	0,064	0,158
-240,146	-114,863	0,205	0,028
-239,132	-30,537	-0,169	0,069
-238,117	90,322	0,051	0,041
-237,103	-200,000	-0,016	-0,073
-236,088	12,865	-0,042	-0,024
-235,073	800,000	0,031	0,065
-234,059	429,604	-0,057	0,090
-233,044	-200,000	-0,013	0,072
-232,030	551,325	-0,040	0,070
-231,015	-148,915	-0,046	0,003
-230,000	-200,000	0,030	-0,121
-228,986	800,000	0,007	-0,018
-227,971	-50,491	0,147	0,050
-226,957	-10,022	-0,045	0,022
-225,942	89,458	0,123	0,099
-224,927	-116,803	0,110	0,014
-223,913	187,637	0,048	-0,052
-222,898	13,256	0,078	0,043
-221,884	234,435	-0,165	-0,197
-220,869	-200,000	0,002	0,054
-219,855	-74,246	0,236	-0,061
-218,840	609,788	0,023	-0,041
-217,825	210,042	0,091	0,103
-216,811	800,000	-0,045	-0,122
-215,796	-200,000	-0,007	0,067
-214,782	-78,015	-0,045	0,011
-213,767	-200,000	-0,025	-0,085
-212,752	800,000	-0,059	-0,148
-211,738	800,000	0,034	0,094
-210,723	64,495	0,110	0,080
-209,709	371,128	-0,104	-0,153
-208,694	-200,000	0,002	-0,121
-207,679	467,207	-0,147	-0,239
-206,665	-200,000	-0,008	-0,153
-205,650	-91,837	0,154	0,031
-204,636	-91,948	-0,097	0,020
-203,621	-73,788	0,075	0,020
-202,606	469,765	-0,023	0,038
-201,592	-113,410	0,147	-0,021
-200,577	30,304	-0,092	-0,057
-199,563	800,000	0,043	0,110
-198,548	-200,000	-0,038	-0,210
-197,533	-200,000	-0,024	-0,111
-196,519	-200,000	-0,007	-0,054
-195,504	-44,614	0,078	0,028
-194,490	244,498	0,069	-0,084
-193,475	-167,726	0,098	-0,003
-192,460	661,132	0,027	0,051
-191,446	-21,641	0,102	0,045
-190,431	259,783	-0,032	0,039
-189,417	154,370	-0,031	-0,031
-188,402	350,888	-0,092	-0,132
-187,387	257,643	-0,011	-0,013
-186,373	-80,101	0,120	-0,029
-185,358	94,388	0,136	-0,111
-184,344	633,328	-0,043	0,079
-183,329	-39,929	0,107	0,040
-182,315	-37,417	-0,091	-0,035
-181,300	800,000	0,051	-0,147
-180,285	-173,265	0,067	0,001
-179,271	-200,000	-0,023	0,106
-178,256	259,231	-0,066	-0,082
-177,242	-79,440	-0,066	0,016
-176,227	64,866	0,020	0,015
-175,212	-5,694	0,093	-0,046
-174,198	-200,000	-0,024	0,128
-173,183	24,087	-0,121	0,072
-172,169	87,989	-0,031	0,025
-171,154	427,065	0,029	-0,045
-170,139	-67,202	0,089	0,025
-169,125	113,266	-0,074	-0,064
-168,110	-200,000	-0,014	0,182
-167,096	-200,000	0,009	0,042
-166,081	-200,000	-0,009	0,084
-165,066	263,580	0,094	-0,118
-164,052	-43,179	-0,083	0,030
-163,037	800,000	-0,048	0,104
-162,023	283,940	0,059	0,077
-161,008	92,921	0,124	0,101
-159,993	-39,587	-0,114	0,043
-158,979	-200,000	0,002	-0,137
-157,964	-121,828	-0,081	-0,010
-156,950	-200,000	0,010	-0,125
-155,935	93,452	0,027	0,022
-154,920	140,705	-0,078	0,074
-153,906	-200,000	0,012	0,074
-152,891	-200,000	-0,020	-0,096
-151,877	238,463	0,055	0,065
-150,862	-145,613	0,095	0,006
-149,847	601,284	0,047	-0,084
-148,833	800,000	0,040	0,127
-147,818	138,147	0,083	0,079
-146,804	-200,000	0,016	0,126
-145,789	-9,125	0,067	-0,032
-144,775	-200,000	0,020	-0,103
-143,760	-200,000	0,008	-0,037
-142,745	51,835	0,013	-0,009
-141,731	800,000	-0,032	-0,078
-140,716	-45,916	-0,134	0,047
-139,702	260,428	-0,034	-0,043
-138,687	-77,140	0,091	-0,023
-137,672	732,732	-0,057	-0,111
-136,658	-200,000	0,010	-0,037
-135,643	-72,597	-0,018	-0,005
-134,629	-200,000	0,008	-0,041
-133,614	5,817	0,050	0,027
-132,599	-67,213	0,019	-0,005
-131,585	-67,676	-0,085	-0,024
-130,570	70,870	0,012	0,009
-129,556	-115,553	-0,119	0,016
-128,541	-200,000	-0,006	0,085
-127,526	-91,031	0,090	-0,019
-126,512	800,000	0,039	0,103
-125,497	10,820	-0,138	0,076
-124,483	122,374	0,083	0,075
-123,468	-200,000	-0,006	-0,116
-122,453	-162,587	0,045	0,002
-121,439	-200,000	-0,007	-0,120
-120,424	82,743	-0,053	-0,042
-119,410	5,728	-0,112	0,059
