DTS Sentinel unit serial number:	SN410029Multiplexer serial number:	ORYXHardware model number:	OX2-SRSoftware version number:	ORYX F/W v4,00 Oryx Data Collector v3.7.2.0data status	okinstallation	B4 Nyhavnadifferential loss correction	single-endedforward channel	channel 2reverse channel	N/Adate	2023/12/16time	03:40:13forward acquisition time	300,00reverse acquisition time	0,00gamma	499,1914k internal	0,3128k external	0,3128temperature offset calibration	1,0000default loss term (dB/km)	0,3820temperature slope calibration	1,0000multiplexer offset coefficient	1,0000multiplexer slope coefficient	1,0000fibre end	0,00T internal ref (°C)	22,00T ext. ref 1 (°C)	7,07T ext. ref 2 (°C)	7,25length (m)	temperature (°C)	Stokes	anti-Stokes-744,400	153,740	0,077	-0,078
-743,385	99,827	-0,261	0,225
-742,371	59,975	0,103	0,076
-741,356	-43,410	-0,225	0,084
-740,342	-117,754	0,040	0,005
-739,327	42,256	-0,246	0,166
-738,312	613,854	0,020	-0,038
-737,298	-94,574	-0,356	0,071
-736,283	-133,119	0,169	-0,016
-735,269	49,366	-0,212	0,148
-734,254	150,682	0,043	-0,044
-733,239	-38,394	-0,354	-0,139
-732,225	-145,056	0,078	0,005
-731,210	95,056	0,053	0,045
-730,196	-200,000	0,001	-0,052
-729,181	7,931	0,016	0,009
-728,167	800,000	-0,033	-0,105
-727,152	748,815	-0,018	0,037
-726,137	-46,262	-0,192	0,070
-725,123	-200,000	-0,005	-0,090
-724,108	170,735	-0,040	-0,042
-723,094	19,624	-0,153	-0,091
-722,079	800,000	-0,067	-0,183
-721,064	-47,382	-0,118	-0,043
-720,050	800,000	0,035	0,073
-719,035	-84,021	-0,047	0,011
-718,021	800,000	0,027	0,073
-717,006	-136,334	-0,070	-0,006
-715,991	-200,000	0,015	-0,067
-714,977	800,000	0,034	-0,109
-713,962	-200,000	-0,012	-0,043
-712,948	-200,000	-0,005	0,027
-711,933	-32,884	-0,019	-0,008
-710,918	-135,472	0,015	-0,001
-709,904	-42,514	-0,187	0,071
-708,889	-200,000	0,001	-0,099
-707,875	-14,982	-0,085	-0,040
-706,860	800,000	-0,016	0,037
-705,845	-200,000	-0,001	0,042
-704,831	-19,265	-0,025	-0,012
-703,816	-70,891	-0,129	0,036
-702,802	-200,000	0,014	-0,128
-701,787	259,418	-0,072	-0,092
-700,772	-79,986	-0,142	-0,035
-699,758	22,206	0,104	-0,063
-698,743	-51,319	0,065	0,022
-697,729	-32,393	0,202	-0,083
-696,714	-200,000	0,004	-0,013
-695,699	-114,483	0,088	0,012
-694,685	-82,690	0,127	0,030
-693,670	800,000	0,023	-0,051
-692,656	23,463	0,052	-0,032
-691,641	-65,374	-0,093	0,028
-690,627	4,718	0,027	0,015
-689,612	-62,952	-0,126	0,038
-688,597	-200,000	-0,013	-0,055
-687,583	-147,209	-0,199	-0,012
-686,568	-200,000	0,000	0,063
-685,554	235,971	-0,090	-0,111
-684,539	-9,821	0,100	0,049
-683,524	-55,378	-0,066	0,022
-682,510	214,599	0,087	0,103
-681,495	800,000	0,015	0,040
-680,481	-200,000	0,005	-0,077
-679,466	609,602	0,053	-0,098
-678,451	49,265	0,066	-0,046
-677,437	354,089	-0,028	-0,042
-676,422	13,289	0,083	-0,048
-675,408	83,912	0,031	-0,025
-674,393	-77,863	0,065	-0,017
-673,378	531,318	-0,011	-0,020
-672,364	-100,931	-0,157	-0,028
-671,349	37,904	-0,097	-0,064
-670,335	163,159	-0,022	0,023
-669,320	-64,213	0,093	-0,028
-668,305	-200,000	-0,008	0,056
-667,291	-200,000	-0,001	-0,007
-666,276	-50,237	-0,057	-0,020
-665,262	0,386	-0,075	-0,040
-664,247	4,674	0,045	0,025
-663,232	84,844	0,027	0,022
-662,218	-11,456	0,007	-0,003
-661,203	-129,257	0,113	-0,012
-660,189	315,686	0,075	-0,105
-659,174	463,158	-0,077	-0,129
-658,159	294,409	0,070	-0,095
-657,145	-49,813	-0,160	-0,056
-656,130	51,055	-0,067	0,047
-655,116	85,469	0,045	0,037
-654,101	-200,000	-0,017	0,150
-653,086	-41,133	-0,044	0,017
-652,072	-200,000	0,002	-0,029
-651,057	241,392	0,046	-0,057
-650,043	105,963	-0,129	-0,113
-649,028	-34,642	-0,074	-0,030
-648,014	-43,591	0,154	-0,057
-646,999	-121,221	-0,096	0,012
-645,984	324,769	-0,084	-0,119
-644,970	-200,000	0,034	-0,129
-643,955	166,339	-0,141	-0,148
-642,941	136,852	0,009	0,008
-641,926	800,000	0,027	-0,086
-640,911	-200,000	0,010	-0,074
-639,897	-118,093	0,156	-0,020
-638,882	24,242	-0,103	-0,063
-637,868	194,065	-0,024	0,027
-636,853	-47,574	-0,079	-0,028
-635,838	-53,463	-0,163	-0,055
-634,824	-200,000	0,004	-0,034
-633,809	76,886	0,149	-0,117
-632,795	-200,000	-0,027	-0,134
-631,780	-200,000	0,021	0,083
-630,765	354,045	0,028	-0,042
-629,751	800,000	-0,074	-0,173
-628,736	21,500	-0,092	-0,056
-627,722	552,974	0,059	-0,106
-626,707	-33,745	-0,128	-0,052
-625,692	24,481	0,047	0,028
-624,678	-46,929	-0,056	-0,020
-623,663	-86,077	0,036	-0,008
-622,649	526,175	-0,035	-0,062
-621,634	-107,924	-0,021	0,003
-620,619	349,262	0,061	0,090
-619,605	-119,609	0,040	0,005
-618,590	800,000	0,029	-0,076
-617,576	800,000	0,013	0,031
-616,561	411,708	-0,051	0,081
-615,546	-62,234	0,052	0,016
-614,532	-200,000	-0,008	-0,061
-613,517	-200,000	-0,011	-0,097
-612,503	451,654	0,051	-0,083
-611,488	781,020	0,058	-0,119
-610,474	-200,000	0,009	0,033
-609,459	521,764	-0,028	0,049
-608,444	464,108	0,055	-0,092
-607,430	-200,000	-0,010	-0,088
-606,415	322,610	0,112	-0,158
-605,401	-113,563	0,025	-0,004
-604,386	134,105	0,084	0,080
-603,371	-200,000	0,013	-0,079
-602,357	-200,000	-0,039	0,212
-601,342	199,680	0,042	-0,048
-600,328	-200,000	-0,002	0,116
-599,313	197,554	0,034	-0,038
-598,298	264,070	0,040	-0,052
-597,284	-200,000	-0,004	0,061
-596,269	171,530	-0,117	0,124
-595,255	709,488	-0,017	0,034
-594,240	-200,000	-0,008	-0,061
-593,225	-183,234	-0,145	-0,002
-592,211	-200,000	-0,025	-0,150
-591,196	-63,853	0,069	-0,021
-590,182	81,088	0,100	0,080
-589,167	38,494	0,037	0,025
-588,152	-200,000	-0,003	0,032
-587,138	-200,000	0,011	0,039
-586,123	133,694	-0,108	-0,103
-585,109	-27,971	-0,193	0,082
-584,094	-32,396	-0,158	-0,065
-583,079	-200,000	0,046	0,160
-582,065	306,120	-0,023	0,032
-581,050	90,280	-0,039	0,033
-580,036	-82,630	-0,156	0,037
-579,021	-117,781	-0,036	-0,005
-578,006	185,288	0,013	0,014
-576,992	-105,161	-0,065	-0,011
-575,977	800,000	0,027	0,061
-574,963	-200,000	-0,008	0,103
-573,948	-200,000	-0,014	0,115
-572,934	114,615	-0,111	0,100
-571,919	127,509	0,047	-0,044
-570,904	-77,636	-0,071	0,018
-569,890	-78,261	0,061	-0,015
-568,875	-80,198	0,077	-0,019
-567,861	-200,000	0,007	0,104
-566,846	-200,000	0,031	-0,111
-565,831	-17,101	-0,156	-0,073
-564,817	-14,471	-0,136	-0,064
-563,802	-1,943	-0,052	-0,027
-562,788	-0,306	-0,077	-0,040
-561,773	20,858	-0,025	0,015
-560,758	-68,677	-0,037	-0,011
-559,744	800,000	0,068	0,164
-558,729	800,000	0,044	-0,097
-557,715	-200,000	0,014	-0,112
-556,700	179,534	0,035	-0,038
-555,685	-200,000	-0,005	0,020
-554,671	16,500	-0,022	-0,013
-553,656	335,627	-0,030	-0,043
-552,642	62,965	-0,045	0,033
-551,627	7,970	0,069	-0,038
-550,612	800,000	0,017	0,044
-549,598	144,895	-0,104	-0,103
-548,583	-200,000	-0,034	-0,144
-547,569	100,176	0,103	-0,088
-546,554	331,719	-0,025	-0,036
-545,539	466,284	0,021	-0,035
-544,525	6,422	0,049	-0,027
-543,510	243,602	0,022	-0,027
-542,496	19,904	-0,039	-0,023
-541,481	-89,644	-0,020	-0,004
-540,466	525,756	-0,050	0,087
-539,452	230,248	0,114	0,138
-538,437	717,839	-0,055	0,109
-537,423	-45,093	-0,063	0,023
-536,408	624,012	-0,046	-0,087
-535,393	510,266	-0,041	-0,070
-534,379	-200,000	-0,003	-0,050
-533,364	91,573	0,156	-0,129
-532,350	671,767	-0,061	-0,117
-531,335	-200,000	-0,013	0,056
-530,321	-163,943	0,112	0,004
-529,306	-17,968	-0,075	0,034
-528,291	800,000	-0,048	-0,103
-527,277	-171,912	0,089	0,002
-526,262	-115,845	-0,066	0,009
-525,248	535,568	-0,058	0,102
-524,233	202,074	0,064	0,073
-523,218	-23,690	0,085	-0,037
-522,204	-53,854	-0,094	-0,032
-521,189	-37,980	0,071	0,028
-520,175	131,977	-0,152	0,144
-519,160	-200,000	-0,005	0,110
-518,145	-200,000	-0,006	-0,087
-517,131	800,000	0,048	-0,133
-516,116	800,000	0,026	0,079
-515,102	-200,000	-0,002	0,025
-514,087	-120,249	-0,044	-0,006
-513,072	800,000	-0,044	-0,115
-512,058	-200,000	0,016	-0,118
-511,043	-111,685	-0,167	0,025
-510,029	101,409	-0,036	-0,031
-509,014	800,000	0,048	0,130
-507,999	91,383	0,070	0,058
-506,985	-200,000	0,036	0,122
-505,970	-200,000	0,016	0,068
-504,956	-62,576	-0,094	0,028
-503,941	-74,530	-0,054	0,014
-502,926	-200,000	0,001	0,053
-501,912	-94,471	0,079	0,016
-500,897	-200,000	0,026	0,128
-499,883	800,000	0,048	-0,115
-498,868	-81,390	-0,158	-0,038
-497,853	-200,000	-0,026	-0,159
-496,839	68,262	-0,020	-0,015
-495,824	-200,000	-0,009	-0,069
-494,810	800,000	-0,019	-0,049
-493,795	800,000	-0,038	-0,088
-492,781	-119,725	0,063	0,008
-491,766	476,961	-0,108	0,181
-490,751	142,027	-0,036	-0,035
-489,737	717,002	0,017	-0,034
-488,722	800,000	-0,038	-0,079
-487,708	-200,000	0,016	0,111
-486,693	125,559	-0,119	0,110
-485,678	-137,215	0,102	-0,008
-484,664	267,264	-0,048	0,062
-483,649	558,653	-0,051	-0,092
-482,635	81,557	-0,030	-0,024
-481,620	59,539	-0,033	0,024
-480,605	800,000	0,006	-0,016
-479,591	-101,305	0,079	0,014
-478,576	412,534	-0,012	0,019
-477,562	109,978	-0,073	-0,064
-476,547	-200,000	-0,006	-0,200
-475,532	485,556	-0,031	-0,052
-474,518	-200,000	0,016	-0,101
-473,503	-2,670	-0,043	0,022
-472,489	91,204	-0,032	-0,026
-471,474	51,253	-0,207	-0,145
-470,459	65,199	-0,036	0,026
-469,445	103,200	-0,016	-0,014
-468,430	800,000	-0,063	-0,134
-467,416	-54,960	0,059	-0,020
-466,401	152,363	0,084	0,085
-465,386	-127,583	-0,154	-0,016
-464,372	-58,147	-0,069	0,022
-463,357	-200,000	-0,021	0,127
-462,343	-200,000	0,032	0,122
-461,328	-11,931	-0,068	0,033
-460,313	-148,911	-0,053	-0,003
-459,299	-109,901	0,030	0,005
-458,284	-49,211	0,148	0,052
-457,270	771,599	-0,004	0,007
-456,255	800,000	-0,031	-0,072
-455,241	800,000	0,046	-0,142
-454,226	428,007	0,051	0,081
-453,211	-64,972	0,035	-0,010
-452,197	66,565	0,119	-0,089
-451,182	-200,000	-0,006	0,090
-450,168	-200,000	-0,015	0,155
-449,153	-200,000	-0,004	-0,033
-448,138	-99,816	0,048	0,009
-447,124	-67,085	-0,121	-0,035
-446,109	106,811	-0,026	-0,023
-445,095	-200,000	0,021	0,070
-444,080	-200,000	-0,037	0,153
-443,065	232,676	-0,099	0,120
-442,051	731,843	-0,003	0,006
-441,036	800,000	-0,029	0,080
-440,022	800,000	-0,053	-0,158
-439,007	149,269	0,130	-0,129
-437,992	745,287	0,024	0,048
-436,978	186,696	-0,080	0,088
-435,963	-152,177	0,104	0,005
-434,949	-200,000	-0,013	-0,049
-433,934	-200,000	0,009	-0,076
-432,919	225,515	-0,099	-0,119
-431,905	-200,000	-0,021	-0,080
-430,890	-200,000	-0,016	0,064
-429,876	800,000	0,043	0,124
-428,861	800,000	-0,032	-0,065
-427,846	-200,000	-0,012	-0,156
-426,832	0,288	-0,080	-0,042
-425,817	-200,000	-0,008	0,101
-424,803	-200,000	-0,020	-0,191
-423,788	800,000	-0,036	-0,109
-422,773	172,957	-0,050	0,053
-421,759	800,000	-0,018	0,052
-420,744	8,352	0,188	0,104
-419,730	-115,810	-0,158	0,022
-418,715	103,981	-0,124	-0,107
-417,701	-52,894	-0,079	-0,027
-416,686	-199,819	-0,059	0,000
-415,671	-200,000	-0,004	-0,041
-414,657	646,621	-0,048	-0,091
-413,642	-142,791	-0,022	-0,002
-412,628	456,570	0,075	-0,123
-411,613	800,000	-0,034	-0,083
-410,598	-200,000	-0,008	-0,063
-409,584	165,047	0,064	0,066
-408,569	800,000	0,071	0,195
-407,555	800,000	-0,025	0,060
-406,540	-200,000	-0,041	0,149
-405,525	289,466	0,044	0,058
-404,511	-165,674	-0,125	-0,004
-403,496	-127,748	0,016	-0,002
-402,482	-200,000	0,000	-0,036
-401,467	38,219	0,083	0,054
-400,452	-42,492	0,092	-0,034
-399,438	-200,000	-0,027	0,149
-398,423	-80,282	0,062	-0,015
-397,409	-1,647	0,042	-0,022
-396,394	-200,000	-0,005	0,020
-395,379	-200,000	-0,012	0,045
-394,365	800,000	0,033	0,078
-393,350	-20,619	0,062	-0,028
-392,336	800,000	0,044	-0,095
-391,321	-83,584	-0,117	0,027
-390,306	220,544	0,053	0,062
-389,292	-10,121	-0,091	-0,044
-388,277	800,000	0,057	0,121
-387,263	-79,350	0,202	-0,050
-386,248	241,752	0,053	0,065
-385,233	109,476	-0,041	-0,036
-384,219	800,000	0,040	0,094
-383,204	800,000	-0,031	0,073
-382,190	-200,000	0,020	0,085
-381,175	-70,932	0,079	-0,022
-380,160	104,694	0,044	0,038
-379,146	133,647	-0,117	0,111
-378,131	-31,912	0,158	0,065
-377,117	675,291	0,029	0,056
-376,102	-88,296	0,145	0,032
-375,088	690,827	0,042	-0,081
-374,073	-98,331	-0,031	0,006
-373,058	121,255	0,040	-0,037
-372,044	0,087	0,077	0,040
-371,029	-73,416	-0,046	0,012
-370,015	800,000	-0,059	-0,170
-369,000	78,361	-0,074	-0,058
-367,985	20,292	-0,106	0,063
-366,971	-200,000	-0,003	-0,011
-365,956	-121,901	0,146	0,017
-364,942	800,000	-0,026	-0,083
-363,927	652,254	0,054	-0,103
-362,912	-154,349	-0,064	-0,003
-361,898	-200,000	-0,009	-0,195
-360,883	-200,000	0,012	0,046
-359,869	800,000	0,032	0,072
-358,854	-29,384	0,162	0,068
-357,839	-160,014	0,085	-0,003
-356,825	-77,621	-0,076	0,019
-355,810	-200,000	0,048	0,162
-354,796	65,411	-0,067	0,049
-353,781	-200,000	-0,020	0,087
-352,766	-60,170	0,032	-0,010
-351,752	102,383	0,056	-0,048
-350,737	13,081	-0,093	0,052
-349,723	-98,988	0,050	-0,009
-348,708	50,769	0,080	0,055
-347,693	57,374	-0,067	-0,048
-346,679	50,943	-0,045	-0,031
-345,664	-112,611	0,025	-0,004
-344,650	-105,489	0,089	0,015
-343,635	-200,000	0,010	0,113
-342,620	107,344	0,038	-0,033
-341,606	116,027	0,110	-0,098
-340,591	125,301	0,050	-0,046
-339,577	-113,613	0,041	-0,006
-338,562	70,330	-0,176	-0,133
-337,548	-70,231	0,066	-0,018
-336,533	767,052	0,039	0,078
-335,518	-200,000	-0,013	0,057
-334,504	336,962	0,032	0,046
-333,489	-165,463	-0,059	-0,002
-332,475	-12,966	-0,036	-0,017
-331,460	-147,883	-0,133	0,008
-330,445	-200,000	0,019	0,078
-329,431	-61,810	0,112	0,034
-328,416	-200,000	0,129	0,000
-327,402	366,457	0,039	0,058
-326,387	-52,572	-0,057	-0,019
-325,372	299,558	-0,052	-0,070
-324,358	65,266	-0,020	-0,015
-323,343	14,089	-0,087	0,050
-322,329	332,826	0,029	-0,041
-321,314	-152,986	0,066	-0,003
-320,299	-112,391	0,123	0,018
-319,285	-44,452	0,115	-0,042
-318,270	298,987	0,040	-0,054
-317,256	-200,000	-0,013	-0,058
-316,241	-48,518	0,036	-0,013
-315,226	-9,877	0,192	-0,093
-314,212	133,244	0,053	0,050
-313,197	-200,000	0,033	0,112
-312,183	-32,641	-0,067	0,027
-311,168	-200,000	0,012	-0,147
-310,153	-200,000	0,008	-0,150
-309,139	286,561	0,051	-0,068
-308,124	-43,707	-0,085	0,031
-307,110	35,239	0,117	-0,075
-306,095	42,088	-0,013	-0,009
-305,080	617,984	-0,078	-0,144
-304,066	-131,322	0,149	-0,014
-303,051	225,672	-0,038	0,046
-302,037	723,763	-0,078	-0,152
-301,022	286,897	-0,041	0,054
-300,008	-200,000	-0,013	-0,125
-298,993	-9,527	0,054	0,026
-297,978	-200,000	-0,022	0,167
-296,964	-200,000	-0,007	0,056
-295,949	-87,683	0,045	-0,010
-294,935	800,000	0,039	-0,081
-293,920	36,424	0,099	-0,064
-292,905	-200,000	-0,013	0,069
-291,891	-200,000	0,025	0,112
-290,876	230,779	-0,010	0,012
-289,862	-200,000	-0,008	-0,075
-288,847	-200,000	0,012	0,061
-287,832	93,378	-0,066	-0,055
-286,818	23,247	0,073	-0,044
-285,803	-62,247	0,159	0,048
-284,789	800,000	0,047	0,138
-283,774	-85,877	-0,054	-0,012
-282,759	-100,549	0,152	0,027
-281,745	-1,212	-0,088	-0,045
-280,730	41,638	-0,120	-0,079
-279,716	4,517	-0,042	-0,023
-278,701	176,908	-0,102	0,108
-277,686	6,122	-0,080	0,043
-276,672	800,000	0,057	0,116
-275,657	-106,764	-0,100	0,016
-274,643	-88,268	-0,246	0,053
-273,628	-20,080	-0,112	0,050
-272,613	-200,000	-0,017	-0,071
-271,599	-200,000	0,054	0,179
-270,584	133,613	-0,048	0,045
-269,570	500,949	0,051	-0,087
-268,555	-101,134	-0,165	-0,029
-267,540	266,651	0,032	-0,041
-266,526	31,569	-0,088	0,055
-265,511	-58,148	-0,061	0,019
-264,497	46,833	-0,044	0,030
-263,482	352,998	0,096	-0,140
-262,467	351,482	0,070	0,101
-261,453	690,999	0,035	-0,067
-260,438	-200,000	0,005	-0,022
-259,424	-200,000	0,004	-0,035
-258,409	-200,000	-0,024	-0,086
-257,395	102,629	0,073	-0,062
-256,380	501,078	0,016	0,026
-255,365	-70,057	0,044	-0,012
-254,351	698,970	0,050	0,096
-253,336	239,016	-0,096	0,117
-252,322	800,000	-0,026	-0,059
-251,307	17,494	0,037	-0,022
-250,292	-16,004	0,069	-0,032
-249,278	-53,227	0,020	-0,007
-248,263	-200,000	0,007	0,103
-247,249	231,677	-0,007	0,008
-246,234	67,946	0,079	-0,059
-245,219	-60,338	-0,021	-0,006
-244,205	68,240	-0,021	-0,015
-243,190	800,000	0,050	-0,102
-242,176	22,853	0,151	-0,090
-241,161	800,000	-0,028	0,077
-240,146	-200,000	0,000	0,110
-239,132	-139,022	-0,075	0,006
-238,117	-200,000	-0,009	0,097
-237,103	138,947	-0,044	0,042
-236,088	67,152	0,029	0,021
-235,073	105,849	-0,041	0,035
-234,059	23,495	-0,080	0,048
-233,044	-65,102	0,120	0,035
-232,030	-200,000	-0,010	0,161
-231,015	-200,000	-0,014	0,082
-230,000	800,000	0,037	-0,100
-228,986	293,499	0,030	-0,039
-227,971	800,000	-0,003	-0,008
-226,957	800,000	-0,032	0,097
-225,942	800,000	-0,010	0,028
-224,927	125,238	-0,024	0,022
-223,913	209,864	0,106	0,122
-222,898	151,747	0,046	-0,046
-221,884	41,275	0,011	0,007
-220,869	800,000	0,075	0,186
-219,855	338,831	0,089	0,127
-218,840	800,000	-0,008	0,020
-217,825	-200,000	-0,009	0,103
-216,811	-33,433	0,039	0,016
-215,796	-200,000	0,012	-0,111
-214,782	9,397	0,089	0,049
-213,767	170,705	0,086	0,090
-212,752	-133,887	-0,108	0,010
-211,738	281,532	0,069	0,090
-210,723	800,000	-0,050	-0,104
-209,709	-181,951	-0,168	-0,002
-208,694	-200,000	-0,002	0,084
-207,679	31,313	0,057	0,036
-206,665	-200,000	-0,016	0,074
-205,650	346,608	-0,054	0,077
-204,636	-200,000	0,021	0,115
-203,621	-38,863	0,080	-0,031
-202,606	-175,121	-0,041	-0,001
-201,592	-6,988	-0,034	0,017
-200,577	315,841	0,044	0,060
-199,563	137,184	-0,012	-0,011
-198,548	-46,240	0,126	-0,045
-197,533	194,871	-0,070	0,078
-196,519	-170,991	0,087	-0,002
-195,504	189,631	-0,038	-0,041
-194,490	800,000	-0,048	-0,140
-193,475	-200,000	-0,004	-0,090
-192,460	201,350	0,051	0,058
-191,446	-19,351	-0,035	0,016
-190,431	-114,233	0,117	0,016
-189,417	289,603	-0,024	0,032
-188,402	128,027	-0,045	0,042
-187,387	481,343	-0,057	-0,095
-186,373	-73,131	-0,042	-0,011
-185,358	7,054	-0,086	0,046
-184,344	-44,549	0,078	0,028
-183,329	66,210	-0,046	0,034
-182,315	25,997	0,194	0,117
-181,300	-109,155	0,111	0,017
-180,285	800,000	0,055	-0,122
-179,271	800,000	0,056	-0,115
-178,256	47,527	0,108	-0,073
-177,242	15,915	0,067	0,038
-176,227	-200,000	-0,019	0,078
-175,212	-193,924	0,184	-0,001
-174,198	-111,190	0,112	0,017
-173,183	800,000	-0,015	-0,042
-172,169	507,312	0,033	-0,056
-171,154	-126,739	0,043	-0,005
-170,139	-32,272	0,058	-0,023
-169,125	-200,000	0,010	0,156
-168,110	-49,114	-0,016	-0,006
-167,096	130,091	0,011	0,010
-166,081	800,000	0,046	-0,130
-165,066	-200,000	-0,013	0,084
-164,052	-200,000	0,013	-0,085
-163,037	-112,784	-0,118	-0,017
-162,023	11,587	0,041	0,023
-161,008	-200,000	0,016	0,120
-159,993	800,000	-0,046	0,122
-158,979	-200,000	-0,027	-0,090
-157,964	-200,000	0,002	-0,012
-156,950	-25,660	0,032	0,014
-155,935	89,683	-0,137	0,111
-154,920	12,577	-0,040	0,022
-153,906	595,514	0,013	0,024
-152,891	-102,456	0,050	0,009
-151,877	-31,167	-0,120	0,049
-150,862	55,243	-0,200	0,141
-149,847	800,000	0,000	-0,000
-148,833	531,501	-0,054	-0,094
-147,818	-189,607	0,138	0,001
-146,804	301,148	0,110	0,148
-145,789	-193,538	0,078	0,000
-144,775	174,966	-0,064	0,067
-143,760	-200,000	-0,003	0,028
-142,745	80,988	-0,070	0,055
-141,731	-110,936	-0,149	0,022
-140,716	-30,616	0,135	0,055
-139,702	800,000	-0,023	-0,054
-138,687	110,428	0,048	0,042
-137,672	800,000	0,049	-0,110
-136,658	-117,883	0,084	0,011
-135,643	-200,000	0,010	-0,114
-134,629	95,179	-0,145	0,120
-133,614	84,605	0,101	0,080
-132,599	-30,127	0,058	-0,024
-131,585	37,888	-0,035	-0,022
-130,570	89,849	-0,114	-0,093
-129,556	38,278	-0,075	-0,048
-128,541	800,000	-0,011	-0,029
-127,526	50,188	0,164	-0,113
-126,512	400,825	0,032	0,049
-125,497	-84,781	0,174	-0,039
-124,483	-61,103	0,145	-0,044
-123,468	220,314	0,049	-0,057
-122,453	-82,308	-0,120	-0,028
-121,439	-21,730	0,056	0,025
-120,424	-18,013	-0,097	0,044
-119,410	92,111	0,083	0,068
