DTS Sentinel unit serial number:	SN410029Multiplexer serial number:	ORYXHardware model number:	OX2-SRSoftware version number:	ORYX F/W v4,00 Oryx Data Collector v3.7.2.0data status	okinstallation	B4 Nyhavnadifferential loss correction	single-endedforward channel	channel 2reverse channel	N/Adate	2023/12/15time	14:30:13forward acquisition time	300,00reverse acquisition time	0,00gamma	499,1914k internal	0,3160k external	0,3160temperature offset calibration	1,0000default loss term (dB/km)	0,3820temperature slope calibration	1,0000multiplexer offset coefficient	1,0000multiplexer slope coefficient	1,0000fibre end	0,00T internal ref (°C)	15,04T ext. ref 1 (°C)	1,63T ext. ref 2 (°C)	1,79length (m)	temperature (°C)	Stokes	anti-Stokes-744,400	-18,882	0,225	0,103
-743,385	-189,996	-0,345	-0,003
-742,371	-20,331	0,166	0,075
-741,356	-76,843	-0,310	-0,079
-740,342	-99,459	0,328	0,060
-739,327	-35,770	-0,294	-0,117
-738,312	361,494	0,091	-0,134
-737,298	-109,397	-0,239	0,037
-736,283	-34,204	0,194	0,078
-735,269	18,658	-0,210	-0,123
-734,254	142,642	0,079	0,077
-733,239	-86,732	-0,625	-0,140
-732,225	-23,906	0,198	0,087
-731,210	-87,387	-0,151	0,033
-730,196	-200,000	0,001	-0,067
-729,181	-2,640	-0,135	0,070
-728,167	-13,756	-0,077	0,037
-727,152	-161,004	-0,083	0,003
-726,137	-200,000	0,010	0,115
-725,123	263,802	-0,101	0,130
-724,108	-171,603	-0,126	-0,003
-723,094	-88,981	0,113	0,024
-722,079	-200,000	-0,041	-0,179
-721,064	-112,462	-0,175	-0,025
-720,050	-126,698	0,047	0,005
-719,035	-200,000	-0,001	-0,038
-718,021	-11,463	-0,296	-0,143
-717,006	132,656	0,081	-0,077
-715,991	-22,136	-0,108	-0,048
-714,977	5,412	-0,035	0,019
-713,962	-94,007	-0,021	0,004
-712,948	683,557	-0,035	0,067
-711,933	-200,000	0,016	-0,081
-710,918	-200,000	0,001	-0,068
-709,904	-50,636	-0,070	-0,024
-708,889	800,000	-0,020	-0,049
-707,875	-100,519	-0,145	-0,026
-706,860	-15,977	0,070	0,033
-705,845	-61,810	-0,056	0,017
-704,831	-35,087	-0,098	-0,039
-703,816	41,834	-0,049	-0,033
-702,802	246,252	0,099	-0,123
-701,787	81,698	-0,091	0,072
-700,772	44,375	-0,057	-0,038
-699,758	800,000	-0,029	-0,071
-698,743	131,527	0,061	-0,058
-697,729	-153,568	0,060	-0,003
-696,714	381,589	0,050	0,075
-695,699	-81,262	0,055	-0,013
-694,685	-87,371	-0,137	0,030
-693,670	800,000	-0,033	0,077
-692,656	-132,813	0,213	-0,020
-691,641	32,861	-0,044	0,028
-690,627	-200,000	-0,005	-0,138
-689,612	-200,000	-0,020	-0,187
-688,597	69,521	-0,043	-0,032
-687,583	508,063	-0,123	-0,210
-686,568	560,103	-0,068	0,121
-685,554	800,000	0,051	-0,117
-684,539	800,000	0,017	-0,036
-683,524	-149,621	-0,079	-0,005
-682,510	104,969	-0,052	0,045
-681,495	-88,662	-0,038	-0,008
-680,481	-200,000	-0,016	-0,139
-679,466	606,985	0,042	-0,077
-678,451	-200,000	0,043	-0,161
-677,437	785,504	0,051	0,104
-676,422	83,983	0,025	0,020
-675,408	143,187	-0,076	-0,075
-674,393	800,000	-0,058	-0,186
-673,378	62,818	-0,028	0,021
-672,364	-200,000	-0,023	0,081
-671,349	-200,000	-0,010	-0,121
-670,335	170,672	-0,110	-0,116
-669,320	-183,595	-0,024	-0,000
-668,305	51,049	-0,197	0,137
-667,291	-182,335	0,136	-0,002
-666,276	121,057	0,053	0,048
-665,262	800,000	0,013	0,028
-664,247	122,036	0,124	-0,114
-663,232	-135,463	0,047	0,004
-662,218	365,536	0,092	0,137
-661,203	82,505	-0,034	-0,027
-660,189	-1,356	0,011	0,005
-659,174	-72,806	-0,261	-0,070
-658,159	-53,738	-0,151	-0,050
-657,145	800,000	-0,051	-0,146
-656,130	-6,453	0,082	-0,041
-655,116	-162,632	-0,089	0,003
-654,101	247,837	0,053	-0,065
-653,086	-135,247	-0,037	-0,003
-652,072	106,785	-0,015	0,013
-651,057	410,064	0,069	-0,108
-650,043	-5,538	0,061	-0,031
-649,028	60,810	0,038	-0,028
-648,014	-72,676	0,131	-0,035
-646,999	54,618	0,058	0,041
-645,984	173,413	0,053	0,056
-644,970	572,222	-0,015	-0,027
-643,955	233,075	-0,114	-0,138
-642,941	-200,000	0,083	-0,280
-641,926	354,016	-0,044	0,064
-640,911	517,586	-0,027	-0,046
-639,897	-97,516	0,048	0,009
-638,882	-200,000	-0,024	-0,087
-637,868	151,588	-0,126	-0,126
-636,853	496,612	-0,094	-0,159
-635,838	142,384	-0,004	-0,004
-634,824	-200,000	0,001	-0,092
-633,809	235,975	0,014	0,016
-632,795	70,712	0,044	0,034
-631,780	41,462	0,094	-0,062
-630,765	-101,744	-0,075	-0,013
-629,751	658,855	-0,054	-0,103
-628,736	164,078	0,028	-0,029
-627,722	-200,000	0,015	0,094
-626,707	800,000	-0,041	0,085
-625,692	-200,000	-0,008	0,071
-624,678	-200,000	-0,016	-0,074
-623,663	-200,000	-0,009	-0,068
-622,649	800,000	-0,022	-0,067
-621,634	19,677	-0,152	0,090
-620,619	800,000	-0,024	0,066
-619,605	115,255	-0,078	0,070
-618,590	145,796	0,125	0,123
-617,576	9,124	0,128	0,070
-616,561	323,416	0,109	0,153
-615,546	-200,000	-0,010	0,063
-614,532	191,986	-0,096	-0,106
-613,517	410,094	-0,106	0,165
-612,503	166,822	-0,025	-0,026
-611,488	-200,000	0,026	0,118
-610,474	156,192	-0,029	0,029
-609,459	-45,219	0,071	0,026
-608,444	353,666	-0,095	0,139
-607,430	-200,000	-0,014	-0,077
-606,415	-200,000	-0,018	-0,123
-605,401	-200,000	0,010	-0,053
-604,386	330,600	0,046	-0,065
-603,371	-200,000	-0,014	0,078
-602,357	800,000	-0,052	-0,114
-601,342	-200,000	-0,053	-0,303
-600,328	-200,000	0,030	0,114
-599,313	84,050	-0,054	-0,043
-598,298	-81,764	-0,076	0,018
-597,284	102,496	0,092	0,079
-596,269	-200,000	0,001	0,057
-595,255	-54,688	-0,098	-0,032
-594,240	-200,000	-0,014	-0,076
-593,225	599,692	-0,057	-0,104
-592,211	91,622	-0,077	-0,063
-591,196	-200,000	0,007	-0,085
-590,182	800,000	-0,011	0,028
-589,167	-104,494	-0,112	-0,019
-588,152	-8,573	-0,101	0,049
-587,138	367,408	-0,011	0,016
-586,123	800,000	-0,018	-0,039
-585,109	-200,000	-0,106	0,000
-584,094	331,885	-0,053	-0,074
-583,079	175,382	0,073	0,077
-582,065	-54,894	-0,017	0,005
-581,050	-200,000	0,001	0,049
-580,036	-35,885	-0,033	0,013
-579,021	-200,000	-0,015	0,140
-578,006	-60,521	-0,071	-0,022
-576,992	-47,003	-0,051	-0,018
-575,977	256,196	0,065	0,081
-574,963	775,832	-0,028	0,056
-573,948	-60,277	-0,110	-0,034
-572,934	-73,673	-0,083	0,022
-571,919	356,589	-0,007	0,011
-570,904	437,815	0,063	-0,101
-569,890	-200,000	0,028	-0,093
-568,875	-200,000	-0,014	0,045
-567,861	420,995	-0,105	0,165
-566,846	144,591	0,078	0,076
-565,831	-77,943	0,072	-0,018
-564,817	-20,215	-0,054	-0,024
-563,802	112,196	0,007	0,006
-562,788	-200,000	0,013	0,125
-561,773	-200,000	0,007	-0,037
-560,758	-42,208	0,033	0,012
-559,744	-200,000	0,015	0,085
-558,729	88,556	0,070	0,057
-557,715	-200,000	0,004	-0,020
-556,700	613,137	-0,043	-0,078
-555,685	158,977	-0,180	-0,183
-554,671	167,081	0,050	0,052
-553,656	100,707	0,061	0,052
-552,642	-113,656	0,130	0,018
-551,627	-129,262	-0,035	0,003
-550,612	-41,222	-0,036	0,014
-549,598	-200,000	-0,008	0,041
-548,583	131,275	0,064	0,060
-547,569	66,213	-0,049	0,036
-546,554	5,938	0,070	-0,038
-545,539	676,274	0,003	0,005
-544,525	800,000	-0,033	0,082
-543,510	-200,000	0,011	0,178
-542,496	-165,154	0,094	-0,003
-541,481	-83,998	-0,116	0,027
-540,466	-93,775	0,158	0,031
-539,452	96,965	0,029	0,024
-538,437	-200,000	-0,006	0,064
-537,423	-165,705	-0,055	-0,002
-536,408	49,849	-0,071	-0,049
-535,393	14,949	0,064	-0,037
-534,379	-34,210	-0,093	-0,037
-533,364	254,017	-0,094	0,117
-532,350	-27,726	-0,117	-0,049
-531,335	-168,569	0,084	0,002
-530,321	294,505	-0,110	-0,147
-529,306	-44,588	-0,053	0,019
-528,291	452,454	-0,010	-0,016
-527,277	207,424	0,047	-0,053
-526,262	135,109	-0,054	0,052
-525,248	-200,000	0,006	-0,094
-524,233	-200,000	-0,004	0,112
-523,218	-97,767	-0,081	-0,015
-522,204	-4,847	0,034	-0,017
-521,189	81,584	-0,074	0,059
-520,175	800,000	-0,067	-0,144
-519,160	800,000	-0,021	-0,059
-518,145	-200,000	-0,005	0,044
-517,131	302,764	0,066	0,089
-516,116	800,000	-0,005	-0,012
-515,102	160,125	0,116	-0,118
-514,087	-200,000	0,011	-0,073
-513,072	212,751	-0,075	-0,086
-512,058	800,000	0,035	-0,111
-511,043	87,974	0,073	0,059
-510,029	201,693	0,023	-0,026
-509,014	324,782	0,031	0,043
-507,999	-200,000	-0,014	-0,140
-506,985	-116,612	0,046	0,006
-505,970	-200,000	-0,003	-0,058
-504,956	-200,000	0,018	-0,078
-503,941	-28,777	0,029	0,012
-502,926	-200,000	0,014	-0,121
-501,912	170,197	0,067	0,070
-500,897	-85,483	-0,076	-0,017
-499,883	548,251	0,073	-0,129
-498,868	-200,000	0,026	-0,105
-497,853	388,316	0,034	-0,052
-496,839	800,000	-0,040	0,110
-495,824	-200,000	0,004	-0,014
-494,810	155,909	-0,043	-0,043
-493,795	-200,000	0,006	-0,033
-492,781	-44,838	-0,204	-0,074
-491,766	-32,533	-0,077	0,031
-490,751	85,985	0,102	-0,082
-489,737	-65,264	-0,164	-0,048
-488,722	-69,182	0,101	0,028
-487,708	-152,579	0,036	0,002
-486,693	-119,599	-0,147	0,018
-485,678	391,311	-0,038	-0,058
-484,664	671,495	-0,095	-0,181
-483,649	-200,000	-0,007	-0,211
-482,635	-184,091	0,158	0,002
-481,620	800,000	-0,027	0,079
-480,605	346,481	0,038	-0,054
-479,591	294,344	-0,023	-0,030
-478,576	513,828	-0,083	0,141
-477,562	244,537	-0,079	-0,097
-476,547	-71,887	0,150	-0,040
-475,532	-105,105	-0,131	0,022
-474,518	-143,708	-0,080	-0,005
-473,503	166,176	0,049	0,050
-472,489	-200,000	-0,011	-0,060
-471,474	-86,235	0,040	-0,009
-470,459	-200,000	-0,006	-0,070
-469,445	28,510	-0,073	-0,045
-468,430	800,000	-0,037	-0,118
-467,416	-143,899	0,068	-0,005
-466,401	22,215	0,119	-0,070
-465,386	-170,345	-0,098	-0,002
-464,372	86,603	-0,056	0,045
-463,357	800,000	-0,011	-0,033
-462,343	696,651	-0,057	0,111
-461,328	-149,373	-0,114	0,007
-460,313	-13,988	0,078	-0,037
-459,299	-200,000	0,012	-0,074
-458,284	202,043	0,101	0,113
-457,270	114,900	0,120	0,107
-456,255	42,237	-0,039	0,026
-455,241	-138,860	0,003	0,000
-454,226	137,987	-0,009	0,009
-453,211	-200,000	-0,008	0,075
-452,197	64,727	-0,049	0,036
-451,182	-46,444	0,156	-0,056
-450,168	95,943	-0,053	0,044
-449,153	244,083	-0,096	-0,118
-448,138	102,881	0,088	0,075
-447,124	463,154	0,017	0,027
-446,109	-102,659	-0,025	0,004
-445,095	-200,000	0,018	0,113
-444,080	78,418	0,114	-0,089
-443,065	800,000	-0,049	0,112
-442,051	-200,000	0,016	0,077
-441,036	34,969	0,099	0,063
-440,022	32,414	-0,091	-0,057
-439,007	190,252	-0,030	-0,033
-437,992	245,924	0,063	0,077
-436,978	17,391	0,170	0,098
-435,963	140,935	0,091	0,088
-434,949	437,629	-0,062	0,099
-433,934	800,000	0,054	-0,163
-432,919	-200,000	0,013	-0,047
-431,905	-200,000	0,010	0,043
-430,890	561,870	-0,034	0,060
-429,876	-48,872	-0,118	0,041
-428,861	236,043	0,074	0,089
-427,846	-109,256	-0,111	-0,017
-426,832	335,245	-0,061	0,086
-425,817	80,121	0,044	0,034
-424,803	-162,060	0,065	-0,002
-423,788	-200,000	-0,007	0,084
-422,773	681,312	0,072	0,138
-421,759	-200,000	0,028	0,137
-420,744	396,152	0,049	0,075
-419,730	-53,456	-0,049	-0,016
-418,715	-200,000	-0,069	0,224
-417,701	-200,000	-0,002	0,172
-416,686	-148,034	0,018	-0,001
-415,671	-200,000	-0,005	0,051
-414,657	143,887	0,119	0,116
-413,642	-146,807	0,068	-0,004
-412,628	-44,857	0,032	0,012
-411,613	113,045	0,021	-0,019
-410,598	-38,339	0,079	-0,030
-409,584	-200,000	0,000	0,035
-408,569	-200,000	-0,022	0,114
-407,555	-54,198	0,152	0,050
-406,540	45,958	-0,070	0,047
-405,525	800,000	0,048	-0,108
-404,511	-19,586	-0,053	-0,024
-403,496	800,000	0,052	-0,143
-402,482	-106,116	0,093	-0,015
-401,467	65,515	-0,035	0,026
-400,452	505,210	0,027	-0,045
-399,438	98,814	-0,073	-0,061
-398,423	-18,983	-0,081	0,037
-397,409	-143,957	0,041	-0,003
-396,394	-84,251	-0,063	0,014
-395,379	-200,000	0,005	0,086
-394,365	618,208	0,030	0,055
-393,350	800,000	0,032	0,103
-392,336	69,937	0,051	-0,038
-391,321	800,000	-0,005	-0,015
-390,306	-77,466	0,054	-0,014
-389,292	93,041	0,049	-0,041
-388,277	-153,857	-0,101	-0,005
-387,263	644,642	0,031	-0,058
-386,248	87,269	0,128	-0,103
-385,233	226,073	0,029	-0,035
-384,219	75,855	0,058	0,045
-383,204	7,092	0,048	-0,026
-382,190	-135,252	-0,232	0,020
-381,175	686,760	0,010	-0,020
-380,160	70,785	0,026	0,020
-379,146	22,388	0,083	0,049
-378,131	-96,764	-0,120	-0,023
-377,117	-200,000	0,043	0,142
-376,102	-200,000	-0,003	-0,144
-375,088	131,504	-0,086	-0,080
-374,073	-200,000	-0,017	0,068
-373,058	199,609	0,095	-0,105
-372,044	800,000	0,011	0,022
-371,029	800,000	-0,043	0,100
-370,015	-200,000	0,012	0,084
-369,000	-200,000	0,003	-0,089
-367,985	-162,254	-0,288	-0,010
-366,971	-40,847	0,120	0,045
-365,956	-200,000	0,014	0,057
-364,942	143,530	-0,059	0,057
-363,927	-112,333	0,094	-0,013
-362,912	-12,541	-0,034	0,016
-361,898	148,156	-0,027	-0,026
-360,883	145,237	0,153	-0,149
-359,869	-117,064	-0,055	0,007
-358,854	71,509	0,056	0,042
-357,839	-177,657	0,052	0,001
-356,825	-20,444	0,185	-0,082
-355,810	-21,112	0,064	0,028
-354,796	-200,000	-0,010	0,036
-353,781	-94,006	-0,069	0,014
-352,766	465,576	-0,044	0,072
-351,752	-143,285	0,031	-0,002
-350,737	-12,068	0,080	-0,038
-349,723	-14,586	0,105	0,049
-348,708	-125,148	-0,071	0,008
-347,693	-69,373	0,086	-0,024
-346,679	-31,618	-0,096	0,039
-345,664	-105,884	-0,133	0,022
-344,650	-54,940	0,086	0,028
-343,635	-167,958	0,133	0,004
-342,620	-85,743	0,052	0,012
-341,606	-200,000	-0,007	0,063
-340,591	-200,000	-0,019	0,077
-339,577	-200,000	-0,017	-0,069
-338,562	93,196	-0,078	-0,064
-337,548	46,449	0,039	0,026
-336,533	15,359	0,005	-0,003
-335,518	800,000	0,042	-0,102
-334,504	-33,771	-0,067	0,027
-333,489	276,081	0,085	-0,109
-332,475	800,000	-0,055	0,114
-331,460	-151,096	0,097	0,005
-330,445	203,367	-0,033	0,037
-329,431	-200,000	-0,008	0,124
-328,416	9,533	-0,026	0,014
-327,402	-200,000	-0,020	-0,067
-326,387	-98,456	-0,118	0,022
-325,372	800,000	-0,048	-0,109
-324,358	-200,000	-0,004	0,058
-323,343	800,000	0,032	0,084
-322,329	-200,000	-0,051	-0,214
-321,314	65,066	0,015	-0,011
-320,299	-11,517	0,030	0,014
-319,285	-96,973	0,071	0,013
-318,270	800,000	-0,025	-0,077
-317,256	-24,611	-0,159	-0,068
-316,241	-200,000	-0,010	0,052
-315,226	-64,756	0,097	-0,028
-314,212	314,213	-0,076	0,105
-313,197	402,459	0,060	0,091
-312,183	-26,410	0,201	0,085
-311,168	-200,000	0,011	-0,043
-310,153	-200,000	-0,015	0,065
-309,139	800,000	0,062	-0,150
-308,124	-200,000	-0,020	-0,066
-307,110	128,417	0,032	0,030
-306,095	306,512	0,039	0,053
-305,080	121,095	0,048	-0,043
-304,066	-56,919	0,028	0,009
-303,051	-200,000	0,016	-0,152
-302,037	-200,000	-0,003	-0,016
-301,022	-32,194	0,047	-0,019
-300,008	187,490	0,024	0,026
-298,993	-8,974	0,006	-0,003
-297,978	28,729	-0,042	0,026
-296,964	-200,000	-0,034	0,000
-295,949	-26,344	-0,061	0,026
-294,935	122,055	0,115	0,103
-293,920	800,000	0,021	-0,060
-292,905	-47,534	0,057	-0,020
-291,891	-98,101	-0,110	-0,020
-290,876	-16,868	0,076	0,035
-289,862	765,613	0,019	0,038
-288,847	800,000	-0,020	0,054
-287,832	146,848	0,049	-0,048
-286,818	95,356	-0,048	0,039
-285,803	97,652	0,121	0,100
-284,789	111,233	-0,031	0,027
-283,774	-80,024	0,097	0,023
-282,759	718,087	-0,025	0,048
-281,745	800,000	-0,059	0,138
-280,730	108,837	-0,011	0,009
-279,716	-127,114	-0,085	-0,009
-278,701	146,140	-0,117	0,114
-277,686	178,857	0,084	0,089
-276,672	800,000	0,042	0,129
-275,657	-70,529	-0,065	-0,018
-274,643	216,837	-0,018	0,021
-273,628	-20,169	0,039	-0,017
-272,613	-200,000	0,009	-0,068
-271,599	-116,825	0,031	-0,004
-270,584	-160,186	0,075	-0,003
-269,570	193,737	0,074	0,081
-268,555	-200,000	0,033	-0,165
-267,540	800,000	-0,047	0,098
-266,526	-200,000	-0,104	0,000
-265,511	32,649	-0,076	0,047
-264,497	-61,772	-0,187	-0,056
-263,482	-200,000	0,011	0,141
-262,467	205,456	-0,016	-0,018
-261,453	56,351	-0,051	-0,036
-260,438	-139,902	-0,046	0,003
-259,424	-58,361	0,117	0,036
-258,409	300,573	-0,095	-0,126
-257,395	-143,984	0,082	-0,005
-256,380	-10,650	0,075	0,036
-255,365	-5,545	-0,026	-0,013
-254,351	-200,000	0,001	0,005
-253,336	-73,200	0,041	0,011
-252,322	70,423	0,086	0,064
-251,307	213,711	-0,023	0,027
-250,292	-200,000	-0,011	0,079
-249,278	-93,436	-0,130	0,026
-248,263	132,739	-0,026	0,024
-247,249	-80,810	0,083	0,020
-246,234	-77,175	-0,098	-0,024
-245,219	58,424	0,031	0,022
-244,205	128,948	0,024	-0,022
-243,190	254,479	0,047	-0,058
-242,176	800,000	0,022	-0,046
-241,161	800,000	-0,032	0,073
-240,146	-200,000	0,025	-0,084
-239,132	246,010	0,045	-0,055
-238,117	344,248	-0,034	-0,049
-237,103	117,783	0,055	-0,049
-236,088	49,023	0,031	0,021
-235,073	455,327	0,041	0,066
-234,059	60,134	-0,099	0,071
-233,044	-139,036	0,093	0,007
-232,030	413,113	0,043	-0,067
-231,015	-200,000	0,012	-0,132
-230,000	198,575	0,072	-0,080
-228,986	800,000	-0,049	0,143
-227,971	15,893	0,051	0,029
-226,957	-200,000	0,012	-0,101
-225,942	-200,000	-0,022	0,105
-224,927	-200,000	-0,001	0,027
-223,913	-61,023	-0,164	-0,050
-222,898	429,159	-0,038	-0,060
-221,884	-200,000	0,016	0,088
-220,869	34,885	-0,027	-0,017
-219,855	63,204	0,052	0,037
-218,840	-16,957	-0,017	0,008
-217,825	213,734	0,020	-0,023
-216,811	537,184	-0,050	0,087
-215,796	-54,812	0,175	-0,057
-214,782	-200,000	0,004	-0,022
-213,767	-200,000	-0,024	0,081
-212,752	79,464	-0,030	-0,023
-211,738	12,831	-0,121	-0,067
-210,723	244,682	0,091	0,111
-209,709	49,320	-0,102	0,069
-208,694	67,954	0,140	-0,103
-207,679	59,197	-0,115	-0,081
-206,665	-153,211	0,049	-0,002
-205,650	-65,169	0,157	-0,045
-204,636	-68,444	-0,093	0,026
-203,621	13,178	-0,017	-0,009
-202,606	-200,000	0,012	0,041
-201,592	78,225	-0,067	-0,052
-200,577	-28,608	-0,149	-0,062
-199,563	-200,000	0,005	0,053
-198,548	-200,000	-0,028	-0,092
-197,533	-200,000	0,001	-0,084
-196,519	-200,000	-0,028	0,224
-195,504	-26,476	-0,073	0,031
-194,490	282,649	-0,055	-0,071
-193,475	-200,000	0,007	-0,084
-192,460	218,981	0,069	-0,080
-191,446	-200,000	-0,027	-0,140
-190,431	70,000	-0,148	-0,110
-189,417	18,626	0,168	0,096
-188,402	38,737	-0,023	0,015
-187,387	99,150	-0,094	0,078
-186,373	0,131	-0,147	-0,075
-185,358	-200,000	-0,016	-0,066
-184,344	105,656	0,062	0,053
-183,329	-116,242	0,159	0,021
-182,315	-200,000	0,006	0,026
-181,300	800,000	0,013	-0,040
-180,285	535,695	-0,081	-0,139
-179,271	13,532	-0,079	0,044
-178,256	24,990	0,034	-0,020
-177,242	-200,000	-0,018	0,069
-176,227	800,000	0,022	-0,045
-175,212	213,056	-0,050	0,057
-174,198	800,000	0,023	0,054
-173,183	39,995	0,130	0,084
-172,169	43,400	-0,012	-0,008
-171,154	688,928	-0,024	-0,045
-170,139	-28,704	-0,017	0,007
-169,125	24,687	0,051	-0,030
-168,110	10,676	0,169	0,093
-167,096	800,000	0,032	-0,091
-166,081	-200,000	0,026	-0,098
-165,066	0,408	-0,054	-0,028
-164,052	17,472	-0,062	-0,035
-163,037	376,719	0,040	0,059
-162,023	38,467	0,153	-0,098
-161,008	60,364	0,040	0,029
-159,993	14,898	0,044	-0,025
-158,979	-200,000	0,005	-0,151
-157,964	-200,000	0,010	-0,105
-156,950	-200,000	0,005	-0,090
-155,935	-34,676	-0,077	-0,030
-154,920	-160,982	0,091	0,003
-153,906	-200,000	-0,021	0,079
-152,891	800,000	0,024	-0,060
-151,877	151,576	-0,083	-0,082
-150,862	800,000	0,017	-0,050
-149,847	16,351	0,048	0,027
-148,833	68,603	0,176	-0,129
-147,818	-200,000	-0,001	-0,047
-146,804	-5,372	-0,102	0,050
-145,789	178,784	0,043	-0,045
-144,775	21,998	-0,203	0,119
-143,760	547,770	0,055	0,095
-142,745	-21,738	-0,054	-0,024
-141,731	49,780	0,102	-0,069
-140,716	-200,000	-0,012	0,058
-139,702	303,135	-0,018	-0,024
-138,687	631,524	-0,066	0,122
-137,672	-200,000	0,029	0,095
-136,658	90,486	0,151	-0,121
-135,643	-200,000	-0,027	-0,096
-134,629	800,000	-0,054	-0,117
-133,614	7,766	0,126	-0,068
-132,599	518,582	-0,040	0,068
-131,585	16,330	-0,040	0,023
-130,570	800,000	0,044	-0,099
-129,556	13,929	-0,076	-0,042
-128,541	800,000	-0,020	-0,041
-127,526	-192,273	0,126	-0,001
-126,512	54,762	-0,089	-0,062
-125,497	-111,967	-0,073	0,011
-124,483	-72,908	0,049	0,013
-123,468	-102,744	-0,055	-0,009
-122,453	-110,387	0,195	-0,029
-121,439	131,359	-0,043	0,039
-120,424	432,686	0,033	0,051
-119,410	-118,924	0,070	0,009
-118,395	-68,649	-0,098	0,027
