DTS Sentinel unit serial number:	SN410029Multiplexer serial number:	ORYXHardware model number:	OX2-SRSoftware version number:	ORYX F/W v4,00 Oryx Data Collector v3.7.2.0data status	okinstallation	B4 Nyhavnadifferential loss correction	single-endedforward channel	channel 2reverse channel	N/Adate	2023/12/16time	12:25:14forward acquisition time	300,00reverse acquisition time	0,00gamma	499,1914k internal	0,3126k external	0,3126temperature offset calibration	1,0000default loss term (dB/km)	0,3820temperature slope calibration	1,0000multiplexer offset coefficient	1,0000multiplexer slope coefficient	1,0000fibre end	0,00T internal ref (°C)	24,07T ext. ref 1 (°C)	10,05T ext. ref 2 (°C)	10,19length (m)	temperature (°C)	Stokes	anti-Stokes-744,400	-26,426	-0,030	0,013
-743,385	73,121	-0,194	0,151
-742,371	800,000	-0,020	-0,060
-741,356	-200,000	-0,043	0,186
-740,342	-132,820	0,131	-0,012
-739,327	800,000	-0,072	0,200
-738,312	-78,839	0,077	-0,019
-737,298	42,932	-0,089	0,060
-736,283	91,872	0,089	0,075
-735,269	225,877	-0,191	0,231
-734,254	280,748	-0,074	-0,098
-733,239	-94,839	-0,279	-0,056
-732,225	396,721	0,038	-0,059
-731,210	-20,449	0,067	0,031
-730,196	207,984	-0,074	0,086
-729,181	-55,259	-0,036	0,012
-728,167	121,738	-0,111	0,103
-727,152	113,656	0,032	0,029
-726,137	385,440	-0,092	-0,142
-725,123	54,083	-0,138	0,098
-724,108	-79,231	0,146	-0,037
-723,094	-200,000	-0,003	-0,127
-722,079	307,714	-0,038	-0,053
-721,064	-35,829	-0,074	0,029
-720,050	-200,000	-0,013	-0,155
-719,035	-20,579	-0,139	-0,063
-718,021	-200,000	-0,017	-0,093
-717,006	155,842	-0,124	-0,127
-715,991	72,693	0,017	-0,013
-714,977	-200,000	-0,003	-0,054
-713,962	100,921	0,033	0,029
-712,948	-65,701	0,068	-0,020
-711,933	182,404	0,067	-0,074
-710,918	800,000	-0,002	0,007
-709,904	-45,959	-0,067	0,024
-708,889	-200,000	-0,006	0,061
-707,875	-82,732	0,034	0,008
-706,860	32,491	0,114	-0,073
-705,845	-200,000	0,030	0,211
-704,831	90,543	0,130	0,108
-703,816	-94,966	-0,065	-0,013
-702,802	-40,376	-0,053	-0,021
-701,787	264,067	0,032	-0,042
-700,772	376,806	0,056	-0,085
-699,758	410,974	-0,121	0,192
-698,743	-97,524	-0,107	0,020
-697,729	-95,749	-0,096	-0,019
-696,714	103,486	0,066	0,057
-695,699	157,293	-0,037	0,038
-694,685	78,477	-0,063	0,050
-693,670	-71,483	-0,100	0,028
-692,656	-200,000	0,000	-0,130
-691,641	-200,000	-0,000	-0,093
-690,627	-148,576	0,072	0,004
-689,612	-200,000	0,030	0,100
-688,597	-133,973	-0,092	0,008
-687,583	-200,000	-0,031	-0,209
-686,568	602,440	-0,060	-0,112
-685,554	6,896	-0,134	0,074
-684,539	-86,994	0,037	0,008
-683,524	214,121	-0,071	0,083
-682,510	650,246	0,036	0,069
-681,495	-200,000	0,007	-0,152
-680,481	64,786	-0,041	0,031
-679,466	392,171	-0,032	-0,050
-678,451	-136,776	-0,040	0,003
-677,437	-40,092	-0,095	-0,036
-676,422	-200,000	0,005	0,078
-675,408	-63,902	-0,121	0,036
-674,393	-200,000	0,012	0,057
-673,378	201,520	-0,071	-0,081
-672,364	61,374	-0,158	0,117
-671,349	-200,000	0,011	-0,062
-670,335	232,773	-0,044	-0,054
-669,320	670,488	0,065	-0,126
-668,305	475,125	-0,019	0,031
-667,291	-200,000	-0,003	-0,124
-666,276	-200,000	-0,003	-0,049
-665,262	-85,112	-0,158	-0,036
-664,247	-200,000	-0,005	-0,059
-663,232	362,183	0,023	0,034
-662,218	-200,000	-0,007	-0,022
-661,203	217,551	0,017	0,020
-660,189	-142,910	0,093	-0,007
-659,174	81,239	-0,153	0,123
-658,159	-200,000	-0,009	-0,216
-657,145	-200,000	-0,007	-0,118
-656,130	-200,000	-0,029	0,124
-655,116	-200,000	0,051	0,243
-654,101	-73,589	-0,113	-0,030
-653,086	-167,791	0,031	0,001
-652,072	800,000	-0,045	-0,098
-651,057	-200,000	-0,060	-0,210
-650,043	18,389	-0,087	-0,051
-649,028	8,288	0,158	0,088
-648,014	800,000	0,077	0,178
-646,999	214,325	0,072	0,084
-645,984	231,049	0,072	0,087
-644,970	588,470	-0,020	0,037
-643,955	651,645	-0,086	-0,164
-642,941	-34,201	0,072	-0,029
-641,926	-100,544	0,157	-0,028
-640,911	200,678	-0,050	0,057
-639,897	434,267	-0,054	0,088
-638,882	70,873	0,130	0,100
-637,868	98,402	-0,112	-0,096
-636,853	-115,583	0,051	0,007
-635,838	60,120	-0,033	0,024
-634,824	49,786	-0,202	-0,141
-633,809	420,358	-0,009	0,015
-632,795	-78,063	-0,041	-0,010
-631,780	-38,888	0,017	0,007
-630,765	23,550	-0,032	-0,020
-629,751	662,113	-0,043	-0,083
-628,736	108,975	-0,036	0,032
-627,722	376,978	-0,074	0,113
-626,707	67,246	-0,063	0,048
-625,692	199,482	-0,052	-0,059
-624,678	-200,000	0,008	0,050
-623,663	124,825	0,109	-0,102
-622,649	-83,468	-0,052	-0,012
-621,634	86,341	-0,059	-0,048
-620,619	-200,000	-0,003	-0,077
-619,605	-200,000	0,024	0,083
-618,590	-200,000	-0,012	0,042
-617,576	95,415	-0,054	-0,046
-616,561	17,299	-0,057	0,034
-615,546	-200,000	0,021	-0,137
-614,532	-200,000	-0,014	0,047
-613,517	-200,000	-0,015	-0,138
-612,503	105,491	-0,036	-0,031
-611,488	-89,277	-0,035	0,008
-610,474	-147,526	0,021	0,001
-609,459	154,947	-0,028	0,029
-608,444	191,789	-0,101	-0,113
-607,430	-200,000	-0,004	-0,066
-606,415	-200,000	-0,002	0,085
-605,401	86,458	-0,099	0,081
-604,386	85,763	0,105	0,086
-603,371	107,377	-0,149	0,132
-602,357	-91,128	-0,156	-0,033
-601,342	-200,000	-0,008	-0,043
-600,328	-96,289	0,047	0,009
-599,313	27,649	0,090	0,056
-598,298	-200,000	-0,001	-0,098
-597,284	-62,589	0,086	0,026
-596,269	-200,000	-0,003	-0,047
-595,255	23,064	0,120	0,072
-594,240	800,000	0,049	-0,114
-593,225	94,746	-0,080	0,068
-592,211	96,043	-0,146	-0,124
-591,196	592,582	-0,077	0,142
-590,182	320,638	0,100	0,141
-589,167	190,377	0,047	0,052
-588,152	103,673	-0,048	0,041
-587,138	395,580	-0,018	0,027
-586,123	-200,000	0,024	0,110
-585,109	-200,000	-0,007	0,080
-584,094	-70,416	-0,087	-0,024
-583,079	800,000	0,050	0,157
-582,065	251,749	0,083	-0,105
-581,050	-200,000	0,011	-0,103
-580,036	83,033	0,053	0,043
-579,021	-28,345	0,087	0,037
-578,006	800,000	-0,059	-0,177
-576,992	800,000	0,036	-0,095
-575,977	466,186	0,021	0,036
-574,963	11,461	0,049	0,028
-573,948	36,493	-0,056	0,037
-572,934	-187,438	-0,089	-0,001
-571,919	684,583	-0,060	-0,116
-570,904	604,248	0,007	-0,013
-569,890	-200,000	0,016	0,098
-568,875	-19,379	-0,103	-0,047
-567,861	-200,000	0,024	0,090
-566,846	12,958	-0,076	0,043
-565,831	63,824	-0,030	0,022
-564,817	157,492	-0,049	0,050
-563,802	29,967	-0,168	-0,106
-562,788	-200,000	0,011	-0,114
-561,773	-0,288	0,183	-0,096
-560,758	109,822	0,072	0,064
-559,744	33,666	-0,107	0,069
-558,729	267,944	0,044	0,056
-557,715	112,136	-0,051	0,045
-556,700	31,824	-0,119	-0,076
-555,685	669,348	0,070	0,135
-554,671	800,000	-0,029	-0,086
-553,656	-200,000	0,016	-0,066
-552,642	295,819	0,100	0,136
-551,627	102,064	-0,061	0,053
-550,612	-200,000	-0,022	-0,117
-549,598	800,000	-0,040	-0,122
-548,583	-9,228	-0,127	-0,063
-547,569	2,606	0,060	-0,032
-546,554	-45,365	0,061	-0,022
-545,539	-200,000	-0,015	0,089
-544,525	-85,115	0,054	-0,012
-543,510	-39,054	0,068	-0,026
-542,496	-200,000	0,019	-0,175
-541,481	55,163	0,072	-0,051
-540,466	-120,138	0,085	-0,011
-539,452	-116,123	-0,062	-0,008
-538,437	-200,000	-0,022	0,078
-537,423	-68,552	-0,114	0,032
-536,408	98,636	-0,025	0,021
-535,393	800,000	0,028	-0,086
-534,379	40,090	-0,129	-0,085
-533,364	-21,515	0,097	0,044
-532,350	800,000	0,046	-0,117
-531,335	289,934	0,081	-0,108
-530,321	97,615	-0,081	0,069
-529,306	-200,000	0,025	-0,126
-528,291	-200,000	0,039	-0,137
-527,277	800,000	0,050	0,134
-526,262	20,109	-0,068	0,040
-525,248	-200,000	0,010	0,061
-524,233	539,261	0,017	-0,030
-523,218	800,000	0,045	0,114
-522,204	-200,000	0,016	0,062
-521,189	-141,595	-0,083	0,006
-520,175	-200,000	0,041	-0,153
-519,160	-44,230	0,062	-0,023
-518,145	641,422	-0,069	0,130
-517,131	-200,000	0,015	0,080
-516,116	-25,021	0,221	0,096
-515,102	230,033	0,026	0,031
-514,087	-16,342	-0,095	-0,044
-513,072	273,496	0,093	0,121
-512,058	73,479	0,156	0,120
-511,043	-200,000	-0,021	0,101
-510,029	800,000	0,061	0,127
-509,014	-200,000	-0,017	0,140
-507,999	-200,000	0,003	0,031
-506,985	110,456	-0,127	0,112
-505,970	-200,000	-0,008	0,059
-504,956	-200,000	-0,054	-0,187
-503,941	475,673	-0,068	0,113
-502,926	-200,000	0,038	0,128
-501,912	-200,000	0,033	0,213
-500,897	-6,702	0,078	0,039
-499,883	-200,000	-0,001	0,030
-498,868	-173,230	-0,038	-0,001
-497,853	800,000	0,060	0,135
-496,839	-200,000	-0,026	-0,109
-495,824	96,204	-0,021	0,018
-494,810	-77,119	0,129	0,033
-493,795	-41,306	0,087	0,033
-492,781	-95,544	-0,116	-0,023
-491,766	-155,738	0,091	-0,004
-490,751	800,000	-0,026	-0,063
-489,737	-200,000	-0,015	-0,189
-488,722	54,363	-0,026	-0,018
-487,708	-200,000	0,019	0,135
-486,693	800,000	-0,043	0,119
-485,678	113,062	-0,029	-0,025
-484,664	-200,000	0,011	-0,157
-483,649	72,263	0,016	0,012
-482,635	-53,956	-0,109	0,036
-481,620	636,125	-0,066	0,125
-480,605	77,996	0,058	0,045
-479,591	324,178	0,093	0,131
-478,576	-118,845	0,068	0,009
-477,562	-106,772	-0,049	0,008
-476,547	348,470	-0,038	0,056
-475,532	800,000	-0,034	-0,109
-474,518	-86,071	-0,090	0,020
-473,503	-77,331	0,125	-0,032
-472,489	-36,672	-0,034	0,013
-471,474	-6,807	0,078	0,039
-470,459	-68,329	-0,016	-0,005
-469,445	110,192	-0,069	-0,061
-468,430	-132,682	-0,139	-0,013
-467,416	76,903	0,017	-0,013
-466,401	800,000	0,031	0,072
-465,386	-81,814	0,094	0,023
-464,372	-17,689	-0,094	0,043
-463,357	-111,866	-0,163	0,024
-462,343	-131,400	-0,237	0,023
-461,328	-200,000	0,002	-0,062
-460,313	-123,201	0,084	0,010
-459,299	259,625	0,059	-0,075
-458,284	-170,398	-0,021	-0,001
-457,270	-200,000	-0,026	-0,111
-456,255	-55,223	0,046	-0,015
-455,241	421,240	-0,063	-0,099
-454,226	93,566	0,036	-0,030
-453,211	-29,544	0,069	-0,029
-452,197	65,965	-0,067	-0,050
-451,182	-105,221	-0,071	-0,012
-450,168	31,604	-0,028	0,017
-449,153	-128,278	0,043	0,004
-448,138	-40,731	-0,130	0,049
-447,124	800,000	-0,007	0,021
-446,109	238,366	-0,029	-0,036
-445,095	-200,000	0,000	0,084
-444,080	-200,000	-0,010	0,115
-443,065	30,514	-0,101	0,064
-442,051	-60,669	0,085	-0,026
-441,036	-17,029	0,067	-0,031
-440,022	174,793	0,056	0,060
-439,007	-200,000	0,007	0,113
-437,992	-200,000	0,015	0,066
-436,978	257,714	0,045	-0,058
-435,963	253,984	0,028	-0,035
-434,949	-68,624	-0,052	-0,015
-433,934	800,000	0,038	-0,096
-432,919	76,735	0,093	-0,073
-431,905	-102,591	-0,073	0,013
-430,890	61,418	-0,037	0,027
-429,876	-200,000	0,000	0,176
-428,861	75,624	-0,096	0,074
-427,846	519,030	0,047	-0,081
-426,832	-200,000	-0,040	-0,132
-425,817	127,593	-0,083	-0,078
-424,803	-200,000	0,019	-0,160
-423,788	60,854	0,176	-0,128
-422,773	103,488	0,162	0,140
-421,759	516,164	-0,042	0,073
-420,744	-200,000	0,001	-0,051
-419,730	800,000	0,021	-0,060
-418,715	432,187	0,048	0,077
-417,701	-200,000	-0,003	-0,107
-416,686	-200,000	-0,014	-0,122
-415,671	315,050	-0,071	-0,098
-414,657	-143,117	-0,125	-0,009
-413,642	-200,000	0,005	-0,059
-412,628	463,761	0,038	0,063
-411,613	-41,047	-0,101	0,038
-410,598	-93,241	-0,131	-0,026
-409,584	-42,880	0,117	-0,043
-408,569	-83,749	-0,146	0,034
-407,555	800,000	-0,020	0,044
-406,540	-200,000	-0,000	0,055
-405,525	-200,000	0,020	-0,143
-404,511	-200,000	-0,015	-0,065
-403,496	-78,023	-0,055	0,014
-402,482	-56,250	0,022	-0,007
-401,467	-122,607	0,100	-0,012
-400,452	-29,220	0,058	-0,024
-399,438	-105,265	0,023	-0,004
-398,423	-2,312	0,103	0,053
-397,409	-200,000	-0,006	0,129
-396,394	800,000	-0,012	0,026
-395,379	29,646	0,097	-0,061
-394,365	-174,927	-0,070	0,001
-393,350	-26,836	0,146	0,062
-392,336	800,000	-0,065	0,154
-391,321	1,175	-0,100	-0,053
-390,306	-19,759	-0,036	-0,016
-389,292	800,000	-0,009	0,025
-388,277	63,526	0,133	0,098
-387,263	-19,663	0,063	0,029
-386,248	45,415	-0,018	-0,012
-385,233	-4,485	0,097	0,049
-384,219	28,587	-0,045	0,028
-383,204	-73,789	-0,160	0,042
-382,190	-116,909	-0,075	0,010
-381,175	-135,890	0,128	0,011
-380,160	-55,730	0,047	-0,015
-379,146	35,765	0,117	-0,076
-378,131	26,100	-0,074	-0,045
-377,117	-112,479	-0,033	-0,005
-376,102	-200,000	0,006	0,129
-375,088	-116,342	-0,040	0,005
-374,073	562,707	0,037	0,067
-373,058	800,000	-0,051	0,113
-372,044	108,697	-0,033	0,029
-371,029	-102,472	-0,059	-0,010
-370,015	-72,456	0,067	0,018
-369,000	800,000	-0,023	0,054
-367,985	759,819	0,009	-0,018
-366,971	-93,001	-0,069	-0,014
-365,956	-37,218	-0,036	0,014
-364,942	265,172	0,046	-0,059
-363,927	-91,498	0,107	0,022
-362,912	621,684	-0,044	-0,082
-361,898	-82,456	0,067	0,016
-360,883	153,896	-0,078	-0,079
-359,869	205,119	0,036	0,041
-358,854	131,016	0,054	-0,051
-357,839	331,272	-0,040	0,056
-356,825	800,000	-0,025	0,067
-355,810	-126,645	0,027	0,003
-354,796	223,194	0,044	-0,053
-353,781	800,000	0,046	-0,102
-352,766	-121,349	0,122	0,015
-351,752	-14,726	-0,104	-0,049
-350,737	-200,000	-0,010	0,066
-349,723	118,037	-0,066	0,060
-348,708	-31,015	0,174	0,072
-347,693	-100,897	-0,043	0,008
-346,679	-95,255	0,040	0,008
-345,664	-200,000	0,014	0,060
-344,650	800,000	-0,020	-0,054
-343,635	62,702	0,061	0,045
-342,620	-35,919	-0,096	0,038
-341,606	-117,966	-0,041	0,005
-340,591	-156,626	0,171	-0,008
-339,577	800,000	-0,041	0,129
-338,562	34,566	-0,102	-0,065
-337,548	376,588	0,037	-0,056
-336,533	-114,623	0,058	-0,008
-335,518	75,472	-0,135	0,104
-334,504	800,000	-0,007	0,019
-333,489	-107,724	0,179	-0,028
-332,475	217,545	0,056	-0,065
-331,460	800,000	0,055	-0,170
-330,445	234,379	-0,040	-0,048
-329,431	407,202	-0,042	0,065
-328,416	2,332	0,060	0,032
-327,402	-95,896	-0,080	0,015
-326,387	-42,975	0,098	0,036
-325,372	800,000	-0,070	-0,180
-324,358	-200,000	0,040	-0,184
-323,343	-38,812	0,053	-0,020
-322,329	9,555	0,108	0,060
-321,314	-200,000	-0,005	0,065
-320,299	171,080	0,091	0,095
-319,285	231,737	0,055	-0,066
-318,270	0,486	0,084	-0,044
-317,256	-132,919	-0,041	-0,004
-316,241	-11,769	-0,074	0,035
-315,226	-53,808	0,058	0,019
-314,212	-200,000	0,012	-0,049
-313,197	312,830	0,066	0,091
-312,183	20,403	-0,065	-0,039
-311,168	-200,000	0,040	-0,284
-310,153	-200,000	-0,032	-0,137
-309,139	148,358	0,051	-0,050
-308,124	399,992	-0,069	-0,107
-307,110	-200,000	0,013	-0,119
-306,095	-200,000	-0,011	0,037
-305,080	162,329	0,087	0,089
-304,066	-98,683	-0,143	0,026
-303,051	-79,615	0,051	-0,012
-302,037	362,306	0,082	0,121
-301,022	-65,111	0,082	-0,024
-300,008	-82,482	0,105	0,025
-298,993	585,306	0,060	0,109
-297,978	384,331	-0,075	-0,114
-296,964	69,324	-0,023	-0,017
-295,949	-12,951	-0,027	0,013
-294,935	182,984	-0,075	-0,082
-293,920	-200,000	-0,004	-0,069
-292,905	-200,000	-0,003	0,068
-291,891	59,857	0,096	0,069
-290,876	380,772	-0,094	0,142
-289,862	92,517	0,018	0,015
-288,847	800,000	0,012	0,028
-287,832	700,711	0,038	0,073
-286,818	123,723	0,073	-0,067
-285,803	-200,000	-0,010	-0,054
-284,789	-135,519	0,121	-0,010
-283,774	25,923	-0,129	-0,078
-282,759	-21,912	0,042	-0,018
-281,745	-200,000	-0,039	-0,161
-280,730	800,000	-0,098	-0,230
-279,716	198,132	-0,113	0,126
-278,701	800,000	-0,014	0,034
-277,686	-200,000	-0,003	0,046
-276,672	3,988	-0,061	0,032
-275,657	-145,742	-0,144	-0,009
-274,643	27,193	-0,089	-0,054
-273,628	162,403	0,135	-0,139
-272,613	5,634	-0,125	-0,068
-271,599	354,731	0,061	0,088
-270,584	-200,000	0,022	0,103
-269,570	25,530	-0,062	0,037
-268,555	69,160	0,032	0,024
-267,540	-3,742	-0,065	0,033
-266,526	-124,459	0,069	-0,008
-265,511	-92,980	0,071	0,014
-264,497	133,787	0,125	0,118
-263,482	694,814	0,022	0,042
-262,467	-200,000	0,000	0,129
-261,453	179,363	0,106	0,113
-260,438	-93,325	-0,061	-0,012
-259,424	40,545	-0,044	-0,029
-258,409	-159,301	0,097	0,004
-257,395	-200,000	0,026	0,182
-256,380	664,693	-0,055	-0,105
-255,365	-182,401	0,034	0,000
-254,351	-20,286	0,051	0,023
-253,336	-42,732	0,061	-0,023
-252,322	-93,925	0,100	-0,020
-251,307	55,260	-0,064	-0,045
-250,292	-41,460	-0,021	0,008
-249,278	-71,779	0,100	-0,027
-248,263	162,775	-0,078	-0,080
-247,249	-200,000	0,016	-0,097
-246,234	-200,000	-0,003	-0,109
-245,219	479,091	0,112	-0,187
-244,205	-32,252	-0,065	0,027
-243,190	-56,841	0,096	0,031
-242,176	-96,806	-0,045	0,009
-241,161	105,461	0,102	0,088
-240,146	-119,484	0,088	0,011
-239,132	242,832	-0,114	0,139
-238,117	-42,628	-0,047	-0,017
-237,103	800,000	0,024	-0,062
-236,088	151,113	-0,090	-0,090
-235,073	-34,639	-0,038	0,015
-234,059	-127,008	0,142	0,015
-233,044	230,936	0,056	0,067
-232,030	-200,000	0,019	0,094
-231,015	-80,383	0,039	-0,009
-230,000	800,000	-0,020	-0,062
-228,986	85,173	-0,050	0,040
-227,971	98,812	-0,073	-0,062
-226,957	-200,000	0,009	0,036
-225,942	-200,000	0,008	-0,051
-224,927	389,336	-0,029	0,044
-223,913	147,810	-0,028	-0,027
-222,898	-87,289	-0,087	-0,019
-221,884	-77,789	0,178	-0,044
-220,869	58,843	0,058	0,041
-219,855	-200,000	-0,007	-0,137
-218,840	318,468	-0,050	0,070
-217,825	774,771	-0,017	0,034
-216,811	-16,546	0,052	-0,024
-215,796	430,920	-0,073	-0,116
-214,782	-98,506	-0,129	-0,024
-213,767	800,000	-0,062	0,125
-212,752	307,654	0,046	-0,063
-211,738	584,263	-0,048	0,087
-210,723	388,877	0,053	-0,080
-209,709	109,769	0,043	-0,038
-208,694	-200,000	0,029	-0,112
-207,679	-0,258	-0,042	0,022
-206,665	800,000	0,055	-0,113
-205,650	568,603	-0,027	0,048
-204,636	-50,761	0,007	0,003
-203,621	-17,425	-0,123	0,056
-202,606	-83,826	-0,096	0,022
-201,592	140,046	-0,039	0,038
-200,577	-99,491	0,068	-0,012
-199,563	474,214	0,014	0,022
-198,548	-200,000	0,010	0,044
-197,533	573,287	-0,024	-0,043
-196,519	-200,000	0,002	0,116
-195,504	800,000	0,047	0,125
-194,490	542,691	0,007	-0,013
-193,475	-25,790	-0,050	0,021
-192,460	-200,000	0,025	-0,083
-191,446	176,745	-0,057	-0,060
-190,431	10,783	0,084	0,047
-189,417	127,308	-0,079	-0,073
-188,402	-118,044	-0,105	-0,014
-187,387	-138,283	-0,094	-0,007
-186,373	-8,504	-0,070	0,034
-185,358	523,549	-0,072	-0,123
-184,344	-152,646	-0,095	0,005
-183,329	14,568	0,058	0,033
-182,315	-200,000	0,000	0,029
-181,300	172,205	0,073	-0,077
-180,285	-200,000	-0,046	-0,160
-179,271	-84,336	-0,022	-0,005
-178,256	-125,699	-0,058	-0,006
-177,242	-200,000	-0,004	-0,036
-176,227	-200,000	-0,013	-0,044
-175,212	-200,000	-0,008	0,048
-174,198	-66,672	0,048	-0,014
-173,183	286,745	0,093	-0,123
-172,169	-48,685	-0,157	0,055
-171,154	61,618	0,081	0,058
-170,139	75,482	0,055	-0,042
-169,125	89,297	0,030	-0,025
-168,110	222,485	-0,081	0,095
-167,096	-174,206	0,109	-0,002
-166,081	-200,000	-0,041	-0,221
-165,066	-103,931	-0,121	-0,020
-164,052	-200,000	-0,003	-0,052
-163,037	800,000	-0,021	-0,045
-162,023	-83,065	0,013	-0,003
-161,008	154,790	0,087	-0,087
-159,993	-66,025	0,031	-0,009
-158,979	236,209	0,043	-0,052
-157,964	800,000	-0,022	0,046
-156,950	410,873	-0,006	-0,009
-155,935	-200,000	0,010	0,054
-154,920	-75,880	-0,068	-0,017
-153,906	-168,465	0,171	0,005
-152,891	-200,000	-0,002	-0,077
-151,877	-137,589	0,055	-0,004
-150,862	-86,618	-0,171	-0,038
-149,847	800,000	0,011	-0,032
-148,833	-36,374	0,064	-0,025
-147,818	99,036	0,064	0,054
-146,804	-27,418	0,097	0,041
-145,789	172,134	-0,158	-0,165
-144,775	800,000	-0,032	-0,087
-143,760	176,987	-0,077	-0,082
-142,745	81,473	-0,017	-0,013
-141,731	220,503	-0,107	0,125
-140,716	219,873	0,042	-0,049
-139,702	-157,352	-0,090	-0,004
-138,687	-97,613	-0,109	0,020
-137,672	663,289	0,088	0,165
-136,658	198,219	-0,041	0,046
-135,643	-200,000	0,008	-0,028
-134,629	800,000	-0,065	0,158
-133,614	-200,000	-0,028	0,155
-132,599	-135,165	-0,049	-0,004
-131,585	-62,076	0,075	-0,023
-130,570	55,657	0,063	-0,045
-129,556	-200,000	-0,083	0,000
-128,541	369,127	0,098	-0,145
-127,526	-200,000	-0,012	0,166
-126,512	53,965	0,129	0,090
-125,497	728,840	0,030	0,058
-124,483	11,622	-0,053	0,029
-123,468	506,936	0,028	0,047
-122,453	800,000	-0,055	0,130
-121,439	12,456	-0,114	-0,064
-120,424	-131,147	0,127	0,012
-119,410	-16,949	-0,074	-0,034
