DTS Sentinel unit serial number:	SN410029Multiplexer serial number:	ORYXHardware model number:	OX2-SRSoftware version number:	ORYX F/W v4,00 Oryx Data Collector v3.7.2.0data status	okinstallation	B4 Nyhavnadifferential loss correction	single-endedforward channel	channel 2reverse channel	N/Adate	2023/12/16time	11:20:13forward acquisition time	300,00reverse acquisition time	0,00gamma	499,1914k internal	0,3125k external	0,3125temperature offset calibration	1,0000default loss term (dB/km)	0,3820temperature slope calibration	1,0000multiplexer offset coefficient	1,0000multiplexer slope coefficient	1,0000fibre end	0,00T internal ref (°C)	23,64T ext. ref 1 (°C)	9,52T ext. ref 2 (°C)	9,67length (m)	temperature (°C)	Stokes	anti-Stokes-744,400	256,966	0,059	-0,076
-743,385	-76,712	-0,064	0,017
-742,371	-94,664	0,061	0,012
-741,356	45,978	-0,191	0,131
-740,342	-200,000	-0,003	0,101
-739,327	24,569	-0,246	0,151
-738,312	-92,927	0,105	-0,022
-737,298	180,554	-0,184	0,201
-736,283	66,910	0,072	-0,054
-735,269	-15,625	-0,203	0,096
-734,254	800,000	0,029	-0,064
-733,239	22,755	-0,283	-0,172
-732,225	63,060	0,025	0,019
-731,210	528,673	0,071	0,125
-730,196	323,508	0,050	-0,071
-729,181	-200,000	0,002	0,073
-728,167	800,000	-0,046	0,136
-727,152	-200,000	0,024	-0,096
-726,137	370,609	-0,064	-0,096
-725,123	800,000	0,033	-0,068
-724,108	-33,046	-0,110	-0,045
-723,094	-200,000	0,014	-0,080
-722,079	-10,720	-0,122	-0,060
-721,064	-101,885	0,070	0,013
-720,050	-200,000	-0,012	0,051
-719,035	-128,256	-0,063	-0,007
-718,021	-65,885	0,063	-0,019
-717,006	800,000	0,023	0,050
-715,991	46,387	0,109	-0,075
-714,977	81,548	-0,114	-0,092
-713,962	-158,342	-0,005	-0,000
-712,948	-29,617	-0,108	-0,046
-711,933	-200,000	-0,004	0,158
-710,918	96,844	0,108	0,092
-709,904	-200,000	0,041	-0,139
-708,889	705,437	0,080	-0,157
-707,875	-200,000	0,004	-0,123
-706,860	-200,000	0,005	0,052
-705,845	-200,000	-0,027	0,136
-704,831	-200,000	-0,001	-0,108
-703,816	-200,000	-0,031	-0,127
-702,802	800,000	0,072	-0,159
-701,787	-81,891	-0,097	0,023
-700,772	73,415	-0,022	-0,017
-699,758	800,000	0,068	-0,203
-698,743	24,865	0,050	0,031
-697,729	-200,000	0,027	0,136
-696,714	-200,000	-0,010	0,039
-695,699	-200,000	0,035	-0,156
-694,685	-106,787	0,040	-0,007
-693,670	-73,346	0,048	-0,013
-692,656	61,719	-0,085	0,063
-691,641	146,590	0,040	0,040
-690,627	800,000	0,020	-0,046
-689,612	-18,375	-0,103	0,048
-688,597	-88,651	0,127	-0,028
-687,583	337,462	-0,072	-0,104
-686,568	270,226	-0,166	-0,217
-685,554	269,468	0,002	0,002
-684,539	209,165	0,030	0,035
-683,524	247,308	-0,097	0,122
-682,510	-41,637	-0,163	0,062
-681,495	-151,737	-0,084	0,005
-680,481	-89,399	-0,143	0,031
-679,466	280,490	0,109	-0,145
-678,451	-200,000	-0,006	0,036
-677,437	40,767	0,091	0,061
-676,422	90,205	-0,074	0,062
-675,408	800,000	0,039	0,104
-674,393	17,206	-0,064	0,037
-673,378	75,527	-0,122	-0,096
-672,364	70,559	-0,076	0,058
-671,349	193,010	0,076	-0,085
-670,335	667,334	-0,043	-0,083
-669,320	-200,000	-0,027	-0,102
-668,305	-59,937	-0,136	0,043
-667,291	-200,000	-0,008	0,085
-666,276	-82,783	0,058	-0,014
-665,262	800,000	0,017	0,046
-664,247	800,000	-0,030	0,073
-663,232	800,000	0,026	-0,065
-662,218	101,454	0,079	-0,068
-661,203	89,394	0,085	-0,071
-660,189	-200,000	-0,012	0,046
-659,174	800,000	-0,009	0,026
-658,159	800,000	-0,050	-0,143
-657,145	-200,000	0,016	0,057
-656,130	579,784	-0,062	-0,113
-655,116	-25,987	-0,127	0,055
-654,101	800,000	-0,041	0,109
-653,086	-101,636	0,057	-0,010
-652,072	335,222	0,072	0,104
-651,057	-200,000	0,004	-0,026
-650,043	-127,851	-0,189	-0,020
-649,028	800,000	-0,009	0,027
-648,014	800,000	-0,023	-0,063
-646,999	190,274	0,105	0,117
-645,984	-32,847	-0,161	-0,066
-644,970	143,774	0,095	-0,094
-643,955	-200,000	-0,018	-0,178
-642,941	-125,969	-0,053	-0,006
-641,926	-200,000	-0,035	0,145
-640,911	541,844	-0,069	0,123
-639,897	-200,000	-0,014	0,051
-638,882	225,256	-0,034	-0,040
-637,868	-82,687	-0,084	0,020
-636,853	168,248	-0,065	-0,069
-635,838	345,738	-0,071	-0,104
-634,824	-116,253	-0,091	-0,012
-633,809	-127,141	0,158	0,017
-632,795	-63,038	-0,062	-0,019
-631,780	-31,751	-0,146	0,060
-630,765	230,867	0,054	0,065
-629,751	-25,001	-0,076	-0,033
-628,736	-120,589	-0,091	0,011
-627,722	37,463	0,054	-0,036
-626,707	800,000	-0,060	-0,133
-625,692	800,000	0,050	0,112
-624,678	800,000	0,037	0,114
-623,663	456,755	-0,147	0,244
-622,649	-200,000	-0,001	0,036
-621,634	-200,000	0,020	-0,129
-620,619	-200,000	0,024	-0,130
-619,605	-200,000	0,005	0,030
-618,590	800,000	0,057	0,128
-617,576	-105,046	-0,249	-0,042
-616,561	242,739	-0,040	-0,049
-615,546	132,619	0,065	0,062
-614,532	-200,000	-0,039	-0,187
-613,517	-98,010	0,092	0,017
-612,503	86,387	-0,031	0,025
-611,488	-181,627	0,139	0,002
-610,474	-38,359	-0,041	-0,016
-609,459	27,984	0,037	0,023
-608,444	148,580	0,049	0,049
-607,430	800,000	0,038	0,123
-606,415	25,662	-0,038	-0,023
-605,401	127,564	-0,071	-0,067
-604,386	-80,916	0,096	0,023
-603,371	92,451	0,059	-0,049
-602,357	800,000	-0,071	-0,223
-601,342	222,304	-0,020	-0,024
-600,328	800,000	0,041	-0,110
-599,313	62,627	-0,039	-0,029
-598,298	125,156	-0,112	-0,105
-597,284	-154,139	0,169	0,008
-596,269	69,488	-0,025	0,019
-595,255	47,522	0,088	0,061
-594,240	-200,000	0,043	-0,207
-593,225	800,000	-0,010	-0,020
-592,211	800,000	-0,027	-0,061
-591,196	-66,837	-0,155	-0,045
-590,182	-24,741	0,136	-0,059
-589,167	-120,884	-0,015	-0,002
-588,152	173,688	0,082	0,087
-587,138	155,404	-0,067	0,069
-586,123	-0,028	-0,045	-0,024
-585,109	125,713	-0,028	-0,026
-584,094	120,316	-0,148	-0,136
-583,079	18,333	0,107	0,063
-582,065	82,386	-0,084	0,067
-581,050	201,528	0,047	-0,054
-580,036	232,209	0,051	-0,062
-579,021	140,881	-0,014	0,013
-578,006	-147,742	-0,087	-0,005
-576,992	-38,896	-0,189	-0,073
-575,977	-200,000	0,025	-0,145
-574,963	14,571	-0,064	0,037
-573,948	16,874	0,043	-0,025
-572,934	800,000	0,018	-0,051
-571,919	-200,000	-0,028	0,174
-570,904	-200,000	-0,026	-0,088
-569,890	-72,736	-0,167	0,045
-568,875	800,000	0,024	-0,059
-567,861	146,719	0,068	0,067
-566,846	25,878	0,151	0,093
-565,831	800,000	0,058	0,130
-564,817	-162,543	-0,136	0,005
-563,802	-3,019	-0,083	0,043
-562,788	-197,872	-0,125	-0,001
-561,773	694,211	0,014	-0,027
-560,758	-31,405	-0,026	0,011
-559,744	800,000	0,006	0,016
-558,729	505,028	-0,013	-0,023
-557,715	82,639	0,071	0,057
-556,700	800,000	0,019	-0,052
-555,685	233,932	-0,035	-0,042
-554,671	800,000	-0,027	0,068
-553,656	-99,413	0,023	-0,004
-552,642	-200,000	-0,016	0,083
-551,627	208,265	-0,025	-0,029
-550,612	-200,000	0,001	0,059
-549,598	-200,000	-0,005	-0,054
-548,583	-200,000	-0,003	0,130
-547,569	-101,984	0,081	0,014
-546,554	-200,000	0,001	-0,019
-545,539	800,000	0,043	0,103
-544,525	800,000	-0,045	-0,115
-543,510	-47,541	-0,116	-0,041
-542,496	800,000	-0,039	0,116
-541,481	9,895	-0,122	-0,068
-540,466	7,951	0,082	-0,045
-539,452	-200,000	-0,020	-0,087
-538,437	-63,630	-0,066	0,020
-537,423	800,000	0,075	0,157
-536,408	249,469	0,055	-0,069
-535,393	-121,645	-0,145	0,017
-534,379	180,240	0,077	-0,084
-533,364	800,000	0,010	-0,032
-532,350	-200,000	-0,009	-0,064
-531,335	-200,000	0,012	-0,111
-530,321	171,847	-0,020	0,021
-529,306	-200,000	-0,001	-0,006
-528,291	-173,320	0,054	0,001
-527,277	34,955	0,016	-0,010
-526,262	27,278	-0,111	-0,069
-525,248	525,159	-0,042	-0,073
-524,233	-45,595	0,076	-0,028
-523,218	800,000	0,032	0,093
-522,204	-142,617	0,059	0,004
-521,189	-72,611	0,030	0,008
-520,175	64,539	-0,029	0,021
-519,160	110,555	-0,044	-0,039
-518,145	15,250	0,058	-0,034
-517,131	188,715	-0,072	0,079
-516,116	-200,000	-0,032	0,112
-515,102	745,544	-0,048	-0,095
-514,087	-170,967	0,066	0,002
-513,072	699,029	0,019	0,037
-512,058	168,411	-0,044	0,046
-511,043	-119,351	-0,079	-0,010
-510,029	-200,000	0,016	0,111
-509,014	800,000	-0,017	-0,054
-507,999	800,000	0,040	-0,126
-506,985	-200,000	0,016	0,144
-505,970	-15,673	0,096	0,045
-504,956	-173,195	0,078	0,002
-503,941	136,197	0,067	0,064
-502,926	800,000	0,043	-0,102
-501,912	-200,000	-0,011	0,149
-500,897	693,112	0,030	0,058
-499,883	-200,000	-0,003	-0,143
-498,868	415,608	-0,064	-0,100
-497,853	139,722	-0,007	0,006
-496,839	84,035	-0,051	0,041
-495,824	463,006	0,076	0,125
-494,810	374,024	0,046	0,069
-493,795	599,200	0,066	0,122
-492,781	-200,000	-0,012	0,136
-491,766	-200,000	0,003	0,046
-490,751	-152,508	0,116	-0,006
-489,737	97,991	-0,140	-0,119
-488,722	197,903	0,179	0,202
-487,708	-200,000	0,018	0,111
-486,693	-142,629	-0,138	0,010
-485,678	-60,051	0,225	-0,071
-484,664	-200,000	-0,013	0,065
-483,649	-200,000	-0,001	-0,055
-482,635	-200,000	-0,017	-0,082
-481,620	367,831	0,045	-0,067
-480,605	4,803	-0,136	0,073
-479,591	-21,459	0,049	0,022
-478,576	22,643	-0,063	-0,038
-477,562	800,000	-0,048	-0,117
-476,547	-114,401	0,102	-0,014
-475,532	800,000	0,010	0,029
-474,518	-55,552	0,108	-0,035
-473,503	800,000	-0,092	0,211
-472,489	-200,000	0,001	-0,018
-471,474	-16,585	0,121	0,056
-470,459	-50,102	0,062	-0,021
-469,445	-187,724	-0,081	0,001
-468,430	95,039	0,097	-0,082
-467,416	-175,237	0,044	0,001
-466,401	396,884	0,020	0,030
-465,386	61,747	-0,055	-0,040
-464,372	-200,000	0,004	0,175
-463,357	69,322	0,135	0,102
-462,343	360,617	0,029	-0,043
-461,328	-77,808	-0,064	-0,016
-460,313	-128,771	0,156	0,016
-459,299	-21,767	0,155	0,069
-458,284	-200,000	-0,003	0,112
-457,270	16,147	0,044	0,026
-456,255	193,920	0,073	-0,081
-455,241	107,768	0,039	-0,034
-454,226	-109,981	-0,053	0,008
-453,211	559,771	0,091	-0,162
-452,197	-23,265	0,118	0,052
-451,182	37,644	-0,102	0,066
-450,168	468,683	0,039	0,065
-449,153	-34,454	-0,118	0,048
-448,138	-94,331	-0,060	-0,012
-447,124	-12,917	-0,095	-0,045
-446,109	800,000	0,028	-0,081
-445,095	694,470	0,026	0,051
-444,080	-80,875	-0,041	-0,010
-443,065	54,529	0,064	0,045
-442,051	-200,000	-0,006	-0,064
-441,036	422,015	0,044	-0,070
-440,022	219,125	0,092	-0,109
-439,007	88,460	-0,069	-0,056
-437,992	-200,000	-0,011	0,041
-436,978	155,268	0,095	0,096
-435,963	-63,195	0,024	0,007
-434,949	800,000	-0,025	0,059
-433,934	800,000	-0,020	-0,048
-432,919	21,743	-0,070	0,042
-431,905	267,402	0,048	-0,062
-430,890	546,584	-0,035	-0,061
-429,876	-12,184	0,043	-0,021
-428,861	-200,000	0,018	-0,093
-427,846	-200,000	0,001	-0,034
-426,832	800,000	0,027	-0,080
-425,817	475,189	0,044	-0,074
-424,803	174,378	-0,011	0,011
-423,788	22,785	0,092	0,055
-422,773	-145,622	0,042	-0,003
-421,759	-200,000	0,020	-0,076
-420,744	-200,000	-0,013	0,075
-419,730	800,000	-0,010	0,028
-418,715	150,354	-0,090	-0,090
-417,701	3,484	0,139	-0,075
-416,686	-99,442	-0,069	-0,013
-415,671	-200,000	0,020	0,084
-414,657	175,940	0,069	0,074
-413,642	353,924	-0,015	-0,023
-412,628	141,863	-0,073	-0,071
-411,613	-200,000	0,007	-0,139
-410,598	177,197	-0,114	-0,122
-409,584	11,322	0,097	-0,055
-408,569	800,000	0,011	-0,037
-407,555	-200,000	0,000	0,060
-406,540	-90,613	-0,018	-0,004
-405,525	800,000	-0,011	0,025
-404,511	-118,441	-0,142	-0,018
-403,496	-200,000	-0,026	-0,085
-402,482	-126,014	0,042	0,005
-401,467	590,235	-0,028	-0,052
-400,452	-200,000	-0,027	0,098
-399,438	262,216	0,055	0,071
-398,423	14,533	0,078	0,044
-397,409	308,873	-0,061	-0,083
-396,394	800,000	0,036	-0,081
-395,379	-39,860	0,036	0,014
-394,365	692,097	0,052	0,100
-393,350	435,711	0,071	0,113
-392,336	185,943	0,053	-0,058
-391,321	-200,000	0,014	-0,070
-390,306	12,704	-0,079	-0,045
-389,292	-19,519	-0,045	0,020
-388,277	-33,590	0,160	-0,065
-387,263	-22,006	0,188	0,083
-386,248	-21,553	0,068	-0,030
-385,233	-200,000	0,018	0,082
-384,219	58,613	-0,102	-0,073
-383,204	-17,272	-0,141	0,065
-382,190	-52,905	-0,157	0,053
-381,175	-68,726	-0,095	-0,027
-380,160	530,795	0,025	0,044
-379,146	-200,000	0,000	-0,010
-378,131	-200,000	0,003	0,043
-377,117	79,171	-0,084	-0,066
-376,102	233,546	-0,057	-0,069
-375,088	-200,000	-0,016	-0,168
-374,073	41,886	-0,063	-0,042
-373,058	-200,000	0,047	-0,160
-372,044	-129,492	0,088	0,009
-371,029	-200,000	-0,001	0,099
-370,015	-200,000	-0,001	0,014
-369,000	-149,458	-0,145	0,008
-367,985	-28,716	-0,109	-0,046
-366,971	101,281	0,055	-0,047
-365,956	55,060	-0,106	-0,075
-364,942	-13,463	0,073	-0,035
-363,927	148,567	-0,024	-0,023
-362,912	401,971	0,021	0,032
-361,898	-69,389	0,032	-0,009
-360,883	-79,612	-0,160	0,039
-359,869	216,083	-0,088	-0,103
-358,854	-93,749	-0,063	0,013
-357,839	800,000	0,052	0,114
-356,825	800,000	0,049	0,133
-355,810	-44,220	0,110	0,040
-354,796	800,000	-0,008	0,018
-353,781	-147,645	-0,116	-0,007
-352,766	-176,532	0,053	-0,001
-351,752	-200,000	0,032	0,143
-350,737	-157,316	-0,067	0,003
-349,723	27,623	0,077	-0,048
-348,708	-40,613	-0,128	-0,048
-347,693	114,458	0,088	-0,079
-346,679	144,223	0,043	0,042
-345,664	30,295	-0,061	0,038
-344,650	-200,000	0,013	-0,076
-343,635	-200,000	0,019	0,089
-342,620	212,563	0,046	0,053
-341,606	210,722	0,036	0,042
-340,591	18,085	0,018	-0,010
-339,577	-200,000	-0,002	0,011
-338,562	-12,473	-0,084	-0,040
-337,548	271,773	-0,104	-0,135
-336,533	-113,480	0,132	0,019
-335,518	-83,226	0,073	0,017
-334,504	3,115	-0,094	0,050
-333,489	13,602	-0,023	0,013
-332,475	-200,000	0,003	-0,060
-331,460	-200,000	0,011	-0,143
-330,445	-69,138	-0,162	-0,045
-329,431	250,063	-0,115	0,143
-328,416	601,390	0,031	0,056
-327,402	233,130	-0,109	0,131
-326,387	-1,003	-0,078	0,040
-325,372	800,000	0,043	-0,096
-324,358	232,661	-0,069	-0,083
-323,343	105,945	-0,068	-0,059
-322,329	97,977	0,109	0,092
-321,314	111,544	0,072	0,063
-320,299	800,000	0,082	0,175
-319,285	169,611	0,054	0,056
-318,270	-61,295	-0,112	0,034
-317,256	605,084	0,047	-0,086
-316,241	-200,000	-0,001	-0,112
-315,226	234,781	0,062	-0,076
-314,212	-200,000	-0,020	0,076
-313,197	481,300	-0,045	0,075
-312,183	800,000	0,043	-0,119
-311,168	-117,649	-0,012	-0,002
-310,153	-200,000	0,002	0,063
-309,139	-200,000	0,024	-0,154
-308,124	-39,143	-0,058	0,022
-307,110	-96,904	0,274	-0,052
-306,095	98,063	-0,062	-0,052
-305,080	-153,219	0,101	0,005
-304,066	275,476	-0,017	0,022
-303,051	526,755	-0,021	-0,037
-302,037	-200,000	-0,003	0,010
-301,022	-200,000	0,018	0,174
-300,008	43,758	0,052	-0,035
-298,993	324,177	0,046	-0,065
-297,978	-17,684	0,137	0,063
-296,964	800,000	0,045	0,117
-295,949	-200,000	-0,001	0,046
-294,935	800,000	0,028	0,086
-293,920	-200,000	0,012	0,083
-292,905	800,000	0,083	0,195
-291,891	270,230	0,014	0,018
-290,876	-200,000	-0,022	-0,098
-289,862	-186,680	-0,151	0,002
-288,847	464,385	-0,052	-0,085
-287,832	-109,326	-0,107	0,016
-286,818	-86,792	-0,132	-0,029
-285,803	-200,000	-0,000	0,119
-284,789	239,065	0,031	-0,038
-283,774	2,972	0,072	-0,038
-282,759	-43,209	0,089	-0,033
-281,745	-18,348	0,137	-0,062
-280,730	-200,000	0,027	-0,140
-279,716	-23,139	-0,045	-0,020
-278,701	-104,181	0,098	0,017
-277,686	116,232	0,044	-0,039
-276,672	-200,000	-0,020	0,068
-275,657	-200,000	-0,017	0,075
-274,643	-75,996	-0,038	0,010
-273,628	298,207	0,062	-0,083
-272,613	-200,000	-0,016	0,122
-271,599	800,000	-0,020	0,046
-270,584	580,812	-0,085	0,152
-269,570	107,661	-0,023	-0,020
-268,555	-200,000	-0,003	-0,134
-267,540	-52,837	0,153	-0,051
-266,526	-200,000	-0,001	-0,022
-265,511	416,838	-0,034	-0,054
-264,497	-168,394	0,114	-0,003
-263,482	-42,982	0,027	-0,010
-262,467	33,299	0,143	0,090
-261,453	738,231	-0,027	-0,053
-260,438	-200,000	0,022	0,075
-259,424	-200,000	-0,039	0,180
-258,409	-63,191	0,027	0,008
-257,395	110,652	0,087	-0,076
-256,380	-200,000	-0,004	-0,066
-255,365	-59,832	-0,098	0,031
-254,351	86,809	0,114	-0,092
-253,336	219,153	-0,024	-0,028
-252,322	441,058	-0,143	-0,230
-251,307	-200,000	-0,018	0,059
-250,292	-200,000	0,034	0,200
-249,278	-115,071	0,109	0,015
-248,263	800,000	-0,057	0,174
-247,249	-200,000	0,004	0,014
-246,234	800,000	0,054	0,138
-245,219	206,226	0,043	0,049
-244,205	-200,000	-0,003	0,016
-243,190	464,666	-0,024	0,040
-242,176	-200,000	0,005	0,084
-241,161	64,134	0,024	-0,017
-240,146	-200,000	-0,012	0,098
-239,132	-200,000	0,023	0,079
-238,117	-200,000	-0,031	-0,108
-237,103	-200,000	0,008	0,059
-236,088	82,727	0,068	-0,054
-235,073	182,097	0,077	0,083
-234,059	109,573	-0,023	-0,020
-233,044	-76,769	0,141	-0,036
-232,030	-200,000	0,005	-0,025
-231,015	356,622	-0,073	-0,106
-230,000	-71,763	-0,199	0,054
-228,986	-22,610	-0,036	-0,016
-227,971	800,000	0,046	-0,103
-226,957	-66,646	-0,082	0,024
-225,942	-200,000	-0,005	-0,020
-224,927	125,348	-0,083	0,076
-223,913	800,000	0,051	-0,153
-222,898	-200,000	0,005	0,040
-221,884	148,343	-0,021	-0,021
-220,869	800,000	0,053	0,130
-219,855	-88,618	0,120	-0,026
-218,840	-129,627	0,145	-0,014
-217,825	-200,000	-0,009	0,090
-216,811	-2,855	0,044	0,023
-215,796	-93,686	-0,075	0,015
-214,782	159,294	-0,099	0,101
-213,767	353,373	-0,025	0,036
-212,752	800,000	0,039	0,081
-211,738	-26,537	0,099	0,042
-210,723	-160,135	-0,189	-0,007
-209,709	-74,582	0,044	-0,012
-208,694	-126,980	-0,084	0,009
-207,679	24,075	0,041	-0,024
-206,665	7,451	0,111	0,060
-205,650	44,304	0,099	0,066
-204,636	-12,742	0,042	-0,020
-203,621	282,343	-0,029	0,037
-202,606	-120,750	0,055	-0,007
-201,592	642,242	0,032	-0,060
-200,577	-200,000	0,057	-0,220
-199,563	90,993	-0,073	-0,060
-198,548	-7,617	-0,066	0,032
-197,533	-200,000	-0,001	0,079
-196,519	-200,000	-0,005	0,072
-195,504	141,610	0,046	-0,044
-194,490	-40,848	-0,139	-0,052
-193,475	363,057	-0,088	-0,130
-192,460	116,077	0,040	-0,035
-191,446	73,649	-0,010	0,008
-190,431	-88,521	0,047	0,010
-189,417	10,816	-0,148	-0,082
-188,402	-133,302	0,095	-0,009
-187,387	-57,662	-0,033	-0,011
-186,373	89,182	-0,103	0,083
-185,358	800,000	0,034	-0,096
-184,344	-200,000	-0,001	0,002
-183,329	-36,048	-0,095	-0,037
-182,315	-80,458	0,106	-0,025
-181,300	715,061	0,010	0,020
-180,285	-200,000	-0,006	0,049
-179,271	-79,744	0,096	0,023
-178,256	8,269	-0,103	0,056
-177,242	-200,000	-0,016	0,082
-176,227	306,731	-0,057	0,078
-175,212	-67,794	0,043	-0,012
-174,198	-200,000	-0,004	-0,087
-173,183	-132,446	-0,152	-0,014
-172,169	342,364	-0,021	-0,031
-171,154	-200,000	0,007	0,050
-170,139	-66,491	0,076	0,022
-169,125	-200,000	0,000	-0,019
-168,110	-65,987	0,035	-0,010
-167,096	800,000	0,028	-0,079
-166,081	-120,263	0,040	-0,005
-165,066	-200,000	-0,016	-0,093
-164,052	33,137	-0,065	-0,041
-163,037	4,760	-0,130	-0,069
-162,023	-48,296	-0,101	-0,035
-161,008	-149,415	-0,089	0,005
-159,993	-35,521	-0,099	-0,039
-158,979	401,473	0,075	-0,116
-157,964	800,000	-0,045	-0,110
-156,950	130,305	0,026	0,024
-155,935	181,485	0,036	0,038
-154,920	132,897	0,143	0,134
-153,906	66,750	0,088	0,065
-152,891	-96,375	-0,160	-0,030
-151,877	184,627	-0,023	0,025
-150,862	-200,000	-0,010	0,112
-149,847	-200,000	0,004	-0,095
-148,833	626,474	0,050	-0,092
-147,818	149,153	-0,056	0,055
-146,804	-200,000	0,007	-0,148
-145,789	-4,019	-0,066	0,033
-144,775	-200,000	-0,021	-0,183
-143,760	134,586	0,109	-0,103
-142,745	-200,000	-0,012	-0,055
-141,731	381,096	-0,051	-0,076
-140,716	800,000	-0,083	-0,169
-139,702	191,351	0,058	0,063
-138,687	800,000	0,046	0,143
-137,672	800,000	0,026	0,083
-136,658	457,407	-0,041	0,067
-135,643	-200,000	0,022	-0,071
-134,629	-58,210	0,105	0,033
-133,614	-31,178	0,286	0,117
-132,599	451,320	-0,056	0,090
-131,585	-200,000	-0,007	-0,152
-130,570	800,000	-0,030	0,088
-129,556	-130,620	-0,114	0,011
-128,541	-200,000	-0,049	-0,170
-127,526	800,000	0,026	-0,080
-126,512	-200,000	-0,002	0,140
-125,497	-91,438	0,155	-0,032
-124,483	-200,000	-0,002	0,123
-123,468	-174,621	0,053	-0,001
-122,453	66,952	0,099	-0,073
-121,439	-63,951	-0,093	-0,028
-120,424	-114,048	-0,236	-0,033
-119,410	402,082	-0,050	0,077
