DTS Sentinel unit serial number:	SN410029Multiplexer serial number:	ORYXHardware model number:	OX2-SRSoftware version number:	ORYX F/W v4,00 Oryx Data Collector v3.7.2.0data status	okinstallation	B4 Nyhavnadifferential loss correction	single-endedforward channel	channel 2reverse channel	N/Adate	2023/12/19time	09:15:13forward acquisition time	300,00reverse acquisition time	0,00gamma	499,1914k internal	0,3127k external	0,3127temperature offset calibration	1,0000default loss term (dB/km)	0,3820temperature slope calibration	1,0000multiplexer offset coefficient	1,0000multiplexer slope coefficient	1,0000fibre end	0,00T internal ref (°C)	20,51T ext. ref 1 (°C)	5,32T ext. ref 2 (°C)	5,32length (m)	temperature (°C)	Stokes	anti-Stokes-744,400	592,123	-0,067	-0,123
-743,385	-6,490	-0,226	0,114
-742,371	146,113	0,029	-0,029
-741,356	15,989	-0,175	0,102
-740,342	-97,937	0,180	0,034
-739,327	-115,649	-0,195	0,027
-738,312	800,000	-0,060	-0,135
-737,298	-111,829	-0,268	-0,040
-736,283	786,076	-0,038	-0,079
-735,269	-82,503	-0,142	0,034
-734,254	128,310	0,096	0,091
-733,239	-123,792	-0,447	-0,052
-732,225	-140,052	0,190	-0,015
-731,210	119,062	-0,098	0,090
-730,196	-117,010	0,032	-0,004
-729,181	-89,146	-0,100	0,022
-728,167	629,224	-0,039	0,074
-727,152	572,313	0,047	-0,086
-726,137	-200,000	-0,001	-0,070
-725,123	800,000	-0,014	-0,042
-724,108	476,371	-0,083	-0,140
-723,094	800,000	-0,058	-0,124
-722,079	-149,882	0,088	0,005
-721,064	100,300	0,015	0,013
-720,050	-76,841	-0,089	-0,023
-719,035	64,298	0,062	0,047
-718,021	306,982	0,009	-0,012
-717,006	-29,200	-0,040	-0,017
-715,991	-25,581	-0,172	-0,075
-714,977	800,000	-0,052	-0,149
-713,962	-20,818	-0,156	0,071
-712,948	-26,311	-0,051	0,022
-711,933	348,450	-0,085	-0,125
-710,918	-10,045	0,071	0,035
-709,904	118,308	-0,083	-0,076
-708,889	-156,369	-0,174	0,008
-707,875	-200,000	0,011	-0,145
-706,860	-200,000	-0,013	0,062
-705,845	3,913	0,064	-0,035
-704,831	563,926	0,081	-0,146
-703,816	265,411	0,118	0,153
-702,802	589,405	-0,059	0,108
-701,787	-200,000	-0,011	-0,083
-700,772	52,175	-0,155	0,109
-699,758	-200,000	-0,013	-0,100
-698,743	275,659	-0,058	0,077
-697,729	538,782	0,011	-0,020
-696,714	-200,000	-0,013	-0,048
-695,699	800,000	-0,058	-0,153
-694,685	118,362	-0,064	0,058
-693,670	-200,000	-0,010	0,080
-692,656	212,678	-0,066	0,077
-691,641	640,191	-0,073	-0,138
-690,627	800,000	-0,006	0,013
-689,612	-108,047	-0,062	-0,010
-688,597	18,629	-0,139	-0,083
-687,583	236,233	0,101	-0,125
-686,568	181,636	-0,149	-0,163
-685,554	-200,000	-0,002	-0,021
-684,539	440,186	0,016	-0,026
-683,524	800,000	-0,053	0,123
-682,510	407,643	-0,073	0,115
-681,495	-134,909	0,065	-0,006
-680,481	229,333	0,028	0,034
-679,466	-13,435	-0,115	0,055
-678,451	344,103	-0,039	-0,056
-677,437	800,000	-0,046	0,122
-676,422	6,331	0,080	0,044
-675,408	800,000	0,056	0,117
-674,393	800,000	0,010	0,026
-673,378	42,311	-0,030	0,020
-672,364	476,277	-0,056	-0,094
-671,349	800,000	0,042	-0,089
-670,335	-200,000	-0,036	-0,158
-669,320	-9,194	-0,129	-0,064
-668,305	800,000	0,021	0,064
-667,291	-7,342	-0,101	-0,050
-666,276	-200,000	0,012	-0,090
-665,262	-57,952	-0,124	-0,040
-664,247	-200,000	0,016	-0,073
-663,232	-200,000	0,018	0,074
-662,218	602,139	0,020	0,038
-661,203	-200,000	-0,005	0,062
-660,189	-119,408	0,028	0,004
-659,174	12,255	-0,046	-0,026
-658,159	-63,738	-0,180	0,054
-657,145	133,114	-0,081	0,077
-656,130	800,000	0,025	-0,071
-655,116	29,110	0,075	0,047
-654,101	-134,089	0,145	-0,013
-653,086	-11,200	-0,048	0,023
-652,072	-73,404	-0,087	0,023
-651,057	-82,931	0,072	-0,017
-650,043	324,211	-0,004	-0,006
-649,028	-84,099	0,115	0,027
-648,014	-28,439	-0,017	-0,007
-646,999	45,258	0,093	0,064
-645,984	-200,000	0,015	0,054
-644,970	-119,137	0,061	-0,008
-643,955	-18,022	-0,100	0,046
-642,941	800,000	-0,039	-0,086
-641,926	-200,000	0,015	0,122
-640,911	171,300	0,021	0,022
-639,897	-31,132	-0,057	-0,024
-638,882	-200,000	-0,008	0,094
-637,868	-200,000	-0,002	0,020
-636,853	169,227	-0,068	-0,072
-635,838	800,000	0,005	-0,012
-634,824	249,021	0,058	0,073
-633,809	-200,000	-0,006	0,047
-632,795	66,721	0,065	0,049
-631,780	167,881	-0,043	0,045
-630,765	-200,000	0,024	-0,100
-629,751	800,000	0,048	0,114
-628,736	84,768	-0,079	-0,064
-627,722	100,893	0,084	0,072
-626,707	91,371	0,055	-0,046
-625,692	-200,000	0,002	0,013
-624,678	-70,181	-0,162	0,045
-623,663	800,000	0,011	-0,035
-622,649	-200,000	0,008	-0,051
-621,634	800,000	0,023	-0,052
-620,619	71,890	0,155	-0,120
-619,605	125,797	-0,132	0,123
-618,590	494,959	-0,030	0,051
-617,576	448,636	0,055	0,089
-616,561	-184,206	0,112	0,001
-615,546	517,260	-0,050	0,087
-614,532	244,931	0,028	0,035
-613,517	-200,000	0,007	0,064
-612,503	-102,451	0,046	-0,008
-611,488	-200,000	-0,007	0,093
-610,474	-89,635	0,131	0,028
-609,459	3,737	-0,066	0,035
-608,444	800,000	-0,030	-0,076
-607,430	119,961	-0,110	0,101
-606,415	-200,000	-0,002	0,028
-605,401	-110,526	0,031	-0,005
-604,386	513,882	-0,076	0,131
-603,371	524,185	0,062	-0,108
-602,357	-200,000	0,012	-0,060
-601,342	265,178	-0,073	-0,095
-600,328	800,000	-0,007	-0,018
-599,313	26,640	-0,069	-0,042
-598,298	97,075	-0,092	0,078
-597,284	-200,000	-0,004	-0,029
-596,269	4,754	-0,036	-0,019
-595,255	89,446	-0,049	-0,040
-594,240	800,000	0,049	0,104
-593,225	800,000	0,050	-0,129
-592,211	429,664	-0,069	-0,111
-591,196	-11,066	-0,062	0,030
-590,182	26,365	-0,067	-0,042
-589,167	273,621	-0,105	0,137
-588,152	102,598	0,061	-0,053
-587,138	203,739	-0,153	-0,175
-586,123	90,644	0,069	-0,057
-585,109	-116,966	-0,101	0,013
-584,094	-200,000	0,029	-0,128
-583,079	48,252	0,096	0,066
-582,065	75,097	0,063	0,049
-581,050	417,241	-0,028	-0,045
-580,036	531,003	0,020	0,035
-579,021	35,625	-0,111	-0,072
-578,006	25,368	-0,139	0,085
-576,992	22,263	-0,020	0,012
-575,977	-200,000	0,011	0,128
-574,963	-37,976	0,114	-0,045
-573,948	-128,083	-0,202	-0,021
-572,934	109,536	0,060	0,053
-571,919	298,468	-0,129	0,176
-570,904	284,605	-0,121	-0,161
-569,890	-200,000	0,023	0,095
-568,875	800,000	0,047	-0,118
-567,861	196,880	-0,027	0,030
-566,846	83,032	0,146	-0,117
-565,831	-55,250	-0,105	0,035
-564,817	-101,341	0,057	-0,010
-563,802	273,102	-0,110	-0,144
-562,788	215,832	0,070	0,082
-561,773	506,441	-0,052	0,089
-560,758	-8,452	0,144	0,071
-559,744	-157,297	0,018	0,001
-558,729	250,291	0,108	-0,136
-557,715	-5,945	-0,065	0,033
-556,700	335,342	-0,050	0,072
-555,685	41,138	0,076	0,050
-554,671	-200,000	0,038	0,161
-553,656	17,056	0,137	0,080
-552,642	800,000	-0,046	0,143
-551,627	-107,117	0,072	-0,012
-550,612	214,770	0,066	-0,077
-549,598	54,697	-0,045	-0,032
-548,583	-91,810	-0,068	0,014
-547,569	-36,104	-0,107	0,042
-546,554	731,873	0,043	-0,085
-545,539	59,627	0,074	0,053
-544,525	-200,000	0,020	0,109
-543,510	777,397	0,015	0,030
-542,496	65,690	-0,015	-0,011
-541,481	800,000	-0,054	-0,131
-540,466	9,224	0,107	0,059
-539,452	35,645	0,047	-0,030
-538,437	93,044	0,041	0,035
-537,423	800,000	-0,017	-0,043
-536,408	800,000	0,020	0,064
-535,393	381,161	-0,060	-0,091
-534,379	206,234	0,070	0,080
-533,364	486,686	-0,044	-0,075
-532,350	800,000	-0,020	-0,055
-531,335	800,000	0,062	0,166
-530,321	-19,402	0,060	-0,027
-529,306	-35,409	-0,098	0,039
-528,291	-16,593	-0,039	0,018
-527,277	-176,913	-0,021	-0,000
-526,262	-200,000	-0,027	-0,111
-525,248	72,794	0,038	-0,029
-524,233	-74,339	-0,045	0,012
-523,218	-104,860	0,152	0,026
-522,204	800,000	-0,012	-0,027
-521,189	-65,571	-0,107	-0,031
-520,175	134,638	-0,057	-0,055
-519,160	-200,000	0,012	-0,124
-518,145	218,880	-0,033	-0,038
-517,131	296,294	0,064	0,087
-516,116	372,683	0,073	0,109
-515,102	450,064	-0,054	0,089
-514,087	351,549	-0,044	-0,064
-513,072	647,498	-0,033	0,062
-512,058	800,000	0,032	0,096
-511,043	-1,395	0,095	-0,050
-510,029	374,856	-0,042	0,063
-509,014	42,337	0,098	-0,066
-507,999	18,479	0,107	-0,063
-506,985	604,626	-0,022	-0,041
-505,970	-64,407	-0,020	0,006
-504,956	800,000	-0,019	-0,056
-503,941	331,754	-0,044	-0,062
-502,926	-200,000	0,004	-0,143
-501,912	251,461	0,050	-0,063
-500,897	-106,392	0,068	-0,011
-499,883	50,782	-0,125	-0,087
-498,868	800,000	-0,023	-0,056
-497,853	159,070	-0,049	-0,050
-496,839	-46,602	-0,144	-0,052
-495,824	99,012	0,104	0,088
-494,810	120,571	0,073	0,066
-493,795	689,321	0,059	0,114
-492,781	-200,000	0,015	0,058
-491,766	-50,114	-0,145	-0,050
-490,751	-83,043	0,066	0,015
-489,737	200,311	-0,024	-0,027
-488,722	-200,000	0,024	-0,081
-487,708	-200,000	0,008	0,106
-486,693	-38,996	-0,016	-0,006
-485,678	800,000	0,054	-0,136
-484,664	-200,000	-0,000	-0,028
-483,649	-124,999	-0,134	-0,015
-482,635	800,000	0,036	0,108
-481,620	-200,000	0,001	0,047
-480,605	-73,476	0,091	-0,024
-479,591	-66,476	0,089	0,026
-478,576	-125,280	-0,054	0,006
-477,562	105,699	-0,056	-0,049
-476,547	-200,000	-0,010	-0,097
-475,532	-114,447	0,125	-0,018
-474,518	102,547	0,045	0,038
-473,503	800,000	-0,062	0,142
-472,489	-200,000	-0,000	0,030
-471,474	-200,000	-0,015	0,098
-470,459	204,105	-0,034	-0,038
-469,445	454,162	-0,005	-0,009
-468,430	82,593	0,096	-0,077
-467,416	-54,581	0,103	-0,034
-466,401	215,708	-0,121	0,141
-465,386	-200,000	-0,032	0,127
-464,372	449,191	0,036	-0,058
-463,357	55,270	-0,105	0,075
-462,343	-200,000	-0,002	0,106
-461,328	-200,000	-0,036	-0,189
-460,313	340,809	0,085	0,122
-459,299	-200,000	0,008	0,036
-458,284	283,480	0,009	0,012
-457,270	209,720	0,033	0,038
-456,255	-91,557	-0,070	0,015
-455,241	138,242	0,094	-0,091
-454,226	-119,036	-0,082	-0,010
-453,211	103,360	-0,058	0,050
-452,197	48,653	0,101	0,070
-451,182	53,220	0,089	0,063
-450,168	-200,000	-0,013	-0,109
-449,153	-146,100	-0,092	0,006
-448,138	-200,000	-0,023	-0,111
-447,124	182,213	0,070	-0,076
-446,109	191,086	0,026	-0,028
-445,095	800,000	0,055	-0,115
-444,080	-88,275	0,122	0,027
-443,065	52,673	0,109	0,077
-442,051	-200,000	-0,016	-0,196
-441,036	345,970	0,082	0,119
-440,022	-147,320	-0,143	-0,009
-439,007	800,000	0,035	-0,091
-437,992	-34,154	0,024	0,010
-436,978	-4,038	0,111	-0,056
-435,963	-200,000	-0,019	0,065
-434,949	181,123	-0,059	0,064
-433,934	800,000	0,012	-0,029
-432,919	800,000	-0,060	-0,151
-431,905	-48,844	0,039	-0,014
-430,890	-200,000	0,024	0,131
-429,876	-200,000	-0,002	-0,030
-428,861	16,065	0,093	0,054
-427,846	-200,000	0,026	-0,086
-426,832	-63,588	-0,114	-0,034
-425,817	-200,000	-0,017	-0,153
-424,803	74,534	-0,040	-0,031
-423,788	-200,000	-0,002	0,037
-422,773	450,747	0,055	0,089
-421,759	-200,000	0,005	0,113
-420,744	800,000	0,037	0,095
-419,730	-200,000	-0,007	-0,026
-418,715	-100,980	0,108	0,019
-417,701	-124,023	0,043	0,005
-416,686	509,553	-0,025	-0,043
-415,671	85,456	0,062	0,050
-414,657	69,830	0,048	0,036
-413,642	-200,000	0,016	0,053
-412,628	-11,020	0,043	-0,021
-411,613	565,810	0,042	-0,074
-410,598	-2,478	0,044	-0,023
-409,584	5,000	0,084	0,045
-408,569	120,913	-0,067	-0,061
-407,555	319,167	0,092	0,128
-406,540	-119,206	-0,060	0,008
-405,525	-31,376	0,059	0,024
-404,511	448,888	-0,024	0,039
-403,496	-113,765	-0,081	-0,012
-402,482	-161,220	0,166	0,006
-401,467	800,000	-0,062	0,160
-400,452	302,284	0,087	0,119
-399,438	-200,000	-0,008	0,102
-398,423	315,686	0,005	-0,007
-397,409	-200,000	0,021	-0,122
-396,394	800,000	0,045	-0,105
-395,379	-143,474	-0,042	-0,003
-394,365	-200,000	-0,007	-0,031
-393,350	-200,000	0,011	0,042
-392,336	475,162	-0,078	0,130
-391,321	292,383	-0,116	-0,155
-390,306	-59,345	-0,076	0,024
-389,292	-200,000	0,005	0,037
-388,277	75,395	0,072	-0,056
-387,263	-75,972	-0,085	0,022
-386,248	501,992	0,100	0,171
-385,233	-132,425	-0,126	-0,012
-384,219	-200,000	-0,006	-0,047
-383,204	-79,563	0,062	-0,015
-382,190	-200,000	-0,053	-0,225
-381,175	796,545	-0,048	-0,097
-380,160	-62,351	-0,044	0,013
-379,146	-200,000	0,004	-0,028
-378,131	-52,602	0,051	-0,017
-377,117	622,993	-0,083	-0,153
-376,102	-3,368	-0,042	-0,021
-375,088	-109,280	0,056	-0,009
-374,073	-200,000	-0,010	-0,095
-373,058	-93,283	0,104	0,021
-372,044	-121,447	-0,142	-0,017
-371,029	155,509	0,008	-0,008
-370,015	800,000	0,041	-0,091
-369,000	800,000	0,014	0,038
-367,985	-10,524	-0,047	-0,023
-366,971	-200,000	0,024	0,084
-365,956	-38,498	-0,021	0,008
-364,942	800,000	0,018	0,055
-363,927	48,079	-0,068	-0,046
-362,912	-104,908	0,091	-0,015
-361,898	146,799	-0,073	0,072
-360,883	126,030	0,069	-0,064
-359,869	709,168	0,079	-0,154
-358,854	380,284	0,075	0,113
-357,839	800,000	-0,037	0,102
-356,825	-61,495	0,101	0,031
-355,810	-46,183	-0,098	0,035
-354,796	-76,540	-0,103	-0,026
-353,781	-200,000	0,039	-0,131
-352,766	800,000	0,019	-0,041
-351,752	-33,178	-0,049	-0,020
-350,737	-53,913	0,074	0,025
-349,723	-178,057	-0,137	0,002
-348,708	223,709	-0,068	0,081
-347,693	296,380	0,066	-0,089
-346,679	469,641	0,036	-0,060
-345,664	-14,648	0,125	-0,059
-344,650	800,000	0,034	-0,094
-343,635	-200,000	0,020	0,094
-342,620	-121,889	0,214	-0,026
-341,606	-25,707	0,166	0,071
-340,591	800,000	-0,051	-0,126
-339,577	221,758	0,006	0,007
-338,562	-154,032	-0,054	-0,003
-337,548	800,000	0,080	-0,200
-336,533	-200,000	0,011	-0,053
-335,518	-58,743	0,078	-0,024
-334,504	-200,000	-0,034	0,177
-333,489	-200,000	-0,005	-0,108
-332,475	542,579	-0,039	-0,069
-331,460	-200,000	-0,012	0,046
-330,445	800,000	0,028	0,073
-329,431	-57,205	0,041	0,013
-328,416	385,169	-0,055	0,083
-327,402	-200,000	0,006	0,100
-326,387	800,000	-0,049	-0,099
-325,372	74,743	0,088	0,068
-324,358	161,362	0,011	0,012
-323,343	-200,000	-0,027	-0,118
-322,329	2,542	0,011	0,006
-321,314	-62,957	-0,091	-0,027
-320,299	-74,668	-0,055	-0,014
-319,285	171,693	0,073	0,076
-318,270	-200,000	0,023	-0,093
-317,256	-35,883	0,071	0,028
-316,241	387,098	-0,031	0,047
-315,226	-200,000	-0,001	0,055
-314,212	-109,997	-0,018	-0,003
-313,197	800,000	-0,017	-0,050
-312,183	-59,544	-0,015	0,005
-311,168	-130,618	-0,099	-0,010
-310,153	326,965	0,044	-0,062
-309,139	-28,027	-0,039	0,016
-308,124	-36,547	0,099	0,039
-307,110	55,158	-0,139	-0,099
-306,095	60,348	0,070	0,051
-305,080	70,185	-0,148	0,112
-304,066	-170,576	-0,041	0,001
-303,051	-200,000	0,018	-0,190
-302,037	376,504	-0,044	-0,066
-301,022	318,465	0,094	0,130
-300,008	800,000	-0,014	0,038
-298,993	-47,086	0,032	-0,011
-297,978	-11,147	0,085	-0,041
-296,964	3,776	0,157	0,084
-295,949	800,000	-0,044	-0,095
-294,935	196,818	-0,043	-0,048
-293,920	-113,098	0,106	-0,015
-292,905	-200,000	0,009	0,117
-291,891	-200,000	-0,016	0,064
-290,876	800,000	0,046	-0,121
-289,862	-200,000	0,003	-0,148
-288,847	-200,000	0,009	0,057
-287,832	-200,000	0,014	-0,081
-286,818	-200,000	0,011	0,070
-285,803	-63,363	-0,109	0,033
-284,789	-200,000	-0,008	0,091
-283,774	-113,471	-0,079	-0,011
-282,759	409,347	0,038	0,059
-281,745	397,907	-0,045	0,068
-280,730	178,985	-0,077	-0,082
-279,716	800,000	-0,056	0,115
-278,701	250,721	0,093	-0,116
-277,686	-85,096	0,128	0,029
-276,672	-47,363	-0,062	0,022
-275,657	-11,619	-0,039	0,019
-274,643	-200,000	0,002	-0,079
-273,628	2,907	-0,227	-0,120
-272,613	314,701	-0,056	-0,077
-271,599	-81,252	0,006	-0,001
-270,584	-129,377	-0,045	-0,004
-269,570	-200,000	-0,009	0,045
-268,555	-200,000	-0,017	0,081
-267,540	-7,467	0,098	0,048
-266,526	124,123	-0,068	-0,062
-265,511	327,206	-0,044	-0,062
-264,497	-17,451	0,127	0,058
-263,482	-44,037	0,118	-0,043
-262,467	-19,044	0,032	0,014
-261,453	-200,000	0,020	-0,145
-260,438	-200,000	-0,011	-0,086
-259,424	-23,115	-0,013	0,006
-258,409	380,342	-0,058	-0,088
-257,395	18,030	0,086	0,050
-256,380	-116,701	0,094	-0,012
-255,365	706,367	-0,062	-0,119
-254,351	90,386	-0,114	0,093
-253,336	-7,156	-0,071	0,035
-252,322	-119,200	-0,036	0,005
-251,307	125,778	-0,095	0,087
-250,292	82,479	0,121	0,096
-249,278	252,444	-0,070	0,087
-248,263	374,520	-0,059	0,088
-247,249	-93,798	-0,168	0,034
-246,234	-98,710	-0,034	-0,006
-245,219	340,805	0,035	-0,050
-244,205	-18,754	-0,126	-0,057
-243,190	186,429	-0,124	0,135
-242,176	-58,625	-0,031	-0,010
-241,161	-18,407	-0,040	-0,018
-240,146	-200,000	-0,011	-0,048
-239,132	-200,000	0,002	-0,111
-238,117	790,290	-0,014	-0,028
-237,103	20,913	0,095	-0,056
-236,088	-200,000	0,039	-0,145
-235,073	48,937	-0,119	-0,081
-234,059	-189,750	0,099	-0,001
-233,044	-200,000	-0,001	-0,039
-232,030	190,734	-0,052	0,058
-231,015	-30,667	0,059	0,024
-230,000	-1,480	-0,164	0,084
-228,986	-32,689	-0,104	-0,042
-227,971	209,542	0,045	0,051
-226,957	800,000	-0,033	0,100
-225,942	68,043	-0,128	0,095
-224,927	4,357	-0,137	-0,073
-223,913	-153,269	0,074	-0,004
-222,898	667,607	-0,045	0,085
-221,884	-3,516	-0,098	0,050
-220,869	-16,466	-0,121	0,056
-219,855	-200,000	-0,002	0,034
-218,840	302,214	-0,028	-0,038
-217,825	-118,239	0,162	0,021
-216,811	-108,226	0,056	-0,009
-215,796	57,686	-0,098	0,069
-214,782	-50,533	-0,057	-0,019
-213,767	-200,000	0,033	-0,129
-212,752	-153,016	0,127	0,006
-211,738	-200,000	0,008	0,117
-210,723	-109,577	-0,130	0,020
-209,709	50,106	0,026	-0,018
-208,694	48,320	0,034	0,023
-207,679	39,903	-0,122	0,079
-206,665	156,666	0,080	0,081
-205,650	487,019	-0,075	0,125
-204,636	-98,243	-0,068	-0,013
-203,621	-200,000	0,002	0,037
-202,606	-70,093	-0,084	0,023
-201,592	-200,000	0,045	-0,152
-200,577	484,072	0,075	0,125
-199,563	-27,379	-0,145	0,061
-198,548	-119,761	0,069	-0,009
-197,533	-200,000	0,013	0,048
-196,519	-7,030	-0,119	0,058
-195,504	763,781	-0,027	-0,054
-194,490	-59,451	0,022	0,007
-193,475	-127,442	-0,088	0,009
-192,460	-200,000	-0,002	-0,104
-191,446	183,411	0,041	-0,044
-190,431	-99,183	0,088	0,016
-189,417	-149,362	0,037	-0,002
-188,402	800,000	0,030	-0,066
-187,387	457,462	-0,076	-0,124
-186,373	233,620	-0,061	-0,074
-185,358	324,047	-0,053	0,074
-184,344	-200,000	-0,001	0,085
-183,329	57,269	0,124	-0,088
-182,315	99,602	0,086	0,073
-181,300	800,000	0,076	-0,163
-180,285	77,371	-0,057	-0,044
-179,271	-200,000	0,016	-0,158
-178,256	156,312	-0,007	-0,008
-177,242	800,000	0,022	0,048
-176,227	-200,000	0,021	0,086
-175,212	78,474	0,139	0,108
-174,198	29,714	0,083	-0,051
-173,183	-9,880	-0,074	-0,036
-172,169	77,463	-0,071	-0,055
-171,154	800,000	0,013	-0,037
-170,139	-200,000	0,038	0,140
-169,125	-80,908	-0,062	-0,015
-168,110	127,824	-0,042	0,039
-167,096	800,000	0,037	-0,094
-166,081	800,000	0,022	-0,048
-165,066	9,666	-0,095	-0,052
-164,052	-45,568	0,111	0,040
-163,037	800,000	0,023	0,072
-162,023	-183,854	0,049	0,001
-161,008	617,610	0,010	0,018
-159,993	68,096	0,160	0,119
-158,979	274,304	0,028	-0,036
-157,964	473,783	0,030	0,049
-156,950	-200,000	-0,017	-0,062
-155,935	412,856	-0,011	-0,017
-154,920	-82,603	0,067	0,016
-153,906	88,522	-0,044	-0,036
-152,891	121,973	0,021	-0,019
-151,877	-200,000	0,023	-0,130
-150,862	-37,263	0,024	0,009
-149,847	79,278	-0,031	0,024
-148,833	-200,000	-0,004	0,125
-147,818	439,261	-0,065	0,104
-146,804	27,556	-0,041	-0,025
-145,789	49,862	-0,040	0,027
-144,775	-9,175	-0,199	-0,096
-143,760	-99,209	-0,123	0,022
-142,745	211,532	0,087	-0,100
-141,731	-100,931	0,098	0,017
-140,716	-200,000	-0,013	0,081
-139,702	433,844	0,064	-0,102
-138,687	-68,415	-0,019	0,005
-137,672	15,533	-0,129	0,074
-136,658	-51,765	-0,171	0,058
-135,643	-182,701	0,039	-0,000
-134,629	132,317	0,123	-0,115
-133,614	800,000	0,035	-0,085
-132,599	162,081	0,119	0,122
-131,585	14,609	0,080	-0,045
-130,570	-200,000	0,012	0,069
-129,556	800,000	0,055	0,124
-128,541	800,000	0,044	0,125
-127,526	-40,407	-0,031	0,012
-126,512	-200,000	-0,020	0,090
-125,497	274,649	0,040	0,052
-124,483	120,070	0,115	0,103
-123,468	-36,215	0,164	0,064
-122,453	19,126	-0,055	0,032
-121,439	772,905	0,011	-0,022
-120,424	800,000	-0,024	-0,073
-119,410	-200,000	0,005	-0,056
-118,395	800,000	0,024	0,070
