DTS Sentinel unit serial number:	SN410029Multiplexer serial number:	ORYXHardware model number:	OX2-SRSoftware version number:	ORYX F/W v4,00 Oryx Data Collector v3.7.2.0data status	okinstallation	B4 Nyhavnadifferential loss correction	single-endedforward channel	channel 2reverse channel	N/Adate	2023/12/15time	17:55:13forward acquisition time	300,00reverse acquisition time	0,00gamma	499,1914k internal	0,3141k external	0,3141temperature offset calibration	1,0000default loss term (dB/km)	0,3820temperature slope calibration	1,0000multiplexer offset coefficient	1,0000multiplexer slope coefficient	1,0000fibre end	0,00T internal ref (°C)	18,74T ext. ref 1 (°C)	4,66T ext. ref 2 (°C)	4,74length (m)	temperature (°C)	Stokes	anti-Stokes-744,400	-200,000	0,002	0,101
-743,385	87,132	-0,150	0,123
-742,371	-87,298	0,027	-0,006
-741,356	-154,869	-0,174	0,008
-740,342	262,741	0,006	-0,008
-739,327	-89,883	-0,099	-0,021
-738,312	33,851	0,071	0,046
-737,298	-37,033	-0,352	0,139
-736,283	35,179	0,104	-0,067
-735,269	-5,186	-0,309	0,157
-734,254	800,000	0,035	0,083
-733,239	-42,986	-0,454	-0,170
-732,225	224,362	0,073	-0,087
-731,210	-200,000	0,033	0,162
-730,196	800,000	0,066	-0,160
-729,181	-98,397	-0,097	-0,018
-728,167	800,000	-0,021	0,048
-727,152	-81,764	-0,256	0,062
-726,137	587,063	-0,102	-0,187
-725,123	800,000	0,039	-0,123
-724,108	121,311	-0,038	-0,035
-723,094	-40,238	-0,056	-0,022
-722,079	-84,721	-0,019	0,004
-721,064	-108,897	0,030	-0,005
-720,050	-69,414	-0,089	-0,025
-719,035	283,024	-0,065	0,087
-718,021	-85,173	-0,095	0,022
-717,006	527,980	-0,071	-0,125
-715,991	-43,585	0,067	0,025
-714,977	-200,000	0,050	-0,167
-713,962	-200,000	0,007	-0,045
-712,948	-152,266	0,163	-0,009
-711,933	-163,324	-0,023	0,001
-710,918	800,000	-0,019	0,042
-709,904	-52,659	-0,145	-0,049
-708,889	-200,000	0,012	-0,049
-707,875	-17,858	-0,231	0,107
-706,860	-23,695	-0,161	0,071
-705,845	-200,000	0,003	0,132
-704,831	405,800	0,029	0,045
-703,816	271,456	-0,023	-0,030
-702,802	-80,134	-0,115	-0,028
-701,787	800,000	-0,046	0,104
-700,772	749,510	-0,054	-0,108
-699,758	-132,767	-0,152	0,014
-698,743	69,502	0,083	0,064
-697,729	-135,568	0,068	0,006
-696,714	8,209	-0,157	-0,087
-695,699	-50,701	-0,226	-0,078
-694,685	-177,568	0,016	-0,000
-693,670	10,804	-0,024	0,014
-692,656	-46,965	-0,048	-0,017
-691,641	-144,366	-0,036	-0,002
-690,627	-200,000	0,040	0,143
-689,612	-55,904	0,082	0,027
-688,597	357,659	0,069	-0,102
-687,583	329,427	0,069	-0,099
-686,568	124,372	-0,041	-0,038
-685,554	-58,343	0,054	-0,017
-684,539	24,628	-0,047	0,029
-683,524	674,589	-0,046	-0,090
-682,510	-66,308	-0,162	-0,047
-681,495	40,938	-0,060	0,040
-680,481	-200,000	-0,016	-0,120
-679,466	144,412	-0,049	-0,049
-678,451	-95,387	-0,158	0,031
-677,437	676,916	0,075	0,144
-676,422	417,392	-0,085	0,135
-675,408	520,123	-0,022	-0,037
-674,393	-200,000	0,005	-0,026
-673,378	-200,000	0,015	-0,056
-672,364	21,758	0,118	-0,071
-671,349	-200,000	-0,072	0,000
-670,335	-164,524	0,113	-0,004
-669,320	63,870	-0,068	-0,050
-668,305	345,655	-0,043	-0,063
-667,291	-200,000	-0,037	0,127
-666,276	312,973	0,045	-0,063
-665,262	-200,000	-0,013	-0,063
-664,247	155,365	-0,094	0,096
-663,232	353,528	0,054	-0,079
-662,218	-42,537	0,074	0,028
-661,203	453,809	-0,017	0,027
-660,189	546,555	0,038	-0,068
-659,174	63,645	0,081	0,060
-658,159	800,000	-0,025	0,061
-657,145	-130,375	-0,258	-0,026
-656,130	-200,000	-0,008	-0,036
-655,116	56,343	0,079	0,057
-654,101	86,000	-0,114	0,093
-653,086	800,000	-0,045	-0,098
-652,072	129,096	0,079	0,074
-651,057	-101,365	0,086	0,015
-650,043	-55,812	-0,049	-0,016
-649,028	-200,000	0,020	0,071
-648,014	-188,875	0,118	-0,001
-646,999	-200,000	-0,000	-0,027
-645,984	-64,598	-0,070	0,021
-644,970	63,757	-0,072	-0,053
-643,955	75,073	-0,076	0,059
-642,941	-51,758	0,097	-0,033
-641,926	-200,000	-0,030	-0,131
-640,911	-4,171	0,105	-0,054
-639,897	-43,926	-0,051	-0,019
-638,882	246,444	-0,025	-0,031
-637,868	-155,509	-0,052	0,002
-636,853	-153,380	-0,204	0,010
-635,838	203,021	0,104	-0,119
-634,824	-123,301	-0,020	-0,002
-633,809	800,000	-0,026	-0,065
-632,795	-50,365	-0,002	0,001
-631,780	800,000	-0,046	-0,120
-630,765	-104,075	0,101	-0,017
-629,751	-106,661	-0,162	-0,026
-628,736	139,777	-0,176	-0,171
-627,722	-200,000	-0,022	-0,075
-626,707	-43,965	0,026	0,010
-625,692	582,511	-0,063	0,115
-624,678	-99,506	0,241	-0,044
-623,663	214,690	-0,026	-0,030
-622,649	-95,069	-0,092	-0,018
-621,634	365,102	0,034	-0,050
-620,619	800,000	-0,028	-0,084
-619,605	27,407	-0,093	-0,058
-618,590	-200,000	0,003	0,026
-617,576	211,041	0,018	0,020
-616,561	-14,378	0,050	0,024
-615,546	-200,000	-0,030	0,132
-614,532	-44,109	-0,116	0,043
-613,517	-115,032	0,035	0,005
-612,503	211,945	-0,092	-0,107
-611,488	127,687	-0,047	0,044
-610,474	-200,000	-0,003	0,043
-609,459	-42,332	0,076	-0,028
-608,444	220,846	-0,021	-0,024
-607,430	42,038	-0,121	0,081
-606,415	-71,219	-0,076	-0,021
-605,401	-44,973	0,062	-0,023
-604,386	72,756	0,083	-0,064
-603,371	-200,000	-0,009	-0,029
-602,357	800,000	-0,057	-0,117
-601,342	-200,000	-0,014	-0,048
-600,328	-200,000	-0,012	-0,069
-599,313	-93,016	0,030	0,006
-598,298	-122,950	-0,134	0,016
-597,284	121,601	-0,031	-0,029
-596,269	444,277	0,046	-0,075
-595,255	375,585	0,084	0,127
-594,240	-24,148	-0,169	-0,074
-593,225	-190,307	-0,144	0,001
-592,211	-123,999	0,037	-0,004
-591,196	-98,036	-0,055	0,010
-590,182	-200,000	-0,002	-0,062
-589,167	65,463	-0,055	-0,041
-588,152	800,000	0,013	0,043
-587,138	-79,977	-0,143	0,035
-586,123	800,000	-0,033	-0,093
-585,109	-93,627	-0,153	-0,031
-584,094	-109,720	0,106	-0,016
-583,079	800,000	-0,031	-0,080
-582,065	185,741	-0,071	0,078
-581,050	33,573	0,094	0,060
-580,036	-39,080	0,035	-0,014
-579,021	-8,046	0,022	0,011
-578,006	-200,000	-0,021	-0,081
-576,992	800,000	0,026	0,060
-575,977	796,148	-0,058	0,118
-574,963	285,734	-0,048	0,065
-573,948	-65,702	-0,058	0,017
-572,934	-94,820	-0,022	-0,004
-571,919	153,463	-0,078	-0,079
-570,904	-200,000	-0,004	-0,094
-569,890	208,739	-0,072	-0,083
-568,875	800,000	0,011	0,035
-567,861	-200,000	0,034	0,139
-566,846	12,201	-0,027	-0,015
-565,831	-170,043	0,087	-0,002
-564,817	-200,000	-0,023	-0,200
-563,802	-149,784	-0,128	0,007
-562,788	800,000	0,014	-0,039
-561,773	-155,775	-0,072	-0,003
-560,758	-82,875	0,090	0,021
-559,744	-86,687	-0,047	-0,011
-558,729	800,000	0,012	-0,038
-557,715	-52,061	0,080	-0,027
-556,700	-118,515	-0,118	0,015
-555,685	800,000	0,045	-0,104
-554,671	-116,640	0,113	0,015
-553,656	-82,998	-0,120	-0,028
-552,642	265,107	0,040	0,052
-551,627	5,095	0,087	0,047
-550,612	353,396	-0,030	-0,043
-549,598	52,063	0,081	-0,057
-548,583	-200,000	0,021	-0,171
-547,569	-66,008	0,047	-0,014
-546,554	541,756	0,075	0,131
-545,539	-200,000	0,016	0,101
-544,525	60,866	0,067	0,049
-543,510	800,000	-0,008	0,020
-542,496	-200,000	0,013	-0,133
-541,481	-200,000	0,012	-0,081
-540,466	-133,396	-0,088	-0,008
-539,452	-85,585	-0,121	0,027
-538,437	297,986	0,112	0,152
-537,423	-200,000	0,013	0,044
-536,408	-200,000	-0,003	-0,096
-535,393	-74,609	-0,063	-0,016
-534,379	-200,000	0,014	-0,074
-533,364	-166,012	-0,106	0,003
-532,350	-200,000	-0,005	0,103
-531,335	-152,448	0,058	-0,003
-530,321	174,871	-0,079	0,084
-529,306	683,504	-0,054	0,105
-528,291	-200,000	0,008	0,083
-527,277	434,714	-0,055	-0,088
-526,262	-200,000	-0,017	0,064
-525,248	794,638	-0,015	0,031
-524,233	689,287	-0,013	-0,025
-523,218	-129,643	0,029	-0,003
-522,204	-200,000	-0,015	-0,116
-521,189	55,693	0,050	0,035
-520,175	193,792	-0,042	-0,047
-519,160	-123,805	0,194	-0,022
-518,145	-200,000	0,016	0,154
-517,131	-76,387	0,169	0,043
-516,116	420,964	-0,082	-0,129
-515,102	-200,000	0,008	0,102
-514,087	36,763	-0,094	-0,061
-513,072	89,469	-0,053	-0,044
-512,058	-139,418	0,084	-0,007
-511,043	259,915	0,036	0,046
-510,029	-45,983	-0,089	0,032
-509,014	-164,424	0,159	0,005
-507,999	316,219	0,031	-0,043
-506,985	800,000	-0,048	0,120
-505,970	-51,241	0,064	0,022
-504,956	78,267	0,020	-0,016
-503,941	10,642	0,183	-0,102
-502,926	502,697	0,042	0,072
-501,912	70,454	0,153	0,116
-500,897	800,000	0,002	0,006
-499,883	409,970	-0,049	0,076
-498,868	-200,000	0,007	-0,180
-497,853	481,907	-0,058	-0,098
-496,839	-19,772	0,072	-0,033
-495,824	-60,363	0,076	-0,024
-494,810	31,097	0,045	0,028
-493,795	800,000	0,027	0,070
-492,781	-193,124	-0,114	-0,001
-491,766	330,391	0,026	0,036
-490,751	277,908	0,076	-0,100
-489,737	60,955	0,032	0,023
-488,722	151,420	0,047	-0,047
-487,708	254,854	-0,044	-0,056
-486,693	-33,356	0,079	0,032
-485,678	345,379	0,056	-0,081
-484,664	426,262	-0,134	0,213
-483,649	-200,000	0,018	-0,113
-482,635	-122,727	0,009	-0,001
-481,620	-20,548	-0,146	-0,065
-480,605	-125,333	0,122	0,014
-479,591	-60,848	0,036	0,011
-478,576	12,271	-0,134	0,075
-477,562	-200,000	0,005	0,075
-476,547	-127,494	-0,074	0,008
-475,532	349,877	0,044	-0,065
-474,518	529,401	-0,064	0,112
-473,503	-139,661	0,193	0,015
-472,489	-200,000	-0,002	0,090
-471,474	-47,014	0,023	-0,008
-470,459	-78,483	0,032	-0,008
-469,445	84,123	-0,096	-0,076
-468,430	800,000	-0,029	-0,069
-467,416	100,262	-0,096	-0,082
-466,401	800,000	0,026	0,078
-465,386	7,817	0,052	-0,028
-464,372	143,299	0,075	0,073
-463,357	-9,133	-0,090	-0,044
-462,343	800,000	-0,046	-0,149
-461,328	-200,000	0,022	-0,076
-460,313	-200,000	0,005	-0,102
-459,299	114,692	0,083	0,074
-458,284	176,037	-0,076	0,081
-457,270	371,689	-0,011	-0,017
-456,255	399,891	-0,033	0,052
-455,241	29,484	-0,073	-0,046
-454,226	465,655	-0,037	0,060
-453,211	-80,615	0,117	0,028
-452,197	800,000	0,013	0,027
-451,182	-5,677	-0,018	-0,009
-450,168	800,000	-0,024	0,068
-449,153	-113,079	-0,024	0,003
-448,138	800,000	0,024	-0,058
-447,124	-33,776	-0,194	-0,078
-446,109	-130,071	-0,082	0,008
-445,095	71,469	0,108	-0,082
-444,080	435,160	-0,047	0,075
-443,065	-200,000	0,018	0,066
-442,051	-137,996	0,080	-0,006
-441,036	7,874	0,095	0,052
-440,022	284,881	0,026	0,034
-439,007	610,552	0,079	-0,145
-437,992	-200,000	-0,029	0,148
-436,978	40,247	0,130	0,086
-435,963	-200,000	0,000	-0,034
-434,949	-27,308	-0,054	0,023
-433,934	-200,000	-0,003	0,030
-432,919	800,000	-0,069	-0,158
-431,905	800,000	0,049	-0,115
-430,890	46,623	0,043	-0,029
-429,876	437,621	0,121	0,193
-428,861	800,000	-0,013	-0,032
-427,846	-200,000	-0,009	0,040
-426,832	436,715	-0,029	0,046
-425,817	-200,000	-0,020	0,091
-424,803	168,283	-0,141	0,147
-423,788	101,818	0,115	0,098
-422,773	43,329	0,050	0,033
-421,759	171,185	-0,037	-0,039
-420,744	-58,694	0,058	-0,018
-419,730	787,925	0,039	0,079
-418,715	-110,956	-0,056	-0,008
-417,701	145,972	-0,028	-0,027
-416,686	-200,000	0,007	0,072
-415,671	-110,361	0,029	0,004
-414,657	214,832	0,090	0,104
-413,642	-48,290	-0,024	-0,008
-412,628	800,000	0,032	-0,082
-411,613	-200,000	-0,006	-0,062
-410,598	-35,770	0,140	0,055
-409,584	800,000	-0,033	-0,104
-408,569	2,247	-0,133	-0,070
-407,555	353,553	-0,058	-0,084
-406,540	521,826	0,040	0,069
-405,525	800,000	0,034	0,078
-404,511	0,106	0,032	0,017
-403,496	800,000	-0,043	-0,121
-402,482	607,311	-0,021	-0,038
-401,467	-200,000	-0,026	0,087
-400,452	-116,182	0,129	0,017
-399,438	241,322	-0,028	0,034
-398,423	281,597	0,041	0,054
-397,409	669,446	0,060	-0,114
-396,394	800,000	0,033	-0,075
-395,379	71,013	0,069	0,053
-394,365	-200,000	0,024	0,082
-393,350	186,126	-0,038	0,041
-392,336	-200,000	-0,001	-0,004
-391,321	783,712	0,094	-0,190
-390,306	-47,850	-0,170	-0,060
-389,292	403,378	0,042	0,064
-388,277	139,819	0,100	-0,096
-387,263	188,930	-0,053	-0,059
-386,248	-73,708	-0,044	-0,012
-385,233	33,089	-0,074	0,047
-384,219	42,844	-0,065	-0,043
-383,204	-54,945	-0,076	-0,025
-382,190	-200,000	-0,008	-0,026
-381,175	-39,111	0,159	-0,061
-380,160	-12,337	0,052	-0,025
-379,146	-127,518	-0,088	-0,009
-378,131	557,787	-0,024	-0,042
-377,117	800,000	-0,008	-0,017
-376,102	-200,000	0,002	-0,011
-375,088	-17,915	-0,148	0,068
-374,073	-35,369	-0,161	-0,064
-373,058	154,390	0,047	0,047
-372,044	800,000	0,044	0,094
-371,029	-104,988	0,056	0,009
-370,015	800,000	-0,036	0,093
-369,000	218,006	0,052	0,061
-367,985	120,782	-0,012	-0,011
-366,971	-200,000	0,007	-0,073
-365,956	-200,000	-0,009	-0,087
-364,942	-120,411	0,061	-0,008
-363,927	800,000	-0,019	0,044
-362,912	35,401	-0,130	-0,083
-361,898	21,563	0,031	-0,019
-360,883	137,428	-0,082	-0,079
-359,869	800,000	-0,024	-0,074
-358,854	-200,000	-0,002	-0,091
-357,839	-3,184	0,094	0,048
-356,825	184,728	-0,081	-0,087
-355,810	15,063	0,189	0,108
-354,796	787,923	-0,006	0,012
-353,781	-89,419	0,034	-0,007
-352,766	121,497	-0,047	0,042
-351,752	800,000	0,025	0,056
-350,737	77,319	-0,095	-0,073
-349,723	-49,649	0,091	-0,032
-348,708	800,000	0,034	0,108
-347,693	-200,000	0,002	-0,100
-346,679	693,813	0,027	0,052
-345,664	-200,000	0,021	0,136
-344,650	-23,725	0,046	-0,020
-343,635	248,389	0,025	0,031
-342,620	25,498	0,167	0,101
-341,606	-200,000	-0,001	0,058
-340,591	800,000	0,040	-0,100
-339,577	14,189	0,037	-0,021
-338,562	800,000	-0,048	0,128
-337,548	231,157	-0,061	0,073
-336,533	-200,000	0,023	-0,153
-335,518	489,947	-0,041	0,068
-334,504	202,360	-0,092	-0,104
-333,489	88,779	0,024	-0,020
-332,475	168,371	-0,066	-0,069
-331,460	254,875	0,028	0,035
-330,445	-200,000	-0,006	-0,041
-329,431	-147,066	-0,142	-0,009
-328,416	-36,019	0,118	0,046
-327,402	404,602	0,036	-0,055
-326,387	99,641	0,122	-0,103
-325,372	2,980	-0,073	0,039
-324,358	-200,000	0,010	0,086
-323,343	-200,000	-0,025	0,104
-322,329	-200,000	0,009	0,150
-321,314	45,887	0,083	-0,056
-320,299	-200,000	-0,004	0,099
-319,285	239,098	-0,036	-0,043
-318,270	59,205	0,075	-0,054
-317,256	456,255	-0,028	0,045
-316,241	-87,147	0,026	-0,006
-315,226	510,245	0,104	0,177
-314,212	-200,000	0,013	-0,047
-313,197	315,767	-0,074	0,102
-312,183	-200,000	0,025	0,084
-311,168	565,433	0,020	0,035
-310,153	-133,834	-0,247	-0,022
-309,139	-200,000	0,003	-0,116
-308,124	800,000	0,118	0,251
-307,110	-200,000	-0,033	0,133
-306,095	697,050	-0,030	0,058
-305,080	-200,000	-0,003	0,109
-304,066	155,013	-0,059	-0,059
-303,051	-51,100	-0,123	-0,042
-302,037	-106,706	-0,065	-0,010
-301,022	18,958	0,071	0,042
-300,008	-200,000	0,011	0,088
-298,993	-91,615	0,048	-0,010
-297,978	-200,000	-0,006	0,113
-296,964	-95,303	-0,145	0,028
-295,949	-155,527	-0,163	-0,008
-294,935	423,399	-0,058	-0,092
-293,920	-200,000	0,010	0,107
-292,905	-200,000	0,033	0,135
-291,891	800,000	0,002	-0,006
-290,876	-189,315	0,059	-0,000
-289,862	-200,000	0,005	0,200
-288,847	335,263	-0,069	-0,098
-287,832	321,300	0,079	-0,109
-286,818	260,156	-0,066	0,083
-285,803	24,977	0,141	0,085
-284,789	-200,000	-0,001	-0,015
-283,774	-200,000	-0,012	0,092
-282,759	-63,494	-0,054	0,016
-281,745	22,267	0,060	0,035
-280,730	560,554	0,113	-0,199
-279,716	66,795	0,023	-0,017
-278,701	430,854	-0,028	0,044
-277,686	-200,000	0,028	0,174
-276,672	48,850	-0,098	0,067
-275,657	574,301	0,018	-0,032
-274,643	-172,012	-0,091	0,002
-273,628	-1,948	-0,017	-0,009
-272,613	800,000	-0,022	-0,055
-271,599	800,000	0,028	-0,062
-270,584	52,079	0,051	-0,035
-269,570	-200,000	0,022	0,192
-268,555	61,791	0,087	-0,063
-267,540	-200,000	-0,033	-0,150
-266,526	800,000	-0,077	-0,185
-265,511	800,000	-0,022	-0,065
-264,497	-127,862	-0,046	0,005
-263,482	25,268	0,075	-0,045
-262,467	193,487	0,035	0,039
-261,453	438,124	0,033	0,053
-260,438	800,000	-0,044	-0,115
-259,424	151,186	0,050	0,049
-258,409	-43,637	-0,110	0,040
-257,395	-132,753	0,048	-0,004
-256,380	-51,231	0,043	0,014
-255,365	443,552	-0,046	0,073
-254,351	283,143	-0,149	0,195
-253,336	151,469	0,029	0,029
-252,322	-20,722	-0,119	-0,053
-251,307	-170,135	-0,053	0,001
-250,292	239,828	0,130	0,158
-249,278	-200,000	0,013	-0,062
-248,263	-200,000	-0,007	0,107
-247,249	435,301	0,018	-0,029
-246,234	463,201	-0,038	-0,061
-245,219	-200,000	-0,015	-0,076
-244,205	-200,000	0,012	-0,120
-243,190	-171,773	0,173	0,004
-242,176	4,021	0,149	0,079
-241,161	158,887	0,097	0,098
-240,146	-200,000	0,007	-0,098
-239,132	-200,000	-0,005	0,143
-238,117	597,768	-0,071	0,128
-237,103	-200,000	0,000	-0,087
-236,088	-18,676	0,010	0,005
-235,073	150,987	-0,025	-0,025
-234,059	-200,000	-0,004	0,088
-233,044	-26,706	-0,121	-0,051
-232,030	191,647	-0,028	0,030
-231,015	-4,165	-0,078	-0,039
-230,000	131,900	0,120	-0,112
-228,986	117,659	-0,063	-0,056
-227,971	-26,226	0,031	-0,013
-226,957	-21,573	0,030	-0,013
-225,942	-116,959	0,080	-0,011
-224,927	-200,000	-0,006	-0,024
-223,913	-200,000	-0,002	-0,138
-222,898	-110,542	-0,168	0,025
-221,884	-121,306	-0,057	0,007
-220,869	-110,908	-0,080	0,012
-219,855	-200,000	0,009	0,089
-218,840	800,000	0,008	0,024
-217,825	-159,364	-0,082	0,003
-216,811	639,103	0,039	-0,071
-215,796	281,311	0,064	0,084
-214,782	-193,615	-0,048	-0,000
-213,767	-113,838	0,096	0,013
-212,752	107,112	0,065	0,056
-211,738	424,793	0,092	0,144
-210,723	-200,000	0,003	-0,081
-209,709	-200,000	-0,007	0,043
-208,694	-200,000	-0,005	-0,056
-207,679	800,000	-0,024	-0,075
-206,665	633,475	0,083	-0,153
-205,650	-9,817	-0,128	0,061
-204,636	350,821	0,058	-0,084
-203,621	800,000	-0,025	-0,057
-202,606	-200,000	-0,042	-0,148
-201,592	-168,125	-0,135	0,004
-200,577	358,453	0,036	0,052
-199,563	-137,171	-0,027	-0,002
-198,548	126,176	0,096	0,089
-197,533	-200,000	0,003	-0,050
-196,519	-67,916	0,073	-0,021
-195,504	-25,978	-0,156	-0,066
-194,490	-160,261	0,009	0,000
-193,475	-89,824	-0,095	-0,020
-192,460	800,000	-0,006	-0,014
-191,446	-36,771	0,010	-0,004
-190,431	61,009	-0,034	-0,024
-189,417	-200,000	0,007	0,185
-188,402	258,487	-0,028	-0,035
-187,387	800,000	-0,044	0,093
-186,373	-83,797	0,115	0,026
-185,358	800,000	0,030	-0,073
-184,344	77,326	0,023	-0,018
-183,329	173,593	0,094	-0,099
-182,315	800,000	-0,036	-0,102
-181,300	191,821	0,049	-0,053
-180,285	-142,871	0,055	0,004
-179,271	-200,000	0,002	-0,023
-178,256	800,000	0,046	0,127
-177,242	76,403	0,104	0,080
-176,227	-200,000	-0,003	-0,008
-175,212	84,710	0,059	0,047
-174,198	-200,000	-0,002	-0,078
-173,183	-200,000	0,003	-0,169
-172,169	-200,000	0,022	0,101
-171,154	-200,000	-0,003	0,039
-170,139	-200,000	0,008	-0,039
-169,125	184,245	-0,025	0,027
-168,110	800,000	0,067	-0,141
-167,096	28,354	0,135	0,082
-166,081	-110,329	-0,247	-0,037
-165,066	74,366	0,041	0,031
-164,052	-182,522	-0,027	0,000
-163,037	488,112	-0,019	0,031
-162,023	435,022	0,012	0,018
-161,008	-183,970	0,150	0,002
-159,993	3,006	-0,057	-0,030
-158,979	-87,095	0,099	-0,022
-157,964	173,683	-0,074	0,078
-156,950	-200,000	0,006	0,024
-155,935	51,145	0,095	-0,065
-154,920	-200,000	0,022	0,090
-153,906	94,220	0,120	0,099
-152,891	-104,881	0,153	0,025
-151,877	-110,977	-0,045	0,007
-150,862	800,000	-0,051	-0,143
-149,847	-32,579	0,074	-0,030
-148,833	29,041	-0,031	0,019
-147,818	124,927	0,103	0,094
-146,804	-114,782	0,146	0,020
-145,789	27,900	0,065	0,040
-144,775	79,390	-0,122	0,095
-143,760	340,813	-0,028	0,040
-142,745	-200,000	-0,010	-0,056
-141,731	800,000	-0,038	-0,076
-140,716	163,609	-0,031	0,032
-139,702	104,015	0,035	0,030
-138,687	28,232	-0,043	-0,026
-137,672	2,020	-0,111	-0,058
-136,658	89,828	0,058	-0,047
-135,643	178,509	-0,024	0,026
-134,629	800,000	0,060	-0,129
-133,614	-135,691	-0,037	0,003
-132,599	380,572	0,091	0,136
-131,585	800,000	-0,041	0,104
-130,570	57,395	0,050	-0,035
-129,556	127,800	0,007	-0,006
-128,541	28,093	-0,023	-0,014
-127,526	-15,069	0,088	0,041
-126,512	-200,000	0,037	0,123
-125,497	800,000	0,017	0,037
-124,483	-64,640	-0,070	0,020
-123,468	110,446	-0,026	0,022
-122,453	-152,141	0,064	0,003
-121,439	13,406	0,075	-0,042
-120,424	800,000	-0,063	-0,182
-119,410	231,288	0,057	0,068
