DTS Sentinel unit serial number:	SN410029Multiplexer serial number:	ORYXHardware model number:	OX2-SRSoftware version number:	ORYX F/W v4,00 Oryx Data Collector v3.7.2.0data status	okinstallation	B4 Nyhavnadifferential loss correction	single-endedforward channel	channel 2reverse channel	N/Adate	2023/12/19time	10:35:13forward acquisition time	300,00reverse acquisition time	0,00gamma	499,1914k internal	0,3127k external	0,3127temperature offset calibration	1,0000default loss term (dB/km)	0,3820temperature slope calibration	1,0000multiplexer offset coefficient	1,0000multiplexer slope coefficient	1,0000fibre end	0,00T internal ref (°C)	20,04T ext. ref 1 (°C)	4,72T ext. ref 2 (°C)	4,64length (m)	temperature (°C)	Stokes	anti-Stokes-744,400	304,606	0,071	-0,099
-743,385	30,841	-0,208	-0,132
-742,371	-200,000	-0,009	0,107
-741,356	252,926	-0,139	0,176
-740,342	-2,641	-0,089	-0,046
-739,327	-77,035	-0,289	0,074
-738,312	598,779	0,106	-0,197
-737,298	-80,223	-0,234	0,058
-736,283	251,218	-0,067	-0,085
-735,269	-53,839	-0,230	0,077
-734,254	800,000	0,026	-0,078
-733,239	-81,029	-0,426	-0,104
-732,225	-200,000	0,026	0,089
-731,210	334,831	0,107	0,154
-730,196	800,000	-0,054	-0,156
-729,181	-76,880	-0,077	0,020
-728,167	-12,222	0,050	-0,024
-727,152	338,502	0,018	0,026
-726,137	-4,169	0,088	-0,045
-725,123	-22,676	-0,145	0,065
-724,108	-90,118	-0,058	0,012
-723,094	-102,054	-0,073	0,013
-722,079	87,980	-0,106	-0,087
-721,064	38,698	0,167	-0,110
-720,050	236,184	-0,058	-0,071
-719,035	754,433	-0,027	-0,055
-718,021	145,950	-0,032	0,032
-717,006	169,903	-0,080	0,086
-715,991	-12,595	-0,118	-0,057
-714,977	-200,000	0,002	-0,033
-713,962	421,137	0,004	-0,007
-712,948	-43,501	0,094	0,035
-711,933	-200,000	0,004	-0,029
-710,918	-200,000	0,018	-0,084
-709,904	724,237	-0,066	-0,131
-708,889	800,000	0,046	-0,142
-707,875	316,815	-0,076	0,107
-706,860	-41,105	-0,012	0,004
-705,845	-52,559	-0,095	0,033
-704,831	215,294	0,124	0,146
-703,816	178,766	-0,063	-0,069
-702,802	800,000	0,047	-0,100
-701,787	800,000	0,031	0,071
-700,772	-33,505	-0,028	0,011
-699,758	695,035	-0,045	-0,089
-698,743	-122,686	0,120	-0,014
-697,729	316,659	0,086	0,121
-696,714	800,000	-0,031	-0,070
-695,699	63,588	-0,040	0,030
-694,685	-200,000	-0,001	-0,079
-693,670	800,000	-0,056	-0,146
-692,656	720,658	0,030	-0,059
-691,641	-144,512	-0,012	-0,001
-690,627	-200,000	-0,023	-0,104
-689,612	-40,057	-0,183	-0,070
-688,597	26,372	-0,034	-0,021
-687,583	399,554	-0,070	0,109
-686,568	-86,618	-0,090	0,020
-685,554	800,000	0,012	0,025
-684,539	-200,000	0,002	0,079
-683,524	-34,401	-0,043	0,018
-682,510	-63,106	-0,021	0,007
-681,495	-84,497	0,067	0,016
-680,481	-148,257	0,033	0,002
-679,466	-72,549	-0,111	-0,030
-678,451	-81,172	-0,077	0,019
-677,437	185,253	0,044	0,048
-676,422	-18,464	0,178	0,082
-675,408	-153,472	-0,089	0,004
-674,393	-200,000	-0,034	-0,115
-673,378	800,000	0,043	-0,119
-672,364	-83,839	-0,121	-0,028
-671,349	175,084	-0,097	-0,104
-670,335	109,531	-0,062	0,055
-669,320	148,156	-0,018	0,018
-668,305	-112,762	-0,083	0,012
-667,291	-62,475	-0,148	0,045
-666,276	-200,000	-0,001	0,166
-665,262	-200,000	-0,011	0,160
-664,247	-200,000	0,006	0,053
-663,232	800,000	-0,041	0,085
-662,218	-83,459	-0,075	0,018
-661,203	-116,134	-0,013	-0,002
-660,189	-175,751	0,053	0,001
-659,174	-167,145	-0,119	0,004
-658,159	-15,989	-0,110	-0,052
-657,145	-61,726	0,058	0,018
-656,130	800,000	0,034	-0,103
-655,116	94,045	0,105	0,089
-654,101	-142,392	-0,016	-0,001
-653,086	115,627	-0,023	0,021
-652,072	-82,894	0,137	0,033
-651,057	-200,000	-0,003	-0,112
-650,043	-200,000	0,018	-0,072
-649,028	-105,390	-0,141	-0,024
-648,014	800,000	0,028	0,068
-646,999	-163,027	0,072	-0,003
-645,984	-29,791	0,070	0,029
-644,970	392,582	0,071	-0,110
-643,955	-37,470	0,052	0,020
-642,941	-15,686	0,128	-0,061
-641,926	264,936	-0,057	0,074
-640,911	135,178	-0,086	0,083
-639,897	-22,374	0,087	-0,039
-638,882	-58,638	-0,081	0,026
-637,868	-200,000	-0,006	0,023
-636,853	-200,000	0,017	0,105
-635,838	800,000	-0,009	0,020
-634,824	-165,204	-0,136	-0,004
-633,809	-200,000	-0,003	-0,102
-632,795	-165,696	0,149	-0,005
-631,780	446,526	-0,073	-0,119
-630,765	-119,979	-0,180	-0,023
-629,751	51,202	0,078	-0,055
-628,736	52,899	0,047	0,033
-627,722	800,000	-0,045	-0,139
-626,707	-200,000	0,025	-0,114
-625,692	-129,683	-0,092	-0,009
-624,678	-200,000	-0,020	-0,121
-623,663	-92,174	0,076	-0,016
-622,649	93,707	-0,099	0,083
-621,634	-72,034	-0,084	0,023
-620,619	-200,000	-0,001	-0,034
-619,605	-200,000	-0,002	-0,034
-618,590	160,630	0,096	0,099
-617,576	72,399	0,085	0,065
-616,561	373,052	0,033	-0,050
-615,546	68,222	0,174	-0,132
-614,532	-133,758	-0,027	0,002
-613,517	2,562	0,061	0,033
-612,503	-115,789	-0,086	-0,012
-611,488	-122,045	-0,053	-0,006
-610,474	-200,000	-0,003	-0,038
-609,459	59,173	-0,113	-0,082
-608,444	-76,819	0,021	0,005
-607,430	34,207	-0,116	-0,075
-606,415	192,822	0,031	-0,035
-605,401	14,059	0,134	-0,077
-604,386	-36,735	0,155	0,061
-603,371	510,752	0,066	0,114
-602,357	9,481	-0,040	0,023
-601,342	-200,000	0,021	-0,086
-600,328	34,064	0,026	-0,016
-599,313	-200,000	0,026	-0,106
-598,298	6,595	-0,070	0,038
-597,284	800,000	0,053	0,111
-596,269	145,789	-0,083	0,082
-595,255	800,000	-0,016	-0,040
-594,240	-200,000	0,012	-0,050
-593,225	-87,680	0,068	-0,015
-592,211	36,895	-0,088	-0,058
-591,196	-200,000	0,025	-0,143
-590,182	131,362	-0,083	0,079
-589,167	-66,925	-0,077	0,022
-588,152	-200,000	0,050	0,179
-587,138	7,428	-0,179	-0,099
-586,123	24,143	-0,123	-0,075
-585,109	166,592	0,111	0,117
-584,094	77,986	-0,075	-0,059
-583,079	-200,000	-0,018	-0,080
-582,065	-191,723	-0,055	0,000
-581,050	-62,084	-0,071	-0,022
-580,036	633,565	0,056	0,106
-579,021	-180,878	-0,100	-0,001
-578,006	-200,000	0,014	-0,055
-576,992	-106,075	-0,006	0,001
-575,977	-200,000	-0,002	-0,103
-574,963	155,875	-0,080	-0,081
-573,948	41,282	-0,077	-0,052
-572,934	316,055	0,058	-0,081
-571,919	-63,948	-0,111	-0,033
-570,904	40,761	-0,102	-0,068
-569,890	-200,000	-0,000	-0,076
-568,875	-200,000	0,011	0,072
-567,861	104,155	0,059	0,051
-566,846	219,724	0,078	0,093
-565,831	-108,975	0,051	-0,008
-564,817	684,952	0,025	-0,048
-563,802	-72,594	-0,048	0,013
-562,788	94,271	0,009	0,007
-561,773	-40,686	0,067	0,026
-560,758	-200,000	-0,024	0,086
-559,744	-78,984	-0,105	0,026
-558,729	800,000	-0,081	0,218
-557,715	-200,000	0,022	-0,112
-556,700	-41,128	-0,077	-0,029
-555,685	800,000	-0,044	-0,095
-554,671	-76,086	0,162	-0,042
-553,656	-200,000	-0,019	0,175
-552,642	60,255	-0,022	0,016
-551,627	-79,990	0,099	-0,024
-550,612	85,012	-0,052	0,042
-549,598	-200,000	-0,001	-0,076
-548,583	70,841	-0,041	-0,032
-547,569	202,415	-0,047	-0,053
-546,554	800,000	-0,010	-0,022
-545,539	800,000	0,064	0,143
-544,525	504,633	-0,053	0,091
-543,510	29,698	0,031	-0,019
-542,496	800,000	0,047	0,108
-541,481	213,310	-0,062	0,072
-540,466	558,595	0,057	-0,102
-539,452	709,097	-0,065	-0,127
-538,437	-200,000	-0,017	0,064
-537,423	328,903	0,081	0,115
-536,408	-25,406	-0,021	0,009
-535,393	800,000	-0,008	-0,024
-534,379	55,052	-0,103	-0,074
-533,364	-200,000	0,014	-0,111
-532,350	-166,085	-0,051	-0,002
-531,335	-200,000	0,006	0,097
-530,321	122,442	-0,112	0,104
-529,306	-200,000	0,014	-0,046
-528,291	800,000	0,032	-0,074
-527,277	-200,000	-0,025	-0,139
-526,262	-200,000	0,004	0,057
-525,248	187,024	0,050	-0,055
-524,233	657,769	-0,025	0,048
-523,218	-200,000	-0,005	0,073
-522,204	-68,577	-0,052	0,015
-521,189	-144,290	-0,088	-0,006
-520,175	128,721	-0,062	-0,059
-519,160	676,169	0,016	-0,031
-518,145	75,581	-0,087	0,068
-517,131	54,629	0,054	0,039
-516,116	800,000	-0,049	0,132
-515,102	-200,000	0,010	-0,077
-514,087	381,992	0,035	0,053
-513,072	189,158	0,046	-0,051
-512,058	800,000	-0,028	0,076
-511,043	638,612	-0,040	-0,076
-510,029	-200,000	0,023	0,171
-509,014	-16,855	-0,073	0,034
-507,999	800,000	0,034	-0,094
-506,985	800,000	-0,055	-0,145
-505,970	-115,926	-0,110	0,015
-504,956	585,097	0,034	-0,062
-503,941	417,394	0,030	-0,047
-502,926	-140,052	0,056	-0,004
-501,912	149,123	0,052	-0,052
-500,897	-200,000	-0,013	0,219
-499,883	800,000	0,011	0,029
-498,868	15,374	-0,122	-0,071
-497,853	-200,000	0,013	0,077
-496,839	340,276	-0,026	0,037
-495,824	-49,581	0,044	0,015
-494,810	95,688	0,063	0,053
-493,795	-200,000	-0,006	-0,105
-492,781	265,019	0,042	0,055
-491,766	-45,708	-0,091	-0,033
-490,751	-34,608	-0,095	-0,038
-489,737	-200,000	0,006	-0,076
-488,722	-89,344	0,104	0,022
-487,708	218,673	0,125	-0,147
-486,693	-125,938	0,049	-0,005
-485,678	-86,998	-0,027	0,006
-484,664	108,049	-0,038	-0,033
-483,649	-114,039	-0,198	-0,028
-482,635	800,000	-0,074	-0,158
-481,620	-67,606	0,040	-0,011
-480,605	800,000	-0,005	-0,011
-479,591	800,000	0,065	-0,168
-478,576	70,808	-0,091	0,069
-477,562	-147,787	-0,083	0,005
-476,547	-200,000	-0,006	-0,087
-475,532	-200,000	-0,019	-0,119
-474,518	14,739	-0,107	0,062
-473,503	11,620	0,044	0,025
-472,489	393,234	0,070	-0,107
-471,474	-28,268	0,044	-0,019
-470,459	55,445	-0,126	0,090
-469,445	150,342	0,050	0,050
-468,430	-104,821	-0,103	-0,017
-467,416	183,615	0,073	-0,080
-466,401	352,796	-0,129	0,189
-465,386	-3,755	-0,069	0,035
-464,372	208,487	-0,077	-0,089
-463,357	-9,903	-0,049	-0,024
-462,343	193,372	0,048	-0,054
-461,328	185,755	0,064	0,070
-460,313	55,294	0,110	-0,078
-459,299	56,975	-0,115	0,083
-458,284	800,000	0,011	0,031
-457,270	-200,000	0,024	0,117
-456,255	800,000	-0,030	-0,079
-455,241	225,374	0,030	0,035
-454,226	218,275	-0,084	-0,099
-453,211	279,925	0,057	-0,076
-452,197	-200,000	0,014	-0,101
-451,182	-200,000	0,036	0,135
-450,168	-200,000	0,045	0,181
-449,153	800,000	0,027	0,082
-448,138	-133,402	-0,087	0,008
-447,124	-71,824	-0,053	-0,014
-446,109	363,185	0,073	-0,108
-445,095	-200,000	0,013	-0,044
-444,080	-6,885	0,049	0,024
-443,065	800,000	0,053	0,113
-442,051	-95,821	-0,077	-0,015
-441,036	-130,302	-0,060	0,006
-440,022	194,676	0,047	-0,053
-439,007	800,000	-0,060	-0,171
-437,992	50,812	0,021	-0,014
-436,978	-118,960	0,058	0,007
-435,963	256,994	0,019	0,024
-434,949	167,512	-0,011	-0,012
-433,934	32,188	0,045	0,028
-432,919	-50,826	-0,112	0,039
-431,905	23,431	0,117	-0,071
-430,890	41,126	0,074	-0,049
-429,876	800,000	0,039	0,113
-428,861	-200,000	0,042	0,165
-427,846	-64,967	0,061	-0,018
-426,832	5,564	-0,021	0,011
-425,817	-100,391	-0,106	-0,019
-424,803	800,000	0,027	-0,061
-423,788	186,318	0,105	0,115
-422,773	-7,608	0,096	-0,048
-421,759	19,691	0,122	0,072
-420,744	-200,000	0,003	0,083
-419,730	-64,127	-0,092	0,027
-418,715	169,912	-0,043	-0,046
-417,701	-200,000	0,004	-0,030
-416,686	-14,899	-0,069	-0,032
-415,671	25,880	-0,050	0,031
-414,657	-200,000	0,010	0,063
-413,642	-96,492	0,036	0,007
-412,628	-200,000	0,013	0,108
-411,613	-200,000	0,023	0,116
-410,598	-80,685	0,022	0,005
-409,584	-200,000	0,022	-0,080
-408,569	0,308	0,061	0,032
-407,555	476,947	-0,044	-0,073
-406,540	-200,000	0,008	0,121
-405,525	-200,000	0,012	-0,199
-404,511	43,555	-0,136	-0,091
-403,496	-200,000	0,005	-0,111
-402,482	10,037	0,145	-0,081
-401,467	-53,624	0,125	-0,042
-400,452	800,000	-0,028	0,060
-399,438	-65,553	-0,114	0,033
-398,423	-200,000	0,025	0,122
-397,409	-200,000	0,003	-0,156
-396,394	464,737	-0,056	-0,092
-395,379	178,257	-0,043	-0,046
-394,365	-103,521	-0,098	-0,017
-393,350	-200,000	-0,005	0,093
-392,336	85,383	-0,033	-0,027
-391,321	18,118	-0,077	0,045
-390,306	-89,411	0,098	0,021
-389,292	-192,150	-0,117	-0,001
-388,277	-109,814	0,129	0,020
-387,263	-12,308	0,134	-0,064
-386,248	-110,293	0,132	-0,020
-385,233	454,517	-0,056	0,091
-384,219	-7,081	0,034	0,017
-383,204	184,116	-0,071	-0,078
-382,190	220,212	-0,008	-0,009
-381,175	463,320	0,031	-0,052
-380,160	155,796	-0,061	0,062
-379,146	-58,448	0,081	0,026
-378,131	47,078	-0,115	0,079
-377,117	347,983	-0,040	0,058
-376,102	31,587	0,195	0,123
-375,088	682,875	0,038	-0,072
-374,073	31,622	0,041	-0,026
-373,058	-79,567	-0,102	0,025
-372,044	-200,000	0,008	0,113
-371,029	100,406	-0,197	0,168
-370,015	69,294	0,021	-0,016
-369,000	279,986	0,063	0,082
-367,985	-200,000	0,023	-0,107
-366,971	0,647	-0,160	-0,084
-365,956	-200,000	0,009	-0,043
-364,942	333,619	0,054	0,077
-363,927	635,610	0,039	0,073
-362,912	-6,243	-0,054	0,027
-361,898	59,465	-0,100	-0,072
-360,883	290,501	-0,079	0,105
-359,869	-61,626	0,070	0,021
-358,854	-200,000	0,016	-0,153
-357,839	-200,000	0,020	-0,128
-356,825	-200,000	0,012	0,048
-355,810	568,817	-0,051	0,091
-354,796	574,678	-0,034	0,061
-353,781	149,283	-0,065	-0,065
-352,766	758,883	0,052	-0,104
-351,752	-83,924	0,031	-0,007
-350,737	64,052	0,020	0,015
-349,723	111,700	0,073	0,064
-348,708	800,000	-0,042	0,089
-347,693	-108,459	-0,130	-0,020
-346,679	-93,449	-0,031	-0,006
-345,664	290,492	-0,069	0,092
-344,650	-200,000	0,006	0,060
-343,635	538,935	-0,012	-0,021
-342,620	-187,570	0,075	0,001
-341,606	-143,412	0,049	-0,003
-340,591	324,284	0,026	-0,037
-339,577	518,643	0,040	-0,069
-338,562	-200,000	-0,053	-0,187
-337,548	42,896	-0,066	-0,044
-336,533	-56,401	0,162	0,052
-335,518	-1,898	-0,097	0,050
-334,504	440,254	0,029	-0,046
-333,489	233,074	0,065	0,078
-332,475	-200,000	0,004	0,053
-331,460	85,027	0,068	-0,055
-330,445	-200,000	0,005	-0,057
-329,431	97,957	0,060	0,051
-328,416	-200,000	-0,013	-0,073
-327,402	645,940	-0,016	-0,030
-326,387	47,645	-0,127	-0,087
-325,372	800,000	0,033	0,082
-324,358	303,774	0,100	-0,136
-323,343	127,336	0,015	-0,014
-322,329	-200,000	-0,001	-0,032
-321,314	515,450	0,051	0,088
-320,299	800,000	-0,056	0,133
-319,285	-113,625	0,106	0,015
-318,270	-124,033	0,143	0,016
-317,256	230,440	-0,040	0,049
-316,241	-131,966	-0,067	0,006
-315,226	800,000	0,056	0,129
-314,212	73,578	0,061	0,047
-313,197	800,000	-0,029	0,063
-312,183	-200,000	0,014	0,116
-311,168	1,015	-0,098	0,051
-310,153	-128,743	0,047	0,005
-309,139	-127,055	-0,050	-0,005
-308,124	38,563	-0,084	0,055
-307,110	257,795	0,146	0,184
-306,095	-200,000	0,033	0,171
-305,080	129,595	-0,069	0,065
-304,066	288,498	0,028	-0,037
-303,051	264,353	-0,067	0,086
-302,037	456,163	0,015	0,025
-301,022	63,318	-0,041	-0,030
-300,008	-46,191	0,084	0,030
-298,993	60,412	0,151	-0,109
-297,978	355,854	0,091	0,132
-296,964	-137,690	0,073	-0,006
-295,949	-103,858	0,018	-0,003
-294,935	501,530	-0,022	-0,038
-293,920	-200,000	0,058	-0,256
-292,905	217,847	-0,093	-0,109
-291,891	-200,000	-0,021	-0,085
-290,876	800,000	0,015	0,035
-289,862	-200,000	-0,015	-0,097
-288,847	466,079	0,045	-0,074
-287,832	41,877	-0,110	-0,073
-286,818	191,284	-0,042	0,046
-285,803	39,711	0,032	0,021
-284,789	246,296	-0,042	-0,052
-283,774	25,077	0,091	-0,055
-282,759	-130,278	-0,031	0,003
-281,745	222,970	-0,066	-0,078
-280,730	-19,479	0,037	0,017
-279,716	729,942	0,051	0,101
-278,701	672,686	-0,063	0,120
-277,686	-200,000	0,023	0,135
-276,672	-200,000	-0,001	0,020
-275,657	20,245	0,035	0,021
-274,643	-200,000	0,034	-0,146
-273,628	427,711	0,066	-0,105
-272,613	198,954	0,095	-0,106
-271,599	286,842	0,074	-0,098
-270,584	-64,741	0,097	-0,029
-269,570	398,952	-0,036	0,055
-268,555	13,591	0,116	0,066
-267,540	800,000	-0,053	-0,128
-266,526	-120,718	-0,089	0,011
-265,511	-200,000	0,005	0,123
-264,497	-200,000	-0,010	0,112
-263,482	-84,686	0,107	-0,024
-262,467	-27,162	-0,049	-0,021
-261,453	-44,437	-0,126	-0,046
-260,438	-200,000	-0,022	0,108
-259,424	800,000	-0,028	-0,073
-258,409	-200,000	0,002	-0,079
-257,395	-37,502	-0,106	-0,041
-256,380	-12,828	0,133	-0,063
-255,365	-119,579	-0,032	-0,004
-254,351	29,134	-0,089	-0,055
-253,336	-100,744	0,123	0,022
-252,322	74,029	0,069	-0,053
-251,307	348,794	0,040	0,058
-250,292	35,373	0,075	0,048
-249,278	78,833	-0,045	0,035
-248,263	-200,000	0,003	0,022
-247,249	-200,000	-0,008	0,075
-246,234	-33,897	-0,005	-0,002
-245,219	513,172	-0,043	-0,073
-244,205	-200,000	0,003	-0,049
-243,190	189,451	-0,063	0,069
-242,176	229,317	0,034	0,040
-241,161	-200,000	0,002	0,049
-240,146	707,248	-0,075	0,145
-239,132	-58,595	0,043	-0,014
-238,117	-33,892	-0,034	-0,014
-237,103	79,813	-0,040	0,031
-236,088	-200,000	0,012	-0,068
-235,073	179,737	0,103	0,110
-234,059	800,000	-0,023	-0,060
-233,044	-200,000	0,015	0,067
-232,030	-200,000	-0,020	0,160
-231,015	-18,386	-0,052	0,023
-230,000	5,598	0,037	-0,020
-228,986	-59,510	-0,129	0,040
-227,971	-200,000	-0,016	0,115
-226,957	-57,952	0,157	0,050
-225,942	202,549	-0,017	-0,019
-224,927	-183,212	-0,091	0,001
-223,913	65,737	0,060	-0,044
-222,898	132,100	0,092	0,086
-221,884	-200,000	0,003	-0,011
-220,869	-107,346	0,088	0,014
-219,855	-200,000	0,008	-0,176
-218,840	-178,908	0,098	0,002
-217,825	-106,604	-0,011	0,002
-216,811	-138,944	-0,050	-0,004
-215,796	124,432	-0,080	-0,073
-214,782	-134,198	0,026	0,002
-213,767	-200,000	-0,014	0,133
-212,752	11,869	0,100	0,056
-211,738	39,943	-0,094	-0,061
-210,723	-200,000	0,003	0,021
-209,709	-128,891	0,113	0,011
-208,694	70,260	0,015	-0,012
-207,679	-200,000	-0,015	0,052
-206,665	88,574	-0,102	0,083
-205,650	29,764	0,073	-0,045
-204,636	224,791	-0,030	0,035
-203,621	800,000	0,008	-0,025
-202,606	-148,815	-0,148	-0,009
-201,592	-200,000	-0,004	-0,108
-200,577	-200,000	0,011	-0,085
-199,563	-200,000	0,007	-0,079
-198,548	-200,000	-0,007	0,176
-197,533	-73,957	-0,080	-0,021
-196,519	-163,296	0,030	-0,001
-195,504	-200,000	-0,012	0,048
-194,490	35,154	-0,118	0,075
-193,475	-53,606	0,013	-0,004
-192,460	-90,378	-0,061	0,013
-191,446	33,418	-0,200	0,126
-190,431	-200,000	0,014	0,114
-189,417	192,003	-0,077	0,084
-188,402	45,401	-0,076	0,051
-187,387	248,121	-0,051	-0,063
-186,373	-40,727	0,087	-0,033
-185,358	265,244	0,086	-0,110
-184,344	-4,424	0,134	0,067
-183,329	-73,100	0,053	-0,014
-182,315	255,584	-0,006	0,007
-181,300	647,207	0,003	-0,006
-180,285	581,424	0,032	-0,058
-179,271	-200,000	0,010	-0,113
-178,256	5,478	0,011	0,006
-177,242	-200,000	0,018	-0,152
-176,227	800,000	0,045	-0,097
-175,212	-58,966	0,192	0,060
-174,198	721,405	0,018	0,035
-173,183	45,023	0,089	-0,060
-172,169	-200,000	-0,002	0,014
-171,154	-100,558	-0,068	0,012
-170,139	-42,076	0,089	0,033
-169,125	197,264	0,031	0,034
-168,110	-104,936	0,105	0,017
-167,096	-200,000	-0,024	-0,124
-166,081	306,128	0,079	0,107
-165,066	-200,000	-0,001	-0,009
-164,052	-200,000	-0,006	-0,134
-163,037	800,000	0,030	0,080
-162,023	-200,000	0,044	0,155
-161,008	-189,671	-0,100	-0,001
-159,993	-127,808	0,215	-0,022
-158,979	-200,000	0,015	-0,109
-157,964	377,801	-0,095	-0,142
-156,950	507,337	0,067	-0,114
-155,935	-119,807	0,140	-0,017
-154,920	283,104	-0,044	0,057
-153,906	218,668	0,120	0,140
-152,891	-95,792	-0,184	0,035
-151,877	-10,392	0,010	0,005
-150,862	-200,000	-0,028	-0,119
-149,847	149,980	-0,040	-0,040
-148,833	-127,802	-0,144	0,015
-147,818	206,468	0,059	0,067
-146,804	800,000	0,051	0,154
-145,789	800,000	0,019	0,050
-144,775	612,795	0,013	0,024
-143,760	-65,771	-0,108	-0,031
-142,745	23,128	-0,117	0,069
-141,731	393,799	-0,009	-0,013
-140,716	85,653	0,101	0,081
-139,702	-200,000	-0,006	0,086
-138,687	-175,209	0,063	0,001
-137,672	-200,000	0,014	-0,084
-136,658	147,377	-0,085	-0,083
-135,643	-200,000	-0,000	-0,049
-134,629	-136,970	-0,095	-0,008
-133,614	348,869	0,039	0,056
-132,599	134,208	0,020	-0,019
-131,585	448,890	-0,038	0,061
-130,570	116,194	0,084	-0,075
-129,556	-200,000	0,006	-0,034
-128,541	-26,441	-0,013	0,005
-127,526	800,000	-0,024	-0,069
-126,512	443,828	0,054	0,086
-125,497	-200,000	0,018	0,124
-124,483	256,329	0,041	0,051
-123,468	-200,000	0,010	-0,134
-122,453	-200,000	0,007	-0,052
-121,439	-200,000	0,008	0,131
-120,424	56,563	-0,075	-0,053
-119,410	135,303	-0,080	0,075
-118,395	78,295	0,114	0,088
