DTS Sentinel unit serial number:	SN410029Multiplexer serial number:	ORYXHardware model number:	OX2-SRSoftware version number:	ORYX F/W v4,00 Oryx Data Collector v3.7.2.0data status	okinstallation	B4 Nyhavnadifferential loss correction	single-endedforward channel	channel 2reverse channel	N/Adate	2023/12/16time	09:30:13forward acquisition time	300,00reverse acquisition time	0,00gamma	499,1914k internal	0,3127k external	0,3127temperature offset calibration	1,0000default loss term (dB/km)	0,3820temperature slope calibration	1,0000multiplexer offset coefficient	1,0000multiplexer slope coefficient	1,0000fibre end	0,00T internal ref (°C)	23,04T ext. ref 1 (°C)	8,80T ext. ref 2 (°C)	8,98length (m)	temperature (°C)	Stokes	anti-Stokes-744,400	444,883	-0,076	-0,124
-743,385	47,905	-0,156	0,109
-742,371	201,024	-0,045	-0,052
-741,356	-0,339	-0,247	0,130
-740,342	84,667	0,091	0,074
-739,327	-160,793	-0,193	-0,007
-738,312	162,575	-0,036	-0,037
-737,298	-154,061	-0,161	-0,008
-736,283	-200,000	-0,018	-0,133
-735,269	-75,268	-0,335	0,088
-734,254	111,145	-0,079	-0,071
-733,239	-35,885	-0,327	-0,131
-732,225	800,000	0,021	-0,046
-731,210	-88,135	-0,084	-0,019
-730,196	-200,000	-0,023	0,086
-729,181	95,073	-0,076	0,065
-728,167	-200,000	-0,013	-0,048
-727,152	-185,928	-0,081	-0,001
-726,137	53,122	-0,038	-0,027
-725,123	-16,846	-0,074	-0,035
-724,108	-200,000	0,010	-0,104
-723,094	89,248	-0,178	-0,148
-722,079	-138,499	0,096	-0,008
-721,064	-184,232	-0,118	-0,001
-720,050	-200,000	0,012	-0,049
-719,035	398,761	0,011	0,017
-718,021	-113,984	-0,092	-0,013
-717,006	800,000	-0,052	-0,127
-715,991	-21,558	-0,096	-0,043
-714,977	-165,521	-0,173	0,006
-713,962	800,000	-0,014	0,046
-712,948	117,565	0,027	0,024
-711,933	625,808	0,058	-0,109
-710,918	447,673	0,062	-0,102
-709,904	-151,084	-0,190	-0,010
-708,889	-15,993	0,075	-0,035
-707,875	237,545	-0,031	-0,039
-706,860	-165,317	-0,114	0,004
-705,845	-38,241	0,055	-0,021
-704,831	708,859	-0,039	-0,077
-703,816	331,029	-0,056	0,081
-702,802	114,920	-0,065	-0,059
-701,787	-58,234	-0,074	-0,024
-700,772	-100,482	-0,178	-0,033
-699,758	-69,666	0,041	-0,012
-698,743	16,346	0,090	0,053
-697,729	325,879	0,034	-0,049
-696,714	-13,205	-0,142	-0,068
-695,699	-200,000	-0,011	-0,079
-694,685	-63,220	-0,134	0,041
-693,670	151,513	-0,051	-0,051
-692,656	6,679	-0,008	-0,005
-691,641	800,000	0,043	0,105
-690,627	-101,534	-0,150	0,027
-689,612	800,000	0,061	0,138
-688,597	-200,000	0,019	-0,123
-687,583	-12,353	-0,093	-0,045
-686,568	-200,000	0,022	-0,146
-685,554	-200,000	0,014	-0,107
-684,539	378,970	0,055	0,084
-683,524	101,505	-0,155	-0,134
-682,510	-103,323	0,149	-0,026
-681,495	66,417	-0,087	0,066
-680,481	-185,496	0,088	0,001
-679,466	-69,082	-0,198	-0,056
-678,451	101,683	0,063	-0,054
-677,437	-61,103	-0,166	-0,052
-676,422	85,534	-0,060	-0,049
-675,408	-200,000	0,010	0,073
-674,393	421,684	-0,067	-0,108
-673,378	-200,000	-0,013	-0,044
-672,364	198,233	-0,009	-0,011
-671,349	-200,000	-0,001	0,012
-670,335	-10,783	0,033	-0,016
-669,320	-200,000	-0,020	0,094
-668,305	-5,983	0,119	-0,060
-667,291	-142,990	0,024	-0,002
-666,276	84,726	-0,104	-0,084
-665,262	-200,000	0,005	0,021
-664,247	-80,546	0,084	0,021
-663,232	-200,000	-0,037	-0,139
-662,218	-200,000	-0,012	-0,060
-661,203	513,656	0,026	0,046
-660,189	102,402	0,047	0,041
-659,174	-200,000	0,025	-0,113
-658,159	371,887	0,044	0,067
-657,145	-200,000	-0,032	-0,121
-656,130	-72,095	0,123	-0,034
-655,116	-200,000	-0,008	0,099
-654,101	-114,657	0,099	-0,014
-653,086	216,501	0,058	0,068
-652,072	-122,652	0,144	0,017
-651,057	56,502	-0,145	0,104
-650,043	-200,000	0,008	0,082
-649,028	-139,221	-0,119	-0,009
-648,014	-145,272	0,080	0,005
-646,999	110,556	-0,092	-0,082
-645,984	105,214	0,063	0,055
-644,970	-94,920	-0,129	0,026
-643,955	100,668	-0,109	0,094
-642,941	-123,965	-0,096	0,011
-641,926	729,906	0,044	-0,087
-640,911	328,149	-0,079	0,113
-639,897	-200,000	-0,013	-0,099
-638,882	-28,328	-0,110	0,047
-637,868	145,691	-0,153	0,153
-636,853	-200,000	0,031	-0,111
-635,838	800,000	-0,048	0,101
-634,824	-168,595	0,109	-0,003
-633,809	-99,539	0,114	0,021
-632,795	702,617	-0,066	0,130
-631,780	-200,000	0,013	0,163
-630,765	-151,264	-0,135	0,007
-629,751	-79,700	0,073	-0,018
-628,736	20,994	0,066	-0,040
-627,722	-200,000	0,001	-0,034
-626,707	-200,000	0,004	-0,032
-625,692	-21,102	0,054	0,024
-624,678	133,923	0,043	0,042
-623,663	29,222	-0,070	0,044
-622,649	17,677	-0,121	0,071
-621,634	-98,014	-0,140	-0,026
-620,619	-44,642	0,050	-0,018
-619,605	-200,000	0,003	0,061
-618,590	152,906	-0,071	-0,072
-617,576	85,346	-0,083	0,067
-616,561	396,799	0,028	-0,043
-615,546	800,000	-0,014	-0,042
-614,532	-200,000	-0,015	-0,102
-613,517	-200,000	-0,016	-0,140
-612,503	76,353	0,034	-0,027
-611,488	-61,326	0,081	-0,025
-610,474	-76,602	0,115	0,030
-609,459	25,707	0,122	0,075
-608,444	-200,000	-0,007	0,084
-607,430	55,801	-0,068	0,048
-606,415	-98,631	-0,091	0,017
-605,401	-47,316	-0,095	0,034
-604,386	800,000	-0,012	-0,040
-603,371	-11,440	-0,056	0,027
-602,357	521,273	-0,037	0,065
-601,342	-200,000	-0,021	0,109
-600,328	-48,058	-0,086	-0,031
-599,313	-1,315	-0,074	-0,039
-598,298	-86,355	0,076	0,017
-597,284	204,309	0,073	0,084
-596,269	17,945	0,050	0,029
-595,255	-200,000	-0,012	0,097
-594,240	-200,000	-0,002	-0,014
-593,225	-108,699	-0,022	-0,003
-592,211	-39,480	-0,198	-0,077
-591,196	-200,000	0,001	-0,157
-590,182	800,000	0,095	0,211
-589,167	2,348	0,085	0,045
-588,152	26,971	-0,106	0,066
-587,138	-200,000	-0,011	0,173
-586,123	800,000	0,013	-0,035
-585,109	6,898	-0,079	0,044
-584,094	70,937	0,022	0,017
-583,079	123,603	0,066	0,062
-582,065	800,000	0,055	0,131
-581,050	24,856	0,115	0,070
-580,036	-2,162	0,076	0,039
-579,021	-200,000	-0,002	0,037
-578,006	226,328	-0,073	-0,088
-576,992	-200,000	0,044	0,157
-575,977	-58,493	-0,071	0,023
-574,963	-58,771	0,124	0,040
-573,948	-200,000	-0,023	0,125
-572,934	-5,581	-0,068	-0,034
-571,919	-49,405	-0,118	0,041
-570,904	372,556	0,018	-0,027
-569,890	138,378	-0,070	0,068
-568,875	-101,050	0,109	-0,020
-567,861	81,984	0,096	0,077
-566,846	202,416	-0,107	0,122
-565,831	225,457	0,078	-0,093
-564,817	800,000	0,033	-0,083
-563,802	12,904	-0,082	0,047
-562,788	-142,255	-0,109	-0,008
-561,773	134,711	0,089	-0,086
-560,758	-200,000	0,004	0,033
-559,744	186,794	0,037	0,041
-558,729	800,000	-0,064	0,154
-557,715	49,239	0,048	-0,033
-556,700	-53,033	0,086	0,029
-555,685	298,454	-0,045	-0,062
-554,671	-132,112	0,165	0,016
-553,656	-200,000	0,001	0,095
-552,642	783,221	0,082	0,167
-551,627	-35,967	0,172	0,068
-550,612	-102,969	-0,220	0,038
-549,598	-147,609	-0,072	0,004
-548,583	173,649	-0,043	-0,046
-547,569	-138,689	-0,152	0,012
-546,554	428,481	0,035	0,056
-545,539	-152,797	0,063	0,003
-544,525	-0,725	0,076	0,040
-543,510	800,000	0,042	-0,089
-542,496	-3,282	-0,145	-0,074
-541,481	16,313	-0,123	0,072
-540,466	-91,025	-0,177	-0,037
-539,452	37,032	0,136	0,089
-538,437	-200,000	-0,101	0,000
-537,423	219,905	0,037	0,044
-536,408	489,018	0,056	0,094
-535,393	-200,000	0,011	-0,052
-534,379	-200,000	0,011	-0,060
-533,364	800,000	0,030	0,077
-532,350	126,801	0,079	0,074
-531,335	800,000	-0,025	0,077
-530,321	-180,172	0,056	0,001
-529,306	1,459	0,057	0,030
-528,291	123,602	0,019	0,018
-527,277	-200,000	-0,009	-0,097
-526,262	772,820	0,016	-0,032
-525,248	-200,000	-0,004	0,018
-524,233	368,216	0,112	0,168
-523,218	-80,613	-0,075	-0,018
-522,204	-200,000	0,010	-0,077
-521,189	-139,019	-0,090	0,007
-520,175	-200,000	0,006	0,023
-519,160	65,038	0,099	0,073
-518,145	451,968	0,034	-0,056
-517,131	302,037	-0,039	-0,054
-516,116	800,000	0,031	-0,065
-515,102	-200,000	-0,002	0,045
-514,087	-200,000	-0,006	-0,023
-513,072	-200,000	-0,004	0,094
-512,058	-111,181	-0,158	0,024
-511,043	95,347	-0,118	-0,099
-510,029	225,716	0,066	-0,079
-509,014	162,804	0,071	0,073
-507,999	-3,810	-0,046	-0,024
-506,985	-47,254	-0,118	-0,042
-505,970	-81,029	-0,042	-0,010
-504,956	-200,000	-0,004	-0,026
-503,941	-56,867	0,033	-0,011
-502,926	-200,000	0,004	0,120
-501,912	800,000	-0,026	0,057
-500,897	800,000	-0,031	-0,065
-499,883	-94,347	-0,051	-0,010
-498,868	-200,000	-0,007	-0,057
-497,853	-40,473	-0,181	-0,069
-496,839	42,778	-0,091	-0,061
-495,824	85,061	-0,139	0,112
-494,810	-38,577	0,103	-0,040
-493,795	-8,414	0,115	-0,057
-492,781	-26,276	-0,089	0,038
-491,766	289,224	-0,095	-0,127
-490,751	445,297	0,060	-0,097
-489,737	557,692	-0,055	0,099
-488,722	75,028	0,022	0,017
-487,708	60,526	0,105	0,076
-486,693	9,390	-0,095	0,053
-485,678	-106,915	-0,182	0,029
-484,664	-58,299	-0,113	0,036
-483,649	-178,273	-0,153	0,003
-482,635	800,000	-0,008	0,021
-481,620	130,881	-0,048	-0,045
-480,605	52,679	0,054	-0,038
-479,591	-99,526	-0,042	-0,008
-478,576	597,009	-0,040	-0,074
-477,562	800,000	0,017	-0,037
-476,547	75,781	-0,072	-0,056
-475,532	-62,658	0,038	0,011
-474,518	188,531	0,078	0,086
-473,503	-107,941	0,058	0,009
-472,489	621,271	-0,034	0,064
-471,474	189,663	0,097	0,107
-470,459	-59,017	-0,056	0,018
-469,445	-29,208	-0,200	-0,084
-468,430	135,574	0,084	-0,081
-467,416	-54,738	-0,033	0,011
-466,401	38,134	0,052	0,034
-465,386	-200,000	0,012	0,152
-464,372	134,417	-0,099	0,095
-463,357	569,858	0,011	-0,020
-462,343	561,933	-0,062	0,111
-461,328	-200,000	-0,028	-0,134
-460,313	-200,000	0,002	-0,034
-459,299	-9,872	-0,084	0,041
-458,284	-200,000	-0,003	0,116
-457,270	-131,666	-0,040	0,004
-456,255	-200,000	0,010	0,065
-455,241	-2,250	-0,040	-0,021
-454,226	-156,488	-0,084	-0,004
-453,211	-199,024	0,110	0,000
-452,197	331,906	0,064	0,091
-451,182	120,202	-0,125	0,114
-450,168	-200,000	0,008	-0,043
-449,153	4,238	0,126	-0,068
-448,138	-92,500	-0,099	-0,020
-447,124	-113,936	-0,057	-0,008
-446,109	28,161	-0,154	-0,095
-445,095	-121,798	0,121	0,015
-444,080	800,000	-0,005	-0,014
-443,065	800,000	0,059	-0,128
-442,051	67,052	0,145	-0,109
-441,036	-111,518	-0,203	0,030
-440,022	-51,980	0,064	-0,022
-439,007	420,779	-0,079	-0,125
-437,992	-64,716	0,088	0,026
-436,978	-200,000	0,002	0,087
-435,963	126,167	0,026	0,025
-434,949	-43,568	-0,075	-0,028
-433,934	710,922	0,071	-0,139
-432,919	-115,452	-0,050	-0,007
-431,905	-24,313	-0,065	0,028
-430,890	-200,000	-0,016	0,102
-429,876	-104,815	0,153	-0,026
-428,861	-17,488	0,050	0,023
-427,846	-14,664	-0,102	0,048
-426,832	395,860	-0,031	0,047
-425,817	-83,060	0,040	0,009
-424,803	654,659	0,074	-0,141
-423,788	482,672	0,033	-0,056
-422,773	22,648	-0,056	0,034
-421,759	702,255	0,060	0,117
-420,744	-59,030	0,020	-0,006
-419,730	800,000	0,042	-0,090
-418,715	-200,000	0,008	-0,067
-417,701	-200,000	0,014	-0,202
-416,686	345,221	0,038	-0,055
-415,671	15,021	0,103	0,059
-414,657	156,885	0,053	-0,054
-413,642	-52,009	-0,086	0,029
-412,628	-16,809	0,070	0,032
-411,613	800,000	-0,074	-0,217
-410,598	-200,000	-0,013	0,070
-409,584	-56,671	0,058	0,019
-408,569	650,822	-0,042	-0,079
-407,555	-32,288	-0,036	-0,015
-406,540	223,449	0,070	0,083
-405,525	800,000	0,014	-0,029
-404,511	52,623	0,029	-0,020
-403,496	800,000	0,040	-0,093
-402,482	-61,725	-0,047	-0,014
-401,467	-96,178	0,086	0,017
-400,452	-115,069	-0,083	0,011
-399,438	800,000	0,053	0,112
-398,423	-200,000	-0,004	0,086
-397,409	625,718	0,080	-0,149
-396,394	633,918	0,036	-0,068
-395,379	-200,000	-0,026	0,138
-394,365	388,374	0,014	-0,021
-393,350	-200,000	0,005	0,039
-392,336	-127,483	-0,055	-0,006
-391,321	7,374	0,058	0,032
-390,306	121,269	-0,031	0,028
-389,292	45,627	-0,061	-0,041
-388,277	403,314	-0,049	-0,076
-387,263	80,263	-0,050	-0,039
-386,248	262,946	-0,053	-0,068
-385,233	273,539	-0,084	0,110
-384,219	216,930	0,028	-0,033
-383,204	-170,375	-0,069	-0,002
-382,190	279,130	0,088	-0,116
-381,175	10,267	-0,079	0,044
-380,160	-123,576	-0,016	-0,002
-379,146	167,166	0,085	0,089
-378,131	-200,000	-0,009	0,037
-377,117	389,875	0,026	0,040
-376,102	800,000	-0,053	-0,142
-375,088	4,887	-0,129	0,069
-374,073	191,712	0,038	-0,043
-373,058	23,955	-0,011	0,007
-372,044	-200,000	0,006	-0,084
-371,029	124,033	0,071	-0,065
-370,015	-98,181	-0,067	-0,013
-369,000	-200,000	-0,013	-0,051
-367,985	800,000	0,045	0,132
-366,971	441,543	0,038	0,062
-365,956	-81,428	-0,169	0,040
-364,942	71,774	0,081	0,062
-363,927	800,000	-0,002	0,005
-362,912	67,048	0,165	0,124
-361,898	-133,286	-0,094	-0,009
-360,883	800,000	-0,049	-0,128
-359,869	-115,897	-0,061	0,008
-358,854	-102,886	0,094	-0,016
-357,839	-26,294	0,162	0,069
-356,825	-8,984	0,117	0,057
-355,810	-200,000	0,036	0,144
-354,796	-196,723	0,023	0,000
-353,781	-23,148	-0,082	-0,036
-352,766	-31,733	-0,050	0,021
-351,752	34,731	0,144	-0,092
-350,737	-53,719	-0,072	0,024
-349,723	219,597	-0,029	-0,035
-348,708	-200,000	0,006	0,053
-347,693	259,587	-0,038	-0,048
-346,679	559,852	-0,021	-0,038
-345,664	800,000	0,059	0,143
-344,650	-108,825	0,050	0,008
-343,635	-144,267	0,095	0,006
-342,620	-33,356	0,071	0,029
-341,606	-200,000	-0,002	0,022
-340,591	-21,540	0,117	-0,052
-339,577	68,942	0,096	-0,072
-338,562	-200,000	0,041	-0,150
-337,548	259,477	0,009	-0,011
-336,533	-8,341	0,129	0,064
-335,518	75,581	-0,121	0,094
-334,504	181,440	-0,063	0,068
-333,489	29,377	0,106	-0,066
-332,475	5,395	0,090	0,048
-331,460	800,000	-0,047	-0,105
-330,445	-22,125	0,067	0,030
-329,431	800,000	0,032	0,067
-328,416	95,128	0,079	-0,066
-327,402	-53,171	0,031	0,010
-326,387	452,336	0,025	0,041
-325,372	-122,072	0,112	-0,013
-324,358	-58,242	-0,103	-0,033
-323,343	-182,899	0,068	-0,001
-322,329	-52,731	0,057	0,019
-321,314	-200,000	-0,017	-0,063
-320,299	17,871	-0,081	0,047
-319,285	-200,000	0,032	-0,144
-318,270	-200,000	0,003	-0,018
-317,256	53,152	0,099	0,069
-316,241	-200,000	0,003	-0,085
-315,226	401,774	0,082	-0,126
-314,212	-116,515	0,081	0,011
-313,197	-200,000	-0,001	-0,094
-312,183	-200,000	0,001	-0,069
-311,168	75,056	0,127	-0,098
-310,153	800,000	-0,010	0,026
-309,139	-9,240	-0,056	-0,028
-308,124	35,618	-0,139	-0,089
-307,110	194,638	0,080	-0,089
-306,095	-200,000	0,006	0,028
-305,080	-200,000	-0,014	0,068
-304,066	171,544	-0,038	-0,040
-303,051	-101,044	0,073	0,013
-302,037	87,896	-0,044	0,036
-301,022	194,520	-0,026	0,029
-300,008	800,000	0,025	0,061
-298,993	-200,000	0,013	0,177
-297,978	-200,000	-0,028	0,108
-296,964	-82,066	0,087	0,021
-295,949	-59,347	-0,107	-0,033
-294,935	-80,141	-0,113	0,028
-293,920	-181,121	0,068	0,001
-292,905	800,000	0,020	-0,041
-291,891	9,854	0,085	-0,047
-290,876	-200,000	-0,000	0,109
-289,862	-56,025	0,129	0,042
-288,847	235,600	-0,073	0,088
-287,832	-121,923	-0,126	0,015
-286,818	649,987	0,015	-0,028
-285,803	-12,890	0,057	0,027
-284,789	85,196	-0,026	0,021
-283,774	55,705	0,070	0,050
-282,759	118,623	-0,059	-0,053
-281,745	-52,173	-0,028	-0,009
-280,730	-76,932	-0,050	0,013
-279,716	-109,216	-0,131	0,020
-278,701	91,924	0,060	-0,049
-277,686	800,000	-0,035	0,094
-276,672	-200,000	-0,037	-0,155
-275,657	251,389	0,037	0,046
-274,643	-200,000	-0,018	-0,140
-273,628	-62,497	-0,089	-0,027
-272,613	44,955	-0,114	-0,077
-271,599	-2,200	0,043	0,022
-270,584	-200,000	0,019	0,116
-269,570	-200,000	-0,001	-0,014
-268,555	-200,000	-0,009	0,155
-267,540	370,532	-0,073	0,108
-266,526	-200,000	-0,002	-0,048
-265,511	-125,065	0,096	0,011
-264,497	282,209	0,082	0,108
-263,482	137,469	0,055	0,052
-262,467	-153,138	0,071	0,004
-261,453	93,171	-0,050	0,041
-260,438	-200,000	-0,009	-0,075
-259,424	-148,411	0,124	0,007
-258,409	-157,670	-0,073	-0,003
-257,395	-62,431	0,070	0,021
-256,380	-44,056	0,114	0,041
-255,365	318,991	-0,048	0,066
-254,351	-200,000	0,028	-0,115
-253,336	-86,209	0,090	0,020
-252,322	0,759	-0,051	-0,026
-251,307	-200,000	-0,001	-0,246
-250,292	-200,000	-0,007	-0,036
-249,278	-140,489	0,162	0,012
-248,263	-200,000	-0,004	0,265
-247,249	800,000	-0,029	-0,075
-246,234	13,498	-0,095	-0,054
-245,219	-200,000	-0,031	-0,121
-244,205	-65,514	0,055	-0,016
-243,190	-200,000	-0,023	-0,180
-242,176	-2,988	0,161	0,082
-241,161	-113,427	0,122	-0,017
-240,146	-80,783	0,117	-0,028
-239,132	-18,446	-0,133	0,060
-238,117	800,000	0,004	-0,008
-237,103	800,000	0,056	-0,162
-236,088	-47,381	-0,105	-0,037
-235,073	-200,000	-0,002	-0,039
-234,059	103,470	0,116	0,100
-233,044	-95,771	0,060	0,012
-232,030	-66,635	0,102	0,029
-231,015	800,000	-0,022	0,048
-230,000	-65,969	-0,025	-0,007
-228,986	-200,000	0,012	-0,131
-227,971	800,000	0,036	-0,078
-226,957	800,000	0,037	0,112
-225,942	156,047	0,112	-0,113
-224,927	141,373	-0,006	-0,006
-223,913	-200,000	0,004	-0,123
-222,898	225,677	-0,041	0,049
-221,884	163,157	-0,091	-0,094
-220,869	800,000	0,038	-0,122
-219,855	64,411	-0,024	-0,018
-218,840	241,686	0,065	0,080
-217,825	-200,000	-0,002	-0,040
-216,811	-65,431	-0,031	-0,009
-215,796	231,198	0,064	-0,076
-214,782	-86,621	-0,082	-0,018
-213,767	-60,465	-0,098	0,030
-212,752	724,317	0,011	0,022
-211,738	-200,000	-0,036	-0,155
-210,723	30,575	-0,113	0,070
-209,709	-200,000	-0,009	0,043
-208,694	-200,000	-0,008	-0,057
-207,679	-158,217	-0,204	0,009
-206,665	-5,615	0,061	-0,030
-205,650	-69,068	0,062	0,017
-204,636	-132,576	0,054	-0,005
-203,621	706,594	0,042	0,082
-202,606	-200,000	-0,040	-0,163
-201,592	642,030	-0,072	-0,134
-200,577	88,516	-0,109	-0,088
-199,563	800,000	0,024	0,049
-198,548	-200,000	-0,016	-0,125
-197,533	-41,752	0,015	-0,006
-196,519	-160,163	0,122	-0,005
-195,504	800,000	0,038	-0,092
-194,490	-200,000	-0,053	-0,177
-193,475	110,899	-0,094	-0,082
-192,460	800,000	0,010	-0,019
-191,446	-200,000	0,011	0,078
-190,431	-115,153	0,120	0,016
-189,417	-77,876	-0,024	0,006
-188,402	-114,474	0,038	0,005
-187,387	-164,855	0,101	0,003
-186,373	-116,338	0,011	-0,002
-185,358	13,671	0,026	0,015
-184,344	7,404	-0,063	-0,034
-183,329	800,000	0,049	0,106
-182,315	143,624	0,074	0,072
-181,300	66,329	0,115	-0,085
-180,285	-200,000	-0,010	0,048
-179,271	800,000	0,052	-0,116
-178,256	-200,000	-0,023	-0,123
-177,242	800,000	0,045	0,111
-176,227	668,507	-0,094	-0,179
-175,212	-200,000	0,011	-0,138
-174,198	-71,871	-0,090	-0,024
-173,183	-200,000	-0,014	-0,153
-172,169	800,000	0,028	-0,085
-171,154	223,057	-0,092	-0,108
-170,139	-61,823	-0,086	-0,026
-169,125	-200,000	-0,004	0,037
-168,110	299,603	-0,013	0,017
-167,096	800,000	0,038	0,111
-166,081	236,947	0,032	0,039
-165,066	98,576	-0,058	-0,048
-164,052	-200,000	-0,011	-0,093
-163,037	-34,589	0,059	-0,023
-162,023	19,408	0,103	0,060
-161,008	4,646	0,140	0,074
-159,993	403,621	-0,057	0,088
-158,979	-200,000	0,011	-0,044
-157,964	-200,000	0,011	-0,076
-156,950	-200,000	-0,033	-0,140
-155,935	291,919	-0,041	0,055
-154,920	107,025	0,040	0,034
-153,906	-68,015	0,116	0,033
-152,891	25,503	0,037	-0,022
-151,877	-5,689	-0,052	-0,026
-150,862	730,081	-0,063	0,123
-149,847	346,912	-0,060	0,086
-148,833	286,083	0,034	0,045
-147,818	800,000	-0,064	0,163
-146,804	40,201	0,168	0,110
-145,789	-143,848	0,083	-0,006
-144,775	203,626	-0,045	-0,051
-143,760	-106,916	-0,156	0,025
-142,745	-200,000	0,010	0,063
-141,731	167,082	-0,039	-0,040
-140,716	-179,117	0,054	0,001
-139,702	188,452	-0,067	0,073
-138,687	-98,080	0,182	0,034
-137,672	-42,232	0,118	-0,044
-136,658	-59,493	-0,066	-0,020
-135,643	217,309	-0,084	0,097
-134,629	60,410	0,044	-0,032
-133,614	384,735	-0,156	0,234
-132,599	266,596	0,030	0,038
-131,585	-200,000	-0,002	0,025
-130,570	-187,606	-0,114	0,001
-129,556	-68,218	-0,019	0,005
-128,541	-200,000	-0,007	-0,063
-127,526	800,000	-0,013	-0,030
-126,512	-187,784	0,059	-0,001
-125,497	114,425	0,036	-0,032
-124,483	58,095	-0,096	-0,068
-123,468	153,592	-0,028	-0,028
-122,453	-52,156	-0,033	0,011
-121,439	-35,016	-0,065	-0,026
-120,424	800,000	0,089	-0,209
-119,410	-122,256	0,023	-0,003
