DTS Sentinel unit serial number:	SN410029Multiplexer serial number:	ORYXHardware model number:	OX2-SRSoftware version number:	ORYX F/W v4,00 Oryx Data Collector v3.7.2.0data status	okinstallation	B4 Nyhavnadifferential loss correction	single-endedforward channel	channel 2reverse channel	N/Adate	2023/12/16time	01:20:14forward acquisition time	300,00reverse acquisition time	0,00gamma	499,1914k internal	0,3128k external	0,3128temperature offset calibration	1,0000default loss term (dB/km)	0,3820temperature slope calibration	1,0000multiplexer offset coefficient	1,0000multiplexer slope coefficient	1,0000fibre end	0,00T internal ref (°C)	21,91T ext. ref 1 (°C)	7,05T ext. ref 2 (°C)	7,23length (m)	temperature (°C)	Stokes	anti-Stokes-744,400	-200,000	-0,043	0,175
-743,385	-78,465	-0,229	0,058
-742,371	-200,000	-0,012	-0,055
-741,356	133,018	-0,170	0,163
-740,342	-54,246	0,016	0,005
-739,327	-33,862	-0,192	0,078
-738,312	12,117	-0,133	-0,076
-737,298	42,157	-0,277	0,187
-736,283	800,000	-0,028	-0,070
-735,269	199,208	-0,230	0,263
-734,254	22,543	-0,070	-0,043
-733,239	-178,242	-0,614	0,010
-732,225	141,613	0,110	0,109
-731,210	449,912	-0,033	0,054
-730,196	-174,183	-0,048	0,001
-729,181	800,000	0,009	0,029
-728,167	28,684	0,063	0,039
-727,152	-6,152	-0,024	-0,012
-726,137	37,459	-0,068	-0,045
-725,123	204,811	-0,050	-0,058
-724,108	185,007	-0,050	0,055
-723,094	-65,004	-0,190	-0,057
-722,079	277,218	0,119	-0,158
-721,064	-78,332	0,063	0,016
-720,050	352,011	-0,061	-0,090
-719,035	350,586	0,064	0,095
-718,021	535,432	-0,034	-0,060
-717,006	-86,648	-0,121	-0,027
-715,991	-57,669	-0,075	-0,024
-714,977	-14,066	-0,068	0,033
-713,962	179,656	-0,042	-0,045
-712,948	292,559	0,052	0,071
-711,933	-1,401	-0,087	0,046
-710,918	49,077	0,042	0,029
-709,904	-74,728	-0,085	0,022
-708,889	-85,225	-0,086	-0,020
-707,875	577,875	-0,078	-0,142
-706,860	-70,432	-0,073	-0,020
-705,845	-10,102	-0,074	0,036
-704,831	-73,847	0,034	-0,009
-703,816	582,825	-0,075	-0,137
-702,802	-200,000	-0,014	0,091
-701,787	-200,000	-0,007	0,113
-700,772	83,444	-0,202	-0,164
-699,758	-50,850	0,029	0,010
-698,743	114,195	-0,047	0,043
-697,729	-88,027	0,133	-0,029
-696,714	309,782	-0,063	0,087
-695,699	-200,000	-0,007	-0,095
-694,685	161,539	-0,080	-0,084
-693,670	67,384	-0,018	0,013
-692,656	139,184	-0,077	-0,075
-691,641	-200,000	0,014	0,105
-690,627	-200,000	-0,001	-0,045
-689,612	-60,485	-0,100	0,031
-688,597	312,909	0,083	-0,116
-687,583	-200,000	0,002	-0,093
-686,568	-200,000	-0,033	-0,107
-685,554	52,929	0,057	-0,041
-684,539	-200,000	0,008	-0,124
-683,524	11,234	-0,040	-0,023
-682,510	134,934	0,088	-0,085
-681,495	338,701	0,059	-0,085
-680,481	-119,479	-0,103	-0,013
-679,466	18,429	-0,072	0,042
-678,451	-200,000	0,018	-0,141
-677,437	0,697	0,033	-0,018
-676,422	27,993	-0,066	-0,041
-675,408	33,043	0,061	0,039
-674,393	-200,000	-0,025	-0,103
-673,378	225,492	-0,065	-0,078
-672,364	396,931	-0,093	0,145
-671,349	800,000	-0,052	0,113
-670,335	-200,000	-0,014	-0,057
-669,320	-200,000	0,007	-0,029
-668,305	800,000	-0,059	0,169
-667,291	-3,944	-0,043	-0,022
-666,276	72,322	-0,084	-0,065
-665,262	14,180	-0,079	0,045
-664,247	-200,000	-0,026	-0,117
-663,232	-112,928	0,087	0,013
-662,218	124,281	0,003	0,003
-661,203	800,000	-0,030	-0,061
-660,189	180,518	-0,067	0,073
-659,174	-106,547	-0,022	0,004
-658,159	-200,000	-0,005	-0,041
-657,145	-200,000	-0,001	0,088
-656,130	-154,288	-0,064	-0,003
-655,116	4,616	0,092	0,050
-654,101	-200,000	0,020	0,105
-653,086	-200,000	-0,035	-0,131
-652,072	-3,708	0,217	-0,112
-651,057	-78,214	0,051	-0,013
-650,043	-47,156	-0,133	0,048
-649,028	-46,359	-0,065	0,023
-648,014	-200,000	-0,015	0,147
-646,999	800,000	-0,035	0,081
-645,984	545,865	-0,027	0,048
-644,970	443,563	-0,086	-0,140
-643,955	221,016	-0,151	-0,180
-642,941	616,928	-0,031	-0,058
-641,926	93,532	-0,137	0,115
-640,911	287,559	0,020	-0,027
-639,897	-105,046	0,149	-0,025
-638,882	-200,000	0,045	-0,161
-637,868	139,181	-0,040	-0,039
-636,853	317,658	-0,054	0,076
-635,838	800,000	-0,085	-0,187
-634,824	800,000	-0,051	0,125
-633,809	157,960	0,047	-0,048
-632,795	182,457	0,026	-0,028
-631,780	-200,000	-0,027	-0,109
-630,765	-52,668	-0,124	-0,042
-629,751	800,000	0,028	-0,090
-628,736	24,087	0,112	0,068
-627,722	114,665	-0,101	-0,092
-626,707	-92,699	-0,083	0,017
-625,692	-200,000	0,012	0,045
-624,678	2,191	0,186	0,099
-623,663	800,000	-0,011	-0,028
-622,649	-154,171	-0,176	0,009
-621,634	76,808	-0,048	-0,038
-620,619	236,294	-0,065	-0,080
-619,605	-200,000	-0,001	0,090
-618,590	387,905	0,038	0,058
-617,576	-107,741	-0,044	-0,007
-616,561	674,590	0,021	-0,040
-615,546	330,483	-0,074	-0,106
-614,532	-136,122	0,143	0,012
-613,517	800,000	-0,047	-0,132
-612,503	59,750	0,090	-0,066
-611,488	-200,000	-0,012	-0,110
-610,474	551,428	0,074	0,133
-609,459	133,036	-0,033	-0,031
-608,444	-200,000	-0,023	-0,154
-607,430	-42,692	0,041	-0,015
-606,415	17,243	-0,065	-0,038
-605,401	-200,000	-0,005	-0,046
-604,386	375,301	0,027	0,041
-603,371	-37,495	0,026	0,010
-602,357	-200,000	-0,017	-0,089
-601,342	800,000	0,060	0,145
-600,328	28,915	0,013	-0,008
-599,313	-200,000	0,053	-0,264
-598,298	316,187	0,076	-0,107
-597,284	-200,000	-0,002	-0,052
-596,269	613,401	0,035	0,066
-595,255	-78,529	-0,087	0,022
-594,240	532,306	0,033	-0,058
-593,225	342,247	0,021	-0,030
-592,211	88,923	-0,027	0,022
-591,196	40,695	0,020	0,013
-590,182	800,000	-0,013	0,030
-589,167	367,172	0,065	-0,097
-588,152	83,080	0,076	-0,061
-587,138	800,000	0,050	0,105
-586,123	44,241	-0,123	-0,083
-585,109	232,044	0,048	-0,058
-584,094	86,147	0,070	0,057
-583,079	291,015	0,064	0,086
-582,065	771,765	0,066	0,134
-581,050	-146,638	-0,021	0,001
-580,036	369,869	-0,035	-0,052
-579,021	-54,097	-0,175	-0,059
-578,006	-200,000	0,012	0,115
-576,992	297,126	-0,062	0,085
-575,977	-10,836	0,050	0,024
-574,963	154,177	0,139	0,141
-573,948	-104,618	-0,032	-0,005
-572,934	-103,090	-0,066	-0,011
-571,919	-200,000	0,012	0,081
-570,904	102,691	-0,126	-0,109
-569,890	-103,715	-0,058	0,010
-568,875	800,000	-0,048	0,140
-567,861	-56,640	-0,022	0,007
-566,846	35,307	-0,007	0,005
-565,831	-200,000	0,001	-0,023
-564,817	216,183	-0,040	-0,047
-563,802	244,171	0,077	-0,095
-562,788	-200,000	-0,006	0,069
-561,773	146,754	0,062	0,062
-560,758	-131,347	0,095	-0,009
-559,744	143,393	0,059	0,058
-558,729	-200,000	-0,011	-0,047
-557,715	38,185	-0,034	0,022
-556,700	-200,000	0,005	-0,114
-555,685	-125,535	-0,169	0,019
-554,671	-200,000	0,021	-0,125
-553,656	165,786	-0,069	0,072
-552,642	125,652	-0,071	0,066
-551,627	88,700	-0,130	0,107
-550,612	-200,000	-0,006	-0,084
-549,598	27,138	-0,016	0,010
-548,583	-200,000	0,000	0,049
-547,569	-90,937	0,128	0,027
-546,554	-135,961	-0,029	0,002
-545,539	324,250	-0,030	-0,043
-544,525	184,317	0,104	0,114
-543,510	-1,911	-0,142	-0,074
-542,496	800,000	0,019	-0,048
-541,481	-94,132	-0,172	-0,034
-540,466	800,000	0,047	-0,107
-539,452	517,184	-0,095	-0,165
-538,437	200,253	0,007	-0,008
-537,423	118,812	-0,022	0,020
-536,408	682,161	-0,042	-0,082
-535,393	212,016	0,099	-0,116
-534,379	-194,012	-0,090	-0,001
-533,364	-200,000	0,002	-0,035
-532,350	-200,000	-0,017	0,127
-531,335	173,903	-0,146	0,156
-530,321	-200,000	0,018	-0,169
-529,306	-200,000	-0,023	0,102
-528,291	20,954	0,063	0,037
-527,277	205,048	-0,123	-0,141
-526,262	431,030	0,039	0,063
-525,248	146,680	-0,045	-0,045
-524,233	130,040	0,048	0,046
-523,218	47,879	-0,065	0,044
-522,204	-200,000	0,017	0,106
-521,189	82,942	-0,116	-0,093
-520,175	-200,000	0,021	-0,137
-519,160	-200,000	0,002	0,042
-518,145	295,439	0,043	-0,058
-517,131	335,329	0,039	0,057
-516,116	-165,419	0,051	-0,002
-515,102	356,306	0,107	-0,158
-514,087	117,230	0,096	0,087
-513,072	53,508	-0,037	0,026
-512,058	-200,000	0,046	-0,158
-511,043	800,000	-0,039	0,125
-510,029	15,071	0,166	0,096
-509,014	-160,419	-0,134	0,005
-507,999	66,399	0,125	0,093
-506,985	-200,000	-0,006	-0,046
-505,970	-157,978	-0,033	0,001
-504,956	-200,000	-0,021	-0,121
-503,941	146,823	-0,104	0,103
-502,926	123,114	-0,046	0,042
-501,912	-59,885	-0,062	-0,019
-500,897	-102,133	-0,011	-0,002
-499,883	800,000	0,062	0,141
-498,868	452,132	-0,074	0,121
-497,853	-200,000	-0,018	-0,139
-496,839	38,388	0,084	-0,055
-495,824	-24,637	0,066	-0,029
-494,810	6,664	0,192	0,105
-493,795	-200,000	0,001	0,094
-492,781	344,054	-0,071	0,103
-491,766	-63,549	0,070	0,021
-490,751	800,000	-0,027	0,064
-489,737	511,901	0,040	-0,068
-488,722	800,000	0,011	-0,025
-487,708	-56,373	0,039	0,013
-486,693	528,658	-0,059	0,103
-485,678	-195,111	0,041	0,000
-484,664	800,000	-0,031	-0,065
-483,649	5,947	-0,044	-0,024
-482,635	322,645	-0,052	0,074
-481,620	-200,000	-0,012	0,071
-480,605	-111,198	-0,014	0,002
-479,591	-200,000	0,010	0,201
-478,576	-74,044	0,006	0,002
-477,562	-200,000	-0,031	0,117
-476,547	800,000	-0,004	0,013
-475,532	-34,240	-0,037	0,015
-474,518	591,283	-0,046	0,084
-473,503	-18,199	0,067	0,031
-472,489	182,982	-0,060	0,066
-471,474	493,261	-0,037	-0,063
-470,459	-71,892	0,114	0,031
-469,445	-200,000	-0,005	0,124
-468,430	647,078	0,052	0,097
-467,416	-200,000	-0,006	0,148
-466,401	-74,873	-0,039	-0,010
-465,386	-60,066	-0,065	0,020
-464,372	-200,000	0,006	-0,050
-463,357	-200,000	-0,044	-0,158
-462,343	143,150	-0,092	-0,090
-461,328	574,493	-0,014	0,026
-460,313	293,940	0,060	-0,081
-459,299	230,116	-0,079	0,095
-458,284	146,487	0,074	0,074
-457,270	-200,000	0,019	0,063
-456,255	800,000	-0,015	-0,033
-455,241	800,000	-0,038	-0,101
-454,226	-200,000	-0,022	-0,150
-453,211	40,784	0,100	-0,067
-452,197	-119,996	0,124	-0,016
-451,182	113,140	0,080	0,071
-450,168	-12,783	0,201	-0,096
-449,153	219,090	-0,070	-0,083
-448,138	-200,000	0,018	-0,159
-447,124	380,655	0,046	0,069
-446,109	627,146	0,109	-0,203
-445,095	-34,736	0,082	0,033
-444,080	-70,497	0,010	-0,003
-443,065	-13,576	0,059	0,028
-442,051	717,763	0,050	-0,097
-441,036	330,002	-0,059	0,084
-440,022	800,000	-0,066	-0,189
-439,007	198,009	-0,043	-0,048
-437,992	800,000	0,013	-0,041
-436,978	800,000	0,059	0,140
-435,963	-200,000	0,017	0,077
-434,949	269,173	-0,053	0,069
-433,934	13,133	-0,088	-0,050
-432,919	800,000	-0,057	-0,126
-431,905	-200,000	0,024	0,083
-430,890	164,300	-0,052	-0,054
-429,876	289,235	0,082	0,109
-428,861	15,928	0,118	0,068
-427,846	-67,363	-0,035	0,010
-426,832	800,000	0,036	-0,090
-425,817	-32,092	-0,095	-0,039
-424,803	-50,023	0,097	0,034
-423,788	-40,489	0,151	-0,057
-422,773	749,182	0,021	0,041
-421,759	-200,000	-0,020	0,085
-420,744	-200,000	0,033	0,260
-419,730	354,144	-0,086	-0,126
-418,715	83,701	0,004	-0,003
-417,701	800,000	-0,020	0,057
-416,686	404,719	0,088	0,136
-415,671	-140,868	-0,092	-0,007
-414,657	-200,000	-0,005	0,067
-413,642	-89,547	0,057	0,012
-412,628	5,070	0,040	0,022
-411,613	-90,342	-0,116	0,024
-410,598	344,873	0,031	-0,044
-409,584	218,011	-0,018	-0,021
-408,569	162,772	0,071	-0,074
-407,555	-200,000	-0,004	0,074
-406,540	-200,000	-0,015	-0,084
-405,525	-67,930	-0,246	0,070
-404,511	131,084	0,040	-0,037
-403,496	-200,000	-0,050	0,173
-402,482	-200,000	-0,040	-0,154
-401,467	-40,843	0,092	-0,035
-400,452	-83,706	-0,042	-0,010
-399,438	16,007	-0,088	0,051
-398,423	75,856	0,046	-0,035
-397,409	110,188	-0,090	-0,080
-396,394	257,409	-0,068	-0,086
-395,379	800,000	-0,062	-0,148
-394,365	-200,000	0,021	-0,096
-393,350	764,681	0,072	0,145
-392,336	228,065	0,043	0,052
-391,321	-84,436	0,047	-0,011
-390,306	155,086	0,033	-0,033
-389,292	800,000	-0,040	-0,087
-388,277	-0,226	0,061	-0,032
-387,263	-200,000	0,023	-0,120
-386,248	-102,573	-0,143	0,025
-385,233	800,000	0,025	-0,067
-384,219	-130,195	0,059	-0,006
-383,204	-200,000	0,012	-0,164
-382,190	-83,471	-0,085	-0,020
-381,175	800,000	0,019	-0,054
-380,160	334,466	-0,018	0,026
-379,146	271,091	0,071	0,092
-378,131	-144,892	0,109	-0,007
-377,117	800,000	-0,017	-0,036
-376,102	221,390	-0,039	0,046
-375,088	110,396	-0,084	0,074
-374,073	353,728	0,037	-0,053
-373,058	-71,844	0,082	-0,022
-372,044	-200,000	0,011	-0,091
-371,029	-21,558	0,064	0,029
-370,015	-76,452	-0,083	0,021
-369,000	43,261	-0,084	0,056
-367,985	800,000	0,011	-0,029
-366,971	-200,000	-0,024	0,133
-365,956	576,113	-0,043	0,077
-364,942	277,985	-0,134	-0,176
-363,927	-37,642	0,111	-0,043
-362,912	97,206	0,092	0,077
-361,898	800,000	-0,016	0,045
-360,883	324,338	-0,019	-0,027
-359,869	800,000	0,005	0,015
-358,854	624,900	-0,048	-0,090
-357,839	316,896	0,059	0,083
-356,825	-200,000	-0,009	0,096
-355,810	-153,959	-0,009	-0,000
-354,796	800,000	0,048	-0,100
-353,781	-200,000	0,008	-0,029
-352,766	-99,270	-0,107	0,020
-351,752	-73,764	0,179	-0,047
-350,737	34,720	0,021	-0,014
-349,723	-4,777	0,123	0,062
-348,708	363,158	0,025	-0,037
-347,693	200,658	0,038	0,043
-346,679	-14,988	-0,084	0,039
-345,664	382,977	-0,049	-0,074
-344,650	108,202	0,104	0,091
-343,635	-48,240	0,093	-0,033
-342,620	156,743	0,071	0,072
-341,606	-200,000	0,039	0,130
-340,591	316,122	0,035	0,049
-339,577	688,447	-0,010	0,020
-338,562	464,131	0,020	-0,034
-337,548	-77,008	0,032	0,008
-336,533	-51,282	-0,009	-0,003
-335,518	-127,596	-0,069	0,007
-334,504	-200,000	-0,009	0,096
-333,489	-200,000	-0,003	0,021
-332,475	-200,000	-0,038	-0,214
-331,460	-200,000	0,024	-0,082
-330,445	800,000	0,038	0,124
-329,431	-46,985	0,141	0,050
-328,416	-107,863	0,032	0,005
-327,402	84,756	0,019	-0,015
-326,387	-71,432	-0,029	0,008
-325,372	-51,204	-0,121	-0,041
-324,358	600,558	0,058	-0,107
-323,343	63,615	-0,138	-0,101
-322,329	800,000	-0,025	-0,063
-321,314	-200,000	-0,006	0,104
-320,299	-166,276	0,045	-0,001
-319,285	-1,198	0,050	0,026
-318,270	41,733	0,111	-0,073
-317,256	-200,000	-0,007	-0,154
-316,241	-200,000	-0,020	-0,156
-315,226	800,000	-0,060	0,124
-314,212	262,654	0,163	0,207
-313,197	-200,000	0,022	-0,163
-312,183	198,621	-0,014	0,015
-311,168	413,565	0,022	-0,035
-310,153	734,475	0,036	-0,070
-309,139	-200,000	-0,002	0,034
-308,124	-200,000	0,032	-0,129
-307,110	-200,000	-0,035	0,287
-306,095	-200,000	0,073	0,260
-305,080	800,000	0,033	0,085
-304,066	-155,418	0,038	0,002
-303,051	218,352	-0,106	0,124
-302,037	800,000	-0,061	0,126
-301,022	800,000	-0,041	-0,096
-300,008	-175,941	0,072	-0,001
-298,993	153,576	0,049	-0,049
-297,978	525,136	-0,039	0,068
-296,964	800,000	0,043	-0,116
-295,949	-200,000	-0,001	-0,015
-294,935	663,331	0,031	0,060
-293,920	540,581	0,010	-0,018
-292,905	800,000	-0,046	-0,123
-291,891	-106,471	0,015	-0,002
-290,876	-56,229	0,099	0,032
-289,862	41,170	-0,015	-0,010
-288,847	-200,000	-0,003	-0,109
-287,832	342,894	-0,067	-0,097
-286,818	-200,000	0,012	0,090
-285,803	241,239	0,056	0,069
-284,789	145,419	0,124	0,121
-283,774	523,769	-0,017	0,030
-282,759	75,818	-0,072	-0,056
-281,745	800,000	-0,022	-0,064
-280,730	398,361	0,096	-0,148
-279,716	492,913	-0,103	-0,174
-278,701	186,755	-0,032	0,035
-277,686	800,000	0,057	0,132
-276,672	800,000	-0,069	0,191
-275,657	2,480	0,106	0,056
-274,643	-106,942	-0,127	-0,020
-273,628	-117,467	0,093	-0,012
-272,613	-42,176	0,067	-0,025
-271,599	-200,000	0,014	0,109
-270,584	800,000	0,031	0,080
-269,570	-64,232	-0,030	0,009
-268,555	-81,630	0,053	0,013
-267,540	58,261	-0,028	-0,020
-266,526	180,746	-0,020	0,022
-265,511	640,525	0,041	0,077
-264,497	407,777	0,076	0,118
-263,482	-200,000	0,017	-0,087
-262,467	500,407	-0,041	-0,070
-261,453	-200,000	-0,024	0,131
-260,438	36,218	-0,067	-0,043
-259,424	18,294	-0,073	0,043
-258,409	-200,000	0,006	-0,094
-257,395	558,333	-0,017	0,030
-256,380	222,245	0,107	-0,126
-255,365	-103,577	-0,025	0,004
-254,351	-100,002	0,038	-0,007
-253,336	278,033	-0,105	-0,136
-252,322	-29,308	0,025	0,010
-251,307	26,871	-0,099	0,061
-250,292	-90,044	-0,146	0,031
-249,278	22,602	0,132	-0,079
-248,263	-169,307	-0,069	-0,002
-247,249	-49,532	-0,053	0,018
-246,234	204,428	-0,065	0,074
-245,219	308,497	-0,010	-0,014
-244,205	35,320	0,036	0,023
-243,190	800,000	0,023	0,060
-242,176	-200,000	-0,020	0,161
-241,161	-157,122	0,044	-0,002
-240,146	117,333	-0,030	-0,027
-239,132	800,000	-0,033	-0,090
-238,117	132,345	-0,095	-0,089
-237,103	-16,885	-0,108	0,049
-236,088	-200,000	-0,042	-0,192
-235,073	-54,662	0,219	-0,072
-234,059	229,308	-0,068	0,082
-233,044	-160,778	-0,036	-0,001
-232,030	-200,000	0,011	0,079
-231,015	101,954	0,015	-0,013
-230,000	336,050	-0,058	-0,083
-228,986	-114,295	0,050	0,007
-227,971	-200,000	0,000	0,010
-226,957	218,180	0,134	0,157
-225,942	-95,917	0,083	0,016
-224,927	57,897	-0,105	-0,075
-223,913	800,000	-0,074	-0,170
-222,898	-200,000	-0,008	-0,107
-221,884	-200,000	-0,013	0,071
-220,869	-107,541	0,114	0,018
-219,855	-200,000	0,013	-0,111
-218,840	732,271	0,060	0,118
-217,825	111,620	-0,083	0,073
-216,811	-129,309	-0,081	0,008
-215,796	415,702	-0,111	-0,172
-214,782	-37,992	-0,044	-0,017
-213,767	-200,000	-0,002	-0,174
-212,752	-200,000	-0,000	-0,018
-211,738	184,078	0,010	0,010
-210,723	-200,000	-0,020	0,169
-209,709	49,224	-0,076	-0,052
-208,694	-56,492	-0,009	-0,003
-207,679	26,322	-0,034	0,021
-206,665	189,891	-0,138	0,152
-205,650	-4,498	0,061	-0,031
-204,636	800,000	0,056	0,121
-203,621	-200,000	-0,029	0,115
-202,606	800,000	-0,056	-0,162
-201,592	5,017	-0,056	0,030
-200,577	358,402	-0,076	-0,111
-199,563	258,629	0,010	0,012
-198,548	13,192	0,126	0,071
-197,533	800,000	0,038	0,118
-196,519	-200,000	-0,067	0,281
-195,504	-200,000	-0,040	-0,164
-194,490	32,205	0,123	-0,077
-193,475	-200,000	0,017	-0,093
-192,460	78,834	-0,082	-0,064
-191,446	236,929	-0,050	0,061
-190,431	-113,211	0,095	0,013
-189,417	-109,631	-0,056	0,008
-188,402	-200,000	-0,021	0,078
-187,387	121,758	-0,040	0,036
-186,373	-93,465	0,015	0,003
-185,358	-200,000	-0,005	0,102
-184,344	240,123	0,136	0,166
-183,329	800,000	-0,042	0,094
-182,315	-58,256	0,030	-0,009
-181,300	89,867	0,067	0,054
-180,285	-200,000	0,010	-0,169
-179,271	-200,000	-0,000	-0,007
-178,256	701,606	0,078	-0,150
-177,242	-97,658	-0,176	0,033
-176,227	-46,691	0,097	0,034
-175,212	-88,886	0,122	-0,026
-174,198	800,000	0,039	-0,080
-173,183	28,813	0,029	-0,018
-172,169	-33,246	-0,019	0,008
-171,154	10,721	-0,080	-0,044
-170,139	569,798	0,064	0,114
-169,125	-117,395	-0,031	-0,004
-168,110	109,184	0,037	0,032
-167,096	-33,547	0,037	-0,015
-166,081	550,533	-0,032	-0,056
-165,066	-109,297	-0,090	-0,014
-164,052	-60,340	0,032	0,010
-163,037	546,608	0,062	0,108
-162,023	165,632	-0,046	-0,048
-161,008	432,938	0,026	0,041
-159,993	-61,053	0,079	-0,024
-158,979	-125,723	-0,107	-0,012
-157,964	-52,706	0,114	-0,038
-156,950	-200,000	-0,013	-0,069
-155,935	8,965	-0,028	-0,015
-154,920	800,000	0,053	0,120
-153,906	37,494	0,044	0,028
-152,891	-200,000	0,034	0,168
-151,877	-200,000	0,003	0,090
-150,862	-200,000	0,005	0,040
-149,847	-163,868	-0,102	-0,003
-148,833	63,056	-0,147	0,107
-147,818	-157,055	-0,043	0,002
-146,804	-69,098	-0,091	-0,025
-145,789	-42,855	-0,125	0,046
-144,775	75,878	0,035	-0,027
-143,760	-200,000	-0,013	-0,090
-142,745	-64,496	-0,023	-0,007
-141,731	-53,585	-0,095	0,031
-140,716	800,000	0,058	0,133
-139,702	-200,000	-0,001	0,150
-138,687	53,867	0,183	0,128
-137,672	-133,483	-0,022	-0,002
-136,658	202,121	-0,098	-0,110
-135,643	-200,000	0,019	-0,098
-134,629	-33,959	-0,104	-0,042
-133,614	-0,219	0,024	0,012
-132,599	800,000	0,030	-0,068
-131,585	531,191	0,035	0,060
-130,570	-200,000	-0,037	0,169
-129,556	800,000	0,072	-0,185
-128,541	-200,000	0,007	-0,030
-127,526	100,731	-0,095	-0,080
-126,512	6,017	0,089	0,048
-125,497	-106,267	-0,115	0,019
-124,483	800,000	-0,025	0,064
-123,468	800,000	0,004	-0,012
-122,453	424,236	0,036	0,056
-121,439	-24,996	-0,070	0,030
-120,424	145,467	-0,080	0,078
-119,410	406,412	0,018	0,028
