DTS Sentinel unit serial number:	SN410029Multiplexer serial number:	ORYXHardware model number:	OX2-SRSoftware version number:	ORYX F/W v4,00 Oryx Data Collector v3.7.2.0data status	okinstallation	B4 Nyhavnadifferential loss correction	single-endedforward channel	channel 2reverse channel	N/Adate	2023/12/16time	09:45:13forward acquisition time	300,00reverse acquisition time	0,00gamma	499,1914k internal	0,3126k external	0,3126temperature offset calibration	1,0000default loss term (dB/km)	0,3820temperature slope calibration	1,0000multiplexer offset coefficient	1,0000multiplexer slope coefficient	1,0000fibre end	0,00T internal ref (°C)	23,12T ext. ref 1 (°C)	8,81T ext. ref 2 (°C)	8,99length (m)	temperature (°C)	Stokes	anti-Stokes-744,400	800,000	-0,059	-0,130
-743,385	-7,252	-0,191	0,096
-742,371	-200,000	-0,031	-0,133
-741,356	104,130	-0,099	0,087
-740,342	105,942	0,062	0,054
-739,327	81,762	-0,147	0,118
-738,312	-200,000	-0,011	-0,141
-737,298	50,757	-0,237	0,167
-736,283	-200,000	-0,034	-0,124
-735,269	6,498	-0,047	0,026
-734,254	97,732	0,053	-0,046
-733,239	-55,308	-0,463	-0,154
-732,225	186,580	0,106	0,117
-731,210	439,604	0,048	0,078
-730,196	800,000	-0,047	0,103
-729,181	800,000	-0,040	0,126
-728,167	-166,929	0,163	-0,005
-727,152	-91,810	0,117	-0,024
-726,137	238,671	0,065	-0,081
-725,123	-79,734	0,030	-0,007
-724,108	-147,529	-0,131	0,008
-723,094	-200,000	0,018	-0,115
-722,079	-56,052	-0,151	-0,050
-721,064	208,149	-0,079	0,092
-720,050	-48,481	-0,046	-0,016
-719,035	49,499	-0,099	0,069
-718,021	80,372	-0,161	-0,129
-717,006	-128,129	0,014	0,001
-715,991	133,443	0,051	0,049
-714,977	-200,000	-0,038	-0,179
-713,962	-113,655	0,060	0,009
-712,948	-200,000	0,008	-0,056
-711,933	-72,256	-0,156	-0,043
-710,918	15,288	-0,126	0,073
-709,904	800,000	-0,028	0,059
-708,889	-200,000	0,003	-0,085
-707,875	-113,322	-0,076	-0,011
-706,860	-200,000	-0,026	0,141
-705,845	-41,791	0,013	-0,005
-704,831	-81,233	0,027	-0,007
-703,816	-200,000	-0,022	-0,084
-702,802	800,000	0,067	-0,182
-701,787	281,166	-0,029	0,038
-700,772	-7,113	-0,047	-0,023
-699,758	287,284	0,051	0,068
-698,743	-137,911	-0,038	-0,003
-697,729	-200,000	-0,011	-0,060
-696,714	-99,543	0,016	-0,003
-695,699	26,972	-0,118	-0,073
-694,685	544,659	-0,039	-0,069
-693,670	-91,340	-0,114	-0,024
-692,656	800,000	-0,055	-0,136
-691,641	-25,670	-0,126	-0,055
-690,627	-200,000	0,016	-0,090
-689,612	45,253	-0,053	-0,036
-688,597	525,484	0,056	-0,098
-687,583	-200,000	-0,023	-0,078
-686,568	-20,907	-0,102	-0,046
-685,554	59,266	0,023	-0,017
-684,539	-200,000	0,008	-0,088
-683,524	800,000	0,026	0,082
-682,510	110,587	0,093	0,083
-681,495	744,195	-0,031	-0,061
-680,481	131,094	0,121	-0,115
-679,466	-200,000	-0,016	-0,067
-678,451	800,000	-0,016	0,049
-677,437	218,164	0,071	-0,085
-676,422	-200,000	-0,006	-0,047
-675,408	503,637	-0,042	-0,072
-674,393	-200,000	0,005	-0,066
-673,378	-200,000	-0,003	-0,023
-672,364	-45,608	-0,201	-0,074
-671,349	578,666	0,051	-0,093
-670,335	-200,000	0,004	0,104
-669,320	155,348	0,049	0,050
-668,305	-200,000	-0,013	0,168
-667,291	-22,116	-0,078	-0,035
-666,276	83,372	0,045	-0,037
-665,262	172,044	-0,169	-0,181
-664,247	-102,622	-0,116	-0,020
-663,232	-200,000	0,027	0,088
-662,218	800,000	-0,010	0,020
-661,203	-200,000	-0,006	0,097
-660,189	-47,152	-0,045	-0,016
-659,174	206,339	-0,101	0,116
-658,159	18,175	-0,094	-0,055
-657,145	-132,937	-0,013	-0,001
-656,130	144,640	-0,140	-0,139
-655,116	-200,000	0,002	-0,021
-654,101	-86,453	-0,041	0,009
-653,086	276,608	-0,096	0,126
-652,072	-128,661	-0,079	0,008
-651,057	367,534	-0,106	-0,160
-650,043	-107,185	-0,175	-0,028
-649,028	286,755	0,075	-0,101
-648,014	-200,000	0,013	-0,058
-646,999	-117,284	0,018	0,002
-645,984	414,106	0,059	0,094
-644,970	-200,000	-0,001	0,051
-643,955	10,878	-0,147	0,083
-642,941	75,769	-0,112	-0,087
-641,926	261,978	-0,093	-0,120
-640,911	-67,772	0,104	0,030
-639,897	200,828	0,040	-0,046
-638,882	-200,000	0,033	0,166
-637,868	800,000	0,008	0,018
-636,853	-6,236	-0,059	-0,030
-635,838	146,695	-0,061	0,061
-634,824	800,000	0,014	-0,035
-633,809	800,000	-0,024	0,073
-632,795	-24,758	0,051	0,022
-631,780	208,818	0,078	0,090
-630,765	8,750	-0,035	0,020
-629,751	67,550	-0,088	0,067
-628,736	28,504	-0,125	-0,078
-627,722	122,535	-0,080	-0,074
-626,707	-40,306	0,087	-0,033
-625,692	-200,000	0,006	0,046
-624,678	-54,058	-0,153	-0,051
-623,663	-200,000	-0,025	0,118
-622,649	162,747	0,095	0,099
-621,634	749,977	-0,008	-0,016
-620,619	-200,000	-0,010	-0,058
-619,605	800,000	0,023	0,048
-618,590	119,304	-0,071	0,065
-617,576	45,790	0,143	0,098
-616,561	17,196	-0,095	0,056
-615,546	800,000	0,019	0,062
-614,532	438,871	-0,006	0,009
-613,517	20,128	-0,013	0,008
-612,503	-200,000	-0,006	-0,061
-611,488	-57,194	0,106	-0,035
-610,474	800,000	0,033	0,078
-609,459	-70,859	-0,091	-0,025
-608,444	53,494	-0,054	0,038
-607,430	-200,000	-0,020	0,153
-606,415	255,090	-0,068	-0,087
-605,401	-200,000	-0,002	-0,040
-604,386	-189,379	0,125	0,001
-603,371	-178,187	-0,067	-0,001
-602,357	-94,531	0,081	-0,016
-601,342	-123,399	-0,037	-0,004
-600,328	131,830	-0,125	-0,119
-599,313	-200,000	-0,022	0,145
-598,298	-100,483	0,050	-0,009
-597,284	-200,000	0,004	0,050
-596,269	-200,000	0,023	-0,079
-595,255	115,816	-0,021	0,019
-594,240	-200,000	-0,014	-0,060
-593,225	59,165	-0,044	-0,032
-592,211	-44,287	-0,117	-0,043
-591,196	-200,000	0,001	0,008
-590,182	-173,101	0,101	0,002
-589,167	-200,000	0,002	0,040
-588,152	-29,434	0,093	0,039
-587,138	186,969	0,058	0,064
-586,123	-79,258	0,042	-0,010
-585,109	82,282	-0,101	-0,081
-584,094	243,608	-0,057	-0,071
-583,079	800,000	0,043	-0,113
-582,065	18,035	0,114	-0,067
-581,050	-200,000	-0,001	-0,072
-580,036	-31,054	0,052	0,022
-579,021	-200,000	0,008	0,027
-578,006	137,978	-0,104	0,100
-576,992	-33,170	-0,091	0,037
-575,977	-79,935	-0,085	-0,021
-574,963	-200,000	0,017	0,105
-573,948	27,828	0,099	0,061
-572,934	178,101	0,091	-0,098
-571,919	-1,567	-0,189	-0,098
-570,904	756,465	-0,084	-0,169
-569,890	155,828	-0,058	-0,059
-568,875	-32,939	-0,032	0,013
-567,861	65,474	-0,097	0,073
-566,846	800,000	-0,038	0,084
-565,831	445,748	0,075	-0,122
-564,817	-200,000	-0,032	-0,120
-563,802	99,885	-0,055	0,047
-562,788	61,324	-0,043	-0,031
-561,773	800,000	0,041	0,108
-560,758	-200,000	0,003	0,089
-559,744	-104,162	0,102	-0,017
-558,729	-50,432	0,108	-0,037
-557,715	217,258	-0,071	0,083
-556,700	-200,000	0,028	-0,094
-555,685	-200,000	-0,022	-0,104
-554,671	-200,000	-0,010	-0,047
-553,656	-163,531	0,059	0,002
-552,642	202,628	0,074	0,085
-551,627	317,740	0,044	0,061
-550,612	23,656	-0,062	-0,038
-549,598	498,583	-0,040	-0,069
-548,583	422,182	-0,056	-0,089
-547,569	800,000	-0,011	-0,026
-546,554	111,483	-0,022	0,020
-545,539	-200,000	-0,001	0,096
-544,525	-200,000	-0,030	0,127
-543,510	182,702	0,055	0,060
-542,496	-170,636	-0,053	0,001
-541,481	-200,000	-0,003	0,013
-540,466	800,000	0,005	-0,014
-539,452	-200,000	-0,023	0,124
-538,437	215,196	-0,023	-0,028
-537,423	-63,957	-0,076	-0,023
-536,408	-137,601	0,152	0,012
-535,393	-200,000	0,000	-0,042
-534,379	800,000	-0,056	-0,152
-533,364	340,552	0,056	-0,081
-532,350	139,193	0,083	0,081
-531,335	800,000	0,031	-0,089
-530,321	183,833	0,028	-0,031
-529,306	-200,000	0,003	-0,030
-528,291	800,000	0,070	0,154
-527,277	-196,440	0,183	-0,001
-526,262	407,029	-0,013	-0,020
-525,248	-89,346	0,053	0,011
-524,233	-200,000	-0,011	0,050
-523,218	-72,556	-0,151	0,041
-522,204	44,504	0,024	-0,016
-521,189	-200,000	-0,005	0,081
-520,175	94,129	0,096	-0,080
-519,160	800,000	0,037	0,117
-518,145	-27,127	0,075	0,032
-517,131	-200,000	0,026	0,156
-516,116	-109,321	-0,083	0,013
-515,102	309,771	0,046	0,063
-514,087	-133,318	0,095	-0,009
-513,072	-67,062	-0,044	-0,013
-512,058	231,240	0,054	0,065
-511,043	22,995	-0,088	-0,053
-510,029	700,477	0,068	0,132
-509,014	800,000	-0,070	0,191
-507,999	36,352	-0,015	-0,009
-506,985	242,652	-0,043	-0,053
-505,970	196,454	-0,019	-0,021
-504,956	800,000	-0,037	-0,090
-503,941	-194,843	0,052	-0,000
-502,926	800,000	0,088	0,201
-501,912	800,000	0,085	0,194
-500,897	-80,771	0,100	0,024
-499,883	-142,226	-0,111	-0,008
-498,868	-200,000	0,027	0,209
-497,853	800,000	0,028	0,068
-496,839	623,395	0,064	-0,119
-495,824	199,888	0,100	0,113
-494,810	-180,138	0,055	0,001
-493,795	800,000	0,056	0,149
-492,781	317,914	-0,032	-0,045
-491,766	-106,160	-0,070	-0,012
-490,751	-200,000	0,003	0,036
-489,737	117,471	-0,027	-0,025
-488,722	277,141	-0,048	0,063
-487,708	-62,042	0,135	-0,041
-486,693	50,390	0,081	-0,056
-485,678	-200,000	-0,004	0,096
-484,664	136,260	-0,060	-0,057
-483,649	-147,123	0,099	-0,006
-482,635	-0,807	0,084	0,044
-481,620	-64,519	0,077	0,023
-480,605	-68,381	0,071	0,020
-479,591	188,889	0,054	-0,060
-478,576	-47,902	-0,170	-0,060
-477,562	-200,000	0,005	-0,056
-476,547	209,534	-0,008	0,010
-475,532	-200,000	0,038	0,211
-474,518	800,000	0,027	-0,068
-473,503	-100,352	0,022	-0,004
-472,489	-200,000	-0,012	-0,074
-471,474	800,000	0,011	0,026
-470,459	560,997	-0,042	0,076
-469,445	-147,727	-0,030	-0,002
-468,430	-200,000	0,002	-0,031
-467,416	-45,557	0,022	-0,008
-466,401	-36,363	-0,069	-0,027
-465,386	196,995	0,089	0,101
-464,372	-98,421	0,060	-0,011
-463,357	-124,510	-0,119	0,013
-462,343	634,768	-0,074	-0,139
-461,328	409,521	-0,085	-0,133
-460,313	800,000	-0,002	-0,007
-459,299	800,000	0,063	0,129
-458,284	23,794	0,058	0,035
-457,270	-73,093	-0,062	-0,017
-456,255	800,000	-0,056	0,135
-455,241	284,227	-0,044	0,058
-454,226	-200,000	0,000	0,084
-453,211	-121,798	0,049	-0,006
-452,197	-158,232	0,058	0,002
-451,182	671,239	-0,027	-0,053
-450,168	-82,750	0,056	0,013
-449,153	-200,000	-0,000	-0,121
-448,138	294,206	-0,030	0,040
-447,124	-24,026	-0,044	-0,019
-446,109	52,334	0,062	-0,044
-445,095	-21,265	0,067	0,030
-444,080	800,000	-0,026	0,081
-443,065	-66,583	-0,042	-0,012
-442,051	800,000	0,057	0,135
-441,036	-200,000	-0,007	0,054
-440,022	800,000	-0,072	-0,175
-439,007	625,225	-0,026	-0,049
-437,992	15,059	-0,108	-0,062
-436,978	-46,430	0,035	0,012
-435,963	694,944	0,059	-0,114
-434,949	-200,000	-0,021	-0,085
-433,934	18,272	-0,095	0,056
-432,919	-200,000	0,008	-0,134
-431,905	-82,883	0,100	0,024
-430,890	-6,339	-0,146	-0,073
-429,876	-120,207	-0,078	-0,010
-428,861	800,000	-0,037	-0,096
-427,846	-33,996	0,053	0,021
-426,832	-39,616	-0,169	-0,065
-425,817	-171,435	0,096	-0,002
-424,803	261,099	0,033	0,042
-423,788	85,643	-0,036	0,029
-422,773	99,770	0,069	0,059
-421,759	230,469	-0,114	-0,137
-420,744	-39,321	-0,095	0,036
-419,730	-90,780	-0,130	0,027
-418,715	-200,000	0,003	-0,067
-417,701	-85,412	0,189	-0,043
-416,686	-3,699	0,127	-0,064
-415,671	-96,947	0,068	-0,013
-414,657	-200,000	0,020	0,116
-413,642	782,793	0,064	0,130
-412,628	57,765	-0,039	-0,028
-411,613	338,738	-0,105	-0,151
-410,598	-200,000	-0,023	-0,079
-409,584	-121,703	0,076	0,009
-408,569	39,671	-0,016	0,011
-407,555	442,506	-0,028	0,045
-406,540	-20,551	-0,057	0,026
-405,525	319,154	-0,085	-0,118
-404,511	-200,000	-0,038	-0,136
-403,496	-107,130	0,072	0,012
-402,482	800,000	-0,020	-0,057
-401,467	220,315	0,114	0,135
-400,452	90,850	0,082	0,067
-399,438	800,000	0,044	0,090
-398,423	-200,000	-0,033	-0,117
-397,409	699,823	-0,039	0,076
-396,394	2,963	-0,055	0,029
-395,379	-47,227	-0,067	-0,024
-394,365	-200,000	0,022	-0,105
-393,350	-200,000	0,004	0,030
-392,336	308,649	-0,047	-0,065
-391,321	-45,975	-0,065	0,024
-390,306	-111,535	-0,071	-0,011
-389,292	158,682	-0,127	0,130
-388,277	-200,000	0,000	0,070
-387,263	-200,000	-0,026	-0,097
-386,248	58,027	0,085	-0,061
-385,233	-200,000	0,013	0,066
-384,219	256,953	0,037	0,046
-383,204	15,445	-0,052	-0,030
-382,190	-73,404	0,092	-0,024
-381,175	800,000	-0,025	-0,057
-380,160	224,799	-0,039	-0,046
-379,146	-133,846	0,068	0,006
-378,131	48,243	0,049	-0,034
-377,117	-51,272	0,100	-0,034
-376,102	273,132	-0,043	-0,056
-375,088	-35,282	-0,026	0,010
-374,073	8,354	0,083	-0,046
-373,058	298,411	0,070	-0,095
-372,044	-71,881	0,138	-0,037
-371,029	53,274	0,107	-0,075
-370,015	-200,000	0,012	0,041
-369,000	341,165	-0,029	-0,041
-367,985	-200,000	-0,051	-0,214
-366,971	184,716	0,041	-0,045
-365,956	25,562	0,038	-0,023
-364,942	465,551	0,096	0,159
-363,927	361,536	-0,040	0,059
-362,912	106,018	-0,045	0,039
-361,898	77,212	0,025	0,020
-360,883	22,082	0,128	0,076
-359,869	800,000	0,024	0,054
-358,854	484,412	0,048	-0,080
-357,839	-200,000	0,002	0,076
-356,825	-50,092	0,097	0,034
-355,810	-172,243	0,011	0,000
-354,796	-13,792	-0,059	-0,028
-353,781	128,342	-0,022	-0,020
-352,766	-96,490	-0,089	-0,017
-351,752	-112,809	0,222	-0,032
-350,737	-118,308	0,107	0,014
-349,723	-112,615	0,100	0,014
-348,708	-23,337	-0,043	0,019
-347,693	-175,623	-0,058	0,001
-346,679	317,129	0,116	-0,161
-345,664	323,259	-0,066	-0,093
-344,650	800,000	-0,050	-0,101
-343,635	800,000	0,037	-0,078
-342,620	30,156	-0,159	0,099
-341,606	-200,000	-0,021	0,111
-340,591	800,000	-0,021	-0,048
-339,577	800,000	-0,041	-0,104
-338,562	-7,102	-0,025	-0,012
-337,548	800,000	-0,039	-0,090
-336,533	192,663	-0,064	-0,071
-335,518	-200,000	0,004	-0,026
-334,504	258,617	0,044	-0,055
-333,489	-200,000	0,042	-0,144
-332,475	94,119	0,107	-0,089
-331,460	-200,000	-0,008	-0,033
-330,445	-131,422	0,273	-0,026
-329,431	-200,000	0,125	-0,000
-328,416	-49,332	0,069	0,024
-327,402	18,986	-0,063	0,037
-326,387	147,680	-0,130	0,129
-325,372	-29,274	0,094	-0,039
-324,358	-200,000	0,001	-0,005
-323,343	800,000	-0,044	0,104
-322,329	-15,800	0,066	-0,031
-321,314	-200,000	0,003	0,037
-320,299	69,165	0,098	0,074
-319,285	-53,222	0,175	0,058
-318,270	99,735	0,036	-0,030
-317,256	421,754	0,026	-0,040
-316,241	-200,000	-0,000	0,018
-315,226	-17,085	0,043	0,020
-314,212	446,611	0,059	0,096
-313,197	800,000	-0,038	0,081
-312,183	391,962	-0,045	0,069
-311,168	-120,253	-0,097	-0,012
-310,153	-127,469	0,049	-0,005
-309,139	-200,000	0,013	0,110
-308,124	44,345	0,044	0,030
-307,110	-200,000	0,007	-0,056
-306,095	234,062	-0,097	0,117
-305,080	49,946	-0,090	0,062
-304,066	67,713	-0,044	-0,033
-303,051	-50,695	-0,035	-0,012
-302,037	357,704	-0,038	-0,056
-301,022	-72,155	0,099	0,027
-300,008	49,739	0,053	0,036
-298,993	198,505	0,107	0,120
-297,978	-41,669	0,086	-0,032
-296,964	422,651	0,080	-0,126
-295,949	322,626	-0,079	-0,111
-294,935	155,982	-0,106	0,107
-293,920	-200,000	-0,017	0,061
-292,905	-200,000	-0,008	0,073
-291,891	-108,000	0,071	-0,011
-290,876	-200,000	-0,021	-0,122
-289,862	58,114	-0,117	-0,084
-288,847	475,538	-0,119	-0,197
-287,832	-138,532	-0,079	0,006
-286,818	-61,554	0,082	0,025
-285,803	800,000	-0,011	-0,036
-284,789	-200,000	-0,000	-0,018
-283,774	-200,000	0,009	0,118
-282,759	-200,000	0,000	0,009
-281,745	160,253	-0,098	-0,100
-280,730	-31,892	0,175	-0,071
-279,716	-50,744	-0,046	-0,016
-278,701	-91,433	-0,104	0,022
-277,686	6,069	0,082	0,044
-276,672	75,769	0,071	0,055
-275,657	-200,000	0,014	-0,142
-274,643	800,000	0,024	-0,064
-273,628	800,000	0,053	-0,138
-272,613	-55,327	-0,113	-0,037
-271,599	-200,000	-0,027	-0,191
-270,584	373,822	0,050	0,075
-269,570	-86,533	-0,066	0,015
-268,555	-35,012	0,068	0,027
-267,540	22,768	-0,051	-0,030
-266,526	-37,031	0,062	-0,024
-265,511	318,223	0,090	-0,125
-264,497	-65,715	-0,089	-0,026
-263,482	-200,000	-0,001	0,053
-262,467	-103,823	-0,086	0,015
-261,453	196,845	0,038	0,042
-260,438	223,914	0,019	-0,022
-259,424	77,799	-0,046	-0,036
-258,409	161,017	-0,063	-0,064
-257,395	-96,397	0,039	-0,007
-256,380	-3,043	0,048	-0,024
-255,365	-200,000	-0,006	0,075
-254,351	-16,740	0,168	0,077
-253,336	-200,000	-0,108	-0,000
-252,322	248,965	-0,137	0,169
-251,307	26,307	0,013	-0,008
-250,292	-64,244	0,058	-0,017
-249,278	-4,010	-0,059	0,030
-248,263	-37,161	0,075	0,029
-247,249	-106,975	0,070	-0,011
-246,234	771,159	-0,052	-0,103
-245,219	404,708	-0,030	0,046
-244,205	-200,000	-0,009	0,040
-243,190	79,448	-0,029	0,022
-242,176	551,072	-0,042	-0,074
-241,161	-200,000	-0,001	0,043
-240,146	-57,492	-0,102	-0,032
-239,132	-56,058	-0,084	0,027
-238,117	261,767	0,038	0,049
-237,103	-39,352	-0,100	-0,038
-236,088	-200,000	-0,006	-0,137
-235,073	800,000	-0,017	0,040
-234,059	-200,000	0,022	0,161
-233,044	-200,000	0,006	-0,056
-232,030	-95,931	-0,113	0,022
-231,015	55,318	-0,055	0,039
-230,000	236,925	-0,057	-0,069
-228,986	31,158	0,034	0,021
-227,971	-200,000	0,016	0,069
-226,957	-48,695	-0,112	-0,039
-225,942	-200,000	0,000	0,045
-224,927	800,000	0,017	0,045
-223,913	14,062	-0,059	-0,033
-222,898	-200,000	-0,001	-0,005
-221,884	-38,612	-0,046	0,018
-220,869	410,399	0,072	0,111
-219,855	-200,000	-0,004	0,115
-218,840	1,657	-0,128	0,067
-217,825	-200,000	0,001	-0,108
-216,811	384,430	0,105	-0,159
-215,796	-54,100	-0,061	-0,020
-214,782	199,477	0,071	-0,079
-213,767	84,008	0,083	0,066
-212,752	313,668	-0,052	0,072
-211,738	113,723	0,048	0,043
-210,723	214,882	-0,073	0,084
-209,709	-89,226	-0,125	-0,027
-208,694	65,949	0,023	-0,017
-207,679	-94,332	-0,015	-0,003
-206,665	349,690	-0,108	0,156
-205,650	563,645	0,095	0,169
-204,636	21,518	0,043	0,025
-203,621	-200,000	-0,003	0,064
-202,606	543,403	-0,060	0,105
-201,592	-115,289	-0,081	-0,011
-200,577	-77,766	-0,169	0,042
-199,563	100,440	-0,024	0,021
-198,548	-91,467	0,108	0,022
-197,533	-200,000	0,014	0,047
-196,519	-200,000	-0,010	0,090
-195,504	240,682	-0,065	-0,079
-194,490	800,000	-0,077	-0,158
-193,475	152,526	-0,072	0,072
-192,460	-112,574	-0,036	0,005
-191,446	48,271	0,033	0,022
-190,431	-65,521	0,086	-0,025
-189,417	72,494	-0,067	0,051
-188,402	-200,000	-0,040	0,141
-187,387	-58,207	-0,080	-0,025
-186,373	-94,467	-0,140	-0,028
-185,358	69,523	0,079	-0,059
-184,344	-200,000	0,014	0,056
-183,329	800,000	0,028	-0,059
-182,315	11,897	0,046	-0,026
-181,300	388,785	0,047	-0,071
-180,285	264,675	0,035	-0,044
-179,271	-200,000	0,025	-0,099
-178,256	389,473	-0,031	-0,047
-177,242	490,452	-0,036	-0,061
-176,227	-58,406	0,136	-0,043
-175,212	712,224	0,031	0,059
-174,198	-180,609	-0,028	0,000
-173,183	52,683	-0,084	-0,059
-172,169	459,150	0,022	-0,036
-171,154	164,457	-0,037	0,038
-170,139	-200,000	-0,003	0,042
-169,125	-0,323	-0,035	-0,018
-168,110	376,574	-0,036	-0,053
-167,096	800,000	-0,014	-0,040
-166,081	-200,000	0,020	-0,113
-165,066	800,000	0,046	-0,134
-164,052	-200,000	0,049	-0,170
-163,037	137,561	-0,070	-0,067
-162,023	-200,000	-0,009	-0,055
-161,008	-134,052	-0,046	-0,004
-159,993	131,230	0,036	0,034
-158,979	28,487	0,037	-0,023
-157,964	173,490	0,037	0,038
-156,950	-200,000	0,009	0,071
-155,935	-105,311	0,051	-0,008
-154,920	-84,748	-0,101	-0,023
-153,906	-200,000	0,004	0,104
-152,891	-74,092	-0,029	-0,008
-151,877	233,706	0,063	0,076
-150,862	-7,543	0,015	-0,008
-149,847	-200,000	-0,032	0,158
-148,833	359,352	0,029	-0,042
-147,818	-61,215	-0,074	0,023
-146,804	-200,000	-0,002	-0,101
-145,789	-200,000	0,039	0,175
-144,775	541,816	-0,042	-0,073
-143,760	73,838	-0,010	-0,008
-142,745	24,439	0,063	-0,038
-141,731	-200,000	-0,027	0,145
-140,716	-200,000	0,003	0,037
-139,702	800,000	0,051	0,132
-138,687	800,000	-0,029	0,079
-137,672	-15,282	-0,047	0,022
-136,658	-58,243	-0,062	0,019
-135,643	800,000	-0,037	0,107
-134,629	-99,123	0,036	0,007
-133,614	-200,000	-0,018	0,134
-132,599	799,362	0,039	-0,079
-131,585	-200,000	-0,030	0,173
-130,570	108,150	-0,053	0,046
-129,556	124,894	-0,109	-0,100
-128,541	266,707	-0,089	-0,114
-127,526	-23,726	-0,089	0,039
-126,512	677,364	-0,040	0,076
-125,497	94,280	0,145	0,119
-124,483	-200,000	-0,018	0,089
-123,468	-200,000	0,003	0,110
-122,453	-103,461	-0,053	-0,009
-121,439	-200,000	0,036	-0,175
-120,424	-200,000	-0,033	0,168
