DTS Sentinel unit serial number:	SN410029Multiplexer serial number:	ORYXHardware model number:	OX2-SRSoftware version number:	ORYX F/W v4,00 Oryx Data Collector v3.7.2.0data status	okinstallation	B4 Nyhavnadifferential loss correction	single-endedforward channel	channel 2reverse channel	N/Adate	2023/12/19time	06:40:13forward acquisition time	300,00reverse acquisition time	0,00gamma	499,1914k internal	0,3126k external	0,3126temperature offset calibration	1,0000default loss term (dB/km)	0,3820temperature slope calibration	1,0000multiplexer offset coefficient	1,0000multiplexer slope coefficient	1,0000fibre end	0,00T internal ref (°C)	21,19T ext. ref 1 (°C)	6,53T ext. ref 2 (°C)	6,68length (m)	temperature (°C)	Stokes	anti-Stokes-744,400	-200,000	-0,045	-0,149
-743,385	89,535	-0,155	0,128
-742,371	-56,324	0,070	0,023
-741,356	509,141	-0,081	0,140
-740,342	213,011	-0,056	0,066
-739,327	-28,843	-0,190	0,081
-738,312	-200,000	0,004	-0,021
-737,298	-12,695	-0,278	0,135
-736,283	-200,000	0,026	-0,111
-735,269	120,196	-0,135	0,125
-734,254	4,361	-0,100	-0,054
-733,239	-164,151	-0,389	0,013
-732,225	-118,695	0,091	0,012
-731,210	-31,167	-0,086	0,036
-730,196	12,875	-0,065	-0,037
-729,181	557,007	-0,041	-0,074
-728,167	-119,198	0,127	-0,016
-727,152	-27,125	0,101	-0,044
-726,137	-200,000	0,007	-0,043
-725,123	-0,875	-0,134	-0,071
-724,108	-200,000	-0,004	0,022
-723,094	-200,000	0,018	-0,077
-722,079	8,394	-0,124	-0,069
-721,064	-88,020	0,085	-0,019
-720,050	635,774	-0,028	-0,054
-719,035	670,619	-0,027	0,053
-718,021	-200,000	-0,035	-0,151
-717,006	800,000	0,037	-0,111
-715,991	800,000	-0,031	-0,079
-714,977	69,172	-0,068	-0,052
-713,962	749,759	-0,033	0,066
-712,948	629,661	-0,072	0,137
-711,933	102,777	-0,056	0,049
-710,918	-200,000	-0,003	0,095
-709,904	-200,000	0,006	-0,120
-708,889	762,436	-0,074	-0,150
-707,875	-87,915	-0,110	-0,024
-706,860	26,101	-0,028	0,017
-705,845	-83,722	0,033	0,008
-704,831	192,125	0,071	-0,080
-703,816	338,324	-0,055	-0,080
-702,802	83,866	-0,049	-0,040
-701,787	79,382	-0,052	-0,042
-700,772	-65,761	-0,097	-0,029
-699,758	-11,694	-0,109	-0,053
-698,743	-171,834	0,129	0,003
-697,729	360,651	0,026	-0,039
-696,714	36,100	0,085	-0,055
-695,699	800,000	0,026	-0,071
-694,685	-42,662	-0,054	-0,020
-693,670	-200,000	-0,016	-0,095
-692,656	84,633	-0,070	0,057
-691,641	-200,000	0,007	-0,119
-690,627	-50,023	0,005	0,002
-689,612	85,979	0,026	0,021
-688,597	800,000	0,033	0,084
-687,583	-42,314	0,022	-0,008
-686,568	392,902	-0,054	0,084
-685,554	395,133	-0,064	0,099
-684,539	101,100	0,145	-0,125
-683,524	123,137	-0,130	0,121
-682,510	-200,000	0,027	0,101
-681,495	800,000	-0,061	-0,154
-680,481	-200,000	0,007	-0,037
-679,466	-50,997	-0,101	-0,035
-678,451	-141,622	0,099	-0,007
-677,437	-200,000	0,002	-0,074
-676,422	315,155	-0,073	-0,103
-675,408	-200,000	0,024	0,134
-674,393	-35,500	0,117	0,047
-673,378	335,410	0,094	-0,135
-672,364	-64,651	-0,101	-0,030
-671,349	800,000	-0,039	-0,089
-670,335	-94,913	0,098	-0,020
-669,320	93,488	-0,064	-0,054
-668,305	511,462	-0,031	-0,053
-667,291	6,118	-0,144	0,079
-666,276	-79,543	0,097	0,024
-665,262	-71,113	-0,085	-0,024
-664,247	-200,000	-0,032	-0,216
-663,232	-22,552	0,043	0,019
-662,218	-16,035	0,058	0,027
-661,203	-200,000	-0,003	-0,070
-660,189	-88,923	0,121	0,026
-659,174	467,612	-0,022	-0,036
-658,159	110,229	-0,151	-0,134
-657,145	-200,000	-0,003	0,017
-656,130	-69,845	0,027	0,008
-655,116	800,000	0,014	-0,039
-654,101	-200,000	0,027	0,164
-653,086	-116,963	-0,090	-0,012
-652,072	800,000	-0,027	-0,079
-651,057	-200,000	-0,014	-0,098
-650,043	-200,000	-0,020	0,000
-649,028	509,766	0,038	-0,066
-648,014	-200,000	-0,005	0,026
-646,999	-101,981	-0,037	-0,006
-645,984	-132,805	-0,176	0,016
-644,970	-33,458	0,125	-0,051
-643,955	-171,858	-0,080	-0,002
-642,941	-47,231	-0,173	-0,062
-641,926	675,235	0,097	-0,188
-640,911	364,333	0,023	0,035
-639,897	478,187	0,032	-0,054
-638,882	35,188	0,108	-0,070
-637,868	-200,000	-0,004	-0,067
-636,853	65,677	-0,031	-0,023
-635,838	-96,795	-0,064	0,012
-634,824	-28,807	0,051	0,022
-633,809	-44,216	-0,088	0,033
-632,795	-26,689	0,052	0,022
-631,780	60,028	-0,033	0,024
-630,765	-51,100	0,193	0,067
-629,751	800,000	-0,021	-0,068
-628,736	-200,000	-0,047	-0,165
-627,722	-200,000	-0,026	-0,162
-626,707	132,947	0,032	0,030
-625,692	278,525	0,090	0,119
-624,678	12,842	-0,072	0,041
-623,663	132,145	0,097	0,092
-622,649	-200,000	-0,002	0,158
-621,634	158,072	0,038	-0,039
-620,619	800,000	-0,008	0,017
-619,605	800,000	0,043	0,102
-618,590	800,000	0,077	0,161
-617,576	148,925	0,106	0,107
-616,561	-32,559	-0,152	0,063
-615,546	-200,000	0,005	-0,039
-614,532	-18,801	-0,113	-0,052
-613,517	-57,878	-0,020	-0,006
-612,503	220,449	-0,020	-0,023
-611,488	138,403	0,028	-0,027
-610,474	339,422	0,033	0,047
-609,459	-4,528	0,011	0,006
-608,444	-200,000	0,015	-0,077
-607,430	28,533	-0,076	0,048
-606,415	-200,000	-0,011	0,090
-605,401	659,890	-0,016	0,030
-604,386	800,000	-0,034	-0,104
-603,371	-18,286	0,079	-0,036
-602,357	613,698	-0,042	0,078
-601,342	140,131	0,090	-0,088
-600,328	241,569	-0,057	-0,071
-599,313	-12,114	0,048	0,023
-598,298	-93,085	0,048	-0,010
-597,284	-7,054	0,037	-0,019
-596,269	-145,132	0,047	0,003
-595,255	58,430	-0,138	-0,100
-594,240	48,040	0,052	0,036
-593,225	-106,439	-0,099	-0,016
-592,211	-46,990	-0,094	-0,034
-591,196	800,000	0,025	0,065
-590,182	38,390	0,039	0,026
-589,167	-200,000	-0,011	0,132
-588,152	800,000	-0,028	0,067
-587,138	429,210	-0,074	0,119
-586,123	197,553	-0,076	-0,086
-585,109	-18,834	-0,040	0,019
-584,094	-81,842	-0,092	-0,022
-583,079	-151,258	-0,102	-0,006
-582,065	800,000	0,019	0,049
-581,050	800,000	-0,018	0,047
-580,036	-86,632	0,100	0,023
-579,021	60,445	-0,130	-0,095
-578,006	8,435	-0,020	0,011
-576,992	515,389	-0,013	-0,023
-575,977	-200,000	-0,019	-0,108
-574,963	-200,000	-0,017	0,091
-573,948	101,945	-0,127	-0,110
-572,934	709,454	-0,044	-0,086
-571,919	-69,608	-0,158	-0,044
-570,904	-200,000	-0,000	-0,169
-569,890	-200,000	-0,014	-0,121
-568,875	402,679	0,069	-0,108
-567,861	-200,000	0,008	0,105
-566,846	-200,000	-0,013	0,078
-565,831	-53,663	-0,050	-0,017
-564,817	-200,000	0,000	-0,024
-563,802	197,399	-0,042	-0,047
-562,788	104,299	0,037	-0,032
-561,773	40,830	0,128	-0,085
-560,758	-200,000	-0,008	0,179
-559,744	800,000	0,023	0,060
-558,729	-98,621	-0,018	-0,003
-557,715	125,165	-0,053	-0,050
-556,700	197,449	-0,224	-0,254
-555,685	-200,000	0,013	0,058
-554,671	408,831	-0,059	-0,093
-553,656	-200,000	0,003	0,038
-552,642	-200,000	-0,007	-0,103
-551,627	-200,000	-0,010	0,081
-550,612	-200,000	-0,008	-0,096
-549,598	-75,025	-0,097	-0,025
-548,583	-85,305	0,079	0,018
-547,569	544,044	-0,036	0,065
-546,554	152,348	0,133	0,134
-545,539	379,092	-0,074	0,112
-544,525	207,171	-0,072	0,083
-543,510	-127,541	0,114	-0,012
-542,496	-71,772	-0,127	-0,035
-541,481	-127,241	-0,123	-0,013
-540,466	91,563	-0,073	0,061
-539,452	800,000	-0,032	0,078
-538,437	55,834	-0,074	0,053
-537,423	241,821	0,070	-0,087
-536,408	800,000	0,041	-0,107
-535,393	-7,494	-0,101	-0,050
-534,379	72,578	0,112	-0,086
-533,364	18,240	-0,140	-0,082
-532,350	-200,000	0,003	-0,019
-531,335	17,519	0,099	0,058
-530,321	80,496	0,044	-0,035
-529,306	-200,000	0,025	-0,089
-528,291	-200,000	0,004	0,098
-527,277	284,698	0,029	-0,039
-526,262	-14,545	0,121	-0,057
-525,248	800,000	-0,016	0,042
-524,233	800,000	0,078	0,167
-523,218	51,291	0,129	-0,090
-522,204	800,000	0,047	0,118
-521,189	21,443	-0,150	-0,090
-520,175	-103,152	0,056	0,010
-519,160	74,253	0,080	-0,062
-518,145	-107,067	0,040	-0,006
-517,131	-200,000	0,014	-0,050
-516,116	-200,000	-0,002	-0,077
-515,102	-200,000	-0,011	-0,103
-514,087	-150,314	-0,019	-0,001
-513,072	-200,000	-0,007	0,103
-512,058	-200,000	0,004	0,018
-511,043	290,439	0,087	-0,117
-510,029	76,642	-0,030	-0,023
-509,014	422,508	-0,060	0,096
-507,999	-200,000	-0,017	0,092
-506,985	-114,960	0,064	0,009
-505,970	108,990	-0,065	-0,057
-504,956	800,000	-0,035	-0,113
-503,941	-170,394	0,148	-0,004
-502,926	-82,785	0,076	0,018
-501,912	-124,889	0,159	0,018
-500,897	-50,414	-0,092	0,032
-499,883	-57,289	-0,104	0,033
-498,868	74,943	-0,087	0,067
-497,853	800,000	0,052	0,156
-496,839	-200,000	-0,026	-0,124
-495,824	36,669	-0,034	0,022
-494,810	-71,558	0,069	-0,019
-493,795	-35,924	-0,054	-0,021
-492,781	-82,271	0,113	0,027
-491,766	294,969	-0,045	-0,061
-490,751	-129,263	-0,048	0,005
-489,737	800,000	-0,041	-0,104
-488,722	31,643	0,090	0,057
-487,708	-51,187	-0,095	-0,032
-486,693	-58,431	0,165	0,052
-485,678	162,156	0,126	0,130
-484,664	-200,000	0,007	0,061
-483,649	-200,000	0,028	-0,098
-482,635	-112,172	-0,120	0,018
-481,620	41,746	0,105	-0,070
-480,605	-200,000	-0,014	-0,135
-479,591	-64,591	-0,093	-0,028
-478,576	580,458	-0,036	-0,065
-477,562	250,623	0,041	0,051
-476,547	316,140	-0,070	-0,098
-475,532	-200,000	0,000	-0,110
-474,518	-200,000	-0,010	-0,039
-473,503	-153,191	0,161	-0,008
-472,489	157,524	0,034	0,034
-471,474	596,336	0,027	-0,050
-470,459	-200,000	-0,046	-0,157
-469,445	-76,298	0,123	0,032
-468,430	95,309	-0,073	0,061
-467,416	303,204	0,052	0,071
-466,401	-200,000	0,016	0,061
-465,386	-32,880	0,134	0,055
-464,372	15,067	-0,038	-0,022
-463,357	-34,695	-0,075	0,030
-462,343	-200,000	0,005	-0,078
-461,328	6,709	-0,097	-0,053
-460,313	-57,675	0,078	0,025
-459,299	-26,391	-0,015	0,007
-458,284	40,153	0,080	-0,053
-457,270	-200,000	-0,019	0,099
-456,255	-46,915	-0,154	0,055
-455,241	17,632	-0,064	-0,037
-454,226	123,853	-0,150	-0,138
-453,211	-200,000	0,019	0,068
-452,197	89,709	-0,045	0,037
-451,182	-200,000	0,001	-0,019
-450,168	800,000	0,034	0,078
-449,153	-200,000	-0,003	-0,126
-448,138	-140,571	0,056	-0,004
-447,124	506,818	-0,014	0,024
-446,109	-11,785	-0,074	0,036
-445,095	422,217	0,038	0,060
-444,080	-2,486	0,111	0,057
-443,065	-13,490	-0,175	-0,083
-442,051	62,381	0,173	-0,127
-441,036	72,292	-0,097	-0,074
-440,022	-200,000	-0,007	-0,048
-439,007	800,000	-0,036	-0,104
-437,992	-200,000	0,007	0,087
-436,978	800,000	0,038	-0,099
-435,963	333,819	-0,031	-0,044
-434,949	84,835	-0,081	-0,065
-433,934	800,000	-0,044	0,132
-432,919	-11,415	0,111	-0,054
-431,905	629,834	-0,046	-0,086
-430,890	-200,000	-0,041	-0,184
-429,876	-133,207	0,157	-0,014
-428,861	221,639	0,116	0,137
-427,846	97,721	0,067	-0,057
-426,832	-40,326	-0,090	-0,034
-425,817	-200,000	0,009	-0,095
-424,803	-74,209	-0,064	-0,017
-423,788	800,000	0,018	0,048
-422,773	-152,281	0,144	-0,008
-421,759	800,000	0,017	0,043
-420,744	-143,638	-0,039	-0,003
-419,730	675,831	-0,025	-0,049
-418,715	-200,000	0,002	0,030
-417,701	-118,193	-0,077	-0,010
-416,686	318,097	0,106	0,147
-415,671	-200,000	0,001	-0,055
-414,657	-200,000	-0,017	-0,153
-413,642	67,446	0,033	0,025
-412,628	-200,000	0,004	0,064
-411,613	92,459	0,103	-0,085
-410,598	281,578	-0,057	-0,075
-409,584	38,292	0,033	0,021
-408,569	182,483	0,057	-0,062
-407,555	361,525	0,097	0,143
-406,540	-200,000	0,019	0,074
-405,525	297,962	-0,054	0,072
-404,511	-75,280	-0,115	0,030
-403,496	436,644	0,051	0,082
-402,482	-99,839	-0,131	-0,024
-401,467	-97,754	0,083	-0,016
-400,452	-200,000	0,002	0,030
-399,438	-96,464	-0,123	0,024
-398,423	-88,518	-0,071	-0,016
-397,409	349,419	0,028	-0,041
-396,394	-200,000	-0,006	0,073
-395,379	-26,824	0,051	0,022
-394,365	-200,000	0,002	0,135
-393,350	245,956	0,092	0,114
-392,336	-135,384	0,137	-0,012
-391,321	-84,708	-0,160	-0,037
-390,306	-130,600	-0,085	0,008
-389,292	-111,982	-0,082	0,012
-388,277	-129,300	-0,100	0,010
-387,263	-27,897	0,027	0,011
-386,248	752,842	0,033	0,065
-385,233	171,143	-0,031	0,032
-384,219	-200,000	-0,007	-0,057
-383,204	800,000	0,058	-0,141
-382,190	22,214	-0,103	-0,062
-381,175	800,000	-0,012	0,034
-380,160	461,128	0,016	-0,026
-379,146	-39,828	0,070	0,027
-378,131	75,749	0,080	0,062
-377,117	135,909	-0,046	0,044
-376,102	553,017	-0,051	-0,090
-375,088	-200,000	-0,036	-0,161
-374,073	377,369	0,161	0,242
-373,058	522,061	-0,019	0,033
-372,044	-200,000	-0,000	0,136
-371,029	-65,273	0,057	0,017
-370,015	-200,000	-0,001	-0,026
-369,000	155,317	0,036	-0,037
-367,985	-200,000	-0,009	-0,088
-366,971	112,654	0,115	-0,102
-365,956	-101,617	-0,027	0,005
-364,942	21,060	0,077	-0,046
-363,927	685,827	-0,015	0,029
-362,912	584,707	-0,043	0,078
-361,898	-200,000	-0,001	-0,103
-360,883	800,000	-0,095	-0,239
-359,869	745,373	0,025	-0,050
-358,854	795,346	-0,039	0,079
-357,839	-82,148	0,128	0,030
-356,825	-127,371	0,134	0,014
-355,810	-99,246	0,022	-0,004
-354,796	-200,000	0,003	-0,029
-353,781	195,504	-0,119	-0,133
-352,766	383,016	-0,034	-0,052
-351,752	-77,776	-0,108	-0,027
-350,737	800,000	-0,051	0,117
-349,723	-81,274	0,205	0,049
-348,708	519,403	0,011	0,019
-347,693	370,580	0,064	-0,095
-346,679	-108,274	-0,021	-0,003
-345,664	-104,997	-0,174	-0,029
-344,650	800,000	0,019	0,060
-343,635	15,220	-0,136	-0,078
-342,620	-31,179	0,097	0,040
-341,606	-36,583	-0,062	0,024
-340,591	198,388	-0,128	-0,143
-339,577	-200,000	0,018	-0,095
-338,562	364,105	-0,045	-0,066
-337,548	109,427	0,010	0,009
-336,533	-200,000	0,041	-0,155
-335,518	358,248	-0,055	-0,080
-334,504	800,000	0,024	0,059
-333,489	-200,000	0,042	0,155
-332,475	800,000	0,047	0,136
-331,460	205,032	0,066	0,076
-330,445	438,635	-0,078	0,124
-329,431	24,628	-0,033	0,020
-328,416	146,294	0,064	0,063
-327,402	-200,000	0,031	0,176
-326,387	-200,000	0,012	-0,092
-325,372	800,000	0,017	-0,036
-324,358	-103,283	-0,093	-0,016
-323,343	800,000	0,042	-0,092
-322,329	-7,425	-0,128	0,063
-321,314	-200,000	-0,001	0,022
-320,299	-152,244	0,050	-0,003
-319,285	-56,096	0,011	-0,004
-318,270	800,000	0,014	0,028
-317,256	-29,027	0,019	0,008
-316,241	-200,000	-0,023	0,080
-315,226	14,581	0,035	0,020
-314,212	800,000	-0,034	0,079
-313,197	28,939	0,130	0,080
-312,183	216,544	0,066	0,078
-311,168	-69,043	0,117	0,033
-310,153	-29,127	-0,072	-0,030
-309,139	-128,595	-0,076	0,008
-308,124	-36,040	-0,153	0,060
-307,110	37,326	0,123	0,080
-306,095	39,226	0,149	0,098
-305,080	261,342	0,097	-0,124
-304,066	201,190	-0,058	-0,065
-303,051	-200,000	-0,010	-0,048
-302,037	-200,000	0,041	0,193
-301,022	-112,061	0,074	-0,011
-300,008	474,427	0,048	0,079
-298,993	-182,336	-0,084	0,001
-297,978	110,422	-0,064	0,056
-296,964	469,447	0,035	-0,058
-295,949	261,434	0,011	-0,013
-294,935	224,378	-0,096	0,114
-293,920	47,568	-0,039	0,026
-292,905	-200,000	0,001	-0,019
-291,891	-76,227	-0,130	0,033
-290,876	800,000	0,040	0,083
-289,862	800,000	-0,025	-0,060
-288,847	-200,000	0,005	-0,077
-287,832	-200,000	-0,005	-0,017
-286,818	77,614	0,051	-0,040
-285,803	800,000	-0,031	-0,072
-284,789	-61,610	0,038	0,011
-283,774	-111,938	0,166	-0,024
-282,759	267,470	-0,078	0,100
-281,745	53,787	-0,088	0,062
-280,730	-85,278	-0,076	-0,017
-279,716	32,185	-0,021	0,013
-278,701	203,275	-0,006	-0,007
-277,686	-90,591	0,140	0,029
-276,672	198,858	0,099	0,111
-275,657	718,799	0,063	0,122
-274,643	-152,187	-0,017	0,001
-273,628	49,893	-0,024	0,017
-272,613	171,722	0,069	0,073
-271,599	-200,000	0,000	0,026
-270,584	-200,000	-0,037	0,118
-269,570	304,913	0,042	0,057
-268,555	-46,530	0,051	-0,018
-267,540	-48,170	-0,156	0,055
-266,526	-200,000	-0,017	-0,076
-265,511	-200,000	-0,040	-0,163
-264,497	-200,000	0,008	0,063
-263,482	-50,008	0,137	-0,047
-262,467	-200,000	0,030	0,173
-261,453	-200,000	0,012	0,169
-260,438	74,717	0,048	-0,037
-259,424	-10,921	0,072	0,035
-258,409	800,000	0,021	-0,045
-257,395	-90,439	0,123	-0,026
-256,380	-91,206	-0,018	0,004
-255,365	-200,000	-0,010	0,111
-254,351	210,425	0,053	0,061
-253,336	-200,000	-0,002	0,025
-252,322	585,516	0,037	-0,067
-251,307	95,610	0,032	0,027
-250,292	-114,088	0,082	-0,012
-249,278	-97,698	0,157	-0,029
-248,263	-200,000	0,003	0,047
-247,249	-200,000	0,012	0,173
-246,234	800,000	-0,030	0,064
-245,219	800,000	-0,046	0,114
-244,205	246,242	-0,050	0,062
-243,190	107,838	0,045	0,039
-242,176	211,351	-0,063	-0,072
-241,161	-14,269	0,015	0,007
-240,146	0,725	-0,129	-0,067
-239,132	-24,973	-0,084	0,036
-238,117	24,732	0,139	0,084
-237,103	189,166	-0,045	-0,049
-236,088	-200,000	-0,007	-0,027
-235,073	-200,000	0,012	0,045
-234,059	111,511	-0,076	0,067
-233,044	-200,000	-0,015	-0,121
-232,030	-200,000	-0,007	0,117
-231,015	707,890	0,038	0,074
-230,000	253,357	0,059	-0,074
-228,986	232,114	0,103	-0,124
-227,971	359,057	-0,060	-0,087
-226,957	-89,842	-0,092	0,019
-225,942	-94,386	0,121	-0,024
-224,927	-53,420	-0,022	0,007
-223,913	-22,955	-0,160	0,070
-222,898	-200,000	-0,004	0,091
-221,884	75,321	0,065	-0,050
-220,869	-18,360	-0,126	0,057
-219,855	284,813	-0,027	0,035
-218,840	-95,338	0,079	-0,015
-217,825	-81,843	-0,043	-0,010
-216,811	-58,226	0,103	0,033
-215,796	-75,577	-0,044	0,011
-214,782	110,215	0,177	-0,155
-213,767	492,302	0,057	0,096
-212,752	-200,000	-0,011	-0,042
-211,738	110,935	0,119	0,104
-210,723	174,810	0,016	-0,017
-209,709	191,330	0,066	-0,073
-208,694	-200,000	-0,027	-0,126
-207,679	-55,467	-0,066	0,022
-206,665	-60,415	0,123	-0,038
-205,650	131,690	0,032	0,030
-204,636	800,000	0,009	-0,025
-203,621	800,000	0,053	-0,119
-202,606	800,000	-0,034	0,089
-201,592	-14,804	-0,031	0,015
-200,577	366,983	-0,080	-0,118
-199,563	-160,177	-0,032	-0,001
-198,548	-200,000	0,007	-0,050
-197,533	800,000	0,046	0,137
-196,519	653,051	0,032	0,059
-195,504	-95,632	-0,116	0,022
-194,490	3,315	-0,100	-0,053
-193,475	515,364	-0,040	-0,068
-192,460	-28,350	0,060	-0,025
-191,446	21,179	-0,038	0,022
-190,431	80,854	0,055	-0,043
-189,417	-200,000	0,003	0,068
-188,402	391,862	-0,095	0,145
-187,387	-66,600	-0,140	0,040
-186,373	225,770	0,022	-0,026
-185,358	-200,000	0,028	-0,185
-184,344	152,008	0,105	0,104
-183,329	-132,210	0,044	0,004
-182,315	374,508	0,061	-0,091
-181,300	375,489	0,047	-0,070
-180,285	-10,751	-0,114	-0,055
-179,271	111,721	0,040	-0,035
-178,256	-200,000	-0,001	-0,098
-177,242	800,000	-0,057	-0,172
-176,227	371,587	0,039	0,058
-175,212	-81,933	-0,144	0,034
-174,198	-91,942	-0,081	0,017
-173,183	-50,091	0,027	-0,009
-172,169	-15,556	0,137	0,063
-171,154	-150,713	-0,021	-0,001
-170,139	-15,038	0,116	-0,054
-169,125	575,306	-0,016	0,029
-168,110	442,990	-0,025	0,040
-167,096	297,524	0,052	0,070
-166,081	227,017	-0,092	0,110
-165,066	-139,410	-0,108	-0,008
-164,052	558,231	-0,043	-0,076
-163,037	376,546	-0,077	0,115
-162,023	800,000	0,014	0,038
-161,008	-129,686	-0,148	-0,015
-159,993	-200,000	-0,023	-0,097
-158,979	-111,802	0,191	0,028
-157,964	-71,460	-0,109	0,029
-156,950	77,006	0,028	0,022
-155,935	-22,437	-0,119	-0,052
-154,920	779,617	0,029	0,058
-153,906	-62,666	-0,030	-0,009
-152,891	431,958	0,087	-0,138
-151,877	-35,553	0,081	0,032
-150,862	-45,632	-0,050	0,018
-149,847	-200,000	0,025	-0,168
-148,833	376,969	0,056	-0,084
-147,818	-200,000	-0,042	0,140
-146,804	-200,000	-0,001	0,048
-145,789	463,060	-0,063	0,102
-144,775	-34,508	-0,097	-0,039
-143,760	800,000	-0,054	-0,126
-142,745	-69,655	0,057	0,016
-141,731	595,092	-0,080	-0,145
-140,716	-54,361	-0,076	0,025
-139,702	-200,000	-0,013	0,064
-138,687	524,414	-0,068	0,118
-137,672	-200,000	0,002	-0,024
-136,658	-200,000	-0,045	-0,161
-135,643	800,000	-0,048	-0,136
-134,629	-198,483	-0,063	0,000
-133,614	-29,870	0,069	0,028
-132,599	-66,345	-0,018	0,005
-131,585	7,774	-0,110	-0,060
-130,570	111,121	0,039	0,034
-129,556	-127,413	-0,083	0,009
-128,541	153,949	0,087	-0,087
-127,526	56,413	0,108	0,076
-126,512	800,000	0,046	-0,113
-125,497	315,551	0,047	0,065
-124,483	-101,771	0,120	-0,021
-123,468	84,877	0,101	0,081
-122,453	98,232	-0,047	-0,040
-121,439	620,692	0,058	-0,107
-120,424	18,346	0,098	-0,057
-119,410	-200,000	-0,003	0,051
