DTS Sentinel unit serial number:	SN410029Multiplexer serial number:	ORYXHardware model number:	OX2-SRSoftware version number:	ORYX F/W v4,00 Oryx Data Collector v3.7.2.0data status	okinstallation	B4 Nyhavnadifferential loss correction	single-endedforward channel	channel 2reverse channel	N/Adate	2023/12/16time	06:35:13forward acquisition time	300,00reverse acquisition time	0,00gamma	499,1914k internal	0,3127k external	0,3127temperature offset calibration	1,0000default loss term (dB/km)	0,3820temperature slope calibration	1,0000multiplexer offset coefficient	1,0000multiplexer slope coefficient	1,0000fibre end	0,00T internal ref (°C)	22,30T ext. ref 1 (°C)	7,56T ext. ref 2 (°C)	7,73length (m)	temperature (°C)	Stokes	anti-Stokes-744,400	800,000	0,033	-0,106
-743,385	115,931	-0,128	0,117
-742,371	247,249	0,067	0,085
-741,356	-102,626	-0,304	0,053
-740,342	-200,000	0,007	-0,132
-739,327	-169,355	-0,270	0,007
-738,312	-109,256	0,052	-0,008
-737,298	-5,548	-0,324	0,165
-736,283	-200,000	0,004	0,017
-735,269	-12,019	-0,229	0,111
-734,254	-200,000	0,002	0,063
-733,239	-57,379	-0,446	-0,145
-732,225	800,000	0,041	-0,120
-731,210	-200,000	-0,007	-0,034
-730,196	247,112	-0,062	0,078
-729,181	-200,000	-0,004	0,025
-728,167	-200,000	0,028	-0,109
-727,152	322,372	0,028	0,040
-726,137	-200,000	-0,006	-0,039
-725,123	-13,333	-0,021	-0,010
-724,108	269,801	0,020	0,026
-723,094	800,000	-0,035	-0,083
-722,079	53,454	0,077	-0,055
-721,064	-198,946	-0,192	-0,001
-720,050	67,365	-0,057	-0,043
-719,035	-43,657	-0,082	0,031
-718,021	-174,898	0,030	-0,001
-717,006	-132,061	-0,138	0,013
-715,991	-106,429	-0,201	-0,033
-714,977	-59,353	-0,113	0,036
-713,962	-200,000	-0,026	-0,129
-712,948	800,000	-0,050	0,122
-711,933	800,000	0,043	-0,119
-710,918	-127,131	-0,061	0,007
-709,904	-176,666	0,068	-0,001
-708,889	-31,568	-0,165	-0,069
-707,875	-21,821	-0,069	-0,031
-706,860	486,334	-0,070	-0,119
-705,845	-200,000	-0,017	-0,091
-704,831	84,842	-0,050	0,041
-703,816	450,305	-0,057	0,094
-702,802	307,299	-0,050	0,070
-701,787	-10,669	-0,069	-0,034
-700,772	9,498	-0,118	-0,066
-699,758	-37,323	0,041	-0,016
-698,743	-188,087	0,139	-0,001
-697,729	-54,422	-0,044	-0,015
-696,714	-200,000	-0,019	-0,123
-695,699	800,000	0,078	-0,168
-694,685	-65,504	-0,100	0,030
-693,670	-200,000	-0,000	-0,123
-692,656	800,000	-0,043	-0,124
-691,641	-200,000	0,028	0,117
-690,627	333,782	0,056	0,081
-689,612	-200,000	0,003	0,013
-688,597	-200,000	-0,010	-0,055
-687,583	204,503	-0,048	-0,055
-686,568	-108,301	-0,169	-0,027
-685,554	682,809	-0,035	-0,068
-684,539	-200,000	0,010	0,048
-683,524	80,364	0,171	-0,137
-682,510	45,410	-0,080	0,055
-681,495	-110,177	-0,131	0,020
-680,481	-63,620	-0,035	0,010
-679,466	-200,000	-0,019	-0,121
-678,451	-4,763	0,133	-0,068
-677,437	-200,000	0,002	-0,064
-676,422	71,995	0,040	0,031
-675,408	-200,000	0,004	0,088
-674,393	723,672	0,064	0,127
-673,378	14,113	-0,110	-0,063
-672,364	218,297	0,044	0,052
-671,349	354,451	-0,016	0,023
-670,335	-200,000	0,003	-0,190
-669,320	-200,000	-0,009	0,035
-668,305	-200,000	0,016	0,055
-667,291	800,000	0,013	0,028
-666,276	-58,345	-0,059	-0,019
-665,262	403,348	0,062	-0,096
-664,247	-200,000	0,007	-0,042
-663,232	-200,000	-0,003	-0,147
-662,218	-200,000	-0,004	-0,023
-661,203	0,491	-0,031	0,016
-660,189	105,163	-0,110	0,096
-659,174	98,360	0,058	0,050
-658,159	65,912	-0,083	0,063
-657,145	468,333	-0,053	-0,089
-656,130	287,432	0,023	0,031
-655,116	-115,696	-0,075	0,010
-654,101	-200,000	-0,002	0,060
-653,086	-77,045	0,053	0,014
-652,072	800,000	-0,014	0,040
-651,057	-200,000	0,023	-0,223
-650,043	59,225	-0,063	0,046
-649,028	-58,869	-0,134	0,043
-648,014	-150,540	-0,039	0,002
-646,999	-200,000	0,006	0,065
-645,984	-200,000	0,005	0,086
-644,970	80,497	0,078	-0,062
-643,955	80,564	-0,062	0,050
-642,941	-84,101	-0,167	0,039
-641,926	-93,571	0,051	-0,010
-640,911	-200,000	-0,009	-0,071
-639,897	46,095	0,096	-0,066
-638,882	173,354	-0,052	-0,055
-637,868	669,000	-0,019	-0,037
-636,853	800,000	0,037	-0,077
-635,838	-200,000	-0,002	-0,052
-634,824	344,309	-0,047	-0,068
-633,809	538,028	0,013	0,022
-632,795	800,000	-0,036	0,104
-631,780	-33,013	0,025	-0,010
-630,765	-56,485	-0,116	-0,038
-629,751	-116,790	-0,074	-0,010
-628,736	-200,000	-0,024	0,085
-627,722	465,056	-0,032	0,053
-626,707	-49,553	0,005	-0,002
-625,692	-36,509	-0,076	-0,030
-624,678	121,056	0,086	-0,079
-623,663	-145,791	-0,038	0,002
-622,649	283,395	-0,062	-0,083
-621,634	90,459	-0,118	-0,098
-620,619	193,460	0,018	-0,021
-619,605	797,303	-0,023	-0,047
-618,590	676,998	0,046	0,090
-617,576	-200,000	-0,015	0,126
-616,561	-200,000	-0,012	-0,052
-615,546	-200,000	0,005	0,058
-614,532	-200,000	0,014	-0,173
-613,517	-50,186	0,032	-0,011
-612,503	155,826	-0,011	0,011
-611,488	167,966	0,090	0,095
-610,474	-200,000	-0,028	0,117
-609,459	-200,000	-0,021	0,170
-608,444	-42,762	0,029	-0,011
-607,430	-200,000	-0,005	0,038
-606,415	251,681	0,076	0,096
-605,401	382,565	0,061	-0,094
-604,386	187,376	0,049	-0,054
-603,371	800,000	-0,057	0,165
-602,357	54,692	-0,103	0,073
-601,342	82,262	0,110	-0,088
-600,328	800,000	-0,025	-0,056
-599,313	-200,000	0,003	-0,149
-598,298	-200,000	0,006	-0,119
-597,284	267,823	-0,091	0,118
-596,269	-144,045	-0,033	-0,002
-595,255	8,006	0,016	-0,009
-594,240	-171,125	-0,142	0,003
-593,225	800,000	0,053	-0,139
-592,211	411,265	-0,047	-0,074
-591,196	168,278	0,015	-0,016
-590,182	-200,000	0,013	0,054
-589,167	58,698	0,128	0,093
-588,152	-47,022	-0,034	-0,012
-587,138	448,429	-0,012	0,020
-586,123	1,875	-0,087	-0,046
-585,109	-200,000	-0,019	-0,133
-584,094	-200,000	-0,024	-0,133
-583,079	641,148	0,068	-0,129
-582,065	-200,000	0,012	0,044
-581,050	800,000	0,030	-0,082
-580,036	-200,000	-0,008	0,107
-579,021	355,389	0,010	0,015
-578,006	-200,000	0,007	0,094
-576,992	478,947	0,055	-0,092
-575,977	89,102	0,114	-0,094
-574,963	97,894	0,102	0,087
-573,948	45,376	0,041	-0,028
-572,934	-92,344	-0,079	0,016
-571,919	5,012	-0,102	-0,055
-570,904	800,000	0,019	-0,049
-569,890	-1,217	0,059	-0,031
-568,875	473,367	-0,027	0,046
-567,861	483,467	0,067	-0,114
-566,846	-126,891	0,122	-0,013
-565,831	-58,104	0,049	0,016
-564,817	800,000	-0,029	0,079
-563,802	-200,000	0,011	0,126
-562,788	132,694	-0,041	0,039
-561,773	140,732	-0,013	0,013
-560,758	490,885	-0,020	-0,034
-559,744	-200,000	-0,009	-0,033
-558,729	-86,888	0,114	0,026
-557,715	800,000	0,012	-0,039
-556,700	-152,679	-0,079	0,004
-555,685	-200,000	0,024	0,127
-554,671	262,288	-0,040	-0,052
-553,656	270,129	0,046	0,059
-552,642	41,247	0,043	0,029
-551,627	205,858	-0,018	-0,021
-550,612	-93,962	-0,007	-0,001
-549,598	800,000	-0,029	-0,093
-548,583	191,796	-0,185	-0,206
-547,569	137,430	0,095	-0,092
-546,554	-200,000	-0,016	0,101
-545,539	146,578	0,077	-0,077
-544,525	724,891	-0,020	-0,039
-543,510	-78,936	-0,048	0,012
-542,496	-200,000	0,018	-0,062
-541,481	513,431	0,031	0,053
-540,466	111,591	0,080	0,071
-539,452	800,000	-0,015	0,033
-538,437	221,663	0,044	0,053
-537,423	200,272	0,086	0,098
-536,408	-3,951	-0,107	0,054
-535,393	85,118	-0,006	-0,005
-534,379	-106,805	0,037	0,006
-533,364	-156,068	-0,030	-0,001
-532,350	40,597	0,080	0,053
-531,335	-40,378	0,092	0,035
-530,321	26,605	-0,067	-0,042
-529,306	-170,568	-0,067	-0,002
-528,291	115,423	-0,062	-0,056
-527,277	-200,000	-0,025	-0,112
-526,262	-22,724	-0,074	0,033
-525,248	308,360	-0,118	0,162
-524,233	800,000	0,018	0,040
-523,218	-81,980	-0,097	-0,023
-522,204	-34,412	0,058	0,024
-521,189	-31,723	-0,150	-0,062
-520,175	-200,000	-0,000	0,052
-519,160	-132,371	-0,139	0,013
-518,145	800,000	-0,054	-0,173
-517,131	-127,598	0,043	-0,004
-516,116	-200,000	0,010	0,079
-515,102	-138,808	0,168	0,013
-514,087	-200,000	-0,001	0,012
-513,072	-200,000	0,004	-0,114
-512,058	-9,890	-0,052	-0,025
-511,043	201,907	0,075	-0,086
-510,029	783,056	0,050	0,102
-509,014	-36,002	-0,053	0,021
-507,999	265,305	-0,106	-0,137
-506,985	-53,344	-0,063	-0,021
-505,970	-36,026	-0,027	-0,011
-504,956	677,820	-0,027	-0,053
-503,941	403,357	0,053	0,082
-502,926	103,551	-0,014	0,012
-501,912	155,268	0,039	0,040
-500,897	-35,819	0,100	-0,040
-499,883	800,000	-0,039	0,080
-498,868	-81,396	-0,106	-0,026
-497,853	-134,446	0,080	0,007
-496,839	-134,391	-0,115	0,010
-495,824	411,965	0,052	0,082
-494,810	800,000	0,040	0,089
-493,795	-21,245	-0,103	0,046
-492,781	800,000	-0,049	0,108
-491,766	149,984	-0,173	-0,173
-490,751	-38,273	-0,164	-0,064
-489,737	619,907	0,042	0,078
-488,722	-101,811	0,110	0,019
-487,708	800,000	0,042	-0,110
-486,693	26,761	0,142	-0,088
-485,678	325,459	-0,043	0,061
-484,664	-34,660	-0,055	-0,022
-483,649	768,068	0,061	0,122
-482,635	-143,231	0,149	0,010
-481,620	-51,808	0,128	0,044
-480,605	-200,000	-0,021	0,182
-479,591	60,118	0,031	0,023
-478,576	64,542	0,035	-0,026
-477,562	-3,644	0,118	-0,060
-476,547	107,269	-0,101	-0,089
-475,532	68,161	0,147	-0,111
-474,518	-71,331	0,112	0,031
-473,503	-200,000	-0,003	0,032
-472,489	800,000	-0,010	0,021
-471,474	4,176	0,081	0,044
-470,459	-44,366	-0,203	0,074
-469,445	-200,000	0,004	-0,086
-468,430	236,152	0,063	-0,077
-467,416	-124,731	-0,072	0,008
-466,401	3,072	0,046	0,025
-465,386	-132,677	-0,081	0,008
-464,372	-200,000	-0,001	-0,015
-463,357	-200,000	0,013	0,055
-462,343	758,829	0,046	0,092
-461,328	557,183	0,034	0,060
-460,313	-121,458	-0,133	0,016
-459,299	800,000	0,006	0,019
-458,284	438,134	0,070	-0,113
-457,270	12,790	-0,135	-0,076
-456,255	-200,000	0,008	0,041
-455,241	-136,246	-0,064	-0,005
-454,226	203,854	0,016	-0,018
-453,211	-98,158	0,196	-0,037
-452,197	-200,000	-0,001	-0,191
-451,182	800,000	0,018	0,039
-450,168	-200,000	0,006	-0,067
-449,153	800,000	-0,018	-0,036
-448,138	357,991	0,034	0,050
-447,124	-25,784	-0,074	0,032
-446,109	67,388	-0,075	-0,056
-445,095	-200,000	0,022	0,123
-444,080	-46,362	0,164	0,059
-443,065	800,000	-0,009	0,026
-442,051	200,373	0,018	0,021
-441,036	-103,380	0,077	-0,013
-440,022	-200,000	-0,028	0,111
-439,007	-52,870	0,150	0,051
-437,992	-18,952	-0,088	0,040
-436,978	64,486	0,133	0,098
-435,963	-82,457	0,036	0,009
-434,949	-143,889	-0,085	-0,006
-433,934	334,555	0,011	-0,016
-432,919	-45,608	0,166	0,060
-431,905	800,000	-0,009	0,028
-430,890	-85,242	-0,080	-0,018
-429,876	-200,000	0,045	0,148
-428,861	800,000	0,038	0,088
-427,846	798,088	0,038	-0,077
-426,832	336,762	-0,054	-0,077
-425,817	800,000	-0,045	-0,102
-424,803	-200,000	-0,023	0,079
-423,788	-134,592	-0,079	-0,007
-422,773	-23,224	-0,080	0,035
-421,759	779,446	0,038	-0,077
-420,744	166,461	0,088	0,091
-419,730	79,927	-0,085	0,067
-418,715	30,299	0,065	-0,041
-417,701	11,705	0,010	0,006
-416,686	-200,000	0,007	0,080
-415,671	800,000	-0,057	-0,117
-414,657	-80,036	0,068	-0,017
-413,642	-133,408	0,075	0,007
-412,628	-200,000	-0,031	-0,143
-411,613	-121,378	-0,010	-0,001
-410,598	800,000	-0,023	-0,063
-409,584	-200,000	0,018	-0,077
-408,569	-143,426	-0,106	0,007
-407,555	13,502	0,024	-0,014
-406,540	64,455	0,075	0,055
-405,525	-77,603	-0,075	0,019
-404,511	332,325	-0,161	-0,229
-403,496	800,000	0,060	-0,157
-402,482	-200,000	0,013	-0,187
-401,467	-159,441	0,151	0,006
-400,452	29,691	0,007	-0,004
-399,438	-6,522	-0,062	0,031
-398,423	448,753	0,033	-0,054
-397,409	272,858	-0,037	0,048
-396,394	172,384	0,052	-0,055
-395,379	-200,000	0,006	0,090
-394,365	-62,824	-0,023	-0,007
-393,350	-200,000	0,046	0,163
-392,336	-200,000	0,014	0,053
-391,321	76,000	-0,016	-0,012
-390,306	-200,000	-0,052	-0,230
-389,292	-200,000	0,031	-0,136
-388,277	230,899	-0,026	-0,032
-387,263	53,082	0,000	-0,000
-386,248	-200,000	0,011	0,114
-385,233	-200,000	-0,008	0,073
-384,219	-200,000	-0,017	0,061
-383,204	40,800	0,121	-0,080
-382,190	-146,285	-0,070	0,004
-381,175	65,819	-0,136	-0,101
-380,160	-59,385	0,038	-0,012
-379,146	-200,000	0,012	0,047
-378,131	219,069	0,020	-0,024
-377,117	-4,247	0,022	-0,011
-376,102	634,847	0,051	-0,096
-375,088	-200,000	-0,021	-0,135
-374,073	8,555	-0,063	-0,035
-373,058	-192,854	0,139	0,001
-372,044	800,000	0,043	0,135
-371,029	-52,286	0,126	0,043
-370,015	62,743	0,134	0,098
-369,000	800,000	-0,032	-0,068
-367,985	419,312	0,023	-0,037
-366,971	720,607	-0,043	0,084
-365,956	800,000	0,029	-0,082
-364,942	-200,000	-0,011	-0,051
-363,927	30,650	0,039	-0,025
-362,912	491,888	-0,074	0,124
-361,898	44,024	0,050	0,034
-360,883	-200,000	-0,012	0,084
-359,869	800,000	-0,038	0,078
-358,854	-92,720	0,078	0,016
-357,839	11,437	0,040	0,022
-356,825	10,701	0,049	0,028
-355,810	-200,000	-0,012	-0,072
-354,796	-200,000	0,001	0,024
-353,781	-110,712	-0,052	-0,008
-352,766	38,478	0,062	-0,040
-351,752	-200,000	0,010	-0,141
-350,737	-25,304	-0,028	-0,012
-349,723	-200,000	0,001	0,101
-348,708	302,720	0,088	0,120
-347,693	-142,353	-0,114	0,008
-346,679	493,393	0,035	-0,059
-345,664	-166,855	0,069	-0,002
-344,650	-200,000	-0,020	0,069
-343,635	-30,719	0,139	0,057
-342,620	181,998	-0,034	0,036
-341,606	316,534	0,071	-0,098
-340,591	640,702	-0,054	-0,102
-339,577	-70,229	0,026	0,007
-338,562	-200,000	0,032	-0,128
-337,548	679,661	0,032	-0,061
-336,533	-200,000	-0,011	0,068
-335,518	110,055	0,086	0,076
-334,504	-69,020	0,018	0,005
-333,489	-200,000	0,012	0,066
-332,475	-35,644	-0,050	0,020
-331,460	-51,178	-0,188	-0,064
-330,445	-93,598	0,067	0,014
-329,431	731,387	0,063	0,124
-328,416	-26,145	0,100	0,043
-327,402	-200,000	0,007	0,085
-326,387	26,880	0,054	-0,033
-325,372	-13,437	-0,071	-0,034
-324,358	-200,000	0,007	0,116
-323,343	-200,000	-0,012	-0,065
-322,329	45,961	0,071	-0,048
-321,314	800,000	0,031	0,081
-320,299	111,915	-0,083	-0,074
-319,285	-101,235	0,079	-0,014
-318,270	800,000	-0,033	-0,081
-317,256	-19,518	0,034	0,015
-316,241	800,000	0,018	0,040
-315,226	-68,321	-0,160	-0,045
-314,212	-17,312	-0,109	0,050
-313,197	-200,000	0,004	0,026
-312,183	19,660	-0,014	-0,008
-311,168	446,769	-0,078	-0,127
-310,153	128,335	-0,036	0,034
-309,139	633,456	-0,057	-0,106
-308,124	-200,000	0,016	0,122
-307,110	-200,000	0,000	0,021
-306,095	-200,000	0,045	0,188
-305,080	800,000	0,033	-0,086
-304,066	-57,974	-0,060	0,019
-303,051	266,572	0,046	-0,058
-302,037	8,124	0,092	-0,051
-301,022	4,971	-0,018	-0,010
-300,008	-200,000	-0,019	0,062
-298,993	800,000	-0,056	-0,146
-297,978	349,573	0,039	0,056
-296,964	800,000	-0,033	0,075
-295,949	161,201	0,044	0,045
-294,935	-185,099	-0,165	0,002
-293,920	800,000	0,022	0,065
-292,905	546,484	0,041	-0,072
-291,891	-29,610	0,158	-0,066
-290,876	800,000	0,050	0,144
-289,862	115,164	0,082	-0,073
-288,847	-4,682	-0,102	0,051
-287,832	509,647	-0,068	0,116
-286,818	800,000	-0,092	0,189
-285,803	491,099	-0,038	0,064
-284,789	173,285	-0,064	0,067
-283,774	800,000	0,068	0,196
-282,759	734,058	0,058	-0,114
-281,745	-200,000	0,009	0,078
-280,730	595,059	0,045	0,081
-279,716	46,096	0,077	0,052
-278,701	456,430	-0,051	-0,083
-277,686	-159,137	0,084	0,003
-276,672	-200,000	0,020	0,115
-275,657	800,000	-0,030	-0,067
-274,643	800,000	-0,065	-0,195
-273,628	800,000	-0,041	0,109
-272,613	800,000	0,037	0,088
-271,599	-21,973	0,066	0,029
-270,584	473,601	-0,032	-0,053
-269,570	82,757	0,069	0,055
-268,555	-200,000	0,008	0,098
-267,540	-95,692	-0,117	0,023
-266,526	-31,307	-0,064	-0,026
-265,511	-55,166	0,042	0,014
-264,497	-191,626	0,076	-0,001
-263,482	-200,000	0,011	-0,104
-262,467	-200,000	0,024	-0,121
-261,453	-44,009	0,121	0,044
-260,438	33,627	-0,052	0,033
-259,424	328,958	0,130	-0,183
-258,409	-117,982	0,085	0,011
-257,395	-46,223	-0,106	-0,038
-256,380	800,000	-0,054	0,127
-255,365	239,771	-0,073	-0,089
-254,351	-200,000	-0,004	-0,045
-253,336	-48,587	-0,070	-0,024
-252,322	-200,000	-0,019	-0,111
-251,307	200,755	0,114	-0,128
-250,292	206,765	-0,066	-0,075
-249,278	-92,030	0,116	0,024
-248,263	284,369	0,052	0,068
-247,249	-54,669	-0,084	0,028
-246,234	-200,000	-0,001	-0,094
-245,219	-81,560	0,035	0,008
-244,205	-9,666	-0,020	-0,009
-243,190	-64,429	-0,086	0,025
-242,176	-70,747	0,131	0,036
-241,161	-55,952	0,051	-0,017
-240,146	20,574	0,074	-0,043
-239,132	-94,764	-0,034	-0,007
-238,117	-106,644	-0,014	-0,002
-237,103	-87,105	0,064	-0,014
-236,088	-39,850	-0,076	0,029
-235,073	-200,000	-0,006	-0,100
-234,059	-200,000	0,018	0,154
-233,044	-200,000	0,014	-0,062
-232,030	-200,000	0,009	-0,078
-231,015	404,247	0,013	0,020
-230,000	-92,590	-0,165	-0,033
-228,986	800,000	0,022	0,057
-227,971	452,929	-0,010	-0,016
-226,957	-122,557	-0,040	0,005
-225,942	6,564	-0,031	-0,017
-224,927	-200,000	0,000	0,023
-223,913	625,737	-0,034	-0,063
-222,898	-94,926	-0,054	-0,011
-221,884	4,644	-0,056	-0,030
-220,869	157,297	0,021	-0,021
-219,855	43,376	-0,050	-0,034
-218,840	800,000	0,028	0,075
-217,825	-200,000	-0,004	-0,021
-216,811	279,000	-0,003	-0,004
-215,796	67,001	-0,134	0,100
-214,782	375,058	0,097	-0,144
-213,767	-166,714	-0,095	-0,003
-212,752	-200,000	-0,015	-0,062
-211,738	-200,000	-0,008	0,033
-210,723	-200,000	0,009	0,081
-209,709	-2,544	0,120	0,061
-208,694	26,050	-0,082	0,050
-207,679	800,000	-0,029	-0,080
-206,665	46,414	-0,068	0,046
-205,650	6,055	0,082	0,044
-204,636	190,083	-0,057	0,062
-203,621	-200,000	-0,009	0,146
-202,606	148,518	-0,049	0,049
-201,592	180,015	-0,054	-0,057
-200,577	10,928	0,055	0,030
-199,563	-31,763	-0,054	0,022
-198,548	144,443	0,088	0,085
-197,533	201,054	0,071	-0,079
-196,519	110,344	0,132	-0,115
-195,504	-200,000	0,006	-0,092
-194,490	800,000	-0,068	0,166
-193,475	264,197	0,073	-0,093
-192,460	800,000	-0,021	-0,064
-191,446	-72,008	0,092	0,025
-190,431	594,480	0,060	0,108
-189,417	-200,000	0,034	0,158
-188,402	-112,669	-0,170	-0,024
-187,387	-200,000	0,008	-0,049
-186,373	772,640	-0,061	-0,122
-185,358	-200,000	0,001	-0,038
-184,344	363,150	0,023	0,033
-183,329	800,000	-0,001	0,003
-182,315	-200,000	0,006	0,168
-181,300	-142,813	-0,105	0,007
-180,285	48,628	-0,128	-0,087
-179,271	53,793	0,027	0,019
-178,256	30,819	0,108	0,067
-177,242	-200,000	-0,015	-0,054
-176,227	360,622	-0,052	-0,076
-175,212	-51,054	0,066	-0,022
-174,198	145,717	-0,039	-0,038
-173,183	-121,891	-0,099	-0,012
-172,169	210,823	-0,064	-0,073
-171,154	177,454	0,112	0,118
-170,139	74,892	-0,051	-0,039
-169,125	89,766	-0,055	-0,045
-168,110	285,582	-0,027	-0,036
-167,096	-99,625	-0,141	-0,026
-166,081	20,563	-0,015	0,009
-165,066	130,771	-0,043	0,040
-164,052	52,632	-0,117	-0,081
-163,037	-164,423	0,053	-0,002
-162,023	800,000	-0,012	0,029
-161,008	43,395	-0,048	0,032
-159,993	380,281	0,077	-0,115
-158,979	-200,000	-0,013	0,058
-157,964	800,000	-0,076	0,172
-156,950	61,358	0,072	-0,052
-155,935	163,960	0,012	-0,013
-154,920	-200,000	0,014	0,121
-153,906	333,028	0,017	-0,024
-152,891	-200,000	-0,008	0,059
-151,877	108,599	0,040	0,035
-150,862	-68,088	-0,121	-0,034
-149,847	-200,000	-0,017	0,133
-148,833	-72,604	-0,026	0,007
-147,818	-200,000	-0,018	-0,156
-146,804	379,859	-0,017	-0,025
-145,789	107,926	0,058	0,050
-144,775	790,619	0,067	0,135
-143,760	800,000	-0,057	-0,131
-142,745	-105,984	0,018	-0,003
-141,731	-200,000	0,010	-0,060
-140,716	-91,321	0,033	-0,007
-139,702	-21,110	0,049	0,022
-138,687	-132,277	0,053	-0,005
-137,672	-68,839	0,135	0,038
-136,658	-81,297	-0,120	-0,029
-135,643	-28,132	-0,175	-0,073
-134,629	-200,000	-0,019	-0,107
-133,614	-200,000	-0,007	0,043
-132,599	-11,738	0,124	-0,059
-131,585	29,966	0,033	-0,020
-130,570	-200,000	0,014	-0,150
-129,556	800,000	-0,034	-0,102
-128,541	-123,500	-0,087	-0,010
-127,526	176,431	0,070	-0,074
-126,512	-17,375	-0,036	-0,016
-125,497	641,019	-0,024	0,045
-124,483	56,687	0,118	-0,083
-123,468	323,422	-0,062	0,087
-122,453	21,342	0,043	0,026
-121,439	800,000	-0,046	-0,137
-120,424	270,809	0,043	-0,055
-119,410	-200,000	-0,004	-0,099
