DTS Sentinel unit serial number:	SN410029Multiplexer serial number:	ORYXHardware model number:	OX2-SRSoftware version number:	ORYX F/W v4,00 Oryx Data Collector v3.7.2.0data status	okinstallation	B4 Nyhavnadifferential loss correction	single-endedforward channel	channel 2reverse channel	N/Adate	2023/12/18time	17:15:13forward acquisition time	300,00reverse acquisition time	0,00gamma	499,1914k internal	0,3125k external	0,3125temperature offset calibration	1,0000default loss term (dB/km)	0,3820temperature slope calibration	1,0000multiplexer offset coefficient	1,0000multiplexer slope coefficient	1,0000fibre end	0,00T internal ref (°C)	21,56T ext. ref 1 (°C)	7,28T ext. ref 2 (°C)	7,33length (m)	temperature (°C)	Stokes	anti-Stokes-744,400	-10,988	-0,130	-0,064
-743,385	223,062	-0,159	0,192
-742,371	-200,000	0,000	0,065
-741,356	-106,418	-0,106	-0,018
-740,342	800,000	0,013	0,040
-739,327	-41,707	-0,287	0,109
-738,312	-45,064	-0,068	0,025
-737,298	38,837	-0,250	0,166
-736,283	-137,428	0,149	0,012
-735,269	-20,474	-0,157	0,071
-734,254	199,476	0,058	0,067
-733,239	-123,828	-0,514	-0,060
-732,225	-200,000	0,027	-0,119
-731,210	-200,000	-0,014	0,081
-730,196	-20,921	0,032	0,014
-729,181	192,136	-0,011	0,012
-728,167	-200,000	0,018	-0,061
-727,152	148,685	-0,083	-0,084
-726,137	55,270	-0,065	-0,047
-725,123	169,610	-0,049	-0,052
-724,108	-107,173	-0,177	-0,029
-723,094	-200,000	-0,007	-0,060
-722,079	-200,000	0,016	-0,059
-721,064	132,142	-0,063	-0,060
-720,050	16,091	-0,110	-0,065
-719,035	-200,000	-0,002	-0,012
-718,021	34,668	-0,034	-0,022
-717,006	673,895	-0,079	-0,153
-715,991	-200,000	0,047	-0,218
-714,977	800,000	-0,017	-0,050
-713,962	-182,521	-0,241	0,003
-712,948	800,000	0,039	0,117
-711,933	800,000	-0,019	0,047
-710,918	-200,000	0,024	-0,174
-709,904	800,000	0,048	-0,115
-708,889	151,138	-0,038	0,039
-707,875	-180,012	-0,040	0,001
-706,860	-200,000	0,035	-0,165
-705,845	218,091	0,096	-0,114
-704,831	800,000	-0,024	0,072
-703,816	-112,541	0,122	-0,018
-702,802	800,000	-0,032	-0,078
-701,787	800,000	-0,090	-0,188
-700,772	-200,000	0,000	-0,007
-699,758	35,287	-0,044	-0,029
-698,743	242,634	-0,009	0,011
-697,729	800,000	-0,030	0,079
-696,714	-200,000	-0,008	0,127
-695,699	-191,202	-0,019	-0,000
-694,685	-200,000	0,031	-0,137
-693,670	795,806	-0,046	-0,095
-692,656	153,224	0,044	-0,045
-691,641	536,020	-0,046	0,081
-690,627	-183,416	-0,114	-0,001
-689,612	-129,979	-0,034	0,003
-688,597	800,000	0,055	-0,153
-687,583	618,625	-0,028	0,053
-686,568	308,975	-0,026	0,036
-685,554	-200,000	-0,009	0,094
-684,539	-35,621	0,277	-0,111
-683,524	-100,001	0,134	0,025
-682,510	-17,599	-0,059	0,027
-681,495	800,000	-0,042	-0,097
-680,481	-31,759	-0,127	-0,053
-679,466	3,776	-0,037	-0,020
-678,451	-83,880	0,118	-0,028
-677,437	214,114	-0,120	-0,141
-676,422	234,158	-0,070	-0,086
-675,408	46,812	0,108	0,074
-674,393	237,340	-0,011	0,014
-673,378	324,246	-0,057	-0,081
-672,364	800,000	0,032	-0,091
-671,349	800,000	-0,036	-0,106
-670,335	15,635	-0,090	-0,053
-669,320	158,635	0,075	0,078
-668,305	494,251	0,017	-0,030
-667,291	-69,535	0,013	0,004
-666,276	242,621	0,016	0,020
-665,262	800,000	-0,068	-0,183
-664,247	-18,932	0,097	-0,045
-663,232	-99,742	0,024	0,005
-662,218	417,954	0,071	0,113
-661,203	440,149	0,065	0,106
-660,189	-76,662	-0,048	-0,012
-659,174	-82,957	-0,163	0,039
-658,159	800,000	-0,021	0,051
-657,145	123,460	-0,148	-0,138
-656,130	280,548	0,035	-0,047
-655,116	-200,000	-0,004	-0,022
-654,101	485,068	0,051	0,086
-653,086	104,186	0,020	-0,017
-652,072	-103,281	-0,127	0,022
-651,057	-41,092	0,074	0,028
-650,043	800,000	0,029	-0,063
-649,028	-200,000	-0,024	0,129
-648,014	-41,930	0,045	0,017
-646,999	156,014	0,083	0,085
-645,984	-17,007	-0,058	-0,027
-644,970	38,423	0,043	-0,028
-643,955	522,858	-0,095	-0,166
-642,941	-200,000	0,018	-0,209
-641,926	-47,139	0,053	-0,019
-640,911	-200,000	-0,001	-0,006
-639,897	800,000	-0,045	0,095
-638,882	-31,423	-0,105	0,044
-637,868	-109,799	-0,089	0,014
-636,853	220,937	-0,066	0,079
-635,838	752,999	0,020	-0,040
-634,824	-200,000	-0,002	-0,020
-633,809	800,000	-0,045	0,096
-632,795	800,000	-0,025	0,055
-631,780	-15,701	0,139	0,066
-630,765	-200,000	-0,005	-0,063
-629,751	229,896	0,042	0,051
-628,736	-75,466	0,151	-0,040
-627,722	-200,000	0,019	0,164
-626,707	-39,254	-0,046	0,018
-625,692	187,456	0,096	0,106
-624,678	51,755	-0,087	0,061
-623,663	-64,535	-0,141	-0,042
-622,649	63,234	-0,055	-0,041
-621,634	7,378	0,074	-0,041
-620,619	800,000	-0,041	-0,104
-619,605	800,000	-0,010	-0,028
-618,590	166,310	-0,050	-0,052
-617,576	-5,800	0,052	-0,026
-616,561	250,516	0,050	-0,063
-615,546	-134,092	-0,144	0,013
-614,532	661,818	-0,028	-0,054
-613,517	-200,000	-0,008	-0,045
-612,503	800,000	0,009	-0,028
-611,488	-38,761	0,124	0,048
-610,474	800,000	0,015	-0,033
-609,459	-100,653	-0,050	0,009
-608,444	-65,326	-0,083	0,025
-607,430	-200,000	0,003	-0,186
-606,415	132,135	-0,052	0,050
-605,401	61,171	0,126	0,092
-604,386	800,000	0,017	0,043
-603,371	152,313	-0,047	-0,047
-602,357	-83,354	-0,159	0,037
-601,342	441,023	0,027	-0,044
-600,328	265,012	0,070	-0,091
-599,313	74,337	0,097	-0,076
-598,298	188,169	-0,062	-0,069
-597,284	-167,506	-0,057	-0,002
-596,269	37,841	0,036	-0,024
-595,255	-112,886	-0,086	0,012
-594,240	125,888	-0,022	0,020
-593,225	204,515	-0,148	-0,170
-592,211	474,802	-0,111	-0,185
-591,196	-18,569	0,156	-0,072
-590,182	442,103	-0,083	-0,135
-589,167	214,022	0,053	0,063
-588,152	-18,785	0,094	0,043
-587,138	800,000	0,050	0,104
-586,123	38,261	-0,056	-0,037
-585,109	800,000	0,060	0,145
-584,094	800,000	0,014	0,033
-583,079	-200,000	0,001	0,048
-582,065	800,000	-0,011	0,032
-581,050	260,230	0,032	0,042
-580,036	538,545	0,007	0,013
-579,021	720,070	-0,031	0,061
-578,006	301,115	-0,028	-0,039
-576,992	27,890	-0,034	-0,021
-575,977	-109,135	-0,145	-0,023
-574,963	76,380	-0,088	0,069
-573,948	-136,552	-0,124	-0,011
-572,934	-133,363	-0,060	-0,006
-571,919	28,885	-0,106	-0,066
-570,904	-25,833	-0,072	-0,031
-569,890	-22,996	-0,124	0,055
-568,875	594,936	0,045	-0,083
-567,861	-200,000	-0,000	-0,018
-566,846	164,436	0,031	-0,032
-565,831	-107,313	-0,039	0,006
-564,817	-183,847	0,077	0,001
-563,802	-200,000	-0,046	-0,150
-562,788	-14,240	-0,032	0,015
-561,773	102,152	0,040	-0,035
-560,758	800,000	0,018	0,049
-559,744	800,000	0,036	0,087
-558,729	573,608	-0,061	-0,111
-557,715	-200,000	0,009	-0,105
-556,700	6,068	-0,151	0,082
-555,685	-58,366	0,055	0,018
-554,671	5,104	-0,053	-0,029
-553,656	273,688	0,016	-0,021
-552,642	-200,000	-0,002	0,097
-551,627	-58,088	0,040	0,013
-550,612	-8,924	-0,080	-0,039
-549,598	-79,569	-0,029	-0,007
-548,583	-31,732	-0,036	-0,015
-547,569	-200,000	-0,013	-0,080
-546,554	800,000	0,049	0,107
-545,539	800,000	-0,044	-0,107
-544,525	166,934	-0,060	0,063
-543,510	800,000	-0,034	-0,072
-542,496	800,000	-0,030	-0,065
-541,481	114,863	0,077	0,070
-540,466	162,941	-0,068	0,071
-539,452	-111,086	-0,075	0,011
-538,437	-47,616	0,105	0,037
-537,423	89,973	0,089	0,074
-536,408	259,562	-0,036	0,045
-535,393	125,419	0,050	-0,046
-534,379	-200,000	-0,014	-0,087
-533,364	800,000	0,024	0,054
-532,350	167,308	0,106	-0,111
-531,335	607,838	0,043	-0,080
-530,321	119,006	-0,052	0,047
-529,306	-200,000	-0,014	-0,115
-528,291	800,000	0,027	-0,086
-527,277	800,000	0,045	0,123
-526,262	10,271	0,058	-0,032
-525,248	-87,726	-0,052	-0,012
-524,233	800,000	0,069	0,157
-523,218	215,233	0,011	0,013
-522,204	-200,000	-0,003	-0,065
-521,189	159,023	0,029	0,030
-520,175	414,835	0,057	-0,090
-519,160	109,448	0,032	-0,028
-518,145	800,000	-0,040	0,091
-517,131	-49,110	0,066	0,023
-516,116	-39,238	0,071	-0,027
-515,102	-200,000	0,003	0,032
-514,087	-108,558	-0,093	0,015
-513,072	-124,127	-0,069	-0,008
-512,058	98,107	0,068	-0,058
-511,043	800,000	0,050	0,105
-510,029	-200,000	-0,015	0,211
-509,014	-200,000	0,014	0,048
-507,999	341,811	0,089	-0,129
-506,985	-57,619	-0,111	0,036
-505,970	7,792	-0,057	0,031
-504,956	457,202	-0,028	-0,046
-503,941	570,879	-0,020	0,035
-502,926	328,842	0,051	-0,073
-501,912	-200,000	-0,019	0,112
-500,897	-200,000	0,001	0,067
-499,883	-47,858	-0,064	0,023
-498,868	244,068	-0,023	0,028
-497,853	-175,236	0,154	-0,003
-496,839	418,884	-0,098	0,156
-495,824	-95,956	0,083	0,016
-494,810	-137,581	0,145	-0,012
-493,795	156,639	-0,023	-0,023
-492,781	192,236	-0,066	0,074
-491,766	6,441	-0,111	-0,061
-490,751	137,959	0,102	-0,098
-489,737	176,547	-0,098	0,105
-488,722	8,797	0,053	-0,029
-487,708	224,470	0,096	-0,115
-486,693	800,000	0,009	0,020
-485,678	9,003	0,069	-0,038
-484,664	-200,000	0,028	0,099
-483,649	-36,531	-0,125	0,049
-482,635	134,287	0,078	0,075
-481,620	104,592	0,153	-0,133
-480,605	39,442	-0,094	0,062
-479,591	678,999	0,025	0,049
-478,576	-200,000	0,004	0,155
-477,562	-127,260	0,059	0,006
-476,547	-72,986	-0,125	-0,034
-475,532	-200,000	0,009	-0,069
-474,518	-86,027	-0,131	-0,030
-473,503	94,766	0,120	-0,101
-472,489	-200,000	0,014	0,054
-471,474	-182,749	-0,011	-0,000
-470,459	269,164	0,047	-0,061
-469,445	322,443	0,062	0,087
-468,430	52,252	0,060	-0,042
-467,416	-200,000	0,039	-0,148
-466,401	90,835	-0,062	-0,051
-465,386	66,075	0,068	0,051
-464,372	715,083	-0,059	-0,116
-463,357	307,615	0,056	-0,077
-462,343	185,796	0,045	0,050
-461,328	27,045	0,113	-0,070
-460,313	281,042	0,087	-0,115
-459,299	-200,000	-0,002	-0,054
-458,284	73,809	0,052	0,040
-457,270	-200,000	0,005	0,071
-456,255	-200,000	0,015	0,107
-455,241	116,918	0,073	0,066
-454,226	800,000	0,035	0,076
-453,211	39,944	0,043	0,028
-452,197	182,209	0,049	-0,053
-451,182	402,419	-0,078	0,121
-450,168	-15,684	0,065	0,031
-449,153	-200,000	0,016	-0,089
-448,138	-35,477	-0,119	0,047
-447,124	-33,445	0,066	-0,027
-446,109	41,551	-0,069	0,046
-445,095	-200,000	0,009	0,056
-444,080	730,531	-0,047	-0,094
-443,065	-50,636	-0,016	0,005
-442,051	-200,000	-0,002	-0,021
-441,036	800,000	-0,074	0,166
-440,022	800,000	-0,051	-0,123
-439,007	2,069	-0,086	-0,045
-437,992	-200,000	-0,017	-0,071
-436,978	476,747	0,038	0,063
-435,963	390,438	0,033	0,051
-434,949	-78,912	0,121	-0,030
-433,934	-27,343	-0,037	0,016
-432,919	-200,000	-0,002	0,012
-431,905	-200,000	0,016	-0,084
-430,890	284,325	0,025	0,033
-429,876	528,723	0,051	0,089
-428,861	-200,000	0,002	-0,023
-427,846	357,257	0,060	-0,088
-426,832	-200,000	-0,007	-0,098
-425,817	-200,000	0,004	-0,080
-424,803	-200,000	0,009	0,049
-423,788	438,152	0,133	0,215
-422,773	517,421	0,052	0,090
-421,759	316,814	0,036	0,051
-420,744	-90,797	-0,165	0,035
-419,730	-200,000	-0,037	-0,133
-418,715	208,015	-0,046	0,053
-417,701	283,019	0,027	-0,036
-416,686	-3,381	-0,158	-0,081
-415,671	62,391	0,105	-0,077
-414,657	9,122	-0,054	0,030
-413,642	24,759	-0,070	0,043
-412,628	766,646	0,043	-0,086
-411,613	6,480	-0,070	0,038
-410,598	-11,535	0,099	0,047
-409,584	65,450	-0,068	-0,050
-408,569	226,494	-0,048	0,057
-407,555	-93,906	0,122	0,024
-406,540	-166,794	-0,081	-0,002
-405,525	-200,000	-0,019	-0,087
-404,511	68,021	-0,071	-0,053
-403,496	800,000	-0,027	0,056
-402,482	653,076	0,079	-0,150
-401,467	-58,650	0,070	-0,022
-400,452	271,241	0,080	0,104
-399,438	-18,523	0,102	-0,047
-398,423	121,576	-0,039	0,036
-397,409	-200,000	-0,006	0,120
-396,394	-200,000	-0,004	-0,072
-395,379	-66,566	-0,135	-0,039
-394,365	151,162	0,085	-0,085
-393,350	-200,000	-0,016	0,087
-392,336	800,000	0,047	0,096
-391,321	383,152	-0,077	0,117
-390,306	-200,000	-0,011	0,061
-389,292	675,092	-0,027	0,051
-388,277	800,000	-0,016	0,043
-387,263	219,254	-0,081	0,096
-386,248	800,000	0,044	0,123
-385,233	-128,284	-0,094	0,010
-384,219	-74,456	0,053	-0,014
-383,204	-13,352	-0,058	0,028
-382,190	800,000	0,025	-0,064
-381,175	-200,000	-0,007	0,078
-380,160	800,000	0,005	-0,012
-379,146	154,438	0,125	0,126
-378,131	575,435	-0,010	-0,018
-377,117	800,000	0,042	-0,110
-376,102	-13,841	-0,127	-0,060
-375,088	1,904	0,031	-0,017
-374,073	99,562	-0,066	-0,056
-373,058	800,000	0,031	-0,079
-372,044	85,769	-0,038	0,031
-371,029	-124,795	0,105	-0,012
-370,015	69,645	-0,069	0,052
-369,000	-4,144	-0,134	-0,068
-367,985	-34,987	0,047	-0,019
-366,971	-124,358	0,055	-0,006
-365,956	119,061	-0,052	0,047
-364,942	-14,212	0,117	-0,055
-363,927	252,416	-0,054	0,068
-362,912	-112,415	0,145	-0,021
-361,898	-200,000	-0,035	0,143
-360,883	-200,000	0,001	-0,059
-359,869	800,000	-0,076	0,159
-358,854	-73,560	0,007	-0,002
-357,839	-63,059	-0,100	0,030
-356,825	7,939	0,043	0,024
-355,810	234,483	-0,094	-0,114
-354,796	400,196	-0,070	-0,108
-353,781	236,517	-0,062	-0,076
-352,766	-87,147	0,015	0,003
-351,752	418,397	0,016	-0,025
-350,737	800,000	0,044	-0,103
-349,723	-30,743	0,108	-0,045
-348,708	418,925	0,058	0,092
-347,693	-64,718	-0,116	-0,034
-346,679	-200,000	-0,008	0,141
-345,664	-62,170	-0,062	0,019
-344,650	-200,000	-0,011	-0,103
-343,635	-56,574	0,060	-0,019
-342,620	-200,000	-0,001	0,060
-341,606	800,000	-0,035	0,092
-340,591	266,887	0,028	-0,036
-339,577	94,313	-0,082	-0,068
-338,562	-93,699	0,092	-0,018
-337,548	-200,000	-0,011	0,085
-336,533	568,073	-0,031	-0,056
-335,518	-200,000	-0,014	-0,092
-334,504	123,502	-0,015	-0,014
-333,489	71,481	0,017	-0,013
-332,475	-121,129	-0,119	-0,014
-331,460	-200,000	-0,035	-0,146
-330,445	138,831	0,037	0,036
-329,431	566,913	0,075	0,135
-328,416	-199,527	0,109	0,000
-327,402	-74,438	0,124	-0,033
-326,387	-200,000	0,048	0,157
-325,372	800,000	0,054	-0,115
-324,358	87,500	-0,064	-0,052
-323,343	-49,686	0,046	-0,016
-322,329	-45,965	0,087	-0,031
-321,314	-181,569	0,041	-0,001
-320,299	604,100	-0,021	0,038
-319,285	-200,000	-0,003	-0,048
-318,270	400,190	-0,020	-0,031
-317,256	-200,000	-0,010	-0,033
-316,241	192,937	-0,085	-0,095
-315,226	-6,844	0,036	0,018
-314,212	-200,000	0,020	-0,081
-313,197	-40,391	0,042	-0,016
-312,183	-200,000	0,015	0,072
-311,168	800,000	0,011	0,025
-310,153	285,169	-0,087	-0,115
-309,139	24,491	-0,118	-0,071
-308,124	-110,210	0,133	0,020
-307,110	-154,122	0,159	0,008
-306,095	28,522	-0,046	0,028
-305,080	-44,571	-0,095	0,035
-304,066	668,827	0,051	-0,096
-303,051	-124,317	-0,100	-0,011
-302,037	800,000	-0,015	-0,034
-301,022	-200,000	-0,005	-0,126
-300,008	-200,000	0,016	0,165
-298,993	-200,000	0,019	0,119
-297,978	91,600	0,047	0,039
-296,964	244,327	-0,081	-0,100
-295,949	63,412	-0,212	0,155
-294,935	-33,115	0,054	-0,022
-293,920	800,000	-0,037	0,112
-292,905	-200,000	-0,006	0,051
-291,891	-114,192	0,032	0,005
-290,876	-111,826	0,122	0,018
-289,862	-111,964	-0,065	-0,010
-288,847	696,481	0,071	-0,137
-287,832	-200,000	-0,015	-0,066
-286,818	100,539	0,019	0,016
-285,803	-123,756	-0,100	-0,011
-284,789	396,511	-0,010	0,015
-283,774	-134,924	0,085	0,007
-282,759	-121,549	0,057	0,007
-281,745	800,000	-0,023	-0,062
-280,730	-16,025	-0,014	0,007
-279,716	-200,000	-0,003	0,093
-278,701	-86,969	0,120	0,027
-277,686	-14,557	0,086	-0,040
-276,672	-200,000	-0,019	0,062
-275,657	800,000	-0,031	0,080
-274,643	543,758	0,017	0,029
-273,628	-23,003	0,133	0,059
-272,613	-16,256	-0,024	-0,011
-271,599	799,138	0,050	-0,102
-270,584	-200,000	-0,004	-0,045
-269,570	-200,000	-0,020	-0,161
-268,555	800,000	-0,025	0,050
-267,540	665,885	0,036	0,068
-266,526	98,224	-0,138	-0,116
-265,511	631,470	-0,061	-0,114
-264,497	-71,059	-0,048	0,013
-263,482	645,700	0,041	0,076
-262,467	-200,000	-0,004	-0,058
-261,453	30,440	-0,015	0,009
-260,438	-4,838	-0,035	-0,018
-259,424	-200,000	-0,011	-0,052
-258,409	-100,886	-0,151	-0,027
-257,395	-144,594	0,149	0,010
-256,380	243,517	-0,058	0,071
-255,365	513,005	-0,012	0,021
-254,351	-127,163	-0,115	-0,012
-253,336	690,250	-0,039	-0,075
-252,322	45,509	0,068	-0,046
-251,307	-200,000	0,014	-0,061
-250,292	-25,943	-0,129	-0,055
-249,278	-9,326	0,133	-0,065
-248,263	800,000	-0,020	-0,058
-247,249	-74,822	0,103	0,027
-246,234	-89,824	-0,046	0,010
-245,219	33,897	0,047	-0,030
-244,205	174,249	-0,038	-0,040
-243,190	-200,000	0,015	-0,064
-242,176	-2,413	-0,050	-0,025
-241,161	97,924	-0,018	0,015
-240,146	-108,558	-0,090	-0,014
-239,132	102,968	0,109	0,093
-238,117	269,854	-0,039	-0,051
-237,103	-97,366	-0,169	-0,032
-236,088	6,139	-0,055	-0,030
-235,073	196,617	0,107	-0,119
-234,059	-20,316	0,100	0,045
-233,044	-28,094	-0,168	-0,071
-232,030	326,802	0,040	0,056
-231,015	233,714	0,040	-0,048
-230,000	-127,166	-0,051	0,005
-228,986	275,163	0,011	0,014
-227,971	3,848	-0,121	0,065
-226,957	-200,000	-0,018	0,111
-225,942	-200,000	0,009	0,030
-224,927	152,414	0,066	0,066
-223,913	800,000	-0,030	0,090
-222,898	-200,000	-0,021	-0,067
-221,884	800,000	-0,013	0,027
-220,869	800,000	0,085	0,185
-219,855	-67,294	0,127	0,036
-218,840	9,012	0,068	0,037
-217,825	148,217	0,053	0,053
-216,811	-200,000	-0,010	0,035
-215,796	404,706	0,076	-0,117
-214,782	-200,000	-0,011	-0,121
-213,767	56,219	-0,063	0,045
-212,752	-9,641	0,042	0,020
-211,738	166,123	0,044	0,045
-210,723	-43,679	0,190	0,070
-209,709	-200,000	-0,023	-0,089
-208,694	2,919	-0,146	0,077
-207,679	-42,246	0,108	0,040
-206,665	173,363	0,059	-0,062
-205,650	131,356	-0,062	-0,058
-204,636	-66,918	-0,107	0,031
-203,621	647,708	-0,097	-0,181
-202,606	-200,000	0,012	0,064
-201,592	-200,000	0,018	0,064
-200,577	800,000	-0,014	-0,042
-199,563	-200,000	0,028	-0,142
-198,548	-200,000	0,007	0,082
-197,533	-28,095	0,076	0,032
-196,519	800,000	-0,049	0,151
-195,504	-200,000	0,025	-0,146
-194,490	-78,478	0,018	0,005
-193,475	-200,000	-0,027	0,095
-192,460	29,688	-0,033	-0,020
-191,446	-14,470	-0,094	0,044
-190,431	183,186	0,057	-0,061
-189,417	130,818	-0,061	0,057
-188,402	110,546	-0,047	-0,042
-187,387	251,838	-0,028	-0,034
-186,373	-200,000	0,010	0,039
-185,358	-200,000	0,010	-0,053
-184,344	-54,979	-0,124	0,041
-183,329	131,875	0,177	0,166
-182,315	301,827	-0,036	0,049
-181,300	76,890	0,110	0,085
-180,285	130,938	-0,085	0,080
-179,271	-82,442	0,188	0,044
-178,256	416,652	-0,030	0,047
-177,242	800,000	-0,011	-0,033
-176,227	291,300	-0,050	0,066
-175,212	-24,424	0,121	-0,052
-174,198	317,729	0,046	0,064
-173,183	31,298	-0,038	-0,024
-172,169	213,600	0,111	0,129
-171,154	-14,859	-0,065	-0,030
-170,139	-40,232	0,088	-0,033
-169,125	800,000	-0,011	0,024
-168,110	190,715	0,072	0,079
-167,096	800,000	-0,027	0,077
-166,081	-35,155	0,079	-0,031
-165,066	344,397	-0,042	0,060
-164,052	445,901	-0,050	-0,081
-163,037	24,214	-0,038	-0,023
-162,023	0,404	-0,128	0,066
-161,008	-69,880	0,100	-0,027
-159,993	-200,000	-0,013	-0,055
-158,979	325,612	0,024	-0,033
-157,964	-66,197	0,060	-0,017
-156,950	704,183	0,014	-0,028
-155,935	-200,000	0,002	0,027
-154,920	31,755	0,067	0,042
-153,906	44,723	-0,051	-0,034
-152,891	45,456	0,027	-0,018
-151,877	21,793	0,027	0,016
-150,862	-200,000	0,029	-0,144
-149,847	-200,000	0,004	0,058
-148,833	91,491	-0,043	0,035
-147,818	-17,415	0,082	-0,038
-146,804	-200,000	0,018	0,058
-145,789	457,453	0,021	-0,034
-144,775	-200,000	-0,001	-0,015
-143,760	-67,446	0,101	-0,029
-142,745	-130,087	-0,056	0,005
-141,731	32,308	0,016	0,010
-140,716	225,195	-0,097	-0,114
-139,702	52,131	0,043	0,030
-138,687	430,253	-0,010	0,016
-137,672	-200,000	0,003	0,019
-136,658	125,743	0,015	-0,014
-135,643	176,726	0,016	-0,017
-134,629	442,047	-0,042	-0,068
-133,614	479,425	0,046	0,075
-132,599	-5,335	0,066	0,033
-131,585	402,417	-0,012	0,018
-130,570	380,456	0,031	0,047
-129,556	800,000	-0,033	0,095
-128,541	-113,061	-0,116	-0,016
-127,526	800,000	0,065	-0,186
-126,512	-19,530	0,073	0,033
-125,497	281,257	0,096	0,125
-124,483	800,000	-0,041	0,111
-123,468	-200,000	0,007	0,028
-122,453	-200,000	-0,000	-0,041
-121,439	800,000	-0,034	-0,078
-120,424	749,260	0,088	-0,173
-119,410	-75,404	-0,084	0,022
-118,395	82,453	0,039	0,031
