DTS Sentinel unit serial number:	SN410029Multiplexer serial number:	ORYXHardware model number:	OX2-SRSoftware version number:	ORYX F/W v4,00 Oryx Data Collector v3.7.2.0data status	okinstallation	B4 Nyhavnadifferential loss correction	single-endedforward channel	channel 2reverse channel	N/Adate	2023/12/16time	08:45:13forward acquisition time	300,00reverse acquisition time	0,00gamma	499,1914k internal	0,3127k external	0,3127temperature offset calibration	1,0000default loss term (dB/km)	0,3820temperature slope calibration	1,0000multiplexer offset coefficient	1,0000multiplexer slope coefficient	1,0000fibre end	0,00T internal ref (°C)	22,69T ext. ref 1 (°C)	8,71T ext. ref 2 (°C)	8,86length (m)	temperature (°C)	Stokes	anti-Stokes-744,400	154,922	-0,102	0,104
-743,385	101,719	-0,121	0,105
-742,371	-148,165	0,148	-0,009
-741,356	649,989	-0,086	0,165
-740,342	94,371	0,107	0,090
-739,327	-79,436	-0,210	0,053
-738,312	28,729	-0,046	-0,029
-737,298	-26,898	-0,309	0,134
-736,283	-200,000	-0,015	-0,099
-735,269	-22,317	-0,285	0,128
-734,254	-200,000	0,008	0,085
-733,239	-30,113	-0,480	-0,202
-732,225	27,767	0,027	-0,017
-731,210	-200,000	-0,038	-0,152
-730,196	48,315	-0,030	-0,021
-729,181	-200,000	0,032	-0,167
-728,167	220,848	-0,032	0,039
-727,152	101,417	-0,065	-0,057
-726,137	-200,000	-0,018	-0,160
-725,123	355,241	-0,041	-0,062
-724,108	-63,713	-0,137	-0,042
-723,094	-171,117	-0,124	-0,003
-722,079	-200,000	-0,003	-0,060
-721,064	-200,000	-0,013	-0,044
-720,050	-10,434	0,092	-0,045
-719,035	-200,000	0,021	-0,077
-718,021	-129,156	0,090	-0,009
-717,006	28,324	-0,122	-0,077
-715,991	-200,000	0,026	0,112
-714,977	112,612	0,030	-0,027
-713,962	699,344	-0,037	-0,073
-712,948	467,641	0,092	0,154
-711,933	-8,734	0,094	-0,047
-710,918	-60,039	-0,079	0,025
-709,904	-111,632	-0,051	0,008
-708,889	-200,000	-0,017	-0,162
-707,875	182,854	0,041	-0,045
-706,860	96,144	-0,074	0,062
-705,845	800,000	0,051	0,143
-704,831	131,862	-0,042	-0,041
-703,816	-200,000	0,017	-0,115
-702,802	542,117	0,007	-0,012
-701,787	-149,102	-0,026	0,002
-700,772	800,000	-0,052	0,120
-699,758	-200,000	-0,017	0,176
-698,743	-39,078	-0,084	-0,033
-697,729	292,605	-0,070	-0,095
-696,714	5,197	-0,081	0,044
-695,699	-200,000	0,014	-0,200
-694,685	-200,000	-0,013	-0,079
-693,670	665,686	-0,078	-0,150
-692,656	-61,965	0,051	-0,016
-691,641	56,024	0,049	-0,035
-690,627	800,000	0,027	-0,089
-689,612	-51,005	-0,105	-0,036
-688,597	-23,853	0,107	0,047
-687,583	55,772	0,055	-0,039
-686,568	-77,875	-0,088	0,022
-685,554	267,282	-0,059	0,077
-684,539	800,000	-0,034	-0,095
-683,524	-113,923	-0,068	-0,010
-682,510	800,000	-0,011	0,029
-681,495	-145,493	0,129	0,008
-680,481	79,323	-0,081	-0,064
-679,466	-200,000	0,007	0,033
-678,451	-56,430	-0,095	0,031
-677,437	222,761	0,023	0,028
-676,422	800,000	0,016	0,037
-675,408	-200,000	-0,030	-0,110
-674,393	124,095	-0,075	0,070
-673,378	152,496	-0,084	-0,085
-672,364	-146,215	-0,164	0,011
-671,349	305,085	0,044	-0,061
-670,335	-200,000	0,007	0,028
-669,320	-69,866	0,027	0,008
-668,305	-10,982	0,034	0,017
-667,291	82,389	0,097	0,078
-666,276	115,175	-0,093	-0,084
-665,262	-200,000	0,000	-0,076
-664,247	-200,000	0,024	0,091
-663,232	357,437	-0,059	-0,087
-662,218	-72,228	0,133	0,036
-661,203	800,000	0,024	-0,075
-660,189	-200,000	0,037	-0,130
-659,174	44,542	-0,058	-0,039
-658,159	-149,479	-0,120	-0,007
-657,145	314,492	-0,029	-0,041
-656,130	-200,000	-0,021	-0,083
-655,116	-99,237	0,158	0,029
-654,101	-187,725	0,144	0,001
-653,086	800,000	0,007	-0,016
-652,072	-48,203	-0,186	-0,066
-651,057	-93,070	-0,069	-0,014
-650,043	-200,000	-0,024	0,101
-649,028	-200,000	0,014	-0,129
-648,014	-200,000	-0,007	0,098
-646,999	-112,618	-0,137	-0,020
-645,984	-122,351	0,095	0,011
-644,970	184,630	-0,040	-0,044
-643,955	259,672	0,019	-0,024
-642,941	82,349	-0,029	-0,023
-641,926	789,280	0,039	-0,079
-640,911	232,419	0,011	-0,013
-639,897	17,918	-0,072	-0,043
-638,882	-72,521	-0,084	0,023
-637,868	-98,222	-0,150	-0,028
-636,853	800,000	0,050	-0,104
-635,838	248,637	-0,093	-0,117
-634,824	-45,569	0,013	-0,005
-633,809	349,550	-0,063	-0,093
-632,795	113,601	-0,049	-0,044
-631,780	-94,658	-0,050	-0,010
-630,765	-37,369	-0,024	-0,010
-629,751	-122,692	0,030	-0,004
-628,736	70,123	0,095	0,073
-627,722	-28,139	-0,061	0,026
-626,707	800,000	-0,035	-0,110
-625,692	800,000	-0,025	0,053
-624,678	251,440	-0,066	0,084
-623,663	268,984	0,050	0,065
-622,649	-200,000	-0,015	-0,125
-621,634	56,383	-0,025	-0,018
-620,619	388,283	-0,050	-0,077
-619,605	-38,089	0,121	-0,047
-618,590	227,354	-0,097	-0,117
-617,576	758,343	-0,009	0,017
-616,561	21,921	0,053	0,032
-615,546	-200,000	0,033	0,168
-614,532	-109,357	-0,095	0,015
-613,517	800,000	0,043	-0,108
-612,503	251,484	0,029	-0,036
-611,488	505,265	-0,041	0,071
-610,474	-200,000	-0,052	0,218
-609,459	-79,807	-0,044	0,011
-608,444	-100,306	-0,105	-0,019
-607,430	-133,312	0,079	-0,007
-606,415	800,000	-0,012	-0,032
-605,401	800,000	0,043	0,098
-604,386	-200,000	0,025	0,145
-603,371	58,616	0,040	0,029
-602,357	-200,000	-0,013	0,065
-601,342	293,364	-0,023	0,031
-600,328	56,616	-0,077	-0,055
-599,313	-200,000	0,008	0,127
-598,298	49,960	0,075	-0,052
-597,284	183,886	0,071	-0,078
-596,269	0,780	-0,111	0,058
-595,255	583,515	0,056	-0,103
-594,240	391,133	0,019	-0,029
-593,225	319,944	-0,068	-0,096
-592,211	704,588	-0,053	-0,104
-591,196	-200,000	0,016	0,087
-590,182	-164,104	0,154	-0,005
-589,167	89,159	-0,023	-0,019
-588,152	-200,000	0,000	0,028
-587,138	800,000	0,055	0,120
-586,123	-200,000	-0,003	0,094
-585,109	800,000	-0,025	-0,058
-584,094	168,157	-0,028	0,029
-583,079	6,286	0,101	0,055
-582,065	-118,368	0,153	0,020
-581,050	-200,000	-0,016	0,185
-580,036	-131,741	-0,137	-0,013
-579,021	194,923	-0,090	-0,101
-578,006	-129,605	-0,073	0,007
-576,992	-200,000	-0,027	-0,109
-575,977	-200,000	-0,014	0,075
-574,963	-69,856	0,078	-0,022
-573,948	-200,000	0,035	0,164
-572,934	-135,825	-0,106	0,009
-571,919	-200,000	-0,012	-0,063
-570,904	-200,000	0,011	-0,072
-569,890	-115,446	-0,097	-0,013
-568,875	56,671	-0,052	-0,037
-567,861	-200,000	0,016	0,152
-566,846	236,962	-0,020	0,025
-565,831	684,656	0,026	-0,050
-564,817	800,000	-0,023	-0,054
-563,802	-124,976	-0,177	-0,020
-562,788	158,251	-0,087	-0,089
-561,773	249,962	0,073	-0,091
-560,758	160,776	-0,033	-0,034
-559,744	800,000	-0,031	0,081
-558,729	-69,698	0,020	0,006
-557,715	800,000	0,007	0,023
-556,700	94,984	-0,149	0,125
-555,685	-200,000	-0,019	-0,098
-554,671	-27,099	0,045	0,019
-553,656	-77,809	0,050	0,013
-552,642	800,000	0,019	-0,053
-551,627	-200,000	0,004	0,019
-550,612	-29,154	-0,128	0,054
-549,598	276,211	0,016	0,021
-548,583	-200,000	-0,010	-0,081
-547,569	-200,000	-0,011	0,049
-546,554	436,595	0,019	-0,031
-545,539	-119,345	0,113	0,014
-544,525	62,880	0,052	-0,038
-543,510	-200,000	-0,005	-0,049
-542,496	-49,874	-0,123	-0,043
-541,481	-200,000	0,012	-0,100
-540,466	-163,345	-0,071	0,002
-539,452	-61,637	0,129	0,040
-538,437	0,043	0,063	-0,033
-537,423	-37,316	-0,082	-0,032
-536,408	63,737	0,081	-0,060
-535,393	12,068	-0,056	0,032
-534,379	-122,174	-0,061	-0,007
-533,364	75,557	-0,043	0,033
-532,350	-123,907	0,089	-0,010
-531,335	800,000	0,029	-0,089
-530,321	-193,964	0,139	0,001
-529,306	87,996	-0,035	-0,028
-528,291	402,779	-0,081	-0,125
-527,277	-36,321	-0,142	-0,056
-526,262	44,847	-0,073	-0,049
-525,248	-110,241	0,061	-0,009
-524,233	648,598	0,034	-0,064
-523,218	-26,747	-0,093	-0,040
-522,204	309,569	0,078	0,109
-521,189	-200,000	0,039	-0,148
-520,175	-18,962	0,122	0,056
-519,160	-130,724	0,054	0,005
-518,145	175,639	-0,108	0,116
-517,131	14,517	0,092	0,053
-516,116	800,000	0,013	-0,027
-515,102	-25,144	0,038	-0,016
-514,087	-200,000	-0,021	-0,140
-513,072	-200,000	-0,028	-0,144
-512,058	307,897	0,081	0,112
-511,043	800,000	0,063	0,132
-510,029	-200,000	-0,002	0,113
-509,014	-200,000	0,007	-0,038
-507,999	26,060	-0,202	0,124
-506,985	-106,161	-0,095	-0,016
-505,970	-200,000	-0,015	-0,114
-504,956	203,364	-0,090	-0,103
-503,941	-200,000	-0,006	-0,029
-502,926	-168,827	0,118	-0,003
-501,912	15,939	0,198	0,115
-500,897	-18,905	0,088	0,040
-499,883	421,037	0,089	-0,141
-498,868	-200,000	-0,020	-0,069
-497,853	-4,818	-0,171	0,087
-496,839	-92,515	-0,152	-0,031
-495,824	226,492	0,077	-0,093
-494,810	-200,000	0,011	0,114
-493,795	-46,188	0,063	0,023
-492,781	-200,000	-0,021	-0,086
-491,766	800,000	-0,045	0,096
-490,751	246,443	-0,033	-0,041
-489,737	88,933	0,052	0,043
-488,722	717,316	-0,008	0,016
-487,708	28,793	0,086	-0,054
-486,693	800,000	0,045	0,132
-485,678	148,707	-0,062	-0,062
-484,664	-200,000	-0,010	-0,043
-483,649	3,985	0,120	-0,064
-482,635	-37,367	-0,093	-0,036
-481,620	800,000	0,042	0,089
-480,605	627,225	-0,039	0,073
-479,591	-200,000	-0,003	0,047
-478,576	612,262	0,032	-0,060
-477,562	223,906	0,069	0,082
-476,547	800,000	-0,055	-0,133
-475,532	800,000	-0,028	0,061
-474,518	-200,000	0,010	-0,079
-473,503	-200,000	0,000	-0,030
-472,489	172,958	0,032	0,034
-471,474	-59,558	-0,075	0,024
-470,459	-200,000	-0,012	-0,058
-469,445	800,000	-0,039	-0,099
-468,430	-200,000	0,011	0,045
-467,416	261,216	-0,023	0,030
-466,401	-200,000	0,018	-0,129
-465,386	799,330	-0,032	0,065
-464,372	-200,000	-0,021	0,101
-463,357	-15,898	-0,041	0,019
-462,343	24,648	0,086	-0,052
-461,328	800,000	0,044	-0,101
-460,313	-95,426	-0,115	-0,023
-459,299	-64,778	0,109	-0,032
-458,284	-200,000	0,023	0,105
-457,270	800,000	0,033	0,101
-456,255	429,862	-0,041	0,065
-455,241	179,737	-0,020	0,021
-454,226	-53,335	0,100	0,034
-453,211	115,282	0,060	-0,054
-452,197	386,173	-0,030	-0,046
-451,182	430,837	0,060	0,096
-450,168	489,506	0,042	-0,071
-449,153	800,000	0,053	0,121
-448,138	29,612	0,137	0,085
-447,124	31,446	-0,161	-0,102
-446,109	-48,418	-0,164	0,058
-445,095	88,379	-0,075	-0,062
-444,080	140,455	0,057	-0,055
-443,065	-200,000	0,051	0,177
-442,051	26,303	0,085	-0,052
-441,036	144,830	0,028	0,027
-440,022	-54,498	-0,187	0,062
-439,007	800,000	-0,038	0,084
-437,992	-200,000	0,008	0,026
-436,978	205,259	0,077	0,088
-435,963	-173,710	0,170	-0,004
-434,949	203,352	-0,119	-0,136
-433,934	4,251	0,147	0,079
-432,919	290,176	-0,105	-0,141
-431,905	-200,000	0,011	-0,072
-430,890	-200,000	-0,006	0,119
-429,876	227,322	0,064	0,076
-428,861	8,424	0,022	-0,012
-427,846	-200,000	-0,015	-0,082
-426,832	-200,000	-0,033	-0,123
-425,817	753,443	-0,060	-0,119
-424,803	-200,000	0,003	0,038
-423,788	800,000	0,022	0,050
-422,773	-200,000	0,026	0,110
-421,759	124,443	0,071	0,066
-420,744	-45,442	0,042	-0,015
-419,730	-63,044	-0,135	-0,041
-418,715	109,636	0,112	-0,099
-417,701	-88,401	-0,034	-0,007
-416,686	800,000	-0,026	0,067
-415,671	209,341	0,065	0,075
-414,657	-104,271	-0,115	0,019
-413,642	141,358	0,066	0,065
-412,628	237,362	-0,087	0,107
-411,613	167,425	0,048	-0,050
-410,598	800,000	-0,022	0,050
-409,584	-35,042	0,195	-0,078
-408,569	341,228	-0,032	0,045
-407,555	-73,077	0,148	-0,039
-406,540	230,492	0,061	-0,074
-405,525	-200,000	0,081	0,000
-404,511	111,947	-0,019	0,017
-403,496	-200,000	-0,020	-0,128
-402,482	-200,000	0,024	-0,103
-401,467	87,927	0,072	0,058
-400,452	-13,313	0,132	0,063
-399,438	-64,920	-0,101	-0,030
-398,423	-200,000	0,020	-0,096
-397,409	-123,175	-0,162	-0,019
-396,394	-200,000	-0,053	-0,181
-395,379	-200,000	-0,016	0,052
-394,365	-161,907	0,063	-0,002
-393,350	-200,000	-0,025	0,110
-392,336	800,000	0,023	0,060
-391,321	98,570	-0,093	-0,078
-390,306	-200,000	-0,002	0,026
-389,292	-200,000	0,006	-0,074
-388,277	200,114	-0,012	-0,013
-387,263	14,738	0,074	0,042
-386,248	-200,000	0,014	0,156
-385,233	800,000	0,030	0,082
-384,219	-132,025	0,079	-0,007
-383,204	-34,000	-0,200	0,081
-382,190	-200,000	-0,007	-0,096
-381,175	-76,202	-0,038	-0,010
-380,160	-97,772	0,112	0,021
-379,146	-68,821	0,086	0,024
-378,131	-200,000	0,012	0,046
-377,117	679,636	-0,010	0,019
-376,102	96,412	0,055	-0,047
-375,088	33,676	0,061	0,039
-374,073	-78,173	-0,127	-0,032
-373,058	800,000	0,068	0,195
-372,044	143,757	-0,083	0,081
-371,029	-200,000	0,005	0,051
-370,015	10,831	0,112	0,063
-369,000	-200,000	-0,013	-0,065
-367,985	-200,000	-0,014	-0,089
-366,971	800,000	-0,034	-0,083
-365,956	800,000	0,084	0,186
-364,942	-200,000	-0,002	-0,044
-363,927	-107,322	0,216	0,034
-362,912	612,154	0,035	-0,064
-361,898	-200,000	0,004	-0,032
-360,883	800,000	0,046	-0,099
-359,869	-200,000	0,018	-0,082
-358,854	441,844	0,080	0,129
-357,839	322,689	-0,043	-0,060
-356,825	230,475	-0,111	0,134
-355,810	800,000	-0,030	0,063
-354,796	-190,274	0,017	0,000
-353,781	318,365	0,056	0,078
-352,766	-89,057	0,041	0,009
-351,752	214,318	0,116	-0,135
-350,737	-154,835	-0,031	-0,001
-349,723	68,693	-0,141	0,106
-348,708	119,695	-0,071	-0,065
-347,693	650,391	0,050	-0,095
-346,679	688,787	-0,037	-0,070
-345,664	-200,000	-0,025	0,111
-344,650	-73,175	-0,116	0,031
-343,635	-104,424	0,070	-0,012
-342,620	-200,000	0,003	0,038
-341,606	-200,000	-0,018	-0,107
-340,591	-46,949	-0,140	0,050
-339,577	800,000	0,042	-0,133
-338,562	-11,011	0,114	-0,055
-337,548	147,018	0,009	0,008
-336,533	451,948	0,083	0,135
-335,518	-150,028	0,049	-0,003
-334,504	90,021	0,086	-0,070
-333,489	800,000	-0,023	-0,051
-332,475	-24,022	-0,131	0,057
-331,460	191,135	0,057	-0,063
-330,445	-200,000	0,013	0,145
-329,431	-200,000	-0,000	-0,003
-328,416	-200,000	0,004	0,143
-327,402	-90,427	0,233	0,049
-326,387	-200,000	0,007	-0,072
-325,372	32,809	-0,085	-0,054
-324,358	39,133	0,017	-0,011
-323,343	-65,802	0,043	0,013
-322,329	-9,839	0,137	0,066
-321,314	-52,656	0,148	0,050
-320,299	-200,000	-0,004	-0,053
-319,285	763,043	0,035	0,069
-318,270	-128,105	-0,024	0,003
-317,256	60,496	-0,077	-0,056
-316,241	488,676	0,039	-0,065
-315,226	-200,000	-0,006	0,063
-314,212	-200,000	0,023	0,147
-313,197	-87,789	-0,090	0,020
-312,183	28,790	0,037	-0,023
-311,168	313,536	0,057	-0,079
-310,153	141,674	-0,060	-0,058
-309,139	-200,000	0,024	-0,109
-308,124	-200,000	-0,028	0,103
-307,110	-48,520	-0,126	0,044
-306,095	-200,000	-0,009	0,194
-305,080	-200,000	-0,007	0,036
-304,066	11,521	-0,058	0,033
-303,051	800,000	0,005	-0,013
-302,037	365,931	0,070	0,103
-301,022	800,000	-0,029	0,093
-300,008	-83,075	0,042	-0,010
-298,993	511,079	-0,068	-0,116
-297,978	31,325	0,054	-0,034
-296,964	-200,000	-0,025	0,106
-295,949	-200,000	-0,004	-0,138
-294,935	-26,986	0,100	-0,043
-293,920	14,023	-0,091	0,052
-292,905	-141,296	-0,053	0,004
-291,891	-200,000	-0,002	-0,094
-290,876	-200,000	-0,020	-0,086
-289,862	-64,498	-0,050	-0,015
-288,847	105,073	-0,132	-0,114
-287,832	-200,000	-0,018	0,108
-286,818	110,551	-0,101	0,088
-285,803	-14,297	0,073	0,034
-284,789	-200,000	0,001	-0,029
-283,774	102,768	0,047	0,041
-282,759	118,372	-0,045	-0,041
-281,745	-106,677	0,089	0,014
-280,730	-116,310	-0,028	0,004
-279,716	-63,745	-0,090	0,027
-278,701	-101,281	0,134	0,024
-277,686	800,000	0,054	0,153
-276,672	-166,285	-0,113	0,003
-275,657	105,926	-0,030	0,026
-274,643	0,414	-0,172	0,089
-273,628	-200,000	-0,003	-0,174
-272,613	800,000	-0,016	-0,033
-271,599	-69,750	0,042	-0,012
-270,584	207,898	0,103	-0,118
-269,570	-43,883	-0,060	0,022
-268,555	-17,142	0,024	-0,011
-267,540	-180,497	0,079	-0,001
-266,526	-135,769	-0,100	-0,009
-265,511	-200,000	0,008	0,030
-264,497	-200,000	0,002	0,055
-263,482	-144,501	0,118	-0,008
-262,467	-200,000	-0,004	0,020
-261,453	-200,000	-0,029	-0,177
-260,438	275,953	0,138	-0,180
-259,424	-48,770	0,086	-0,030
-258,409	-193,383	-0,100	0,001
-257,395	-200,000	-0,011	-0,062
-256,380	37,339	0,034	0,022
-255,365	-131,023	0,050	0,005
-254,351	131,970	-0,034	-0,032
-253,336	-12,694	0,081	0,038
-252,322	-129,529	-0,058	-0,006
-251,307	-200,000	0,010	0,060
-250,292	-200,000	-0,012	-0,105
-249,278	563,083	0,054	0,096
-248,263	525,092	-0,073	0,125
-247,249	-200,000	0,008	0,081
-246,234	-99,727	0,068	0,012
-245,219	-200,000	0,006	0,097
-244,205	-141,428	-0,080	-0,006
-243,190	-81,044	-0,114	-0,027
-242,176	711,479	-0,068	0,132
-241,161	244,471	0,058	0,071
-240,146	359,329	-0,042	0,062
-239,132	-112,153	0,122	-0,018
-238,117	354,409	-0,055	0,080
-237,103	94,594	-0,069	0,057
-236,088	-200,000	-0,002	-0,141
-235,073	-18,729	-0,110	0,050
-234,059	119,271	0,065	-0,059
-233,044	245,108	0,040	-0,050
-232,030	-128,224	-0,063	-0,007
-231,015	-4,485	-0,088	-0,044
-230,000	75,207	-0,051	0,039
-228,986	-140,789	0,117	0,009
-227,971	248,584	-0,033	0,041
-226,957	246,736	0,100	-0,124
-225,942	-123,817	0,143	0,016
-224,927	798,200	-0,030	-0,062
-223,913	800,000	-0,054	-0,116
-222,898	271,460	-0,029	0,038
-221,884	-54,213	0,110	-0,036
-220,869	262,985	-0,028	0,036
-219,855	666,224	0,074	0,139
-218,840	-200,000	-0,007	-0,073
-217,825	501,871	-0,069	0,117
-216,811	77,827	-0,036	-0,028
-215,796	4,007	-0,045	0,024
-214,782	173,943	-0,109	0,115
-213,767	-200,000	-0,003	-0,032
-212,752	708,878	0,025	-0,048
-211,738	-200,000	0,002	0,005
-210,723	800,000	-0,052	0,111
-209,709	446,868	0,073	-0,118
-208,694	148,064	-0,086	-0,084
-207,679	-81,485	0,058	-0,014
-206,665	2,877	0,080	-0,042
-205,650	-200,000	0,025	-0,224
-204,636	154,088	-0,078	-0,078
-203,621	-200,000	0,004	0,069
-202,606	-200,000	-0,013	-0,063
-201,592	-79,744	-0,103	0,025
-200,577	-200,000	-0,013	-0,070
-199,563	-200,000	0,006	0,029
-198,548	-35,018	0,084	-0,033
-197,533	261,333	0,055	0,070
-196,519	-200,000	0,028	0,188
-195,504	-97,219	-0,039	0,007
-194,490	213,079	-0,121	-0,139
-193,475	402,126	-0,042	-0,064
-192,460	480,823	0,008	0,013
-191,446	-10,350	-0,109	-0,053
-190,431	-91,620	0,218	0,045
-189,417	800,000	0,016	0,037
-188,402	-79,549	-0,111	-0,027
-187,387	319,821	-0,059	0,082
-186,373	-89,445	0,072	-0,015
-185,358	800,000	-0,043	-0,102
-184,344	-123,368	0,073	0,008
-183,329	-113,544	-0,083	0,012
-182,315	675,462	0,038	-0,073
-181,300	-118,563	0,092	0,012
-180,285	-40,922	-0,096	-0,036
-179,271	-113,523	0,088	-0,012
-178,256	800,000	0,023	-0,063
-177,242	800,000	0,053	-0,155
-176,227	161,635	0,022	-0,023
-175,212	800,000	0,064	0,203
-174,198	-64,622	-0,175	-0,051
-173,183	800,000	-0,049	0,122
-172,169	-162,619	-0,034	0,001
-171,154	-49,930	0,132	0,045
-170,139	-119,793	0,128	-0,016
-169,125	800,000	0,062	0,125
-168,110	8,797	0,071	-0,039
-167,096	-200,000	0,000	0,014
-166,081	-200,000	0,022	0,114
-165,066	424,650	0,027	-0,042
-164,052	-143,479	0,112	-0,008
-163,037	-89,987	-0,109	0,023
-162,023	-71,787	-0,043	0,011
-161,008	-41,426	0,089	-0,033
-159,993	-104,101	0,083	0,014
-158,979	-138,047	-0,108	0,009
-157,964	21,184	-0,212	-0,125
-156,950	-200,000	0,008	0,054
-155,935	532,563	0,051	0,088
-154,920	144,597	-0,062	-0,061
-153,906	633,579	-0,033	0,060
-152,891	487,036	-0,048	-0,079
-151,877	230,223	-0,041	-0,049
-150,862	-102,174	-0,081	0,014
-149,847	232,894	0,057	-0,068
-148,833	-141,908	-0,076	0,005
-147,818	800,000	-0,067	0,156
-146,804	51,815	0,087	0,060
-145,789	-24,877	0,069	-0,030
-144,775	800,000	0,013	-0,031
-143,760	-33,549	-0,086	-0,034
-142,745	245,091	-0,027	-0,034
-141,731	746,113	0,020	0,040
-140,716	73,974	-0,092	-0,070
-139,702	-20,775	0,171	0,076
-138,687	800,000	0,013	0,034
-137,672	-200,000	-0,001	-0,033
-136,658	800,000	0,046	-0,114
-135,643	-174,402	0,020	-0,000
-134,629	800,000	-0,017	-0,038
-133,614	-33,399	0,079	-0,032
-132,599	378,603	0,006	-0,008
-131,585	-51,017	0,153	0,052
-130,570	-200,000	-0,021	-0,085
-129,556	46,446	-0,033	0,022
-128,541	202,891	-0,141	-0,159
-127,526	709,079	0,041	-0,080
-126,512	-102,032	-0,077	-0,013
-125,497	271,152	0,107	-0,137
-124,483	-73,580	-0,064	-0,017
-123,468	-200,000	0,009	0,089
-122,453	65,165	-0,076	0,055
-121,439	-118,616	-0,122	-0,015
