DTS Sentinel unit serial number:	SN410029Multiplexer serial number:	ORYXHardware model number:	OX2-SRSoftware version number:	ORYX F/W v4,00 Oryx Data Collector v3.7.2.0data status	okinstallation	B4 Nyhavnadifferential loss correction	single-endedforward channel	channel 2reverse channel	N/Adate	2023/12/19time	14:00:13forward acquisition time	300,00reverse acquisition time	0,00gamma	499,1914k internal	0,3128k external	0,3128temperature offset calibration	1,0000default loss term (dB/km)	0,3820temperature slope calibration	1,0000multiplexer offset coefficient	1,0000multiplexer slope coefficient	1,0000fibre end	0,00T internal ref (°C)	19,38T ext. ref 1 (°C)	4,49T ext. ref 2 (°C)	4,45length (m)	temperature (°C)	Stokes	anti-Stokes-744,400	572,872	0,042	-0,077
-743,385	99,132	-0,164	0,141
-742,371	-55,478	-0,022	0,007
-741,356	800,000	-0,064	0,179
-740,342	800,000	-0,050	-0,123
-739,327	176,383	-0,153	0,165
-738,312	-200,000	-0,008	0,056
-737,298	-101,282	-0,354	0,064
-736,283	-143,017	0,238	0,017
-735,269	-140,268	-0,287	-0,022
-734,254	-103,124	0,081	-0,014
-733,239	-67,190	-0,340	-0,099
-732,225	-200,000	-0,014	-0,126
-731,210	-101,800	0,130	0,023
-730,196	800,000	-0,048	-0,152
-729,181	800,000	0,035	-0,079
-728,167	-113,238	-0,099	-0,014
-727,152	119,227	0,084	-0,077
-726,137	-103,539	-0,187	-0,032
-725,123	-200,000	0,002	-0,084
-724,108	40,805	-0,019	-0,013
-723,094	374,231	-0,089	-0,135
-722,079	-200,000	0,003	-0,012
-721,064	-182,396	-0,099	-0,001
-720,050	9,511	-0,028	-0,016
-719,035	74,758	-0,053	-0,041
-718,021	147,360	-0,050	-0,050
-717,006	-200,000	0,001	-0,213
-715,991	-200,000	-0,016	0,072
-714,977	-32,482	-0,079	-0,033
-713,962	106,216	-0,083	-0,073
-712,948	105,965	0,047	-0,042
-711,933	-31,243	0,040	-0,017
-710,918	25,117	-0,163	0,100
-709,904	-200,000	-0,019	-0,103
-708,889	-29,834	-0,143	0,060
-707,875	-35,686	-0,176	-0,071
-706,860	90,929	0,064	0,053
-705,845	370,534	-0,115	0,173
-704,831	112,666	-0,054	0,049
-703,816	682,765	-0,069	0,135
-702,802	-200,000	-0,015	0,083
-701,787	673,046	-0,056	-0,109
-700,772	800,000	0,020	-0,049
-699,758	89,299	0,082	-0,068
-698,743	344,127	-0,066	-0,096
-697,729	-200,000	-0,023	0,085
-696,714	160,121	-0,034	0,036
-695,699	331,585	0,139	-0,200
-694,685	531,682	0,030	0,053
-693,670	277,056	-0,080	-0,105
-692,656	283,349	-0,062	-0,083
-691,641	800,000	0,020	0,054
-690,627	177,761	-0,029	0,032
-689,612	55,260	-0,097	-0,070
-688,597	-32,043	0,064	-0,026
-687,583	721,817	-0,055	-0,110
-686,568	400,673	-0,077	-0,120
-685,554	-200,000	-0,005	0,092
-684,539	356,581	-0,033	-0,050
-683,524	800,000	-0,005	-0,015
-682,510	-200,000	0,018	-0,138
-681,495	32,812	-0,079	-0,051
-680,481	-163,595	0,136	-0,005
-679,466	-106,834	-0,139	-0,023
-678,451	-200,000	0,001	-0,009
-677,437	-200,000	0,025	0,098
-676,422	-97,379	-0,157	-0,030
-675,408	-157,782	0,145	0,006
-674,393	-200,000	-0,038	0,130
-673,378	-200,000	0,009	-0,058
-672,364	68,628	-0,032	0,024
-671,349	-1,092	-0,095	-0,050
-670,335	337,821	0,019	0,027
-669,320	261,135	-0,031	-0,040
-668,305	46,417	-0,129	-0,089
-667,291	490,193	0,024	-0,040
-666,276	-91,085	-0,064	-0,014
-665,262	7,973	-0,159	-0,088
-664,247	150,468	-0,059	0,060
-663,232	30,858	-0,058	-0,037
-662,218	-200,000	0,020	0,095
-661,203	-80,405	-0,137	-0,034
-660,189	166,427	-0,004	-0,005
-659,174	-200,000	-0,007	-0,059
-658,159	34,191	-0,073	0,047
-657,145	-200,000	-0,022	-0,094
-656,130	284,561	-0,024	-0,033
-655,116	299,494	-0,075	-0,103
-654,101	-137,514	0,155	0,013
-653,086	225,155	-0,024	-0,029
-652,072	197,060	-0,051	-0,057
-651,057	-200,000	-0,012	-0,050
-650,043	-200,000	0,017	-0,149
-649,028	-113,481	0,047	0,007
-648,014	120,718	0,111	0,102
-646,999	24,349	0,023	-0,014
-645,984	-46,010	-0,136	0,049
-644,970	69,376	-0,107	0,081
-643,955	-200,000	-0,015	0,065
-642,941	238,164	-0,089	0,110
-641,926	800,000	-0,031	-0,086
-640,911	-63,485	0,044	-0,013
-639,897	-200,000	-0,007	-0,130
-638,882	-11,252	-0,036	0,018
-637,868	-200,000	0,015	0,118
-636,853	278,981	-0,028	0,037
-635,838	-106,827	-0,040	0,006
-634,824	467,254	-0,045	-0,074
-633,809	22,979	0,030	0,018
-632,795	-154,370	0,137	0,007
-631,780	-200,000	-0,017	-0,141
-630,765	612,361	-0,071	-0,132
-629,751	749,758	-0,089	-0,179
-628,736	157,499	0,065	-0,067
-627,722	709,530	0,071	-0,139
-626,707	567,330	-0,072	-0,130
-625,692	762,639	-0,056	0,112
-624,678	-93,890	0,074	-0,015
-623,663	800,000	0,069	0,148
-622,649	-53,803	0,094	-0,032
-621,634	-95,375	-0,200	-0,040
-620,619	-200,000	-0,024	-0,150
-619,605	800,000	0,029	-0,077
-618,590	800,000	0,067	0,165
-617,576	10,294	-0,045	0,025
-616,561	-200,000	0,011	0,089
-615,546	800,000	0,012	0,037
-614,532	60,282	-0,097	-0,071
-613,517	18,086	-0,097	-0,057
-612,503	47,131	0,123	-0,085
-611,488	-200,000	0,032	0,119
-610,474	-200,000	-0,004	0,078
-609,459	-21,365	-0,118	-0,053
-608,444	70,448	-0,162	-0,124
-607,430	93,620	0,048	-0,041
-606,415	227,524	-0,026	0,032
-605,401	304,725	0,114	-0,157
-604,386	778,190	-0,035	0,071
-603,371	-200,000	0,011	-0,049
-602,357	174,095	0,072	-0,077
-601,342	95,021	-0,052	0,043
-600,328	800,000	-0,044	-0,105
-599,313	574,258	0,042	0,076
-598,298	800,000	0,050	-0,142
-597,284	-200,000	0,001	0,081
-596,269	98,996	-0,112	0,096
-595,255	-42,667	-0,092	0,035
-594,240	-35,225	0,085	0,034
-593,225	-143,229	-0,112	0,008
-592,211	12,328	-0,096	-0,055
-591,196	800,000	0,060	-0,142
-590,182	-200,000	0,003	-0,068
-589,167	-200,000	-0,030	-0,104
-588,152	800,000	-0,015	-0,050
-587,138	24,796	0,098	-0,060
-586,123	372,960	-0,080	-0,120
-585,109	51,020	0,074	0,052
-584,094	286,027	0,097	0,130
-583,079	33,534	-0,070	-0,045
-582,065	189,955	0,109	-0,121
-581,050	521,250	-0,061	-0,107
-580,036	274,610	0,060	0,079
-579,021	-23,673	-0,131	0,058
-578,006	619,908	-0,092	-0,172
-576,992	-200,000	-0,007	0,064
-575,977	-67,521	0,099	0,029
-574,963	-66,099	0,060	0,018
-573,948	112,406	-0,125	0,112
-572,934	-14,033	0,043	-0,020
-571,919	224,511	-0,049	-0,058
-570,904	-200,000	0,012	-0,084
-569,890	800,000	-0,040	-0,097
-568,875	43,464	-0,039	-0,026
-567,861	19,453	-0,017	-0,010
-566,846	-97,268	0,117	-0,022
-565,831	-150,911	-0,157	-0,009
-564,817	-45,767	-0,139	-0,050
-563,802	701,272	0,072	-0,141
-562,788	563,035	-0,051	0,091
-561,773	276,398	0,093	0,122
-560,758	92,893	0,083	0,069
-559,744	800,000	-0,031	0,092
-558,729	-200,000	0,008	0,033
-557,715	-28,248	0,083	0,035
-556,700	87,235	-0,088	-0,072
-555,685	-62,844	-0,098	0,030
-554,671	760,532	0,025	0,050
-553,656	-144,772	0,154	0,010
-552,642	800,000	0,039	0,108
-551,627	800,000	-0,027	0,077
-550,612	-143,748	-0,074	-0,005
-549,598	800,000	-0,057	-0,172
-548,583	800,000	0,003	0,006
-547,569	26,559	-0,008	-0,005
-546,554	-126,175	0,059	0,006
-545,539	175,349	0,107	0,115
-544,525	-141,528	0,081	-0,006
-543,510	-200,000	0,010	0,111
-542,496	-200,000	-0,000	-0,063
-541,481	106,588	-0,091	0,080
-540,466	200,338	0,046	0,052
-539,452	800,000	0,015	0,047
-538,437	87,106	0,111	0,090
-537,423	800,000	0,026	0,056
-536,408	-200,000	0,000	0,025
-535,393	-82,047	-0,062	0,015
-534,379	-182,902	-0,111	-0,001
-533,364	-200,000	0,006	-0,074
-532,350	-200,000	-0,030	-0,105
-531,335	-200,000	0,005	0,019
-530,321	-200,000	0,002	0,033
-529,306	800,000	-0,050	0,125
-528,291	183,871	-0,068	-0,075
-527,277	800,000	-0,016	-0,036
-526,262	474,216	0,011	-0,018
-525,248	-15,095	0,043	-0,020
-524,233	-33,770	-0,129	0,052
-523,218	-200,000	0,002	0,097
-522,204	800,000	-0,020	0,061
-521,189	-200,000	-0,017	0,168
-520,175	-44,311	-0,113	0,042
-519,160	800,000	-0,070	-0,166
-518,145	291,979	0,081	-0,109
-517,131	178,731	0,033	0,036
-516,116	150,117	0,057	0,057
-515,102	85,216	-0,100	-0,081
-514,087	35,741	0,046	-0,030
-513,072	-200,000	0,011	-0,063
-512,058	439,185	-0,034	-0,055
-511,043	-6,703	0,060	0,030
-510,029	-200,000	0,007	0,030
-509,014	654,916	0,082	0,156
-507,999	135,679	0,060	0,058
-506,985	-56,647	-0,121	-0,039
-505,970	469,300	0,035	0,058
-504,956	800,000	0,021	0,066
-503,941	-139,040	-0,094	0,007
-502,926	-52,779	-0,039	0,013
-501,912	191,748	0,070	-0,078
-500,897	-200,000	0,005	-0,087
-499,883	141,551	0,054	-0,053
-498,868	151,146	0,031	-0,031
-497,853	-8,240	0,063	0,031
-496,839	-200,000	-0,003	-0,042
-495,824	142,485	-0,070	0,069
-494,810	800,000	0,005	0,013
-493,795	-162,090	0,045	-0,002
-492,781	325,855	0,048	0,068
-491,766	-29,048	-0,098	-0,041
-490,751	478,167	0,043	-0,072
-489,737	389,498	0,025	0,038
-488,722	275,197	-0,013	0,016
-487,708	800,000	0,037	0,112
-486,693	-200,000	0,021	-0,109
-485,678	274,313	0,074	0,096
-484,664	59,868	-0,075	0,055
-483,649	-200,000	0,000	-0,083
-482,635	354,526	0,039	-0,058
-481,620	-97,850	-0,033	0,006
-480,605	-56,685	0,079	-0,025
-479,591	-200,000	-0,015	0,100
-478,576	307,039	-0,030	0,041
-477,562	-200,000	-0,005	-0,045
-476,547	-200,000	-0,010	0,047
-475,532	782,028	-0,027	0,054
-474,518	-114,804	0,041	-0,006
-473,503	139,375	0,058	0,056
-472,489	-14,876	0,061	-0,029
-471,474	72,032	-0,075	-0,057
-470,459	-20,433	-0,029	-0,013
-469,445	95,257	-0,099	0,083
-468,430	-56,986	-0,167	0,054
-467,416	461,911	0,070	0,116
-466,401	405,371	0,022	0,034
-465,386	-200,000	0,015	-0,070
-464,372	800,000	0,025	0,068
-463,357	800,000	0,027	-0,066
-462,343	-200,000	-0,008	-0,054
-461,328	-27,520	0,056	0,024
-460,313	-200,000	-0,004	-0,087
-459,299	268,366	0,064	0,083
-458,284	39,536	0,122	0,080
-457,270	29,719	0,030	-0,018
-456,255	691,383	-0,035	0,067
-455,241	138,880	0,105	-0,102
-454,226	142,141	-0,103	-0,101
-453,211	800,000	-0,022	0,061
-452,197	152,490	-0,112	0,113
-451,182	-81,803	0,087	0,021
-450,168	35,877	-0,152	0,098
-449,153	800,000	0,033	0,077
-448,138	-174,266	-0,202	-0,004
-447,124	191,933	-0,045	-0,050
-446,109	-131,370	0,119	0,011
-445,095	-106,130	-0,015	-0,002
-444,080	215,510	0,114	0,133
-443,065	555,389	0,063	0,112
-442,051	266,318	0,063	0,081
-441,036	82,878	-0,080	0,064
-440,022	164,820	-0,008	0,008
-439,007	-142,441	-0,092	0,007
-437,992	-78,519	0,120	0,030
-436,978	-200,000	0,020	0,087
-435,963	175,048	0,088	0,094
-434,949	-200,000	-0,018	0,070
-433,934	61,655	-0,135	-0,099
-432,919	675,245	-0,028	-0,053
-431,905	47,035	0,050	0,034
-430,890	-200,000	0,021	-0,071
-429,876	800,000	0,017	-0,054
-428,861	-200,000	-0,028	0,101
-427,846	611,820	0,031	-0,057
-426,832	800,000	-0,069	-0,158
-425,817	-35,109	0,072	0,029
-424,803	-200,000	0,012	-0,091
-423,788	-21,285	0,102	-0,046
-422,773	-26,060	0,034	-0,015
-421,759	-200,000	-0,015	0,094
-420,744	-99,070	0,079	0,015
-419,730	266,170	-0,141	-0,181
-418,715	-166,834	-0,063	-0,002
-417,701	-29,107	-0,088	0,037
-416,686	133,340	0,075	-0,072
-415,671	-137,373	0,116	-0,009
-414,657	-200,000	0,010	0,062
-413,642	-200,000	0,017	0,096
-412,628	289,652	-0,069	0,092
-411,613	800,000	-0,046	-0,139
-410,598	20,442	-0,099	0,059
-409,584	-200,000	0,001	0,008
-408,569	16,806	0,192	0,111
-407,555	248,864	-0,015	-0,018
-406,540	800,000	-0,043	-0,113
-405,525	-200,000	-0,004	0,130
-404,511	-200,000	-0,021	-0,083
-403,496	800,000	-0,025	-0,058
-402,482	-148,563	-0,085	-0,005
-401,467	54,829	-0,041	-0,029
-400,452	512,274	-0,023	0,040
-399,438	-200,000	0,002	0,049
-398,423	373,322	0,034	0,051
-397,409	-158,464	-0,101	-0,004
-396,394	-126,099	-0,038	0,004
-395,379	800,000	0,068	0,194
-394,365	-42,082	-0,046	-0,017
-393,350	193,996	0,140	0,156
-392,336	3,307	0,116	0,062
-391,321	-104,817	0,066	0,011
-390,306	-144,791	0,066	-0,004
-389,292	-82,839	-0,114	-0,027
-388,277	-200,000	-0,001	0,018
-387,263	10,374	0,107	0,060
-386,248	800,000	-0,055	0,161
-385,233	-50,225	0,082	0,028
-384,219	-127,788	0,107	-0,011
-383,204	-137,773	-0,142	-0,012
-382,190	353,220	-0,069	-0,101
-381,175	242,358	0,085	-0,104
-380,160	-96,897	0,048	-0,009
-379,146	-163,674	0,112	0,004
-378,131	-36,028	0,104	-0,041
-377,117	-200,000	0,004	-0,043
-376,102	84,351	-0,069	-0,055
-375,088	-200,000	0,000	-0,049
-374,073	36,072	-0,034	0,022
-373,058	212,092	-0,037	-0,043
-372,044	-200,000	-0,036	0,139
-371,029	376,392	0,041	0,061
-370,015	384,923	0,044	-0,067
-369,000	-84,873	0,104	-0,024
-367,985	-200,000	0,017	-0,108
-366,971	688,521	0,032	0,062
-365,956	-165,451	0,126	0,004
-364,942	-2,912	0,092	-0,047
-363,927	60,082	-0,085	0,062
-362,912	136,162	0,128	0,123
-361,898	800,000	0,029	-0,082
-360,883	-200,000	-0,007	-0,033
-359,869	64,057	0,026	0,019
-358,854	800,000	0,025	-0,076
-357,839	-45,531	-0,005	0,002
-356,825	-77,715	0,062	-0,016
-355,810	-33,987	-0,093	0,037
-354,796	-54,018	-0,113	0,037
-353,781	800,000	-0,048	-0,101
-352,766	49,133	-0,068	0,047
-351,752	-83,672	0,102	0,024
-350,737	164,395	-0,053	0,055
-349,723	622,207	0,033	0,061
-348,708	94,897	0,119	-0,099
-347,693	-200,000	0,005	0,054
-346,679	93,773	0,095	-0,079
-345,664	152,189	-0,101	0,101
-344,650	800,000	0,079	0,171
-343,635	600,762	0,033	0,060
-342,620	280,978	0,046	0,061
-341,606	135,705	-0,128	0,123
-340,591	202,448	-0,067	-0,075
-339,577	706,518	0,059	0,115
-338,562	388,542	0,074	-0,113
-337,548	-200,000	0,018	-0,145
-336,533	-5,784	0,095	-0,047
-335,518	83,258	0,060	0,048
-334,504	800,000	-0,022	0,058
-333,489	53,537	0,121	-0,085
-332,475	-134,509	-0,093	0,008
-331,460	-200,000	0,002	-0,060
-330,445	-43,476	-0,086	-0,032
-329,431	-200,000	-0,007	0,096
-328,416	87,983	0,091	-0,074
-327,402	-200,000	0,021	0,083
-326,387	-200,000	-0,011	0,038
-325,372	20,765	-0,097	0,057
-324,358	-45,365	0,089	-0,032
-323,343	27,361	0,133	-0,082
-322,329	-107,709	0,084	0,013
-321,314	438,134	-0,078	0,124
-320,299	-58,639	-0,060	0,019
-319,285	31,322	-0,077	0,048
-318,270	-29,578	0,086	-0,036
-317,256	-4,654	-0,097	-0,049
-316,241	-9,237	-0,078	0,038
-315,226	-144,373	0,050	0,003
-314,212	554,237	0,020	0,035
-313,197	-200,000	-0,014	-0,072
-312,183	105,494	0,090	0,078
-311,168	800,000	-0,021	-0,054
-310,153	-81,120	0,164	-0,039
-309,139	-200,000	0,007	0,030
-308,124	800,000	-0,026	0,059
-307,110	22,281	0,050	-0,030
-306,095	-200,000	-0,014	0,126
-305,080	800,000	0,026	0,076
-304,066	800,000	-0,009	-0,027
-303,051	115,922	-0,123	-0,110
-302,037	-74,970	-0,049	-0,013
-301,022	164,390	0,094	0,097
-300,008	-38,598	0,092	-0,035
-298,993	-127,495	0,043	0,005
-297,978	-81,047	-0,191	0,046
-296,964	67,417	-0,059	-0,044
-295,949	800,000	-0,003	0,008
-294,935	-106,846	-0,043	-0,007
-293,920	-54,305	0,118	-0,039
-292,905	97,313	0,030	0,025
-291,891	-20,818	0,073	0,032
-290,876	175,296	-0,047	0,050
-289,862	-200,000	-0,009	0,082
-288,847	-107,638	-0,052	0,008
-287,832	133,637	-0,099	-0,094
-286,818	-200,000	0,017	-0,152
-285,803	-53,355	0,130	0,043
-284,789	38,031	0,111	0,072
-283,774	-200,000	-0,003	0,064
-282,759	-200,000	0,007	-0,035
-281,745	800,000	-0,023	-0,060
-280,730	461,907	-0,067	-0,109
-279,716	-200,000	0,014	0,048
-278,701	263,367	-0,048	0,061
-277,686	-131,548	0,109	0,010
-276,672	-25,090	0,052	0,023
-275,657	127,691	-0,043	-0,040
-274,643	-53,052	-0,035	-0,012
-273,628	404,548	-0,099	-0,154
-272,613	-200,000	0,014	-0,049
-271,599	-200,000	-0,005	-0,064
-270,584	-29,651	0,077	0,032
-269,570	216,513	0,053	0,061
-268,555	625,971	-0,010	-0,019
-267,540	0,198	0,069	-0,036
-266,526	-200,000	-0,033	-0,115
-265,511	-50,449	0,043	0,015
-264,497	-200,000	0,011	-0,053
-263,482	332,855	0,088	0,124
-262,467	-200,000	-0,050	0,181
-261,453	-200,000	0,022	-0,097
-260,438	1,605	-0,137	-0,072
-259,424	315,380	-0,069	-0,095
-258,409	720,121	-0,051	-0,099
-257,395	232,697	-0,037	0,045
-256,380	-82,148	0,076	-0,018
-255,365	-200,000	-0,001	-0,025
-254,351	287,352	0,012	0,016
-253,336	-200,000	0,001	-0,013
-252,322	-200,000	0,000	-0,071
-251,307	-200,000	-0,006	-0,143
-250,292	258,117	0,065	0,082
-249,278	103,697	0,077	0,066
-248,263	-159,878	-0,053	-0,002
-247,249	39,996	0,029	0,019
-246,234	-28,457	-0,060	0,025
-245,219	-200,000	0,033	-0,121
-244,205	800,000	0,041	-0,108
-243,190	-2,612	-0,104	-0,053
-242,176	-21,034	0,116	0,052
-241,161	800,000	0,016	0,045
-240,146	142,625	-0,075	-0,073
-239,132	-78,420	0,078	-0,019
-238,117	800,000	-0,042	-0,112
-237,103	-200,000	0,017	0,087
-236,088	-108,230	0,199	-0,031
-235,073	-39,418	-0,062	-0,024
-234,059	259,780	0,078	-0,098
-233,044	-69,535	-0,122	-0,034
-232,030	-200,000	-0,010	-0,048
-231,015	639,385	-0,049	-0,091
-230,000	220,481	-0,151	-0,177
-228,986	431,077	-0,058	-0,093
-227,971	-10,079	0,163	-0,079
-226,957	-31,560	-0,082	0,033
-225,942	193,044	-0,092	0,102
-224,927	27,208	-0,079	0,048
-223,913	-200,000	-0,008	0,077
-222,898	-200,000	0,057	-0,200
-221,884	-176,938	0,161	0,003
-220,869	226,499	0,036	-0,042
-219,855	-100,137	0,154	0,028
-218,840	53,914	-0,025	-0,017
-217,825	-200,000	0,088	0,000
-216,811	-200,000	0,002	-0,083
-215,796	66,134	-0,069	-0,051
-214,782	28,109	0,062	-0,038
-213,767	-20,154	0,158	-0,071
-212,752	-200,000	0,048	0,159
-211,738	-200,000	-0,015	0,070
-210,723	-158,322	-0,205	-0,009
-209,709	800,000	-0,060	-0,134
-208,694	439,308	-0,014	0,022
-207,679	-63,393	-0,067	0,020
-206,665	-12,500	-0,078	-0,037
-205,650	-87,663	-0,044	-0,010
-204,636	800,000	-0,046	0,102
-203,621	-81,517	-0,020	0,005
-202,606	-200,000	0,015	0,079
-201,592	800,000	0,029	-0,059
-200,577	307,112	0,070	-0,096
-199,563	-116,654	-0,020	-0,003
-198,548	800,000	0,020	0,057
-197,533	253,495	-0,074	0,093
-196,519	-200,000	-0,007	-0,064
-195,504	48,646	0,180	0,123
-194,490	66,417	-0,071	-0,053
-193,475	210,847	-0,027	-0,031
-192,460	390,861	-0,154	0,234
-191,446	-82,268	0,044	0,010
-190,431	-96,098	0,040	-0,008
-189,417	175,887	0,042	-0,044
-188,402	171,435	-0,069	-0,073
-187,387	-38,552	0,062	-0,024
-186,373	154,910	0,061	-0,061
-185,358	800,000	0,051	0,118
-184,344	-200,000	0,029	0,123
-183,329	-200,000	0,005	0,022
-182,315	-113,248	0,071	-0,010
-181,300	151,769	-0,123	-0,122
-180,285	224,178	-0,146	0,172
-179,271	485,155	0,052	0,087
-178,256	98,005	-0,085	-0,071
-177,242	174,487	-0,081	0,086
-176,227	140,871	-0,093	-0,090
-175,212	800,000	-0,027	-0,057
-174,198	-200,000	0,016	-0,053
-173,183	209,292	0,038	0,043
-172,169	-66,297	-0,041	-0,012
-171,154	29,925	0,017	-0,010
-170,139	266,723	-0,018	0,023
-169,125	800,000	0,034	-0,079
-168,110	307,062	-0,110	0,150
-167,096	-200,000	-0,011	-0,038
-166,081	-140,992	-0,154	-0,011
-165,066	-127,699	-0,065	0,007
-164,052	800,000	-0,003	-0,009
-163,037	258,820	0,048	0,060
-162,023	-32,696	0,128	0,052
-161,008	-200,000	-0,010	-0,047
-159,993	95,749	-0,081	0,067
-158,979	68,276	-0,094	-0,070
-157,964	-200,000	-0,048	-0,172
-156,950	204,554	-0,087	-0,098
-155,935	-200,000	0,015	-0,053
-154,920	800,000	0,036	0,090
-153,906	-161,262	0,067	-0,002
-152,891	-86,055	-0,107	0,024
-151,877	392,401	-0,024	-0,036
-150,862	-53,187	-0,023	0,008
-149,847	197,836	-0,087	-0,097
-148,833	20,772	0,136	-0,080
-147,818	800,000	-0,077	0,156
-146,804	75,230	-0,061	-0,047
-145,789	-51,508	0,136	0,046
-144,775	800,000	0,041	-0,133
-143,760	-21,856	0,030	0,013
-142,745	516,665	0,025	-0,042
-141,731	-200,000	0,030	-0,149
-140,716	297,460	-0,060	-0,080
-139,702	-69,084	-0,167	0,046
-138,687	800,000	0,045	0,124
-137,672	-200,000	-0,002	0,035
-136,658	15,769	-0,056	0,032
-135,643	137,304	0,064	-0,061
-134,629	-62,373	-0,129	0,039
-133,614	-200,000	-0,025	0,093
-132,599	-89,382	0,043	-0,009
-131,585	-62,755	-0,051	0,015
-130,570	-200,000	0,020	-0,092
-129,556	181,932	0,037	0,039
-128,541	800,000	-0,048	0,101
-127,526	215,506	0,056	0,064
-126,512	800,000	0,040	0,089
-125,497	-108,291	-0,063	-0,010
-124,483	115,995	0,074	0,066
-123,468	346,966	0,062	0,089
-122,453	275,967	0,048	-0,062
-121,439	48,515	0,065	-0,044
-120,424	-134,858	-0,036	0,003
-119,410	10,002	0,047	0,026
