DTS Sentinel unit serial number:	SN410029Multiplexer serial number:	ORYXHardware model number:	OX2-SRSoftware version number:	ORYX F/W v4,00 Oryx Data Collector v3.7.2.0data status	okinstallation	B4 Nyhavnadifferential loss correction	single-endedforward channel	channel 2reverse channel	N/Adate	2023/12/16time	03:50:13forward acquisition time	300,00reverse acquisition time	0,00gamma	499,1914k internal	0,3128k external	0,3128temperature offset calibration	1,0000default loss term (dB/km)	0,3820temperature slope calibration	1,0000multiplexer offset coefficient	1,0000multiplexer slope coefficient	1,0000fibre end	0,00T internal ref (°C)	22,00T ext. ref 1 (°C)	7,05T ext. ref 2 (°C)	7,23length (m)	temperature (°C)	Stokes	anti-Stokes-744,400	-157,453	0,171	0,008
-743,385	-60,321	-0,219	0,069
-742,371	-20,640	0,050	-0,023
-741,356	-79,448	-0,294	0,073
-740,342	338,873	0,076	0,110
-739,327	-115,654	-0,121	-0,017
-738,312	764,825	0,082	-0,166
-737,298	-111,287	-0,184	-0,028
-736,283	800,000	-0,052	-0,130
-735,269	24,409	-0,224	0,137
-734,254	403,541	-0,038	-0,060
-733,239	-70,204	-0,286	-0,080
-732,225	-126,140	0,126	0,014
-731,210	149,516	-0,082	0,083
-730,196	-200,000	-0,024	0,120
-729,181	-200,000	0,004	0,072
-728,167	-200,000	-0,019	0,064
-727,152	97,439	0,051	-0,044
-726,137	344,543	-0,081	-0,118
-725,123	-200,000	0,029	0,110
-724,108	14,132	-0,067	-0,039
-723,094	-200,000	-0,010	-0,122
-722,079	131,697	-0,045	-0,043
-721,064	800,000	-0,050	-0,127
-720,050	231,500	0,064	-0,078
-719,035	-125,133	-0,216	0,024
-718,021	-200,000	0,041	-0,168
-717,006	-78,758	-0,137	-0,035
-715,991	786,937	-0,055	-0,113
-714,977	-200,000	-0,035	-0,162
-713,962	-17,218	0,054	-0,025
-712,948	122,633	-0,029	0,027
-711,933	800,000	0,049	-0,145
-710,918	-200,000	-0,006	0,032
-709,904	92,046	0,025	-0,021
-708,889	4,064	-0,068	-0,037
-707,875	121,631	-0,088	-0,082
-706,860	-76,827	0,097	0,025
-705,845	-200,000	0,005	0,034
-704,831	-200,000	-0,034	0,119
-703,816	-47,116	-0,109	0,039
-702,802	357,507	-0,072	-0,106
-701,787	150,496	-0,055	-0,055
-700,772	800,000	-0,051	-0,156
-699,758	195,564	0,052	-0,059
-698,743	-200,000	-0,014	0,080
-697,729	383,597	-0,015	0,023
-696,714	-135,809	0,092	0,008
-695,699	800,000	-0,018	0,053
-694,685	70,099	0,049	-0,037
-693,670	174,291	-0,107	0,115
-692,656	-200,000	-0,003	0,078
-691,641	-161,327	0,056	-0,002
-690,627	12,778	0,045	0,026
-689,612	40,348	0,049	0,033
-688,597	-200,000	-0,001	0,032
-687,583	217,204	-0,077	-0,091
-686,568	-132,076	-0,079	0,008
-685,554	86,166	-0,015	-0,013
-684,539	-200,000	-0,016	-0,073
-683,524	-200,000	0,020	0,119
-682,510	-159,833	0,047	-0,002
-681,495	-200,000	-0,012	-0,062
-680,481	800,000	-0,025	0,073
-679,466	-200,000	-0,007	-0,045
-678,451	800,000	-0,029	-0,066
-677,437	-200,000	-0,017	-0,107
-676,422	800,000	0,011	0,026
-675,408	-27,339	0,064	0,028
-674,393	509,066	0,046	-0,080
-673,378	-118,475	-0,124	0,016
-672,364	11,505	-0,033	0,019
-671,349	258,087	-0,120	-0,154
-670,335	135,233	0,047	0,046
-669,320	128,912	0,093	0,088
-668,305	128,673	0,038	-0,036
-667,291	800,000	0,041	0,091
-666,276	546,335	-0,066	-0,118
-665,262	-200,000	-0,024	-0,155
-664,247	-108,549	-0,074	0,012
-663,232	166,456	0,008	0,009
-662,218	-84,669	-0,034	-0,008
-661,203	-105,749	0,162	-0,027
-660,189	-44,090	0,005	0,002
-659,174	800,000	0,034	-0,079
-658,159	387,813	-0,056	-0,086
-657,145	458,025	-0,069	-0,115
-656,130	-112,660	0,116	0,017
-655,116	166,474	-0,070	-0,074
-654,101	5,076	0,061	0,033
-653,086	46,405	0,095	0,065
-652,072	621,788	0,085	0,160
-651,057	-15,151	0,049	-0,023
-650,043	337,260	-0,062	-0,089
-649,028	-200,000	-0,014	-0,127
-648,014	-200,000	0,012	-0,148
-646,999	618,462	-0,011	-0,021
-645,984	8,957	0,067	-0,038
-644,970	-200,000	0,032	-0,114
-643,955	-200,000	-0,021	-0,090
-642,941	800,000	-0,065	-0,186
-641,926	46,762	-0,028	0,019
-640,911	448,747	-0,048	0,079
-639,897	-200,000	0,018	-0,067
-638,882	107,925	-0,021	0,019
-637,868	-200,000	0,003	0,089
-636,853	112,066	-0,018	0,016
-635,838	-170,150	0,073	0,002
-634,824	-48,612	0,045	0,016
-633,809	-59,923	-0,114	-0,036
-632,795	-200,000	-0,017	0,092
-631,780	755,001	0,081	0,163
-630,765	-106,808	-0,056	0,009
-629,751	-200,000	0,008	-0,039
-628,736	800,000	-0,040	-0,088
-627,722	800,000	0,007	-0,019
-626,707	-46,017	-0,054	0,020
-625,692	-200,000	-0,016	-0,060
-624,678	231,434	0,030	-0,036
-623,663	-200,000	-0,018	-0,115
-622,649	71,134	0,052	-0,040
-621,634	-1,537	-0,120	0,063
-620,619	-109,249	-0,137	-0,021
-619,605	-51,999	0,003	-0,001
-618,590	371,394	-0,018	-0,027
-617,576	214,570	0,047	0,055
-616,561	-72,894	-0,147	0,040
-615,546	-200,000	0,077	-0,000
-614,532	-24,864	-0,058	-0,025
-613,517	-148,334	0,024	-0,001
-612,503	800,000	0,034	0,087
-611,488	-103,368	0,088	0,015
-610,474	264,034	0,057	0,073
-609,459	-131,760	0,161	-0,015
-608,444	-132,824	0,057	0,005
-607,430	90,748	-0,023	0,019
-606,415	198,358	-0,018	0,020
-605,401	800,000	-0,021	0,066
-604,386	1,715	0,069	-0,037
-603,371	-11,433	0,123	0,060
-602,357	191,787	0,047	-0,053
-601,342	97,154	-0,118	-0,100
-600,328	-84,201	-0,069	0,016
-599,313	-34,612	-0,044	-0,018
-598,298	-200,000	0,004	0,070
-597,284	89,020	0,025	-0,020
-596,269	-200,000	-0,005	0,047
-595,255	33,929	0,099	0,063
-594,240	-200,000	0,026	0,148
-593,225	-42,158	-0,025	-0,010
-592,211	320,737	-0,084	-0,118
-591,196	170,991	0,040	0,042
-590,182	-183,053	0,105	-0,001
-589,167	-68,369	0,077	-0,022
-588,152	452,067	-0,062	0,101
-587,138	-126,765	-0,034	0,004
-586,123	800,000	-0,016	-0,050
-585,109	-15,472	0,029	0,014
-584,094	-142,628	-0,054	0,004
-583,079	-63,805	0,095	0,028
-582,065	800,000	0,005	0,013
-581,050	-141,371	-0,084	-0,006
-580,036	-11,564	0,125	0,061
-579,021	800,000	0,038	0,108
-578,006	-200,000	0,004	-0,131
-576,992	33,068	0,040	0,026
-575,977	800,000	-0,028	0,086
-574,963	-22,424	0,104	-0,046
-573,948	0,457	0,115	0,061
-572,934	109,826	0,146	0,129
-571,919	-130,579	-0,063	0,006
-570,904	283,283	-0,048	-0,064
-569,890	24,115	-0,106	-0,065
-568,875	293,722	-0,045	-0,061
-567,861	129,342	0,017	-0,016
-566,846	55,772	-0,084	0,060
-565,831	15,562	-0,062	0,036
-564,817	594,477	-0,076	0,140
-563,802	800,000	-0,026	0,056
-562,788	39,113	0,042	0,027
-561,773	-200,000	-0,018	-0,111
-560,758	70,810	0,143	-0,109
-559,744	800,000	-0,035	-0,081
-558,729	54,836	-0,048	0,034
-557,715	24,128	-0,053	-0,032
-556,700	-200,000	0,009	-0,040
-555,685	-200,000	-0,033	-0,121
-554,671	83,499	-0,114	0,092
-553,656	-71,535	0,121	-0,033
-552,642	-200,000	0,020	0,108
-551,627	-200,000	0,001	-0,073
-550,612	109,264	-0,013	-0,011
-549,598	394,620	-0,054	-0,084
-548,583	-7,729	-0,220	0,109
-547,569	1,585	0,091	-0,048
-546,554	717,793	-0,036	0,072
-545,539	-141,241	0,104	0,008
-544,525	202,158	0,024	-0,028
-543,510	-200,000	0,002	0,079
-542,496	-138,213	-0,076	0,006
-541,481	0,756	-0,057	0,030
-540,466	209,922	0,057	-0,066
-539,452	89,682	0,122	0,100
-538,437	43,504	0,085	0,057
-537,423	52,744	0,038	-0,027
-536,408	-42,658	-0,063	0,024
-535,393	83,647	-0,099	0,080
-534,379	-200,000	-0,001	-0,098
-533,364	800,000	-0,097	-0,263
-532,350	82,149	-0,097	0,078
-531,335	-200,000	0,015	0,182
-530,321	-200,000	0,015	-0,096
-529,306	-138,454	0,080	0,006
-528,291	-97,913	-0,059	-0,011
-527,277	357,095	0,052	0,077
-526,262	-200,000	-0,018	0,119
-525,248	-200,000	0,010	-0,053
-524,233	138,934	-0,043	0,041
-523,218	-200,000	-0,020	-0,125
-522,204	-200,000	-0,008	0,048
-521,189	-200,000	-0,002	-0,007
-520,175	184,512	-0,110	-0,121
-519,160	800,000	-0,011	-0,031
-518,145	-141,208	0,107	0,008
-517,131	324,618	0,105	0,149
-516,116	299,443	0,062	0,084
-515,102	93,283	-0,120	-0,100
-514,087	-200,000	0,013	0,073
-513,072	-200,000	-0,028	-0,164
-512,058	-200,000	-0,030	-0,112
-511,043	175,519	-0,023	-0,025
-510,029	322,338	-0,093	-0,131
-509,014	221,648	-0,010	-0,012
-507,999	-97,024	0,159	-0,031
-506,985	800,000	0,026	-0,070
-505,970	363,979	-0,045	-0,067
-504,956	-200,000	-0,001	0,003
-503,941	-51,333	0,081	0,028
-502,926	289,517	0,038	0,051
-501,912	800,000	0,015	0,049
-500,897	-15,053	0,136	0,064
-499,883	-144,457	-0,068	0,005
-498,868	572,928	-0,055	-0,100
-497,853	-99,714	-0,085	-0,015
-496,839	5,230	-0,098	0,053
-495,824	-92,271	0,039	-0,008
-494,810	181,882	-0,037	-0,041
-493,795	-128,589	0,198	-0,020
-492,781	685,570	-0,054	-0,105
-491,766	-70,920	0,060	0,017
-490,751	-81,148	-0,061	-0,015
-489,737	213,684	0,061	-0,072
-488,722	236,906	-0,044	-0,054
-487,708	61,276	0,025	0,018
-486,693	-200,000	0,005	0,117
-485,678	-200,000	-0,007	-0,026
-484,664	800,000	-0,025	-0,063
-483,649	522,939	-0,036	0,063
-482,635	-33,565	-0,139	0,056
-481,620	-70,602	-0,024	0,007
-480,605	63,502	0,036	-0,027
-479,591	-200,000	0,020	0,182
-478,576	140,659	0,044	0,043
-477,562	-47,682	0,073	-0,026
-476,547	14,107	0,072	0,041
-475,532	251,850	-0,025	-0,031
-474,518	800,000	0,025	-0,067
-473,503	-200,000	0,006	0,126
-472,489	46,637	0,083	-0,056
-471,474	-43,241	0,129	0,048
-470,459	111,411	-0,051	-0,045
-469,445	720,038	0,042	-0,083
-468,430	-200,000	-0,009	-0,063
-467,416	-129,140	0,110	-0,011
-466,401	-117,793	-0,059	-0,008
-465,386	-78,525	0,074	0,019
-464,372	-96,656	-0,060	0,012
-463,357	-11,170	0,016	0,008
-462,343	-200,000	0,009	-0,101
-461,328	346,426	-0,054	-0,078
-460,313	494,040	0,055	-0,093
-459,299	-60,172	0,064	-0,020
-458,284	800,000	-0,034	-0,100
-457,270	58,720	0,157	-0,114
-456,255	5,841	-0,081	0,044
-455,241	277,571	-0,101	-0,133
-454,226	800,000	-0,048	0,115
-453,211	800,000	0,078	0,177
-452,197	502,789	0,040	0,068
-451,182	-50,614	0,125	0,043
-450,168	197,792	-0,131	0,147
-449,153	-22,064	-0,108	-0,048
-448,138	-75,987	0,096	-0,025
-447,124	301,619	0,045	-0,061
-446,109	800,000	-0,008	-0,024
-445,095	202,371	-0,040	0,045
-444,080	305,524	-0,029	0,040
-443,065	800,000	-0,063	0,153
-442,051	-158,454	-0,019	-0,001
-441,036	-200,000	0,012	-0,139
-440,022	93,480	-0,071	-0,059
-439,007	-157,612	0,116	0,005
-437,992	204,862	-0,044	0,050
-436,978	676,645	-0,080	-0,154
-435,963	141,762	0,038	0,037
-434,949	-162,661	0,139	0,005
-433,934	509,761	0,061	-0,105
-432,919	800,000	-0,042	-0,127
-431,905	-97,177	0,107	-0,020
-430,890	-200,000	0,021	-0,102
-429,876	20,300	0,047	0,028
-428,861	733,854	0,085	0,168
-427,846	-200,000	0,000	0,094
-426,832	800,000	-0,067	-0,147
-425,817	171,229	-0,080	-0,084
-424,803	-200,000	-0,018	-0,121
-423,788	429,623	0,069	0,110
-422,773	-88,561	0,147	0,032
-421,759	-200,000	-0,001	0,052
-420,744	218,837	-0,030	0,035
-419,730	-200,000	-0,032	-0,136
-418,715	-108,031	-0,057	-0,009
-417,701	-200,000	0,007	0,051
-416,686	-158,099	-0,154	0,007
-415,671	-200,000	0,005	0,033
-414,657	350,241	-0,093	0,135
-413,642	32,407	0,123	0,078
-412,628	340,297	-0,069	-0,099
-411,613	16,053	0,067	-0,038
-410,598	-7,816	0,129	-0,064
-409,584	-200,000	-0,011	-0,057
-408,569	42,382	0,170	0,113
-407,555	-14,285	0,071	-0,034
-406,540	540,285	0,038	-0,066
-405,525	-37,599	0,058	0,023
-404,511	354,915	-0,018	0,026
-403,496	-42,475	-0,049	0,018
-402,482	-100,655	0,130	-0,023
-401,467	-21,048	-0,057	-0,026
-400,452	33,594	0,137	-0,087
-399,438	-109,980	0,038	-0,006
-398,423	-200,000	0,005	0,067
-397,409	-61,781	-0,012	-0,004
-396,394	-200,000	-0,005	-0,037
-395,379	-113,715	0,051	-0,007
-394,365	26,497	-0,088	0,054
-393,350	-37,000	0,099	0,039
-392,336	-77,695	-0,011	-0,003
-391,321	-182,734	0,104	0,001
-390,306	46,561	-0,091	0,062
-389,292	-113,306	-0,151	0,022
-388,277	241,942	-0,072	0,088
-387,263	-200,000	-0,024	0,109
-386,248	129,108	-0,058	0,054
-385,233	-107,060	-0,086	-0,014
-384,219	-12,556	0,080	-0,038
-383,204	3,877	0,056	0,030
-382,190	394,399	-0,060	0,091
-381,175	758,153	-0,018	-0,036
-380,160	-65,678	0,040	0,012
-379,146	478,011	-0,011	0,018
-378,131	-200,000	-0,018	0,171
-377,117	-40,101	0,119	-0,045
-376,102	-0,886	-0,118	0,061
-375,088	174,376	0,037	-0,039
-374,073	422,481	0,026	0,041
-373,058	800,000	0,013	-0,036
-372,044	-200,000	-0,062	0,000
-371,029	-109,509	-0,076	0,012
-370,015	800,000	-0,035	-0,074
-369,000	-86,634	-0,144	-0,032
-367,985	-52,483	0,064	-0,022
-366,971	800,000	-0,005	-0,011
-365,956	-200,000	0,012	-0,074
-364,942	242,974	0,076	0,094
-363,927	-169,272	0,051	-0,001
-362,912	-35,149	0,104	0,042
-361,898	-200,000	0,005	0,028
-360,883	-175,608	-0,148	0,003
-359,869	-200,000	-0,005	0,057
-358,854	12,559	0,057	0,032
-357,839	-126,924	0,029	-0,003
-356,825	-57,896	0,101	-0,032
-355,810	-36,771	-0,151	0,059
-354,796	800,000	0,022	-0,055
-353,781	14,894	-0,047	-0,027
-352,766	-68,920	0,056	-0,016
-351,752	-94,459	-0,106	-0,021
-350,737	-17,208	0,092	-0,042
-349,723	122,293	0,061	0,055
-348,708	5,239	-0,058	-0,031
-347,693	403,634	-0,079	-0,122
-346,679	551,915	0,072	-0,127
-345,664	63,900	-0,173	-0,127
-344,650	-200,000	-0,008	0,073
-343,635	-200,000	0,039	0,127
-342,620	800,000	0,041	0,094
-341,606	124,130	0,078	0,072
-340,591	47,155	0,068	-0,046
-339,577	553,827	0,036	0,063
-338,562	-29,332	-0,123	0,051
-337,548	800,000	0,026	-0,065
-336,533	800,000	-0,034	0,081
-335,518	154,749	-0,080	-0,081
-334,504	17,892	0,054	-0,031
-333,489	-200,000	0,012	0,080
-332,475	-200,000	0,026	-0,100
-331,460	525,133	0,025	-0,043
-330,445	800,000	-0,050	0,107
-329,431	122,186	0,083	0,076
-328,416	-145,727	-0,105	0,007
-327,402	800,000	-0,096	0,233
-326,387	-155,965	-0,030	0,001
-325,372	-200,000	0,018	-0,135
-324,358	245,546	-0,033	0,040
-323,343	11,090	0,034	0,019
-322,329	-200,000	0,005	0,227
-321,314	800,000	0,055	-0,125
-320,299	800,000	-0,015	-0,045
-319,285	737,781	-0,015	-0,031
-318,270	110,270	-0,067	-0,059
-317,256	11,687	-0,016	0,009
-316,241	498,936	-0,025	0,042
-315,226	-148,048	-0,113	-0,007
-314,212	800,000	-0,024	0,075
-313,197	-200,000	-0,008	0,140
-312,183	261,590	0,069	0,087
-311,168	800,000	0,009	-0,019
-310,153	305,632	-0,036	-0,049
-309,139	-64,942	-0,080	0,023
-308,124	-66,617	0,076	0,022
-307,110	-200,000	-0,002	-0,166
-306,095	-200,000	0,026	0,173
-305,080	-200,000	0,028	-0,115
-304,066	800,000	0,011	0,028
-303,051	800,000	0,011	0,022
-302,037	-98,534	-0,053	-0,010
-301,022	-200,000	-0,002	-0,045
-300,008	68,890	0,094	-0,071
-298,993	334,937	-0,034	-0,048
-297,978	-200,000	0,047	-0,179
-296,964	-200,000	0,016	-0,147
-295,949	800,000	0,091	-0,213
-294,935	800,000	0,033	-0,089
-293,920	55,047	0,010	0,007
-292,905	800,000	-0,043	0,090
-291,891	-42,825	0,178	0,066
-290,876	369,823	-0,116	-0,172
-289,862	-200,000	0,018	-0,077
-288,847	-200,000	0,006	-0,036
-287,832	-200,000	-0,002	-0,063
-286,818	44,023	0,033	-0,022
-285,803	487,843	0,035	-0,058
-284,789	-39,120	-0,082	0,031
-283,774	-200,000	0,000	-0,030
-282,759	-200,000	-0,009	0,039
-281,745	79,435	-0,065	0,051
-280,730	-65,502	0,047	0,014
-279,716	800,000	0,045	-0,130
-278,701	-172,303	0,135	0,003
-277,686	287,503	0,071	0,094
-276,672	800,000	-0,021	-0,046
-275,657	-200,000	-0,004	0,060
-274,643	-19,745	0,145	-0,065
-273,628	-200,000	0,017	0,150
-272,613	53,385	-0,146	0,102
-271,599	-200,000	-0,032	0,107
-270,584	177,463	0,092	0,098
-269,570	800,000	0,034	0,070
-268,555	154,682	0,068	0,068
-267,540	-117,897	0,115	-0,015
-266,526	-20,517	-0,044	-0,020
-265,511	-200,000	0,006	-0,041
-264,497	34,159	0,026	-0,017
-263,482	210,806	0,018	0,021
-262,467	215,290	0,033	0,039
-261,453	800,000	-0,024	0,053
-260,438	-182,481	-0,136	-0,002
-259,424	-200,000	0,006	-0,044
-258,409	108,010	0,101	0,088
-257,395	295,279	-0,070	-0,093
-256,380	800,000	0,039	0,100
-255,365	44,993	-0,080	-0,054
-254,351	291,770	0,016	-0,021
-253,336	39,484	-0,051	0,033
-252,322	7,814	-0,029	0,016
-251,307	-200,000	-0,018	0,079
-250,292	-200,000	-0,023	-0,104
-249,278	589,918	-0,029	0,052
-248,263	-200,000	-0,029	0,102
-247,249	17,939	0,098	0,057
-246,234	-49,138	-0,163	0,057
-245,219	-200,000	-0,008	0,062
-244,205	-200,000	0,021	-0,097
-243,190	800,000	-0,046	-0,108
-242,176	-16,897	0,054	0,025
-241,161	-37,727	-0,095	-0,037
-240,146	53,106	-0,072	0,050
-239,132	-88,100	0,081	0,018
-238,117	5,001	-0,128	0,068
-237,103	-149,188	-0,071	0,004
-236,088	800,000	0,017	-0,044
-235,073	-29,220	0,139	-0,058
-234,059	691,140	-0,035	-0,067
-233,044	60,654	0,092	-0,066
-232,030	-88,805	0,055	0,012
-231,015	-70,423	-0,057	0,016
-230,000	128,514	-0,041	-0,038
-228,986	-200,000	-0,001	0,090
-227,971	-200,000	-0,003	0,028
-226,957	-59,862	0,011	0,003
-225,942	239,720	0,015	0,019
-224,927	76,306	-0,023	-0,018
-223,913	800,000	-0,057	-0,144
-222,898	800,000	-0,042	0,097
-221,884	-84,886	-0,207	-0,047
-220,869	-93,480	0,074	0,015
-219,855	-111,095	0,069	0,010
-218,840	253,258	0,049	0,062
-217,825	-200,000	0,011	-0,092
-216,811	-18,808	-0,179	0,081
-215,796	-200,000	-0,004	-0,065
-214,782	-200,000	-0,022	0,226
-213,767	295,195	-0,050	0,067
-212,752	-144,383	-0,223	0,015
-211,738	68,843	0,109	0,081
-210,723	470,177	0,025	0,042
-209,709	-156,840	-0,040	0,002
-208,694	104,746	-0,077	-0,066
-207,679	-200,000	-0,006	0,128
-206,665	-99,112	0,168	0,031
-205,650	-59,732	-0,085	0,027
-204,636	395,747	0,007	-0,011
-203,621	-47,605	-0,030	0,010
-202,606	-36,164	0,080	-0,031
-201,592	433,558	0,066	-0,105
-200,577	-200,000	-0,016	-0,160
-199,563	223,309	-0,048	-0,057
-198,548	410,501	0,022	-0,034
-197,533	-131,560	0,159	-0,015
-196,519	800,000	0,013	0,037
-195,504	-185,244	0,044	-0,000
-194,490	21,063	-0,050	-0,029
-193,475	800,000	0,029	0,067
-192,460	-64,516	-0,074	-0,022
-191,446	10,460	0,021	-0,011
-190,431	-36,273	0,088	0,035
-189,417	15,724	0,043	0,025
-188,402	14,413	0,135	-0,076
-187,387	-103,658	-0,148	-0,025
-186,373	491,470	0,022	0,036
-185,358	85,882	-0,124	-0,099
-184,344	-200,000	0,041	0,134
-183,329	-61,135	-0,101	-0,031
-182,315	-103,893	0,098	-0,017
-181,300	320,007	-0,090	0,125
-180,285	-20,778	-0,054	-0,024
-179,271	800,000	0,050	0,131
-178,256	245,592	-0,020	-0,025
-177,242	-200,000	0,001	-0,009
-176,227	139,386	0,039	0,037
-175,212	0,988	0,046	-0,024
-174,198	800,000	0,030	-0,084
-173,183	-200,000	-0,041	-0,156
-172,169	-95,480	-0,107	-0,021
-171,154	-136,821	-0,033	-0,003
-170,139	389,872	0,039	0,059
-169,125	-113,369	-0,107	0,015
-168,110	-54,970	-0,098	0,032
-167,096	-87,364	-0,117	-0,026
-166,081	142,627	-0,053	-0,051
-165,066	-200,000	0,007	-0,051
-164,052	-104,665	-0,046	-0,008
-163,037	-184,633	0,081	-0,001
-162,023	428,693	0,047	0,073
-161,008	189,621	0,055	0,060
-159,993	-138,081	-0,040	-0,003
-158,979	-35,545	-0,095	0,037
-157,964	-200,000	-0,033	0,000
-156,950	-103,059	0,024	-0,004
-155,935	-200,000	0,007	0,030
-154,920	-200,000	-0,007	-0,030
-153,906	404,418	-0,061	0,093
-152,891	-200,000	0,012	-0,066
-151,877	-88,570	-0,028	0,006
-150,862	-166,258	-0,059	-0,002
-149,847	-79,372	0,092	-0,022
-148,833	545,039	-0,016	-0,029
-147,818	-200,000	0,015	0,075
-146,804	-84,445	0,124	-0,028
-145,789	-138,955	0,156	0,012
-144,775	800,000	0,029	-0,065
-143,760	-200,000	0,013	-0,068
-142,745	-200,000	0,008	-0,067
-141,731	169,080	0,008	-0,009
-140,716	-200,000	0,068	0,225
-139,702	-79,280	-0,084	0,021
-138,687	-179,119	-0,200	0,003
-137,672	-73,248	-0,083	0,022
-136,658	103,378	-0,085	-0,072
-135,643	498,845	0,057	0,095
-134,629	-158,013	0,037	-0,002
-133,614	33,973	0,115	0,073
-132,599	217,593	0,051	0,059
-131,585	-200,000	-0,013	0,057
-130,570	-200,000	-0,008	-0,104
-129,556	-190,171	-0,062	-0,000
-128,541	484,876	-0,090	-0,149
-127,526	219,045	0,061	0,072
-126,512	585,414	0,015	0,026
-125,497	97,377	0,131	-0,109
-124,483	-200,000	0,002	0,063
-123,468	19,164	-0,085	0,049
-122,453	-53,633	-0,073	0,024
-121,439	-200,000	0,005	0,037
-120,424	-200,000	-0,039	-0,168
-119,410	38,552	-0,017	0,011
