DTS Sentinel unit serial number:	SN410029Multiplexer serial number:	ORYXHardware model number:	OX2-SRSoftware version number:	ORYX F/W v4,00 Oryx Data Collector v3.7.2.0data status	okinstallation	B4 Nyhavnadifferential loss correction	single-endedforward channel	channel 2reverse channel	N/Adate	2023/12/15time	21:30:13forward acquisition time	300,00reverse acquisition time	0,00gamma	499,1914k internal	0,3133k external	0,3133temperature offset calibration	1,0000default loss term (dB/km)	0,3820temperature slope calibration	1,0000multiplexer offset coefficient	1,0000multiplexer slope coefficient	1,0000fibre end	0,00T internal ref (°C)	20,99T ext. ref 1 (°C)	6,29T ext. ref 2 (°C)	6,45length (m)	temperature (°C)	Stokes	anti-Stokes-744,400	-200,000	0,035	-0,163
-743,385	-35,161	-0,369	0,149
-742,371	-200,000	0,029	0,160
-741,356	78,096	-0,115	0,091
-740,342	-147,537	-0,078	0,005
-739,327	-59,766	-0,274	0,087
-738,312	350,498	0,042	0,062
-737,298	36,751	-0,235	0,154
-736,283	263,166	0,121	0,157
-735,269	-30,430	-0,301	0,126
-734,254	800,000	0,035	-0,087
-733,239	-52,738	-0,437	-0,149
-732,225	-102,205	0,157	0,028
-731,210	168,229	-0,070	0,074
-730,196	672,390	-0,057	-0,110
-729,181	308,571	0,088	0,122
-728,167	212,235	-0,040	0,047
-727,152	97,835	-0,137	-0,117
-726,137	-86,014	0,090	0,021
-725,123	-200,000	0,016	-0,107
-724,108	25,600	-0,093	-0,057
-723,094	-200,000	-0,014	-0,089
-722,079	-200,000	0,018	-0,140
-721,064	-200,000	-0,016	-0,077
-720,050	-115,661	0,096	0,013
-719,035	76,240	-0,035	0,028
-718,021	-200,000	0,009	0,114
-717,006	233,034	-0,048	-0,059
-715,991	238,892	-0,108	-0,133
-714,977	-54,500	0,058	0,019
-713,962	-90,155	0,075	0,016
-712,948	800,000	-0,032	0,099
-711,933	278,122	-0,005	0,006
-710,918	484,813	-0,031	0,053
-709,904	201,101	-0,129	-0,147
-708,889	-131,620	-0,123	0,012
-707,875	487,039	0,019	-0,032
-706,860	800,000	-0,051	0,114
-705,845	74,859	0,020	-0,016
-704,831	40,748	-0,065	-0,043
-703,816	-200,000	0,033	0,117
-702,802	800,000	-0,013	-0,037
-701,787	39,838	0,079	0,053
-700,772	-170,756	-0,119	0,003
-699,758	800,000	-0,035	0,103
-698,743	115,261	0,132	0,119
-697,729	-81,743	0,052	0,013
-696,714	-161,359	0,116	-0,004
-695,699	-49,185	-0,085	-0,030
-694,685	800,000	-0,075	-0,155
-693,670	800,000	0,041	-0,104
-692,656	800,000	-0,028	-0,077
-691,641	800,000	0,052	0,142
-690,627	800,000	0,053	0,124
-689,612	-200,000	0,001	-0,032
-688,597	800,000	0,025	0,067
-687,583	-130,597	0,093	-0,009
-686,568	-200,000	0,048	-0,196
-685,554	-76,092	0,230	-0,060
-684,539	15,539	0,055	-0,032
-683,524	-2,080	0,080	-0,042
-682,510	800,000	-0,043	-0,113
-681,495	-200,000	0,003	0,048
-680,481	-126,382	-0,046	0,005
-679,466	800,000	-0,052	-0,109
-678,451	-39,946	-0,136	-0,052
-677,437	301,273	0,115	-0,158
-676,422	42,590	-0,062	0,041
-675,408	800,000	0,023	-0,048
-674,393	-9,185	0,053	0,026
-673,378	539,283	0,028	-0,049
-672,364	-200,000	0,018	0,130
-671,349	-200,000	0,008	-0,117
-670,335	-200,000	-0,046	-0,151
-669,320	213,193	0,059	-0,070
-668,305	-58,310	0,099	0,032
-667,291	5,853	0,047	0,026
-666,276	-27,604	-0,096	-0,041
-665,262	112,437	-0,056	-0,050
-664,247	297,932	-0,076	-0,103
-663,232	-102,145	0,104	-0,018
-662,218	-200,000	0,000	-0,005
-661,203	-162,681	0,077	0,003
-660,189	-200,000	0,016	-0,075
-659,174	-6,859	-0,062	0,031
-658,159	-200,000	-0,015	0,085
-657,145	800,000	-0,035	-0,092
-656,130	-200,000	0,052	-0,218
-655,116	-145,578	-0,144	0,009
-654,101	-200,000	0,027	-0,090
-653,086	-54,849	-0,054	0,018
-652,072	-60,271	-0,146	-0,046
-651,057	-200,000	-0,012	-0,052
-650,043	-200,000	-0,023	-0,128
-649,028	800,000	-0,034	0,073
-648,014	64,978	0,133	-0,099
-646,999	793,293	-0,037	0,075
-645,984	-39,571	0,037	0,014
-644,970	-23,670	-0,057	0,025
-643,955	-61,331	-0,072	-0,022
-642,941	800,000	0,071	-0,147
-641,926	-16,580	-0,039	0,018
-640,911	620,472	0,058	0,108
-639,897	-51,454	0,080	0,028
-638,882	-136,907	0,043	-0,004
-637,868	800,000	-0,040	-0,097
-636,853	-63,277	-0,087	-0,026
-635,838	3,461	0,070	-0,038
-634,824	800,000	-0,026	-0,063
-633,809	109,973	-0,143	-0,127
-632,795	-79,534	0,143	0,036
-631,780	800,000	-0,018	-0,055
-630,765	168,277	-0,105	-0,111
-629,751	424,143	-0,059	-0,094
-628,736	207,287	-0,037	-0,043
-627,722	-155,604	-0,105	-0,005
-626,707	-200,000	-0,017	-0,092
-625,692	-124,048	-0,086	-0,010
-624,678	-200,000	-0,027	0,088
-623,663	392,549	-0,063	-0,098
-622,649	800,000	0,015	-0,031
-621,634	-48,823	-0,103	-0,036
-620,619	800,000	0,025	0,053
-619,605	100,484	0,046	-0,040
-618,590	-152,343	0,078	-0,004
-617,576	14,390	-0,043	-0,024
-616,561	117,572	0,090	-0,082
-615,546	-8,859	-0,179	-0,088
-614,532	247,277	-0,166	-0,207
-613,517	800,000	0,022	-0,071
-612,503	769,263	0,039	0,079
-611,488	-200,000	0,014	0,155
-610,474	-6,845	-0,139	0,069
-609,459	16,231	-0,153	0,089
-608,444	-200,000	-0,018	-0,131
-607,430	-200,000	-0,023	-0,110
-606,415	228,001	-0,101	0,122
-605,401	-162,749	0,066	0,002
-604,386	-121,506	0,076	-0,009
-603,371	-200,000	0,027	0,200
-602,357	488,719	-0,063	0,106
-601,342	-21,139	-0,187	-0,084
-600,328	-81,830	0,033	0,008
-599,313	231,876	0,139	-0,169
-598,298	-51,295	-0,135	-0,047
-597,284	68,213	0,072	0,054
-596,269	800,000	-0,017	0,051
-595,255	7,251	-0,015	-0,008
-594,240	360,330	-0,009	0,013
-593,225	800,000	-0,008	-0,021
-592,211	-30,007	-0,064	-0,027
-591,196	166,809	-0,013	0,014
-590,182	786,233	-0,055	-0,112
-589,167	-200,000	0,003	0,031
-588,152	241,591	-0,013	0,016
-587,138	-200,000	-0,002	-0,050
-586,123	800,000	-0,010	0,028
-585,109	-22,607	-0,186	0,083
-584,094	-157,630	0,069	-0,003
-583,079	-58,509	0,102	0,032
-582,065	195,500	0,062	0,070
-581,050	800,000	0,051	0,149
-580,036	-31,245	0,074	0,031
-579,021	-116,400	0,051	-0,007
-578,006	134,471	-0,064	-0,062
-576,992	170,678	-0,061	0,064
-575,977	-159,037	-0,162	-0,007
-574,963	-118,842	0,066	0,008
-573,948	-71,377	0,069	0,019
-572,934	-200,000	-0,015	0,072
-571,919	314,793	-0,054	0,076
-570,904	800,000	0,049	-0,113
-569,890	-96,292	0,050	0,010
-568,875	-68,689	0,039	-0,011
-567,861	20,948	0,022	-0,013
-566,846	-43,574	0,166	-0,062
-565,831	-44,718	-0,085	-0,031
-564,817	-131,856	-0,070	-0,007
-563,802	270,480	0,089	-0,115
-562,788	-200,000	-0,020	-0,137
-561,773	489,113	0,006	-0,009
-560,758	-119,818	0,161	0,020
-559,744	482,269	-0,049	0,083
-558,729	101,387	0,053	-0,046
-557,715	48,248	-0,063	0,044
-556,700	-88,169	-0,111	-0,024
-555,685	-200,000	0,002	-0,107
-554,671	249,418	0,100	-0,125
-553,656	757,426	0,051	0,101
-552,642	128,429	-0,036	-0,034
-551,627	-200,000	0,016	-0,076
-550,612	-200,000	0,017	0,086
-549,598	3,393	-0,132	0,071
-548,583	-200,000	-0,041	0,153
-547,569	-200,000	-0,006	-0,037
-546,554	18,341	0,101	0,059
-545,539	579,721	-0,096	0,174
-544,525	469,761	0,045	-0,074
-543,510	-52,526	-0,061	-0,021
-542,496	-200,000	0,009	0,125
-541,481	-31,537	-0,152	-0,063
-540,466	-65,648	0,033	-0,010
-539,452	-200,000	-0,002	0,061
-538,437	-76,688	-0,065	0,017
-537,423	250,120	-0,037	-0,046
-536,408	4,939	-0,084	-0,046
-535,393	-200,000	-0,008	-0,039
-534,379	-200,000	0,002	0,027
-533,364	-19,295	-0,079	-0,036
-532,350	-62,250	0,137	-0,042
-531,335	-200,000	0,001	-0,057
-530,321	-200,000	0,002	-0,015
-529,306	-200,000	0,001	-0,056
-528,291	196,797	0,063	-0,071
-527,277	74,894	-0,075	0,058
-526,262	542,776	0,062	-0,109
-525,248	-59,560	0,059	0,018
-524,233	-200,000	-0,006	-0,081
-523,218	31,142	0,090	-0,057
-522,204	800,000	-0,055	-0,149
-521,189	32,455	-0,043	-0,027
-520,175	171,656	0,039	-0,041
-519,160	313,380	-0,061	-0,085
-518,145	230,435	0,128	0,154
-517,131	-142,619	-0,077	0,005
-516,116	800,000	0,039	0,114
-515,102	206,376	0,024	-0,027
-514,087	-21,858	-0,112	-0,050
-513,072	97,233	-0,067	-0,056
-512,058	-49,956	-0,146	-0,051
-511,043	22,489	0,022	-0,013
-510,029	187,108	0,067	-0,073
-509,014	226,695	0,132	-0,158
-507,999	104,316	0,076	-0,066
-506,985	-40,745	0,122	0,046
-505,970	91,376	-0,074	-0,061
-504,956	153,366	-0,059	0,059
-503,941	-54,898	-0,120	0,040
-502,926	233,233	0,091	0,110
-501,912	30,913	0,009	0,005
-500,897	236,196	-0,078	0,096
-499,883	338,579	0,089	0,128
-498,868	-200,000	-0,024	-0,119
-497,853	187,172	0,051	-0,056
-496,839	-35,470	-0,106	0,042
-495,824	-130,319	0,169	0,017
-494,810	309,545	-0,088	0,121
-493,795	-200,000	-0,020	0,073
-492,781	-200,000	0,009	0,115
-491,766	-76,459	-0,102	0,026
-490,751	-177,108	-0,136	-0,002
-489,737	-180,128	-0,195	-0,003
-488,722	-100,674	0,151	-0,027
-487,708	17,847	0,092	0,054
-486,693	136,046	-0,054	0,052
-485,678	800,000	-0,061	-0,163
-484,664	800,000	0,024	0,073
-483,649	-200,000	-0,001	-0,004
-482,635	498,871	-0,018	-0,031
-481,620	-65,940	0,015	0,004
-480,605	-78,666	0,179	-0,045
-479,591	-200,000	-0,032	0,103
-478,576	-109,488	-0,132	-0,020
-477,562	-17,414	-0,048	-0,022
-476,547	103,906	-0,051	-0,044
-475,532	-15,945	0,094	0,044
-474,518	-128,832	0,106	0,011
-473,503	-152,131	0,059	-0,003
-472,489	-66,527	-0,046	-0,013
-471,474	117,259	-0,132	0,120
-470,459	800,000	-0,029	-0,064
-469,445	-122,278	0,060	0,007
-468,430	416,719	-0,007	-0,012
-467,416	359,964	-0,032	0,048
-466,401	32,528	0,048	0,030
-465,386	-126,715	0,087	0,009
-464,372	-66,310	0,030	-0,009
-463,357	-107,181	-0,110	-0,018
-462,343	-200,000	-0,014	-0,110
-461,328	2,314	0,083	0,044
-460,313	-36,229	-0,102	0,040
-459,299	-66,481	0,110	0,032
-458,284	-79,075	-0,121	-0,030
-457,270	800,000	0,031	-0,079
-456,255	203,580	0,025	-0,028
-455,241	-81,805	-0,125	-0,030
-454,226	-60,308	-0,067	-0,021
-453,211	-54,586	-0,100	0,033
-452,197	311,781	0,060	-0,083
-451,182	373,607	0,043	0,065
-450,168	-200,000	-0,013	0,166
-449,153	-69,842	-0,190	0,053
-448,138	402,934	-0,083	0,128
-447,124	178,255	-0,010	-0,011
-446,109	-200,000	0,011	-0,112
-445,095	264,701	-0,046	-0,059
-444,080	-148,847	0,129	-0,008
-443,065	245,825	0,073	0,090
-442,051	-109,810	0,037	-0,006
-441,036	155,222	0,011	-0,011
-440,022	151,331	0,075	0,076
-439,007	-11,870	0,097	0,046
-437,992	-61,346	0,022	0,007
-436,978	-15,570	-0,037	0,017
-435,963	780,929	-0,045	0,091
-434,949	800,000	-0,010	-0,026
-433,934	137,847	0,102	0,098
-432,919	-124,679	-0,113	-0,013
-431,905	267,376	-0,034	-0,044
-430,890	157,130	-0,006	0,006
-429,876	377,039	0,038	-0,058
-428,861	148,282	0,084	-0,084
-427,846	-200,000	0,015	0,094
-426,832	-3,388	-0,026	0,013
-425,817	-148,608	-0,118	0,007
-424,803	-185,253	-0,161	0,002
-423,788	-200,000	-0,007	0,075
-422,773	245,148	0,026	-0,032
-421,759	394,038	0,029	0,045
-420,744	-200,000	0,029	-0,166
-419,730	-15,587	-0,087	0,041
-418,715	-200,000	0,022	0,084
-417,701	-47,861	0,135	0,048
-416,686	-200,000	-0,005	0,148
-415,671	239,830	0,031	0,038
-414,657	-200,000	-0,002	-0,018
-413,642	-182,542	0,104	-0,001
-412,628	162,117	-0,041	-0,042
-411,613	309,978	0,076	-0,104
-410,598	-200,000	-0,009	0,068
-409,584	654,345	-0,068	-0,128
-408,569	-133,937	0,120	0,011
-407,555	477,942	0,040	-0,067
-406,540	800,000	-0,008	-0,026
-405,525	800,000	-0,049	-0,106
-404,511	56,285	0,145	-0,103
-403,496	-81,508	-0,166	-0,040
-402,482	215,520	-0,046	-0,054
-401,467	-200,000	-0,009	0,130
-400,452	800,000	-0,015	-0,047
-399,438	-200,000	-0,025	0,128
-398,423	-141,457	-0,092	0,007
-397,409	-81,106	-0,100	-0,024
-396,394	-139,648	-0,151	-0,012
-395,379	-200,000	0,012	0,052
-394,365	-134,865	0,086	-0,007
-393,350	-200,000	-0,029	0,171
-392,336	-200,000	0,008	0,099
-391,321	48,514	0,018	-0,013
-390,306	800,000	-0,047	-0,109
-389,292	-200,000	-0,002	-0,047
-388,277	-90,554	0,100	0,021
-387,263	18,325	-0,085	0,050
-386,248	800,000	0,079	0,171
-385,233	-200,000	0,000	0,074
-384,219	-200,000	-0,026	-0,144
-383,204	85,648	-0,081	-0,065
-382,190	-96,177	-0,044	0,008
-381,175	-200,000	0,001	-0,046
-380,160	-1,915	0,067	0,035
-379,146	140,865	0,089	0,086
-378,131	-98,266	0,014	-0,003
-377,117	539,852	0,046	-0,081
-376,102	54,887	-0,050	0,035
-375,088	-149,568	-0,102	-0,006
-374,073	-91,041	-0,098	-0,020
-373,058	-141,025	0,189	0,014
-372,044	-200,000	0,027	0,109
-371,029	-118,123	0,072	0,009
-370,015	-160,454	0,044	0,002
-369,000	65,906	-0,042	0,031
-367,985	-48,642	-0,028	-0,010
-366,971	-169,828	-0,073	0,002
-365,956	-29,321	-0,109	-0,045
-364,942	800,000	0,025	0,060
-363,927	88,155	0,094	0,076
-362,912	800,000	0,075	0,218
-361,898	-76,993	-0,048	0,012
-360,883	-200,000	-0,011	-0,055
-359,869	477,727	0,049	0,081
-358,854	5,372	0,023	0,012
-357,839	-32,674	0,093	0,038
-356,825	74,428	0,013	0,010
-355,810	-200,000	-0,006	0,054
-354,796	109,133	-0,033	0,029
-353,781	-101,433	0,033	0,006
-352,766	222,207	-0,026	-0,031
-351,752	-131,498	0,099	-0,009
-350,737	800,000	-0,047	0,110
-349,723	547,887	0,043	0,076
-348,708	414,250	-0,029	-0,046
-347,693	800,000	-0,039	0,086
-346,679	508,591	0,072	0,123
-345,664	201,750	0,063	0,071
-344,650	459,799	-0,023	0,038
-343,635	-144,943	0,209	-0,014
-342,620	201,833	-0,099	-0,111
-341,606	189,266	0,066	0,072
-340,591	42,974	-0,062	0,041
-339,577	-58,049	-0,072	-0,023
-338,562	-28,761	-0,083	-0,035
-337,548	-200,000	0,013	-0,054
-336,533	-99,420	-0,046	-0,008
-335,518	143,740	0,038	0,037
-334,504	-200,000	0,031	-0,099
-333,489	66,569	-0,055	0,041
-332,475	72,362	-0,023	-0,017
-331,460	222,189	0,074	0,087
-330,445	14,721	-0,123	0,070
-329,431	507,006	0,115	0,196
-328,416	-133,298	0,125	0,011
-327,402	800,000	-0,047	0,134
-326,387	167,263	-0,068	0,071
-325,372	107,486	0,088	0,077
-324,358	271,986	0,052	-0,067
-323,343	37,735	-0,069	-0,045
-322,329	71,704	0,037	-0,028
-321,314	749,525	-0,049	-0,098
-320,299	165,827	0,085	-0,088
-319,285	800,000	0,010	-0,026
-318,270	117,932	-0,034	-0,030
-317,256	554,883	-0,035	0,062
-316,241	153,087	0,076	0,076
-315,226	251,587	-0,042	0,052
-314,212	-24,111	-0,128	-0,056
-313,197	800,000	-0,016	-0,037
-312,183	-200,000	-0,036	-0,157
-311,168	-55,101	-0,178	0,058
-310,153	-200,000	0,021	0,079
-309,139	-200,000	0,018	-0,060
-308,124	41,394	-0,033	-0,022
-307,110	561,573	-0,039	0,068
-306,095	246,972	-0,026	0,033
-305,080	800,000	0,011	-0,033
-304,066	187,012	-0,070	-0,076
-303,051	-24,765	-0,074	-0,032
-302,037	676,429	0,053	-0,100
-301,022	225,370	-0,058	-0,069
-300,008	800,000	-0,039	0,080
-298,993	-41,222	0,182	0,068
-297,978	32,195	0,106	-0,067
-296,964	9,980	-0,096	-0,053
-295,949	219,958	-0,041	-0,048
-294,935	-154,394	-0,203	0,010
-293,920	-200,000	0,004	-0,180
-292,905	-136,679	0,119	-0,010
-291,891	529,040	0,035	-0,060
-290,876	-200,000	0,023	0,137
-289,862	-200,000	0,002	0,077
-288,847	-77,568	-0,081	-0,020
-287,832	203,243	-0,022	-0,025
-286,818	800,000	-0,035	-0,079
-285,803	-200,000	-0,024	0,086
-284,789	800,000	-0,012	0,029
-283,774	150,253	0,047	0,047
-282,759	-53,761	0,031	-0,010
-281,745	358,036	0,032	-0,047
-280,730	31,171	-0,053	0,033
-279,716	795,595	0,029	-0,059
-278,701	800,000	-0,023	0,058
-277,686	-183,850	0,123	-0,001
-276,672	-101,661	0,078	-0,014
-275,657	265,635	-0,040	-0,051
-274,643	800,000	0,069	-0,147
-273,628	-200,000	0,003	-0,090
-272,613	800,000	0,043	0,132
-271,599	129,267	0,051	-0,048
-270,584	170,959	0,054	-0,056
-269,570	-200,000	0,010	-0,078
-268,555	-67,683	0,014	0,004
-267,540	-200,000	0,007	-0,127
-266,526	-200,000	-0,014	-0,069
-265,511	-53,636	0,128	0,042
-264,497	-200,000	-0,018	0,065
-263,482	189,542	-0,076	0,083
-262,467	-99,152	0,101	0,018
-261,453	-200,000	-0,013	0,114
-260,438	-200,000	-0,009	-0,084
-259,424	163,283	0,023	-0,024
-258,409	-14,047	-0,102	-0,048
-257,395	-54,690	-0,129	-0,042
-256,380	-200,000	-0,012	0,138
-255,365	-33,253	0,138	0,056
-254,351	22,835	-0,020	-0,012
-253,336	-131,960	-0,084	0,008
-252,322	26,583	0,102	-0,062
-251,307	800,000	0,041	0,095
-250,292	-200,000	-0,028	0,140
-249,278	-17,358	0,083	0,038
-248,263	-163,599	-0,005	0,000
-247,249	221,102	0,074	-0,087
-246,234	-200,000	0,003	-0,060
-245,219	64,586	0,091	-0,067
-244,205	149,136	-0,121	-0,120
-243,190	606,936	0,057	0,104
-242,176	-106,901	0,218	0,035
-241,161	308,692	0,061	-0,084
-240,146	-31,760	0,061	0,025
-239,132	-109,269	-0,106	-0,016
-238,117	174,364	-0,083	0,088
-237,103	-200,000	-0,037	-0,145
-236,088	-97,929	-0,039	0,007
-235,073	227,191	0,068	0,081
-234,059	-200,000	0,017	-0,164
-233,044	128,340	0,107	0,099
-232,030	-200,000	0,005	0,048
-231,015	13,421	0,095	-0,053
-230,000	112,389	-0,059	0,052
-228,986	334,038	-0,025	-0,035
-227,971	729,789	0,034	-0,066
-226,957	1,825	0,112	-0,058
-225,942	800,000	0,067	0,142
-224,927	-200,000	-0,013	0,103
-223,913	160,166	0,056	0,057
-222,898	145,835	-0,152	-0,148
-221,884	-129,844	-0,058	-0,006
-220,869	800,000	0,028	0,082
-219,855	-200,000	0,004	0,156
-218,840	-45,221	0,134	-0,048
-217,825	-200,000	-0,010	-0,040
-216,811	25,261	-0,062	0,037
-215,796	679,869	0,058	-0,111
-214,782	-174,671	0,194	0,004
-213,767	-17,643	-0,060	-0,027
-212,752	137,086	0,108	-0,103
-211,738	800,000	0,017	-0,038
-210,723	800,000	-0,021	-0,056
-209,709	800,000	0,045	-0,104
-208,694	577,658	-0,025	-0,045
-207,679	46,723	-0,037	0,025
-206,665	41,034	0,048	-0,031
-205,650	-200,000	-0,041	0,177
-204,636	-102,816	0,025	0,004
-203,621	-200,000	0,008	-0,091
-202,606	800,000	-0,028	0,062
-201,592	-200,000	-0,007	-0,197
-200,577	41,387	-0,039	0,026
-199,563	-65,430	-0,042	-0,012
-198,548	31,759	-0,103	0,064
-197,533	-200,000	-0,005	0,067
-196,519	-149,260	0,066	-0,004
-195,504	800,000	-0,042	-0,122
-194,490	-134,523	-0,019	0,002
-193,475	-84,409	0,069	0,016
-192,460	-200,000	0,000	0,028
-191,446	4,124	0,031	0,017
-190,431	46,006	0,164	-0,110
-189,417	-157,103	0,086	0,004
-188,402	-69,195	0,025	0,007
-187,387	-20,895	-0,056	-0,025
-186,373	43,274	0,104	-0,069
-185,358	490,223	0,031	0,052
-184,344	-119,308	0,033	-0,004
-183,329	800,000	-0,010	-0,031
-182,315	-200,000	-0,013	0,069
-181,300	233,424	0,100	-0,120
-180,285	-12,732	-0,081	0,038
-179,271	-82,275	-0,155	-0,036
-178,256	-200,000	-0,001	-0,026
-177,242	42,563	0,112	-0,074
-176,227	-47,807	0,042	-0,015
-175,212	165,195	0,029	0,029
-174,198	-85,799	0,047	-0,011
-173,183	-116,629	-0,176	0,023
-172,169	136,034	-0,049	-0,047
-171,154	-200,000	0,030	-0,142
-170,139	-194,009	-0,068	-0,000
-169,125	213,329	0,124	0,143
-168,110	-200,000	0,026	0,085
-167,096	157,672	-0,077	0,078
-166,081	172,256	0,041	-0,043
-165,066	800,000	0,028	0,073
-164,052	-200,000	0,006	0,052
-163,037	-200,000	-0,005	-0,086
-162,023	-200,000	-0,002	0,031
-161,008	800,000	-0,029	-0,093
-159,993	302,022	0,048	0,064
-158,979	41,200	-0,081	0,053
-157,964	33,956	0,050	0,032
-156,950	-61,295	-0,021	-0,006
-155,935	-73,477	0,074	0,019
-154,920	-37,755	0,087	-0,034
-153,906	311,314	0,149	0,203
-152,891	800,000	-0,003	0,008
-151,877	-56,035	-0,021	-0,007
-150,862	-56,229	-0,090	0,029
-149,847	67,715	0,149	0,110
-148,833	800,000	0,024	-0,068
-147,818	800,000	0,047	0,095
-146,804	46,684	-0,029	-0,019
-145,789	26,489	0,019	0,011
-144,775	-74,339	-0,067	0,018
-143,760	-200,000	-0,007	-0,100
-142,745	800,000	-0,012	0,027
-141,731	-200,000	0,032	0,216
-140,716	104,178	-0,055	0,047
-139,702	-200,000	0,025	0,132
-138,687	-200,000	-0,004	0,044
-137,672	-47,410	0,116	0,041
-136,658	71,802	0,007	-0,005
-135,643	-171,480	0,035	-0,001
-134,629	-66,733	-0,006	-0,002
-133,614	-122,439	0,162	0,019
-132,599	-0,982	-0,024	-0,012
-131,585	-29,966	-0,123	-0,051
-130,570	-14,845	-0,142	-0,066
-129,556	273,236	-0,047	0,061
-128,541	-19,627	-0,039	-0,017
-127,526	235,043	-0,053	0,063
-126,512	210,836	0,072	0,082
-125,497	-200,000	-0,003	0,082
-124,483	223,784	-0,054	-0,064
-123,468	-200,000	-0,009	0,090
-122,453	-47,611	-0,159	0,056
-121,439	-200,000	-0,004	-0,082
-120,424	-81,555	-0,103	0,024
