DTS Sentinel unit serial number:	SN410029Multiplexer serial number:	ORYXHardware model number:	OX2-SRSoftware version number:	ORYX F/W v4,00 Oryx Data Collector v3.7.2.0data status	okinstallation	B4 Nyhavnadifferential loss correction	single-endedforward channel	channel 2reverse channel	N/Adate	2023/12/16time	06:50:13forward acquisition time	300,00reverse acquisition time	0,00gamma	499,1914k internal	0,3127k external	0,3127temperature offset calibration	1,0000default loss term (dB/km)	0,3820temperature slope calibration	1,0000multiplexer offset coefficient	1,0000multiplexer slope coefficient	1,0000fibre end	0,00T internal ref (°C)	22,32T ext. ref 1 (°C)	7,58T ext. ref 2 (°C)	7,77length (m)	temperature (°C)	Stokes	anti-Stokes-744,400	-43,797	0,129	-0,048
-743,385	-118,120	-0,153	0,020
-742,371	-84,012	0,054	0,013
-741,356	-40,757	-0,187	0,072
-740,342	226,380	-0,058	0,070
-739,327	40,169	-0,255	0,170
-738,312	800,000	-0,032	-0,088
-737,298	79,715	-0,203	0,162
-736,283	-135,155	0,021	0,002
-735,269	77,741	-0,219	0,174
-734,254	573,792	-0,046	0,084
-733,239	-93,022	-0,316	0,065
-732,225	25,924	0,054	-0,033
-731,210	-36,394	0,067	-0,027
-730,196	146,723	0,045	-0,045
-729,181	264,668	-0,056	0,073
-728,167	236,973	-0,030	0,037
-727,152	213,384	0,027	-0,032
-726,137	-154,587	-0,157	-0,008
-725,123	163,697	-0,063	0,066
-724,108	-200,000	-0,043	-0,169
-723,094	390,811	-0,095	-0,147
-722,079	-64,420	-0,121	-0,036
-721,064	38,241	0,055	-0,036
-720,050	-40,859	0,052	0,020
-719,035	800,000	-0,019	0,058
-718,021	-52,875	-0,099	-0,034
-717,006	-100,418	-0,146	-0,027
-715,991	-170,298	-0,164	-0,004
-714,977	-23,987	-0,119	-0,053
-713,962	330,788	0,076	0,109
-712,948	800,000	0,082	0,178
-711,933	64,644	-0,020	-0,015
-710,918	800,000	-0,038	-0,117
-709,904	75,919	-0,115	-0,090
-708,889	143,694	0,076	0,075
-707,875	-45,834	-0,091	0,033
-706,860	219,182	-0,092	0,110
-705,845	-48,277	0,033	0,012
-704,831	-152,109	0,063	-0,003
-703,816	800,000	0,029	-0,076
-702,802	800,000	0,025	0,081
-701,787	-200,000	-0,031	-0,185
-700,772	14,079	-0,139	-0,080
-699,758	49,541	0,109	0,076
-698,743	600,751	-0,011	-0,020
-697,729	-16,549	0,118	0,055
-696,714	800,000	-0,028	0,091
-695,699	66,462	-0,069	0,052
-694,685	-131,041	-0,117	0,011
-693,670	-200,000	0,005	-0,126
-692,656	-200,000	-0,008	0,092
-691,641	211,716	-0,026	-0,031
-690,627	86,143	-0,020	-0,016
-689,612	39,762	-0,041	-0,028
-688,597	-123,650	-0,086	0,010
-687,583	48,868	-0,031	0,022
-686,568	-200,000	0,018	-0,073
-685,554	139,328	0,072	0,070
-684,539	151,463	0,087	0,088
-683,524	-188,114	0,117	-0,001
-682,510	-151,192	0,036	-0,002
-681,495	99,162	-0,049	-0,042
-680,481	-200,000	0,007	0,097
-679,466	504,750	-0,041	-0,071
-678,451	-200,000	-0,019	0,078
-677,437	-22,904	-0,077	0,034
-676,422	338,621	-0,061	-0,088
-675,408	-200,000	-0,004	0,042
-674,393	130,692	-0,088	-0,084
-673,378	-200,000	-0,001	-0,087
-672,364	800,000	-0,024	-0,065
-671,349	-190,682	-0,056	0,000
-670,335	63,959	-0,075	0,056
-669,320	-24,234	0,066	-0,029
-668,305	-200,000	0,016	-0,059
-667,291	-96,833	-0,061	-0,012
-666,276	-60,118	-0,205	-0,064
-665,262	225,319	0,054	-0,065
-664,247	800,000	-0,072	-0,193
-663,232	-39,700	0,082	0,032
-662,218	-65,777	-0,074	0,022
-661,203	-200,000	0,017	-0,071
-660,189	428,487	-0,046	0,074
-659,174	-21,751	-0,112	-0,050
-658,159	-33,153	-0,091	-0,037
-657,145	100,836	-0,068	-0,058
-656,130	508,655	-0,021	-0,036
-655,116	86,854	0,044	-0,036
-654,101	-200,000	-0,000	0,003
-653,086	224,663	-0,007	-0,008
-652,072	734,259	-0,039	-0,079
-651,057	-80,452	0,090	-0,022
-650,043	-200,000	-0,050	-0,218
-649,028	-33,720	-0,141	-0,057
-648,014	-140,120	0,159	-0,012
-646,999	-112,854	-0,058	-0,008
-645,984	800,000	-0,040	-0,089
-644,970	-77,072	0,089	-0,023
-643,955	-103,218	-0,124	0,021
-642,941	-200,000	-0,005	-0,074
-641,926	-134,785	-0,141	0,013
-640,911	14,160	0,063	-0,036
-639,897	-131,625	0,071	0,007
-638,882	343,417	-0,010	0,014
-637,868	-167,816	0,152	-0,004
-636,853	160,840	-0,056	0,058
-635,838	-200,000	0,010	-0,104
-634,824	-200,000	0,030	-0,161
-633,809	-200,000	-0,026	0,147
-632,795	-26,699	0,100	0,043
-631,780	293,132	0,031	0,042
-630,765	-153,873	0,026	-0,001
-629,751	-200,000	0,007	-0,036
-628,736	77,833	-0,146	-0,115
-627,722	800,000	-0,029	-0,066
-626,707	-44,634	0,172	0,063
-625,692	-81,598	0,244	-0,059
-624,678	-166,079	-0,112	-0,003
-623,663	12,682	-0,095	-0,054
-622,649	436,839	-0,050	0,081
-621,634	-133,541	-0,028	-0,003
-620,619	16,999	0,048	-0,028
-619,605	185,110	0,064	0,071
-618,590	-78,049	-0,141	-0,036
-617,576	21,324	-0,059	-0,036
-616,561	-200,000	0,013	0,110
-615,546	-124,625	-0,104	0,012
-614,532	800,000	-0,062	-0,164
-613,517	-200,000	-0,006	-0,021
-612,503	18,654	0,114	0,067
-611,488	-22,479	-0,136	-0,061
-610,474	-112,710	0,046	0,007
-609,459	-61,245	-0,067	0,021
-608,444	-200,000	-0,002	0,023
-607,430	-68,449	0,151	0,043
-606,415	230,361	-0,154	-0,187
-605,401	187,459	0,020	0,022
-604,386	661,572	0,063	0,120
-603,371	307,950	-0,074	0,102
-602,357	-131,502	0,162	-0,016
-601,342	209,283	-0,098	0,114
-600,328	-123,758	0,075	0,009
-599,313	800,000	-0,049	0,141
-598,298	491,014	-0,012	-0,021
-597,284	10,150	0,116	0,065
-596,269	800,000	0,040	0,120
-595,255	38,616	-0,110	0,072
-594,240	-121,266	-0,015	0,002
-593,225	-98,456	-0,129	-0,024
-592,211	800,000	-0,057	-0,119
-591,196	-76,984	0,018	0,005
-590,182	0,386	-0,141	-0,074
-589,167	3,562	0,058	0,031
-588,152	-113,448	-0,181	0,026
-587,138	-18,387	0,036	0,017
-586,123	-125,328	-0,124	-0,014
-585,109	-200,000	-0,020	0,137
-584,094	-200,000	0,026	0,107
-583,079	-174,689	0,064	-0,001
-582,065	-148,503	0,102	0,006
-581,050	-151,849	0,182	0,010
-580,036	318,544	-0,050	-0,071
-579,021	47,221	-0,032	0,022
-578,006	-121,231	-0,068	-0,008
-576,992	-68,629	0,123	0,035
-575,977	-200,000	0,026	0,000
-574,963	-57,146	-0,134	0,043
-573,948	2,865	-0,037	0,020
-572,934	163,871	0,012	0,013
-571,919	-9,456	-0,165	-0,081
-570,904	-95,680	-0,163	-0,032
-569,890	-200,000	0,005	0,051
-568,875	22,643	0,158	0,095
-567,861	-171,075	0,136	-0,003
-566,846	-87,528	0,069	0,015
-565,831	800,000	-0,025	0,060
-564,817	-91,671	-0,125	0,026
-563,802	800,000	-0,036	-0,112
-562,788	800,000	0,023	0,065
-561,773	269,246	0,157	-0,204
-560,758	23,196	-0,071	-0,043
-559,744	309,062	-0,037	0,052
-558,729	179,485	0,126	0,136
-557,715	-99,718	-0,045	0,008
-556,700	-139,479	-0,097	0,008
-555,685	503,759	-0,034	0,058
-554,671	-200,000	-0,027	0,116
-553,656	55,069	-0,060	-0,043
-552,642	382,604	-0,018	0,027
-551,627	-32,074	0,054	0,022
-550,612	800,000	-0,036	-0,079
-549,598	68,700	-0,078	-0,059
-548,583	-77,598	-0,086	-0,022
-547,569	-10,363	-0,132	0,065
-546,554	800,000	-0,065	-0,140
-545,539	-200,000	0,071	0,000
-544,525	218,101	-0,063	0,074
-543,510	-120,768	-0,063	-0,008
-542,496	-75,570	-0,064	0,017
-541,481	140,850	-0,098	-0,096
-540,466	800,000	-0,017	0,056
-539,452	800,000	0,037	0,099
-538,437	12,818	0,048	-0,027
-537,423	-200,000	0,004	0,118
-536,408	138,578	0,069	0,067
-535,393	-200,000	0,036	-0,137
-534,379	240,884	-0,065	0,080
-533,364	374,334	-0,015	-0,023
-532,350	800,000	0,041	0,119
-531,335	800,000	-0,019	0,052
-530,321	684,426	-0,021	-0,041
-529,306	24,705	-0,055	0,033
-528,291	48,012	-0,095	-0,066
-527,277	-73,689	-0,089	-0,024
-526,262	-200,000	-0,008	-0,059
-525,248	174,492	-0,066	-0,070
-524,233	-200,000	0,000	0,012
-523,218	316,093	-0,058	0,082
-522,204	128,309	-0,030	-0,028
-521,189	-69,153	-0,178	-0,050
-520,175	39,816	-0,054	-0,036
-519,160	183,856	0,014	0,016
-518,145	-200,000	-0,013	0,141
-517,131	112,699	0,128	-0,114
-516,116	165,035	0,148	0,155
-515,102	-1,822	0,087	0,045
-514,087	-75,148	-0,128	-0,033
-513,072	-200,000	-0,021	0,195
-512,058	800,000	-0,043	0,116
-511,043	795,510	0,012	0,024
-510,029	374,833	0,065	-0,098
-509,014	92,856	0,050	0,041
-507,999	129,692	-0,038	-0,035
-506,985	800,000	0,049	-0,132
-505,970	-200,000	-0,030	-0,142
-504,956	-200,000	0,010	-0,092
-503,941	728,661	-0,048	-0,096
-502,926	-114,628	0,149	-0,021
-501,912	-200,000	-0,006	0,079
-500,897	-200,000	0,008	0,141
-499,883	-72,540	0,072	0,019
-498,868	163,738	-0,019	-0,020
-497,853	-29,334	-0,073	-0,031
-496,839	800,000	-0,036	-0,085
-495,824	-9,189	-0,133	-0,065
-494,810	-87,701	0,069	0,015
-493,795	-88,934	-0,022	-0,005
-492,781	-49,613	-0,131	-0,046
-491,766	-200,000	-0,023	-0,213
-490,751	95,522	-0,058	-0,049
-489,737	-181,938	0,072	-0,001
-488,722	19,653	0,029	0,017
-487,708	135,855	0,055	0,053
-486,693	-200,000	-0,002	0,038
-485,678	28,592	-0,048	0,030
-484,664	706,796	-0,057	-0,110
-483,649	-34,224	0,055	0,022
-482,635	-31,200	-0,101	0,042
-481,620	195,877	-0,074	0,083
-480,605	99,290	-0,077	-0,065
-479,591	-200,000	0,010	-0,069
-478,576	-20,489	0,070	-0,032
-477,562	-125,082	-0,070	0,008
-476,547	522,297	-0,072	-0,126
-475,532	442,534	0,073	-0,118
-474,518	800,000	-0,049	0,114
-473,503	195,401	-0,038	-0,042
-472,489	0,359	-0,017	0,009
-471,474	-49,604	0,100	-0,035
-470,459	86,004	-0,064	0,052
-469,445	-200,000	-0,032	0,109
-468,430	800,000	-0,020	0,063
-467,416	800,000	-0,017	0,048
-466,401	-28,746	-0,067	0,028
-465,386	-200,000	0,019	-0,109
-464,372	44,820	-0,123	0,083
-463,357	-200,000	0,010	-0,049
-462,343	-200,000	-0,020	-0,162
-461,328	-200,000	-0,007	0,045
-460,313	129,087	-0,026	0,024
-459,299	30,352	0,110	-0,069
-458,284	519,535	0,067	0,115
-457,270	-11,714	0,075	0,036
-456,255	800,000	0,013	-0,030
-455,241	329,271	-0,064	-0,090
-454,226	800,000	-0,066	-0,155
-453,211	-37,744	-0,040	0,016
-452,197	53,784	0,132	0,093
-451,182	17,031	0,105	0,061
-450,168	-200,000	0,010	-0,060
-449,153	337,581	0,044	0,063
-448,138	-108,052	-0,137	0,022
-447,124	-164,054	-0,054	0,002
-446,109	-3,399	0,057	-0,029
-445,095	770,792	0,074	0,150
-444,080	158,207	0,133	-0,136
-443,065	714,784	0,030	-0,058
-442,051	158,151	0,073	0,075
-441,036	-49,963	-0,073	0,025
-440,022	126,262	0,059	-0,055
-439,007	283,812	0,054	-0,072
-437,992	-200,000	-0,008	0,148
-436,978	800,000	0,042	0,105
-435,963	-200,000	-0,011	-0,084
-434,949	-200,000	-0,019	0,079
-433,934	-85,414	-0,029	-0,007
-432,919	404,165	0,096	-0,149
-431,905	-12,811	0,116	-0,055
-430,890	119,300	0,113	0,103
-429,876	575,406	-0,043	0,078
-428,861	-200,000	0,010	-0,033
-427,846	-200,000	0,031	-0,146
-426,832	-55,859	0,050	0,016
-425,817	3,135	0,020	0,011
-424,803	550,185	-0,073	-0,130
-423,788	-200,000	-0,025	0,121
-422,773	-125,429	0,085	0,009
-421,759	300,321	-0,039	0,053
-420,744	131,106	-0,106	0,101
-419,730	-30,077	0,022	-0,009
-418,715	-200,000	0,013	-0,063
-417,701	-200,000	0,001	-0,047
-416,686	-200,000	0,009	0,141
-415,671	-23,634	-0,097	-0,043
-414,657	-200,000	0,001	0,169
-413,642	20,804	-0,038	-0,022
-412,628	-200,000	-0,028	0,180
-411,613	201,496	-0,056	0,063
-410,598	430,559	-0,053	-0,084
-409,584	22,201	0,064	-0,038
-408,569	-54,298	-0,008	0,003
-407,555	-16,102	-0,104	0,049
-406,540	800,000	0,014	-0,040
-405,525	86,417	-0,049	0,040
-404,511	-94,582	-0,078	0,016
-403,496	-14,338	0,041	0,019
-402,482	642,581	0,040	-0,075
-401,467	-200,000	-0,017	0,184
-400,452	256,773	-0,043	0,054
-399,438	-117,988	0,080	-0,010
-398,423	-6,796	-0,037	-0,019
-397,409	800,000	0,040	-0,093
-396,394	-200,000	-0,029	-0,123
-395,379	-87,236	0,087	0,019
-394,365	13,182	0,151	0,086
-393,350	25,771	-0,036	0,022
-392,336	106,721	0,061	0,053
-391,321	-200,000	-0,005	-0,095
-390,306	215,739	0,056	-0,065
-389,292	15,424	-0,069	0,040
-388,277	-53,009	0,112	0,038
-387,263	269,298	0,054	0,070
-386,248	-200,000	-0,033	0,000
-385,233	128,680	-0,086	0,081
-384,219	-200,000	-0,003	0,034
-383,204	-200,000	-0,121	-0,000
-382,190	-200,000	-0,013	0,053
-381,175	-200,000	0,004	0,109
-380,160	-67,417	0,077	-0,022
-379,146	67,358	0,087	-0,065
-378,131	-200,000	0,008	0,034
-377,117	644,986	-0,061	0,115
-376,102	184,846	-0,080	-0,087
-375,088	-27,128	-0,022	-0,009
-374,073	-82,589	-0,210	-0,050
-373,058	-128,976	-0,107	-0,011
-372,044	-200,000	0,039	0,213
-371,029	92,967	0,063	-0,053
-370,015	-126,542	0,151	0,016
-369,000	599,743	0,016	-0,029
-367,985	-200,000	-0,003	-0,115
-366,971	-200,000	0,003	-0,099
-365,956	800,000	0,039	0,112
-364,942	-200,000	-0,019	0,066
-363,927	727,446	-0,048	0,095
-362,912	800,000	0,020	0,065
-361,898	-10,886	0,090	-0,043
-360,883	800,000	-0,011	0,031
-359,869	-200,000	-0,004	-0,149
-358,854	120,754	0,071	-0,064
-357,839	411,602	-0,053	-0,083
-356,825	784,714	0,057	0,116
-355,810	-43,598	0,118	0,043
-354,796	-136,258	0,118	0,010
-353,781	-200,000	-0,018	-0,075
-352,766	800,000	-0,059	-0,133
-351,752	-40,662	0,069	-0,026
-350,737	-200,000	0,005	0,087
-349,723	270,078	-0,016	0,020
-348,708	254,709	0,111	0,139
-347,693	249,399	0,103	-0,128
-346,679	-200,000	-0,004	0,034
-345,664	-200,000	0,045	-0,149
-344,650	-85,659	0,029	0,006
-343,635	94,533	0,030	-0,025
-342,620	313,583	-0,079	0,109
-341,606	100,077	-0,070	-0,060
-340,591	38,769	-0,049	0,032
-339,577	80,581	-0,054	0,042
-338,562	-116,993	-0,024	0,003
-337,548	-200,000	0,021	-0,074
-336,533	-118,731	0,063	-0,008
-335,518	265,912	-0,041	0,053
-334,504	101,873	0,027	0,023
-333,489	-84,098	-0,155	0,036
-332,475	-46,740	0,065	-0,023
-331,460	-10,916	-0,121	0,058
-330,445	-16,037	0,012	0,005
-329,431	-57,312	-0,067	-0,021
-328,416	-133,081	0,127	-0,012
-327,402	193,042	-0,065	0,072
-326,387	-200,000	0,038	0,151
-325,372	4,092	-0,059	-0,032
-324,358	-59,781	-0,063	-0,020
-323,343	800,000	-0,035	-0,082
-322,329	800,000	0,014	0,035
-321,314	364,160	-0,064	0,095
-320,299	3,424	0,051	0,027
-319,285	-163,149	0,081	0,003
-318,270	54,113	0,144	-0,101
-317,256	-200,000	-0,002	-0,106
-316,241	-200,000	0,005	-0,071
-315,226	-181,687	-0,103	-0,001
-314,212	-200,000	0,026	-0,101
-313,197	-70,830	-0,043	-0,012
-312,183	-27,912	0,080	0,034
-311,168	187,915	-0,088	-0,097
-310,153	222,983	-0,093	-0,110
-309,139	63,633	0,050	-0,037
-308,124	-200,000	-0,006	0,095
-307,110	386,237	0,070	0,107
-306,095	-180,080	0,121	0,002
-305,080	-200,000	-0,015	-0,052
-304,066	-200,000	0,020	-0,092
-303,051	-200,000	0,003	-0,073
-302,037	800,000	0,028	-0,063
-301,022	153,131	0,049	0,049
-300,008	492,965	-0,046	0,077
-298,993	-33,310	0,136	0,055
-297,978	-58,813	-0,079	-0,025
-296,964	-200,000	0,003	0,081
-295,949	-117,899	0,013	0,002
-294,935	78,016	-0,043	-0,033
-293,920	-200,000	-0,004	-0,187
-292,905	-200,000	-0,004	0,065
-291,891	20,997	0,128	0,076
-290,876	19,273	-0,117	-0,068
-289,862	414,375	0,070	-0,109
-288,847	34,945	0,103	-0,066
-287,832	143,876	0,087	0,085
-286,818	-94,908	0,058	-0,011
-285,803	-200,000	0,002	0,058
-284,789	422,454	-0,048	0,076
-283,774	-200,000	0,007	0,037
-282,759	12,121	0,098	-0,055
-281,745	67,564	-0,037	0,028
-280,730	800,000	-0,031	-0,072
-279,716	230,402	-0,044	-0,053
-278,701	-68,974	0,194	0,054
-277,686	623,830	0,054	-0,101
-276,672	-121,979	0,177	-0,021
-275,657	-200,000	0,010	0,091
-274,643	-154,579	0,097	-0,005
-273,628	-200,000	-0,008	-0,149
-272,613	23,071	0,082	-0,049
-271,599	341,103	0,037	0,053
-270,584	-200,000	0,057	0,203
-269,570	251,655	-0,083	0,104
-268,555	-63,284	0,055	0,017
-267,540	800,000	-0,087	-0,185
-266,526	-46,001	0,019	-0,007
-265,511	46,050	-0,048	-0,032
-264,497	-45,076	0,121	0,044
-263,482	135,136	0,055	-0,053
-262,467	508,808	-0,081	-0,138
-261,453	409,656	-0,036	-0,056
-260,438	-200,000	-0,010	-0,047
-259,424	28,266	0,070	0,043
-258,409	115,326	-0,029	0,026
-257,395	75,030	-0,145	0,111
-256,380	106,280	0,054	-0,047
-255,365	78,935	0,147	0,115
-254,351	800,000	0,040	0,105
-253,336	-200,000	0,022	-0,074
-252,322	800,000	-0,040	-0,096
-251,307	-29,764	0,093	-0,039
-250,292	-200,000	-0,003	-0,068
-249,278	71,732	-0,106	-0,080
-248,263	800,000	0,047	-0,103
-247,249	164,971	-0,102	0,105
-246,234	459,440	0,060	-0,098
-245,219	-71,770	-0,026	0,007
-244,205	-200,000	0,018	-0,119
-243,190	-147,345	0,082	0,005
-242,176	605,794	-0,029	-0,053
-241,161	56,028	0,134	0,095
-240,146	572,327	0,018	-0,032
-239,132	-200,000	-0,005	-0,019
-238,117	-200,000	0,023	-0,076
-237,103	418,681	0,050	0,079
-236,088	800,000	-0,064	0,158
-235,073	-13,094	0,021	-0,010
-234,059	800,000	-0,050	0,114
-233,044	-200,000	-0,019	0,107
-232,030	113,507	-0,122	-0,108
-231,015	-200,000	0,006	-0,032
-230,000	800,000	0,012	0,025
-228,986	293,772	-0,084	0,112
-227,971	-138,968	0,094	0,007
-226,957	266,140	0,022	-0,028
-225,942	-200,000	0,007	-0,025
-224,927	72,101	0,005	-0,004
-223,913	-107,233	-0,079	0,013
-222,898	43,911	-0,042	-0,028
-221,884	106,744	0,041	0,036
-220,869	141,506	-0,023	0,022
-219,855	192,268	0,053	-0,059
-218,840	404,741	-0,074	-0,114
-217,825	-200,000	0,030	-0,112
-216,811	82,331	0,120	0,095
-215,796	3,284	-0,149	-0,079
-214,782	-40,873	0,132	-0,050
-213,767	474,750	0,060	0,099
-212,752	309,361	0,099	0,135
-211,738	-200,000	-0,011	0,161
-210,723	62,056	-0,108	-0,079
-209,709	151,932	-0,056	-0,056
-208,694	800,000	0,032	0,070
-207,679	89,768	0,018	-0,015
-206,665	-200,000	-0,012	0,091
-205,650	-123,460	-0,114	-0,013
-204,636	49,562	0,073	0,050
-203,621	213,315	-0,051	0,058
-202,606	488,809	0,039	-0,066
-201,592	-139,210	-0,133	-0,010
-200,577	148,096	-0,088	0,087
-199,563	-200,000	0,033	-0,185
-198,548	-200,000	-0,005	0,033
-197,533	-200,000	0,000	0,008
-196,519	384,265	0,036	0,053
-195,504	337,803	0,051	-0,073
-194,490	333,785	-0,062	-0,087
-193,475	21,312	0,051	-0,030
-192,460	-41,793	0,061	0,023
-191,446	757,445	0,030	-0,059
-190,431	767,682	-0,030	-0,061
-189,417	-28,028	-0,049	0,020
-188,402	169,551	0,045	0,047
-187,387	321,075	0,098	-0,136
-186,373	414,147	0,073	-0,113
-185,358	128,514	-0,018	0,017
-184,344	45,242	0,061	-0,041
-183,329	-200,000	-0,016	-0,132
-182,315	800,000	-0,013	0,031
-181,300	-200,000	-0,014	0,183
-180,285	324,071	0,029	0,041
-179,271	-200,000	-0,036	-0,189
-178,256	-81,124	-0,069	-0,016
-177,242	312,769	0,046	0,064
-176,227	173,672	0,100	-0,106
-175,212	238,112	0,059	0,071
-174,198	-200,000	-0,003	0,092
-173,183	-135,346	-0,043	0,004
-172,169	-92,744	0,120	-0,024
-171,154	125,313	-0,115	-0,105
-170,139	-129,086	0,025	-0,002
-169,125	-200,000	-0,015	0,079
-168,110	-63,390	-0,054	0,016
-167,096	800,000	-0,025	0,069
-166,081	-6,459	0,026	0,013
-165,066	-146,743	-0,061	-0,004
-164,052	370,506	0,032	-0,048
-163,037	-54,084	-0,079	-0,026
-162,023	800,000	0,015	-0,040
-161,008	800,000	-0,012	-0,032
-159,993	40,759	0,039	-0,025
-158,979	-200,000	-0,007	0,061
-157,964	-125,959	-0,158	0,017
-156,950	-200,000	-0,019	-0,093
-155,935	10,486	0,024	0,013
-154,920	-168,867	0,221	0,006
-153,906	-200,000	-0,001	0,059
-152,891	251,787	-0,094	0,116
-151,877	800,000	0,042	0,105
-150,862	694,028	-0,009	-0,017
-149,847	-200,000	-0,012	-0,090
-148,833	160,815	0,059	-0,060
-147,818	-72,274	-0,040	-0,011
-146,804	-12,561	0,108	0,051
-145,789	-200,000	-0,006	-0,094
-144,775	-97,750	-0,108	0,020
-143,760	285,127	-0,060	-0,079
-142,745	-156,000	0,070	-0,003
-141,731	166,518	-0,033	-0,034
-140,716	66,037	-0,101	-0,074
-139,702	800,000	0,054	0,115
-138,687	-47,612	0,164	-0,058
-137,672	-200,000	-0,025	-0,094
-136,658	-200,000	-0,016	0,051
-135,643	-150,231	0,109	0,006
-134,629	-200,000	0,005	0,023
-133,614	-152,620	0,087	0,004
-132,599	-148,640	-0,152	-0,009
-131,585	544,615	-0,064	0,112
-130,570	-200,000	0,014	-0,077
-129,556	-200,000	-0,015	0,077
-128,541	-121,051	-0,143	-0,017
-127,526	287,899	-0,063	-0,084
-126,512	62,499	-0,075	-0,054
-125,497	-200,000	0,001	-0,031
-124,483	-44,527	0,045	0,016
-123,468	-200,000	-0,012	-0,095
-122,453	-112,610	-0,116	-0,017
-121,439	-125,022	0,086	0,010
-120,424	-52,529	-0,182	-0,061
