DTS Sentinel unit serial number:	SN410029Multiplexer serial number:	ORYXHardware model number:	OX2-SRSoftware version number:	ORYX F/W v4,00 Oryx Data Collector v3.7.2.0data status	okinstallation	B4 Nyhavnadifferential loss correction	single-endedforward channel	channel 2reverse channel	N/Adate	2023/12/19time	04:15:13forward acquisition time	300,00reverse acquisition time	0,00gamma	499,1914k internal	0,3126k external	0,3126temperature offset calibration	1,0000default loss term (dB/km)	0,3820temperature slope calibration	1,0000multiplexer offset coefficient	1,0000multiplexer slope coefficient	1,0000fibre end	0,00T internal ref (°C)	20,93T ext. ref 1 (°C)	6,03T ext. ref 2 (°C)	6,16length (m)	temperature (°C)	Stokes	anti-Stokes-744,400	-52,876	0,105	0,036
-743,385	-33,483	-0,249	0,102
-742,371	-131,568	0,143	0,014
-741,356	-40,622	-0,354	0,136
-740,342	382,834	-0,050	0,077
-739,327	197,403	-0,173	0,197
-738,312	-200,000	0,013	-0,063
-737,298	12,806	-0,275	0,158
-736,283	124,229	0,090	-0,084
-735,269	-72,018	-0,109	0,030
-734,254	159,597	-0,053	0,055
-733,239	-79,127	-0,409	-0,103
-732,225	105,432	0,122	-0,107
-731,210	-26,889	0,136	-0,059
-730,196	11,786	-0,084	-0,048
-729,181	66,272	0,059	0,044
-728,167	457,998	-0,101	-0,167
-727,152	-200,000	-0,008	-0,062
-726,137	-82,249	0,057	-0,014
-725,123	-136,053	-0,045	-0,004
-724,108	-140,530	-0,071	-0,005
-723,094	-200,000	-0,017	-0,064
-722,079	-152,677	-0,033	-0,002
-721,064	-71,448	-0,092	0,025
-720,050	347,629	-0,049	0,072
-719,035	-200,000	0,004	-0,039
-718,021	-60,801	-0,071	0,022
-717,006	269,118	0,119	-0,156
-715,991	-40,697	-0,074	-0,028
-714,977	-112,516	-0,073	-0,011
-713,962	107,369	0,031	-0,028
-712,948	800,000	-0,014	-0,031
-711,933	-200,000	0,001	0,005
-710,918	-200,000	0,010	-0,076
-709,904	-200,000	0,003	-0,054
-708,889	-200,000	-0,005	-0,048
-707,875	800,000	-0,074	-0,169
-706,860	182,572	0,041	-0,045
-705,845	800,000	-0,012	-0,039
-704,831	-43,255	0,051	0,019
-703,816	-49,818	-0,111	0,039
-702,802	-4,797	0,054	-0,027
-701,787	97,755	-0,086	-0,073
-700,772	193,191	0,022	0,025
-699,758	-94,757	0,102	-0,020
-698,743	78,004	0,022	-0,017
-697,729	283,585	-0,046	-0,061
-696,714	-130,800	-0,076	0,007
-695,699	62,541	-0,110	-0,082
-694,685	-200,000	0,006	-0,053
-693,670	-200,000	-0,026	-0,183
-692,656	435,613	0,063	-0,102
-691,641	-200,000	0,022	-0,174
-690,627	-97,599	-0,124	0,024
-689,612	139,340	-0,074	0,072
-688,597	-104,460	-0,085	0,014
-687,583	-165,168	-0,070	-0,002
-686,568	657,495	-0,051	-0,099
-685,554	140,495	-0,045	-0,044
-684,539	-21,605	-0,103	-0,046
-683,524	-57,615	-0,092	-0,030
-682,510	-120,289	0,066	-0,008
-681,495	404,877	-0,091	0,143
-680,481	-200,000	-0,008	-0,043
-679,466	-200,000	-0,017	-0,107
-678,451	-99,857	0,098	-0,018
-677,437	800,000	-0,067	-0,171
-676,422	177,346	0,022	-0,024
-675,408	-200,000	-0,000	0,070
-674,393	371,693	0,026	0,039
-673,378	-200,000	0,003	-0,056
-672,364	88,940	-0,142	-0,118
-671,349	-29,801	-0,161	-0,068
-670,335	800,000	0,029	0,072
-669,320	-200,000	-0,020	-0,073
-668,305	335,695	-0,036	0,052
-667,291	-29,019	0,077	0,032
-666,276	192,716	-0,088	-0,099
-665,262	-200,000	0,007	-0,182
-664,247	800,000	-0,018	0,049
-663,232	94,966	0,062	0,052
-662,218	-36,555	0,085	0,034
-661,203	104,396	0,019	-0,017
-660,189	-200,000	-0,002	0,087
-659,174	-200,000	-0,007	0,051
-658,159	-200,000	0,029	-0,182
-657,145	-200,000	0,044	-0,199
-656,130	-67,036	0,043	-0,013
-655,116	800,000	0,044	0,137
-654,101	-200,000	0,026	0,091
-653,086	-200,000	0,011	0,081
-652,072	244,071	-0,055	-0,068
-651,057	112,471	-0,072	-0,064
-650,043	246,762	0,102	0,129
-649,028	222,501	-0,056	0,067
-648,014	-141,513	0,057	0,004
-646,999	-33,855	-0,050	-0,020
-645,984	-200,000	-0,009	0,139
-644,970	-200,000	-0,042	-0,142
-643,955	322,512	-0,058	-0,083
-642,941	113,995	-0,138	-0,124
-641,926	-8,015	-0,119	-0,059
-640,911	-200,000	0,018	0,192
-639,897	45,415	0,079	0,054
-638,882	124,589	-0,053	-0,050
-637,868	256,854	-0,051	-0,065
-636,853	307,257	-0,046	-0,064
-635,838	319,999	-0,030	-0,042
-634,824	176,301	0,056	0,060
-633,809	-59,666	-0,010	0,003
-632,795	80,206	0,019	0,015
-631,780	75,848	-0,101	-0,079
-630,765	-23,414	-0,030	0,013
-629,751	127,526	-0,035	0,033
-628,736	48,524	-0,041	0,028
-627,722	101,678	0,040	-0,034
-626,707	800,000	-0,034	-0,084
-625,692	166,718	0,085	0,090
-624,678	-200,000	-0,012	-0,068
-623,663	-42,907	0,081	-0,030
-622,649	-58,154	-0,178	0,057
-621,634	-200,000	-0,008	-0,073
-620,619	191,231	-0,108	-0,121
-619,605	-48,490	0,124	-0,044
-618,590	-99,284	0,094	-0,017
-617,576	222,715	-0,044	0,053
-616,561	145,834	0,115	0,115
-615,546	247,667	0,009	0,011
-614,532	-200,000	0,028	-0,154
-613,517	-200,000	0,002	-0,206
-612,503	-200,000	0,012	-0,145
-611,488	-200,000	-0,016	-0,154
-610,474	75,773	-0,088	0,069
-609,459	-200,000	-0,011	0,058
-608,444	-62,994	-0,076	-0,023
-607,430	-200,000	0,009	0,033
-606,415	-200,000	0,009	0,091
-605,401	-200,000	-0,014	-0,057
-604,386	800,000	-0,047	-0,109
-603,371	-200,000	-0,024	0,160
-602,357	-118,037	0,071	-0,009
-601,342	800,000	-0,019	-0,057
-600,328	310,804	0,117	-0,162
-599,313	-130,617	0,023	-0,002
-598,298	-79,924	-0,092	-0,023
-597,284	-22,253	0,124	-0,055
-596,269	-200,000	-0,005	0,045
-595,255	-200,000	0,015	0,092
-594,240	800,000	-0,026	-0,077
-593,225	800,000	-0,042	-0,137
-592,211	-200,000	-0,034	-0,132
-591,196	-200,000	0,005	0,020
-590,182	-200,000	-0,004	0,195
-589,167	4,842	0,032	0,018
-588,152	79,343	0,061	0,048
-587,138	183,801	-0,074	-0,081
-586,123	648,907	-0,035	0,066
-585,109	800,000	0,024	-0,069
-584,094	-15,162	0,112	-0,053
-583,079	6,980	0,125	0,069
-582,065	-1,388	0,078	-0,041
-581,050	800,000	-0,034	0,104
-580,036	271,840	0,023	0,030
-579,021	55,777	-0,099	-0,071
-578,006	-84,623	-0,108	0,025
-576,992	800,000	-0,028	-0,084
-575,977	575,039	-0,036	0,065
-574,963	-200,000	0,010	-0,081
-573,948	518,688	0,033	0,057
-572,934	21,726	0,189	-0,114
-571,919	48,669	0,075	-0,052
-570,904	296,836	-0,098	-0,133
-569,890	522,187	0,027	0,047
-568,875	800,000	0,050	-0,133
-567,861	-200,000	-0,006	-0,044
-566,846	-106,276	-0,047	-0,008
-565,831	181,927	-0,074	0,081
-564,817	448,271	-0,075	-0,123
-563,802	136,105	-0,062	-0,060
-562,788	-26,256	-0,050	0,022
-561,773	164,418	0,022	-0,023
-560,758	800,000	-0,057	0,131
-559,744	226,402	0,109	0,131
-558,729	495,331	-0,045	-0,076
-557,715	-200,000	-0,019	-0,092
-556,700	800,000	0,031	-0,091
-555,685	16,552	-0,035	0,021
-554,671	782,151	0,036	-0,073
-553,656	433,989	0,012	0,020
-552,642	-200,000	-0,020	0,234
-551,627	-200,000	-0,033	-0,176
-550,612	800,000	-0,043	0,089
-549,598	-200,000	0,007	0,026
-548,583	48,969	-0,019	-0,013
-547,569	-200,000	0,003	0,091
-546,554	-62,161	0,050	0,015
-545,539	800,000	0,020	0,059
-544,525	71,401	-0,091	-0,070
-543,510	-84,397	0,123	-0,029
-542,496	334,783	0,016	0,023
-541,481	-101,745	-0,205	0,036
-540,466	-200,000	-0,007	-0,065
-539,452	-12,001	0,023	0,011
-538,437	-200,000	0,026	-0,116
-537,423	66,942	0,132	-0,099
-536,408	44,554	0,058	-0,040
-535,393	-200,000	0,019	-0,096
-534,379	-200,000	0,020	0,193
-533,364	800,000	0,031	0,066
-532,350	-24,660	-0,113	0,049
-531,335	800,000	0,035	0,094
-530,321	-200,000	-0,001	0,014
-529,306	-200,000	-0,032	0,120
-528,291	-200,000	0,008	0,029
-527,277	800,000	-0,020	-0,063
-526,262	145,917	0,078	0,077
-525,248	-106,597	-0,183	-0,030
-524,233	40,510	0,080	0,053
-523,218	285,179	-0,041	0,055
-522,204	-200,000	0,003	-0,042
-521,189	67,220	-0,180	-0,136
-520,175	-129,437	-0,054	-0,005
-519,160	-89,595	-0,076	0,016
-518,145	-200,000	0,019	0,229
-517,131	800,000	-0,009	0,023
-516,116	-52,908	-0,019	-0,006
-515,102	-103,253	0,080	0,014
-514,087	-200,000	-0,012	0,110
-513,072	528,286	-0,015	0,027
-512,058	581,078	0,047	-0,085
-511,043	-200,000	-0,011	0,089
-510,029	-179,279	0,094	-0,001
-509,014	1,258	0,028	0,015
-507,999	-46,060	0,139	0,050
-506,985	148,661	0,060	-0,060
-505,970	-200,000	-0,007	0,037
-504,956	53,918	-0,037	0,026
-503,941	312,237	0,028	0,039
-502,926	72,136	0,145	0,112
-501,912	25,323	-0,033	-0,020
-500,897	-14,103	0,128	-0,061
-499,883	785,158	0,054	-0,110
-498,868	-200,000	0,022	-0,084
-497,853	51,244	0,044	-0,031
-496,839	89,205	-0,066	-0,054
-495,824	773,840	-0,062	-0,125
-494,810	-62,310	-0,070	-0,021
-493,795	800,000	0,038	0,112
-492,781	153,426	-0,044	0,044
-491,766	19,595	-0,103	-0,061
-490,751	-72,910	0,078	0,021
-489,737	800,000	0,046	-0,120
-488,722	158,761	-0,049	-0,050
-487,708	-200,000	0,016	0,101
-486,693	-200,000	0,023	0,075
-485,678	39,345	0,094	0,062
-484,664	85,969	-0,114	0,092
-483,649	-58,117	-0,100	-0,032
-482,635	139,915	0,090	-0,088
-481,620	-68,988	0,052	-0,015
-480,605	50,914	0,123	0,086
-479,591	-200,000	0,021	-0,078
-478,576	-119,278	-0,123	-0,016
-477,562	112,878	-0,182	-0,163
-476,547	800,000	-0,050	-0,156
-475,532	176,195	0,080	-0,086
-474,518	-166,269	-0,127	0,004
-473,503	-94,006	0,060	-0,012
-472,489	282,867	0,083	0,110
-471,474	209,281	-0,048	-0,056
-470,459	-143,188	-0,074	-0,005
-469,445	-200,000	-0,022	0,125
-468,430	327,044	0,048	0,067
-467,416	-200,000	-0,004	-0,071
-466,401	-200,000	-0,018	0,131
-465,386	-13,775	0,025	0,012
-464,372	466,773	0,049	-0,081
-463,357	113,187	-0,090	0,081
-462,343	-111,914	-0,122	-0,018
-461,328	20,958	0,034	0,020
-460,313	219,826	-0,044	-0,052
-459,299	-20,655	0,116	0,052
-458,284	326,180	0,045	0,063
-457,270	336,300	0,069	-0,099
-456,255	-200,000	-0,040	-0,151
-455,241	153,534	0,059	-0,060
-454,226	800,000	-0,049	-0,132
-453,211	-200,000	0,002	-0,070
-452,197	-20,816	0,062	-0,028
-451,182	-7,895	0,089	-0,044
-450,168	145,586	0,028	0,027
-449,153	489,053	0,064	0,109
-448,138	57,495	-0,070	0,050
-447,124	-200,000	-0,009	-0,049
-446,109	800,000	-0,043	-0,110
-445,095	-200,000	0,006	0,063
-444,080	-25,813	0,057	-0,025
-443,065	-88,391	-0,036	-0,008
-442,051	217,792	0,066	-0,078
-441,036	22,111	-0,114	0,068
-440,022	-200,000	-0,017	-0,077
-439,007	-60,222	-0,023	0,007
-437,992	-200,000	0,013	0,095
-436,978	-200,000	0,006	-0,023
-435,963	-200,000	-0,001	0,020
-434,949	33,112	-0,038	0,024
-433,934	31,250	-0,062	0,039
-432,919	-200,000	-0,007	0,054
-431,905	41,792	-0,021	0,014
-430,890	-79,738	-0,004	0,001
-429,876	227,306	-0,060	0,071
-428,861	204,503	0,061	-0,069
-427,846	128,126	0,119	-0,111
-426,832	-54,761	-0,069	0,023
-425,817	158,231	-0,043	-0,044
-424,803	-45,072	0,042	-0,015
-423,788	-87,510	-0,098	0,022
-422,773	386,511	-0,049	0,075
-421,759	217,098	0,093	-0,110
-420,744	2,295	0,058	0,031
-419,730	-200,000	-0,019	0,077
-418,715	339,612	0,049	-0,071
-417,701	78,821	-0,084	-0,066
-416,686	57,883	0,095	0,068
-415,671	588,249	0,052	0,095
-414,657	370,098	-0,081	-0,122
-413,642	129,739	0,066	0,062
-412,628	800,000	0,050	0,109
-411,613	12,039	-0,091	-0,051
-410,598	-104,673	0,157	0,026
-409,584	800,000	0,050	-0,118
-408,569	551,094	0,060	0,106
-407,555	800,000	0,031	-0,075
-406,540	0,616	-0,182	0,095
-405,525	700,855	0,020	-0,040
-404,511	-4,446	0,085	-0,043
-403,496	-200,000	0,005	-0,090
-402,482	372,821	0,051	-0,077
-401,467	-187,099	0,099	-0,001
-400,452	264,312	-0,034	-0,044
-399,438	-33,726	0,144	0,058
-398,423	-66,541	-0,093	0,027
-397,409	-172,910	-0,034	-0,001
-396,394	25,550	-0,155	-0,095
-395,379	529,477	-0,046	0,080
-394,365	13,045	0,166	0,094
-393,350	-96,821	0,148	-0,028
-392,336	-191,129	-0,104	0,001
-391,321	54,611	0,075	-0,053
-390,306	-200,000	-0,003	-0,025
-389,292	687,055	0,028	-0,054
-388,277	147,298	-0,112	0,111
-387,263	-156,805	0,214	0,009
-386,248	-200,000	0,007	0,048
-385,233	-200,000	-0,006	0,032
-384,219	-200,000	-0,026	0,124
-383,204	-74,780	-0,138	-0,036
-382,190	-41,126	-0,110	-0,041
-381,175	-51,451	-0,125	0,043
-380,160	169,565	-0,065	0,068
-379,146	-79,293	-0,126	-0,031
-378,131	-200,000	0,016	0,083
-377,117	79,880	-0,072	0,057
-376,102	-42,956	-0,095	0,035
-375,088	-200,000	0,011	-0,101
-374,073	-200,000	-0,015	-0,055
-373,058	101,541	-0,086	0,074
-372,044	800,000	-0,035	0,073
-371,029	29,460	-0,018	-0,011
-370,015	-13,898	0,110	-0,052
-369,000	-78,902	-0,063	-0,016
-367,985	129,661	-0,097	-0,091
-366,971	4,293	-0,053	0,028
-365,956	47,873	0,073	0,050
-364,942	-25,258	0,119	-0,051
-363,927	460,229	0,075	0,122
-362,912	-200,000	-0,002	-0,077
-361,898	-200,000	-0,011	-0,063
-360,883	-178,596	-0,059	-0,001
-359,869	-200,000	-0,003	-0,016
-358,854	226,279	0,035	-0,042
-357,839	-76,640	0,149	0,038
-356,825	-34,788	-0,032	0,013
-355,810	642,022	0,079	-0,148
-354,796	-128,650	0,126	0,013
-353,781	-200,000	0,009	-0,052
-352,766	347,273	0,046	0,067
-351,752	181,302	0,022	-0,024
-350,737	400,301	-0,061	-0,095
-349,723	800,000	-0,038	0,079
-348,708	344,776	0,036	-0,052
-347,693	4,493	0,069	0,037
-346,679	800,000	0,062	0,141
-345,664	-67,534	-0,164	0,047
-344,650	-74,475	0,088	0,023
-343,635	-200,000	0,021	0,104
-342,620	-88,246	0,170	-0,037
-341,606	531,941	0,069	0,120
-340,591	-138,722	-0,064	0,005
-339,577	-55,781	-0,130	-0,042
-338,562	800,000	-0,017	0,039
-337,548	232,266	-0,056	-0,067
-336,533	63,729	0,066	-0,049
-335,518	-48,026	-0,104	-0,037
-334,504	119,377	0,117	-0,106
-333,489	23,466	0,084	0,051
-332,475	61,906	0,051	0,037
-331,460	388,143	0,057	-0,087
-330,445	-200,000	-0,005	0,053
-329,431	380,255	-0,080	0,120
-328,416	497,330	-0,027	0,045
-327,402	369,136	0,047	0,070
-326,387	-157,816	0,083	0,004
-325,372	21,711	0,124	0,074
-324,358	689,153	-0,038	-0,074
-323,343	800,000	-0,053	-0,128
-322,329	334,083	0,072	-0,102
-321,314	573,983	0,021	0,037
-320,299	-200,000	0,004	0,079
-319,285	-132,866	-0,115	0,011
-318,270	126,226	-0,023	0,021
-317,256	47,201	-0,143	-0,097
-316,241	113,182	0,017	0,015
-315,226	800,000	0,052	0,124
-314,212	143,784	-0,054	-0,053
-313,197	238,848	-0,053	0,065
-312,183	-200,000	-0,018	-0,125
-311,168	800,000	0,019	-0,055
-310,153	-23,173	0,017	-0,007
-309,139	-200,000	0,024	-0,100
-308,124	-19,322	0,122	0,055
-307,110	-1,206	0,057	0,029
-306,095	-200,000	-0,003	0,056
-305,080	800,000	-0,056	0,115
-304,066	496,693	0,031	0,053
-303,051	800,000	0,028	0,082
-302,037	-200,000	-0,016	0,105
-301,022	150,749	-0,032	-0,032
-300,008	-30,528	0,129	0,053
-298,993	-64,709	0,176	-0,052
-297,978	-200,000	0,016	0,105
-296,964	509,112	-0,083	-0,142
-295,949	22,978	0,129	0,077
-294,935	-58,438	-0,091	-0,029
-293,920	-122,655	-0,028	0,003
-292,905	-107,889	-0,040	-0,006
-291,891	-200,000	0,008	0,067
-290,876	-128,072	0,036	0,004
-289,862	-13,109	-0,049	0,023
-288,847	800,000	-0,039	-0,090
-287,832	800,000	-0,056	0,150
-286,818	330,496	0,016	-0,023
-285,803	389,225	-0,024	0,036
-284,789	-146,783	0,061	-0,004
-283,774	-200,000	0,006	0,096
-282,759	-200,000	0,015	0,086
-281,745	-200,000	0,018	0,060
-280,730	-162,945	-0,115	0,004
-279,716	800,000	0,047	0,114
-278,701	800,000	0,052	0,107
-277,686	-183,435	-0,087	0,001
-276,672	104,270	-0,077	0,066
-275,657	-81,568	-0,046	-0,011
-274,643	-87,005	-0,012	0,003
-273,628	-62,199	-0,146	-0,044
-272,613	451,236	-0,076	-0,123
-271,599	-200,000	0,013	-0,125
-270,584	135,701	0,132	0,126
-269,570	-60,882	0,039	-0,012
-268,555	97,297	0,055	0,046
-267,540	260,450	0,008	-0,010
-266,526	54,961	-0,076	0,054
-265,511	691,477	0,042	-0,080
-264,497	-80,375	-0,041	0,010
-263,482	-200,000	0,007	0,031
-262,467	514,845	0,055	-0,094
-261,453	233,862	-0,037	0,044
-260,438	-200,000	0,014	0,056
-259,424	625,984	-0,060	-0,111
-258,409	-200,000	0,020	-0,110
-257,395	102,848	-0,025	-0,021
-256,380	-77,201	0,114	0,029
-255,365	257,471	-0,013	0,016
-254,351	-200,000	0,013	-0,056
-253,336	236,906	-0,021	-0,025
-252,322	684,474	-0,047	-0,089
-251,307	-200,000	0,006	-0,103
-250,292	800,000	0,048	-0,140
-249,278	107,515	0,127	0,111
-248,263	279,221	-0,013	0,017
-247,249	-148,114	-0,078	0,005
-246,234	513,945	-0,034	-0,058
-245,219	29,494	0,056	0,035
-244,205	800,000	-0,047	-0,145
-243,190	-200,000	-0,015	-0,140
-242,176	800,000	0,039	0,095
-241,161	800,000	-0,007	0,020
-240,146	-79,527	0,105	0,026
-239,132	800,000	0,048	-0,101
-238,117	-200,000	-0,004	-0,045
-237,103	290,386	0,097	0,129
-236,088	57,884	0,067	-0,048
-235,073	-54,012	0,067	0,022
-234,059	0,056	-0,089	-0,046
-233,044	79,805	-0,059	-0,046
-232,030	-95,062	-0,134	0,026
-231,015	-200,000	0,014	0,071
-230,000	149,335	-0,020	0,020
-228,986	-24,710	0,064	0,028
-227,971	-200,000	-0,001	0,101
-226,957	-200,000	-0,007	0,042
-225,942	17,685	0,028	0,016
-224,927	800,000	0,022	0,047
-223,913	122,650	0,022	-0,020
-222,898	-16,295	-0,057	0,026
-221,884	-200,000	-0,018	0,089
-220,869	283,606	-0,042	0,055
-219,855	124,570	0,004	-0,004
-218,840	37,667	0,117	0,076
-217,825	-66,677	0,059	0,017
-216,811	250,510	-0,037	-0,046
-215,796	523,556	-0,044	-0,075
-214,782	147,702	0,075	0,074
-213,767	800,000	0,054	0,129
-212,752	59,485	0,025	0,018
-211,738	94,814	0,181	0,150
-210,723	-200,000	0,015	-0,147
-209,709	-200,000	0,004	-0,052
-208,694	800,000	-0,052	-0,143
-207,679	-200,000	0,000	0,069
-206,665	-55,080	-0,103	0,033
-205,650	800,000	0,029	-0,068
-204,636	-200,000	0,015	0,102
-203,621	-136,813	-0,084	0,007
-202,606	-85,490	0,027	-0,006
-201,592	302,764	-0,079	-0,107
-200,577	-200,000	0,000	-0,003
-199,563	800,000	-0,056	-0,136
-198,548	-200,000	0,013	0,153
-197,533	-200,000	-0,020	-0,075
-196,519	-200,000	0,004	0,107
-195,504	-200,000	-0,030	0,176
-194,490	108,041	0,045	-0,040
-193,475	266,878	0,099	-0,127
-192,460	-200,000	-0,024	-0,136
-191,446	-151,291	0,036	-0,002
-190,431	297,464	0,106	0,142
-189,417	-144,917	-0,110	-0,007
-188,402	-74,633	0,098	0,026
-187,387	-76,935	0,026	-0,007
-186,373	142,317	-0,046	0,044
-185,358	292,321	-0,050	0,066
-184,344	-200,000	0,014	0,045
-183,329	-200,000	0,026	0,140
-182,315	-200,000	-0,051	-0,174
-181,300	403,982	0,012	0,019
-180,285	-37,834	-0,077	-0,030
-179,271	-200,000	0,031	-0,178
-178,256	-69,966	-0,075	0,021
-177,242	3,877	0,126	0,067
-176,227	102,388	-0,081	-0,069
-175,212	800,000	-0,069	0,202
-174,198	-1,279	-0,132	0,068
-173,183	800,000	0,023	-0,072
-172,169	800,000	0,027	-0,062
-171,154	70,144	0,071	0,054
-170,139	326,600	0,044	0,062
-169,125	-147,017	-0,102	0,006
-168,110	800,000	0,053	0,139
-167,096	178,100	-0,066	0,070
-166,081	173,370	-0,081	-0,085
-165,066	-66,783	-0,122	-0,035
-164,052	-34,723	-0,080	-0,032
-163,037	626,224	0,023	0,042
-162,023	800,000	-0,025	0,053
-161,008	-200,000	0,021	0,068
-159,993	178,231	-0,075	0,080
-158,979	100,919	0,007	0,006
-157,964	222,516	0,047	-0,055
-156,950	-200,000	-0,013	0,087
-155,935	69,928	0,109	-0,082
-154,920	-168,563	-0,076	0,002
-153,906	-200,000	0,032	0,113
-152,891	800,000	0,022	-0,050
-151,877	800,000	0,036	-0,082
-150,862	-200,000	0,019	-0,098
-149,847	723,655	-0,046	-0,089
-148,833	67,168	-0,064	-0,047
-147,818	-200,000	-0,020	-0,105
-146,804	121,785	0,098	0,089
-145,789	65,400	0,142	0,104
-144,775	-149,707	-0,121	0,007
-143,760	-200,000	-0,004	-0,014
-142,745	-200,000	0,009	0,041
-141,731	64,342	-0,115	0,084
-140,716	271,871	0,162	0,208
-139,702	800,000	-0,029	0,070
-138,687	800,000	0,073	0,157
-137,672	373,447	0,020	-0,029
-136,658	295,638	-0,054	-0,073
-135,643	307,239	0,072	-0,098
-134,629	635,875	-0,035	-0,065
-133,614	-200,000	0,022	0,073
-132,599	-200,000	0,016	0,131
-131,585	707,340	0,044	-0,085
-130,570	362,449	-0,042	0,062
-129,556	-200,000	0,015	-0,056
-128,541	-93,223	0,041	-0,008
-127,526	495,103	-0,047	-0,080
-126,512	145,218	0,064	0,062
-125,497	-200,000	-0,003	0,082
-124,483	-200,000	0,001	0,004
-123,468	-177,294	0,074	-0,001
-122,453	122,621	0,051	0,046
-121,439	-200,000	-0,015	-0,199
-120,424	-129,949	0,034	0,003
-119,410	-78,977	0,032	0,008
