DTS Sentinel unit serial number:	SN410029Multiplexer serial number:	ORYXHardware model number:	OX2-SRSoftware version number:	ORYX F/W v4,00 Oryx Data Collector v3.7.2.0data status	okinstallation	B4 Nyhavnadifferential loss correction	single-endedforward channel	channel 2reverse channel	N/Adate	2023/12/18time	16:50:13forward acquisition time	300,00reverse acquisition time	0,00gamma	499,1914k internal	0,3128k external	0,3128temperature offset calibration	1,0000default loss term (dB/km)	0,3820temperature slope calibration	1,0000multiplexer offset coefficient	1,0000multiplexer slope coefficient	1,0000fibre end	0,00T internal ref (°C)	21,08T ext. ref 1 (°C)	7,58T ext. ref 2 (°C)	7,65length (m)	temperature (°C)	Stokes	anti-Stokes-744,400	-200,000	0,008	-0,053
-743,385	298,984	-0,114	0,156
-742,371	57,145	0,120	0,087
-741,356	-15,418	-0,303	0,144
-740,342	-3,400	-0,041	-0,021
-739,327	-106,266	-0,269	0,044
-738,312	800,000	-0,063	-0,168
-737,298	170,802	-0,161	0,172
-736,283	-200,000	-0,005	-0,101
-735,269	365,600	-0,068	0,103
-734,254	-200,000	-0,002	-0,041
-733,239	-28,218	-0,387	-0,166
-732,225	97,131	0,133	-0,113
-731,210	-200,000	-0,026	0,139
-730,196	-15,132	0,067	-0,032
-729,181	270,512	-0,083	-0,108
-728,167	139,553	-0,034	0,034
-727,152	-200,000	0,033	-0,120
-726,137	223,284	-0,081	-0,098
-725,123	116,137	-0,108	-0,098
-724,108	21,818	-0,134	0,081
-723,094	-47,281	-0,151	-0,054
-722,079	-200,000	0,020	-0,069
-721,064	-69,185	-0,095	-0,027
-720,050	426,145	0,012	0,020
-719,035	-115,088	-0,037	-0,005
-718,021	800,000	0,014	0,037
-717,006	-200,000	-0,046	-0,253
-715,991	200,544	-0,098	-0,112
-714,977	479,091	-0,056	-0,095
-713,962	800,000	-0,047	-0,122
-712,948	-200,000	0,020	-0,076
-711,933	26,437	-0,101	-0,063
-710,918	-200,000	-0,032	-0,120
-709,904	-200,000	-0,004	-0,043
-708,889	-200,000	0,063	0,000
-707,875	232,080	-0,102	-0,124
-706,860	621,197	0,020	-0,038
-705,845	-63,606	0,041	0,012
-704,831	-200,000	0,016	0,055
-703,816	-94,126	-0,101	0,020
-702,802	800,000	-0,051	-0,118
-701,787	539,839	-0,042	-0,075
-700,772	160,492	-0,034	-0,035
-699,758	-128,431	-0,065	-0,007
-698,743	27,677	0,094	0,059
-697,729	-200,000	-0,005	0,027
-696,714	-182,288	-0,094	0,001
-695,699	-200,000	-0,017	-0,158
-694,685	-200,000	0,029	-0,119
-693,670	94,761	-0,143	-0,121
-692,656	-60,467	-0,086	0,027
-691,641	544,706	-0,055	0,098
-690,627	-39,085	-0,095	-0,037
-689,612	-162,930	-0,107	0,004
-688,597	383,678	0,067	0,102
-687,583	60,046	-0,059	-0,043
-686,568	800,000	-0,105	-0,281
-685,554	33,173	0,113	0,072
-684,539	-68,171	0,101	0,029
-683,524	800,000	0,014	0,034
-682,510	-200,000	-0,017	0,149
-681,495	225,571	0,069	-0,083
-680,481	-200,000	-0,005	-0,120
-679,466	162,632	-0,022	0,023
-678,451	-200,000	-0,011	-0,056
-677,437	-58,951	0,184	0,059
-676,422	-15,248	-0,104	-0,049
-675,408	308,849	0,033	-0,046
-674,393	-98,036	-0,179	0,034
-673,378	-200,000	0,008	0,025
-672,364	-52,001	-0,128	0,044
-671,349	-104,627	-0,075	-0,013
-670,335	220,380	0,079	-0,094
-669,320	800,000	0,029	0,064
-668,305	800,000	-0,032	0,096
-667,291	-153,194	-0,106	0,005
-666,276	800,000	-0,036	-0,075
-665,262	-200,000	-0,030	-0,145
-664,247	-31,643	-0,067	0,028
-663,232	0,539	-0,099	-0,052
-662,218	-177,355	0,083	0,001
-661,203	772,238	0,043	0,088
-660,189	-200,000	0,002	0,056
-659,174	40,671	-0,008	0,005
-658,159	18,793	-0,094	-0,056
-657,145	69,230	0,014	-0,011
-656,130	-75,803	0,089	-0,023
-655,116	-200,000	-0,012	-0,043
-654,101	-200,000	-0,009	-0,030
-653,086	42,530	0,062	0,042
-652,072	-200,000	0,009	0,059
-651,057	800,000	-0,036	-0,089
-650,043	628,407	-0,063	-0,118
-649,028	-200,000	0,000	-0,034
-648,014	-200,000	-0,015	0,058
-646,999	53,532	0,034	0,024
-645,984	-115,655	-0,043	-0,006
-644,970	193,349	0,061	0,069
-643,955	-200,000	-0,037	0,130
-642,941	-200,000	0,003	0,067
-641,926	154,452	-0,064	-0,065
-640,911	-200,000	-0,010	0,097
-639,897	76,144	-0,070	0,055
-638,882	-6,943	0,163	0,082
-637,868	-72,592	-0,125	0,034
-636,853	97,529	-0,139	-0,118
-635,838	663,904	-0,066	-0,127
-634,824	221,514	-0,086	0,103
-633,809	102,798	0,113	0,098
-632,795	59,674	0,058	-0,043
-631,780	312,364	-0,052	0,072
-630,765	190,828	-0,160	-0,179
-629,751	-51,411	-0,095	-0,033
-628,736	304,544	-0,034	-0,046
-627,722	110,081	-0,045	-0,040
-626,707	-170,977	0,066	-0,002
-625,692	-200,000	-0,029	-0,117
-624,678	139,575	-0,051	0,050
-623,663	-200,000	0,001	-0,009
-622,649	256,919	-0,051	-0,065
-621,634	-16,386	-0,098	0,046
-620,619	136,708	0,068	-0,066
-619,605	73,063	-0,009	-0,007
-618,590	118,424	-0,141	0,129
-617,576	-200,000	0,005	0,130
-616,561	-82,624	0,062	0,015
-615,546	-82,004	-0,123	0,029
-614,532	61,221	-0,041	-0,030
-613,517	800,000	-0,045	-0,101
-612,503	-13,146	-0,103	-0,049
-611,488	38,439	0,157	-0,103
-610,474	36,606	-0,015	0,010
-609,459	214,835	-0,092	-0,108
-608,444	-200,000	0,012	0,067
-607,430	388,060	-0,112	-0,172
-606,415	-57,939	-0,158	0,051
-605,401	-200,000	0,012	-0,049
-604,386	-200,000	-0,027	-0,132
-603,371	-200,000	-0,015	-0,070
-602,357	-121,973	-0,065	-0,008
-601,342	-200,000	0,004	0,046
-600,328	-200,000	-0,014	-0,096
-599,313	587,607	0,091	-0,166
-598,298	68,834	-0,136	-0,103
-597,284	-6,258	0,091	-0,046
-596,269	203,010	-0,042	-0,048
-595,255	-54,642	0,017	0,006
-594,240	-6,679	-0,132	-0,066
-593,225	-200,000	0,002	-0,024
-592,211	51,715	-0,186	-0,131
-591,196	-200,000	0,007	0,053
-590,182	280,080	0,049	0,064
-589,167	-200,000	0,023	0,106
-588,152	-200,000	0,031	-0,105
-587,138	0,347	-0,037	0,020
-586,123	-152,293	-0,144	0,008
-585,109	75,366	0,129	-0,100
-584,094	-63,414	-0,027	-0,008
-583,079	199,292	0,069	0,078
-582,065	-200,000	-0,009	0,101
-581,050	-43,440	0,088	0,033
-580,036	-37,078	-0,051	-0,020
-579,021	-200,000	0,003	-0,089
-578,006	-200,000	0,014	0,083
-576,992	380,879	-0,021	-0,032
-575,977	-200,000	-0,010	-0,166
-574,963	-200,000	0,020	0,070
-573,948	-145,678	0,065	-0,004
-572,934	-77,053	0,034	0,009
-571,919	-194,605	0,076	0,000
-570,904	-34,754	-0,145	0,058
-569,890	155,279	-0,052	0,053
-568,875	-88,796	-0,104	0,023
-567,861	-26,717	0,083	0,036
-566,846	-113,077	0,071	-0,010
-565,831	286,366	-0,030	-0,040
-564,817	-200,000	-0,012	0,100
-563,802	800,000	-0,026	-0,056
-562,788	-33,775	-0,152	-0,062
-561,773	-200,000	0,015	-0,111
-560,758	186,386	0,054	0,059
-559,744	800,000	-0,016	-0,045
-558,729	800,000	0,061	0,128
-557,715	-200,000	0,009	-0,076
-556,700	-38,589	0,125	0,049
-555,685	-6,761	-0,106	0,053
-554,671	226,246	0,035	0,041
-553,656	-200,000	0,038	-0,178
-552,642	-60,034	0,135	0,042
-551,627	800,000	-0,058	-0,121
-550,612	800,000	0,056	-0,181
-549,598	-61,168	-0,079	0,025
-548,583	-167,996	0,115	-0,003
-547,569	358,732	0,064	-0,095
-546,554	-30,252	0,193	-0,081
-545,539	-200,000	0,031	0,115
-544,525	-140,102	-0,065	0,005
-543,510	411,143	0,018	0,029
-542,496	254,668	-0,058	-0,074
-541,481	735,103	0,018	0,036
-540,466	296,151	0,065	0,088
-539,452	159,418	0,140	0,144
-538,437	-200,000	-0,006	0,117
-537,423	20,692	0,112	0,067
-536,408	-18,940	0,075	0,034
-535,393	-200,000	0,023	-0,078
-534,379	195,909	-0,107	-0,121
-533,364	-200,000	-0,008	-0,085
-532,350	-174,510	0,103	0,002
-531,335	800,000	0,022	0,049
-530,321	-200,000	-0,007	0,029
-529,306	800,000	-0,038	0,092
-528,291	189,922	-0,086	-0,096
-527,277	-109,560	-0,067	-0,010
-526,262	475,425	-0,090	0,150
-525,248	-200,000	0,015	-0,073
-524,233	25,866	0,038	-0,023
-523,218	-58,634	0,071	0,023
-522,204	-149,145	-0,123	-0,007
-521,189	-55,084	-0,096	-0,032
-520,175	-200,000	-0,008	-0,134
-519,160	-133,372	0,061	-0,006
-518,145	696,992	0,064	-0,124
-517,131	72,983	0,073	-0,056
-516,116	-200,000	0,000	0,110
-515,102	196,825	-0,172	0,194
-514,087	230,452	-0,105	0,127
-513,072	-160,000	-0,153	0,006
-512,058	-200,000	0,044	-0,186
-511,043	-60,520	-0,063	-0,020
-510,029	330,227	0,122	-0,174
-509,014	-45,964	0,135	-0,049
-507,999	-53,770	0,116	-0,039
-506,985	-200,000	-0,007	0,031
-505,970	3,776	-0,131	-0,070
-504,956	-87,401	0,096	-0,021
-503,941	-200,000	-0,003	-0,053
-502,926	453,676	-0,076	-0,124
-501,912	329,390	0,043	-0,061
-500,897	301,246	0,081	0,111
-499,883	205,011	-0,015	-0,017
-498,868	90,473	-0,076	-0,063
-497,853	-139,961	-0,059	-0,005
-496,839	-200,000	-0,005	0,147
-495,824	-93,040	-0,147	0,030
-494,810	313,640	-0,101	0,141
-493,795	462,011	0,068	-0,112
-492,781	800,000	0,012	0,032
-491,766	36,123	0,112	0,073
-490,751	-32,239	-0,144	-0,059
-489,737	343,872	0,046	-0,067
-488,722	-47,317	0,062	-0,022
-487,708	375,143	-0,022	0,034
-486,693	189,371	-0,060	-0,066
-485,678	195,158	-0,086	-0,096
-484,664	-177,455	-0,190	-0,003
-483,649	-200,000	-0,004	0,065
-482,635	-200,000	-0,007	-0,157
-481,620	262,555	0,035	-0,045
-480,605	-125,264	0,236	0,026
-479,591	101,773	-0,023	0,019
-478,576	260,152	0,018	0,023
-477,562	164,723	-0,034	0,035
-476,547	163,134	-0,065	-0,067
-475,532	18,299	0,120	-0,071
-474,518	-29,166	-0,126	-0,053
-473,503	2,254	0,043	-0,023
-472,489	-200,000	-0,035	-0,123
-471,474	-200,000	0,031	0,112
-470,459	261,109	-0,133	-0,169
-469,445	68,182	-0,079	0,059
-468,430	-51,551	0,062	-0,021
-467,416	-200,000	0,037	-0,152
-466,401	-78,439	0,104	-0,026
-465,386	800,000	0,025	0,066
-464,372	-77,319	-0,071	0,018
-463,357	234,049	-0,086	-0,105
-462,343	-200,000	-0,023	-0,122
-461,328	-65,052	-0,177	-0,052
-460,313	69,766	0,018	-0,013
-459,299	-200,000	-0,010	0,101
-458,284	278,430	-0,042	0,055
-457,270	8,672	0,111	-0,061
-456,255	-168,820	0,091	-0,002
-455,241	86,280	0,034	0,028
-454,226	-200,000	0,002	-0,040
-453,211	-200,000	0,001	0,027
-452,197	-200,000	-0,007	0,054
-451,182	-141,226	-0,133	0,010
-450,168	-56,580	-0,072	0,023
-449,153	252,071	0,048	-0,061
-448,138	170,175	-0,054	0,056
-447,124	24,358	-0,094	-0,057
-446,109	-0,331	0,098	0,051
-445,095	800,000	0,031	0,090
-444,080	465,037	-0,005	-0,009
-443,065	23,974	-0,144	0,087
-442,051	785,646	0,019	-0,040
-441,036	-99,888	-0,059	-0,011
-440,022	66,450	0,129	-0,097
-439,007	52,186	0,039	-0,027
-437,992	-200,000	-0,016	0,094
-436,978	-200,000	-0,003	0,090
-435,963	-30,250	-0,080	-0,033
-434,949	-128,545	-0,044	0,005
-433,934	164,535	-0,102	0,106
-432,919	8,941	0,058	0,032
-431,905	-200,000	0,020	-0,065
-430,890	800,000	-0,049	-0,140
-429,876	-175,561	-0,105	0,002
-428,861	407,894	-0,029	0,045
-427,846	-200,000	-0,019	0,065
-426,832	693,401	-0,043	-0,084
-425,817	291,878	-0,027	-0,037
-424,803	92,186	0,056	0,047
-423,788	-200,000	-0,020	0,175
-422,773	476,906	0,031	-0,052
-421,759	-200,000	0,015	-0,086
-420,744	32,228	-0,101	0,064
-419,730	-1,530	-0,100	0,052
-418,715	254,915	-0,013	-0,017
-417,701	784,291	0,040	-0,082
-416,686	-129,713	0,095	-0,010
-415,671	-200,000	-0,008	0,116
-414,657	800,000	0,019	0,053
-413,642	259,875	0,082	-0,105
-412,628	-200,000	0,001	-0,059
-411,613	800,000	-0,026	-0,063
-410,598	1,029	0,025	-0,013
-409,584	258,671	0,121	-0,154
-408,569	800,000	0,019	0,046
-407,555	-200,000	0,009	0,061
-406,540	94,819	0,017	-0,014
-405,525	290,241	0,085	0,113
-404,511	-92,124	-0,055	0,011
-403,496	-200,000	-0,004	-0,068
-402,482	-30,378	0,069	-0,029
-401,467	47,550	0,048	0,033
-400,452	-151,988	0,039	-0,002
-399,438	276,324	-0,028	0,037
-398,423	25,081	0,065	-0,039
-397,409	21,147	-0,166	0,099
-396,394	-200,000	-0,001	-0,089
-395,379	251,004	-0,069	0,086
-394,365	245,501	-0,036	-0,044
-393,350	74,467	0,023	-0,018
-392,336	-166,369	0,036	-0,001
-391,321	-82,509	0,064	-0,015
-390,306	58,879	-0,050	0,036
-389,292	334,096	-0,107	-0,153
-388,277	104,860	0,132	0,114
-387,263	-200,000	0,006	0,093
-386,248	51,219	0,073	-0,051
-385,233	279,082	0,131	-0,171
-384,219	418,878	0,046	-0,072
-383,204	-73,531	-0,032	-0,008
-382,190	144,939	-0,090	-0,088
-381,175	-200,000	0,014	0,122
-380,160	234,576	-0,047	-0,057
-379,146	-200,000	0,029	0,158
-378,131	-200,000	-0,000	0,147
-377,117	-200,000	-0,001	0,021
-376,102	800,000	0,047	-0,128
-375,088	-86,591	0,071	-0,016
-374,073	603,722	0,056	0,103
-373,058	391,177	0,051	-0,078
-372,044	-92,680	0,163	-0,033
-371,029	90,324	-0,095	0,078
-370,015	-70,209	0,036	0,010
-369,000	-94,088	0,082	0,016
-367,985	-200,000	-0,021	0,172
-366,971	106,431	-0,099	0,086
-365,956	-200,000	-0,016	-0,083
-364,942	382,233	0,011	0,016
-363,927	-141,038	0,055	0,004
-362,912	-200,000	0,002	0,026
-361,898	44,720	0,136	0,092
-360,883	124,763	0,063	-0,058
-359,869	56,203	0,062	0,044
-358,854	30,081	0,080	0,050
-357,839	-103,212	-0,020	0,003
-356,825	-200,000	0,009	0,106
-355,810	800,000	0,039	0,104
-354,796	696,592	-0,024	-0,047
-353,781	800,000	0,016	0,045
-352,766	-94,175	0,174	0,035
-351,752	800,000	-0,048	0,140
-350,737	339,799	0,056	-0,081
-349,723	-6,017	0,009	0,005
-348,708	209,067	0,052	-0,059
-347,693	-103,371	-0,049	-0,008
-346,679	564,315	-0,051	-0,091
-345,664	20,908	-0,092	-0,054
-344,650	-64,519	-0,061	-0,018
-343,635	464,157	0,111	0,182
-342,620	-200,000	-0,017	0,116
-341,606	107,932	-0,122	0,106
-340,591	311,135	0,022	-0,031
-339,577	44,897	-0,087	-0,059
-338,562	332,741	-0,030	0,042
-337,548	800,000	0,044	0,125
-336,533	130,357	-0,069	0,065
-335,518	800,000	-0,024	0,065
-334,504	-128,493	0,220	0,023
-333,489	85,621	0,006	0,005
-332,475	514,461	-0,029	-0,050
-331,460	78,299	-0,036	-0,028
-330,445	-43,984	0,081	-0,029
-329,431	-200,000	0,089	0,000
-328,416	258,522	0,070	-0,088
-327,402	-200,000	0,005	0,020
-326,387	-45,685	-0,135	0,049
-325,372	800,000	-0,022	-0,058
-324,358	-110,623	0,109	-0,016
-323,343	-97,478	-0,074	0,014
-322,329	87,416	0,098	0,080
-321,314	-200,000	-0,028	-0,096
-320,299	8,296	-0,046	0,025
-319,285	-25,692	0,084	-0,036
-318,270	-200,000	-0,011	-0,062
-317,256	21,037	-0,153	-0,091
-316,241	76,530	-0,063	-0,049
-315,226	244,113	0,067	-0,082
-314,212	800,000	-0,026	0,055
-313,197	-30,174	0,109	0,045
-312,183	-29,218	-0,088	-0,037
-311,168	89,490	-0,049	-0,040
-310,153	-200,000	0,010	-0,098
-309,139	-49,360	-0,042	-0,015
-308,124	65,268	0,100	0,074
-307,110	217,770	0,074	0,086
-306,095	800,000	0,015	0,047
-305,080	-132,809	-0,075	0,007
-304,066	515,927	0,032	0,054
-303,051	75,040	0,113	0,087
-302,037	-118,652	-0,197	-0,025
-301,022	655,295	0,051	-0,095
-300,008	-200,000	0,006	0,023
-298,993	50,275	0,039	0,027
-297,978	-169,181	0,012	-0,000
-296,964	-200,000	-0,004	0,032
-295,949	-200,000	-0,043	0,154
-294,935	501,445	0,013	0,021
-293,920	-131,610	0,192	0,018
-292,905	244,165	-0,126	-0,155
-291,891	-117,713	0,070	-0,009
-290,876	800,000	0,065	0,150
-289,862	800,000	-0,033	0,082
-288,847	-200,000	0,002	-0,119
-287,832	411,876	-0,006	0,010
-286,818	-200,000	0,011	-0,105
-285,803	800,000	0,013	-0,031
-284,789	-200,000	-0,013	-0,076
-283,774	312,433	0,033	0,046
-282,759	17,466	0,063	0,036
-281,745	412,098	0,046	0,072
-280,730	170,631	0,064	-0,067
-279,716	-167,994	0,054	-0,002
-278,701	481,335	-0,094	-0,156
-277,686	800,000	-0,008	-0,018
-276,672	335,659	0,081	0,114
-275,657	800,000	0,045	0,094
-274,643	800,000	0,009	0,026
-273,628	263,276	0,041	-0,053
-272,613	105,829	-0,068	-0,059
-271,599	373,800	0,141	0,211
-270,584	-200,000	-0,021	-0,195
-269,570	-28,672	0,085	-0,036
-268,555	-200,000	-0,013	0,142
-267,540	421,701	0,052	0,082
-266,526	295,842	0,026	-0,035
-265,511	-162,490	0,082	-0,003
-264,497	56,862	-0,017	-0,012
-263,482	800,000	0,058	0,133
-262,467	-200,000	-0,014	0,091
-261,453	-69,326	0,176	-0,049
-260,438	-200,000	-0,000	-0,134
-259,424	152,901	-0,054	-0,054
-258,409	7,866	-0,099	0,054
-257,395	257,903	0,032	0,040
-256,380	-16,670	0,094	0,043
-255,365	221,081	0,091	0,107
-254,351	-3,725	-0,091	0,046
-253,336	800,000	0,021	-0,054
-252,322	800,000	0,017	-0,049
-251,307	308,963	0,009	0,013
-250,292	62,862	0,109	0,079
-249,278	58,247	0,088	0,063
-248,263	83,155	-0,102	0,081
-247,249	-152,080	0,056	0,003
-246,234	-155,478	0,032	0,001
-245,219	-93,985	0,058	0,012
-244,205	-67,525	-0,127	0,036
-243,190	586,053	-0,035	-0,064
-242,176	51,151	-0,071	0,049
-241,161	24,908	-0,045	-0,027
-240,146	207,741	-0,078	0,090
-239,132	-144,083	0,141	0,010
-238,117	800,000	-0,034	-0,076
-237,103	391,401	-0,029	-0,044
-236,088	-125,083	-0,036	-0,004
-235,073	108,811	0,053	-0,046
-234,059	421,207	-0,052	0,082
-233,044	-132,471	0,070	0,006
-232,030	142,763	-0,052	0,051
-231,015	-200,000	-0,024	0,097
-230,000	436,428	0,016	0,025
-228,986	-200,000	0,024	-0,080
-227,971	-150,617	0,128	0,007
-226,957	-3,533	0,052	0,026
-225,942	12,737	-0,030	0,017
-224,927	75,080	0,061	0,047
-223,913	-120,204	0,109	-0,013
-222,898	-200,000	0,010	0,048
-221,884	-155,256	0,081	0,004
-220,869	-63,566	0,024	0,007
-219,855	-77,846	0,131	0,033
-218,840	1,200	0,050	0,026
-217,825	91,989	-0,099	-0,081
-216,811	-133,591	-0,149	-0,013
-215,796	321,742	-0,069	0,097
-214,782	130,597	-0,057	0,053
-213,767	469,707	-0,038	-0,062
-212,752	-9,169	0,051	0,025
-211,738	7,327	-0,100	0,054
-210,723	76,766	-0,194	-0,150
-209,709	-113,977	0,067	0,009
-208,694	-132,161	-0,112	-0,010
-207,679	800,000	0,019	-0,041
-206,665	800,000	0,027	-0,059
-205,650	-200,000	0,006	0,149
-204,636	800,000	-0,036	-0,090
-203,621	41,169	0,134	-0,088
-202,606	-200,000	0,023	-0,075
-201,592	251,851	0,066	-0,082
-200,577	800,000	0,048	-0,148
-199,563	-200,000	-0,007	0,133
-198,548	128,637	-0,023	-0,022
-197,533	120,035	-0,026	0,024
-196,519	800,000	-0,041	0,084
-195,504	96,990	0,031	-0,026
-194,490	21,310	-0,025	-0,015
-193,475	-22,991	-0,022	-0,010
-192,460	429,573	-0,053	0,083
-191,446	-113,245	0,045	-0,006
-190,431	-126,563	0,100	0,011
-189,417	-200,000	-0,024	0,089
-188,402	-200,000	0,022	-0,073
-187,387	-200,000	0,007	0,093
-186,373	-13,786	-0,039	-0,018
-185,358	-200,000	0,003	-0,042
-184,344	82,608	-0,086	0,068
-183,329	305,750	0,040	-0,055
-182,315	-200,000	0,001	-0,010
-181,300	800,000	-0,029	0,090
-180,285	-140,591	0,089	-0,007
-179,271	-200,000	-0,005	-0,056
-178,256	800,000	-0,035	0,099
-177,242	-200,000	-0,011	-0,103
-176,227	32,095	0,092	0,058
-175,212	-200,000	0,001	0,040
-174,198	72,319	-0,024	0,018
-173,183	-32,538	-0,091	0,037
-172,169	350,086	-0,036	-0,052
-171,154	800,000	0,032	0,081
-170,139	800,000	0,018	0,047
-169,125	-45,358	0,030	0,011
-168,110	-99,453	-0,159	0,029
-167,096	-26,406	0,094	0,040
-166,081	273,269	-0,022	-0,028
-165,066	323,911	-0,083	0,116
-164,052	423,034	0,046	0,072
-163,037	-35,068	-0,035	-0,014
-162,023	-85,449	-0,074	-0,017
-161,008	256,625	0,053	0,066
-159,993	82,029	0,062	-0,049
-158,979	135,933	-0,048	-0,045
-157,964	800,000	0,042	0,129
-156,950	-200,000	0,009	-0,032
-155,935	-68,087	0,137	-0,038
-154,920	-175,556	-0,178	0,003
-153,906	-106,078	-0,035	-0,006
-152,891	-148,060	0,057	-0,003
-151,877	800,000	0,040	0,097
-150,862	-58,169	-0,031	0,010
-149,847	-200,000	-0,012	-0,069
-148,833	162,128	0,055	0,056
-147,818	612,975	-0,038	0,069
-146,804	800,000	0,078	0,160
-145,789	-4,268	0,126	0,063
-144,775	270,856	0,044	0,056
-143,760	-200,000	-0,001	-0,032
-142,745	-200,000	0,008	-0,068
-141,731	-79,668	0,046	-0,011
-140,716	-154,868	0,037	-0,002
-139,702	800,000	-0,044	0,091
-138,687	-86,226	0,032	0,007
-137,672	-200,000	-0,004	0,019
-136,658	750,720	-0,031	-0,061
-135,643	15,767	-0,143	-0,081
-134,629	-129,366	0,020	-0,002
-133,614	-200,000	-0,006	-0,048
-132,599	-33,331	-0,038	-0,015
-131,585	-150,261	0,061	0,003
-130,570	-200,000	-0,007	-0,104
-129,556	366,725	0,073	-0,107
-128,541	-200,000	0,031	-0,204
-127,526	800,000	0,018	-0,043
-126,512	-146,040	-0,092	0,006
-125,497	-200,000	-0,023	0,091
-124,483	-48,251	0,085	-0,030
-123,468	-200,000	-0,001	-0,075
-122,453	-176,081	-0,068	0,001
-121,439	-200,000	0,004	0,018
-120,424	800,000	-0,034	-0,080
-119,410	-200,000	0,007	-0,083
