DTS Sentinel unit serial number:	SN410029Multiplexer serial number:	ORYXHardware model number:	OX2-SRSoftware version number:	ORYX F/W v4,00 Oryx Data Collector v3.7.2.0data status	okinstallation	B4 Nyhavnadifferential loss correction	single-endedforward channel	channel 2reverse channel	N/Adate	2023/12/15time	20:30:13forward acquisition time	300,00reverse acquisition time	0,00gamma	499,1914k internal	0,3135k external	0,3135temperature offset calibration	1,0000default loss term (dB/km)	0,3820temperature slope calibration	1,0000multiplexer offset coefficient	1,0000multiplexer slope coefficient	1,0000fibre end	0,00T internal ref (°C)	20,57T ext. ref 1 (°C)	5,82T ext. ref 2 (°C)	5,96length (m)	temperature (°C)	Stokes	anti-Stokes-744,400	800,000	0,008	-0,018
-743,385	-96,444	-0,274	-0,053
-742,371	-10,401	0,157	-0,077
-741,356	-56,766	-0,186	0,061
-740,342	-64,357	-0,137	0,041
-739,327	14,374	-0,205	0,118
-738,312	181,697	-0,059	0,064
-737,298	-58,479	-0,295	0,095
-736,283	8,563	0,050	-0,028
-735,269	103,533	-0,179	0,156
-734,254	-200,000	0,012	0,087
-733,239	-155,055	-0,311	-0,015
-732,225	-96,820	0,204	0,039
-731,210	-131,361	-0,051	0,005
-730,196	-200,000	0,009	0,052
-729,181	800,000	0,040	-0,107
-728,167	58,505	0,020	0,015
-727,152	-200,000	-0,040	-0,163
-726,137	-129,039	-0,074	0,008
-725,123	114,750	-0,045	0,041
-724,108	-200,000	0,004	-0,168
-723,094	800,000	-0,014	-0,037
-722,079	-145,861	-0,097	-0,006
-721,064	-200,000	0,016	0,065
-720,050	-200,000	-0,011	-0,082
-719,035	212,285	-0,029	0,034
-718,021	-200,000	0,020	-0,138
-717,006	262,397	0,041	-0,053
-715,991	-200,000	0,008	-0,081
-714,977	-42,920	-0,082	0,031
-713,962	-10,631	0,102	0,050
-712,948	306,065	0,017	0,023
-711,933	21,458	0,073	-0,044
-710,918	141,783	0,019	-0,019
-709,904	-100,987	-0,140	0,025
-708,889	446,244	-0,045	0,074
-707,875	49,248	-0,132	0,092
-706,860	-159,534	0,040	0,002
-705,845	305,478	0,050	0,069
-704,831	194,540	-0,036	0,041
-703,816	444,831	0,052	0,085
-702,802	-112,614	-0,086	0,013
-701,787	-131,487	0,045	0,004
-700,772	43,767	0,079	-0,054
-699,758	-126,626	-0,049	0,005
-698,743	291,596	-0,045	-0,061
-697,729	800,000	-0,048	0,101
-696,714	7,035	-0,105	0,058
-695,699	-75,884	0,026	-0,007
-694,685	-200,000	-0,002	-0,026
-693,670	572,748	-0,046	0,083
-692,656	181,029	-0,069	0,076
-691,641	213,863	0,025	0,030
-690,627	-200,000	0,004	0,068
-689,612	321,693	-0,014	0,020
-688,597	284,334	-0,068	0,091
-687,583	800,000	-0,019	-0,047
-686,568	294,865	-0,032	-0,044
-685,554	70,126	-0,026	-0,020
-684,539	245,381	-0,090	-0,112
-683,524	-4,010	0,124	-0,063
-682,510	276,870	0,048	-0,063
-681,495	169,945	-0,020	0,021
-680,481	-64,984	-0,186	-0,055
-679,466	103,332	-0,102	-0,088
-678,451	98,905	0,082	0,070
-677,437	-52,827	0,089	0,030
-676,422	-57,993	-0,107	0,034
-675,408	-81,682	-0,087	-0,021
-674,393	344,156	-0,097	-0,141
-673,378	-111,102	-0,107	0,016
-672,364	56,724	-0,103	-0,074
-671,349	-64,726	0,051	-0,015
-670,335	29,148	0,075	-0,047
-669,320	314,061	0,016	0,023
-668,305	54,677	0,055	-0,039
-667,291	-200,000	0,000	0,042
-666,276	727,560	-0,026	-0,051
-665,262	-183,221	-0,157	-0,002
-664,247	150,162	0,090	0,091
-663,232	-36,113	-0,074	-0,030
-662,218	-42,528	-0,120	-0,045
-661,203	-51,594	-0,083	-0,028
-660,189	-178,120	-0,087	-0,001
-659,174	161,721	-0,038	-0,040
-658,159	10,896	-0,106	-0,059
-657,145	-118,762	-0,189	0,024
-656,130	-200,000	-0,005	-0,122
-655,116	-109,012	-0,025	-0,004
-654,101	34,861	0,097	0,063
-653,086	-200,000	-0,026	0,113
-652,072	-187,364	-0,124	0,001
-651,057	-200,000	-0,010	-0,159
-650,043	-68,435	-0,163	-0,046
-649,028	-18,583	-0,011	0,005
-648,014	369,633	0,046	-0,070
-646,999	185,453	0,058	-0,064
-645,984	6,567	0,090	-0,050
-644,970	800,000	-0,038	-0,086
-643,955	9,433	-0,117	0,065
-642,941	-200,000	-0,016	-0,103
-641,926	202,528	-0,009	-0,010
-640,911	800,000	0,074	-0,205
-639,897	-82,720	0,134	-0,032
-638,882	-118,689	-0,061	0,008
-637,868	-74,648	0,053	-0,014
-636,853	-62,685	0,044	0,013
-635,838	800,000	0,002	0,005
-634,824	16,661	-0,042	-0,024
-633,809	-200,000	-0,025	0,244
-632,795	38,227	0,010	0,007
-631,780	-200,000	-0,016	-0,091
-630,765	213,590	0,038	-0,044
-629,751	-200,000	-0,008	-0,043
-628,736	482,961	-0,062	-0,105
-627,722	-62,867	-0,159	0,048
-626,707	-200,000	-0,001	0,045
-625,692	-86,249	0,030	-0,007
-624,678	17,089	0,091	0,053
-623,663	365,735	-0,072	-0,107
-622,649	-32,073	-0,030	-0,012
-621,634	-19,764	-0,092	0,042
-620,619	51,649	0,127	0,089
-619,605	-200,000	-0,012	-0,101
-618,590	26,339	0,094	0,058
-617,576	-137,860	0,102	-0,008
-616,561	79,755	-0,126	0,100
-615,546	496,642	-0,068	0,115
-614,532	-5,142	-0,112	-0,057
-613,517	722,342	-0,060	-0,120
-612,503	800,000	0,011	-0,024
-611,488	-200,000	0,009	-0,068
-610,474	8,318	0,044	-0,024
-609,459	247,253	-0,061	0,077
-608,444	-200,000	0,004	0,077
-607,430	800,000	-0,083	-0,247
-606,415	-56,956	-0,135	0,044
-605,401	22,035	0,014	-0,009
-604,386	-200,000	0,002	0,027
-603,371	373,029	0,079	0,118
-602,357	-74,134	0,077	0,021
-601,342	-25,363	-0,036	0,015
-600,328	-39,063	-0,056	0,022
-599,313	800,000	-0,035	0,083
-598,298	-90,640	0,056	0,012
-597,284	35,785	-0,059	0,038
-596,269	800,000	0,052	0,132
-595,255	529,363	-0,069	0,120
-594,240	205,487	0,011	-0,012
-593,225	683,004	-0,048	-0,093
-592,211	-86,444	-0,075	-0,017
-591,196	350,180	-0,095	0,138
-590,182	436,641	-0,011	-0,018
-589,167	578,365	-0,029	0,053
-588,152	34,790	-0,074	-0,048
-587,138	-22,401	0,040	-0,018
-586,123	396,500	-0,058	-0,090
-585,109	128,597	-0,042	-0,040
-584,094	26,612	0,010	-0,006
-583,079	-200,000	-0,028	0,140
-582,065	-185,109	0,043	-0,000
-581,050	323,812	0,024	-0,034
-580,036	800,000	0,024	0,069
-579,021	57,056	-0,090	0,064
-578,006	-23,458	-0,010	0,005
-576,992	550,471	-0,037	-0,066
-575,977	85,462	-0,089	0,072
-574,963	-200,000	0,015	-0,107
-573,948	-153,956	0,099	0,005
-572,934	-87,972	-0,054	-0,012
-571,919	384,465	0,011	0,017
-570,904	-142,037	-0,151	-0,011
-569,890	-154,413	0,061	0,003
-568,875	18,995	-0,012	0,007
-567,861	-200,000	-0,000	-0,074
-566,846	157,041	-0,072	-0,074
-565,831	800,000	0,032	-0,083
-564,817	8,819	0,006	0,004
-563,802	19,815	-0,085	-0,050
-562,788	269,415	-0,021	-0,028
-561,773	800,000	-0,050	0,134
-560,758	-87,316	-0,056	-0,013
-559,744	-200,000	-0,028	-0,140
-558,729	220,560	0,047	0,056
-557,715	324,786	-0,043	0,061
-556,700	-146,829	-0,147	0,009
-555,685	-95,870	-0,183	-0,036
-554,671	-120,461	0,180	-0,022
-553,656	-200,000	0,013	0,137
-552,642	332,929	0,087	0,125
-551,627	-161,116	-0,087	0,003
-550,612	800,000	-0,023	-0,049
-549,598	111,095	-0,068	0,060
-548,583	21,788	0,146	-0,087
-547,569	-200,000	-0,028	-0,162
-546,554	-131,579	0,061	0,006
-545,539	215,094	-0,099	0,116
-544,525	144,187	0,038	0,037
-543,510	-75,681	-0,099	-0,026
-542,496	217,634	-0,150	-0,176
-541,481	800,000	-0,036	-0,079
-540,466	-57,145	0,095	-0,031
-539,452	-42,969	0,083	-0,031
-538,437	173,850	0,085	-0,091
-537,423	-46,606	-0,055	-0,020
-536,408	159,578	0,062	-0,064
-535,393	-200,000	-0,012	-0,052
-534,379	-196,108	0,068	0,000
-533,364	448,509	-0,070	-0,114
-532,350	681,767	0,056	0,108
-531,335	-105,643	0,055	0,009
-530,321	-200,000	-0,014	0,089
-529,306	-52,681	-0,136	-0,046
-528,291	117,799	-0,095	-0,087
-527,277	-181,025	0,116	-0,002
-526,262	800,000	0,057	0,118
-525,248	-152,771	0,226	-0,012
-524,233	760,938	-0,067	0,134
-523,218	-200,000	-0,014	0,063
-522,204	161,105	0,069	-0,071
-521,189	-83,734	-0,072	0,017
-520,175	7,969	-0,046	0,025
-519,160	72,618	0,033	0,025
-518,145	-93,378	0,060	-0,012
-517,131	-200,000	0,013	0,072
-516,116	254,198	0,067	0,084
-515,102	-17,249	0,075	-0,035
-514,087	136,312	-0,085	-0,082
-513,072	800,000	-0,057	0,133
-512,058	-200,000	0,020	-0,125
-511,043	-200,000	-0,022	-0,092
-510,029	-43,267	0,089	0,033
-509,014	86,394	-0,057	-0,047
-507,999	43,475	0,111	-0,075
-506,985	745,529	0,042	-0,084
-505,970	800,000	-0,026	-0,076
-504,956	204,834	0,014	0,016
-503,941	-102,071	0,061	0,011
-502,926	-49,050	-0,069	0,024
-501,912	-200,000	0,038	0,157
-500,897	-4,124	-0,025	0,013
-499,883	-8,171	-0,038	-0,019
-498,868	800,000	-0,003	-0,008
-497,853	-200,000	0,005	0,132
-496,839	-140,747	0,096	0,007
-495,824	-200,000	-0,005	-0,126
-494,810	49,207	0,129	-0,089
-493,795	435,698	-0,108	0,174
-492,781	305,057	0,088	-0,120
-491,766	-38,606	-0,125	0,049
-490,751	-62,682	-0,070	0,021
-489,737	800,000	0,033	-0,096
-488,722	-200,000	-0,023	0,117
-487,708	76,491	0,052	0,041
-486,693	318,547	0,041	0,057
-485,678	370,287	-0,036	-0,054
-484,664	-200,000	0,010	-0,089
-483,649	219,666	0,065	-0,076
-482,635	386,827	-0,042	0,063
-481,620	800,000	0,008	0,024
-480,605	-191,190	0,037	0,000
-479,591	717,221	0,031	0,061
-478,576	-200,000	-0,004	0,036
-477,562	800,000	-0,030	-0,069
-476,547	-200,000	-0,023	-0,106
-475,532	110,897	0,084	-0,074
-474,518	531,428	-0,043	-0,075
-473,503	275,682	0,090	-0,117
-472,489	517,003	-0,050	-0,086
-471,474	140,110	-0,092	0,089
-470,459	399,051	0,039	-0,061
-469,445	260,620	-0,065	-0,083
-468,430	169,453	0,041	-0,043
-467,416	42,636	0,071	0,048
-466,401	-152,905	0,105	0,005
-465,386	800,000	-0,079	0,188
-464,372	35,346	-0,043	0,028
-463,357	50,137	0,035	-0,024
-462,343	324,803	0,065	0,091
-461,328	55,707	0,073	0,052
-460,313	800,000	-0,015	0,037
-459,299	-200,000	-0,027	0,115
-458,284	-54,248	0,024	-0,008
-457,270	-111,450	0,104	0,015
-456,255	20,100	0,051	0,030
-455,241	351,635	-0,048	-0,070
-454,226	87,436	-0,072	-0,058
-453,211	51,305	-0,081	-0,056
-452,197	-19,321	0,115	-0,052
-451,182	800,000	0,023	0,051
-450,168	-200,000	0,007	0,132
-449,153	800,000	-0,012	0,035
-448,138	-200,000	0,033	-0,160
-447,124	-200,000	0,010	-0,108
-446,109	186,309	0,069	-0,076
-445,095	-129,125	-0,056	0,006
-444,080	800,000	-0,058	0,180
-443,065	-140,360	-0,047	0,004
-442,051	545,200	-0,024	-0,042
-441,036	145,518	-0,100	-0,099
-440,022	-77,211	-0,057	-0,015
-439,007	-200,000	0,009	0,038
-437,992	800,000	-0,025	0,071
-436,978	23,424	0,083	0,050
-435,963	105,521	0,097	-0,084
-434,949	510,059	-0,073	-0,125
-433,934	-200,000	-0,001	0,040
-432,919	-200,000	0,021	-0,124
-431,905	800,000	0,055	0,123
-430,890	686,865	0,024	0,046
-429,876	-116,643	0,126	0,017
-428,861	-46,761	-0,079	0,028
-427,846	522,803	0,120	0,207
-426,832	-200,000	-0,013	0,071
-425,817	-200,000	-0,010	-0,115
-424,803	800,000	0,019	0,050
-423,788	9,967	0,094	0,052
-422,773	-200,000	-0,004	0,093
-421,759	591,590	0,049	0,089
-420,744	800,000	-0,039	0,084
-419,730	-111,642	-0,036	0,005
-418,715	-200,000	-0,001	-0,078
-417,701	-45,797	-0,096	-0,035
-416,686	39,599	-0,075	0,049
-415,671	416,709	0,040	0,063
-414,657	-138,935	0,065	0,005
-413,642	702,702	0,036	-0,070
-412,628	800,000	-0,066	-0,151
-411,613	-200,000	0,013	-0,203
-410,598	800,000	-0,052	-0,157
-409,584	231,850	-0,145	-0,174
-408,569	-200,000	0,001	-0,013
-407,555	-116,345	-0,081	-0,011
-406,540	-200,000	-0,002	0,062
-405,525	-200,000	-0,022	-0,079
-404,511	464,899	0,014	0,024
-403,496	383,297	-0,077	-0,117
-402,482	322,415	0,018	-0,025
-401,467	800,000	0,034	-0,106
-400,452	33,561	0,047	-0,030
-399,438	-200,000	0,003	-0,019
-398,423	-65,641	-0,075	0,022
-397,409	-185,353	-0,093	-0,001
-396,394	66,208	-0,077	0,057
-395,379	-200,000	-0,007	0,113
-394,365	-8,516	0,155	0,076
-393,350	-200,000	-0,016	-0,113
-392,336	-117,541	0,111	0,014
-391,321	-200,000	-0,001	0,068
-390,306	-200,000	-0,001	-0,017
-389,292	664,869	0,073	-0,138
-388,277	-200,000	0,007	0,034
-387,263	-121,150	0,112	-0,014
-386,248	383,443	0,018	0,027
-385,233	278,417	0,107	0,139
-384,219	-12,822	-0,062	-0,029
-383,204	368,772	-0,067	-0,100
-382,190	2,634	0,054	-0,028
-381,175	56,431	0,030	0,022
-380,160	105,475	0,099	-0,086
-379,146	302,049	-0,103	0,140
-378,131	4,558	0,175	0,094
-377,117	52,094	0,099	-0,069
-376,102	-93,361	-0,047	0,009
-375,088	10,459	-0,025	0,014
-374,073	-200,000	0,005	-0,110
-373,058	-200,000	-0,027	0,142
-372,044	76,738	0,033	-0,026
-371,029	146,477	0,079	0,078
-370,015	-175,628	0,074	0,001
-369,000	134,031	0,055	0,052
-367,985	3,871	-0,049	0,026
-366,971	396,357	0,069	-0,106
-365,956	139,065	-0,086	0,083
-364,942	800,000	0,028	0,069
-363,927	-200,000	-0,006	0,089
-362,912	307,019	0,027	0,037
-361,898	328,583	-0,048	0,068
-360,883	-90,571	-0,069	0,014
-359,869	46,578	0,051	-0,035
-358,854	-200,000	-0,015	-0,153
-357,839	-92,148	-0,021	0,004
-356,825	409,095	0,059	0,092
-355,810	352,111	0,037	-0,054
-354,796	68,012	-0,045	0,034
-353,781	-143,691	-0,089	0,006
-352,766	-51,287	-0,016	-0,005
-351,752	-38,767	0,126	-0,048
-350,737	63,433	-0,030	-0,022
-349,723	-144,199	0,127	0,009
-348,708	38,894	0,167	0,109
-347,693	800,000	-0,063	0,135
-346,679	141,762	-0,021	0,020
-345,664	36,512	-0,076	-0,049
-344,650	-39,825	-0,129	-0,049
-343,635	-161,829	0,041	-0,001
-342,620	-118,443	0,036	-0,005
-341,606	-159,699	-0,038	-0,001
-340,591	155,321	0,078	0,078
-339,577	-173,270	0,031	0,001
-338,562	-70,786	0,047	-0,013
-337,548	-16,383	0,129	-0,060
-336,533	517,303	-0,037	0,063
-335,518	-53,525	-0,027	0,009
-334,504	-200,000	0,031	-0,159
-333,489	-55,277	-0,055	0,018
-332,475	252,390	-0,080	-0,100
-331,460	-200,000	-0,014	0,077
-330,445	-26,398	0,061	0,026
-329,431	581,772	0,051	0,091
-328,416	-142,228	-0,051	0,004
-327,402	800,000	-0,049	-0,128
-326,387	228,644	-0,032	0,038
-325,372	-162,000	0,165	0,006
-324,358	146,374	-0,016	0,016
-323,343	-134,040	0,118	0,010
-322,329	-48,447	0,098	0,034
-321,314	3,765	-0,031	0,016
-320,299	27,983	0,032	-0,019
-319,285	-52,263	-0,059	0,020
-318,270	606,451	-0,052	0,096
-317,256	-200,000	0,002	-0,021
-316,241	800,000	-0,098	-0,199
-315,226	-200,000	-0,009	-0,120
-314,212	62,573	0,108	-0,078
-313,197	-175,070	0,104	0,002
-312,183	247,929	-0,012	-0,015
-311,168	174,488	0,035	0,037
-310,153	-108,931	-0,061	0,009
-309,139	423,109	0,043	-0,067
-308,124	-8,368	-0,092	0,045
-307,110	343,619	0,078	0,112
-306,095	-67,541	0,066	0,019
-305,080	-200,000	0,012	-0,137
-304,066	800,000	0,011	0,029
-303,051	62,925	-0,017	0,013
-302,037	190,008	0,108	-0,118
-301,022	25,612	0,089	0,054
-300,008	352,385	-0,040	0,057
-298,993	-117,876	0,044	0,006
-297,978	-36,215	-0,086	0,034
-296,964	751,945	0,067	0,133
-295,949	-174,935	0,030	-0,001
-294,935	45,995	0,023	-0,016
-293,920	104,277	0,032	0,028
-292,905	600,089	0,025	-0,045
-291,891	800,000	-0,034	-0,080
-290,876	-38,291	-0,103	0,040
-289,862	-127,495	0,041	0,004
-288,847	-200,000	-0,004	0,089
-287,832	-200,000	0,042	-0,208
-286,818	-53,361	-0,135	0,045
-285,803	177,611	-0,091	0,097
-284,789	73,154	-0,104	0,079
-283,774	19,613	0,069	-0,040
-282,759	-10,758	-0,095	-0,046
-281,745	-200,000	-0,002	0,043
-280,730	-42,083	-0,032	-0,012
-279,716	-151,480	-0,121	0,006
-278,701	-200,000	0,038	0,154
-277,686	5,267	-0,177	0,095
-276,672	261,758	0,049	0,062
-275,657	66,377	-0,111	0,082
-274,643	225,470	-0,063	0,074
-273,628	-200,000	-0,022	-0,100
-272,613	-52,832	-0,072	0,024
-271,599	-200,000	0,049	0,205
-270,584	-200,000	-0,017	0,097
-269,570	14,168	0,007	-0,004
-268,555	599,924	-0,029	-0,052
-267,540	-200,000	0,000	-0,076
-266,526	800,000	-0,014	-0,031
-265,511	800,000	0,011	-0,027
-264,497	-200,000	-0,032	-0,113
-263,482	-88,739	-0,018	0,004
-262,467	-152,180	0,137	-0,007
-261,453	193,352	-0,040	0,044
-260,438	800,000	0,036	-0,092
-259,424	-129,516	-0,087	-0,009
-258,409	125,840	-0,093	-0,086
-257,395	-200,000	-0,012	0,119
-256,380	-104,393	0,058	0,010
-255,365	133,198	0,037	0,035
-254,351	800,000	0,024	0,068
-253,336	-53,385	0,028	-0,009
-252,322	-60,786	0,084	-0,026
-251,307	116,394	0,101	0,090
-250,292	800,000	-0,027	-0,062
-249,278	205,602	0,104	0,118
-248,263	-200,000	-0,002	-0,059
-247,249	800,000	0,029	-0,072
-246,234	-80,790	0,033	0,008
-245,219	34,604	-0,137	-0,087
-244,205	-104,383	-0,160	0,027
-243,190	129,699	0,038	-0,035
-242,176	604,272	-0,050	-0,090
-241,161	451,456	0,093	0,151
-240,146	-34,291	0,083	0,033
-239,132	450,561	0,011	0,017
-238,117	-80,994	-0,128	-0,031
-237,103	-200,000	-0,019	-0,155
-236,088	-200,000	0,015	-0,094
-235,073	309,229	-0,033	0,045
-234,059	-200,000	-0,012	0,070
-233,044	-85,349	-0,102	-0,023
-232,030	800,000	-0,047	-0,141
-231,015	800,000	-0,012	0,030
-230,000	-147,483	-0,070	0,004
-228,986	318,162	0,020	-0,028
-227,971	-200,000	0,004	0,063
-226,957	-200,000	0,009	0,163
-225,942	380,194	-0,068	0,102
-224,927	-23,778	-0,021	-0,009
-223,913	-200,000	0,001	0,019
-222,898	605,027	-0,017	0,031
-221,884	800,000	0,039	-0,085
-220,869	130,557	-0,008	-0,007
-219,855	-168,378	0,153	-0,004
-218,840	-83,803	0,111	0,025
-217,825	-83,247	-0,080	-0,019
-216,811	800,000	-0,041	0,110
-215,796	374,559	-0,042	-0,063
-214,782	-200,000	0,004	0,047
-213,767	68,251	0,163	0,121
-212,752	102,588	-0,009	-0,007
-211,738	122,104	0,046	-0,042
-210,723	105,813	0,043	-0,037
-209,709	-200,000	-0,002	-0,096
-208,694	179,044	0,055	-0,058
-207,679	-200,000	0,006	0,091
-206,665	-88,427	0,124	-0,027
-205,650	169,208	-0,019	0,020
-204,636	71,836	-0,035	0,027
-203,621	800,000	0,009	-0,022
-202,606	284,539	0,020	0,026
-201,592	800,000	0,080	-0,177
-200,577	181,839	0,066	0,071
-199,563	264,127	-0,046	0,058
-198,548	8,925	-0,036	-0,020
-197,533	-200,000	-0,004	-0,019
-196,519	800,000	-0,016	-0,041
-195,504	-116,474	-0,103	-0,014
-194,490	49,149	-0,136	-0,093
-193,475	50,829	0,052	-0,036
-192,460	232,659	-0,074	0,089
-191,446	-187,343	-0,032	-0,000
-190,431	291,497	-0,023	-0,030
-189,417	248,776	-0,008	0,010
-188,402	-87,309	-0,034	0,007
-187,387	-79,032	0,075	-0,018
-186,373	169,902	0,038	-0,039
-185,358	800,000	0,034	-0,089
-184,344	45,463	0,114	0,076
-183,329	-122,728	-0,051	-0,006
-182,315	800,000	0,035	0,089
-181,300	472,092	-0,044	0,072
-180,285	800,000	0,040	0,089
-179,271	506,654	0,036	0,061
-178,256	-200,000	-0,015	-0,099
-177,242	48,420	-0,087	-0,059
-176,227	-61,997	0,103	-0,031
-175,212	778,521	0,032	0,063
-174,198	40,574	-0,086	-0,056
-173,183	-200,000	0,012	0,055
-172,169	234,166	-0,040	0,048
-171,154	-200,000	0,014	-0,070
-170,139	-18,967	-0,091	-0,041
-169,125	-200,000	-0,007	0,165
-168,110	800,000	0,012	0,033
-167,096	800,000	0,037	-0,090
-166,081	-73,134	-0,134	0,035
-165,066	620,958	-0,044	-0,081
-164,052	-200,000	-0,021	-0,142
-163,037	800,000	0,020	-0,047
-162,023	682,809	0,044	0,083
-161,008	-96,195	0,018	-0,003
-159,993	-164,902	0,083	0,003
-158,979	58,515	0,087	0,062
-157,964	507,878	-0,047	0,079
-156,950	243,584	-0,044	0,053
-155,935	-200,000	0,006	0,100
-154,920	-200,000	0,000	-0,001
-153,906	-99,088	0,053	0,010
-152,891	168,806	-0,036	0,038
-151,877	-200,000	0,004	-0,028
-150,862	77,032	-0,094	0,072
-149,847	41,374	0,071	0,047
-148,833	-64,722	-0,041	0,012
-147,818	22,394	0,024	0,014
-146,804	481,719	0,010	0,016
-145,789	321,279	0,074	0,103
-144,775	-133,691	-0,081	-0,007
-143,760	800,000	-0,078	0,159
-142,745	118,151	0,077	0,069
-141,731	274,062	-0,099	0,128
-140,716	-200,000	0,018	0,105
-139,702	301,399	0,029	-0,038
-138,687	-200,000	-0,055	0,187
-137,672	5,831	0,045	0,024
-136,658	59,542	0,129	-0,092
-135,643	-162,772	0,045	-0,002
-134,629	-155,403	-0,142	-0,007
-133,614	243,489	0,108	0,132
-132,599	-112,631	0,225	0,032
-131,585	129,519	0,084	0,078
-130,570	270,754	-0,021	-0,027
-129,556	536,319	-0,039	-0,068
-128,541	800,000	0,027	-0,057
-127,526	87,531	-0,086	-0,069
-126,512	-161,392	-0,127	0,005
-125,497	78,582	0,045	-0,034
-124,483	238,561	-0,085	0,102
-123,468	-119,933	-0,037	0,005
-122,453	657,763	0,034	-0,063
-121,439	-82,574	-0,087	0,020
-120,424	278,482	-0,074	0,095
-119,410	-13,117	-0,111	-0,052
-118,395	-200,000	-0,025	0,137
