DTS Sentinel unit serial number:	SN410029Multiplexer serial number:	ORYXHardware model number:	OX2-SRSoftware version number:	ORYX F/W v4,00 Oryx Data Collector v3.7.2.0data status	okinstallation	B4 Nyhavnadifferential loss correction	single-endedforward channel	channel 2reverse channel	N/Adate	2023/12/19time	13:30:13forward acquisition time	300,00reverse acquisition time	0,00gamma	499,1914k internal	0,3128k external	0,3128temperature offset calibration	1,0000default loss term (dB/km)	0,3820temperature slope calibration	1,0000multiplexer offset coefficient	1,0000multiplexer slope coefficient	1,0000fibre end	0,00T internal ref (°C)	19,41T ext. ref 1 (°C)	4,58T ext. ref 2 (°C)	4,61length (m)	temperature (°C)	Stokes	anti-Stokes-744,400	-200,000	-0,027	-0,112
-743,385	150,333	-0,167	0,169
-742,371	71,702	0,092	0,071
-741,356	324,067	-0,085	0,121
-740,342	18,987	0,113	0,067
-739,327	-128,333	-0,335	0,035
-738,312	19,781	-0,087	0,052
-737,298	29,927	-0,150	0,095
-736,283	67,766	0,106	-0,081
-735,269	-55,827	-0,181	0,060
-734,254	243,011	0,113	-0,141
-733,239	-16,386	-0,374	-0,176
-732,225	149,803	0,075	0,075
-731,210	644,862	0,037	0,071
-730,196	-91,861	0,124	0,026
-729,181	-200,000	-0,001	0,053
-728,167	-60,828	0,149	0,046
-727,152	-200,000	-0,000	-0,068
-726,137	152,339	-0,058	-0,059
-725,123	115,786	-0,045	0,041
-724,108	259,902	-0,058	-0,074
-723,094	2,492	-0,118	-0,064
-722,079	-200,000	0,034	-0,121
-721,064	-200,000	-0,029	0,105
-720,050	-200,000	0,001	-0,021
-719,035	-200,000	-0,014	-0,060
-718,021	167,912	-0,029	-0,030
-717,006	-200,000	0,000	-0,112
-715,991	516,325	0,087	-0,151
-714,977	100,344	-0,075	-0,065
-713,962	-200,000	0,009	-0,033
-712,948	22,992	0,213	-0,130
-711,933	685,631	0,045	0,089
-710,918	228,904	0,056	0,068
-709,904	122,494	0,072	-0,067
-708,889	-200,000	0,003	-0,136
-707,875	97,624	-0,032	0,027
-706,860	-200,000	-0,004	-0,036
-705,845	-200,000	-0,027	0,105
-704,831	-65,643	0,098	-0,029
-703,816	2,796	-0,112	-0,060
-702,802	-171,003	-0,216	-0,005
-701,787	149,269	-0,044	-0,045
-700,772	-140,220	-0,109	-0,008
-699,758	-78,516	-0,066	0,017
-698,743	-19,995	0,064	-0,029
-697,729	259,787	-0,046	-0,059
-696,714	142,306	0,075	0,074
-695,699	360,404	-0,062	-0,093
-694,685	24,137	0,091	0,056
-693,670	-124,532	-0,127	0,014
-692,656	-61,803	0,052	-0,016
-691,641	-200,000	-0,041	-0,138
-690,627	718,279	0,056	0,110
-689,612	-108,493	0,086	0,014
-688,597	26,288	-0,098	0,061
-687,583	-200,000	0,022	-0,079
-686,568	-200,000	-0,022	0,077
-685,554	108,667	-0,103	0,092
-684,539	56,410	-0,104	-0,075
-683,524	800,000	-0,034	-0,094
-682,510	800,000	-0,034	0,090
-681,495	123,090	-0,053	-0,049
-680,481	-57,236	-0,087	-0,028
-679,466	800,000	0,043	-0,089
-678,451	8,872	0,044	0,024
-677,437	-29,803	0,049	-0,020
-676,422	800,000	-0,014	-0,042
-675,408	800,000	0,027	0,069
-674,393	166,714	0,028	0,029
-673,378	285,752	0,020	0,027
-672,364	-200,000	-0,036	-0,118
-671,349	-200,000	0,009	0,042
-670,335	-99,410	0,073	-0,014
-669,320	95,210	0,065	-0,055
-668,305	-38,929	-0,048	-0,019
-667,291	259,247	-0,027	0,035
-666,276	-138,867	0,100	0,008
-665,262	308,270	-0,058	-0,081
-664,247	-200,000	0,011	-0,093
-663,232	312,821	0,013	-0,018
-662,218	-12,199	0,069	0,033
-661,203	521,079	0,068	-0,120
-660,189	-200,000	-0,004	-0,069
-659,174	800,000	-0,019	-0,055
-658,159	-86,831	-0,117	0,026
-657,145	800,000	0,022	-0,070
-656,130	800,000	0,030	-0,085
-655,116	506,453	0,035	-0,061
-654,101	59,510	0,057	0,042
-653,086	-200,000	-0,019	-0,099
-652,072	-63,315	-0,015	-0,005
-651,057	-118,673	-0,035	-0,004
-650,043	-200,000	-0,026	-0,218
-649,028	-108,333	-0,119	-0,019
-648,014	-82,161	0,082	-0,020
-646,999	-150,516	-0,176	-0,010
-645,984	800,000	-0,022	0,065
-644,970	1,724	-0,048	-0,026
-643,955	800,000	-0,046	-0,145
-642,941	6,005	-0,041	-0,022
-641,926	603,379	-0,039	0,072
-640,911	-200,000	0,044	0,192
-639,897	-200,000	0,001	0,057
-638,882	-38,313	0,063	0,025
-637,868	124,521	-0,065	0,061
-636,853	-34,565	0,112	-0,045
-635,838	-71,571	-0,060	-0,017
-634,824	794,397	-0,028	0,058
-633,809	425,980	-0,023	0,037
-632,795	800,000	0,044	0,111
-631,780	800,000	-0,043	0,096
-630,765	-73,761	0,091	-0,024
-629,751	20,805	-0,060	0,036
-628,736	-142,097	-0,171	0,012
-627,722	-84,908	0,061	-0,014
-626,707	50,439	-0,029	0,020
-625,692	294,143	0,085	0,116
-624,678	-79,526	-0,118	-0,029
-623,663	-65,079	-0,106	-0,031
-622,649	-32,742	-0,072	0,030
-621,634	-25,357	-0,127	0,056
-620,619	538,872	0,011	0,019
-619,605	170,448	0,079	-0,083
-618,590	-45,474	0,119	-0,043
-617,576	369,614	-0,055	0,083
-616,561	-200,000	0,014	-0,077
-615,546	60,858	-0,085	-0,062
-614,532	148,169	-0,136	0,136
-613,517	800,000	-0,044	-0,091
-612,503	-136,905	0,085	0,007
-611,488	-44,761	-0,041	0,015
-610,474	612,478	0,023	-0,044
-609,459	772,989	0,033	0,068
-608,444	800,000	-0,053	-0,116
-607,430	800,000	-0,032	-0,101
-606,415	-200,000	-0,011	-0,045
-605,401	700,552	-0,041	-0,079
-604,386	-37,516	0,070	-0,027
-603,371	-200,000	-0,006	-0,105
-602,357	-200,000	-0,003	-0,178
-601,342	-73,754	-0,098	0,026
-600,328	-200,000	-0,009	0,037
-599,313	-23,973	-0,071	0,031
-598,298	-108,010	-0,087	0,014
-597,284	364,078	0,057	0,085
-596,269	382,054	0,093	0,141
-595,255	-200,000	0,005	0,059
-594,240	190,903	0,015	-0,017
-593,225	-200,000	0,032	-0,127
-592,211	-91,230	-0,116	0,024
-591,196	-102,552	0,086	-0,015
-590,182	8,907	-0,112	0,062
-589,167	-17,476	-0,058	0,027
-588,152	-200,000	0,001	-0,073
-587,138	114,137	-0,133	-0,119
-586,123	-96,581	-0,061	-0,012
-585,109	-200,000	-0,010	-0,089
-584,094	-46,508	-0,096	-0,034
-583,079	-120,758	0,061	0,007
-582,065	-200,000	0,009	0,099
-581,050	3,467	-0,047	0,025
-580,036	800,000	-0,044	0,142
-579,021	-57,714	0,057	-0,018
-578,006	-200,000	-0,021	-0,177
-576,992	-40,407	-0,138	-0,053
-575,977	800,000	0,033	-0,071
-574,963	800,000	-0,033	0,068
-573,948	164,593	0,060	0,063
-572,934	800,000	-0,086	0,206
-571,919	-200,000	0,039	-0,210
-570,904	-200,000	0,001	-0,167
-569,890	800,000	-0,030	-0,072
-568,875	-163,792	0,107	-0,004
-567,861	771,353	-0,006	0,012
-566,846	-200,000	0,001	0,034
-565,831	-200,000	-0,020	-0,082
-564,817	800,000	-0,043	-0,130
-563,802	-200,000	0,002	0,097
-562,788	653,250	-0,010	0,019
-561,773	-89,780	0,084	-0,018
-560,758	-42,856	0,036	-0,013
-559,744	104,361	-0,128	0,111
-558,729	-200,000	-0,017	0,147
-557,715	-200,000	0,017	-0,175
-556,700	-200,000	0,000	-0,134
-555,685	135,042	-0,096	-0,092
-554,671	289,520	0,029	0,039
-553,656	800,000	-0,017	0,054
-552,642	-25,954	0,085	-0,037
-551,627	20,730	-0,091	0,054
-550,612	-200,000	0,013	-0,095
-549,598	-200,000	0,030	-0,106
-548,583	800,000	0,035	-0,074
-547,569	-59,222	-0,079	0,025
-546,554	62,260	0,028	-0,021
-545,539	341,872	0,046	0,066
-544,525	195,231	0,083	0,093
-543,510	800,000	-0,064	-0,135
-542,496	23,919	0,073	-0,044
-541,481	323,299	0,106	-0,149
-540,466	454,482	0,014	0,023
-539,452	800,000	0,087	0,180
-538,437	164,543	0,091	0,095
-537,423	-88,580	-0,057	0,012
-536,408	-56,029	0,036	-0,012
-535,393	-105,532	-0,041	0,007
-534,379	68,628	-0,092	-0,070
-533,364	-44,031	0,094	-0,035
-532,350	512,898	0,021	-0,036
-531,335	800,000	-0,057	0,130
-530,321	-87,884	-0,057	0,012
-529,306	138,652	-0,043	0,042
-528,291	-48,284	-0,043	-0,015
-527,277	197,865	-0,076	0,086
-526,262	-200,000	0,018	-0,101
-525,248	449,685	-0,076	-0,125
-524,233	-200,000	0,045	0,172
-523,218	800,000	-0,027	0,080
-522,204	-101,456	-0,136	-0,024
-521,189	-25,269	-0,057	-0,025
-520,175	-81,854	-0,175	-0,042
-519,160	28,765	-0,080	-0,050
-518,145	-200,000	-0,018	-0,093
-517,131	-200,000	-0,001	-0,010
-516,116	53,460	0,081	-0,057
-515,102	-67,367	-0,055	-0,016
-514,087	-76,903	-0,123	-0,031
-513,072	19,280	-0,047	0,028
-512,058	1,453	0,178	0,094
-511,043	8,550	0,072	0,040
-510,029	244,884	-0,060	-0,075
-509,014	464,567	-0,074	-0,123
-507,999	-200,000	-0,028	-0,100
-506,985	-200,000	-0,028	-0,127
-505,970	322,782	-0,032	-0,045
-504,956	-135,155	0,094	-0,008
-503,941	105,705	0,106	0,092
-502,926	-102,790	0,105	0,018
-501,912	800,000	-0,010	0,027
-500,897	-37,527	0,148	0,058
-499,883	129,811	0,029	0,027
-498,868	8,958	-0,094	-0,052
-497,853	222,181	0,081	0,097
-496,839	800,000	0,062	0,165
-495,824	-200,000	0,014	0,054
-494,810	-200,000	-0,048	0,176
-493,795	329,265	0,080	0,113
-492,781	332,989	-0,073	0,104
-491,766	-160,610	-0,080	0,003
-490,751	562,387	0,045	-0,081
-489,737	-57,936	-0,096	-0,031
-488,722	219,602	0,093	0,110
-487,708	-200,000	0,002	0,084
-486,693	-200,000	0,031	0,103
-485,678	-200,000	-0,014	-0,104
-484,664	177,958	-0,095	-0,102
-483,649	-23,615	-0,073	0,032
-482,635	800,000	0,068	-0,152
-481,620	-153,245	0,142	-0,007
-480,605	76,358	-0,071	0,055
-479,591	800,000	-0,033	0,074
-478,576	-81,894	-0,100	-0,024
-477,562	-53,531	0,018	-0,006
-476,547	143,736	-0,056	-0,055
-475,532	403,297	0,039	-0,061
-474,518	-200,000	-0,007	-0,025
-473,503	0,721	0,045	-0,024
-472,489	-200,000	-0,016	0,054
-471,474	-200,000	-0,002	0,033
-470,459	-200,000	-0,013	0,101
-469,445	561,810	-0,103	-0,185
-468,430	100,558	0,044	0,038
-467,416	83,723	0,049	0,039
-466,401	-32,871	0,237	0,097
-465,386	-200,000	0,011	-0,104
-464,372	-90,955	0,168	-0,035
-463,357	41,882	0,047	0,031
-462,343	-133,924	0,142	-0,013
-461,328	-147,489	-0,071	0,004
-460,313	207,909	0,043	0,050
-459,299	-200,000	0,012	0,084
-458,284	-122,547	0,109	-0,013
-457,270	-200,000	0,010	0,116
-456,255	163,725	0,038	-0,040
-455,241	566,296	0,020	-0,036
-454,226	17,524	0,065	0,038
-453,211	-76,973	-0,063	-0,016
-452,197	1,886	0,078	0,041
-451,182	92,211	0,046	-0,038
-450,168	-200,000	0,022	0,135
-449,153	-200,000	-0,007	0,060
-448,138	800,000	-0,023	0,071
-447,124	-107,601	-0,091	0,015
-446,109	-50,178	-0,118	0,041
-445,095	309,099	-0,058	-0,080
-444,080	240,515	0,057	-0,070
-443,065	800,000	0,078	-0,168
-442,051	-200,000	-0,001	-0,113
-441,036	-200,000	-0,016	0,073
-440,022	800,000	-0,013	0,036
-439,007	78,374	0,071	-0,056
-437,992	-200,000	-0,004	0,108
-436,978	382,913	0,074	-0,112
-435,963	-200,000	0,014	-0,153
-434,949	8,744	0,028	0,015
-433,934	-84,823	-0,146	0,033
-432,919	-152,048	-0,087	-0,005
-431,905	800,000	0,015	-0,045
-430,890	86,665	0,101	-0,082
-429,876	162,051	0,038	-0,040
-428,861	-109,517	0,063	-0,010
-427,846	-137,009	-0,048	0,004
-426,832	-200,000	-0,000	-0,147
-425,817	-200,000	-0,011	-0,066
-424,803	44,763	0,063	0,042
-423,788	-130,560	0,103	-0,010
-422,773	-133,881	-0,072	0,007
-421,759	800,000	0,028	-0,064
-420,744	300,209	-0,012	-0,017
-419,730	401,315	0,059	0,091
-418,715	-2,149	0,072	0,037
-417,701	624,654	0,030	-0,057
-416,686	206,393	-0,045	0,052
-415,671	-84,542	-0,146	0,034
-414,657	90,799	0,069	0,057
-413,642	-200,000	-0,049	0,194
-412,628	-179,581	-0,038	-0,001
-411,613	14,316	-0,112	0,064
-410,598	-57,855	0,021	0,007
-409,584	-181,261	0,041	-0,001
-408,569	758,970	0,033	-0,067
-407,555	88,159	0,044	0,036
-406,540	-200,000	0,000	0,028
-405,525	-200,000	0,000	-0,135
-404,511	247,780	0,075	-0,093
-403,496	800,000	-0,045	-0,108
-402,482	-200,000	0,015	-0,049
-401,467	-200,000	0,018	0,064
-400,452	-200,000	-0,001	0,031
-399,438	800,000	0,051	0,138
-398,423	92,803	-0,089	0,074
-397,409	800,000	-0,047	-0,104
-396,394	73,499	-0,016	-0,012
-395,379	-200,000	-0,011	0,047
-394,365	378,524	0,044	-0,066
-393,350	-200,000	-0,008	0,027
-392,336	5,075	0,041	-0,022
-391,321	69,846	-0,053	-0,040
-390,306	9,451	-0,068	-0,038
-389,292	-60,041	0,126	0,039
-388,277	800,000	-0,026	-0,070
-387,263	-132,534	0,065	-0,006
-386,248	135,822	0,102	-0,097
-385,233	800,000	-0,054	0,147
-384,219	215,369	-0,016	-0,018
-383,204	102,593	0,090	0,077
-382,190	91,673	-0,126	-0,104
-381,175	35,750	-0,038	-0,025
-380,160	161,134	-0,050	-0,052
-379,146	-77,351	0,088	-0,022
-378,131	-196,892	0,082	-0,000
-377,117	800,000	0,016	-0,045
-376,102	-200,000	0,019	-0,097
-375,088	652,947	-0,069	-0,129
-374,073	-59,792	-0,142	0,044
-373,058	263,003	-0,063	0,080
-372,044	14,848	-0,091	0,052
-371,029	800,000	0,038	0,121
-370,015	320,832	0,039	0,055
-369,000	-33,540	0,147	-0,059
-367,985	-66,060	0,142	-0,041
-366,971	800,000	0,056	-0,176
-365,956	-200,000	-0,013	-0,101
-364,942	85,722	0,103	-0,083
-363,927	-31,885	-0,033	0,014
-362,912	-200,000	-0,007	0,030
-361,898	43,361	-0,037	-0,025
-360,883	-200,000	0,002	0,074
-359,869	-100,484	0,149	-0,027
-358,854	800,000	0,051	-0,163
-357,839	-31,332	-0,086	0,035
-356,825	57,621	0,065	0,046
-355,810	125,355	-0,108	0,099
-354,796	-69,937	-0,096	-0,027
-353,781	272,532	-0,013	0,017
-352,766	-200,000	0,010	-0,035
-351,752	314,220	-0,097	-0,134
-350,737	-200,000	-0,022	0,082
-349,723	61,670	0,108	0,079
-348,708	-200,000	-0,006	-0,044
-347,693	-105,448	-0,113	-0,019
-346,679	283,389	-0,060	-0,079
-345,664	313,303	-0,119	-0,164
-344,650	800,000	0,013	0,028
-343,635	-150,323	-0,026	0,001
-342,620	214,205	-0,065	0,075
-341,606	800,000	0,027	0,074
-340,591	163,746	0,072	0,074
-339,577	-88,408	-0,104	-0,023
-338,562	-54,190	0,079	-0,026
-337,548	-92,767	-0,048	0,010
-336,533	-200,000	-0,001	0,015
-335,518	113,840	0,038	0,034
-334,504	-200,000	0,001	0,004
-333,489	185,462	0,029	0,031
-332,475	-200,000	-0,018	0,060
-331,460	374,909	0,114	0,171
-330,445	-81,804	-0,026	-0,006
-329,431	-53,315	0,205	-0,068
-328,416	766,064	0,022	0,043
-327,402	-40,056	-0,087	0,033
-326,387	113,521	0,063	0,056
-325,372	302,062	-0,034	0,046
-324,358	445,845	-0,050	0,080
-323,343	-200,000	-0,002	-0,030
-322,329	-141,204	-0,104	0,008
-321,314	800,000	0,032	0,086
-320,299	133,689	-0,085	0,080
-319,285	94,256	0,070	0,058
-318,270	23,488	-0,065	0,039
-317,256	275,656	0,051	0,066
-316,241	800,000	0,011	-0,032
-315,226	84,161	0,027	0,022
-314,212	-200,000	-0,005	-0,112
-313,197	0,155	0,003	-0,002
-312,183	28,725	-0,073	-0,045
-311,168	800,000	-0,018	-0,056
-310,153	675,941	0,031	0,059
-309,139	101,368	-0,043	0,037
-308,124	-200,000	0,012	-0,096
-307,110	-109,796	0,051	0,008
-306,095	-4,743	0,125	0,063
-305,080	-200,000	0,019	0,144
-304,066	-200,000	-0,027	0,091
-303,051	279,762	-0,044	-0,058
-302,037	647,218	-0,072	0,136
-301,022	299,265	-0,102	0,138
-300,008	226,620	0,097	0,115
-298,993	39,232	0,114	0,075
-297,978	189,417	0,046	-0,051
-296,964	87,633	-0,026	0,021
-295,949	-200,000	-0,032	-0,126
-294,935	-200,000	-0,027	-0,092
-293,920	-76,279	0,062	0,016
-292,905	431,220	-0,044	-0,069
-291,891	800,000	0,024	-0,050
-290,876	103,481	-0,073	-0,063
-289,862	361,098	0,018	-0,027
-288,847	229,373	0,037	0,044
-287,832	484,839	-0,054	-0,091
-286,818	52,641	0,051	0,036
-285,803	235,558	0,063	0,077
-284,789	-200,000	0,001	-0,051
-283,774	800,000	0,006	0,017
-282,759	800,000	-0,033	0,101
-281,745	-200,000	0,022	0,091
-280,730	484,473	-0,006	-0,010
-279,716	800,000	-0,057	0,179
-278,701	453,841	0,026	0,042
-277,686	800,000	-0,033	0,081
-276,672	200,426	0,136	0,153
-275,657	-55,321	0,083	0,027
-274,643	61,309	0,122	-0,088
-273,628	-4,970	-0,054	0,027
-272,613	800,000	0,008	-0,019
-271,599	-65,642	0,098	0,029
-270,584	-7,640	-0,016	0,008
-269,570	240,679	-0,027	-0,033
-268,555	-200,000	-0,034	0,146
-267,540	-67,670	-0,138	0,039
-266,526	-123,875	-0,074	0,008
-265,511	-200,000	-0,010	-0,087
-264,497	107,414	0,053	-0,046
-263,482	558,262	-0,081	-0,144
-262,467	-54,722	0,065	0,021
-261,453	800,000	0,019	0,058
-260,438	800,000	-0,004	0,012
-259,424	-25,915	-0,101	0,043
-258,409	141,286	0,043	0,042
-257,395	800,000	0,055	0,128
-256,380	-145,630	0,088	-0,006
-255,365	5,006	-0,052	0,028
-254,351	-121,690	0,139	-0,017
-253,336	-173,194	-0,051	-0,001
-252,322	168,323	0,113	-0,118
-251,307	800,000	0,013	-0,036
-250,292	-110,987	0,112	0,017
-249,278	23,392	0,099	0,060
-248,263	-51,777	0,098	-0,033
-247,249	-4,692	0,158	0,079
-246,234	88,114	0,046	0,037
-245,219	-200,000	0,005	-0,103
-244,205	-185,092	-0,025	-0,000
-243,190	-17,534	-0,151	0,069
-242,176	-61,774	0,162	-0,049
-241,161	-76,602	-0,094	-0,024
-240,146	-17,121	0,022	-0,010
-239,132	-66,320	-0,093	-0,027
-238,117	-2,406	-0,042	0,022
-237,103	-95,374	-0,054	-0,010
-236,088	395,503	-0,055	-0,083
-235,073	-200,000	0,018	-0,147
-234,059	45,212	0,093	0,063
-233,044	-99,383	-0,102	-0,019
-232,030	59,322	-0,026	-0,018
-231,015	237,243	-0,068	-0,082
-230,000	-8,257	-0,047	0,023
-228,986	-55,564	0,069	-0,022
-227,971	127,222	0,051	0,048
-226,957	-200,000	-0,005	-0,074
-225,942	800,000	-0,049	0,123
-224,927	800,000	0,077	0,190
-223,913	-66,189	0,085	-0,024
-222,898	138,080	0,054	0,051
-221,884	-200,000	0,013	-0,045
-220,869	603,971	0,031	-0,056
-219,855	-200,000	0,031	0,120
-218,840	-19,883	-0,054	-0,024
-217,825	-104,477	0,103	-0,017
-216,811	-140,677	-0,046	0,003
-215,796	-59,328	-0,090	-0,028
-214,782	-36,343	0,094	-0,037
-213,767	-63,083	-0,091	-0,027
-212,752	-200,000	-0,014	0,047
-211,738	-200,000	0,028	0,160
-210,723	800,000	0,018	0,037
-209,709	-107,381	-0,122	-0,019
-208,694	468,993	0,032	-0,053
-207,679	-32,095	-0,072	-0,029
-206,665	-52,856	0,202	0,067
-205,650	-200,000	-0,034	0,130
-204,636	191,292	0,013	-0,015
-203,621	38,925	-0,041	0,027
-202,606	-200,000	-0,002	-0,045
-201,592	18,939	-0,065	-0,038
-200,577	246,868	-0,071	-0,087
-199,563	551,540	-0,091	0,160
-198,548	-131,009	0,129	0,012
-197,533	181,408	0,143	-0,154
-196,519	-109,049	-0,092	0,014
-195,504	-21,827	0,072	-0,032
-194,490	161,358	0,094	-0,095
-193,475	-200,000	-0,020	-0,089
-192,460	-200,000	0,012	-0,052
-191,446	-200,000	-0,004	-0,076
-190,431	11,072	0,041	0,023
-189,417	409,647	0,024	0,037
-188,402	-87,125	0,127	-0,028
-187,387	15,683	0,085	0,049
-186,373	-22,328	0,066	0,029
-185,358	-200,000	-0,010	-0,070
-184,344	-54,759	0,149	-0,049
-183,329	-32,938	-0,088	0,035
-182,315	-113,695	-0,099	-0,014
-181,300	-200,000	-0,014	0,125
-180,285	193,215	-0,088	-0,097
-179,271	800,000	-0,037	-0,108
-178,256	-16,527	-0,041	0,019
-177,242	616,862	-0,097	0,177
-176,227	66,879	0,041	0,030
-175,212	-200,000	0,001	0,012
-174,198	367,970	-0,014	-0,021
-173,183	-110,406	-0,179	0,027
-172,169	-200,000	-0,021	-0,124
-171,154	800,000	-0,060	-0,155
-170,139	-9,598	-0,072	-0,035
-169,125	-125,087	0,073	0,008
-168,110	767,626	0,032	-0,064
-167,096	-200,000	0,031	0,129
-166,081	-200,000	-0,020	-0,095
-165,066	132,713	0,050	0,047
-164,052	-200,000	-0,012	-0,088
-163,037	-200,000	-0,002	-0,149
-162,023	800,000	-0,018	0,036
-161,008	-54,737	-0,048	0,016
-159,993	319,303	0,006	-0,008
-158,979	232,917	0,045	0,054
-157,964	800,000	0,072	-0,201
-156,950	106,075	-0,048	-0,041
-155,935	-200,000	-0,009	0,065
-154,920	165,251	0,033	0,034
-153,906	92,395	0,060	-0,049
-152,891	-200,000	0,003	0,112
-151,877	-200,000	0,016	0,105
-150,862	800,000	-0,009	-0,028
-149,847	-82,819	0,065	0,015
-148,833	-200,000	0,035	0,142
-147,818	-200,000	-0,021	0,107
-146,804	666,706	-0,034	0,063
-145,789	-200,000	-0,008	0,036
-144,775	425,218	0,039	0,061
-143,760	-18,007	-0,097	-0,044
-142,745	-200,000	-0,012	-0,066
-141,731	190,596	0,032	-0,035
-140,716	-200,000	0,002	-0,020
-139,702	-49,583	0,208	0,072
-138,687	771,455	-0,044	0,088
-137,672	27,202	-0,191	-0,116
-136,658	-200,000	0,009	0,067
-135,643	-151,091	0,088	0,005
-134,629	300,367	0,103	0,138
-133,614	185,811	0,052	-0,056
-132,599	800,000	0,055	0,153
-131,585	-200,000	-0,001	0,040
-130,570	-38,098	0,099	-0,038
-129,556	-19,124	-0,033	-0,015
-128,541	-200,000	0,025	-0,202
-127,526	80,193	-0,051	-0,040
-126,512	800,000	0,025	-0,056
-125,497	-58,336	0,090	0,028
-124,483	-45,403	0,106	-0,038
-123,468	-69,607	-0,107	0,030
-122,453	40,102	0,077	-0,050
-121,439	800,000	0,057	-0,133
-120,424	-30,672	-0,048	0,020
-119,410	-176,412	0,098	0,002
