DTS Sentinel unit serial number:	SN410029Multiplexer serial number:	ORYXHardware model number:	OX2-SRSoftware version number:	ORYX F/W v4,00 Oryx Data Collector v3.7.2.0data status	okinstallation	B4 Nyhavnadifferential loss correction	single-endedforward channel	channel 2reverse channel	N/Adate	2023/12/16time	05:25:13forward acquisition time	300,00reverse acquisition time	0,00gamma	499,1914k internal	0,3127k external	0,3127temperature offset calibration	1,0000default loss term (dB/km)	0,3820temperature slope calibration	1,0000multiplexer offset coefficient	1,0000multiplexer slope coefficient	1,0000fibre end	0,00T internal ref (°C)	22,13T ext. ref 1 (°C)	7,40T ext. ref 2 (°C)	7,56length (m)	temperature (°C)	Stokes	anti-Stokes-744,400	-200,000	-0,031	-0,115
-743,385	-1,653	-0,100	-0,052
-742,371	48,269	0,085	0,059
-741,356	33,638	-0,112	0,073
-740,342	44,837	-0,113	0,077
-739,327	800,000	-0,069	0,205
-738,312	462,807	0,045	-0,076
-737,298	-163,547	-0,248	0,009
-736,283	800,000	-0,018	0,049
-735,269	-120,750	-0,141	0,018
-734,254	-200,000	0,022	0,080
-733,239	-94,158	-0,402	0,081
-732,225	-76,187	0,166	0,043
-731,210	20,472	0,050	0,030
-730,196	-65,727	0,119	-0,035
-729,181	-200,000	-0,169	0,001
-728,167	78,112	-0,093	0,074
-727,152	-117,264	-0,162	-0,022
-726,137	511,303	-0,046	-0,079
-725,123	15,000	0,021	0,012
-724,108	113,372	-0,092	-0,083
-723,094	66,299	-0,082	-0,062
-722,079	-200,000	-0,004	0,096
-721,064	458,828	0,018	-0,030
-720,050	-200,000	0,010	0,085
-719,035	767,528	0,029	0,059
-718,021	-119,049	-0,074	0,010
-717,006	800,000	0,039	-0,101
-715,991	-200,000	0,000	0,008
-714,977	-200,000	0,014	-0,096
-713,962	-103,376	-0,079	0,014
-712,948	-200,000	0,021	0,144
-711,933	1,812	0,132	-0,070
-710,918	-21,420	0,056	0,025
-709,904	-22,617	-0,046	-0,020
-708,889	-6,010	-0,045	0,023
-707,875	-200,000	-0,013	-0,220
-706,860	172,647	-0,091	0,098
-705,845	-97,430	-0,064	0,012
-704,831	59,708	-0,049	-0,036
-703,816	334,212	-0,062	-0,089
-702,802	-175,200	-0,084	-0,002
-701,787	-114,057	-0,134	0,019
-700,772	-112,163	0,127	-0,019
-699,758	800,000	0,045	-0,098
-698,743	210,558	0,048	-0,056
-697,729	-91,090	0,084	-0,018
-696,714	-17,592	0,048	0,022
-695,699	-37,850	-0,036	-0,014
-694,685	800,000	-0,044	0,120
-693,670	62,247	0,023	0,017
-692,656	-55,771	-0,199	0,066
-691,641	17,729	0,072	0,042
-690,627	-200,000	-0,008	0,122
-689,612	-47,150	-0,059	-0,021
-688,597	-123,693	0,064	-0,007
-687,583	-111,856	-0,069	-0,010
-686,568	454,401	0,059	-0,097
-685,554	223,397	0,061	-0,073
-684,539	-50,346	0,033	-0,011
-683,524	-200,000	-0,007	-0,047
-682,510	0,014	0,120	-0,063
-681,495	-178,604	0,153	0,003
-680,481	-200,000	-0,002	0,008
-679,466	800,000	-0,022	-0,070
-678,451	-1,489	-0,016	0,008
-677,437	-39,328	-0,079	-0,031
-676,422	-44,991	0,062	0,023
-675,408	-61,695	0,087	-0,027
-674,393	-200,000	0,006	-0,094
-673,378	13,314	-0,035	0,020
-672,364	76,960	-0,119	0,094
-671,349	56,080	-0,048	-0,034
-670,335	-120,155	-0,015	0,002
-669,320	726,896	-0,025	0,049
-668,305	96,270	0,052	-0,044
-667,291	-200,000	0,001	-0,003
-666,276	372,954	-0,118	-0,178
-665,262	65,766	-0,139	-0,105
-664,247	101,789	0,154	0,134
-663,232	-200,000	0,006	0,086
-662,218	362,339	0,035	-0,053
-661,203	-99,614	0,074	0,014
-660,189	94,165	-0,041	0,035
-659,174	-200,000	0,011	0,114
-658,159	-200,000	-0,013	-0,073
-657,145	93,736	-0,135	0,114
-656,130	409,154	-0,060	0,094
-655,116	-200,000	0,046	-0,162
-654,101	-200,000	-0,024	0,160
-653,086	-21,822	-0,041	-0,018
-652,072	-73,646	0,085	0,023
-651,057	80,009	-0,056	-0,045
-650,043	-58,938	-0,022	-0,007
-649,028	78,036	0,032	-0,025
-648,014	800,000	0,036	0,081
-646,999	-23,419	-0,075	0,033
-645,984	800,000	0,076	-0,168
-644,970	-200,000	0,014	-0,136
-643,955	-24,454	-0,047	-0,020
-642,941	-103,199	-0,107	-0,019
-641,926	-48,632	-0,039	0,014
-640,911	-63,120	0,125	0,038
-639,897	-40,042	0,162	0,062
-638,882	95,520	0,108	0,092
-637,868	-43,344	-0,116	-0,043
-636,853	52,469	-0,178	-0,126
-635,838	252,452	-0,102	-0,129
-634,824	79,419	-0,072	0,057
-633,809	539,188	0,027	0,049
-632,795	-62,879	0,070	-0,021
-631,780	228,356	-0,063	-0,076
-630,765	201,176	-0,028	-0,031
-629,751	-91,596	0,080	-0,017
-628,736	-200,000	-0,021	-0,105
-627,722	-200,000	-0,043	-0,173
-626,707	800,000	0,042	-0,092
-625,692	16,946	-0,048	-0,028
-624,678	536,016	-0,037	-0,066
-623,663	-48,435	-0,015	-0,005
-622,649	800,000	-0,035	0,074
-621,634	112,732	0,106	-0,095
-620,619	-98,490	-0,083	-0,016
-619,605	-200,000	-0,008	0,101
-618,590	163,080	0,056	-0,058
-617,576	-200,000	0,000	-0,022
-616,561	-104,412	-0,040	0,007
-615,546	-122,253	-0,062	0,007
-614,532	342,559	0,034	0,050
-613,517	-200,000	0,012	-0,064
-612,503	229,023	0,008	-0,010
-611,488	494,363	0,053	0,091
-610,474	-176,424	0,090	0,002
-609,459	-114,263	0,188	0,027
-608,444	-200,000	-0,032	-0,122
-607,430	-22,237	-0,087	-0,039
-606,415	-72,108	-0,027	-0,007
-605,401	800,000	0,030	-0,081
-604,386	-51,563	0,130	-0,045
-603,371	660,009	0,093	0,177
-602,357	-153,578	-0,117	-0,006
-601,342	300,743	0,034	-0,047
-600,328	800,000	0,071	-0,148
-599,313	-94,762	-0,089	-0,018
-598,298	-107,224	-0,027	-0,004
-597,284	119,144	0,054	-0,049
-596,269	800,000	0,014	-0,043
-595,255	-62,632	0,149	-0,045
-594,240	-200,000	0,003	0,013
-593,225	-135,570	0,053	0,005
-592,211	-31,546	-0,101	-0,042
-591,196	-26,505	0,133	-0,058
-590,182	214,985	0,057	-0,067
-589,167	0,609	0,030	-0,016
-588,152	168,194	0,083	0,088
-587,138	78,563	0,109	0,086
-586,123	95,622	-0,052	-0,044
-585,109	-67,487	0,045	0,013
-584,094	-102,543	-0,051	0,009
-583,079	-200,000	0,001	0,062
-582,065	-87,196	-0,117	0,026
-581,050	-200,000	0,001	0,022
-580,036	122,396	0,072	0,066
-579,021	-200,000	-0,008	-0,072
-578,006	-86,613	0,118	-0,027
-576,992	524,199	-0,050	-0,088
-575,977	-56,989	-0,084	-0,027
-574,963	75,894	0,056	0,044
-573,948	-200,000	-0,005	0,073
-572,934	-103,509	-0,091	-0,016
-571,919	-200,000	0,017	-0,102
-570,904	800,000	-0,028	0,072
-569,890	-189,195	0,055	-0,000
-568,875	-200,000	-0,005	-0,076
-567,861	36,452	0,048	-0,031
-566,846	-62,274	0,077	0,024
-565,831	-200,000	-0,004	0,090
-564,817	526,620	-0,026	-0,046
-563,802	-200,000	-0,000	-0,119
-562,788	59,925	-0,048	-0,035
-561,773	713,177	0,042	-0,082
-560,758	-99,585	0,069	-0,013
-559,744	-3,950	-0,041	0,021
-558,729	-200,000	-0,010	0,113
-557,715	52,588	-0,082	0,058
-556,700	-200,000	0,033	-0,252
-555,685	115,804	0,037	-0,033
-554,671	800,000	0,014	-0,040
-553,656	-82,549	0,083	-0,020
-552,642	222,357	0,021	-0,025
-551,627	89,953	-0,091	0,075
-550,612	800,000	0,033	-0,091
-549,598	623,731	0,084	-0,157
-548,583	305,677	-0,130	-0,179
-547,569	131,302	0,059	-0,056
-546,554	-43,462	-0,038	0,014
-545,539	-129,045	0,029	0,003
-544,525	-90,410	-0,074	0,016
-543,510	-145,418	0,151	-0,010
-542,496	-97,422	-0,098	0,019
-541,481	-200,000	0,026	-0,099
-540,466	-124,658	-0,140	-0,016
-539,452	-200,000	0,035	0,206
-538,437	-83,687	0,136	-0,032
-537,423	-200,000	-0,011	0,093
-536,408	-30,515	0,035	-0,014
-535,393	-200,000	-0,029	-0,155
-534,379	452,085	0,015	-0,025
-533,364	-63,048	-0,079	0,024
-532,350	-92,441	0,022	0,004
-531,335	167,479	-0,032	0,033
-530,321	247,927	-0,026	0,033
-529,306	2,640	0,069	-0,037
-528,291	287,502	-0,042	-0,056
-527,277	637,992	-0,070	-0,131
-526,262	-40,877	-0,158	-0,060
-525,248	800,000	0,024	0,071
-524,233	-200,000	0,003	0,012
-523,218	54,146	0,129	0,091
-522,204	268,567	-0,098	0,127
-521,189	1,312	-0,135	0,071
-520,175	-200,000	-0,015	-0,054
-519,160	135,746	-0,043	0,041
-518,145	194,387	0,028	-0,031
-517,131	489,662	-0,043	0,073
-516,116	-20,180	-0,174	0,079
-515,102	100,678	-0,065	-0,055
-514,087	-200,000	-0,003	0,041
-513,072	-200,000	-0,006	-0,050
-512,058	800,000	0,065	0,191
-511,043	800,000	-0,038	-0,086
-510,029	-200,000	-0,014	0,124
-509,014	682,304	0,082	0,159
-507,999	-200,000	-0,022	0,104
-506,985	293,544	-0,015	-0,021
-505,970	-54,597	-0,070	0,023
-504,956	312,406	-0,068	0,094
-503,941	800,000	-0,008	0,016
-502,926	88,028	0,066	0,054
-501,912	244,632	-0,080	-0,100
-500,897	800,000	-0,028	-0,091
-499,883	800,000	-0,035	-0,092
-498,868	800,000	0,070	-0,168
-497,853	800,000	-0,028	0,068
-496,839	-200,000	0,006	-0,077
-495,824	267,332	0,048	-0,062
-494,810	-15,951	-0,095	-0,044
-493,795	-200,000	0,004	0,130
-492,781	-95,370	-0,117	0,023
-491,766	46,582	-0,107	-0,073
-490,751	101,588	-0,063	-0,054
-489,737	100,553	-0,057	-0,049
-488,722	365,603	0,044	0,065
-487,708	-127,156	0,099	-0,011
-486,693	161,646	0,096	0,099
-485,678	-200,000	0,025	0,124
-484,664	502,029	0,074	-0,126
-483,649	800,000	0,073	-0,155
-482,635	147,698	-0,079	-0,078
-481,620	174,115	0,105	0,111
-480,605	-58,614	-0,159	0,051
-479,591	800,000	-0,010	-0,029
-478,576	90,862	-0,019	0,016
-477,562	46,187	-0,090	0,061
-476,547	-174,572	-0,096	-0,002
-475,532	102,944	0,120	-0,103
-474,518	-149,081	-0,053	-0,003
-473,503	800,000	0,038	0,095
-472,489	-85,660	0,151	0,034
-471,474	-200,000	-0,001	0,025
-470,459	419,795	-0,061	-0,097
-469,445	388,066	0,070	-0,107
-468,430	61,037	-0,047	-0,034
-467,416	163,268	-0,041	-0,042
-466,401	22,687	-0,147	0,088
-465,386	-200,000	-0,018	-0,101
-464,372	-200,000	-0,002	-0,246
-463,357	-200,000	-0,016	-0,170
-462,343	-5,500	-0,035	0,018
-461,328	71,701	0,085	-0,065
-460,313	-200,000	-0,016	0,057
-459,299	-175,144	-0,036	-0,001
-458,284	-22,998	-0,033	0,015
-457,270	-62,760	-0,098	-0,030
-456,255	200,377	-0,070	0,079
-455,241	-200,000	0,029	-0,163
-454,226	-200,000	-0,009	-0,188
-453,211	-200,000	0,023	-0,164
-452,197	-79,425	0,057	0,014
-451,182	-200,000	0,012	0,066
-450,168	101,687	0,108	0,093
-449,153	-110,818	-0,078	-0,012
-448,138	190,902	-0,072	-0,080
-447,124	537,696	0,030	-0,052
-446,109	800,000	-0,030	-0,063
-445,095	43,978	-0,144	0,097
-444,080	277,632	0,101	-0,133
-443,065	800,000	-0,067	-0,190
-442,051	142,382	-0,058	0,057
-441,036	-73,860	0,055	0,015
-440,022	-51,117	-0,082	0,028
-439,007	-131,260	0,059	-0,006
-437,992	266,685	0,050	0,065
-436,978	36,929	0,105	0,068
-435,963	241,054	-0,024	0,029
-434,949	-115,784	0,115	0,016
-433,934	666,294	0,034	-0,065
-432,919	585,399	-0,060	-0,109
-431,905	-79,622	0,068	-0,017
-430,890	-31,077	-0,050	-0,021
-429,876	800,000	0,054	0,148
-428,861	-183,211	0,074	-0,001
-427,846	-48,775	0,012	-0,004
-426,832	800,000	-0,037	0,091
-425,817	-62,385	0,139	-0,042
-424,803	800,000	0,036	-0,091
-423,788	589,902	0,015	0,027
-422,773	-200,000	0,022	0,138
-421,759	-102,346	-0,018	-0,003
-420,744	440,032	-0,020	-0,033
-419,730	135,578	-0,018	0,018
-418,715	50,272	-0,101	-0,070
-417,701	300,968	-0,079	0,107
-416,686	-50,329	0,060	0,021
-415,671	-32,350	0,122	0,050
-414,657	800,000	0,031	-0,074
-413,642	-200,000	-0,032	-0,111
-412,628	2,972	-0,026	-0,014
-411,613	-2,275	-0,065	-0,034
-410,598	-99,663	-0,089	-0,016
-409,584	3,008	0,182	-0,097
-408,569	101,133	0,049	0,042
-407,555	-27,620	-0,066	0,028
-406,540	-98,264	-0,067	-0,012
-405,525	152,480	-0,074	0,074
-404,511	114,204	-0,075	-0,067
-403,496	39,880	0,081	0,054
-402,482	-200,000	0,013	0,100
-401,467	-81,342	0,131	0,031
-400,452	-122,473	0,092	0,011
-399,438	-99,222	-0,079	0,014
-398,423	195,819	-0,099	0,110
-397,409	280,495	-0,009	0,012
-396,394	600,169	-0,054	-0,099
-395,379	-135,268	0,094	-0,008
-394,365	-200,000	0,015	0,108
-393,350	800,000	0,037	0,085
-392,336	367,767	-0,043	0,065
-391,321	-9,279	-0,045	-0,022
-390,306	-1,946	-0,049	-0,025
-389,292	490,468	-0,080	-0,135
-388,277	-39,341	-0,113	0,043
-387,263	-200,000	0,013	0,098
-386,248	-168,385	0,057	-0,002
-385,233	0,128	-0,093	0,049
-384,219	-22,423	-0,037	-0,016
-383,204	151,572	-0,070	-0,070
-382,190	107,061	-0,049	0,042
-381,175	-200,000	-0,006	-0,103
-380,160	51,277	-0,087	-0,060
-379,146	469,009	0,030	0,050
-378,131	71,921	-0,063	-0,048
-377,117	-147,981	0,046	-0,003
-376,102	800,000	0,009	-0,024
-375,088	-61,260	-0,131	0,040
-374,073	27,260	-0,030	-0,019
-373,058	-200,000	0,000	-0,027
-372,044	-200,000	0,011	0,041
-371,029	-200,000	0,026	0,235
-370,015	-152,968	0,079	0,004
-369,000	-9,865	-0,086	0,042
-367,985	109,296	-0,109	0,095
-366,971	-53,353	0,084	-0,028
-365,956	127,392	-0,094	-0,087
-364,942	500,712	0,069	0,118
-363,927	130,553	0,075	0,071
-362,912	-200,000	0,027	0,157
-361,898	334,362	-0,023	0,033
-360,883	-200,000	0,002	-0,055
-359,869	418,217	0,074	-0,116
-358,854	-200,000	0,008	-0,069
-357,839	800,000	0,019	0,059
-356,825	-63,561	0,158	0,047
-355,810	800,000	0,035	0,103
-354,796	494,199	-0,082	-0,138
-353,781	800,000	0,025	-0,074
-352,766	41,767	-0,139	-0,092
-351,752	17,532	0,074	-0,043
-350,737	-146,759	-0,020	0,001
-349,723	-200,000	0,007	0,185
-348,708	108,079	-0,011	0,009
-347,693	34,416	0,071	-0,045
-346,679	61,764	0,035	-0,026
-345,664	140,733	-0,117	0,113
-344,650	-71,010	0,093	0,025
-343,635	619,415	0,074	-0,137
-342,620	-27,670	0,163	0,069
-341,606	92,239	-0,056	0,046
-340,591	-100,214	-0,034	0,006
-339,577	-30,038	0,098	-0,041
-338,562	-112,803	-0,025	0,004
-337,548	68,096	0,036	0,027
-336,533	729,519	0,066	-0,129
-335,518	32,656	-0,095	0,060
-334,504	-29,685	0,104	0,043
-333,489	50,559	0,094	0,065
-332,475	364,557	0,108	-0,160
-331,460	-200,000	-0,002	0,006
-330,445	281,118	-0,021	0,027
-329,431	27,177	0,129	0,079
-328,416	186,597	-0,024	-0,026
-327,402	422,738	-0,056	0,088
-326,387	-168,881	-0,127	0,003
-325,372	-45,187	-0,060	-0,022
-324,358	-200,000	0,013	-0,129
-323,343	-150,306	0,109	0,006
-322,329	-37,273	-0,076	0,029
-321,314	82,814	0,151	0,120
-320,299	-49,195	-0,197	0,068
-319,285	-200,000	0,016	-0,056
-318,270	223,521	-0,079	0,094
-317,256	-165,061	-0,086	0,003
-316,241	-116,540	-0,076	0,010
-315,226	800,000	0,017	0,047
-314,212	-173,380	0,151	-0,003
-313,197	176,265	-0,104	0,111
-312,183	-19,085	-0,032	0,014
-311,168	-72,102	-0,233	0,063
-310,153	800,000	0,033	-0,095
-309,139	221,878	-0,074	-0,087
-308,124	800,000	0,021	0,055
-307,110	-112,888	-0,069	-0,010
-306,095	-132,279	0,098	-0,009
-305,080	800,000	0,010	0,030
-304,066	122,302	-0,069	-0,063
-303,051	4,114	-0,090	-0,048
-302,037	-200,000	0,014	-0,062
-301,022	800,000	0,043	-0,099
-300,008	800,000	-0,034	0,091
-298,993	-18,050	0,064	-0,029
-297,978	-200,000	0,023	0,162
-296,964	137,259	0,081	-0,077
-295,949	-200,000	-0,006	-0,095
-294,935	410,773	-0,034	0,052
-293,920	-111,973	-0,073	-0,011
-292,905	-2,997	-0,076	0,039
-291,891	-200,000	0,041	0,147
-290,876	31,881	-0,117	0,074
-289,862	-200,000	0,003	0,021
-288,847	-200,000	-0,027	-0,136
-287,832	-147,905	-0,154	0,009
-286,818	139,242	-0,048	0,046
-285,803	611,231	-0,039	-0,072
-284,789	-21,617	0,084	0,037
-283,774	-25,242	-0,040	-0,017
-282,759	127,574	-0,072	-0,067
-281,745	209,340	0,047	-0,053
-280,730	800,000	-0,024	0,050
-279,716	354,369	0,028	-0,040
-278,701	92,140	0,208	0,171
-277,686	449,777	-0,113	0,183
-276,672	-110,971	0,040	-0,006
-275,657	800,000	0,032	0,092
-274,643	478,450	0,026	-0,043
-273,628	-171,607	0,075	-0,002
-272,613	-18,861	-0,049	0,022
-271,599	55,020	0,123	0,087
-270,584	54,161	0,087	0,061
-269,570	-101,135	0,058	0,010
-268,555	800,000	0,023	0,054
-267,540	800,000	-0,022	-0,064
-266,526	31,618	-0,078	0,049
-265,511	-0,428	-0,049	-0,025
-264,497	-200,000	-0,003	0,038
-263,482	162,362	0,042	0,043
-262,467	97,122	-0,075	0,063
-261,453	-200,000	-0,016	0,065
-260,438	-99,595	0,035	-0,006
-259,424	-200,000	-0,010	0,056
-258,409	118,617	0,005	0,004
-257,395	415,475	-0,045	0,071
-256,380	-1,354	-0,053	0,027
-255,365	155,872	-0,064	-0,064
-254,351	-200,000	0,010	-0,054
-253,336	800,000	-0,017	0,040
-252,322	-104,058	0,159	0,027
-251,307	410,909	0,036	0,057
-250,292	168,763	-0,024	0,025
-249,278	-73,675	-0,080	-0,021
-248,263	800,000	-0,022	-0,044
-247,249	591,247	-0,051	0,092
-246,234	-43,269	0,057	0,021
-245,219	203,471	0,031	0,035
-244,205	22,282	0,030	-0,018
-243,190	800,000	-0,007	-0,019
-242,176	-200,000	0,001	-0,082
-241,161	-86,157	0,093	-0,021
-240,146	-87,708	0,045	-0,010
-239,132	800,000	0,021	-0,047
-238,117	64,626	-0,087	-0,064
-237,103	-200,000	0,031	0,158
-236,088	285,055	-0,056	0,074
-235,073	249,320	0,039	-0,048
-234,059	-200,000	-0,036	0,128
-233,044	129,505	-0,125	0,117
-232,030	800,000	0,019	-0,045
-231,015	-200,000	-0,005	-0,078
-230,000	-80,606	-0,027	0,006
-228,986	-137,616	0,111	-0,009
-227,971	32,145	-0,018	0,011
-226,957	-200,000	-0,000	0,035
-225,942	67,384	0,203	0,151
-224,927	800,000	-0,025	0,068
-223,913	586,252	0,002	0,004
-222,898	175,516	0,084	-0,089
-221,884	4,025	0,045	-0,024
-220,869	-200,000	0,003	-0,074
-219,855	32,110	0,060	0,038
-218,840	61,999	-0,066	0,048
-217,825	-93,538	-0,174	-0,035
-216,811	-170,525	-0,062	-0,002
-215,796	242,889	0,055	-0,067
-214,782	549,766	-0,038	0,067
-213,767	-200,000	0,017	-0,117
-212,752	437,716	-0,074	0,118
-211,738	-121,183	0,079	0,010
-210,723	73,814	-0,106	0,081
-209,709	305,829	-0,030	0,041
-208,694	-200,000	0,003	0,029
-207,679	-77,325	0,098	0,025
-206,665	31,165	-0,123	-0,077
-205,650	17,634	0,078	-0,045
-204,636	-8,643	-0,042	0,020
-203,621	-127,196	0,124	0,013
-202,606	650,873	-0,019	0,036
-201,592	315,780	0,057	-0,079
-200,577	148,624	-0,012	-0,012
-199,563	800,000	0,063	0,148
-198,548	-76,401	0,105	-0,027
-197,533	-107,484	-0,134	-0,021
-196,519	194,781	0,043	-0,047
-195,504	59,503	-0,068	0,049
-194,490	247,929	0,037	-0,045
-193,475	406,683	0,051	-0,078
-192,460	-200,000	-0,003	0,014
-191,446	167,647	0,058	0,060
-190,431	-90,922	0,120	0,025
-189,417	168,055	0,053	0,055
-188,402	-198,429	0,125	0,001
-187,387	-169,812	-0,083	-0,002
-186,373	76,927	-0,057	-0,044
-185,358	-200,000	-0,010	0,104
-184,344	58,035	0,055	0,039
-183,329	-200,000	0,011	-0,066
-182,315	-0,813	0,149	0,077
-181,300	37,898	-0,072	0,046
-180,285	-200,000	-0,002	-0,017
-179,271	-200,000	0,007	-0,102
-178,256	106,595	0,060	-0,052
-177,242	-2,873	0,053	0,027
-176,227	386,480	0,029	0,044
-175,212	800,000	0,019	0,050
-174,198	-71,491	0,081	-0,022
-173,183	432,897	-0,010	-0,016
-172,169	-200,000	-0,003	-0,017
-171,154	-200,000	-0,012	-0,059
-170,139	80,353	-0,073	0,057
-169,125	83,465	0,020	0,015
-168,110	780,514	0,087	0,174
-167,096	-50,056	0,079	0,027
-166,081	-130,168	-0,080	-0,008
-165,066	-2,891	-0,189	0,096
-164,052	800,000	-0,050	-0,146
-163,037	-200,000	0,016	0,061
-162,023	-200,000	-0,001	-0,011
-161,008	-78,906	-0,076	-0,019
-159,993	-53,158	-0,033	0,011
-158,979	-1,367	0,080	-0,041
-157,964	179,072	0,082	-0,087
-156,950	-200,000	-0,005	0,041
-155,935	138,674	0,018	0,017
-154,920	800,000	-0,055	0,123
-153,906	160,572	0,153	0,156
-152,891	235,785	0,073	0,088
-151,877	20,552	0,092	0,054
-150,862	800,000	0,049	-0,111
-149,847	800,000	0,021	0,046
-148,833	-200,000	0,027	0,135
-147,818	800,000	0,010	0,031
-146,804	800,000	0,067	0,141
-145,789	-6,459	0,020	-0,010
-144,775	-38,944	-0,072	-0,027
-143,760	-115,673	-0,071	-0,010
-142,745	-131,278	-0,020	0,002
-141,731	-136,282	-0,028	-0,002
-140,716	-200,000	-0,005	0,060
-139,702	169,117	0,101	0,105
-138,687	547,266	-0,065	0,114
-137,672	35,853	0,069	-0,044
-136,658	-200,000	0,033	-0,111
-135,643	64,706	0,027	-0,020
-134,629	-200,000	0,013	0,046
-133,614	-200,000	0,005	0,062
-132,599	172,290	0,017	0,018
-131,585	800,000	0,047	0,104
-130,570	208,531	0,075	-0,085
-129,556	800,000	-0,019	-0,049
-128,541	-200,000	-0,006	-0,075
-127,526	-200,000	0,013	0,046
-126,512	497,911	-0,032	0,054
-125,497	2,154	0,073	0,038
-124,483	-120,772	-0,156	-0,019
-123,468	-200,000	0,023	0,105
-122,453	-200,000	-0,021	0,100
-121,439	148,240	-0,065	0,064
-120,424	209,153	0,041	0,047
-119,410	-153,525	-0,095	-0,005
-118,395	-14,839	0,028	0,013
