DTS Sentinel unit serial number:	SN410029Multiplexer serial number:	ORYXHardware model number:	OX2-SRSoftware version number:	ORYX F/W v4,00 Oryx Data Collector v3.7.2.0data status	okinstallation	B4 Nyhavnadifferential loss correction	single-endedforward channel	channel 2reverse channel	N/Adate	2023/12/19time	03:30:13forward acquisition time	300,00reverse acquisition time	0,00gamma	499,1914k internal	0,3126k external	0,3126temperature offset calibration	1,0000default loss term (dB/km)	0,3820temperature slope calibration	1,0000multiplexer offset coefficient	1,0000multiplexer slope coefficient	1,0000fibre end	0,00T internal ref (°C)	21,11T ext. ref 1 (°C)	5,68T ext. ref 2 (°C)	5,62length (m)	temperature (°C)	Stokes	anti-Stokes-744,400	-135,836	0,147	0,013
-743,385	-35,728	-0,294	0,118
-742,371	-200,000	0,019	-0,134
-741,356	13,163	-0,177	0,102
-740,342	-200,000	0,004	0,017
-739,327	77,817	-0,135	0,107
-738,312	-116,448	0,145	-0,020
-737,298	-46,302	-0,191	-0,070
-736,283	240,474	0,125	-0,156
-735,269	268,313	-0,111	0,145
-734,254	226,606	-0,049	0,059
-733,239	-85,379	-0,441	-0,102
-732,225	66,734	0,070	-0,053
-731,210	-200,000	0,012	0,095
-730,196	-29,632	0,053	-0,022
-729,181	46,238	-0,099	-0,068
-728,167	-69,488	0,123	-0,035
-727,152	438,049	0,059	-0,096
-726,137	16,547	-0,132	-0,077
-725,123	-58,989	-0,113	0,036
-724,108	-14,808	-0,109	-0,052
-723,094	134,178	-0,109	-0,105
-722,079	-200,000	-0,038	-0,145
-721,064	-5,094	0,047	0,024
-720,050	-73,456	-0,049	-0,013
-719,035	18,041	-0,085	-0,050
-718,021	-63,548	-0,137	-0,041
-717,006	277,244	0,072	-0,095
-715,991	97,103	-0,129	-0,110
-714,977	-101,188	-0,028	-0,005
-713,962	-80,478	-0,007	-0,002
-712,948	97,699	0,078	-0,066
-711,933	128,156	-0,036	0,034
-710,918	184,428	-0,046	0,051
-709,904	-75,481	-0,104	0,027
-708,889	-151,713	-0,139	-0,008
-707,875	-200,000	0,010	-0,175
-706,860	56,167	0,045	-0,033
-705,845	-22,466	0,090	-0,040
-704,831	-131,691	0,039	0,004
-703,816	130,446	-0,045	0,043
-702,802	46,918	0,043	-0,029
-701,787	-200,000	0,032	-0,135
-700,772	400,744	-0,035	-0,055
-699,758	255,204	0,025	0,032
-698,743	-85,407	0,025	-0,006
-697,729	-57,777	0,123	0,040
-696,714	290,099	-0,018	0,024
-695,699	-200,000	-0,006	0,048
-694,685	-104,326	-0,086	-0,015
-693,670	61,569	-0,025	-0,018
-692,656	101,257	0,074	-0,064
-691,641	223,230	-0,023	-0,027
-690,627	800,000	-0,010	0,026
-689,612	800,000	-0,024	-0,072
-688,597	236,767	-0,072	0,089
-687,583	800,000	-0,032	-0,083
-686,568	54,648	0,075	-0,054
-685,554	173,371	0,039	-0,042
-684,539	64,097	0,070	-0,052
-683,524	294,844	0,104	-0,142
-682,510	21,644	-0,077	0,046
-681,495	81,132	-0,071	0,057
-680,481	800,000	-0,011	0,034
-679,466	-200,000	-0,024	-0,113
-678,451	231,860	-0,061	0,074
-677,437	387,615	0,047	-0,073
-676,422	28,327	0,048	0,030
-675,408	280,801	-0,066	0,087
-674,393	373,133	-0,052	0,079
-673,378	214,100	-0,108	-0,127
-672,364	-69,544	-0,053	0,015
-671,349	-200,000	0,002	0,010
-670,335	-12,005	0,053	-0,026
-669,320	-200,000	-0,009	-0,052
-668,305	-200,000	0,014	-0,097
-667,291	594,980	-0,030	-0,055
-666,276	70,939	-0,055	-0,042
-665,262	800,000	-0,064	-0,141
-664,247	-75,081	-0,033	0,009
-663,232	-200,000	0,009	-0,060
-662,218	-50,096	0,079	-0,027
-661,203	32,670	-0,094	-0,060
-660,189	128,701	0,071	0,068
-659,174	152,498	-0,076	-0,077
-658,159	29,599	0,042	-0,026
-657,145	37,155	-0,073	-0,048
-656,130	597,373	0,026	0,047
-655,116	-140,155	-0,048	0,004
-654,101	-30,680	-0,026	-0,011
-653,086	-85,273	0,145	0,033
-652,072	800,000	0,020	-0,051
-651,057	-200,000	-0,002	-0,007
-650,043	-200,000	-0,030	-0,103
-649,028	70,732	0,097	0,075
-648,014	-154,606	-0,052	-0,003
-646,999	-200,000	0,019	0,117
-645,984	-96,474	0,050	0,010
-644,970	565,671	-0,036	0,066
-643,955	-79,476	0,064	-0,016
-642,941	394,552	-0,045	-0,070
-641,926	800,000	0,011	0,030
-640,911	259,937	-0,052	0,067
-639,897	-91,716	0,065	0,014
-638,882	-200,000	0,006	0,033
-637,868	-200,000	-0,003	0,084
-636,853	12,365	-0,200	-0,114
-635,838	-99,752	0,031	-0,006
-634,824	800,000	-0,044	-0,116
-633,809	-200,000	0,020	0,118
-632,795	279,181	0,046	0,061
-631,780	-87,092	-0,231	0,052
-630,765	-200,000	-0,013	-0,054
-629,751	55,065	-0,021	0,015
-628,736	-50,392	-0,097	-0,034
-627,722	534,881	0,036	0,063
-626,707	7,807	0,127	0,070
-625,692	-200,000	-0,006	-0,040
-624,678	50,260	0,069	0,048
-623,663	800,000	-0,051	-0,144
-622,649	81,872	0,020	0,016
-621,634	53,115	0,051	-0,036
-620,619	800,000	-0,064	-0,176
-619,605	800,000	0,041	-0,128
-618,590	43,482	0,087	0,059
-617,576	9,100	-0,095	-0,053
-616,561	118,278	0,062	-0,057
-615,546	-200,000	0,010	-0,085
-614,532	-200,000	0,016	-0,094
-613,517	510,220	0,048	-0,084
-612,503	-35,663	0,176	-0,070
-611,488	-90,715	-0,076	-0,016
-610,474	703,878	0,028	0,055
-609,459	493,694	-0,068	0,116
-608,444	-26,304	-0,040	-0,017
-607,430	-200,000	0,011	-0,070
-606,415	419,088	-0,031	-0,049
-605,401	-83,822	-0,079	0,019
-604,386	167,174	-0,105	0,111
-603,371	-200,000	-0,004	0,042
-602,357	242,333	-0,111	-0,138
-601,342	-61,821	0,160	-0,049
-600,328	270,875	0,037	-0,048
-599,313	-200,000	0,012	-0,104
-598,298	-106,170	-0,102	-0,017
-597,284	-200,000	0,008	-0,181
-596,269	-131,981	0,058	0,006
-595,255	674,864	-0,042	-0,081
-594,240	800,000	0,040	-0,099
-593,225	-200,000	-0,034	0,127
-592,211	800,000	-0,056	-0,155
-591,196	-200,000	-0,002	-0,112
-590,182	-61,097	-0,108	0,033
-589,167	-80,582	-0,021	-0,005
-588,152	94,948	-0,100	0,084
-587,138	800,000	0,052	-0,114
-586,123	800,000	0,028	-0,064
-585,109	-117,298	-0,148	-0,020
-584,094	-200,000	0,002	0,007
-583,079	154,188	0,018	-0,018
-582,065	-17,238	0,059	-0,027
-581,050	290,180	0,047	-0,064
-580,036	-47,723	-0,043	-0,015
-579,021	-200,000	0,017	-0,092
-578,006	73,635	-0,143	-0,110
-576,992	65,946	-0,028	-0,021
-575,977	262,593	0,094	0,121
-574,963	-57,362	-0,056	0,018
-573,948	800,000	0,046	-0,115
-572,934	-12,469	0,069	0,033
-571,919	-71,806	-0,155	-0,042
-570,904	-200,000	-0,002	-0,014
-569,890	280,367	-0,064	-0,085
-568,875	3,861	0,056	0,030
-567,861	-49,454	0,026	-0,009
-566,846	-88,265	0,123	-0,027
-565,831	800,000	-0,030	0,096
-564,817	800,000	-0,029	-0,091
-563,802	-200,000	-0,001	0,069
-562,788	21,660	0,031	0,019
-561,773	184,401	-0,061	-0,066
-560,758	800,000	0,026	0,067
-559,744	-200,000	0,006	0,040
-558,729	92,546	0,066	0,055
-557,715	-134,675	0,057	0,005
-556,700	-113,190	-0,045	-0,007
-555,685	-9,600	0,052	-0,025
-554,671	-31,371	-0,069	-0,029
-553,656	-200,000	-0,003	0,151
-552,642	600,233	0,015	-0,027
-551,627	-174,192	0,093	0,002
-550,612	-200,000	0,014	0,105
-549,598	75,968	-0,089	0,069
-548,583	-119,455	-0,030	-0,004
-547,569	336,978	-0,098	-0,141
-546,554	800,000	-0,013	0,038
-545,539	-200,000	-0,005	-0,038
-544,525	422,651	-0,077	0,122
-543,510	20,024	-0,127	-0,075
-542,496	-79,039	0,037	0,009
-541,481	29,947	0,057	-0,036
-540,466	-200,000	0,001	-0,052
-539,452	115,764	0,076	-0,068
-538,437	148,660	-0,069	-0,069
-537,423	-200,000	0,048	0,193
-536,408	-56,836	-0,047	-0,015
-535,393	-39,162	-0,134	0,052
-534,379	-200,000	0,023	-0,108
-533,364	51,527	0,085	-0,060
-532,350	800,000	0,027	0,060
-531,335	-28,248	-0,149	0,063
-530,321	-91,405	0,027	0,006
-529,306	762,252	-0,037	0,075
-528,291	138,417	-0,070	0,068
-527,277	172,398	-0,050	0,053
-526,262	-94,101	-0,174	-0,035
-525,248	-200,000	0,002	0,012
-524,233	32,759	0,149	-0,095
-523,218	141,628	0,042	0,041
-522,204	-27,163	-0,027	0,012
-521,189	-52,284	-0,050	0,017
-520,175	-200,000	-0,001	-0,009
-519,160	62,634	-0,072	-0,053
-518,145	473,456	0,031	0,052
-517,131	459,837	-0,062	0,102
-516,116	-33,350	-0,034	-0,014
-515,102	-37,878	-0,057	0,022
-514,087	-44,168	-0,146	-0,054
-513,072	745,855	-0,009	0,018
-512,058	722,609	-0,070	-0,138
-511,043	185,333	-0,040	-0,044
-510,029	-6,458	0,124	0,062
-509,014	-60,193	0,035	0,011
-507,999	-45,841	0,060	0,022
-506,985	195,740	-0,108	-0,122
-505,970	-52,338	-0,018	0,006
-504,956	8,176	-0,099	-0,055
-503,941	-200,000	0,007	0,141
-502,926	-58,939	0,067	-0,021
-501,912	-76,554	0,073	-0,019
-500,897	46,324	-0,053	0,036
-499,883	-200,000	0,007	0,051
-498,868	86,160	-0,065	-0,053
-497,853	332,534	-0,059	-0,084
-496,839	115,570	0,055	-0,050
-495,824	-93,134	0,185	-0,038
-494,810	180,753	0,121	0,132
-493,795	42,154	0,068	0,045
-492,781	800,000	-0,030	-0,076
-491,766	-200,000	0,003	0,106
-490,751	-200,000	-0,033	-0,167
-489,737	-98,349	0,090	-0,017
-488,722	800,000	0,017	0,053
-487,708	8,775	-0,113	0,063
-486,693	119,871	0,068	0,062
-485,678	175,086	-0,054	-0,058
-484,664	188,620	0,043	-0,048
-483,649	-200,000	-0,007	-0,052
-482,635	-50,911	-0,062	-0,021
-481,620	-181,490	-0,127	-0,002
-480,605	-63,839	0,200	0,060
-479,591	-66,109	-0,145	-0,042
-478,576	237,294	0,060	0,073
-477,562	-31,748	-0,096	-0,039
-476,547	-171,467	-0,135	0,003
-475,532	78,301	0,142	0,112
-474,518	-130,299	-0,095	-0,009
-473,503	800,000	-0,029	0,077
-472,489	-200,000	-0,003	-0,017
-471,474	-113,705	0,097	0,014
-470,459	-200,000	-0,024	-0,097
-469,445	-180,888	0,159	0,002
-468,430	63,505	0,110	0,081
-467,416	-88,020	-0,054	-0,012
-466,401	110,274	-0,039	-0,035
-465,386	-124,393	0,159	0,018
-464,372	-200,000	0,006	0,087
-463,357	420,110	-0,026	0,041
-462,343	355,351	-0,079	-0,117
-461,328	8,867	-0,160	-0,089
-460,313	-18,293	0,141	0,065
-459,299	548,656	0,091	0,161
-458,284	-153,908	0,171	0,008
-457,270	103,413	0,035	0,030
-456,255	-51,885	-0,118	-0,040
-455,241	355,722	-0,035	-0,052
-454,226	-200,000	-0,004	0,076
-453,211	106,708	0,048	-0,042
-452,197	64,951	0,100	0,074
-451,182	-200,000	-0,002	0,127
-450,168	-200,000	0,022	0,082
-449,153	800,000	-0,014	-0,034
-448,138	-200,000	0,024	-0,084
-447,124	230,854	0,083	0,100
-446,109	800,000	-0,022	-0,070
-445,095	-200,000	0,001	0,041
-444,080	370,976	0,082	0,122
-443,065	-200,000	-0,022	-0,113
-442,051	-200,000	0,014	-0,091
-441,036	17,429	-0,045	-0,026
-440,022	-39,596	-0,122	0,047
-439,007	0,292	0,133	0,070
-437,992	427,661	-0,054	0,085
-436,978	281,374	0,069	-0,091
-435,963	-90,790	0,096	0,020
-434,949	-200,000	-0,004	0,137
-433,934	-141,693	-0,141	0,010
-432,919	-95,653	0,135	0,026
-431,905	100,149	-0,066	-0,056
-430,890	-70,047	-0,139	0,039
-429,876	261,318	-0,057	0,072
-428,861	-200,000	0,005	0,028
-427,846	-200,000	-0,004	0,112
-426,832	158,481	0,048	0,049
-425,817	3,334	-0,068	0,036
-424,803	40,416	0,103	-0,068
-423,788	800,000	-0,035	-0,091
-422,773	-200,000	0,006	-0,020
-421,759	-144,184	0,133	0,009
-420,744	-28,295	-0,045	-0,019
-419,730	800,000	-0,067	-0,198
-418,715	458,046	-0,104	-0,170
-417,701	-200,000	-0,010	0,054
-416,686	243,518	0,034	0,042
-415,671	-138,534	0,163	0,013
-414,657	800,000	0,030	-0,064
-413,642	-162,285	-0,033	-0,001
-412,628	104,319	-0,033	-0,028
-411,613	-200,000	0,020	-0,091
-410,598	369,500	-0,116	-0,174
-409,584	33,805	0,093	-0,059
-408,569	-19,397	0,115	-0,052
-407,555	361,034	0,064	0,094
-406,540	-6,156	0,155	0,078
-405,525	589,675	-0,009	0,017
-404,511	-200,000	-0,022	0,158
-403,496	2,644	-0,117	-0,062
-402,482	24,751	0,087	0,053
-401,467	-200,000	-0,043	0,157
-400,452	22,691	0,008	-0,005
-399,438	-155,342	-0,028	0,001
-398,423	-96,696	-0,106	0,020
-397,409	370,360	0,035	-0,052
-396,394	174,111	-0,033	0,035
-395,379	-200,000	-0,001	-0,018
-394,365	769,633	-0,034	0,069
-393,350	-142,342	0,118	-0,008
-392,336	-105,387	-0,036	0,006
-391,321	161,192	0,030	-0,030
-390,306	105,974	-0,021	-0,018
-389,292	800,000	-0,024	-0,061
-388,277	721,601	-0,053	-0,104
-387,263	317,430	0,041	-0,057
-386,248	800,000	-0,041	-0,102
-385,233	-200,000	0,018	0,067
-384,219	-124,468	0,036	0,004
-383,204	-140,590	0,037	-0,003
-382,190	-163,043	-0,017	0,001
-381,175	-18,037	0,129	0,059
-380,160	376,715	0,046	0,070
-379,146	81,456	0,099	-0,079
-378,131	800,000	0,036	0,082
-377,117	800,000	0,029	0,069
-376,102	-96,233	-0,075	-0,014
-375,088	345,500	-0,009	-0,013
-374,073	-69,859	-0,057	0,016
-373,058	-7,908	0,086	0,042
-372,044	342,737	0,122	0,175
-371,029	-13,847	-0,093	-0,044
-370,015	-111,632	0,029	0,004
-369,000	-200,000	-0,004	0,031
-367,985	74,818	-0,041	0,032
-366,971	-86,203	0,051	0,011
-365,956	-200,000	-0,006	0,096
-364,942	-200,000	-0,047	0,190
-363,927	800,000	-0,035	0,110
-362,912	-26,172	0,076	0,033
-361,898	-27,274	-0,082	-0,035
-360,883	-82,713	-0,229	0,054
-359,869	800,000	0,044	0,132
-358,854	-62,449	0,017	0,005
-357,839	-174,933	-0,099	0,002
-356,825	-55,028	0,179	0,059
-355,810	-200,000	-0,002	0,027
-354,796	100,380	0,092	-0,078
-353,781	-159,277	0,066	-0,003
-352,766	205,448	0,091	-0,103
-351,752	104,826	0,078	-0,068
-350,737	-44,245	0,108	-0,040
-349,723	-119,561	0,059	-0,007
-348,708	78,109	0,007	0,006
-347,693	339,916	-0,037	-0,054
-346,679	-200,000	0,010	-0,142
-345,664	-200,000	-0,010	0,130
-344,650	169,344	-0,064	0,067
-343,635	-29,144	0,020	-0,008
-342,620	-139,014	0,051	-0,004
-341,606	136,236	-0,081	0,077
-340,591	-82,780	-0,140	-0,033
-339,577	25,810	0,116	-0,071
-338,562	136,427	0,016	-0,015
-337,548	-200,000	0,006	0,196
-336,533	800,000	-0,046	0,144
-335,518	-112,756	0,072	0,010
-334,504	477,345	0,035	0,058
-333,489	65,887	0,153	-0,114
-332,475	-79,999	-0,188	-0,046
-331,460	-76,706	-0,097	0,025
-330,445	229,608	-0,032	0,039
-329,431	-200,000	-0,006	0,024
-328,416	-46,495	0,037	0,013
-327,402	-168,380	-0,049	0,001
-326,387	-200,000	0,035	0,247
-325,372	-131,613	-0,127	0,012
-324,358	-200,000	-0,003	-0,097
-323,343	163,793	-0,112	-0,116
-322,329	800,000	0,036	0,089
-321,314	134,081	0,065	-0,061
-320,299	635,058	0,061	0,113
-319,285	208,881	-0,131	0,150
-318,270	99,848	-0,071	-0,060
-317,256	318,654	-0,066	-0,092
-316,241	800,000	-0,078	-0,173
-315,226	12,664	0,062	0,035
-314,212	177,627	0,085	0,090
-313,197	-4,102	0,011	-0,006
-312,183	637,907	0,038	0,071
-311,168	-200,000	0,031	-0,110
-310,153	-27,215	-0,180	-0,076
-309,139	-200,000	0,005	-0,073
-308,124	-167,976	0,116	0,003
-307,110	-200,000	0,013	-0,160
-306,095	-79,882	-0,115	0,028
-305,080	390,853	-0,072	0,110
-304,066	800,000	-0,004	0,010
-303,051	-123,163	-0,110	0,013
-302,037	114,969	0,084	0,075
-301,022	-200,000	-0,015	-0,112
-300,008	334,588	0,054	0,077
-298,993	75,150	0,091	0,070
-297,978	800,000	0,035	-0,079
-296,964	-200,000	-0,022	0,096
-295,949	466,012	0,061	-0,100
-294,935	800,000	0,077	0,172
-293,920	800,000	-0,036	-0,079
-292,905	-35,742	0,090	0,035
-291,891	-200,000	-0,001	-0,065
-290,876	800,000	0,020	-0,043
-289,862	-81,609	0,062	-0,015
-288,847	-200,000	0,009	-0,049
-287,832	-145,038	-0,061	-0,004
-286,818	800,000	0,047	0,116
-285,803	-86,198	-0,025	-0,005
-284,789	133,326	0,053	-0,050
-283,774	800,000	0,060	0,132
-282,759	13,453	0,073	0,041
-281,745	-49,268	0,020	0,007
-280,730	800,000	0,018	-0,041
-279,716	268,204	0,038	0,048
-278,701	-48,718	0,024	-0,008
-277,686	-66,338	0,123	0,036
-276,672	-14,329	-0,051	-0,024
-275,657	-76,048	0,146	-0,037
-274,643	-34,365	0,027	-0,011
-273,628	492,141	0,079	-0,133
-272,613	274,720	-0,050	-0,065
-271,599	119,884	-0,073	0,067
-270,584	-200,000	-0,024	-0,114
-269,570	186,954	-0,054	0,059
-268,555	38,690	-0,086	-0,056
-267,540	-60,897	0,046	-0,014
-266,526	-64,071	-0,116	0,034
-265,511	10,970	0,055	-0,031
-264,497	-42,951	-0,061	0,022
-263,482	378,933	-0,059	0,089
-262,467	-200,000	-0,010	0,080
-261,453	-114,108	-0,119	0,017
-260,438	800,000	-0,035	-0,078
-259,424	30,063	-0,058	-0,036
-258,409	42,104	-0,041	0,027
-257,395	350,343	0,011	-0,016
-256,380	-55,697	0,146	-0,048
-255,365	-130,082	-0,092	0,009
-254,351	-129,986	-0,125	-0,012
-253,336	11,966	-0,102	-0,057
-252,322	128,161	0,042	-0,039
-251,307	-20,069	-0,064	0,029
-250,292	86,294	0,103	-0,083
-249,278	371,528	0,087	0,129
-248,263	41,573	0,121	0,080
-247,249	-200,000	0,017	0,070
-246,234	-44,326	0,046	0,017
-245,219	86,563	-0,063	-0,051
-244,205	128,176	-0,072	-0,067
-243,190	276,143	0,050	0,065
-242,176	165,139	0,059	0,061
-241,161	-61,297	0,112	-0,034
-240,146	20,403	-0,018	0,010
-239,132	800,000	-0,086	-0,203
-238,117	-200,000	-0,009	-0,141
-237,103	320,853	0,059	-0,082
-236,088	735,126	-0,049	-0,096
-235,073	-200,000	-0,002	-0,052
-234,059	223,481	-0,069	0,082
-233,044	226,719	-0,021	-0,025
-232,030	-86,624	0,061	-0,014
-231,015	-106,751	-0,198	-0,032
-230,000	331,574	-0,087	-0,122
-228,986	373,133	0,049	-0,073
-227,971	259,342	-0,034	-0,043
-226,957	800,000	0,023	0,050
-225,942	272,025	-0,014	0,018
-224,927	800,000	0,001	0,003
-223,913	-50,915	0,079	-0,027
-222,898	93,349	-0,099	-0,082
-221,884	800,000	-0,073	-0,165
-220,869	19,299	0,174	0,102
-219,855	800,000	0,088	0,254
-218,840	-64,680	-0,106	0,031
-217,825	-74,565	0,030	0,008
-216,811	-200,000	-0,007	0,027
-215,796	-200,000	0,004	-0,115
-214,782	-200,000	-0,012	-0,097
-213,767	800,000	0,011	0,034
-212,752	-162,690	0,123	-0,004
-211,738	238,673	0,035	-0,043
-210,723	184,129	-0,071	-0,077
-209,709	-10,863	0,100	0,048
-208,694	-56,017	-0,076	0,025
-207,679	800,000	0,026	-0,077
-206,665	-25,419	-0,095	0,041
-205,650	-165,291	-0,046	0,001
-204,636	-109,172	0,047	-0,007
-203,621	-200,000	0,002	0,006
-202,606	800,000	-0,038	-0,104
-201,592	620,441	-0,075	-0,138
-200,577	639,407	-0,075	-0,140
-199,563	-200,000	0,015	-0,050
-198,548	-61,934	0,117	0,036
-197,533	-7,113	0,192	0,094
-196,519	800,000	0,020	0,042
-195,504	599,544	0,047	-0,085
-194,490	800,000	-0,053	-0,136
-193,475	138,788	0,047	0,045
-192,460	214,850	0,085	-0,098
-191,446	-58,823	0,031	-0,010
-190,431	800,000	0,042	0,091
-189,417	800,000	0,010	0,028
-188,402	-200,000	0,010	0,250
-187,387	-154,881	-0,102	-0,005
-186,373	-73,524	0,070	0,018
-185,358	331,582	-0,040	0,056
-184,344	15,903	-0,019	0,011
-183,329	13,642	0,021	-0,012
-182,315	28,530	0,053	0,032
-181,300	-114,465	-0,132	0,018
-180,285	258,740	-0,035	0,044
-179,271	-200,000	-0,004	0,043
-178,256	764,929	0,026	-0,052
-177,242	23,465	0,039	0,023
-176,227	158,169	0,065	-0,066
-175,212	-70,812	0,060	0,016
-174,198	-200,000	-0,032	0,107
-173,183	292,500	-0,054	-0,072
-172,169	306,267	-0,034	-0,046
-171,154	-200,000	-0,019	0,116
-170,139	-200,000	0,027	0,156
-169,125	-52,170	-0,091	-0,030
-168,110	-104,198	0,045	0,008
-167,096	364,485	-0,111	0,164
-166,081	-100,639	0,160	0,029
-165,066	-38,798	-0,089	0,034
-164,052	204,430	-0,016	-0,018
-163,037	408,286	-0,085	0,132
-162,023	560,439	0,055	-0,098
-161,008	800,000	0,020	0,064
-159,993	9,432	0,094	0,052
-158,979	-19,578	-0,052	-0,023
-157,964	-200,000	0,006	-0,031
-156,950	39,348	0,005	0,003
-155,935	-124,609	-0,027	0,003
-154,920	-164,153	0,093	0,003
-153,906	333,778	-0,072	0,102
-152,891	-50,550	0,039	0,013
-151,877	800,000	0,072	-0,197
-150,862	120,312	-0,042	-0,038
-149,847	-135,635	0,028	-0,002
-148,833	-200,000	0,023	-0,088
-147,818	69,846	-0,047	0,035
-146,804	-126,239	0,048	0,005
-145,789	397,264	0,021	0,033
-144,775	-200,000	0,017	-0,086
-143,760	191,002	-0,034	-0,037
-142,745	70,201	-0,122	-0,092
-141,731	-200,000	0,007	-0,124
-140,716	340,484	0,075	-0,107
-139,702	313,553	0,049	-0,068
-138,687	45,991	0,059	-0,040
-137,672	-70,407	-0,094	-0,026
-136,658	-200,000	-0,001	0,021
-135,643	-167,190	-0,134	-0,004
-134,629	-68,576	0,088	0,025
-133,614	-18,846	0,086	-0,039
-132,599	-93,611	0,079	-0,016
-131,585	162,572	-0,115	0,117
-130,570	-200,000	-0,002	-0,012
-129,556	-177,738	0,082	0,001
-128,541	203,384	0,036	0,040
-127,526	-200,000	-0,002	-0,029
-126,512	-39,226	0,025	0,010
-125,497	137,998	0,051	0,049
-124,483	218,924	-0,019	-0,023
-123,468	514,586	0,042	-0,072
-122,453	-59,623	-0,024	-0,007
-121,439	204,385	0,038	-0,042
-120,424	800,000	0,021	-0,048
-119,410	321,808	0,060	-0,083
-118,395	5,853	0,105	-0,056
