DTS Sentinel unit serial number:	SN410029Multiplexer serial number:	ORYXHardware model number:	OX2-SRSoftware version number:	ORYX F/W v4,00 Oryx Data Collector v3.7.2.0data status	okinstallation	B4 Nyhavnadifferential loss correction	single-endedforward channel	channel 2reverse channel	N/Adate	2023/12/16time	06:30:13forward acquisition time	300,00reverse acquisition time	0,00gamma	499,1914k internal	0,3127k external	0,3127temperature offset calibration	1,0000default loss term (dB/km)	0,3820temperature slope calibration	1,0000multiplexer offset coefficient	1,0000multiplexer slope coefficient	1,0000fibre end	0,00T internal ref (°C)	22,28T ext. ref 1 (°C)	7,56T ext. ref 2 (°C)	7,73length (m)	temperature (°C)	Stokes	anti-Stokes-744,400	20,860	-0,061	-0,037
-743,385	-90,957	-0,203	0,043
-742,371	33,724	0,085	-0,055
-741,356	55,947	-0,209	0,151
-740,342	-102,330	0,141	-0,025
-739,327	-41,657	-0,281	0,107
-738,312	-7,578	0,096	0,048
-737,298	-188,788	-0,186	-0,002
-736,283	604,032	-0,002	0,003
-735,269	336,985	-0,004	0,006
-734,254	88,847	-0,047	-0,038
-733,239	-79,640	-0,311	-0,077
-732,225	800,000	0,062	0,134
-731,210	-200,000	0,015	-0,056
-730,196	0,626	-0,140	-0,074
-729,181	-29,571	-0,066	0,028
-728,167	-200,000	0,006	0,024
-727,152	-137,812	-0,071	-0,006
-726,137	-200,000	0,017	-0,100
-725,123	57,483	-0,016	-0,012
-724,108	209,972	-0,052	0,061
-723,094	18,097	-0,095	0,056
-722,079	535,708	0,045	-0,079
-721,064	398,010	0,069	-0,108
-720,050	358,216	0,099	-0,147
-719,035	-200,000	0,003	0,068
-718,021	508,356	-0,067	0,117
-717,006	540,290	0,016	-0,028
-715,991	340,890	-0,123	-0,179
-714,977	324,240	0,065	-0,093
-713,962	800,000	-0,040	-0,108
-712,948	800,000	-0,039	-0,087
-711,933	457,433	-0,075	-0,125
-710,918	-48,726	-0,116	-0,041
-709,904	-200,000	0,024	-0,081
-708,889	113,312	-0,028	0,025
-707,875	-24,369	-0,153	-0,067
-706,860	563,189	0,021	0,038
-705,845	355,826	-0,053	-0,078
-704,831	-148,849	0,025	0,001
-703,816	185,973	0,073	-0,081
-702,802	230,769	-0,084	0,103
-701,787	3,970	-0,130	0,070
-700,772	23,598	-0,012	-0,007
-699,758	-156,772	-0,061	-0,003
-698,743	-200,000	0,004	0,032
-697,729	-107,033	-0,073	0,012
-696,714	-64,949	0,119	-0,035
-695,699	215,247	-0,020	-0,023
-694,685	-200,000	-0,010	-0,044
-693,670	-200,000	-0,022	0,107
-692,656	-69,055	0,113	-0,032
-691,641	-129,234	-0,064	0,007
-690,627	142,912	0,036	-0,035
-689,612	-81,392	0,046	-0,011
-688,597	78,035	0,071	-0,056
-687,583	298,517	-0,078	-0,107
-686,568	-200,000	0,005	-0,067
-685,554	-172,316	-0,160	0,004
-684,539	-200,000	-0,019	0,076
-683,524	800,000	-0,073	0,161
-682,510	112,711	0,080	0,072
-681,495	122,659	-0,039	-0,036
-680,481	-34,005	-0,073	-0,030
-679,466	4,584	-0,121	-0,066
-678,451	-30,469	-0,070	-0,029
-677,437	129,551	0,003	-0,003
-676,422	-200,000	-0,001	-0,103
-675,408	-200,000	0,017	-0,108
-674,393	-199,614	-0,082	0,000
-673,378	-200,000	-0,014	0,070
-672,364	645,046	-0,062	-0,118
-671,349	-200,000	0,026	-0,111
-670,335	203,412	-0,077	0,089
-669,320	-44,520	0,038	0,014
-668,305	-110,674	0,124	0,019
-667,291	800,000	0,025	0,064
-666,276	800,000	-0,023	-0,060
-665,262	800,000	0,012	-0,027
-664,247	-46,772	0,082	-0,030
-663,232	372,268	-0,056	0,085
-662,218	-169,428	0,054	-0,001
-661,203	83,858	0,125	-0,101
-660,189	449,064	0,044	0,073
-659,174	-200,000	0,000	0,011
-658,159	-200,000	-0,017	-0,163
-657,145	20,011	-0,047	-0,028
-656,130	349,448	-0,083	-0,121
-655,116	-10,965	0,077	-0,038
-654,101	800,000	-0,061	0,164
-653,086	272,444	0,022	0,029
-652,072	-37,307	-0,127	-0,050
-651,057	800,000	-0,037	-0,090
-650,043	128,845	-0,085	-0,081
-649,028	-158,468	0,122	-0,005
-648,014	-81,574	0,016	0,004
-646,999	-66,896	0,147	-0,043
-645,984	-90,363	0,124	0,027
-644,970	124,097	0,017	-0,016
-643,955	20,400	-0,065	0,039
-642,941	800,000	0,038	-0,116
-641,926	-2,467	0,028	-0,015
-640,911	191,581	-0,043	0,049
-639,897	78,195	0,063	-0,050
-638,882	-58,975	0,066	0,021
-637,868	-78,148	-0,088	-0,022
-636,853	-22,125	-0,024	-0,011
-635,838	581,447	-0,059	-0,108
-634,824	-87,402	-0,067	-0,015
-633,809	800,000	0,027	0,081
-632,795	800,000	0,045	0,111
-631,780	800,000	0,009	0,029
-630,765	84,421	-0,092	-0,074
-629,751	301,387	-0,028	0,038
-628,736	800,000	0,009	0,028
-627,722	-200,000	0,000	-0,081
-626,707	800,000	-0,078	0,188
-625,692	-42,561	-0,058	-0,022
-624,678	414,532	-0,044	-0,069
-623,663	-20,479	0,110	0,050
-622,649	-104,580	-0,124	0,021
-621,634	-200,000	-0,002	-0,024
-620,619	-80,119	0,038	0,009
-619,605	-200,000	0,023	-0,087
-618,590	132,280	0,049	0,047
-617,576	113,050	0,044	-0,040
-616,561	301,495	0,043	-0,059
-615,546	-89,630	-0,118	-0,025
-614,532	632,379	0,056	-0,105
-613,517	102,059	0,039	-0,034
-612,503	24,450	0,127	-0,078
-611,488	800,000	-0,015	0,037
-610,474	-161,869	-0,072	0,003
-609,459	148,425	-0,065	-0,065
-608,444	-71,541	0,105	-0,029
-607,430	800,000	-0,029	-0,075
-606,415	-90,889	-0,140	0,030
-605,401	665,299	-0,058	-0,111
-604,386	178,726	-0,033	-0,036
-603,371	-200,000	0,035	0,153
-602,357	255,766	0,049	0,063
-601,342	-117,224	-0,015	-0,002
-600,328	-181,014	-0,056	0,001
-599,313	242,422	-0,108	-0,135
-598,298	-69,887	0,066	-0,018
-597,284	-200,000	-0,024	0,138
-596,269	171,492	0,055	0,059
-595,255	225,898	-0,045	0,054
-594,240	-50,432	-0,094	0,033
-593,225	-49,950	0,106	0,037
-592,211	85,112	0,144	-0,117
-591,196	-45,478	0,034	-0,012
-590,182	-107,874	-0,113	0,018
-589,167	161,116	0,073	0,076
-588,152	327,634	0,058	0,083
-587,138	-93,346	-0,127	-0,026
-586,123	-75,666	-0,055	0,014
-585,109	-200,000	0,036	0,120
-584,094	201,938	-0,054	-0,062
-583,079	-7,045	-0,088	0,044
-582,065	-200,000	-0,007	-0,028
-581,050	64,984	-0,034	-0,025
-580,036	773,955	-0,035	-0,070
-579,021	800,000	-0,044	0,119
-578,006	800,000	0,027	0,059
-576,992	283,058	0,091	-0,121
-575,977	553,690	-0,056	-0,101
-574,963	-71,834	0,112	0,031
-573,948	-12,072	0,056	0,027
-572,934	-59,477	-0,066	0,021
-571,919	-200,000	-0,001	0,082
-570,904	800,000	-0,093	-0,209
-569,890	-142,016	-0,056	0,004
-568,875	-200,000	-0,006	-0,029
-567,861	800,000	-0,013	0,037
-566,846	166,198	0,044	0,046
-565,831	-5,622	-0,065	0,033
-564,817	-200,000	0,006	-0,109
-563,802	800,000	0,064	-0,180
-562,788	106,864	-0,126	-0,110
-561,773	-17,821	-0,028	-0,013
-560,758	498,537	-0,026	-0,044
-559,744	-67,677	0,109	0,031
-558,729	302,746	-0,085	0,116
-557,715	436,649	0,036	-0,059
-556,700	800,000	-0,016	-0,049
-555,685	419,263	0,050	-0,079
-554,671	-55,849	0,019	0,006
-553,656	124,586	-0,098	-0,091
-552,642	-35,047	0,090	0,036
-551,627	800,000	0,043	0,095
-550,612	800,000	0,014	-0,032
-549,598	-200,000	-0,019	-0,106
-548,583	-5,507	0,138	-0,070
-547,569	-200,000	-0,013	-0,048
-546,554	-200,000	0,005	0,060
-545,539	-200,000	-0,005	-0,088
-544,525	-113,537	-0,134	0,019
-543,510	800,000	0,056	-0,164
-542,496	33,405	-0,096	-0,061
-541,481	800,000	-0,052	-0,107
-540,466	4,037	-0,040	0,022
-539,452	-157,379	-0,112	-0,005
-538,437	-158,991	-0,058	-0,002
-537,423	-59,377	0,127	-0,040
-536,408	317,136	-0,047	-0,066
-535,393	131,232	-0,104	-0,099
-534,379	-200,000	0,005	-0,024
-533,364	-115,857	-0,114	-0,015
-532,350	-78,009	0,109	0,028
-531,335	-200,000	-0,017	0,084
-530,321	337,869	-0,016	0,023
-529,306	29,230	-0,121	-0,075
-528,291	-64,710	-0,021	-0,006
-527,277	-200,000	-0,019	0,091
-526,262	749,425	-0,034	0,069
-525,248	99,248	0,053	0,045
-524,233	87,622	0,142	0,116
-523,218	510,215	0,042	0,072
-522,204	-200,000	-0,017	-0,060
-521,189	-105,301	-0,091	0,015
-520,175	-189,099	-0,166	-0,001
-519,160	-47,367	-0,027	-0,010
-518,145	-60,311	0,039	0,012
-517,131	53,903	0,079	-0,056
-516,116	113,571	-0,113	0,101
-515,102	-113,900	0,080	0,011
-514,087	-25,766	-0,072	-0,031
-513,072	119,779	-0,150	0,138
-512,058	-200,000	0,006	0,056
-511,043	721,806	-0,032	0,063
-510,029	148,074	-0,042	-0,041
-509,014	-127,551	0,063	0,007
-507,999	32,545	0,039	-0,025
-506,985	160,548	-0,063	0,065
-505,970	-164,219	-0,082	-0,003
-504,956	-124,606	-0,116	-0,013
-503,941	182,410	0,026	-0,028
-502,926	800,000	-0,025	0,062
-501,912	-69,458	0,152	0,043
-500,897	-200,000	0,004	0,033
-499,883	97,808	-0,040	-0,034
-498,868	460,934	-0,016	-0,027
-497,853	-140,024	-0,062	0,005
-496,839	43,621	0,045	-0,030
-495,824	553,797	-0,045	-0,080
-494,810	-76,185	-0,116	-0,030
-493,795	800,000	-0,046	0,115
-492,781	-200,000	-0,023	-0,094
-491,766	-95,519	0,121	-0,024
-490,751	57,047	0,040	-0,029
-489,737	123,885	-0,024	-0,022
-488,722	-188,682	0,129	-0,001
-487,708	-145,250	0,109	-0,007
-486,693	180,165	0,066	0,072
-485,678	-200,000	0,013	-0,105
-484,664	-200,000	-0,064	-0,283
-483,649	345,195	0,096	-0,140
-482,635	-200,000	0,046	-0,199
-481,620	-160,453	0,136	0,005
-480,605	700,270	-0,032	0,062
-479,591	536,010	0,041	0,072
-478,576	800,000	-0,051	0,111
-477,562	-200,000	0,013	-0,086
-476,547	-8,648	0,097	-0,048
-475,532	-200,000	-0,002	-0,079
-474,518	-56,269	0,128	-0,042
-473,503	290,833	-0,082	0,110
-472,489	-200,000	0,111	0,000
-471,474	800,000	0,007	0,019
-470,459	-163,796	-0,120	-0,004
-469,445	-200,000	0,004	0,080
-468,430	800,000	-0,005	-0,015
-467,416	-200,000	-0,009	0,129
-466,401	-45,039	-0,048	-0,018
-465,386	591,351	0,026	0,047
-464,372	-200,000	0,033	0,000
-463,357	371,157	-0,033	-0,049
-462,343	-12,220	-0,142	-0,068
-461,328	261,591	-0,096	-0,122
-460,313	83,772	0,063	-0,051
-459,299	-200,000	-0,036	0,124
-458,284	-200,000	-0,004	0,226
-457,270	645,414	0,011	0,021
-456,255	157,663	-0,052	0,053
-455,241	179,488	-0,117	-0,126
-454,226	-115,376	-0,079	-0,011
-453,211	-200,000	0,018	-0,151
-452,197	61,513	-0,080	-0,058
-451,182	687,678	-0,038	0,074
-450,168	-55,318	0,072	-0,024
-449,153	-78,758	-0,101	-0,025
-448,138	-200,000	0,013	-0,042
-447,124	-33,620	-0,108	0,044
-446,109	-82,718	-0,064	-0,015
-445,095	-151,334	0,086	0,005
-444,080	-200,000	0,012	0,102
-443,065	359,258	-0,044	0,064
-442,051	-200,000	-0,017	0,089
-441,036	-200,000	0,011	-0,069
-440,022	223,357	-0,033	0,039
-439,007	315,008	-0,052	-0,072
-437,992	111,458	0,097	-0,086
-436,978	-32,014	-0,096	0,039
-435,963	499,669	0,031	0,053
-434,949	191,869	-0,030	-0,033
-433,934	-60,089	-0,048	0,015
-432,919	460,658	-0,071	-0,117
-431,905	800,000	-0,015	0,039
-430,890	286,715	0,103	0,137
-429,876	-200,000	0,026	0,121
-428,861	-200,000	-0,027	-0,093
-427,846	800,000	-0,019	-0,047
-426,832	800,000	0,027	-0,088
-425,817	75,285	-0,066	-0,051
-424,803	42,345	0,108	-0,072
-423,788	-200,000	0,012	-0,150
-422,773	109,085	0,129	0,114
-421,759	-91,639	-0,048	0,010
-420,744	9,696	-0,091	0,051
-419,730	383,051	-0,034	-0,051
-418,715	-13,319	-0,127	-0,060
-417,701	-126,035	-0,078	0,008
-416,686	-112,791	0,131	-0,019
-415,671	-200,000	-0,030	0,175
-414,657	-64,866	0,056	-0,017
-413,642	37,139	-0,094	0,061
-412,628	81,968	-0,046	0,037
-411,613	133,231	-0,044	-0,042
-410,598	86,084	0,022	0,017
-409,584	347,945	-0,062	0,090
-408,569	-200,000	-0,003	0,092
-407,555	103,974	0,150	0,129
-406,540	41,017	-0,009	-0,006
-405,525	-200,000	0,003	-0,015
-404,511	-200,000	0,004	-0,125
-403,496	340,461	-0,060	-0,087
-402,482	-200,000	0,016	0,062
-401,467	-133,727	0,083	-0,008
-400,452	386,293	-0,036	0,054
-399,438	-86,837	-0,081	-0,018
-398,423	-200,000	0,003	-0,051
-397,409	-151,741	0,064	-0,003
-396,394	-200,000	-0,008	-0,089
-395,379	-200,000	0,009	0,077
-394,365	476,294	0,036	-0,060
-393,350	800,000	0,038	0,099
-392,336	-31,362	-0,035	-0,014
-391,321	800,000	-0,032	-0,083
-390,306	192,207	-0,026	-0,029
-389,292	-200,000	-0,002	-0,095
-388,277	-160,894	-0,028	0,001
-387,263	-200,000	-0,007	-0,089
-386,248	-95,474	0,168	0,033
-385,233	-77,206	0,014	-0,004
-384,219	-85,616	-0,048	-0,011
-383,204	32,020	-0,057	-0,036
-382,190	-149,306	-0,117	-0,007
-381,175	177,595	0,060	-0,064
-380,160	-200,000	-0,007	0,162
-379,146	-113,013	0,133	0,019
-378,131	-17,896	-0,042	0,019
-377,117	199,811	-0,089	-0,100
-376,102	-200,000	0,002	-0,119
-375,088	457,021	-0,028	0,047
-374,073	359,240	-0,070	-0,103
-373,058	391,824	0,066	0,101
-372,044	-200,000	-0,014	0,069
-371,029	-101,275	0,137	-0,024
-370,015	456,301	-0,089	-0,145
-369,000	-93,478	0,142	-0,029
-367,985	-11,967	-0,040	-0,019
-366,971	-29,726	-0,155	0,065
-365,956	-200,000	0,012	0,066
-364,942	-200,000	0,012	0,069
-363,927	144,977	-0,044	-0,044
-362,912	-200,000	-0,003	-0,029
-361,898	-19,605	0,104	0,047
-360,883	246,276	0,049	-0,060
-359,869	39,440	-0,073	0,048
-358,854	-200,000	-0,007	0,094
-357,839	193,927	0,041	0,046
-356,825	-56,178	0,107	-0,035
-355,810	-200,000	-0,017	-0,117
-354,796	-200,000	-0,016	0,177
-353,781	-200,000	0,005	-0,082
-352,766	-200,000	-0,009	0,042
-351,752	-200,000	-0,042	-0,163
-350,737	769,569	-0,016	0,032
-349,723	-70,376	-0,124	-0,034
-348,708	482,596	0,033	-0,055
-347,693	112,518	0,096	-0,086
-346,679	800,000	-0,028	-0,068
-345,664	-106,209	0,052	0,008
-344,650	-200,000	-0,001	0,006
-343,635	267,544	0,074	0,095
-342,620	-200,000	0,008	-0,091
-341,606	135,668	0,035	-0,034
-340,591	1,153	-0,063	0,033
-339,577	-32,140	-0,062	-0,025
-338,562	225,154	0,028	0,033
-337,548	-26,192	-0,062	0,027
-336,533	-90,801	0,086	0,018
-335,518	28,150	0,031	0,019
-334,504	-86,779	0,094	0,021
-333,489	800,000	0,037	0,076
-332,475	800,000	-0,013	0,032
-331,460	800,000	0,051	0,155
-330,445	800,000	0,028	0,076
-329,431	123,209	0,053	0,049
-328,416	-200,000	0,013	0,111
-327,402	-163,339	0,133	-0,005
-326,387	54,042	0,034	-0,024
-325,372	800,000	0,030	0,064
-324,358	251,860	0,082	-0,103
-323,343	-200,000	0,025	-0,093
-322,329	-0,945	0,045	-0,023
-321,314	-139,363	0,108	0,008
-320,299	-141,191	-0,098	0,007
-319,285	446,596	0,022	-0,035
-318,270	114,877	0,042	0,038
-317,256	800,000	0,043	0,134
-316,241	110,573	-0,032	-0,028
-315,226	-200,000	0,007	0,026
-314,212	432,116	0,106	0,169
-313,197	800,000	0,072	0,154
-312,183	-128,294	-0,073	-0,008
-311,168	-200,000	0,002	-0,035
-310,153	284,033	0,084	-0,111
-309,139	409,398	0,052	0,081
-308,124	141,628	0,110	0,106
-307,110	-112,105	0,148	-0,022
-306,095	-70,807	-0,077	0,021
-305,080	346,042	-0,130	0,188
-304,066	-27,795	0,082	0,035
-303,051	443,546	-0,031	-0,050
-302,037	200,488	-0,070	-0,079
-301,022	-142,317	0,091	-0,007
-300,008	-200,000	0,016	0,100
-298,993	800,000	-0,040	0,116
-297,978	24,079	0,038	-0,023
-296,964	800,000	-0,018	-0,056
-295,949	66,439	-0,071	-0,053
-294,935	-162,984	0,063	-0,002
-293,920	-36,153	-0,053	-0,021
-292,905	73,136	-0,048	0,036
-291,891	-49,138	-0,064	0,022
-290,876	234,097	0,088	-0,106
-289,862	55,846	-0,072	-0,051
-288,847	-200,000	-0,011	0,036
-287,832	-25,763	-0,044	0,019
-286,818	145,761	-0,126	-0,124
-285,803	-156,350	0,090	-0,004
-284,789	169,752	0,100	0,105
-283,774	800,000	-0,017	0,047
-282,759	301,206	0,090	0,122
-281,745	155,670	-0,037	0,037
-280,730	370,284	0,023	-0,034
-279,716	-154,353	-0,066	-0,003
-278,701	-74,762	0,095	-0,025
-277,686	-200,000	-0,013	0,140
-276,672	173,278	-0,086	0,091
-275,657	-200,000	0,006	0,059
-274,643	-200,000	0,000	-0,055
-273,628	800,000	0,026	0,073
-272,613	-89,313	-0,080	-0,017
-271,599	65,687	-0,040	-0,030
-270,584	-89,874	0,080	0,017
-269,570	-200,000	-0,018	0,073
-268,555	189,388	0,072	-0,079
-267,540	-200,000	-0,049	-0,174
-266,526	-200,000	0,009	-0,031
-265,511	-200,000	-0,032	0,143
-264,497	-118,686	-0,044	-0,006
-263,482	800,000	0,010	0,020
-262,467	-200,000	-0,006	0,049
-261,453	-200,000	0,018	0,161
-260,438	-200,000	-0,021	0,075
-259,424	800,000	0,022	-0,058
-258,409	-147,592	-0,130	0,008
-257,395	800,000	-0,036	-0,089
-256,380	433,542	0,047	-0,074
-255,365	135,731	0,061	-0,058
-254,351	-72,338	0,099	-0,027
-253,336	63,267	-0,057	0,042
-252,322	-151,120	-0,097	-0,005
-251,307	184,366	-0,054	-0,059
-250,292	-83,151	-0,030	-0,007
-249,278	244,004	0,063	-0,078
-248,263	135,726	-0,142	-0,135
-247,249	-200,000	-0,005	0,024
-246,234	99,530	-0,135	-0,114
-245,219	597,911	0,014	-0,026
-244,205	176,588	0,128	-0,136
-243,190	-50,321	-0,073	-0,025
-242,176	-200,000	0,038	-0,131
-241,161	-200,000	-0,017	-0,095
-240,146	244,730	-0,067	-0,082
-239,132	33,508	0,067	-0,042
-238,117	-130,688	-0,094	-0,009
-237,103	-15,519	0,088	-0,041
-236,088	-43,046	-0,112	0,041
-235,073	-78,184	0,136	-0,034
-234,059	496,247	-0,046	-0,078
-233,044	-200,000	-0,004	0,024
-232,030	-74,570	-0,105	0,028
-231,015	613,194	0,044	0,081
-230,000	-83,140	-0,088	-0,021
-228,986	130,867	0,054	0,050
-227,971	-200,000	-0,018	0,064
-226,957	800,000	0,057	-0,166
-225,942	411,518	0,049	-0,077
-224,927	-54,868	-0,107	-0,035
-223,913	-125,202	-0,030	-0,003
-222,898	800,000	-0,027	-0,068
-221,884	-15,468	0,088	-0,041
-220,869	-7,705	0,165	-0,081
-219,855	258,921	0,116	0,146
-218,840	-200,000	-0,022	0,110
-217,825	-157,027	-0,024	0,001
-216,811	-200,000	0,015	0,065
-215,796	-200,000	0,006	0,060
-214,782	-45,700	0,049	-0,018
-213,767	600,346	0,062	-0,113
-212,752	380,748	-0,053	0,080
-211,738	59,750	0,024	0,017
-210,723	-94,527	0,051	-0,010
-209,709	101,567	0,083	-0,071
-208,694	229,335	-0,066	-0,078
-207,679	-200,000	-0,001	0,198
-206,665	100,613	0,047	0,040
-205,650	319,274	-0,027	0,038
-204,636	497,007	0,028	0,047
-203,621	-200,000	0,016	0,181
-202,606	800,000	0,043	0,104
-201,592	-200,000	-0,005	0,033
-200,577	800,000	0,067	0,167
-199,563	-200,000	0,020	0,152
-198,548	-66,225	0,085	0,025
-197,533	28,349	-0,038	0,023
-196,519	83,810	-0,095	-0,076
-195,504	-32,262	0,064	-0,026
-194,490	745,667	-0,056	-0,111
-193,475	-68,484	-0,131	0,037
-192,460	620,895	0,036	0,067
-191,446	-131,455	0,109	0,010
-190,431	152,384	0,059	-0,059
-189,417	144,587	0,038	0,037
-188,402	-108,001	-0,101	0,016
-187,387	87,172	-0,035	-0,028
-186,373	800,000	0,012	-0,037
-185,358	41,462	0,107	0,070
-184,344	-200,000	0,010	0,053
-183,329	354,866	0,080	0,116
-182,315	800,000	0,068	0,137
-181,300	85,018	-0,056	0,044
-180,285	800,000	0,042	-0,105
-179,271	800,000	0,014	-0,032
-178,256	201,482	0,044	0,050
-177,242	521,454	-0,020	0,034
-176,227	-200,000	0,034	0,149
-175,212	-200,000	-0,024	0,139
-174,198	800,000	-0,048	0,115
-173,183	800,000	-0,071	-0,185
-172,169	32,639	-0,062	0,039
-171,154	-169,124	0,148	-0,004
-170,139	-97,477	-0,128	-0,024
-169,125	-200,000	0,040	0,171
-168,110	-54,659	-0,095	-0,031
-167,096	146,059	-0,068	-0,067
-166,081	800,000	0,031	-0,086
-165,066	25,675	0,022	-0,013
-164,052	-112,013	-0,068	-0,010
-163,037	467,015	0,104	0,171
-162,023	-157,679	0,047	0,002
-161,008	-9,970	0,176	0,085
-159,993	400,502	-0,025	0,038
-158,979	-19,376	0,072	-0,032
-157,964	-0,506	-0,070	-0,036
-156,950	-200,000	0,024	-0,171
-155,935	38,316	-0,038	-0,025
-154,920	50,803	0,048	0,033
-153,906	-46,581	0,088	-0,031
-152,891	-200,000	0,010	0,066
-151,877	-200,000	-0,012	-0,039
-150,862	-200,000	-0,006	-0,115
-149,847	-58,410	0,046	0,015
-148,833	800,000	0,006	0,015
-147,818	-34,044	-0,059	0,023
-146,804	4,728	0,067	0,036
-145,789	125,614	0,066	0,060
-144,775	-200,000	-0,003	0,030
-143,760	29,912	-0,151	-0,093
-142,745	-200,000	-0,004	0,019
-141,731	172,806	0,046	-0,048
-140,716	420,114	-0,074	-0,116
-139,702	657,926	0,004	-0,008
-138,687	70,667	0,137	0,103
-137,672	7,005	0,056	0,030
-136,658	-200,000	-0,023	-0,075
-135,643	800,000	0,048	0,142
-134,629	-64,377	-0,086	-0,025
-133,614	-200,000	0,029	-0,095
-132,599	-28,477	-0,038	0,016
-131,585	307,627	-0,009	0,012
-130,570	-200,000	0,001	0,021
-129,556	-59,551	-0,082	0,026
-128,541	293,826	0,094	-0,126
-127,526	353,049	0,014	0,021
-126,512	241,372	0,070	0,085
-125,497	433,229	-0,028	0,044
-124,483	-88,307	0,198	-0,043
-123,468	72,610	-0,114	0,086
-122,453	-79,339	0,070	-0,017
-121,439	165,770	0,069	0,071
-120,424	44,766	0,073	0,049
