DTS Sentinel unit serial number:	SN410029Multiplexer serial number:	ORYXHardware model number:	OX2-SRSoftware version number:	ORYX F/W v4,00 Oryx Data Collector v3.7.2.0data status	okinstallation	B4 Nyhavnadifferential loss correction	single-endedforward channel	channel 2reverse channel	N/Adate	2023/12/16time	00:40:13forward acquisition time	300,00reverse acquisition time	0,00gamma	499,1914k internal	0,3128k external	0,3128temperature offset calibration	1,0000default loss term (dB/km)	0,3820temperature slope calibration	1,0000multiplexer offset coefficient	1,0000multiplexer slope coefficient	1,0000fibre end	0,00T internal ref (°C)	21,97T ext. ref 1 (°C)	6,90T ext. ref 2 (°C)	7,07length (m)	temperature (°C)	Stokes	anti-Stokes-744,400	-200,000	-0,021	-0,085
-743,385	63,633	-0,203	0,152
-742,371	648,657	0,083	0,159
-741,356	208,077	-0,201	0,234
-740,342	-32,997	0,115	0,047
-739,327	-35,497	-0,245	0,099
-738,312	325,476	-0,018	0,026
-737,298	-7,084	-0,197	0,099
-736,283	-200,000	0,026	-0,197
-735,269	-5,669	-0,157	0,080
-734,254	-10,919	0,051	0,025
-733,239	-51,312	-0,401	-0,139
-732,225	-36,395	0,080	0,032
-731,210	-86,536	0,126	-0,029
-730,196	-200,000	0,005	0,018
-729,181	-200,000	-0,004	-0,031
-728,167	179,291	-0,048	-0,053
-727,152	415,826	-0,060	0,095
-726,137	28,193	-0,109	0,068
-725,123	273,270	-0,073	0,096
-724,108	-133,132	-0,117	0,011
-723,094	115,782	-0,064	-0,058
-722,079	-200,000	0,004	-0,056
-721,064	800,000	-0,020	-0,067
-720,050	800,000	0,065	-0,179
-719,035	-200,000	-0,002	0,041
-718,021	800,000	-0,003	0,009
-717,006	800,000	-0,066	-0,142
-715,991	-63,039	-0,027	-0,008
-714,977	-90,675	-0,074	-0,016
-713,962	-15,078	-0,159	-0,075
-712,948	281,752	0,054	-0,073
-711,933	-110,260	-0,048	-0,007
-710,918	-200,000	-0,001	-0,018
-709,904	30,064	-0,058	-0,037
-708,889	-42,327	-0,127	-0,048
-707,875	800,000	0,043	0,130
-706,860	-104,965	0,148	0,025
-705,845	227,810	-0,091	-0,111
-704,831	549,787	0,026	0,046
-703,816	800,000	-0,048	0,110
-702,802	21,289	-0,068	0,041
-701,787	658,158	-0,026	0,050
-700,772	-200,000	-0,008	0,029
-699,758	-59,418	0,139	0,044
-698,743	333,272	-0,029	-0,041
-697,729	35,238	-0,167	-0,108
-696,714	800,000	0,051	0,127
-695,699	187,458	0,035	-0,039
-694,685	-74,632	0,010	0,003
-693,670	691,040	-0,062	-0,121
-692,656	-200,000	0,004	0,062
-691,641	800,000	-0,051	0,107
-690,627	-167,320	0,110	0,003
-689,612	-200,000	-0,026	-0,147
-688,597	44,373	-0,125	0,085
-687,583	84,609	0,099	0,080
-686,568	-73,661	-0,089	-0,024
-685,554	299,695	-0,114	-0,157
-684,539	437,203	0,040	0,065
-683,524	-136,989	-0,054	-0,004
-682,510	177,048	-0,118	0,127
-681,495	800,000	0,032	0,095
-680,481	-200,000	0,000	0,121
-679,466	-200,000	0,006	-0,063
-678,451	664,372	-0,051	-0,097
-677,437	58,797	0,139	0,101
-676,422	-17,819	0,082	0,038
-675,408	-200,000	-0,010	-0,046
-674,393	335,433	-0,032	0,046
-673,378	-128,845	-0,062	-0,006
-672,364	296,663	-0,065	-0,089
-671,349	31,980	-0,011	0,007
-670,335	154,178	0,009	0,009
-669,320	243,915	-0,034	0,042
-668,305	229,201	-0,027	0,033
-667,291	158,038	-0,118	-0,121
-666,276	58,430	-0,098	0,071
-665,262	197,936	-0,044	-0,050
-664,247	33,520	-0,117	-0,075
-663,232	-200,000	-0,015	-0,085
-662,218	-48,655	0,029	0,010
-661,203	-116,784	-0,015	-0,002
-660,189	-75,810	0,084	-0,022
-659,174	191,503	-0,134	-0,150
-658,159	617,848	-0,023	0,043
-657,145	209,989	0,035	-0,040
-656,130	-94,306	0,042	0,008
-655,116	800,000	0,024	-0,061
-654,101	-200,000	-0,022	-0,137
-653,086	-200,000	-0,032	-0,189
-652,072	-85,035	-0,119	-0,027
-651,057	800,000	-0,019	-0,056
-650,043	272,684	0,083	-0,109
-649,028	384,894	-0,082	-0,126
-648,014	-125,376	0,041	0,005
-646,999	-138,967	0,061	-0,005
-645,984	800,000	0,024	0,075
-644,970	353,596	-0,027	-0,040
-643,955	170,219	-0,102	-0,108
-642,941	190,958	-0,078	-0,087
-641,926	263,822	0,065	-0,084
-640,911	-200,000	0,000	0,059
-639,897	800,000	0,008	0,017
-638,882	-200,000	0,000	-0,006
-637,868	800,000	-0,037	-0,096
-636,853	-69,675	0,045	0,013
-635,838	-200,000	0,011	-0,074
-634,824	64,453	-0,085	-0,063
-633,809	62,650	-0,047	-0,035
-632,795	103,596	0,066	0,058
-631,780	75,651	-0,055	0,043
-630,765	-200,000	-0,033	-0,121
-629,751	-127,111	0,038	-0,004
-628,736	-200,000	0,035	-0,128
-627,722	508,664	0,034	0,059
-626,707	800,000	-0,053	0,120
-625,692	255,334	-0,128	0,163
-624,678	110,048	0,058	0,051
-623,663	180,096	-0,117	-0,127
-622,649	-200,000	0,008	-0,026
-621,634	-34,503	0,048	0,019
-620,619	14,110	0,041	0,024
-619,605	-200,000	-0,009	0,113
-618,590	-200,000	0,011	-0,054
-617,576	-200,000	-0,007	-0,044
-616,561	-110,502	-0,073	0,011
-615,546	-200,000	-0,013	-0,141
-614,532	-144,774	0,154	0,010
-613,517	290,011	0,019	0,025
-612,503	-200,000	0,012	0,106
-611,488	-44,142	0,079	-0,029
-610,474	321,242	-0,067	-0,095
-609,459	67,723	-0,083	0,063
-608,444	328,132	0,033	-0,047
-607,430	-200,000	0,009	-0,158
-606,415	-200,000	-0,008	-0,117
-605,401	-200,000	-0,024	0,120
-604,386	-200,000	-0,011	-0,044
-603,371	159,456	0,044	0,045
-602,357	800,000	-0,051	0,135
-601,342	-98,040	0,102	0,019
-600,328	-165,238	-0,225	-0,007
-599,313	-15,399	-0,107	-0,051
-598,298	800,000	0,040	-0,089
-597,284	68,924	0,094	0,071
-596,269	131,757	0,125	0,119
-595,255	-98,701	-0,082	-0,015
-594,240	-13,147	-0,253	-0,121
-593,225	-47,628	0,030	0,011
-592,211	-74,574	-0,151	0,040
-591,196	-200,000	0,008	-0,064
-590,182	-200,000	0,009	0,083
-589,167	-200,000	0,014	0,048
-588,152	6,275	0,128	0,070
-587,138	-200,000	0,003	0,152
-586,123	800,000	0,054	-0,145
-585,109	-200,000	-0,001	0,154
-584,094	-200,000	-0,030	-0,108
-583,079	-200,000	-0,003	0,054
-582,065	254,965	0,008	-0,010
-581,050	-200,000	0,032	-0,124
-580,036	256,704	0,020	0,025
-579,021	-200,000	-0,000	0,018
-578,006	48,550	0,037	0,026
-576,992	505,549	0,052	-0,089
-575,977	800,000	0,020	-0,065
-574,963	-200,000	0,006	-0,064
-573,948	-38,342	0,097	-0,038
-572,934	532,414	0,053	-0,093
-571,919	241,227	-0,100	-0,124
-570,904	119,649	0,051	-0,047
-569,890	800,000	0,066	0,160
-568,875	-200,000	0,001	0,008
-567,861	-200,000	0,005	0,064
-566,846	25,777	0,089	-0,055
-565,831	-97,603	0,085	-0,016
-564,817	239,292	-0,010	0,012
-563,802	-134,528	-0,099	-0,009
-562,788	446,134	0,066	0,107
-561,773	8,732	-0,024	-0,013
-560,758	-151,014	-0,048	-0,003
-559,744	227,418	0,033	0,039
-558,729	243,058	-0,006	-0,007
-557,715	800,000	0,006	0,018
-556,700	230,670	0,061	0,073
-555,685	728,770	-0,074	-0,147
-554,671	25,730	-0,096	-0,059
-553,656	78,596	0,135	-0,107
-552,642	800,000	-0,082	0,245
-551,627	-111,896	0,098	0,015
-550,612	60,621	0,069	0,050
-549,598	-200,000	-0,002	-0,090
-548,583	244,577	-0,002	0,003
-547,569	800,000	0,028	-0,073
-546,554	800,000	0,033	0,102
-545,539	-200,000	-0,014	0,053
-544,525	800,000	-0,020	0,047
-543,510	800,000	-0,030	-0,067
-542,496	-68,363	0,053	0,015
-541,481	285,193	-0,033	-0,045
-540,466	-79,471	0,094	0,023
-539,452	-200,000	0,011	0,108
-538,437	-200,000	0,006	0,063
-537,423	-28,634	-0,112	0,047
-536,408	36,122	-0,085	-0,055
-535,393	-200,000	0,016	-0,078
-534,379	-95,698	0,135	-0,026
-533,364	157,138	0,009	0,009
-532,350	800,000	0,045	-0,108
-531,335	80,009	0,023	0,018
-530,321	-118,510	-0,103	0,013
-529,306	-105,058	-0,042	-0,007
-528,291	336,577	-0,024	0,034
-527,277	0,166	-0,020	0,011
-526,262	800,000	0,022	0,062
-525,248	22,338	0,114	-0,068
-524,233	-38,238	-0,104	-0,041
-523,218	-157,264	0,105	-0,005
-522,204	-127,215	0,111	-0,012
-521,189	-200,000	0,027	0,146
-520,175	77,929	0,032	-0,025
-519,160	-65,033	0,026	0,008
-518,145	-40,593	-0,057	0,022
-517,131	-153,701	0,047	-0,002
-516,116	-75,506	-0,065	0,017
-515,102	800,000	0,028	0,084
-514,087	1,510	0,049	-0,026
-513,072	176,379	-0,033	0,035
-512,058	494,257	-0,074	-0,125
-511,043	477,844	0,056	0,093
-510,029	-164,609	-0,113	-0,004
-509,014	742,619	-0,030	-0,060
-507,999	-200,000	-0,004	-0,080
-506,985	-142,810	-0,065	0,005
-505,970	41,621	0,113	-0,076
-504,956	-200,000	0,023	-0,083
-503,941	-122,115	0,031	-0,004
-502,926	-142,325	0,020	0,001
-501,912	-200,000	0,029	0,205
-500,897	-200,000	-0,015	0,113
-499,883	800,000	0,037	0,100
-498,868	800,000	0,016	0,043
-497,853	172,464	0,100	-0,106
-496,839	-104,129	0,094	-0,016
-495,824	-200,000	0,015	0,075
-494,810	-85,654	-0,012	-0,003
-493,795	-200,000	0,040	-0,178
-492,781	4,517	-0,050	0,027
-491,766	-111,020	-0,096	0,014
-490,751	-96,786	0,023	0,004
-489,737	4,201	-0,091	0,049
-488,722	800,000	-0,014	0,044
-487,708	326,342	0,054	0,076
-486,693	447,882	0,096	0,156
-485,678	254,584	-0,039	0,050
-484,664	-1,480	-0,066	-0,034
-483,649	-200,000	-0,024	0,118
-482,635	205,258	0,020	-0,023
-481,620	800,000	0,012	-0,027
-480,605	-200,000	-0,027	0,113
-479,591	-135,169	0,027	-0,002
-478,576	-11,100	0,077	0,037
-477,562	-196,525	-0,049	-0,000
-476,547	136,136	0,057	-0,055
-475,532	-160,905	0,100	-0,004
-474,518	-200,000	0,014	-0,115
-473,503	-200,000	-0,053	0,215
-472,489	-200,000	-0,030	0,224
-471,474	138,212	-0,073	0,071
-470,459	-200,000	-0,001	-0,059
-469,445	5,574	-0,144	-0,078
-468,430	-61,042	-0,106	-0,033
-467,416	326,958	0,078	0,111
-466,401	293,848	-0,056	0,075
-465,386	6,260	0,042	0,023
-464,372	-200,000	-0,018	-0,079
-463,357	58,705	-0,077	-0,056
-462,343	235,000	-0,021	-0,026
-461,328	-102,974	0,057	-0,010
-460,313	341,956	0,024	-0,035
-459,299	-54,157	-0,065	0,022
-458,284	-58,602	0,066	0,021
-457,270	800,000	0,074	0,178
-456,255	-200,000	0,000	-0,124
-455,241	175,653	0,025	0,026
-454,226	234,006	-0,059	0,072
-453,211	800,000	0,047	0,119
-452,197	148,895	0,029	0,029
-451,182	-200,000	-0,009	0,187
-450,168	295,518	0,025	0,034
-449,153	73,487	-0,041	0,032
-448,138	-174,876	-0,089	-0,002
-447,124	247,424	-0,055	-0,069
-446,109	84,003	-0,056	-0,045
-445,095	-7,560	0,089	-0,044
-444,080	604,191	-0,015	0,028
-443,065	800,000	0,074	0,152
-442,051	48,187	0,027	0,018
-441,036	206,441	-0,094	0,108
-440,022	221,995	0,037	0,043
-439,007	-140,555	0,033	-0,003
-437,992	-200,000	-0,005	0,067
-436,978	-46,606	0,180	-0,065
-435,963	-32,455	0,074	0,030
-434,949	800,000	-0,033	-0,079
-433,934	88,727	0,045	-0,037
-432,919	263,695	-0,031	0,039
-431,905	-16,534	-0,074	-0,034
-430,890	-49,236	0,188	-0,066
-429,876	778,974	-0,053	-0,107
-428,861	159,202	0,117	-0,119
-427,846	123,091	0,056	-0,051
-426,832	460,256	-0,057	-0,094
-425,817	749,902	-0,032	-0,064
-424,803	-63,830	-0,023	-0,007
-423,788	-61,183	-0,043	-0,013
-422,773	79,712	0,135	0,106
-421,759	189,668	-0,079	-0,088
-420,744	11,755	0,054	0,030
-419,730	260,878	-0,065	-0,083
-418,715	213,518	-0,039	-0,045
-417,701	800,000	0,026	0,064
-416,686	56,361	0,095	0,068
-415,671	214,281	0,123	0,143
-414,657	-44,158	0,135	0,049
-413,642	176,032	-0,031	-0,033
-412,628	-95,097	0,033	-0,006
-411,613	200,514	-0,017	-0,019
-410,598	800,000	0,031	-0,083
-409,584	800,000	0,047	-0,101
-408,569	462,990	-0,054	0,088
-407,555	-200,000	0,007	0,095
-406,540	212,955	0,024	0,028
-405,525	80,549	0,061	-0,048
-404,511	255,489	-0,072	0,091
-403,496	800,000	-0,019	0,046
-402,482	234,592	-0,011	0,013
-401,467	800,000	0,012	-0,034
-400,452	-200,000	0,011	-0,057
-399,438	-139,303	-0,068	0,005
-398,423	168,278	0,025	0,026
-397,409	-50,698	-0,112	-0,039
-396,394	-200,000	0,003	0,044
-395,379	46,958	-0,119	0,081
-394,365	800,000	0,025	0,058
-393,350	201,448	0,076	0,086
-392,336	105,885	-0,099	0,086
-391,321	-90,518	0,120	-0,025
-390,306	661,883	-0,046	-0,087
-389,292	22,543	0,044	0,026
-388,277	800,000	0,029	-0,087
-387,263	-200,000	0,020	0,194
-386,248	-92,208	0,132	0,027
-385,233	207,950	-0,065	0,074
-384,219	315,340	-0,074	-0,103
-383,204	-200,000	0,049	0,170
-382,190	641,582	-0,074	-0,139
-381,175	-44,282	-0,024	0,009
-380,160	-162,359	-0,093	0,003
-379,146	-200,000	-0,015	-0,084
-378,131	-60,559	0,092	0,028
-377,117	-67,737	0,048	-0,014
-376,102	570,169	0,117	-0,210
-375,088	470,526	-0,040	-0,065
-374,073	-13,532	-0,046	-0,022
-373,058	800,000	0,024	0,067
-372,044	-200,000	0,009	-0,049
-371,029	800,000	0,032	0,103
-370,015	800,000	-0,027	-0,083
-369,000	800,000	-0,033	-0,094
-367,985	-200,000	0,038	-0,162
-366,971	211,788	-0,039	-0,045
-365,956	-36,667	-0,029	-0,011
-364,942	-44,769	0,092	-0,034
-363,927	-47,468	0,061	0,022
-362,912	291,884	-0,032	0,043
-361,898	-200,000	0,020	0,066
-360,883	27,370	0,125	-0,077
-359,869	24,803	0,068	-0,041
-358,854	800,000	0,014	-0,041
-357,839	582,476	0,030	-0,055
-356,825	-200,000	0,008	-0,046
-355,810	38,996	0,074	-0,048
-354,796	648,478	-0,024	-0,046
-353,781	-126,232	-0,063	-0,007
-352,766	370,422	-0,060	-0,089
-351,752	-51,232	0,055	0,019
-350,737	-61,548	0,046	0,014
-349,723	-136,530	0,142	-0,012
-348,708	-200,000	-0,005	-0,093
-347,693	-9,665	0,007	0,003
-346,679	800,000	0,056	-0,169
-345,664	-66,057	0,091	0,027
-344,650	143,591	-0,079	0,077
-343,635	652,350	0,086	0,163
-342,620	-200,000	0,023	0,183
-341,606	248,603	0,053	-0,066
-340,591	-83,539	0,057	0,013
-339,577	800,000	0,017	-0,040
-338,562	-200,000	0,034	-0,119
-337,548	42,689	0,087	-0,058
-336,533	800,000	0,039	0,109
-335,518	112,336	-0,029	-0,026
-334,504	187,939	-0,069	-0,076
-333,489	800,000	-0,045	-0,098
-332,475	-147,294	-0,078	0,005
-331,460	-26,005	-0,102	-0,044
-330,445	800,000	0,020	0,060
-329,431	-64,900	0,178	-0,052
-328,416	505,777	-0,015	-0,026
-327,402	90,508	-0,050	0,041
-326,387	-200,000	0,004	0,080
-325,372	-4,989	-0,100	-0,050
-324,358	-120,783	0,166	0,020
-323,343	-200,000	-0,002	-0,092
-322,329	800,000	0,085	0,175
-321,314	-127,137	0,134	-0,014
-320,299	800,000	-0,042	0,103
-319,285	800,000	0,032	-0,094
-318,270	-200,000	0,015	0,091
-317,256	-200,000	0,003	-0,118
-316,241	-49,289	-0,063	0,022
-315,226	-161,595	0,053	-0,002
-314,212	20,731	0,026	-0,015
-313,197	377,226	0,057	0,086
-312,183	102,293	-0,112	0,095
-311,168	800,000	-0,012	-0,027
-310,153	281,113	-0,066	0,087
-309,139	50,844	-0,103	-0,071
-308,124	-1,269	0,158	0,081
-307,110	15,173	0,105	0,060
-306,095	98,267	-0,088	0,075
-305,080	4,702	-0,012	0,006
-304,066	97,984	-0,076	-0,064
-303,051	142,337	-0,082	-0,079
-302,037	1,464	0,005	0,003
-301,022	428,447	0,093	0,147
-300,008	-200,000	0,004	0,051
-298,993	-52,883	-0,181	-0,060
-297,978	-200,000	0,084	-0,000
-296,964	226,497	-0,058	-0,070
-295,949	800,000	0,026	-0,064
-294,935	-113,449	-0,115	0,016
-293,920	-186,068	0,066	0,001
-292,905	587,215	-0,024	0,043
-291,891	147,557	0,090	-0,088
-290,876	-127,665	-0,215	0,022
-289,862	31,958	-0,138	0,087
-288,847	-124,394	-0,212	0,024
-287,832	-200,000	0,006	-0,070
-286,818	445,339	-0,015	-0,024
-285,803	-200,000	0,001	0,011
-284,789	800,000	-0,042	-0,099
-283,774	97,469	-0,102	0,086
-282,759	5,839	-0,086	-0,046
-281,745	-61,135	-0,129	0,039
-280,730	617,626	0,054	-0,100
-279,716	-90,133	0,048	0,010
-278,701	-62,666	-0,090	0,027
-277,686	-41,591	0,071	-0,026
-276,672	148,195	-0,016	0,016
-275,657	800,000	-0,016	0,046
-274,643	126,106	0,114	-0,105
-273,628	-45,067	0,121	-0,044
-272,613	-200,000	-0,011	-0,110
-271,599	-95,826	0,098	0,019
-270,584	800,000	-0,018	-0,047
-269,570	588,443	0,041	0,074
-268,555	175,875	-0,041	-0,044
-267,540	137,833	-0,035	-0,034
-266,526	-200,000	-0,017	0,106
-265,511	-18,774	-0,039	-0,018
-264,497	800,000	0,067	0,189
-263,482	95,514	0,088	-0,073
-262,467	800,000	0,080	-0,193
-261,453	90,088	0,085	-0,069
-260,438	800,000	0,023	0,073
-259,424	35,205	-0,044	0,028
-258,409	540,023	-0,059	-0,104
-257,395	158,940	-0,085	-0,086
-256,380	-68,231	0,233	0,066
-255,365	102,150	-0,065	0,055
-254,351	205,627	0,062	-0,071
-253,336	48,394	-0,177	0,121
-252,322	9,926	-0,093	-0,051
-251,307	-200,000	0,037	-0,131
-250,292	-71,805	0,158	-0,043
-249,278	-55,013	-0,058	0,019
-248,263	800,000	-0,046	0,121
-247,249	-200,000	0,029	0,153
-246,234	-41,599	0,079	0,029
-245,219	738,461	-0,055	0,108
-244,205	800,000	-0,040	-0,094
-243,190	-24,592	0,035	0,015
-242,176	54,391	0,041	0,029
-241,161	150,768	-0,099	-0,098
-240,146	14,189	-0,077	-0,044
-239,132	-200,000	-0,039	0,150
-238,117	-131,348	0,086	-0,008
-237,103	-140,526	-0,099	-0,007
-236,088	-200,000	0,012	-0,129
-235,073	117,741	0,048	0,043
-234,059	-126,626	-0,101	0,011
-233,044	540,994	0,059	-0,104
-232,030	800,000	0,026	-0,055
-231,015	-200,000	0,003	0,075
-230,000	-1,776	-0,137	0,070
-228,986	-63,541	0,166	-0,049
-227,971	-200,000	0,001	0,027
-226,957	-99,982	0,118	-0,021
-225,942	-200,000	0,022	-0,088
-224,927	73,634	0,137	0,105
-223,913	192,340	0,059	0,065
-222,898	-131,757	-0,082	-0,008
-221,884	-54,624	-0,081	-0,026
-220,869	-200,000	0,023	-0,110
-219,855	634,945	-0,042	-0,078
-218,840	-67,191	-0,130	0,037
-217,825	800,000	0,053	0,126
-216,811	-200,000	0,023	-0,181
-215,796	165,376	-0,073	0,075
-214,782	-30,678	0,056	0,023
-213,767	-200,000	-0,039	0,140
-212,752	189,640	0,031	0,034
-211,738	207,886	-0,089	0,102
-210,723	-3,201	-0,040	-0,020
-209,709	-12,583	-0,162	-0,077
-208,694	-2,955	0,057	-0,029
-207,679	800,000	-0,014	-0,039
-206,665	68,584	0,052	0,039
-205,650	-200,000	-0,004	0,065
-204,636	800,000	-0,015	0,042
-203,621	-113,949	-0,080	-0,011
-202,606	-79,580	-0,032	0,008
-201,592	800,000	-0,059	0,143
-200,577	-200,000	0,031	-0,102
-199,563	-170,864	-0,147	-0,004
-198,548	2,726	0,056	-0,029
-197,533	-200,000	0,024	0,165
-196,519	239,116	-0,093	0,113
-195,504	-200,000	-0,001	-0,006
-194,490	-43,867	-0,172	-0,063
-193,475	-94,427	-0,090	-0,018
-192,460	-200,000	-0,008	-0,038
-191,446	9,928	0,097	-0,053
-190,431	268,794	-0,018	-0,023
-189,417	402,569	-0,009	0,015
-188,402	-200,000	0,003	-0,030
-187,387	-73,622	-0,132	-0,035
-186,373	-106,909	-0,061	-0,010
-185,358	14,187	-0,048	0,027
-184,344	-135,104	-0,020	0,002
-183,329	-200,000	-0,049	0,176
-182,315	49,622	0,126	0,086
-181,300	-35,956	0,060	-0,023
-180,285	-155,009	0,045	-0,002
-179,271	-200,000	-0,001	0,081
-178,256	-200,000	-0,003	0,036
-177,242	-59,200	0,065	0,020
-176,227	180,441	-0,080	-0,085
-175,212	800,000	-0,028	-0,061
-174,198	58,999	0,037	0,027
-173,183	-200,000	-0,031	-0,134
-172,169	800,000	-0,064	-0,139
-171,154	-163,744	-0,039	-0,001
-170,139	800,000	-0,010	-0,022
-169,125	-61,401	0,032	0,010
-168,110	800,000	-0,024	0,076
-167,096	800,000	-0,015	0,037
-166,081	-200,000	-0,049	-0,179
-165,066	-200,000	0,025	-0,147
-164,052	800,000	0,048	-0,145
-163,037	800,000	-0,027	0,067
-162,023	173,738	-0,116	0,122
-161,008	-70,478	-0,029	0,008
-159,993	800,000	-0,012	0,038
-158,979	130,362	-0,053	-0,050
-157,964	130,110	-0,082	-0,076
-156,950	-126,920	-0,151	-0,016
-155,935	32,523	0,048	-0,030
-154,920	-105,579	0,045	0,007
-153,906	-200,000	0,013	-0,059
-152,891	387,168	-0,023	0,035
-151,877	57,407	0,031	0,022
-150,862	-200,000	0,009	-0,164
-149,847	-4,553	0,157	-0,078
-148,833	-200,000	0,006	0,027
-147,818	262,231	0,013	-0,017
-146,804	7,582	0,050	0,027
-145,789	800,000	-0,018	0,048
-144,775	800,000	-0,055	-0,152
-143,760	336,932	0,078	-0,111
-142,745	127,689	-0,073	-0,068
-141,731	800,000	-0,017	-0,048
-140,716	767,574	-0,047	0,092
-139,702	390,987	0,004	0,006
-138,687	-200,000	-0,003	-0,079
-137,672	10,290	-0,075	-0,042
-136,658	-76,553	-0,159	0,040
-135,643	800,000	-0,044	-0,100
-134,629	25,201	0,062	-0,038
-133,614	-100,236	0,108	-0,019
-132,599	6,179	-0,068	-0,036
-131,585	-200,000	0,025	0,118
-130,570	4,672	0,100	0,053
-129,556	-200,000	0,010	0,052
-128,541	-157,206	-0,159	0,007
-127,526	61,718	0,042	-0,031
-126,512	99,916	-0,085	0,072
-125,497	-200,000	-0,029	-0,200
-124,483	-200,000	0,007	0,068
-123,468	-200,000	-0,015	0,062
-122,453	-189,638	-0,104	0,001
-121,439	800,000	0,044	-0,101
-120,424	74,933	0,027	0,021
-119,410	-200,000	0,010	0,115
-118,395	-16,350	0,050	-0,023
