DTS Sentinel unit serial number:	SN410029Multiplexer serial number:	ORYXHardware model number:	OX2-SRSoftware version number:	ORYX F/W v4,00 Oryx Data Collector v3.7.2.0data status	okinstallation	B4 Nyhavnadifferential loss correction	single-endedforward channel	channel 2reverse channel	N/Adate	2023/12/18time	19:30:13forward acquisition time	300,00reverse acquisition time	0,00gamma	499,1914k internal	0,3124k external	0,3124temperature offset calibration	1,0000default loss term (dB/km)	0,3820temperature slope calibration	1,0000multiplexer offset coefficient	1,0000multiplexer slope coefficient	1,0000fibre end	0,00T internal ref (°C)	21,87T ext. ref 1 (°C)	6,97T ext. ref 2 (°C)	6,99length (m)	temperature (°C)	Stokes	anti-Stokes-744,400	31,588	0,173	-0,111
-743,385	-141,174	-0,256	0,019
-742,371	-97,767	0,151	0,029
-741,356	-94,776	-0,250	0,050
-740,342	-17,711	0,051	0,024
-739,327	119,543	-0,187	0,173
-738,312	-200,000	0,004	0,059
-737,298	9,109	-0,215	0,121
-736,283	-200,000	0,006	-0,067
-735,269	446,542	-0,100	0,165
-734,254	-12,174	0,119	-0,058
-733,239	-120,443	-0,370	-0,046
-732,225	181,297	0,115	-0,126
-731,210	64,248	-0,070	0,052
-730,196	-27,931	-0,046	0,020
-729,181	-15,705	-0,129	0,061
-728,167	-135,838	0,256	0,022
-727,152	66,632	0,058	-0,044
-726,137	158,578	-0,044	-0,046
-725,123	2,586	-0,111	-0,060
-724,108	-200,000	-0,006	-0,047
-723,094	-70,846	-0,165	0,046
-722,079	121,808	-0,073	0,068
-721,064	800,000	0,029	0,072
-720,050	-51,318	0,094	-0,033
-719,035	800,000	0,033	0,072
-718,021	-154,880	-0,091	-0,004
-717,006	-15,054	-0,068	-0,032
-715,991	552,105	0,042	-0,076
-714,977	386,903	-0,064	-0,098
-713,962	-51,659	0,094	0,032
-712,948	800,000	-0,018	-0,044
-711,933	10,944	-0,051	-0,029
-710,918	70,595	0,060	0,046
-709,904	62,574	-0,080	-0,059
-708,889	-200,000	-0,029	-0,160
-707,875	800,000	0,020	0,055
-706,860	119,525	-0,064	0,059
-705,845	-101,108	0,074	-0,013
-704,831	800,000	0,006	0,018
-703,816	-200,000	-0,003	-0,021
-702,802	-200,000	-0,053	-0,182
-701,787	-200,000	-0,009	0,031
-700,772	-102,134	-0,103	-0,018
-699,758	89,482	-0,042	0,035
-698,743	-90,910	0,063	-0,013
-697,729	377,862	0,092	0,141
-696,714	-89,788	-0,071	0,015
-695,699	269,944	-0,028	-0,036
-694,685	412,159	0,046	-0,073
-693,670	800,000	-0,029	-0,062
-692,656	-200,000	-0,022	-0,080
-691,641	-39,123	0,050	0,019
-690,627	-200,000	0,012	0,086
-689,612	36,565	-0,111	0,073
-688,597	101,877	-0,093	0,081
-687,583	-64,332	-0,095	0,029
-686,568	83,634	-0,037	0,030
-685,554	-200,000	-0,003	-0,041
-684,539	106,497	0,017	-0,015
-683,524	-200,000	-0,020	-0,088
-682,510	64,689	0,016	-0,012
-681,495	800,000	0,020	0,053
-680,481	-200,000	0,009	0,125
-679,466	413,468	-0,055	-0,087
-678,451	-200,000	0,006	-0,056
-677,437	183,554	-0,096	-0,106
-676,422	247,605	0,073	-0,092
-675,408	-130,297	-0,114	-0,011
-674,393	-192,681	0,024	0,000
-673,378	67,414	-0,098	-0,075
-672,364	-20,272	0,056	0,026
-671,349	-112,286	0,125	0,018
-670,335	-165,792	0,119	-0,004
-669,320	-23,031	-0,026	0,012
-668,305	-35,709	0,151	0,061
-667,291	-200,000	-0,013	-0,081
-666,276	-200,000	-0,008	-0,129
-665,262	69,209	-0,123	0,094
-664,247	800,000	0,015	-0,042
-663,232	-140,957	-0,051	0,004
-662,218	-46,381	0,031	0,011
-661,203	-200,000	-0,005	0,142
-660,189	-54,294	-0,028	-0,009
-659,174	58,637	-0,090	-0,066
-658,159	243,634	-0,025	-0,032
-657,145	-84,823	-0,153	0,035
-656,130	-200,000	-0,010	0,065
-655,116	-135,355	0,012	0,001
-654,101	-146,777	0,133	-0,008
-653,086	-200,000	0,011	-0,102
-652,072	-200,000	0,022	-0,172
-651,057	800,000	-0,024	-0,061
-650,043	-200,000	0,007	-0,133
-649,028	87,165	0,052	0,042
-648,014	564,229	0,027	0,049
-646,999	-133,852	0,257	-0,023
-645,984	-9,289	-0,029	-0,015
-644,970	-124,762	0,064	0,007
-643,955	-15,306	-0,110	0,052
-642,941	-61,751	-0,115	-0,036
-641,926	800,000	0,036	-0,076
-640,911	436,072	0,044	-0,071
-639,897	302,047	-0,037	-0,051
-638,882	94,343	0,082	0,069
-637,868	396,294	-0,043	-0,067
-636,853	800,000	-0,028	-0,065
-635,838	-200,000	-0,006	0,023
-634,824	-200,000	-0,009	-0,071
-633,809	800,000	0,007	0,020
-632,795	800,000	0,064	0,133
-631,780	800,000	-0,051	0,121
-630,765	-200,000	0,029	0,106
-629,751	-200,000	-0,004	-0,018
-628,736	34,677	-0,102	-0,066
-627,722	131,179	-0,027	0,026
-626,707	159,427	0,088	-0,091
-625,692	192,738	-0,078	0,088
-624,678	-59,920	-0,030	0,009
-623,663	-45,498	0,048	-0,017
-622,649	-200,000	0,001	-0,128
-621,634	-154,340	0,107	0,005
-620,619	-200,000	-0,033	-0,198
-619,605	773,525	-0,031	-0,062
-618,590	231,115	-0,040	-0,049
-617,576	-63,562	0,093	-0,028
-616,561	-137,390	0,012	-0,001
-615,546	-168,838	-0,140	-0,004
-614,532	16,279	-0,063	-0,037
-613,517	-200,000	-0,011	0,123
-612,503	-152,938	0,076	0,004
-611,488	-10,818	-0,047	0,023
-610,474	123,147	-0,149	-0,138
-609,459	-56,134	0,167	-0,055
-608,444	800,000	-0,040	-0,114
-607,430	607,333	-0,077	0,144
-606,415	-86,181	-0,044	-0,010
-605,401	117,799	-0,043	-0,039
-604,386	-200,000	-0,009	0,065
-603,371	-200,000	0,008	0,044
-602,357	-99,651	-0,076	-0,014
-601,342	311,743	-0,092	-0,128
-600,328	68,412	-0,057	0,043
-599,313	183,514	-0,066	-0,073
-598,298	32,107	-0,052	0,033
-597,284	800,000	0,043	0,102
-596,269	479,116	-0,025	-0,042
-595,255	62,831	0,055	0,041
-594,240	-69,342	-0,076	0,021
-593,225	137,753	-0,039	-0,038
-592,211	24,101	-0,066	0,041
-591,196	210,082	0,044	-0,052
-590,182	-200,000	-0,003	-0,035
-589,167	-159,036	0,059	0,002
-588,152	495,580	0,062	-0,105
-587,138	-200,000	0,021	0,084
-586,123	-108,104	-0,069	0,011
-585,109	22,403	-0,065	-0,039
-584,094	-144,630	0,173	-0,012
-583,079	-200,000	-0,012	-0,050
-582,065	174,703	-0,025	0,027
-581,050	-200,000	-0,010	0,039
-580,036	-200,000	-0,006	-0,058
-579,021	776,903	-0,051	-0,103
-578,006	-44,001	-0,060	-0,022
-576,992	-107,120	-0,116	-0,019
-575,977	109,720	-0,062	-0,055
-574,963	-54,595	0,036	-0,012
-573,948	-200,000	0,019	0,063
-572,934	132,432	-0,121	-0,115
-571,919	313,650	0,046	-0,064
-570,904	-113,651	-0,060	0,009
-569,890	15,214	-0,081	-0,047
-568,875	49,410	0,074	-0,051
-567,861	53,589	-0,064	0,045
-566,846	-71,702	0,020	-0,006
-565,831	163,046	-0,011	0,011
-564,817	197,380	0,065	0,073
-563,802	480,994	-0,030	-0,050
-562,788	41,031	0,074	-0,050
-561,773	-9,725	-0,026	-0,013
-560,758	52,517	0,061	0,043
-559,744	-114,761	0,073	0,010
-558,729	-200,000	0,007	0,115
-557,715	-154,601	0,119	-0,006
-556,700	-56,624	0,049	0,016
-555,685	391,939	-0,031	-0,047
-554,671	-200,000	-0,003	0,011
-553,656	800,000	-0,043	0,132
-552,642	800,000	-0,034	0,103
-551,627	-200,000	-0,029	0,132
-550,612	-200,000	0,014	-0,052
-549,598	266,385	-0,023	-0,030
-548,583	-96,896	-0,170	0,033
-547,569	1,263	-0,054	-0,029
-546,554	-116,474	0,137	-0,019
-545,539	620,512	0,031	0,058
-544,525	-97,483	0,039	0,008
-543,510	497,962	0,064	0,110
-542,496	-200,000	0,015	-0,089
-541,481	408,444	0,013	-0,020
-540,466	-200,000	0,063	0,000
-539,452	-179,256	0,090	0,001
-538,437	-200,000	0,001	0,046
-537,423	-142,683	0,040	-0,003
-536,408	-87,230	-0,134	0,030
-535,393	85,042	0,020	-0,017
-534,379	-117,317	-0,106	0,014
-533,364	-48,317	-0,053	0,019
-532,350	-62,115	0,069	0,021
-531,335	800,000	-0,060	-0,125
-530,321	-0,635	-0,031	-0,016
-529,306	-200,000	0,005	0,089
-528,291	337,573	0,043	0,063
-527,277	21,587	-0,045	-0,027
-526,262	-74,767	-0,070	-0,018
-525,248	-200,000	-0,030	0,145
-524,233	-200,000	0,011	-0,077
-523,218	-178,551	0,093	0,002
-522,204	-71,476	-0,079	-0,022
-521,189	-144,088	-0,044	-0,003
-520,175	800,000	0,026	0,056
-519,160	-82,711	-0,100	0,024
-518,145	-28,254	0,152	0,065
-517,131	800,000	0,051	0,122
-516,116	40,320	0,014	0,009
-515,102	-200,000	-0,019	-0,071
-514,087	128,604	-0,060	-0,057
-513,072	536,544	-0,023	0,041
-512,058	99,326	-0,126	-0,107
-511,043	502,287	0,048	0,083
-510,029	-115,147	-0,033	-0,005
-509,014	800,000	0,039	0,101
-507,999	114,207	-0,051	0,046
-506,985	-134,356	-0,103	-0,009
-505,970	-200,000	-0,054	-0,178
-504,956	-200,000	0,023	0,112
-503,941	-84,581	0,099	-0,023
-502,926	-23,419	-0,038	0,017
-501,912	-200,000	0,000	0,018
-500,897	-15,234	0,155	0,073
-499,883	-200,000	-0,019	0,101
-498,868	-60,085	-0,189	-0,059
-497,853	468,235	-0,057	-0,095
-496,839	-200,000	-0,005	-0,040
-495,824	294,119	0,022	-0,029
-494,810	-108,496	0,038	-0,006
-493,795	696,831	0,038	0,073
-492,781	482,188	-0,047	-0,079
-491,766	-200,000	0,030	-0,118
-490,751	785,994	0,046	-0,094
-489,737	-110,274	-0,066	-0,010
-488,722	-17,935	0,076	-0,035
-487,708	-116,524	0,086	-0,012
-486,693	-200,000	-0,002	-0,056
-485,678	-126,077	-0,060	0,007
-484,664	770,461	0,035	0,071
-483,649	-200,000	0,031	-0,131
-482,635	800,000	0,020	-0,057
-481,620	379,690	0,078	-0,119
-480,605	380,885	0,077	0,117
-479,591	19,661	0,118	0,070
-478,576	-27,788	0,082	-0,035
-477,562	100,014	0,072	-0,061
-476,547	-46,254	0,078	0,028
-475,532	-200,000	-0,008	-0,075
-474,518	-200,000	-0,001	-0,067
-473,503	-77,507	-0,077	-0,019
-472,489	-46,458	0,059	0,021
-471,474	46,175	0,037	0,025
-470,459	-93,309	-0,095	-0,019
-469,445	204,213	0,033	-0,038
-468,430	-200,000	0,019	-0,131
-467,416	-200,000	0,014	0,071
-466,401	-193,850	0,118	-0,001
-465,386	16,400	-0,035	0,021
-464,372	-72,939	-0,166	-0,045
-463,357	-19,557	0,088	-0,040
-462,343	-48,878	-0,174	-0,061
-461,328	800,000	0,024	-0,066
-460,313	-200,000	-0,016	-0,058
-459,299	800,000	0,059	0,125
-458,284	-200,000	0,017	-0,150
-457,270	-145,870	0,070	0,004
-456,255	649,213	0,055	0,104
-455,241	800,000	0,032	-0,079
-454,226	61,355	-0,061	0,044
-453,211	-110,194	0,080	0,012
-452,197	39,837	-0,034	-0,022
-451,182	-200,000	0,002	0,023
-450,168	-47,951	-0,081	0,029
-449,153	-62,633	-0,136	0,041
-448,138	-153,013	0,058	0,003
-447,124	800,000	0,034	-0,072
-446,109	800,000	0,027	-0,069
-445,095	-60,461	0,031	0,010
-444,080	158,609	0,054	0,056
-443,065	-200,000	0,021	0,081
-442,051	-27,057	-0,060	-0,026
-441,036	-180,033	-0,053	0,001
-440,022	295,463	-0,067	-0,091
-439,007	25,246	0,150	0,092
-437,992	-200,000	-0,031	0,110
-436,978	185,105	0,006	0,007
-435,963	184,631	0,060	0,066
-434,949	-200,000	0,018	0,118
-433,934	-52,001	-0,057	0,019
-432,919	0,946	-0,095	0,050
-431,905	391,601	0,035	0,054
-430,890	-6,248	0,072	0,036
-429,876	-53,683	-0,088	-0,030
-428,861	-200,000	-0,009	0,146
-427,846	-35,393	-0,046	-0,018
-426,832	729,992	0,032	-0,064
-425,817	-34,103	-0,017	-0,007
-424,803	65,100	0,059	0,044
-423,788	113,704	0,147	0,132
-422,773	263,650	-0,082	0,106
-421,759	81,445	0,181	0,144
-420,744	196,003	-0,007	-0,008
-419,730	486,031	0,054	0,091
-418,715	339,464	0,082	-0,118
-417,701	-87,740	-0,119	0,026
-416,686	-200,000	-0,024	-0,091
-415,671	79,214	-0,122	0,096
-414,657	50,887	-0,032	-0,022
-413,642	-200,000	0,009	0,044
-412,628	-69,078	-0,109	-0,031
-411,613	-200,000	-0,025	-0,264
-410,598	-157,685	0,019	0,001
-409,584	59,503	-0,051	-0,037
-408,569	-40,198	0,084	-0,032
-407,555	122,965	0,055	-0,050
-406,540	800,000	-0,014	-0,033
-405,525	-37,616	-0,116	0,045
-404,511	-200,000	0,015	0,066
-403,496	68,344	-0,074	0,056
-402,482	-126,514	-0,078	0,008
-401,467	38,504	0,132	0,086
-400,452	-200,000	-0,003	0,050
-399,438	694,682	-0,032	-0,062
-398,423	59,310	-0,034	0,024
-397,409	-200,000	0,021	0,076
-396,394	-145,243	0,152	-0,010
-395,379	309,912	0,051	0,071
-394,365	-200,000	0,045	0,157
-393,350	191,384	0,084	0,093
-392,336	35,455	0,030	0,020
-391,321	-22,532	-0,110	0,049
-390,306	-56,858	0,005	-0,001
-389,292	-60,730	0,084	0,026
-388,277	-160,163	-0,153	0,006
-387,263	189,778	0,015	-0,016
-386,248	132,880	-0,020	0,019
-385,233	-65,875	-0,100	0,029
-384,219	-200,000	0,014	0,138
-383,204	-179,425	-0,119	0,002
-382,190	-200,000	-0,001	-0,114
-381,175	179,364	-0,023	-0,025
-380,160	-31,030	-0,063	-0,026
-379,146	-200,000	0,002	0,014
-378,131	800,000	-0,023	0,057
-377,117	-200,000	-0,022	0,082
-376,102	152,359	0,019	0,019
-375,088	-113,727	-0,055	-0,008
-374,073	800,000	-0,025	-0,058
-373,058	-1,763	0,054	0,028
-372,044	103,022	-0,067	0,058
-371,029	422,305	0,022	0,035
-370,015	65,209	0,070	0,052
-369,000	800,000	-0,034	0,072
-367,985	-200,000	0,010	-0,100
-366,971	647,272	-0,013	0,024
-365,956	275,379	-0,039	-0,051
-364,942	213,185	0,059	0,069
-363,927	-200,000	-0,008	0,125
-362,912	800,000	-0,012	0,033
-361,898	-153,029	-0,090	0,005
-360,883	-91,835	-0,140	0,029
-359,869	236,575	-0,064	-0,078
-358,854	800,000	0,004	-0,013
-357,839	-99,049	0,139	-0,026
-356,825	-50,929	0,072	-0,025
-355,810	586,880	0,036	-0,064
-354,796	-105,341	0,092	0,015
-353,781	-113,142	0,030	0,004
-352,766	88,789	0,012	0,010
-351,752	3,901	-0,051	-0,027
-350,737	-67,327	0,152	0,044
-349,723	800,000	0,057	0,164
-348,708	-200,000	0,001	-0,053
-347,693	-20,642	0,175	-0,078
-346,679	65,671	0,073	-0,054
-345,664	-14,514	0,108	0,051
-344,650	800,000	-0,050	0,124
-343,635	-200,000	-0,000	0,115
-342,620	262,357	0,073	0,093
-341,606	-37,557	0,137	-0,053
-340,591	-74,880	-0,123	-0,032
-339,577	-200,000	-0,021	-0,074
-338,562	-200,000	-0,007	0,069
-337,548	325,976	0,013	-0,018
-336,533	307,707	-0,097	0,134
-335,518	-200,000	-0,001	0,066
-334,504	63,801	0,106	-0,078
-333,489	248,922	0,047	-0,058
-332,475	-4,076	-0,070	0,036
-331,460	-200,000	0,005	-0,092
-330,445	-200,000	-0,013	-0,061
-329,431	-200,000	0,019	-0,072
-328,416	81,802	-0,064	-0,050
-327,402	1,626	-0,014	0,007
-326,387	-54,436	0,100	0,033
-325,372	-73,890	-0,015	-0,004
-324,358	-54,056	-0,066	0,022
-323,343	-200,000	-0,027	0,136
-322,329	-47,397	-0,093	0,033
-321,314	186,340	0,058	-0,064
-320,299	360,912	0,040	0,058
-319,285	-136,427	-0,105	-0,009
-318,270	800,000	-0,002	0,007
-317,256	-200,000	0,038	-0,170
-316,241	800,000	0,043	-0,113
-315,226	800,000	0,025	0,079
-314,212	-6,142	0,122	-0,061
-313,197	-200,000	0,040	-0,149
-312,183	447,111	0,036	-0,059
-311,168	-118,685	-0,023	0,003
-310,153	220,703	-0,159	-0,187
-309,139	316,184	-0,050	-0,069
-308,124	-89,557	0,054	0,012
-307,110	-36,774	0,061	-0,024
-306,095	50,520	-0,041	0,028
-305,080	800,000	0,058	-0,127
-304,066	-150,056	-0,194	-0,011
-303,051	610,098	0,088	-0,162
-302,037	312,897	0,044	-0,061
-301,022	-98,119	-0,228	-0,043
-300,008	-120,977	0,189	0,023
-298,993	61,566	-0,066	-0,048
-297,978	-200,000	-0,012	-0,109
-296,964	-200,000	-0,071	0,258
-295,949	117,227	-0,046	0,042
-294,935	126,364	-0,029	-0,027
-293,920	-200,000	-0,011	0,101
-292,905	233,490	-0,095	0,114
-291,891	62,721	-0,126	-0,092
-290,876	-35,779	0,095	0,037
-289,862	675,561	-0,044	0,083
-288,847	43,911	-0,052	0,035
-287,832	-150,887	-0,203	-0,011
-286,818	338,687	0,051	-0,073
-285,803	-200,000	0,008	-0,030
-284,789	424,425	0,043	-0,068
-283,774	800,000	0,023	0,071
-282,759	-135,916	-0,030	0,003
-281,745	461,274	-0,105	-0,171
-280,730	367,749	-0,100	-0,148
-279,716	750,047	0,032	0,063
-278,701	-200,000	-0,012	0,087
-277,686	-157,924	0,049	0,002
-276,672	264,378	0,066	0,084
-275,657	-111,347	0,027	-0,004
-274,643	-103,835	0,074	-0,013
-273,628	-200,000	0,004	-0,095
-272,613	69,044	0,058	-0,044
-271,599	-200,000	0,001	-0,004
-270,584	129,363	0,063	0,059
-269,570	-53,856	0,059	-0,020
-268,555	703,562	-0,077	0,150
-267,540	373,916	-0,057	-0,084
-266,526	-200,000	-0,005	0,148
-265,511	-200,000	-0,011	0,048
-264,497	197,690	-0,024	0,027
-263,482	-200,000	-0,013	0,054
-262,467	-200,000	0,016	0,054
-261,453	0,851	0,044	0,023
-260,438	183,790	0,010	0,011
-259,424	-35,647	0,086	-0,034
-258,409	-200,000	0,021	-0,131
-257,395	273,088	0,038	-0,049
-256,380	800,000	0,034	0,091
-255,365	-13,318	-0,021	0,010
-254,351	-84,280	-0,149	-0,034
-253,336	800,000	0,019	0,057
-252,322	800,000	-0,052	-0,144
-251,307	-200,000	0,003	-0,064
-250,292	-200,000	-0,012	0,081
-249,278	-4,346	0,100	0,050
-248,263	202,611	0,065	-0,074
-247,249	-200,000	-0,002	-0,162
-246,234	-200,000	0,004	-0,075
-245,219	95,943	0,039	0,033
-244,205	18,450	0,081	0,047
-243,190	265,074	-0,065	0,083
-242,176	-13,170	-0,090	0,043
-241,161	73,611	0,042	0,032
-240,146	281,759	-0,082	-0,108
-239,132	-200,000	-0,002	0,061
-238,117	24,918	-0,029	0,018
-237,103	183,280	-0,071	-0,077
-236,088	800,000	-0,057	0,118
-235,073	-116,069	-0,151	-0,020
-234,059	-200,000	0,017	-0,097
-233,044	-98,539	0,055	0,010
-232,030	57,613	-0,116	-0,083
-231,015	31,988	0,125	0,079
-230,000	-200,000	0,021	-0,076
-228,986	-200,000	-0,005	0,039
-227,971	34,032	0,110	0,070
-226,957	67,386	0,050	0,037
-225,942	299,764	0,120	0,163
-224,927	-64,785	-0,075	-0,022
-223,913	-137,565	-0,130	-0,011
-222,898	-200,000	0,019	0,068
-221,884	32,466	0,132	0,083
-220,869	411,155	0,050	0,077
-219,855	187,517	0,093	-0,102
-218,840	165,311	-0,050	-0,052
-217,825	-200,000	0,030	-0,138
-216,811	-200,000	-0,035	-0,150
-215,796	-200,000	-0,006	-0,059
-214,782	2,778	0,053	0,028
-213,767	399,366	-0,028	-0,043
-212,752	3,335	0,104	0,055
-211,738	389,482	-0,039	0,060
-210,723	372,173	-0,022	0,033
-209,709	-92,855	-0,062	0,013
-208,694	-41,078	0,112	-0,042
-207,679	-200,000	-0,016	0,077
-206,665	800,000	0,035	-0,092
-205,650	-200,000	-0,008	-0,045
-204,636	1,127	0,085	-0,044
-203,621	36,784	-0,017	0,011
-202,606	800,000	-0,037	-0,096
-201,592	-50,555	-0,167	-0,057
-200,577	217,132	0,060	-0,070
-199,563	26,083	0,093	-0,056
-198,548	226,245	0,130	-0,155
-197,533	6,706	0,146	0,079
-196,519	800,000	0,012	0,040
-195,504	109,366	0,098	-0,086
-194,490	-27,799	-0,072	0,030
-193,475	434,353	0,064	-0,101
-192,460	-16,013	-0,162	-0,075
-191,446	20,152	-0,023	0,014
-190,431	-200,000	0,006	0,080
-189,417	284,239	-0,061	0,080
-188,402	182,683	0,078	0,084
-187,387	-183,478	-0,224	-0,003
-186,373	-50,448	0,069	-0,024
-185,358	-20,183	0,019	0,009
-184,344	-88,384	0,051	0,011
-183,329	800,000	-0,048	0,151
-182,315	800,000	0,036	0,078
-181,300	800,000	-0,030	0,066
-180,285	-18,398	-0,067	0,030
-179,271	161,310	-0,189	0,193
-178,256	-200,000	0,004	-0,077
-177,242	-200,000	-0,034	-0,175
-176,227	153,549	0,123	0,123
-175,212	-141,198	0,083	-0,006
-174,198	38,762	-0,036	-0,023
-173,183	117,966	0,112	-0,100
-172,169	-200,000	-0,019	-0,074
-171,154	408,625	0,059	0,091
-170,139	-51,181	0,036	-0,012
-169,125	251,622	-0,025	0,031
-168,110	264,736	-0,022	0,028
-167,096	-200,000	0,002	-0,055
-166,081	-95,391	0,053	-0,010
-165,066	800,000	-0,042	0,096
-164,052	-149,705	-0,045	0,003
-163,037	-200,000	0,008	-0,115
-162,023	800,000	0,023	-0,067
-161,008	183,769	0,067	0,072
-159,993	-200,000	0,007	0,129
-158,979	138,558	-0,029	-0,028
-157,964	-200,000	-0,047	-0,172
-156,950	70,834	-0,083	-0,063
-155,935	800,000	0,031	-0,080
-154,920	800,000	-0,032	0,098
-153,906	337,422	0,105	0,150
-152,891	296,809	0,091	0,122
-151,877	202,177	-0,029	0,033
-150,862	-22,428	-0,193	-0,085
-149,847	-17,416	0,122	-0,056
-148,833	52,246	-0,129	0,089
-147,818	800,000	-0,013	-0,033
-146,804	-200,000	0,026	0,221
-145,789	291,240	0,013	0,017
-144,775	-110,175	-0,038	-0,006
-143,760	-156,264	-0,027	0,001
-142,745	59,623	-0,119	0,086
-141,731	800,000	0,020	0,056
-140,716	-85,616	0,088	-0,020
-139,702	-200,000	0,012	0,198
-138,687	220,688	0,089	0,104
-137,672	526,266	-0,023	0,040
-136,658	111,895	-0,053	-0,047
-135,643	337,793	0,040	0,057
-134,629	-83,829	0,049	0,011
-133,614	-8,178	-0,155	0,076
-132,599	787,371	-0,036	0,073
-131,585	442,327	0,021	-0,033
-130,570	14,052	0,023	-0,013
-129,556	-7,899	-0,143	0,070
-128,541	-200,000	0,010	0,067
-127,526	-50,974	-0,039	0,013
-126,512	55,303	-0,021	-0,015
-125,497	-141,786	-0,067	-0,005
-124,483	11,223	0,108	0,060
-123,468	-200,000	0,019	-0,079
-122,453	-200,000	-0,008	-0,154
-121,439	-200,000	-0,009	0,053
-120,424	-139,784	-0,157	-0,012
-119,410	74,850	0,027	0,020
