DTS Sentinel unit serial number:	SN410029Multiplexer serial number:	ORYXHardware model number:	OX2-SRSoftware version number:	ORYX F/W v4,00 Oryx Data Collector v3.7.2.0data status	okinstallation	B4 Nyhavnadifferential loss correction	single-endedforward channel	channel 2reverse channel	N/Adate	2023/12/19time	07:05:13forward acquisition time	300,00reverse acquisition time	0,00gamma	499,1914k internal	0,3126k external	0,3126temperature offset calibration	1,0000default loss term (dB/km)	0,3820temperature slope calibration	1,0000multiplexer offset coefficient	1,0000multiplexer slope coefficient	1,0000fibre end	0,00T internal ref (°C)	21,22T ext. ref 1 (°C)	6,53T ext. ref 2 (°C)	6,60length (m)	temperature (°C)	Stokes	anti-Stokes-744,400	55,740	0,099	-0,071
-743,385	-43,669	-0,234	0,087
-742,371	374,315	0,063	0,096
-741,356	130,851	-0,226	0,216
-740,342	-118,398	0,030	-0,004
-739,327	79,270	-0,205	0,163
-738,312	-200,000	-0,001	-0,075
-737,298	-77,041	-0,357	0,092
-736,283	-119,121	-0,136	-0,017
-735,269	19,376	-0,278	0,166
-734,254	164,623	0,028	-0,029
-733,239	-172,761	-0,319	0,007
-732,225	-68,404	0,093	0,027
-731,210	143,764	-0,052	-0,051
-730,196	-200,000	-0,009	0,060
-729,181	-50,132	-0,045	0,016
-728,167	27,067	-0,126	0,079
-727,152	488,654	-0,050	-0,086
-726,137	236,644	-0,055	-0,068
-725,123	-200,000	0,022	-0,086
-724,108	177,465	-0,151	-0,164
-723,094	-31,493	-0,022	0,009
-722,079	800,000	-0,029	0,077
-721,064	108,108	-0,031	-0,028
-720,050	-200,000	-0,009	-0,057
-719,035	-145,793	0,036	-0,002
-718,021	224,992	-0,120	-0,145
-717,006	333,500	-0,047	-0,068
-715,991	-63,634	-0,035	-0,011
-714,977	-200,000	0,020	-0,168
-713,962	-200,000	-0,007	0,025
-712,948	-200,000	-0,044	-0,191
-711,933	12,776	-0,087	-0,050
-710,918	800,000	-0,044	-0,133
-709,904	32,812	-0,049	0,031
-708,889	232,736	-0,111	-0,136
-707,875	94,062	-0,078	-0,066
-706,860	800,000	-0,022	-0,049
-705,845	35,903	0,062	-0,041
-704,831	-35,915	0,055	0,022
-703,816	-200,000	-0,002	0,068
-702,802	800,000	0,012	-0,026
-701,787	800,000	-0,032	-0,100
-700,772	704,569	-0,011	-0,021
-699,758	161,719	-0,076	-0,079
-698,743	650,993	-0,017	0,032
-697,729	-74,895	0,068	-0,018
-696,714	188,210	0,069	-0,077
-695,699	-110,053	-0,033	0,005
-694,685	-200,000	-0,039	0,147
-693,670	-20,577	-0,054	-0,025
-692,656	800,000	-0,027	-0,074
-691,641	-200,000	0,012	-0,148
-690,627	800,000	0,015	0,048
-689,612	222,854	-0,084	0,101
-688,597	98,038	-0,069	-0,059
-687,583	86,562	-0,159	-0,130
-686,568	800,000	-0,037	-0,080
-685,554	144,416	-0,116	-0,115
-684,539	-200,000	-0,009	0,059
-683,524	-118,879	0,056	-0,007
-682,510	-39,451	-0,156	0,060
-681,495	800,000	0,013	-0,028
-680,481	10,939	-0,063	0,036
-679,466	-200,000	0,010	-0,085
-678,451	-187,959	-0,055	-0,001
-677,437	-200,000	-0,007	-0,043
-676,422	-122,349	0,122	0,015
-675,408	71,602	0,090	-0,069
-674,393	800,000	0,033	-0,088
-673,378	236,214	0,098	-0,121
-672,364	800,000	-0,038	-0,085
-671,349	569,667	-0,079	0,142
-670,335	-147,558	-0,085	0,005
-669,320	229,382	0,024	-0,029
-668,305	-91,890	0,061	0,013
-667,291	293,559	0,015	-0,020
-666,276	-200,000	0,005	-0,067
-665,262	96,388	-0,130	-0,111
-664,247	89,465	0,069	-0,057
-663,232	-200,000	-0,010	-0,152
-662,218	-99,030	-0,013	0,002
-661,203	254,809	-0,109	-0,138
-660,189	-88,004	0,033	0,007
-659,174	-127,371	0,027	-0,003
-658,159	186,653	-0,052	-0,058
-657,145	-200,000	-0,001	-0,045
-656,130	94,586	-0,007	0,006
-655,116	-200,000	0,013	-0,057
-654,101	130,470	-0,093	0,089
-653,086	47,650	0,044	0,031
-652,072	800,000	-0,017	-0,036
-651,057	155,570	-0,023	0,023
-650,043	800,000	0,025	0,055
-649,028	-200,000	-0,018	0,073
-648,014	800,000	-0,049	-0,129
-646,999	62,785	-0,062	0,046
-645,984	-14,419	0,031	-0,015
-644,970	800,000	0,022	0,045
-643,955	366,620	0,080	0,120
-642,941	71,670	-0,086	-0,066
-641,926	-76,450	-0,088	-0,023
-640,911	-200,000	0,035	-0,165
-639,897	-11,830	0,118	-0,057
-638,882	-104,256	-0,082	-0,014
-637,868	2,629	0,203	0,109
-636,853	800,000	-0,036	-0,076
-635,838	298,468	-0,029	0,040
-634,824	291,474	-0,067	0,091
-633,809	-113,935	-0,115	0,016
-632,795	-111,593	0,079	0,012
-631,780	348,188	-0,069	0,101
-630,765	97,138	-0,058	0,049
-629,751	45,205	-0,139	-0,095
-628,736	800,000	-0,032	-0,069
-627,722	-200,000	0,001	0,009
-626,707	59,086	0,118	-0,086
-625,692	376,980	0,071	0,107
-624,678	-200,000	0,005	0,046
-623,663	-4,854	0,076	0,038
-622,649	-83,478	-0,141	-0,033
-621,634	-72,452	-0,019	0,005
-620,619	616,007	-0,028	0,053
-619,605	-113,199	-0,061	-0,009
-618,590	7,803	0,029	0,016
-617,576	-200,000	-0,017	-0,076
-616,561	599,426	-0,095	0,175
-615,546	-30,110	-0,001	-0,001
-614,532	800,000	0,024	-0,065
-613,517	193,458	0,055	-0,062
-612,503	-200,000	0,008	0,059
-611,488	-106,822	0,041	-0,007
-610,474	-200,000	0,002	0,115
-609,459	800,000	0,025	-0,058
-608,444	509,555	0,009	0,016
-607,430	-200,000	-0,028	-0,114
-606,415	-200,000	-0,032	-0,134
-605,401	800,000	0,018	0,053
-604,386	800,000	-0,021	-0,068
-603,371	152,174	0,030	-0,030
-602,357	-11,009	-0,113	-0,055
-601,342	-200,000	-0,001	-0,009
-600,328	286,531	-0,124	-0,167
-599,313	6,383	-0,121	0,066
-598,298	503,492	0,080	0,138
-597,284	800,000	-0,026	0,063
-596,269	-200,000	0,012	-0,072
-595,255	142,523	0,135	0,133
-594,240	225,043	-0,086	-0,104
-593,225	-31,660	-0,116	-0,048
-592,211	187,112	0,108	-0,120
-591,196	-2,959	0,056	0,029
-590,182	-74,950	0,087	-0,023
-589,167	42,342	-0,048	-0,032
-588,152	-200,000	-0,023	-0,200
-587,138	-200,000	0,023	-0,124
-586,123	428,547	-0,057	-0,091
-585,109	-97,255	-0,190	-0,036
-584,094	192,006	0,092	-0,103
-583,079	-135,799	-0,054	0,005
-582,065	295,307	0,054	0,073
-581,050	-200,000	-0,029	-0,099
-580,036	-200,000	-0,002	-0,073
-579,021	-21,211	-0,048	0,022
-578,006	-200,000	-0,033	-0,143
-576,992	-200,000	0,009	-0,104
-575,977	189,911	-0,107	0,119
-574,963	151,363	0,049	0,050
-573,948	121,600	0,064	0,059
-572,934	-89,219	0,045	-0,010
-571,919	-200,000	-0,013	-0,065
-570,904	-200,000	-0,021	-0,100
-569,890	98,399	-0,043	0,036
-568,875	296,817	-0,096	0,130
-567,861	-122,307	0,127	0,015
-566,846	-121,534	-0,230	-0,028
-565,831	333,830	0,049	0,071
-564,817	149,656	0,024	0,024
-563,802	40,467	0,054	-0,036
-562,788	300,374	0,071	-0,097
-561,773	-41,619	0,062	0,023
-560,758	35,623	-0,067	-0,043
-559,744	800,000	0,026	0,070
-558,729	-200,000	-0,011	0,068
-557,715	5,275	-0,045	0,024
-556,700	800,000	0,026	-0,056
-555,685	33,725	-0,091	-0,058
-554,671	78,380	0,178	-0,141
-553,656	800,000	0,031	-0,078
-552,642	-200,000	-0,014	0,108
-551,627	449,143	0,018	0,030
-550,612	178,317	-0,101	0,109
-549,598	106,539	0,031	-0,027
-548,583	480,715	-0,048	-0,081
-547,569	-200,000	0,008	-0,032
-546,554	487,536	0,010	0,017
-545,539	-117,519	0,202	-0,027
-544,525	52,536	-0,024	-0,017
-543,510	-102,210	-0,140	0,025
-542,496	-200,000	-0,009	0,110
-541,481	199,075	0,024	0,027
-540,466	800,000	0,030	0,070
-539,452	-200,000	0,004	0,083
-538,437	-200,000	-0,007	-0,033
-537,423	-39,873	-0,060	0,023
-536,408	-153,163	0,076	-0,004
-535,393	238,286	-0,040	-0,049
-534,379	-200,000	-0,008	-0,071
-533,364	173,027	-0,024	0,026
-532,350	-143,243	-0,065	-0,005
-531,335	743,105	-0,064	0,127
-530,321	304,109	-0,044	-0,061
-529,306	800,000	-0,027	-0,057
-528,291	-22,891	0,178	0,079
-527,277	-200,000	0,000	-0,086
-526,262	300,042	-0,041	-0,056
-525,248	309,752	-0,036	-0,050
-524,233	269,175	0,016	0,021
-523,218	161,763	-0,060	-0,062
-522,204	287,750	-0,016	0,022
-521,189	46,286	-0,069	-0,047
-520,175	0,393	0,065	0,034
-519,160	385,767	0,041	-0,062
-518,145	130,558	-0,042	-0,039
-517,131	105,216	-0,046	0,040
-516,116	136,974	0,100	0,096
-515,102	800,000	-0,034	0,105
-514,087	340,040	0,024	0,035
-513,072	-126,011	-0,153	-0,017
-512,058	-127,967	-0,047	0,005
-511,043	-72,497	0,207	0,056
-510,029	16,590	-0,110	0,064
-509,014	-200,000	-0,020	0,067
-507,999	-50,780	0,052	0,018
-506,985	117,031	-0,118	-0,107
-505,970	-200,000	-0,021	-0,080
-504,956	83,309	-0,057	-0,046
-503,941	143,437	0,056	-0,055
-502,926	-166,835	0,085	0,003
-501,912	245,653	0,011	0,014
-500,897	-103,998	-0,101	-0,017
-499,883	-46,318	0,069	-0,025
-498,868	-200,000	0,013	-0,044
-497,853	-13,913	-0,154	-0,073
-496,839	-200,000	0,011	-0,049
-495,824	-200,000	-0,009	-0,113
-494,810	800,000	0,030	0,073
-493,795	-107,180	0,022	0,004
-492,781	357,560	-0,061	-0,089
-491,766	-200,000	0,004	-0,080
-490,751	-82,584	0,038	-0,009
-489,737	14,855	0,019	-0,011
-488,722	161,158	0,082	0,085
-487,708	-200,000	0,001	-0,123
-486,693	217,241	0,051	0,061
-485,678	422,515	-0,038	0,060
-484,664	-50,657	-0,097	-0,034
-483,649	-66,960	0,065	0,019
-482,635	263,689	-0,053	-0,068
-481,620	800,000	-0,019	0,045
-480,605	108,960	0,076	0,067
-479,591	-200,000	0,012	0,042
-478,576	165,281	-0,021	-0,021
-477,562	-200,000	0,001	-0,055
-476,547	567,802	-0,071	-0,128
-475,532	-200,000	-0,029	-0,109
-474,518	-200,000	-0,036	0,181
-473,503	-112,242	0,136	-0,020
-472,489	-200,000	0,027	0,117
-471,474	542,012	-0,042	-0,073
-470,459	57,574	-0,057	0,041
-469,445	-80,433	-0,024	-0,006
-468,430	23,676	0,033	-0,020
-467,416	-0,606	0,051	-0,027
-466,401	-105,571	0,081	-0,013
-465,386	-200,000	0,027	0,126
-464,372	800,000	0,029	0,070
-463,357	800,000	-0,046	-0,098
-462,343	-200,000	-0,006	-0,064
-461,328	109,418	-0,088	-0,078
-460,313	413,274	-0,043	-0,067
-459,299	-64,553	0,082	-0,024
-458,284	-200,000	-0,007	-0,068
-457,270	221,749	-0,049	-0,058
-456,255	-156,644	-0,032	0,001
-455,241	-200,000	-0,002	-0,030
-454,226	168,589	-0,052	-0,054
-453,211	-200,000	-0,004	0,015
-452,197	-200,000	-0,032	-0,150
-451,182	-151,642	-0,138	0,007
-450,168	-137,502	0,186	0,015
-449,153	401,959	-0,046	-0,072
-448,138	-200,000	-0,026	-0,213
-447,124	90,467	-0,133	-0,109
-446,109	40,343	-0,112	0,074
-445,095	800,000	0,013	0,035
-444,080	59,068	0,091	0,065
-443,065	275,820	-0,021	-0,027
-442,051	-200,000	0,015	0,083
-441,036	800,000	-0,038	-0,110
-440,022	-200,000	0,011	-0,121
-439,007	800,000	-0,043	0,103
-437,992	465,664	0,094	-0,155
-436,978	47,004	0,054	-0,037
-435,963	-200,000	0,010	0,059
-434,949	-104,074	-0,092	0,016
-433,934	800,000	0,039	-0,107
-432,919	-70,114	0,109	-0,030
-431,905	-39,770	0,101	-0,039
-430,890	111,679	0,022	0,019
-429,876	-200,000	-0,001	0,004
-428,861	-7,818	-0,083	-0,041
-427,846	210,570	-0,043	0,050
-426,832	-200,000	-0,103	-0,000
-425,817	-200,000	0,023	0,124
-424,803	302,014	-0,131	0,179
-423,788	-8,466	0,157	0,077
-422,773	800,000	0,022	0,056
-421,759	-200,000	-0,004	0,037
-420,744	-143,646	-0,049	0,003
-419,730	-28,856	0,039	0,016
-418,715	-200,000	0,000	0,020
-417,701	88,994	-0,062	0,051
-416,686	-178,478	0,105	0,002
-415,671	101,313	0,085	0,072
-414,657	-7,121	0,224	-0,111
-413,642	83,476	0,050	-0,040
-412,628	627,120	0,009	0,016
-411,613	800,000	0,053	-0,146
-410,598	138,351	0,046	-0,044
-409,584	231,061	0,109	-0,132
-408,569	800,000	0,063	0,179
-407,555	-200,000	-0,008	-0,051
-406,540	70,327	0,066	-0,050
-405,525	-81,750	-0,037	0,009
-404,511	800,000	-0,074	-0,151
-403,496	-200,000	-0,048	-0,214
-402,482	102,118	0,027	-0,023
-401,467	104,817	0,080	0,069
-400,452	134,225	0,113	0,107
-399,438	-103,994	0,030	0,005
-398,423	-41,158	-0,116	-0,044
-397,409	-176,479	-0,095	0,002
-396,394	85,296	-0,067	0,054
-395,379	-200,000	-0,004	-0,077
-394,365	-30,455	-0,017	0,007
-393,350	526,709	0,086	0,149
-392,336	156,670	-0,049	0,050
-391,321	-7,674	0,098	0,049
-390,306	82,631	0,101	-0,080
-389,292	-26,360	-0,104	0,045
-388,277	-200,000	0,013	-0,135
-387,263	-200,000	-0,029	0,152
-386,248	261,799	0,048	0,061
-385,233	800,000	0,030	-0,065
-384,219	145,326	0,049	0,048
-383,204	-53,786	-0,093	-0,031
-382,190	-200,000	0,016	-0,090
-381,175	-111,480	-0,098	-0,015
-380,160	800,000	0,087	-0,197
-379,146	-81,285	0,159	-0,038
-378,131	-200,000	0,014	0,172
-377,117	-132,285	0,069	-0,006
-376,102	-200,000	0,027	-0,131
-375,088	341,738	-0,077	0,111
-374,073	-7,847	0,027	0,014
-373,058	-200,000	0,005	0,099
-372,044	-16,846	-0,100	0,046
-371,029	-97,702	0,151	0,028
-370,015	184,218	-0,047	0,051
-369,000	-115,842	-0,075	-0,010
-367,985	140,397	0,057	0,055
-366,971	800,000	-0,030	-0,071
-365,956	94,623	0,093	-0,077
-364,942	-90,942	-0,166	0,035
-363,927	800,000	0,048	0,113
-362,912	-139,636	0,106	0,008
-361,898	302,218	-0,132	-0,179
-360,883	71,377	-0,058	-0,044
-359,869	322,860	0,129	0,181
-358,854	800,000	0,037	-0,078
-357,839	10,765	-0,143	0,080
-356,825	800,000	-0,020	-0,055
-355,810	28,382	0,049	-0,030
-354,796	-200,000	0,000	0,100
-353,781	-99,893	0,115	-0,021
-352,766	246,873	-0,028	-0,035
-351,752	751,443	0,026	-0,051
-350,737	800,000	-0,040	0,111
-349,723	-200,000	0,003	0,056
-348,708	25,236	0,134	0,081
-347,693	800,000	-0,017	0,049
-346,679	130,009	0,102	0,096
-345,664	-200,000	-0,013	0,062
-344,650	683,369	-0,013	-0,025
-343,635	800,000	0,016	-0,035
-342,620	-200,000	0,009	0,055
-341,606	368,169	-0,021	-0,032
-340,591	-200,000	0,017	0,212
-339,577	-90,357	-0,067	0,014
-338,562	756,730	0,051	-0,102
-337,548	800,000	-0,010	-0,024
-336,533	800,000	0,050	-0,103
-335,518	-20,391	0,118	-0,053
-334,504	800,000	0,039	0,111
-333,489	800,000	-0,040	-0,105
-332,475	800,000	-0,077	0,173
-331,460	-29,074	-0,040	0,017
-330,445	381,543	-0,038	-0,057
-329,431	353,669	0,049	0,072
-328,416	800,000	-0,060	0,162
-327,402	547,959	-0,011	0,019
-326,387	31,712	0,056	-0,035
-325,372	-200,000	0,006	-0,025
-324,358	168,103	0,074	0,078
-323,343	74,663	-0,049	-0,037
-322,329	800,000	0,074	-0,183
-321,314	-82,734	-0,097	0,023
-320,299	-57,313	0,048	-0,015
-319,285	-200,000	0,014	0,131
-318,270	800,000	0,041	0,130
-317,256	800,000	-0,018	0,051
-316,241	-148,729	-0,146	0,009
-315,226	-200,000	-0,004	-0,054
-314,212	-200,000	-0,006	0,071
-313,197	88,448	0,061	0,049
-312,183	482,039	-0,041	-0,068
-311,168	68,940	0,040	-0,030
-310,153	-38,579	-0,208	-0,080
-309,139	-200,000	0,022	-0,088
-308,124	699,892	-0,048	0,093
-307,110	-16,227	0,090	0,041
-306,095	41,752	-0,142	-0,094
-305,080	640,092	0,052	0,097
-304,066	-177,423	0,076	0,001
-303,051	-85,932	-0,192	0,043
-302,037	-96,254	-0,054	-0,010
-301,022	174,033	0,052	-0,055
-300,008	-200,000	0,012	0,046
-298,993	265,589	0,087	0,112
-297,978	-200,000	0,019	0,111
-296,964	-24,886	-0,089	-0,038
-295,949	-73,333	0,053	-0,014
-294,935	-0,740	0,143	-0,074
-293,920	-200,000	-0,060	-0,211
-292,905	-200,000	0,027	0,114
-291,891	415,183	-0,098	0,154
-290,876	53,510	0,013	-0,009
-289,862	199,622	-0,120	-0,135
-288,847	52,335	0,124	-0,086
-287,832	-200,000	0,005	-0,039
-286,818	-82,866	-0,068	0,016
-285,803	-37,058	0,055	0,022
-284,789	105,096	0,130	0,112
-283,774	-200,000	0,014	0,082
-282,759	95,863	-0,010	-0,009
-281,745	800,000	-0,011	-0,025
-280,730	107,065	0,016	-0,014
-279,716	-99,360	0,039	0,007
-278,701	3,368	-0,077	0,041
-277,686	93,490	-0,058	-0,048
-276,672	2,424	-0,041	0,022
-275,657	-74,703	-0,012	0,003
-274,643	-147,617	0,054	0,003
-273,628	-200,000	-0,027	-0,092
-272,613	-200,000	0,000	0,081
-271,599	4,946	0,122	-0,065
-270,584	800,000	0,034	0,087
-269,570	800,000	-0,025	0,079
-268,555	-200,000	0,025	-0,083
-267,540	-25,114	-0,077	-0,033
-266,526	18,427	-0,070	0,041
-265,511	-61,315	-0,071	0,022
-264,497	-146,286	0,026	0,002
-263,482	-69,453	0,086	-0,024
-262,467	-81,423	-0,078	0,019
-261,453	-142,263	0,084	-0,006
-260,438	-200,000	0,012	0,121
-259,424	-91,426	-0,133	0,027
-258,409	140,031	0,089	-0,086
-257,395	-24,088	0,061	0,026
-256,380	202,849	0,043	-0,049
-255,365	172,442	-0,091	0,095
-254,351	671,596	0,048	0,092
-253,336	-200,000	0,013	0,043
-252,322	800,000	0,021	-0,053
-251,307	-95,711	-0,038	-0,007
-250,292	-40,840	0,035	0,013
-249,278	255,598	-0,050	0,063
-248,263	-200,000	0,019	0,124
-247,249	-145,329	0,160	0,010
-246,234	800,000	0,021	-0,063
-245,219	48,318	-0,027	0,019
-244,205	11,879	-0,035	0,019
-243,190	-49,655	0,191	-0,066
-242,176	31,992	-0,052	-0,032
-241,161	-200,000	0,012	0,128
-240,146	-57,888	0,085	-0,027
-239,132	-200,000	-0,007	-0,065
-238,117	329,017	-0,056	-0,079
-237,103	800,000	-0,009	-0,025
-236,088	238,275	-0,054	0,065
-235,073	58,610	0,061	-0,044
-234,059	146,071	0,021	-0,020
-233,044	304,611	0,081	0,110
-232,030	93,451	-0,096	0,079
-231,015	196,363	0,033	0,037
-230,000	53,296	-0,140	-0,098
-228,986	643,797	-0,035	0,065
-227,971	-200,000	0,048	0,216
-226,957	-200,000	-0,046	0,172
-225,942	-200,000	0,012	0,047
-224,927	-5,049	0,075	-0,037
-223,913	-107,755	0,146	-0,023
-222,898	19,736	-0,113	-0,066
-221,884	-200,000	0,012	0,075
-220,869	-20,627	-0,082	0,037
-219,855	-48,686	-0,056	0,019
-218,840	-161,883	0,070	0,003
-217,825	505,815	-0,008	-0,013
-216,811	215,611	0,080	-0,093
-215,796	-36,990	-0,059	-0,023
-214,782	-109,688	-0,088	0,013
-213,767	-200,000	-0,028	0,133
-212,752	101,356	0,076	-0,065
-211,738	222,991	0,163	0,192
-210,723	-87,324	-0,146	-0,032
-209,709	-200,000	0,002	0,059
-208,694	-200,000	0,019	-0,073
-207,679	-117,719	0,095	0,012
-206,665	-200,000	-0,042	0,201
-205,650	17,952	-0,078	-0,045
-204,636	656,388	0,050	0,094
-203,621	573,170	0,020	0,035
-202,606	-200,000	0,005	0,139
-201,592	13,998	-0,056	-0,032
-200,577	800,000	-0,045	-0,092
-199,563	172,671	0,022	-0,023
-198,548	800,000	-0,059	-0,158
-197,533	-108,020	-0,073	-0,011
-196,519	71,616	0,162	0,123
-195,504	-200,000	0,000	-0,042
-194,490	-155,010	-0,042	0,002
-193,475	-99,849	0,036	0,007
-192,460	-136,763	0,049	0,004
-191,446	-116,976	-0,048	-0,006
-190,431	800,000	-0,027	0,072
-189,417	53,608	-0,101	0,071
-188,402	-131,245	-0,068	0,007
-187,387	800,000	-0,033	-0,094
-186,373	-31,786	0,120	-0,049
-185,358	56,903	0,042	0,030
-184,344	-93,155	-0,061	-0,012
-183,329	800,000	0,035	0,105
-182,315	-129,781	0,155	0,015
-181,300	10,167	-0,055	-0,030
-180,285	-200,000	0,007	0,065
-179,271	498,327	-0,057	-0,097
-178,256	-167,151	0,170	-0,005
-177,242	-150,498	0,107	0,006
-176,227	-200,000	0,055	0,201
-175,212	412,508	0,094	0,145
-174,198	-200,000	-0,001	0,095
-173,183	-48,193	-0,116	0,041
-172,169	-145,720	-0,131	-0,008
-171,154	-200,000	0,003	-0,124
-170,139	194,633	0,084	0,092
-169,125	194,774	0,066	0,073
-168,110	444,844	-0,045	-0,073
-167,096	-134,994	-0,018	0,002
-166,081	-200,000	0,002	-0,065
-165,066	39,442	-0,147	0,095
-164,052	-47,718	-0,017	0,006
-163,037	29,223	0,053	-0,032
-162,023	57,854	0,073	-0,052
-161,008	-168,364	0,046	-0,001
-159,993	-78,550	0,056	0,014
-158,979	-200,000	0,067	-0,254
-157,964	-200,000	-0,043	-0,152
-156,950	-113,159	-0,080	-0,011
-155,935	-7,056	-0,079	-0,039
-154,920	-200,000	0,013	-0,061
-153,906	-108,652	-0,070	0,011
-152,891	-172,257	-0,072	0,002
-151,877	316,903	0,042	0,057
-150,862	-58,887	-0,115	-0,036
-149,847	174,586	-0,048	0,051
-148,833	-200,000	-0,008	-0,095
-147,818	-200,000	0,007	-0,039
-146,804	254,593	0,076	0,095
-145,789	-118,678	0,041	-0,005
-144,775	-26,126	-0,045	0,019
-143,760	800,000	-0,041	-0,100
-142,745	-132,339	-0,117	0,011
-141,731	387,579	0,050	-0,075
-140,716	254,956	0,069	0,086
-139,702	597,108	-0,047	0,085
-138,687	248,609	-0,036	0,044
-137,672	-200,000	-0,013	0,069
-136,658	536,177	0,028	-0,048
-135,643	-13,073	-0,107	-0,050
-134,629	-200,000	0,009	-0,115
-133,614	431,875	-0,052	-0,082
-132,599	-103,184	0,186	-0,032
-131,585	-73,111	-0,011	-0,003
-130,570	412,732	-0,050	0,077
-129,556	800,000	-0,028	0,069
-128,541	-86,008	-0,021	-0,005
-127,526	-41,923	0,114	0,042
-126,512	-72,609	0,082	0,022
-125,497	-166,346	-0,038	-0,001
-124,483	-200,000	-0,011	-0,044
-123,468	149,533	0,028	-0,027
-122,453	800,000	-0,024	-0,070
-121,439	189,320	0,018	0,019
-120,424	-200,000	0,022	-0,091
