DTS Sentinel unit serial number:	SN410029Multiplexer serial number:	ORYXHardware model number:	OX2-SRSoftware version number:	ORYX F/W v4,00 Oryx Data Collector v3.7.2.0data status	okinstallation	B4 Nyhavnadifferential loss correction	single-endedforward channel	channel 2reverse channel	N/Adate	2023/12/15time	16:00:13forward acquisition time	300,00reverse acquisition time	0,00gamma	499,1914k internal	0,3148k external	0,3148temperature offset calibration	1,0000default loss term (dB/km)	0,3820temperature slope calibration	1,0000multiplexer offset coefficient	1,0000multiplexer slope coefficient	1,0000fibre end	0,00T internal ref (°C)	16,96T ext. ref 1 (°C)	2,98T ext. ref 2 (°C)	3,08length (m)	temperature (°C)	Stokes	anti-Stokes-744,400	515,774	-0,021	-0,036
-743,385	-110,314	-0,284	-0,043
-742,371	-49,883	0,180	0,063
-741,356	-114,264	-0,263	0,037
-740,342	800,000	0,067	0,139
-739,327	-158,109	-0,261	0,011
-738,312	-11,411	0,156	-0,075
-737,298	-111,169	-0,221	-0,033
-736,283	203,048	0,123	0,141
-735,269	-168,704	-0,224	-0,006
-734,254	525,131	-0,013	0,023
-733,239	-150,549	-0,464	-0,026
-732,225	-88,680	0,098	-0,021
-731,210	75,980	-0,100	-0,078
-730,196	800,000	-0,021	-0,056
-729,181	-25,647	0,044	0,019
-728,167	537,594	0,028	-0,050
-727,152	800,000	0,042	-0,099
-726,137	452,478	-0,053	-0,087
-725,123	10,199	-0,114	-0,064
-724,108	-200,000	-0,034	-0,111
-723,094	172,534	-0,087	-0,092
-722,079	98,651	-0,042	-0,035
-721,064	356,140	0,072	0,106
-720,050	-200,000	0,011	0,074
-719,035	343,733	-0,066	-0,095
-718,021	559,209	0,021	0,038
-717,006	-200,000	-0,032	-0,139
-715,991	41,995	-0,131	-0,088
-714,977	-200,000	0,008	-0,131
-713,962	-33,076	0,102	-0,041
-712,948	74,363	0,085	-0,066
-711,933	-100,097	-0,020	-0,004
-710,918	103,484	-0,048	-0,042
-709,904	-45,844	-0,036	-0,013
-708,889	800,000	0,030	-0,062
-707,875	800,000	-0,047	-0,122
-706,860	298,681	-0,032	0,043
-705,845	447,159	0,047	-0,077
-704,831	24,029	0,111	0,067
-703,816	-4,647	0,042	-0,021
-702,802	189,130	-0,041	-0,045
-701,787	-131,867	0,039	-0,004
-700,772	179,194	-0,099	0,108
-699,758	398,433	-0,028	0,043
-698,743	105,869	0,023	0,020
-697,729	-65,576	0,124	0,036
-696,714	-200,000	0,009	0,082
-695,699	-83,080	0,061	0,014
-694,685	-200,000	-0,005	-0,095
-693,670	276,652	-0,011	-0,015
-692,656	168,854	-0,101	0,106
-691,641	-95,464	0,055	0,011
-690,627	-121,869	-0,082	-0,010
-689,612	800,000	0,033	-0,101
-688,597	-200,000	0,005	-0,034
-687,583	-128,792	-0,132	-0,014
-686,568	721,245	0,026	-0,051
-685,554	800,000	-0,058	-0,130
-684,539	31,552	0,132	-0,083
-683,524	-79,392	-0,077	0,019
-682,510	-72,076	0,113	0,031
-681,495	15,484	-0,098	-0,057
-680,481	127,701	-0,071	0,067
-679,466	-200,000	0,007	-0,054
-678,451	-139,004	-0,130	0,010
-677,437	800,000	-0,060	0,126
-676,422	139,146	0,043	0,041
-675,408	800,000	-0,025	-0,070
-674,393	59,155	-0,030	0,021
-673,378	-187,853	-0,080	0,001
-672,364	351,485	-0,079	-0,115
-671,349	-200,000	0,011	-0,038
-670,335	795,736	0,056	-0,114
-669,320	131,058	-0,016	-0,015
-668,305	-200,000	0,031	0,109
-667,291	-85,588	-0,027	-0,006
-666,276	258,602	0,089	-0,113
-665,262	-34,295	0,013	0,005
-664,247	24,651	0,049	-0,030
-663,232	39,305	-0,015	0,010
-662,218	-200,000	0,099	0,000
-661,203	-181,689	0,108	0,002
-660,189	28,036	-0,023	-0,014
-659,174	-71,090	-0,052	-0,014
-658,159	-158,222	0,062	0,003
-657,145	50,758	-0,112	-0,078
-656,130	242,889	0,063	0,078
-655,116	343,997	0,062	0,090
-654,101	404,501	-0,021	0,033
-653,086	-65,753	-0,148	0,043
-652,072	-200,000	0,025	-0,163
-651,057	-200,000	0,016	-0,096
-650,043	-30,994	-0,160	-0,066
-649,028	-135,876	-0,110	-0,009
-648,014	-200,000	0,021	0,145
-646,999	-200,000	-0,003	0,057
-645,984	85,243	-0,089	0,072
-644,970	-200,000	0,014	-0,139
-643,955	-68,436	-0,085	0,024
-642,941	18,507	-0,116	-0,068
-641,926	-200,000	-0,026	0,085
-640,911	486,648	0,070	-0,118
-639,897	111,040	-0,119	-0,105
-638,882	104,428	0,036	0,031
-637,868	133,854	-0,024	-0,023
-636,853	-118,276	-0,213	0,028
-635,838	-67,825	-0,091	0,026
-634,824	-200,000	-0,007	0,137
-633,809	-152,785	0,170	0,009
-632,795	-200,000	0,108	0,000
-631,780	154,943	0,084	-0,085
-630,765	-164,086	-0,087	-0,003
-629,751	-92,802	-0,211	-0,043
-628,736	-200,000	-0,015	-0,101
-627,722	172,526	0,075	0,080
-626,707	370,205	0,057	0,085
-625,692	59,165	-0,032	0,023
-624,678	-129,855	0,096	-0,010
-623,663	571,805	0,047	-0,085
-622,649	-28,030	0,141	-0,060
-621,634	800,000	-0,056	-0,115
-620,619	-200,000	-0,017	-0,083
-619,605	-200,000	-0,008	0,041
-618,590	800,000	0,059	-0,121
-617,576	800,000	0,060	-0,131
-616,561	-25,992	0,069	0,030
-615,546	-200,000	0,027	-0,157
-614,532	-63,280	-0,067	0,020
-613,517	-200,000	0,026	-0,090
-612,503	-12,645	-0,064	-0,030
-611,488	-51,895	-0,104	0,035
-610,474	-200,000	0,021	0,112
-609,459	800,000	-0,042	0,099
-608,444	-200,000	-0,011	0,078
-607,430	-9,041	-0,110	0,054
-606,415	-200,000	-0,003	-0,071
-605,401	-29,313	0,094	0,039
-604,386	281,682	-0,024	0,032
-603,371	800,000	0,006	0,014
-602,357	-7,104	0,077	-0,038
-601,342	165,158	-0,133	-0,138
-600,328	-146,341	-0,080	-0,005
-599,313	-90,866	-0,016	-0,003
-598,298	-200,000	-0,019	0,109
-597,284	800,000	-0,093	-0,191
-596,269	-18,277	-0,031	0,014
-595,255	-200,000	-0,001	-0,055
-594,240	800,000	-0,051	0,108
-593,225	7,169	-0,024	-0,013
-592,211	24,637	-0,088	-0,053
-591,196	-200,000	-0,023	-0,115
-590,182	-200,000	0,002	0,013
-589,167	-197,334	0,070	-0,000
-588,152	193,878	0,022	-0,024
-587,138	-9,682	-0,119	-0,058
-586,123	213,670	-0,012	-0,014
-585,109	-100,351	-0,129	-0,023
-584,094	-69,572	-0,087	-0,024
-583,079	800,000	0,024	0,049
-582,065	800,000	-0,016	-0,048
-581,050	-89,356	-0,091	0,019
-580,036	-102,442	-0,025	-0,004
-579,021	149,420	0,042	0,042
-578,006	-138,251	-0,077	-0,006
-576,992	28,672	0,114	0,071
-575,977	183,389	0,031	0,034
-574,963	-91,461	-0,023	-0,005
-573,948	-96,001	-0,075	-0,014
-572,934	-39,668	-0,119	0,045
-571,919	657,381	0,056	-0,107
-570,904	-200,000	-0,006	-0,099
-569,890	12,170	-0,138	0,078
-568,875	800,000	0,023	-0,074
-567,861	97,826	-0,051	0,043
-566,846	748,092	-0,043	0,085
-565,831	800,000	0,033	-0,091
-564,817	-24,367	-0,151	-0,066
-563,802	66,626	-0,104	-0,077
-562,788	229,993	-0,061	-0,074
-561,773	-169,894	-0,046	-0,001
-560,758	800,000	-0,051	-0,108
-559,744	-200,000	-0,017	-0,069
-558,729	-107,076	0,024	-0,004
-557,715	79,110	0,077	0,060
-556,700	-128,742	0,075	-0,008
-555,685	-25,571	-0,135	-0,058
-554,671	336,843	-0,028	0,040
-553,656	-15,119	0,034	-0,016
-552,642	-11,675	0,142	0,068
-551,627	68,005	0,090	0,067
-550,612	-141,662	0,055	0,004
-549,598	-100,832	-0,136	0,024
-548,583	575,141	0,061	-0,110
-547,569	165,846	0,079	0,083
-546,554	800,000	-0,034	0,085
-545,539	94,019	-0,037	0,031
-544,525	89,465	-0,124	-0,102
-543,510	125,922	-0,081	0,075
-542,496	-109,457	0,130	0,020
-541,481	218,981	-0,075	0,088
-540,466	800,000	0,027	0,056
-539,452	-10,615	0,053	-0,025
-538,437	628,643	-0,072	0,133
-537,423	-200,000	0,016	0,195
-536,408	-130,362	0,112	-0,011
-535,393	-110,789	-0,056	-0,008
-534,379	-200,000	0,022	-0,159
-533,364	147,072	0,068	0,068
-532,350	32,919	0,078	-0,049
-531,335	-6,555	-0,099	-0,049
-530,321	72,354	0,070	0,053
-529,306	-200,000	0,000	-0,159
-528,291	-200,000	0,016	-0,095
-527,277	471,048	0,044	-0,073
-526,262	-51,300	0,018	-0,006
-525,248	116,605	0,030	0,027
-524,233	175,901	-0,078	0,083
-523,218	179,521	0,119	0,127
-522,204	215,814	-0,091	-0,106
-521,189	-19,103	0,093	-0,042
-520,175	800,000	-0,040	-0,123
-519,160	-72,150	0,175	0,047
-518,145	-20,823	0,033	0,015
-517,131	-200,000	0,002	-0,074
-516,116	-90,243	0,167	-0,035
-515,102	800,000	0,010	0,027
-514,087	84,673	-0,106	-0,085
-513,072	533,686	0,048	-0,084
-512,058	-200,000	0,011	-0,086
-511,043	-200,000	0,004	-0,028
-510,029	-160,883	0,111	0,004
-509,014	-120,392	0,010	-0,001
-507,999	800,000	0,040	0,105
-506,985	-200,000	0,033	-0,115
-505,970	-178,584	0,099	0,002
-504,956	-200,000	-0,005	0,068
-503,941	-200,000	-0,009	-0,118
-502,926	800,000	0,031	0,081
-501,912	79,593	0,049	0,039
-500,897	-200,000	-0,015	0,071
-499,883	36,024	-0,081	0,052
-498,868	88,268	0,066	-0,053
-497,853	-200,000	-0,042	-0,155
-496,839	-95,081	-0,030	-0,006
-495,824	800,000	0,040	-0,095
-494,810	800,000	0,042	0,093
-493,795	-141,143	-0,041	0,003
-492,781	24,446	0,070	0,043
-491,766	800,000	-0,035	-0,092
-490,751	800,000	-0,042	-0,089
-489,737	-25,085	0,060	-0,026
-488,722	-16,881	-0,087	0,040
-487,708	477,035	0,058	0,096
-486,693	719,944	-0,024	-0,048
-485,678	-200,000	-0,019	-0,075
-484,664	65,570	0,078	-0,058
-483,649	243,491	-0,037	-0,045
-482,635	41,135	0,054	-0,036
-481,620	-53,278	0,116	0,039
-480,605	-137,918	-0,056	0,005
-479,591	800,000	0,028	-0,066
-478,576	-59,594	0,038	-0,012
-477,562	800,000	-0,040	-0,120
-476,547	800,000	-0,038	0,117
-475,532	195,810	-0,062	0,069
-474,518	45,336	-0,129	-0,087
-473,503	97,693	0,056	0,047
-472,489	196,745	-0,017	0,018
-471,474	-200,000	0,013	0,048
-470,459	261,269	-0,108	-0,137
-469,445	110,923	-0,055	0,049
-468,430	-101,513	-0,112	-0,020
-467,416	-78,563	-0,047	0,012
-466,401	-61,124	-0,111	-0,034
-465,386	-200,000	0,019	-0,119
-464,372	95,616	-0,045	-0,037
-463,357	153,406	0,057	-0,057
-462,343	553,271	0,049	-0,086
-461,328	800,000	-0,008	-0,020
-460,313	309,571	0,041	-0,057
-459,299	-86,879	-0,009	0,002
-458,284	800,000	-0,056	0,160
-457,270	800,000	0,012	0,040
-456,255	-200,000	-0,006	-0,038
-455,241	310,456	-0,015	0,021
-454,226	-200,000	0,019	-0,084
-453,211	419,138	-0,045	0,070
-452,197	-200,000	0,021	0,084
-451,182	219,631	-0,087	0,102
-450,168	259,907	0,110	0,139
-449,153	134,736	-0,043	0,041
-448,138	-200,000	0,005	-0,126
-447,124	27,552	-0,101	-0,062
-446,109	-71,254	0,116	0,032
-445,095	-200,000	0,015	0,102
-444,080	33,773	0,081	0,051
-443,065	-107,315	0,147	-0,023
-442,051	-156,440	-0,128	-0,006
-441,036	490,124	0,036	0,061
-440,022	-200,000	0,029	-0,131
-439,007	43,009	-0,019	-0,013
-437,992	26,774	-0,021	0,013
-436,978	310,272	0,113	0,155
-435,963	800,000	-0,060	-0,188
-434,949	751,556	0,052	-0,104
-433,934	-200,000	0,028	-0,115
-432,919	-200,000	0,006	-0,117
-431,905	-137,092	-0,009	0,001
-430,890	-111,685	0,054	0,008
-429,876	173,793	0,097	-0,103
-428,861	0,068	0,004	0,002
-427,846	636,515	-0,087	0,162
-426,832	-200,000	0,015	-0,161
-425,817	9,978	-0,138	0,076
-424,803	-132,128	0,148	-0,014
-423,788	-200,000	-0,021	0,072
-422,773	-135,817	0,047	-0,004
-421,759	6,475	0,128	-0,069
-420,744	-200,000	0,007	-0,068
-419,730	800,000	-0,065	0,156
-418,715	-61,370	-0,096	0,029
-417,701	-200,000	-0,009	-0,063
-416,686	677,840	0,019	0,037
-415,671	-101,411	-0,061	0,011
-414,657	170,155	0,086	0,090
-413,642	11,458	-0,010	0,006
-412,628	-38,870	-0,123	-0,047
-411,613	461,941	-0,092	-0,150
-410,598	113,339	-0,072	-0,064
-409,584	-200,000	-0,026	-0,148
-408,569	-55,214	-0,156	0,051
-407,555	438,834	0,061	0,098
-406,540	395,205	-0,097	0,148
-405,525	4,667	0,025	-0,014
-404,511	-200,000	-0,012	-0,042
-403,496	195,553	0,075	0,083
-402,482	112,239	-0,055	-0,049
-401,467	573,079	0,061	0,109
-400,452	-200,000	-0,014	0,086
-399,438	-200,000	0,039	0,000
-398,423	800,000	-0,009	0,022
-397,409	800,000	-0,008	0,020
-396,394	-21,410	-0,085	0,038
-395,379	566,417	0,018	-0,033
-394,365	9,433	0,145	0,080
-393,350	496,653	-0,042	0,071
-392,336	775,589	-0,072	0,144
-391,321	-48,034	-0,019	-0,007
-390,306	82,264	-0,072	-0,057
-389,292	-101,730	-0,121	-0,021
-388,277	18,590	0,057	-0,033
-387,263	678,727	0,035	-0,068
-386,248	-200,000	0,014	0,101
-385,233	-200,000	0,009	0,091
-384,219	83,284	-0,129	0,103
-383,204	-92,740	-0,060	0,012
-382,190	39,280	-0,068	-0,044
-381,175	-58,668	0,108	-0,034
-380,160	-141,353	0,101	0,007
-379,146	-8,289	-0,079	0,039
-378,131	111,681	-0,056	-0,049
-377,117	-88,913	0,179	0,038
-376,102	504,188	0,046	0,078
-375,088	-200,000	-0,007	-0,162
-374,073	-41,344	-0,119	-0,045
-373,058	-26,254	0,090	-0,039
-372,044	-135,682	-0,047	0,004
-371,029	53,412	-0,086	-0,060
-370,015	800,000	0,040	-0,088
-369,000	384,500	-0,032	0,048
-367,985	434,515	0,032	-0,050
-366,971	205,354	0,027	-0,030
-365,956	-28,274	-0,101	0,042
-364,942	0,810	0,149	0,078
-363,927	83,109	-0,055	0,044
-362,912	-41,564	-0,098	0,036
-361,898	174,836	0,101	-0,107
-360,883	-200,000	0,024	-0,110
-359,869	170,348	-0,215	0,224
-358,854	563,051	0,069	0,123
-357,839	473,703	0,040	-0,066
-356,825	529,014	0,049	-0,085
-355,810	138,663	-0,033	-0,032
-354,796	800,000	-0,034	-0,074
-353,781	800,000	-0,034	0,097
-352,766	-121,768	0,038	-0,005
-351,752	228,024	0,058	-0,069
-350,737	15,877	0,032	0,018
-349,723	20,501	0,091	0,053
-348,708	-200,000	0,011	0,055
-347,693	800,000	-0,041	0,091
-346,679	63,410	-0,029	-0,021
-345,664	595,938	-0,069	0,125
-344,650	26,423	0,139	-0,084
-343,635	8,028	0,045	0,025
-342,620	349,853	0,110	0,159
-341,606	-200,000	0,005	-0,086
-340,591	-200,000	-0,029	-0,114
-339,577	800,000	0,023	-0,065
-338,562	-83,239	-0,046	0,011
-337,548	-134,585	0,070	0,006
-336,533	378,282	0,056	-0,084
-335,518	761,128	0,029	0,058
-334,504	211,103	0,018	-0,020
-333,489	-22,960	0,037	-0,016
-332,475	-176,063	-0,068	0,001
-331,460	-200,000	-0,001	-0,134
-330,445	155,446	-0,037	0,038
-329,431	-200,000	0,001	0,006
-328,416	-138,383	0,140	0,011
-327,402	800,000	0,027	0,063
-326,387	207,953	-0,080	0,091
-325,372	-200,000	-0,012	-0,152
-324,358	-66,519	-0,063	-0,018
-323,343	343,766	0,077	0,110
-322,329	-78,422	0,129	0,032
-321,314	-200,000	-0,011	0,099
-320,299	-104,452	0,100	0,017
-319,285	-200,000	-0,009	-0,089
-318,270	-200,000	0,015	0,064
-317,256	800,000	-0,072	-0,150
-316,241	226,081	-0,040	0,048
-315,226	-111,458	0,167	-0,025
-314,212	-200,000	-0,004	0,031
-313,197	-200,000	-0,001	0,117
-312,183	-30,752	0,186	0,076
-311,168	-87,346	-0,026	0,006
-310,153	354,181	-0,047	0,068
-309,139	202,440	-0,042	-0,048
-308,124	296,416	-0,043	0,058
-307,110	-200,000	0,031	0,162
-306,095	-118,506	0,117	0,015
-305,080	-200,000	-0,001	0,207
-304,066	-200,000	-0,012	0,119
-303,051	341,495	0,033	0,047
-302,037	433,536	-0,036	-0,056
-301,022	141,742	0,047	0,045
-300,008	-157,553	0,174	0,007
-298,993	800,000	-0,069	0,213
-297,978	186,690	0,014	0,015
-296,964	800,000	0,029	-0,076
-295,949	66,801	-0,087	0,064
-294,935	-81,936	0,055	-0,013
-293,920	-200,000	-0,007	-0,028
-292,905	-200,000	0,006	0,048
-291,891	-200,000	-0,014	0,118
-290,876	-200,000	0,018	0,060
-289,862	-152,329	-0,155	0,008
-288,847	800,000	0,031	-0,075
-287,832	704,149	-0,026	-0,050
-286,818	-200,000	-0,020	0,079
-285,803	454,907	0,085	-0,137
-284,789	800,000	0,085	0,217
-283,774	10,452	0,141	0,078
-282,759	-86,772	-0,064	0,014
-281,745	404,650	-0,077	0,119
-280,730	800,000	0,036	0,100
-279,716	800,000	0,045	0,128
-278,701	196,216	0,152	0,168
-277,686	-43,755	-0,037	0,014
-276,672	-75,794	-0,035	0,009
-275,657	85,542	0,103	0,082
-274,643	66,291	-0,061	-0,045
-273,628	-200,000	-0,037	-0,208
-272,613	-200,000	-0,008	-0,060
-271,599	-200,000	-0,014	-0,078
-270,584	-10,966	0,122	0,058
-269,570	-34,666	-0,071	-0,028
-268,555	-200,000	0,007	0,068
-267,540	391,620	-0,050	0,076
-266,526	-200,000	0,004	-0,140
-265,511	311,887	-0,042	-0,057
-264,497	146,165	0,062	0,061
-263,482	-71,908	0,069	0,019
-262,467	-0,844	0,167	0,086
-261,453	-88,025	0,021	0,005
-260,438	800,000	-0,030	-0,081
-259,424	112,821	0,050	-0,044
-258,409	-98,012	-0,146	-0,027
-257,395	149,336	0,094	-0,093
-256,380	-200,000	-0,018	0,063
-255,365	-21,680	-0,022	0,010
-254,351	210,957	0,087	-0,100
-253,336	800,000	-0,069	-0,141
-252,322	121,154	0,164	-0,148
-251,307	-76,962	0,067	0,017
-250,292	319,192	0,065	0,089
-249,278	222,974	0,145	-0,169
-248,263	111,971	0,002	0,002
-247,249	95,759	0,058	0,048
-246,234	527,993	0,085	0,145
-245,219	-37,601	-0,115	0,044
-244,205	-45,482	0,086	0,031
-243,190	800,000	-0,038	-0,077
-242,176	234,601	0,076	-0,091
-241,161	336,891	0,027	-0,038
-240,146	-191,244	-0,133	-0,001
-239,132	-5,176	0,092	0,046
-238,117	-16,047	-0,049	0,023
-237,103	14,066	-0,067	-0,038
-236,088	-200,000	-0,023	0,119
-235,073	-5,432	-0,057	0,028
-234,059	-44,564	0,124	0,045
-233,044	105,002	0,088	0,075
-232,030	-200,000	0,025	-0,162
-231,015	-89,895	-0,146	0,031
-230,000	-200,000	0,011	0,098
-228,986	-200,000	0,022	-0,203
-227,971	61,374	-0,091	-0,065
-226,957	764,146	-0,020	0,040
-225,942	-200,000	-0,001	-0,013
-224,927	-49,406	-0,145	0,050
-223,913	-67,509	-0,106	0,030
-222,898	-200,000	-0,001	0,070
-221,884	-200,000	-0,012	0,069
-220,869	82,353	-0,031	-0,025
-219,855	87,594	0,041	-0,033
-218,840	-200,000	-0,021	0,141
-217,825	295,291	0,141	0,187
-216,811	190,596	-0,061	-0,067
-215,796	259,494	0,024	-0,031
-214,782	463,882	0,051	-0,083
-213,767	316,028	0,033	-0,046
-212,752	63,479	-0,061	-0,045
-211,738	800,000	0,017	-0,035
-210,723	134,115	0,044	0,041
-209,709	-73,830	-0,100	0,026
-208,694	64,901	-0,031	0,023
-207,679	44,470	-0,096	-0,063
-206,665	404,096	0,122	0,187
-205,650	800,000	-0,039	0,118
-204,636	26,139	-0,038	0,023
-203,621	-110,891	-0,089	0,013
-202,606	26,572	-0,121	0,073
-201,592	-105,773	-0,091	-0,015
-200,577	-117,204	0,103	0,013
-199,563	228,112	0,072	-0,085
-198,548	-68,950	-0,023	0,006
-197,533	86,467	0,070	0,056
-196,519	-200,000	-0,007	-0,090
-195,504	308,235	0,034	-0,045
-194,490	-128,102	0,107	-0,011
-193,475	708,879	-0,070	-0,135
-192,460	230,662	-0,102	-0,121
-191,446	-200,000	0,080	0,000
-190,431	-45,502	0,082	-0,029
-189,417	30,364	0,073	-0,045
-188,402	-33,753	0,033	-0,013
-187,387	200,840	0,052	0,058
-186,373	-68,769	-0,112	-0,031
-185,358	756,284	-0,051	-0,101
-184,344	-200,000	0,007	-0,074
-183,329	-200,000	-0,020	-0,127
-182,315	-19,690	0,075	-0,034
-181,300	-35,214	0,013	-0,005
-180,285	18,493	-0,079	0,045
-179,271	-46,716	-0,067	0,023
-178,256	800,000	0,012	0,030
-177,242	-128,499	0,051	0,005
-176,227	-200,000	0,001	0,038
-175,212	14,965	0,109	0,061
-174,198	-14,965	-0,101	0,047
-173,183	-172,599	-0,131	0,003
-172,169	27,773	0,090	-0,055
-171,154	800,000	-0,003	0,009
-170,139	40,834	-0,023	-0,015
-169,125	-79,223	0,006	0,001
-168,110	40,727	0,059	0,039
-167,096	-200,000	0,001	0,061
-166,081	800,000	0,049	0,136
-165,066	-11,113	0,058	-0,028
-164,052	539,773	0,051	-0,087
-163,037	301,785	0,026	-0,035
-162,023	-200,000	0,023	0,133
-161,008	-44,022	0,059	-0,021
-159,993	-10,743	-0,153	0,073
-158,979	800,000	0,022	-0,054
-157,964	-200,000	0,025	0,081
-156,950	-200,000	-0,005	-0,042
-155,935	91,413	-0,100	-0,081
-154,920	-123,167	-0,082	0,009
-153,906	-37,075	0,040	-0,015
-152,891	264,883	-0,068	0,085
-151,877	800,000	0,060	-0,180
-150,862	-131,158	-0,233	0,022
-149,847	800,000	0,013	0,035
-148,833	-200,000	0,038	0,165
-147,818	-57,042	-0,102	0,032
-146,804	12,023	-0,067	0,037
-145,789	-200,000	0,032	0,127
-144,775	5,376	0,014	0,008
-143,760	-15,663	-0,091	-0,042
-142,745	390,746	-0,118	-0,178
-141,731	75,894	-0,085	-0,065
-140,716	-47,938	0,160	0,056
-139,702	210,696	-0,081	-0,092
-138,687	800,000	-0,031	-0,079
-137,672	-145,090	-0,095	0,006
-136,658	-21,351	-0,118	-0,052
-135,643	26,253	0,041	-0,025
-134,629	-32,771	0,072	0,029
-133,614	-200,000	0,052	-0,169
-132,599	-84,282	0,249	0,056
-131,585	800,000	0,018	-0,050
-130,570	-200,000	-0,010	0,048
-129,556	-200,000	0,021	0,079
-128,541	-200,000	-0,018	-0,160
-127,526	180,973	-0,098	0,104
-126,512	-30,932	0,084	-0,034
-125,497	373,835	-0,137	0,202
-124,483	-109,829	0,089	0,013
-123,468	-149,891	0,118	0,007
-122,453	-200,000	-0,011	-0,108
-121,439	-200,000	-0,025	-0,089
-120,424	-167,892	0,066	-0,002
-119,410	-200,000	0,010	-0,044
