DTS Sentinel unit serial number:	SN410029Multiplexer serial number:	ORYXHardware model number:	OX2-SRSoftware version number:	ORYX F/W v4,00 Oryx Data Collector v3.7.2.0data status	okinstallation	B4 Nyhavnadifferential loss correction	single-endedforward channel	channel 2reverse channel	N/Adate	2023/12/16time	04:55:13forward acquisition time	300,00reverse acquisition time	0,00gamma	499,1914k internal	0,3128k external	0,3128temperature offset calibration	1,0000default loss term (dB/km)	0,3820temperature slope calibration	1,0000multiplexer offset coefficient	1,0000multiplexer slope coefficient	1,0000fibre end	0,00T internal ref (°C)	22,03T ext. ref 1 (°C)	7,16T ext. ref 2 (°C)	7,38length (m)	temperature (°C)	Stokes	anti-Stokes-744,400	-200,000	0,035	-0,151
-743,385	-58,687	-0,131	0,042
-742,371	-62,400	-0,086	0,026
-741,356	-19,752	-0,109	0,050
-740,342	424,090	-0,040	0,064
-739,327	-196,958	-0,261	0,001
-738,312	6,882	0,153	0,084
-737,298	-9,911	-0,272	0,134
-736,283	-11,052	0,047	-0,023
-735,269	-52,573	-0,176	0,060
-734,254	-125,951	-0,080	0,009
-733,239	-93,190	-0,392	-0,080
-732,225	-48,800	0,243	0,086
-731,210	-200,000	-0,004	-0,049
-730,196	-129,763	-0,133	0,013
-729,181	625,243	-0,027	0,052
-728,167	-111,366	-0,061	-0,009
-727,152	800,000	0,012	0,031
-726,137	-0,398	-0,089	-0,047
-725,123	800,000	-0,053	-0,152
-724,108	410,256	-0,068	-0,107
-723,094	-200,000	-0,031	-0,231
-722,079	-105,310	-0,110	0,018
-721,064	-105,138	-0,137	0,023
-720,050	-75,191	0,092	-0,024
-719,035	-5,882	-0,104	0,053
-718,021	-24,702	-0,078	-0,035
-717,006	-3,825	-0,103	-0,053
-715,991	710,724	-0,026	-0,052
-714,977	-91,754	0,076	0,016
-713,962	-200,000	-0,009	-0,153
-712,948	-34,141	-0,121	0,049
-711,933	-200,000	0,001	-0,042
-710,918	800,000	-0,084	-0,184
-709,904	-200,000	0,015	-0,191
-708,889	240,796	-0,043	0,053
-707,875	-17,391	-0,130	0,060
-706,860	185,412	0,091	-0,101
-705,845	560,813	-0,054	0,097
-704,831	133,772	0,062	0,060
-703,816	263,198	0,017	0,023
-702,802	-12,351	-0,074	0,036
-701,787	-147,479	0,065	0,004
-700,772	800,000	-0,017	-0,043
-699,758	-180,294	-0,097	-0,001
-698,743	800,000	-0,003	0,007
-697,729	-200,000	0,018	0,067
-696,714	-200,000	-0,002	-0,048
-695,699	-200,000	-0,005	-0,021
-694,685	-128,177	-0,139	-0,015
-693,670	-39,957	-0,155	-0,060
-692,656	-28,135	0,050	0,022
-691,641	800,000	0,012	-0,030
-690,627	-79,053	-0,045	-0,011
-689,612	61,924	-0,065	-0,048
-688,597	800,000	0,033	-0,100
-687,583	132,066	-0,103	-0,099
-686,568	417,958	0,039	0,062
-685,554	-14,710	-0,064	0,031
-684,539	-200,000	0,008	-0,027
-683,524	639,613	0,047	0,088
-682,510	-200,000	0,008	-0,058
-681,495	-110,390	-0,024	0,004
-680,481	-200,000	-0,008	-0,105
-679,466	-24,515	0,018	0,008
-678,451	-121,241	-0,102	0,013
-677,437	800,000	-0,037	0,098
-676,422	93,348	0,102	0,086
-675,408	312,008	0,044	-0,062
-674,393	147,494	-0,157	0,157
-673,378	798,349	0,036	0,073
-672,364	661,536	-0,068	0,130
-671,349	-200,000	-0,129	0,000
-670,335	-200,000	0,024	-0,091
-669,320	-15,666	0,173	-0,082
-668,305	800,000	0,010	-0,025
-667,291	233,374	-0,109	0,133
-666,276	295,246	-0,070	-0,096
-665,262	94,579	0,010	-0,008
-664,247	588,815	0,038	-0,070
-663,232	-112,901	0,125	0,018
-662,218	-200,000	0,029	0,173
-661,203	-10,809	0,034	0,017
-660,189	-200,000	0,006	-0,025
-659,174	176,184	-0,028	-0,030
-658,159	800,000	-0,037	-0,078
-657,145	611,683	0,023	0,043
-656,130	396,866	-0,014	0,022
-655,116	-200,000	-0,015	-0,079
-654,101	800,000	-0,035	-0,074
-653,086	800,000	-0,019	-0,042
-652,072	210,091	-0,061	-0,071
-651,057	-10,947	-0,087	0,043
-650,043	-121,833	0,032	-0,004
-649,028	5,729	0,129	-0,071
-648,014	-200,000	-0,006	-0,036
-646,999	-96,783	-0,031	-0,006
-645,984	-71,977	-0,141	-0,039
-644,970	302,087	0,064	0,087
-643,955	-200,000	-0,043	-0,186
-642,941	-200,000	-0,012	-0,190
-641,926	529,571	-0,042	-0,074
-640,911	-200,000	0,011	0,058
-639,897	800,000	0,012	-0,026
-638,882	110,406	-0,076	0,068
-637,868	800,000	0,010	0,021
-636,853	-14,734	0,053	0,025
-635,838	68,318	0,133	-0,101
-634,824	697,824	-0,017	-0,033
-633,809	-0,405	-0,043	-0,022
-632,795	151,743	-0,035	-0,036
-631,780	-117,789	0,066	0,009
-630,765	100,937	-0,081	0,070
-629,751	-200,000	-0,009	0,040
-628,736	88,230	0,040	0,033
-627,722	-139,084	-0,068	-0,005
-626,707	-22,244	-0,090	0,040
-625,692	21,968	-0,047	-0,028
-624,678	-53,235	-0,201	-0,068
-623,663	-79,617	-0,062	0,015
-622,649	531,708	-0,072	-0,127
-621,634	42,268	-0,078	-0,052
-620,619	-55,997	0,098	-0,032
-619,605	288,882	-0,005	-0,007
-618,590	-200,000	0,023	0,139
-617,576	105,742	-0,083	0,073
-616,561	179,008	0,061	0,066
-615,546	613,427	-0,024	-0,045
-614,532	574,725	-0,042	-0,076
-613,517	800,000	-0,040	-0,100
-612,503	249,823	0,055	-0,069
-611,488	167,085	-0,043	-0,046
-610,474	-117,889	-0,094	-0,012
-609,459	-200,000	-0,015	0,074
-608,444	137,315	-0,040	-0,039
-607,430	135,837	0,012	0,011
-606,415	-63,223	0,061	0,018
-605,401	663,466	0,025	0,048
-604,386	21,184	0,161	0,096
-603,371	105,764	0,096	-0,084
-602,357	-200,000	0,005	-0,017
-601,342	16,687	-0,092	-0,054
-600,328	-148,453	0,026	0,002
-599,313	-63,561	-0,075	-0,023
-598,298	-46,615	-0,121	-0,043
-597,284	-17,507	0,096	0,044
-596,269	614,334	0,046	0,086
-595,255	-200,000	-0,022	0,087
-594,240	-103,940	-0,086	0,015
-593,225	-75,343	-0,037	0,010
-592,211	161,087	-0,070	-0,072
-591,196	332,157	0,023	-0,033
-590,182	197,868	-0,116	-0,131
-589,167	800,000	-0,028	0,069
-588,152	16,393	0,069	-0,040
-587,138	-200,000	0,007	0,092
-586,123	257,940	-0,098	-0,125
-585,109	800,000	0,058	-0,140
-584,094	-200,000	-0,141	-0,000
-583,079	-94,501	-0,102	0,020
-582,065	-57,165	-0,117	0,038
-581,050	-86,582	-0,160	0,036
-580,036	-92,575	0,119	-0,024
-579,021	-200,000	-0,021	-0,179
-578,006	-200,000	-0,027	-0,137
-576,992	57,527	-0,139	-0,100
-575,977	-91,362	-0,132	-0,028
-574,963	476,668	0,037	0,061
-573,948	-134,486	-0,026	-0,002
-572,934	-10,205	-0,042	-0,020
-571,919	-128,785	0,119	-0,012
-570,904	-106,058	-0,092	-0,015
-569,890	-200,000	-0,022	-0,120
-568,875	800,000	0,081	0,202
-567,861	221,044	0,042	0,050
-566,846	-200,000	0,013	-0,073
-565,831	329,925	0,072	0,103
-564,817	17,570	0,106	-0,062
-563,802	6,729	-0,069	-0,038
-562,788	-12,178	0,126	0,061
-561,773	250,501	0,121	-0,152
-560,758	-98,308	0,015	0,003
-559,744	-127,108	0,124	0,013
-558,729	-200,000	0,003	0,076
-557,715	39,197	-0,124	-0,082
-556,700	-200,000	-0,012	0,043
-555,685	537,039	0,040	-0,070
-554,671	800,000	-0,063	-0,137
-553,656	52,740	0,152	0,107
-552,642	397,822	-0,028	-0,043
-551,627	-3,552	0,084	0,043
-550,612	-200,000	0,012	-0,078
-549,598	-84,185	0,056	0,013
-548,583	619,398	0,039	-0,072
-547,569	800,000	-0,042	-0,093
-546,554	99,845	0,094	-0,081
-545,539	-200,000	0,012	0,047
-544,525	-200,000	-0,002	-0,057
-543,510	800,000	0,007	0,014
-542,496	800,000	-0,034	-0,094
-541,481	-50,774	-0,190	0,065
-540,466	-200,000	0,014	-0,070
-539,452	-62,701	0,150	0,046
-538,437	435,060	0,056	0,089
-537,423	-144,262	0,055	-0,004
-536,408	-200,000	-0,016	-0,059
-535,393	349,282	-0,048	-0,071
-534,379	-132,771	-0,076	0,007
-533,364	71,876	0,011	0,008
-532,350	-157,655	0,052	-0,002
-531,335	800,000	0,008	-0,016
-530,321	-61,660	0,074	-0,023
-529,306	-200,000	0,001	0,051
-528,291	226,030	0,006	0,007
-527,277	-31,314	0,081	-0,033
-526,262	284,257	0,035	-0,047
-525,248	-160,194	0,173	-0,007
-524,233	-2,796	0,120	0,062
-523,218	246,267	-0,083	0,104
-522,204	-18,615	0,097	-0,044
-521,189	756,074	-0,024	-0,048
-520,175	-39,272	-0,172	0,066
-519,160	550,309	0,033	0,059
-518,145	92,261	0,037	0,031
-517,131	-139,596	0,016	0,001
-516,116	-142,231	0,177	-0,013
-515,102	174,842	-0,058	0,062
-514,087	217,286	-0,035	-0,042
-513,072	-200,000	-0,006	0,111
-512,058	323,753	-0,038	-0,053
-511,043	64,755	0,019	-0,014
-510,029	-126,605	0,089	0,010
-509,014	217,797	0,036	0,042
-507,999	-3,842	-0,061	-0,031
-506,985	-50,778	-0,120	-0,042
-505,970	-200,000	-0,004	0,037
-504,956	464,375	0,063	0,104
-503,941	-61,918	0,024	-0,007
-502,926	541,677	0,060	0,106
-501,912	-200,000	0,025	-0,100
-500,897	99,826	-0,114	0,097
-499,883	-0,108	-0,046	0,024
-498,868	150,595	-0,055	0,055
-497,853	55,516	-0,117	0,083
-496,839	-200,000	0,046	-0,205
-495,824	-200,000	0,024	0,101
-494,810	387,329	0,040	0,062
-493,795	-46,861	-0,192	-0,069
-492,781	-69,587	-0,123	0,035
-491,766	-200,000	-0,016	-0,070
-490,751	-200,000	0,013	-0,050
-489,737	-12,869	0,022	-0,010
-488,722	95,110	0,056	-0,047
-487,708	158,192	0,105	0,108
-486,693	-200,000	-0,025	0,110
-485,678	-59,551	-0,077	-0,024
-484,664	-4,345	-0,151	-0,077
-483,649	66,780	0,093	0,070
-482,635	-70,939	0,155	0,043
-481,620	-163,765	0,097	0,003
-480,605	-124,671	0,226	0,026
-479,591	-54,795	-0,052	0,017
-478,576	-200,000	0,011	-0,087
-477,562	105,142	0,061	-0,053
-476,547	122,445	-0,066	-0,061
-475,532	-200,000	-0,001	0,010
-474,518	-66,549	0,090	0,026
-473,503	-200,000	0,017	-0,136
-472,489	-200,000	0,001	-0,008
-471,474	225,351	0,045	-0,054
-470,459	800,000	-0,037	-0,097
-469,445	-111,401	0,032	-0,005
-468,430	108,746	0,049	-0,043
-467,416	-200,000	0,010	0,149
-466,401	177,949	-0,029	-0,032
-465,386	800,000	0,025	-0,060
-464,372	83,468	0,065	-0,052
-463,357	295,807	-0,038	0,052
-462,343	87,268	-0,076	-0,062
-461,328	800,000	0,025	-0,082
-460,313	-137,724	0,017	-0,001
-459,299	144,607	0,039	0,038
-458,284	-200,000	-0,001	0,023
-457,270	196,372	-0,080	0,090
-456,255	-163,717	-0,063	-0,002
-455,241	434,391	-0,086	0,138
-454,226	-62,213	0,078	0,024
-453,211	-200,000	-0,010	0,196
-452,197	800,000	-0,004	-0,010
-451,182	-169,069	0,140	-0,004
-450,168	-200,000	-0,011	0,158
-449,153	-200,000	-0,004	0,016
-448,138	10,947	-0,097	-0,055
-447,124	10,550	0,136	-0,076
-446,109	-200,000	0,013	-0,094
-445,095	224,269	0,047	0,056
-444,080	-41,642	0,042	0,016
-443,065	-170,418	-0,131	-0,003
-442,051	-105,297	0,041	-0,007
-441,036	-155,268	0,040	0,002
-440,022	-52,414	-0,069	0,023
-439,007	2,558	-0,066	0,035
-437,992	800,000	0,033	-0,103
-436,978	800,000	0,022	-0,058
-435,963	800,000	-0,038	0,097
-434,949	-200,000	-0,006	-0,094
-433,934	27,830	-0,106	-0,066
-432,919	-112,009	-0,091	-0,013
-431,905	-73,436	-0,031	0,008
-430,890	800,000	0,044	0,131
-429,876	556,089	-0,071	0,126
-428,861	16,091	0,066	0,038
-427,846	90,951	-0,056	-0,046
-426,832	428,683	-0,021	0,034
-425,817	18,528	0,059	-0,035
-424,803	342,339	0,023	0,034
-423,788	265,854	0,117	0,151
-422,773	-200,000	0,036	0,204
-421,759	622,497	0,017	-0,031
-420,744	244,247	-0,045	-0,056
-419,730	201,551	0,094	-0,106
-418,715	-23,184	-0,085	0,038
-417,701	116,703	-0,107	-0,097
-416,686	-33,949	-0,133	-0,054
-415,671	33,197	0,104	-0,066
-414,657	800,000	-0,021	0,055
-413,642	-200,000	-0,003	-0,065
-412,628	-111,679	0,043	-0,006
-411,613	-113,772	-0,073	-0,010
-410,598	442,222	0,035	-0,056
-409,584	-70,265	0,072	-0,020
-408,569	-200,000	-0,006	0,034
-407,555	-200,000	0,016	0,147
-406,540	328,338	-0,033	0,046
-405,525	102,101	0,018	0,015
-404,511	-35,940	-0,123	-0,048
-403,496	800,000	0,022	-0,060
-402,482	268,236	0,047	0,060
-401,467	139,533	0,041	0,040
-400,452	-19,795	0,079	0,036
-399,438	800,000	0,031	0,081
-398,423	-124,310	-0,175	0,020
-397,409	40,815	0,095	-0,063
-396,394	168,499	-0,064	-0,067
-395,379	105,769	-0,054	0,047
-394,365	382,773	0,079	0,120
-393,350	-189,020	0,117	0,001
-392,336	87,887	-0,024	-0,020
-391,321	252,983	0,063	-0,079
-390,306	10,965	0,112	0,063
-389,292	-62,632	-0,060	0,018
-388,277	318,398	0,026	0,036
-387,263	161,037	0,145	0,149
-386,248	-36,055	0,130	-0,051
-385,233	800,000	-0,050	0,106
-384,219	-160,012	0,087	-0,003
-383,204	707,945	-0,083	-0,161
-382,190	800,000	0,016	0,047
-381,175	20,390	-0,062	0,036
-380,160	-142,845	0,124	-0,009
-379,146	695,581	-0,033	0,065
-378,131	-22,965	0,079	0,035
-377,117	374,667	-0,072	-0,108
-376,102	-102,094	0,157	0,027
-375,088	-200,000	0,001	-0,165
-374,073	-0,083	-0,138	0,072
-373,058	148,052	0,137	0,136
-372,044	197,760	0,022	0,025
-371,029	-64,415	0,083	-0,025
-370,015	-95,561	0,131	0,026
-369,000	-29,484	-0,105	-0,044
-367,985	139,859	0,126	-0,122
-366,971	800,000	0,058	-0,161
-365,956	-97,310	0,044	-0,008
-364,942	-200,000	0,002	-0,010
-363,927	238,902	-0,063	-0,077
-362,912	800,000	-0,014	-0,030
-361,898	-41,098	-0,178	0,067
-360,883	-81,748	0,115	-0,028
-359,869	52,482	0,081	-0,057
-358,854	800,000	-0,016	-0,038
-357,839	16,133	-0,043	0,025
-356,825	15,720	0,065	0,038
-355,810	0,529	-0,101	0,053
-354,796	-124,020	0,061	0,007
-353,781	-200,000	0,034	0,150
-352,766	39,850	-0,053	0,035
-351,752	-77,450	0,012	0,003
-350,737	167,437	0,106	0,111
-349,723	-121,997	-0,107	0,013
-348,708	180,570	0,047	0,051
-347,693	800,000	0,101	0,241
-346,679	241,603	-0,028	-0,035
-345,664	193,234	-0,081	-0,090
-344,650	-154,734	-0,078	0,004
-343,635	800,000	-0,035	0,078
-342,620	499,704	-0,112	0,190
-341,606	90,194	-0,101	-0,083
-340,591	-200,000	-0,014	0,107
-339,577	-200,000	-0,009	0,059
-338,562	800,000	-0,070	-0,206
-337,548	312,674	0,032	0,044
-336,533	-16,389	0,110	-0,051
-335,518	147,769	0,102	-0,101
-334,504	800,000	0,013	-0,026
-333,489	800,000	-0,017	0,047
-332,475	-200,000	-0,001	0,035
-331,460	79,293	0,026	0,021
-330,445	-51,776	0,051	-0,017
-329,431	-200,000	0,027	-0,092
-328,416	-200,000	-0,030	-0,101
-327,402	220,043	-0,028	-0,033
-326,387	-36,536	0,199	-0,078
-325,372	201,830	0,031	-0,035
-324,358	-200,000	0,002	-0,075
-323,343	379,815	0,045	0,067
-322,329	-200,000	0,034	0,123
-321,314	-111,567	-0,044	0,007
-320,299	-91,820	0,128	0,026
-319,285	-19,959	0,172	0,078
-318,270	22,574	0,113	0,068
-317,256	800,000	0,030	0,079
-316,241	489,670	0,064	-0,107
-315,226	800,000	0,034	-0,088
-314,212	371,341	0,031	-0,046
-313,197	-49,868	-0,075	-0,026
-312,183	-200,000	0,044	0,151
-311,168	52,071	0,123	0,085
-310,153	-115,163	-0,095	-0,013
-309,139	199,512	-0,053	0,059
-308,124	-200,000	0,020	-0,137
-307,110	152,645	0,058	0,058
-306,095	18,164	-0,141	0,082
-305,080	97,080	0,046	0,039
-304,066	-200,000	0,007	0,153
-303,051	-200,000	0,041	-0,135
-302,037	107,385	0,027	-0,023
-301,022	-200,000	-0,012	-0,113
-300,008	312,472	-0,058	0,080
-298,993	168,578	0,038	0,040
-297,978	86,933	0,069	0,055
-296,964	333,183	-0,073	-0,103
-295,949	326,632	-0,137	0,193
-294,935	-56,535	0,020	0,007
-293,920	-174,836	-0,098	0,002
-292,905	-50,062	0,112	0,038
-291,891	381,897	-0,045	-0,069
-290,876	-172,077	-0,125	-0,003
-289,862	743,659	0,073	0,145
-288,847	-62,694	0,057	-0,017
-287,832	45,611	-0,087	0,059
-286,818	-200,000	0,008	0,076
-285,803	-2,917	-0,027	0,014
-284,789	-200,000	0,021	0,088
-283,774	62,567	0,090	0,066
-282,759	-178,552	-0,109	-0,002
-281,745	-147,812	-0,032	-0,002
-280,730	86,044	-0,128	-0,103
-279,716	42,163	-0,173	0,115
-278,701	76,909	-0,048	-0,037
-277,686	418,842	-0,056	-0,087
-276,672	800,000	0,052	-0,126
-275,657	-200,000	-0,003	-0,102
-274,643	-70,539	-0,119	-0,033
-273,628	37,102	-0,113	-0,073
-272,613	222,147	-0,027	-0,031
-271,599	748,827	-0,004	-0,008
-270,584	-9,165	0,052	0,025
-269,570	-200,000	-0,033	0,129
-268,555	-200,000	-0,014	0,084
-267,540	445,581	0,049	-0,079
-266,526	76,449	0,046	0,035
-265,511	-131,425	-0,046	-0,004
-264,497	800,000	0,060	-0,124
-263,482	-22,078	-0,024	-0,011
-262,467	-26,383	-0,071	0,030
-261,453	-61,108	0,065	-0,020
-260,438	800,000	0,059	0,130
-259,424	-200,000	0,007	0,059
-258,409	-200,000	0,012	-0,092
-257,395	-18,461	-0,037	-0,017
-256,380	-200,000	-0,027	0,231
-255,365	-200,000	0,025	0,123
-254,351	-12,884	0,091	0,043
-253,336	183,920	-0,082	0,089
-252,322	-200,000	0,046	-0,175
-251,307	800,000	-0,082	-0,195
-250,292	-200,000	-0,038	-0,156
-249,278	150,809	0,162	0,160
-248,263	-200,000	0,017	0,065
-247,249	-173,547	0,057	0,001
-246,234	-151,829	-0,104	-0,005
-245,219	31,776	-0,050	0,032
-244,205	800,000	0,011	-0,032
-243,190	128,072	-0,044	0,041
-242,176	139,621	0,100	-0,096
-241,161	270,616	0,032	0,041
-240,146	745,909	-0,017	-0,033
-239,132	-67,866	-0,125	-0,035
-238,117	800,000	-0,011	0,031
-237,103	-60,509	-0,138	-0,043
-236,088	292,202	-0,012	-0,016
-235,073	-200,000	0,024	0,126
-234,059	114,784	0,110	0,098
-233,044	-200,000	0,014	0,099
-232,030	800,000	-0,047	-0,127
-231,015	800,000	0,010	-0,027
-230,000	196,282	-0,088	0,098
-228,986	36,278	-0,087	-0,056
-227,971	800,000	0,066	0,150
-226,957	196,791	-0,032	0,035
-225,942	130,569	-0,044	-0,041
-224,927	128,950	0,076	-0,071
-223,913	25,264	-0,067	-0,040
-222,898	800,000	-0,059	0,147
-221,884	48,115	0,045	0,031
-220,869	-77,876	-0,138	0,035
-219,855	153,837	0,108	0,108
-218,840	80,618	-0,172	0,135
-217,825	516,996	-0,013	-0,023
-216,811	562,158	-0,025	-0,044
-215,796	276,688	0,067	-0,087
-214,782	28,516	-0,045	0,028
-213,767	-193,405	-0,076	0,000
-212,752	-200,000	-0,016	0,065
-211,738	800,000	-0,028	-0,078
-210,723	-200,000	-0,018	-0,062
-209,709	-200,000	-0,020	-0,083
-208,694	26,557	-0,020	0,012
-207,679	-200,000	-0,000	0,066
-206,665	43,632	0,151	-0,101
-205,650	177,420	-0,063	0,067
-204,636	-10,761	0,068	0,033
-203,621	531,666	-0,066	-0,115
-202,606	800,000	-0,044	-0,122
-201,592	73,892	-0,101	-0,077
-200,577	369,613	0,035	-0,051
-199,563	800,000	0,025	-0,079
-198,548	-45,308	0,116	0,042
-197,533	-149,604	-0,052	0,003
-196,519	-200,000	0,017	0,059
-195,504	-200,000	-0,013	-0,041
-194,490	64,890	-0,070	-0,051
-193,475	800,000	0,032	0,076
-192,460	23,982	0,101	0,060
-191,446	246,541	-0,064	0,079
-190,431	62,995	0,080	0,058
-189,417	800,000	-0,048	0,154
-188,402	800,000	-0,023	-0,057
-187,387	-109,505	-0,142	-0,022
-186,373	-136,341	-0,056	-0,005
-185,358	-200,000	-0,005	-0,083
-184,344	-142,216	0,021	-0,001
-183,329	91,695	-0,039	0,032
-182,315	41,970	-0,097	-0,064
-181,300	-12,620	0,038	-0,018
-180,285	-200,000	-0,021	-0,093
-179,271	-123,618	-0,025	-0,003
-178,256	800,000	0,024	0,071
-177,242	88,138	-0,068	-0,055
-176,227	800,000	-0,021	0,066
-175,212	-128,331	0,185	0,019
-174,198	-200,000	0,002	-0,089
-173,183	-39,863	0,119	-0,045
-172,169	251,376	-0,076	-0,095
-171,154	800,000	0,048	0,103
-170,139	-32,966	-0,062	-0,025
-169,125	-200,000	-0,012	-0,069
-168,110	-57,808	0,101	0,032
-167,096	-200,000	-0,026	0,101
-166,081	-119,082	0,060	0,008
-165,066	-10,020	-0,070	-0,034
-164,052	-118,015	0,069	0,009
-163,037	-86,187	-0,070	-0,016
-162,023	-4,344	0,196	-0,098
-161,008	210,040	0,042	0,048
-159,993	154,800	-0,023	0,023
-158,979	-190,292	0,102	0,001
-157,964	-130,987	-0,087	0,008
-156,950	216,854	-0,035	-0,041
-155,935	-200,000	-0,004	-0,103
-154,920	800,000	-0,023	0,067
-153,906	-100,871	-0,073	0,013
-152,891	-200,000	0,015	-0,064
-151,877	-200,000	-0,006	-0,020
-150,862	-200,000	-0,003	-0,064
-149,847	-135,103	0,080	-0,007
-148,833	-200,000	0,008	-0,132
-147,818	800,000	-0,015	-0,041
-146,804	-200,000	0,000	0,119
-145,789	174,762	0,027	0,029
-144,775	77,010	0,047	-0,036
-143,760	-200,000	-0,019	-0,162
-142,745	-200,000	-0,023	-0,142
-141,731	-152,559	0,177	-0,009
-140,716	121,003	-0,112	-0,101
-139,702	-21,786	-0,095	0,042
-138,687	-104,935	0,168	-0,028
-137,672	-200,000	-0,008	0,094
-136,658	-200,000	-0,009	0,064
-135,643	-200,000	0,003	0,051
-134,629	-71,470	0,105	0,028
-133,614	-15,588	0,081	-0,038
-132,599	-90,677	0,055	0,011
-131,585	-200,000	0,020	0,140
-130,570	-200,000	-0,004	-0,044
-129,556	-183,606	-0,059	-0,001
-128,541	63,416	-0,124	-0,090
-127,526	66,926	-0,054	-0,040
-126,512	-20,492	0,087	-0,039
-125,497	-200,000	-0,009	-0,073
-124,483	800,000	-0,017	-0,041
-123,468	-200,000	-0,008	0,048
-122,453	81,795	-0,055	-0,043
-121,439	-112,964	-0,023	0,003
-120,424	50,285	0,040	0,027
