DTS Sentinel unit serial number:	SN410029Multiplexer serial number:	ORYXHardware model number:	OX2-SRSoftware version number:	ORYX F/W v4,00 Oryx Data Collector v3.7.2.0data status	okinstallation	B4 Nyhavnadifferential loss correction	single-endedforward channel	channel 2reverse channel	N/Adate	2023/12/19time	02:10:13forward acquisition time	300,00reverse acquisition time	0,00gamma	499,1914k internal	0,3125k external	0,3125temperature offset calibration	1,0000default loss term (dB/km)	0,3820temperature slope calibration	1,0000multiplexer offset coefficient	1,0000multiplexer slope coefficient	1,0000fibre end	0,00T internal ref (°C)	21,34T ext. ref 1 (°C)	6,13T ext. ref 2 (°C)	6,20length (m)	temperature (°C)	Stokes	anti-Stokes-744,400	800,000	0,079	-0,189
-743,385	-15,978	-0,197	0,093
-742,371	199,151	0,096	-0,109
-741,356	234,679	-0,145	0,178
-740,342	-200,000	-0,018	-0,174
-739,327	-124,214	-0,268	0,031
-738,312	-200,000	0,005	-0,126
-737,298	-16,825	-0,252	0,118
-736,283	165,069	-0,031	0,033
-735,269	-14,611	-0,158	0,075
-734,254	-200,000	-0,030	-0,129
-733,239	-104,438	-0,457	-0,078
-732,225	-61,996	0,086	0,027
-731,210	583,663	0,054	0,099
-730,196	174,155	-0,048	0,052
-729,181	800,000	0,027	-0,059
-728,167	93,993	-0,025	0,021
-727,152	262,388	-0,057	0,074
-726,137	-112,591	-0,181	0,027
-725,123	800,000	0,035	0,094
-724,108	109,880	0,017	0,015
-723,094	800,000	0,059	-0,139
-722,079	-200,000	0,013	-0,105
-721,064	207,961	-0,058	-0,067
-720,050	-200,000	-0,002	0,156
-719,035	-200,000	0,012	-0,143
-718,021	-105,113	-0,143	-0,024
-717,006	-71,702	-0,151	-0,042
-715,991	-5,791	-0,108	-0,055
-714,977	-200,000	0,043	-0,214
-713,962	411,617	-0,051	-0,082
-712,948	-84,539	0,098	0,023
-711,933	800,000	0,017	-0,053
-710,918	-200,000	-0,012	-0,104
-709,904	-155,560	-0,117	-0,005
-708,889	42,739	-0,064	0,043
-707,875	-200,000	-0,021	-0,157
-706,860	3,002	0,046	-0,025
-705,845	311,882	0,057	-0,079
-704,831	-73,214	0,140	0,038
-703,816	-5,603	0,056	-0,028
-702,802	-95,477	-0,120	-0,024
-701,787	-50,445	-0,175	-0,061
-700,772	-200,000	-0,016	-0,082
-699,758	205,336	-0,025	-0,029
-698,743	800,000	-0,040	0,092
-697,729	53,175	0,082	0,058
-696,714	-47,881	-0,059	0,021
-695,699	-131,702	0,062	0,006
-694,685	166,757	-0,027	0,028
-693,670	217,129	-0,015	-0,018
-692,656	-123,245	0,096	0,011
-691,641	184,768	-0,080	0,089
-690,627	-200,000	0,015	0,108
-689,612	-200,000	0,009	0,031
-688,597	413,472	-0,060	-0,095
-687,583	-200,000	-0,019	-0,103
-686,568	108,562	-0,014	0,012
-685,554	-90,055	0,056	0,012
-684,539	-200,000	-0,003	0,021
-683,524	-200,000	-0,029	0,108
-682,510	800,000	0,051	0,133
-681,495	-36,916	-0,111	-0,044
-680,481	677,512	0,071	0,137
-679,466	-137,725	-0,124	0,010
-678,451	-200,000	0,024	0,130
-677,437	585,042	-0,049	0,089
-676,422	-88,642	0,073	0,016
-675,408	-200,000	-0,025	-0,129
-674,393	800,000	-0,064	-0,169
-673,378	68,315	0,065	-0,049
-672,364	-100,780	-0,152	-0,028
-671,349	-200,000	-0,023	0,077
-670,335	-200,000	0,014	-0,049
-669,320	-11,266	-0,029	0,014
-668,305	-200,000	0,000	0,010
-667,291	800,000	-0,015	-0,034
-666,276	-21,101	-0,064	0,029
-665,262	-59,552	-0,042	-0,013
-664,247	-97,849	-0,060	0,011
-663,232	800,000	-0,033	-0,099
-662,218	35,763	0,080	0,052
-661,203	-87,097	0,035	0,008
-660,189	244,372	-0,026	-0,033
-659,174	58,318	-0,024	-0,017
-658,159	800,000	0,061	-0,151
-657,145	800,000	0,002	-0,004
-656,130	75,584	0,149	0,117
-655,116	235,563	-0,037	0,045
-654,101	378,459	-0,035	-0,053
-653,086	288,705	0,070	-0,095
-652,072	403,242	-0,038	-0,060
-651,057	-146,141	0,190	0,012
-650,043	-115,963	-0,203	0,028
-649,028	-143,449	-0,070	0,005
-648,014	-160,302	0,253	-0,010
-646,999	-147,843	0,138	0,008
-645,984	20,239	-0,165	-0,099
-644,970	398,831	-0,044	-0,069
-643,955	-55,011	-0,051	0,017
-642,941	253,379	-0,075	0,096
-641,926	800,000	0,028	-0,074
-640,911	800,000	0,030	-0,083
-639,897	-99,065	0,089	0,017
-638,882	-200,000	-0,013	0,112
-637,868	-123,903	-0,051	-0,006
-636,853	-40,702	-0,131	-0,050
-635,838	437,391	0,056	0,091
-634,824	204,789	0,118	-0,136
-633,809	-200,000	0,029	0,126
-632,795	-200,000	0,001	-0,034
-631,780	-82,528	0,124	-0,030
-630,765	569,677	-0,099	0,180
-629,751	-28,119	-0,086	-0,037
-628,736	-200,000	-0,028	-0,116
-627,722	-37,864	-0,036	0,014
-626,707	104,385	0,156	-0,136
-625,692	1,403	0,066	-0,035
-624,678	35,821	0,136	-0,088
-623,663	130,703	-0,089	0,085
-622,649	206,245	-0,033	-0,038
-621,634	-200,000	0,002	0,100
-620,619	-168,711	0,019	-0,001
-619,605	-170,446	0,089	0,002
-618,590	-55,133	0,051	-0,017
-617,576	-82,847	-0,090	0,021
-616,561	89,008	0,054	-0,044
-615,546	-200,000	0,027	-0,108
-614,532	-200,000	0,077	-0,325
-613,517	-84,123	0,078	0,018
-612,503	-9,803	-0,059	-0,029
-611,488	-200,000	0,038	0,144
-610,474	800,000	-0,031	0,087
-609,459	800,000	0,025	0,075
-608,444	-41,365	-0,106	-0,040
-607,430	-200,000	0,003	0,016
-606,415	-200,000	-0,041	0,153
-605,401	99,340	0,082	0,070
-604,386	-200,000	-0,026	0,169
-603,371	486,021	0,094	0,159
-602,357	240,593	-0,031	-0,039
-601,342	800,000	-0,005	-0,011
-600,328	-200,000	-0,006	0,162
-599,313	-24,263	-0,174	0,076
-598,298	38,688	0,078	-0,051
-597,284	398,873	0,086	-0,134
-596,269	-114,545	-0,077	-0,011
-595,255	-24,198	-0,129	-0,057
-594,240	-35,013	0,056	-0,022
-593,225	-200,000	-0,004	0,090
-592,211	256,467	-0,089	-0,114
-591,196	-111,952	0,112	0,017
-590,182	127,471	-0,058	0,054
-589,167	-152,450	-0,043	-0,002
-588,152	-92,169	-0,079	-0,016
-587,138	85,100	0,054	-0,044
-586,123	121,960	0,092	-0,085
-585,109	50,553	0,052	-0,037
-584,094	238,639	-0,034	-0,042
-583,079	-3,352	0,086	0,044
-582,065	-75,571	0,027	0,007
-581,050	633,170	-0,038	0,071
-580,036	-15,613	-0,169	-0,079
-579,021	120,376	0,127	-0,117
-578,006	-64,784	-0,022	-0,007
-576,992	23,304	-0,160	-0,097
-575,977	74,753	-0,065	-0,050
-574,963	800,000	-0,030	0,098
-573,948	13,748	0,043	0,025
-572,934	-97,629	-0,070	-0,013
-571,919	242,928	0,065	-0,081
-570,904	52,283	-0,085	0,060
-569,890	-200,000	-0,013	-0,099
-568,875	800,000	0,031	-0,069
-567,861	-20,860	0,031	-0,014
-566,846	800,000	-0,058	0,131
-565,831	800,000	0,018	0,058
-564,817	-66,981	-0,078	0,023
-563,802	800,000	-0,054	-0,160
-562,788	-114,912	-0,074	-0,010
-561,773	122,158	-0,068	-0,063
-560,758	800,000	0,018	0,038
-559,744	171,595	0,058	0,062
-558,729	57,170	0,090	0,065
-557,715	-120,217	-0,101	0,013
-556,700	-197,723	0,024	0,000
-555,685	-200,000	-0,013	0,084
-554,671	208,144	-0,088	0,102
-553,656	-107,860	-0,151	-0,024
-552,642	800,000	-0,026	0,064
-551,627	-40,716	-0,078	0,030
-550,612	-54,973	0,068	0,022
-549,598	201,457	0,024	-0,028
-548,583	143,868	-0,112	-0,110
-547,569	-9,082	0,033	-0,017
-546,554	328,300	0,121	0,172
-545,539	227,130	-0,094	0,113
-544,525	800,000	0,040	0,090
-543,510	-64,332	-0,077	-0,023
-542,496	215,557	-0,042	0,049
-541,481	800,000	0,024	-0,074
-540,466	-65,862	-0,025	-0,007
-539,452	-200,000	-0,011	0,163
-538,437	-181,784	-0,024	-0,000
-537,423	-196,631	0,043	-0,000
-536,408	369,208	-0,039	0,059
-535,393	-200,000	0,009	0,044
-534,379	-200,000	0,005	0,048
-533,364	-200,000	-0,017	-0,092
-532,350	-200,000	-0,007	0,060
-531,335	422,324	-0,024	-0,039
-530,321	-59,124	0,066	-0,021
-529,306	-25,011	-0,032	0,014
-528,291	307,320	0,028	-0,038
-527,277	52,963	-0,091	0,064
-526,262	139,271	0,046	-0,044
-525,248	-200,000	0,004	-0,029
-524,233	800,000	0,038	0,087
-523,218	-200,000	0,012	-0,106
-522,204	-103,120	-0,139	-0,024
-521,189	176,241	0,051	0,055
-520,175	101,281	-0,116	-0,100
-519,160	800,000	-0,047	0,114
-518,145	-84,404	0,064	0,015
-517,131	800,000	-0,039	0,083
-516,116	-64,896	-0,052	0,016
-515,102	-19,841	-0,075	0,034
-514,087	279,087	0,044	-0,058
-513,072	-200,000	-0,034	-0,114
-512,058	-200,000	-0,020	0,101
-511,043	-46,303	-0,058	-0,021
-510,029	-200,000	0,002	-0,083
-509,014	-53,738	0,088	0,029
-507,999	-118,167	0,058	0,008
-506,985	181,929	0,022	-0,024
-505,970	-200,000	-0,017	-0,086
-504,956	231,236	0,013	-0,015
-503,941	-200,000	0,049	0,178
-502,926	-200,000	-0,002	0,110
-501,912	-13,522	0,036	0,017
-500,897	800,000	0,036	0,089
-499,883	-12,284	-0,079	-0,038
-498,868	74,683	-0,078	-0,060
-497,853	-5,240	-0,076	-0,038
-496,839	-200,000	0,013	0,098
-495,824	13,213	0,046	0,026
-494,810	-200,000	0,002	0,108
-493,795	41,033	0,059	0,039
-492,781	483,249	-0,038	0,064
-491,766	-66,769	-0,073	0,021
-490,751	-80,999	-0,115	-0,028
-489,737	800,000	0,015	-0,039
-488,722	-123,348	0,076	-0,009
-487,708	107,956	0,103	-0,091
-486,693	-200,000	-0,007	0,110
-485,678	158,930	0,026	-0,027
-484,664	800,000	-0,038	-0,092
-483,649	-200,000	-0,022	-0,106
-482,635	800,000	-0,036	0,091
-481,620	-200,000	-0,018	0,067
-480,605	800,000	-0,014	0,039
-479,591	12,562	0,081	0,046
-478,576	7,103	-0,096	-0,053
-477,562	-59,623	-0,072	-0,023
-476,547	800,000	-0,080	-0,193
-475,532	62,004	0,060	0,044
-474,518	-106,591	0,117	-0,019
-473,503	110,431	-0,058	0,051
-472,489	132,037	-0,085	0,081
-471,474	542,954	-0,010	0,018
-470,459	203,490	0,072	-0,082
-469,445	-159,785	-0,060	-0,002
-468,430	-200,000	-0,003	0,045
-467,416	-200,000	0,040	0,150
-466,401	-67,336	0,062	0,018
-465,386	-200,000	0,042	0,179
-464,372	781,107	-0,026	0,052
-463,357	-65,148	0,011	-0,003
-462,343	800,000	-0,040	-0,093
-461,328	-18,905	-0,152	-0,070
-460,313	360,249	-0,039	-0,057
-459,299	40,280	0,062	0,041
-458,284	80,896	0,015	0,012
-457,270	84,878	0,016	0,013
-456,255	-160,519	-0,106	-0,004
-455,241	-200,000	0,001	-0,124
-454,226	618,928	0,024	-0,045
-453,211	-29,642	0,108	-0,045
-452,197	211,631	-0,068	-0,079
-451,182	-97,381	0,162	0,031
-450,168	647,964	-0,029	-0,054
-449,153	-26,153	-0,013	0,006
-448,138	-200,000	0,025	-0,088
-447,124	37,298	-0,062	-0,040
-446,109	-200,000	-0,015	0,081
-445,095	302,209	-0,049	-0,067
-444,080	-192,831	0,068	0,000
-443,065	338,862	0,071	0,102
-442,051	-200,000	0,001	-0,111
-441,036	49,826	0,043	0,030
-440,022	367,559	-0,050	-0,074
-439,007	800,000	-0,026	0,084
-437,992	-43,770	0,097	-0,036
-436,978	0,240	0,090	-0,047
-435,963	-127,835	0,098	0,010
-434,949	467,529	-0,045	0,074
-433,934	-113,321	0,047	0,007
-432,919	598,951	0,009	-0,016
-431,905	-79,120	-0,059	-0,015
-430,890	141,676	0,047	0,046
-429,876	60,045	-0,065	0,048
-428,861	800,000	-0,058	0,133
-427,846	800,000	0,011	0,032
-426,832	166,279	-0,089	-0,093
-425,817	-43,366	0,103	0,038
-424,803	50,785	0,059	-0,041
-423,788	800,000	-0,033	-0,088
-422,773	148,837	-0,075	-0,074
-421,759	-152,970	0,100	0,005
-420,744	-115,585	-0,154	0,021
-419,730	-200,000	0,015	-0,052
-418,715	800,000	-0,013	-0,033
-417,701	88,819	-0,056	0,045
-416,686	69,145	-0,050	-0,038
-415,671	-200,000	0,021	0,095
-414,657	-165,358	0,181	-0,006
-413,642	150,050	-0,063	-0,063
-412,628	-102,057	-0,162	-0,028
-411,613	-52,862	-0,040	-0,013
-410,598	-200,000	-0,005	-0,037
-409,584	329,509	-0,138	0,195
-408,569	291,201	-0,054	-0,073
-407,555	17,806	-0,043	-0,025
-406,540	787,250	0,041	0,083
-405,525	271,746	-0,068	-0,088
-404,511	-200,000	0,027	-0,182
-403,496	359,925	-0,027	0,040
-402,482	-200,000	-0,041	-0,148
-401,467	800,000	-0,045	-0,097
-400,452	473,647	0,055	0,092
-399,438	-95,881	0,092	0,018
-398,423	37,437	-0,090	-0,059
-397,409	-200,000	-0,022	0,123
-396,394	-29,710	0,040	0,017
-395,379	26,230	0,133	-0,082
-394,365	-122,390	-0,045	-0,005
-393,350	88,629	0,042	0,034
-392,336	15,564	0,138	-0,079
-391,321	83,926	0,061	-0,049
-390,306	-200,000	0,015	-0,057
-389,292	-200,000	-0,003	-0,093
-388,277	-200,000	0,003	0,017
-387,263	-200,000	0,008	0,047
-386,248	800,000	-0,022	-0,064
-385,233	-200,000	0,020	0,102
-384,219	246,185	0,104	-0,129
-383,204	27,526	-0,039	-0,024
-382,190	800,000	0,037	-0,084
-381,175	800,000	0,009	0,024
-380,160	-200,000	-0,011	-0,131
-379,146	-9,543	0,141	0,069
-378,131	505,575	-0,085	-0,144
-377,117	800,000	-0,047	-0,114
-376,102	-200,000	-0,060	-0,249
-375,088	800,000	0,062	-0,181
-374,073	509,056	0,017	-0,030
-373,058	800,000	-0,021	0,056
-372,044	-108,637	0,008	-0,001
-371,029	68,352	0,020	-0,015
-370,015	103,732	-0,014	-0,012
-369,000	-81,556	-0,039	-0,009
-367,985	236,181	-0,041	0,050
-366,971	305,613	0,021	-0,028
-365,956	800,000	0,036	-0,102
-364,942	233,560	0,048	0,058
-363,927	-137,378	0,071	-0,006
-362,912	-200,000	-0,028	0,091
-361,898	-167,958	-0,130	-0,004
-360,883	-69,714	-0,107	-0,030
-359,869	78,086	-0,010	0,008
-358,854	306,484	-0,119	-0,163
-357,839	-104,830	-0,033	0,006
-356,825	236,196	0,065	0,080
-355,810	800,000	-0,043	0,128
-354,796	-200,000	0,006	0,121
-353,781	-48,859	-0,032	0,011
-352,766	-160,143	0,146	-0,006
-351,752	-14,321	-0,010	-0,005
-350,737	779,197	-0,036	0,073
-349,723	-157,696	0,148	0,006
-348,708	-200,000	-0,007	0,048
-347,693	489,637	0,041	-0,070
-346,679	-54,591	0,037	-0,012
-345,664	-200,000	0,000	0,105
-344,650	-200,000	-0,047	0,219
-343,635	800,000	0,046	0,104
-342,620	-56,813	-0,109	0,035
-341,606	-200,000	-0,021	0,083
-340,591	76,558	-0,028	-0,022
-339,577	-98,329	0,038	0,007
-338,562	466,240	-0,057	0,094
-337,548	163,841	-0,058	-0,060
-336,533	577,161	0,091	-0,164
-335,518	248,367	-0,093	0,115
-334,504	-51,876	0,062	0,021
-333,489	491,590	0,033	-0,056
-332,475	-200,000	-0,011	0,075
-331,460	400,582	-0,094	-0,146
-330,445	-200,000	0,016	-0,121
-329,431	-200,000	-0,016	-0,088
-328,416	596,200	0,088	0,161
-327,402	70,620	0,119	0,090
-326,387	181,944	0,012	0,013
-325,372	14,950	0,045	-0,026
-324,358	351,642	-0,036	-0,053
-323,343	-63,983	-0,015	-0,005
-322,329	523,844	0,069	0,119
-321,314	800,000	0,053	0,138
-320,299	2,910	0,021	0,011
-319,285	-65,286	0,105	0,031
-318,270	-7,374	0,059	0,029
-317,256	-200,000	0,000	0,012
-316,241	-139,793	-0,210	-0,016
-315,226	-30,692	0,133	-0,055
-314,212	27,323	0,043	0,026
-313,197	-14,193	0,148	0,070
-312,183	36,921	0,136	-0,088
-311,168	-26,852	-0,120	-0,051
-310,153	-45,600	0,050	0,018
-309,139	-200,000	-0,011	-0,146
-308,124	580,492	-0,027	-0,048
-307,110	-200,000	-0,026	0,145
-306,095	36,932	-0,044	0,028
-305,080	29,511	-0,035	-0,021
-304,066	800,000	-0,014	-0,039
-303,051	-200,000	0,005	-0,078
-302,037	-27,807	-0,119	-0,050
-301,022	-5,032	0,116	0,058
-300,008	303,589	-0,103	0,140
-298,993	637,496	0,035	0,065
-297,978	-200,000	0,023	0,111
-296,964	-76,464	-0,240	0,061
-295,949	14,388	0,024	0,014
-294,935	9,649	0,073	0,040
-293,920	-76,276	0,096	-0,024
-292,905	103,449	0,083	0,071
-291,891	-200,000	-0,002	0,135
-290,876	-143,427	-0,036	-0,002
-289,862	-200,000	-0,008	0,046
-288,847	-200,000	-0,015	0,071
-287,832	64,767	0,050	-0,037
-286,818	-200,000	-0,006	-0,183
-285,803	-94,655	-0,048	0,010
-284,789	782,832	0,012	0,023
-283,774	394,765	0,076	0,117
-282,759	-82,744	-0,075	0,018
-281,745	-164,684	-0,104	0,003
-280,730	800,000	-0,071	-0,170
-279,716	53,066	0,102	-0,071
-278,701	-200,000	0,019	-0,082
-277,686	271,485	0,051	-0,066
-276,672	26,761	0,111	0,068
-275,657	-185,299	-0,040	0,000
-274,643	-61,490	0,024	-0,007
-273,628	407,862	-0,102	-0,159
-272,613	156,872	-0,016	-0,017
-271,599	-200,000	-0,001	-0,094
-270,584	-23,442	0,093	0,041
-269,570	-200,000	0,025	-0,088
-268,555	434,475	-0,050	-0,080
-267,540	-160,794	-0,125	-0,005
-266,526	-80,425	-0,115	0,028
-265,511	211,102	-0,069	0,080
-264,497	-6,655	-0,032	0,016
-263,482	-15,909	0,137	0,063
-262,467	-35,686	0,076	-0,030
-261,453	-200,000	0,007	0,096
-260,438	249,427	-0,078	-0,096
-259,424	-61,961	-0,098	-0,030
-258,409	-200,000	0,020	-0,080
-257,395	-200,000	0,001	0,100
-256,380	-110,662	-0,027	0,004
-255,365	128,870	0,127	-0,118
-254,351	721,719	-0,058	-0,113
-253,336	-1,208	-0,106	-0,054
-252,322	-118,633	0,052	0,007
-251,307	62,283	-0,059	-0,043
-250,292	-200,000	-0,021	-0,076
-249,278	800,000	0,019	-0,055
-248,263	64,764	-0,069	-0,051
-247,249	800,000	0,018	0,045
-246,234	148,496	-0,089	-0,087
-245,219	663,584	0,044	-0,083
-244,205	78,973	-0,086	-0,067
-243,190	21,110	0,055	-0,033
-242,176	107,807	-0,072	0,062
-241,161	-25,665	0,110	0,047
-240,146	-163,865	-0,065	-0,002
-239,132	-33,431	-0,063	0,025
-238,117	320,347	0,036	0,050
-237,103	-35,389	0,123	0,049
-236,088	185,068	0,077	-0,083
-235,073	124,922	0,073	-0,068
-234,059	715,728	-0,003	0,006
-233,044	-129,167	0,048	0,005
-232,030	-16,035	-0,071	-0,033
-231,015	-89,729	-0,032	-0,007
-230,000	-101,431	0,035	-0,006
-228,986	259,390	0,032	-0,040
-227,971	-72,578	-0,033	-0,009
-226,957	764,245	0,046	0,091
-225,942	349,859	-0,133	0,192
-224,927	612,550	-0,011	-0,020
-223,913	66,832	-0,081	-0,060
-222,898	31,622	-0,110	-0,069
-221,884	-50,293	-0,017	0,006
-220,869	14,621	-0,030	-0,017
-219,855	-93,857	0,119	0,024
-218,840	800,000	-0,020	0,061
-217,825	800,000	0,051	0,108
-216,811	800,000	0,032	-0,067
-215,796	800,000	-0,024	0,050
-214,782	269,429	0,088	-0,113
-213,767	69,361	0,075	0,056
-212,752	-200,000	0,011	0,119
-211,738	28,978	0,019	0,012
-210,723	-200,000	0,024	0,132
-209,709	-101,442	0,049	-0,009
-208,694	800,000	0,053	0,134
-207,679	114,366	0,088	-0,078
-206,665	-73,330	0,037	0,010
-205,650	-200,000	-0,009	-0,051
-204,636	-200,000	0,002	0,081
-203,621	-200,000	0,000	-0,034
-202,606	138,274	0,086	-0,083
-201,592	25,276	-0,058	-0,035
-200,577	131,158	0,081	0,075
-199,563	203,461	0,110	0,124
-198,548	194,594	0,078	0,087
-197,533	140,140	0,008	-0,007
-196,519	800,000	-0,009	0,023
-195,504	-93,605	-0,079	-0,016
-194,490	79,283	0,080	0,062
-193,475	-200,000	-0,050	0,192
-192,460	800,000	-0,018	-0,043
-191,446	-122,655	0,021	0,002
-190,431	800,000	-0,050	0,108
-189,417	321,885	-0,071	-0,099
-188,402	96,901	0,068	-0,057
-187,387	-90,740	-0,082	0,017
-186,373	-200,000	0,053	-0,204
-185,358	-84,918	-0,192	-0,044
-184,344	-60,597	0,062	0,019
-183,329	800,000	-0,011	0,027
-182,315	86,354	0,039	0,031
-181,300	-200,000	0,008	0,100
-180,285	408,009	0,017	-0,026
-179,271	66,752	-0,041	-0,030
-178,256	50,588	-0,068	-0,047
-177,242	-7,070	0,090	0,044
-176,227	64,193	0,068	0,050
-175,212	-200,000	0,016	0,170
-174,198	479,489	-0,024	0,039
-173,183	-87,105	-0,081	0,018
-172,169	-200,000	0,012	0,075
-171,154	646,110	0,069	-0,128
-170,139	-130,928	0,142	0,014
-169,125	800,000	-0,029	-0,060
-168,110	-200,000	0,003	0,017
-167,096	-129,294	0,082	-0,008
-166,081	579,851	-0,099	-0,177
-165,066	-200,000	0,003	-0,050
-164,052	-141,258	0,136	-0,010
-163,037	-145,773	0,078	-0,005
-162,023	345,557	0,133	0,191
-161,008	-76,164	0,023	-0,006
-159,993	-200,000	0,003	0,060
-158,979	31,708	0,070	-0,044
-157,964	800,000	-0,025	-0,060
-156,950	350,217	-0,052	-0,075
-155,935	119,626	-0,091	-0,082
-154,920	128,296	0,084	-0,078
-153,906	211,663	0,023	0,026
-152,891	-200,000	0,005	0,116
-151,877	-200,000	-0,031	-0,112
-150,862	-14,135	-0,140	-0,065
-149,847	-173,593	-0,040	-0,001
-148,833	335,699	-0,106	0,150
-147,818	-200,000	0,011	0,088
-146,804	442,513	-0,063	0,101
-145,789	800,000	0,031	0,068
-144,775	63,209	-0,056	-0,041
-143,760	15,537	-0,063	-0,036
-142,745	55,526	0,069	-0,048
-141,731	-52,429	0,055	0,018
-140,716	-113,641	0,066	0,009
-139,702	148,350	0,134	0,131
-138,687	454,286	-0,049	-0,080
-137,672	800,000	0,050	-0,143
-136,658	-14,571	-0,134	0,063
-135,643	-200,000	0,010	-0,069
-134,629	102,705	-0,097	0,083
-133,614	-200,000	0,125	0,000
-132,599	268,709	-0,066	-0,085
-131,585	-200,000	0,045	0,167
-130,570	-200,000	-0,104	0,000
-129,556	468,710	0,096	0,157
-128,541	-200,000	0,004	0,045
-127,526	-161,278	0,032	-0,001
-126,512	203,448	-0,015	-0,017
-125,497	800,000	0,044	-0,099
-124,483	152,475	-0,022	0,022
-123,468	-50,868	-0,107	0,036
-122,453	-68,353	0,008	0,002
-121,439	162,019	0,037	-0,038
-120,424	134,594	0,101	-0,096
-119,410	378,069	-0,080	0,119
