DTS Sentinel unit serial number:	SN410029Multiplexer serial number:	ORYXHardware model number:	OX2-SRSoftware version number:	ORYX F/W v4,00 Oryx Data Collector v3.7.2.0data status	okinstallation	B4 Nyhavnadifferential loss correction	single-endedforward channel	channel 2reverse channel	N/Adate	2023/12/18time	22:05:13forward acquisition time	300,00reverse acquisition time	0,00gamma	499,1914k internal	0,3124k external	0,3124temperature offset calibration	1,0000default loss term (dB/km)	0,3820temperature slope calibration	1,0000multiplexer offset coefficient	1,0000multiplexer slope coefficient	1,0000fibre end	0,00T internal ref (°C)	21,86T ext. ref 1 (°C)	7,19T ext. ref 2 (°C)	7,12length (m)	temperature (°C)	Stokes	anti-Stokes-744,400	800,000	-0,036	-0,086
-743,385	-29,456	-0,264	0,112
-742,371	-116,890	0,094	0,013
-741,356	89,171	-0,289	0,240
-740,342	31,565	-0,004	0,002
-739,327	-72,818	-0,177	-0,048
-738,312	614,374	-0,083	-0,156
-737,298	-10,803	-0,258	-0,127
-736,283	286,234	0,010	-0,014
-735,269	-30,502	-0,162	0,068
-734,254	89,005	0,013	0,011
-733,239	-39,417	-0,412	-0,160
-732,225	-163,261	0,135	0,005
-731,210	48,249	-0,074	0,051
-730,196	708,207	0,065	-0,128
-729,181	-27,311	0,168	-0,072
-728,167	-200,000	-0,036	-0,181
-727,152	350,505	0,041	-0,060
-726,137	451,518	-0,076	-0,126
-725,123	800,000	0,045	-0,109
-724,108	331,144	-0,049	-0,070
-723,094	-153,552	0,046	-0,002
-722,079	-175,416	-0,194	0,004
-721,064	41,251	0,078	-0,052
-720,050	366,193	0,045	-0,068
-719,035	-58,769	-0,026	-0,008
-718,021	137,039	-0,085	-0,083
-717,006	372,013	-0,045	0,069
-715,991	331,979	-0,075	-0,108
-714,977	-112,561	-0,058	0,008
-713,962	-122,516	-0,063	0,008
-712,948	-200,000	0,003	-0,114
-711,933	-200,000	-0,006	-0,112
-710,918	-200,000	-0,004	-0,022
-709,904	-200,000	-0,009	-0,106
-708,889	-6,944	0,062	-0,031
-707,875	-128,521	-0,127	-0,013
-706,860	-200,000	-0,020	-0,086
-705,845	-2,027	0,121	-0,063
-704,831	800,000	-0,016	-0,039
-703,816	-47,037	-0,148	-0,053
-702,802	509,055	0,010	-0,017
-701,787	-125,499	-0,047	-0,005
-700,772	800,000	0,043	-0,089
-699,758	547,104	-0,036	-0,064
-698,743	324,516	0,063	0,090
-697,729	800,000	0,040	0,110
-696,714	-36,586	0,113	-0,045
-695,699	202,137	0,121	-0,139
-694,685	-90,425	-0,206	0,044
-693,670	205,926	0,126	-0,146
-692,656	332,006	-0,080	-0,115
-691,641	608,880	0,034	-0,063
-690,627	-106,191	0,055	0,009
-689,612	133,963	0,014	-0,013
-688,597	579,152	0,035	0,064
-687,583	-78,147	-0,114	0,029
-686,568	800,000	0,009	0,023
-685,554	-97,515	0,039	0,008
-684,539	-200,000	0,018	0,066
-683,524	-89,112	0,094	-0,021
-682,510	138,351	-0,147	0,143
-681,495	-79,470	0,132	-0,033
-680,481	57,769	-0,091	-0,066
-679,466	-94,824	-0,152	0,030
-678,451	-61,561	-0,079	0,024
-677,437	-109,434	-0,073	-0,011
-676,422	229,583	-0,065	-0,079
-675,408	390,247	0,110	0,170
-674,393	-67,796	-0,049	0,014
-673,378	15,453	-0,118	-0,068
-672,364	-200,000	-0,010	-0,117
-671,349	37,399	-0,062	-0,041
-670,335	300,643	0,073	0,100
-669,320	-147,087	-0,145	0,009
-668,305	800,000	0,031	0,069
-667,291	528,203	0,030	-0,053
-666,276	14,626	-0,121	-0,070
-665,262	277,202	-0,012	-0,016
-664,247	190,152	-0,030	0,033
-663,232	-79,170	0,069	0,017
-662,218	-71,486	0,039	0,011
-661,203	-82,977	-0,065	0,015
-660,189	307,625	0,054	0,075
-659,174	338,225	-0,031	-0,045
-658,159	-200,000	0,009	0,049
-657,145	242,165	-0,071	-0,088
-656,130	29,009	0,106	0,067
-655,116	-200,000	0,010	0,100
-654,101	-5,056	0,051	0,026
-653,086	-200,000	-0,019	0,117
-652,072	79,586	0,078	0,062
-651,057	-168,385	-0,148	-0,004
-650,043	800,000	-0,034	-0,101
-649,028	24,608	-0,129	-0,079
-648,014	-114,517	0,048	0,007
-646,999	392,086	0,019	0,030
-645,984	-65,409	-0,075	0,022
-644,970	-200,000	0,003	-0,016
-643,955	94,796	-0,100	-0,085
-642,941	298,269	-0,072	-0,099
-641,926	800,000	0,042	0,100
-640,911	69,333	0,036	-0,027
-639,897	175,330	0,053	-0,058
-638,882	-133,664	-0,053	0,005
-637,868	66,335	0,082	-0,062
-636,853	343,282	-0,044	-0,064
-635,838	418,195	-0,025	-0,039
-634,824	-110,142	-0,120	0,018
-633,809	-200,000	-0,004	-0,116
-632,795	800,000	-0,046	0,125
-631,780	-130,366	-0,044	-0,004
-630,765	15,956	-0,055	0,032
-629,751	-200,000	-0,012	-0,066
-628,736	516,702	-0,070	-0,121
-627,722	-122,983	0,037	-0,004
-626,707	149,584	0,006	-0,006
-625,692	36,218	0,075	0,049
-624,678	193,419	-0,065	0,073
-623,663	-200,000	-0,000	0,080
-622,649	-200,000	0,027	0,139
-621,634	255,244	0,061	-0,078
-620,619	224,969	0,097	0,116
-619,605	-63,615	0,100	-0,030
-618,590	64,893	0,035	-0,026
-617,576	800,000	-0,031	-0,084
-616,561	51,348	0,047	0,033
-615,546	-200,000	0,013	0,059
-614,532	78,707	0,035	-0,028
-613,517	-99,585	0,090	-0,017
-612,503	232,006	-0,042	0,052
-611,488	-109,569	0,057	0,009
-610,474	-200,000	0,028	0,170
-609,459	-47,037	-0,087	0,031
-608,444	694,643	-0,026	-0,051
-607,430	184,134	-0,041	-0,046
-606,415	-200,000	-0,034	-0,145
-605,401	-200,000	-0,040	-0,161
-604,386	91,827	-0,087	-0,072
-603,371	2,754	0,093	0,050
-602,357	800,000	0,003	-0,010
-601,342	-104,211	0,047	-0,008
-600,328	-93,863	-0,102	0,021
-599,313	138,122	-0,132	-0,128
-598,298	-46,093	-0,091	-0,033
-597,284	-85,240	0,095	0,022
-596,269	376,774	0,080	0,122
-595,255	-200,000	-0,008	-0,068
-594,240	-200,000	0,027	0,111
-593,225	35,512	-0,041	-0,027
-592,211	-147,991	-0,057	0,003
-591,196	137,433	0,053	0,051
-590,182	104,215	-0,058	0,051
-589,167	-200,000	0,028	-0,101
-588,152	-10,931	-0,032	0,016
-587,138	140,610	0,115	0,112
-586,123	-32,084	-0,105	0,043
-585,109	705,896	0,013	0,025
-584,094	609,902	0,036	0,066
-583,079	800,000	0,013	0,041
-582,065	231,875	0,037	-0,045
-581,050	-200,000	0,018	-0,063
-580,036	498,640	-0,035	0,061
-579,021	-35,081	0,082	-0,033
-578,006	800,000	0,045	-0,100
-576,992	-200,000	-0,034	-0,121
-575,977	800,000	-0,027	-0,079
-574,963	261,241	0,081	0,104
-573,948	-67,923	-0,034	-0,010
-572,934	-70,562	-0,092	-0,026
-571,919	43,455	0,061	-0,041
-570,904	800,000	0,030	-0,085
-569,890	712,882	-0,030	0,059
-568,875	-63,632	0,016	-0,005
-567,861	-200,000	0,002	0,016
-566,846	-75,336	-0,052	-0,014
-565,831	-33,964	-0,104	-0,042
-564,817	-200,000	-0,010	-0,066
-563,802	-24,422	-0,014	0,006
-562,788	-200,000	-0,017	-0,093
-561,773	270,987	0,045	0,059
-560,758	-73,253	0,100	-0,027
-559,744	-200,000	-0,005	-0,041
-558,729	578,844	0,049	-0,089
-557,715	123,312	-0,039	0,036
-556,700	800,000	-0,081	0,172
-555,685	153,510	-0,087	-0,088
-554,671	800,000	-0,031	0,068
-553,656	-87,138	0,214	0,048
-552,642	43,662	0,069	0,047
-551,627	-200,000	0,010	0,086
-550,612	560,018	0,043	0,077
-549,598	-87,247	-0,081	-0,018
-548,583	-200,000	-0,007	-0,072
-547,569	62,513	0,100	-0,074
-546,554	438,696	-0,055	0,090
-545,539	290,410	0,064	-0,086
-544,525	-200,000	-0,027	-0,135
-543,510	-122,913	-0,077	-0,009
-542,496	435,268	-0,037	-0,060
-541,481	-200,000	-0,027	-0,099
-540,466	-200,000	-0,005	0,029
-539,452	-124,142	0,080	-0,009
-538,437	-200,000	-0,008	0,074
-537,423	543,741	0,094	0,166
-536,408	-81,484	-0,128	-0,031
-535,393	276,788	-0,028	0,037
-534,379	465,878	-0,080	0,132
-533,364	-60,420	0,045	-0,014
-532,350	271,560	0,038	0,050
-531,335	382,634	0,090	0,137
-530,321	800,000	-0,017	0,035
-529,306	-31,086	-0,087	0,036
-528,291	42,626	-0,150	-0,101
-527,277	800,000	-0,016	0,035
-526,262	-200,000	0,001	-0,073
-525,248	453,671	-0,037	-0,061
-524,233	800,000	0,009	0,024
-523,218	-200,000	-0,015	-0,064
-522,204	17,828	-0,079	-0,046
-521,189	-78,245	-0,120	0,030
-520,175	87,483	-0,093	0,076
-519,160	396,603	-0,053	0,083
-518,145	-114,246	-0,050	0,007
-517,131	-186,267	0,126	-0,001
-516,116	139,589	0,052	-0,051
-515,102	-70,877	-0,012	0,003
-514,087	354,011	-0,035	-0,052
-513,072	-200,000	-0,023	-0,138
-512,058	-200,000	-0,014	-0,154
-511,043	386,716	-0,039	-0,060
-510,029	505,904	0,046	-0,080
-509,014	-24,594	0,144	-0,063
-507,999	800,000	-0,041	-0,110
-506,985	11,129	-0,119	-0,067
-505,970	125,936	-0,069	0,065
-504,956	-200,000	-0,001	-0,008
-503,941	-200,000	-0,003	0,110
-502,926	19,223	0,125	-0,074
-501,912	97,505	-0,070	-0,059
-500,897	800,000	-0,022	-0,062
-499,883	479,523	0,026	0,043
-498,868	-58,316	-0,138	-0,044
-497,853	203,419	0,041	0,047
-496,839	110,965	0,039	0,034
-495,824	-200,000	0,032	0,118
-494,810	50,972	-0,087	0,061
-493,795	44,572	0,022	-0,015
-492,781	800,000	-0,038	-0,090
-491,766	-41,333	0,104	0,039
-490,751	-68,328	0,152	-0,043
-489,737	-200,000	-0,015	-0,051
-488,722	-21,934	0,174	-0,078
-487,708	-200,000	0,006	-0,094
-486,693	372,880	-0,056	0,084
-485,678	-200,000	0,007	0,073
-484,664	20,495	-0,114	0,068
-483,649	-200,000	-0,020	0,119
-482,635	-59,532	-0,092	-0,029
-481,620	-50,533	0,059	-0,021
-480,605	-200,000	-0,001	-0,010
-479,591	350,936	0,037	0,054
-478,576	-69,777	0,071	-0,020
-477,562	541,784	0,030	0,054
-476,547	119,042	-0,053	0,048
-475,532	49,311	-0,069	-0,047
-474,518	-200,000	0,013	0,079
-473,503	-17,260	0,139	-0,064
-472,489	-49,926	0,133	0,046
-471,474	-200,000	-0,029	-0,147
-470,459	-200,000	0,004	0,085
-469,445	-3,430	0,063	-0,032
-468,430	71,071	-0,122	-0,093
-467,416	-62,287	-0,023	-0,007
-466,401	268,247	0,043	-0,056
-465,386	30,952	0,126	-0,079
-464,372	-200,000	-0,020	-0,114
-463,357	-20,570	-0,041	0,019
-462,343	458,096	-0,029	-0,048
-461,328	-200,000	0,031	-0,172
-460,313	93,874	0,018	-0,015
-459,299	58,595	0,021	-0,015
-458,284	-200,000	0,004	0,072
-457,270	-200,000	-0,009	0,100
-456,255	-140,581	-0,078	-0,006
-455,241	123,273	-0,037	-0,034
-454,226	26,386	0,111	-0,068
-453,211	800,000	0,037	0,113
-452,197	800,000	0,042	0,131
-451,182	-122,368	0,076	-0,009
-450,168	743,170	0,028	-0,056
-449,153	-200,000	0,020	0,127
-448,138	800,000	0,029	0,060
-447,124	-33,827	-0,031	-0,013
-446,109	-42,838	0,025	0,009
-445,095	22,930	-0,133	-0,080
-444,080	329,156	-0,070	0,100
-443,065	-200,000	0,003	-0,034
-442,051	203,810	0,050	-0,057
-441,036	-6,616	-0,055	0,028
-440,022	421,701	0,053	0,085
-439,007	-200,000	-0,003	0,031
-437,992	-48,415	-0,042	-0,015
-436,978	-200,000	-0,017	0,077
-435,963	-200,000	0,011	0,051
-434,949	-200,000	-0,017	0,110
-433,934	500,697	0,102	-0,173
-432,919	800,000	-0,044	-0,093
-431,905	142,958	-0,085	0,083
-430,890	78,772	0,134	0,105
-429,876	800,000	-0,015	0,036
-428,861	-67,566	0,092	0,026
-427,846	86,877	-0,027	-0,022
-426,832	800,000	0,033	0,098
-425,817	198,359	-0,060	-0,068
-424,803	-200,000	0,012	0,079
-423,788	-200,000	0,004	-0,018
-422,773	-200,000	-0,000	-0,102
-421,759	19,830	0,036	-0,022
-420,744	800,000	-0,014	0,031
-419,730	251,776	-0,029	0,036
-418,715	218,735	-0,063	0,074
-417,701	52,090	-0,145	0,101
-416,686	65,489	0,086	0,064
-415,671	-47,605	0,062	-0,022
-414,657	8,477	0,063	0,035
-413,642	41,963	0,097	-0,065
-412,628	580,505	0,033	-0,060
-411,613	-200,000	-0,016	-0,213
-410,598	104,353	-0,105	-0,091
-409,584	-200,000	0,005	0,104
-408,569	-35,391	0,149	-0,059
-407,555	-200,000	-0,009	0,060
-406,540	-200,000	-0,003	0,051
-405,525	-200,000	0,021	0,083
-404,511	-200,000	-0,007	-0,055
-403,496	57,890	0,030	0,021
-402,482	662,143	0,043	0,082
-401,467	800,000	0,031	0,072
-400,452	-200,000	-0,013	0,075
-399,438	350,908	-0,060	-0,088
-398,423	-45,973	0,165	-0,059
-397,409	-200,000	-0,012	-0,101
-396,394	800,000	0,027	-0,076
-395,379	95,073	-0,127	-0,106
-394,365	800,000	-0,028	-0,066
-393,350	533,832	0,044	0,076
-392,336	261,266	-0,043	-0,055
-391,321	-106,955	0,164	0,026
-390,306	100,876	-0,128	-0,109
-389,292	-200,000	0,013	0,078
-388,277	800,000	0,027	-0,077
-387,263	-200,000	0,028	-0,099
-386,248	59,935	-0,073	0,053
-385,233	-74,076	0,086	0,023
-384,219	-200,000	-0,012	0,056
-383,204	800,000	0,023	0,070
-382,190	-55,473	-0,059	0,019
-381,175	-63,460	0,201	0,060
-380,160	262,696	0,047	-0,060
-379,146	279,141	0,029	0,038
-378,131	38,374	0,053	-0,035
-377,117	28,882	0,084	-0,052
-376,102	-200,000	0,003	0,069
-375,088	633,330	0,020	-0,037
-374,073	-200,000	0,005	-0,077
-373,058	-200,000	-0,013	-0,134
-372,044	14,829	0,049	0,028
-371,029	-200,000	0,024	0,099
-370,015	585,488	-0,048	0,087
-369,000	-200,000	-0,002	0,042
-367,985	800,000	0,059	-0,171
-366,971	110,268	-0,051	0,045
-365,956	-190,675	0,051	0,000
-364,942	135,195	0,060	0,057
-363,927	-105,049	-0,052	0,009
-362,912	800,000	0,040	-0,114
-361,898	-200,000	-0,017	0,080
-360,883	-200,000	0,013	0,076
-359,869	-200,000	-0,017	0,078
-358,854	-150,739	-0,086	0,005
-357,839	17,222	0,070	0,041
-356,825	-165,806	-0,107	0,003
-355,810	12,232	-0,098	-0,055
-354,796	-187,379	-0,125	-0,001
-353,781	800,000	0,003	-0,007
-352,766	800,000	-0,029	0,077
-351,752	800,000	-0,010	0,031
-350,737	-200,000	0,028	0,152
-349,723	321,499	-0,035	0,049
-348,708	98,663	0,050	-0,043
-347,693	-200,000	0,004	0,144
-346,679	-29,940	0,125	0,052
-345,664	157,008	-0,056	-0,057
-344,650	-200,000	0,063	0,000
-343,635	800,000	-0,047	0,111
-342,620	12,912	-0,013	0,007
-341,606	134,236	0,022	-0,021
-340,591	-6,090	0,062	-0,031
-339,577	800,000	0,034	0,095
-338,562	-143,871	-0,168	0,011
-337,548	800,000	0,021	0,044
-336,533	344,061	0,059	-0,085
-335,518	157,793	0,064	-0,065
-334,504	-114,541	0,127	-0,018
-333,489	201,433	0,041	0,047
-332,475	800,000	-0,021	0,056
-331,460	332,805	0,013	-0,018
-330,445	-200,000	0,014	0,131
-329,431	241,303	0,094	-0,115
-328,416	-22,509	-0,122	0,054
-327,402	49,684	-0,047	0,032
-326,387	160,219	-0,055	0,056
-325,372	605,434	0,041	0,075
-324,358	-200,000	0,006	0,090
-323,343	-200,000	-0,020	-0,129
-322,329	-57,913	0,087	-0,028
-321,314	-200,000	-0,017	0,158
-320,299	144,473	0,078	0,077
-319,285	-200,000	-0,001	0,060
-318,270	123,753	-0,116	-0,107
-317,256	-200,000	-0,023	0,136
-316,241	-109,511	0,041	-0,006
-315,226	106,036	-0,060	0,052
-314,212	-117,391	-0,161	0,021
-313,197	381,207	0,050	0,075
-312,183	-74,659	0,061	0,016
-311,168	-16,926	-0,161	0,074
-310,153	140,200	0,074	-0,072
-309,139	87,824	-0,073	-0,059
-308,124	416,667	-0,024	-0,038
-307,110	327,355	0,055	-0,078
-306,095	21,500	0,086	-0,051
-305,080	-23,185	-0,184	0,081
-304,066	-32,150	-0,048	0,020
-303,051	-125,087	-0,040	-0,004
-302,037	-55,539	-0,094	0,031
-301,022	-69,891	-0,120	0,033
-300,008	-83,407	0,210	0,049
-298,993	314,380	0,078	-0,108
-297,978	-127,453	0,015	-0,002
-296,964	236,196	0,054	0,066
-295,949	382,536	-0,050	0,075
-294,935	-30,201	0,102	0,042
-293,920	-110,993	0,005	0,001
-292,905	-72,347	-0,107	-0,029
-291,891	-99,791	-0,115	0,021
-290,876	800,000	-0,025	-0,081
-289,862	112,720	-0,133	0,118
-288,847	-73,375	-0,014	0,004
-287,832	-200,000	0,044	-0,159
-286,818	-200,000	-0,033	-0,111
-285,803	348,562	-0,037	0,054
-284,789	-30,209	0,149	-0,062
-283,774	-200,000	-0,016	-0,054
-282,759	198,102	-0,070	0,078
-281,745	-152,482	0,029	0,001
-280,730	134,265	0,042	-0,040
-279,716	-200,000	0,003	-0,036
-278,701	214,859	0,063	-0,074
-277,686	-61,353	0,106	0,032
-276,672	-102,116	0,081	0,014
-275,657	257,411	-0,090	-0,113
-274,643	56,267	-0,118	-0,084
-273,628	-73,904	-0,147	-0,039
-272,613	-200,000	0,000	0,047
-271,599	-27,509	0,101	0,043
-270,584	119,496	-0,014	-0,013
-269,570	-200,000	-0,003	0,023
-268,555	21,833	-0,078	0,046
-267,540	-62,080	0,137	-0,042
-266,526	60,856	0,097	0,070
-265,511	-115,435	0,053	-0,007
-264,497	197,868	-0,110	-0,123
-263,482	216,211	0,053	0,061
-262,467	463,636	-0,030	0,048
-261,453	531,589	-0,024	-0,042
-260,438	-20,725	-0,191	0,085
-259,424	-134,168	0,065	-0,006
-258,409	-200,000	0,010	-0,040
-257,395	800,000	-0,051	-0,144
-256,380	800,000	-0,017	-0,039
-255,365	-25,354	0,036	-0,016
-254,351	-200,000	0,008	-0,065
-253,336	-109,168	0,125	-0,019
-252,322	132,298	-0,067	0,063
-251,307	245,447	-0,021	0,026
-250,292	-20,451	0,139	0,062
-249,278	-22,068	0,091	-0,040
-248,263	497,086	-0,063	0,106
-247,249	156,800	-0,072	-0,073
-246,234	-55,655	-0,016	0,005
-245,219	-112,336	0,016	0,002
-244,205	-200,000	-0,038	-0,161
-243,190	278,829	-0,038	0,050
-242,176	-89,388	-0,129	0,028
-241,161	-104,575	0,131	-0,022
-240,146	-95,434	0,098	0,019
-239,132	653,905	-0,057	0,107
-238,117	-200,000	-0,005	0,076
-237,103	193,044	-0,008	-0,009
-236,088	775,647	0,042	-0,084
-235,073	465,122	0,046	0,076
-234,059	494,183	-0,027	0,045
-233,044	-64,467	0,030	0,009
-232,030	-0,606	0,117	0,061
-231,015	-52,896	0,057	0,019
-230,000	237,664	-0,064	-0,078
-228,986	120,607	-0,114	-0,104
-227,971	166,410	0,078	-0,081
-226,957	-200,000	0,002	-0,044
-225,942	313,255	-0,057	0,079
-224,927	0,556	-0,061	-0,032
-223,913	61,050	0,045	0,033
-222,898	800,000	-0,052	-0,107
-221,884	-200,000	-0,028	0,115
-220,869	-163,206	0,032	-0,001
-219,855	90,848	0,120	0,098
-218,840	-148,956	-0,097	-0,006
-217,825	121,905	0,026	-0,023
-216,811	-200,000	-0,024	0,111
-215,796	-200,000	0,011	-0,079
-214,782	-200,000	-0,023	-0,178
-213,767	-200,000	0,051	0,235
-212,752	-200,000	0,021	0,112
-211,738	592,779	0,054	0,097
-210,723	-55,655	-0,135	0,044
-209,709	-82,890	-0,083	0,019
-208,694	-25,221	-0,073	-0,031
-207,679	800,000	0,023	-0,060
-206,665	-129,416	0,129	0,013
-205,650	800,000	0,011	-0,032
-204,636	-200,000	0,015	0,051
-203,621	238,085	-0,058	0,070
-202,606	-200,000	-0,021	0,100
-201,592	-9,208	-0,003	-0,002
-200,577	202,130	-0,046	-0,052
-199,563	343,739	0,026	0,038
-198,548	32,066	0,106	-0,067
-197,533	105,243	-0,040	0,034
-196,519	-105,272	0,096	-0,016
-195,504	-48,961	-0,065	0,022
-194,490	510,392	-0,033	0,055
-193,475	-200,000	-0,013	0,059
-192,460	-200,000	0,009	-0,174
-191,446	-139,888	-0,097	0,007
-190,431	47,702	0,059	0,040
-189,417	800,000	-0,058	0,183
-188,402	-33,979	-0,045	-0,018
-187,387	-19,885	-0,042	0,019
-186,373	81,576	-0,074	-0,058
-185,358	461,987	0,056	-0,091
-184,344	-116,228	0,036	-0,005
-183,329	800,000	0,066	0,137
-182,315	14,328	-0,103	0,058
-181,300	-200,000	0,031	-0,179
-180,285	-200,000	0,013	-0,080
-179,271	-200,000	-0,015	-0,092
-178,256	71,296	0,028	0,021
-177,242	229,883	0,087	0,104
-176,227	-84,305	0,021	0,005
-175,212	97,289	-0,086	0,072
-174,198	-200,000	0,005	0,074
-173,183	111,397	-0,069	-0,060
-172,169	-200,000	0,011	-0,085
-171,154	-200,000	-0,003	-0,098
-170,139	-112,965	0,117	0,017
-169,125	164,255	0,016	0,017
-168,110	16,532	-0,060	-0,034
-167,096	478,552	-0,062	-0,103
-166,081	13,388	0,054	-0,030
-165,066	-102,391	-0,054	-0,009
-164,052	-200,000	-0,002	-0,110
-163,037	101,296	0,084	-0,071
-162,023	18,109	-0,025	0,015
-161,008	47,501	0,080	0,054
-159,993	800,000	-0,014	0,038
-158,979	705,548	-0,025	-0,048
-157,964	-48,942	0,067	0,023
-156,950	-200,000	-0,021	-0,117
-155,935	-105,355	-0,087	0,014
-154,920	800,000	0,027	-0,072
-153,906	-87,079	0,021	-0,005
-152,891	-200,000	-0,007	0,034
-151,877	331,098	0,059	-0,083
-150,862	-200,000	-0,021	-0,120
-149,847	665,750	-0,031	-0,059
-148,833	-30,787	0,100	0,041
-147,818	117,208	0,083	-0,074
-146,804	800,000	0,030	-0,085
-145,789	-200,000	-0,020	0,077
-144,775	800,000	-0,030	0,092
-143,760	-200,000	-0,005	0,040
-142,745	-118,186	0,128	0,016
-141,731	484,085	-0,059	0,097
-140,716	800,000	0,035	-0,076
-139,702	800,000	0,099	0,206
-138,687	-85,883	-0,097	-0,022
-137,672	-200,000	-0,010	-0,046
-136,658	103,696	0,012	0,010
-135,643	-63,050	0,058	-0,017
-134,629	237,668	0,046	-0,056
-133,614	800,000	0,009	0,020
-132,599	-200,000	0,023	0,091
-131,585	-93,883	0,089	0,018
-130,570	438,367	0,031	-0,049
-129,556	-35,511	0,090	-0,035
-128,541	-200,000	0,000	-0,033
-127,526	-64,789	-0,145	0,042
-126,512	-52,985	0,128	-0,043
-125,497	-200,000	-0,023	0,158
-124,483	507,620	-0,048	0,081
-123,468	800,000	0,068	-0,159
-122,453	-78,057	0,167	-0,041
-121,439	46,235	-0,102	0,068
-120,424	800,000	0,030	-0,084
-119,410	36,881	-0,086	-0,055
