DTS Sentinel unit serial number:	SN410029Multiplexer serial number:	ORYXHardware model number:	OX2-SRSoftware version number:	ORYX F/W v4,00 Oryx Data Collector v3.7.2.0data status	okinstallation	B4 Nyhavnadifferential loss correction	single-endedforward channel	channel 2reverse channel	N/Adate	2023/12/19time	13:35:13forward acquisition time	300,00reverse acquisition time	0,00gamma	499,1914k internal	0,3127k external	0,3127temperature offset calibration	1,0000default loss term (dB/km)	0,3820temperature slope calibration	1,0000multiplexer offset coefficient	1,0000multiplexer slope coefficient	1,0000fibre end	0,00T internal ref (°C)	19,40T ext. ref 1 (°C)	4,60T ext. ref 2 (°C)	4,63length (m)	temperature (°C)	Stokes	anti-Stokes-744,400	-200,000	0,029	-0,155
-743,385	-18,938	-0,263	0,121
-742,371	800,000	-0,006	-0,012
-741,356	119,389	-0,160	0,147
-740,342	800,000	0,046	-0,106
-739,327	-121,546	-0,349	-0,043
-738,312	800,000	0,042	-0,093
-737,298	-9,989	-0,219	0,108
-736,283	-185,462	0,090	0,001
-735,269	-5,138	-0,210	0,107
-734,254	800,000	-0,027	0,069
-733,239	-72,558	-0,450	-0,123
-732,225	-182,176	0,086	-0,001
-731,210	800,000	0,017	0,037
-730,196	-148,681	-0,051	0,003
-729,181	-200,000	0,023	-0,079
-728,167	-200,000	-0,014	0,096
-727,152	-23,041	0,047	-0,021
-726,137	-200,000	-0,032	0,107
-725,123	800,000	-0,036	0,080
-724,108	19,938	-0,064	-0,039
-723,094	-109,426	-0,055	-0,009
-722,079	-200,000	-0,011	-0,059
-721,064	632,888	0,040	-0,076
-720,050	800,000	0,036	-0,077
-719,035	14,246	-0,052	0,030
-718,021	-106,465	0,017	0,003
-717,006	-95,027	-0,196	-0,039
-715,991	320,428	-0,063	-0,089
-714,977	31,246	-0,114	-0,072
-713,962	48,527	-0,039	-0,027
-712,948	229,169	-0,027	-0,032
-711,933	88,813	-0,075	-0,062
-710,918	-200,000	0,019	-0,066
-709,904	800,000	-0,056	-0,127
-708,889	68,231	-0,041	-0,031
-707,875	-110,151	-0,067	-0,010
-706,860	800,000	-0,012	-0,037
-705,845	16,743	0,084	-0,049
-704,831	143,706	-0,086	0,086
-703,816	-200,000	0,012	0,148
-702,802	-200,000	-0,016	-0,063
-701,787	595,887	-0,019	-0,036
-700,772	47,001	-0,080	-0,055
-699,758	304,824	0,100	0,138
-698,743	800,000	0,026	-0,074
-697,729	31,846	-0,140	0,090
-696,714	8,091	0,109	-0,061
-695,699	70,431	0,086	-0,066
-694,685	800,000	-0,014	0,033
-693,670	800,000	-0,059	-0,122
-692,656	-200,000	-0,031	-0,112
-691,641	-200,000	-0,006	-0,059
-690,627	-200,000	0,012	0,097
-689,612	-200,000	0,018	-0,086
-688,597	-200,000	-0,005	-0,143
-687,583	-200,000	-0,004	-0,073
-686,568	-200,000	-0,002	-0,176
-685,554	800,000	0,032	0,068
-684,539	800,000	-0,039	0,087
-683,524	-62,122	-0,041	-0,013
-682,510	-200,000	-0,020	0,125
-681,495	-108,753	-0,160	0,025
-680,481	-200,000	0,002	-0,019
-679,466	68,000	0,097	-0,073
-678,451	-131,408	-0,080	0,008
-677,437	-102,439	-0,135	0,024
-676,422	-200,000	0,006	-0,052
-675,408	776,238	-0,052	0,107
-674,393	-200,000	-0,014	0,152
-673,378	71,843	-0,057	-0,044
-672,364	71,598	-0,044	-0,034
-671,349	364,528	-0,035	-0,053
-670,335	-200,000	0,007	0,049
-669,320	-80,041	-0,078	-0,019
-668,305	-200,000	-0,018	0,115
-667,291	-160,996	0,064	-0,002
-666,276	-200,000	0,013	-0,070
-665,262	437,740	-0,130	-0,211
-664,247	154,241	-0,142	-0,145
-663,232	-200,000	-0,007	-0,034
-662,218	-200,000	-0,028	-0,106
-661,203	-200,000	-0,007	-0,095
-660,189	-50,619	0,137	-0,048
-659,174	117,743	-0,095	-0,086
-658,159	609,431	0,045	-0,083
-657,145	-7,816	-0,063	-0,032
-656,130	-200,000	0,001	-0,055
-655,116	-82,091	0,100	-0,024
-654,101	305,930	0,053	-0,074
-653,086	-200,000	-0,019	0,096
-652,072	107,616	0,027	-0,024
-651,057	-177,988	-0,005	0,000
-650,043	-45,451	-0,050	0,018
-649,028	-152,937	-0,019	0,001
-648,014	773,864	-0,065	0,131
-646,999	91,540	0,015	-0,013
-645,984	-151,078	0,033	0,002
-644,970	299,864	-0,025	0,034
-643,955	-72,012	-0,163	-0,045
-642,941	-200,000	-0,013	0,110
-641,926	-200,000	-0,006	-0,180
-640,911	-69,095	0,030	-0,008
-639,897	9,122	-0,097	-0,054
-638,882	114,048	0,106	-0,096
-637,868	-25,107	0,096	-0,042
-636,853	12,412	0,119	-0,068
-635,838	-133,335	-0,074	-0,007
-634,824	429,361	-0,083	0,133
-633,809	-200,000	-0,047	-0,203
-632,795	123,688	-0,098	0,091
-631,780	209,751	-0,057	0,066
-630,765	-20,116	-0,073	-0,033
-629,751	9,216	0,099	0,055
-628,736	107,767	-0,059	-0,052
-627,722	-72,910	-0,083	-0,023
-626,707	800,000	0,016	0,036
-625,692	310,355	0,057	-0,079
-624,678	800,000	0,025	-0,075
-623,663	404,473	-0,022	-0,034
-622,649	-16,991	-0,078	0,036
-621,634	-61,855	-0,062	-0,019
-620,619	-120,567	-0,049	-0,006
-619,605	-190,709	0,128	-0,001
-618,590	-200,000	0,004	0,148
-617,576	-128,047	-0,056	-0,006
-616,561	-200,000	-0,002	0,098
-615,546	5,087	0,138	0,075
-614,532	-200,000	-0,027	-0,176
-613,517	800,000	0,023	0,056
-612,503	-56,828	0,014	-0,004
-611,488	800,000	-0,034	-0,092
-610,474	418,608	-0,054	0,086
-609,459	334,653	0,031	0,045
-608,444	-37,942	-0,151	0,059
-607,430	89,181	0,058	-0,048
-606,415	800,000	-0,083	-0,195
-605,401	-65,227	0,022	-0,006
-604,386	554,901	0,037	0,066
-603,371	267,908	-0,028	0,037
-602,357	29,149	-0,094	-0,059
-601,342	-200,000	0,014	0,108
-600,328	-49,352	-0,080	0,028
-599,313	-57,411	-0,049	-0,016
-598,298	-200,000	0,022	-0,161
-597,284	-10,018	0,039	0,019
-596,269	-124,226	-0,098	0,011
-595,255	141,529	0,094	0,092
-594,240	-108,584	-0,084	0,013
-593,225	-200,000	-0,006	-0,140
-592,211	-15,908	-0,025	-0,012
-591,196	-200,000	0,005	0,102
-590,182	654,344	-0,035	0,067
-589,167	87,310	0,119	0,097
-588,152	-45,986	-0,086	-0,031
-587,138	148,524	-0,081	-0,081
-586,123	248,595	-0,046	-0,058
-585,109	-145,712	0,100	-0,006
-584,094	47,650	-0,105	0,072
-583,079	-13,658	-0,048	0,023
-582,065	-200,000	0,015	0,100
-581,050	34,602	-0,051	0,033
-580,036	-200,000	0,014	-0,052
-579,021	-171,328	-0,067	-0,002
-578,006	-155,142	-0,223	0,011
-576,992	378,721	-0,058	-0,089
-575,977	-75,962	-0,134	0,035
-574,963	53,955	0,088	-0,063
-573,948	-131,460	-0,014	0,001
-572,934	598,168	-0,073	-0,134
-571,919	-200,000	0,025	0,114
-570,904	-200,000	-0,028	-0,133
-569,890	-200,000	-0,017	-0,101
-568,875	26,590	0,036	-0,022
-567,861	-58,935	-0,064	0,020
-566,846	-200,000	-0,047	0,186
-565,831	-200,000	0,003	0,014
-564,817	-200,000	-0,005	-0,021
-563,802	511,369	-0,074	-0,127
-562,788	461,993	0,037	-0,061
-561,773	-200,000	-0,033	-0,118
-560,758	11,229	0,170	0,096
-559,744	518,917	0,058	-0,101
-558,729	-82,846	-0,089	0,021
-557,715	31,198	-0,111	0,070
-556,700	-200,000	-0,028	-0,108
-555,685	-200,000	0,007	-0,031
-554,671	-66,691	0,065	-0,019
-553,656	-5,009	-0,016	-0,008
-552,642	347,969	0,055	-0,081
-551,627	297,497	-0,079	0,108
-550,612	352,594	-0,081	-0,118
-549,598	95,948	-0,083	0,070
-548,583	800,000	-0,035	-0,107
-547,569	800,000	0,057	-0,134
-546,554	-43,558	0,047	-0,018
-545,539	-200,000	-0,012	0,126
-544,525	287,915	-0,029	0,039
-543,510	-200,000	-0,013	0,097
-542,496	140,064	-0,051	-0,049
-541,481	206,195	-0,123	-0,142
-540,466	-143,509	-0,062	0,004
-539,452	-101,012	0,011	0,002
-538,437	-129,614	0,145	0,015
-537,423	-59,081	0,193	0,061
-536,408	-200,000	-0,004	-0,047
-535,393	15,053	0,117	0,068
-534,379	163,640	-0,044	-0,045
-533,364	800,000	0,031	0,091
-532,350	241,014	-0,067	-0,083
-531,335	800,000	-0,046	-0,099
-530,321	-18,889	-0,077	0,035
-529,306	-77,075	-0,091	-0,023
-528,291	-200,000	0,041	-0,159
-527,277	-100,142	-0,106	-0,019
-526,262	800,000	-0,034	-0,090
-525,248	719,862	-0,015	0,029
-524,233	800,000	0,026	0,079
-523,218	307,597	0,116	-0,160
-522,204	445,399	-0,027	0,044
-521,189	17,506	-0,120	-0,070
-520,175	322,315	0,066	-0,093
-519,160	9,204	-0,062	0,035
-518,145	152,531	0,051	0,052
-517,131	96,924	0,025	0,021
-516,116	-161,423	0,049	0,002
-515,102	800,000	-0,021	0,044
-514,087	-91,707	-0,044	0,009
-513,072	-120,671	-0,090	-0,011
-512,058	800,000	-0,036	-0,080
-511,043	-9,232	0,111	-0,055
-510,029	422,118	0,056	0,088
-509,014	-200,000	0,016	-0,104
-507,999	800,000	0,025	-0,077
-506,985	146,936	-0,062	0,062
-505,970	-68,515	0,062	-0,018
-504,956	4,533	0,108	-0,058
-503,941	-26,873	-0,032	0,014
-502,926	-200,000	0,000	-0,035
-501,912	24,062	0,054	0,033
-500,897	800,000	0,023	-0,048
-499,883	-200,000	0,050	-0,254
-498,868	800,000	0,044	-0,105
-497,853	75,981	-0,034	0,027
-496,839	12,588	0,057	-0,032
-495,824	-106,762	0,071	-0,011
-494,810	-175,665	0,068	0,001
-493,795	-200,000	-0,014	0,050
-492,781	-139,259	-0,064	0,005
-491,766	115,642	-0,094	0,085
-490,751	-200,000	-0,040	-0,182
-489,737	-8,969	-0,039	-0,019
-488,722	-117,579	0,179	-0,024
-487,708	-56,739	0,134	-0,044
-486,693	800,000	0,018	0,043
-485,678	-96,638	0,140	0,027
-484,664	-200,000	-0,019	0,085
-483,649	45,788	-0,073	0,050
-482,635	800,000	-0,016	-0,046
-481,620	196,265	0,109	-0,122
-480,605	325,687	-0,016	0,022
-479,591	-4,667	-0,152	-0,077
-478,576	-142,482	-0,086	-0,006
-477,562	-149,342	0,090	0,005
-476,547	85,667	-0,077	-0,062
-475,532	127,046	-0,064	-0,060
-474,518	-82,281	0,073	0,017
-473,503	151,905	0,022	0,022
-472,489	-140,770	-0,136	0,010
-471,474	-200,000	0,041	-0,159
-470,459	-200,000	-0,008	-0,161
-469,445	-200,000	-0,005	-0,082
-468,430	51,200	-0,092	-0,064
-467,416	-200,000	-0,006	0,079
-466,401	-95,046	0,140	0,028
-465,386	-162,076	-0,164	-0,006
-464,372	-74,454	-0,088	0,023
-463,357	-141,878	-0,058	0,004
-462,343	-200,000	0,002	-0,085
-461,328	-199,650	-0,063	-0,000
-460,313	687,296	0,023	-0,044
-459,299	556,105	-0,023	-0,040
-458,284	800,000	-0,059	0,125
-457,270	433,361	-0,102	0,163
-456,255	486,866	0,036	-0,060
-455,241	125,737	-0,094	0,088
-454,226	225,070	-0,030	-0,036
-453,211	-81,220	-0,069	0,017
-452,197	247,588	0,049	0,061
-451,182	-146,922	-0,099	-0,006
-450,168	800,000	0,043	0,097
-449,153	-200,000	-0,024	-0,112
-448,138	216,374	-0,119	-0,140
-447,124	-200,000	-0,015	-0,090
-446,109	-200,000	-0,002	-0,099
-445,095	-200,000	0,021	0,091
-444,080	-200,000	0,024	0,104
-443,065	-200,000	-0,047	0,169
-442,051	-33,157	-0,018	0,007
-441,036	800,000	0,064	-0,198
-440,022	198,990	-0,033	0,038
-439,007	-83,209	0,037	0,009
-437,992	-200,000	-0,008	0,045
-436,978	-200,000	-0,051	0,173
-435,963	-180,848	0,061	0,001
-434,949	-86,482	0,093	-0,021
-433,934	-200,000	-0,009	0,082
-432,919	104,583	0,032	-0,028
-431,905	82,798	0,064	0,051
-430,890	-76,927	-0,162	-0,041
-429,876	656,001	-0,016	-0,031
-428,861	-40,968	-0,016	0,006
-427,846	-10,615	0,096	-0,046
-426,832	-27,992	-0,036	0,015
-425,817	0,778	-0,037	0,019
-424,803	-45,355	0,152	-0,055
-423,788	73,614	-0,131	-0,101
-422,773	800,000	-0,045	0,105
-421,759	-200,000	-0,009	0,132
-420,744	730,816	-0,056	0,110
-419,730	800,000	0,007	0,016
-418,715	-99,883	-0,117	-0,021
-417,701	-200,000	0,014	-0,121
-416,686	281,830	0,046	0,060
-415,671	-25,889	0,079	0,034
-414,657	-200,000	-0,000	-0,030
-413,642	97,127	-0,065	-0,055
-412,628	-200,000	-0,019	-0,063
-411,613	276,553	-0,129	-0,168
-410,598	19,144	0,022	0,013
-409,584	-8,958	-0,046	0,022
-408,569	10,575	-0,138	0,077
-407,555	-200,000	0,028	-0,127
-406,540	-195,945	0,174	-0,001
-405,525	107,770	0,088	-0,077
-404,511	62,954	0,078	0,058
-403,496	800,000	0,020	0,056
-402,482	62,824	0,081	0,060
-401,467	-200,000	-0,009	0,054
-400,452	97,157	0,086	0,072
-399,438	385,967	0,082	0,124
-398,423	-8,992	0,076	0,037
-397,409	29,473	-0,037	0,023
-396,394	-29,950	-0,056	0,023
-395,379	-173,476	0,014	-0,000
-394,365	-138,193	0,112	0,009
-393,350	800,000	0,043	-0,110
-392,336	800,000	0,012	0,030
-391,321	159,878	0,036	0,036
-390,306	-200,000	0,005	-0,128
-389,292	-10,492	0,161	0,078
-388,277	800,000	-0,047	-0,102
-387,263	800,000	0,024	0,071
-386,248	19,479	0,021	0,013
-385,233	33,973	0,057	0,036
-384,219	171,386	-0,052	-0,054
-383,204	138,103	0,112	-0,108
-382,190	800,000	-0,007	-0,016
-381,175	199,745	0,044	-0,050
-380,160	193,747	0,040	-0,044
-379,146	11,670	0,058	-0,033
-378,131	-200,000	-0,011	0,076
-377,117	65,025	-0,068	0,050
-376,102	328,807	-0,021	-0,030
-375,088	-82,379	0,118	-0,028
-374,073	200,636	-0,082	-0,092
-373,058	-75,057	0,088	-0,023
-372,044	-200,000	0,011	0,063
-371,029	800,000	0,014	0,035
-370,015	583,246	0,033	0,059
-369,000	174,087	-0,045	0,048
-367,985	-72,742	-0,085	-0,023
-366,971	31,869	0,146	0,092
-365,956	800,000	0,052	0,106
-364,942	-145,846	0,050	-0,003
-363,927	107,434	-0,010	-0,009
-362,912	192,405	0,048	0,053
-361,898	-109,297	-0,058	-0,009
-360,883	-100,335	-0,154	-0,028
-359,869	10,635	-0,055	0,031
-358,854	753,835	0,045	0,090
-357,839	-53,765	-0,081	0,027
-356,825	-162,980	0,090	0,003
-355,810	-23,267	0,107	0,047
-354,796	-200,000	0,009	-0,072
-353,781	800,000	0,070	0,152
-352,766	278,633	-0,134	-0,175
-351,752	94,307	0,137	0,114
-350,737	800,000	-0,021	0,050
-349,723	264,978	0,008	-0,010
-348,708	-139,498	-0,097	0,007
-347,693	590,968	0,018	0,033
-346,679	-200,000	-0,014	0,133
-345,664	-148,947	0,148	0,009
-344,650	177,116	-0,064	-0,068
-343,635	486,494	0,032	0,053
-342,620	87,855	0,140	0,114
-341,606	11,541	-0,162	-0,091
-340,591	800,000	0,036	-0,114
-339,577	-200,000	-0,007	-0,042
-338,562	73,331	-0,081	0,062
-337,548	-100,193	0,127	-0,023
-336,533	-118,854	0,101	0,013
-335,518	-200,000	0,001	0,012
-334,504	133,137	0,130	0,123
-333,489	365,682	-0,048	-0,071
-332,475	-200,000	0,016	-0,143
-331,460	159,017	-0,091	-0,093
-330,445	109,156	-0,102	-0,089
-329,431	-200,000	-0,001	0,027
-328,416	-90,563	-0,095	0,020
-327,402	-64,202	-0,070	-0,021
-326,387	202,498	0,085	0,096
-325,372	800,000	-0,033	0,092
-324,358	-167,986	-0,088	-0,002
-323,343	-83,480	0,167	-0,039
-322,329	-200,000	0,033	0,129
-321,314	-200,000	0,004	0,046
-320,299	257,941	0,029	0,036
-319,285	-125,738	-0,118	-0,013
-318,270	46,498	-0,095	0,065
-317,256	-200,000	-0,028	-0,158
-316,241	114,228	-0,095	-0,085
-315,226	-162,209	-0,057	-0,002
-314,212	-95,633	0,102	0,020
-313,197	124,639	-0,046	0,042
-312,183	-118,948	0,078	0,010
-311,168	71,825	-0,037	0,028
-310,153	795,827	-0,065	-0,132
-309,139	800,000	0,025	0,070
-308,124	-38,847	0,056	0,021
-307,110	602,681	0,082	0,151
-306,095	541,416	0,056	-0,099
-305,080	-97,965	0,110	0,021
-304,066	800,000	-0,031	-0,077
-303,051	-143,332	-0,120	0,008
-302,037	369,172	-0,034	0,050
-301,022	91,073	0,061	0,050
-300,008	54,016	-0,031	0,022
-298,993	-55,633	-0,021	0,007
-297,978	474,274	0,016	0,026
-296,964	-200,000	-0,008	0,044
-295,949	183,831	-0,025	-0,027
-294,935	249,181	-0,011	-0,013
-293,920	800,000	-0,021	0,063
-292,905	25,698	-0,039	0,024
-291,891	-60,644	0,070	-0,022
-290,876	9,430	-0,029	0,016
-289,862	-166,553	0,075	-0,002
-288,847	-52,441	-0,098	-0,033
-287,832	-143,463	0,064	-0,004
-286,818	800,000	0,070	0,209
-285,803	-37,336	-0,062	-0,024
-284,789	-80,780	-0,080	0,019
-283,774	432,266	-0,035	0,055
-282,759	-200,000	0,003	0,064
-281,745	-200,000	0,023	-0,077
-280,730	-136,243	-0,036	0,003
-279,716	41,096	0,126	0,083
-278,701	-200,000	-0,005	-0,141
-277,686	-107,538	0,223	0,035
-276,672	248,709	-0,041	-0,051
-275,657	354,489	-0,114	0,167
-274,643	-200,000	0,028	-0,105
-273,628	18,602	-0,112	-0,065
-272,613	11,653	-0,057	0,032
-271,599	74,751	-0,067	-0,051
-270,584	-19,118	-0,077	-0,035
-269,570	-168,870	0,084	-0,002
-268,555	-200,000	0,007	-0,138
-267,540	199,891	-0,074	-0,083
-266,526	17,931	0,166	0,096
-265,511	-200,000	-0,015	0,049
-264,497	-200,000	0,006	0,099
-263,482	222,197	0,071	-0,084
-262,467	-200,000	-0,010	0,106
-261,453	-200,000	0,018	0,108
-260,438	-103,876	-0,071	0,012
-259,424	-200,000	0,030	-0,100
-258,409	770,828	-0,022	-0,043
-257,395	-74,774	0,051	-0,013
-256,380	48,218	-0,049	-0,033
-255,365	577,367	0,089	-0,159
-254,351	294,136	0,096	0,128
-253,336	800,000	-0,014	-0,037
-252,322	-200,000	0,026	-0,092
-251,307	-200,000	0,013	-0,110
-250,292	265,402	0,070	-0,089
-249,278	-200,000	0,013	-0,045
-248,263	-200,000	-0,003	-0,031
-247,249	95,367	-0,099	-0,083
-246,234	-200,000	0,003	-0,026
-245,219	-15,729	0,082	0,038
-244,205	28,442	-0,028	-0,017
-243,190	-4,927	0,089	0,045
-242,176	800,000	0,017	0,035
-241,161	800,000	-0,071	0,169
-240,146	-200,000	-0,020	0,172
-239,132	-151,213	0,079	0,004
-238,117	16,446	-0,140	-0,080
-237,103	29,378	0,054	-0,033
-236,088	-107,438	0,057	-0,009
-235,073	-66,225	0,200	0,058
-234,059	190,885	0,070	0,077
-233,044	-120,931	-0,117	-0,014
-232,030	-200,000	0,008	0,035
-231,015	-47,404	-0,106	-0,037
-230,000	-200,000	-0,007	0,053
-228,986	800,000	0,016	0,045
-227,971	114,231	0,049	0,044
-226,957	-200,000	0,002	-0,008
-225,942	371,106	-0,045	-0,067
-224,927	-200,000	0,039	0,148
-223,913	82,795	-0,098	-0,077
-222,898	310,665	0,003	-0,004
-221,884	800,000	0,035	0,086
-220,869	-200,000	0,008	0,042
-219,855	-135,063	0,056	0,005
-218,840	-10,391	0,103	0,050
-217,825	-200,000	0,003	-0,017
-216,811	-55,356	-0,091	0,029
-215,796	-134,157	0,093	-0,008
-214,782	-193,840	0,142	-0,001
-213,767	-54,659	-0,037	-0,012
-212,752	-163,583	0,093	0,003
-211,738	293,964	0,026	0,035
-210,723	5,280	-0,034	0,018
-209,709	-200,000	-0,015	-0,060
-208,694	-33,204	-0,154	-0,062
-207,679	6,566	0,144	-0,078
-206,665	-72,205	-0,015	0,004
-205,650	162,679	0,014	0,014
-204,636	-200,000	0,019	-0,109
-203,621	-194,803	0,116	0,001
-202,606	800,000	0,049	0,109
-201,592	393,173	0,021	0,032
-200,577	-200,000	0,008	0,059
-199,563	-200,000	0,027	-0,115
-198,548	8,482	0,051	-0,028
-197,533	-200,000	-0,024	0,119
-196,519	141,386	0,014	-0,014
-195,504	0,134	-0,078	0,040
-194,490	-113,262	-0,125	-0,018
-193,475	757,978	-0,039	0,077
-192,460	46,091	0,077	-0,052
-191,446	-55,932	-0,054	0,018
-190,431	96,012	0,065	0,054
-189,417	-200,000	-0,042	0,136
-188,402	-200,000	0,002	0,082
-187,387	-200,000	0,020	-0,119
-186,373	800,000	0,024	-0,063
-185,358	-200,000	-0,002	0,053
-184,344	138,616	0,066	-0,063
-183,329	-200,000	0,006	0,124
-182,315	62,096	0,099	0,072
-181,300	92,895	-0,078	0,064
-180,285	-200,000	-0,002	0,035
-179,271	380,229	0,018	0,028
-178,256	-200,000	-0,032	0,125
-177,242	-56,596	0,118	-0,038
-176,227	-200,000	-0,016	0,053
-175,212	-109,329	0,065	0,010
-174,198	-8,903	0,077	-0,037
-173,183	-58,059	-0,117	-0,037
-172,169	254,154	-0,055	-0,068
-171,154	-117,282	-0,102	0,013
-170,139	109,677	0,133	0,116
-169,125	-200,000	0,026	0,107
-168,110	-200,000	0,031	0,100
-167,096	800,000	-0,005	-0,014
-166,081	-132,946	0,017	0,002
-165,066	-145,414	-0,070	0,005
-164,052	475,166	0,052	0,086
-163,037	132,952	0,150	-0,141
-162,023	-39,240	0,124	0,047
-161,008	-192,806	0,170	-0,001
-159,993	800,000	-0,030	0,076
-158,979	-200,000	-0,021	0,103
-157,964	-109,314	-0,032	-0,005
-156,950	-179,200	0,055	-0,001
-155,935	-100,062	-0,063	-0,011
-154,920	87,200	0,062	0,050
-153,906	277,251	-0,046	0,060
-152,891	-39,440	-0,045	0,017
-151,877	800,000	-0,040	-0,125
-150,862	-106,669	-0,085	0,014
-149,847	437,691	0,020	0,032
-148,833	76,355	0,056	0,043
-147,818	-100,554	-0,124	-0,022
-146,804	-72,252	0,113	0,030
-145,789	-80,284	0,138	0,033
-144,775	682,579	0,067	-0,128
-143,760	-8,460	-0,137	-0,067
-142,745	-41,322	0,051	0,019
-141,731	271,455	0,016	-0,021
-140,716	800,000	0,047	-0,107
-139,702	177,456	0,092	-0,098
-138,687	-14,782	0,110	-0,051
-137,672	133,719	-0,107	0,101
-136,658	379,395	0,028	-0,043
-135,643	800,000	-0,042	0,096
-134,629	530,261	0,082	0,142
-133,614	-83,178	0,102	0,024
-132,599	-13,096	0,066	0,031
-131,585	705,840	-0,018	0,034
-130,570	-63,106	-0,082	-0,025
-129,556	136,624	-0,023	-0,022
-128,541	-200,000	-0,041	-0,152
-127,526	417,756	0,079	0,122
-126,512	-200,000	0,003	-0,035
-125,497	91,433	0,045	0,037
-124,483	51,237	-0,041	-0,028
-123,468	800,000	-0,055	-0,167
-122,453	-50,338	-0,235	0,080
-121,439	27,481	-0,101	0,062
-120,424	193,803	0,068	0,075
