DTS Sentinel unit serial number:	SN410029Multiplexer serial number:	ORYXHardware model number:	OX2-SRSoftware version number:	ORYX F/W v4,00 Oryx Data Collector v3.7.2.0data status	okinstallation	B4 Nyhavnadifferential loss correction	single-endedforward channel	channel 2reverse channel	N/Adate	2023/12/16time	12:55:13forward acquisition time	300,00reverse acquisition time	0,00gamma	499,1914k internal	0,3127k external	0,3127temperature offset calibration	1,0000default loss term (dB/km)	0,3820temperature slope calibration	1,0000multiplexer offset coefficient	1,0000multiplexer slope coefficient	1,0000fibre end	0,00T internal ref (°C)	24,36T ext. ref 1 (°C)	10,81T ext. ref 2 (°C)	10,93length (m)	temperature (°C)	Stokes	anti-Stokes-744,400	34,904	0,012	-0,008
-743,385	310,187	-0,072	0,101
-742,371	800,000	-0,017	0,042
-741,356	159,224	-0,110	0,114
-740,342	414,479	0,062	-0,099
-739,327	2,487	-0,229	0,123
-738,312	-91,635	-0,039	-0,008
-737,298	88,496	-0,150	0,124
-736,283	-34,143	0,116	0,047
-735,269	20,738	-0,333	0,200
-734,254	189,480	0,052	-0,058
-733,239	-113,562	-0,281	-0,041
-732,225	-19,022	0,097	-0,045
-731,210	-84,543	0,058	-0,013
-730,196	800,000	-0,040	0,117
-729,181	-109,533	0,082	-0,013
-728,167	64,375	-0,086	-0,064
-727,152	-200,000	-0,031	-0,111
-726,137	-200,000	0,013	-0,091
-725,123	-75,222	-0,130	0,034
-724,108	497,242	-0,045	-0,078
-723,094	322,834	-0,068	-0,097
-722,079	-129,609	-0,096	0,010
-721,064	-4,462	-0,025	0,013
-720,050	395,005	-0,066	-0,103
-719,035	687,349	0,027	-0,054
-718,021	730,745	0,027	0,054
-717,006	144,194	0,003	0,003
-715,991	-200,000	-0,023	0,124
-714,977	182,320	-0,067	-0,073
-713,962	23,851	-0,033	0,020
-712,948	800,000	0,063	0,206
-711,933	-18,951	-0,112	-0,052
-710,918	-50,203	-0,038	-0,013
-709,904	218,839	-0,060	0,071
-708,889	354,573	0,054	-0,080
-707,875	68,147	-0,093	-0,071
-706,860	-129,859	-0,150	-0,015
-705,845	299,917	0,036	-0,050
-704,831	-167,528	0,038	-0,001
-703,816	82,077	-0,047	0,038
-702,802	-159,063	-0,126	-0,005
-701,787	575,849	-0,072	0,131
-700,772	800,000	-0,060	-0,152
-699,758	-200,000	-0,007	0,109
-698,743	-114,276	0,069	-0,010
-697,729	66,368	0,113	0,085
-696,714	-200,000	0,000	0,051
-695,699	-77,542	-0,037	-0,009
-694,685	-200,000	-0,008	-0,136
-693,670	-200,000	0,014	0,050
-692,656	139,733	0,111	0,108
-691,641	-15,022	-0,039	0,019
-690,627	800,000	0,031	-0,078
-689,612	-200,000	0,033	-0,111
-688,597	-200,000	0,010	-0,112
-687,583	40,390	-0,095	0,063
-686,568	332,940	0,048	0,069
-685,554	633,703	0,039	0,075
-684,539	129,126	0,129	-0,123
-683,524	-63,550	0,084	0,025
-682,510	-200,000	0,029	0,150
-681,495	800,000	0,006	-0,012
-680,481	-200,000	0,018	-0,083
-679,466	800,000	-0,058	-0,159
-678,451	800,000	-0,027	-0,064
-677,437	-200,000	0,017	0,098
-676,422	-84,218	-0,015	-0,004
-675,408	-45,363	0,101	0,037
-674,393	-200,000	0,004	-0,018
-673,378	-1,580	0,111	-0,058
-672,364	-86,471	-0,075	-0,017
-671,349	800,000	-0,046	-0,107
-670,335	150,689	0,069	-0,070
-669,320	800,000	-0,004	0,012
-668,305	800,000	-0,013	-0,038
-667,291	552,421	0,125	0,223
-666,276	-105,560	-0,048	0,008
-665,262	31,157	0,058	0,037
-664,247	195,195	-0,021	0,024
-663,232	-200,000	0,002	0,028
-662,218	-61,084	-0,127	0,039
-661,203	-45,282	0,032	-0,012
-660,189	229,957	0,034	-0,042
-659,174	227,799	-0,089	-0,108
-658,159	112,326	0,028	-0,025
-657,145	366,631	-0,092	-0,138
-656,130	-200,000	0,005	-0,117
-655,116	114,096	-0,106	-0,096
-654,101	-67,481	-0,110	-0,032
-653,086	-181,999	-0,106	0,001
-652,072	-200,000	-0,001	-0,036
-651,057	270,973	-0,040	-0,052
-650,043	169,979	-0,023	-0,024
-649,028	-200,000	-0,015	0,052
-648,014	-112,813	0,091	-0,013
-646,999	-200,000	-0,012	0,058
-645,984	-41,999	0,060	0,023
-644,970	-79,269	0,042	0,010
-643,955	800,000	0,022	-0,059
-642,941	567,940	-0,050	-0,090
-641,926	560,244	0,028	-0,051
-640,911	117,539	0,015	-0,013
-639,897	521,960	-0,040	0,070
-638,882	-200,000	0,012	0,050
-637,868	277,170	-0,091	-0,121
-636,853	-106,960	0,097	0,016
-635,838	50,153	-0,070	-0,049
-634,824	-200,000	0,004	-0,021
-633,809	-200,000	-0,026	0,137
-632,795	800,000	-0,100	0,242
-631,780	347,317	0,041	0,060
-630,765	-200,000	-0,005	-0,099
-629,751	-200,000	-0,003	0,023
-628,736	31,940	-0,182	-0,116
-627,722	257,577	-0,057	-0,073
-626,707	133,685	0,098	-0,094
-625,692	78,762	0,020	-0,016
-624,678	-200,000	0,005	0,040
-623,663	800,000	-0,014	-0,033
-622,649	255,808	-0,100	0,127
-621,634	-16,712	-0,059	-0,027
-620,619	52,946	-0,030	0,021
-619,605	-156,803	0,118	0,005
-618,590	308,552	0,110	0,153
-617,576	273,376	0,108	-0,141
-616,561	-200,000	0,024	-0,084
-615,546	608,693	-0,063	-0,118
-614,532	112,328	-0,065	-0,058
-613,517	-200,000	0,006	-0,124
-612,503	800,000	-0,011	-0,030
-611,488	-8,061	0,190	-0,094
-610,474	-64,387	0,141	-0,042
-609,459	175,949	0,013	0,013
-608,444	198,913	0,045	-0,051
-607,430	316,256	0,072	-0,101
-606,415	-101,143	0,042	-0,008
-605,401	-23,676	-0,104	0,046
-604,386	800,000	0,045	0,105
-603,371	-7,912	0,044	-0,022
-602,357	-200,000	0,027	0,130
-601,342	298,774	-0,043	0,058
-600,328	-200,000	-0,011	-0,102
-599,313	-200,000	-0,004	-0,110
-598,298	-200,000	-0,004	-0,020
-597,284	250,674	-0,022	-0,028
-596,269	-113,839	-0,087	0,012
-595,255	744,021	-0,022	-0,045
-594,240	-14,506	0,058	-0,027
-593,225	14,153	-0,072	-0,041
-592,211	-103,390	-0,027	0,005
-591,196	20,999	-0,074	-0,044
-590,182	21,889	-0,065	-0,039
-589,167	-200,000	-0,034	0,115
-588,152	15,502	-0,157	0,091
-587,138	-19,969	-0,011	0,005
-586,123	-111,315	-0,125	-0,019
-585,109	800,000	-0,040	-0,082
-584,094	-78,414	-0,146	0,037
-583,079	330,815	0,044	0,063
-582,065	-200,000	-0,020	-0,116
-581,050	425,668	-0,016	0,025
-580,036	28,955	0,140	-0,087
-579,021	800,000	-0,040	-0,116
-578,006	-46,401	-0,198	-0,072
-576,992	42,020	-0,027	0,018
-575,977	89,915	0,084	0,070
-574,963	-200,000	0,011	0,094
-573,948	-128,009	0,035	0,004
-572,934	71,333	-0,106	-0,081
-571,919	724,841	-0,036	0,071
-570,904	55,688	-0,083	0,059
-569,890	-200,000	-0,035	-0,125
-568,875	-109,049	-0,102	-0,016
-567,861	-74,247	0,114	0,030
-566,846	-121,146	0,040	-0,005
-565,831	-200,000	-0,001	0,032
-564,817	800,000	-0,014	0,043
-563,802	-5,884	0,109	-0,055
-562,788	800,000	-0,048	-0,103
-561,773	442,090	0,092	0,150
-560,758	800,000	-0,008	-0,022
-559,744	-200,000	-0,002	-0,015
-558,729	-62,057	-0,075	0,023
-557,715	-19,538	-0,045	0,020
-556,700	-200,000	0,028	-0,121
-555,685	-127,477	0,102	-0,011
-554,671	763,822	0,051	0,103
-553,656	-200,000	-0,016	0,128
-552,642	268,771	-0,033	-0,043
-551,627	800,000	0,015	-0,037
-550,612	-200,000	-0,002	0,027
-549,598	152,098	0,050	-0,051
-548,583	-200,000	-0,057	-0,205
-547,569	-0,504	-0,110	-0,058
-546,554	-87,391	0,097	0,022
-545,539	-200,000	0,010	-0,167
-544,525	-142,885	-0,052	0,004
-543,510	-114,953	0,146	-0,020
-542,496	-200,000	-0,009	-0,089
-541,481	61,258	0,038	0,028
-540,466	20,711	-0,058	-0,035
-539,452	-200,000	-0,011	0,039
-538,437	50,024	0,092	0,064
-537,423	168,647	0,022	0,023
-536,408	-42,440	0,123	-0,046
-535,393	-200,000	0,003	0,025
-534,379	34,585	-0,096	-0,062
-533,364	-200,000	0,010	-0,049
-532,350	800,000	0,039	-0,090
-531,335	-200,000	0,001	-0,049
-530,321	46,080	-0,044	-0,030
-529,306	-132,585	-0,072	0,007
-528,291	800,000	-0,031	0,080
-527,277	165,188	-0,069	-0,072
-526,262	196,712	-0,036	-0,041
-525,248	-102,181	0,075	0,013
-524,233	-12,045	-0,097	-0,047
-523,218	-38,153	0,070	0,027
-522,204	35,261	0,126	0,081
-521,189	539,320	0,030	-0,053
-520,175	-152,118	0,066	-0,003
-519,160	800,000	-0,021	-0,059
-518,145	100,588	-0,084	-0,072
-517,131	-200,000	0,008	-0,077
-516,116	97,329	-0,068	-0,057
-515,102	46,100	0,048	-0,033
-514,087	-101,301	-0,041	-0,007
-513,072	247,737	0,019	-0,024
-512,058	23,886	-0,163	-0,099
-511,043	298,436	0,022	-0,030
-510,029	800,000	0,022	0,049
-509,014	716,549	-0,054	0,107
-507,999	112,203	-0,056	0,050
-506,985	800,000	0,015	-0,039
-505,970	-100,380	-0,111	0,020
-504,956	-200,000	0,026	-0,110
-503,941	-15,950	0,072	0,034
-502,926	-66,356	-0,080	-0,023
-501,912	379,734	-0,025	-0,037
-500,897	800,000	0,008	-0,019
-499,883	-38,554	-0,117	-0,045
-498,868	-200,000	0,007	0,092
-497,853	-86,609	0,073	0,016
-496,839	-200,000	0,046	-0,173
-495,824	-200,000	0,019	0,075
-494,810	-83,300	-0,128	0,030
-493,795	78,962	-0,044	0,034
-492,781	800,000	-0,011	-0,030
-491,766	-200,000	0,008	-0,074
-490,751	-54,669	-0,131	0,043
-489,737	56,465	-0,097	0,069
-488,722	800,000	0,018	0,042
-487,708	800,000	0,055	0,131
-486,693	-33,220	-0,108	-0,044
-485,678	-46,520	0,055	-0,020
-484,664	11,530	0,045	0,026
-483,649	210,562	-0,075	-0,087
-482,635	-95,835	-0,036	-0,007
-481,620	82,839	0,075	0,060
-480,605	213,935	-0,055	-0,065
-479,591	65,397	-0,039	0,029
-478,576	-154,880	-0,044	0,002
-477,562	295,177	0,057	-0,078
-476,547	35,856	-0,045	0,029
-475,532	415,730	0,051	0,080
-474,518	130,215	-0,088	-0,083
-473,503	115,897	0,100	0,090
-472,489	296,307	-0,073	0,098
-471,474	800,000	0,026	0,082
-470,459	-162,917	0,134	0,005
-469,445	-200,000	0,042	0,173
-468,430	678,338	0,034	0,065
-467,416	800,000	-0,066	0,158
-466,401	73,839	0,065	-0,050
-465,386	388,119	0,114	0,175
-464,372	322,813	0,091	0,128
-463,357	-200,000	-0,015	-0,067
-462,343	800,000	-0,015	0,049
-461,328	200,377	-0,077	0,087
-460,313	-49,652	-0,063	-0,022
-459,299	-116,484	-0,076	0,010
-458,284	93,312	-0,095	0,079
-457,270	-200,000	0,013	0,164
-456,255	800,000	0,013	-0,036
-455,241	-152,653	-0,074	-0,004
-454,226	-200,000	-0,013	-0,063
-453,211	800,000	-0,012	0,027
-452,197	-41,576	-0,074	-0,028
-451,182	-200,000	-0,013	-0,132
-450,168	101,356	0,018	-0,016
-449,153	-12,939	-0,015	0,007
-448,138	-148,484	-0,096	0,006
-447,124	-116,971	-0,033	-0,004
-446,109	311,760	-0,070	-0,097
-445,095	800,000	-0,019	0,060
-444,080	800,000	-0,037	0,109
-443,065	-200,000	-0,012	0,063
-442,051	513,050	0,081	0,139
-441,036	-78,549	-0,069	-0,017
-440,022	-200,000	-0,021	0,100
-439,007	670,122	0,043	0,082
-437,992	128,351	0,058	-0,054
-436,978	274,028	-0,068	-0,089
-435,963	-52,516	0,069	-0,023
-434,949	587,147	-0,007	-0,013
-433,934	-200,000	-0,014	0,080
-432,919	800,000	0,005	-0,017
-431,905	431,400	0,025	0,040
-430,890	12,022	0,023	0,013
-429,876	-200,000	0,001	-0,033
-428,861	38,627	0,050	0,033
-427,846	314,158	0,018	-0,024
-426,832	-12,778	0,057	-0,027
-425,817	-43,271	0,089	-0,033
-424,803	56,719	0,075	-0,054
-423,788	155,264	0,069	-0,070
-422,773	95,564	0,063	-0,053
-421,759	437,266	0,107	0,172
-420,744	-200,000	-0,020	-0,080
-419,730	78,630	-0,104	-0,081
-418,715	-200,000	0,021	-0,088
-417,701	91,917	0,156	-0,129
-416,686	85,958	-0,081	0,065
-415,671	35,645	-0,073	0,047
-414,657	645,380	0,052	0,097
-413,642	7,207	-0,088	0,048
-412,628	-200,000	0,017	0,056
-411,613	250,163	0,015	0,019
-410,598	-200,000	0,003	-0,168
-409,584	800,000	-0,021	-0,057
-408,569	-200,000	0,012	0,148
-407,555	800,000	0,026	0,074
-406,540	-157,951	-0,076	0,003
-405,525	191,917	0,062	0,069
-404,511	186,875	-0,075	-0,083
-403,496	237,008	0,074	-0,091
-402,482	355,694	0,089	-0,130
-401,467	800,000	0,013	-0,034
-400,452	800,000	0,010	0,027
-399,438	-142,436	-0,048	-0,003
-398,423	-109,214	0,079	0,012
-397,409	40,255	0,034	0,023
-396,394	-60,315	0,025	0,008
-395,379	-200,000	0,015	-0,065
-394,365	212,486	0,123	-0,142
-393,350	782,643	0,048	0,097
-392,336	-34,412	-0,101	0,041
-391,321	171,119	-0,028	0,029
-390,306	-114,613	-0,136	0,019
-389,292	800,000	0,064	0,139
-388,277	-44,578	0,066	-0,024
-387,263	32,066	0,076	0,048
-386,248	79,151	0,124	-0,098
-385,233	-200,000	-0,012	0,044
-384,219	-200,000	0,005	-0,046
-383,204	-105,226	-0,065	0,011
-382,190	-22,164	0,037	-0,016
-381,175	-200,000	0,036	-0,122
-380,160	329,866	-0,018	0,025
-379,146	-200,000	-0,003	-0,120
-378,131	-133,826	0,028	-0,002
-377,117	-200,000	0,006	0,163
-376,102	127,453	0,131	0,122
-375,088	800,000	0,035	0,091
-374,073	-125,556	0,133	0,015
-373,058	800,000	-0,061	0,164
-372,044	-87,382	0,039	0,009
-371,029	138,274	0,085	0,082
-370,015	-174,364	-0,104	0,002
-369,000	-60,217	-0,122	-0,038
-367,985	248,614	-0,041	-0,051
-366,971	295,230	-0,085	-0,114
-365,956	-200,000	0,013	0,112
-364,942	-180,928	0,100	0,001
-363,927	147,354	-0,026	-0,026
-362,912	-2,193	0,035	-0,018
-361,898	12,334	-0,069	-0,039
-360,883	25,819	0,064	-0,039
-359,869	534,977	0,067	-0,117
-358,854	-103,881	-0,138	-0,023
-357,839	219,755	0,071	-0,084
-356,825	111,653	0,013	0,012
-355,810	-200,000	0,002	0,087
-354,796	-182,953	0,054	0,001
-353,781	323,749	-0,072	-0,100
-352,766	81,133	0,039	0,031
-351,752	296,300	0,037	-0,049
-350,737	124,474	0,085	0,079
-349,723	361,118	-0,029	0,043
-348,708	-95,838	0,135	0,026
-347,693	-200,000	-0,002	-0,036
-346,679	37,043	-0,128	-0,083
-345,664	9,035	-0,139	-0,077
-344,650	-200,000	0,055	-0,180
-343,635	70,320	0,026	0,020
-342,620	-15,195	0,008	0,004
-341,606	-200,000	-0,012	0,056
-340,591	169,901	-0,109	-0,114
-339,577	800,000	-0,053	-0,171
-338,562	157,588	-0,083	0,084
-337,548	-140,324	-0,086	-0,006
-336,533	672,734	-0,012	0,024
-335,518	-37,890	0,110	0,043
-334,504	-79,545	0,074	-0,018
-333,489	297,223	-0,009	0,012
-332,475	287,720	-0,038	-0,051
-331,460	202,857	-0,040	0,045
-330,445	-107,856	-0,086	-0,014
-329,431	473,576	0,063	0,104
-328,416	12,551	0,083	0,047
-327,402	69,513	0,108	0,082
-326,387	800,000	-0,061	0,143
-325,372	251,887	0,119	0,148
-324,358	23,275	-0,046	0,028
-323,343	800,000	0,016	0,033
-322,329	178,607	0,065	0,070
-321,314	196,876	-0,012	0,013
-320,299	-100,792	-0,101	0,018
-319,285	800,000	-0,014	-0,034
-318,270	532,085	-0,015	-0,027
-317,256	99,529	0,063	-0,053
-316,241	800,000	0,063	-0,140
-315,226	3,595	0,097	-0,052
-314,212	800,000	0,031	0,084
-313,197	800,000	-0,049	0,102
-312,183	-200,000	0,010	0,065
-311,168	77,090	-0,026	0,020
-310,153	-200,000	0,011	-0,048
-309,139	-200,000	0,005	-0,028
-308,124	-16,714	-0,020	-0,009
-307,110	47,134	-0,063	0,043
-306,095	475,533	0,028	-0,046
-305,080	800,000	0,045	0,121
-304,066	800,000	-0,061	0,143
-303,051	-46,634	0,021	0,007
-302,037	-200,000	-0,003	-0,098
-301,022	167,392	0,066	0,069
-300,008	754,918	0,079	0,157
-298,993	-126,745	0,123	0,013
-297,978	45,222	0,156	-0,105
-296,964	-153,128	-0,023	0,001
-295,949	41,661	-0,138	-0,091
-294,935	-200,000	0,024	-0,122
-293,920	800,000	-0,020	-0,060
-292,905	119,963	0,094	-0,085
-291,891	13,678	0,066	0,037
-290,876	-200,000	0,017	0,061
-289,862	-45,651	-0,040	0,015
-288,847	-200,000	-0,013	-0,086
-287,832	-21,459	-0,025	0,011
-286,818	-124,542	0,107	-0,012
-285,803	800,000	-0,043	0,112
-284,789	800,000	0,054	0,133
-283,774	-10,682	-0,104	0,050
-282,759	-200,000	0,044	-0,204
-281,745	-200,000	0,022	-0,107
-280,730	-28,639	0,048	0,020
-279,716	-139,139	-0,153	0,012
-278,701	800,000	0,065	0,146
-277,686	248,681	-0,049	0,061
-276,672	-200,000	0,008	0,058
-275,657	250,993	-0,018	-0,023
-274,643	127,621	0,047	-0,044
-273,628	-5,156	-0,081	-0,041
-272,613	223,526	-0,031	0,036
-271,599	800,000	-0,035	0,085
-270,584	49,595	0,179	0,123
-269,570	-200,000	0,034	0,236
-268,555	-50,482	0,092	0,032
-267,540	-42,291	0,062	0,023
-266,526	-200,000	-0,007	-0,042
-265,511	353,885	0,105	-0,153
-264,497	371,565	-0,059	-0,088
-263,482	-200,000	-0,010	0,033
-262,467	24,038	0,121	0,073
-261,453	-200,000	0,005	0,025
-260,438	800,000	-0,020	0,055
-259,424	800,000	0,031	-0,064
-258,409	800,000	-0,061	-0,148
-257,395	660,422	0,078	-0,147
-256,380	-86,568	0,075	0,017
-255,365	800,000	-0,011	0,034
-254,351	-2,709	-0,049	-0,025
-253,336	148,435	-0,115	-0,114
-252,322	21,512	0,083	-0,049
-251,307	-162,591	-0,075	-0,003
-250,292	-200,000	0,021	0,115
-249,278	800,000	-0,035	0,093
-248,263	-29,259	0,036	0,015
-247,249	-13,099	0,041	0,019
-246,234	-200,000	-0,033	0,110
-245,219	18,475	-0,084	-0,049
-244,205	-127,734	-0,075	-0,008
-243,190	-200,000	0,003	0,035
-242,176	-21,056	0,138	0,061
-241,161	-200,000	0,001	0,090
-240,146	289,989	-0,077	0,102
-239,132	-68,759	-0,063	0,018
-238,117	-188,777	-0,151	-0,001
-237,103	34,427	-0,141	-0,090
-236,088	16,424	-0,108	-0,062
-235,073	-9,707	-0,093	0,045
-234,059	260,904	0,032	-0,041
-233,044	800,000	-0,021	-0,049
-232,030	800,000	-0,016	0,035
-231,015	2,471	-0,096	-0,051
-230,000	-200,000	-0,003	-0,072
-228,986	117,197	0,045	-0,040
-227,971	-137,322	0,028	-0,002
-226,957	447,655	-0,070	0,112
-225,942	-130,949	0,100	-0,010
-224,927	-125,400	-0,091	0,010
-223,913	-25,896	0,039	-0,017
-222,898	132,830	-0,013	0,012
-221,884	16,574	0,054	0,031
-220,869	225,333	0,071	-0,084
-219,855	-51,753	0,027	-0,009
-218,840	47,472	-0,113	0,077
-217,825	612,846	-0,113	0,207
-216,811	121,325	0,052	-0,047
-215,796	-200,000	0,017	-0,070
-214,782	-110,846	0,100	-0,015
-213,767	800,000	0,034	-0,071
-212,752	84,590	-0,066	-0,053
-211,738	-200,000	-0,014	-0,080
-210,723	293,955	0,101	0,135
-209,709	275,154	-0,057	0,074
-208,694	800,000	0,029	-0,061
-207,679	-2,962	-0,150	0,076
-206,665	97,331	-0,054	-0,045
-205,650	-200,000	0,014	-0,098
-204,636	0,741	0,095	-0,050
-203,621	-1,381	-0,035	-0,018
-202,606	-20,011	0,174	-0,078
-201,592	-187,807	-0,161	0,001
-200,577	-23,903	0,044	-0,019
-199,563	-19,822	0,054	0,024
-198,548	-64,335	0,135	0,040
-197,533	573,717	0,067	0,119
-196,519	686,791	-0,018	-0,034
-195,504	740,744	0,049	0,097
-194,490	-200,000	-0,026	0,128
-193,475	-200,000	-0,038	-0,132
-192,460	13,059	-0,094	0,053
-191,446	800,000	-0,010	0,022
-190,431	-190,956	-0,052	-0,000
-189,417	-171,494	0,081	0,002
-188,402	4,246	0,058	0,031
-187,387	-25,133	0,024	-0,010
-186,373	-116,181	-0,060	0,008
-185,358	800,000	-0,050	-0,131
-184,344	-200,000	0,062	0,000
-183,329	627,121	0,054	0,100
-182,315	-200,000	0,001	0,006
-181,300	247,639	-0,028	0,035
-180,285	231,398	0,087	-0,104
-179,271	210,850	-0,061	-0,069
-178,256	53,093	-0,013	-0,009
-177,242	75,802	-0,105	0,081
-176,227	84,055	-0,059	-0,047
-175,212	-46,261	0,090	-0,032
-174,198	800,000	0,055	-0,141
-173,183	-200,000	0,012	-0,069
-172,169	-64,498	0,034	0,010
-171,154	436,527	-0,088	0,139
-170,139	-200,000	0,026	-0,118
-169,125	609,856	-0,049	0,089
-168,110	91,057	0,062	0,051
-167,096	800,000	0,020	-0,052
-166,081	334,107	-0,069	-0,097
-165,066	800,000	-0,034	-0,091
-164,052	800,000	0,059	-0,140
-163,037	-24,382	-0,124	0,054
-162,023	-73,690	0,108	0,028
-161,008	215,113	-0,032	0,037
-159,993	209,279	0,116	0,132
-158,979	-157,485	-0,071	-0,003
-157,964	117,807	-0,089	-0,080
-156,950	-14,227	-0,082	-0,038
-155,935	-62,843	0,178	0,053
-154,920	10,598	-0,026	0,014
-153,906	-200,000	0,006	0,146
-152,891	-200,000	0,042	0,141
-151,877	-200,000	0,027	-0,116
-150,862	-135,358	-0,070	0,006
-149,847	-200,000	0,040	0,142
-148,833	257,285	-0,112	-0,140
-147,818	81,574	-0,077	-0,061
-146,804	310,849	0,039	0,053
-145,789	198,740	-0,049	0,054
-144,775	800,000	-0,018	0,042
-143,760	-200,000	0,001	0,030
-142,745	-75,456	0,113	-0,029
-141,731	800,000	0,017	0,043
-140,716	-200,000	0,007	0,031
-139,702	-155,410	0,097	-0,004
-138,687	-200,000	0,015	0,086
-137,672	121,063	0,049	0,044
-136,658	231,926	-0,115	-0,137
-135,643	-200,000	-0,047	-0,219
-134,629	-200,000	0,020	0,076
-133,614	-200,000	0,011	0,083
-132,599	800,000	-0,042	0,113
-131,585	246,253	0,056	-0,069
-130,570	800,000	0,036	0,078
-129,556	-14,488	0,060	0,028
-128,541	-200,000	-0,006	-0,030
-127,526	800,000	-0,007	-0,016
-126,512	800,000	-0,022	0,063
-125,497	-53,211	0,081	-0,027
-124,483	-200,000	-0,015	0,098
-123,468	42,134	0,117	0,077
-122,453	-151,081	0,062	0,003
-121,439	-70,390	0,024	0,007
-120,424	-200,000	-0,017	-0,096
-119,410	-132,599	0,124	-0,011
-118,395	-200,000	-0,020	0,098
