DTS Sentinel unit serial number:	SN410029Multiplexer serial number:	ORYXHardware model number:	OX2-SRSoftware version number:	ORYX F/W v4,00 Oryx Data Collector v3.7.2.0data status	okinstallation	B4 Nyhavnadifferential loss correction	single-endedforward channel	channel 2reverse channel	N/Adate	2023/12/19time	11:20:13forward acquisition time	300,00reverse acquisition time	0,00gamma	499,1914k internal	0,3128k external	0,3128temperature offset calibration	1,0000default loss term (dB/km)	0,3820temperature slope calibration	1,0000multiplexer offset coefficient	1,0000multiplexer slope coefficient	1,0000fibre end	0,00T internal ref (°C)	19,82T ext. ref 1 (°C)	4,55T ext. ref 2 (°C)	4,50length (m)	temperature (°C)	Stokes	anti-Stokes-744,400	-25,254	-0,106	0,047
-743,385	-149,025	-0,298	0,018
-742,371	-200,000	0,011	-0,093
-741,356	-23,255	-0,289	0,129
-740,342	-200,000	-0,005	-0,095
-739,327	-46,495	-0,250	0,091
-738,312	-200,000	-0,000	-0,027
-737,298	6,258	-0,234	0,129
-736,283	800,000	-0,041	0,098
-735,269	151,751	-0,154	0,156
-734,254	-200,000	0,005	0,019
-733,239	-99,651	-0,498	-0,092
-732,225	-37,347	0,154	-0,061
-731,210	241,944	-0,038	-0,047
-730,196	220,670	0,097	-0,116
-729,181	70,421	-0,096	0,074
-728,167	-111,784	0,047	0,007
-727,152	-200,000	-0,005	0,019
-726,137	-200,000	-0,014	-0,051
-725,123	-2,213	-0,067	-0,035
-724,108	-200,000	-0,006	-0,072
-723,094	367,716	-0,155	-0,234
-722,079	-19,181	-0,073	-0,033
-721,064	693,015	0,035	-0,069
-720,050	-15,059	-0,115	-0,054
-719,035	800,000	-0,032	-0,069
-718,021	-143,078	-0,170	0,012
-717,006	800,000	-0,029	0,064
-715,991	8,240	-0,147	-0,082
-714,977	295,317	-0,037	-0,051
-713,962	-99,610	-0,152	0,028
-712,948	-200,000	0,022	-0,097
-711,933	165,923	0,035	0,037
-710,918	58,174	-0,191	0,139
-709,904	-127,974	-0,177	0,019
-708,889	91,614	-0,119	-0,100
-707,875	800,000	-0,038	0,089
-706,860	202,726	-0,076	-0,088
-705,845	-200,000	-0,027	-0,142
-704,831	79,411	0,073	0,058
-703,816	800,000	-0,035	0,080
-702,802	-13,500	-0,101	-0,049
-701,787	139,993	-0,132	-0,130
-700,772	335,647	-0,043	0,062
-699,758	-68,689	-0,088	0,025
-698,743	-200,000	0,015	0,082
-697,729	800,000	0,028	0,060
-696,714	199,288	-0,098	-0,112
-695,699	121,029	-0,068	0,063
-694,685	117,954	-0,092	-0,084
-693,670	-200,000	-0,007	-0,028
-692,656	800,000	-0,030	0,087
-691,641	-161,347	0,090	-0,003
-690,627	566,206	0,054	0,098
-689,612	-26,953	-0,064	0,028
-688,597	-17,224	-0,224	-0,105
-687,583	-200,000	-0,035	-0,201
-686,568	800,000	0,044	-0,105
-685,554	-200,000	0,004	-0,051
-684,539	-31,516	0,076	0,031
-683,524	113,771	0,031	-0,028
-682,510	281,932	-0,095	0,127
-681,495	133,846	-0,057	0,055
-680,481	144,455	-0,108	0,107
-679,466	800,000	0,027	0,074
-678,451	-133,726	-0,070	0,006
-677,437	162,552	0,054	0,057
-676,422	71,605	0,041	0,031
-675,408	-73,184	0,041	-0,011
-674,393	800,000	0,005	0,012
-673,378	-200,000	0,016	0,078
-672,364	70,830	-0,068	-0,052
-671,349	330,302	-0,060	-0,086
-670,335	-200,000	-0,030	-0,101
-669,320	-200,000	-0,013	0,162
-668,305	131,994	0,073	0,070
-667,291	800,000	-0,013	-0,039
-666,276	-61,389	-0,039	-0,012
-665,262	78,109	-0,113	0,089
-664,247	-200,000	-0,007	0,058
-663,232	51,611	-0,140	-0,099
-662,218	800,000	0,091	0,207
-661,203	-200,000	0,005	0,117
-660,189	262,230	-0,062	-0,080
-659,174	-79,383	-0,151	0,038
-658,159	176,113	-0,052	-0,056
-657,145	297,102	-0,019	-0,025
-656,130	37,141	0,075	0,049
-655,116	134,328	0,073	0,070
-654,101	78,769	0,090	0,071
-653,086	269,250	-0,066	0,086
-652,072	-200,000	0,011	-0,064
-651,057	162,136	-0,029	-0,030
-650,043	-200,000	-0,020	-0,128
-649,028	186,462	-0,073	-0,080
-648,014	-200,000	-0,020	0,075
-646,999	413,224	0,075	0,119
-645,984	420,524	0,063	0,100
-644,970	-74,998	0,083	0,022
-643,955	54,591	-0,091	-0,065
-642,941	-52,523	-0,082	0,028
-641,926	-200,000	-0,011	-0,104
-640,911	15,356	0,096	-0,056
-639,897	-96,500	0,084	0,016
-638,882	-51,889	-0,134	-0,046
-637,868	683,143	-0,063	-0,122
-636,853	236,238	0,053	-0,065
-635,838	4,665	-0,046	-0,025
-634,824	800,000	0,058	-0,125
-633,809	-171,703	0,175	0,004
-632,795	800,000	-0,014	-0,030
-631,780	-47,775	0,022	0,008
-630,765	34,812	-0,028	-0,018
-629,751	-200,000	0,002	0,027
-628,736	-200,000	0,001	-0,059
-627,722	-200,000	0,000	-0,203
-626,707	-134,405	-0,112	0,010
-625,692	-92,094	0,140	-0,029
-624,678	-85,304	0,082	-0,019
-623,663	545,722	-0,035	-0,063
-622,649	-200,000	0,015	-0,163
-621,634	74,293	-0,141	0,110
-620,619	680,919	-0,082	-0,160
-619,605	9,543	0,044	-0,025
-618,590	392,582	-0,061	0,094
-617,576	-200,000	-0,009	-0,029
-616,561	249,424	-0,089	-0,112
-615,546	800,000	0,039	-0,085
-614,532	-200,000	-0,033	-0,120
-613,517	38,902	0,079	-0,052
-612,503	-46,374	-0,091	0,033
-611,488	-200,000	0,012	-0,158
-610,474	426,957	0,048	-0,076
-609,459	-166,709	-0,070	-0,002
-608,444	424,410	-0,022	0,036
-607,430	215,083	-0,075	-0,088
-606,415	800,000	-0,030	0,081
-605,401	8,956	0,041	-0,023
-604,386	-200,000	-0,007	0,037
-603,371	319,939	-0,043	0,060
-602,357	800,000	-0,025	-0,074
-601,342	162,727	-0,046	-0,048
-600,328	-30,826	0,060	0,025
-599,313	-141,683	0,077	0,006
-598,298	-200,000	-0,123	0,000
-597,284	64,807	-0,076	0,057
-596,269	-46,284	0,076	0,027
-595,255	208,595	-0,043	-0,049
-594,240	2,949	0,063	-0,034
-593,225	-41,413	0,167	-0,063
-592,211	-78,546	-0,130	-0,033
-591,196	-200,000	-0,014	0,086
-590,182	-75,983	0,083	0,021
-589,167	-70,914	0,056	0,016
-588,152	18,492	-0,074	0,044
-587,138	800,000	-0,015	-0,043
-586,123	-108,191	-0,157	-0,025
-585,109	800,000	0,033	0,102
-584,094	-180,551	-0,127	0,002
-583,079	45,775	-0,052	-0,035
-582,065	-200,000	0,044	0,172
-581,050	-74,234	-0,064	-0,017
-580,036	-74,918	-0,102	-0,027
-579,021	-102,364	-0,088	-0,015
-578,006	-171,454	0,083	0,002
-576,992	-123,588	0,094	0,011
-575,977	-108,858	0,118	-0,019
-574,963	-200,000	0,002	-0,094
-573,948	585,610	-0,044	-0,080
-572,934	58,294	-0,117	0,084
-571,919	-200,000	-0,006	0,024
-570,904	800,000	0,031	0,078
-569,890	-200,000	0,003	-0,076
-568,875	-200,000	-0,000	0,002
-567,861	800,000	0,006	0,019
-566,846	-60,254	-0,059	-0,018
-565,831	-136,449	0,050	-0,004
-564,817	41,476	-0,118	0,079
-563,802	-200,000	-0,013	0,080
-562,788	-200,000	-0,027	-0,160
-561,773	326,452	-0,083	0,117
-560,758	-200,000	-0,003	0,055
-559,744	70,154	0,049	-0,037
-558,729	800,000	0,030	-0,086
-557,715	5,468	-0,205	-0,111
-556,700	754,486	0,040	0,079
-555,685	-127,583	-0,055	-0,006
-554,671	-200,000	-0,009	0,064
-553,656	-200,000	-0,016	-0,131
-552,642	-200,000	-0,017	0,129
-551,627	-77,984	0,048	0,012
-550,612	-94,026	0,188	0,038
-549,598	-1,087	-0,035	0,018
-548,583	-200,000	-0,004	-0,124
-547,569	800,000	-0,059	-0,142
-546,554	314,729	0,055	0,076
-545,539	-63,286	-0,108	-0,033
-544,525	126,527	0,080	0,075
-543,510	12,324	0,005	0,003
-542,496	71,100	-0,085	-0,065
-541,481	800,000	-0,030	-0,083
-540,466	550,290	0,063	-0,112
-539,452	-200,000	-0,005	-0,035
-538,437	-200,000	-0,019	0,083
-537,423	-200,000	-0,002	-0,043
-536,408	78,206	-0,012	0,010
-535,393	18,412	0,104	-0,061
-534,379	470,826	-0,080	-0,134
-533,364	456,501	0,040	-0,066
-532,350	-154,931	0,101	0,005
-531,335	-123,623	0,027	-0,003
-530,321	800,000	0,042	0,114
-529,306	48,968	0,084	-0,058
-528,291	-200,000	0,008	-0,052
-527,277	-163,246	0,030	0,001
-526,262	419,439	0,050	0,079
-525,248	155,288	0,088	0,090
-524,233	295,768	0,057	-0,077
-523,218	-200,000	0,012	0,076
-522,204	-147,875	-0,036	-0,002
-521,189	800,000	-0,040	-0,089
-520,175	341,078	0,065	0,095
-519,160	124,390	0,064	-0,060
-518,145	-200,000	0,013	0,079
-517,131	-157,039	0,043	-0,002
-516,116	-51,157	0,025	0,009
-515,102	426,830	0,043	0,068
-514,087	800,000	0,050	0,112
-513,072	289,865	-0,039	0,052
-512,058	-38,572	-0,082	-0,032
-511,043	800,000	0,057	-0,145
-510,029	172,541	-0,076	0,081
-509,014	-121,694	0,032	-0,004
-507,999	565,004	-0,039	-0,070
-506,985	342,573	-0,047	-0,068
-505,970	350,240	0,056	0,081
-504,956	-49,863	0,076	0,027
-503,941	189,090	-0,116	0,129
-502,926	800,000	0,023	0,072
-501,912	800,000	0,059	0,188
-500,897	800,000	0,049	0,105
-499,883	-78,837	-0,050	0,012
-498,868	-132,588	0,120	-0,011
-497,853	800,000	-0,048	-0,147
-496,839	49,986	0,036	-0,025
-495,824	-200,000	-0,010	0,066
-494,810	-154,966	0,092	0,004
-493,795	778,869	-0,050	0,101
-492,781	107,245	0,053	-0,046
-491,766	209,443	-0,080	-0,093
-490,751	8,280	0,057	-0,031
-489,737	-200,000	-0,045	0,169
-488,722	-200,000	0,005	0,052
-487,708	-50,910	0,054	0,019
-486,693	51,120	-0,033	0,023
-485,678	-185,515	0,093	-0,001
-484,664	-9,663	-0,070	-0,034
-483,649	93,595	0,082	0,068
-482,635	800,000	-0,012	-0,030
-481,620	-93,207	0,054	-0,011
-480,605	-5,084	-0,073	-0,037
-479,591	206,912	-0,061	0,070
-478,576	330,966	0,048	0,068
-477,562	800,000	-0,055	-0,172
-476,547	35,887	-0,049	0,031
-475,532	-200,000	0,005	-0,047
-474,518	-200,000	-0,021	-0,094
-473,503	29,926	0,086	-0,054
-472,489	800,000	-0,019	-0,062
-471,474	-119,216	-0,077	0,010
-470,459	-97,695	-0,071	0,013
-469,445	-57,697	-0,024	0,008
-468,430	-200,000	0,002	-0,012
-467,416	-127,484	0,090	0,009
-466,401	290,294	0,034	0,045
-465,386	-200,000	0,001	0,087
-464,372	210,873	-0,086	0,100
-463,357	34,381	-0,078	0,050
-462,343	-88,543	-0,055	-0,012
-461,328	-200,000	0,009	0,127
-460,313	142,159	-0,062	0,061
-459,299	183,473	0,102	0,111
-458,284	-100,435	-0,110	0,020
-457,270	79,581	0,067	-0,053
-456,255	332,666	-0,034	-0,049
-455,241	-2,759	-0,139	-0,071
-454,226	-200,000	-0,003	0,046
-453,211	-115,855	0,051	-0,007
-452,197	-200,000	-0,038	-0,141
-451,182	212,535	0,094	0,110
-450,168	-200,000	-0,015	0,054
-449,153	-200,000	-0,013	-0,074
-448,138	122,633	0,038	-0,035
-447,124	-78,203	0,030	-0,008
-446,109	495,223	0,063	-0,107
-445,095	3,841	0,104	0,056
-444,080	-179,639	-0,052	0,001
-443,065	546,878	-0,033	0,058
-442,051	187,964	-0,062	-0,068
-441,036	-96,527	0,027	0,005
-440,022	176,023	0,077	-0,083
-439,007	-200,000	0,005	-0,066
-437,992	29,486	0,164	0,102
-436,978	800,000	-0,023	-0,062
-435,963	-106,824	-0,061	0,010
-434,949	704,774	-0,041	0,080
-433,934	-200,000	-0,012	-0,069
-432,919	800,000	0,021	-0,054
-431,905	76,436	-0,012	-0,009
-430,890	-7,110	-0,034	-0,017
-429,876	-25,982	0,027	0,012
-428,861	-74,793	0,062	0,016
-427,846	174,260	-0,040	-0,043
-426,832	-200,000	-0,011	-0,061
-425,817	-200,000	-0,016	-0,119
-424,803	-39,428	0,114	0,044
-423,788	-200,000	0,031	0,131
-422,773	104,205	0,128	0,111
-421,759	-124,266	0,180	0,020
-420,744	576,676	-0,049	0,088
-419,730	301,696	0,029	0,039
-418,715	-95,317	-0,115	-0,022
-417,701	-200,000	0,004	-0,066
-416,686	87,814	0,095	-0,077
-415,671	-200,000	0,018	0,117
-414,657	39,607	-0,045	0,029
-413,642	-129,977	0,092	0,009
-412,628	-97,868	-0,008	-0,002
-411,613	800,000	-0,033	-0,074
-410,598	227,049	0,040	0,048
-409,584	406,944	0,060	-0,093
-408,569	800,000	-0,039	0,095
-407,555	76,576	0,125	0,097
-406,540	482,041	-0,054	0,091
-405,525	606,385	0,080	0,146
-404,511	800,000	-0,043	0,098
-403,496	-49,835	-0,026	-0,009
-402,482	-200,000	0,005	0,111
-401,467	240,179	0,022	0,027
-400,452	9,968	0,067	-0,037
-399,438	-16,779	0,015	-0,007
-398,423	-57,048	-0,099	0,032
-397,409	-107,373	-0,107	0,017
-396,394	612,857	-0,030	-0,055
-395,379	358,449	-0,029	-0,042
-394,365	-200,000	0,005	0,075
-393,350	31,609	0,084	-0,053
-392,336	167,085	0,040	0,042
-391,321	4,535	-0,053	0,028
-390,306	-148,508	0,098	0,006
-389,292	-0,571	-0,060	0,031
-388,277	121,003	0,049	-0,045
-387,263	-61,951	0,119	-0,036
-386,248	557,045	0,104	-0,184
-385,233	800,000	-0,064	-0,171
-384,219	-107,104	0,031	0,005
-383,204	195,655	-0,117	-0,130
-382,190	-200,000	-0,021	-0,099
-381,175	-62,647	0,059	0,018
-380,160	-200,000	0,001	-0,050
-379,146	800,000	0,016	0,044
-378,131	-53,897	0,109	0,036
-377,117	371,369	0,022	-0,032
-376,102	575,403	-0,035	0,063
-375,088	53,257	-0,093	0,065
-374,073	-200,000	0,024	-0,096
-373,058	-200,000	-0,031	0,103
-372,044	138,083	-0,006	-0,006
-371,029	-200,000	0,003	-0,053
-370,015	-54,787	-0,033	0,011
-369,000	109,645	-0,045	0,039
-367,985	669,287	-0,047	0,089
-366,971	800,000	0,010	0,022
-365,956	-200,000	-0,028	-0,142
-364,942	14,986	-0,102	-0,058
-363,927	89,128	-0,075	0,061
-362,912	-101,910	0,132	-0,023
-361,898	-200,000	-0,003	-0,019
-360,883	735,220	0,020	0,039
-359,869	800,000	-0,016	-0,037
-358,854	-127,086	0,079	0,008
-357,839	-176,594	0,168	0,003
-356,825	343,329	-0,111	0,160
-355,810	-200,000	-0,009	0,050
-354,796	-19,846	0,086	0,039
-353,781	800,000	-0,031	-0,092
-352,766	800,000	-0,025	-0,065
-351,752	64,504	0,051	0,038
-350,737	-119,167	-0,018	-0,002
-349,723	-5,429	0,083	-0,042
-348,708	-200,000	-0,015	0,082
-347,693	-200,000	0,003	0,038
-346,679	-200,000	0,013	0,093
-345,664	181,950	0,050	0,054
-344,650	-0,163	-0,115	-0,060
-343,635	-56,269	-0,054	-0,018
-342,620	729,534	0,051	0,101
-341,606	-200,000	0,003	-0,015
-340,591	-88,525	-0,030	0,006
-339,577	-200,000	-0,013	0,130
-338,562	-200,000	0,003	0,043
-337,548	205,941	-0,044	0,051
-336,533	-200,000	0,006	0,085
-335,518	-200,000	-0,005	0,026
-334,504	800,000	0,057	0,146
-333,489	23,190	-0,117	-0,070
-332,475	-200,000	0,009	-0,103
-331,460	147,958	0,101	0,100
-330,445	-170,090	0,091	-0,002
-329,431	-200,000	-0,015	-0,056
-328,416	-103,406	0,081	-0,014
-327,402	-200,000	-0,019	-0,073
-326,387	219,579	-0,028	0,033
-325,372	800,000	-0,063	-0,150
-324,358	-105,116	-0,110	0,018
-323,343	513,011	0,095	-0,164
-322,329	-133,075	-0,070	0,006
-321,314	-41,307	0,122	0,046
-320,299	776,113	0,038	0,076
-319,285	53,594	-0,030	-0,021
-318,270	-111,211	0,027	-0,004
-317,256	800,000	-0,045	-0,134
-316,241	-200,000	-0,031	-0,118
-315,226	800,000	-0,050	-0,108
-314,212	-138,846	0,122	-0,010
-313,197	-41,914	-0,127	-0,047
-312,183	-77,493	0,023	-0,006
-311,168	37,659	-0,108	-0,070
-310,153	-120,738	0,083	-0,010
-309,139	-200,000	-0,014	0,133
-308,124	800,000	0,047	-0,141
-307,110	-34,118	0,080	-0,032
-306,095	800,000	-0,005	-0,015
-305,080	-200,000	0,004	0,069
-304,066	134,044	-0,105	-0,099
-303,051	216,642	-0,029	-0,034
-302,037	106,498	0,036	-0,032
-301,022	800,000	-0,057	-0,144
-300,008	15,646	0,184	-0,106
-298,993	-32,260	0,046	0,019
-297,978	-181,970	0,028	-0,000
-296,964	58,990	0,062	0,044
-295,949	-50,345	-0,107	-0,037
-294,935	61,252	-0,099	-0,072
-293,920	339,260	0,077	-0,110
-292,905	-200,000	-0,012	0,084
-291,891	800,000	0,033	0,077
-290,876	-64,038	-0,132	0,039
-289,862	450,425	0,024	0,039
-288,847	-200,000	-0,024	0,097
-287,832	800,000	0,026	0,069
-286,818	-127,318	0,146	0,015
-285,803	-158,734	0,064	-0,003
-284,789	155,895	-0,062	-0,063
-283,774	800,000	0,076	0,206
-282,759	-200,000	0,028	0,101
-281,745	-200,000	0,006	-0,043
-280,730	-121,552	-0,075	-0,009
-279,716	43,793	0,003	0,002
-278,701	-200,000	0,029	-0,100
-277,686	-200,000	-0,008	-0,087
-276,672	346,231	0,054	-0,078
-275,657	800,000	-0,041	-0,103
-274,643	-200,000	-0,016	-0,139
-273,628	-34,896	-0,096	-0,038
-272,613	693,219	0,057	-0,109
-271,599	13,842	0,027	-0,015
-270,584	-140,964	0,144	-0,011
-269,570	84,425	-0,146	0,116
-268,555	415,107	0,061	-0,096
-267,540	800,000	-0,036	-0,081
-266,526	800,000	-0,038	0,080
-265,511	332,049	0,031	-0,044
-264,497	-73,156	0,109	0,029
-263,482	302,389	0,020	0,027
-262,467	-17,627	0,100	0,046
-261,453	-200,000	0,016	0,103
-260,438	42,792	0,057	-0,038
-259,424	-200,000	-0,001	0,147
-258,409	-89,357	0,045	0,010
-257,395	133,569	-0,022	-0,021
-256,380	368,324	-0,102	0,152
-255,365	-200,000	-0,016	0,069
-254,351	130,424	0,012	-0,011
-253,336	-34,076	0,042	0,017
-252,322	-200,000	0,007	-0,075
-251,307	-165,091	-0,042	-0,001
-250,292	35,418	-0,039	0,025
-249,278	-126,371	0,045	0,005
-248,263	492,180	0,025	0,041
-247,249	-200,000	-0,019	-0,086
-246,234	178,135	-0,031	0,033
-245,219	-200,000	0,012	-0,108
-244,205	469,602	0,028	-0,046
-243,190	800,000	0,043	0,089
-242,176	-200,000	0,016	0,189
-241,161	-54,798	0,029	0,010
-240,146	124,299	-0,054	0,049
-239,132	137,304	-0,034	-0,033
-238,117	-200,000	0,016	0,147
-237,103	-195,064	0,050	-0,000
-236,088	102,091	-0,055	0,047
-235,073	98,274	0,122	0,103
-234,059	56,059	-0,119	0,084
-233,044	-200,000	-0,021	0,118
-232,030	516,771	0,048	-0,082
-231,015	124,480	0,042	0,038
-230,000	-64,493	-0,032	0,009
-228,986	-20,493	-0,102	0,046
-227,971	-147,890	-0,053	0,003
-226,957	800,000	-0,022	0,055
-225,942	-66,843	-0,084	0,024
-224,927	-15,961	0,170	-0,078
-223,913	-165,459	-0,054	0,002
-222,898	204,029	-0,075	-0,084
-221,884	-88,384	0,053	-0,011
-220,869	-103,644	0,097	-0,016
-219,855	595,809	0,033	-0,060
-218,840	800,000	0,011	0,033
-217,825	213,642	-0,060	0,069
-216,811	85,318	-0,085	0,068
-215,796	-171,917	-0,059	0,001
-214,782	-23,108	-0,059	0,026
-213,767	53,605	-0,087	-0,061
-212,752	-17,808	0,065	0,030
-211,738	-200,000	-0,008	0,034
-210,723	-38,923	-0,069	0,026
-209,709	-42,798	-0,137	-0,051
-208,694	-200,000	0,012	-0,061
-207,679	-200,000	-0,014	-0,223
-206,665	-81,785	-0,041	-0,010
-205,650	49,670	-0,075	-0,051
-204,636	481,706	-0,035	0,058
-203,621	-122,186	0,044	-0,005
-202,606	-63,399	-0,090	0,027
-201,592	-71,853	0,031	-0,008
-200,577	-200,000	0,016	-0,060
-199,563	-200,000	-0,026	0,118
-198,548	78,201	0,079	0,062
-197,533	800,000	0,042	-0,096
-196,519	425,935	-0,024	0,038
-195,504	-76,038	-0,081	0,021
-194,490	-111,174	-0,042	0,006
-193,475	-200,000	0,002	-0,120
-192,460	70,576	-0,084	-0,063
-191,446	131,879	0,099	-0,093
-190,431	-67,331	0,157	0,045
-189,417	-98,249	0,109	-0,020
-188,402	800,000	-0,066	0,141
-187,387	-200,000	0,010	-0,095
-186,373	-66,622	-0,058	0,017
-185,358	800,000	-0,042	-0,084
-184,344	74,835	0,068	0,052
-183,329	-200,000	0,029	0,139
-182,315	-31,472	-0,103	0,042
-181,300	34,218	0,068	0,043
-180,285	-200,000	-0,010	-0,040
-179,271	-23,245	-0,183	-0,080
-178,256	-200,000	-0,045	0,214
-177,242	-50,973	0,073	0,025
-176,227	-0,799	-0,093	0,048
-175,212	227,345	-0,036	0,043
-174,198	-77,740	0,194	-0,048
-173,183	-75,906	-0,255	0,065
-172,169	-64,987	-0,168	-0,049
-171,154	-128,627	0,064	0,007
-170,139	-200,000	0,002	0,210
-169,125	-200,000	-0,035	0,144
-168,110	44,991	0,015	-0,010
-167,096	37,347	0,036	0,023
-166,081	800,000	-0,058	-0,131
-165,066	-125,548	-0,031	-0,003
-164,052	282,864	0,052	0,069
-163,037	137,876	-0,119	-0,114
-162,023	-14,270	0,117	0,055
-161,008	-70,280	-0,061	-0,017
-159,993	-200,000	0,001	0,066
-158,979	313,048	-0,016	0,022
-157,964	19,806	-0,033	-0,019
-156,950	233,652	0,083	-0,099
-155,935	271,040	0,063	0,081
-154,920	-170,514	-0,106	-0,003
-153,906	145,220	-0,113	0,110
-152,891	-190,620	0,148	-0,001
-151,877	800,000	0,015	-0,046
-150,862	99,927	-0,056	-0,047
-149,847	-200,000	-0,031	-0,114
-148,833	-32,871	-0,050	-0,020
-147,818	-200,000	-0,008	0,074
-146,804	-200,000	-0,009	-0,067
-145,789	-200,000	-0,017	0,145
-144,775	-200,000	0,002	-0,035
-143,760	-117,581	-0,152	-0,020
-142,745	23,700	0,028	-0,017
-141,731	553,285	0,033	0,057
-140,716	-200,000	-0,015	0,121
-139,702	516,274	0,095	0,162
-138,687	-40,171	-0,054	-0,020
-137,672	-19,308	-0,041	-0,019
-136,658	22,022	-0,088	-0,052
-135,643	-200,000	-0,025	-0,165
-134,629	-200,000	-0,023	-0,117
-133,614	-200,000	0,001	-0,091
-132,599	-116,057	0,122	0,016
-131,585	137,316	0,068	0,064
-130,570	800,000	0,027	0,066
-129,556	52,991	-0,049	-0,034
-128,541	-97,731	0,037	-0,007
-127,526	33,106	-0,116	0,073
-126,512	-200,000	0,043	0,168
-125,497	-200,000	0,035	0,146
-124,483	207,881	0,063	0,072
-123,468	-74,147	0,038	-0,010
-122,453	176,663	-0,086	-0,091
-121,439	-90,642	0,051	-0,011
-120,424	800,000	-0,029	-0,064
