DTS Sentinel unit serial number:	SN410029Multiplexer serial number:	ORYXHardware model number:	OX2-SRSoftware version number:	ORYX F/W v4,00 Oryx Data Collector v3.7.2.0data status	okinstallation	B4 Nyhavnadifferential loss correction	single-endedforward channel	channel 2reverse channel	N/Adate	2023/12/19time	13:50:14forward acquisition time	300,00reverse acquisition time	0,00gamma	499,1914k internal	0,3128k external	0,3128temperature offset calibration	1,0000default loss term (dB/km)	0,3820temperature slope calibration	1,0000multiplexer offset coefficient	1,0000multiplexer slope coefficient	1,0000fibre end	0,00T internal ref (°C)	19,39T ext. ref 1 (°C)	4,41T ext. ref 2 (°C)	4,36length (m)	temperature (°C)	Stokes	anti-Stokes-744,400	-200,000	-0,008	-0,040
-743,385	-141,575	-0,175	-0,013
-742,371	229,346	0,088	0,107
-741,356	691,148	-0,102	0,199
-740,342	800,000	-0,021	0,059
-739,327	-107,666	-0,403	0,065
-738,312	-200,000	0,001	0,016
-737,298	-94,692	-0,329	0,066
-736,283	-149,379	0,083	0,005
-735,269	115,681	-0,127	0,116
-734,254	800,000	-0,038	-0,107
-733,239	-145,959	-0,509	0,033
-732,225	-81,942	0,196	0,047
-731,210	119,776	0,109	0,101
-730,196	77,012	-0,034	0,027
-729,181	-200,000	0,014	0,207
-728,167	800,000	-0,008	-0,027
-727,152	584,921	-0,055	-0,102
-726,137	1,495	-0,064	-0,034
-725,123	-200,000	-0,035	-0,179
-724,108	131,801	-0,125	-0,119
-723,094	-200,000	0,005	-0,028
-722,079	-18,191	-0,228	-0,106
-721,064	338,079	0,056	-0,082
-720,050	-120,292	-0,119	-0,015
-719,035	800,000	-0,030	0,089
-718,021	-200,000	-0,021	0,105
-717,006	209,148	-0,066	0,077
-715,991	80,626	-0,092	-0,073
-714,977	763,740	-0,045	-0,091
-713,962	-94,091	-0,058	0,012
-712,948	-162,935	-0,110	-0,004
-711,933	98,159	-0,052	-0,044
-710,918	-127,994	-0,075	-0,008
-709,904	-150,191	-0,147	-0,008
-708,889	375,044	-0,056	0,086
-707,875	223,073	0,076	-0,092
-706,860	800,000	-0,058	-0,127
-705,845	-200,000	0,017	0,059
-704,831	170,182	0,077	0,082
-703,816	-130,666	-0,091	0,009
-702,802	800,000	0,078	-0,164
-701,787	-200,000	0,012	-0,051
-700,772	232,251	0,034	-0,042
-699,758	-122,206	0,075	0,009
-698,743	-80,492	0,067	0,017
-697,729	27,676	0,112	0,070
-696,714	-4,259	0,028	-0,014
-695,699	221,353	0,022	-0,026
-694,685	-200,000	0,022	-0,165
-693,670	800,000	0,013	-0,032
-692,656	80,189	-0,029	-0,024
-691,641	-200,000	-0,023	-0,083
-690,627	-94,030	0,027	0,005
-689,612	325,911	-0,035	-0,049
-688,597	-146,300	-0,051	-0,003
-687,583	79,069	-0,088	-0,070
-686,568	68,526	-0,035	-0,027
-685,554	-42,925	-0,087	-0,033
-684,539	800,000	-0,045	-0,110
-683,524	-191,907	-0,076	0,001
-682,510	123,228	-0,016	0,015
-681,495	-152,998	0,101	0,005
-680,481	95,472	-0,126	-0,107
-679,466	265,862	-0,074	0,096
-678,451	3,036	-0,037	0,020
-677,437	-61,407	0,020	0,006
-676,422	-51,716	-0,049	0,017
-675,408	-134,648	0,087	-0,008
-674,393	-89,594	-0,101	-0,022
-673,378	-200,000	-0,005	-0,056
-672,364	472,487	-0,038	0,064
-671,349	-14,153	-0,087	-0,042
-670,335	4,487	-0,111	-0,060
-669,320	-65,124	0,081	-0,024
-668,305	-63,872	0,113	0,034
-667,291	217,824	-0,074	-0,087
-666,276	-89,083	-0,089	0,019
-665,262	-200,000	-0,030	-0,177
-664,247	-153,350	-0,058	-0,003
-663,232	-80,465	-0,033	0,008
-662,218	800,000	-0,078	0,184
-661,203	150,864	-0,019	-0,020
-660,189	-200,000	0,037	-0,133
-659,174	-94,256	-0,015	-0,003
-658,159	-164,843	0,077	-0,002
-657,145	-200,000	0,002	-0,142
-656,130	-143,991	-0,097	0,007
-655,116	800,000	-0,017	-0,044
-654,101	75,127	0,087	0,068
-653,086	209,838	0,045	-0,053
-652,072	-90,895	0,057	0,012
-651,057	15,070	-0,105	-0,061
-650,043	140,188	-0,066	-0,064
-649,028	316,420	-0,077	0,108
-648,014	209,368	-0,057	0,067
-646,999	-55,522	-0,041	0,013
-645,984	800,000	0,055	-0,137
-644,970	-175,661	-0,199	-0,004
-643,955	-72,373	-0,091	0,025
-642,941	-200,000	0,008	-0,089
-641,926	1,985	0,075	-0,040
-640,911	299,318	-0,006	-0,008
-639,897	-200,000	-0,014	0,172
-638,882	800,000	0,039	-0,087
-637,868	-200,000	-0,000	-0,044
-636,853	800,000	0,052	-0,122
-635,838	-200,000	0,046	-0,180
-634,824	-36,987	-0,171	-0,067
-633,809	233,002	-0,041	0,049
-632,795	15,417	0,097	-0,056
-631,780	152,225	0,048	-0,048
-630,765	-200,000	-0,011	0,054
-629,751	23,491	-0,097	-0,059
-628,736	411,137	-0,045	-0,070
-627,722	238,405	0,055	-0,068
-626,707	3,870	-0,063	0,034
-625,692	-54,786	-0,073	0,024
-624,678	-200,000	-0,032	-0,124
-623,663	74,154	-0,054	0,042
-622,649	468,323	-0,141	-0,234
-621,634	133,762	-0,153	-0,147
-620,619	-30,954	-0,143	-0,059
-619,605	-200,000	0,008	-0,026
-618,590	707,200	-0,052	0,103
-617,576	-65,995	-0,108	-0,032
-616,561	-79,059	-0,033	-0,008
-615,546	800,000	0,024	-0,072
-614,532	120,689	0,070	-0,065
-613,517	117,266	0,034	0,031
-612,503	-134,210	-0,074	-0,007
-611,488	429,421	-0,007	0,011
-610,474	31,534	0,056	0,036
-609,459	316,174	-0,066	0,092
-608,444	290,353	-0,041	0,055
-607,430	666,641	0,036	0,068
-606,415	136,263	0,071	-0,069
-605,401	399,504	-0,029	0,045
-604,386	323,289	-0,046	-0,065
-603,371	-200,000	0,010	-0,074
-602,357	73,348	0,131	-0,101
-601,342	-64,647	-0,053	0,016
-600,328	-23,760	0,049	0,021
-599,313	95,587	0,115	-0,097
-598,298	298,695	-0,084	0,114
-597,284	-200,000	0,006	-0,104
-596,269	800,000	-0,015	-0,034
-595,255	-200,000	0,007	0,075
-594,240	65,493	-0,089	0,067
-593,225	93,545	-0,031	-0,026
-592,211	332,951	-0,081	-0,116
-591,196	-81,062	0,112	-0,027
-590,182	291,390	-0,029	-0,039
-589,167	800,000	0,061	0,132
-588,152	-48,320	-0,068	0,024
-587,138	-20,485	-0,093	-0,042
-586,123	-93,931	0,073	0,015
-585,109	-8,381	-0,124	-0,061
-584,094	-200,000	0,001	0,014
-583,079	-200,000	-0,003	-0,047
-582,065	410,789	-0,049	0,077
-581,050	-200,000	0,020	0,071
-580,036	-200,000	-0,029	0,116
-579,021	184,070	0,080	-0,088
-578,006	81,673	-0,140	-0,112
-576,992	751,559	-0,065	0,130
-575,977	119,492	0,020	0,018
-574,963	-4,262	-0,044	-0,022
-573,948	-118,190	0,114	0,015
-572,934	295,334	-0,070	0,094
-571,919	-138,965	-0,116	0,009
-570,904	345,476	-0,048	-0,069
-569,890	-135,220	-0,102	0,009
-568,875	-52,282	-0,081	-0,028
-567,861	376,133	0,051	-0,077
-566,846	-33,643	0,065	-0,026
-565,831	-200,000	0,012	0,097
-564,817	200,799	-0,079	-0,090
-563,802	-2,742	-0,045	-0,023
-562,788	-200,000	0,012	0,107
-561,773	14,247	-0,032	0,019
-560,758	374,989	0,055	-0,084
-559,744	-24,430	0,064	0,028
-558,729	800,000	0,035	-0,085
-557,715	800,000	-0,050	-0,152
-556,700	31,106	0,149	-0,094
-555,685	449,194	0,059	-0,097
-554,671	-200,000	0,015	0,059
-553,656	-14,589	0,100	0,047
-552,642	88,365	-0,124	0,102
-551,627	-200,000	-0,014	0,058
-550,612	367,939	0,071	0,106
-549,598	254,583	0,067	0,084
-548,583	-169,236	-0,045	-0,001
-547,569	-106,982	-0,051	-0,008
-546,554	-48,436	0,086	0,031
-545,539	-200,000	0,025	-0,123
-544,525	-115,661	0,028	0,004
-543,510	-200,000	0,030	-0,166
-542,496	55,680	-0,097	0,069
-541,481	-88,283	0,173	0,038
-540,466	571,327	0,053	0,096
-539,452	64,945	-0,042	0,031
-538,437	11,176	0,022	-0,012
-537,423	0,427	-0,077	0,040
-536,408	227,245	0,069	-0,082
-535,393	-200,000	0,008	0,068
-534,379	299,941	-0,056	-0,076
-533,364	-24,264	0,208	-0,091
-532,350	398,133	0,056	0,087
-531,335	-200,000	0,007	0,086
-530,321	-200,000	-0,022	-0,135
-529,306	366,398	-0,040	0,060
-528,291	217,153	-0,108	-0,127
-527,277	1,687	0,183	0,097
-526,262	283,227	0,042	0,056
-525,248	-10,714	0,101	0,049
-524,233	368,235	-0,059	-0,089
-523,218	800,000	0,042	-0,088
-522,204	16,245	0,100	0,058
-521,189	-200,000	-0,012	0,084
-520,175	194,154	-0,138	-0,155
-519,160	-122,312	0,103	-0,012
-518,145	800,000	0,082	0,171
-517,131	92,571	0,054	0,045
-516,116	17,456	0,012	-0,007
-515,102	-131,722	-0,037	0,004
-514,087	100,731	-0,088	-0,076
-513,072	405,623	-0,078	-0,122
-512,058	800,000	-0,041	-0,091
-511,043	800,000	-0,018	0,039
-510,029	-200,000	0,016	0,168
-509,014	800,000	0,037	0,101
-507,999	45,627	0,144	0,098
-506,985	154,810	-0,058	-0,059
-505,970	-200,000	0,004	0,186
-504,956	-69,437	-0,094	0,026
-503,941	800,000	-0,013	0,027
-502,926	89,901	0,133	0,109
-501,912	-200,000	0,011	0,155
-500,897	-61,899	0,065	0,020
-499,883	83,282	-0,019	-0,015
-498,868	94,579	-0,066	-0,055
-497,853	284,206	-0,088	-0,116
-496,839	-119,810	0,083	0,010
-495,824	-200,000	0,016	0,126
-494,810	161,184	0,064	-0,066
-493,795	-200,000	0,001	0,089
-492,781	-56,537	-0,060	-0,020
-491,766	6,902	0,032	-0,018
-490,751	-200,000	-0,008	0,051
-489,737	131,260	-0,122	-0,116
-488,722	-134,734	0,131	-0,012
-487,708	-200,000	0,012	-0,059
-486,693	32,627	-0,051	0,032
-485,678	-122,481	-0,064	-0,008
-484,664	800,000	-0,055	-0,173
-483,649	219,309	-0,085	0,100
-482,635	115,555	-0,081	0,073
-481,620	-67,443	0,101	0,029
-480,605	-200,000	-0,016	0,186
-479,591	-200,000	0,028	0,116
-478,576	-93,169	0,093	0,019
-477,562	-95,629	-0,026	-0,005
-476,547	-200,000	0,020	-0,125
-475,532	134,323	-0,046	-0,044
-474,518	-200,000	0,093	0,000
-473,503	-200,000	-0,008	0,124
-472,489	-180,458	0,131	-0,002
-471,474	-4,411	-0,081	-0,041
-470,459	800,000	0,012	-0,040
-469,445	105,724	0,111	-0,096
-468,430	-200,000	0,001	-0,086
-467,416	138,213	0,152	-0,147
-466,401	-105,422	0,074	0,012
-465,386	746,278	-0,030	-0,060
-464,372	-93,669	-0,070	0,014
-463,357	345,431	-0,056	0,082
-462,343	83,532	0,086	-0,069
-461,328	356,741	0,032	0,047
-460,313	-114,733	0,065	0,009
-459,299	120,297	-0,039	-0,036
-458,284	800,000	0,032	0,071
-457,270	-200,000	-0,011	0,042
-456,255	-35,557	0,021	0,008
-455,241	800,000	0,049	-0,147
-454,226	55,204	0,010	0,007
-453,211	0,477	-0,109	0,057
-452,197	434,654	-0,036	-0,058
-451,182	183,973	-0,130	0,142
-450,168	-126,214	-0,046	-0,005
-449,153	-136,210	0,070	-0,006
-448,138	-200,000	-0,013	0,050
-447,124	-200,000	0,015	-0,054
-446,109	364,332	0,010	0,015
-445,095	-176,085	0,068	0,001
-444,080	95,266	0,028	-0,023
-443,065	-200,000	-0,000	-0,047
-442,051	-69,404	-0,145	-0,041
-441,036	60,419	-0,070	0,051
-440,022	10,088	-0,116	-0,065
-439,007	345,574	-0,080	-0,116
-437,992	553,515	0,059	0,105
-436,978	146,505	-0,058	0,057
-435,963	-200,000	-0,000	-0,012
-434,949	800,000	0,011	-0,031
-433,934	-200,000	0,012	-0,071
-432,919	800,000	-0,031	0,085
-431,905	-200,000	-0,040	0,153
-430,890	-87,364	0,066	-0,015
-429,876	-129,291	0,065	0,007
-428,861	800,000	0,071	0,160
-427,846	-149,278	-0,056	-0,003
-426,832	154,149	0,062	-0,063
-425,817	800,000	-0,066	-0,142
-424,803	221,548	-0,075	0,089
-423,788	409,101	0,040	-0,062
-422,773	-192,908	0,052	-0,000
-421,759	800,000	0,020	-0,058
-420,744	34,748	-0,146	0,094
-419,730	115,098	0,202	-0,181
-418,715	-65,061	-0,160	0,047
-417,701	-21,981	-0,104	-0,046
-416,686	-85,401	0,085	0,019
-415,671	230,011	-0,029	-0,034
-414,657	-164,173	-0,081	0,003
-413,642	-131,700	-0,077	0,007
-412,628	-155,940	0,036	-0,002
-411,613	-200,000	-0,013	-0,145
-410,598	-200,000	-0,018	-0,090
-409,584	-200,000	-0,006	0,137
-408,569	-200,000	0,010	-0,178
-407,555	-101,538	0,101	0,018
-406,540	57,760	0,147	-0,106
-405,525	106,223	-0,063	-0,054
-404,511	-200,000	0,016	-0,131
-403,496	-40,173	-0,159	-0,061
-402,482	800,000	-0,041	-0,128
-401,467	388,569	0,035	-0,053
-400,452	-113,009	-0,058	-0,008
-399,438	-144,814	-0,015	0,001
-398,423	-9,757	-0,036	0,017
-397,409	-173,131	-0,073	0,002
-396,394	-138,675	0,020	0,002
-395,379	-200,000	-0,007	0,047
-394,365	-135,588	0,217	0,019
-393,350	-76,454	-0,020	0,005
-392,336	196,803	-0,053	-0,059
-391,321	218,628	0,045	-0,053
-390,306	-200,000	-0,002	-0,181
-389,292	800,000	-0,016	-0,041
-388,277	-200,000	0,024	0,091
-387,263	653,405	0,029	0,055
-386,248	563,861	0,040	-0,071
-385,233	-200,000	-0,026	0,181
-384,219	800,000	-0,044	0,114
-383,204	80,443	-0,028	-0,022
-382,190	-200,000	0,006	-0,056
-381,175	42,516	-0,101	-0,067
-380,160	-66,135	-0,059	0,017
-379,146	-200,000	-0,011	0,096
-378,131	-175,610	0,045	-0,001
-377,117	800,000	-0,014	-0,039
-376,102	78,103	-0,028	-0,022
-375,088	80,033	-0,090	-0,071
-374,073	-200,000	0,031	0,100
-373,058	-82,514	0,036	-0,009
-372,044	128,947	0,048	-0,045
-371,029	85,794	0,068	0,055
-370,015	307,559	0,044	-0,060
-369,000	800,000	-0,073	-0,158
-367,985	800,000	-0,012	0,029
-366,971	143,569	0,036	-0,036
-365,956	-9,950	0,210	-0,102
-364,942	386,067	0,062	0,093
-363,927	800,000	0,040	0,125
-362,912	-200,000	-0,007	-0,044
-361,898	-191,480	-0,092	-0,001
-360,883	441,353	-0,079	0,127
-359,869	138,568	-0,036	0,035
-358,854	482,303	-0,043	0,071
-357,839	7,240	0,095	-0,052
-356,825	-200,000	-0,000	0,069
-355,810	424,132	-0,018	0,028
-354,796	-200,000	-0,007	0,073
-353,781	244,988	-0,037	0,045
-352,766	204,718	0,078	0,089
-351,752	32,628	-0,078	-0,049
-350,737	76,357	0,056	-0,043
-349,723	16,968	-0,023	-0,013
-348,708	-161,576	-0,056	0,002
-347,693	800,000	0,027	0,062
-346,679	-110,526	-0,091	-0,014
-345,664	24,706	-0,056	-0,034
-344,650	107,024	0,055	-0,048
-343,635	-200,000	0,009	0,076
-342,620	-143,769	0,027	0,002
-341,606	188,874	-0,103	0,113
-340,591	800,000	0,024	-0,056
-339,577	-200,000	-0,022	-0,094
-338,562	800,000	0,044	-0,113
-337,548	-200,000	0,020	-0,083
-336,533	39,550	0,048	-0,032
-335,518	-200,000	0,013	0,043
-334,504	632,908	0,022	-0,040
-333,489	296,885	-0,029	0,038
-332,475	-200,000	-0,035	-0,120
-331,460	-106,277	-0,102	-0,017
-330,445	490,821	0,027	-0,046
-329,431	800,000	0,019	0,050
-328,416	-200,000	-0,004	-0,021
-327,402	-200,000	-0,005	-0,077
-326,387	-200,000	0,019	0,065
-325,372	207,792	-0,130	-0,149
-324,358	773,402	-0,022	-0,044
-323,343	-95,462	0,076	0,015
-322,329	-200,000	0,006	0,031
-321,314	527,781	0,087	0,151
-320,299	-144,208	0,140	-0,009
-319,285	630,314	0,075	0,139
-318,270	16,560	-0,076	0,044
-317,256	-200,000	0,010	-0,071
-316,241	-72,963	-0,074	0,020
-315,226	800,000	0,010	0,032
-314,212	142,367	0,080	0,077
-313,197	319,080	0,041	-0,057
-312,183	-200,000	0,008	-0,147
-311,168	-24,521	-0,019	0,008
-310,153	138,046	-0,038	0,037
-309,139	-200,000	-0,027	-0,200
-308,124	-139,688	-0,042	-0,003
-307,110	-20,677	-0,086	-0,038
-306,095	-200,000	-0,000	0,015
-305,080	-200,000	-0,018	0,092
-304,066	-116,411	0,105	-0,014
-303,051	-113,373	0,050	0,007
-302,037	-73,982	0,103	-0,027
-301,022	-130,579	0,019	-0,002
-300,008	-200,000	0,016	0,160
-298,993	-200,000	0,005	0,032
-297,978	-200,000	0,016	0,065
-296,964	677,778	0,008	0,016
-295,949	115,909	-0,087	0,078
-294,935	-149,614	0,093	0,005
-293,920	-200,000	0,002	0,081
-292,905	-200,000	-0,007	0,109
-291,891	510,040	0,048	0,082
-290,876	-200,000	0,003	0,068
-289,862	-200,000	-0,012	-0,097
-288,847	182,971	0,051	0,055
-287,832	565,662	-0,042	0,075
-286,818	44,630	-0,025	-0,017
-285,803	121,095	-0,008	-0,007
-284,789	-15,377	0,177	-0,083
-283,774	800,000	0,043	0,102
-282,759	-200,000	-0,004	-0,022
-281,745	-67,524	0,041	0,012
-280,730	259,556	-0,041	0,051
-279,716	800,000	0,019	-0,059
-278,701	23,857	0,128	0,077
-277,686	90,312	0,068	0,056
-276,672	800,000	-0,048	0,140
-275,657	-39,687	-0,116	0,044
-274,643	-79,460	0,041	0,010
-273,628	-27,063	0,081	0,034
-272,613	-200,000	0,034	0,157
-271,599	-36,256	-0,038	-0,015
-270,584	75,148	0,065	-0,050
-269,570	-116,815	0,137	0,018
-268,555	105,348	-0,033	-0,029
-267,540	37,713	-0,117	-0,076
-266,526	172,257	-0,017	-0,018
-265,511	-81,563	-0,100	0,024
-264,497	-34,414	0,059	-0,024
-263,482	-128,644	-0,058	0,006
-262,467	-22,969	0,142	0,062
-261,453	219,780	-0,047	0,055
-260,438	-200,000	-0,007	0,088
-259,424	800,000	0,038	-0,103
-258,409	800,000	-0,016	-0,044
-257,395	-200,000	0,011	0,180
-256,380	-200,000	0,040	0,151
-255,365	-119,232	-0,117	0,015
-254,351	200,689	0,080	-0,090
-253,336	-106,417	-0,129	-0,021
-252,322	95,721	-0,079	0,066
-251,307	361,873	-0,100	0,147
-250,292	167,801	0,083	0,086
-249,278	188,516	0,059	0,065
-248,263	800,000	0,024	0,073
-247,249	730,798	-0,054	-0,105
-246,234	35,053	-0,067	-0,042
-245,219	-12,149	-0,109	-0,052
-244,205	-51,065	0,171	0,058
-243,190	-200,000	0,008	0,045
-242,176	-76,982	0,098	0,025
-241,161	693,293	0,053	0,102
-240,146	38,912	-0,072	-0,047
-239,132	89,653	-0,027	-0,022
-238,117	-117,310	0,074	-0,010
-237,103	-200,000	0,002	0,058
-236,088	-96,021	-0,163	-0,031
-235,073	800,000	-0,047	0,116
-234,059	-200,000	-0,019	0,102
-233,044	-200,000	-0,031	0,102
-232,030	62,397	0,074	-0,054
-231,015	800,000	0,006	-0,019
-230,000	68,416	-0,079	-0,059
-228,986	800,000	0,062	-0,132
-227,971	154,984	0,068	-0,069
-226,957	11,708	0,145	-0,081
-225,942	-81,222	0,101	0,024
-224,927	307,188	0,057	0,078
-223,913	-200,000	-0,019	-0,060
-222,898	-47,725	0,071	0,025
-221,884	-200,000	-0,000	-0,045
-220,869	-137,009	0,104	0,009
-219,855	-200,000	0,026	-0,173
-218,840	-200,000	-0,004	-0,036
-217,825	-200,000	-0,010	0,112
-216,811	-24,402	-0,055	0,024
-215,796	-6,885	-0,090	0,045
-214,782	55,651	-0,029	0,021
-213,767	173,313	-0,058	-0,061
-212,752	307,040	-0,109	0,149
-211,738	138,713	0,171	0,164
-210,723	96,293	-0,041	0,034
-209,709	-114,337	-0,090	-0,012
-208,694	800,000	-0,063	-0,142
-207,679	167,887	-0,034	0,035
-206,665	-200,000	-0,005	0,066
-205,650	-50,199	-0,039	0,013
-204,636	-200,000	-0,011	0,065
-203,621	255,172	-0,023	0,028
-202,606	-21,338	-0,016	0,007
-201,592	62,231	0,078	-0,057
-200,577	-140,271	0,108	0,008
-199,563	800,000	-0,015	-0,031
-198,548	57,798	0,094	-0,067
-197,533	105,181	-0,047	0,041
-196,519	346,695	0,042	0,060
-195,504	-200,000	-0,008	0,081
-194,490	107,551	-0,045	-0,039
-193,475	800,000	-0,050	-0,127
-192,460	14,929	0,083	-0,047
-191,446	-63,952	0,083	-0,025
-190,431	181,820	0,105	0,113
-189,417	-163,070	0,097	0,003
-188,402	296,471	0,030	-0,041
-187,387	112,123	-0,084	-0,074
-186,373	-200,000	0,044	-0,155
-185,358	-200,000	0,003	-0,141
-184,344	-25,963	-0,033	-0,014
-183,329	245,594	-0,075	0,092
-182,315	-200,000	0,015	0,121
-181,300	-200,000	0,010	-0,047
-180,285	31,911	-0,086	-0,054
-179,271	-200,000	-0,021	-0,120
-178,256	-200,000	-0,006	-0,036
-177,242	80,787	-0,034	0,026
-176,227	-200,000	0,030	0,097
-175,212	-200,000	0,005	0,023
-174,198	200,798	0,098	0,109
-173,183	-200,000	0,001	-0,083
-172,169	455,220	-0,066	-0,107
-171,154	800,000	0,071	0,145
-170,139	-200,000	0,000	-0,008
-169,125	196,353	0,078	0,086
-168,110	-81,505	0,095	0,022
-167,096	100,650	-0,086	0,073
-166,081	-132,952	0,112	-0,010
-165,066	-25,772	0,089	-0,038
-164,052	-43,832	-0,063	0,023
-163,037	115,022	0,052	-0,046
-162,023	32,252	0,058	0,036
-161,008	-11,019	0,036	-0,017
-159,993	-48,559	-0,068	0,024
-158,979	-200,000	0,003	-0,050
-157,964	800,000	0,030	-0,086
-156,950	-98,236	-0,128	0,024
-155,935	168,668	-0,059	0,061
-154,920	76,112	-0,059	-0,046
-153,906	-114,732	0,105	0,014
-152,891	6,699	-0,101	-0,055
-151,877	187,067	0,040	-0,043
-150,862	210,473	-0,073	-0,083
-149,847	800,000	0,018	0,038
-148,833	-200,000	-0,018	-0,133
-147,818	-4,065	-0,065	-0,033
-146,804	77,407	0,095	-0,074
-145,789	-200,000	-0,007	0,103
-144,775	-149,020	-0,071	0,004
-143,760	18,453	-0,151	-0,087
-142,745	-157,381	-0,118	0,005
-141,731	-30,524	-0,066	0,027
-140,716	-125,872	0,108	-0,012
-139,702	441,438	0,046	0,073
-138,687	770,738	0,026	-0,052
-137,672	89,100	0,042	0,034
-136,658	59,322	0,120	-0,086
-135,643	800,000	-0,038	-0,077
-134,629	328,631	0,046	-0,064
-133,614	346,111	-0,019	-0,028
-132,599	424,845	0,023	0,036
-131,585	-12,566	0,088	0,041
-130,570	-12,913	-0,117	0,055
-129,556	-100,119	0,083	-0,015
-128,541	41,187	0,090	0,059
-127,526	-200,000	-0,011	-0,039
-126,512	723,526	-0,030	0,058
-125,497	800,000	0,039	0,103
-124,483	-200,000	0,017	-0,110
-123,468	-116,314	0,036	0,005
-122,453	122,270	-0,072	0,065
-121,439	56,554	0,056	0,040
-120,424	-28,958	-0,154	0,064
-119,410	800,000	0,018	-0,039
