DTS Sentinel unit serial number:	SN410029Multiplexer serial number:	ORYXHardware model number:	OX2-SRSoftware version number:	ORYX F/W v4,00 Oryx Data Collector v3.7.2.0data status	okinstallation	B4 Nyhavnadifferential loss correction	single-endedforward channel	channel 2reverse channel	N/Adate	2023/12/19time	09:35:13forward acquisition time	300,00reverse acquisition time	0,00gamma	499,1914k internal	0,3128k external	0,3128temperature offset calibration	1,0000default loss term (dB/km)	0,3820temperature slope calibration	1,0000multiplexer offset coefficient	1,0000multiplexer slope coefficient	1,0000fibre end	0,00T internal ref (°C)	20,41T ext. ref 1 (°C)	4,96T ext. ref 2 (°C)	4,96length (m)	temperature (°C)	Stokes	anti-Stokes-744,400	680,619	0,031	-0,059
-743,385	-90,771	-0,207	0,044
-742,371	128,591	-0,050	0,047
-741,356	-4,717	-0,312	0,160
-740,342	-158,053	-0,076	-0,003
-739,327	-85,500	-0,245	-0,056
-738,312	34,878	0,037	0,024
-737,298	183,618	-0,206	0,226
-736,283	-70,867	0,070	0,020
-735,269	-44,710	-0,241	0,089
-734,254	800,000	0,052	-0,108
-733,239	-41,738	-0,337	-0,128
-732,225	-200,000	0,042	-0,176
-731,210	-19,873	-0,115	-0,053
-730,196	-22,996	0,130	-0,058
-729,181	551,734	0,059	0,107
-728,167	-200,000	-0,020	-0,075
-727,152	194,109	-0,076	0,086
-726,137	-200,000	0,016	-0,114
-725,123	-74,782	-0,134	0,035
-724,108	-88,456	-0,183	-0,040
-723,094	800,000	0,060	-0,137
-722,079	-200,000	0,001	-0,042
-721,064	45,104	-0,081	0,055
-720,050	800,000	-0,041	0,092
-719,035	88,180	0,019	0,015
-718,021	-200,000	-0,018	-0,073
-717,006	-38,194	-0,080	-0,031
-715,991	-200,000	-0,005	-0,035
-714,977	-200,000	-0,032	-0,156
-713,962	695,378	-0,011	0,022
-712,948	-200,000	0,007	-0,030
-711,933	-200,000	0,013	-0,093
-710,918	-144,717	-0,131	0,009
-709,904	-200,000	0,007	0,046
-708,889	-200,000	0,026	-0,122
-707,875	776,516	-0,059	-0,119
-706,860	800,000	-0,042	-0,098
-705,845	-35,857	0,060	0,024
-704,831	-111,291	-0,040	0,006
-703,816	-200,000	-0,018	0,095
-702,802	-81,021	0,028	-0,007
-701,787	-200,000	-0,001	-0,016
-700,772	-83,825	0,072	0,017
-699,758	-200,000	0,004	-0,113
-698,743	800,000	0,027	0,082
-697,729	122,808	0,018	0,017
-696,714	69,559	0,087	0,066
-695,699	800,000	0,043	-0,092
-694,685	-200,000	-0,035	-0,180
-693,670	800,000	-0,062	-0,135
-692,656	-84,934	-0,040	0,009
-691,641	-108,898	0,100	0,016
-690,627	490,369	-0,126	-0,215
-689,612	253,042	-0,034	-0,044
-688,597	-100,468	-0,122	-0,022
-687,583	543,524	0,089	-0,158
-686,568	-200,000	-0,003	-0,135
-685,554	-88,787	0,130	0,028
-684,539	800,000	0,040	0,109
-683,524	-74,911	-0,162	-0,043
-682,510	218,230	0,064	0,076
-681,495	-200,000	-0,004	-0,039
-680,481	-19,003	-0,028	0,013
-679,466	410,726	-0,084	-0,133
-678,451	758,438	-0,057	-0,115
-677,437	536,990	-0,034	-0,061
-676,422	8,057	-0,095	0,053
-675,408	-145,314	-0,084	0,006
-674,393	-200,000	0,020	-0,100
-673,378	-55,429	-0,157	-0,052
-672,364	800,000	0,012	-0,029
-671,349	-200,000	0,013	-0,121
-670,335	-76,356	0,161	0,042
-669,320	-92,234	-0,065	0,014
-668,305	-200,000	0,002	-0,081
-667,291	0,896	-0,111	0,059
-666,276	147,426	0,076	0,076
-665,262	-138,477	-0,129	-0,010
-664,247	-134,407	-0,074	-0,007
-663,232	-200,000	0,006	-0,039
-662,218	-124,678	0,152	-0,017
-661,203	-200,000	0,001	-0,032
-660,189	-200,000	-0,012	-0,067
-659,174	-200,000	0,015	-0,170
-658,159	800,000	-0,044	-0,130
-657,145	800,000	-0,089	-0,184
-656,130	90,782	0,024	-0,020
-655,116	800,000	0,057	0,146
-654,101	-105,753	0,054	0,009
-653,086	-200,000	0,002	0,114
-652,072	800,000	0,010	0,026
-651,057	-200,000	0,039	-0,130
-650,043	-200,000	0,013	-0,132
-649,028	800,000	0,004	0,010
-648,014	-82,340	-0,007	-0,002
-646,999	43,136	0,072	-0,049
-645,984	500,349	-0,040	-0,068
-644,970	-200,000	-0,011	-0,202
-643,955	230,813	-0,081	0,099
-642,941	378,357	0,042	-0,064
-641,926	800,000	-0,038	-0,113
-640,911	144,564	-0,059	-0,058
-639,897	3,673	0,123	0,066
-638,882	128,737	0,027	0,026
-637,868	-200,000	0,007	-0,106
-636,853	415,346	-0,042	-0,067
-635,838	-200,000	-0,012	-0,119
-634,824	225,103	0,014	-0,017
-633,809	575,703	0,033	0,060
-632,795	800,000	0,056	-0,127
-631,780	287,993	-0,042	0,056
-630,765	-200,000	-0,021	-0,082
-629,751	-200,000	-0,005	-0,078
-628,736	800,000	0,042	-0,113
-627,722	-86,888	-0,051	-0,011
-626,707	-200,000	-0,012	-0,073
-625,692	31,980	0,016	-0,010
-624,678	192,468	0,069	0,078
-623,663	-77,087	-0,043	-0,011
-622,649	16,185	-0,120	-0,070
-621,634	-200,000	-0,020	-0,068
-620,619	-199,413	-0,134	0,001
-619,605	-51,564	0,097	0,033
-618,590	-10,900	0,060	-0,029
-617,576	402,576	-0,031	-0,049
-616,561	-57,696	-0,041	0,013
-615,546	-90,321	0,102	0,022
-614,532	94,100	-0,058	0,049
-613,517	412,857	0,030	0,047
-612,503	238,932	0,081	0,100
-611,488	-167,603	-0,043	-0,001
-610,474	-200,000	0,042	0,143
-609,459	800,000	0,052	-0,169
-608,444	800,000	-0,042	-0,116
-607,430	14,078	-0,068	-0,039
-606,415	205,068	0,005	0,006
-605,401	-200,000	0,008	-0,041
-604,386	-84,805	-0,044	-0,010
-603,371	247,227	-0,035	-0,044
-602,357	-31,068	0,036	-0,015
-601,342	53,153	0,036	0,026
-600,328	97,106	-0,108	-0,091
-599,313	201,982	-0,106	0,121
-598,298	217,266	0,029	0,034
-597,284	519,123	0,023	-0,041
-596,269	510,166	0,062	0,108
-595,255	-113,559	-0,166	0,024
-594,240	-117,743	-0,049	0,006
-593,225	-200,000	0,003	0,062
-592,211	-200,000	-0,008	-0,123
-591,196	-145,869	-0,150	0,010
-590,182	62,832	0,011	0,008
-589,167	-110,997	0,094	0,014
-588,152	800,000	0,052	0,122
-587,138	-130,516	-0,065	0,006
-586,123	-200,000	0,002	0,073
-585,109	-200,000	-0,010	-0,112
-584,094	-200,000	0,022	-0,099
-583,079	-200,000	-0,017	0,109
-582,065	239,508	0,043	-0,053
-581,050	-200,000	-0,013	-0,044
-580,036	-55,607	0,074	0,024
-579,021	-16,367	0,101	-0,047
-578,006	-200,000	0,005	0,043
-576,992	-200,000	-0,003	0,173
-575,977	-22,447	0,120	0,053
-574,963	78,573	-0,074	0,058
-573,948	800,000	0,018	0,058
-572,934	565,529	-0,042	0,075
-571,919	-84,955	-0,148	-0,034
-570,904	425,075	-0,030	0,048
-569,890	-1,120	-0,016	-0,008
-568,875	-30,957	0,048	-0,020
-567,861	72,052	-0,143	0,110
-566,846	800,000	0,045	-0,136
-565,831	298,380	0,024	-0,033
-564,817	-173,718	-0,108	0,002
-563,802	385,229	0,093	-0,142
-562,788	-200,000	-0,020	0,085
-561,773	-18,472	0,014	0,006
-560,758	-94,732	-0,063	-0,013
-559,744	456,733	0,015	0,024
-558,729	113,596	0,078	0,070
-557,715	-104,430	-0,039	-0,007
-556,700	14,230	-0,118	0,068
-555,685	800,000	0,036	-0,086
-554,671	-153,109	-0,149	-0,008
-553,656	756,895	-0,022	0,044
-552,642	-88,613	0,096	0,021
-551,627	-200,000	-0,040	0,153
-550,612	800,000	-0,009	-0,027
-549,598	800,000	0,037	-0,118
-548,583	-116,208	0,009	0,001
-547,569	-148,946	0,078	-0,005
-546,554	150,411	0,020	-0,021
-545,539	312,814	0,132	0,184
-544,525	166,835	0,049	0,051
-543,510	-200,000	-0,005	-0,032
-542,496	-35,467	-0,126	-0,050
-541,481	-200,000	-0,024	-0,212
-540,466	-200,000	-0,029	-0,097
-539,452	-200,000	0,034	-0,136
-538,437	596,589	-0,047	-0,086
-537,423	-99,317	0,040	0,007
-536,408	200,607	-0,097	-0,111
-535,393	430,842	-0,103	-0,165
-534,379	800,000	-0,026	-0,066
-533,364	2,460	0,107	0,057
-532,350	-129,748	0,075	-0,007
-531,335	-200,000	0,101	-0,000
-530,321	-14,618	0,141	0,067
-529,306	9,094	-0,075	0,042
-528,291	120,733	0,036	-0,033
-527,277	249,258	-0,006	0,007
-526,262	-200,000	-0,009	0,140
-525,248	34,704	0,065	0,042
-524,233	-27,279	0,179	0,077
-523,218	800,000	0,025	-0,065
-522,204	-200,000	-0,022	-0,085
-521,189	800,000	-0,029	-0,064
-520,175	-51,105	0,051	0,018
-519,160	630,346	-0,079	-0,148
-518,145	0,121	0,058	-0,030
-517,131	800,000	-0,032	0,097
-516,116	602,259	0,020	-0,038
-515,102	800,000	0,043	0,094
-514,087	81,764	-0,120	-0,095
-513,072	-64,952	-0,131	-0,039
-512,058	307,693	0,066	-0,091
-511,043	152,347	0,111	-0,111
-510,029	800,000	-0,032	0,094
-509,014	65,351	-0,138	0,103
-507,999	-133,479	-0,158	0,014
-506,985	82,361	-0,107	-0,085
-505,970	-200,000	-0,004	-0,106
-504,956	800,000	0,029	-0,093
-503,941	106,927	0,030	-0,026
-502,926	-53,377	0,160	0,054
-501,912	-200,000	0,017	0,084
-500,897	800,000	0,031	0,076
-499,883	-86,251	-0,127	-0,029
-498,868	-200,000	0,001	0,044
-497,853	-200,000	-0,001	0,058
-496,839	-200,000	-0,019	-0,064
-495,824	48,489	-0,042	-0,029
-494,810	800,000	0,064	-0,182
-493,795	800,000	-0,066	-0,157
-492,781	800,000	-0,008	-0,026
-491,766	83,107	-0,011	-0,009
-490,751	-200,000	-0,025	-0,115
-489,737	-182,160	-0,043	-0,001
-488,722	-153,562	0,027	-0,001
-487,708	-200,000	0,012	0,074
-486,693	496,576	0,032	0,055
-485,678	1,123	-0,070	0,037
-484,664	-165,979	-0,048	0,001
-483,649	272,613	-0,073	-0,096
-482,635	274,986	-0,111	-0,145
-481,620	-45,596	0,154	-0,056
-480,605	-200,000	-0,001	-0,052
-479,591	346,119	-0,071	0,104
-478,576	-200,000	-0,031	0,214
-477,562	-23,739	-0,070	0,031
-476,547	-200,000	-0,013	-0,088
-475,532	450,670	0,040	-0,065
-474,518	9,998	-0,049	-0,027
-473,503	-78,796	-0,102	-0,025
-472,489	-108,986	0,049	-0,008
-471,474	-200,000	-0,009	-0,059
-470,459	-138,750	-0,047	-0,004
-469,445	90,573	-0,044	-0,036
-468,430	87,809	0,021	-0,017
-467,416	-12,562	0,044	0,021
-466,401	701,002	0,036	0,070
-465,386	-200,000	0,013	0,061
-464,372	267,191	0,084	0,108
-463,357	420,672	0,030	-0,048
-462,343	-200,000	0,017	0,144
-461,328	472,193	-0,051	-0,086
-460,313	-200,000	-0,001	0,114
-459,299	64,498	-0,043	0,032
-458,284	-25,967	0,065	0,028
-457,270	-143,861	-0,083	0,006
-456,255	144,365	-0,109	-0,107
-455,241	-200,000	0,024	-0,097
-454,226	130,331	-0,070	-0,066
-453,211	253,125	0,051	-0,064
-452,197	-11,171	0,029	-0,014
-451,182	162,484	0,104	0,108
-450,168	83,376	-0,045	-0,036
-449,153	-200,000	-0,022	-0,075
-448,138	-114,543	0,071	0,010
-447,124	-200,000	0,007	-0,048
-446,109	395,954	0,025	-0,039
-445,095	296,107	0,065	0,088
-444,080	152,998	0,097	0,098
-443,065	-77,188	-0,109	-0,028
-442,051	800,000	-0,050	-0,148
-441,036	-200,000	-0,013	-0,055
-440,022	-200,000	-0,026	-0,100
-439,007	-81,748	-0,095	-0,023
-437,992	800,000	0,016	0,036
-436,978	800,000	0,045	0,130
-435,963	19,575	0,140	0,083
-434,949	-200,000	0,005	-0,023
-433,934	800,000	0,019	-0,058
-432,919	44,354	-0,032	-0,022
-431,905	150,648	-0,014	-0,014
-430,890	-92,774	-0,064	-0,013
-429,876	50,499	0,166	0,115
-428,861	-38,474	0,053	0,021
-427,846	312,225	-0,044	0,061
-426,832	-120,515	-0,105	-0,013
-425,817	40,672	-0,081	-0,054
-424,803	152,031	0,030	0,030
-423,788	-90,695	-0,100	-0,021
-422,773	-4,636	0,100	0,050
-421,759	800,000	-0,042	-0,116
-420,744	276,577	0,060	-0,078
-419,730	139,784	0,011	-0,011
-418,715	103,834	0,049	-0,042
-417,701	-200,000	0,004	-0,147
-416,686	395,129	0,081	0,125
-415,671	-200,000	0,008	0,163
-414,657	800,000	0,011	0,026
-413,642	175,302	0,014	-0,015
-412,628	-181,645	0,065	-0,001
-411,613	-127,308	0,105	-0,011
-410,598	119,326	-0,108	0,098
-409,584	-49,039	-0,118	0,041
-408,569	542,282	0,080	0,141
-407,555	800,000	0,038	0,111
-406,540	384,366	-0,021	-0,031
-405,525	27,056	-0,083	-0,051
-404,511	-113,621	0,065	-0,009
-403,496	114,169	-0,057	-0,051
-402,482	-200,000	-0,005	-0,049
-401,467	800,000	-0,061	0,161
-400,452	745,531	0,062	0,123
-399,438	64,060	-0,068	0,050
-398,423	800,000	0,003	0,007
-397,409	-96,303	0,206	0,040
-396,394	-200,000	-0,001	-0,052
-395,379	-47,886	0,083	0,029
-394,365	109,124	0,040	0,035
-393,350	141,495	0,040	-0,039
-392,336	-41,813	-0,068	-0,025
-391,321	662,021	-0,049	0,093
-390,306	-20,153	0,063	-0,029
-389,292	-38,237	-0,062	-0,024
-388,277	168,622	0,064	0,067
-387,263	192,935	0,006	0,007
-386,248	-42,538	-0,203	0,076
-385,233	-200,000	-0,036	0,119
-384,219	-139,485	0,094	-0,007
-383,204	-67,602	-0,089	0,026
-382,190	-116,519	-0,041	0,005
-381,175	237,176	0,051	-0,062
-380,160	57,080	-0,045	0,032
-379,146	4,501	0,092	0,050
-378,131	230,771	-0,044	0,053
-377,117	-147,511	-0,017	0,001
-376,102	-87,135	-0,199	-0,044
-375,088	-38,846	0,081	0,031
-374,073	-200,000	0,026	-0,106
-373,058	47,802	-0,070	0,048
-372,044	0,122	0,088	0,046
-371,029	800,000	-0,036	0,110
-370,015	-18,848	-0,043	0,020
-369,000	414,344	0,038	0,059
-367,985	273,347	-0,047	-0,061
-366,971	255,115	-0,082	-0,103
-365,956	437,307	0,042	0,067
-364,942	205,544	0,075	-0,085
-363,927	-49,265	-0,100	0,035
-362,912	800,000	-0,056	0,117
-361,898	242,680	0,071	0,087
-360,883	-31,232	-0,076	0,031
-359,869	-126,633	0,057	0,006
-358,854	-200,000	-0,021	-0,073
-357,839	424,739	-0,103	-0,163
-356,825	51,972	0,183	0,127
-355,810	800,000	-0,033	-0,078
-354,796	140,868	-0,141	-0,137
-353,781	-200,000	0,003	0,033
-352,766	23,352	-0,085	0,051
-351,752	-41,200	0,045	-0,017
-350,737	29,176	-0,068	-0,042
-349,723	800,000	-0,009	-0,020
-348,708	800,000	-0,035	0,106
-347,693	181,048	-0,026	-0,028
-346,679	319,126	0,054	-0,075
-345,664	-200,000	0,004	0,091
-344,650	800,000	0,044	-0,130
-343,635	800,000	-0,053	0,135
-342,620	800,000	0,031	-0,099
-341,606	-129,542	0,082	0,008
-340,591	154,371	-0,055	0,055
-339,577	86,144	0,031	-0,025
-338,562	-200,000	0,005	-0,132
-337,548	167,426	0,035	-0,037
-336,533	-200,000	-0,013	0,050
-335,518	-200,000	0,001	-0,045
-334,504	314,895	0,099	0,137
-333,489	703,034	0,021	-0,042
-332,475	419,444	-0,112	-0,176
-331,460	800,000	-0,008	-0,019
-330,445	154,150	0,054	-0,055
-329,431	-200,000	0,129	0,000
-328,416	-186,951	0,029	0,000
-327,402	800,000	-0,055	0,140
-326,387	-200,000	0,020	0,080
-325,372	20,564	-0,059	-0,035
-324,358	-27,375	0,165	0,070
-323,343	800,000	-0,025	-0,066
-322,329	-200,000	-0,015	0,055
-321,314	12,331	-0,122	-0,069
-320,299	379,329	-0,073	-0,110
-319,285	-55,493	-0,051	-0,017
-318,270	302,546	0,079	0,108
-317,256	31,235	-0,094	-0,059
-316,241	-200,000	0,006	-0,058
-315,226	467,466	0,073	-0,119
-314,212	-200,000	0,000	-0,041
-313,197	142,055	0,045	0,044
-312,183	-13,451	-0,122	-0,058
-311,168	229,932	0,012	0,015
-310,153	427,715	-0,024	0,038
-309,139	158,028	0,083	-0,084
-308,124	-90,493	-0,068	0,014
-307,110	-51,593	-0,064	-0,022
-306,095	346,032	0,048	0,069
-305,080	65,383	0,073	0,054
-304,066	-200,000	0,005	0,022
-303,051	48,180	-0,029	0,020
-302,037	-200,000	-0,011	-0,065
-301,022	-113,203	-0,025	-0,004
-300,008	-85,685	0,100	0,023
-298,993	-200,000	-0,034	0,150
-297,978	129,641	-0,096	0,090
-296,964	-152,575	0,133	-0,007
-295,949	220,398	-0,051	-0,060
-294,935	605,893	-0,066	-0,121
-293,920	381,170	-0,058	0,087
-292,905	-200,000	0,000	0,066
-291,891	800,000	0,026	0,058
-290,876	-200,000	0,005	0,021
-289,862	-19,039	-0,097	0,044
-288,847	754,471	0,022	0,044
-287,832	-140,555	-0,114	0,008
-286,818	-168,281	0,104	0,003
-285,803	119,811	0,052	0,047
-284,789	-200,000	-0,015	0,104
-283,774	-200,000	0,029	0,184
-282,759	555,008	-0,042	0,073
-281,745	651,158	-0,021	-0,040
-280,730	253,143	-0,038	-0,048
-279,716	72,871	-0,052	-0,040
-278,701	129,764	0,113	0,106
-277,686	-85,342	0,124	-0,028
-276,672	800,000	0,044	0,128
-275,657	425,639	0,028	0,044
-274,643	74,412	0,085	-0,065
-273,628	800,000	0,004	-0,011
-272,613	-77,152	-0,102	-0,026
-271,599	257,264	-0,017	-0,021
-270,584	-23,508	0,166	-0,073
-269,570	5,347	0,078	0,042
-268,555	533,497	0,046	0,080
-267,540	85,821	-0,114	0,092
-266,526	378,718	-0,033	-0,050
-265,511	-96,401	-0,033	0,006
-264,497	152,587	0,097	-0,097
-263,482	-200,000	-0,004	0,094
-262,467	-200,000	-0,018	0,072
-261,453	-200,000	0,010	0,044
-260,438	-140,673	0,009	-0,001
-259,424	800,000	0,043	-0,091
-258,409	15,178	-0,075	-0,043
-257,395	-200,000	-0,002	-0,006
-256,380	-41,236	-0,037	0,014
-255,365	241,092	0,023	-0,028
-254,351	-200,000	-0,033	0,143
-253,336	-166,278	-0,110	0,003
-252,322	-98,997	0,110	0,020
-251,307	-74,754	-0,159	-0,041
-250,292	-200,000	0,111	0,000
-249,278	800,000	-0,034	0,072
-248,263	-44,300	0,127	-0,046
-247,249	554,410	-0,079	-0,139
-246,234	-143,040	0,217	0,015
-245,219	-200,000	0,008	-0,026
-244,205	472,849	0,028	0,047
-243,190	-200,000	-0,021	-0,077
-242,176	122,552	-0,004	-0,003
-241,161	-200,000	0,006	0,041
-240,146	100,915	-0,073	0,062
-239,132	-130,282	-0,101	0,010
-238,117	-62,230	0,068	-0,020
-237,103	-200,000	-0,012	0,065
-236,088	-200,000	-0,019	-0,108
-235,073	-39,849	0,123	-0,047
-234,059	-130,405	0,176	0,017
-233,044	37,294	-0,090	0,058
-232,030	-32,924	-0,097	0,039
-231,015	-31,780	-0,039	-0,016
-230,000	467,864	-0,061	0,101
-228,986	-200,000	-0,008	-0,121
-227,971	132,304	0,122	-0,114
-226,957	26,414	0,118	0,072
-225,942	91,333	0,064	0,052
-224,927	800,000	-0,023	-0,056
-223,913	667,070	-0,073	-0,139
-222,898	360,429	0,052	-0,076
-221,884	87,965	0,077	-0,062
-220,869	-15,240	0,025	0,012
-219,855	-9,803	0,174	0,084
-218,840	246,617	0,075	0,093
-217,825	-143,034	-0,026	0,002
-216,811	142,871	-0,082	-0,080
-215,796	346,678	-0,024	-0,034
-214,782	800,000	0,001	0,004
-213,767	759,541	0,049	0,098
-212,752	-73,548	0,108	-0,028
-211,738	521,085	0,043	-0,075
-210,723	-200,000	0,001	0,055
-209,709	-167,180	-0,072	-0,002
-208,694	-200,000	0,003	0,123
-207,679	12,581	0,110	-0,062
-206,665	2,599	-0,018	0,010
-205,650	38,594	-0,092	0,060
-204,636	117,456	0,052	-0,047
-203,621	51,281	-0,046	-0,032
-202,606	212,001	-0,138	-0,159
-201,592	800,000	0,060	-0,181
-200,577	-200,000	-0,026	-0,094
-199,563	122,997	-0,090	0,082
-198,548	-200,000	-0,011	0,069
-197,533	-115,818	0,084	-0,011
-196,519	-131,718	0,108	0,010
-195,504	-200,000	-0,013	-0,056
-194,490	800,000	0,040	0,096
-193,475	262,195	-0,027	-0,034
-192,460	-4,417	-0,093	-0,047
-191,446	-194,762	-0,051	0,000
-190,431	800,000	0,026	0,057
-189,417	489,121	0,047	0,079
-188,402	-147,970	0,066	-0,004
-187,387	-74,933	0,091	-0,024
-186,373	-200,000	-0,023	-0,148
-185,358	-200,000	0,004	0,067
-184,344	-200,000	0,003	0,134
-183,329	579,294	0,093	0,166
-182,315	-28,844	0,133	-0,055
-181,300	85,072	0,031	-0,024
-180,285	354,880	0,031	-0,044
-179,271	162,415	-0,061	0,062
-178,256	-16,137	0,118	0,054
-177,242	-130,513	-0,098	-0,010
-176,227	800,000	0,025	-0,062
-175,212	-200,000	0,023	-0,079
-174,198	-26,475	-0,060	-0,026
-173,183	71,942	-0,048	0,036
-172,169	-200,000	0,011	0,040
-171,154	-19,296	-0,021	-0,009
-170,139	464,609	0,086	0,140
-169,125	-127,057	0,028	-0,003
-168,110	-200,000	0,003	0,090
-167,096	800,000	0,055	0,144
-166,081	-10,147	0,100	0,048
-165,066	-200,000	-0,001	-0,069
-164,052	54,340	-0,036	0,025
-163,037	800,000	0,046	0,101
-162,023	-45,954	-0,074	0,026
-161,008	200,325	-0,131	-0,147
-159,993	35,869	0,065	0,041
-158,979	800,000	-0,016	-0,039
-157,964	54,317	-0,132	0,092
-156,950	-91,104	-0,077	0,016
-155,935	375,297	-0,093	0,138
-154,920	-200,000	-0,015	0,052
-153,906	414,447	0,041	0,063
-152,891	800,000	0,049	0,130
-151,877	211,985	-0,054	0,062
-150,862	296,715	-0,034	0,045
-149,847	720,367	0,094	0,182
-148,833	-200,000	0,019	0,071
-147,818	-200,000	0,021	0,178
-146,804	254,274	-0,075	0,094
-145,789	147,984	0,103	0,101
-144,775	27,847	0,057	0,035
-143,760	-200,000	0,022	-0,136
-142,745	24,665	0,030	-0,018
-141,731	-117,845	0,061	-0,008
-140,716	800,000	0,011	0,034
-139,702	623,446	0,060	0,111
-138,687	216,044	0,076	0,088
-137,672	-131,544	-0,070	0,007
-136,658	-200,000	-0,022	-0,125
-135,643	796,340	-0,040	-0,081
-134,629	62,121	-0,068	0,049
-133,614	-200,000	0,003	0,029
-132,599	-80,950	-0,090	-0,022
-131,585	-19,312	-0,127	0,057
-130,570	-69,608	0,096	0,026
-129,556	128,847	0,040	-0,037
-128,541	21,736	0,099	-0,058
-127,526	414,300	0,069	-0,108
-126,512	-147,349	-0,063	-0,004
-125,497	147,770	0,066	-0,064
-124,483	-134,956	0,158	-0,014
-123,468	800,000	-0,019	-0,058
-122,453	35,585	0,085	-0,054
-121,439	-200,000	0,001	0,055
-120,424	-200,000	-0,013	-0,091
-119,410	-177,602	0,104	0,002
