DTS Sentinel unit serial number:	SN410029Multiplexer serial number:	ORYXHardware model number:	OX2-SRSoftware version number:	ORYX F/W v4,00 Oryx Data Collector v3.7.2.0data status	okinstallation	B4 Nyhavnadifferential loss correction	single-endedforward channel	channel 2reverse channel	N/Adate	2023/12/18time	18:50:13forward acquisition time	300,00reverse acquisition time	0,00gamma	499,1914k internal	0,3124k external	0,3124temperature offset calibration	1,0000default loss term (dB/km)	0,3820temperature slope calibration	1,0000multiplexer offset coefficient	1,0000multiplexer slope coefficient	1,0000fibre end	0,00T internal ref (°C)	21,93T ext. ref 1 (°C)	6,95T ext. ref 2 (°C)	6,94length (m)	temperature (°C)	Stokes	anti-Stokes-744,400	-200,000	-0,004	-0,127
-743,385	65,688	-0,241	0,182
-742,371	800,000	0,010	0,026
-741,356	139,668	-0,118	0,116
-740,342	-200,000	0,005	0,086
-739,327	174,818	-0,186	0,201
-738,312	278,224	0,017	-0,023
-737,298	-34,541	-0,190	0,077
-736,283	-40,871	-0,062	0,024
-735,269	767,987	-0,079	0,160
-734,254	-81,409	-0,152	-0,037
-733,239	-144,400	-0,293	0,020
-732,225	195,994	0,047	-0,054
-731,210	89,744	-0,054	-0,045
-730,196	41,320	-0,095	-0,064
-729,181	-200,000	-0,015	-0,078
-728,167	129,848	0,080	-0,076
-727,152	440,837	-0,039	0,064
-726,137	800,000	-0,045	-0,127
-725,123	-200,000	0,002	-0,027
-724,108	800,000	-0,051	-0,155
-723,094	253,344	-0,074	-0,094
-722,079	-131,606	-0,111	0,011
-721,064	-42,975	0,058	-0,022
-720,050	37,179	-0,012	-0,008
-719,035	516,229	-0,025	-0,044
-718,021	149,688	0,012	-0,012
-717,006	-200,000	-0,015	-0,130
-715,991	361,376	-0,116	-0,173
-714,977	216,649	-0,163	-0,193
-713,962	-200,000	0,032	-0,116
-712,948	-104,639	0,081	0,014
-711,933	-87,774	-0,100	0,022
-710,918	36,410	-0,129	-0,085
-709,904	-27,241	-0,118	-0,051
-708,889	-98,372	-0,058	-0,011
-707,875	23,932	-0,048	0,030
-706,860	-49,709	-0,096	0,034
-705,845	800,000	-0,006	-0,018
-704,831	71,329	-0,123	0,095
-703,816	-177,619	-0,126	-0,002
-702,802	800,000	-0,042	-0,087
-701,787	516,456	-0,040	-0,071
-700,772	800,000	0,056	-0,126
-699,758	625,604	0,035	-0,066
-698,743	-200,000	0,006	0,081
-697,729	-200,000	-0,044	0,000
-696,714	-84,458	0,079	-0,018
-695,699	-22,836	0,052	0,023
-694,685	-200,000	0,012	-0,098
-693,670	231,283	-0,137	-0,167
-692,656	62,714	0,132	-0,098
-691,641	-200,000	0,008	-0,034
-690,627	340,451	-0,052	0,076
-689,612	100,251	-0,071	0,061
-688,597	-124,137	0,021	-0,002
-687,583	-200,000	-0,011	-0,080
-686,568	92,761	-0,037	0,031
-685,554	69,892	-0,126	-0,096
-684,539	273,118	0,054	-0,071
-683,524	-200,000	0,015	0,091
-682,510	-50,247	-0,019	0,007
-681,495	137,929	-0,037	-0,036
-680,481	99,300	-0,131	-0,112
-679,466	105,393	-0,115	-0,101
-678,451	-200,000	0,017	0,069
-677,437	800,000	-0,024	-0,069
-676,422	-96,491	0,118	-0,023
-675,408	800,000	-0,019	0,051
-674,393	-200,000	-0,021	0,112
-673,378	-124,438	-0,051	-0,006
-672,364	800,000	-0,007	0,015
-671,349	266,959	0,065	0,085
-670,335	-173,829	0,039	0,001
-669,320	-200,000	-0,012	-0,076
-668,305	109,154	-0,061	-0,054
-667,291	-200,000	0,019	-0,095
-666,276	-200,000	-0,021	0,102
-665,262	800,000	0,043	-0,129
-664,247	-160,616	-0,193	-0,007
-663,232	-200,000	0,007	-0,043
-662,218	376,195	0,070	-0,107
-661,203	-200,000	0,016	0,083
-660,189	800,000	-0,065	0,152
-659,174	-200,000	-0,006	-0,075
-658,159	42,908	-0,081	-0,055
-657,145	512,931	0,062	-0,107
-656,130	71,463	0,033	0,026
-655,116	140,037	0,140	0,137
-654,101	-20,192	0,081	0,037
-653,086	220,430	0,038	0,046
-652,072	134,923	-0,122	0,118
-651,057	179,954	-0,069	-0,075
-650,043	800,000	-0,013	-0,037
-649,028	-35,911	0,096	-0,038
-648,014	800,000	0,031	0,073
-646,999	800,000	0,078	0,205
-645,984	123,552	0,095	-0,088
-644,970	54,374	0,124	-0,088
-643,955	27,080	-0,063	-0,039
-642,941	174,730	-0,025	-0,027
-641,926	361,736	-0,046	-0,068
-640,911	3,938	0,009	-0,005
-639,897	165,351	0,102	0,107
-638,882	213,969	-0,093	0,110
-637,868	-98,615	-0,227	-0,043
-636,853	-84,394	-0,073	-0,017
-635,838	191,213	-0,151	-0,169
-634,824	-200,000	-0,008	-0,054
-633,809	-2,017	0,057	0,030
-632,795	-200,000	0,023	0,083
-631,780	242,704	0,095	0,118
-630,765	-99,095	-0,188	0,035
-629,751	-62,273	0,119	-0,037
-628,736	-200,000	-0,007	-0,058
-627,722	-200,000	0,025	0,085
-626,707	-81,509	0,059	0,014
-625,692	85,380	-0,058	-0,047
-624,678	86,126	0,094	-0,077
-623,663	86,537	-0,039	0,032
-622,649	-200,000	-0,010	0,159
-621,634	212,019	-0,042	0,049
-620,619	18,263	-0,045	-0,027
-619,605	44,574	0,018	-0,012
-618,590	-126,319	0,105	0,011
-617,576	800,000	0,022	0,064
-616,561	18,616	0,108	-0,064
-615,546	509,451	-0,050	0,086
-614,532	-200,000	-0,005	-0,024
-613,517	-200,000	-0,005	-0,057
-612,503	-128,698	-0,082	-0,008
-611,488	240,228	0,024	-0,030
-610,474	168,034	0,073	-0,078
-609,459	-88,993	-0,170	0,037
-608,444	800,000	0,058	0,161
-607,430	13,944	-0,094	-0,054
-606,415	-10,018	-0,156	-0,077
-605,401	37,061	0,034	-0,022
-604,386	-200,000	0,018	0,090
-603,371	-200,000	-0,023	-0,117
-602,357	654,052	0,060	-0,114
-601,342	-71,707	0,078	-0,021
-600,328	69,822	0,119	-0,091
-599,313	23,431	-0,060	-0,037
-598,298	103,446	-0,105	-0,091
-597,284	-200,000	-0,001	0,024
-596,269	276,082	0,076	-0,100
-595,255	363,956	0,012	0,018
-594,240	-36,591	-0,064	0,025
-593,225	-43,649	0,209	-0,078
-592,211	92,485	-0,106	-0,088
-591,196	-132,978	-0,136	-0,013
-590,182	130,085	-0,082	0,078
-589,167	-105,367	-0,050	0,008
-588,152	-200,000	0,021	0,129
-587,138	-96,823	-0,156	0,030
-586,123	6,279	-0,008	0,004
-585,109	800,000	-0,022	-0,063
-584,094	677,875	0,039	-0,075
-583,079	-200,000	-0,021	0,107
-582,065	6,251	0,066	-0,036
-581,050	-200,000	0,016	0,095
-580,036	-102,772	-0,105	0,018
-579,021	669,559	0,036	-0,069
-578,006	50,630	-0,106	-0,074
-576,992	-73,289	-0,095	-0,026
-575,977	-6,902	-0,152	-0,076
-574,963	-200,000	-0,037	-0,159
-573,948	-200,000	0,010	0,047
-572,934	-130,420	0,151	0,015
-571,919	225,395	-0,068	-0,081
-570,904	164,586	-0,120	-0,125
-569,890	-200,000	0,005	-0,035
-568,875	-133,283	-0,080	-0,007
-567,861	800,000	0,031	0,074
-566,846	-73,605	0,158	0,042
-565,831	420,462	-0,036	0,057
-564,817	800,000	-0,041	-0,123
-563,802	498,911	-0,061	-0,105
-562,788	34,949	-0,057	-0,037
-561,773	-177,188	-0,050	0,001
-560,758	-200,000	-0,018	-0,066
-559,744	-13,037	-0,028	0,014
-558,729	42,736	0,034	-0,023
-557,715	-200,000	0,001	0,025
-556,700	141,038	0,025	0,024
-555,685	-113,448	-0,147	-0,021
-554,671	31,306	0,113	-0,072
-553,656	77,198	-0,071	-0,056
-552,642	-200,000	-0,005	-0,051
-551,627	800,000	0,023	0,058
-550,612	20,529	0,102	-0,061
-549,598	-157,961	-0,072	-0,003
-548,583	-200,000	-0,015	0,104
-547,569	328,607	0,046	0,065
-546,554	-200,000	0,004	-0,016
-545,539	-123,997	0,023	0,003
-544,525	-200,000	-0,041	-0,233
-543,510	-200,000	0,006	-0,134
-542,496	-200,000	-0,012	-0,159
-541,481	-60,984	-0,134	-0,042
-540,466	-200,000	0,000	-0,128
-539,452	125,830	0,110	-0,103
-538,437	-190,307	0,256	0,002
-537,423	800,000	-0,060	-0,136
-536,408	31,345	0,208	0,132
-535,393	185,534	0,068	0,075
-534,379	1,758	-0,054	-0,029
-533,364	-116,443	-0,111	-0,015
-532,350	-200,000	-0,100	-0,000
-531,335	-200,000	-0,016	0,084
-530,321	6,737	0,208	0,114
-529,306	195,915	-0,015	0,017
-528,291	55,902	-0,057	0,041
-527,277	477,790	-0,067	0,112
-526,262	-200,000	0,007	-0,029
-525,248	790,440	-0,004	0,008
-524,233	122,177	-0,039	-0,036
-523,218	-200,000	0,015	-0,076
-522,204	-200,000	-0,008	0,051
-521,189	-200,000	0,001	0,052
-520,175	-27,958	-0,072	0,031
-519,160	-140,138	-0,105	-0,008
-518,145	7,722	0,075	-0,042
-517,131	-200,000	0,028	0,099
-516,116	247,026	0,034	0,043
-515,102	110,676	-0,099	0,088
-514,087	-170,504	-0,119	0,003
-513,072	800,000	-0,019	-0,061
-512,058	-200,000	-0,006	0,038
-511,043	-200,000	0,008	-0,037
-510,029	451,650	-0,065	0,106
-509,014	-200,000	0,014	0,174
-507,999	-200,000	-0,009	0,134
-506,985	800,000	-0,023	-0,064
-505,970	-200,000	0,011	-0,152
-504,956	-64,057	0,057	0,017
-503,941	-7,024	0,118	-0,059
-502,926	469,949	-0,026	0,043
-501,912	-121,174	0,134	0,016
-500,897	-71,153	-0,128	0,035
-499,883	7,840	0,058	-0,032
-498,868	-45,836	-0,076	0,027
-497,853	-63,154	0,010	-0,003
-496,839	619,896	0,055	-0,103
-495,824	-200,000	0,004	-0,030
-494,810	141,468	-0,073	0,071
-493,795	-200,000	-0,020	0,153
-492,781	-200,000	-0,010	0,063
-491,766	-107,634	-0,094	-0,015
-490,751	415,364	0,040	-0,063
-489,737	-154,406	-0,063	-0,003
-488,722	34,966	0,068	0,044
-487,708	23,388	0,079	-0,048
-486,693	58,083	0,008	-0,006
-485,678	224,233	0,087	-0,104
-484,664	-200,000	0,018	0,144
-483,649	-200,000	0,002	-0,021
-482,635	149,872	0,090	0,090
-481,620	800,000	-0,036	0,087
-480,605	-200,000	0,009	0,057
-479,591	66,637	0,024	-0,018
-478,576	25,556	0,060	-0,037
-477,562	37,862	-0,139	-0,091
-476,547	-37,470	-0,071	-0,028
-475,532	146,552	0,110	0,109
-474,518	800,000	0,039	0,082
-473,503	800,000	-0,062	0,140
-472,489	4,129	0,082	0,044
-471,474	-200,000	-0,014	-0,062
-470,459	-81,822	-0,099	0,024
-469,445	-200,000	0,005	-0,115
-468,430	9,343	0,079	0,044
-467,416	51,761	0,057	0,040
-466,401	-157,215	0,126	0,006
-465,386	-13,093	0,091	0,044
-464,372	-40,112	0,078	-0,030
-463,357	800,000	-0,028	-0,062
-462,343	-58,235	0,042	-0,013
-461,328	-23,298	-0,096	0,042
-460,313	-200,000	0,008	-0,105
-459,299	-94,935	0,094	0,019
-458,284	-200,000	0,009	0,087
-457,270	126,266	0,105	0,098
-456,255	275,525	0,021	0,027
-455,241	113,451	0,064	-0,057
-454,226	-200,000	0,006	-0,023
-453,211	800,000	0,075	0,155
-452,197	800,000	0,016	-0,046
-451,182	-39,527	0,152	-0,058
-450,168	-200,000	0,004	-0,078
-449,153	34,504	-0,106	-0,068
-448,138	23,504	-0,044	0,027
-447,124	800,000	-0,013	-0,035
-446,109	-162,725	0,166	0,006
-445,095	61,076	-0,024	-0,017
-444,080	-200,000	-0,008	0,079
-443,065	10,370	-0,097	0,054
-442,051	313,337	-0,062	-0,087
-441,036	-75,227	-0,084	-0,022
-440,022	-100,525	0,103	0,018
-439,007	14,132	0,084	0,048
-437,992	68,692	0,074	0,056
-436,978	-200,000	0,028	0,103
-435,963	800,000	0,015	0,032
-434,949	17,796	-0,115	0,067
-433,934	800,000	-0,040	0,093
-432,919	108,293	-0,114	-0,100
-431,905	315,333	-0,086	-0,120
-430,890	-200,000	0,005	0,150
-429,876	481,447	-0,066	0,111
-428,861	199,329	0,090	0,101
-427,846	-200,000	0,002	-0,013
-426,832	-50,291	-0,104	0,036
-425,817	800,000	-0,046	0,135
-424,803	-142,873	0,021	0,001
-423,788	128,342	0,035	0,033
-422,773	67,444	0,151	-0,113
-421,759	500,390	0,046	-0,078
-420,744	-30,587	0,065	-0,027
-419,730	800,000	0,069	0,148
-418,715	73,576	-0,095	-0,073
-417,701	-200,000	-0,002	-0,134
-416,686	471,197	-0,036	0,059
-415,671	800,000	-0,036	0,082
-414,657	-200,000	-0,041	0,227
-413,642	800,000	-0,029	-0,069
-412,628	-200,000	0,020	-0,172
-411,613	-200,000	-0,004	0,015
-410,598	-11,071	-0,078	-0,038
-409,584	-200,000	0,006	0,153
-408,569	-199,513	0,126	-0,000
-407,555	-161,332	0,090	0,003
-406,540	-200,000	0,006	-0,049
-405,525	-106,114	-0,072	0,012
-404,511	222,861	0,036	-0,043
-403,496	-29,097	-0,017	-0,007
-402,482	-78,057	-0,055	-0,014
-401,467	-118,310	0,156	-0,020
-400,452	329,010	-0,013	-0,018
-399,438	120,388	-0,039	-0,036
-398,423	-47,443	-0,044	-0,016
-397,409	-93,081	0,029	0,006
-396,394	800,000	-0,056	-0,149
-395,379	-102,986	-0,088	0,015
-394,365	-200,000	0,015	0,096
-393,350	-144,064	-0,046	-0,003
-392,336	71,493	0,084	0,064
-391,321	-13,821	0,108	0,051
-390,306	403,311	0,029	0,045
-389,292	548,012	0,059	-0,104
-388,277	800,000	0,014	-0,040
-387,263	58,861	0,081	0,059
-386,248	89,385	0,122	0,100
-385,233	0,003	-0,044	-0,023
-384,219	800,000	-0,020	-0,046
-383,204	-200,000	0,010	-0,107
-382,190	-30,438	0,153	-0,063
-381,175	30,483	-0,041	0,026
-380,160	72,266	0,057	0,044
-379,146	800,000	0,038	-0,105
-378,131	-111,320	-0,113	0,017
-377,117	-58,839	0,045	0,014
-376,102	257,033	-0,015	0,019
-375,088	96,266	-0,075	0,063
-374,073	470,408	0,085	0,141
-373,058	-113,555	0,058	-0,008
-372,044	-200,000	0,026	-0,084
-371,029	-127,443	0,025	0,003
-370,015	80,358	-0,062	-0,049
-369,000	800,000	-0,059	-0,184
-367,985	-200,000	-0,024	-0,098
-366,971	483,712	0,025	-0,042
-365,956	-52,573	0,059	0,020
-364,942	-200,000	0,008	0,217
-363,927	181,119	0,045	-0,049
-362,912	52,499	0,063	0,044
-361,898	377,234	-0,104	-0,156
-360,883	40,541	-0,110	-0,073
-359,869	271,841	0,121	-0,156
-358,854	14,630	-0,041	0,024
-357,839	-51,237	0,099	-0,034
-356,825	293,537	0,053	0,071
-355,810	-200,000	0,004	0,136
-354,796	48,516	-0,125	0,086
-353,781	240,477	0,045	0,056
-352,766	52,104	-0,089	-0,062
-351,752	-200,000	0,004	-0,027
-350,737	-15,179	-0,043	0,020
-349,723	-60,478	-0,073	0,023
-348,708	-200,000	0,019	-0,089
-347,693	38,118	-0,173	0,113
-346,679	223,178	0,029	0,034
-345,664	74,714	0,061	-0,047
-344,650	86,220	0,034	-0,027
-343,635	-44,985	0,155	0,056
-342,620	-200,000	0,026	0,110
-341,606	800,000	-0,017	-0,048
-340,591	800,000	0,015	0,039
-339,577	411,146	0,054	-0,085
-338,562	-200,000	-0,025	-0,178
-337,548	94,932	-0,087	-0,072
-336,533	71,677	-0,079	-0,060
-335,518	-106,779	0,042	-0,007
-334,504	14,800	0,043	0,025
-333,489	-44,085	0,100	0,037
-332,475	128,737	0,080	-0,075
-331,460	-200,000	0,002	-0,169
-330,445	15,788	-0,115	0,066
-329,431	138,295	0,153	-0,147
-328,416	546,323	-0,074	0,131
-327,402	264,346	-0,077	0,098
-326,387	-15,467	-0,031	-0,014
-325,372	673,510	-0,020	0,037
-324,358	453,699	-0,025	-0,040
-323,343	-200,000	0,012	-0,042
-322,329	-156,833	0,184	0,008
-321,314	45,099	0,078	-0,053
-320,299	-200,000	-0,065	0,000
-319,285	-9,545	0,089	0,043
-318,270	-3,688	-0,115	0,059
-317,256	-200,000	-0,003	-0,098
-316,241	151,995	0,037	-0,037
-315,226	-153,676	-0,033	-0,002
-314,212	-200,000	-0,004	-0,032
-313,197	-200,000	0,022	-0,129
-312,183	-200,000	-0,016	-0,074
-311,168	31,914	-0,162	-0,102
-310,153	42,386	-0,107	-0,071
-309,139	-200,000	0,013	0,125
-308,124	279,427	-0,035	0,045
-307,110	534,741	-0,027	-0,047
-306,095	-200,000	-0,031	-0,105
-305,080	-200,000	-0,020	0,148
-304,066	-200,000	0,019	0,091
-303,051	145,305	0,045	0,044
-302,037	-200,000	0,005	0,050
-301,022	594,143	0,052	0,095
-300,008	31,268	0,003	0,002
-298,993	-88,702	0,049	-0,011
-297,978	67,346	-0,115	0,086
-296,964	149,896	0,073	-0,072
-295,949	-200,000	0,030	-0,123
-294,935	-200,000	-0,005	0,029
-293,920	-18,595	0,057	-0,026
-292,905	105,971	0,114	0,099
-291,891	-200,000	0,042	0,168
-290,876	-200,000	-0,005	0,083
-289,862	13,037	0,117	-0,066
-288,847	433,206	-0,057	-0,090
-287,832	189,554	0,043	-0,047
-286,818	-68,406	-0,143	-0,040
-285,803	-49,511	0,054	0,019
-284,789	800,000	0,037	0,081
-283,774	15,347	-0,029	0,017
-282,759	-72,908	0,061	-0,016
-281,745	-144,503	-0,114	-0,008
-280,730	-137,112	-0,028	0,002
-279,716	683,242	-0,028	0,054
-278,701	96,536	0,124	0,104
-277,686	311,428	0,055	-0,076
-276,672	457,207	0,048	0,079
-275,657	-112,736	-0,037	-0,005
-274,643	-160,989	-0,051	0,002
-273,628	-200,000	0,005	-0,022
-272,613	800,000	-0,034	0,085
-271,599	-200,000	0,025	0,087
-270,584	298,687	-0,092	0,125
-269,570	-189,715	0,097	0,001
-268,555	162,103	-0,051	0,052
-267,540	-130,903	-0,101	-0,010
-266,526	-13,257	-0,109	0,051
-265,511	23,642	0,106	0,063
-264,497	438,770	-0,055	0,088
-263,482	52,905	-0,013	0,009
-262,467	-124,659	0,085	-0,010
-261,453	-116,246	-0,123	0,017
-260,438	-47,603	-0,055	-0,020
-259,424	317,980	0,037	-0,051
-258,409	-103,712	-0,105	-0,018
-257,395	-200,000	-0,008	-0,091
-256,380	70,007	0,068	-0,051
-255,365	800,000	0,019	0,054
-254,351	800,000	0,023	0,050
-253,336	-36,492	0,072	-0,028
-252,322	647,021	-0,068	-0,127
-251,307	314,312	-0,019	-0,026
-250,292	-12,339	-0,084	0,040
-249,278	800,000	0,030	0,079
-248,263	499,771	-0,098	0,166
-247,249	-36,263	-0,088	0,035
-246,234	20,768	0,021	0,012
-245,219	5,339	0,135	0,073
-244,205	-146,864	-0,109	-0,007
-243,190	-59,033	0,092	0,029
-242,176	323,176	-0,035	-0,049
-241,161	800,000	0,091	-0,250
-240,146	-1,682	-0,153	0,079
-239,132	377,320	-0,044	-0,066
-238,117	-81,591	-0,063	0,015
-237,103	-200,000	-0,042	-0,174
-236,088	-16,267	-0,187	0,086
-235,073	-200,000	-0,006	0,036
-234,059	182,843	0,064	0,069
-233,044	-200,000	0,006	0,037
-232,030	111,617	-0,071	0,062
-231,015	-90,622	0,021	0,004
-230,000	117,205	-0,090	-0,081
-228,986	-200,000	0,001	-0,032
-227,971	59,185	0,101	0,073
-226,957	-200,000	-0,000	-0,075
-225,942	-195,610	0,077	0,000
-224,927	261,161	0,045	0,057
-223,913	-17,309	0,005	0,002
-222,898	481,995	-0,057	-0,094
-221,884	-200,000	-0,008	-0,027
-220,869	-200,000	-0,000	-0,077
-219,855	-33,402	-0,119	0,048
-218,840	-10,785	0,079	0,038
-217,825	345,709	0,054	0,078
-216,811	-74,855	-0,090	-0,023
-215,796	6,061	0,022	0,012
-214,782	51,582	-0,033	0,023
-213,767	-56,625	-0,098	-0,032
-212,752	-53,860	0,170	0,056
-211,738	-8,638	-0,032	0,016
-210,723	-64,435	0,071	-0,021
-209,709	113,832	-0,111	-0,099
-208,694	800,000	-0,018	-0,053
-207,679	-122,699	0,126	-0,015
-206,665	267,037	-0,043	-0,055
-205,650	258,643	0,061	-0,077
-204,636	-200,000	0,014	0,050
-203,621	-200,000	-0,043	0,153
-202,606	-200,000	-0,001	0,069
-201,592	-60,421	-0,083	-0,026
-200,577	800,000	-0,036	-0,111
-199,563	-27,920	0,117	-0,049
-198,548	-200,000	0,055	0,209
-197,533	-200,000	-0,011	0,042
-196,519	-138,143	0,190	0,015
-195,504	-200,000	-0,024	0,082
-194,490	86,359	0,127	-0,102
-193,475	17,202	0,048	-0,028
-192,460	800,000	0,020	0,044
-191,446	-179,086	0,032	0,001
-190,431	-50,603	-0,028	-0,010
-189,417	197,348	-0,065	0,073
-188,402	776,853	0,031	-0,062
-187,387	-200,000	-0,026	-0,153
-186,373	-200,000	-0,021	-0,099
-185,358	493,744	0,043	-0,073
-184,344	-200,000	-0,033	0,129
-183,329	-200,000	0,006	-0,034
-182,315	800,000	-0,038	0,087
-181,300	-200,000	-0,022	0,079
-180,285	472,794	-0,049	-0,082
-179,271	-200,000	0,015	-0,125
-178,256	-23,526	0,145	-0,063
-177,242	-133,504	0,128	-0,012
-176,227	-200,000	-0,007	-0,064
-175,212	0,940	0,067	0,035
-174,198	-4,471	-0,113	0,057
-173,183	-74,939	-0,047	0,012
-172,169	-149,637	-0,127	-0,007
-171,154	460,553	0,057	0,093
-170,139	74,282	0,090	0,069
-169,125	-130,496	-0,045	-0,004
-168,110	-137,599	-0,061	-0,005
-167,096	147,487	-0,094	0,093
-166,081	-164,837	0,043	-0,001
-165,066	-111,589	-0,089	-0,013
-164,052	-200,000	0,022	-0,087
-163,037	277,316	0,021	0,027
-162,023	-37,048	-0,027	-0,010
-161,008	107,068	0,037	0,032
-159,993	252,334	0,010	-0,013
-158,979	-103,701	-0,117	-0,020
-157,964	141,967	-0,108	-0,104
-156,950	-200,000	-0,009	-0,090
-155,935	-200,000	0,001	-0,085
-154,920	-200,000	-0,009	0,037
-153,906	193,179	0,149	0,165
-152,891	800,000	0,036	0,089
-151,877	663,543	0,014	-0,026
-150,862	-6,792	-0,159	0,078
-149,847	117,785	-0,090	0,081
-148,833	-27,420	-0,136	-0,057
-147,818	-90,874	0,071	0,015
-146,804	-103,086	0,131	0,022
-145,789	-32,013	0,036	-0,014
-144,775	-200,000	-0,009	0,061
-143,760	800,000	0,046	-0,101
-142,745	-49,957	-0,030	-0,010
-141,731	-109,678	-0,079	0,012
-140,716	95,834	0,035	-0,029
-139,702	763,550	0,060	0,118
-138,687	-3,018	0,067	0,034
-137,672	-200,000	-0,010	-0,136
-136,658	398,842	0,105	-0,160
-135,643	800,000	0,040	-0,084
-134,629	315,172	-0,074	0,101
-133,614	-65,930	0,051	-0,015
-132,599	31,875	-0,043	0,027
-131,585	94,826	-0,037	0,031
-130,570	-200,000	0,008	0,098
-129,556	-73,221	-0,074	0,020
-128,541	-35,583	0,136	-0,053
-127,526	533,284	-0,062	-0,107
-126,512	-137,520	-0,069	0,006
-125,497	99,279	0,080	0,067
-124,483	16,604	0,007	-0,004
-123,468	-200,000	-0,004	-0,053
-122,453	-16,999	-0,161	0,074
-121,439	257,798	-0,027	0,034
-120,424	-200,000	0,011	-0,050
-119,410	-55,291	-0,161	-0,052
