DTS Sentinel unit serial number:	SN410029Multiplexer serial number:	ORYXHardware model number:	OX2-SRSoftware version number:	ORYX F/W v4,00 Oryx Data Collector v3.7.2.0data status	okinstallation	B4 Nyhavnadifferential loss correction	single-endedforward channel	channel 2reverse channel	N/Adate	2023/12/15time	15:05:13forward acquisition time	300,00reverse acquisition time	0,00gamma	499,1914k internal	0,3157k external	0,3157temperature offset calibration	1,0000default loss term (dB/km)	0,3820temperature slope calibration	1,0000multiplexer offset coefficient	1,0000multiplexer slope coefficient	1,0000fibre end	0,00T internal ref (°C)	15,85T ext. ref 1 (°C)	2,23T ext. ref 2 (°C)	2,35length (m)	temperature (°C)	Stokes	anti-Stokes-744,400	118,435	0,036	0,033
-743,385	-106,466	-0,258	0,042
-742,371	-101,543	0,129	0,023
-741,356	-70,775	-0,265	0,073
-740,342	326,766	0,056	0,079
-739,327	-125,183	-0,252	0,028
-738,312	-200,000	-0,000	0,155
-737,298	-94,093	-0,236	0,047
-736,283	123,722	0,133	0,123
-735,269	-44,061	-0,241	0,089
-734,254	-81,287	0,169	-0,041
-733,239	-74,710	-0,556	-0,146
-732,225	-40,781	0,218	0,083
-731,210	784,618	0,042	-0,084
-730,196	145,582	0,065	-0,064
-729,181	-200,000	-0,016	-0,207
-728,167	-170,432	0,061	-0,002
-727,152	-120,742	-0,064	0,008
-726,137	128,328	0,042	-0,040
-725,123	-200,000	0,003	-0,094
-724,108	-107,765	-0,162	-0,026
-723,094	-93,796	-0,148	0,030
-722,079	452,831	-0,034	-0,056
-721,064	-200,000	0,034	-0,136
-720,050	800,000	-0,029	0,075
-719,035	-200,000	0,003	-0,010
-718,021	751,095	-0,036	-0,072
-717,006	238,570	0,068	0,083
-715,991	-200,000	-0,011	-0,093
-714,977	589,567	0,052	-0,094
-713,962	800,000	-0,020	0,066
-712,948	-37,098	-0,036	-0,014
-711,933	-51,251	0,028	-0,010
-710,918	-3,800	0,030	0,015
-709,904	-4,641	-0,026	-0,013
-708,889	-104,893	-0,027	0,005
-707,875	-2,004	-0,031	-0,016
-706,860	7,045	0,136	0,074
-705,845	-151,981	0,198	0,010
-704,831	-75,887	0,053	-0,014
-703,816	-99,041	0,018	-0,003
-702,802	-14,898	0,051	-0,024
-701,787	523,035	0,066	-0,115
-700,772	-200,000	0,013	-0,074
-699,758	800,000	-0,024	0,076
-698,743	666,743	0,025	0,048
-697,729	36,229	0,021	0,013
-696,714	-62,258	0,112	0,034
-695,699	-164,664	0,065	0,002
-694,685	-112,234	-0,094	0,014
-693,670	-14,363	-0,112	-0,053
-692,656	-22,152	0,080	0,036
-691,641	206,400	0,207	-0,238
-690,627	-155,063	-0,014	-0,001
-689,612	-64,120	-0,045	-0,013
-688,597	-72,791	0,104	-0,028
-687,583	800,000	-0,008	0,020
-686,568	-23,216	-0,093	-0,041
-685,554	-200,000	0,000	-0,053
-684,539	-200,000	0,010	-0,062
-683,524	800,000	-0,043	-0,135
-682,510	47,543	-0,110	-0,076
-681,495	-200,000	-0,002	-0,030
-680,481	-147,969	-0,166	0,010
-679,466	-200,000	-0,009	-0,100
-678,451	40,099	-0,098	0,065
-677,437	-200,000	-0,013	-0,070
-676,422	82,007	0,043	-0,034
-675,408	-200,000	-0,023	-0,136
-674,393	-200,000	0,034	-0,129
-673,378	-57,195	-0,121	0,039
-672,364	-200,000	-0,012	-0,086
-671,349	419,361	0,062	0,099
-670,335	52,741	0,007	-0,005
-669,320	215,954	0,096	-0,112
-668,305	-55,661	0,084	-0,028
-667,291	52,493	0,077	0,054
-666,276	800,000	0,036	-0,088
-665,262	-200,000	0,008	0,030
-664,247	800,000	-0,034	-0,104
-663,232	-200,000	-0,046	-0,254
-662,218	-70,786	-0,034	0,009
-661,203	-119,078	-0,046	-0,006
-660,189	136,879	0,055	-0,053
-659,174	103,770	-0,042	0,037
-658,159	-123,590	0,109	0,013
-657,145	800,000	-0,024	0,053
-656,130	-200,000	0,031	0,117
-655,116	278,765	-0,038	0,050
-654,101	-45,487	0,060	-0,022
-653,086	154,865	-0,009	-0,009
-652,072	-19,264	-0,079	-0,036
-651,057	284,893	-0,030	-0,040
-650,043	72,833	-0,106	0,081
-649,028	800,000	-0,050	0,102
-648,014	-200,000	-0,022	0,147
-646,999	720,161	0,045	0,087
-645,984	229,770	0,061	-0,074
-644,970	-200,000	-0,015	0,052
-643,955	500,644	-0,034	-0,057
-642,941	-200,000	-0,008	-0,082
-641,926	-150,542	0,114	-0,006
-640,911	-200,000	0,002	0,116
-639,897	615,249	-0,005	-0,008
-638,882	587,292	-0,060	0,109
-637,868	-187,936	0,072	-0,001
-636,853	196,159	-0,025	-0,028
-635,838	564,205	-0,033	0,059
-634,824	-94,101	-0,156	0,031
-633,809	61,019	0,082	0,059
-632,795	55,889	-0,083	0,059
-631,780	53,399	-0,064	0,045
-630,765	-30,227	0,085	0,035
-629,751	800,000	0,038	0,089
-628,736	345,430	0,036	-0,052
-627,722	-200,000	0,015	-0,093
-626,707	274,116	0,062	-0,081
-625,692	-5,335	0,106	-0,053
-624,678	-102,047	0,091	0,016
-623,663	191,654	0,014	0,015
-622,649	-200,000	-0,039	-0,161
-621,634	800,000	0,029	-0,061
-620,619	-200,000	0,036	-0,202
-619,605	172,588	0,028	-0,030
-618,590	-200,000	0,011	-0,060
-617,576	61,712	0,060	-0,044
-616,561	290,491	0,045	0,060
-615,546	800,000	0,050	0,125
-614,532	-44,271	-0,100	-0,037
-613,517	71,155	0,057	0,044
-612,503	800,000	-0,019	0,041
-611,488	-200,000	-0,003	0,011
-610,474	-80,324	-0,044	0,011
-609,459	58,445	-0,072	-0,052
-608,444	-200,000	-0,005	0,121
-607,430	-200,000	0,008	-0,069
-606,415	-169,038	-0,175	-0,005
-605,401	-200,000	0,007	0,033
-604,386	-70,204	0,089	0,025
-603,371	219,722	0,066	0,078
-602,357	-200,000	-0,040	0,237
-601,342	61,376	-0,107	-0,078
-600,328	8,984	-0,163	-0,090
-599,313	133,242	0,049	0,046
-598,298	96,697	-0,042	0,035
-597,284	211,873	-0,056	0,065
-596,269	800,000	-0,027	-0,067
-595,255	167,307	0,043	-0,045
-594,240	772,074	0,061	0,123
-593,225	-200,000	0,010	-0,110
-592,211	-184,015	-0,238	-0,003
-591,196	45,702	0,048	0,032
-590,182	20,687	0,151	-0,089
-589,167	15,788	-0,105	0,061
-588,152	27,879	0,040	0,025
-587,138	341,507	-0,047	0,068
-586,123	-99,683	-0,229	0,042
-585,109	800,000	-0,051	0,133
-584,094	-186,131	0,027	0,000
-583,079	393,717	0,013	-0,021
-582,065	-31,625	0,044	-0,018
-581,050	-200,000	0,032	0,135
-580,036	800,000	-0,025	-0,068
-579,021	99,912	-0,073	-0,062
-578,006	201,887	0,031	0,035
-576,992	-106,379	-0,158	-0,026
-575,977	-200,000	0,015	0,060
-574,963	251,918	0,120	0,150
-573,948	-200,000	-0,004	0,043
-572,934	800,000	0,091	-0,185
-571,919	-38,714	-0,045	0,017
-570,904	-200,000	-0,024	-0,129
-569,890	-55,490	-0,101	-0,033
-568,875	-70,925	0,105	-0,029
-567,861	72,042	0,103	0,078
-566,846	349,200	-0,018	0,026
-565,831	17,470	-0,109	0,063
-564,817	800,000	0,029	0,076
-563,802	600,018	-0,044	-0,081
-562,788	-200,000	-0,024	-0,099
-561,773	800,000	-0,014	-0,036
-560,758	800,000	0,061	0,142
-559,744	800,000	-0,047	0,099
-558,729	800,000	0,056	0,144
-557,715	56,203	-0,026	-0,018
-556,700	-200,000	0,007	-0,066
-555,685	42,347	-0,061	-0,040
-554,671	-12,715	0,100	0,048
-553,656	800,000	-0,036	0,079
-552,642	212,273	-0,086	-0,100
-551,627	71,049	-0,028	0,021
-550,612	168,267	0,057	0,059
-549,598	123,037	-0,111	0,102
-548,583	-63,863	-0,049	-0,015
-547,569	-200,000	0,007	0,044
-546,554	800,000	0,051	-0,151
-545,539	-200,000	-0,021	-0,213
-544,525	399,253	-0,054	-0,084
-543,510	800,000	-0,054	0,122
-542,496	6,752	-0,019	0,010
-541,481	-200,000	-0,007	-0,042
-540,466	286,454	-0,028	-0,038
-539,452	136,027	0,060	0,058
-538,437	-102,062	0,090	-0,016
-537,423	40,047	0,007	0,005
-536,408	-132,340	-0,078	-0,007
-535,393	159,249	-0,066	0,068
-534,379	-99,768	0,131	0,024
-533,364	153,080	0,099	0,099
-532,350	800,000	0,104	-0,218
-531,335	-200,000	-0,026	0,094
-530,321	-20,886	0,075	0,034
-529,306	-76,333	0,052	-0,013
-528,291	-200,000	0,008	0,054
-527,277	-200,000	0,041	0,139
-526,262	-68,068	0,153	0,043
-525,248	156,418	-0,023	0,024
-524,233	364,823	-0,045	0,066
-523,218	328,045	0,035	-0,050
-522,204	58,674	0,039	0,028
-521,189	-98,300	-0,079	0,015
-520,175	129,763	0,030	-0,028
-519,160	373,940	0,016	0,024
-518,145	-18,917	0,123	0,056
-517,131	-104,736	0,116	0,019
-516,116	83,556	-0,095	-0,075
-515,102	-200,000	-0,011	0,040
-514,087	800,000	0,030	0,068
-513,072	-200,000	-0,026	-0,098
-512,058	-200,000	-0,019	-0,130
-511,043	-200,000	0,013	-0,061
-510,029	91,305	0,061	0,050
-509,014	1,180	0,086	0,045
-507,999	289,750	-0,012	-0,016
-506,985	-200,000	-0,008	-0,044
-505,970	43,536	0,011	-0,007
-504,956	800,000	-0,068	-0,149
-503,941	800,000	0,043	-0,096
-502,926	-39,962	0,069	0,026
-501,912	-200,000	0,005	0,177
-500,897	260,388	-0,046	0,058
-499,883	-124,988	0,054	-0,006
-498,868	-134,524	-0,083	0,007
-497,853	-200,000	0,014	-0,058
-496,839	-96,506	0,081	0,015
-495,824	721,063	-0,062	0,122
-494,810	800,000	0,066	0,189
-493,795	124,132	-0,081	-0,074
-492,781	231,971	0,041	-0,049
-491,766	176,783	-0,042	-0,044
-490,751	60,261	-0,140	-0,101
-489,737	-118,237	-0,022	0,003
-488,722	-125,315	-0,106	0,012
-487,708	-200,000	-0,025	-0,125
-486,693	-200,000	-0,001	-0,018
-485,678	-42,157	0,079	-0,029
-484,664	-134,304	-0,113	-0,010
-483,649	-200,000	-0,074	-0,289
-482,635	648,412	0,043	-0,081
-481,620	219,213	0,026	0,031
-480,605	-200,000	-0,001	-0,084
-479,591	-200,000	-0,005	0,098
-478,576	269,011	0,043	-0,055
-477,562	193,325	-0,067	-0,074
-476,547	336,258	0,021	0,029
-475,532	-200,000	-0,006	-0,130
-474,518	-62,541	0,074	0,022
-473,503	-200,000	-0,037	0,275
-472,489	-121,144	-0,047	-0,006
-471,474	-113,819	-0,141	0,020
-470,459	30,145	-0,090	-0,056
-469,445	527,568	-0,038	0,065
-468,430	261,741	0,159	-0,201
-467,416	-136,422	0,097	0,008
-466,401	242,286	-0,121	0,148
-465,386	800,000	0,026	0,070
-464,372	-113,346	-0,160	-0,023
-463,357	416,757	-0,083	-0,130
-462,343	-200,000	0,041	-0,166
-461,328	218,704	0,133	-0,155
-460,313	221,087	-0,062	-0,073
-459,299	-125,334	0,053	0,006
-458,284	-200,000	-0,000	0,008
-457,270	-200,000	0,004	0,134
-456,255	800,000	-0,027	-0,056
-455,241	302,303	-0,054	0,073
-454,226	-82,989	-0,122	-0,029
-453,211	-43,213	-0,104	-0,038
-452,197	95,899	0,130	-0,108
-451,182	-149,031	0,082	0,005
-450,168	-69,856	0,107	0,030
-449,153	-116,021	-0,202	-0,027
-448,138	800,000	-0,078	-0,169
-447,124	44,763	-0,089	-0,060
-446,109	613,069	0,018	-0,033
-445,095	-200,000	0,011	-0,109
-444,080	47,966	0,129	0,088
-443,065	113,620	0,038	-0,033
-442,051	26,883	0,071	0,043
-441,036	299,490	0,061	0,083
-440,022	314,794	-0,052	-0,071
-439,007	53,173	0,070	0,049
-437,992	-52,755	-0,026	-0,009
-436,978	-57,297	0,050	-0,016
-435,963	800,000	-0,045	0,104
-434,949	-53,043	-0,187	0,062
-433,934	481,969	-0,124	0,205
-432,919	-58,110	0,052	-0,017
-431,905	800,000	-0,023	0,072
-430,890	181,265	-0,049	0,053
-429,876	-79,519	0,057	-0,014
-428,861	-62,431	0,210	-0,063
-427,846	800,000	0,032	0,101
-426,832	-97,810	-0,129	-0,024
-425,817	-200,000	0,020	-0,081
-424,803	-39,502	0,057	-0,022
-423,788	-171,641	-0,054	0,001
-422,773	-200,000	0,011	-0,075
-421,759	-105,491	0,171	0,028
-420,744	-200,000	-0,006	-0,060
-419,730	-54,883	0,093	0,031
-418,715	-78,169	-0,035	-0,009
-417,701	-156,516	-0,057	-0,003
-416,686	459,517	-0,049	-0,079
-415,671	90,222	0,058	0,047
-414,657	-130,694	-0,084	0,008
-413,642	559,875	0,051	-0,091
-412,628	-31,950	-0,125	-0,051
-411,613	381,488	-0,070	-0,105
-410,598	212,152	-0,110	-0,126
-409,584	19,713	-0,073	0,043
-408,569	-120,520	0,040	-0,005
-407,555	800,000	-0,046	0,127
-406,540	95,083	-0,096	0,079
-405,525	665,865	0,030	-0,056
-404,511	800,000	-0,054	-0,162
-403,496	-200,000	-0,039	-0,155
-402,482	135,496	-0,073	-0,069
-401,467	-114,680	0,134	0,018
-400,452	377,490	-0,044	0,065
-399,438	-12,604	0,101	-0,048
-398,423	-114,843	-0,058	-0,008
-397,409	240,118	0,086	-0,104
-396,394	800,000	0,014	-0,040
-395,379	54,711	0,052	-0,036
-394,365	-84,237	0,156	0,036
-393,350	40,838	0,013	-0,008
-392,336	-200,000	-0,005	0,037
-391,321	274,655	-0,054	-0,069
-390,306	105,835	0,052	-0,045
-389,292	800,000	-0,064	-0,172
-388,277	14,599	0,014	0,008
-387,263	800,000	0,003	0,008
-386,248	-15,397	0,172	0,079
-385,233	800,000	-0,009	-0,020
-384,219	-200,000	0,015	0,101
-383,204	-52,045	-0,065	0,022
-382,190	314,739	0,003	0,004
-381,175	-8,702	0,153	0,074
-380,160	800,000	-0,026	-0,055
-379,146	25,867	0,059	0,035
-378,131	-23,614	-0,104	-0,045
-377,117	39,660	0,075	0,049
-376,102	-56,849	0,056	0,018
-375,088	-200,000	-0,009	-0,029
-374,073	-138,411	-0,048	-0,004
-373,058	263,354	-0,024	0,031
-372,044	-200,000	-0,000	0,028
-371,029	97,681	-0,044	0,037
-370,015	438,610	-0,079	-0,125
-369,000	1,802	-0,121	0,063
-367,985	-200,000	-0,011	-0,068
-366,971	196,438	0,075	0,083
-365,956	97,272	0,220	0,183
-364,942	624,981	-0,078	0,144
-363,927	-119,109	-0,020	-0,003
-362,912	800,000	-0,048	-0,108
-361,898	-200,000	0,003	0,021
-360,883	19,128	-0,054	0,031
-359,869	-200,000	-0,008	0,040
-358,854	-64,759	0,017	-0,005
-357,839	461,040	0,013	0,021
-356,825	227,671	0,065	0,077
-355,810	137,557	0,062	-0,059
-354,796	612,073	0,008	0,015
-353,781	-102,160	-0,065	0,011
-352,766	800,000	-0,019	-0,062
-351,752	-140,529	-0,163	-0,012
-350,737	-200,000	-0,027	0,128
-349,723	461,583	-0,075	0,123
-348,708	800,000	0,037	-0,075
-347,693	1,870	0,079	0,041
-346,679	562,148	-0,037	-0,066
-345,664	11,248	0,153	0,085
-344,650	-41,331	0,045	0,017
-343,635	-106,686	0,109	0,017
-342,620	-200,000	-0,028	0,095
-341,606	-1,660	0,035	0,018
-340,591	800,000	-0,022	0,064
-339,577	103,941	-0,086	-0,074
-338,562	-6,078	-0,095	-0,047
-337,548	-200,000	0,018	0,107
-336,533	-177,853	0,061	0,001
-335,518	-131,379	-0,014	-0,001
-334,504	161,150	0,114	0,115
-333,489	49,659	-0,093	-0,063
-332,475	403,220	0,022	0,033
-331,460	-49,302	-0,108	0,037
-330,445	260,747	0,034	0,043
-329,431	-200,000	-0,031	0,103
-328,416	-200,000	0,004	0,056
-327,402	639,139	0,043	0,079
-326,387	800,000	0,046	-0,130
-325,372	-29,538	-0,121	-0,050
-324,358	-91,070	-0,096	0,020
-323,343	132,306	0,048	-0,045
-322,329	-33,850	0,046	0,018
-321,314	-132,661	0,154	0,014
-320,299	-200,000	-0,005	-0,066
-319,285	-2,644	0,167	0,085
-318,270	-59,420	-0,071	-0,022
-317,256	27,138	-0,089	-0,054
-316,241	-200,000	-0,022	-0,092
-315,226	30,286	0,071	0,044
-314,212	-200,000	-0,006	0,020
-313,197	-74,577	0,099	0,026
-312,183	-200,000	-0,012	-0,045
-311,168	69,879	-0,019	0,014
-310,153	457,474	-0,034	0,055
-309,139	89,127	0,109	0,088
-308,124	38,073	0,132	-0,085
-307,110	-61,529	0,084	0,025
-306,095	-17,586	-0,042	-0,019
-305,080	-64,930	0,085	-0,025
-304,066	-132,811	-0,108	-0,010
-303,051	-200,000	-0,009	-0,092
-302,037	-5,812	0,089	-0,044
-301,022	32,649	0,052	0,032
-300,008	48,404	-0,132	-0,089
-298,993	280,300	0,070	0,091
-297,978	800,000	0,031	0,081
-296,964	-200,000	-0,000	-0,009
-295,949	307,859	0,076	-0,103
-294,935	50,181	-0,037	-0,025
-293,920	52,709	0,085	-0,059
-292,905	249,522	-0,034	0,041
-291,891	-27,462	0,115	0,048
-290,876	106,803	0,077	-0,066
-289,862	350,605	-0,018	0,026
-288,847	196,242	-0,060	0,066
-287,832	146,075	-0,055	-0,054
-286,818	-200,000	0,003	0,122
-285,803	-36,528	0,165	-0,064
-284,789	-81,480	0,102	0,024
-283,774	-200,000	-0,019	0,143
-282,759	-154,512	0,086	0,004
-281,745	-200,000	0,024	-0,138
-280,730	-111,231	-0,049	-0,007
-279,716	133,844	0,038	0,036
-278,701	-200,000	-0,000	-0,046
-277,686	-139,925	0,105	0,008
-276,672	-21,608	0,031	0,014
-275,657	800,000	-0,043	0,109
-274,643	-200,000	-0,030	-0,118
-273,628	-71,164	-0,203	-0,055
-272,613	-33,038	-0,054	-0,021
-271,599	87,433	0,078	-0,062
-270,584	800,000	-0,025	-0,061
-269,570	0,660	0,075	0,039
-268,555	370,241	-0,066	-0,097
-267,540	-16,779	0,072	-0,033
-266,526	478,878	-0,064	-0,105
-265,511	9,488	-0,057	-0,031
-264,497	71,576	0,084	0,063
-263,482	-200,000	-0,010	-0,050
-262,467	-200,000	0,004	0,100
-261,453	-69,837	0,020	-0,005
-260,438	-18,560	-0,174	0,078
-259,424	108,866	0,067	-0,058
-258,409	-200,000	0,001	-0,142
-257,395	-73,837	-0,095	-0,025
-256,380	-9,992	0,174	0,083
-255,365	-122,454	-0,058	0,007
-254,351	800,000	0,051	0,134
-253,336	-200,000	0,001	0,031
-252,322	152,036	-0,142	-0,140
-251,307	-200,000	0,019	-0,087
-250,292	-19,064	-0,042	-0,019
-249,278	-116,648	0,145	-0,019
-248,263	370,353	-0,032	0,047
-247,249	293,968	0,065	0,086
-246,234	211,659	0,104	-0,118
-245,219	-200,000	-0,030	-0,111
-244,205	-147,282	-0,066	-0,004
-243,190	-3,793	-0,025	-0,013
-242,176	-136,387	-0,087	-0,007
-241,161	48,953	0,100	-0,068
-240,146	242,998	-0,179	0,217
-239,132	-200,000	0,004	0,056
-238,117	-200,000	-0,001	-0,085
-237,103	800,000	0,020	-0,052
-236,088	-30,794	-0,113	-0,046
-235,073	-21,689	0,047	0,020
-234,059	233,712	-0,004	-0,005
-233,044	2,999	0,025	0,013
-232,030	118,897	0,063	-0,056
-231,015	-200,000	0,012	-0,097
-230,000	136,885	-0,041	0,039
-228,986	426,276	0,029	0,045
-227,971	800,000	0,058	0,159
-226,957	325,226	0,080	0,111
-225,942	-200,000	-0,044	0,183
-224,927	-114,814	-0,078	0,011
-223,913	505,375	-0,065	-0,109
-222,898	-35,115	0,096	-0,038
-221,884	690,338	-0,017	-0,032
-220,869	157,363	-0,031	0,031
-219,855	99,548	-0,092	0,077
-218,840	342,098	0,043	0,061
-217,825	403,963	0,100	0,153
-216,811	8,838	-0,077	0,042
-215,796	37,280	0,109	-0,069
-214,782	117,013	-0,037	-0,032
-213,767	-39,948	-0,042	0,016
-212,752	8,450	-0,067	-0,037
-211,738	-94,427	-0,045	0,009
-210,723	204,254	-0,054	-0,061
-209,709	160,379	-0,071	-0,071
-208,694	-200,000	0,130	-0,000
-207,679	-200,000	-0,011	0,120
-206,665	188,172	0,122	-0,131
-205,650	59,392	-0,091	-0,065
-204,636	-33,737	0,163	0,065
-203,621	-29,005	-0,102	-0,042
-202,606	9,402	0,054	-0,030
-201,592	322,143	0,044	0,060
-200,577	143,366	-0,048	-0,046
-199,563	-89,395	0,056	-0,012
-198,548	-73,405	-0,080	0,021
-197,533	-123,496	0,059	-0,007
-196,519	-41,284	-0,010	-0,004
-195,504	56,884	-0,138	-0,097
-194,490	-200,000	-0,005	-0,030
-193,475	51,404	0,059	-0,040
-192,460	116,400	-0,052	0,046
-191,446	800,000	0,007	-0,015
-190,431	-100,711	0,104	-0,018
-189,417	21,514	0,091	-0,053
-188,402	-200,000	-0,001	0,006
-187,387	-200,000	-0,018	-0,088
-186,373	-200,000	-0,005	-0,202
-185,358	-88,874	0,058	0,012
-184,344	218,158	0,043	0,050
-183,329	680,675	0,034	-0,064
-182,315	800,000	-0,031	-0,091
-181,300	-121,882	0,075	0,009
-180,285	-125,968	-0,154	-0,017
-179,271	33,869	-0,063	0,040
-178,256	-200,000	0,007	0,092
-177,242	-200,000	-0,011	0,069
-176,227	-200,000	-0,000	-0,124
-175,212	-200,000	0,023	0,076
-174,198	800,000	-0,015	0,042
-173,183	46,374	-0,070	0,046
-172,169	-200,000	-0,004	0,148
-171,154	510,072	-0,081	-0,136
-170,139	-200,000	0,008	0,083
-169,125	23,900	-0,155	0,092
-168,110	-35,754	-0,105	0,041
-167,096	-90,992	-0,052	-0,011
-166,081	-62,279	0,103	0,031
-165,066	8,294	-0,071	-0,038
-164,052	-200,000	-0,003	0,030
-163,037	-200,000	-0,017	-0,056
-162,023	70,109	0,104	0,077
-161,008	119,378	0,027	-0,024
-159,993	-200,000	0,020	0,139
-158,979	-109,768	-0,093	-0,014
-157,964	93,880	-0,081	-0,066
-156,950	-193,410	-0,103	0,001
-155,935	-70,246	0,145	0,039
-154,920	53,613	0,069	-0,048
-153,906	464,432	0,023	-0,037
-152,891	-200,000	-0,018	0,091
-151,877	46,763	0,106	-0,071
-150,862	800,000	0,043	-0,110
-149,847	-200,000	0,017	-0,115
-148,833	-200,000	-0,010	-0,092
-147,818	-200,000	0,007	-0,043
-146,804	-59,823	0,207	-0,063
-145,789	84,000	-0,066	-0,052
-144,775	294,358	0,012	0,016
-143,760	800,000	0,041	-0,090
-142,745	-105,103	0,015	-0,003
-141,731	-200,000	0,001	0,010
-140,716	389,810	0,086	-0,129
-139,702	-49,844	-0,109	0,037
-138,687	-76,206	0,120	-0,030
-137,672	181,644	0,055	0,058
-136,658	-200,000	-0,014	-0,075
-135,643	403,466	-0,095	-0,145
-134,629	-147,023	0,021	0,001
-133,614	270,733	0,035	0,045
-132,599	800,000	0,017	0,041
-131,585	221,537	-0,001	0,001
-130,570	626,534	0,020	0,037
-129,556	-83,814	-0,144	0,033
-128,541	419,998	-0,080	-0,124
-127,526	-200,000	0,047	-0,152
-126,512	136,296	-0,128	0,120
-125,497	479,541	0,069	0,113
-124,483	210,833	0,042	0,047
-123,468	-95,572	0,052	0,010
-122,453	-84,417	0,015	-0,003
-121,439	-200,000	0,011	-0,090
-120,424	49,917	0,129	0,088
-119,410	-200,000	-0,018	0,106
