DTS Sentinel unit serial number:	SN410029Multiplexer serial number:	ORYXHardware model number:	OX2-SRSoftware version number:	ORYX F/W v4,00 Oryx Data Collector v3.7.2.0data status	okinstallation	B4 Nyhavnadifferential loss correction	single-endedforward channel	channel 2reverse channel	N/Adate	2023/12/19time	10:30:13forward acquisition time	300,00reverse acquisition time	0,00gamma	499,1914k internal	0,3127k external	0,3127temperature offset calibration	1,0000default loss term (dB/km)	0,3820temperature slope calibration	1,0000multiplexer offset coefficient	1,0000multiplexer slope coefficient	1,0000fibre end	0,00T internal ref (°C)	20,06T ext. ref 1 (°C)	4,77T ext. ref 2 (°C)	4,72length (m)	temperature (°C)	Stokes	anti-Stokes-744,400	-200,000	-0,004	-0,129
-743,385	-42,346	-0,168	0,063
-742,371	473,256	0,057	0,097
-741,356	43,244	-0,169	0,115
-740,342	-200,000	0,016	0,054
-739,327	-75,167	-0,321	0,085
-738,312	133,818	-0,126	-0,121
-737,298	22,917	-0,276	0,168
-736,283	672,123	0,034	-0,067
-735,269	-55,843	-0,145	0,048
-734,254	800,000	-0,016	-0,042
-733,239	-74,650	-0,472	-0,125
-732,225	-29,374	0,052	-0,022
-731,210	-55,763	0,116	0,038
-730,196	0,583	-0,162	0,086
-729,181	800,000	0,027	-0,057
-728,167	76,992	-0,101	0,080
-727,152	-119,610	-0,061	0,008
-726,137	-2,268	0,077	0,040
-725,123	295,928	-0,100	-0,137
-724,108	-200,000	0,028	-0,129
-723,094	-43,300	-0,157	-0,059
-722,079	588,996	-0,037	-0,068
-721,064	395,578	-0,037	-0,058
-720,050	800,000	-0,055	0,126
-719,035	-71,271	0,073	0,020
-718,021	643,925	-0,038	-0,073
-717,006	800,000	-0,056	-0,161
-715,991	-189,078	-0,258	0,002
-714,977	-200,000	-0,016	-0,061
-713,962	-122,623	0,093	-0,011
-712,948	290,026	-0,063	0,085
-711,933	-32,358	0,051	0,021
-710,918	235,309	0,030	0,037
-709,904	800,000	-0,077	-0,162
-708,889	-67,428	-0,118	-0,034
-707,875	-102,488	-0,105	-0,018
-706,860	230,023	0,114	-0,138
-705,845	-149,797	0,051	-0,003
-704,831	313,685	-0,038	-0,053
-703,816	-122,644	-0,073	-0,009
-702,802	64,703	0,026	-0,019
-701,787	-200,000	-0,039	-0,252
-700,772	30,864	0,045	-0,029
-699,758	-200,000	-0,015	-0,071
-698,743	-116,882	-0,155	0,021
-697,729	111,489	0,108	-0,097
-696,714	249,137	-0,033	0,041
-695,699	-200,000	0,013	-0,134
-694,685	46,322	-0,054	-0,037
-693,670	-200,000	-0,008	-0,176
-692,656	148,113	-0,083	-0,083
-691,641	-69,087	0,049	0,014
-690,627	800,000	0,033	0,077
-689,612	238,399	0,073	-0,090
-688,597	398,026	-0,068	0,105
-687,583	-61,310	-0,126	0,039
-686,568	-200,000	-0,037	-0,143
-685,554	-16,213	-0,036	-0,017
-684,539	15,805	0,089	0,052
-683,524	-50,552	-0,154	-0,053
-682,510	-200,000	-0,015	0,063
-681,495	-15,646	0,075	0,035
-680,481	-200,000	0,014	-0,073
-679,466	5,694	-0,062	-0,034
-678,451	176,123	-0,017	-0,018
-677,437	-96,472	0,057	0,011
-676,422	-200,000	0,045	0,178
-675,408	99,504	-0,032	-0,028
-674,393	-200,000	-0,030	-0,148
-673,378	-83,930	-0,040	-0,009
-672,364	800,000	-0,022	-0,063
-671,349	84,919	-0,079	-0,064
-670,335	-140,820	-0,102	0,008
-669,320	800,000	0,041	0,095
-668,305	81,216	0,061	0,049
-667,291	203,350	-0,048	0,055
-666,276	-99,215	0,089	-0,016
-665,262	-200,000	0,022	-0,101
-664,247	-14,235	-0,034	-0,016
-663,232	516,591	0,062	-0,107
-662,218	250,219	0,069	0,088
-661,203	-72,525	-0,023	0,006
-660,189	-200,000	0,023	0,081
-659,174	152,413	-0,073	0,074
-658,159	-123,494	-0,069	-0,008
-657,145	312,154	-0,069	-0,097
-656,130	157,612	-0,082	-0,084
-655,116	18,909	0,037	-0,022
-654,101	84,854	-0,053	0,043
-653,086	19,146	-0,176	0,104
-652,072	-137,891	-0,074	0,006
-651,057	73,987	-0,058	0,045
-650,043	316,071	0,060	-0,084
-649,028	169,774	-0,101	-0,107
-648,014	-200,000	0,035	0,122
-646,999	483,758	0,040	0,068
-645,984	-5,458	-0,066	0,033
-644,970	-118,208	-0,105	0,014
-643,955	146,640	-0,116	0,115
-642,941	469,038	-0,073	-0,122
-641,926	15,748	0,071	0,041
-640,911	-63,095	0,050	0,015
-639,897	350,890	0,041	0,060
-638,882	-14,895	-0,041	-0,019
-637,868	170,851	0,064	-0,068
-636,853	529,918	-0,044	-0,078
-635,838	800,000	-0,064	-0,141
-634,824	-38,936	0,061	-0,024
-633,809	226,620	-0,031	0,037
-632,795	153,878	-0,008	0,008
-631,780	145,294	0,047	0,047
-630,765	45,410	0,042	0,029
-629,751	62,797	0,088	-0,065
-628,736	712,480	0,030	-0,059
-627,722	-200,000	0,006	0,115
-626,707	-200,000	0,002	0,032
-625,692	-200,000	0,015	0,063
-624,678	-69,309	0,015	0,004
-623,663	-200,000	0,031	-0,135
-622,649	-200,000	-0,044	-0,162
-621,634	58,981	-0,039	0,028
-620,619	800,000	0,081	0,175
-619,605	-82,315	-0,055	-0,013
-618,590	76,153	-0,056	0,044
-617,576	175,784	0,097	0,104
-616,561	-97,160	-0,165	-0,032
-615,546	-200,000	0,012	-0,134
-614,532	-14,212	0,069	-0,033
-613,517	-32,900	-0,082	-0,034
-612,503	111,852	0,018	0,016
-611,488	800,000	-0,038	0,108
-610,474	-50,836	0,020	-0,007
-609,459	-66,869	0,082	-0,024
-608,444	-200,000	-0,009	-0,087
-607,430	235,922	-0,028	0,035
-606,415	-141,058	-0,104	0,008
-605,401	-200,000	-0,006	-0,086
-604,386	-200,000	-0,007	-0,077
-603,371	268,725	-0,048	0,062
-602,357	16,193	-0,102	0,059
-601,342	86,021	-0,073	-0,059
-600,328	-60,316	-0,036	0,011
-599,313	31,436	-0,150	-0,095
-598,298	-69,026	-0,031	-0,009
-597,284	-16,181	0,133	-0,062
-596,269	-32,148	-0,076	-0,031
-595,255	-103,530	-0,147	0,025
-594,240	311,822	-0,023	-0,033
-593,225	11,863	-0,100	0,057
-592,211	-200,000	0,019	-0,063
-591,196	230,396	0,112	0,136
-590,182	97,847	0,124	-0,105
-589,167	-128,797	0,107	0,011
-588,152	116,207	-0,118	0,107
-587,138	-200,000	0,007	0,059
-586,123	-132,828	-0,099	0,009
-585,109	241,737	-0,057	-0,071
-584,094	-132,858	0,057	-0,005
-583,079	800,000	-0,042	0,116
-582,065	25,284	-0,053	0,032
-581,050	-38,174	-0,158	0,062
-580,036	215,913	0,092	-0,108
-579,021	391,681	-0,034	0,052
-578,006	-62,302	0,077	-0,024
-576,992	322,344	-0,109	-0,154
-575,977	-200,000	0,019	0,072
-574,963	67,142	0,120	0,090
-573,948	2,559	0,049	-0,026
-572,934	-38,631	-0,094	-0,037
-571,919	-26,822	-0,124	-0,053
-570,904	-200,000	0,013	0,061
-569,890	-200,000	-0,030	-0,179
-568,875	-16,720	0,043	0,020
-567,861	145,842	-0,028	-0,028
-566,846	-200,000	-0,024	0,133
-565,831	-200,000	-0,008	0,066
-564,817	-49,897	-0,132	-0,046
-563,802	800,000	-0,028	-0,078
-562,788	-107,795	0,129	-0,020
-561,773	-200,000	-0,007	-0,033
-560,758	-200,000	0,025	-0,091
-559,744	-1,099	0,144	0,075
-558,729	160,737	-0,118	0,122
-557,715	-56,619	-0,087	0,028
-556,700	-110,907	0,072	-0,011
-555,685	-200,000	0,004	0,048
-554,671	-200,000	0,004	-0,074
-553,656	800,000	0,055	0,124
-552,642	419,107	0,054	0,086
-551,627	496,107	-0,043	-0,073
-550,612	-200,000	-0,028	-0,130
-549,598	-107,427	-0,152	-0,024
-548,583	5,183	0,044	0,024
-547,569	800,000	0,068	-0,167
-546,554	-97,719	0,015	-0,003
-545,539	448,396	0,025	0,041
-544,525	93,122	-0,034	0,028
-543,510	-71,950	-0,091	-0,025
-542,496	431,674	-0,048	-0,078
-541,481	-70,445	-0,062	0,017
-540,466	-77,825	0,058	-0,015
-539,452	18,841	-0,077	0,045
-538,437	-200,000	0,011	-0,068
-537,423	800,000	0,028	0,074
-536,408	-200,000	-0,002	-0,089
-535,393	17,448	0,114	0,067
-534,379	800,000	-0,047	-0,108
-533,364	-200,000	-0,004	-0,051
-532,350	11,676	0,118	0,067
-531,335	-49,348	-0,023	0,008
-530,321	433,556	0,035	0,056
-529,306	-107,177	0,124	-0,020
-528,291	15,603	-0,114	-0,066
-527,277	-200,000	-0,020	-0,120
-526,262	-193,664	-0,032	-0,000
-525,248	800,000	0,052	-0,143
-524,233	-200,000	-0,001	0,056
-523,218	-83,351	-0,029	-0,007
-522,204	-122,809	0,164	-0,019
-521,189	800,000	0,041	-0,117
-520,175	-200,000	-0,010	-0,064
-519,160	800,000	-0,053	-0,137
-518,145	151,960	0,012	0,012
-517,131	-200,000	0,027	-0,166
-516,116	27,757	0,068	-0,042
-515,102	42,518	-0,085	-0,057
-514,087	-200,000	-0,020	-0,216
-513,072	38,425	0,045	0,029
-512,058	172,335	-0,025	0,027
-511,043	-76,135	0,042	0,011
-510,029	330,509	0,114	0,162
-509,014	-200,000	0,008	0,027
-507,999	-136,676	0,040	0,003
-506,985	-200,000	0,002	-0,091
-505,970	-64,942	-0,052	0,015
-504,956	800,000	-0,045	-0,093
-503,941	482,462	0,056	0,093
-502,926	-5,473	0,049	-0,025
-501,912	-36,892	0,057	-0,022
-500,897	-200,000	0,005	-0,060
-499,883	357,370	0,032	0,048
-498,868	797,584	0,053	0,107
-497,853	-10,865	-0,095	-0,046
-496,839	-200,000	0,009	0,043
-495,824	164,846	-0,035	-0,036
-494,810	-86,073	-0,086	0,020
-493,795	546,319	0,049	-0,086
-492,781	-200,000	-0,012	-0,043
-491,766	-200,000	0,042	-0,142
-490,751	-200,000	-0,020	0,090
-489,737	-67,672	-0,086	0,025
-488,722	-22,466	0,159	0,071
-487,708	-92,608	-0,072	-0,015
-486,693	278,666	0,086	-0,113
-485,678	800,000	-0,037	-0,114
-484,664	-200,000	0,011	0,044
-483,649	-200,000	-0,026	0,121
-482,635	-200,000	0,032	0,111
-481,620	-200,000	-0,008	0,092
-480,605	6,802	0,115	-0,063
-479,591	287,882	0,062	0,082
-478,576	-144,886	0,193	0,013
-477,562	-74,583	0,087	-0,023
-476,547	36,447	-0,140	-0,091
-475,532	39,852	0,030	-0,020
-474,518	-200,000	0,006	-0,076
-473,503	73,435	0,025	0,019
-472,489	197,013	0,040	-0,045
-471,474	-161,015	-0,049	0,002
-470,459	-7,478	-0,096	-0,048
-469,445	-77,583	-0,126	0,032
-468,430	243,294	0,061	0,076
-467,416	301,931	0,044	0,060
-466,401	-92,543	0,157	0,032
-465,386	-200,000	0,044	0,178
-464,372	-200,000	-0,006	-0,030
-463,357	800,000	-0,032	-0,078
-462,343	-58,315	-0,065	0,021
-461,328	800,000	-0,017	-0,046
-460,313	-141,553	0,141	-0,010
-459,299	-150,842	0,070	-0,004
-458,284	351,080	-0,011	-0,016
-457,270	-146,099	0,045	-0,003
-456,255	57,208	-0,094	-0,067
-455,241	-200,000	-0,004	-0,041
-454,226	56,099	0,075	-0,054
-453,211	130,001	-0,010	0,009
-452,197	59,205	0,098	-0,071
-451,182	-151,005	-0,067	-0,004
-450,168	499,566	-0,046	0,077
-449,153	-30,948	-0,158	0,065
-448,138	-143,737	-0,087	-0,006
-447,124	-200,000	-0,002	-0,079
-446,109	800,000	-0,032	0,068
-445,095	-44,861	-0,065	-0,024
-444,080	-124,025	0,107	0,012
-443,065	-200,000	0,017	0,083
-442,051	-113,954	-0,153	-0,022
-441,036	800,000	0,003	-0,006
-440,022	17,891	0,046	-0,027
-439,007	73,366	0,036	0,028
-437,992	-200,000	-0,016	-0,096
-436,978	46,915	-0,116	0,079
-435,963	-200,000	-0,027	0,134
-434,949	-13,343	0,187	0,089
-433,934	800,000	0,034	0,095
-432,919	-200,000	0,012	-0,069
-431,905	-200,000	-0,017	-0,106
-430,890	-200,000	0,011	0,136
-429,876	-119,325	0,083	0,011
-428,861	-63,808	-0,199	-0,059
-427,846	617,505	-0,033	0,060
-426,832	-200,000	0,023	-0,112
-425,817	-64,941	-0,059	0,017
-424,803	379,725	-0,048	-0,073
-423,788	-36,329	0,036	0,014
-422,773	-69,532	0,143	-0,040
-421,759	-166,583	-0,089	0,003
-420,744	93,430	0,034	-0,028
-419,730	585,931	-0,009	0,017
-418,715	610,422	0,056	-0,104
-417,701	175,244	0,086	-0,092
-416,686	-200,000	0,001	-0,137
-415,671	-200,000	0,007	-0,042
-414,657	-197,197	-0,028	0,000
-413,642	77,456	-0,087	0,068
-412,628	-200,000	0,016	0,073
-411,613	-200,000	-0,008	-0,047
-410,598	210,836	-0,028	0,032
-409,584	-104,583	-0,088	0,015
-408,569	143,847	0,100	-0,098
-407,555	800,000	0,045	0,133
-406,540	-200,000	0,012	0,050
-405,525	106,164	0,087	-0,075
-404,511	439,222	-0,024	-0,039
-403,496	417,399	0,074	0,117
-402,482	68,927	0,011	0,008
-401,467	-200,000	-0,002	-0,008
-400,452	128,566	0,103	0,097
-399,438	56,801	-0,159	0,114
-398,423	116,312	-0,021	-0,019
-397,409	800,000	0,031	-0,078
-396,394	3,473	-0,101	0,054
-395,379	-200,000	-0,007	0,054
-394,365	84,796	-0,021	-0,017
-393,350	416,214	-0,022	0,035
-392,336	-200,000	0,012	0,075
-391,321	613,911	0,053	0,098
-390,306	711,540	-0,073	-0,143
-389,292	800,000	-0,025	-0,065
-388,277	-127,128	0,011	0,001
-387,263	-62,744	0,165	-0,050
-386,248	800,000	0,047	-0,145
-385,233	249,902	-0,070	0,087
-384,219	381,161	-0,071	0,107
-383,204	-200,000	-0,005	-0,066
-382,190	-200,000	-0,003	-0,039
-381,175	-63,718	0,088	0,026
-380,160	38,710	0,127	-0,083
-379,146	245,400	-0,037	0,046
-378,131	191,360	-0,024	0,027
-377,117	21,891	-0,083	0,049
-376,102	-200,000	-0,002	-0,109
-375,088	-200,000	0,008	-0,138
-374,073	-48,550	0,011	0,004
-373,058	800,000	0,035	0,097
-372,044	98,309	-0,038	0,032
-371,029	800,000	0,036	0,079
-370,015	-200,000	-0,010	0,129
-369,000	-134,363	-0,141	0,012
-367,985	446,253	0,012	-0,020
-366,971	200,365	-0,045	0,050
-365,956	43,290	0,065	0,044
-364,942	800,000	0,035	0,082
-363,927	-200,000	-0,012	0,076
-362,912	-200,000	-0,023	-0,111
-361,898	2,978	-0,078	0,041
-360,883	185,747	0,025	0,027
-359,869	-27,664	0,166	-0,070
-358,854	160,111	-0,051	-0,052
-357,839	-200,000	0,024	0,125
-356,825	125,088	0,074	0,068
-355,810	211,371	0,032	0,037
-354,796	-200,000	-0,005	0,049
-353,781	-138,741	-0,116	-0,009
-352,766	-77,505	-0,088	-0,022
-351,752	703,465	0,073	0,142
-350,737	386,945	0,028	-0,042
-349,723	21,283	0,055	-0,032
-348,708	9,805	-0,095	-0,053
-347,693	-100,251	0,005	0,001
-346,679	-200,000	-0,003	0,090
-345,664	-200,000	0,000	-0,076
-344,650	-200,000	-0,018	0,085
-343,635	474,879	0,064	0,106
-342,620	-74,162	-0,096	0,025
-341,606	528,347	0,015	-0,026
-340,591	-109,539	0,102	0,016
-339,577	10,106	-0,026	-0,015
-338,562	-200,000	0,001	-0,010
-337,548	-200,000	-0,002	0,063
-336,533	-36,261	-0,042	0,017
-335,518	648,637	0,082	-0,154
-334,504	-109,120	0,119	0,018
-333,489	168,200	-0,098	0,102
-332,475	-200,000	-0,021	-0,077
-331,460	-200,000	-0,010	-0,109
-330,445	-33,741	-0,005	-0,002
-329,431	800,000	0,020	-0,056
-328,416	731,507	0,066	-0,130
-327,402	-200,000	-0,017	-0,056
-326,387	58,273	-0,095	0,068
-325,372	-200,000	0,008	-0,179
-324,358	800,000	-0,037	-0,105
-323,343	-200,000	-0,023	-0,093
-322,329	-47,798	0,064	0,023
-321,314	189,537	-0,085	0,093
-320,299	135,515	0,036	0,035
-319,285	-41,946	-0,052	0,019
-318,270	622,592	-0,102	-0,189
-317,256	-200,000	0,007	-0,210
-316,241	492,721	0,063	-0,106
-315,226	580,502	0,063	0,113
-314,212	73,922	0,111	0,085
-313,197	77,652	0,075	0,059
-312,183	-131,013	-0,126	-0,012
-311,168	76,767	0,012	-0,010
-310,153	176,824	-0,075	-0,080
-309,139	-52,346	-0,049	-0,016
-308,124	-200,000	-0,007	0,074
-307,110	-38,919	0,021	-0,008
-306,095	800,000	0,067	0,211
-305,080	-105,302	-0,076	-0,013
-304,066	760,049	-0,033	0,065
-303,051	-200,000	0,011	0,122
-302,037	-200,000	0,015	0,064
-301,022	626,970	-0,023	0,043
-300,008	800,000	0,016	0,042
-298,993	14,479	0,135	-0,077
-297,978	266,640	0,026	0,034
-296,964	182,434	-0,061	-0,066
-295,949	80,526	0,075	0,059
-294,935	-16,037	-0,068	-0,031
-293,920	-200,000	0,022	0,074
-292,905	113,595	0,072	0,064
-291,891	-200,000	0,004	0,091
-290,876	-33,820	-0,058	-0,023
-289,862	-42,125	-0,021	0,008
-288,847	800,000	-0,031	0,064
-287,832	-200,000	0,006	0,071
-286,818	390,843	-0,033	0,051
-285,803	-149,978	0,174	-0,010
-284,789	495,524	0,061	-0,103
-283,774	672,810	0,050	0,096
-282,759	352,049	-0,074	-0,108
-281,745	-17,756	0,092	-0,042
-280,730	-16,108	-0,118	-0,055
-279,716	34,378	-0,152	0,097
-278,701	578,225	-0,089	-0,161
-277,686	107,111	-0,026	-0,023
-276,672	-75,773	-0,099	-0,025
-275,657	177,755	-0,046	0,049
-274,643	177,514	-0,050	0,053
-273,628	-39,572	0,062	-0,024
-272,613	-200,000	0,013	-0,137
-271,599	82,691	0,064	0,051
-270,584	800,000	-0,036	0,113
-269,570	-147,053	-0,051	-0,003
-268,555	692,748	0,042	0,081
-267,540	-147,331	0,157	0,010
-266,526	-200,000	-0,024	-0,086
-265,511	800,000	-0,028	-0,087
-264,497	-74,177	0,100	0,026
-263,482	-88,912	0,078	0,017
-262,467	544,896	0,034	0,059
-261,453	-200,000	0,021	0,099
-260,438	-93,355	-0,011	0,002
-259,424	180,236	0,074	-0,079
-258,409	-200,000	-0,012	-0,130
-257,395	-23,824	-0,133	-0,058
-256,380	-89,877	0,124	0,026
-255,365	92,595	0,085	-0,070
-254,351	800,000	-0,026	0,068
-253,336	-36,117	0,094	-0,037
-252,322	-200,000	0,003	-0,141
-251,307	-200,000	-0,079	-0,318
-250,292	-200,000	-0,003	-0,110
-249,278	800,000	0,054	-0,122
-248,263	384,724	-0,027	0,041
-247,249	177,158	0,010	0,011
-246,234	94,677	-0,038	0,031
-245,219	-66,945	-0,048	-0,014
-244,205	-45,232	-0,034	-0,012
-243,190	10,944	0,038	-0,021
-242,176	549,042	-0,035	0,061
-241,161	-200,000	-0,034	0,128
-240,146	-113,474	0,169	-0,024
-239,132	-14,853	-0,137	-0,064
-238,117	-87,609	-0,078	0,017
-237,103	144,161	-0,055	-0,054
-236,088	-200,000	-0,004	0,141
-235,073	-57,379	0,067	0,021
-234,059	143,517	-0,068	0,066
-233,044	-200,000	-0,016	0,176
-232,030	-200,000	0,035	0,166
-231,015	304,856	0,039	0,053
-230,000	325,731	0,005	-0,007
-228,986	-200,000	0,025	0,102
-227,971	58,189	0,086	-0,061
-226,957	-63,627	0,140	0,042
-225,942	-200,000	-0,018	-0,065
-224,927	-200,000	0,014	-0,047
-223,913	-89,829	-0,162	-0,034
-222,898	-13,410	0,075	0,035
-221,884	-200,000	-0,007	-0,027
-220,869	800,000	-0,040	0,100
-219,855	-103,511	0,149	0,025
-218,840	-200,000	0,014	-0,118
-217,825	122,515	0,079	0,072
-216,811	800,000	-0,027	0,060
-215,796	-200,000	-0,004	0,029
-214,782	-147,263	-0,120	0,007
-213,767	800,000	-0,016	0,046
-212,752	116,949	-0,102	0,091
-211,738	-67,799	0,188	0,053
-210,723	-129,575	-0,191	0,019
-209,709	-153,827	-0,026	-0,001
-208,694	-79,443	-0,123	0,030
-207,679	-200,000	-0,037	-0,238
-206,665	-189,839	0,117	0,001
-205,650	-123,110	0,050	0,006
-204,636	209,843	-0,043	0,049
-203,621	61,160	0,023	0,017
-202,606	800,000	0,021	-0,058
-201,592	64,916	-0,065	-0,048
-200,577	198,784	-0,080	-0,089
-199,563	65,747	0,039	-0,029
-198,548	800,000	0,034	0,098
-197,533	-200,000	-0,039	0,138
-196,519	-16,744	-0,132	-0,061
-195,504	-200,000	0,035	-0,142
-194,490	549,487	0,031	0,055
-193,475	-200,000	0,005	-0,076
-192,460	119,323	-0,157	0,141
-191,446	23,051	0,084	0,050
-190,431	57,278	0,111	0,078
-189,417	800,000	-0,018	-0,043
-188,402	292,825	0,096	-0,128
-187,387	-200,000	-0,038	-0,134
-186,373	-200,000	0,041	-0,207
-185,358	184,149	-0,061	-0,066
-184,344	182,010	-0,048	-0,052
-183,329	-200,000	0,003	0,064
-182,315	41,860	-0,140	-0,092
-181,300	-200,000	0,006	0,132
-180,285	69,129	0,069	-0,052
-179,271	190,898	-0,055	-0,060
-178,256	224,718	0,044	0,052
-177,242	415,576	0,075	0,116
-176,227	63,135	-0,034	0,025
-175,212	548,752	0,016	0,028
-174,198	-200,000	0,022	0,079
-173,183	-21,529	-0,063	0,028
-172,169	230,775	-0,077	0,092
-171,154	466,396	-0,026	0,043
-170,139	-79,967	0,132	-0,032
-169,125	470,483	-0,062	0,103
-168,110	84,731	0,116	0,092
-167,096	-142,657	0,113	0,008
-166,081	800,000	-0,064	0,177
-165,066	-88,419	-0,010	-0,002
-164,052	-32,879	-0,025	0,010
-163,037	-118,044	0,068	-0,009
-162,023	560,499	0,048	0,084
-161,008	-68,061	0,025	0,007
-159,993	-59,266	0,124	-0,039
-158,979	-200,000	-0,005	0,068
-157,964	78,790	0,055	0,043
-156,950	-63,112	-0,142	-0,042
-155,935	-8,107	-0,098	0,048
-154,920	-15,630	0,146	0,068
-153,906	-200,000	0,021	0,112
-152,891	-200,000	0,032	0,145
-151,877	-27,349	-0,074	-0,031
-150,862	-74,350	0,128	-0,033
-149,847	-200,000	-0,018	0,118
-148,833	-140,049	-0,064	-0,005
-147,818	181,345	-0,046	-0,049
-146,804	800,000	-0,047	0,106
-145,789	138,106	0,037	0,035
-144,775	-200,000	-0,018	-0,083
-143,760	800,000	0,033	0,068
-142,745	-11,191	-0,022	0,010
-141,731	-138,804	0,123	0,010
-140,716	-200,000	-0,023	0,142
-139,702	127,552	0,087	-0,080
-138,687	-114,989	-0,030	-0,004
-137,672	100,130	-0,127	0,107
-136,658	243,562	-0,038	0,046
-135,643	-200,000	0,034	0,146
-134,629	-113,227	0,127	0,018
-133,614	66,136	0,142	0,105
-132,599	-67,066	0,054	0,015
-131,585	-89,964	0,126	0,026
-130,570	103,358	-0,075	0,064
-129,556	421,577	-0,006	0,009
-128,541	-46,310	-0,205	0,073
-127,526	-146,400	-0,068	-0,004
-126,512	-105,847	0,134	0,022
-125,497	27,616	-0,126	0,077
-124,483	-48,877	0,066	-0,023
-123,468	-76,997	0,055	-0,014
-122,453	-200,000	0,023	-0,094
-121,439	-79,121	-0,143	-0,035
-120,424	-196,863	0,122	0,001
-119,410	-5,401	-0,075	0,037
