DTS Sentinel unit serial number:	SN410029Multiplexer serial number:	ORYXHardware model number:	OX2-SRSoftware version number:	ORYX F/W v4,00 Oryx Data Collector v3.7.2.0data status	okinstallation	B4 Nyhavnadifferential loss correction	single-endedforward channel	channel 2reverse channel	N/Adate	2023/12/18time	16:10:13forward acquisition time	300,00reverse acquisition time	0,00gamma	499,1914k internal	0,3137k external	0,3137temperature offset calibration	1,0000default loss term (dB/km)	0,3820temperature slope calibration	1,0000multiplexer offset coefficient	1,0000multiplexer slope coefficient	1,0000fibre end	0,00T internal ref (°C)	19,19T ext. ref 1 (°C)	7,61T ext. ref 2 (°C)	7,74length (m)	temperature (°C)	Stokes	anti-Stokes-744,400	480,391	0,016	0,027
-743,385	-97,168	-0,178	-0,034
-742,371	409,722	0,056	-0,088
-741,356	-54,929	-0,211	0,070
-740,342	411,647	0,062	0,098
-739,327	-1,517	-0,269	0,140
-738,312	233,515	0,078	-0,096
-737,298	33,592	-0,302	-0,194
-736,283	41,110	0,156	-0,105
-735,269	24,892	-0,184	0,113
-734,254	92,920	-0,102	-0,086
-733,239	-124,185	-0,435	-0,050
-732,225	-0,001	0,141	-0,074
-731,210	139,351	0,046	0,045
-730,196	800,000	-0,027	-0,056
-729,181	-200,000	0,006	0,157
-728,167	226,441	0,086	-0,104
-727,152	685,382	-0,050	-0,097
-726,137	-30,910	-0,078	0,032
-725,123	-200,000	0,005	-0,090
-724,108	274,170	-0,090	-0,118
-723,094	-89,624	-0,063	-0,014
-722,079	359,573	0,036	-0,053
-721,064	226,705	-0,006	-0,008
-720,050	-17,575	-0,046	-0,021
-719,035	-200,000	-0,012	0,045
-718,021	-200,000	-0,005	-0,045
-717,006	11,171	-0,096	0,054
-715,991	800,000	-0,031	-0,069
-714,977	-39,792	-0,122	-0,047
-713,962	-23,631	-0,169	-0,075
-712,948	-60,913	0,034	-0,011
-711,933	800,000	-0,017	-0,048
-710,918	-189,495	0,018	-0,000
-709,904	800,000	-0,062	-0,152
-708,889	-92,434	0,014	-0,003
-707,875	-81,277	-0,041	0,010
-706,860	-93,394	0,044	-0,009
-705,845	110,135	0,066	-0,059
-704,831	-112,420	0,100	0,015
-703,816	-145,608	-0,194	0,013
-702,802	-40,432	0,124	-0,048
-701,787	86,679	-0,066	0,054
-700,772	-136,586	-0,067	-0,006
-699,758	530,575	0,026	0,045
-698,743	-50,025	0,199	-0,070
-697,729	-200,000	0,016	0,054
-696,714	-113,120	-0,019	0,003
-695,699	201,737	0,088	0,101
-694,685	-200,000	-0,009	-0,129
-693,670	140,197	-0,093	0,091
-692,656	301,162	0,047	-0,065
-691,641	-186,898	0,107	-0,001
-690,627	-44,106	0,031	0,011
-689,612	552,772	0,072	-0,128
-688,597	62,380	-0,018	-0,013
-687,583	-200,000	-0,004	-0,091
-686,568	-200,000	0,004	-0,166
-685,554	800,000	-0,029	0,083
-684,539	800,000	0,083	0,239
-683,524	72,840	0,027	-0,021
-682,510	-200,000	-0,031	0,134
-681,495	315,412	0,060	-0,084
-680,481	-180,017	-0,040	0,001
-679,466	-114,992	-0,151	0,021
-678,451	50,962	-0,064	0,045
-677,437	209,709	0,038	-0,044
-676,422	-34,210	0,114	0,046
-675,408	206,245	0,067	-0,078
-674,393	-200,000	0,006	-0,037
-673,378	74,699	0,036	-0,028
-672,364	-200,000	-0,017	0,106
-671,349	-49,275	-0,066	-0,023
-670,335	-200,000	-0,055	-0,238
-669,320	-72,453	0,152	0,041
-668,305	800,000	0,049	-0,106
-667,291	-134,117	0,170	0,015
-666,276	-75,495	-0,081	-0,021
-665,262	45,022	-0,100	-0,068
-664,247	-200,000	0,042	0,154
-663,232	800,000	0,010	0,031
-662,218	800,000	-0,022	0,048
-661,203	-200,000	-0,004	0,244
-660,189	271,339	-0,071	0,092
-659,174	389,309	-0,052	0,079
-658,159	78,643	-0,034	-0,027
-657,145	-61,707	-0,195	-0,060
-656,130	-56,730	0,122	-0,040
-655,116	56,219	-0,082	-0,059
-654,101	-28,767	0,094	0,040
-653,086	-71,548	-0,162	-0,045
-652,072	187,931	0,057	0,063
-651,057	121,610	-0,155	0,143
-650,043	-69,788	-0,067	-0,019
-649,028	94,958	0,115	-0,097
-648,014	800,000	0,032	-0,101
-646,999	-24,937	0,205	0,090
-645,984	-200,000	-0,010	0,120
-644,970	800,000	0,024	-0,070
-643,955	-200,000	0,002	0,044
-642,941	0,861	-0,092	0,049
-641,926	-200,000	0,011	-0,108
-640,911	70,218	0,048	-0,037
-639,897	81,686	0,065	0,052
-638,882	44,406	-0,066	-0,044
-637,868	290,445	-0,102	-0,137
-636,853	-144,950	-0,145	-0,010
-635,838	316,573	0,022	-0,030
-634,824	29,460	-0,065	0,041
-633,809	-127,387	-0,103	-0,011
-632,795	-18,273	-0,035	0,016
-631,780	-78,277	-0,064	0,016
-630,765	668,502	0,034	-0,064
-629,751	-200,000	-0,018	-0,125
-628,736	-200,000	-0,003	-0,096
-627,722	91,879	-0,140	-0,116
-626,707	190,833	0,026	0,029
-625,692	-138,299	-0,041	-0,003
-624,678	-86,036	0,136	-0,031
-623,663	800,000	0,064	-0,136
-622,649	240,858	-0,113	-0,139
-621,634	-200,000	-0,031	-0,103
-620,619	800,000	-0,042	-0,095
-619,605	93,597	0,050	-0,041
-618,590	800,000	0,024	0,077
-617,576	16,057	-0,091	0,053
-616,561	241,022	-0,059	-0,072
-615,546	-200,000	-0,048	-0,197
-614,532	-34,639	-0,044	0,018
-613,517	159,167	-0,115	-0,118
-612,503	215,440	-0,028	0,033
-611,488	-200,000	-0,031	0,192
-610,474	-96,001	0,039	-0,008
-609,459	-15,230	-0,079	0,037
-608,444	-8,981	-0,084	-0,041
-607,430	565,832	-0,055	-0,099
-606,415	-200,000	0,007	-0,054
-605,401	486,712	0,085	0,144
-604,386	-188,021	0,034	-0,000
-603,371	79,913	-0,036	-0,028
-602,357	-31,035	-0,129	-0,053
-601,342	95,295	-0,053	-0,045
-600,328	-36,989	0,010	-0,004
-599,313	-157,043	-0,163	0,007
-598,298	6,901	0,108	0,059
-597,284	-165,482	0,057	0,002
-596,269	249,089	-0,044	-0,055
-595,255	-200,000	0,020	0,087
-594,240	109,579	-0,125	0,111
-593,225	553,757	-0,100	-0,179
-592,211	310,666	-0,057	-0,079
-591,196	363,362	0,071	0,106
-590,182	-200,000	-0,041	0,136
-589,167	800,000	0,022	0,053
-588,152	-16,588	-0,110	-0,051
-587,138	321,218	-0,016	-0,022
-586,123	158,467	-0,104	-0,106
-585,109	-4,358	-0,022	-0,011
-584,094	149,337	-0,062	-0,062
-583,079	-42,358	0,085	-0,032
-582,065	-140,898	-0,033	0,002
-581,050	66,081	0,097	0,073
-580,036	-200,000	0,011	-0,152
-579,021	85,303	-0,076	-0,061
-578,006	69,899	-0,037	-0,028
-576,992	-200,000	0,007	0,082
-575,977	-129,105	0,056	-0,006
-574,963	96,538	0,088	0,074
-573,948	-169,955	-0,009	0,000
-572,934	-125,579	-0,153	0,017
-571,919	-109,398	-0,057	0,009
-570,904	178,079	0,014	0,015
-569,890	800,000	0,037	0,089
-568,875	221,479	-0,099	0,118
-567,861	-137,121	0,104	0,009
-566,846	-107,423	0,119	0,019
-565,831	-55,894	-0,117	-0,038
-564,817	-180,864	-0,099	-0,001
-563,802	800,000	0,022	0,049
-562,788	272,333	-0,037	0,048
-561,773	249,569	0,024	-0,030
-560,758	476,233	0,022	0,037
-559,744	234,628	-0,016	-0,019
-558,729	5,754	0,068	0,037
-557,715	-97,654	-0,041	0,008
-556,700	67,030	-0,059	0,044
-555,685	10,676	0,032	-0,018
-554,671	-78,748	0,154	-0,038
-553,656	800,000	0,029	0,083
-552,642	97,031	0,049	0,041
-551,627	-200,000	0,014	0,111
-550,612	-21,189	-0,060	-0,027
-549,598	-200,000	0,008	0,062
-548,583	-200,000	-0,017	-0,123
-547,569	-200,000	0,013	-0,058
-546,554	-185,634	0,183	-0,002
-545,539	450,528	0,106	-0,173
-544,525	-200,000	-0,006	0,032
-543,510	-200,000	-0,041	-0,217
-542,496	64,087	-0,039	-0,029
-541,481	-141,210	-0,047	0,003
-540,466	-200,000	-0,008	-0,037
-539,452	162,999	-0,194	0,201
-538,437	800,000	0,047	0,126
-537,423	800,000	0,026	-0,056
-536,408	-137,080	-0,123	0,010
-535,393	89,995	-0,089	0,074
-534,379	-107,830	0,112	0,018
-533,364	-200,000	0,003	0,067
-532,350	183,814	0,043	-0,047
-531,335	33,497	0,084	0,053
-530,321	346,545	0,056	0,081
-529,306	-200,000	-0,011	-0,104
-528,291	117,852	-0,047	-0,043
-527,277	462,271	0,038	0,063
-526,262	800,000	0,020	0,049
-525,248	-26,359	-0,061	0,026
-524,233	-21,343	-0,155	0,069
-523,218	-200,000	0,021	0,084
-522,204	398,386	0,029	-0,045
-521,189	-134,399	-0,101	-0,009
-520,175	136,737	0,073	-0,070
-519,160	-87,794	0,109	0,024
-518,145	87,852	0,150	0,123
-517,131	-83,940	0,148	0,034
-516,116	367,978	-0,037	-0,054
-515,102	-97,904	-0,127	-0,024
-514,087	214,200	-0,038	0,044
-513,072	-16,601	0,031	-0,014
-512,058	-200,000	-0,006	-0,092
-511,043	216,107	-0,065	0,076
-510,029	417,341	0,031	0,049
-509,014	293,264	-0,043	-0,057
-507,999	-200,000	0,020	-0,077
-506,985	-24,867	0,029	-0,012
-505,970	96,072	0,070	-0,058
-504,956	-200,000	-0,026	-0,106
-503,941	-3,911	0,066	-0,034
-502,926	800,000	-0,023	0,071
-501,912	-200,000	-0,031	-0,130
-500,897	-0,321	-0,051	0,026
-499,883	452,799	-0,070	-0,115
-498,868	274,151	0,015	0,020
-497,853	800,000	0,044	-0,100
-496,839	800,000	-0,042	-0,093
-495,824	86,205	0,101	0,082
-494,810	16,278	-0,050	0,029
-493,795	-200,000	-0,038	-0,229
-492,781	347,282	-0,116	-0,168
-491,766	389,036	0,083	-0,127
-490,751	-69,305	0,106	0,030
-489,737	-65,875	0,092	-0,027
-488,722	10,247	-0,082	0,045
-487,708	168,976	0,058	0,060
-486,693	-200,000	-0,004	0,045
-485,678	10,299	-0,065	0,036
-484,664	-69,591	0,024	-0,007
-483,649	-200,000	-0,004	-0,059
-482,635	-200,000	0,022	-0,091
-481,620	-200,000	-0,019	0,084
-480,605	120,442	-0,052	-0,048
-479,591	-33,017	0,099	-0,040
-478,576	800,000	-0,013	0,028
-477,562	247,711	0,065	-0,081
-476,547	212,488	-0,116	-0,134
-475,532	650,400	-0,034	0,064
-474,518	161,511	-0,036	-0,037
-473,503	-110,536	-0,035	-0,005
-472,489	446,667	0,038	-0,061
-471,474	713,461	-0,062	-0,122
-470,459	-200,000	-0,008	-0,067
-469,445	-0,139	0,034	-0,018
-468,430	-51,785	-0,064	0,022
-467,416	25,486	-0,035	-0,021
-466,401	3,679	-0,029	-0,016
-465,386	-181,842	0,100	0,001
-464,372	205,349	-0,085	0,097
-463,357	-200,000	0,021	0,091
-462,343	-149,112	-0,192	-0,011
-461,328	-200,000	0,015	-0,059
-460,313	-158,098	-0,084	0,004
-459,299	-117,149	-0,047	-0,006
-458,284	800,000	-0,031	0,090
-457,270	-181,423	0,028	0,000
-456,255	116,007	0,059	0,053
-455,241	-111,219	0,065	0,010
-454,226	8,565	-0,154	0,085
-453,211	132,869	-0,059	0,056
-452,197	-2,837	0,072	0,037
-451,182	800,000	-0,060	0,171
-450,168	794,501	0,015	-0,031
-449,153	800,000	0,023	-0,050
-448,138	-73,789	-0,133	0,035
-447,124	228,827	0,033	-0,039
-446,109	-168,881	0,104	0,003
-445,095	297,034	-0,074	-0,100
-444,080	782,997	0,059	-0,119
-443,065	800,000	-0,045	-0,116
-442,051	709,171	-0,077	0,150
-441,036	699,620	-0,021	0,041
-440,022	-200,000	-0,034	-0,112
-439,007	137,673	0,085	-0,082
-437,992	800,000	0,078	0,176
-436,978	75,718	-0,060	0,047
-435,963	198,835	-0,025	-0,028
-434,949	-50,210	-0,009	-0,003
-433,934	312,917	0,033	0,045
-432,919	800,000	0,007	0,015
-431,905	9,230	0,050	0,028
-430,890	-26,783	-0,053	-0,023
-429,876	-67,215	0,115	-0,033
-428,861	-112,232	0,029	-0,004
-427,846	283,023	0,024	0,032
-426,832	-200,000	-0,009	-0,172
-425,817	800,000	-0,015	-0,039
-424,803	29,717	-0,037	-0,023
-423,788	-112,057	0,116	-0,017
-422,773	-200,000	-0,031	0,112
-421,759	-56,167	0,042	-0,013
-420,744	133,233	-0,122	0,116
-419,730	-74,789	0,018	-0,005
-418,715	800,000	0,063	-0,180
-417,701	-200,000	0,017	0,105
-416,686	634,237	0,037	0,069
-415,671	800,000	0,008	0,018
-414,657	155,422	0,047	0,048
-413,642	800,000	-0,027	0,055
-412,628	-140,978	-0,110	0,008
-411,613	336,006	-0,063	-0,089
-410,598	-200,000	0,019	-0,095
-409,584	364,924	-0,114	0,169
-408,569	-200,000	0,015	0,165
-407,555	-200,000	-0,008	0,040
-406,540	-138,074	-0,142	-0,011
-405,525	96,466	-0,155	-0,130
-404,511	-200,000	0,011	-0,093
-403,496	-200,000	-0,004	-0,020
-402,482	-74,915	-0,044	-0,011
-401,467	800,000	-0,016	-0,041
-400,452	-200,000	-0,017	0,147
-399,438	94,768	0,026	-0,022
-398,423	238,973	0,030	-0,036
-397,409	-7,854	-0,097	-0,048
-396,394	-200,000	0,000	-0,040
-395,379	166,377	0,041	-0,043
-394,365	-175,399	0,092	0,002
-393,350	174,587	0,084	0,089
-392,336	168,571	0,031	-0,033
-391,321	94,692	-0,049	-0,041
-390,306	-200,000	-0,007	0,136
-389,292	800,000	-0,033	-0,085
-388,277	42,797	-0,026	0,018
-387,263	558,633	0,107	0,190
-386,248	800,000	0,024	0,063
-385,233	51,388	0,057	0,040
-384,219	-200,000	-0,002	0,155
-383,204	-14,558	0,011	-0,005
-382,190	-27,396	0,017	-0,007
-381,175	479,704	-0,075	0,124
-380,160	-123,390	0,128	0,015
-379,146	-136,630	0,294	0,025
-378,131	-181,489	0,181	-0,003
-377,117	-14,325	-0,105	0,049
-376,102	-10,478	0,097	-0,047
-375,088	149,709	0,071	0,070
-374,073	-200,000	-0,024	0,096
-373,058	268,184	-0,084	0,108
-372,044	-200,000	0,022	0,083
-371,029	45,933	-0,098	0,066
-370,015	100,756	-0,108	-0,092
-369,000	-200,000	-0,004	-0,021
-367,985	-118,314	-0,088	0,011
-366,971	-200,000	0,001	-0,087
-365,956	-200,000	0,043	0,160
-364,942	794,833	-0,065	-0,132
-363,927	-73,081	0,109	-0,029
-362,912	-200,000	-0,007	0,052
-361,898	800,000	0,007	-0,020
-360,883	-200,000	0,020	0,081
-359,869	314,394	-0,105	-0,145
-358,854	123,123	0,098	-0,090
-357,839	-200,000	0,007	0,164
-356,825	-200,000	0,023	0,093
-355,810	14,746	-0,069	0,039
-354,796	628,098	-0,080	-0,149
-353,781	170,852	-0,083	-0,087
-352,766	163,738	0,072	-0,074
-351,752	182,030	0,068	0,073
-350,737	-20,793	0,057	0,025
-349,723	-200,000	0,003	0,018
-348,708	-53,299	0,089	-0,030
-347,693	-200,000	-0,032	-0,107
-346,679	-126,962	0,036	0,004
-345,664	57,186	-0,106	0,076
-344,650	23,330	0,031	-0,019
-343,635	-11,140	0,135	0,065
-342,620	95,841	0,050	0,042
-341,606	-151,339	0,076	0,004
-340,591	-200,000	0,018	-0,122
-339,577	-89,267	-0,121	0,026
-338,562	-200,000	0,009	0,048
-337,548	184,841	-0,039	0,042
-336,533	311,302	0,007	-0,009
-335,518	-18,367	0,086	0,039
-334,504	-200,000	0,030	0,102
-333,489	-200,000	0,025	-0,131
-332,475	-200,000	0,007	-0,074
-331,460	-43,152	-0,079	0,029
-330,445	-98,885	-0,046	-0,009
-329,431	800,000	0,046	0,109
-328,416	21,050	0,096	0,057
-327,402	9,381	0,087	0,048
-326,387	478,911	0,036	0,060
-325,372	-200,000	0,012	-0,178
-324,358	800,000	-0,012	-0,028
-323,343	-192,960	-0,074	-0,000
-322,329	-45,911	0,126	-0,045
-321,314	800,000	0,035	-0,086
-320,299	-200,000	-0,006	0,107
-319,285	40,323	-0,070	0,046
-318,270	-88,042	-0,091	0,020
-317,256	-155,663	-0,104	-0,005
-316,241	-200,000	-0,012	0,079
-315,226	-200,000	0,028	0,184
-314,212	199,413	0,036	0,040
-313,197	708,188	0,032	-0,063
-312,183	-48,024	-0,055	0,019
-311,168	98,755	-0,119	-0,100
-310,153	614,896	-0,023	-0,041
-309,139	28,806	-0,035	0,022
-308,124	182,889	0,067	-0,072
-307,110	368,901	0,086	0,127
-306,095	20,619	0,085	0,050
-305,080	-200,000	-0,005	0,118
-304,066	172,124	-0,084	0,088
-303,051	800,000	0,009	-0,025
-302,037	-162,144	-0,114	-0,004
-301,022	129,461	-0,019	0,017
-300,008	-200,000	-0,000	-0,045
-298,993	0,387	0,101	0,052
-297,978	-200,000	-0,016	-0,127
-296,964	-127,135	-0,038	0,004
-295,949	37,867	0,070	-0,046
-294,935	248,431	0,058	-0,072
-293,920	-200,000	-0,004	-0,035
-292,905	8,974	0,093	0,051
-291,891	800,000	-0,099	0,214
-290,876	800,000	0,009	-0,019
-289,862	-200,000	-0,005	-0,056
-288,847	375,063	0,077	-0,115
-287,832	204,840	0,092	-0,104
-286,818	197,078	-0,046	0,051
-285,803	-200,000	-0,030	0,119
-284,789	-200,000	0,013	-0,078
-283,774	800,000	0,043	-0,099
-282,759	679,491	-0,049	0,094
-281,745	800,000	-0,024	-0,072
-280,730	-160,766	0,139	0,005
-279,716	-32,273	0,019	0,008
-278,701	-16,506	0,068	0,031
-277,686	-125,804	0,069	-0,007
-276,672	800,000	0,014	0,041
-275,657	-200,000	-0,011	0,064
-274,643	258,752	0,052	0,066
-273,628	111,401	0,018	0,016
-272,613	-16,106	0,021	0,010
-271,599	-200,000	0,012	0,061
-270,584	79,676	-0,096	0,075
-269,570	-86,579	0,119	0,026
-268,555	-160,594	-0,095	-0,004
-267,540	800,000	0,029	-0,067
-266,526	460,668	-0,059	-0,097
-265,511	16,117	0,125	-0,072
-264,497	800,000	-0,026	0,080
-263,482	529,520	0,050	0,086
-262,467	98,421	0,050	0,042
-261,453	430,342	0,057	-0,091
-260,438	-64,358	-0,085	0,025
-259,424	119,088	-0,037	0,034
-258,409	800,000	-0,037	-0,119
-257,395	95,643	0,078	0,065
-256,380	800,000	0,108	0,219
-255,365	-200,000	-0,015	0,098
-254,351	221,895	0,059	0,069
-253,336	-85,860	-0,081	-0,018
-252,322	-200,000	-0,012	-0,120
-251,307	678,578	0,064	-0,121
-250,292	-200,000	-0,010	0,077
-249,278	-26,590	0,046	-0,020
-248,263	-61,520	0,074	-0,022
-247,249	-25,718	0,145	-0,062
-246,234	215,479	0,071	-0,083
-245,219	800,000	0,032	0,069
-244,205	-200,000	-0,018	0,064
-243,190	-41,623	0,013	0,005
-242,176	-200,000	0,036	-0,126
-241,161	-140,715	0,092	-0,007
-240,146	-200,000	0,007	0,085
-239,132	72,589	0,081	-0,061
-238,117	370,999	-0,044	-0,065
-237,103	-200,000	0,006	0,032
-236,088	390,747	0,024	0,036
-235,073	247,330	0,063	0,078
-234,059	163,875	0,055	-0,057
-233,044	616,945	-0,040	0,074
-232,030	-48,572	-0,094	-0,033
-231,015	-200,000	0,023	-0,164
-230,000	-200,000	-0,011	-0,140
-228,986	-153,007	-0,064	-0,003
-227,971	77,415	0,124	0,096
-226,957	-200,000	0,036	0,118
-225,942	-200,000	0,004	0,077
-224,927	-60,185	-0,001	-0,000
-223,913	125,148	0,050	-0,046
-222,898	800,000	0,028	-0,056
-221,884	-120,798	-0,108	-0,013
-220,869	137,953	-0,045	-0,043
-219,855	-200,000	0,005	-0,026
-218,840	30,678	-0,081	0,050
-217,825	58,659	-0,038	-0,027
-216,811	-200,000	0,015	-0,056
-215,796	-200,000	-0,003	0,035
-214,782	170,563	-0,079	0,082
-213,767	6,030	0,073	0,039
-212,752	-200,000	-0,022	0,158
-211,738	649,608	0,042	0,079
-210,723	747,382	0,039	0,077
-209,709	-50,420	-0,049	-0,017
-208,694	194,382	0,031	-0,034
-207,679	149,980	0,103	-0,102
-206,665	-14,391	-0,125	-0,058
-205,650	712,362	-0,068	0,131
-204,636	261,944	0,057	-0,073
-203,621	455,606	-0,033	0,054
-202,606	-175,506	0,117	-0,002
-201,592	218,564	-0,041	-0,048
-200,577	-79,108	0,069	0,017
-199,563	-200,000	0,012	0,054
-198,548	641,077	0,070	0,131
-197,533	-200,000	-0,006	0,125
-196,519	-110,385	0,098	0,015
-195,504	62,965	-0,017	-0,012
-194,490	688,369	0,041	0,078
-193,475	406,862	-0,045	-0,070
-192,460	-100,118	-0,122	-0,022
-191,446	-92,024	0,065	-0,013
-190,431	-58,521	-0,072	0,023
-189,417	96,035	-0,018	0,015
-188,402	-87,600	0,109	-0,024
-187,387	-88,753	0,097	-0,021
-186,373	39,898	0,026	0,017
-185,358	55,962	0,058	0,040
-184,344	-200,000	0,046	0,149
-183,329	-200,000	0,003	0,154
-182,315	-124,909	-0,061	-0,007
-181,300	-138,895	-0,080	-0,006
-180,285	-108,659	0,089	0,014
-179,271	79,039	0,044	-0,034
-178,256	800,000	-0,032	-0,098
-177,242	197,925	-0,071	-0,079
-176,227	161,801	-0,123	-0,125
-175,212	367,012	-0,025	-0,037
-174,198	87,909	-0,081	0,065
-173,183	-200,000	0,000	0,047
-172,169	800,000	-0,019	-0,059
-171,154	-85,005	0,018	-0,004
-170,139	279,503	0,068	0,089
-169,125	-107,372	-0,068	0,011
-168,110	-56,352	-0,073	0,023
-167,096	194,822	0,065	0,072
-166,081	715,128	0,067	-0,130
-165,066	106,160	-0,144	-0,124
-164,052	-200,000	0,004	0,015
-163,037	-87,774	-0,126	0,027
-162,023	-200,000	0,012	-0,096
-161,008	800,000	0,009	-0,021
-159,993	-200,000	-0,021	0,116
-158,979	283,239	-0,083	-0,109
-157,964	48,923	0,050	-0,034
-156,950	-20,010	0,191	0,085
-155,935	-200,000	-0,014	-0,109
-154,920	61,363	-0,097	0,070
-153,906	-104,347	0,125	0,021
-152,891	-200,000	-0,023	-0,103
-151,877	-200,000	0,019	-0,127
-150,862	800,000	-0,098	-0,235
-149,847	-13,650	-0,073	-0,034
-148,833	-75,956	0,111	0,028
-147,818	351,250	-0,033	-0,047
-146,804	-0,459	0,081	0,041
-145,789	560,679	0,042	-0,074
-144,775	319,271	0,066	-0,092
-143,760	-200,000	-0,004	0,065
-142,745	-168,623	-0,110	-0,003
-141,731	7,486	0,082	-0,044
-140,716	47,013	-0,075	0,051
-139,702	179,593	0,072	0,077
-138,687	800,000	0,030	0,086
-137,672	110,977	-0,018	0,016
-136,658	85,269	-0,042	0,033
-135,643	410,984	0,028	-0,043
-134,629	152,666	-0,020	0,020
-133,614	-200,000	0,017	0,073
-132,599	-200,000	0,014	0,067
-131,585	800,000	0,048	0,143
-130,570	135,902	0,043	-0,041
-129,556	300,055	-0,082	-0,110
-128,541	-200,000	0,035	-0,130
-127,526	-90,146	-0,090	0,019
-126,512	-17,250	0,064	-0,029
-125,497	-179,521	0,083	-0,001
-124,483	164,564	0,073	0,074
-123,468	146,768	-0,044	0,043
-122,453	140,367	-0,083	0,080
-121,439	335,765	0,042	-0,059
-120,424	-200,000	0,028	-0,107
-119,410	-124,759	0,047	0,005
