DTS Sentinel unit serial number:	SN410029Multiplexer serial number:	ORYXHardware model number:	OX2-SRSoftware version number:	ORYX F/W v4,00 Oryx Data Collector v3.7.2.0data status	okinstallation	B4 Nyhavnadifferential loss correction	single-endedforward channel	channel 2reverse channel	N/Adate	2023/12/15time	19:20:13forward acquisition time	300,00reverse acquisition time	0,00gamma	499,1914k internal	0,3138k external	0,3138temperature offset calibration	1,0000default loss term (dB/km)	0,3820temperature slope calibration	1,0000multiplexer offset coefficient	1,0000multiplexer slope coefficient	1,0000fibre end	0,00T internal ref (°C)	19,79T ext. ref 1 (°C)	5,56T ext. ref 2 (°C)	5,69length (m)	temperature (°C)	Stokes	anti-Stokes-744,400	-200,000	-0,003	0,031
-743,385	-69,422	-0,175	0,050
-742,371	800,000	0,042	-0,121
-741,356	92,993	-0,233	0,195
-740,342	631,586	0,045	0,085
-739,327	150,738	-0,165	0,166
-738,312	70,291	0,048	0,037
-737,298	-82,537	-0,237	0,057
-736,283	554,859	-0,016	-0,028
-735,269	-25,996	-0,159	0,069
-734,254	-19,337	0,072	-0,033
-733,239	-134,275	-0,568	-0,051
-732,225	-123,091	0,188	-0,022
-731,210	128,619	-0,084	0,079
-730,196	-70,844	0,068	0,019
-729,181	-200,000	-0,039	0,152
-728,167	67,435	-0,189	0,143
-727,152	-69,026	-0,081	0,023
-726,137	-82,079	0,113	-0,027
-725,123	800,000	0,026	-0,076
-724,108	-57,540	-0,144	-0,046
-723,094	231,525	-0,035	-0,042
-722,079	-2,824	-0,080	-0,041
-721,064	-200,000	-0,019	-0,132
-720,050	75,359	0,005	0,004
-719,035	-124,202	-0,069	0,008
-718,021	190,843	-0,056	0,063
-717,006	-200,000	0,002	-0,042
-715,991	672,360	-0,056	-0,109
-714,977	138,626	-0,065	-0,064
-713,962	-200,000	0,001	-0,094
-712,948	-15,666	-0,114	0,054
-711,933	-200,000	-0,042	0,209
-710,918	-63,420	-0,078	0,024
-709,904	-115,636	-0,145	-0,020
-708,889	-200,000	0,026	-0,122
-707,875	800,000	-0,070	-0,217
-706,860	-136,873	-0,119	0,010
-705,845	6,279	0,054	0,029
-704,831	81,138	0,053	0,043
-703,816	-200,000	0,006	0,034
-702,802	78,166	-0,161	-0,127
-701,787	800,000	-0,037	-0,082
-700,772	94,696	-0,070	-0,059
-699,758	97,512	-0,033	-0,028
-698,743	800,000	0,004	0,012
-697,729	-200,000	0,023	-0,128
-696,714	15,567	-0,073	-0,042
-695,699	204,877	-0,123	0,141
-694,685	-200,000	-0,000	-0,006
-693,670	335,183	0,037	-0,053
-692,656	221,891	0,054	0,064
-691,641	-40,130	-0,135	-0,052
-690,627	-66,787	0,126	-0,037
-689,612	800,000	0,038	0,086
-688,597	16,959	0,019	-0,011
-687,583	110,756	-0,042	-0,038
-686,568	-29,035	-0,096	-0,041
-685,554	81,805	0,122	-0,097
-684,539	-200,000	0,004	-0,023
-683,524	-200,000	-0,026	0,101
-682,510	306,445	0,048	0,066
-681,495	-53,554	-0,119	-0,040
-680,481	-13,136	-0,064	-0,031
-679,466	-200,000	-0,007	0,077
-678,451	-200,000	-0,003	-0,083
-677,437	800,000	-0,023	0,073
-676,422	450,316	0,017	-0,028
-675,408	-200,000	-0,008	0,040
-674,393	-20,165	0,019	0,009
-673,378	762,550	-0,010	-0,020
-672,364	-51,135	-0,117	-0,040
-671,349	-200,000	-0,001	-0,016
-670,335	-200,000	-0,002	-0,074
-669,320	-132,152	-0,024	-0,002
-668,305	294,022	-0,048	0,065
-667,291	800,000	0,017	-0,055
-666,276	78,805	0,032	0,025
-665,262	-200,000	-0,029	-0,208
-664,247	-200,000	-0,019	-0,160
-663,232	482,213	0,027	-0,046
-662,218	800,000	-0,023	-0,063
-661,203	-200,000	0,002	0,041
-660,189	-19,240	-0,025	-0,011
-659,174	-200,000	0,021	-0,117
-658,159	289,219	0,093	-0,125
-657,145	627,497	0,082	-0,153
-656,130	93,971	0,072	-0,061
-655,116	46,942	-0,041	0,028
-654,101	-200,000	0,007	0,055
-653,086	-200,000	0,006	-0,067
-652,072	-200,000	0,015	-0,183
-651,057	173,851	-0,071	-0,076
-650,043	683,284	0,027	0,052
-649,028	-200,000	-0,024	0,111
-648,014	-200,000	-0,017	0,131
-646,999	416,210	0,078	0,123
-645,984	-200,000	0,021	0,108
-644,970	-120,648	-0,113	-0,014
-643,955	-200,000	0,004	0,138
-642,941	131,714	-0,043	0,041
-641,926	-88,889	-0,089	0,019
-640,911	-63,192	-0,057	0,017
-639,897	800,000	0,023	-0,070
-638,882	800,000	0,058	0,149
-637,868	800,000	0,016	-0,040
-636,853	212,421	0,101	-0,118
-635,838	576,430	0,047	-0,086
-634,824	-200,000	-0,031	-0,120
-633,809	-47,536	-0,087	0,031
-632,795	-112,477	-0,025	-0,004
-631,780	19,630	0,060	0,035
-630,765	-114,257	0,097	0,014
-629,751	800,000	-0,059	-0,148
-628,736	-15,861	-0,070	-0,033
-627,722	-200,000	0,008	-0,082
-626,707	113,808	0,037	-0,033
-625,692	-93,733	-0,053	0,011
-624,678	-200,000	-0,035	-0,151
-623,663	-200,000	-0,017	-0,072
-622,649	621,684	-0,014	-0,026
-621,634	-110,831	-0,153	0,023
-620,619	-200,000	-0,037	-0,131
-619,605	-15,949	0,146	-0,068
-618,590	7,661	-0,127	-0,070
-617,576	-155,819	-0,019	-0,001
-616,561	800,000	0,008	-0,020
-615,546	129,521	-0,070	0,066
-614,532	124,212	-0,030	-0,028
-613,517	-142,057	-0,028	0,002
-612,503	89,935	0,022	-0,018
-611,488	-200,000	-0,016	-0,063
-610,474	150,301	0,031	-0,031
-609,459	-20,610	0,096	-0,043
-608,444	-60,885	0,055	-0,017
-607,430	350,452	-0,108	-0,158
-606,415	-200,000	-0,008	-0,033
-605,401	230,328	0,043	0,052
-604,386	236,390	0,098	-0,119
-603,371	57,753	-0,063	-0,046
-602,357	800,000	0,023	0,058
-601,342	148,401	-0,068	-0,068
-600,328	42,910	-0,100	0,067
-599,313	377,291	-0,053	0,080
-598,298	-200,000	-0,021	0,085
-597,284	800,000	-0,021	-0,053
-596,269	235,897	0,114	0,139
-595,255	744,173	0,069	0,138
-594,240	408,764	0,019	-0,030
-593,225	597,972	-0,045	-0,083
-592,211	99,132	-0,134	0,114
-591,196	800,000	0,018	-0,057
-590,182	525,739	-0,045	0,078
-589,167	61,494	0,119	0,087
-588,152	-200,000	-0,004	-0,062
-587,138	724,427	-0,034	-0,067
-586,123	800,000	0,008	-0,021
-585,109	-156,568	-0,091	0,004
-584,094	141,162	0,045	0,043
-583,079	24,303	0,081	0,049
-582,065	526,110	0,075	0,131
-581,050	-59,910	-0,088	0,028
-580,036	800,000	0,008	-0,019
-579,021	-200,000	0,009	-0,116
-578,006	800,000	-0,049	-0,124
-576,992	20,326	-0,063	-0,037
-575,977	285,026	0,008	0,010
-574,963	149,397	-0,037	0,036
-573,948	-175,762	0,082	0,002
-572,934	-167,092	0,065	0,002
-571,919	-200,000	-0,054	-0,184
-570,904	-200,000	-0,039	-0,175
-569,890	800,000	-0,050	0,134
-568,875	-55,681	0,087	0,028
-567,861	493,836	-0,033	-0,057
-566,846	205,299	-0,079	0,090
-565,831	744,144	-0,040	0,081
-564,817	-104,835	0,091	0,015
-563,802	800,000	-0,006	-0,012
-562,788	59,467	-0,053	-0,038
-561,773	5,324	0,101	0,054
-560,758	-200,000	0,012	0,245
-559,744	-200,000	0,008	0,094
-558,729	428,938	0,073	0,116
-557,715	-15,943	-0,080	-0,037
-556,700	125,596	0,098	-0,091
-555,685	-53,325	-0,148	-0,050
-554,671	-200,000	-0,007	0,078
-553,656	-200,000	-0,028	-0,126
-552,642	-200,000	0,005	0,050
-551,627	-10,729	-0,046	-0,022
-550,612	128,416	-0,110	-0,103
-549,598	236,975	0,089	-0,109
-548,583	96,561	0,167	-0,141
-547,569	63,495	-0,058	-0,043
-546,554	-123,942	0,115	0,013
-545,539	724,059	-0,088	0,174
-544,525	800,000	0,051	0,124
-543,510	153,781	-0,045	-0,045
-542,496	512,879	0,035	-0,060
-541,481	800,000	-0,089	-0,200
-540,466	51,013	-0,030	-0,021
-539,452	-176,385	0,090	0,002
-538,437	-200,000	-0,001	-0,079
-537,423	800,000	-0,024	0,053
-536,408	800,000	0,032	0,089
-535,393	-125,326	0,041	-0,005
-534,379	-200,000	0,021	-0,101
-533,364	-200,000	-0,049	-0,162
-532,350	-92,203	-0,011	-0,002
-531,335	-143,435	0,126	0,009
-530,321	-200,000	-0,005	-0,128
-529,306	800,000	-0,065	-0,190
-528,291	174,662	-0,090	0,096
-527,277	-32,866	-0,118	0,048
-526,262	-200,000	-0,012	-0,144
-525,248	-91,067	0,081	-0,017
-524,233	-200,000	0,001	0,064
-523,218	97,147	-0,110	0,093
-522,204	193,293	0,015	-0,016
-521,189	-29,097	-0,122	-0,051
-520,175	-92,959	0,038	0,008
-519,160	642,560	-0,065	-0,122
-518,145	-149,733	-0,042	-0,002
-517,131	800,000	0,065	-0,143
-516,116	-164,749	0,127	-0,004
-515,102	-67,657	-0,166	0,047
-514,087	55,025	0,066	-0,047
-513,072	-105,240	0,046	-0,008
-512,058	416,077	-0,070	-0,111
-511,043	51,775	0,116	0,081
-510,029	800,000	0,068	0,201
-509,014	-200,000	-0,027	0,100
-507,999	800,000	-0,011	-0,029
-506,985	-82,650	-0,066	0,016
-505,970	-80,455	-0,155	0,038
-504,956	326,573	-0,040	-0,057
-503,941	256,381	-0,011	0,014
-502,926	-200,000	-0,003	-0,032
-501,912	-11,470	0,045	-0,022
-500,897	800,000	0,054	-0,113
-499,883	-155,768	-0,044	0,002
-498,868	206,349	0,019	-0,022
-497,853	-86,851	0,074	0,016
-496,839	-200,000	-0,027	0,165
-495,824	358,569	-0,047	0,069
-494,810	150,595	0,092	0,092
-493,795	763,731	-0,032	0,063
-492,781	-61,806	-0,088	0,027
-491,766	-200,000	-0,004	0,052
-490,751	-4,115	-0,121	-0,062
-489,737	101,249	-0,066	0,056
-488,722	706,016	0,072	0,140
-487,708	-164,738	-0,134	-0,004
-486,693	-200,000	-0,002	-0,051
-485,678	800,000	0,021	-0,050
-484,664	-153,142	-0,244	-0,012
-483,649	167,499	-0,097	-0,101
-482,635	86,392	-0,029	-0,024
-481,620	-200,000	-0,001	0,112
-480,605	-32,964	0,023	0,009
-479,591	-166,040	0,105	0,003
-478,576	-109,065	-0,025	0,004
-477,562	800,000	0,028	0,068
-476,547	289,061	-0,068	-0,091
-475,532	75,531	0,142	-0,110
-474,518	168,346	0,086	0,090
-473,503	800,000	-0,055	0,153
-472,489	800,000	0,041	0,107
-471,474	-200,000	0,005	0,045
-470,459	-65,001	-0,089	0,026
-469,445	-9,230	-0,135	0,066
-468,430	-200,000	-0,032	0,108
-467,416	-200,000	0,166	0,000
-466,401	-26,086	0,092	0,040
-465,386	-139,925	0,104	0,008
-464,372	-148,904	0,118	0,007
-463,357	-20,620	-0,037	-0,016
-462,343	20,792	-0,102	-0,061
-461,328	-200,000	-0,023	0,136
-460,313	-200,000	-0,013	-0,047
-459,299	-200,000	-0,018	0,209
-458,284	-200,000	-0,003	0,015
-457,270	590,823	0,049	0,089
-456,255	10,509	-0,064	0,036
-455,241	-200,000	0,028	0,127
-454,226	93,512	0,092	0,077
-453,211	-40,283	0,054	-0,020
-452,197	430,321	0,036	0,058
-451,182	-6,814	-0,031	0,015
-450,168	175,376	0,016	-0,017
-449,153	140,014	0,066	0,064
-448,138	106,937	-0,129	0,112
-447,124	176,658	-0,136	-0,145
-446,109	800,000	0,049	-0,116
-445,095	30,316	0,074	-0,046
-444,080	-200,000	0,002	-0,021
-443,065	-88,296	0,125	-0,027
-442,051	252,428	0,071	-0,089
-441,036	-13,936	0,043	-0,020
-440,022	216,599	0,043	-0,051
-439,007	-137,692	0,016	-0,001
-437,992	-74,090	0,069	0,018
-436,978	800,000	0,056	0,127
-435,963	-200,000	-0,019	0,123
-434,949	47,881	-0,095	0,065
-433,934	346,457	0,044	-0,064
-432,919	-35,526	0,056	-0,022
-431,905	-200,000	-0,007	0,038
-430,890	-148,084	0,029	-0,002
-429,876	-97,023	0,062	0,012
-428,861	800,000	-0,029	0,069
-427,846	-200,000	-0,002	-0,065
-426,832	-110,553	-0,040	0,006
-425,817	-57,447	0,004	-0,001
-424,803	800,000	-0,015	-0,045
-423,788	-200,000	0,013	0,072
-422,773	780,251	-0,003	0,005
-421,759	361,362	-0,017	-0,025
-420,744	-200,000	-0,024	0,092
-419,730	800,000	-0,047	0,124
-418,715	-65,407	0,036	-0,011
-417,701	-200,000	-0,029	0,143
-416,686	-200,000	0,009	0,165
-415,671	-81,306	-0,039	-0,009
-414,657	-200,000	0,057	0,192
-413,642	800,000	0,048	0,121
-412,628	65,157	0,042	0,031
-411,613	604,679	-0,035	-0,064
-410,598	-117,334	-0,094	0,012
-409,584	42,083	-0,081	0,054
-408,569	-87,165	0,100	0,022
-407,555	800,000	0,026	-0,077
-406,540	800,000	-0,010	-0,030
-405,525	-71,705	-0,027	0,007
-404,511	800,000	-0,028	0,072
-403,496	63,081	-0,024	-0,018
-402,482	423,639	0,101	0,160
-401,467	-96,018	0,144	0,028
-400,452	19,711	0,113	0,066
-399,438	800,000	0,106	0,221
-398,423	-131,036	-0,056	0,005
-397,409	390,629	-0,074	0,112
-396,394	22,314	-0,086	-0,051
-395,379	453,419	0,032	-0,052
-394,365	42,937	0,022	0,014
-393,350	27,529	-0,012	0,008
-392,336	-13,803	0,086	-0,040
-391,321	-200,000	0,008	0,083
-390,306	585,886	0,006	-0,011
-389,292	-200,000	0,003	-0,052
-388,277	-200,000	0,004	-0,118
-387,263	-158,534	0,119	0,005
-386,248	97,620	-0,031	-0,026
-385,233	142,843	0,100	0,097
-384,219	-64,449	-0,173	0,051
-383,204	179,527	-0,084	-0,090
-382,190	-19,368	0,131	0,059
-381,175	68,411	-0,073	-0,054
-380,160	85,965	-0,031	-0,025
-379,146	156,640	-0,049	-0,049
-378,131	-65,704	-0,085	0,025
-377,117	33,643	-0,086	-0,055
-376,102	387,696	-0,037	0,057
-375,088	800,000	0,015	0,043
-374,073	202,511	0,058	0,065
-373,058	-200,000	0,017	-0,131
-372,044	-192,449	0,053	-0,000
-371,029	-200,000	-0,028	0,167
-370,015	-200,000	-0,050	0,160
-369,000	-73,021	-0,056	-0,015
-367,985	453,172	-0,055	-0,090
-366,971	19,238	0,057	0,034
-365,956	-14,357	0,091	-0,043
-364,942	-42,706	0,102	-0,038
-363,927	800,000	0,055	0,118
-362,912	-80,412	0,073	-0,018
-361,898	-15,363	-0,146	-0,068
-360,883	113,372	-0,048	0,042
-359,869	-31,147	-0,088	0,036
-358,854	562,762	0,050	0,089
-357,839	-94,187	0,143	0,028
-356,825	-200,000	-0,003	-0,025
-355,810	284,657	0,068	0,090
-354,796	-200,000	0,016	-0,064
-353,781	-200,000	-0,003	-0,120
-352,766	-200,000	-0,008	-0,132
-351,752	406,137	-0,081	-0,125
-350,737	23,599	0,036	-0,021
-349,723	-19,553	-0,011	-0,005
-348,708	155,808	-0,057	-0,058
-347,693	-62,235	-0,055	-0,017
-346,679	-93,073	0,021	0,004
-345,664	6,758	0,051	0,028
-344,650	-200,000	-0,003	-0,093
-343,635	-130,802	0,051	-0,005
-342,620	-200,000	-0,013	0,047
-341,606	196,452	-0,033	0,036
-340,591	115,962	0,031	-0,028
-339,577	-200,000	0,007	-0,025
-338,562	-150,429	-0,100	-0,006
-337,548	800,000	0,023	-0,074
-336,533	-149,600	-0,058	0,003
-335,518	111,633	0,160	0,141
-334,504	-200,000	-0,011	0,092
-333,489	-29,608	0,065	-0,027
-332,475	-200,000	-0,012	0,140
-331,460	3,121	-0,143	-0,076
-330,445	-200,000	0,025	0,152
-329,431	8,362	-0,060	0,033
-328,416	189,024	0,103	0,113
-327,402	685,457	0,045	-0,086
-326,387	237,693	-0,059	-0,071
-325,372	221,652	-0,072	-0,085
-324,358	-200,000	0,042	-0,155
-323,343	231,795	-0,123	-0,148
-322,329	461,319	0,033	0,055
-321,314	-200,000	-0,000	-0,052
-320,299	3,361	0,072	0,038
-319,285	-200,000	0,006	-0,028
-318,270	-27,385	-0,114	0,048
-317,256	84,794	-0,046	-0,037
-316,241	383,673	-0,037	-0,056
-315,226	800,000	-0,038	-0,079
-314,212	800,000	-0,023	-0,072
-313,197	-113,089	0,197	0,028
-312,183	-32,804	0,077	0,031
-311,168	57,220	-0,069	-0,049
-310,153	55,920	-0,119	-0,084
-309,139	356,703	0,058	0,084
-308,124	-12,670	-0,070	-0,033
-307,110	-106,600	-0,030	-0,005
-306,095	800,000	0,017	0,042
-305,080	-104,109	-0,044	0,007
-304,066	547,015	-0,023	-0,040
-303,051	800,000	-0,024	0,056
-302,037	-200,000	0,011	-0,109
-301,022	19,934	0,047	0,027
-300,008	209,940	0,114	-0,131
-298,993	145,794	0,054	0,053
-297,978	442,402	0,054	0,086
-296,964	5,194	-0,067	0,036
-295,949	39,286	-0,023	0,015
-294,935	679,335	0,031	-0,060
-293,920	183,871	0,107	-0,115
-292,905	-49,742	0,062	0,021
-291,891	800,000	0,047	0,113
-290,876	-150,982	-0,035	0,002
-289,862	334,891	-0,089	0,127
-288,847	-200,000	-0,008	-0,027
-287,832	-200,000	0,004	-0,218
-286,818	56,114	0,061	-0,043
-285,803	337,649	0,043	0,061
-284,789	-41,121	0,083	0,031
-283,774	-200,000	0,007	0,056
-282,759	-122,712	0,059	-0,007
-281,745	251,772	-0,146	-0,182
-280,730	-44,550	-0,061	-0,022
-279,716	-64,097	0,093	0,027
-278,701	22,329	0,034	0,020
-277,686	-160,045	0,043	0,002
-276,672	-121,643	-0,104	0,012
-275,657	-37,056	-0,110	-0,043
-274,643	-106,158	-0,149	0,024
-273,628	6,520	0,034	-0,018
-272,613	-172,150	-0,074	0,002
-271,599	-59,818	-0,071	-0,022
-270,584	-127,562	0,060	0,006
-269,570	-156,179	0,081	0,004
-268,555	800,000	-0,036	-0,090
-267,540	-96,855	-0,131	0,025
-266,526	-92,917	-0,119	0,024
-265,511	800,000	0,016	-0,036
-264,497	11,626	0,100	0,056
-263,482	237,437	0,094	-0,113
-262,467	-140,200	0,050	0,004
-261,453	-200,000	0,024	-0,083
-260,438	459,291	0,032	-0,052
-259,424	-200,000	-0,007	-0,083
-258,409	8,770	-0,078	-0,043
-257,395	800,000	0,049	0,140
-256,380	-200,000	0,001	0,043
-255,365	800,000	-0,060	0,186
-254,351	-81,622	-0,110	0,026
-253,336	-200,000	0,010	0,073
-252,322	-80,578	-0,023	-0,006
-251,307	-200,000	0,009	-0,213
-250,292	-200,000	0,007	-0,064
-249,278	-12,634	0,096	0,046
-248,263	-200,000	-0,011	0,041
-247,249	800,000	0,047	0,117
-246,234	-200,000	-0,018	-0,177
-245,219	800,000	-0,033	-0,076
-244,205	-200,000	0,011	-0,113
-243,190	351,727	0,049	0,070
-242,176	-37,027	-0,047	-0,018
-241,161	300,124	-0,077	-0,104
-240,146	-152,927	-0,070	0,004
-239,132	412,768	-0,013	0,020
-238,117	-30,256	0,088	0,036
-237,103	113,811	0,094	-0,083
-236,088	-200,000	-0,003	-0,034
-235,073	715,914	0,006	0,012
-234,059	27,182	-0,106	-0,064
-233,044	-68,405	0,151	0,042
-232,030	28,540	0,054	-0,033
-231,015	800,000	-0,031	-0,089
-230,000	214,157	-0,075	-0,086
-228,986	192,394	0,121	-0,133
-227,971	-34,481	0,088	-0,035
-226,957	-87,534	-0,049	0,011
-225,942	79,445	0,153	0,119
-224,927	381,847	0,016	0,024
-223,913	-155,579	0,072	0,003
-222,898	14,661	0,101	-0,057
-221,884	-102,382	0,069	0,012
-220,869	800,000	0,028	0,065
-219,855	-65,519	-0,069	0,020
-218,840	800,000	0,011	-0,028
-217,825	800,000	-0,042	-0,085
-216,811	800,000	0,021	0,046
-215,796	151,216	0,069	-0,068
-214,782	304,144	-0,017	0,023
-213,767	-35,132	-0,026	-0,010
-212,752	174,385	0,068	-0,072
-211,738	-132,764	0,067	-0,006
-210,723	-93,216	-0,101	0,020
-209,709	-116,323	-0,160	0,021
-208,694	116,403	-0,038	0,034
-207,679	-29,425	-0,099	-0,041
-206,665	-200,000	-0,030	-0,102
-205,650	95,929	0,073	-0,060
-204,636	-18,296	0,055	0,025
-203,621	-118,468	-0,041	-0,005
-202,606	119,747	0,038	-0,034
-201,592	8,026	0,085	-0,046
-200,577	-17,368	-0,145	-0,066
-199,563	215,439	-0,055	-0,063
-198,548	360,088	-0,018	0,026
-197,533	-141,343	-0,096	0,007
-196,519	-48,036	0,122	-0,042
-195,504	-158,278	0,080	0,003
-194,490	14,226	-0,073	0,041
-193,475	9,071	-0,026	-0,014
-192,460	-12,052	-0,008	-0,004
-191,446	-29,330	0,041	0,017
-190,431	-162,198	0,098	-0,003
-189,417	800,000	0,020	0,061
-188,402	199,513	-0,026	-0,029
-187,387	-59,101	-0,074	-0,023
-186,373	35,924	0,098	0,062
-185,358	99,778	-0,049	0,041
-184,344	-33,954	0,082	0,033
-183,329	-110,787	0,044	-0,007
-182,315	487,615	0,085	0,142
-181,300	-200,000	0,014	-0,125
-180,285	-34,110	-0,029	-0,012
-179,271	110,617	0,044	-0,038
-178,256	79,585	0,012	0,009
-177,242	-200,000	0,007	0,059
-176,227	-200,000	0,005	0,078
-175,212	-138,539	-0,015	-0,001
-174,198	52,186	-0,089	0,061
-173,183	-200,000	-0,011	0,041
-172,169	307,499	-0,023	-0,031
-171,154	137,850	-0,066	-0,063
-170,139	232,154	0,042	-0,050
-169,125	-116,844	-0,151	-0,020
-168,110	700,776	0,031	0,060
-167,096	-73,344	-0,008	0,002
-166,081	800,000	0,039	0,089
-165,066	416,023	0,003	-0,005
-164,052	-200,000	-0,001	0,108
-163,037	-93,196	-0,077	0,015
-162,023	-77,614	0,126	-0,031
-161,008	-59,595	0,084	0,026
-159,993	348,689	0,060	0,086
-158,979	390,172	-0,018	-0,027
-157,964	-16,522	-0,043	-0,020
-156,950	800,000	0,068	-0,156
-155,935	404,734	-0,035	-0,054
-154,920	377,407	0,078	-0,116
-153,906	-38,780	-0,057	0,022
-152,891	-176,028	0,108	0,002
-151,877	800,000	0,051	-0,148
-150,862	614,179	-0,033	-0,060
-149,847	-171,024	0,079	0,002
-148,833	-151,893	-0,102	-0,005
-147,818	168,660	0,070	0,072
-146,804	-66,674	0,045	0,013
-145,789	350,648	0,065	-0,094
-144,775	110,705	0,019	-0,017
-143,760	228,698	-0,072	0,085
-142,745	13,549	-0,013	0,007
-141,731	98,489	0,057	0,048
-140,716	282,814	0,051	0,066
-139,702	800,000	0,009	0,027
-138,687	800,000	0,032	-0,072
-137,672	54,418	0,142	-0,099
-136,658	150,566	-0,121	-0,119
-135,643	318,178	-0,048	0,065
-134,629	289,741	-0,100	-0,132
-133,614	800,000	-0,021	0,043
-132,599	-200,000	0,004	-0,018
-131,585	159,836	0,044	0,045
-130,570	-155,323	-0,065	0,003
-129,556	134,546	0,045	0,042
-128,541	800,000	-0,030	-0,067
-127,526	-200,000	0,017	0,085
-126,512	800,000	-0,022	0,057
-125,497	800,000	0,022	0,061
-124,483	-82,097	0,054	-0,013
-123,468	-122,470	-0,071	0,008
-122,453	-168,204	0,028	-0,001
-121,439	800,000	0,031	-0,079
-120,424	39,870	-0,129	-0,084
-119,410	289,635	-0,049	0,065
