DTS Sentinel unit serial number:	SN410029Multiplexer serial number:	ORYXHardware model number:	OX2-SRSoftware version number:	ORYX F/W v4,00 Oryx Data Collector v3.7.2.0data status	okinstallation	B4 Nyhavnadifferential loss correction	single-endedforward channel	channel 2reverse channel	N/Adate	2023/12/18time	16:45:13forward acquisition time	300,00reverse acquisition time	0,00gamma	499,1914k internal	0,3129k external	0,3129temperature offset calibration	1,0000default loss term (dB/km)	0,3820temperature slope calibration	1,0000multiplexer offset coefficient	1,0000multiplexer slope coefficient	1,0000fibre end	0,00T internal ref (°C)	20,93T ext. ref 1 (°C)	7,67T ext. ref 2 (°C)	7,74length (m)	temperature (°C)	Stokes	anti-Stokes-744,400	277,635	0,114	-0,152
-743,385	800,000	-0,061	0,137
-742,371	-123,665	0,073	-0,008
-741,356	-64,160	-0,260	0,078
-740,342	432,037	-0,040	0,064
-739,327	29,703	-0,126	0,079
-738,312	211,906	0,013	0,016
-737,298	30,082	-0,263	0,166
-736,283	-200,000	0,006	-0,038
-735,269	-75,475	-0,144	0,038
-734,254	45,224	0,045	-0,031
-733,239	-132,317	-0,393	0,037
-732,225	-200,000	-0,010	-0,059
-731,210	-200,000	0,002	-0,063
-730,196	-200,000	-0,004	-0,045
-729,181	-200,000	-0,014	-0,174
-728,167	469,421	0,034	-0,056
-727,152	47,137	0,043	0,030
-726,137	-0,736	-0,104	0,055
-725,123	12,692	-0,032	-0,018
-724,108	437,753	-0,096	-0,157
-723,094	800,000	-0,028	-0,072
-722,079	-200,000	0,033	-0,161
-721,064	-200,000	-0,007	-0,049
-720,050	-51,641	0,045	0,016
-719,035	-200,000	0,015	-0,101
-718,021	800,000	-0,035	0,090
-717,006	23,688	-0,065	0,040
-715,991	-183,099	-0,063	0,001
-714,977	151,053	0,028	0,028
-713,962	-1,383	0,144	-0,075
-712,948	-179,881	0,091	0,001
-711,933	257,450	-0,011	-0,014
-710,918	-200,000	-0,026	0,091
-709,904	160,378	-0,028	-0,029
-708,889	-200,000	0,012	-0,095
-707,875	-73,004	-0,030	0,008
-706,860	-49,379	0,048	-0,017
-705,845	-200,000	0,048	0,000
-704,831	-22,604	0,041	0,018
-703,816	800,000	0,034	0,083
-702,802	34,766	-0,032	-0,021
-701,787	63,150	0,075	-0,056
-700,772	53,493	-0,107	0,076
-699,758	93,465	0,050	-0,042
-698,743	105,371	-0,071	-0,063
-697,729	171,028	0,096	0,102
-696,714	164,153	0,084	-0,088
-695,699	190,723	-0,071	-0,079
-694,685	-118,566	-0,070	-0,009
-693,670	93,976	-0,124	-0,104
-692,656	-200,000	0,028	-0,099
-691,641	302,895	-0,025	-0,034
-690,627	194,380	0,056	0,063
-689,612	102,354	0,051	0,044
-688,597	-68,569	-0,245	0,070
-687,583	800,000	0,032	-0,085
-686,568	338,845	0,023	-0,034
-685,554	-200,000	-0,005	-0,147
-684,539	390,647	-0,084	-0,129
-683,524	-200,000	0,005	0,117
-682,510	76,067	0,078	0,061
-681,495	42,813	0,078	-0,053
-680,481	-200,000	0,014	0,189
-679,466	0,065	-0,212	0,112
-678,451	-200,000	0,013	-0,044
-677,437	564,937	0,012	0,022
-676,422	25,131	0,070	-0,043
-675,408	779,956	0,028	-0,057
-674,393	117,442	-0,039	0,036
-673,378	-200,000	-0,007	-0,052
-672,364	800,000	0,039	-0,086
-671,349	-73,557	-0,026	-0,007
-670,335	-20,298	0,076	0,035
-669,320	800,000	-0,033	-0,073
-668,305	-25,679	0,215	0,094
-667,291	-4,459	-0,020	0,010
-666,276	-177,706	-0,116	-0,002
-665,262	131,066	-0,072	-0,068
-664,247	550,054	-0,040	-0,071
-663,232	-200,000	-0,024	-0,081
-662,218	108,890	0,094	0,084
-661,203	-200,000	-0,026	0,106
-660,189	536,339	0,083	0,146
-659,174	530,570	-0,055	0,096
-658,159	-197,269	0,068	-0,000
-657,145	800,000	-0,020	0,047
-656,130	-200,000	0,005	-0,063
-655,116	242,618	-0,037	-0,046
-654,101	671,699	0,034	0,066
-653,086	-121,757	0,072	-0,009
-652,072	152,370	-0,117	-0,118
-651,057	-49,411	-0,074	-0,026
-650,043	-134,734	-0,176	-0,016
-649,028	-200,000	0,002	-0,047
-648,014	-21,374	0,073	-0,033
-646,999	417,085	0,020	-0,032
-645,984	-200,000	-0,003	0,071
-644,970	-18,212	-0,180	0,083
-643,955	-126,009	-0,028	0,003
-642,941	-200,000	0,032	-0,149
-641,926	14,739	-0,119	0,069
-640,911	800,000	-0,037	0,114
-639,897	181,918	0,079	0,087
-638,882	800,000	-0,025	-0,080
-637,868	-69,297	0,063	-0,018
-636,853	363,932	0,042	0,063
-635,838	249,848	-0,031	-0,039
-634,824	-200,000	0,021	-0,126
-633,809	-200,000	-0,023	0,114
-632,795	800,000	0,057	0,172
-631,780	-180,378	-0,137	0,002
-630,765	-200,000	0,003	0,016
-629,751	-200,000	0,023	-0,113
-628,736	207,682	-0,079	-0,091
-627,722	311,580	-0,070	0,097
-626,707	-200,000	-0,016	0,068
-625,692	-200,000	-0,001	0,092
-624,678	54,595	-0,077	0,055
-623,663	-200,000	0,017	-0,117
-622,649	-13,818	-0,136	-0,065
-621,634	-74,378	-0,032	-0,009
-620,619	-200,000	0,004	-0,036
-619,605	217,752	0,053	-0,063
-618,590	-200,000	0,006	-0,023
-617,576	-200,000	-0,001	-0,011
-616,561	-200,000	0,050	-0,183
-615,546	119,406	-0,131	-0,120
-614,532	234,389	0,029	-0,035
-613,517	57,601	-0,123	-0,089
-612,503	-200,000	-0,059	-0,195
-611,488	534,597	0,056	-0,099
-610,474	-200,000	0,028	-0,106
-609,459	800,000	0,020	-0,062
-608,444	39,754	0,063	-0,042
-607,430	278,946	0,011	0,014
-606,415	-63,788	-0,119	-0,036
-605,401	91,474	-0,011	-0,009
-604,386	-52,213	0,080	-0,027
-603,371	330,184	0,069	0,098
-602,357	-83,263	0,074	-0,017
-601,342	718,723	-0,030	-0,059
-600,328	-200,000	0,024	-0,169
-599,313	411,308	0,017	-0,027
-598,298	305,765	-0,063	0,086
-597,284	-10,901	0,032	0,016
-596,269	-142,706	0,099	-0,007
-595,255	28,061	0,161	0,100
-594,240	-29,878	-0,165	-0,069
-593,225	244,183	-0,072	0,090
-592,211	-200,000	0,005	-0,083
-591,196	-200,000	0,020	0,069
-590,182	317,017	-0,029	-0,041
-589,167	35,727	0,074	-0,048
-588,152	139,831	-0,123	-0,120
-587,138	375,769	0,020	0,031
-586,123	117,626	0,055	0,050
-585,109	485,829	-0,013	0,022
-584,094	152,414	0,067	0,067
-583,079	48,162	-0,013	0,009
-582,065	-200,000	0,010	0,085
-581,050	286,407	-0,072	0,096
-580,036	376,951	0,069	-0,104
-579,021	-200,000	-0,022	-0,120
-578,006	-200,000	-0,009	0,071
-576,992	-200,000	0,011	-0,081
-575,977	25,092	0,056	-0,034
-574,963	-200,000	0,003	0,213
-573,948	-200,000	0,037	-0,138
-572,934	-21,695	0,059	0,027
-571,919	77,175	0,055	0,043
-570,904	659,598	-0,031	-0,060
-569,890	-200,000	0,006	-0,156
-568,875	26,013	0,031	0,019
-567,861	800,000	-0,035	0,095
-566,846	-200,000	-0,006	0,028
-565,831	800,000	-0,004	-0,011
-564,817	-65,584	0,061	-0,018
-563,802	800,000	0,051	-0,106
-562,788	32,101	0,026	-0,017
-561,773	301,442	0,069	-0,094
-560,758	-200,000	0,008	-0,123
-559,744	-200,000	0,002	0,039
-558,729	160,925	-0,020	-0,020
-557,715	-184,812	-0,043	-0,000
-556,700	-20,126	-0,084	0,038
-555,685	60,120	-0,080	-0,059
-554,671	-200,000	0,025	0,210
-553,656	-200,000	-0,000	0,065
-552,642	68,972	0,014	-0,010
-551,627	800,000	-0,008	-0,020
-550,612	-15,592	-0,115	-0,054
-549,598	-75,086	-0,073	-0,019
-548,583	800,000	-0,038	-0,083
-547,569	-134,048	-0,118	0,011
-546,554	-200,000	0,024	0,084
-545,539	-73,313	-0,065	0,018
-544,525	-200,000	-0,013	0,187
-543,510	800,000	0,029	0,073
-542,496	325,738	-0,063	-0,090
-541,481	124,195	0,053	-0,050
-540,466	-69,297	0,117	0,033
-539,452	258,420	-0,105	0,133
-538,437	160,197	0,057	-0,058
-537,423	-44,893	0,061	0,022
-536,408	339,932	-0,016	0,023
-535,393	30,750	-0,063	-0,040
-534,379	48,052	-0,154	-0,106
-533,364	657,164	0,048	0,091
-532,350	169,573	0,066	-0,070
-531,335	-200,000	0,007	0,037
-530,321	-23,877	-0,127	-0,056
-529,306	108,502	-0,029	0,025
-528,291	307,880	0,063	-0,087
-527,277	800,000	-0,018	-0,047
-526,262	-73,132	-0,037	0,010
-525,248	-200,000	-0,001	0,081
-524,233	134,640	0,089	0,086
-523,218	96,115	-0,026	-0,022
-522,204	457,019	0,043	-0,071
-521,189	-9,318	-0,090	0,044
-520,175	-200,000	-0,028	-0,157
-519,160	182,558	0,108	-0,118
-518,145	-200,000	-0,031	0,169
-517,131	-200,000	0,006	0,024
-516,116	-94,468	0,128	0,026
-515,102	-200,000	0,047	0,154
-514,087	800,000	-0,031	-0,065
-513,072	348,233	0,097	-0,141
-512,058	465,597	-0,028	-0,046
-511,043	800,000	-0,081	0,177
-510,029	420,612	0,094	-0,150
-509,014	800,000	0,030	-0,065
-507,999	-81,561	0,118	-0,028
-506,985	163,574	0,032	0,034
-505,970	-200,000	-0,006	-0,141
-504,956	-200,000	0,005	-0,216
-503,941	-140,489	0,037	0,003
-502,926	105,712	-0,037	0,033
-501,912	202,669	0,042	-0,048
-500,897	-24,268	-0,098	0,043
-499,883	-3,895	-0,131	0,067
-498,868	33,984	-0,046	0,030
-497,853	-51,262	-0,013	0,005
-496,839	18,985	0,088	-0,052
-495,824	-200,000	-0,017	0,066
-494,810	-126,404	-0,069	0,008
-493,795	340,239	0,060	-0,087
-492,781	800,000	0,040	-0,087
-491,766	-66,509	0,012	0,004
-490,751	-137,277	-0,168	-0,014
-489,737	-200,000	-0,015	-0,074
-488,722	-104,660	0,101	-0,017
-487,708	-200,000	-0,024	0,083
-486,693	-29,217	0,108	-0,046
-485,678	201,260	-0,077	-0,088
-484,664	-15,276	0,055	0,026
-483,649	-108,876	0,094	-0,015
-482,635	-33,334	-0,148	-0,060
-481,620	-117,017	0,081	-0,011
-480,605	800,000	-0,070	0,165
-479,591	-80,171	-0,109	0,027
-478,576	800,000	-0,036	-0,079
-477,562	-101,905	-0,053	0,009
-476,547	59,041	0,039	-0,028
-475,532	-200,000	0,001	0,029
-474,518	-148,261	-0,057	-0,003
-473,503	-200,000	0,004	0,035
-472,489	210,684	0,017	0,020
-471,474	800,000	0,024	0,072
-470,459	44,797	-0,055	-0,038
-469,445	-166,378	-0,049	-0,001
-468,430	329,076	0,032	-0,046
-467,416	-70,703	-0,145	-0,040
-466,401	170,044	0,079	0,083
-465,386	-200,000	-0,002	0,094
-464,372	714,364	-0,023	-0,044
-463,357	-200,000	-0,010	-0,116
-462,343	-200,000	0,034	-0,120
-461,328	453,183	-0,035	-0,058
-460,313	180,423	0,059	0,064
-459,299	3,197	0,081	-0,043
-458,284	218,317	-0,032	-0,038
-457,270	-22,441	0,059	0,026
-456,255	-109,919	-0,111	0,017
-455,241	0,945	0,087	-0,046
-454,226	297,753	-0,021	-0,029
-453,211	89,217	-0,100	-0,082
-452,197	-74,593	0,054	-0,014
-451,182	-92,084	0,028	-0,006
-450,168	-200,000	0,006	-0,071
-449,153	-113,723	-0,162	0,023
-448,138	-200,000	-0,023	0,104
-447,124	-132,167	-0,045	0,004
-446,109	36,755	-0,037	0,024
-445,095	302,000	0,034	0,046
-444,080	-200,000	0,039	0,194
-443,065	380,736	0,089	0,134
-442,051	596,482	0,029	0,053
-441,036	-105,621	-0,084	0,014
-440,022	316,201	-0,140	-0,194
-439,007	467,086	-0,005	0,009
-437,992	155,060	-0,069	0,070
-436,978	-200,000	-0,005	0,019
-435,963	-200,000	-0,004	0,061
-434,949	-165,220	0,071	-0,002
-433,934	-44,816	0,043	-0,016
-432,919	-5,381	-0,059	0,030
-431,905	124,202	-0,060	0,056
-430,890	-200,000	0,014	0,111
-429,876	-18,175	0,065	0,030
-428,861	-200,000	-0,025	0,104
-427,846	-72,624	-0,018	0,005
-426,832	223,396	-0,023	0,028
-425,817	189,854	0,058	-0,064
-424,803	-87,995	0,061	-0,013
-423,788	-53,727	0,087	-0,029
-422,773	800,000	-0,036	0,098
-421,759	206,485	0,097	-0,112
-420,744	438,679	0,093	0,150
-419,730	-200,000	0,022	-0,109
-418,715	-104,368	-0,079	0,013
-417,701	-89,083	-0,039	-0,008
-416,686	126,146	0,020	0,018
-415,671	-200,000	0,010	-0,116
-414,657	-200,000	-0,045	0,169
-413,642	-43,666	0,070	0,026
-412,628	-58,314	-0,037	-0,012
-411,613	-14,891	-0,074	0,035
-410,598	660,113	0,041	0,078
-409,584	800,000	-0,036	-0,087
-408,569	-30,760	-0,056	0,023
-407,555	-200,000	0,005	0,123
-406,540	238,461	-0,042	0,052
-405,525	-116,001	-0,121	-0,016
-404,511	-1,385	-0,052	-0,027
-403,496	-200,000	0,032	-0,116
-402,482	137,021	-0,026	0,025
-401,467	800,000	-0,020	-0,049
-400,452	206,984	-0,066	0,076
-399,438	-70,789	-0,044	0,012
-398,423	-19,097	0,016	-0,007
-397,409	-200,000	0,001	0,060
-396,394	49,766	0,017	-0,012
-395,379	-200,000	0,020	0,099
-394,365	647,418	0,034	0,064
-393,350	1,545	-0,049	0,026
-392,336	115,502	-0,042	-0,038
-391,321	-120,636	-0,190	0,023
-390,306	-39,157	-0,085	-0,032
-389,292	800,000	-0,032	-0,081
-388,277	674,785	0,047	-0,090
-387,263	-89,948	0,056	0,012
-386,248	143,580	0,063	0,062
-385,233	363,581	0,063	0,093
-384,219	-126,344	-0,025	-0,003
-383,204	-200,000	-0,019	0,110
-382,190	800,000	-0,011	0,025
-381,175	127,448	-0,094	0,088
-380,160	-138,393	0,183	0,015
-379,146	-200,000	-0,017	0,113
-378,131	223,872	0,085	0,101
-377,117	800,000	-0,022	0,053
-376,102	-66,523	-0,014	-0,004
-375,088	-200,000	-0,001	-0,023
-374,073	245,072	0,041	-0,050
-373,058	-164,537	-0,147	0,005
-372,044	26,416	-0,041	-0,025
-371,029	-200,000	0,018	0,096
-370,015	-200,000	-0,013	0,080
-369,000	-132,943	-0,185	0,017
-367,985	236,196	-0,062	-0,075
-366,971	-200,000	-0,013	0,106
-365,956	100,443	0,071	0,060
-364,942	89,632	0,068	0,056
-363,927	-200,000	0,022	0,097
-362,912	107,515	0,072	0,062
-361,898	-62,578	0,118	-0,036
-360,883	-15,707	0,038	-0,018
-359,869	198,450	0,040	0,044
-358,854	800,000	-0,030	-0,077
-357,839	85,230	0,106	0,085
-356,825	800,000	0,033	0,090
-355,810	-178,390	0,083	-0,001
-354,796	-65,611	0,080	-0,023
-353,781	800,000	-0,015	-0,042
-352,766	125,609	-0,100	-0,093
-351,752	-200,000	0,000	-0,053
-350,737	-122,781	0,196	0,023
-349,723	382,667	0,029	0,043
-348,708	159,140	0,069	0,070
-347,693	-99,289	0,188	0,034
-346,679	175,942	-0,066	-0,071
-345,664	-28,255	0,047	0,020
-344,650	-106,720	-0,043	0,007
-343,635	536,756	0,105	0,183
-342,620	800,000	0,060	0,153
-341,606	200,865	0,073	-0,082
-340,591	800,000	-0,006	0,012
-339,577	800,000	-0,024	-0,066
-338,562	120,132	-0,115	-0,105
-337,548	-200,000	-0,006	0,061
-336,533	-55,006	-0,056	-0,018
-335,518	97,545	-0,066	0,056
-334,504	-200,000	-0,000	0,089
-333,489	-56,734	-0,055	0,018
-332,475	542,913	0,047	-0,083
-331,460	313,833	-0,105	-0,144
-330,445	81,480	0,026	-0,021
-329,431	-200,000	-0,006	-0,021
-328,416	351,240	0,092	0,133
-327,402	19,768	-0,101	0,059
-326,387	-80,591	0,097	-0,023
-325,372	28,670	-0,077	0,048
-324,358	-76,809	-0,134	-0,034
-323,343	197,661	0,112	-0,125
-322,329	40,960	0,075	0,049
-321,314	66,528	0,149	0,111
-320,299	-76,755	-0,153	0,039
-319,285	-102,032	-0,022	0,004
-318,270	25,383	-0,120	0,073
-317,256	234,582	-0,078	-0,094
-316,241	121,766	-0,076	-0,069
-315,226	212,076	0,001	-0,001
-314,212	800,000	0,022	0,058
-313,197	100,196	-0,064	0,054
-312,183	-200,000	-0,002	-0,114
-311,168	114,799	-0,113	-0,101
-310,153	238,882	0,040	-0,048
-309,139	800,000	0,056	-0,151
-308,124	-71,776	0,106	0,029
-307,110	-200,000	-0,017	-0,061
-306,095	-52,842	0,133	0,044
-305,080	-200,000	0,002	-0,148
-304,066	32,364	0,061	-0,038
-303,051	-128,731	0,025	-0,003
-302,037	96,036	-0,091	0,076
-301,022	192,675	-0,005	0,006
-300,008	-135,824	0,069	-0,006
-298,993	-200,000	-0,010	-0,081
-297,978	-200,000	-0,051	-0,181
-296,964	-32,954	0,056	0,023
-295,949	309,909	-0,135	-0,185
-294,935	394,952	-0,065	-0,099
-293,920	-52,446	0,031	-0,010
-292,905	127,080	-0,043	-0,040
-291,891	517,765	0,075	0,130
-290,876	800,000	-0,036	0,088
-289,862	-113,559	0,142	-0,020
-288,847	-4,443	-0,067	0,034
-287,832	-200,000	-0,019	-0,151
-286,818	-46,643	0,062	0,022
-285,803	575,844	0,039	0,070
-284,789	800,000	0,044	0,107
-283,774	285,861	-0,075	0,099
-282,759	315,744	0,042	0,058
-281,745	435,490	0,029	0,046
-280,730	51,857	-0,057	-0,039
-279,716	-45,921	0,147	0,053
-278,701	251,621	0,093	-0,116
-277,686	-200,000	-0,026	0,118
-276,672	-22,024	0,150	0,066
-275,657	-84,728	0,124	-0,028
-274,643	88,897	-0,052	0,042
-273,628	153,997	-0,025	0,025
-272,613	-85,936	-0,028	0,006
-271,599	-42,312	-0,064	0,024
-270,584	90,454	-0,111	0,091
-269,570	-200,000	0,004	0,063
-268,555	-13,273	-0,079	-0,037
-267,540	800,000	-0,047	-0,098
-266,526	-200,000	-0,024	-0,108
-265,511	-200,000	-0,000	0,015
-264,497	-135,117	0,127	-0,011
-263,482	-64,590	0,054	-0,016
-262,467	-200,000	0,014	0,099
-261,453	212,954	0,111	0,129
-260,438	455,099	-0,038	-0,062
-259,424	248,485	-0,056	-0,069
-258,409	164,874	-0,055	-0,057
-257,395	-200,000	0,007	0,118
-256,380	260,779	0,085	0,108
-255,365	-200,000	0,039	0,145
-254,351	62,378	-0,034	0,025
-253,336	132,853	-0,072	-0,068
-252,322	639,036	-0,032	0,060
-251,307	-63,455	0,034	-0,010
-250,292	152,327	0,046	-0,045
-249,278	148,064	0,085	0,083
-248,263	13,663	0,153	-0,087
-247,249	93,008	0,088	-0,073
-246,234	-200,000	0,008	-0,030
-245,219	550,356	-0,024	0,042
-244,205	800,000	-0,043	-0,093
-243,190	636,604	0,084	0,156
-242,176	-111,427	-0,059	-0,009
-241,161	-108,570	0,092	-0,014
-240,146	-200,000	0,018	-0,072
-239,132	70,687	-0,028	-0,021
-238,117	-78,873	-0,101	-0,025
-237,103	231,901	0,069	-0,083
-236,088	-3,253	-0,088	-0,044
-235,073	-151,897	0,116	-0,006
-234,059	-157,974	-0,118	0,005
-233,044	28,293	0,079	0,049
-232,030	13,958	0,061	0,034
-231,015	-200,000	-0,018	-0,091
-230,000	-200,000	0,000	-0,097
-228,986	-112,398	0,056	0,008
-227,971	-200,000	0,020	0,078
-226,957	482,883	-0,062	0,103
-225,942	800,000	-0,028	-0,079
-224,927	66,277	0,082	-0,061
-223,913	-162,558	-0,092	0,003
-222,898	-200,000	-0,010	-0,041
-221,884	-200,000	0,024	-0,111
-220,869	800,000	-0,067	0,153
-219,855	-8,481	0,121	-0,059
-218,840	402,836	-0,043	0,066
-217,825	131,493	-0,029	0,027
-216,811	-60,463	-0,065	-0,020
-215,796	717,112	-0,067	-0,131
-214,782	-67,095	-0,080	0,023
-213,767	-145,363	0,077	0,005
-212,752	800,000	-0,016	0,034
-211,738	-200,000	-0,022	0,072
-210,723	-53,924	0,041	0,013
-209,709	343,562	-0,087	0,125
-208,694	-99,913	-0,073	-0,013
-207,679	800,000	0,033	-0,105
-206,665	-67,167	0,121	0,034
-205,650	120,753	-0,014	-0,013
-204,636	-151,465	-0,042	-0,002
-203,621	71,991	-0,066	0,050
-202,606	800,000	0,013	0,027
-201,592	106,486	-0,116	-0,100
-200,577	267,625	0,044	0,056
-199,563	313,880	0,052	0,071
-198,548	128,686	0,146	0,136
-197,533	-160,450	0,143	-0,005
-196,519	129,970	0,058	0,054
-195,504	-200,000	0,009	-0,094
-194,490	-200,000	-0,030	-0,160
-193,475	-200,000	-0,012	0,087
-192,460	18,735	0,124	-0,072
-191,446	800,000	-0,046	0,117
-190,431	-117,294	0,055	-0,007
-189,417	36,849	-0,058	-0,037
-188,402	302,697	-0,034	0,046
-187,387	-127,086	-0,083	0,009
-186,373	238,821	-0,052	-0,063
-185,358	-11,739	0,034	0,016
-184,344	-121,393	0,105	0,013
-183,329	164,276	0,073	0,075
-182,315	-200,000	-0,001	0,081
-181,300	-200,000	0,005	-0,127
-180,285	292,096	-0,091	0,121
-179,271	800,000	-0,008	-0,024
-178,256	-200,000	-0,001	-0,053
-177,242	800,000	0,007	-0,019
-176,227	-200,000	0,010	0,145
-175,212	-200,000	0,043	0,269
-174,198	37,839	0,015	0,010
-173,183	-113,014	-0,025	-0,004
-172,169	37,753	-0,050	-0,032
-171,154	512,709	-0,077	-0,131
-170,139	-200,000	0,000	-0,022
-169,125	-200,000	0,009	-0,124
-168,110	-84,315	-0,101	0,023
-167,096	-38,116	0,159	0,061
-166,081	20,717	-0,030	-0,017
-165,066	17,805	0,053	-0,031
-164,052	-52,989	0,093	0,031
-163,037	-26,648	-0,058	-0,025
-162,023	-103,394	0,040	0,007
-161,008	-3,376	0,036	0,018
-159,993	800,000	0,038	-0,099
-158,979	-200,000	-0,001	-0,065
-157,964	-200,000	-0,017	-0,087
-156,950	800,000	0,025	0,066
-155,935	800,000	-0,042	-0,100
-154,920	800,000	-0,036	0,087
-153,906	717,877	-0,024	-0,046
-152,891	800,000	0,049	-0,111
-151,877	66,519	0,054	-0,040
-150,862	20,859	-0,017	-0,010
-149,847	-200,000	0,002	-0,017
-148,833	327,073	0,021	-0,030
-147,818	-28,746	0,101	0,042
-146,804	-131,965	0,064	-0,006
-145,789	416,765	0,042	0,065
-144,775	731,056	-0,054	-0,106
-143,760	-59,964	-0,079	-0,024
-142,745	-52,119	0,095	-0,032
-141,731	332,302	0,048	0,068
-140,716	5,253	0,067	0,036
-139,702	-200,000	-0,009	0,088
-138,687	-26,096	0,099	-0,042
-137,672	-200,000	0,018	0,087
-136,658	35,439	-0,090	0,057
-135,643	-200,000	0,019	-0,116
-134,629	1,096	-0,075	0,039
-133,614	112,796	0,067	0,059
-132,599	800,000	-0,036	0,107
-131,585	800,000	0,104	0,258
-130,570	-200,000	-0,018	0,062
-129,556	-200,000	-0,027	-0,142
-128,541	800,000	-0,032	0,074
-127,526	-200,000	0,011	-0,069
-126,512	-200,000	-0,000	0,088
-125,497	-200,000	-0,001	0,014
-124,483	-144,239	-0,050	0,003
-123,468	543,072	0,070	0,121
-122,453	800,000	-0,085	-0,176
-121,439	800,000	-0,013	-0,040
-120,424	-200,000	0,025	-0,087
-119,410	-177,933	0,061	-0,001
