DTS Sentinel unit serial number:	SN410029Multiplexer serial number:	ORYXHardware model number:	OX2-SRSoftware version number:	ORYX F/W v4,00 Oryx Data Collector v3.7.2.0data status	okinstallation	B4 Nyhavnadifferential loss correction	single-endedforward channel	channel 2reverse channel	N/Adate	2023/12/18time	20:45:13forward acquisition time	300,00reverse acquisition time	0,00gamma	499,1914k internal	0,3123k external	0,3123temperature offset calibration	1,0000default loss term (dB/km)	0,3820temperature slope calibration	1,0000multiplexer offset coefficient	1,0000multiplexer slope coefficient	1,0000fibre end	0,00T internal ref (°C)	21,85T ext. ref 1 (°C)	7,07T ext. ref 2 (°C)	7,00length (m)	temperature (°C)	Stokes	anti-Stokes-744,400	150,500	0,109	-0,110
-743,385	-125,844	-0,290	0,032
-742,371	217,585	0,022	-0,026
-741,356	33,659	-0,123	0,079
-740,342	-108,584	0,196	-0,031
-739,327	-200,000	-0,275	-0,001
-738,312	-117,063	0,061	0,008
-737,298	-154,131	-0,340	0,017
-736,283	295,187	-0,072	-0,099
-735,269	800,000	-0,075	0,194
-734,254	35,050	0,091	0,060
-733,239	-19,080	-0,430	-0,198
-732,225	-200,000	0,004	0,036
-731,210	177,660	-0,047	0,051
-730,196	-16,538	0,078	-0,037
-729,181	-200,000	0,017	-0,062
-728,167	-20,821	0,048	-0,022
-727,152	-200,000	-0,010	-0,036
-726,137	31,011	-0,019	0,012
-725,123	28,699	-0,076	-0,048
-724,108	-95,739	-0,053	0,011
-723,094	47,568	-0,168	-0,117
-722,079	800,000	-0,035	-0,087
-721,064	-153,281	0,152	-0,008
-720,050	95,970	-0,069	0,058
-719,035	-200,000	-0,008	-0,061
-718,021	800,000	-0,024	-0,080
-717,006	266,338	0,031	-0,041
-715,991	-37,910	-0,172	-0,068
-714,977	-200,000	-0,015	-0,127
-713,962	-51,531	-0,055	-0,019
-712,948	610,971	0,051	-0,095
-711,933	75,978	0,100	0,079
-710,918	-200,000	-0,010	0,132
-709,904	800,000	-0,037	-0,088
-708,889	99,599	-0,039	-0,034
-707,875	-26,744	-0,070	0,030
-706,860	509,752	0,042	0,074
-705,845	430,339	0,121	-0,195
-704,831	41,440	-0,070	0,047
-703,816	-50,223	0,040	-0,014
-702,802	-200,000	-0,004	-0,033
-701,787	-157,374	-0,153	0,007
-700,772	639,243	-0,047	-0,089
-699,758	90,123	-0,084	0,070
-698,743	-20,241	0,105	-0,048
-697,729	-12,016	-0,052	0,025
-696,714	800,000	0,011	0,033
-695,699	-22,354	-0,116	-0,052
-694,685	-121,918	0,091	0,011
-693,670	800,000	-0,058	-0,123
-692,656	287,613	0,068	-0,092
-691,641	435,446	-0,100	-0,162
-690,627	-200,000	-0,002	0,104
-689,612	800,000	0,031	-0,092
-688,597	-11,299	-0,034	-0,017
-687,583	-68,335	-0,053	0,015
-686,568	135,768	-0,145	0,141
-685,554	-200,000	-0,008	-0,039
-684,539	-200,000	-0,014	-0,045
-683,524	-200,000	-0,021	0,122
-682,510	-48,135	-0,078	-0,028
-681,495	-73,759	0,068	0,018
-680,481	171,140	-0,062	-0,066
-679,466	-124,222	-0,083	-0,010
-678,451	-132,953	0,044	0,004
-677,437	574,994	-0,040	-0,072
-676,422	-200,000	0,018	0,121
-675,408	187,783	0,008	0,008
-674,393	-69,634	-0,157	-0,044
-673,378	14,720	-0,102	-0,059
-672,364	366,947	0,077	-0,116
-671,349	570,851	0,063	0,115
-670,335	239,001	-0,038	0,048
-669,320	52,906	-0,083	0,059
-668,305	442,661	0,046	-0,075
-667,291	728,197	-0,039	0,078
-666,276	-147,605	-0,184	0,011
-665,262	-54,699	-0,109	-0,036
-664,247	-114,184	-0,055	-0,008
-663,232	208,555	-0,070	0,082
-662,218	34,107	0,019	0,013
-661,203	-89,041	-0,093	0,020
-660,189	109,808	-0,123	0,109
-659,174	-24,652	-0,159	0,070
-658,159	-200,000	-0,005	-0,016
-657,145	371,232	-0,052	-0,079
-656,130	37,478	0,098	-0,064
-655,116	-2,934	0,053	-0,028
-654,101	-200,000	-0,023	0,101
-653,086	100,581	0,094	0,081
-652,072	-200,000	0,012	0,060
-651,057	800,000	0,025	0,064
-650,043	43,843	-0,088	-0,060
-649,028	330,655	0,018	-0,026
-648,014	-96,035	-0,135	0,026
-646,999	-125,970	0,178	0,020
-645,984	569,842	-0,051	-0,093
-644,970	3,989	-0,049	0,026
-643,955	349,550	-0,031	-0,046
-642,941	-200,000	-0,001	-0,079
-641,926	-39,069	0,064	0,025
-640,911	-200,000	0,007	-0,034
-639,897	284,338	-0,050	-0,067
-638,882	52,816	0,024	0,017
-637,868	-143,349	0,033	0,002
-636,853	-110,437	-0,095	-0,015
-635,838	800,000	-0,023	0,057
-634,824	162,181	-0,016	-0,017
-633,809	-174,958	0,134	0,003
-632,795	78,120	0,095	-0,075
-631,780	55,648	0,177	-0,127
-630,765	-84,705	-0,084	-0,019
-629,751	225,046	-0,097	0,116
-628,736	-200,000	0,020	-0,134
-627,722	45,369	-0,100	0,069
-626,707	800,000	0,054	-0,150
-625,692	-200,000	-0,009	0,066
-624,678	-200,000	-0,019	-0,121
-623,663	-200,000	-0,021	-0,155
-622,649	-146,080	-0,128	0,008
-621,634	800,000	-0,025	-0,069
-620,619	-92,984	-0,099	0,020
-619,605	18,013	0,037	-0,022
-618,590	-200,000	-0,017	-0,154
-617,576	-112,958	-0,105	0,015
-616,561	-200,000	0,007	-0,219
-615,546	-105,949	-0,129	-0,021
-614,532	213,218	0,077	-0,090
-613,517	-200,000	-0,007	0,041
-612,503	-200,000	0,020	0,131
-611,488	800,000	-0,010	-0,031
-610,474	262,113	-0,026	0,034
-609,459	-200,000	0,001	-0,012
-608,444	-200,000	0,003	0,012
-607,430	-169,907	-0,133	0,003
-606,415	-13,721	0,012	0,006
-605,401	671,587	-0,050	-0,097
-604,386	224,613	-0,069	0,083
-603,371	-163,680	0,069	-0,002
-602,357	404,476	0,036	0,057
-601,342	347,380	0,026	-0,038
-600,328	757,422	-0,099	-0,200
-599,313	-200,000	0,008	-0,171
-598,298	-158,430	-0,043	-0,002
-597,284	-79,196	-0,043	-0,011
-596,269	-20,847	-0,030	0,014
-595,255	-159,501	-0,027	0,001
-594,240	-98,150	-0,056	-0,011
-593,225	-65,844	0,044	-0,013
-592,211	-52,962	-0,042	0,014
-591,196	191,249	0,097	-0,109
-590,182	-159,379	-0,220	-0,009
-589,167	154,113	-0,068	-0,069
-588,152	-11,904	0,104	0,050
-587,138	30,615	-0,001	-0,001
-586,123	-112,398	-0,045	0,007
-585,109	-200,000	0,006	0,029
-584,094	26,699	-0,204	-0,126
-583,079	-200,000	-0,017	-0,056
-582,065	114,553	0,014	0,012
-581,050	717,287	-0,068	0,134
-580,036	45,501	0,103	-0,071
-579,021	-200,000	0,000	-0,084
-578,006	97,901	0,111	-0,094
-576,992	-116,503	-0,240	0,032
-575,977	-200,000	-0,013	0,053
-574,963	-200,000	0,032	0,111
-573,948	544,943	-0,031	-0,055
-572,934	107,006	0,047	0,041
-571,919	63,824	-0,139	-0,103
-570,904	329,775	-0,093	-0,132
-569,890	-200,000	-0,006	-0,049
-568,875	-200,000	-0,001	0,043
-567,861	-32,467	-0,066	0,027
-566,846	-200,000	0,009	-0,050
-565,831	-84,552	-0,057	0,013
-564,817	159,741	0,103	-0,107
-563,802	-200,000	0,007	-0,041
-562,788	-200,000	0,009	-0,035
-561,773	51,961	0,101	-0,071
-560,758	-200,000	-0,006	0,068
-559,744	126,646	0,069	-0,065
-558,729	800,000	-0,046	0,125
-557,715	-200,000	0,017	0,211
-556,700	111,396	0,094	0,083
-555,685	-157,870	-0,147	-0,006
-554,671	-116,260	0,084	-0,011
-553,656	124,218	0,067	0,062
-552,642	-200,000	-0,019	0,069
-551,627	35,071	0,031	0,020
-550,612	165,318	0,059	-0,062
-549,598	12,818	-0,190	-0,108
-548,583	-137,733	-0,152	-0,012
-547,569	-122,393	-0,099	-0,012
-546,554	800,000	0,016	-0,041
-545,539	-200,000	0,042	0,137
-544,525	35,412	0,053	-0,034
-543,510	47,182	0,101	0,069
-542,496	-200,000	-0,002	0,095
-541,481	-10,428	0,043	-0,021
-540,466	67,254	-0,142	-0,107
-539,452	158,002	-0,071	0,073
-538,437	-200,000	-0,004	0,039
-537,423	-108,106	-0,088	-0,014
-536,408	158,268	0,033	-0,034
-535,393	-51,558	-0,120	-0,041
-534,379	258,544	-0,043	0,055
-533,364	-200,000	-0,005	0,036
-532,350	-50,725	-0,066	-0,023
-531,335	-200,000	0,027	0,097
-530,321	163,479	0,108	0,113
-529,306	623,073	0,013	0,025
-528,291	-103,068	-0,072	-0,013
-527,277	-107,076	-0,089	-0,014
-526,262	-92,188	-0,079	-0,016
-525,248	800,000	-0,026	-0,070
-524,233	-200,000	-0,050	0,000
-523,218	-10,791	0,113	0,055
-522,204	-85,919	-0,056	-0,013
-521,189	-77,774	0,013	0,003
-520,175	-200,000	-0,014	-0,098
-519,160	800,000	-0,053	-0,137
-518,145	549,312	0,048	-0,085
-517,131	-200,000	-0,000	0,222
-516,116	-200,000	0,014	0,125
-515,102	-129,112	0,035	-0,004
-514,087	-200,000	0,004	-0,091
-513,072	415,222	0,040	-0,063
-512,058	-162,763	-0,137	-0,005
-511,043	-200,000	-0,013	0,111
-510,029	-37,351	0,184	-0,072
-509,014	-200,000	0,003	0,080
-507,999	800,000	0,039	-0,102
-506,985	-200,000	-0,004	0,019
-505,970	255,218	-0,045	0,057
-504,956	-117,855	-0,113	-0,015
-503,941	785,691	0,014	-0,028
-502,926	-200,000	0,009	0,056
-501,912	-30,749	0,040	0,017
-500,897	-99,055	-0,078	0,014
-499,883	-92,831	-0,038	-0,008
-498,868	94,962	-0,071	0,060
-497,853	207,432	0,085	0,098
-496,839	-54,853	-0,057	0,019
-495,824	800,000	-0,055	0,177
-494,810	18,440	0,069	0,040
-493,795	341,679	0,064	-0,092
-492,781	-33,856	0,030	0,012
-491,766	800,000	0,027	-0,088
-490,751	800,000	-0,026	-0,074
-489,737	-194,746	0,041	0,000
-488,722	-54,930	-0,160	0,053
-487,708	-200,000	0,122	0,000
-486,693	800,000	0,053	0,126
-485,678	-85,779	0,025	0,006
-484,664	238,328	0,079	0,097
-483,649	-136,434	0,058	0,005
-482,635	-200,000	0,005	0,089
-481,620	-17,864	-0,041	0,019
-480,605	-1,658	0,093	0,048
-479,591	-200,000	-0,014	-0,069
-478,576	800,000	-0,013	0,034
-477,562	491,250	-0,064	-0,108
-476,547	800,000	0,016	0,038
-475,532	13,229	0,056	-0,032
-474,518	-134,757	-0,126	0,011
-473,503	-131,212	0,153	-0,015
-472,489	103,936	0,041	0,035
-471,474	617,304	0,026	-0,048
-470,459	-200,000	-0,014	0,046
-469,445	-200,000	-0,008	-0,061
-468,430	78,089	0,060	-0,047
-467,416	-36,248	0,071	0,028
-466,401	-200,000	-0,052	0,183
-465,386	800,000	0,023	0,065
-464,372	26,834	-0,091	-0,056
-463,357	-79,690	-0,085	0,021
-462,343	430,503	0,014	-0,022
-461,328	456,258	0,023	-0,038
-460,313	-107,750	-0,013	0,002
-459,299	-91,460	0,059	-0,012
-458,284	704,370	0,018	0,035
-457,270	371,886	0,065	0,098
-456,255	37,345	0,047	0,031
-455,241	-40,553	0,034	0,013
-454,226	-122,908	0,055	0,006
-453,211	-146,785	-0,043	0,003
-452,197	59,446	0,153	0,111
-451,182	-30,629	-0,075	0,031
-450,168	-17,591	0,173	0,080
-449,153	33,834	-0,127	0,081
-448,138	14,502	-0,109	0,063
-447,124	-200,000	-0,018	0,199
-446,109	-78,248	0,111	0,028
-445,095	-184,209	0,128	0,002
-444,080	-200,000	0,002	0,022
-443,065	800,000	-0,048	0,118
-442,051	208,001	0,044	0,051
-441,036	-200,000	0,005	0,067
-440,022	-200,000	-0,012	0,126
-439,007	-200,000	-0,007	0,168
-437,992	-200,000	-0,033	-0,198
-436,978	94,941	0,075	-0,063
-435,963	-78,787	0,070	-0,017
-434,949	127,645	0,041	0,039
-433,934	268,838	-0,032	-0,041
-432,919	800,000	0,026	-0,054
-431,905	282,956	-0,028	-0,038
-430,890	-200,000	-0,037	0,153
-429,876	238,722	0,109	0,134
-428,861	238,405	-0,024	-0,029
-427,846	-148,049	-0,035	0,002
-426,832	-113,770	-0,167	0,024
-425,817	-200,000	-0,013	0,055
-424,803	-200,000	-0,015	0,129
-423,788	318,291	0,037	0,052
-422,773	87,450	0,071	-0,058
-421,759	-200,000	0,003	0,044
-420,744	382,057	0,047	-0,071
-419,730	-200,000	-0,010	-0,128
-418,715	-52,424	-0,120	-0,041
-417,701	800,000	-0,072	-0,200
-416,686	332,630	0,088	-0,126
-415,671	31,288	-0,058	0,037
-414,657	316,446	-0,055	0,077
-413,642	110,725	0,073	-0,065
-412,628	-200,000	0,021	0,074
-411,613	-30,907	-0,028	-0,011
-410,598	-103,005	-0,128	0,022
-409,584	-167,377	0,128	0,004
-408,569	-200,000	0,011	0,052
-407,555	-85,784	0,083	0,019
-406,540	80,532	0,074	0,059
-405,525	6,271	-0,089	-0,049
-404,511	-90,413	-0,190	0,040
-403,496	-11,152	0,084	-0,041
-402,482	800,000	-0,038	0,083
-401,467	14,331	-0,016	0,009
-400,452	239,346	0,042	-0,051
-399,438	92,210	-0,045	-0,037
-398,423	152,540	-0,034	-0,034
-397,409	800,000	0,057	-0,118
-396,394	-68,198	0,177	-0,050
-395,379	73,251	0,093	-0,071
-394,365	-48,616	0,028	-0,010
-393,350	-96,307	0,043	-0,008
-392,336	800,000	-0,025	-0,051
-391,321	-100,361	-0,073	0,013
-390,306	-200,000	-0,012	0,150
-389,292	-24,300	-0,024	-0,010
-388,277	800,000	-0,060	-0,142
-387,263	-200,000	0,002	0,012
-386,248	800,000	0,036	0,114
-385,233	800,000	-0,048	0,142
-384,219	-200,000	-0,034	0,119
-383,204	800,000	-0,015	-0,031
-382,190	-72,170	0,100	0,027
-381,175	-24,836	-0,249	-0,108
-380,160	-59,711	0,138	-0,043
-379,146	-200,000	0,013	0,082
-378,131	-58,237	0,167	0,053
-377,117	800,000	0,056	-0,181
-376,102	314,675	-0,067	-0,093
-375,088	-200,000	0,009	0,047
-374,073	800,000	0,009	0,024
-373,058	669,583	0,061	0,117
-372,044	46,904	-0,121	0,083
-371,029	-200,000	0,016	-0,059
-370,015	364,450	-0,055	-0,082
-369,000	-200,000	0,003	-0,083
-367,985	28,371	-0,116	-0,072
-366,971	800,000	-0,057	-0,126
-365,956	190,169	0,068	0,075
-364,942	29,886	0,057	-0,036
-363,927	121,977	0,093	0,085
-362,912	288,709	-0,057	0,076
-361,898	-45,799	-0,047	0,017
-360,883	-58,682	-0,146	0,046
-359,869	-103,183	0,105	-0,018
-358,854	-115,783	0,028	-0,004
-357,839	-200,000	-0,024	0,090
-356,825	800,000	-0,053	0,119
-355,810	-163,150	0,022	0,001
-354,796	-11,551	-0,053	0,025
-353,781	95,787	-0,045	-0,038
-352,766	-200,000	0,007	0,048
-351,752	218,539	-0,056	-0,065
-350,737	-200,000	-0,012	0,046
-349,723	-194,407	0,116	0,001
-348,708	-200,000	0,005	0,071
-347,693	94,096	-0,146	0,122
-346,679	401,813	-0,071	-0,109
-345,664	458,444	0,020	-0,032
-344,650	800,000	0,029	0,062
-343,635	-200,000	0,006	-0,075
-342,620	-200,000	0,013	-0,059
-341,606	-200,000	0,014	0,065
-340,591	800,000	-0,013	-0,039
-339,577	16,651	-0,041	-0,024
-338,562	18,965	-0,088	0,051
-337,548	800,000	-0,042	-0,087
-336,533	-68,082	0,099	-0,028
-335,518	-200,000	-0,017	-0,062
-334,504	-123,617	0,082	0,009
-333,489	800,000	-0,038	0,119
-332,475	139,511	0,035	-0,033
-331,460	-161,869	0,060	0,002
-330,445	85,217	0,094	-0,075
-329,431	242,563	0,041	0,050
-328,416	-11,184	0,118	-0,057
-327,402	-102,046	0,086	0,015
-326,387	800,000	-0,013	-0,038
-325,372	330,900	-0,106	-0,150
-324,358	48,443	-0,134	-0,092
-323,343	-200,000	0,034	0,122
-322,329	-52,244	0,043	0,014
-321,314	-108,433	0,163	0,025
-320,299	254,554	-0,085	-0,106
-319,285	114,023	0,095	0,085
-318,270	598,793	0,049	-0,089
-317,256	5,288	0,015	0,008
-316,241	-200,000	0,019	0,130
-315,226	-200,000	0,009	-0,072
-314,212	-18,102	0,126	0,057
-313,197	-200,000	0,019	0,080
-312,183	81,760	-0,036	0,029
-311,168	0,185	-0,064	0,033
-310,153	-82,193	-0,196	-0,046
-309,139	-62,721	-0,133	-0,040
-308,124	0,131	-0,109	-0,057
-307,110	257,522	-0,076	0,095
-306,095	-163,027	0,178	0,006
-305,080	-200,000	-0,001	-0,075
-304,066	774,224	0,019	-0,039
-303,051	-200,000	0,004	0,110
-302,037	155,288	-0,060	0,061
-301,022	-108,261	-0,123	-0,019
-300,008	478,233	0,078	0,130
-298,993	-200,000	0,013	-0,077
-297,978	448,570	-0,075	0,121
-296,964	-200,000	-0,014	-0,070
-295,949	121,358	-0,081	0,074
-294,935	-39,616	-0,129	-0,049
-293,920	-24,226	-0,073	-0,032
-292,905	429,000	0,024	0,038
-291,891	-200,000	-0,008	0,047
-290,876	-200,000	-0,004	0,056
-289,862	40,888	-0,085	-0,056
-288,847	94,483	0,135	-0,112
-287,832	-16,385	0,184	-0,085
-286,818	-200,000	-0,004	0,045
-285,803	800,000	-0,028	0,075
-284,789	-71,043	0,103	-0,028
-283,774	-200,000	0,008	0,071
-282,759	123,729	0,044	-0,040
-281,745	-27,995	0,117	-0,049
-280,730	-134,232	-0,115	-0,010
-279,716	-5,484	-0,020	0,010
-278,701	800,000	-0,037	-0,085
-277,686	-159,228	0,124	0,005
-276,672	64,674	0,067	0,050
-275,657	136,335	-0,070	0,066
-274,643	-200,000	0,009	-0,059
-273,628	-107,093	-0,057	0,009
-272,613	-3,165	0,174	0,089
-271,599	-200,000	0,026	0,110
-270,584	-126,861	0,097	0,010
-269,570	-47,860	0,096	-0,034
-268,555	-200,000	0,004	0,132
-267,540	800,000	0,036	0,096
-266,526	-200,000	0,004	-0,021
-265,511	557,542	0,018	0,032
-264,497	111,545	-0,190	0,168
-263,482	800,000	0,048	-0,116
-262,467	32,901	0,054	0,034
-261,453	32,051	0,015	-0,009
-260,438	-200,000	-0,004	0,027
-259,424	92,945	-0,075	0,062
-258,409	4,782	0,072	-0,039
-257,395	800,000	0,014	-0,035
-256,380	84,791	0,063	-0,050
-255,365	776,123	0,071	0,142
-254,351	-200,000	0,032	-0,131
-253,336	-200,000	0,007	-0,022
-252,322	334,729	-0,056	-0,080
-251,307	355,373	0,107	0,155
-250,292	92,741	0,068	0,056
-249,278	-200,000	0,022	-0,073
-248,263	94,599	0,038	0,032
-247,249	-200,000	-0,008	-0,100
-246,234	207,305	-0,086	-0,098
-245,219	139,405	0,038	0,037
-244,205	341,479	0,073	0,104
-243,190	109,010	-0,019	0,017
-242,176	800,000	-0,047	0,113
-241,161	479,626	-0,081	0,134
-240,146	-121,758	-0,120	0,014
-239,132	59,753	0,076	-0,055
-238,117	553,450	-0,056	-0,098
-237,103	800,000	-0,015	0,041
-236,088	314,179	-0,087	0,120
-235,073	-43,607	0,050	0,018
-234,059	-81,666	0,200	0,048
-233,044	-4,424	0,065	0,033
-232,030	16,905	-0,055	-0,032
-231,015	11,585	0,080	-0,045
-230,000	342,273	-0,087	-0,124
-228,986	-200,000	-0,048	-0,223
-227,971	-78,690	0,080	0,020
-226,957	800,000	0,046	-0,103
-225,942	77,991	0,105	0,082
-224,927	-178,220	0,082	-0,001
-223,913	-200,000	-0,028	-0,117
-222,898	-200,000	0,003	-0,085
-221,884	-200,000	0,005	-0,020
-220,869	-200,000	0,016	-0,108
-219,855	47,865	0,200	0,136
-218,840	-200,000	-0,004	0,112
-217,825	393,514	0,016	0,024
-216,811	320,498	-0,012	0,017
-215,796	18,312	0,080	-0,047
-214,782	11,605	-0,053	0,030
-213,767	-149,235	-0,024	-0,001
-212,752	-29,041	0,093	0,039
-211,738	-200,000	0,071	0,000
-210,723	-138,085	-0,047	-0,004
-209,709	125,078	-0,027	0,025
-208,694	-107,357	-0,039	-0,006
-207,679	11,927	-0,082	-0,046
-206,665	-200,000	-0,009	0,065
-205,650	800,000	-0,038	-0,117
-204,636	635,823	-0,021	0,040
-203,621	-200,000	-0,001	0,048
-202,606	46,493	0,058	0,039
-201,592	-200,000	-0,042	-0,238
-200,577	-129,307	-0,092	0,009
-199,563	698,688	0,038	-0,073
-198,548	-87,084	0,067	-0,015
-197,533	38,046	0,070	0,046
-196,519	800,000	0,024	-0,056
-195,504	274,774	-0,097	-0,125
-194,490	-169,456	0,117	0,003
-193,475	-55,288	0,058	0,019
-192,460	-200,000	0,010	0,059
-191,446	-107,661	-0,079	-0,012
-190,431	-129,641	0,116	-0,012
-189,417	-115,974	-0,015	0,002
-188,402	-69,390	-0,004	-0,001
-187,387	38,846	-0,030	-0,020
-186,373	105,841	-0,096	-0,083
-185,358	552,696	-0,042	-0,075
-184,344	-200,000	-0,004	-0,054
-183,329	16,114	-0,025	-0,015
-182,315	-200,000	-0,043	0,158
-181,300	-146,544	0,174	-0,011
-180,285	47,248	-0,020	0,013
-179,271	-200,000	-0,010	-0,066
-178,256	800,000	-0,078	-0,166
-177,242	-26,322	0,031	0,013
-176,227	99,908	0,026	-0,022
-175,212	59,730	0,068	0,049
-174,198	-29,958	0,076	0,031
-173,183	800,000	-0,022	-0,069
-172,169	-2,326	-0,057	-0,029
-171,154	194,650	-0,106	-0,117
-170,139	102,708	0,075	-0,064
-169,125	-200,000	-0,006	0,030
-168,110	-200,000	-0,014	-0,073
-167,096	-200,000	-0,002	-0,066
-166,081	-200,000	0,019	-0,189
-165,066	-82,912	0,139	-0,032
-164,052	593,126	0,060	0,109
-163,037	-64,239	-0,069	0,020
-162,023	-113,852	0,089	-0,012
-161,008	-200,000	-0,016	0,057
-159,993	-165,302	0,081	-0,003
-158,979	800,000	-0,041	0,124
-157,964	-97,801	-0,003	-0,001
-156,950	122,273	-0,016	0,014
-155,935	70,901	-0,058	0,044
-154,920	203,740	-0,038	0,043
-153,906	-200,000	-0,015	0,068
-152,891	-200,000	0,016	0,069
-151,877	800,000	0,031	0,073
-150,862	179,510	0,141	-0,151
-149,847	-19,273	-0,052	-0,023
-148,833	-43,010	-0,078	-0,029
-147,818	800,000	-0,026	0,066
-146,804	140,727	-0,049	0,047
-145,789	325,629	0,076	-0,106
-144,775	-64,876	0,069	-0,020
-143,760	-18,340	-0,212	0,096
-142,745	-104,519	-0,064	0,011
-141,731	287,946	-0,033	0,043
-140,716	-68,880	0,073	-0,020
-139,702	151,642	0,089	0,089
-138,687	-22,223	-0,080	-0,035
-137,672	-200,000	-0,010	-0,055
-136,658	800,000	0,029	-0,067
-135,643	176,866	-0,044	-0,046
-134,629	800,000	-0,058	-0,174
-133,614	147,878	0,120	0,118
-132,599	-30,507	-0,106	0,043
-131,585	16,595	0,101	0,058
-130,570	-200,000	-0,021	-0,196
-129,556	-200,000	0,001	-0,080
-128,541	51,628	-0,133	-0,092
-127,526	-200,000	0,009	0,046
-126,512	254,302	0,069	-0,086
-125,497	-87,395	0,124	-0,027
-124,483	800,000	0,007	0,018
-123,468	638,407	-0,043	-0,081
-122,453	198,884	0,048	-0,053
-121,439	92,540	0,090	0,074
-120,424	-94,666	0,127	0,025
