DTS Sentinel unit serial number:	SN410029Multiplexer serial number:	ORYXHardware model number:	OX2-SRSoftware version number:	ORYX F/W v4,00 Oryx Data Collector v3.7.2.0data status	okinstallation	B4 Nyhavnadifferential loss correction	single-endedforward channel	channel 2reverse channel	N/Adate	2023/12/18time	23:45:13forward acquisition time	300,00reverse acquisition time	0,00gamma	499,1914k internal	0,3124k external	0,3124temperature offset calibration	1,0000default loss term (dB/km)	0,3820temperature slope calibration	1,0000multiplexer offset coefficient	1,0000multiplexer slope coefficient	1,0000fibre end	0,00T internal ref (°C)	22,25T ext. ref 1 (°C)	7,57T ext. ref 2 (°C)	7,63length (m)	temperature (°C)	Stokes	anti-Stokes-744,400	26,972	0,233	-0,145
-743,385	308,011	-0,042	0,059
-742,371	-200,000	-0,010	-0,129
-741,356	-142,787	-0,192	0,014
-740,342	52,429	0,243	-0,173
-739,327	9,948	-0,143	0,081
-738,312	-200,000	0,000	-0,094
-737,298	91,863	-0,246	0,206
-736,283	-89,348	0,122	-0,027
-735,269	132,572	-0,152	0,146
-734,254	800,000	0,044	-0,142
-733,239	-20,218	-0,402	-0,184
-732,225	-32,704	0,179	-0,074
-731,210	-200,000	-0,024	0,105
-730,196	-81,839	-0,055	-0,013
-729,181	-200,000	-0,013	0,149
-728,167	-33,003	-0,093	0,038
-727,152	-55,644	0,054	0,018
-726,137	156,298	-0,063	-0,065
-725,123	-95,166	0,106	0,021
-724,108	383,803	-0,023	-0,035
-723,094	800,000	-0,030	-0,093
-722,079	-200,000	-0,007	-0,118
-721,064	167,177	-0,049	-0,051
-720,050	130,543	-0,118	-0,112
-719,035	-60,685	-0,108	-0,034
-718,021	130,737	-0,060	0,057
-717,006	-137,882	-0,175	-0,014
-715,991	-200,000	-0,013	-0,102
-714,977	800,000	-0,043	-0,093
-713,962	-108,866	-0,101	-0,016
-712,948	-179,785	-0,089	-0,001
-711,933	800,000	0,024	0,073
-710,918	499,574	-0,038	0,066
-709,904	639,418	0,010	-0,019
-708,889	-200,000	-0,014	-0,141
-707,875	192,560	-0,071	-0,080
-706,860	-200,000	0,028	0,110
-705,845	-91,326	0,098	-0,021
-704,831	-18,580	0,075	0,035
-703,816	380,615	0,026	-0,040
-702,802	-102,276	-0,056	0,010
-701,787	800,000	-0,009	-0,019
-700,772	-67,384	-0,136	0,040
-699,758	-41,978	-0,146	-0,055
-698,743	-129,375	0,068	0,007
-697,729	-78,855	0,090	0,023
-696,714	294,731	-0,068	0,092
-695,699	361,476	-0,052	-0,078
-694,685	510,166	0,030	-0,052
-693,670	-59,755	-0,194	0,061
-692,656	-34,249	0,075	-0,030
-691,641	-200,000	-0,017	0,233
-690,627	194,218	0,058	-0,065
-689,612	-200,000	-0,013	-0,151
-688,597	7,401	-0,063	-0,035
-687,583	-62,841	-0,181	-0,055
-686,568	-136,694	0,019	0,002
-685,554	156,745	0,030	-0,031
-684,539	-200,000	0,018	0,165
-683,524	13,360	-0,064	-0,037
-682,510	-200,000	-0,066	0,223
-681,495	-18,583	-0,151	0,070
-680,481	800,000	-0,032	-0,071
-679,466	-48,771	-0,089	-0,031
-678,451	165,062	0,057	0,060
-677,437	800,000	-0,017	-0,047
-676,422	800,000	0,034	0,073
-675,408	177,732	0,066	0,071
-674,393	394,795	-0,047	0,072
-673,378	-200,000	-0,018	0,080
-672,364	-123,655	-0,071	0,008
-671,349	-4,658	-0,170	-0,087
-670,335	-22,814	-0,020	0,009
-669,320	-134,347	0,042	-0,004
-668,305	-200,000	0,019	-0,087
-667,291	-187,973	-0,101	-0,001
-666,276	-200,000	-0,026	-0,102
-665,262	-200,000	-0,007	-0,094
-664,247	800,000	-0,042	-0,112
-663,232	167,923	0,022	-0,024
-662,218	114,266	0,095	0,086
-661,203	-200,000	0,030	-0,130
-660,189	800,000	-0,032	0,101
-659,174	-200,000	0,000	-0,145
-658,159	109,259	-0,107	-0,095
-657,145	-18,936	-0,067	0,031
-656,130	60,336	0,028	0,020
-655,116	-119,732	0,085	0,011
-654,101	760,208	-0,097	0,197
-653,086	460,198	-0,017	0,027
-652,072	-200,000	-0,002	-0,062
-651,057	561,137	-0,053	-0,096
-650,043	154,171	0,049	0,050
-649,028	-200,000	0,000	0,043
-648,014	-103,716	0,120	-0,021
-646,999	-22,106	-0,079	-0,035
-645,984	-51,466	-0,128	-0,044
-644,970	299,770	-0,079	-0,108
-643,955	61,095	-0,070	-0,051
-642,941	32,827	0,031	0,020
-641,926	76,534	-0,066	0,052
-640,911	245,732	0,043	-0,054
-639,897	372,275	0,068	0,103
-638,882	-59,443	0,112	-0,035
-637,868	158,521	0,045	0,046
-636,853	-200,000	-0,011	-0,065
-635,838	800,000	-0,014	-0,038
-634,824	-200,000	-0,009	-0,066
-633,809	19,267	-0,060	0,036
-632,795	-13,650	0,079	0,038
-631,780	706,204	0,062	0,122
-630,765	-63,402	-0,045	0,014
-629,751	-21,475	-0,057	0,025
-628,736	-200,000	0,004	-0,104
-627,722	624,406	-0,072	-0,136
-626,707	800,000	0,028	-0,065
-625,692	800,000	0,028	0,060
-624,678	457,121	-0,014	0,023
-623,663	-200,000	-0,010	-0,125
-622,649	167,246	-0,034	0,036
-621,634	-132,160	0,135	-0,013
-620,619	86,885	0,048	0,039
-619,605	-61,732	-0,073	0,022
-618,590	800,000	0,058	-0,145
-617,576	232,380	0,127	-0,154
-616,561	-200,000	0,002	-0,047
-615,546	236,370	-0,042	0,052
-614,532	-144,669	-0,056	-0,004
-613,517	-200,000	-0,021	-0,139
-612,503	140,143	0,095	-0,093
-611,488	-200,000	0,011	-0,165
-610,474	11,428	0,054	0,031
-609,459	19,300	0,005	0,003
-608,444	104,333	-0,108	-0,094
-607,430	116,769	-0,032	-0,029
-606,415	-147,236	-0,167	0,010
-605,401	76,651	0,062	0,049
-604,386	-200,000	-0,011	0,108
-603,371	-200,000	0,002	0,077
-602,357	-38,214	-0,100	0,039
-601,342	503,767	0,051	-0,087
-600,328	-200,000	0,014	-0,152
-599,313	-32,828	-0,111	-0,045
-598,298	-82,001	-0,091	0,022
-597,284	-32,860	-0,035	0,014
-596,269	105,998	0,031	0,027
-595,255	-200,000	-0,019	0,134
-594,240	-200,000	0,006	0,131
-593,225	48,327	-0,028	0,019
-592,211	258,421	0,015	-0,019
-591,196	55,747	0,019	0,014
-590,182	-146,183	0,080	-0,005
-589,167	-8,393	0,095	-0,047
-588,152	800,000	-0,044	-0,110
-587,138	141,505	0,013	-0,013
-586,123	64,835	-0,103	0,077
-585,109	310,160	-0,083	-0,116
-584,094	-89,494	-0,022	0,005
-583,079	-200,000	-0,008	-0,078
-582,065	321,252	-0,077	-0,108
-581,050	-200,000	0,012	-0,127
-580,036	-200,000	-0,005	0,073
-579,021	440,293	-0,084	-0,136
-578,006	-200,000	0,001	-0,071
-576,992	-200,000	-0,028	-0,119
-575,977	60,940	0,072	-0,053
-574,963	-39,399	0,052	-0,020
-573,948	242,798	0,063	0,078
-572,934	-114,225	-0,135	-0,019
-571,919	800,000	0,030	0,090
-570,904	-13,889	0,089	-0,042
-569,890	800,000	0,037	-0,085
-568,875	-107,852	-0,071	-0,011
-567,861	258,293	0,036	0,046
-566,846	256,455	0,063	0,080
-565,831	388,240	0,045	0,069
-564,817	14,752	0,122	-0,070
-563,802	-76,638	-0,108	-0,028
-562,788	-95,057	-0,083	0,017
-561,773	185,579	0,061	0,067
-560,758	-64,193	-0,073	-0,022
-559,744	-166,809	-0,115	-0,003
-558,729	-200,000	-0,008	0,029
-557,715	-200,000	-0,011	-0,132
-556,700	30,061	-0,100	-0,063
-555,685	-200,000	-0,004	0,082
-554,671	-200,000	-0,009	0,084
-553,656	-200,000	0,039	0,166
-552,642	110,969	-0,042	0,037
-551,627	16,580	0,093	0,054
-550,612	800,000	0,006	-0,017
-549,598	32,471	-0,094	0,060
-548,583	-200,000	0,012	-0,070
-547,569	-200,000	0,023	0,122
-546,554	-69,334	0,054	-0,015
-545,539	408,247	-0,063	-0,099
-544,525	426,882	-0,024	0,039
-543,510	82,514	0,040	-0,032
-542,496	-49,722	-0,013	-0,005
-541,481	153,030	-0,032	-0,032
-540,466	60,935	-0,098	0,072
-539,452	-200,000	0,019	0,091
-538,437	280,623	0,037	-0,049
-537,423	252,236	0,044	-0,055
-536,408	72,361	-0,088	0,068
-535,393	-131,103	-0,050	-0,005
-534,379	153,165	-0,111	0,112
-533,364	310,481	0,119	0,164
-532,350	-128,529	-0,130	-0,013
-531,335	800,000	-0,047	0,106
-530,321	-79,014	-0,113	0,028
-529,306	212,837	0,051	-0,059
-528,291	-178,324	0,058	0,001
-527,277	800,000	-0,010	-0,026
-526,262	-18,879	-0,111	-0,051
-525,248	-62,915	-0,026	-0,008
-524,233	-60,755	0,107	0,033
-523,218	-200,000	-0,002	0,026
-522,204	546,026	0,051	-0,091
-521,189	262,805	0,121	-0,156
-520,175	100,343	-0,057	-0,048
-519,160	-176,570	0,025	0,000
-518,145	364,792	-0,026	0,039
-517,131	-200,000	0,019	0,167
-516,116	503,361	0,047	0,081
-515,102	-200,000	-0,020	0,072
-514,087	229,191	-0,009	-0,011
-513,072	48,233	-0,060	-0,041
-512,058	25,215	-0,049	-0,030
-511,043	-61,353	0,141	0,044
-510,029	-31,894	-0,031	-0,013
-509,014	800,000	-0,070	0,193
-507,999	-200,000	-0,019	0,120
-506,985	-155,499	-0,237	-0,011
-505,970	367,653	-0,055	0,083
-504,956	-200,000	-0,015	-0,097
-503,941	-54,235	0,060	0,020
-502,926	-73,047	0,101	0,027
-501,912	37,715	0,065	0,042
-500,897	-48,948	-0,074	0,026
-499,883	0,657	-0,044	0,023
-498,868	-14,605	0,105	0,050
-497,853	98,846	0,077	-0,066
-496,839	800,000	0,053	-0,119
-495,824	49,303	-0,062	0,043
-494,810	-41,060	0,032	-0,012
-493,795	28,583	-0,059	-0,037
-492,781	-165,408	0,156	-0,005
-491,766	147,620	-0,018	-0,018
-490,751	-131,379	0,138	-0,013
-489,737	-70,650	0,054	0,015
-488,722	-106,869	-0,114	0,018
-487,708	609,884	0,022	-0,041
-486,693	-200,000	-0,014	0,091
-485,678	-200,000	0,022	0,144
-484,664	159,913	-0,125	0,128
-483,649	-34,811	0,058	0,023
-482,635	-80,388	0,042	0,010
-481,620	-104,121	-0,032	-0,005
-480,605	800,000	0,021	-0,047
-479,591	-40,065	-0,088	-0,034
-478,576	800,000	0,023	0,059
-477,562	-200,000	0,004	-0,046
-476,547	231,755	-0,075	-0,091
-475,532	130,534	-0,101	-0,095
-474,518	-78,337	0,098	-0,025
-473,503	-200,000	-0,008	-0,051
-472,489	-69,669	-0,072	0,020
-471,474	800,000	0,066	0,167
-470,459	800,000	-0,036	-0,096
-469,445	-200,000	0,007	-0,073
-468,430	489,008	-0,028	0,047
-467,416	15,130	0,080	0,046
-466,401	-35,622	0,077	0,031
-465,386	800,000	0,072	0,217
-464,372	381,174	-0,033	-0,050
-463,357	800,000	0,020	-0,050
-462,343	800,000	0,033	-0,069
-461,328	132,189	0,052	0,049
-460,313	100,271	-0,116	0,099
-459,299	405,038	-0,079	0,123
-458,284	-19,000	-0,200	0,091
-457,270	399,653	-0,083	0,128
-456,255	286,549	0,086	-0,115
-455,241	-200,000	-0,024	-0,080
-454,226	-200,000	0,022	-0,140
-453,211	-200,000	0,015	0,176
-452,197	800,000	0,042	-0,094
-451,182	51,900	-0,094	0,066
-450,168	115,284	-0,053	0,047
-449,153	35,358	-0,074	0,047
-448,138	433,935	0,008	-0,012
-447,124	9,982	-0,062	0,035
-446,109	-64,937	0,056	0,016
-445,095	-36,605	0,089	0,035
-444,080	-16,511	0,073	-0,034
-443,065	800,000	0,007	-0,020
-442,051	735,817	-0,019	0,038
-441,036	-200,000	0,015	-0,055
-440,022	-64,648	0,068	0,020
-439,007	-21,549	0,139	-0,062
-437,992	800,000	0,041	-0,088
-436,978	-17,144	0,020	0,009
-435,963	-143,864	-0,041	0,003
-434,949	800,000	0,015	-0,040
-433,934	-124,630	-0,095	0,011
-432,919	111,615	0,014	-0,012
-431,905	-55,262	-0,032	-0,011
-430,890	255,794	-0,089	0,113
-429,876	800,000	-0,040	0,092
-428,861	427,755	0,033	0,053
-427,846	-30,627	0,114	0,047
-426,832	-91,584	-0,114	-0,024
-425,817	-200,000	0,004	-0,040
-424,803	45,413	0,056	0,038
-423,788	429,595	0,023	-0,036
-422,773	5,291	0,079	0,043
-421,759	21,584	0,041	0,025
-420,744	-200,000	-0,001	0,064
-419,730	119,446	-0,054	-0,049
-418,715	-76,848	0,086	-0,022
-417,701	-185,940	0,135	0,001
-416,686	-60,964	0,093	-0,029
-415,671	41,171	0,083	0,055
-414,657	-151,480	0,018	0,001
-413,642	800,000	0,001	0,003
-412,628	-200,000	0,012	-0,086
-411,613	558,147	0,067	-0,120
-410,598	-200,000	-0,001	0,012
-409,584	12,550	-0,013	-0,008
-408,569	800,000	-0,030	0,085
-407,555	-53,734	0,098	-0,033
-406,540	-200,000	0,008	0,088
-405,525	175,629	-0,085	0,090
-404,511	-56,575	0,025	-0,008
-403,496	800,000	0,046	-0,127
-402,482	173,516	0,062	0,066
-401,467	-18,219	0,134	-0,061
-400,452	-193,519	0,072	0,000
-399,438	357,737	-0,051	0,076
-398,423	577,335	-0,066	-0,120
-397,409	106,026	-0,129	-0,113
-396,394	98,570	-0,093	-0,079
-395,379	390,730	0,016	0,025
-394,365	756,669	-0,051	0,101
-393,350	78,072	0,079	0,062
-392,336	-116,465	0,110	0,015
-391,321	593,746	-0,022	0,039
-390,306	-85,069	-0,114	0,026
-389,292	255,829	0,015	0,018
-388,277	318,525	0,074	0,103
-387,263	651,028	0,079	0,150
-386,248	231,119	-0,070	-0,085
-385,233	4,685	-0,125	-0,067
-384,219	-198,114	0,178	-0,001
-383,204	633,960	0,045	0,084
-382,190	-200,000	-0,006	-0,180
-381,175	89,928	0,118	-0,097
-380,160	-73,478	0,042	-0,011
-379,146	0,258	0,138	-0,072
-378,131	101,751	0,026	0,022
-377,117	225,088	-0,086	-0,102
-376,102	-46,553	-0,145	0,052
-375,088	-67,927	0,084	-0,024
-374,073	204,980	0,047	0,054
-373,058	247,584	-0,042	-0,052
-372,044	166,486	0,067	0,069
-371,029	282,561	0,096	0,126
-370,015	41,031	0,045	-0,030
-369,000	-200,000	-0,000	-0,035
-367,985	48,559	-0,060	-0,041
-366,971	788,124	-0,068	-0,139
-365,956	107,958	0,128	0,112
-364,942	-165,195	0,131	-0,004
-363,927	155,584	-0,028	-0,029
-362,912	-142,689	-0,168	-0,012
-361,898	-70,775	-0,130	-0,036
-360,883	58,903	-0,126	-0,091
-359,869	107,073	-0,055	0,048
-358,854	187,010	-0,017	0,019
-357,839	109,289	0,054	0,048
-356,825	800,000	0,043	0,138
-355,810	258,195	-0,045	-0,057
-354,796	800,000	0,044	-0,097
-353,781	-200,000	-0,016	-0,101
-352,766	-200,000	-0,005	0,016
-351,752	-200,000	0,012	-0,091
-350,737	254,716	-0,025	-0,031
-349,723	24,815	0,111	0,067
-348,708	-200,000	0,051	0,183
-347,693	163,636	0,097	0,100
-346,679	281,414	-0,103	-0,136
-345,664	14,033	0,083	-0,048
-344,650	-126,957	0,075	-0,008
-343,635	430,161	0,045	-0,071
-342,620	760,185	0,023	0,046
-341,606	348,231	0,015	0,021
-340,591	770,096	0,045	-0,091
-339,577	369,563	0,047	-0,070
-338,562	453,150	-0,073	-0,119
-337,548	312,337	-0,057	-0,078
-336,533	-124,338	0,082	0,009
-335,518	123,565	0,083	-0,076
-334,504	705,171	-0,023	0,045
-333,489	38,107	0,025	-0,016
-332,475	-200,000	-0,013	-0,155
-331,460	-10,521	0,129	-0,063
-330,445	38,920	-0,013	0,008
-329,431	-101,336	-0,046	0,008
-328,416	347,189	0,044	0,064
-327,402	-17,971	-0,086	0,040
-326,387	-200,000	-0,018	0,143
-325,372	309,150	-0,069	-0,094
-324,358	-200,000	0,016	-0,152
-323,343	41,539	-0,155	-0,103
-322,329	-40,328	0,036	-0,013
-321,314	25,880	0,060	0,036
-320,299	-200,000	-0,010	0,052
-319,285	800,000	0,035	-0,072
-318,270	800,000	0,018	-0,040
-317,256	-200,000	0,028	0,104
-316,241	181,763	0,117	0,126
-315,226	110,789	-0,051	0,045
-314,212	266,772	0,086	0,110
-313,197	-200,000	0,007	0,118
-312,183	-200,000	0,005	-0,084
-311,168	-106,397	-0,175	-0,028
-310,153	-33,611	-0,084	0,034
-309,139	-122,015	0,096	-0,011
-308,124	-80,612	-0,042	-0,010
-307,110	94,286	0,093	0,077
-306,095	71,131	0,097	0,074
-305,080	-200,000	0,000	-0,013
-304,066	-200,000	-0,015	0,100
-303,051	800,000	0,013	-0,031
-302,037	-200,000	-0,001	-0,010
-301,022	164,406	0,064	0,066
-300,008	-200,000	-0,024	0,091
-298,993	-200,000	-0,019	-0,126
-297,978	402,017	0,036	0,055
-296,964	800,000	0,054	-0,114
-295,949	-50,183	-0,066	0,023
-294,935	800,000	-0,037	-0,105
-293,920	-200,000	-0,024	-0,178
-292,905	-200,000	-0,017	-0,058
-291,891	-200,000	-0,025	-0,098
-290,876	614,151	-0,028	-0,051
-289,862	274,544	-0,091	-0,118
-288,847	137,326	-0,077	-0,074
-287,832	-77,800	-0,180	0,045
-286,818	-83,098	0,040	0,009
-285,803	0,366	0,151	0,079
-284,789	-200,000	0,012	0,064
-283,774	155,935	0,072	0,072
-282,759	26,080	-0,064	0,039
-281,745	-120,642	0,111	-0,014
-280,730	-200,000	0,014	0,134
-279,716	233,752	0,101	-0,121
-278,701	-105,077	-0,025	-0,004
-277,686	-41,696	0,119	0,045
-276,672	34,497	0,107	0,068
-275,657	-50,866	-0,165	0,056
-274,643	-179,123	-0,088	0,001
-273,628	-82,793	-0,083	-0,020
-272,613	-60,656	-0,075	-0,023
-271,599	-200,000	-0,014	0,150
-270,584	159,220	0,041	0,041
-269,570	-200,000	0,016	0,072
-268,555	108,106	0,039	-0,034
-267,540	-200,000	0,005	-0,048
-266,526	-200,000	-0,007	0,050
-265,511	-184,539	0,068	0,001
-264,497	11,473	0,065	-0,037
-263,482	240,920	-0,045	0,055
-262,467	-187,535	-0,092	0,001
-261,453	-200,000	0,008	0,077
-260,438	-159,179	-0,040	-0,002
-259,424	189,052	0,021	-0,023
-258,409	49,420	0,039	-0,027
-257,395	-200,000	-0,004	0,037
-256,380	5,179	0,092	-0,050
-255,365	800,000	-0,020	0,041
-254,351	800,000	0,038	0,102
-253,336	-68,525	-0,100	-0,028
-252,322	-200,000	0,005	-0,029
-251,307	-33,122	0,140	-0,057
-250,292	-175,416	-0,117	0,002
-249,278	23,839	-0,022	-0,013
-248,263	300,274	0,088	0,119
-247,249	-75,816	-0,041	0,011
-246,234	-78,088	0,051	-0,013
-245,219	-47,780	-0,030	0,011
-244,205	-67,997	-0,084	0,024
-243,190	-75,373	0,048	0,012
-242,176	-47,423	0,063	0,022
-241,161	59,225	0,021	-0,015
-240,146	-13,266	0,095	0,045
-239,132	-200,000	-0,009	-0,159
-238,117	242,101	-0,027	-0,032
-237,103	-9,381	0,044	-0,022
-236,088	-131,899	-0,046	0,004
-235,073	800,000	-0,037	-0,077
-234,059	-147,617	0,112	-0,007
-233,044	800,000	-0,035	0,083
-232,030	-200,000	0,044	-0,163
-231,015	121,779	-0,034	0,031
-230,000	52,417	0,115	0,080
-228,986	114,102	-0,076	0,068
-227,971	-147,604	0,066	-0,004
-226,957	-46,664	0,139	-0,050
-225,942	263,626	-0,066	0,084
-224,927	564,617	-0,054	-0,095
-223,913	-136,620	0,047	-0,004
-222,898	258,314	-0,119	-0,150
-221,884	800,000	0,083	-0,176
-220,869	800,000	-0,060	0,164
-219,855	800,000	0,030	-0,073
-218,840	-200,000	0,017	0,088
-217,825	-186,736	-0,140	-0,001
-216,811	-200,000	-0,009	-0,038
-215,796	-200,000	-0,010	-0,147
-214,782	-128,774	-0,067	0,007
-213,767	-200,000	-0,007	-0,059
-212,752	-200,000	0,001	0,136
-211,738	-58,708	0,121	0,038
-210,723	-184,530	-0,124	0,001
-209,709	-6,355	0,076	-0,038
-208,694	241,487	-0,066	0,081
-207,679	-150,883	-0,187	0,010
-206,665	-12,717	0,189	0,090
-205,650	56,788	-0,027	0,019
-204,636	243,604	-0,022	0,028
-203,621	103,873	0,039	0,033
-202,606	-128,170	-0,062	-0,006
-201,592	597,374	-0,097	0,177
-200,577	-26,368	0,086	0,037
-199,563	-154,902	-0,068	-0,003
-198,548	800,000	0,047	-0,101
-197,533	61,683	-0,090	-0,066
-196,519	-200,000	0,012	-0,067
-195,504	98,978	-0,085	0,072
-194,490	-200,000	0,017	-0,061
-193,475	800,000	-0,013	-0,034
-192,460	98,758	-0,112	0,094
-191,446	-149,550	0,118	0,007
-190,431	67,254	-0,137	0,102
-189,417	369,814	-0,082	0,121
-188,402	617,325	0,023	-0,043
-187,387	353,995	0,034	-0,049
-186,373	106,597	-0,008	0,007
-185,358	348,661	0,048	0,069
-184,344	-71,166	-0,021	-0,006
-183,329	-158,196	0,131	-0,005
-182,315	-83,011	0,113	-0,026
-181,300	-106,116	-0,041	-0,007
-180,285	-111,875	-0,124	0,018
-179,271	-59,952	0,069	-0,021
-178,256	-200,000	-0,004	-0,105
-177,242	-20,653	0,155	-0,069
-176,227	190,384	-0,071	0,078
-175,212	800,000	-0,045	-0,113
-174,198	-170,361	-0,124	-0,003
-173,183	-200,000	-0,032	-0,108
-172,169	64,849	-0,133	-0,097
-171,154	-200,000	-0,022	0,091
-170,139	-18,222	-0,117	0,053
-169,125	-24,681	0,062	0,027
-168,110	-7,653	-0,080	0,039
-167,096	-83,260	-0,088	0,021
-166,081	124,949	-0,041	-0,038
-165,066	-200,000	0,012	0,077
-164,052	484,581	-0,013	-0,022
-163,037	33,777	-0,021	0,014
-162,023	122,488	0,039	0,036
-161,008	181,465	0,090	0,097
-159,993	-25,060	0,101	0,043
-158,979	113,747	-0,127	-0,112
-157,964	-32,854	0,021	0,009
-156,950	800,000	0,033	0,105
-155,935	-10,629	0,154	-0,074
-154,920	800,000	-0,032	0,090
-153,906	424,651	-0,016	-0,024
-152,891	-200,000	-0,007	-0,041
-151,877	-75,969	-0,066	0,017
-150,862	10,749	0,049	-0,027
-149,847	212,560	-0,059	-0,067
-148,833	800,000	-0,023	0,065
-147,818	182,266	0,097	0,104
-146,804	28,679	0,017	0,010
-145,789	-64,725	0,104	0,030
-144,775	-200,000	-0,006	-0,056
-143,760	-43,881	0,136	-0,050
-142,745	5,703	-0,198	-0,106
-141,731	-200,000	-0,026	-0,141
-140,716	-200,000	0,017	0,083
-139,702	800,000	-0,060	0,143
-138,687	204,197	0,084	-0,095
-137,672	-36,383	-0,106	0,041
-136,658	641,259	0,018	-0,034
-135,643	97,454	0,127	0,106
-134,629	-1,285	-0,102	-0,052
-133,614	800,000	-0,031	0,087
-132,599	371,583	0,091	0,135
-131,585	49,491	0,118	0,081
-130,570	350,273	0,039	0,056
-129,556	99,915	-0,070	0,059
-128,541	60,240	-0,016	-0,012
-127,526	3,689	-0,135	-0,071
-126,512	-19,177	0,065	0,029
-125,497	-200,000	0,031	0,145
-124,483	14,590	-0,099	-0,056
-123,468	33,379	0,179	0,113
-122,453	43,723	0,099	-0,066
-121,439	800,000	-0,044	-0,129
-120,424	-200,000	0,008	0,078
-119,410	-95,078	0,130	-0,025
