DTS Sentinel unit serial number:	SN410029Multiplexer serial number:	ORYXHardware model number:	OX2-SRSoftware version number:	ORYX F/W v4,00 Oryx Data Collector v3.7.2.0data status	okinstallation	B4 Nyhavnadifferential loss correction	single-endedforward channel	channel 2reverse channel	N/Adate	2023/12/16time	04:05:14forward acquisition time	300,00reverse acquisition time	0,00gamma	499,1914k internal	0,3128k external	0,3128temperature offset calibration	1,0000default loss term (dB/km)	0,3820temperature slope calibration	1,0000multiplexer offset coefficient	1,0000multiplexer slope coefficient	1,0000fibre end	0,00T internal ref (°C)	22,00T ext. ref 1 (°C)	7,07T ext. ref 2 (°C)	7,25length (m)	temperature (°C)	Stokes	anti-Stokes-744,400	-182,887	-0,068	0,001
-743,385	-132,734	-0,144	0,014
-742,371	800,000	0,059	-0,144
-741,356	-172,077	-0,258	0,006
-740,342	-47,725	0,100	-0,036
-739,327	-78,667	-0,178	0,045
-738,312	-115,764	0,143	0,020
-737,298	-65,819	-0,210	0,062
-736,283	471,588	0,046	0,078
-735,269	-49,942	-0,171	0,060
-734,254	34,843	0,094	0,061
-733,239	-138,837	-0,411	-0,033
-732,225	-50,951	0,099	-0,034
-731,210	149,684	0,129	0,130
-730,196	-61,354	-0,128	-0,040
-729,181	-95,440	0,067	0,013
-728,167	-17,051	-0,095	-0,044
-727,152	-88,891	-0,149	-0,033
-726,137	131,654	0,108	-0,103
-725,123	80,664	-0,042	0,034
-724,108	94,072	-0,112	-0,094
-723,094	504,238	-0,052	-0,090
-722,079	209,236	-0,048	-0,056
-721,064	-117,485	-0,172	0,023
-720,050	26,833	-0,077	0,048
-719,035	272,348	0,059	0,078
-718,021	-0,916	-0,060	-0,031
-717,006	-192,443	-0,123	-0,001
-715,991	-200,000	0,000	0,029
-714,977	-200,000	0,004	-0,110
-713,962	-200,000	-0,009	-0,110
-712,948	800,000	-0,064	0,141
-711,933	21,468	-0,087	-0,053
-710,918	-200,000	-0,002	-0,055
-709,904	7,392	0,148	-0,082
-708,889	-97,479	-0,082	-0,016
-707,875	189,892	-0,068	0,076
-706,860	309,999	0,054	-0,076
-705,845	142,752	-0,073	0,072
-704,831	800,000	-0,030	0,091
-703,816	-43,338	-0,069	0,026
-702,802	78,812	-0,050	-0,040
-701,787	41,689	-0,099	-0,066
-700,772	-89,039	-0,082	-0,018
-699,758	-5,234	-0,049	-0,025
-698,743	25,327	0,140	0,086
-697,729	-186,988	0,056	0,001
-696,714	-27,987	-0,087	0,037
-695,699	-200,000	-0,003	-0,078
-694,685	-19,111	0,097	0,045
-693,670	800,000	0,011	-0,033
-692,656	-200,000	-0,019	0,095
-691,641	165,725	-0,030	-0,032
-690,627	473,306	-0,027	0,046
-689,612	-24,441	0,022	-0,010
-688,597	353,468	0,030	0,045
-687,583	-50,588	-0,132	-0,046
-686,568	-153,578	-0,177	-0,009
-685,554	681,551	0,030	-0,058
-684,539	38,223	-0,011	-0,007
-683,524	800,000	0,008	0,021
-682,510	800,000	0,050	-0,129
-681,495	-80,416	0,097	-0,024
-680,481	800,000	-0,036	-0,090
-679,466	-200,000	-0,012	-0,043
-678,451	-78,465	-0,115	0,029
-677,437	-12,432	-0,018	-0,009
-676,422	1,508	-0,111	0,059
-675,408	263,520	-0,060	0,078
-674,393	419,398	-0,048	0,077
-673,378	-200,000	0,010	-0,136
-672,364	-107,423	-0,083	0,013
-671,349	309,820	-0,082	0,113
-670,335	-14,601	-0,115	-0,055
-669,320	-52,107	0,059	0,020
-668,305	-200,000	-0,026	0,137
-667,291	-109,504	-0,201	0,031
-666,276	459,938	-0,045	-0,075
-665,262	505,114	0,020	0,034
-664,247	71,113	-0,086	-0,066
-663,232	-200,000	0,040	-0,140
-662,218	-106,781	0,023	-0,004
-661,203	28,211	0,040	0,025
-660,189	-134,603	-0,098	0,009
-659,174	800,000	0,061	-0,194
-658,159	-200,000	-0,007	-0,087
-657,145	16,959	0,100	-0,058
-656,130	-154,912	0,082	-0,004
-655,116	-52,365	-0,024	0,008
-654,101	-49,103	-0,083	0,029
-653,086	-200,000	-0,049	-0,168
-652,072	-24,522	0,050	0,022
-651,057	-12,916	-0,146	0,070
-650,043	-200,000	-0,018	-0,155
-649,028	42,531	-0,069	0,047
-648,014	270,126	-0,053	0,069
-646,999	372,898	0,052	0,078
-645,984	310,728	-0,060	0,084
-644,970	175,938	0,059	0,064
-643,955	55,174	-0,083	-0,059
-642,941	158,387	0,048	-0,049
-641,926	76,340	-0,136	-0,107
-640,911	-40,005	-0,128	-0,049
-639,897	-95,487	-0,101	-0,020
-638,882	140,524	-0,060	-0,058
-637,868	-76,955	0,106	0,027
-636,853	51,052	0,016	-0,011
-635,838	800,000	-0,041	-0,095
-634,824	-126,378	-0,072	0,008
-633,809	578,294	-0,036	0,066
-632,795	285,544	-0,059	-0,079
-631,780	132,286	0,103	0,098
-630,765	55,067	-0,054	0,038
-629,751	14,883	0,042	-0,024
-628,736	-142,012	-0,144	0,010
-627,722	70,420	0,070	-0,054
-626,707	57,495	0,054	0,039
-625,692	-200,000	0,012	-0,113
-624,678	-200,000	-0,013	-0,061
-623,663	-200,000	0,006	0,131
-622,649	51,863	-0,087	-0,062
-621,634	-200,000	0,013	-0,126
-620,619	800,000	0,053	0,125
-619,605	-26,846	0,029	0,013
-618,590	-200,000	-0,001	0,006
-617,576	279,137	0,030	-0,040
-616,561	-88,256	-0,150	0,033
-615,546	49,154	0,086	-0,060
-614,532	-200,000	0,030	0,155
-613,517	214,463	0,056	0,066
-612,503	-117,537	-0,014	0,002
-611,488	-200,000	0,013	0,055
-610,474	800,000	0,037	-0,087
-609,459	416,039	0,051	0,080
-608,444	-200,000	0,012	0,129
-607,430	483,881	-0,022	0,037
-606,415	-200,000	0,033	-0,144
-605,401	-181,433	-0,044	-0,001
-604,386	-73,557	-0,057	-0,015
-603,371	-200,000	0,043	0,162
-602,357	4,099	0,139	0,075
-601,342	-119,841	-0,061	0,008
-600,328	800,000	-0,023	0,064
-599,313	-131,809	-0,074	0,007
-598,298	800,000	0,042	-0,095
-597,284	-200,000	0,005	0,071
-596,269	-200,000	0,004	0,057
-595,255	-200,000	0,029	-0,095
-594,240	85,189	-0,126	-0,102
-593,225	610,023	0,029	0,054
-592,211	35,624	-0,144	-0,094
-591,196	90,551	0,103	0,086
-590,182	109,796	0,046	-0,041
-589,167	-170,300	-0,145	0,004
-588,152	101,475	-0,074	0,064
-587,138	-200,000	-0,000	0,011
-586,123	291,811	-0,032	0,043
-585,109	-200,000	0,036	0,135
-584,094	137,845	0,076	0,074
-583,079	-200,000	-0,013	-0,066
-582,065	139,735	0,102	-0,100
-581,050	800,000	-0,027	0,070
-580,036	-88,835	-0,072	-0,016
-579,021	-97,726	-0,041	0,008
-578,006	606,791	0,035	0,065
-576,992	345,676	-0,088	0,128
-575,977	-29,040	0,134	0,057
-574,963	-200,000	0,027	0,212
-573,948	-93,751	0,026	0,005
-572,934	-26,400	-0,057	-0,024
-571,919	-26,411	0,122	0,053
-570,904	-142,486	-0,136	0,010
-569,890	-56,487	0,148	-0,048
-568,875	17,096	0,063	-0,037
-567,861	-95,693	-0,075	0,015
-566,846	76,109	0,121	-0,094
-565,831	-135,564	0,117	-0,010
-564,817	327,440	-0,024	-0,034
-563,802	-111,463	-0,154	-0,023
-562,788	-200,000	0,030	-0,142
-561,773	22,552	0,040	0,024
-560,758	4,439	0,161	0,087
-559,744	-200,000	0,002	-0,080
-558,729	-149,850	0,170	-0,010
-557,715	109,293	0,016	-0,014
-556,700	-30,902	-0,173	0,072
-555,685	-131,915	0,013	-0,001
-554,671	529,285	-0,047	-0,082
-553,656	113,355	0,063	0,057
-552,642	-200,000	0,027	0,090
-551,627	-200,000	0,029	0,123
-550,612	-39,372	-0,131	-0,050
-549,598	739,437	-0,010	-0,021
-548,583	-200,000	0,005	0,106
-547,569	800,000	0,026	0,059
-546,554	130,869	-0,013	-0,013
-545,539	143,759	-0,060	-0,059
-544,525	-176,205	0,104	0,002
-543,510	-122,910	0,054	0,006
-542,496	800,000	0,049	-0,123
-541,481	-126,723	0,006	0,001
-540,466	-98,434	-0,147	0,027
-539,452	800,000	-0,048	0,113
-538,437	253,088	0,044	-0,055
-537,423	-200,000	-0,002	0,065
-536,408	86,526	-0,094	-0,076
-535,393	-69,649	-0,164	-0,046
-534,379	-8,099	-0,044	0,022
-533,364	800,000	0,012	-0,038
-532,350	453,212	0,061	-0,100
-531,335	507,583	0,017	0,029
-530,321	800,000	0,038	-0,080
-529,306	-46,475	0,016	0,006
-528,291	800,000	-0,037	-0,082
-527,277	7,478	-0,052	0,029
-526,262	-90,318	0,119	0,025
-525,248	205,902	-0,005	-0,006
-524,233	-200,000	-0,015	0,081
-523,218	-200,000	-0,003	0,012
-522,204	-200,000	0,008	0,091
-521,189	-42,552	-0,095	-0,035
-520,175	16,342	-0,062	-0,036
-519,160	177,679	0,078	-0,084
-518,145	167,126	0,106	0,111
-517,131	800,000	0,022	0,047
-516,116	153,379	0,086	0,087
-515,102	176,685	0,133	-0,143
-514,087	122,186	-0,226	-0,208
-513,072	-200,000	0,005	-0,018
-512,058	-75,063	-0,100	-0,026
-511,043	-3,272	-0,076	-0,039
-510,029	-200,000	-0,012	-0,092
-509,014	-200,000	0,009	-0,080
-507,999	-62,100	0,078	0,024
-506,985	-49,148	-0,048	-0,017
-505,970	-143,347	0,090	0,006
-504,956	800,000	0,027	-0,073
-503,941	208,918	-0,078	0,091
-502,926	6,283	0,057	0,031
-501,912	-200,000	-0,011	0,106
-500,897	-73,350	-0,108	0,029
-499,883	-200,000	-0,004	-0,128
-498,868	-105,417	-0,146	-0,024
-497,853	665,816	-0,025	-0,049
-496,839	800,000	0,041	-0,096
-495,824	544,274	-0,027	0,048
-494,810	800,000	0,027	-0,068
-493,795	-122,055	0,182	-0,022
-492,781	-200,000	-0,011	-0,065
-491,766	-200,000	0,006	-0,116
-490,751	-18,466	-0,151	-0,069
-489,737	800,000	0,043	0,127
-488,722	73,519	0,023	0,018
-487,708	-200,000	0,006	-0,024
-486,693	-200,000	0,015	0,081
-485,678	143,666	-0,033	-0,032
-484,664	800,000	-0,053	-0,107
-483,649	-200,000	-0,011	-0,108
-482,635	-200,000	-0,001	-0,090
-481,620	74,491	0,044	0,034
-480,605	-105,513	-0,027	-0,004
-479,591	197,142	0,108	-0,121
-478,576	-200,000	0,010	0,083
-477,562	-200,000	-0,011	-0,089
-476,547	-200,000	0,020	-0,067
-475,532	35,934	-0,105	0,068
-474,518	-200,000	0,039	0,219
-473,503	-200,000	-0,009	0,043
-472,489	-140,079	0,027	0,002
-471,474	334,105	0,064	0,091
-470,459	-53,043	0,187	0,063
-469,445	800,000	-0,033	-0,076
-468,430	21,655	-0,061	-0,037
-467,416	-18,007	0,095	-0,044
-466,401	-85,669	0,180	-0,041
-465,386	-90,319	-0,069	0,015
-464,372	-61,402	-0,041	-0,013
-463,357	-66,968	0,135	0,039
-462,343	-200,000	0,020	0,084
-461,328	-102,073	0,037	-0,006
-460,313	-200,000	0,009	0,063
-459,299	30,308	0,161	0,101
-458,284	27,830	-0,068	-0,042
-457,270	800,000	-0,006	-0,016
-456,255	-11,706	-0,101	-0,049
-455,241	11,091	-0,089	-0,050
-454,226	90,324	0,071	0,058
-453,211	55,366	0,043	0,031
-452,197	-200,000	0,012	0,059
-451,182	720,236	-0,044	0,086
-450,168	273,977	-0,042	0,055
-449,153	-94,147	-0,061	-0,012
-448,138	116,037	-0,064	0,058
-447,124	-18,039	0,140	-0,064
-446,109	-200,000	-0,016	0,076
-445,095	56,969	0,077	-0,055
-444,080	185,986	0,080	0,088
-443,065	-111,174	-0,098	-0,015
-442,051	800,000	-0,022	0,066
-441,036	86,209	-0,076	0,062
-440,022	-106,353	-0,107	-0,017
-439,007	-2,640	-0,098	0,050
-437,992	297,683	0,071	-0,096
-436,978	800,000	-0,030	0,070
-435,963	-104,957	0,066	-0,011
-434,949	800,000	0,021	-0,049
-433,934	-140,174	0,179	0,014
-432,919	-35,205	-0,063	0,025
-431,905	-147,370	-0,075	-0,005
-430,890	149,167	0,052	-0,052
-429,876	-200,000	0,020	0,074
-428,861	800,000	-0,052	-0,115
-427,846	-74,313	0,089	0,024
-426,832	-173,337	0,078	-0,002
-425,817	-27,725	0,022	0,009
-424,803	-200,000	-0,008	-0,080
-423,788	696,770	0,024	0,046
-422,773	97,668	0,136	0,115
-421,759	-87,546	-0,075	0,017
-420,744	-43,057	-0,113	0,042
-419,730	-161,625	-0,042	0,002
-418,715	357,958	0,054	0,080
-417,701	-200,000	-0,015	-0,075
-416,686	-18,191	-0,062	0,029
-415,671	173,322	-0,068	0,072
-414,657	-106,505	-0,119	0,019
-413,642	-200,000	-0,018	-0,059
-412,628	391,252	-0,057	0,088
-411,613	-86,800	0,067	0,015
-410,598	150,031	0,044	-0,044
-409,584	800,000	-0,005	0,015
-408,569	-200,000	0,025	0,172
-407,555	225,909	0,020	-0,023
-406,540	67,537	-0,042	0,031
-405,525	-17,578	-0,090	-0,041
-404,511	-1,311	0,053	0,028
-403,496	-27,421	0,036	0,015
-402,482	715,468	0,034	0,066
-401,467	-37,033	0,067	0,026
-400,452	119,364	0,112	0,102
-399,438	-19,696	0,064	0,029
-398,423	800,000	-0,005	-0,015
-397,409	-129,580	-0,089	-0,009
-396,394	-60,476	-0,054	0,017
-395,379	467,615	-0,051	-0,084
-394,365	65,281	-0,058	0,043
-393,350	284,721	0,098	0,129
-392,336	800,000	0,034	0,083
-391,321	77,211	0,142	-0,110
-390,306	97,398	0,025	-0,021
-389,292	-41,254	0,035	-0,013
-388,277	800,000	-0,031	-0,091
-387,263	163,664	0,050	0,052
-386,248	800,000	0,019	0,051
-385,233	208,623	0,057	0,066
-384,219	-200,000	-0,015	-0,053
-383,204	-99,811	0,100	0,018
-382,190	-200,000	-0,000	-0,082
-381,175	800,000	-0,037	-0,113
-380,160	-49,049	-0,176	0,061
-379,146	754,771	0,053	0,106
-378,131	-200,000	-0,035	0,135
-377,117	198,326	-0,013	-0,014
-376,102	584,790	0,039	-0,070
-375,088	-200,000	-0,019	-0,094
-374,073	-200,000	0,017	0,099
-373,058	217,288	-0,051	-0,060
-372,044	-3,062	0,072	-0,037
-371,029	72,627	0,057	0,044
-370,015	183,306	-0,050	-0,055
-369,000	718,578	-0,033	-0,064
-367,985	207,917	-0,098	-0,112
-366,971	-8,777	-0,091	0,045
-365,956	12,434	0,060	0,034
-364,942	-81,158	-0,109	0,026
-363,927	-29,945	0,097	0,040
-362,912	800,000	-0,011	-0,029
-361,898	-200,000	0,015	-0,066
-360,883	108,313	-0,004	0,004
-359,869	419,965	-0,022	0,035
-358,854	-44,876	0,024	0,009
-357,839	120,978	0,113	0,103
-356,825	-7,682	0,148	0,073
-355,810	176,230	0,022	0,023
-354,796	-200,000	0,020	-0,097
-353,781	12,026	-0,096	-0,054
-352,766	346,392	-0,004	0,006
-351,752	-166,567	0,143	-0,004
-350,737	800,000	-0,023	0,067
-349,723	134,328	-0,089	0,085
-348,708	-26,781	-0,088	0,038
-347,693	-69,266	-0,031	0,009
-346,679	-200,000	0,001	-0,190
-345,664	548,056	0,059	-0,104
-344,650	-200,000	0,003	-0,104
-343,635	170,489	0,083	0,087
-342,620	-38,943	-0,085	-0,033
-341,606	-200,000	-0,001	0,021
-340,591	-94,521	0,086	-0,017
-339,577	-62,151	-0,091	-0,028
-338,562	-105,174	-0,104	0,017
-337,548	-137,058	0,099	-0,008
-336,533	199,667	0,029	-0,033
-335,518	147,706	-0,083	-0,082
-334,504	800,000	-0,035	-0,078
-333,489	46,713	-0,063	0,042
-332,475	-121,983	-0,179	0,021
-331,460	-200,000	0,037	-0,136
-330,445	-94,816	-0,077	-0,015
-329,431	-43,015	0,097	0,036
-328,416	76,734	0,009	-0,007
-327,402	293,235	-0,022	-0,030
-326,387	-200,000	-0,015	-0,308
-325,372	-96,513	-0,109	-0,021
-324,358	-168,598	0,029	0,001
-323,343	-200,000	0,000	-0,081
-322,329	363,379	0,134	0,198
-321,314	-93,903	0,160	-0,032
-320,299	151,676	0,055	-0,055
-319,285	61,935	-0,024	0,018
-318,270	-200,000	0,003	-0,049
-317,256	-53,378	0,089	-0,030
-316,241	-41,302	0,096	-0,036
-315,226	800,000	0,061	-0,127
-314,212	184,120	0,055	0,060
-313,197	202,561	-0,069	0,078
-312,183	800,000	-0,034	0,096
-311,168	273,841	-0,056	-0,073
-310,153	-93,490	-0,113	0,023
-309,139	-200,000	-0,004	-0,037
-308,124	-9,231	-0,055	0,027
-307,110	2,257	0,175	0,092
-306,095	100,613	-0,045	0,038
-305,080	-124,046	-0,025	-0,003
-304,066	-33,871	0,070	-0,028
-303,051	-200,000	-0,006	-0,105
-302,037	800,000	-0,012	-0,031
-301,022	686,267	0,031	-0,059
-300,008	-131,810	0,112	0,011
-298,993	12,490	-0,157	-0,089
-297,978	87,624	-0,041	-0,033
-296,964	-78,650	0,105	0,026
-295,949	320,500	-0,063	0,087
-294,935	-51,584	-0,095	0,032
-293,920	-200,000	-0,005	0,059
-292,905	-83,559	0,120	0,028
-291,891	-30,995	0,133	-0,055
-290,876	-200,000	0,007	-0,115
-289,862	8,784	-0,057	-0,031
-288,847	-200,000	0,042	-0,156
-287,832	-79,727	-0,073	-0,018
-286,818	-200,000	-0,020	0,162
-285,803	-60,210	-0,090	0,028
-284,789	-200,000	-0,020	-0,103
-283,774	-170,236	-0,104	0,003
-282,759	173,820	-0,085	0,089
-281,745	45,354	0,043	-0,029
-280,730	-38,542	-0,166	0,064
-279,716	-37,185	-0,061	-0,024
-278,701	-89,108	-0,051	-0,011
-277,686	46,588	-0,052	0,035
-276,672	-200,000	0,017	-0,113
-275,657	90,229	0,059	-0,048
-274,643	597,251	0,011	-0,021
-273,628	176,310	0,073	-0,077
-272,613	-111,366	-0,026	-0,004
-271,599	-33,026	0,085	0,034
-270,584	438,286	0,049	0,078
-269,570	800,000	-0,035	0,084
-268,555	-200,000	-0,005	0,081
-267,540	-73,701	-0,092	0,024
-266,526	-10,114	-0,051	0,025
-265,511	76,225	-0,053	-0,041
-264,497	211,151	-0,040	0,046
-263,482	-148,910	-0,048	-0,003
-262,467	-200,000	0,017	0,129
-261,453	177,535	0,133	0,142
-260,438	-74,456	-0,044	-0,012
-259,424	-172,527	0,015	0,000
-258,409	-149,035	0,151	-0,009
-257,395	179,312	0,022	0,024
-256,380	125,907	0,032	0,029
-255,365	-43,395	0,204	0,075
-254,351	-3,969	0,145	-0,073
-253,336	-1,181	-0,084	0,043
-252,322	-106,774	0,109	-0,017
-251,307	91,994	0,026	0,022
-250,292	-200,000	0,040	-0,173
-249,278	182,861	-0,083	-0,090
-248,263	237,184	-0,061	0,074
-247,249	800,000	0,022	0,068
-246,234	-76,201	-0,125	-0,032
-245,219	243,546	0,034	-0,042
-244,205	35,929	0,031	0,020
-243,190	-115,029	0,043	0,006
-242,176	217,654	0,019	0,022
-241,161	44,797	0,067	-0,045
-240,146	800,000	0,024	-0,072
-239,132	42,862	0,131	-0,087
-238,117	-161,308	-0,037	-0,001
-237,103	-104,888	-0,041	0,007
-236,088	22,409	0,127	-0,076
-235,073	-200,000	-0,030	0,113
-234,059	324,890	-0,094	0,131
-233,044	800,000	0,030	0,076
-232,030	-200,000	-0,012	0,084
-231,015	-200,000	-0,002	-0,018
-230,000	800,000	0,023	-0,061
-228,986	-200,000	-0,018	-0,061
-227,971	800,000	-0,041	0,105
-226,957	-200,000	-0,007	-0,068
-225,942	333,355	-0,026	-0,036
-224,927	179,737	-0,068	0,073
-223,913	-38,803	0,081	0,031
-222,898	348,901	-0,044	0,064
-221,884	800,000	-0,043	0,089
-220,869	-79,915	0,043	0,010
-219,855	230,252	-0,055	0,065
-218,840	493,785	-0,049	-0,082
-217,825	506,765	-0,009	0,014
-216,811	251,139	-0,072	0,090
-215,796	-76,851	-0,023	-0,006
-214,782	107,456	-0,083	0,072
-213,767	-22,701	-0,045	-0,020
-212,752	-14,566	-0,060	0,028
-211,738	-200,000	0,001	0,039
-210,723	800,000	0,064	0,153
-209,709	-135,306	-0,054	-0,005
-208,694	-200,000	0,008	-0,176
-207,679	-56,362	-0,069	0,022
-206,665	140,542	0,062	0,060
-205,650	261,689	-0,053	-0,067
-204,636	800,000	0,021	0,046
-203,621	-52,215	-0,038	0,013
-202,606	605,739	0,056	0,103
-201,592	-128,886	-0,098	0,010
-200,577	-25,321	-0,131	-0,056
-199,563	82,707	0,061	0,048
-198,548	-200,000	-0,003	-0,083
-197,533	257,741	0,102	-0,128
-196,519	621,690	0,035	-0,065
-195,504	-183,087	0,075	-0,001
-194,490	-200,000	-0,009	0,068
-193,475	46,043	0,056	0,037
-192,460	299,545	0,106	0,142
-191,446	58,005	0,033	0,024
-190,431	-57,742	0,015	0,005
-189,417	-200,000	-0,006	0,096
-188,402	-162,920	0,029	0,001
-187,387	88,716	-0,136	-0,110
-186,373	800,000	-0,034	-0,092
-185,358	-16,122	-0,110	-0,051
-184,344	-166,247	0,069	0,002
-183,329	629,657	-0,013	-0,025
-182,315	67,679	0,009	0,007
-181,300	108,374	0,068	-0,059
-180,285	-200,000	-0,007	-0,059
-179,271	-200,000	0,003	0,024
-178,256	34,964	0,047	0,030
-177,242	158,563	-0,021	0,021
-176,227	271,175	0,042	0,054
-175,212	-80,201	0,022	0,005
-174,198	-200,000	-0,009	-0,100
-173,183	58,750	-0,102	-0,073
-172,169	469,404	-0,051	-0,084
-171,154	-200,000	0,007	0,024
-170,139	-89,476	0,080	-0,017
-169,125	74,188	-0,073	-0,056
-168,110	-179,030	0,056	0,001
-167,096	-148,372	-0,024	0,001
-166,081	175,499	0,068	-0,071
-165,066	-200,000	-0,033	-0,112
-164,052	-200,000	-0,030	-0,112
-163,037	-200,000	0,015	0,075
-162,023	-165,766	-0,147	-0,005
-161,008	-100,922	0,176	-0,031
-159,993	111,187	0,026	0,023
-158,979	-71,458	0,069	-0,019
-157,964	-166,375	-0,125	-0,004
-156,950	-200,000	-0,038	-0,148
-155,935	800,000	0,008	-0,023
-154,920	342,560	-0,064	-0,091
-153,906	493,138	-0,019	-0,033
-152,891	800,000	-0,026	-0,055
-151,877	-200,000	0,020	0,072
-150,862	-141,754	0,099	-0,007
-149,847	-33,036	-0,146	-0,058
-148,833	-200,000	0,003	0,017
-147,818	140,519	-0,027	0,026
-146,804	-41,083	0,057	-0,021
-145,789	20,637	0,085	-0,050
-144,775	-98,213	-0,093	-0,017
-143,760	190,671	-0,052	0,056
-142,745	513,113	0,044	0,075
-141,731	-200,000	0,016	-0,058
-140,716	519,810	0,028	0,049
-139,702	-200,000	-0,003	0,147
-138,687	800,000	-0,034	0,087
-137,672	-31,975	-0,037	0,015
-136,658	-200,000	0,034	0,177
-135,643	800,000	-0,056	-0,122
-134,629	119,547	-0,127	-0,114
-133,614	800,000	0,040	-0,099
-132,599	-14,657	0,057	-0,026
-131,585	800,000	0,021	0,064
-130,570	800,000	-0,023	0,073
-129,556	688,776	0,041	0,078
-128,541	148,866	0,048	0,047
-127,526	-200,000	0,005	-0,052
-126,512	-127,614	0,025	0,003
-125,497	437,952	0,010	-0,017
-124,483	-200,000	0,022	0,109
-123,468	81,657	-0,094	0,074
-122,453	38,862	-0,067	0,043
-121,439	-74,880	-0,115	-0,030
-120,424	-48,176	-0,166	-0,058
-119,410	-200,000	-0,011	0,112
