DTS Sentinel unit serial number:	SN410029Multiplexer serial number:	ORYXHardware model number:	OX2-SRSoftware version number:	ORYX F/W v4,00 Oryx Data Collector v3.7.2.0data status	okinstallation	B4 Nyhavnadifferential loss correction	single-endedforward channel	channel 2reverse channel	N/Adate	2023/12/19time	08:40:13forward acquisition time	300,00reverse acquisition time	0,00gamma	499,1914k internal	0,3127k external	0,3127temperature offset calibration	1,0000default loss term (dB/km)	0,3820temperature slope calibration	1,0000multiplexer offset coefficient	1,0000multiplexer slope coefficient	1,0000fibre end	0,00T internal ref (°C)	20,75T ext. ref 1 (°C)	5,36T ext. ref 2 (°C)	5,35length (m)	temperature (°C)	Stokes	anti-Stokes-744,400	-200,000	-0,040	-0,233
-743,385	110,019	-0,194	0,173
-742,371	-200,000	0,008	-0,086
-741,356	-65,065	-0,267	0,080
-740,342	800,000	-0,016	-0,037
-739,327	42,440	-0,175	0,118
-738,312	-71,505	-0,040	-0,011
-737,298	-124,300	-0,228	0,026
-736,283	-200,000	-0,015	-0,051
-735,269	-71,829	-0,191	0,053
-734,254	-200,000	0,023	-0,128
-733,239	-59,423	-0,306	-0,097
-732,225	155,500	0,103	0,105
-731,210	-200,000	0,007	0,060
-730,196	800,000	-0,040	-0,107
-729,181	-200,000	-0,008	0,041
-728,167	-200,000	0,005	-0,131
-727,152	800,000	-0,029	0,083
-726,137	-57,447	-0,152	-0,049
-725,123	166,289	-0,081	-0,085
-724,108	-200,000	-0,027	-0,113
-723,094	273,599	-0,065	-0,086
-722,079	269,209	0,048	0,063
-721,064	14,245	-0,080	-0,046
-720,050	-160,083	0,097	0,004
-719,035	709,407	0,025	0,049
-718,021	116,268	-0,061	0,055
-717,006	4,328	-0,148	-0,080
-715,991	285,675	0,019	0,026
-714,977	117,229	-0,102	-0,093
-713,962	287,304	-0,069	-0,093
-712,948	393,634	0,032	0,050
-711,933	-200,000	0,004	-0,103
-710,918	-104,220	-0,136	-0,023
-709,904	-200,000	-0,000	-0,128
-708,889	800,000	0,076	-0,245
-707,875	-45,113	-0,083	0,031
-706,860	-145,336	-0,066	0,004
-705,845	500,454	-0,016	0,027
-704,831	795,008	-0,014	-0,029
-703,816	-126,043	-0,103	0,011
-702,802	-127,935	-0,147	-0,015
-701,787	-116,363	-0,097	0,013
-700,772	70,450	-0,059	0,045
-699,758	698,892	0,016	0,032
-698,743	-34,914	-0,079	-0,032
-697,729	-200,000	0,022	-0,086
-696,714	297,663	-0,074	-0,101
-695,699	-200,000	0,024	-0,134
-694,685	461,927	0,086	-0,142
-693,670	-32,229	-0,075	0,031
-692,656	-200,000	-0,005	0,165
-691,641	800,000	-0,071	-0,149
-690,627	-148,938	-0,114	0,007
-689,612	-200,000	0,028	-0,108
-688,597	-55,058	-0,136	-0,045
-687,583	-113,992	-0,095	-0,014
-686,568	104,506	-0,031	0,027
-685,554	-138,541	-0,068	0,005
-684,539	800,000	-0,038	-0,101
-683,524	43,250	-0,028	0,019
-682,510	800,000	0,023	0,069
-681,495	5,538	-0,021	0,011
-680,481	-67,503	-0,077	-0,022
-679,466	391,018	-0,046	-0,071
-678,451	47,568	-0,128	-0,089
-677,437	451,120	0,052	-0,085
-676,422	-200,000	-0,029	-0,103
-675,408	-160,992	0,073	0,003
-674,393	-45,461	-0,171	-0,062
-673,378	257,553	-0,021	0,027
-672,364	-52,899	-0,076	0,026
-671,349	608,093	-0,021	-0,038
-670,335	-73,302	0,077	0,021
-669,320	-200,000	0,003	-0,077
-668,305	-200,000	0,017	0,108
-667,291	187,876	0,035	0,039
-666,276	-200,000	-0,013	0,042
-665,262	126,372	-0,127	-0,119
-664,247	431,883	0,079	-0,128
-663,232	-12,863	-0,029	0,014
-662,218	-0,134	0,036	0,019
-661,203	-60,864	0,040	0,012
-660,189	-61,508	-0,075	0,023
-659,174	800,000	-0,023	0,068
-658,159	-200,000	-0,027	-0,118
-657,145	12,657	-0,095	0,054
-656,130	82,674	0,061	-0,049
-655,116	-103,753	-0,113	-0,019
-654,101	9,468	-0,042	0,023
-653,086	800,000	-0,018	0,048
-652,072	-43,470	0,034	0,013
-651,057	63,590	-0,136	-0,101
-650,043	392,421	0,060	-0,093
-649,028	-89,045	0,048	-0,010
-648,014	-108,723	-0,130	0,020
-646,999	15,309	-0,094	0,055
-645,984	91,980	-0,093	0,078
-644,970	-200,000	-0,035	0,117
-643,955	130,789	0,091	-0,087
-642,941	271,832	-0,054	-0,071
-641,926	283,243	0,053	0,071
-640,911	372,644	-0,094	0,142
-639,897	141,397	0,054	0,053
-638,882	118,489	0,077	-0,070
-637,868	-173,917	0,053	0,001
-636,853	36,235	-0,094	-0,061
-635,838	-69,049	-0,124	-0,035
-634,824	-200,000	0,033	-0,139
-633,809	137,481	-0,081	-0,078
-632,795	382,556	-0,107	0,164
-631,780	157,053	-0,097	-0,099
-630,765	800,000	0,005	-0,011
-629,751	800,000	0,004	-0,009
-628,736	88,084	-0,173	-0,142
-627,722	-79,026	0,183	-0,046
-626,707	-121,414	0,149	0,018
-625,692	8,322	0,165	-0,092
-624,678	-65,127	0,077	0,023
-623,663	800,000	-0,034	0,072
-622,649	800,000	-0,089	-0,197
-621,634	553,409	0,033	-0,060
-620,619	45,188	-0,047	-0,032
-619,605	96,011	-0,060	0,051
-618,590	800,000	-0,029	-0,070
-617,576	-63,907	0,138	0,042
-616,561	79,725	0,029	-0,023
-615,546	359,158	-0,024	0,036
-614,532	184,934	-0,090	0,099
-613,517	-70,345	-0,057	0,016
-612,503	604,561	-0,029	0,054
-611,488	571,722	0,015	0,027
-610,474	-200,000	0,012	0,068
-609,459	572,059	0,013	-0,024
-608,444	170,393	0,033	-0,035
-607,430	360,008	-0,070	0,104
-606,415	78,966	-0,034	-0,027
-605,401	219,662	0,048	-0,058
-604,386	-200,000	-0,012	0,112
-603,371	7,308	0,035	0,019
-602,357	-102,801	0,014	-0,003
-601,342	109,768	-0,055	-0,049
-600,328	-200,000	-0,007	-0,032
-599,313	-95,141	-0,064	0,013
-598,298	26,767	0,092	-0,057
-597,284	-37,085	-0,038	0,015
-596,269	-200,000	0,012	0,059
-595,255	278,275	0,067	0,089
-594,240	136,481	-0,099	-0,096
-593,225	-103,658	0,088	0,015
-592,211	-99,975	0,044	-0,008
-591,196	-83,818	-0,142	-0,033
-590,182	165,440	-0,051	0,054
-589,167	95,872	0,098	0,083
-588,152	407,102	0,022	-0,034
-587,138	79,645	0,108	-0,086
-586,123	-200,000	0,020	0,072
-585,109	-93,165	-0,125	-0,025
-584,094	475,482	-0,047	-0,079
-583,079	800,000	-0,092	0,220
-582,065	-56,861	0,033	-0,011
-581,050	-34,026	0,109	0,044
-580,036	-4,773	0,063	0,032
-579,021	800,000	-0,028	0,061
-578,006	-75,679	-0,020	-0,005
-576,992	302,790	-0,036	0,049
-575,977	386,637	0,031	-0,048
-574,963	-200,000	0,031	-0,111
-573,948	-3,310	-0,089	-0,045
-572,934	-95,923	-0,111	0,022
-571,919	800,000	0,035	0,073
-570,904	-200,000	0,023	-0,084
-569,890	-200,000	0,033	-0,130
-568,875	407,796	-0,027	-0,043
-567,861	-75,574	0,125	-0,033
-566,846	744,130	-0,041	-0,081
-565,831	525,651	0,090	0,158
-564,817	-200,000	0,009	0,072
-563,802	-35,424	0,070	0,028
-562,788	242,925	0,081	0,100
-561,773	377,770	-0,007	0,011
-560,758	-89,540	-0,039	0,008
-559,744	-165,627	-0,132	-0,004
-558,729	-15,024	0,089	0,042
-557,715	265,764	-0,055	-0,072
-556,700	-36,463	0,083	-0,033
-555,685	279,127	-0,076	-0,101
-554,671	800,000	0,055	-0,146
-553,656	122,322	-0,094	0,087
-552,642	501,414	0,048	0,083
-551,627	11,475	0,085	0,048
-550,612	-53,251	-0,048	0,016
-549,598	18,251	-0,118	-0,069
-548,583	84,760	-0,078	-0,063
-547,569	196,068	0,115	-0,129
-546,554	278,524	0,071	0,094
-545,539	-108,664	0,108	-0,017
-544,525	800,000	0,041	-0,095
-543,510	199,064	-0,038	0,043
-542,496	-200,000	-0,017	-0,177
-541,481	149,006	0,097	-0,097
-540,466	258,575	0,049	-0,063
-539,452	-134,526	-0,046	0,004
-538,437	-200,000	0,002	-0,051
-537,423	-68,223	0,140	-0,040
-536,408	16,430	0,074	0,043
-535,393	-56,215	-0,082	0,027
-534,379	247,223	0,064	0,080
-533,364	103,854	0,060	-0,052
-532,350	107,589	-0,019	0,016
-531,335	246,548	-0,039	0,049
-530,321	-17,086	0,037	0,017
-529,306	41,358	0,071	0,047
-528,291	-14,690	-0,113	0,053
-527,277	-110,316	-0,049	-0,007
-526,262	108,290	0,068	0,060
-525,248	70,858	0,092	-0,070
-524,233	-200,000	-0,012	0,112
-523,218	-44,394	0,139	0,051
-522,204	128,551	0,051	0,048
-521,189	587,154	-0,042	-0,076
-520,175	-31,596	-0,107	0,044
-519,160	44,404	-0,098	-0,066
-518,145	547,773	-0,027	-0,047
-517,131	-67,138	0,053	0,015
-516,116	145,585	-0,050	0,050
-515,102	-149,134	-0,103	-0,006
-514,087	800,000	-0,051	-0,159
-513,072	-200,000	-0,010	-0,050
-512,058	99,699	-0,056	-0,048
-511,043	-43,187	0,094	-0,035
-510,029	-131,029	0,054	-0,005
-509,014	524,440	0,082	0,143
-507,999	-154,676	-0,131	-0,006
-506,985	33,370	-0,110	-0,070
-505,970	-9,729	-0,142	-0,070
-504,956	-74,726	-0,095	0,025
-503,941	214,688	-0,108	0,127
-502,926	173,208	0,066	0,070
-501,912	-200,000	0,004	0,071
-500,897	-76,677	-0,087	0,022
-499,883	218,990	-0,050	-0,059
-498,868	-109,671	0,049	0,008
-497,853	-200,000	0,007	-0,023
-496,839	189,628	-0,023	-0,026
-495,824	-200,000	-0,010	-0,041
-494,810	-69,502	0,106	0,030
-493,795	-200,000	0,026	0,092
-492,781	12,540	0,009	0,005
-491,766	-200,000	0,013	-0,116
-490,751	-200,000	-0,086	0,000
-489,737	-200,000	-0,008	0,054
-488,722	800,000	0,030	-0,072
-487,708	231,767	0,060	0,073
-486,693	-200,000	-0,020	0,109
-485,678	246,791	0,049	-0,061
-484,664	165,868	0,046	-0,048
-483,649	331,299	0,051	-0,072
-482,635	257,843	-0,122	-0,155
-481,620	-92,735	0,071	0,015
-480,605	-200,000	-0,011	-0,044
-479,591	800,000	0,009	0,027
-478,576	169,157	-0,099	-0,104
-477,562	800,000	-0,041	0,119
-476,547	-200,000	-0,006	-0,093
-475,532	-52,126	-0,196	-0,067
-474,518	89,590	-0,090	0,074
-473,503	-200,000	0,013	-0,197
-472,489	-200,000	-0,004	-0,048
-471,474	-91,552	0,101	-0,021
-470,459	500,027	-0,037	0,063
-469,445	-200,000	-0,008	0,057
-468,430	83,350	0,039	0,031
-467,416	-9,489	0,128	-0,063
-466,401	4,670	-0,186	-0,100
-465,386	193,146	0,034	0,038
-464,372	-52,971	-0,086	-0,029
-463,357	-200,000	0,015	-0,076
-462,343	-125,172	-0,122	-0,014
-461,328	261,684	0,019	-0,024
-460,313	-200,000	0,012	0,191
-459,299	761,822	0,023	0,046
-458,284	-200,000	-0,002	-0,040
-457,270	-165,377	0,087	-0,003
-456,255	728,345	-0,113	-0,224
-455,241	-94,181	-0,095	-0,019
-454,226	-163,727	-0,098	0,003
-453,211	349,172	0,028	-0,041
-452,197	15,149	0,035	-0,020
-451,182	12,484	-0,135	0,077
-450,168	-200,000	0,030	0,193
-449,153	-83,093	0,026	-0,006
-448,138	-200,000	-0,019	-0,068
-447,124	-22,275	-0,098	-0,044
-446,109	383,197	-0,072	0,109
-445,095	-140,714	-0,028	-0,002
-444,080	55,467	0,169	0,120
-443,065	-200,000	-0,019	-0,075
-442,051	-200,000	-0,020	-0,105
-441,036	-200,000	0,012	-0,041
-440,022	790,382	-0,037	0,075
-439,007	-200,000	-0,023	-0,087
-437,992	254,059	-0,028	0,035
-436,978	47,280	0,039	-0,026
-435,963	0,990	0,090	0,047
-434,949	497,089	-0,013	-0,023
-433,934	-118,251	-0,177	-0,023
-432,919	-7,818	0,111	0,055
-431,905	308,542	0,071	-0,098
-430,890	-63,622	0,101	0,030
-429,876	153,647	0,128	-0,129
-428,861	800,000	0,033	0,090
-427,846	-16,064	0,087	-0,040
-426,832	-200,000	-0,003	-0,163
-425,817	800,000	0,022	-0,062
-424,803	-75,819	-0,067	-0,017
-423,788	-62,525	0,107	-0,032
-422,773	198,868	0,133	0,150
-421,759	111,407	-0,021	0,018
-420,744	210,069	0,038	0,043
-419,730	-83,048	-0,113	-0,027
-418,715	-64,580	-0,023	0,007
-417,701	-126,655	0,169	-0,018
-416,686	45,076	-0,036	0,024
-415,671	800,000	0,011	0,024
-414,657	129,005	0,094	0,088
-413,642	-200,000	-0,035	-0,135
-412,628	-130,084	-0,071	-0,007
-411,613	-200,000	0,043	-0,199
-410,598	-200,000	0,016	-0,054
-409,584	-200,000	-0,024	-0,093
-408,569	67,502	-0,032	0,024
-407,555	-200,000	0,019	0,150
-406,540	-9,265	-0,058	0,029
-405,525	800,000	-0,030	-0,082
-404,511	-30,059	0,056	-0,023
-403,496	-200,000	0,036	0,138
-402,482	92,116	-0,025	0,021
-401,467	252,162	0,111	0,139
-400,452	800,000	-0,042	-0,116
-399,438	800,000	0,043	0,092
-398,423	800,000	-0,064	0,193
-397,409	800,000	-0,056	0,116
-396,394	233,638	0,019	-0,023
-395,379	-200,000	-0,007	-0,074
-394,365	-49,637	0,102	-0,035
-393,350	379,366	0,071	0,107
-392,336	800,000	-0,054	0,119
-391,321	264,742	0,044	0,057
-390,306	-174,585	0,145	0,003
-389,292	800,000	0,063	-0,130
-388,277	13,974	-0,033	-0,019
-387,263	-141,772	0,056	0,004
-386,248	324,176	-0,019	0,026
-385,233	79,367	-0,088	-0,069
-384,219	-103,134	-0,095	0,016
-383,204	531,623	0,020	0,035
-382,190	201,290	0,030	-0,033
-381,175	286,070	-0,010	0,014
-380,160	800,000	0,015	0,032
-379,146	-90,721	0,138	0,029
-378,131	-200,000	-0,030	0,154
-377,117	-200,000	0,001	-0,112
-376,102	800,000	0,042	-0,090
-375,088	-200,000	-0,017	0,089
-374,073	-107,754	0,017	0,003
-373,058	-12,174	-0,073	0,035
-372,044	-71,894	0,158	0,043
-371,029	-200,000	0,026	-0,132
-370,015	-200,000	0,016	0,080
-369,000	-120,844	0,082	-0,010
-367,985	89,025	-0,051	0,041
-366,971	-1,907	-0,035	-0,018
-365,956	219,645	0,088	-0,103
-364,942	-40,095	0,136	0,052
-363,927	13,419	-0,070	-0,040
-362,912	198,403	-0,045	0,050
-361,898	800,000	0,039	-0,105
-360,883	728,013	-0,060	0,117
-359,869	-200,000	0,009	-0,111
-358,854	-200,000	0,000	-0,011
-357,839	107,561	0,009	0,008
-356,825	-166,389	0,112	-0,003
-355,810	173,922	-0,059	0,063
-354,796	313,949	0,053	0,073
-353,781	105,804	0,007	-0,006
-352,766	36,529	-0,091	0,059
-351,752	-200,000	0,004	0,030
-350,737	-200,000	0,023	0,087
-349,723	-200,000	-0,006	0,079
-348,708	-82,813	-0,038	-0,009
-347,693	-200,000	-0,032	0,123
-346,679	-200,000	-0,015	0,062
-345,664	-200,000	0,003	-0,095
-344,650	-200,000	-0,024	0,135
-343,635	312,169	0,048	0,066
-342,620	-69,824	0,070	-0,020
-341,606	-200,000	-0,036	0,118
-340,591	-200,000	0,037	-0,147
-339,577	800,000	-0,068	-0,204
-338,562	800,000	-0,039	-0,107
-337,548	-200,000	0,011	0,063
-336,533	-81,155	-0,028	-0,007
-335,518	585,442	-0,065	0,117
-334,504	-200,000	-0,008	0,041
-333,489	-200,000	0,007	-0,039
-332,475	641,433	0,070	-0,132
-331,460	-13,442	0,146	-0,069
-330,445	4,106	-0,085	-0,045
-329,431	800,000	-0,007	-0,015
-328,416	317,068	0,036	0,050
-327,402	453,580	-0,048	0,078
-326,387	-200,000	-0,008	0,075
-325,372	443,562	-0,019	0,031
-324,358	48,586	-0,031	-0,021
-323,343	-104,156	0,118	-0,020
-322,329	65,449	0,077	-0,057
-321,314	800,000	0,039	0,113
-320,299	195,882	0,070	-0,078
-319,285	260,471	0,020	-0,025
-318,270	-30,545	-0,109	-0,045
-317,256	-56,733	0,073	0,024
-316,241	-200,000	-0,006	-0,067
-315,226	43,084	-0,082	0,055
-314,212	43,325	0,075	0,050
-313,197	729,710	0,073	0,142
-312,183	-139,125	-0,162	-0,013
-311,168	79,991	-0,136	-0,107
-310,153	796,153	0,042	-0,084
-309,139	-9,037	-0,094	-0,046
-308,124	152,016	0,130	-0,130
-307,110	-200,000	0,037	-0,208
-306,095	159,544	0,026	-0,027
-305,080	-35,271	-0,078	-0,031
-304,066	-36,633	0,040	0,016
-303,051	507,380	0,044	0,074
-302,037	-131,483	0,155	0,015
-301,022	800,000	-0,072	-0,228
-300,008	-24,370	0,150	-0,065
-298,993	8,929	0,104	0,057
-297,978	800,000	0,033	-0,075
-296,964	40,467	-0,066	0,044
-295,949	800,000	-0,029	-0,089
-294,935	800,000	-0,025	-0,065
-293,920	259,030	0,063	-0,080
-292,905	184,145	-0,051	0,056
-291,891	-111,934	0,056	-0,008
-290,876	264,516	0,079	0,100
-289,862	-200,000	-0,012	0,100
-288,847	-200,000	0,021	0,123
-287,832	-200,000	-0,026	-0,090
-286,818	-129,658	-0,139	-0,014
-285,803	-98,678	0,072	-0,013
-284,789	72,998	-0,062	-0,047
-283,774	348,490	0,061	0,088
-282,759	11,447	-0,113	0,063
-281,745	800,000	0,019	0,050
-280,730	-200,000	-0,014	-0,064
-279,716	-200,000	-0,015	0,140
-278,701	244,985	0,011	0,014
-277,686	107,593	0,129	0,112
-276,672	800,000	0,050	0,112
-275,657	800,000	-0,047	0,102
-274,643	306,716	-0,031	-0,042
-273,628	-200,000	0,014	-0,071
-272,613	-104,149	0,048	0,008
-271,599	41,086	-0,079	0,052
-270,584	-200,000	0,015	0,066
-269,570	540,410	-0,078	0,136
-268,555	216,270	-0,050	-0,058
-267,540	683,790	-0,030	0,057
-266,526	-200,000	-0,014	-0,091
-265,511	-136,167	-0,052	0,004
-264,497	-74,724	0,022	-0,006
-263,482	-0,216	0,149	0,077
-262,467	5,153	0,176	-0,095
-261,453	800,000	0,045	-0,105
-260,438	-28,170	-0,110	0,046
-259,424	366,510	-0,059	0,087
-258,409	-200,000	0,017	-0,083
-257,395	800,000	-0,042	-0,125
-256,380	-200,000	0,015	-0,071
-255,365	52,563	-0,104	0,072
-254,351	577,335	-0,033	0,059
-253,336	-2,924	0,063	0,032
-252,322	239,647	0,046	0,055
-251,307	-200,000	-0,013	0,083
-250,292	70,033	0,024	-0,018
-249,278	800,000	0,040	0,113
-248,263	590,417	-0,032	-0,058
-247,249	-61,841	0,146	0,044
-246,234	78,196	-0,102	0,079
-245,219	-47,903	-0,021	0,007
-244,205	-200,000	0,024	-0,119
-243,190	-200,000	0,008	0,075
-242,176	-200,000	0,022	0,114
-241,161	310,146	-0,088	0,121
-240,146	188,649	0,037	-0,040
-239,132	123,278	-0,070	-0,064
-238,117	-50,527	-0,132	-0,045
-237,103	800,000	0,017	0,051
-236,088	190,336	0,073	0,080
-235,073	800,000	-0,063	0,135
-234,059	-52,773	0,118	0,039
-233,044	128,330	-0,107	0,099
-232,030	-142,993	-0,068	-0,005
-231,015	665,332	-0,054	-0,102
-230,000	-200,000	0,015	-0,170
-228,986	-200,000	0,033	-0,112
-227,971	446,227	0,035	0,056
-226,957	148,095	0,064	0,063
-225,942	-200,000	-0,015	-0,094
-224,927	-200,000	-0,029	-0,131
-223,913	-200,000	-0,007	-0,069
-222,898	-56,590	0,112	0,036
-221,884	239,000	0,071	0,087
-220,869	213,532	-0,063	-0,072
-219,855	-118,659	0,040	-0,005
-218,840	-14,556	-0,051	0,024
-217,825	345,881	-0,078	-0,112
-216,811	551,535	0,027	0,047
-215,796	-50,442	-0,044	0,015
-214,782	4,692	-0,121	-0,064
-213,767	328,306	0,058	0,081
-212,752	283,899	-0,024	0,031
-211,738	800,000	-0,005	0,010
-210,723	124,151	-0,060	-0,055
-209,709	-104,223	0,080	0,013
-208,694	-200,000	-0,018	0,069
-207,679	-4,307	0,068	0,034
-206,665	-200,000	0,017	0,062
-205,650	-200,000	-0,008	0,058
-204,636	447,872	0,040	-0,065
-203,621	-53,629	-0,100	-0,033
-202,606	-200,000	-0,020	0,125
-201,592	-200,000	0,009	-0,049
-200,577	123,444	0,047	-0,043
-199,563	-59,817	-0,071	-0,022
-198,548	-200,000	-0,012	-0,150
-197,533	-51,066	0,076	0,026
-196,519	-38,681	-0,068	0,026
-195,504	-172,847	-0,129	-0,003
-194,490	133,745	0,090	-0,085
-193,475	-200,000	-0,008	-0,031
-192,460	-86,123	0,109	0,024
-191,446	55,086	0,033	0,023
-190,431	-200,000	0,036	0,162
-189,417	800,000	-0,081	0,173
-188,402	167,276	-0,061	0,064
-187,387	76,335	-0,042	0,032
-186,373	633,089	-0,072	-0,133
-185,358	-41,229	-0,192	0,072
-184,344	-200,000	0,000	0,020
-183,329	275,695	0,014	-0,018
-182,315	392,209	0,060	-0,092
-181,300	-132,132	0,120	-0,011
-180,285	-96,397	-0,061	-0,012
-179,271	800,000	-0,041	-0,100
-178,256	-143,185	0,082	-0,006
-177,242	26,718	-0,026	-0,016
-176,227	-88,181	-0,041	-0,009
-175,212	649,179	0,033	-0,062
-174,198	-89,750	0,098	0,021
-173,183	14,094	-0,097	-0,055
-172,169	800,000	0,054	-0,126
-171,154	-200,000	0,021	-0,090
-170,139	-116,765	0,073	0,010
-169,125	-40,669	0,111	-0,042
-168,110	799,152	-0,021	-0,042
-167,096	-200,000	-0,016	0,090
-166,081	-200,000	-0,030	0,135
-165,066	800,000	0,035	-0,074
-164,052	-200,000	0,009	-0,221
-163,037	130,892	-0,043	0,040
-162,023	131,600	-0,147	0,137
-161,008	344,061	-0,009	-0,013
-159,993	800,000	0,076	0,211
-158,979	800,000	-0,015	-0,049
-157,964	79,782	-0,163	0,127
-156,950	-144,793	0,145	-0,010
-155,935	45,495	-0,092	0,062
-154,920	6,326	0,064	0,034
-153,906	160,023	-0,119	0,121
-152,891	14,315	-0,037	-0,021
-151,877	-39,384	-0,108	-0,041
-150,862	204,201	-0,055	-0,062
-149,847	-200,000	0,009	-0,064
-148,833	171,110	-0,042	-0,043
-147,818	-200,000	0,004	0,017
-146,804	237,543	-0,058	0,069
-145,789	-9,164	-0,038	-0,018
-144,775	27,299	0,134	0,081
-143,760	281,916	0,082	-0,107
-142,745	113,819	-0,128	-0,113
-141,731	800,000	0,032	-0,077
-140,716	392,151	0,042	-0,064
-139,702	-200,000	-0,003	-0,026
-138,687	-200,000	0,005	0,053
-137,672	375,355	-0,004	0,006
-136,658	-200,000	-0,000	0,043
-135,643	-200,000	-0,008	-0,069
-134,629	800,000	0,054	0,138
-133,614	151,772	0,079	-0,079
-132,599	-200,000	0,021	0,120
-131,585	-112,655	0,098	-0,014
-130,570	198,631	0,075	0,083
-129,556	37,635	-0,038	-0,024
-128,541	-112,504	-0,170	-0,024
-127,526	-112,790	0,073	0,010
-126,512	-109,939	0,176	-0,027
-125,497	14,764	0,184	0,104
-124,483	-200,000	-0,016	0,151
-123,468	129,129	-0,052	0,048
-122,453	313,096	-0,056	0,077
-121,439	231,066	-0,077	-0,092
-120,424	800,000	0,064	-0,156
-119,410	673,723	0,041	-0,078
