DTS Sentinel unit serial number:	SN410029Multiplexer serial number:	ORYXHardware model number:	OX2-SRSoftware version number:	ORYX F/W v4,00 Oryx Data Collector v3.7.2.0data status	okinstallation	B4 Nyhavnadifferential loss correction	single-endedforward channel	channel 2reverse channel	N/Adate	2023/12/19time	06:10:13forward acquisition time	300,00reverse acquisition time	0,00gamma	499,1914k internal	0,3127k external	0,3127temperature offset calibration	1,0000default loss term (dB/km)	0,3820temperature slope calibration	1,0000multiplexer offset coefficient	1,0000multiplexer slope coefficient	1,0000fibre end	0,00T internal ref (°C)	21,12T ext. ref 1 (°C)	6,44T ext. ref 2 (°C)	6,62length (m)	temperature (°C)	Stokes	anti-Stokes-744,400	-42,353	0,042	0,016
-743,385	-15,534	-0,105	0,050
-742,371	-27,293	-0,082	-0,035
-741,356	78,058	-0,151	0,120
-740,342	-76,056	-0,087	-0,023
-739,327	2,663	-0,333	0,179
-738,312	-62,453	-0,041	-0,013
-737,298	-79,504	-0,220	0,055
-736,283	-200,000	0,001	-0,122
-735,269	-40,976	-0,123	-0,047
-734,254	-161,920	-0,127	-0,005
-733,239	-119,762	-0,426	-0,054
-732,225	800,000	-0,030	0,098
-731,210	-200,000	-0,020	0,130
-730,196	-37,910	0,065	0,026
-729,181	54,887	0,079	0,056
-728,167	-58,116	-0,081	-0,026
-727,152	227,505	0,037	-0,045
-726,137	-8,478	-0,099	-0,050
-725,123	267,362	-0,104	-0,136
-724,108	-69,298	-0,035	0,010
-723,094	77,873	0,050	0,039
-722,079	-74,958	-0,131	-0,035
-721,064	-200,000	0,021	0,159
-720,050	208,147	0,019	0,022
-719,035	54,404	-0,131	-0,094
-718,021	-154,742	-0,072	-0,004
-717,006	-200,000	-0,001	-0,028
-715,991	183,346	0,081	-0,089
-714,977	-158,193	-0,094	-0,004
-713,962	-200,000	0,001	-0,142
-712,948	44,326	-0,039	-0,027
-711,933	442,066	0,019	-0,031
-710,918	-117,549	0,028	0,004
-709,904	360,121	-0,056	-0,084
-708,889	-34,516	-0,123	0,050
-707,875	116,400	-0,064	0,059
-706,860	-200,000	-0,028	-0,139
-705,845	-200,000	-0,001	-0,009
-704,831	-200,000	0,009	-0,059
-703,816	235,599	-0,052	0,064
-702,802	-200,000	0,034	-0,165
-701,787	800,000	-0,035	-0,094
-700,772	800,000	-0,066	0,151
-699,758	-200,000	-0,011	0,065
-698,743	-67,412	-0,012	-0,003
-697,729	21,933	-0,134	-0,081
-696,714	708,658	-0,044	0,087
-695,699	477,141	0,026	-0,044
-694,685	32,262	-0,047	-0,030
-693,670	800,000	-0,034	-0,103
-692,656	-11,670	0,121	-0,059
-691,641	327,071	-0,080	-0,115
-690,627	40,258	0,049	0,033
-689,612	-75,913	0,063	0,017
-688,597	134,959	0,158	-0,153
-687,583	-138,508	-0,053	0,004
-686,568	71,135	-0,044	-0,034
-685,554	-200,000	-0,006	-0,025
-684,539	-1,947	-0,062	-0,032
-683,524	296,929	-0,084	-0,114
-682,510	678,075	-0,070	0,137
-681,495	700,124	-0,041	-0,081
-680,481	-200,000	-0,033	0,117
-679,466	-59,421	-0,075	-0,024
-678,451	-103,028	0,102	-0,018
-677,437	-133,933	-0,081	0,007
-676,422	449,542	-0,012	-0,020
-675,408	-36,837	-0,106	-0,042
-674,393	800,000	0,005	0,012
-673,378	-156,886	0,119	0,005
-672,364	-106,149	-0,166	-0,027
-671,349	-148,287	-0,182	0,011
-670,335	-200,000	-0,023	0,201
-669,320	187,343	0,028	0,031
-668,305	-48,454	-0,012	-0,004
-667,291	462,284	0,011	-0,018
-666,276	792,617	-0,028	-0,057
-665,262	-161,471	-0,076	-0,003
-664,247	-15,645	-0,132	-0,062
-663,232	294,313	-0,055	0,075
-662,218	-65,051	-0,009	0,003
-661,203	18,348	0,031	-0,018
-660,189	-46,499	0,120	0,044
-659,174	-1,200	-0,099	-0,052
-658,159	15,369	-0,182	0,106
-657,145	800,000	-0,033	-0,108
-656,130	-200,000	-0,005	-0,061
-655,116	73,199	0,034	0,026
-654,101	-200,000	-0,015	0,126
-653,086	23,773	0,079	0,048
-652,072	298,653	-0,054	0,074
-651,057	-200,000	-0,006	-0,147
-650,043	-200,000	-0,003	-0,023
-649,028	499,821	-0,075	-0,129
-648,014	-200,000	-0,004	-0,069
-646,999	135,705	-0,136	0,131
-645,984	108,596	0,058	-0,052
-644,970	212,350	-0,045	-0,053
-643,955	-200,000	-0,020	-0,117
-642,941	10,778	-0,124	-0,070
-641,926	55,364	0,047	0,033
-640,911	-200,000	-0,029	-0,100
-639,897	90,157	0,005	-0,004
-638,882	-63,190	-0,066	0,020
-637,868	-200,000	0,014	-0,107
-636,853	22,654	0,102	-0,062
-635,838	207,372	-0,062	-0,072
-634,824	-150,627	0,082	0,005
-633,809	353,851	-0,044	-0,065
-632,795	800,000	-0,007	-0,018
-631,780	376,498	0,012	0,018
-630,765	-53,376	0,040	-0,014
-629,751	-92,702	-0,095	-0,020
-628,736	-103,123	-0,115	-0,020
-627,722	423,158	-0,072	-0,114
-626,707	189,238	-0,024	-0,027
-625,692	-200,000	-0,006	0,040
-624,678	45,171	0,059	-0,040
-623,663	165,521	-0,066	0,069
-622,649	297,318	-0,010	-0,014
-621,634	404,463	0,060	-0,094
-620,619	-200,000	0,010	0,082
-619,605	-200,000	-0,040	0,157
-618,590	119,849	-0,160	0,147
-617,576	800,000	0,067	0,152
-616,561	-4,203	-0,128	0,065
-615,546	-9,788	0,049	-0,024
-614,532	-124,310	-0,081	-0,009
-613,517	-200,000	0,001	0,019
-612,503	-200,000	-0,026	-0,086
-611,488	-92,379	0,037	0,008
-610,474	281,072	-0,026	-0,035
-609,459	-59,850	0,052	0,016
-608,444	-7,377	-0,074	-0,037
-607,430	106,662	-0,116	0,102
-606,415	-200,000	0,003	-0,023
-605,401	29,593	0,021	-0,013
-604,386	-200,000	-0,000	0,176
-603,371	-200,000	0,005	-0,020
-602,357	-50,441	0,115	0,040
-601,342	26,579	-0,099	-0,061
-600,328	-139,400	-0,092	0,007
-599,313	-60,364	0,022	0,007
-598,298	792,007	-0,024	-0,048
-597,284	800,000	-0,042	0,121
-596,269	-200,000	0,041	0,185
-595,255	-1,883	0,058	0,030
-594,240	-170,173	0,091	-0,002
-593,225	800,000	-0,049	-0,121
-592,211	-200,000	0,004	0,070
-591,196	604,880	-0,073	-0,135
-590,182	20,549	0,051	-0,030
-589,167	-188,018	-0,070	0,001
-588,152	81,227	-0,032	0,025
-587,138	-70,432	-0,089	0,025
-586,123	422,936	-0,066	-0,105
-585,109	-91,314	-0,072	-0,015
-584,094	166,359	-0,038	0,040
-583,079	100,636	-0,099	0,085
-582,065	-200,000	-0,007	-0,030
-581,050	120,649	0,073	-0,067
-580,036	380,314	-0,023	-0,035
-579,021	-145,122	0,024	-0,002
-578,006	159,392	0,075	-0,077
-576,992	87,769	-0,118	-0,097
-575,977	383,871	0,112	-0,172
-574,963	272,097	0,029	-0,037
-573,948	800,000	-0,016	-0,034
-572,934	224,959	0,034	0,041
-571,919	56,173	0,112	0,081
-570,904	-38,401	-0,073	0,028
-569,890	-65,431	-0,151	0,045
-568,875	-178,765	-0,013	-0,000
-567,861	405,522	-0,079	-0,123
-566,846	-83,395	0,079	-0,019
-565,831	800,000	0,025	-0,066
-564,817	800,000	-0,027	-0,087
-563,802	-200,000	-0,017	0,100
-562,788	328,290	0,032	0,045
-561,773	800,000	-0,043	-0,098
-560,758	-200,000	0,007	-0,041
-559,744	-200,000	0,000	0,057
-558,729	214,943	0,014	-0,016
-557,715	22,545	-0,091	-0,055
-556,700	-200,000	0,011	-0,079
-555,685	7,079	-0,039	-0,021
-554,671	49,949	0,027	-0,018
-553,656	654,379	0,059	-0,113
-552,642	219,011	0,126	0,149
-551,627	38,970	0,025	0,016
-550,612	-200,000	0,020	-0,070
-549,598	800,000	0,019	-0,048
-548,583	433,627	0,054	-0,086
-547,569	121,314	-0,073	-0,067
-546,554	-200,000	0,003	-0,025
-545,539	-50,523	0,073	-0,025
-544,525	-200,000	-0,017	0,058
-543,510	507,776	-0,087	-0,150
-542,496	339,441	0,012	-0,017
-541,481	-200,000	-0,013	-0,044
-540,466	454,656	0,041	0,067
-539,452	-200,000	-0,007	-0,126
-538,437	800,000	-0,043	0,105
-537,423	-200,000	-0,014	0,171
-536,408	800,000	0,053	-0,143
-535,393	58,557	-0,058	-0,042
-534,379	800,000	0,024	0,054
-533,364	800,000	0,055	-0,133
-532,350	68,310	-0,084	0,064
-531,335	3,648	0,074	0,040
-530,321	800,000	-0,021	0,049
-529,306	-141,692	-0,110	0,008
-528,291	-37,569	-0,033	-0,013
-527,277	101,459	0,094	-0,081
-526,262	36,453	-0,043	-0,028
-525,248	-59,131	0,041	0,013
-524,233	-120,638	0,051	0,006
-523,218	109,342	0,017	-0,015
-522,204	-23,736	-0,106	0,047
-521,189	-200,000	0,012	-0,139
-520,175	-200,000	0,000	-0,036
-519,160	-143,409	0,021	-0,001
-518,145	800,000	-0,014	-0,043
-517,131	-200,000	0,005	0,047
-516,116	-200,000	0,016	-0,061
-515,102	800,000	0,021	-0,068
-514,087	3,746	-0,050	-0,027
-513,072	-37,672	0,078	0,031
-512,058	234,149	-0,033	-0,040
-511,043	800,000	0,015	-0,037
-510,029	800,000	0,036	-0,090
-509,014	-1,702	0,013	-0,007
-507,999	57,303	-0,109	0,078
-506,985	56,421	-0,096	0,069
-505,970	-102,152	0,066	-0,012
-504,956	358,840	-0,052	0,077
-503,941	15,961	0,055	0,032
-502,926	335,952	0,024	-0,035
-501,912	24,335	0,027	-0,016
-500,897	87,667	-0,046	-0,037
-499,883	800,000	0,037	0,109
-498,868	800,000	-0,070	0,150
-497,853	-105,922	0,065	0,011
-496,839	117,558	0,115	0,104
-495,824	274,565	-0,040	0,052
-494,810	-176,658	0,126	-0,002
-493,795	-200,000	-0,001	-0,015
-492,781	228,272	0,045	-0,054
-491,766	-95,662	-0,107	-0,021
-490,751	11,533	-0,154	-0,087
-489,737	-200,000	-0,022	-0,119
-488,722	516,726	-0,019	0,033
-487,708	-35,050	0,137	0,055
-486,693	358,562	-0,034	0,051
-485,678	-200,000	0,023	0,139
-484,664	-106,448	0,086	0,014
-483,649	-200,000	-0,002	-0,099
-482,635	-200,000	0,007	0,097
-481,620	-200,000	-0,040	0,175
-480,605	-200,000	-0,023	0,077
-479,591	87,301	-0,082	0,067
-478,576	444,153	0,018	-0,029
-477,562	593,401	0,061	-0,111
-476,547	-57,736	0,071	-0,023
-475,532	-87,392	-0,056	0,012
-474,518	79,510	0,130	0,102
-473,503	-144,639	0,045	0,003
-472,489	-200,000	-0,010	0,048
-471,474	-57,184	-0,136	0,044
-470,459	-69,830	0,128	-0,036
-469,445	800,000	0,007	-0,016
-468,430	481,665	0,050	-0,084
-467,416	-200,000	-0,007	0,027
-466,401	800,000	0,021	0,060
-465,386	800,000	0,041	0,099
-464,372	276,841	0,051	-0,068
-463,357	183,396	-0,090	-0,098
-462,343	-31,356	0,071	-0,029
-461,328	-64,745	-0,012	0,004
-460,313	800,000	0,008	-0,017
-459,299	-200,000	0,005	-0,128
-458,284	-66,270	0,123	-0,036
-457,270	800,000	-0,054	-0,130
-456,255	2,828	0,033	0,018
-455,241	-200,000	-0,010	-0,241
-454,226	-109,413	-0,072	-0,011
-453,211	285,026	0,030	-0,040
-452,197	-161,616	-0,077	0,003
-451,182	-200,000	0,008	0,140
-450,168	800,000	0,053	0,123
-449,153	-52,789	-0,132	-0,044
-448,138	550,584	-0,056	-0,099
-447,124	-200,000	-0,016	-0,066
-446,109	-200,000	-0,038	-0,202
-445,095	800,000	0,023	0,055
-444,080	218,003	0,016	0,019
-443,065	-122,028	-0,071	-0,009
-442,051	159,502	-0,049	-0,050
-441,036	-200,000	-0,006	-0,056
-440,022	-35,073	-0,152	0,061
-439,007	800,000	0,036	-0,102
-437,992	-200,000	-0,009	0,114
-436,978	168,053	0,017	-0,017
-435,963	-69,832	0,044	-0,012
-434,949	-69,652	-0,019	0,005
-433,934	60,913	0,080	0,058
-432,919	800,000	-0,006	-0,018
-431,905	-87,869	-0,117	0,026
-430,890	227,984	0,031	0,037
-429,876	28,038	0,132	0,082
-428,861	-200,000	0,026	-0,105
-427,846	129,265	-0,135	0,127
-426,832	-115,234	-0,142	0,020
-425,817	-200,000	-0,017	-0,150
-424,803	-200,000	-0,015	-0,052
-423,788	-200,000	0,013	-0,101
-422,773	-42,551	0,040	-0,015
-421,759	63,755	-0,009	0,006
-420,744	165,717	-0,033	-0,035
-419,730	-200,000	0,028	0,098
-418,715	126,488	-0,069	0,064
-417,701	-200,000	-0,033	0,129
-416,686	161,244	0,058	0,060
-415,671	384,529	0,102	0,155
-414,657	118,701	0,093	0,085
-413,642	-120,815	0,049	0,006
-412,628	-51,194	-0,046	0,016
-411,613	-200,000	0,037	-0,217
-410,598	-181,374	-0,123	0,002
-409,584	98,289	0,078	0,066
-408,569	90,653	0,058	-0,048
-407,555	205,889	0,093	-0,106
-406,540	-181,477	0,069	-0,001
-405,525	-200,000	-0,004	0,019
-404,511	505,959	0,022	0,037
-403,496	800,000	-0,027	-0,078
-402,482	-200,000	-0,006	0,071
-401,467	-91,423	-0,100	0,021
-400,452	800,000	-0,024	0,066
-399,438	-88,096	0,122	-0,027
-398,423	-200,000	0,001	-0,063
-397,409	-102,979	-0,052	-0,009
-396,394	609,621	0,021	-0,040
-395,379	-192,803	0,042	-0,000
-394,365	117,293	0,112	0,101
-393,350	241,253	-0,054	0,066
-392,336	1,178	-0,027	-0,014
-391,321	273,663	0,058	0,076
-390,306	800,000	-0,021	-0,055
-389,292	-14,785	-0,047	0,022
-388,277	-200,000	-0,044	-0,142
-387,263	-89,318	0,066	0,014
-386,248	706,886	-0,043	0,084
-385,233	-200,000	0,013	0,138
-384,219	-200,000	0,028	0,160
-383,204	-200,000	-0,036	-0,153
-382,190	394,065	0,059	0,090
-381,175	730,064	0,070	-0,138
-380,160	203,372	0,095	-0,108
-379,146	618,879	-0,009	0,016
-378,131	84,538	0,082	0,066
-377,117	19,991	0,065	0,038
-376,102	-200,000	0,002	-0,007
-375,088	800,000	0,030	-0,077
-374,073	180,490	-0,066	-0,071
-373,058	800,000	-0,045	0,112
-372,044	38,343	0,092	0,060
-371,029	-200,000	0,008	0,067
-370,015	160,520	0,119	-0,122
-369,000	-26,849	-0,118	-0,050
-367,985	69,602	-0,053	-0,040
-366,971	800,000	0,033	0,072
-365,956	-200,000	0,004	0,230
-364,942	234,957	0,103	0,125
-363,927	548,020	0,046	0,082
-362,912	258,180	0,093	-0,117
-361,898	-180,576	-0,212	0,003
-360,883	-108,704	-0,068	-0,011
-359,869	41,426	-0,084	0,056
-358,854	-103,756	0,102	0,017
-357,839	8,109	-0,045	0,025
-356,825	-58,174	-0,173	0,055
-355,810	-200,000	-0,005	-0,087
-354,796	-200,000	0,019	-0,082
-353,781	-200,000	-0,010	-0,085
-352,766	-87,181	-0,098	-0,022
-351,752	254,075	-0,019	-0,024
-350,737	-200,000	0,015	0,093
-349,723	-91,702	0,143	-0,029
-348,708	58,073	0,034	0,024
-347,693	-200,000	-0,014	0,123
-346,679	191,606	0,060	-0,066
-345,664	-1,538	-0,102	0,053
-344,650	93,023	0,078	0,065
-343,635	-160,637	-0,087	0,003
-342,620	800,000	0,030	0,082
-341,606	-200,000	-0,004	0,048
-340,591	72,911	-0,037	0,028
-339,577	181,775	-0,071	-0,077
-338,562	-200,000	-0,029	-0,158
-337,548	800,000	0,030	-0,075
-336,533	429,153	-0,065	0,104
-335,518	-48,978	0,129	-0,045
-334,504	219,145	-0,018	0,021
-333,489	-200,000	-0,015	0,053
-332,475	-143,928	-0,106	-0,007
-331,460	277,432	-0,035	-0,046
-330,445	-120,733	0,068	-0,008
-329,431	4,547	-0,025	-0,013
-328,416	36,042	0,152	-0,098
-327,402	554,066	-0,039	-0,069
-326,387	-56,479	-0,149	-0,048
-325,372	85,418	0,155	-0,125
-324,358	800,000	-0,050	-0,135
-323,343	-106,295	0,115	-0,019
-322,329	800,000	0,027	0,077
-321,314	-91,193	-0,103	-0,021
-320,299	-200,000	0,005	0,027
-319,285	800,000	0,027	-0,060
-318,270	85,027	-0,125	-0,100
-317,256	-200,000	-0,002	-0,106
-316,241	188,073	-0,057	-0,062
-315,226	800,000	0,007	0,021
-314,212	-200,000	-0,007	0,145
-313,197	-83,586	0,132	0,031
-312,183	-200,000	-0,051	0,181
-311,168	-123,247	-0,054	0,006
-310,153	81,546	0,034	0,027
-309,139	-84,495	0,044	0,010
-308,124	-200,000	-0,014	0,047
-307,110	-84,279	0,189	-0,044
-306,095	767,131	0,034	-0,068
-305,080	129,885	-0,030	-0,028
-304,066	800,000	-0,077	0,190
-303,051	-52,081	-0,029	0,010
-302,037	284,136	-0,009	0,012
-301,022	-200,000	-0,030	0,141
-300,008	800,000	0,011	0,025
-298,993	239,318	0,045	0,055
-297,978	399,843	0,107	0,164
-296,964	-112,572	-0,159	0,023
-295,949	188,758	-0,068	-0,074
-294,935	-71,603	-0,066	0,018
-293,920	454,340	-0,034	0,055
-292,905	-104,518	0,196	0,033
-291,891	200,059	-0,050	-0,057
-290,876	57,093	-0,103	-0,074
-289,862	-200,000	0,004	-0,040
-288,847	-200,000	-0,004	0,061
-287,832	-200,000	-0,015	-0,102
-286,818	392,709	0,040	-0,061
-285,803	-105,448	-0,043	-0,007
-284,789	-99,747	0,127	0,023
-283,774	-70,634	0,071	0,019
-282,759	-200,000	0,043	0,143
-281,745	14,984	-0,059	0,034
-280,730	376,953	-0,114	-0,171
-279,716	-200,000	0,020	-0,080
-278,701	-34,696	0,128	0,051
-277,686	-134,254	0,085	0,008
-276,672	-200,000	-0,006	0,053
-275,657	-200,000	-0,005	-0,032
-274,643	-200,000	-0,000	0,061
-273,628	-141,184	-0,111	-0,008
-272,613	-60,713	0,118	0,036
-271,599	-200,000	-0,004	-0,041
-270,584	-178,788	-0,133	-0,002
-269,570	531,702	0,013	-0,023
-268,555	-200,000	-0,019	-0,067
-267,540	53,623	-0,052	0,037
-266,526	800,000	-0,043	0,103
-265,511	-129,502	-0,086	-0,009
-264,497	-200,000	0,006	-0,023
-263,482	-77,860	0,077	0,019
-262,467	-169,112	0,093	0,002
-261,453	-200,000	0,000	-0,124
-260,438	399,595	-0,084	-0,129
-259,424	800,000	0,014	-0,035
-258,409	-200,000	-0,007	0,052
-257,395	146,022	0,084	0,083
-256,380	234,682	0,069	0,083
-255,365	-151,337	0,074	0,004
-254,351	11,065	0,078	0,044
-253,336	-78,210	-0,106	0,026
-252,322	-17,301	0,072	-0,033
-251,307	800,000	-0,025	-0,069
-250,292	44,386	0,072	0,048
-249,278	-200,000	-0,002	0,016
-248,263	-87,577	-0,193	0,042
-247,249	-200,000	-0,003	0,162
-246,234	-200,000	0,011	-0,097
-245,219	18,544	-0,075	-0,043
-244,205	13,796	0,042	0,024
-243,190	-6,452	0,050	-0,025
-242,176	169,872	0,073	0,077
-241,161	800,000	0,026	0,055
-240,146	-60,950	-0,084	0,026
-239,132	800,000	0,012	0,037
-238,117	49,815	0,036	-0,025
-237,103	201,778	0,094	-0,105
-236,088	-200,000	-0,013	-0,060
-235,073	295,710	-0,050	0,067
-234,059	-200,000	0,019	0,155
-233,044	419,543	0,016	0,026
-232,030	-142,658	0,045	0,003
-231,015	12,768	-0,073	0,041
-230,000	-104,562	-0,087	0,015
-228,986	-200,000	-0,006	-0,093
-227,971	98,743	-0,067	-0,056
-226,957	-79,640	0,200	0,049
-225,942	-172,486	0,014	0,000
-224,927	80,080	-0,027	-0,021
-223,913	25,595	0,045	-0,027
-222,898	800,000	0,009	-0,021
-221,884	465,679	-0,080	-0,132
-220,869	-200,000	-0,006	-0,083
-219,855	-20,787	0,079	-0,035
-218,840	-26,098	0,325	0,139
-217,825	162,624	0,081	0,083
-216,811	13,939	0,049	-0,027
-215,796	352,488	0,084	-0,122
-214,782	-76,462	0,063	-0,016
-213,767	11,297	-0,041	-0,023
-212,752	2,690	0,082	-0,043
-211,738	800,000	-0,009	-0,029
-210,723	-57,839	0,090	-0,029
-209,709	140,723	0,020	0,019
-208,694	440,648	-0,026	-0,042
-207,679	-137,316	-0,038	-0,003
-206,665	-200,000	0,017	0,066
-205,650	-200,000	-0,003	0,039
-204,636	-119,376	-0,069	0,009
-203,621	126,461	0,058	0,054
-202,606	800,000	-0,030	0,091
-201,592	800,000	0,028	0,076
-200,577	259,639	0,030	-0,038
-199,563	800,000	0,006	-0,013
-198,548	-56,737	0,028	-0,009
-197,533	-200,000	0,009	0,076
-196,519	-200,000	0,003	0,062
-195,504	-151,396	-0,128	0,007
-194,490	-200,000	0,003	0,077
-193,475	148,936	0,082	0,081
-192,460	800,000	0,029	0,081
-191,446	-200,000	0,006	0,073
-190,431	-200,000	-0,003	0,027
-189,417	-36,422	0,060	-0,023
-188,402	206,333	-0,119	0,136
-187,387	80,588	-0,053	-0,042
-186,373	-92,564	-0,107	-0,022
-185,358	-71,402	-0,086	-0,023
-184,344	-64,412	0,051	-0,015
-183,329	-33,844	0,085	0,034
-182,315	-38,751	0,079	-0,030
-181,300	217,828	-0,048	-0,056
-180,285	110,010	-0,039	0,034
-179,271	433,690	-0,069	-0,110
-178,256	537,286	-0,065	-0,113
-177,242	211,925	0,097	0,112
-176,227	-200,000	0,012	0,087
-175,212	612,584	-0,037	0,068
-174,198	-77,520	-0,026	0,007
-173,183	12,539	-0,141	-0,079
-172,169	-22,345	-0,063	-0,028
-171,154	-200,000	-0,012	0,101
-170,139	216,367	-0,109	-0,126
-169,125	524,211	0,021	-0,037
-168,110	800,000	-0,051	0,139
-167,096	3,345	0,071	0,037
-166,081	597,000	-0,029	-0,052
-165,066	734,644	-0,036	0,070
-164,052	-200,000	0,029	-0,096
-163,037	-200,000	0,008	0,050
-162,023	-200,000	-0,006	0,026
-161,008	175,663	0,128	0,136
-159,993	-200,000	0,009	0,046
-158,979	-16,404	0,009	-0,004
-157,964	245,462	-0,052	0,064
-156,950	-200,000	-0,017	-0,122
-155,935	-99,010	0,117	0,021
-154,920	186,522	0,109	0,118
-153,906	201,756	0,075	-0,085
-152,891	20,105	0,120	0,070
-151,877	15,885	0,046	0,026
-150,862	595,266	-0,041	-0,074
-149,847	-200,000	-0,014	-0,081
-148,833	-26,219	-0,020	-0,008
-147,818	-157,424	0,062	-0,003
-146,804	-2,583	-0,105	0,053
-145,789	-37,424	0,174	-0,067
-144,775	800,000	-0,013	-0,030
-143,760	-26,713	0,123	-0,052
-142,745	358,399	-0,033	-0,047
-141,731	111,713	-0,080	0,070
-140,716	-103,468	0,094	-0,016
-139,702	-200,000	-0,015	-0,188
-138,687	35,132	0,088	0,056
-137,672	-52,821	0,025	-0,008
-136,658	385,571	-0,022	0,034
-135,643	345,232	-0,021	0,031
-134,629	-82,727	-0,067	0,016
-133,614	800,000	0,037	-0,114
-132,599	416,048	0,064	-0,100
-131,585	-103,029	0,181	0,031
-130,570	235,138	-0,061	0,073
-129,556	555,977	0,055	-0,096
-128,541	-22,986	-0,072	-0,031
-127,526	374,277	-0,037	-0,055
-126,512	-163,244	0,158	0,005
-125,497	800,000	-0,017	-0,045
-124,483	24,803	-0,105	-0,063
-123,468	38,270	0,052	-0,034
-122,453	-57,996	-0,134	-0,042
-121,439	-200,000	-0,025	-0,109
-120,424	1,804	-0,097	-0,050
