DTS Sentinel unit serial number:	SN410029Multiplexer serial number:	ORYXHardware model number:	OX2-SRSoftware version number:	ORYX F/W v4,00 Oryx Data Collector v3.7.2.0data status	okinstallation	B4 Nyhavnadifferential loss correction	single-endedforward channel	channel 2reverse channel	N/Adate	2023/12/18time	22:40:13forward acquisition time	300,00reverse acquisition time	0,00gamma	499,1914k internal	0,3124k external	0,3124temperature offset calibration	1,0000default loss term (dB/km)	0,3820temperature slope calibration	1,0000multiplexer offset coefficient	1,0000multiplexer slope coefficient	1,0000fibre end	0,00T internal ref (°C)	21,90T ext. ref 1 (°C)	7,36T ext. ref 2 (°C)	7,45length (m)	temperature (°C)	Stokes	anti-Stokes-744,400	-159,072	0,100	-0,004
-743,385	41,289	-0,226	0,152
-742,371	92,879	0,043	-0,036
-741,356	146,630	-0,207	0,207
-740,342	81,193	0,058	-0,047
-739,327	-112,591	-0,245	0,036
-738,312	800,000	0,084	-0,202
-737,298	-168,622	-0,162	0,005
-736,283	800,000	-0,007	0,018
-735,269	195,583	-0,182	0,206
-734,254	-200,000	-0,058	0,249
-733,239	-127,415	-0,395	-0,042
-732,225	-108,277	-0,068	-0,011
-731,210	-84,835	-0,064	-0,015
-730,196	-200,000	0,004	0,089
-729,181	555,230	0,026	-0,047
-728,167	-200,000	0,022	0,110
-727,152	-200,000	0,012	0,128
-726,137	800,000	-0,038	0,084
-725,123	-35,384	-0,120	0,048
-724,108	800,000	-0,056	-0,165
-723,094	540,567	-0,117	-0,208
-722,079	239,888	0,072	-0,090
-721,064	246,625	0,056	-0,071
-720,050	27,176	-0,093	0,058
-719,035	-45,768	0,051	-0,019
-718,021	5,063	-0,164	-0,089
-717,006	-123,413	0,059	-0,007
-715,991	-90,001	-0,173	-0,037
-714,977	57,331	-0,034	0,024
-713,962	800,000	0,024	0,069
-712,948	-200,000	-0,009	-0,052
-711,933	-94,796	-0,081	0,016
-710,918	257,559	-0,036	0,046
-709,904	-89,591	0,041	0,009
-708,889	-107,022	-0,012	-0,002
-707,875	800,000	0,040	-0,087
-706,860	-200,000	0,032	-0,116
-705,845	-38,748	0,081	0,032
-704,831	684,337	0,034	0,066
-703,816	453,164	-0,051	0,084
-702,802	-200,000	-0,011	0,094
-701,787	275,897	0,039	0,052
-700,772	-200,000	0,036	-0,126
-699,758	-157,579	0,024	-0,001
-698,743	800,000	0,020	-0,048
-697,729	-200,000	0,029	0,104
-696,714	-55,847	0,180	-0,060
-695,699	-200,000	-0,002	0,084
-694,685	-125,956	-0,143	-0,016
-693,670	507,540	-0,042	-0,073
-692,656	221,782	0,029	0,035
-691,641	-200,000	0,007	-0,044
-690,627	-41,698	0,192	-0,073
-689,612	-200,000	-0,012	-0,044
-688,597	-200,000	0,001	0,008
-687,583	229,496	-0,032	-0,038
-686,568	800,000	-0,043	-0,109
-685,554	-59,363	-0,076	0,024
-684,539	-15,107	-0,130	0,062
-683,524	174,749	0,057	-0,061
-682,510	-62,682	-0,032	0,010
-681,495	-74,739	0,132	-0,035
-680,481	-200,000	-0,001	0,103
-679,466	-200,000	0,001	-0,076
-678,451	129,091	-0,051	-0,048
-677,437	18,221	-0,103	-0,061
-676,422	193,058	0,056	0,063
-675,408	-200,000	0,003	0,094
-674,393	105,582	-0,044	-0,038
-673,378	55,338	-0,113	0,081
-672,364	79,527	-0,120	-0,095
-671,349	-56,133	-0,045	-0,015
-670,335	180,202	-0,056	0,061
-669,320	-132,253	0,088	-0,008
-668,305	800,000	0,039	0,085
-667,291	141,290	-0,018	0,017
-666,276	-200,000	0,018	-0,121
-665,262	-200,000	-0,004	-0,017
-664,247	-200,000	0,024	-0,171
-663,232	800,000	0,022	-0,068
-662,218	167,354	-0,009	-0,010
-661,203	-200,000	0,003	0,098
-660,189	154,631	-0,043	0,044
-659,174	-166,288	-0,139	0,004
-658,159	-18,108	-0,256	-0,119
-657,145	-30,056	0,055	0,023
-656,130	-200,000	-0,015	-0,059
-655,116	-200,000	0,003	-0,024
-654,101	359,571	-0,055	-0,082
-653,086	-200,000	0,005	-0,068
-652,072	-178,392	-0,068	0,001
-651,057	408,893	0,114	-0,180
-650,043	800,000	-0,028	-0,059
-649,028	800,000	-0,048	-0,120
-648,014	399,431	0,062	0,097
-646,999	-200,000	-0,023	-0,100
-645,984	-53,295	-0,046	-0,015
-644,970	-145,299	-0,109	-0,007
-643,955	402,807	-0,042	0,065
-642,941	-182,376	0,020	0,000
-641,926	-8,235	-0,046	-0,023
-640,911	-200,000	0,007	-0,081
-639,897	-200,000	-0,016	0,056
-638,882	-137,954	0,109	-0,009
-637,868	-200,000	-0,018	-0,091
-636,853	-200,000	0,037	-0,189
-635,838	-155,452	0,107	0,005
-634,824	50,427	-0,093	-0,065
-633,809	-13,018	0,093	-0,045
-632,795	564,180	0,054	-0,097
-631,780	800,000	0,038	-0,094
-630,765	32,774	-0,155	-0,099
-629,751	-81,468	-0,067	-0,016
-628,736	-145,697	-0,100	-0,007
-627,722	428,034	-0,067	0,107
-626,707	-200,000	-0,013	0,075
-625,692	76,346	-0,057	0,044
-624,678	-200,000	-0,014	-0,119
-623,663	-7,584	0,075	0,037
-622,649	-200,000	0,044	-0,154
-621,634	196,052	-0,061	-0,068
-620,619	-102,057	-0,120	-0,021
-619,605	58,758	0,021	0,015
-618,590	-50,946	0,030	-0,010
-617,576	-86,966	-0,057	0,013
-616,561	54,260	-0,091	-0,065
-615,546	-99,358	0,023	-0,004
-614,532	800,000	0,052	-0,147
-613,517	-0,153	0,125	-0,066
-612,503	-200,000	0,041	-0,152
-611,488	800,000	0,045	0,123
-610,474	-78,980	0,099	0,025
-609,459	800,000	-0,038	0,107
-608,444	-154,586	-0,063	-0,003
-607,430	-200,000	-0,043	-0,147
-606,415	186,872	-0,046	-0,051
-605,401	100,292	0,153	-0,131
-604,386	91,084	0,009	-0,007
-603,371	800,000	0,039	-0,088
-602,357	-128,826	-0,026	-0,003
-601,342	192,345	-0,112	-0,125
-600,328	800,000	-0,022	0,053
-599,313	-200,000	0,009	-0,287
-598,298	-200,000	0,014	-0,045
-597,284	-200,000	0,017	0,071
-596,269	800,000	-0,045	-0,127
-595,255	-153,343	0,018	-0,001
-594,240	-200,000	0,004	0,138
-593,225	59,953	-0,067	0,049
-592,211	-136,659	0,109	0,009
-591,196	800,000	0,078	-0,227
-590,182	800,000	0,032	0,102
-589,167	-110,002	0,096	-0,015
-588,152	619,611	0,060	0,112
-587,138	800,000	-0,009	-0,022
-586,123	219,531	0,060	-0,071
-585,109	800,000	-0,097	-0,257
-584,094	151,673	-0,126	-0,127
-583,079	-7,816	-0,092	0,046
-582,065	64,647	-0,044	0,033
-581,050	-51,117	0,044	0,015
-580,036	17,086	-0,102	-0,060
-579,021	-17,009	-0,009	-0,004
-578,006	378,614	-0,029	-0,044
-576,992	-170,832	0,129	0,003
-575,977	-31,986	-0,075	-0,031
-574,963	446,317	0,047	0,077
-573,948	-78,957	0,171	0,043
-572,934	145,946	-0,081	-0,081
-571,919	-82,230	-0,120	-0,029
-570,904	85,903	0,097	0,079
-569,890	-39,048	0,068	0,026
-568,875	-200,000	0,008	-0,032
-567,861	-87,387	0,094	0,021
-566,846	-200,000	-0,018	-0,123
-565,831	135,693	0,022	0,021
-564,817	-32,290	0,064	-0,026
-563,802	502,467	-0,038	-0,065
-562,788	-200,000	0,005	0,089
-561,773	244,284	0,038	-0,048
-560,758	50,521	-0,093	0,065
-559,744	45,520	-0,049	0,034
-558,729	52,181	0,081	-0,057
-557,715	-74,216	-0,101	0,027
-556,700	-200,000	-0,056	-0,191
-555,685	-186,998	-0,136	-0,001
-554,671	163,331	0,035	0,036
-553,656	-22,180	-0,117	0,052
-552,642	-200,000	-0,027	0,146
-551,627	-200,000	0,003	-0,109
-550,612	107,677	-0,094	-0,083
-549,598	493,652	0,036	-0,061
-548,583	-29,507	-0,074	0,031
-547,569	333,842	0,020	0,029
-546,554	-200,000	0,011	0,067
-545,539	-200,000	-0,046	0,171
-544,525	-95,381	0,022	0,004
-543,510	800,000	-0,036	-0,085
-542,496	607,566	0,048	-0,089
-541,481	-200,000	-0,045	-0,240
-540,466	-200,000	0,020	0,108
-539,452	-200,000	-0,008	0,119
-538,437	-54,022	0,077	0,026
-537,423	369,208	0,059	-0,088
-536,408	581,470	-0,019	-0,035
-535,393	-84,634	-0,162	-0,038
-534,379	-200,000	-0,010	-0,056
-533,364	12,628	0,147	0,084
-532,350	800,000	0,030	-0,066
-531,335	125,415	0,037	-0,035
-530,321	-200,000	0,017	0,057
-529,306	-25,694	0,020	-0,009
-528,291	800,000	-0,046	-0,136
-527,277	101,361	-0,065	-0,056
-526,262	-132,655	0,055	0,005
-525,248	492,373	0,045	-0,077
-524,233	-19,059	0,060	-0,027
-523,218	-59,753	0,073	-0,023
-522,204	16,889	0,103	-0,060
-521,189	32,182	-0,057	-0,036
-520,175	-200,000	0,014	0,051
-519,160	-22,327	-0,108	0,048
-518,145	-200,000	-0,007	-0,045
-517,131	-200,000	-0,008	-0,062
-516,116	-19,352	0,007	-0,003
-515,102	9,911	-0,111	0,062
-514,087	106,707	0,046	-0,041
-513,072	737,329	-0,071	-0,141
-512,058	-190,027	-0,144	0,001
-511,043	170,861	-0,042	0,045
-510,029	-155,446	-0,031	-0,001
-509,014	-51,192	-0,015	-0,005
-507,999	296,617	-0,120	0,163
-506,985	362,548	-0,030	0,045
-505,970	-200,000	-0,002	-0,085
-504,956	-200,000	-0,031	-0,150
-503,941	-132,724	0,173	0,016
-502,926	-200,000	0,013	0,172
-501,912	800,000	-0,045	0,126
-500,897	800,000	0,059	0,134
-499,883	40,287	-0,037	-0,024
-498,868	800,000	-0,024	-0,071
-497,853	-42,890	-0,079	0,029
-496,839	-105,349	0,161	-0,027
-495,824	-99,482	0,042	-0,008
-494,810	135,896	-0,024	-0,023
-493,795	-200,000	0,004	-0,051
-492,781	-103,505	0,088	0,015
-491,766	123,731	-0,101	-0,094
-490,751	468,479	0,035	-0,058
-489,737	227,384	0,075	-0,090
-488,722	96,140	-0,088	-0,074
-487,708	-200,000	-0,004	-0,185
-486,693	80,545	-0,079	0,063
-485,678	-40,609	-0,055	-0,021
-484,664	185,782	0,060	0,066
-483,649	-79,857	-0,173	0,043
-482,635	-110,689	-0,172	-0,026
-481,620	-105,996	-0,067	-0,011
-480,605	462,918	0,056	-0,093
-479,591	734,036	0,059	-0,118
-478,576	-174,810	0,151	-0,003
-477,562	800,000	-0,021	-0,067
-476,547	-200,000	-0,018	0,069
-475,532	-64,013	-0,136	-0,041
-474,518	800,000	-0,033	0,075
-473,503	470,243	0,033	0,055
-472,489	-7,750	-0,046	-0,023
-471,474	800,000	-0,037	0,119
-470,459	-56,538	-0,080	0,026
-469,445	-88,170	-0,028	0,006
-468,430	96,794	0,122	0,103
-467,416	-7,242	0,027	-0,014
-466,401	-200,000	0,025	0,093
-465,386	772,086	-0,080	0,161
-464,372	414,063	0,042	0,066
-463,357	-200,000	0,030	-0,103
-462,343	800,000	-0,013	0,036
-461,328	55,304	-0,038	0,027
-460,313	-23,606	0,142	0,062
-459,299	-60,506	0,166	0,052
-458,284	518,657	-0,033	-0,058
-457,270	80,875	-0,080	0,064
-456,255	-200,000	-0,008	0,068
-455,241	22,831	-0,130	-0,078
-454,226	-200,000	0,009	0,066
-453,211	-200,000	0,028	0,130
-452,197	-16,344	-0,104	-0,048
-451,182	-200,000	0,000	-0,056
-450,168	-200,000	0,005	0,135
-449,153	751,781	0,067	-0,134
-448,138	13,667	-0,063	0,036
-447,124	87,396	0,057	-0,046
-446,109	-78,462	-0,063	-0,016
-445,095	800,000	0,042	0,115
-444,080	-200,000	-0,010	-0,100
-443,065	65,276	-0,018	-0,013
-442,051	315,307	0,128	0,179
-441,036	365,110	-0,058	-0,087
-440,022	-95,015	0,098	0,019
-439,007	277,477	0,052	0,069
-437,992	119,669	-0,093	0,085
-436,978	-114,884	0,047	-0,007
-435,963	-122,308	0,012	-0,001
-434,949	800,000	0,009	0,021
-433,934	800,000	-0,020	-0,048
-432,919	-47,579	-0,100	0,036
-431,905	81,651	-0,136	0,108
-430,890	-26,127	0,028	0,012
-429,876	800,000	0,006	-0,019
-428,861	-83,283	0,086	-0,020
-427,846	29,961	0,112	-0,070
-426,832	80,349	-0,031	0,025
-425,817	-150,573	-0,054	-0,003
-424,803	-173,000	-0,152	-0,003
-423,788	-49,377	-0,096	0,034
-422,773	-74,125	-0,071	0,019
-421,759	-3,470	-0,035	0,018
-420,744	800,000	0,017	0,037
-419,730	430,475	-0,067	-0,107
-418,715	800,000	0,053	0,146
-417,701	157,970	0,093	-0,095
-416,686	-4,506	0,106	-0,054
-415,671	-5,260	0,097	0,049
-414,657	86,365	-0,063	0,051
-413,642	-200,000	0,011	0,052
-412,628	800,000	-0,020	0,048
-411,613	800,000	-0,030	-0,085
-410,598	250,927	-0,027	0,033
-409,584	-200,000	0,028	0,125
-408,569	-200,000	-0,044	0,152
-407,555	-88,560	-0,090	0,020
-406,540	-31,684	0,132	-0,054
-405,525	424,180	-0,101	-0,161
-404,511	313,144	-0,061	-0,085
-403,496	77,624	0,153	0,120
-402,482	768,033	0,048	0,096
-401,467	-200,000	0,008	0,106
-400,452	-138,811	0,050	0,004
-399,438	-200,000	0,024	0,097
-398,423	-200,000	-0,002	0,022
-397,409	508,071	0,088	-0,151
-396,394	-59,697	0,065	-0,020
-395,379	-24,044	-0,031	-0,014
-394,365	80,925	0,066	-0,053
-393,350	540,294	0,054	0,095
-392,336	800,000	-0,045	-0,113
-391,321	-44,438	0,063	-0,023
-390,306	250,554	0,057	-0,071
-389,292	-0,563	0,060	0,031
-388,277	220,126	-0,061	0,072
-387,263	694,392	0,065	-0,126
-386,248	-21,134	0,037	0,017
-385,233	327,598	-0,084	-0,119
-384,219	10,454	-0,097	0,054
-383,204	535,999	-0,036	0,063
-382,190	416,075	-0,047	-0,073
-381,175	800,000	0,041	0,102
-380,160	-200,000	-0,026	0,106
-379,146	-2,399	-0,015	0,008
-378,131	465,644	-0,044	0,072
-377,117	-119,215	0,057	0,007
-376,102	800,000	-0,056	-0,121
-375,088	-200,000	-0,027	-0,098
-374,073	-148,286	-0,069	-0,004
-373,058	800,000	0,020	-0,061
-372,044	177,711	0,191	0,205
-371,029	115,983	0,121	0,109
-370,015	800,000	-0,046	0,135
-369,000	210,333	-0,106	0,122
-367,985	159,736	-0,135	0,138
-366,971	-200,000	-0,022	-0,090
-365,956	-52,778	0,095	0,032
-364,942	-58,203	0,047	0,015
-363,927	781,830	0,022	-0,045
-362,912	432,665	0,024	-0,038
-361,898	-138,258	0,061	-0,005
-360,883	232,902	-0,043	0,052
-359,869	-75,421	0,130	0,034
-358,854	800,000	-0,040	0,101
-357,839	-200,000	-0,009	0,089
-356,825	169,507	0,032	-0,034
-355,810	-200,000	-0,031	-0,103
-354,796	-200,000	-0,005	-0,036
-353,781	-117,896	-0,054	0,007
-352,766	111,121	-0,050	-0,044
-351,752	-9,090	-0,130	-0,064
-350,737	238,494	-0,061	0,075
-349,723	215,739	0,044	0,051
-348,708	149,824	0,078	0,078
-347,693	-200,000	-0,003	0,039
-346,679	-35,758	-0,038	-0,015
-345,664	-38,309	0,077	-0,030
-344,650	-151,925	0,118	-0,006
-343,635	-200,000	-0,013	-0,182
-342,620	-200,000	-0,001	0,032
-341,606	365,467	-0,082	0,121
-340,591	-200,000	-0,042	0,000
-339,577	-130,410	0,048	0,005
-338,562	-200,000	0,012	-0,050
-337,548	292,315	0,027	0,037
-336,533	-68,402	0,127	-0,036
-335,518	84,760	-0,110	0,088
-334,504	21,992	0,077	-0,046
-333,489	-200,000	-0,034	0,200
-332,475	-98,196	-0,124	-0,023
-331,460	593,360	-0,049	-0,089
-330,445	800,000	-0,031	-0,067
-329,431	-197,741	0,157	-0,001
-328,416	-47,526	0,024	-0,008
-327,402	-200,000	0,003	0,033
-326,387	146,833	-0,029	0,028
-325,372	5,089	-0,124	0,067
-324,358	-10,425	-0,153	-0,074
-323,343	800,000	0,024	0,067
-322,329	-126,686	0,166	-0,018
-321,314	-11,040	0,081	0,039
-320,299	-200,000	0,001	0,087
-319,285	-200,000	0,003	-0,030
-318,270	249,363	-0,077	0,096
-317,256	56,463	-0,075	-0,054
-316,241	783,402	-0,070	-0,141
-315,226	-64,025	0,122	0,036
-314,212	-68,597	-0,056	0,016
-313,197	135,427	-0,077	-0,073
-312,183	62,503	-0,121	0,089
-311,168	-111,069	-0,017	0,003
-310,153	-105,152	-0,154	-0,026
-309,139	76,981	0,032	0,025
-308,124	411,159	-0,016	-0,025
-307,110	-200,000	0,014	0,074
-306,095	108,190	0,025	-0,022
-305,080	247,882	0,032	-0,039
-304,066	800,000	-0,011	0,028
-303,051	-3,255	-0,068	0,035
-302,037	50,337	0,092	0,064
-301,022	-102,365	0,118	0,021
-300,008	-4,607	-0,052	0,026
-298,993	3,557	-0,048	0,026
-297,978	800,000	-0,051	0,109
-296,964	251,512	-0,055	-0,069
-295,949	113,192	0,079	-0,071
-294,935	-99,095	-0,024	-0,004
-293,920	-200,000	0,001	-0,059
-292,905	120,183	0,085	-0,078
-291,891	21,639	0,074	-0,044
-290,876	-109,141	-0,042	-0,007
-289,862	800,000	0,038	-0,099
-288,847	241,998	0,050	0,061
-287,832	-105,706	-0,135	0,022
-286,818	345,945	0,081	-0,117
-285,803	56,191	0,059	0,042
-284,789	-200,000	0,003	-0,018
-283,774	2,155	-0,063	0,033
-282,759	40,518	0,080	0,052
-281,745	800,000	-0,055	0,135
-280,730	800,000	-0,010	-0,029
-279,716	800,000	-0,020	-0,053
-278,701	390,935	-0,026	0,039
-277,686	125,029	0,063	-0,058
-276,672	-12,265	0,124	0,059
-275,657	392,295	-0,018	0,027
-274,643	-109,868	-0,045	0,007
-273,628	150,636	0,048	0,048
-272,613	800,000	0,053	0,143
-271,599	-200,000	0,029	0,109
-270,584	43,469	-0,045	-0,030
-269,570	-200,000	-0,004	0,036
-268,555	-96,072	-0,100	0,019
-267,540	-200,000	0,032	-0,128
-266,526	-200,000	-0,036	-0,135
-265,511	800,000	0,040	-0,111
-264,497	-45,995	-0,130	0,047
-263,482	-200,000	0,007	0,127
-262,467	-160,635	-0,070	0,003
-261,453	353,067	0,073	0,106
-260,438	-44,878	-0,068	0,024
-259,424	81,521	-0,058	0,046
-258,409	800,000	-0,053	-0,128
-257,395	-1,566	0,060	0,031
-256,380	800,000	-0,019	-0,059
-255,365	-200,000	0,004	0,113
-254,351	101,082	0,024	-0,020
-253,336	-200,000	-0,010	0,072
-252,322	7,289	0,037	-0,020
-251,307	35,174	0,074	0,047
-250,292	90,410	0,053	-0,043
-249,278	-106,389	0,179	0,029
-248,263	-200,000	0,004	0,073
-247,249	13,352	-0,132	0,074
-246,234	-200,000	0,005	0,073
-245,219	-51,814	-0,127	-0,043
-244,205	-200,000	-0,017	-0,120
-243,190	-143,367	0,123	0,008
-242,176	167,325	-0,039	-0,040
-241,161	127,144	0,138	0,128
-240,146	-200,000	-0,000	-0,122
-239,132	88,228	0,159	0,129
-238,117	78,572	-0,076	-0,059
-237,103	-200,000	-0,019	-0,111
-236,088	146,708	0,128	0,125
-235,073	236,666	-0,088	0,107
-234,059	-75,878	-0,129	0,033
-233,044	195,674	-0,046	0,051
-232,030	-200,000	-0,003	0,055
-231,015	20,532	-0,141	-0,083
-230,000	800,000	0,054	-0,144
-228,986	-200,000	0,014	-0,105
-227,971	-55,284	0,077	0,025
-226,957	-200,000	0,029	0,107
-225,942	-112,404	0,022	0,003
-224,927	29,648	0,060	-0,037
-223,913	-0,756	-0,120	-0,062
-222,898	-15,943	-0,077	-0,036
-221,884	-200,000	0,004	0,066
-220,869	501,412	-0,037	0,063
-219,855	691,859	-0,030	-0,057
-218,840	800,000	0,031	0,076
-217,825	37,499	0,111	0,072
-216,811	-3,520	0,063	0,032
-215,796	-200,000	-0,018	0,093
-214,782	800,000	-0,028	0,062
-213,767	9,204	-0,056	0,031
-212,752	-181,625	0,137	-0,002
-211,738	-200,000	-0,013	0,159
-210,723	-200,000	-0,002	0,074
-209,709	350,189	-0,014	-0,020
-208,694	558,123	-0,060	-0,107
-207,679	-200,000	-0,001	-0,078
-206,665	-200,000	-0,001	0,064
-205,650	245,416	0,093	-0,115
-204,636	-200,000	0,023	0,075
-203,621	702,914	0,099	0,191
-202,606	109,614	-0,098	0,086
-201,592	51,479	-0,088	-0,061
-200,577	-103,504	0,085	0,014
-199,563	-83,733	0,121	-0,028
-198,548	-125,110	0,024	-0,003
-197,533	700,094	0,023	0,045
-196,519	270,782	0,113	0,145
-195,504	-200,000	0,035	-0,149
-194,490	-112,077	0,102	0,015
-193,475	747,383	-0,049	-0,096
-192,460	-2,143	0,099	0,051
-191,446	609,078	-0,046	0,084
-190,431	-200,000	0,005	0,106
-189,417	-28,017	0,086	0,036
-188,402	196,517	-0,032	-0,036
-187,387	-200,000	-0,000	-0,048
-186,373	-52,811	0,035	-0,012
-185,358	95,793	0,107	0,089
-184,344	-132,447	0,027	-0,003
-183,329	-200,000	-0,019	-0,076
-182,315	214,832	0,082	0,095
-181,300	-106,572	0,062	0,010
-180,285	33,111	-0,060	0,038
-179,271	-200,000	0,014	-0,107
-178,256	-200,000	-0,004	-0,017
-177,242	-16,173	-0,107	0,050
-176,227	160,390	0,115	-0,117
-175,212	-200,000	0,001	0,027
-174,198	592,935	-0,016	-0,029
-173,183	-29,168	0,041	0,017
-172,169	175,308	-0,065	-0,069
-171,154	345,759	-0,039	-0,055
-170,139	-200,000	0,005	-0,035
-169,125	-200,000	0,003	0,091
-168,110	-40,795	0,133	0,050
-167,096	291,719	-0,051	-0,068
-166,081	-200,000	0,003	-0,092
-165,066	-92,756	-0,093	0,019
-164,052	-200,000	0,010	-0,098
-163,037	-25,270	0,023	0,010
-162,023	278,394	-0,076	-0,099
-161,008	1,446	0,177	0,092
-159,993	-28,048	0,103	-0,043
-158,979	250,106	-0,020	0,024
-157,964	-73,973	-0,140	0,037
-156,950	-200,000	0,025	0,144
-155,935	-200,000	0,005	-0,129
-154,920	461,704	0,038	-0,063
-153,906	12,820	0,154	0,086
-152,891	800,000	-0,081	0,227
-151,877	800,000	0,038	0,082
-150,862	-37,149	-0,016	0,006
-149,847	-136,285	-0,083	-0,007
-148,833	-91,712	0,119	0,024
-147,818	120,278	-0,101	0,091
-146,804	-152,161	-0,092	-0,005
-145,789	581,467	-0,050	-0,089
-144,775	800,000	0,035	-0,102
-143,760	56,234	-0,124	-0,088
-142,745	-68,311	0,117	-0,033
-141,731	147,300	-0,037	0,036
-140,716	52,169	0,106	0,073
-139,702	-200,000	0,008	0,100
-138,687	-148,925	0,138	0,008
-137,672	-49,955	-0,124	0,043
-136,658	337,168	-0,068	0,096
-135,643	800,000	0,006	0,013
-134,629	9,162	-0,010	-0,006
-133,614	-200,000	0,039	-0,138
-132,599	27,938	0,128	-0,078
-131,585	-200,000	0,007	0,077
-130,570	-104,097	0,121	0,020
-129,556	800,000	-0,041	0,101
-128,541	112,944	-0,118	0,104
-127,526	89,028	-0,041	-0,033
-126,512	753,194	0,081	-0,160
-125,497	108,205	0,150	0,130
-124,483	373,750	0,082	0,121
-123,468	178,739	-0,031	0,033
-122,453	455,588	0,070	0,113
-121,439	-13,455	0,066	-0,031
-120,424	-200,000	-0,046	-0,159
-119,410	125,105	0,087	-0,080
