DTS Sentinel unit serial number:	SN410029Multiplexer serial number:	ORYXHardware model number:	OX2-SRSoftware version number:	ORYX F/W v4,00 Oryx Data Collector v3.7.2.0data status	okinstallation	B4 Nyhavnadifferential loss correction	single-endedforward channel	channel 2reverse channel	N/Adate	2023/12/15time	17:00:13forward acquisition time	300,00reverse acquisition time	0,00gamma	499,1914k internal	0,3143k external	0,3143temperature offset calibration	1,0000default loss term (dB/km)	0,3820temperature slope calibration	1,0000multiplexer offset coefficient	1,0000multiplexer slope coefficient	1,0000fibre end	0,00T internal ref (°C)	17,97T ext. ref 1 (°C)	3,77T ext. ref 2 (°C)	3,89length (m)	temperature (°C)	Stokes	anti-Stokes-744,400	159,569	0,061	0,063
-743,385	-130,352	-0,240	0,024
-742,371	-104,375	0,133	0,023
-741,356	92,045	-0,184	0,153
-740,342	14,060	0,145	0,083
-739,327	-51,789	-0,365	0,125
-738,312	-58,129	0,073	-0,023
-737,298	33,985	-0,287	0,185
-736,283	31,812	0,023	0,015
-735,269	-154,761	-0,266	-0,013
-734,254	-175,019	-0,035	0,001
-733,239	-100,943	-0,606	-0,109
-732,225	14,068	0,098	0,057
-731,210	249,906	-0,107	-0,135
-730,196	765,673	-0,108	-0,219
-729,181	556,960	-0,047	-0,085
-728,167	-21,270	-0,084	0,038
-727,152	64,151	-0,120	-0,089
-726,137	219,949	-0,075	-0,089
-725,123	64,991	-0,070	-0,052
-724,108	189,578	-0,071	-0,079
-723,094	-71,232	-0,093	-0,026
-722,079	77,098	-0,061	-0,048
-721,064	-200,000	-0,001	-0,008
-720,050	-200,000	0,017	0,065
-719,035	41,530	-0,068	-0,045
-718,021	-96,861	-0,086	0,016
-717,006	-53,933	-0,118	-0,040
-715,991	177,745	-0,062	-0,067
-714,977	-200,000	-0,002	-0,056
-713,962	-37,228	-0,084	-0,033
-712,948	-200,000	0,032	0,125
-711,933	-127,176	-0,120	-0,013
-710,918	800,000	0,035	-0,095
-709,904	-168,541	-0,146	-0,004
-708,889	-104,785	-0,142	-0,024
-707,875	-12,715	-0,111	0,053
-706,860	699,110	-0,010	-0,020
-705,845	-200,000	0,000	-0,037
-704,831	-200,000	0,003	-0,043
-703,816	-65,952	-0,094	-0,028
-702,802	-7,332	-0,018	0,009
-701,787	45,772	-0,110	-0,075
-700,772	-73,245	0,063	-0,017
-699,758	-200,000	0,027	0,097
-698,743	-34,788	0,063	-0,025
-697,729	21,116	0,122	0,073
-696,714	-200,000	0,058	-0,198
-695,699	48,113	-0,023	0,016
-694,685	-200,000	0,012	0,081
-693,670	541,924	0,048	0,084
-692,656	205,967	0,115	0,132
-691,641	520,561	-0,032	0,056
-690,627	800,000	0,040	0,090
-689,612	665,307	-0,088	0,168
-688,597	-200,000	0,006	-0,022
-687,583	437,090	-0,100	-0,162
-686,568	11,195	-0,073	-0,041
-685,554	800,000	-0,044	0,095
-684,539	-112,577	-0,224	-0,033
-683,524	800,000	0,052	0,112
-682,510	209,523	-0,103	0,119
-681,495	800,000	0,035	-0,106
-680,481	708,975	-0,041	-0,081
-679,466	183,332	-0,059	-0,065
-678,451	16,949	0,080	0,047
-677,437	-200,000	-0,008	0,042
-676,422	-53,488	-0,050	-0,017
-675,408	-40,938	-0,110	0,042
-674,393	51,764	-0,105	-0,074
-673,378	185,441	-0,058	-0,064
-672,364	209,069	0,033	-0,038
-671,349	-71,622	-0,147	-0,040
-670,335	-200,000	-0,014	0,079
-669,320	-200,000	-0,008	-0,088
-668,305	-60,579	-0,128	0,040
-667,291	-164,086	0,114	-0,004
-666,276	-78,233	-0,067	0,017
-665,262	-28,646	-0,107	-0,045
-664,247	542,171	-0,041	-0,073
-663,232	110,930	-0,116	-0,103
-662,218	-38,478	-0,019	0,007
-661,203	-200,000	0,014	0,171
-660,189	322,736	-0,047	0,067
-659,174	800,000	0,021	0,067
-658,159	282,719	-0,020	-0,027
-657,145	309,906	-0,045	-0,063
-656,130	-26,531	0,079	-0,034
-655,116	-200,000	0,000	-0,085
-654,101	777,064	0,055	0,112
-653,086	252,942	0,014	0,018
-652,072	336,017	-0,059	-0,085
-651,057	-200,000	-0,026	0,126
-650,043	19,807	-0,122	-0,072
-649,028	25,868	0,034	-0,021
-648,014	286,228	0,043	-0,058
-646,999	227,045	0,022	0,026
-645,984	-200,000	-0,016	0,091
-644,970	-200,000	-0,044	-0,180
-643,955	739,714	-0,015	-0,029
-642,941	-200,000	-0,021	-0,076
-641,926	-200,000	-0,044	-0,215
-640,911	380,602	0,049	-0,074
-639,897	800,000	-0,037	0,081
-638,882	103,007	-0,046	0,040
-637,868	278,513	-0,030	-0,040
-636,853	800,000	-0,017	-0,052
-635,838	-64,379	-0,072	-0,021
-634,824	-200,000	0,009	0,040
-633,809	269,927	-0,037	0,049
-632,795	800,000	0,053	0,142
-631,780	-200,000	0,031	0,103
-630,765	31,691	0,099	-0,062
-629,751	-137,754	-0,114	0,009
-628,736	-108,846	-0,103	0,016
-627,722	-62,612	0,039	0,012
-626,707	82,484	0,145	0,116
-625,692	-200,000	-0,060	0,208
-624,678	166,650	-0,026	0,027
-623,663	-200,000	-0,016	0,139
-622,649	-103,345	-0,170	-0,029
-621,634	-107,555	-0,171	-0,027
-620,619	-135,026	-0,083	-0,007
-619,605	264,773	-0,024	-0,031
-618,590	33,126	0,092	-0,059
-617,576	-107,055	0,040	-0,006
-616,561	321,754	-0,044	-0,062
-615,546	646,796	-0,096	-0,181
-614,532	-73,357	-0,160	-0,043
-613,517	-32,650	-0,114	0,047
-612,503	-200,000	-0,021	-0,086
-611,488	110,538	0,073	0,065
-610,474	711,547	0,010	-0,020
-609,459	-200,000	0,007	0,028
-608,444	-127,390	-0,148	-0,016
-607,430	89,730	-0,088	-0,072
-606,415	-200,000	-0,016	-0,053
-605,401	-128,444	0,070	-0,007
-604,386	281,842	-0,029	-0,038
-603,371	84,021	-0,021	0,017
-602,357	-188,403	-0,102	-0,001
-601,342	-200,000	0,012	-0,122
-600,328	-200,000	0,005	-0,069
-599,313	643,189	-0,044	-0,083
-598,298	59,445	-0,031	0,023
-597,284	304,969	0,023	0,031
-596,269	-122,743	0,139	0,016
-595,255	-136,024	0,097	0,008
-594,240	647,022	0,057	0,107
-593,225	-23,252	0,060	0,026
-592,211	-0,207	-0,082	0,043
-591,196	-200,000	-0,001	0,083
-590,182	-200,000	-0,007	-0,055
-589,167	21,120	0,152	-0,091
-588,152	800,000	0,008	0,020
-587,138	111,365	0,098	0,087
-586,123	-9,173	-0,128	-0,063
-585,109	-80,364	-0,178	0,043
-584,094	-200,000	0,011	-0,156
-583,079	800,000	0,055	0,122
-582,065	-5,078	0,150	0,076
-581,050	93,758	-0,050	-0,041
-580,036	-200,000	-0,002	-0,009
-579,021	-200,000	-0,032	-0,119
-578,006	-55,251	-0,163	0,054
-576,992	-91,693	-0,060	0,012
-575,977	776,773	0,035	0,070
-574,963	-59,138	0,038	-0,012
-573,948	124,415	0,147	0,136
-572,934	-98,460	-0,067	-0,012
-571,919	-200,000	-0,002	0,099
-570,904	800,000	0,030	-0,077
-569,890	800,000	-0,004	0,012
-568,875	-51,406	-0,067	0,023
-567,861	229,649	-0,026	0,031
-566,846	-108,106	-0,049	-0,008
-565,831	95,950	-0,084	-0,071
-564,817	256,278	-0,122	-0,154
-563,802	-97,752	-0,155	-0,029
-562,788	201,903	0,064	0,073
-561,773	-200,000	0,024	0,126
-560,758	-173,043	0,119	0,003
-559,744	-200,000	0,004	0,027
-558,729	-9,342	0,037	0,018
-557,715	140,429	-0,153	0,148
-556,700	-32,332	-0,089	0,036
-555,685	-22,338	0,049	-0,022
-554,671	800,000	0,027	-0,069
-553,656	16,272	0,037	-0,021
-552,642	-200,000	-0,023	0,163
-551,627	-118,816	0,180	0,023
-550,612	164,449	-0,089	-0,092
-549,598	35,560	0,106	-0,068
-548,583	432,989	0,034	-0,054
-547,569	141,575	-0,062	-0,060
-546,554	-200,000	-0,012	0,086
-545,539	133,575	-0,039	0,038
-544,525	-200,000	-0,014	-0,045
-543,510	800,000	-0,023	0,050
-542,496	35,044	-0,118	-0,076
-541,481	-129,493	-0,075	-0,008
-540,466	-200,000	-0,005	0,027
-539,452	537,492	0,019	0,033
-538,437	787,254	0,043	0,086
-537,423	97,870	-0,088	0,074
-536,408	-89,229	-0,124	-0,027
-535,393	7,478	-0,016	-0,009
-534,379	-162,251	-0,076	0,003
-533,364	-43,708	0,077	0,028
-532,350	800,000	-0,050	0,139
-531,335	-200,000	0,010	0,041
-530,321	90,391	0,080	-0,066
-529,306	360,102	0,031	-0,046
-528,291	274,664	-0,068	0,089
-527,277	327,050	-0,047	-0,067
-526,262	96,967	0,083	-0,070
-525,248	-200,000	-0,011	-0,078
-524,233	79,211	0,083	0,065
-523,218	246,803	0,063	0,078
-522,204	165,499	0,054	0,056
-521,189	31,176	0,070	0,044
-520,175	-200,000	0,008	-0,071
-519,160	-140,105	-0,025	0,002
-518,145	-26,275	-0,069	0,030
-517,131	-32,526	0,109	-0,044
-516,116	800,000	0,037	-0,114
-515,102	-105,888	0,035	0,006
-514,087	-51,571	-0,103	-0,035
-513,072	-200,000	-0,018	-0,109
-512,058	88,869	-0,051	-0,041
-511,043	74,379	0,018	-0,014
-510,029	800,000	0,036	-0,086
-509,014	98,961	0,100	-0,085
-507,999	94,613	-0,028	-0,023
-506,985	687,137	-0,031	-0,061
-505,970	77,250	-0,177	-0,138
-504,956	800,000	0,012	0,037
-503,941	38,607	0,073	0,048
-502,926	-27,711	-0,088	-0,037
-501,912	469,908	-0,061	-0,101
-500,897	42,103	0,098	0,065
-499,883	253,837	-0,080	0,100
-498,868	164,341	-0,037	-0,039
-497,853	-200,000	-0,004	-0,052
-496,839	21,084	-0,128	-0,076
-495,824	-200,000	0,020	0,118
-494,810	215,090	0,091	0,106
-493,795	54,434	-0,059	0,042
-492,781	-136,028	-0,065	0,006
-491,766	-200,000	-0,001	0,128
-490,751	800,000	-0,032	-0,081
-489,737	220,599	-0,010	0,012
-488,722	-98,916	0,131	-0,024
-487,708	46,008	0,132	0,089
-486,693	-200,000	-0,009	0,074
-485,678	-77,263	0,172	0,043
-484,664	765,571	0,063	-0,126
-483,649	800,000	0,044	0,096
-482,635	251,510	0,019	0,023
-481,620	-200,000	-0,026	-0,185
-480,605	-86,004	0,126	0,028
-479,591	328,766	-0,038	0,054
-478,576	25,129	-0,089	0,054
-477,562	4,864	0,047	-0,025
-476,547	154,870	-0,119	-0,120
-475,532	-200,000	0,010	0,059
-474,518	800,000	-0,029	-0,093
-473,503	88,116	0,061	-0,050
-472,489	800,000	0,027	0,061
-471,474	-48,193	0,041	-0,014
-470,459	-200,000	0,004	0,026
-469,445	-65,271	0,067	-0,020
-468,430	-200,000	0,008	-0,067
-467,416	-200,000	-0,014	0,170
-466,401	-85,942	0,099	0,022
-465,386	76,102	0,086	0,066
-464,372	800,000	0,078	0,200
-463,357	-200,000	0,012	0,058
-462,343	-59,883	-0,075	-0,023
-461,328	-200,000	-0,013	-0,071
-460,313	-105,366	0,084	0,014
-459,299	800,000	0,024	0,064
-458,284	-120,969	-0,035	-0,004
-457,270	-200,000	-0,042	-0,138
-456,255	-200,000	-0,011	-0,064
-455,241	744,539	-0,045	-0,090
-454,226	800,000	0,051	-0,122
-453,211	-70,612	0,096	-0,026
-452,197	-200,000	-0,017	0,115
-451,182	595,607	0,029	0,052
-450,168	715,005	-0,053	0,104
-449,153	800,000	0,042	-0,120
-448,138	-200,000	0,016	-0,104
-447,124	-200,000	-0,017	0,069
-446,109	612,765	-0,043	-0,080
-445,095	-200,000	0,061	0,230
-444,080	-200,000	-0,003	0,107
-443,065	366,889	-0,036	0,054
-442,051	-125,174	-0,022	0,002
-441,036	-40,091	0,065	-0,025
-440,022	548,160	0,043	-0,075
-439,007	800,000	-0,025	-0,079
-437,992	795,952	-0,053	0,107
-436,978	26,215	0,078	0,048
-435,963	-200,000	-0,025	-0,120
-434,949	-87,328	-0,061	0,013
-433,934	-13,129	0,026	-0,012
-432,919	-7,500	-0,167	0,082
-431,905	-200,000	-0,009	0,102
-430,890	-123,542	0,184	-0,021
-429,876	800,000	-0,084	0,209
-428,861	-126,487	0,145	0,016
-427,846	-200,000	0,013	0,048
-426,832	-110,492	-0,025	0,004
-425,817	-49,473	0,094	-0,032
-424,803	-55,300	-0,246	0,080
-423,788	554,572	-0,063	-0,112
-422,773	40,202	0,089	0,059
-421,759	97,691	0,116	0,097
-420,744	-200,000	0,030	0,098
-419,730	-200,000	0,001	-0,045
-418,715	205,620	-0,043	-0,049
-417,701	413,797	0,003	0,004
-416,686	74,309	-0,095	0,073
-415,671	800,000	0,026	-0,061
-414,657	-200,000	-0,013	0,094
-413,642	800,000	-0,051	-0,126
-412,628	800,000	0,041	-0,114
-411,613	-74,977	-0,152	-0,040
-410,598	-200,000	0,008	-0,031
-409,584	-136,615	0,169	-0,014
-408,569	257,279	0,049	-0,062
-407,555	91,422	0,055	-0,045
-406,540	236,826	0,067	0,081
-405,525	-94,670	0,048	0,009
-404,511	-40,681	-0,070	-0,026
-403,496	-141,447	0,084	-0,006
-402,482	464,694	-0,063	-0,104
-401,467	127,581	0,109	0,101
-400,452	131,346	0,079	0,075
-399,438	-144,671	-0,082	0,005
-398,423	-200,000	0,007	-0,034
-397,409	-21,591	-0,097	-0,043
-396,394	21,694	0,077	0,046
-395,379	-151,045	0,133	-0,007
-394,365	-200,000	-0,025	0,193
-393,350	-200,000	0,012	-0,072
-392,336	-35,838	0,055	0,022
-391,321	-200,000	0,002	-0,056
-390,306	261,929	-0,015	-0,019
-389,292	-24,401	-0,153	0,066
-388,277	64,631	0,115	0,085
-387,263	134,012	0,069	-0,065
-386,248	-16,828	-0,031	-0,014
-385,233	201,631	-0,053	0,060
-384,219	-34,390	0,093	0,037
-383,204	-200,000	-0,005	0,060
-382,190	279,800	0,069	0,091
-381,175	-63,170	-0,138	0,041
-380,160	-53,917	0,084	0,028
-379,146	800,000	-0,025	0,053
-378,131	149,261	-0,025	0,025
-377,117	771,180	-0,033	-0,067
-376,102	-200,000	0,010	-0,118
-375,088	-16,335	-0,092	-0,042
-374,073	178,822	-0,086	0,092
-373,058	-21,219	0,062	-0,027
-372,044	185,871	0,027	0,029
-371,029	-200,000	0,005	0,044
-370,015	-200,000	-0,177	0,000
-369,000	-200,000	-0,041	-0,215
-367,985	8,820	-0,144	0,079
-366,971	109,499	0,083	-0,073
-365,956	-29,710	-0,063	0,026
-364,942	207,287	0,086	-0,098
-363,927	620,516	-0,029	-0,054
-362,912	-131,552	0,055	0,005
-361,898	248,114	-0,093	-0,115
-360,883	-36,291	0,099	0,039
-359,869	-200,000	-0,009	-0,156
-358,854	-200,000	0,013	-0,080
-357,839	-200,000	0,006	-0,035
-356,825	800,000	-0,015	0,038
-355,810	403,352	-0,134	0,207
-354,796	-200,000	0,039	0,148
-353,781	51,467	-0,187	-0,129
-352,766	-200,000	0,003	-0,072
-351,752	176,898	0,041	-0,043
-350,737	376,472	-0,102	-0,153
-349,723	60,620	0,071	0,051
-348,708	613,631	0,027	-0,050
-347,693	800,000	-0,014	0,041
-346,679	-200,000	0,004	-0,101
-345,664	1,786	-0,058	0,030
-344,650	152,341	-0,164	0,163
-343,635	43,694	0,139	0,093
-342,620	130,258	0,062	-0,058
-341,606	295,861	-0,046	0,061
-340,591	-200,000	0,009	0,118
-339,577	800,000	-0,056	0,134
-338,562	-77,333	-0,026	-0,007
-337,548	-200,000	-0,025	-0,095
-336,533	-122,179	0,144	0,017
-335,518	155,626	0,036	-0,037
-334,504	202,198	-0,074	-0,083
-333,489	60,205	-0,083	-0,060
-332,475	-200,000	-0,029	0,107
-331,460	479,423	0,008	0,013
-330,445	331,432	0,037	-0,053
-329,431	800,000	-0,013	-0,038
-328,416	-187,922	-0,053	0,000
-327,402	-200,000	0,022	-0,091
-326,387	-113,326	-0,124	-0,018
-325,372	800,000	-0,028	-0,059
-324,358	408,808	-0,047	0,072
-323,343	-200,000	0,033	-0,118
-322,329	25,249	0,078	0,047
-321,314	-105,924	0,067	-0,011
-320,299	51,589	-0,060	-0,042
-319,285	-57,151	0,088	-0,028
-318,270	323,628	0,032	0,044
-317,256	800,000	0,035	0,090
-316,241	-200,000	-0,009	-0,040
-315,226	-47,389	0,081	0,029
-314,212	77,203	0,146	0,113
-313,197	129,314	-0,082	0,076
-312,183	47,787	-0,076	-0,051
-311,168	-200,000	0,006	-0,105
-310,153	36,020	-0,093	-0,059
-309,139	-62,246	-0,091	0,028
-308,124	-17,719	0,030	0,014
-307,110	211,479	-0,036	-0,042
-306,095	593,772	0,083	0,150
-305,080	-65,250	-0,075	-0,022
-304,066	-66,806	-0,062	-0,018
-303,051	-11,872	-0,088	-0,042
-302,037	-60,042	-0,059	-0,018
-301,022	197,763	0,109	-0,121
-300,008	-119,310	0,082	0,010
-298,993	116,881	-0,038	0,034
-297,978	167,760	-0,081	0,084
-296,964	-200,000	0,004	-0,206
-295,949	149,627	-0,146	-0,145
-294,935	-8,247	-0,051	0,025
-293,920	73,261	0,203	0,154
-292,905	14,952	0,082	0,047
-291,891	600,059	0,050	-0,091
-290,876	-134,678	-0,100	-0,009
-289,862	90,215	-0,083	0,067
-288,847	756,189	0,038	0,075
-287,832	79,198	-0,083	0,064
-286,818	430,175	-0,036	0,057
-285,803	-200,000	-0,005	0,043
-284,789	-120,867	0,090	0,011
-283,774	216,258	0,063	-0,073
-282,759	419,363	-0,009	-0,014
-281,745	68,915	0,112	-0,084
-280,730	158,911	-0,015	-0,016
-279,716	344,290	-0,038	0,054
-278,701	-156,421	0,110	0,005
-277,686	355,918	-0,078	0,114
-276,672	-194,757	0,052	-0,000
-275,657	-200,000	0,001	0,003
-274,643	-107,439	0,133	0,021
-273,628	182,282	0,056	-0,060
-272,613	800,000	0,066	-0,147
-271,599	-200,000	-0,014	0,073
-270,584	-200,000	0,011	0,050
-269,570	-61,056	-0,046	-0,014
-268,555	-145,248	0,056	-0,004
-267,540	-26,031	-0,031	0,013
-266,526	567,068	0,101	-0,178
-265,511	-200,000	0,005	-0,117
-264,497	125,006	-0,022	-0,020
-263,482	688,965	-0,026	0,049
-262,467	297,081	-0,026	-0,035
-261,453	286,994	-0,066	0,087
-260,438	800,000	0,035	0,083
-259,424	-200,000	-0,027	0,095
-258,409	-200,000	0,017	-0,066
-257,395	-200,000	0,015	-0,093
-256,380	-200,000	0,028	0,129
-255,365	800,000	-0,030	0,060
-254,351	-106,280	0,049	-0,008
-253,336	135,647	-0,034	-0,032
-252,322	-200,000	0,008	0,038
-251,307	264,371	0,006	-0,008
-250,292	-200,000	-0,011	-0,151
-249,278	-193,009	0,111	0,001
-248,263	-200,000	-0,000	0,067
-247,249	-200,000	-0,011	-0,055
-246,234	-200,000	0,019	-0,156
-245,219	210,607	-0,090	-0,103
-244,205	800,000	-0,034	-0,097
-243,190	-75,562	0,167	0,043
-242,176	144,991	-0,064	0,062
-241,161	66,331	0,060	0,044
-240,146	800,000	-0,037	0,117
-239,132	-23,301	-0,057	-0,025
-238,117	469,725	0,046	-0,075
-237,103	-4,060	-0,086	-0,043
-236,088	7,194	0,069	0,037
-235,073	-200,000	0,012	0,068
-234,059	759,048	0,080	-0,159
-233,044	-77,740	-0,180	-0,045
-232,030	372,852	0,038	-0,056
-231,015	-200,000	0,021	-0,106
-230,000	-200,000	-0,040	-0,177
-228,986	-12,880	0,092	-0,043
-227,971	21,206	0,156	0,092
-226,957	119,671	0,054	0,048
-225,942	222,297	0,065	-0,076
-224,927	-57,281	-0,135	-0,043
-223,913	34,504	-0,098	-0,062
-222,898	-200,000	0,015	-0,049
-221,884	-9,742	-0,120	-0,058
-220,869	-107,752	0,193	0,030
-219,855	-200,000	-0,002	0,007
-218,840	-28,012	0,112	0,047
-217,825	800,000	-0,025	-0,055
-216,811	358,170	-0,029	0,042
-215,796	648,860	-0,042	-0,079
-214,782	243,045	0,090	0,110
-213,767	284,713	0,055	-0,073
-212,752	168,128	-0,036	0,037
-211,738	-88,453	-0,025	0,005
-210,723	-81,597	0,073	-0,017
-209,709	219,881	0,032	-0,037
-208,694	-200,000	-0,020	0,142
-207,679	159,822	0,042	0,043
-206,665	-200,000	0,027	0,192
-205,650	41,659	0,021	-0,013
-204,636	-200,000	0,018	0,131
-203,621	61,598	0,044	0,032
-202,606	0,960	-0,120	-0,062
-201,592	452,471	-0,089	-0,143
-200,577	-200,000	-0,022	-0,077
-199,563	647,343	0,065	-0,121
-198,548	-19,440	0,044	0,020
-197,533	-76,786	0,062	0,016
-196,519	56,757	0,079	-0,056
-195,504	800,000	0,008	0,024
-194,490	385,366	-0,088	0,132
-193,475	800,000	0,009	0,022
-192,460	543,803	-0,046	0,080
-191,446	-103,995	0,074	-0,012
-190,431	294,496	-0,029	0,038
-189,417	-200,000	-0,011	0,057
-188,402	-74,503	-0,043	0,011
-187,387	-200,000	-0,031	-0,150
-186,373	-70,630	-0,107	0,029
-185,358	432,951	0,067	0,106
-184,344	-179,088	0,147	0,002
-183,329	-200,000	-0,013	0,206
-182,315	-93,311	-0,024	0,005
-181,300	-200,000	-0,038	0,151
-180,285	-200,000	-0,006	-0,035
-179,271	-14,328	0,049	-0,023
-178,256	-87,450	-0,084	-0,018
-177,242	-111,720	0,056	0,008
-176,227	130,749	0,104	0,097
-175,212	67,571	-0,119	0,088
-174,198	115,963	0,036	-0,032
-173,183	164,113	0,064	-0,065
-172,169	-73,252	-0,115	-0,030
-171,154	55,054	0,060	-0,042
-170,139	-67,944	0,166	-0,047
-169,125	-5,760	0,032	0,016
-168,110	800,000	0,050	0,126
-167,096	-143,978	0,065	0,004
-166,081	-200,000	-0,009	-0,053
-165,066	-200,000	0,005	0,125
-164,052	-13,829	0,057	-0,027
-163,037	-33,200	-0,061	0,024
-162,023	301,700	0,032	0,042
-161,008	-51,251	-0,038	-0,013
-159,993	564,743	-0,053	-0,093
-158,979	-200,000	0,026	0,083
-157,964	-200,000	0,040	-0,206
-156,950	-200,000	-0,002	0,041
-155,935	140,784	-0,022	-0,021
-154,920	36,361	0,069	-0,044
-153,906	-117,404	0,110	0,014
-152,891	-150,617	-0,079	-0,004
-151,877	216,581	-0,080	-0,092
-150,862	-200,000	-0,002	-0,083
-149,847	-31,707	-0,136	-0,055
-148,833	163,633	0,043	-0,044
-147,818	171,141	-0,037	0,038
-146,804	43,498	0,109	0,072
-145,789	-63,188	-0,047	-0,014
-144,775	564,957	0,035	0,062
-143,760	472,362	-0,081	-0,133
-142,745	-178,058	-0,144	0,002
-141,731	54,619	0,106	0,074
-140,716	250,285	0,094	0,115
-139,702	-60,993	0,129	0,039
-138,687	124,958	0,068	0,062
-137,672	-90,305	0,135	-0,028
-136,658	-200,000	0,023	0,091
-135,643	-200,000	-0,009	0,059
-134,629	22,500	0,128	0,076
-133,614	-200,000	0,017	0,155
-132,599	800,000	0,037	-0,089
-131,585	481,390	-0,062	0,102
-130,570	284,319	-0,070	-0,092
-129,556	-200,000	0,000	-0,151
-128,541	-75,694	-0,182	0,046
-127,526	-200,000	-0,003	-0,032
-126,512	620,698	0,028	0,052
-125,497	236,975	0,036	-0,043
-124,483	637,191	0,035	0,064
-123,468	-180,986	0,057	-0,001
-122,453	-111,616	0,043	0,006
-121,439	-62,406	-0,066	-0,020
-120,424	-69,957	-0,092	-0,025
-119,410	-200,000	-0,006	-0,030
