DTS Sentinel unit serial number:	SN410029Multiplexer serial number:	ORYXHardware model number:	OX2-SRSoftware version number:	ORYX F/W v4,00 Oryx Data Collector v3.7.2.0data status	okinstallation	B4 Nyhavnadifferential loss correction	single-endedforward channel	channel 2reverse channel	N/Adate	2023/12/15time	20:10:13forward acquisition time	300,00reverse acquisition time	0,00gamma	499,1914k internal	0,3136k external	0,3136temperature offset calibration	1,0000default loss term (dB/km)	0,3820temperature slope calibration	1,0000multiplexer offset coefficient	1,0000multiplexer slope coefficient	1,0000fibre end	0,00T internal ref (°C)	20,38T ext. ref 1 (°C)	5,89T ext. ref 2 (°C)	6,05length (m)	temperature (°C)	Stokes	anti-Stokes-744,400	800,000	-0,036	-0,085
-743,385	-200,000	-0,159	-0,000
-742,371	-68,088	0,134	0,039
-741,356	26,445	-0,161	0,100
-740,342	4,683	-0,026	0,014
-739,327	-71,543	-0,287	0,079
-738,312	-200,000	0,018	0,063
-737,298	-140,897	-0,292	0,022
-736,283	424,302	0,027	-0,044
-735,269	-36,391	-0,260	0,103
-734,254	264,131	0,024	-0,031
-733,239	-82,238	-0,490	-0,117
-732,225	-39,658	0,145	-0,056
-731,210	800,000	0,058	0,128
-730,196	-200,000	0,002	-0,213
-729,181	49,363	-0,020	-0,014
-728,167	800,000	-0,037	-0,076
-727,152	103,360	0,086	-0,074
-726,137	-200,000	0,005	0,044
-725,123	202,020	-0,098	-0,112
-724,108	800,000	0,031	0,064
-723,094	-111,953	-0,094	-0,014
-722,079	-127,178	-0,112	0,012
-721,064	800,000	-0,012	0,026
-720,050	-86,872	0,076	0,017
-719,035	331,685	-0,070	0,101
-718,021	-200,000	0,012	-0,091
-717,006	-71,506	-0,042	-0,011
-715,991	117,091	-0,184	-0,167
-714,977	-200,000	-0,022	-0,127
-713,962	-159,515	-0,114	0,005
-712,948	800,000	-0,040	-0,120
-711,933	-18,913	0,065	0,030
-710,918	-200,000	-0,035	0,133
-709,904	800,000	-0,014	-0,043
-708,889	432,099	-0,100	-0,161
-707,875	-200,000	0,029	-0,117
-706,860	561,113	0,049	0,088
-705,845	-130,202	-0,043	0,004
-704,831	-200,000	-0,011	0,068
-703,816	-200,000	-0,057	0,000
-702,802	248,857	-0,050	0,063
-701,787	800,000	-0,047	-0,140
-700,772	586,409	-0,074	-0,136
-699,758	-111,414	0,083	-0,012
-698,743	-200,000	-0,004	-0,071
-697,729	11,542	0,061	0,034
-696,714	-50,291	0,052	-0,018
-695,699	450,759	0,049	-0,081
-694,685	-200,000	-0,025	-0,214
-693,670	-57,244	-0,021	-0,007
-692,656	-133,910	-0,041	-0,004
-691,641	-110,652	0,031	-0,005
-690,627	-30,983	-0,151	0,063
-689,612	-200,000	0,045	0,185
-688,597	-97,672	-0,144	0,027
-687,583	140,714	-0,042	-0,041
-686,568	143,351	-0,032	-0,031
-685,554	119,539	-0,037	0,034
-684,539	-108,365	0,067	-0,011
-683,524	429,082	-0,028	0,044
-682,510	154,211	0,071	0,072
-681,495	30,379	-0,026	-0,016
-680,481	800,000	-0,040	-0,085
-679,466	73,120	-0,081	-0,062
-678,451	14,743	0,123	-0,071
-677,437	-156,015	0,039	0,002
-676,422	800,000	-0,018	-0,054
-675,408	-117,582	-0,086	0,011
-674,393	16,608	-0,079	0,046
-673,378	418,573	-0,034	-0,053
-672,364	800,000	-0,050	-0,111
-671,349	-200,000	-0,045	-0,158
-670,335	-26,473	-0,063	0,027
-669,320	225,106	0,040	0,047
-668,305	-68,005	0,104	-0,030
-667,291	800,000	-0,080	-0,167
-666,276	426,769	-0,026	-0,041
-665,262	-200,000	0,000	-0,098
-664,247	-58,498	-0,124	-0,039
-663,232	141,403	-0,059	0,058
-662,218	88,722	0,079	-0,065
-661,203	378,137	-0,022	0,033
-660,189	800,000	0,009	-0,023
-659,174	-127,354	-0,121	-0,013
-658,159	168,089	-0,061	0,064
-657,145	186,419	-0,073	0,080
-656,130	-200,000	0,035	0,151
-655,116	554,002	0,057	0,101
-654,101	-4,397	-0,054	0,027
-653,086	-200,000	0,013	0,045
-652,072	99,211	-0,095	-0,081
-651,057	-200,000	-0,031	0,117
-650,043	-23,261	-0,065	-0,029
-649,028	800,000	0,034	-0,109
-648,014	-200,000	0,011	0,049
-646,999	-10,106	-0,043	0,021
-645,984	165,239	0,019	-0,019
-644,970	282,589	0,046	0,061
-643,955	-68,452	-0,176	-0,050
-642,941	-200,000	-0,019	0,090
-641,926	109,615	0,068	-0,061
-640,911	800,000	-0,028	-0,073
-639,897	-164,659	0,084	0,003
-638,882	337,441	-0,043	0,062
-637,868	58,368	-0,099	0,072
-636,853	225,052	-0,075	-0,090
-635,838	58,883	-0,039	0,028
-634,824	6,970	0,095	0,052
-633,809	497,040	0,038	0,066
-632,795	-146,090	-0,095	-0,006
-631,780	800,000	-0,016	0,041
-630,765	-200,000	-0,027	-0,144
-629,751	-80,979	-0,129	-0,031
-628,736	-200,000	-0,025	-0,095
-627,722	-200,000	-0,048	-0,205
-626,707	59,068	-0,118	0,086
-625,692	368,708	0,025	0,038
-624,678	31,223	0,121	-0,076
-623,663	800,000	0,037	0,106
-622,649	-73,664	-0,056	0,015
-621,634	133,683	-0,143	-0,137
-620,619	-113,156	0,078	0,011
-619,605	3,085	0,167	-0,089
-618,590	-18,943	-0,097	-0,044
-617,576	19,921	0,040	-0,024
-616,561	-46,525	-0,070	-0,025
-615,546	-3,733	-0,088	-0,045
-614,532	800,000	0,033	0,076
-613,517	-105,931	-0,141	-0,023
-612,503	-200,000	0,015	-0,074
-611,488	-200,000	-0,004	0,027
-610,474	-125,221	0,217	-0,024
-609,459	58,704	0,092	0,067
-608,444	492,798	-0,131	-0,223
-607,430	-200,000	0,031	-0,164
-606,415	-200,000	0,004	-0,025
-605,401	-149,076	0,082	-0,005
-604,386	-16,728	0,084	0,039
-603,371	-200,000	-0,005	-0,035
-602,357	-200,000	-0,001	0,006
-601,342	-192,905	-0,143	0,001
-600,328	33,900	0,062	-0,040
-599,313	276,879	-0,051	0,067
-598,298	238,592	0,022	-0,027
-597,284	-200,000	0,013	-0,047
-596,269	800,000	-0,083	0,171
-595,255	63,674	-0,035	-0,026
-594,240	66,905	0,019	-0,015
-593,225	-200,000	-0,015	-0,072
-592,211	800,000	-0,076	-0,163
-591,196	800,000	-0,032	-0,066
-590,182	215,264	-0,013	0,015
-589,167	-70,694	0,100	-0,028
-588,152	-85,761	0,083	-0,019
-587,138	800,000	0,025	-0,079
-586,123	-200,000	-0,048	-0,158
-585,109	354,851	-0,039	0,058
-584,094	-9,440	-0,031	0,015
-583,079	313,743	0,077	0,107
-582,065	-149,080	-0,034	-0,002
-581,050	53,496	0,141	0,099
-580,036	254,484	0,061	0,078
-579,021	-95,956	-0,167	-0,032
-578,006	-200,000	0,003	-0,023
-576,992	800,000	-0,038	-0,086
-575,977	40,460	0,117	-0,078
-574,963	43,175	0,052	0,035
-573,948	-200,000	0,009	0,114
-572,934	800,000	0,042	0,100
-571,919	800,000	0,003	-0,011
-570,904	423,604	-0,063	-0,099
-569,890	269,748	-0,081	-0,105
-568,875	800,000	0,011	0,033
-567,861	286,726	0,042	0,057
-566,846	800,000	0,022	0,065
-565,831	-200,000	0,021	0,080
-564,817	-33,959	0,046	-0,019
-563,802	111,319	-0,131	-0,116
-562,788	-110,413	0,099	-0,015
-561,773	703,818	0,077	0,151
-560,758	-160,604	0,225	-0,009
-559,744	-72,745	0,235	0,063
-558,729	-137,379	-0,040	-0,003
-557,715	-200,000	-0,000	0,003
-556,700	-75,531	-0,023	0,006
-555,685	234,107	-0,063	-0,077
-554,671	101,569	-0,070	0,060
-553,656	495,466	-0,039	0,067
-552,642	110,226	0,153	0,135
-551,627	800,000	-0,018	0,037
-550,612	65,992	0,125	0,093
-549,598	-200,000	-0,000	0,029
-548,583	-200,000	-0,014	-0,078
-547,569	296,681	-0,047	-0,064
-546,554	-200,000	-0,026	-0,145
-545,539	-4,420	0,107	0,054
-544,525	288,162	0,042	0,056
-543,510	500,103	0,008	0,014
-542,496	-200,000	0,021	0,075
-541,481	-143,263	0,052	-0,004
-540,466	391,529	0,013	0,020
-539,452	-200,000	0,018	-0,106
-538,437	-200,000	-0,022	-0,097
-537,423	162,622	0,074	0,076
-536,408	29,771	0,080	0,050
-535,393	-200,000	0,019	-0,116
-534,379	191,525	0,090	0,100
-533,364	800,000	0,037	-0,099
-532,350	-5,417	0,038	0,019
-531,335	386,100	0,045	0,068
-530,321	-196,620	0,149	0,001
-529,306	-93,905	-0,082	0,016
-528,291	377,660	0,032	0,048
-527,277	-40,088	-0,087	0,033
-526,262	-200,000	0,016	-0,128
-525,248	800,000	0,065	-0,189
-524,233	110,759	0,107	-0,094
-523,218	-200,000	0,019	0,139
-522,204	340,501	-0,018	-0,025
-521,189	70,896	0,020	0,015
-520,175	330,014	0,121	-0,171
-519,160	-85,528	-0,077	-0,017
-518,145	-200,000	-0,009	-0,060
-517,131	800,000	0,031	-0,066
-516,116	-21,787	-0,098	0,044
-515,102	88,634	-0,065	-0,053
-514,087	-129,304	-0,008	-0,001
-513,072	50,064	-0,085	-0,059
-512,058	187,912	-0,075	0,082
-511,043	5,283	0,102	0,055
-510,029	54,336	0,080	0,057
-509,014	800,000	0,033	0,085
-507,999	13,961	-0,105	0,060
-506,985	-58,125	-0,088	0,028
-505,970	-200,000	0,002	-0,133
-504,956	278,401	0,052	0,068
-503,941	137,778	-0,112	0,108
-502,926	70,682	0,025	-0,019
-501,912	-22,980	0,084	-0,037
-500,897	150,689	-0,018	0,018
-499,883	-26,490	-0,097	0,042
-498,868	216,200	-0,123	-0,144
-497,853	112,058	0,034	-0,030
-496,839	800,000	0,032	0,072
-495,824	8,981	0,015	-0,009
-494,810	154,762	-0,037	-0,038
-493,795	-146,705	0,039	0,002
-492,781	109,640	-0,047	-0,042
-491,766	-5,264	0,056	0,028
-490,751	305,180	-0,020	-0,027
-489,737	31,653	-0,077	0,048
-488,722	-138,603	-0,122	-0,010
-487,708	-200,000	-0,009	-0,104
-486,693	446,397	-0,054	0,087
-485,678	333,888	0,025	-0,035
-484,664	-200,000	-0,011	-0,066
-483,649	-1,983	0,041	-0,021
-482,635	-200,000	0,016	-0,090
-481,620	22,219	0,068	-0,041
-480,605	383,787	0,051	0,077
-479,591	-200,000	0,020	0,084
-478,576	44,562	0,074	0,050
-477,562	-200,000	0,013	0,046
-476,547	-200,000	-0,019	-0,176
-475,532	-200,000	-0,024	0,114
-474,518	76,664	0,057	-0,044
-473,503	-129,509	-0,050	-0,005
-472,489	65,505	-0,068	0,050
-471,474	98,127	-0,059	-0,050
-470,459	118,165	-0,065	-0,059
-469,445	-149,949	0,051	-0,003
-468,430	-200,000	-0,032	-0,155
-467,416	-200,000	0,018	-0,061
-466,401	195,526	-0,043	0,048
-465,386	20,183	0,061	0,036
-464,372	318,613	0,026	0,036
-463,357	800,000	0,033	-0,087
-462,343	96,660	-0,086	-0,072
-461,328	-31,271	-0,039	0,016
-460,313	800,000	0,055	-0,150
-459,299	-109,379	-0,063	-0,010
-458,284	-200,000	0,026	0,109
-457,270	-166,633	0,103	0,003
-456,255	30,393	-0,079	0,049
-455,241	800,000	-0,010	-0,028
-454,226	800,000	-0,030	-0,061
-453,211	118,474	-0,030	0,027
-452,197	-200,000	0,016	0,170
-451,182	32,914	0,098	0,062
-450,168	19,788	-0,065	0,039
-449,153	800,000	-0,045	-0,132
-448,138	800,000	-0,031	-0,092
-447,124	59,757	-0,029	-0,021
-446,109	20,001	-0,087	0,051
-445,095	42,389	0,131	-0,087
-444,080	-112,995	-0,065	0,009
-443,065	-200,000	0,001	0,143
-442,051	18,694	-0,081	0,047
-441,036	114,111	-0,038	-0,034
-440,022	-53,319	0,089	0,030
-439,007	76,055	-0,096	0,074
-437,992	-200,000	0,024	-0,090
-436,978	-121,115	-0,049	0,006
-435,963	-141,321	0,043	-0,003
-434,949	-200,000	-0,023	-0,115
-433,934	490,545	-0,055	0,092
-432,919	-111,881	-0,015	0,002
-431,905	-200,000	-0,034	-0,140
-430,890	800,000	-0,069	0,141
-429,876	326,415	0,058	-0,081
-428,861	29,497	0,029	0,018
-427,846	-13,699	-0,059	-0,028
-426,832	178,552	-0,060	0,065
-425,817	-159,314	-0,085	0,003
-424,803	-128,978	0,005	-0,000
-423,788	800,000	0,032	0,074
-422,773	800,000	-0,032	0,099
-421,759	-70,588	0,106	0,029
-420,744	126,369	0,012	-0,011
-419,730	606,211	-0,060	0,111
-418,715	-95,575	-0,034	0,007
-417,701	-200,000	-0,035	-0,189
-416,686	34,445	0,016	0,010
-415,671	-64,037	-0,064	-0,019
-414,657	-200,000	0,003	-0,119
-413,642	18,490	0,075	-0,044
-412,628	-200,000	0,003	-0,079
-411,613	-43,744	-0,077	-0,028
-410,598	94,204	-0,083	0,069
-409,584	116,112	-0,105	0,094
-408,569	18,008	-0,061	0,035
-407,555	119,190	0,069	0,062
-406,540	-200,000	0,000	0,109
-405,525	14,907	-0,064	-0,037
-404,511	276,411	-0,106	-0,138
-403,496	-79,108	-0,096	-0,024
-402,482	582,748	-0,075	0,136
-401,467	-102,718	-0,060	-0,010
-400,452	122,555	0,148	0,135
-399,438	-13,111	0,056	-0,026
-398,423	-13,724	-0,167	-0,079
-397,409	-149,062	-0,027	-0,002
-396,394	-38,011	-0,141	0,054
-395,379	138,482	0,081	0,077
-394,365	5,176	0,062	-0,033
-393,350	798,989	-0,042	0,084
-392,336	800,000	0,047	0,132
-391,321	-77,757	0,050	-0,013
-390,306	-200,000	0,022	0,108
-389,292	169,449	-0,072	0,075
-388,277	800,000	0,018	-0,055
-387,263	392,376	0,025	0,038
-386,248	-21,230	0,120	0,054
-385,233	-133,720	-0,086	-0,008
-384,219	13,454	-0,067	0,038
-383,204	800,000	0,053	-0,120
-382,190	298,359	0,022	0,029
-381,175	-33,219	-0,042	0,017
-380,160	79,918	-0,093	0,073
-379,146	-82,560	0,098	0,023
-378,131	390,442	0,100	-0,152
-377,117	800,000	-0,051	0,139
-376,102	-200,000	-0,014	-0,048
-375,088	800,000	0,023	0,074
-374,073	231,474	-0,077	-0,092
-373,058	196,830	-0,062	0,069
-372,044	-137,829	0,089	-0,007
-371,029	-108,069	0,087	0,014
-370,015	-35,420	-0,088	0,035
-369,000	30,280	0,062	0,039
-367,985	-200,000	-0,000	-0,070
-366,971	133,370	-0,134	-0,127
-365,956	800,000	0,068	-0,152
-364,942	-200,000	0,016	-0,080
-363,927	-33,645	-0,064	0,026
-362,912	-117,954	0,116	0,015
-361,898	-200,000	-0,014	0,132
-360,883	800,000	-0,070	0,157
-359,869	-200,000	-0,010	-0,044
-358,854	-200,000	-0,018	0,173
-357,839	389,236	0,098	-0,148
-356,825	800,000	-0,025	-0,081
-355,810	32,775	0,075	-0,048
-354,796	278,582	0,069	-0,090
-353,781	116,268	0,086	-0,077
-352,766	94,409	-0,015	-0,013
-351,752	800,000	-0,034	0,083
-350,737	-32,761	0,105	0,043
-349,723	800,000	0,070	0,151
-348,708	-200,000	-0,063	0,213
-347,693	-47,087	-0,090	0,032
-346,679	-200,000	-0,047	-0,164
-345,664	50,077	0,034	0,023
-344,650	-82,833	0,046	-0,011
-343,635	87,018	0,050	-0,040
-342,620	201,232	0,027	-0,031
-341,606	292,143	0,023	0,031
-340,591	264,030	0,030	-0,039
-339,577	800,000	-0,072	0,148
-338,562	-200,000	0,022	-0,075
-337,548	-146,324	-0,109	0,007
-336,533	222,815	0,104	-0,122
-335,518	-18,386	0,104	0,047
-334,504	-2,923	-0,023	0,012
-333,489	-132,636	-0,047	-0,004
-332,475	192,996	0,031	-0,034
-331,460	-200,000	-0,004	-0,074
-330,445	237,466	-0,003	-0,004
-329,431	-108,166	-0,033	-0,005
-328,416	630,814	-0,021	0,039
-327,402	19,129	0,159	0,093
-326,387	800,000	-0,043	0,124
-325,372	32,691	-0,052	0,033
-324,358	-200,000	0,004	-0,022
-323,343	-166,995	-0,101	-0,003
-322,329	800,000	-0,026	-0,057
-321,314	800,000	0,023	0,072
-320,299	-115,577	0,069	0,009
-319,285	-56,601	0,063	0,020
-318,270	50,993	0,021	0,014
-317,256	800,000	-0,019	-0,053
-316,241	-127,768	0,069	-0,007
-315,226	390,648	0,057	0,087
-314,212	-200,000	0,025	0,090
-313,197	-129,317	0,132	-0,013
-312,183	-200,000	0,025	0,111
-311,168	-11,364	0,040	-0,019
-310,153	-104,702	-0,087	-0,014
-309,139	760,418	0,085	0,169
-308,124	-109,516	-0,026	-0,004
-307,110	-124,249	0,107	0,012
-306,095	-68,039	0,103	-0,029
-305,080	26,890	0,083	-0,051
-304,066	60,741	-0,101	0,073
-303,051	438,452	0,091	-0,145
-302,037	-115,700	0,130	0,018
-301,022	-200,000	-0,016	-0,084
-300,008	32,135	0,057	0,036
-298,993	33,262	0,063	0,040
-297,978	800,000	-0,066	0,145
-296,964	-200,000	0,011	0,042
-295,949	28,024	-0,106	-0,065
-294,935	231,463	0,089	-0,107
-293,920	55,578	0,041	-0,029
-292,905	627,383	-0,029	-0,054
-291,891	-200,000	0,008	0,039
-290,876	800,000	0,051	0,110
-289,862	107,625	0,155	0,135
-288,847	-83,335	-0,164	0,038
-287,832	70,527	-0,103	-0,078
-286,818	-200,000	0,015	-0,124
-285,803	1,242	-0,043	0,023
-284,789	-200,000	0,013	-0,099
-283,774	653,111	-0,024	0,046
-282,759	72,942	-0,052	0,040
-281,745	-156,386	0,086	0,004
-280,730	62,776	-0,118	-0,086
-279,716	-200,000	0,004	-0,029
-278,701	-200,000	0,007	0,105
-277,686	707,589	-0,033	-0,063
-276,672	-151,383	0,216	0,012
-275,657	-36,107	0,041	-0,016
-274,643	-200,000	-0,015	-0,067
-273,628	-200,000	0,005	-0,017
-272,613	800,000	-0,046	0,117
-271,599	52,563	-0,026	0,018
-270,584	12,265	0,053	-0,030
-269,570	446,305	0,047	-0,075
-268,555	186,715	-0,098	0,106
-267,540	724,577	0,013	0,026
-266,526	1,959	-0,105	0,055
-265,511	-78,615	-0,086	-0,021
-264,497	64,105	0,055	0,040
-263,482	-33,948	-0,100	-0,040
-262,467	52,366	0,012	-0,008
-261,453	800,000	0,051	0,125
-260,438	-200,000	0,003	-0,022
-259,424	101,206	0,029	0,024
-258,409	-200,000	0,004	-0,059
-257,395	13,265	-0,022	0,012
-256,380	203,443	0,097	0,109
-255,365	-200,000	-0,029	-0,146
-254,351	-71,681	-0,085	0,023
-253,336	800,000	0,037	0,077
-252,322	159,271	-0,080	-0,081
-251,307	741,918	-0,041	-0,081
-250,292	95,257	0,023	0,019
-249,278	800,000	0,039	0,100
-248,263	800,000	0,001	0,002
-247,249	214,380	-0,017	-0,019
-246,234	310,724	-0,128	-0,175
-245,219	-61,670	-0,058	-0,018
-244,205	-171,877	-0,123	0,003
-243,190	333,706	0,072	0,102
-242,176	121,787	0,079	-0,072
-241,161	38,050	-0,120	0,078
-240,146	91,962	0,039	-0,032
-239,132	800,000	0,015	-0,039
-238,117	-9,741	-0,147	0,071
-237,103	60,762	0,113	-0,082
-236,088	-167,468	-0,081	-0,002
-235,073	800,000	0,035	-0,085
-234,059	-129,625	-0,055	-0,005
-233,044	126,083	0,034	-0,031
-232,030	-200,000	-0,004	-0,018
-231,015	-200,000	-0,024	-0,086
-230,000	-200,000	-0,019	-0,079
-228,986	-200,000	0,038	0,197
-227,971	-136,989	0,079	-0,007
-226,957	319,689	-0,017	0,023
-225,942	20,307	0,059	0,034
-224,927	70,198	-0,032	0,024
-223,913	233,134	-0,088	0,105
-222,898	800,000	-0,051	-0,160
-221,884	-167,132	-0,050	-0,001
-220,869	800,000	0,026	-0,076
-219,855	5,291	0,087	0,046
-218,840	-77,363	-0,032	-0,008
-217,825	-81,413	-0,122	0,029
-216,811	-47,738	0,085	-0,030
-215,796	193,217	-0,060	-0,066
-214,782	-200,000	-0,015	-0,052
-213,767	47,352	0,044	0,030
-212,752	-200,000	0,021	0,073
-211,738	-79,490	-0,029	-0,007
-210,723	800,000	0,033	0,069
-209,709	234,577	-0,067	-0,081
-208,694	800,000	0,027	-0,075
-207,679	152,471	-0,110	0,109
-206,665	-200,000	0,001	0,050
-205,650	-128,049	0,074	-0,008
-204,636	265,158	0,051	-0,065
-203,621	768,680	0,023	-0,046
-202,606	-100,669	-0,095	-0,017
-201,592	221,747	-0,074	-0,086
-200,577	-145,658	0,083	-0,005
-199,563	658,523	-0,046	-0,087
-198,548	-73,980	0,040	-0,010
-197,533	113,766	0,069	0,061
-196,519	-200,000	0,030	0,124
-195,504	-49,352	-0,110	-0,038
-194,490	-200,000	-0,027	0,090
-193,475	-39,173	-0,078	-0,030
-192,460	-103,818	-0,066	-0,011
-191,446	800,000	-0,048	0,123
-190,431	800,000	-0,032	0,082
-189,417	800,000	-0,048	0,110
-188,402	-89,987	0,084	-0,018
-187,387	-112,286	-0,075	0,011
-186,373	79,517	0,029	-0,022
-185,358	-142,909	0,141	-0,010
-184,344	-58,822	0,154	-0,048
-183,329	-126,419	0,037	0,004
-182,315	116,135	-0,009	-0,008
-181,300	202,683	0,016	0,018
-180,285	-10,067	0,027	-0,013
-179,271	-132,982	-0,141	0,013
-178,256	44,690	-0,036	-0,024
-177,242	800,000	0,037	0,101
-176,227	267,155	0,046	0,059
-175,212	-37,094	0,118	-0,045
-174,198	15,416	-0,154	0,087
-173,183	145,213	0,089	-0,087
-172,169	374,786	-0,039	-0,058
-171,154	316,271	-0,103	-0,142
-170,139	304,290	0,043	-0,057
-169,125	-80,731	-0,112	0,027
-168,110	222,376	0,042	0,049
-167,096	-200,000	-0,010	0,053
-166,081	-93,161	-0,096	0,019
-165,066	800,000	-0,091	-0,183
-164,052	-62,059	-0,052	0,016
-163,037	17,705	0,024	0,014
-162,023	-119,118	0,066	-0,008
-161,008	292,243	0,060	-0,079
-159,993	6,036	0,242	0,130
-158,979	629,295	-0,041	0,076
-157,964	-200,000	-0,033	0,114
-156,950	-200,000	-0,001	-0,072
-155,935	430,865	-0,020	0,032
-154,920	165,098	-0,030	0,031
-153,906	87,028	0,107	0,085
-152,891	119,465	0,119	0,107
-151,877	-88,496	-0,133	0,029
-150,862	184,307	0,017	0,019
-149,847	-200,000	0,000	-0,019
-148,833	-98,794	0,022	0,004
-147,818	800,000	-0,034	-0,070
-146,804	800,000	-0,029	-0,092
-145,789	-91,274	-0,114	-0,023
-144,775	-200,000	-0,016	-0,145
-143,760	800,000	-0,048	-0,117
-142,745	800,000	0,039	-0,086
-141,731	-84,770	0,136	-0,031
-140,716	666,144	-0,108	0,203
-139,702	-200,000	-0,008	-0,050
-138,687	-98,042	0,054	-0,010
-137,672	54,566	-0,017	-0,012
-136,658	223,168	-0,162	-0,190
-135,643	-133,804	0,026	-0,002
-134,629	-200,000	-0,002	-0,045
-133,614	-200,000	0,020	0,086
-132,599	-69,959	0,150	0,041
-131,585	-200,000	-0,003	-0,035
-130,570	-143,186	-0,038	-0,003
-129,556	-50,637	0,015	0,005
-128,541	198,382	-0,101	-0,112
-127,526	-1,834	0,125	0,063
-126,512	-138,329	0,080	0,006
-125,497	262,684	0,084	0,106
-124,483	50,210	0,019	0,013
-123,468	-200,000	-0,032	-0,120
-122,453	800,000	-0,008	-0,024
-121,439	-200,000	0,040	-0,217
-120,424	-122,440	0,023	-0,003
-119,410	204,269	0,069	0,077
