DTS Sentinel unit serial number:	SN410029Multiplexer serial number:	ORYXHardware model number:	OX2-SRSoftware version number:	ORYX F/W v4,00 Oryx Data Collector v3.7.2.0data status	okinstallation	B4 Nyhavnadifferential loss correction	single-endedforward channel	channel 2reverse channel	N/Adate	2023/12/18time	14:55:13forward acquisition time	300,00reverse acquisition time	0,00gamma	499,1914k internal	0,3211k external	0,3211temperature offset calibration	1,0000default loss term (dB/km)	0,3820temperature slope calibration	1,0000multiplexer offset coefficient	1,0000multiplexer slope coefficient	1,0000fibre end	0,00T internal ref (°C)	9,44T ext. ref 1 (°C)	7,16T ext. ref 2 (°C)	7,24length (m)	temperature (°C)	Stokes	anti-Stokes-744,400	-41,037	0,075	0,028
-743,385	-124,947	-0,334	0,037
-742,371	-91,838	0,142	-0,029
-741,356	-78,777	-0,505	-0,124
-740,342	-110,057	0,201	0,030
-739,327	-17,273	-0,323	-0,147
-738,312	-66,028	0,062	0,018
-737,298	-151,064	-0,505	-0,027
-736,283	97,274	0,022	0,018
-735,269	-138,399	-0,330	-0,026
-734,254	-86,569	0,119	0,026
-733,239	-79,950	-0,631	-0,152
-732,225	-65,457	0,288	0,083
-731,210	-49,944	0,135	0,046
-730,196	400,362	-0,124	-0,189
-729,181	7,555	0,039	-0,021
-728,167	800,000	-0,072	-0,151
-727,152	-200,000	0,033	-0,184
-726,137	36,832	0,027	0,017
-725,123	-32,135	-0,150	-0,060
-724,108	-25,974	-0,079	0,034
-723,094	24,436	-0,100	-0,060
-722,079	-83,061	-0,161	-0,037
-721,064	-200,000	0,005	0,025
-720,050	-166,862	0,054	0,002
-719,035	-105,882	-0,051	-0,008
-718,021	30,022	-0,186	-0,115
-717,006	800,000	-0,007	-0,020
-715,991	97,420	-0,079	-0,065
-714,977	380,390	-0,083	-0,124
-713,962	800,000	0,027	-0,067
-712,948	601,155	-0,024	-0,044
-711,933	-200,000	-0,002	-0,109
-710,918	221,280	0,051	0,059
-709,904	-200,000	-0,043	-0,141
-708,889	-191,701	-0,098	0,001
-707,875	124,886	-0,115	0,105
-706,860	59,409	0,113	0,080
-705,845	38,169	0,122	0,079
-704,831	426,857	-0,093	0,146
-703,816	-92,463	0,125	-0,025
-702,802	353,219	-0,097	0,139
-701,787	-37,850	-0,165	0,063
-700,772	-12,454	-0,014	-0,007
-699,758	-137,232	-0,062	-0,005
-698,743	-156,567	0,075	-0,003
-697,729	225,968	-0,050	-0,059
-696,714	186,330	0,048	-0,051
-695,699	-200,000	-0,009	-0,048
-694,685	168,179	0,014	0,015
-693,670	449,918	0,074	0,118
-692,656	-200,000	-0,012	-0,073
-691,641	2,213	0,037	0,019
-690,627	-125,661	0,042	0,005
-689,612	800,000	0,032	0,098
-688,597	-200,000	-0,002	0,050
-687,583	-36,194	-0,033	-0,013
-686,568	-200,000	0,001	-0,015
-685,554	256,348	0,092	0,115
-684,539	800,000	0,050	0,103
-683,524	800,000	-0,005	0,012
-682,510	269,561	-0,130	-0,165
-681,495	-200,000	-0,008	-0,054
-680,481	-200,000	0,009	-0,096
-679,466	-200,000	0,006	0,021
-678,451	-166,435	-0,162	-0,005
-677,437	-24,264	0,122	0,053
-676,422	800,000	-0,036	0,077
-675,408	-200,000	-0,018	-0,061
-674,393	30,985	-0,078	0,048
-673,378	-200,000	-0,003	-0,047
-672,364	11,685	-0,098	0,054
-671,349	800,000	0,006	0,012
-670,335	-72,749	-0,133	-0,035
-669,320	81,582	0,091	-0,071
-668,305	124,566	-0,054	-0,049
-667,291	-200,000	0,012	-0,039
-666,276	229,437	-0,047	0,055
-665,262	-200,000	0,039	-0,129
-664,247	800,000	-0,018	0,037
-663,232	800,000	-0,088	-0,181
-662,218	800,000	0,007	0,020
-661,203	-200,000	0,011	0,082
-660,189	-200,000	-0,033	0,122
-659,174	-120,156	-0,143	0,017
-658,159	95,518	0,080	0,066
-657,145	-200,000	-0,005	0,017
-656,130	-200,000	0,001	-0,062
-655,116	561,046	0,031	0,054
-654,101	-85,551	0,101	0,023
-653,086	800,000	0,054	-0,138
-652,072	800,000	0,032	-0,091
-651,057	-200,000	-0,011	0,070
-650,043	125,572	-0,052	0,047
-649,028	-200,000	0,050	-0,161
-648,014	54,422	0,078	0,054
-646,999	64,080	0,027	-0,020
-645,984	352,975	-0,030	0,042
-644,970	-200,000	0,004	0,068
-643,955	9,143	-0,078	-0,042
-642,941	800,000	-0,025	-0,078
-641,926	-200,000	-0,013	-0,076
-640,911	587,777	0,057	0,101
-639,897	-200,000	-0,013	0,072
-638,882	800,000	0,057	-0,139
-637,868	98,033	0,119	0,099
-636,853	800,000	0,021	0,052
-635,838	-200,000	-0,019	-0,113
-634,824	-200,000	0,008	-0,058
-633,809	296,846	-0,033	-0,043
-632,795	26,297	-0,135	-0,081
-631,780	779,895	0,054	0,107
-630,765	243,951	-0,056	-0,067
-629,751	-148,628	-0,109	-0,006
-628,736	482,103	-0,068	-0,112
-627,722	130,443	-0,061	-0,056
-626,707	715,867	-0,095	0,183
-625,692	100,576	0,075	-0,063
-624,678	-200,000	-0,026	0,092
-623,663	-82,854	-0,099	-0,023
-622,649	-72,516	-0,161	0,043
-621,634	770,672	0,059	-0,116
-620,619	-193,498	-0,044	-0,000
-619,605	84,415	0,112	0,088
-618,590	800,000	-0,022	-0,052
-617,576	596,751	-0,089	0,160
-616,561	800,000	0,039	0,084
-615,546	-200,000	-0,014	-0,053
-614,532	-74,063	-0,157	-0,041
-613,517	-49,425	0,111	-0,038
-612,503	93,142	-0,150	0,122
-611,488	257,949	0,021	0,026
-610,474	-48,865	-0,017	0,006
-609,459	-200,000	0,003	-0,045
-608,444	-200,000	0,002	-0,134
-607,430	-50,305	-0,104	-0,035
-606,415	800,000	0,084	-0,176
-605,401	-200,000	-0,043	0,147
-604,386	68,083	0,064	-0,047
-603,371	278,268	-0,013	-0,016
-602,357	343,080	-0,066	0,093
-601,342	307,663	0,078	0,106
-600,328	800,000	-0,031	0,064
-599,313	224,172	-0,052	0,060
-598,298	800,000	0,026	-0,059
-597,284	-136,573	0,144	-0,012
-596,269	14,736	-0,052	-0,029
-595,255	15,549	-0,073	0,041
-594,240	800,000	-0,006	-0,018
-593,225	800,000	-0,056	0,159
-592,211	115,006	0,062	0,054
-591,196	246,845	0,026	-0,032
-590,182	-30,250	0,126	0,051
-589,167	-102,471	0,096	0,016
-588,152	-11,167	-0,110	0,052
-587,138	317,947	0,077	-0,105
-586,123	193,319	-0,017	0,018
-585,109	202,314	0,054	-0,060
-584,094	70,730	-0,052	-0,038
-583,079	-200,000	-0,006	0,103
-582,065	-200,000	-0,001	-0,019
-581,050	54,487	0,038	0,026
-580,036	6,380	-0,149	-0,079
-579,021	233,547	0,035	0,042
-578,006	-200,000	0,013	0,048
-576,992	-200,000	-0,005	-0,040
-575,977	-200,000	-0,008	0,058
-574,963	51,930	0,065	-0,044
-573,948	-97,982	-0,088	-0,016
-572,934	-65,823	0,124	0,035
-571,919	-200,000	0,012	-0,059
-570,904	518,143	-0,085	0,143
-569,890	800,000	-0,023	0,058
-568,875	800,000	-0,035	-0,073
-567,861	377,422	-0,026	-0,038
-566,846	-200,000	-0,014	0,066
-565,831	-95,807	-0,012	-0,002
-564,817	233,338	0,104	-0,123
-563,802	286,649	-0,162	-0,211
-562,788	-38,999	-0,088	-0,033
-561,773	289,873	0,067	0,088
-560,758	-200,000	-0,009	0,085
-559,744	85,259	-0,052	0,041
-558,729	-103,895	0,102	-0,017
-557,715	-200,000	-0,036	-0,127
-556,700	51,395	0,056	0,038
-555,685	500,380	-0,060	-0,100
-554,671	493,511	0,033	-0,055
-553,656	299,821	-0,033	0,044
-552,642	800,000	0,011	0,028
-551,627	75,411	-0,026	0,020
-550,612	41,615	-0,041	-0,027
-549,598	51,795	-0,020	0,014
-548,583	800,000	-0,030	-0,083
-547,569	29,401	-0,124	0,076
-546,554	-200,000	0,001	0,037
-545,539	253,261	-0,063	-0,078
-544,525	405,111	-0,069	0,105
-543,510	658,821	0,058	-0,107
-542,496	498,906	-0,012	-0,020
-541,481	-200,000	-0,028	-0,099
-540,466	-104,954	0,095	0,016
-539,452	-200,000	-0,036	0,154
-538,437	602,486	-0,055	0,099
-537,423	-20,726	0,047	-0,021
-536,408	602,676	0,045	0,081
-535,393	-200,000	-0,010	-0,085
-534,379	800,000	0,070	-0,164
-533,364	673,685	-0,072	-0,134
-532,350	-105,239	0,169	-0,027
-531,335	188,435	-0,031	0,033
-530,321	-144,476	0,099	0,007
-529,306	562,579	0,050	0,087
-528,291	35,978	0,123	-0,078
-527,277	94,479	-0,078	-0,064
-526,262	-109,215	0,074	0,011
-525,248	201,700	-0,054	0,060
-524,233	-3,983	-0,123	-0,061
-523,218	-200,000	-0,033	0,152
-522,204	239,236	0,060	-0,072
-521,189	-122,579	-0,070	0,008
-520,175	-200,000	0,032	-0,116
-519,160	501,308	0,053	-0,088
-518,145	800,000	-0,003	0,009
-517,131	34,237	-0,090	0,056
-516,116	-49,965	0,109	-0,037
-515,102	-200,000	0,006	-0,112
-514,087	-74,671	-0,090	0,023
-513,072	-32,108	-0,095	0,038
-512,058	-200,000	-0,007	-0,153
-511,043	128,637	0,092	-0,084
-510,029	297,869	0,003	-0,004
-509,014	-30,485	0,018	-0,007
-507,999	204,908	-0,051	-0,057
-506,985	73,629	0,057	0,043
-505,970	-144,181	-0,065	-0,004
-504,956	270,502	0,032	0,040
-503,941	800,000	0,036	-0,078
-502,926	41,982	0,054	-0,035
-501,912	-200,000	-0,001	-0,013
-500,897	-64,639	0,029	0,008
-499,883	288,758	0,021	0,027
-498,868	-200,000	0,002	-0,057
-497,853	174,460	-0,142	-0,148
-496,839	-6,981	0,005	0,003
-495,824	-200,000	-0,001	-0,039
-494,810	91,597	0,035	0,028
-493,795	-119,161	-0,170	-0,021
-492,781	-119,395	0,133	-0,016
-491,766	65,403	-0,061	-0,045
-490,751	472,220	0,054	-0,088
-489,737	148,651	-0,078	0,076
-488,722	-56,130	0,122	0,039
-487,708	442,147	-0,032	0,051
-486,693	-200,000	0,046	0,229
-485,678	-85,833	0,095	0,021
-484,664	-200,000	-0,013	-0,179
-483,649	42,537	-0,120	0,078
-482,635	800,000	-0,063	-0,164
-481,620	76,665	0,085	0,064
-480,605	-17,223	0,049	-0,022
-479,591	595,122	-0,018	0,032
-478,576	221,919	0,099	-0,115
-477,562	-200,000	-0,037	-0,220
-476,547	800,000	0,020	-0,041
-475,532	-200,000	-0,012	-0,046
-474,518	-200,000	0,021	0,082
-473,503	21,441	0,065	0,038
-472,489	504,919	0,067	0,111
-471,474	800,000	-0,043	-0,091
-470,459	-65,348	0,028	0,008
-469,445	-200,000	0,002	-0,031
-468,430	639,820	-0,041	-0,075
-467,416	-200,000	0,010	0,046
-466,401	-200,000	0,046	0,152
-465,386	-117,173	0,101	-0,013
-464,372	208,429	-0,089	0,100
-463,357	-200,000	-0,005	0,036
-462,343	35,548	-0,159	0,100
-461,328	-200,000	0,018	0,075
-460,313	-200,000	-0,021	-0,082
-459,299	-51,742	-0,025	-0,008
-458,284	179,302	0,024	0,025
-457,270	-134,059	0,139	-0,012
-456,255	-33,258	-0,099	-0,039
-455,241	-51,716	-0,082	0,027
-454,226	192,655	0,040	-0,043
-453,211	-11,267	0,028	0,013
-452,197	-165,840	0,148	-0,004
-451,182	56,988	-0,077	-0,054
-450,168	-200,000	-0,010	0,137
-449,153	382,575	0,079	-0,117
-448,138	-115,821	-0,179	0,024
-447,124	183,874	0,078	-0,083
-446,109	7,191	0,045	0,024
-445,095	-200,000	-0,011	0,108
-444,080	-59,111	0,173	0,053
-443,065	687,923	0,021	0,040
-442,051	189,597	-0,099	0,106
-441,036	-168,182	-0,130	-0,004
-440,022	-200,000	0,023	-0,086
-439,007	-200,000	-0,002	-0,163
-437,992	19,461	0,050	-0,029
-436,978	-200,000	-0,033	0,127
-435,963	-200,000	-0,000	-0,047
-434,949	-100,016	-0,089	-0,016
-433,934	-200,000	-0,001	0,020
-432,919	-57,679	-0,033	-0,010
-431,905	521,188	-0,055	0,093
-430,890	70,318	0,043	0,032
-429,876	162,546	-0,079	0,080
-428,861	-200,000	-0,008	-0,044
-427,846	-200,000	0,040	0,192
-426,832	-133,649	-0,069	-0,006
-425,817	222,256	0,144	0,166
-424,803	693,046	0,046	0,087
-423,788	13,761	0,084	0,047
-422,773	148,670	0,059	-0,057
-421,759	-116,841	-0,065	0,008
-420,744	317,049	-0,100	-0,136
-419,730	-4,079	-0,043	0,021
-418,715	254,265	-0,078	-0,095
-417,701	-148,151	-0,071	-0,004
-416,686	229,214	0,081	0,095
-415,671	-200,000	-0,020	0,063
-414,657	54,644	-0,033	0,023
-413,642	30,891	0,006	-0,003
-412,628	31,144	-0,110	0,068
-411,613	711,676	0,034	-0,065
-410,598	-82,402	-0,098	0,023
-409,584	800,000	-0,017	0,050
-408,569	-200,000	-0,001	0,132
-407,555	-114,090	0,034	0,005
-406,540	-10,425	0,093	0,044
-405,525	-26,708	-0,169	0,070
-404,511	327,288	0,058	-0,080
-403,496	67,657	-0,140	-0,103
-402,482	48,526	0,154	-0,103
-401,467	-95,016	0,082	0,016
-400,452	182,256	-0,200	0,211
-399,438	-72,386	-0,170	0,045
-398,423	-107,050	-0,124	-0,019
-397,409	219,603	0,086	0,099
-396,394	-200,000	0,011	-0,122
-395,379	800,000	-0,056	0,137
-394,365	194,393	0,010	0,011
-393,350	-200,000	0,009	0,154
-392,336	800,000	-0,039	0,111
-391,321	800,000	0,028	-0,056
-390,306	-141,772	-0,068	0,005
-389,292	-195,109	0,113	0,001
-388,277	-200,000	0,004	0,028
-387,263	-200,000	0,007	0,160
-386,248	800,000	0,051	0,138
-385,233	459,422	-0,065	0,104
-384,219	-101,015	-0,098	-0,017
-383,204	-163,160	-0,053	-0,002
-382,190	-200,000	-0,007	0,044
-381,175	-44,430	0,035	0,013
-380,160	-134,191	0,032	-0,003
-379,146	-200,000	-0,009	0,246
-378,131	148,267	-0,045	0,043
-377,117	109,728	0,044	-0,038
-376,102	-200,000	-0,003	-0,091
-375,088	37,343	-0,097	-0,062
-374,073	-200,000	0,075	0,000
-373,058	-200,000	0,040	-0,148
-372,044	-77,979	0,077	0,019
-371,029	21,449	-0,056	-0,032
-370,015	189,465	-0,155	0,166
-369,000	633,558	-0,012	0,022
-367,985	-23,340	-0,078	0,034
-366,971	-39,688	0,056	-0,021
-365,956	-200,000	-0,020	0,110
-364,942	470,305	0,098	0,157
-363,927	800,000	0,010	-0,027
-362,912	33,857	0,091	-0,057
-361,898	800,000	-0,007	-0,014
-360,883	-28,402	0,088	-0,036
-359,869	800,000	-0,054	-0,114
-358,854	-200,000	0,008	0,056
-357,839	-44,926	0,042	-0,015
-356,825	13,618	0,134	-0,074
-355,810	12,075	0,109	0,060
-354,796	71,812	-0,102	-0,076
-353,781	-73,978	-0,117	-0,030
-352,766	0,740	-0,031	-0,016
-351,752	800,000	-0,037	0,078
-350,737	-23,660	0,044	0,019
-349,723	800,000	0,024	0,058
-348,708	193,347	0,051	-0,055
-347,693	-200,000	-0,026	-0,086
-346,679	-200,000	0,008	0,104
-345,664	-124,330	-0,066	0,007
-344,650	124,259	-0,041	-0,037
-343,635	-78,942	0,066	0,016
-342,620	269,286	-0,076	-0,096
-341,606	316,918	-0,067	0,090
-340,591	-129,446	-0,036	-0,004
-339,577	445,019	0,060	-0,094
-338,562	800,000	-0,046	-0,110
-337,548	-19,294	0,087	0,038
-336,533	78,879	0,043	-0,033
-335,518	743,543	0,108	0,208
-334,504	552,408	-0,052	-0,090
-333,489	-100,875	0,073	-0,013
-332,475	177,026	-0,050	0,051
-331,460	419,215	-0,072	-0,110
-330,445	-200,000	-0,003	-0,055
-329,431	298,000	0,033	0,044
-328,416	-200,000	-0,034	0,150
-327,402	-200,000	-0,023	0,134
-326,387	-200,000	-0,019	0,112
-325,372	-200,000	-0,001	-0,047
-324,358	-38,597	-0,127	0,047
-323,343	-18,592	0,023	0,010
-322,329	-200,000	-0,009	-0,039
-321,314	-42,276	-0,046	0,017
-320,299	296,011	0,087	0,114
-319,285	125,658	-0,061	0,055
-318,270	199,950	-0,031	0,035
-317,256	-200,000	0,010	-0,082
-316,241	800,000	0,048	0,128
-315,226	153,810	-0,109	0,106
-314,212	172,030	0,055	-0,056
-313,197	-200,000	-0,017	0,053
-312,183	433,518	-0,036	0,056
-311,168	114,097	0,000	-0,000
-310,153	-138,470	-0,082	-0,006
-309,139	-200,000	0,004	-0,065
-308,124	-71,877	0,105	-0,028
-307,110	800,000	0,044	0,118
-306,095	-77,793	0,113	-0,028
-305,080	690,390	0,032	-0,061
-304,066	20,198	-0,099	-0,057
-303,051	-200,000	0,006	0,209
-302,037	-62,933	0,069	-0,020
-301,022	-200,000	0,020	0,067
-300,008	-32,355	0,053	-0,021
-298,993	115,623	0,039	-0,034
-297,978	-200,000	-0,003	0,032
-296,964	127,700	0,087	-0,079
-295,949	549,418	0,034	0,059
-294,935	298,594	-0,030	-0,039
-293,920	83,378	0,025	-0,019
-292,905	-32,969	0,096	0,038
-291,891	-141,764	-0,091	0,006
-290,876	-200,000	0,001	0,062
-289,862	-200,000	-0,002	-0,037
-288,847	-200,000	-0,043	-0,197
-287,832	-200,000	0,008	-0,056
-286,818	740,540	-0,017	0,032
-285,803	-200,000	0,013	-0,062
-284,789	-76,100	0,112	-0,028
-283,774	-200,000	0,036	-0,137
-282,759	4,310	-0,047	-0,024
-281,745	296,090	0,044	0,058
-280,730	279,120	0,029	0,036
-279,716	126,628	-0,036	-0,033
-278,701	-200,000	0,036	0,149
-277,686	-149,839	0,096	0,005
-276,672	252,180	0,081	-0,098
-275,657	19,448	-0,036	-0,021
-274,643	-200,000	-0,005	-0,107
-273,628	800,000	-0,041	-0,107
-272,613	523,202	0,024	0,040
-271,599	-200,000	-0,012	0,085
-270,584	800,000	0,023	-0,064
-269,570	-200,000	-0,010	0,059
-268,555	290,231	-0,034	0,044
-267,540	16,683	0,145	-0,081
-266,526	-85,811	-0,081	0,018
-265,511	501,845	-0,058	-0,095
-264,497	-200,000	-0,001	-0,055
-263,482	-23,684	0,086	0,037
-262,467	48,967	-0,075	0,050
-261,453	-200,000	0,002	0,149
-260,438	-200,000	-0,014	0,120
-259,424	321,185	-0,059	-0,080
-258,409	127,504	0,145	-0,131
-257,395	5,153	0,059	0,031
-256,380	182,524	-0,031	0,033
-255,365	-200,000	0,011	0,084
-254,351	-144,704	0,190	0,012
-253,336	800,000	-0,058	0,128
-252,322	19,039	-0,056	-0,032
-251,307	462,293	-0,056	-0,088
-250,292	800,000	0,070	-0,199
-249,278	-200,000	-0,006	-0,041
-248,263	800,000	0,022	-0,051
-247,249	800,000	0,041	0,118
-246,234	-113,748	-0,101	0,014
-245,219	800,000	-0,039	-0,080
-244,205	-10,302	0,167	-0,078
-243,190	-200,000	-0,007	-0,079
-242,176	-200,000	0,013	-0,121
-241,161	800,000	-0,037	0,079
-240,146	226,014	-0,060	0,069
-239,132	-77,515	-0,033	-0,008
-238,117	80,915	-0,118	-0,091
-237,103	-179,034	0,045	-0,001
-236,088	676,794	-0,075	-0,138
-235,073	-37,661	0,099	-0,037
-234,059	258,118	0,057	-0,070
-233,044	319,244	-0,048	-0,064
-232,030	-35,520	-0,078	-0,030
-231,015	-200,000	-0,035	-0,111
-230,000	-12,737	-0,095	0,044
-228,986	17,611	-0,005	-0,003
-227,971	-200,000	-0,023	-0,119
-226,957	33,471	0,133	-0,082
-225,942	800,000	-0,016	0,050
-224,927	-0,674	-0,115	0,058
-223,913	-200,000	0,006	-0,160
-222,898	-1,481	-0,131	-0,065
-221,884	-200,000	0,023	-0,112
-220,869	-59,034	0,172	0,052
-219,855	-189,125	-0,061	-0,001
-218,840	372,383	0,066	0,095
-217,825	163,230	-0,014	-0,014
-216,811	-137,851	0,166	0,013
-215,796	800,000	0,031	-0,086
-214,782	-101,188	0,170	-0,029
-213,767	-200,000	0,002	-0,070
-212,752	-132,991	0,164	0,015
-211,738	-200,000	-0,012	0,084
-210,723	491,955	0,030	-0,050
-209,709	-83,200	-0,099	-0,022
-208,694	91,741	0,060	-0,048
-207,679	315,465	-0,032	0,043
-206,665	-200,000	0,005	0,018
-205,650	-200,000	0,010	0,035
-204,636	373,131	0,024	-0,035
-203,621	-200,000	-0,035	0,171
-202,606	-70,452	-0,034	0,009
-201,592	20,753	0,126	0,072
-200,577	-200,000	0,000	-0,042
-199,563	28,093	0,068	0,041
-198,548	-57,743	0,121	0,037
-197,533	-9,117	-0,126	0,060
-196,519	87,993	0,013	0,010
-195,504	26,114	-0,072	-0,042
-194,490	-200,000	-0,010	-0,094
-193,475	296,524	0,007	0,009
-192,460	522,943	0,039	-0,065
-191,446	-94,066	-0,073	0,014
-190,431	406,094	0,043	0,065
-189,417	-200,000	0,038	-0,179
-188,402	311,204	0,030	0,039
-187,387	-133,330	-0,193	0,017
-186,373	401,598	-0,085	-0,127
-185,358	800,000	0,068	0,147
-184,344	82,293	-0,086	-0,066
-183,329	698,356	-0,046	0,087
-182,315	-200,000	0,017	-0,091
-181,300	717,928	-0,016	-0,030
-180,285	247,028	-0,110	0,132
-179,271	800,000	0,026	-0,056
-178,256	-200,000	-0,008	0,027
-177,242	-200,000	0,001	0,108
-176,227	514,178	0,047	-0,077
-175,212	-200,000	0,030	0,106
-174,198	69,045	-0,084	-0,061
-173,183	196,764	0,083	0,090
-172,169	97,795	0,078	-0,063
-171,154	214,874	0,113	-0,127
-170,139	88,078	0,057	0,045
-169,125	-162,760	-0,078	-0,003
-168,110	800,000	-0,058	0,144
-167,096	-59,116	0,137	0,042
-166,081	416,117	0,057	-0,086
-165,066	174,860	-0,132	-0,135
-164,052	-28,278	0,094	-0,038
-163,037	-141,556	-0,039	0,003
-162,023	-98,990	0,059	-0,011
-161,008	369,983	0,082	0,118
-159,993	147,850	0,120	-0,115
-158,979	21,644	0,109	0,063
-157,964	466,831	-0,003	-0,005
-156,950	800,000	0,007	-0,020
-155,935	552,361	-0,002	0,004
-154,920	421,856	-0,075	-0,114
-153,906	-96,004	0,110	0,020
-152,891	431,871	-0,014	0,021
-151,877	82,647	-0,046	0,036
-150,862	800,000	0,013	-0,032
-149,847	141,615	-0,069	0,064
-148,833	78,275	0,028	0,021
-147,818	65,370	0,070	0,050
-146,804	129,767	-0,134	0,121
-145,789	-166,743	0,153	0,004
-144,775	227,119	0,058	-0,066
-143,760	-53,489	-0,094	-0,030
-142,745	-55,587	0,092	0,029
-141,731	21,681	0,054	0,031
-140,716	436,019	0,110	0,169
-139,702	9,906	0,091	-0,049
-138,687	265,683	0,109	-0,135
-137,672	23,511	-0,099	0,057
-136,658	104,982	-0,060	0,050
-135,643	-200,000	0,009	-0,034
-134,629	-200,000	0,027	-0,091
-133,614	-200,000	-0,004	0,043
-132,599	800,000	0,029	-0,060
-131,585	-3,404	0,142	0,070
-130,570	0,372	0,036	0,018
-129,556	343,009	-0,065	0,090
-128,541	-200,000	-0,024	0,226
-127,526	-36,017	0,090	0,034
-126,512	-200,000	0,005	-0,031
-125,497	12,064	0,093	0,050
-124,483	575,843	0,035	0,061
-123,468	-200,000	0,026	0,104
-122,453	-113,646	0,031	-0,004
-121,439	-114,286	-0,202	-0,027
-120,424	217,540	-0,091	0,102
-119,410	-100,799	0,122	0,021
