DTS Sentinel unit serial number:	SN410029Multiplexer serial number:	ORYXHardware model number:	OX2-SRSoftware version number:	ORYX F/W v4,00 Oryx Data Collector v3.7.2.0data status	okinstallation	B4 Nyhavnadifferential loss correction	single-endedforward channel	channel 2reverse channel	N/Adate	2023/12/18time	19:50:13forward acquisition time	300,00reverse acquisition time	0,00gamma	499,1914k internal	0,3123k external	0,3123temperature offset calibration	1,0000default loss term (dB/km)	0,3820temperature slope calibration	1,0000multiplexer offset coefficient	1,0000multiplexer slope coefficient	1,0000fibre end	0,00T internal ref (°C)	21,87T ext. ref 1 (°C)	7,09T ext. ref 2 (°C)	7,10length (m)	temperature (°C)	Stokes	anti-Stokes-744,400	-111,270	0,145	-0,022
-743,385	-110,423	-0,243	0,037
-742,371	116,547	0,058	-0,053
-741,356	246,415	-0,226	0,284
-740,342	-124,985	0,103	-0,012
-739,327	-40,659	-0,157	0,060
-738,312	13,772	-0,150	-0,086
-737,298	-74,757	-0,316	0,084
-736,283	-200,000	-0,005	-0,232
-735,269	800,000	-0,038	-0,118
-734,254	-200,000	-0,014	-0,106
-733,239	-74,482	-0,280	0,075
-732,225	-200,000	-0,004	0,157
-731,210	800,000	0,025	0,074
-730,196	-152,274	0,077	-0,004
-729,181	-98,271	-0,082	-0,016
-728,167	-200,000	0,023	-0,202
-727,152	-86,091	-0,100	-0,023
-726,137	109,659	-0,048	-0,043
-725,123	14,997	-0,050	0,029
-724,108	463,990	-0,030	-0,050
-723,094	-200,000	-0,025	-0,121
-722,079	-200,000	-0,007	0,041
-721,064	772,336	-0,016	-0,032
-720,050	-200,000	0,018	0,119
-719,035	-21,204	-0,098	-0,044
-718,021	-41,642	0,013	-0,005
-717,006	-108,147	-0,080	-0,013
-715,991	-200,000	-0,005	-0,104
-714,977	-52,684	0,066	-0,022
-713,962	800,000	0,038	-0,097
-712,948	-200,000	0,002	0,131
-711,933	800,000	0,021	0,057
-710,918	800,000	-0,049	-0,125
-709,904	-62,690	-0,047	0,014
-708,889	699,515	-0,066	-0,130
-707,875	777,740	-0,109	-0,223
-706,860	-200,000	-0,004	0,063
-705,845	-106,610	-0,065	0,011
-704,831	274,355	-0,096	-0,126
-703,816	800,000	0,044	0,100
-702,802	-40,459	-0,053	0,021
-701,787	800,000	-0,067	-0,143
-700,772	-91,045	-0,101	-0,021
-699,758	-65,860	-0,121	-0,036
-698,743	-200,000	0,025	0,097
-697,729	-188,222	-0,070	-0,001
-696,714	115,104	-0,023	0,021
-695,699	101,546	-0,079	-0,068
-694,685	-82,557	-0,122	-0,029
-693,670	-40,961	-0,051	-0,020
-692,656	-10,108	-0,069	-0,034
-691,641	-200,000	0,005	-0,140
-690,627	-200,000	0,022	-0,133
-689,612	206,589	0,067	0,077
-688,597	178,408	-0,033	-0,036
-687,583	-0,543	-0,031	0,017
-686,568	-200,000	0,006	-0,028
-685,554	-113,175	-0,139	-0,020
-684,539	-148,080	0,117	-0,007
-683,524	470,099	0,067	0,112
-682,510	-200,000	-0,003	-0,035
-681,495	689,173	-0,063	0,123
-680,481	800,000	0,044	-0,095
-679,466	-200,000	-0,034	-0,150
-678,451	800,000	-0,006	-0,013
-677,437	-200,000	-0,017	-0,091
-676,422	-200,000	0,015	-0,111
-675,408	-200,000	0,005	0,055
-674,393	-98,860	0,041	-0,008
-673,378	-193,899	-0,178	-0,001
-672,364	52,592	-0,069	0,049
-671,349	592,633	0,042	0,078
-670,335	-26,248	-0,079	-0,034
-669,320	21,588	-0,040	-0,024
-668,305	132,057	0,009	-0,009
-667,291	-200,000	0,006	-0,109
-666,276	83,835	-0,025	-0,021
-665,262	-189,977	-0,134	0,001
-664,247	220,689	0,035	-0,041
-663,232	345,518	0,027	0,040
-662,218	-92,382	0,067	-0,014
-661,203	800,000	-0,036	-0,091
-660,189	201,105	0,052	-0,059
-659,174	478,851	-0,038	-0,064
-658,159	64,065	0,136	-0,101
-657,145	150,754	-0,053	-0,054
-656,130	-200,000	0,000	0,143
-655,116	431,023	0,018	-0,029
-654,101	-0,933	-0,027	-0,014
-653,086	51,602	0,023	-0,016
-652,072	246,931	-0,015	0,018
-651,057	93,032	-0,169	-0,142
-650,043	-200,000	-0,030	-0,139
-649,028	-200,000	-0,002	-0,132
-648,014	-53,610	0,192	0,065
-646,999	-97,133	0,039	0,007
-645,984	-200,000	-0,001	0,066
-644,970	-103,632	0,153	-0,026
-643,955	-33,488	-0,032	-0,013
-642,941	-69,689	-0,069	-0,020
-641,926	-200,000	0,008	0,098
-640,911	-200,000	0,015	0,064
-639,897	800,000	0,025	-0,057
-638,882	-23,884	-0,030	0,013
-637,868	242,572	-0,022	-0,027
-636,853	-54,344	-0,075	-0,025
-635,838	-200,000	0,008	-0,037
-634,824	-200,000	0,015	0,072
-633,809	62,585	-0,053	0,039
-632,795	-200,000	0,029	0,115
-631,780	786,773	-0,024	0,049
-630,765	-200,000	-0,053	-0,224
-629,751	-139,125	-0,093	-0,007
-628,736	298,004	-0,049	0,066
-627,722	-200,000	-0,000	-0,027
-626,707	-135,742	0,171	-0,015
-625,692	-200,000	-0,019	-0,073
-624,678	-133,994	-0,200	0,018
-623,663	-124,464	-0,094	-0,011
-622,649	222,199	-0,060	0,072
-621,634	-200,000	-0,005	-0,117
-620,619	-125,274	-0,036	0,004
-619,605	436,644	-0,028	0,045
-618,590	193,149	-0,063	-0,070
-617,576	800,000	0,040	-0,093
-616,561	76,212	-0,084	-0,066
-615,546	-200,000	-0,028	-0,109
-614,532	232,670	-0,051	-0,062
-613,517	800,000	0,060	-0,127
-612,503	29,891	0,182	-0,114
-611,488	-200,000	0,005	0,065
-610,474	166,957	-0,063	0,067
-609,459	701,906	0,028	0,055
-608,444	142,936	-0,062	0,061
-607,430	-106,437	0,050	0,008
-606,415	-59,914	-0,031	0,010
-605,401	-200,000	-0,004	-0,020
-604,386	-91,192	0,034	-0,007
-603,371	467,876	-0,053	0,089
-602,357	800,000	0,044	0,117
-601,342	-200,000	0,004	0,073
-600,328	213,234	-0,028	-0,033
-599,313	-200,000	0,024	0,127
-598,298	503,103	-0,047	-0,080
-597,284	-200,000	-0,001	-0,139
-596,269	800,000	0,017	0,046
-595,255	800,000	0,041	0,095
-594,240	-67,248	0,114	0,033
-593,225	-147,690	0,104	0,006
-592,211	405,758	0,065	-0,102
-591,196	-121,908	-0,057	-0,007
-590,182	-17,191	-0,065	0,030
-589,167	-44,263	0,140	-0,052
-588,152	-200,000	-0,013	-0,090
-587,138	-151,772	-0,162	0,009
-586,123	-60,143	-0,100	0,031
-585,109	-34,262	-0,080	-0,032
-584,094	579,169	0,025	-0,045
-583,079	-168,616	0,063	0,002
-582,065	-200,000	0,014	-0,092
-581,050	-46,209	0,162	0,059
-580,036	30,172	0,019	0,012
-579,021	81,102	0,059	-0,047
-578,006	155,151	-0,124	0,126
-576,992	37,104	-0,030	-0,020
-575,977	54,129	0,056	-0,040
-574,963	-120,253	0,037	0,005
-573,948	65,350	-0,079	0,059
-572,934	-81,129	-0,072	0,017
-571,919	35,084	-0,116	0,075
-570,904	40,778	-0,110	0,073
-569,890	-59,272	-0,086	0,027
-568,875	126,514	-0,094	0,088
-567,861	47,217	0,159	-0,110
-566,846	160,266	0,050	-0,052
-565,831	280,759	0,096	-0,127
-564,817	-200,000	-0,011	-0,044
-563,802	-50,954	-0,064	-0,022
-562,788	800,000	0,015	0,043
-561,773	395,390	-0,047	0,073
-560,758	87,211	0,026	-0,021
-559,744	33,364	-0,118	0,075
-558,729	-200,000	0,020	0,081
-557,715	330,569	0,049	-0,070
-556,700	713,807	-0,051	-0,101
-555,685	458,990	0,026	-0,043
-554,671	800,000	0,026	0,053
-553,656	-43,466	-0,013	0,005
-552,642	104,342	0,082	0,071
-551,627	-103,366	0,019	0,003
-550,612	310,481	-0,056	0,078
-549,598	-32,725	0,042	-0,017
-548,583	316,933	0,066	-0,092
-547,569	-14,842	-0,033	0,016
-546,554	369,856	-0,061	0,092
-545,539	-137,301	0,059	0,005
-544,525	90,902	0,033	-0,028
-543,510	-200,000	0,053	-0,196
-542,496	-200,000	-0,008	-0,055
-541,481	341,100	0,030	-0,043
-540,466	-200,000	0,005	-0,117
-539,452	31,157	0,054	-0,034
-538,437	-200,000	-0,009	0,091
-537,423	188,711	-0,037	-0,041
-536,408	-200,000	-0,009	-0,159
-535,393	443,953	0,055	-0,090
-534,379	-81,289	-0,060	0,015
-533,364	122,773	0,009	-0,008
-532,350	26,050	0,031	-0,019
-531,335	-160,251	0,201	-0,008
-530,321	800,000	-0,021	0,064
-529,306	271,463	0,029	-0,037
-528,291	41,990	-0,070	0,047
-527,277	-191,546	0,044	-0,000
-526,262	-96,865	-0,184	-0,035
-525,248	-200,000	-0,005	0,031
-524,233	-59,631	-0,080	-0,025
-523,218	800,000	-0,036	0,078
-522,204	-55,990	0,050	0,016
-521,189	-40,706	-0,024	0,009
-520,175	-200,000	0,008	0,078
-519,160	0,204	-0,180	0,094
-518,145	-70,861	-0,067	0,019
-517,131	-200,000	-0,015	-0,054
-516,116	257,587	-0,011	0,013
-515,102	-30,829	-0,187	-0,078
-514,087	89,508	0,039	-0,032
-513,072	58,194	-0,125	-0,090
-512,058	40,552	0,138	-0,092
-511,043	-200,000	0,007	0,069
-510,029	119,964	-0,028	-0,025
-509,014	87,216	-0,036	-0,030
-507,999	354,929	-0,064	0,094
-506,985	320,566	0,032	0,045
-505,970	520,515	0,060	-0,105
-504,956	-44,269	0,138	-0,051
-503,941	62,278	-0,052	0,038
-502,926	800,000	0,061	-0,151
-501,912	-200,000	0,007	-0,099
-500,897	-62,417	-0,076	0,023
-499,883	-200,000	-0,001	0,007
-498,868	409,031	0,040	0,062
-497,853	508,047	0,027	-0,047
-496,839	148,641	0,008	-0,008
-495,824	800,000	0,038	0,101
-494,810	356,977	-0,028	0,042
-493,795	26,958	-0,134	-0,083
-492,781	-0,999	-0,069	0,036
-491,766	-200,000	-0,001	0,063
-490,751	271,952	-0,081	-0,106
-489,737	-200,000	0,016	-0,056
-488,722	-83,377	-0,088	0,021
-487,708	-200,000	0,025	0,161
-486,693	18,996	-0,131	0,077
-485,678	623,512	-0,084	0,156
-484,664	800,000	0,017	0,040
-483,649	-14,270	-0,065	-0,031
-482,635	-200,000	-0,007	-0,139
-481,620	232,909	0,062	-0,075
-480,605	295,805	0,072	0,098
-479,591	79,059	0,149	0,118
-478,576	148,959	-0,110	0,110
-477,562	27,743	-0,117	-0,073
-476,547	14,383	-0,019	-0,011
-475,532	-200,000	-0,023	-0,082
-474,518	-15,101	-0,053	0,025
-473,503	-74,906	0,039	-0,010
-472,489	-86,144	-0,002	-0,001
-471,474	-200,000	0,004	-0,058
-470,459	167,614	0,070	0,074
-469,445	169,193	0,059	-0,063
-468,430	-54,135	0,120	-0,040
-467,416	738,554	-0,034	0,067
-466,401	-200,000	0,045	0,166
-465,386	-200,000	0,038	0,210
-464,372	80,938	-0,018	0,015
-463,357	-200,000	-0,013	-0,082
-462,343	7,454	-0,071	-0,039
-461,328	-12,365	-0,072	-0,035
-460,313	-13,090	0,079	0,038
-459,299	-111,196	0,137	0,020
-458,284	-200,000	0,010	0,049
-457,270	274,541	-0,040	-0,053
-456,255	90,922	-0,058	-0,048
-455,241	-200,000	-0,002	-0,013
-454,226	-200,000	0,007	-0,162
-453,211	66,514	0,065	0,049
-452,197	26,700	-0,071	0,044
-451,182	153,878	0,036	0,037
-450,168	85,903	0,096	0,078
-449,153	-138,783	0,049	-0,004
-448,138	800,000	-0,006	-0,015
-447,124	-90,384	-0,033	0,007
-446,109	167,533	0,043	0,045
-445,095	-31,837	-0,174	0,072
-444,080	571,973	-0,062	0,112
-443,065	-200,000	0,047	0,192
-442,051	-200,000	0,013	-0,107
-441,036	-11,377	-0,098	-0,047
-440,022	-94,016	-0,096	-0,019
-439,007	800,000	-0,041	-0,085
-437,992	-118,217	-0,129	-0,017
-436,978	376,512	0,035	-0,053
-435,963	-200,000	-0,044	0,237
-434,949	-116,932	-0,063	0,008
-433,934	-96,863	-0,092	-0,018
-432,919	297,386	0,068	-0,092
-431,905	-137,543	0,084	0,007
-430,890	800,000	0,025	-0,068
-429,876	27,890	-0,014	0,009
-428,861	34,091	-0,076	-0,048
-427,846	-82,250	-0,090	0,021
-426,832	800,000	0,034	-0,094
-425,817	-100,774	-0,050	-0,009
-424,803	-5,414	-0,061	-0,031
-423,788	314,647	-0,055	0,076
-422,773	342,879	0,105	-0,152
-421,759	800,000	-0,018	-0,040
-420,744	160,214	0,067	0,068
-419,730	-21,153	0,048	0,021
-418,715	150,053	0,065	-0,065
-417,701	-111,099	0,040	-0,006
-416,686	4,265	-0,034	0,018
-415,671	-65,628	0,080	-0,023
-414,657	-200,000	-0,010	0,114
-413,642	-200,000	-0,006	0,027
-412,628	-200,000	-0,031	-0,134
-411,613	-200,000	-0,001	-0,016
-410,598	-200,000	0,003	-0,043
-409,584	177,633	0,081	0,087
-408,569	16,402	-0,024	0,014
-407,555	-51,702	-0,014	-0,005
-406,540	-200,000	-0,012	-0,087
-405,525	153,477	0,053	-0,053
-404,511	-108,487	0,121	-0,019
-403,496	398,500	-0,044	0,068
-402,482	-200,000	0,026	0,108
-401,467	800,000	0,029	0,076
-400,452	800,000	-0,056	0,128
-399,438	-19,670	-0,101	0,046
-398,423	-200,000	-0,026	0,095
-397,409	800,000	-0,054	-0,110
-396,394	-200,000	0,019	0,121
-395,379	455,116	0,017	0,027
-394,365	-82,990	0,176	0,041
-393,350	-93,854	0,143	-0,029
-392,336	298,624	-0,097	0,132
-391,321	-43,552	0,065	-0,024
-390,306	800,000	-0,030	0,068
-389,292	800,000	-0,009	-0,031
-388,277	47,330	-0,050	-0,034
-387,263	110,402	-0,100	0,088
-386,248	11,109	-0,081	-0,045
-385,233	-200,000	0,008	-0,027
-384,219	81,353	0,121	0,096
-383,204	177,106	-0,009	0,010
-382,190	72,958	-0,056	0,043
-381,175	205,971	0,076	-0,087
-380,160	246,712	0,013	0,016
-379,146	-158,471	0,028	-0,001
-378,131	114,905	-0,032	0,028
-377,117	219,161	-0,031	-0,036
-376,102	715,891	-0,078	-0,153
-375,088	-143,313	-0,128	-0,009
-374,073	-29,813	-0,039	0,016
-373,058	-200,000	0,019	0,097
-372,044	-51,553	0,109	0,037
-371,029	-200,000	0,018	0,203
-370,015	-141,326	-0,208	-0,015
-369,000	64,838	-0,058	0,043
-367,985	354,298	-0,035	-0,052
-366,971	-79,407	-0,064	-0,016
-365,956	789,042	-0,048	-0,097
-364,942	418,616	0,044	0,069
-363,927	155,613	0,032	0,033
-362,912	-200,000	0,003	-0,039
-361,898	697,588	0,051	0,098
-360,883	-124,637	-0,032	-0,004
-359,869	-148,775	0,027	-0,002
-358,854	-20,581	0,157	-0,071
-357,839	800,000	0,049	-0,128
-356,825	478,534	0,072	0,120
-355,810	42,784	0,055	0,037
-354,796	-8,276	-0,034	0,017
-353,781	63,301	-0,051	-0,037
-352,766	-200,000	-0,023	-0,210
-351,752	-39,175	-0,015	0,006
-350,737	-95,611	-0,042	-0,008
-349,723	-103,856	0,104	0,018
-348,708	-116,626	-0,040	0,005
-347,693	-6,408	0,174	0,087
-346,679	800,000	0,013	-0,027
-345,664	-200,000	0,018	-0,060
-344,650	335,621	-0,074	0,106
-343,635	-200,000	0,019	0,070
-342,620	-200,000	0,017	0,133
-341,606	410,112	-0,063	0,098
-340,591	-200,000	-0,006	0,040
-339,577	662,500	0,047	-0,089
-338,562	287,871	0,057	-0,076
-337,548	274,379	-0,070	-0,091
-336,533	-200,000	0,003	0,074
-335,518	62,616	0,038	0,028
-334,504	174,892	0,022	0,024
-333,489	-30,134	0,172	-0,072
-332,475	-200,000	0,012	-0,056
-331,460	800,000	0,045	-0,129
-330,445	-98,905	-0,118	0,022
-329,431	-24,496	0,089	-0,039
-328,416	42,143	-0,037	-0,025
-327,402	623,253	0,028	0,052
-326,387	69,542	-0,034	0,025
-325,372	-38,182	0,020	0,008
-324,358	800,000	0,033	-0,097
-323,343	42,829	-0,083	-0,055
-322,329	-81,439	0,079	0,019
-321,314	13,137	0,043	-0,025
-320,299	772,354	0,037	-0,075
-319,285	-200,000	0,016	-0,082
-318,270	49,418	-0,106	-0,073
-317,256	-200,000	0,020	0,128
-316,241	-83,945	0,029	-0,007
-315,226	-200,000	-0,021	-0,135
-314,212	121,413	0,054	-0,049
-313,197	-58,217	-0,016	0,005
-312,183	800,000	-0,043	0,133
-311,168	116,936	0,009	-0,008
-310,153	4,984	-0,036	0,019
-309,139	220,151	0,144	-0,169
-308,124	-200,000	0,004	0,072
-307,110	-200,000	-0,034	0,129
-306,095	666,156	-0,055	-0,104
-305,080	401,844	0,014	0,022
-304,066	-200,000	-0,011	0,086
-303,051	-151,950	-0,106	-0,006
-302,037	414,997	-0,060	-0,094
-301,022	160,890	-0,051	-0,052
-300,008	-140,353	0,115	0,009
-298,993	66,183	-0,090	0,067
-297,978	-61,413	-0,062	0,019
-296,964	-9,679	-0,062	-0,030
-295,949	-200,000	-0,011	0,039
-294,935	-102,204	-0,066	0,012
-293,920	-128,086	0,114	0,012
-292,905	137,940	-0,140	-0,134
-291,891	-200,000	-0,016	0,052
-290,876	-114,691	0,023	-0,003
-289,862	18,735	0,047	-0,028
-288,847	11,502	-0,080	0,045
-287,832	-200,000	-0,002	-0,044
-286,818	-200,000	0,014	-0,151
-285,803	79,546	0,071	-0,056
-284,789	800,000	0,053	0,169
-283,774	57,875	-0,064	0,046
-282,759	-81,714	0,117	-0,028
-281,745	115,676	-0,062	0,055
-280,730	-45,680	0,046	-0,017
-279,716	336,217	-0,029	0,041
-278,701	357,082	-0,063	0,092
-277,686	324,870	0,077	0,108
-276,672	-200,000	0,002	0,057
-275,657	-80,469	0,074	-0,018
-274,643	-200,000	-0,018	-0,087
-273,628	-147,245	0,141	0,009
-272,613	-55,474	0,065	-0,021
-271,599	-101,531	-0,095	0,017
-270,584	-200,000	0,009	0,200
-269,570	-106,333	0,202	0,033
-268,555	-23,795	-0,104	0,046
-267,540	237,861	0,044	-0,054
-266,526	-77,726	0,046	-0,012
-265,511	-200,000	-0,033	-0,136
-264,497	-163,929	-0,104	0,003
-263,482	-140,444	0,105	0,008
-262,467	-59,958	0,144	0,045
-261,453	192,551	-0,051	0,057
-260,438	-127,085	0,035	0,004
-259,424	-28,200	-0,063	-0,027
-258,409	-89,773	0,150	-0,032
-257,395	152,948	-0,007	-0,007
-256,380	121,588	0,091	0,083
-255,365	-42,928	0,023	0,009
-254,351	368,769	0,046	0,069
-253,336	-103,206	-0,034	0,006
-252,322	-200,000	-0,030	-0,154
-251,307	-200,000	0,013	-0,104
-250,292	17,367	-0,035	0,020
-249,278	431,668	0,053	-0,084
-248,263	-200,000	-0,010	-0,072
-247,249	-200,000	0,002	-0,023
-246,234	800,000	-0,024	0,050
-245,219	-200,000	0,003	0,024
-244,205	474,513	-0,038	-0,062
-243,190	800,000	0,045	-0,106
-242,176	14,752	0,099	0,056
-241,161	-200,000	-0,023	-0,107
-240,146	29,195	0,146	0,090
-239,132	800,000	0,067	0,155
-238,117	-157,339	-0,122	-0,005
-237,103	-200,000	-0,016	0,069
-236,088	800,000	-0,021	0,058
-235,073	-200,000	-0,004	0,035
-234,059	800,000	0,027	-0,080
-233,044	115,070	0,094	0,084
-232,030	-0,565	0,023	-0,012
-231,015	17,999	0,019	-0,011
-230,000	-200,000	-0,005	0,075
-228,986	-200,000	-0,034	-0,125
-227,971	800,000	0,036	0,073
-226,957	-91,809	0,120	0,025
-225,942	329,344	-0,065	-0,091
-224,927	207,499	-0,009	0,011
-223,913	35,763	-0,092	0,059
-222,898	347,324	0,078	-0,113
-221,884	-32,311	-0,089	0,036
-220,869	107,186	-0,047	-0,040
-219,855	-99,155	-0,081	0,015
-218,840	-176,619	0,065	0,001
-217,825	70,389	0,028	0,021
-216,811	120,648	-0,094	0,086
-215,796	176,744	-0,041	0,043
-214,782	-170,174	0,042	-0,001
-213,767	605,174	-0,037	-0,068
-212,752	171,563	0,097	0,102
-211,738	800,000	-0,052	0,149
-210,723	-35,601	0,035	-0,014
-209,709	800,000	-0,008	0,018
-208,694	-200,000	0,033	-0,185
-207,679	25,403	-0,091	-0,055
-206,665	-164,172	-0,072	0,002
-205,650	-89,633	0,145	0,031
-204,636	658,506	0,052	0,098
-203,621	-200,000	-0,015	-0,073
-202,606	-124,256	-0,137	0,015
-201,592	-129,878	-0,130	0,013
-200,577	-129,274	-0,094	-0,009
-199,563	-80,772	-0,065	0,016
-198,548	-123,585	0,077	-0,009
-197,533	-200,000	0,023	0,217
-196,519	-63,337	0,077	0,023
-195,504	-200,000	-0,010	0,068
-194,490	-77,836	0,107	0,027
-193,475	649,168	0,029	-0,054
-192,460	-200,000	0,010	0,047
-191,446	186,264	0,088	0,096
-190,431	800,000	-0,013	-0,038
-189,417	23,049	-0,088	-0,053
-188,402	21,230	0,040	0,024
-187,387	501,978	-0,062	-0,105
-186,373	-41,405	0,091	-0,034
-185,358	-104,707	-0,017	-0,003
-184,344	23,488	0,100	-0,060
-183,329	235,093	0,065	-0,079
-182,315	-200,000	0,004	-0,077
-181,300	72,406	0,093	-0,071
-180,285	23,370	-0,035	0,021
-179,271	419,977	0,046	-0,073
-178,256	510,145	-0,023	-0,039
-177,242	-143,608	0,096	-0,007
-176,227	-200,000	-0,000	-0,079
-175,212	41,915	-0,122	0,081
-174,198	-200,000	-0,004	-0,052
-173,183	-200,000	0,016	-0,087
-172,169	-114,186	-0,071	0,010
-171,154	-200,000	-0,002	-0,021
-170,139	52,373	-0,051	0,036
-169,125	109,545	0,066	0,057
-168,110	800,000	0,046	0,106
-167,096	78,885	0,065	-0,051
-166,081	800,000	0,016	0,033
-165,066	184,431	-0,113	-0,122
-164,052	85,139	0,077	-0,062
-163,037	164,873	0,116	-0,119
-162,023	100,903	0,029	0,025
-161,008	800,000	-0,018	0,039
-159,993	-200,000	0,012	-0,157
-158,979	129,923	0,015	-0,014
-157,964	128,874	-0,113	0,105
-156,950	136,842	-0,016	0,016
-155,935	529,514	0,062	0,107
-154,920	800,000	-0,025	-0,072
-153,906	-200,000	0,005	0,026
-152,891	592,241	-0,026	0,046
-151,877	68,635	-0,044	-0,033
-150,862	117,098	-0,128	-0,114
-149,847	53,238	-0,073	-0,051
-148,833	105,861	0,050	-0,043
-147,818	-200,000	0,019	0,074
-146,804	-200,000	0,002	0,169
-145,789	-48,179	0,162	-0,056
-144,775	-200,000	0,025	-0,122
-143,760	-21,057	0,050	-0,022
-142,745	800,000	-0,030	-0,080
-141,731	73,875	0,081	0,061
-140,716	81,291	0,009	-0,007
-139,702	-13,147	0,071	0,034
-138,687	-46,665	-0,094	0,033
-137,672	-200,000	0,037	0,139
-136,658	44,138	-0,056	-0,037
-135,643	800,000	-0,012	0,030
-134,629	-82,179	0,037	-0,009
-133,614	-200,000	-0,025	0,103
-132,599	1,520	-0,013	-0,007
-131,585	-200,000	-0,019	0,077
-130,570	800,000	0,026	0,062
-129,556	-200,000	0,014	-0,051
-128,541	-200,000	0,024	-0,086
-127,526	686,218	-0,031	0,059
-126,512	363,241	0,037	0,054
-125,497	112,000	-0,032	-0,028
-124,483	-143,043	0,070	-0,005
-123,468	241,719	0,034	0,042
-122,453	107,471	-0,068	-0,059
-121,439	113,732	0,058	0,051
-120,424	619,583	0,063	-0,116
