DTS Sentinel unit serial number:	SN410029Multiplexer serial number:	ORYXHardware model number:	OX2-SRSoftware version number:	ORYX F/W v4,00 Oryx Data Collector v3.7.2.0data status	okinstallation	B4 Nyhavnadifferential loss correction	single-endedforward channel	channel 2reverse channel	N/Adate	2023/12/15time	22:25:13forward acquisition time	300,00reverse acquisition time	0,00gamma	499,1914k internal	0,3132k external	0,3132temperature offset calibration	1,0000default loss term (dB/km)	0,3820temperature slope calibration	1,0000multiplexer offset coefficient	1,0000multiplexer slope coefficient	1,0000fibre end	0,00T internal ref (°C)	21,34T ext. ref 1 (°C)	6,67T ext. ref 2 (°C)	6,84length (m)	temperature (°C)	Stokes	anti-Stokes-744,400	-72,905	0,049	0,013
-743,385	63,639	-0,162	0,121
-742,371	-49,938	0,045	0,016
-741,356	131,265	-0,251	0,240
-740,342	-136,954	-0,059	0,005
-739,327	-126,785	-0,178	0,019
-738,312	-145,456	-0,098	-0,006
-737,298	186,656	-0,219	0,243
-736,283	-99,426	0,038	-0,007
-735,269	-32,751	-0,193	0,079
-734,254	51,705	0,060	-0,043
-733,239	-26,157	-0,345	-0,150
-732,225	-60,126	0,148	0,047
-731,210	800,000	-0,081	0,170
-730,196	-200,000	-0,009	-0,116
-729,181	800,000	0,013	-0,030
-728,167	-200,000	0,007	-0,074
-727,152	76,157	0,121	0,095
-726,137	-200,000	-0,014	-0,099
-725,123	104,751	0,030	0,026
-724,108	275,276	-0,084	-0,110
-723,094	-188,036	-0,099	-0,001
-722,079	-11,083	-0,221	0,108
-721,064	-200,000	0,013	0,130
-720,050	-81,883	-0,079	-0,019
-719,035	-67,754	-0,053	-0,015
-718,021	-200,000	0,035	-0,124
-717,006	-19,707	-0,147	-0,067
-715,991	36,050	-0,110	-0,071
-714,977	-200,000	0,022	-0,097
-713,962	106,043	0,053	-0,047
-712,948	-200,000	0,015	0,130
-711,933	282,665	0,045	-0,060
-710,918	-128,033	-0,067	0,007
-709,904	25,478	-0,121	0,074
-708,889	-200,000	0,011	-0,095
-707,875	-48,996	0,059	-0,021
-706,860	689,823	0,015	0,030
-705,845	22,625	-0,056	0,034
-704,831	-200,000	0,020	-0,068
-703,816	-200,000	-0,003	-0,069
-702,802	-5,442	0,026	0,013
-701,787	800,000	0,050	-0,113
-700,772	-67,259	-0,145	-0,042
-699,758	190,799	0,031	-0,034
-698,743	-106,286	0,002	0,000
-697,729	-49,693	0,050	0,018
-696,714	-200,000	0,034	0,135
-695,699	800,000	-0,023	-0,050
-694,685	800,000	0,004	-0,012
-693,670	259,786	-0,085	-0,109
-692,656	769,953	0,062	-0,126
-691,641	128,172	-0,012	0,012
-690,627	-200,000	0,006	0,061
-689,612	-111,077	-0,123	-0,018
-688,597	486,819	0,025	-0,042
-687,583	94,191	-0,174	-0,146
-686,568	-65,613	0,064	0,019
-685,554	-40,087	-0,124	-0,048
-684,539	511,554	-0,043	0,074
-683,524	-200,000	0,007	-0,128
-682,510	-66,753	0,089	0,026
-681,495	-127,676	-0,059	0,006
-680,481	-200,000	0,000	-0,013
-679,466	724,414	-0,051	-0,100
-678,451	800,000	-0,033	-0,073
-677,437	199,249	-0,061	0,069
-676,422	-200,000	0,014	0,049
-675,408	-118,616	0,036	-0,005
-674,393	94,329	-0,077	-0,064
-673,378	225,298	0,110	-0,132
-672,364	92,598	0,108	-0,091
-671,349	-59,783	-0,050	-0,016
-670,335	-76,399	-0,082	0,021
-669,320	184,349	0,074	-0,082
-668,305	199,747	0,080	0,091
-667,291	-200,000	-0,025	0,126
-666,276	6,541	0,035	0,019
-665,262	157,967	-0,087	-0,089
-664,247	-5,891	-0,101	-0,051
-663,232	-145,934	-0,152	0,010
-662,218	-148,899	0,080	-0,005
-661,203	-200,000	0,032	0,225
-660,189	-200,000	0,015	0,102
-659,174	-99,367	-0,110	0,020
-658,159	-25,824	0,075	0,033
-657,145	-96,792	-0,123	0,024
-656,130	-200,000	-0,013	0,044
-655,116	-3,220	0,046	0,024
-654,101	481,892	-0,043	0,072
-653,086	-200,000	-0,001	0,022
-652,072	-120,319	0,019	0,002
-651,057	643,264	-0,042	0,079
-650,043	-10,994	0,055	-0,027
-649,028	-136,666	0,030	0,002
-648,014	-179,654	-0,251	-0,004
-646,999	46,093	0,126	-0,086
-645,984	-200,000	0,003	0,083
-644,970	-200,000	-0,003	-0,050
-643,955	-133,505	0,063	-0,006
-642,941	-88,886	0,041	0,009
-641,926	3,372	-0,142	0,076
-640,911	-200,000	0,010	-0,052
-639,897	761,201	-0,078	-0,158
-638,882	-200,000	0,007	-0,039
-637,868	161,135	-0,087	-0,090
-636,853	175,366	-0,125	-0,134
-635,838	-28,187	-0,211	-0,090
-634,824	-70,655	-0,049	0,014
-633,809	114,931	0,034	0,031
-632,795	800,000	0,034	0,073
-631,780	19,482	-0,111	0,066
-630,765	288,616	-0,054	-0,073
-629,751	-200,000	-0,019	0,130
-628,736	-66,096	-0,092	0,027
-627,722	-50,480	-0,178	0,062
-626,707	-49,866	0,070	-0,024
-625,692	800,000	-0,081	0,194
-624,678	-125,765	0,127	0,014
-623,663	-175,687	0,102	0,002
-622,649	-200,000	-0,014	-0,090
-621,634	-200,000	-0,018	-0,065
-620,619	800,000	0,038	-0,110
-619,605	-69,956	0,019	0,005
-618,590	199,452	-0,065	-0,074
-617,576	-45,540	-0,037	0,013
-616,561	108,879	-0,144	-0,127
-615,546	800,000	0,055	-0,155
-614,532	-80,024	-0,125	0,031
-613,517	13,428	-0,072	-0,041
-612,503	-51,269	0,129	-0,044
-611,488	-3,206	0,058	-0,030
-610,474	140,629	-0,040	-0,040
-609,459	150,709	0,045	0,045
-608,444	314,920	0,032	-0,045
-607,430	595,541	-0,066	-0,121
-606,415	-200,000	-0,019	-0,180
-605,401	-59,961	0,117	0,037
-604,386	132,282	0,116	-0,111
-603,371	11,303	-0,066	-0,037
-602,357	6,626	-0,095	0,052
-601,342	-3,565	-0,149	0,076
-600,328	421,598	-0,029	-0,047
-599,313	-200,000	0,036	-0,157
-598,298	790,063	0,044	-0,091
-597,284	-4,947	-0,016	-0,008
-596,269	-85,174	0,110	0,025
-595,255	-86,391	0,148	-0,033
-594,240	99,072	-0,056	0,048
-593,225	109,291	0,042	0,037
-592,211	273,530	0,034	-0,044
-591,196	-200,000	0,011	-0,084
-590,182	-200,000	-0,021	0,074
-589,167	206,802	-0,024	-0,027
-588,152	-16,161	0,050	-0,023
-587,138	378,157	0,053	-0,080
-586,123	47,431	-0,224	0,154
-585,109	373,057	0,038	-0,057
-584,094	57,510	0,073	0,052
-583,079	543,840	-0,066	0,116
-582,065	20,857	0,062	0,037
-581,050	800,000	0,018	0,051
-580,036	431,152	0,025	-0,040
-579,021	800,000	-0,003	-0,011
-578,006	35,411	0,018	0,012
-576,992	545,882	0,104	0,184
-575,977	-107,447	0,051	-0,008
-574,963	-200,000	-0,013	0,062
-573,948	324,324	0,069	-0,097
-572,934	800,000	0,050	-0,111
-571,919	-112,376	-0,056	-0,008
-570,904	-200,000	0,036	-0,130
-569,890	-200,000	0,014	-0,057
-568,875	800,000	0,013	0,031
-567,861	-94,766	-0,046	0,009
-566,846	800,000	-0,032	0,093
-565,831	-136,223	0,115	-0,010
-564,817	-200,000	0,023	0,000
-563,802	212,382	-0,099	0,115
-562,788	-200,000	0,007	-0,029
-561,773	89,856	0,050	-0,041
-560,758	-158,433	0,086	-0,004
-559,744	-200,000	0,007	-0,165
-558,729	-105,370	0,113	0,019
-557,715	-107,849	-0,090	0,014
-556,700	296,143	-0,018	-0,024
-555,685	96,428	-0,041	-0,034
-554,671	36,855	0,062	0,040
-553,656	-18,390	-0,048	-0,022
-552,642	111,758	0,031	-0,028
-551,627	-200,000	-0,029	0,153
-550,612	-112,127	0,104	0,015
-549,598	-116,148	-0,006	-0,001
-548,583	-200,000	-0,019	-0,134
-547,569	69,079	-0,124	-0,094
-546,554	-35,928	0,067	0,027
-545,539	728,978	-0,010	-0,020
-544,525	237,120	0,065	-0,080
-543,510	18,046	0,045	0,027
-542,496	451,590	0,025	0,040
-541,481	691,077	-0,082	-0,158
-540,466	-22,617	0,024	-0,011
-539,452	62,880	0,052	-0,039
-538,437	800,000	-0,010	0,030
-537,423	-200,000	0,003	0,122
-536,408	202,817	0,033	-0,037
-535,393	654,054	-0,033	0,063
-534,379	-30,193	0,063	-0,026
-533,364	-200,000	0,008	0,119
-532,350	-42,271	-0,088	-0,033
-531,335	-177,540	-0,104	-0,002
-530,321	-200,000	0,038	0,153
-529,306	-200,000	-0,039	0,204
-528,291	-40,269	-0,056	-0,022
-527,277	800,000	0,025	-0,077
-526,262	-200,000	0,018	-0,096
-525,248	-200,000	-0,018	-0,092
-524,233	63,310	0,108	0,080
-523,218	61,198	0,112	-0,082
-522,204	87,612	-0,063	0,052
-521,189	69,916	0,062	0,047
-520,175	183,412	-0,126	-0,138
-519,160	268,601	0,006	-0,008
-518,145	-200,000	-0,014	0,101
-517,131	599,317	0,038	0,069
-516,116	-200,000	0,005	0,099
-515,102	-200,000	0,000	0,029
-514,087	148,405	-0,103	-0,102
-513,072	-147,862	-0,169	-0,010
-512,058	15,970	-0,067	-0,039
-511,043	9,460	-0,120	-0,067
-510,029	800,000	0,056	0,139
-509,014	-200,000	-0,016	0,054
-507,999	-112,569	0,201	0,029
-506,985	-40,909	-0,171	0,065
-505,970	16,455	0,058	0,034
-504,956	130,119	-0,041	0,038
-503,941	58,740	0,120	0,087
-502,926	3,455	0,090	-0,048
-501,912	223,861	-0,028	0,033
-500,897	177,697	-0,035	-0,038
-499,883	27,001	-0,098	0,060
-498,868	800,000	0,034	-0,088
-497,853	199,203	-0,077	0,087
-496,839	-64,381	-0,084	-0,025
-495,824	-50,725	0,084	0,029
-494,810	70,745	0,085	0,065
-493,795	-200,000	-0,023	-0,125
-492,781	-143,293	-0,039	0,003
-491,766	800,000	-0,020	-0,062
-490,751	-142,645	-0,023	-0,002
-489,737	7,629	-0,113	-0,062
-488,722	-54,529	0,208	-0,069
-487,708	-52,873	0,032	0,011
-486,693	-119,636	0,053	0,007
-485,678	264,198	0,072	0,093
-484,664	522,388	-0,052	0,090
-483,649	171,190	-0,039	0,042
-482,635	62,632	-0,085	0,062
-481,620	-151,496	0,049	0,003
-480,605	-103,918	0,037	-0,006
-479,591	-101,904	-0,077	-0,014
-478,576	223,365	0,028	0,034
-477,562	800,000	0,009	0,025
-476,547	-200,000	0,024	-0,093
-475,532	-127,186	-0,127	-0,013
-474,518	-112,125	-0,045	0,007
-473,503	800,000	0,033	-0,069
-472,489	108,005	0,083	0,072
-471,474	11,968	0,045	0,026
-470,459	362,440	-0,041	-0,060
-469,445	-200,000	0,011	-0,069
-468,430	-34,900	-0,072	0,029
-467,416	-200,000	0,002	-0,033
-466,401	80,248	-0,031	-0,024
-465,386	388,121	-0,058	0,089
-464,372	-200,000	0,011	0,114
-463,357	-200,000	-0,014	0,128
-462,343	6,546	-0,049	0,027
-461,328	-200,000	0,004	0,026
-460,313	501,344	0,045	0,076
-459,299	-43,281	0,099	0,037
-458,284	41,596	0,101	0,067
-457,270	800,000	-0,044	-0,095
-456,255	-180,295	-0,114	-0,002
-455,241	-47,918	0,038	-0,013
-454,226	800,000	0,061	-0,151
-453,211	199,943	-0,018	-0,020
-452,197	-200,000	0,015	0,130
-451,182	-185,221	0,044	-0,000
-450,168	-200,000	0,031	0,154
-449,153	800,000	0,039	-0,086
-448,138	-20,796	-0,002	0,001
-447,124	800,000	0,033	0,093
-446,109	-126,534	0,026	-0,003
-445,095	-200,000	0,005	-0,098
-444,080	118,009	0,136	0,124
-443,065	800,000	0,055	0,118
-442,051	-200,000	-0,001	0,103
-441,036	-128,583	-0,113	0,012
-440,022	10,572	0,028	-0,016
-439,007	-200,000	0,010	0,109
-437,992	192,847	-0,060	0,067
-436,978	154,340	0,065	0,065
-435,963	-43,578	-0,106	-0,039
-434,949	35,411	-0,111	0,071
-433,934	800,000	0,011	-0,023
-432,919	33,487	-0,093	-0,059
-431,905	248,215	-0,018	-0,023
-430,890	-102,498	0,037	-0,006
-429,876	-166,295	0,178	-0,005
-428,861	-200,000	0,057	-0,198
-427,846	800,000	-0,034	-0,077
-426,832	529,072	0,032	-0,056
-425,817	691,274	-0,033	-0,064
-424,803	-109,527	-0,046	0,007
-423,788	-112,294	0,074	-0,011
-422,773	800,000	0,044	0,111
-421,759	-51,288	0,085	0,029
-420,744	-40,581	-0,198	0,075
-419,730	625,550	-0,009	-0,017
-418,715	252,220	-0,083	-0,103
-417,701	67,459	-0,088	0,066
-416,686	483,970	0,022	0,037
-415,671	800,000	0,022	-0,053
-414,657	-118,910	0,017	-0,002
-413,642	143,379	-0,011	0,011
-412,628	800,000	-0,050	-0,119
-411,613	48,112	0,191	-0,131
-410,598	-200,000	0,003	0,023
-409,584	62,611	0,011	-0,008
-408,569	542,722	0,058	-0,102
-407,555	-200,000	0,009	0,054
-406,540	-200,000	0,000	0,042
-405,525	800,000	0,060	-0,149
-404,511	48,461	-0,091	0,062
-403,496	291,586	-0,037	-0,049
-402,482	-72,345	-0,109	0,029
-401,467	800,000	0,026	0,082
-400,452	421,633	0,044	0,069
-399,438	-33,485	0,047	-0,019
-398,423	240,291	-0,065	-0,079
-397,409	194,442	0,040	-0,045
-396,394	202,017	0,101	-0,114
-395,379	23,176	0,060	-0,036
-394,365	203,596	0,068	-0,077
-393,350	-68,210	0,010	0,003
-392,336	-109,777	0,046	-0,007
-391,321	-200,000	-0,002	-0,039
-390,306	134,223	0,111	-0,105
-389,292	-200,000	-0,008	0,080
-388,277	259,006	0,110	0,140
-387,263	-92,806	-0,074	-0,015
-386,248	87,391	0,012	-0,010
-385,233	449,377	-0,061	-0,099
-384,219	14,903	0,049	-0,028
-383,204	159,543	-0,064	-0,065
-382,190	-63,337	0,098	-0,029
-381,175	391,660	-0,041	0,063
-380,160	-89,316	0,098	0,021
-379,146	-200,000	0,055	0,208
-378,131	-134,981	0,054	0,005
-377,117	88,969	-0,096	-0,078
-376,102	183,654	-0,019	-0,020
-375,088	712,579	-0,071	-0,138
-374,073	-196,553	-0,169	0,001
-373,058	51,918	0,076	0,053
-372,044	252,538	-0,043	0,054
-371,029	800,000	0,035	0,107
-370,015	-47,948	-0,089	0,031
-369,000	547,170	0,092	0,162
-367,985	-66,714	-0,048	0,014
-366,971	192,163	-0,108	-0,120
-365,956	-200,000	-0,008	0,111
-364,942	377,765	0,091	0,136
-363,927	-50,022	-0,111	0,038
-362,912	396,204	0,047	0,072
-361,898	34,009	0,062	-0,039
-360,883	396,257	0,024	-0,037
-359,869	-200,000	0,002	-0,057
-358,854	-200,000	-0,004	0,040
-357,839	229,118	0,116	0,139
-356,825	-200,000	-0,025	0,153
-355,810	52,290	0,108	-0,076
-354,796	446,214	0,054	0,087
-353,781	800,000	0,024	0,049
-352,766	-51,300	-0,107	0,036
-351,752	-200,000	0,035	-0,120
-350,737	137,813	-0,094	-0,091
-349,723	53,426	-0,093	0,065
-348,708	-200,000	-0,034	0,163
-347,693	-90,712	-0,024	-0,005
-346,679	-84,928	-0,078	-0,018
-345,664	263,609	-0,047	0,060
-344,650	-26,198	0,100	-0,043
-343,635	-25,654	-0,100	-0,043
-342,620	-76,750	-0,167	-0,042
-341,606	-1,284	0,035	-0,018
-340,591	-200,000	-0,009	-0,056
-339,577	312,541	0,013	-0,018
-338,562	-200,000	-0,018	-0,141
-337,548	17,503	0,053	-0,031
-336,533	224,505	0,105	0,124
-335,518	-149,918	0,128	0,007
-334,504	453,509	0,044	0,071
-333,489	800,000	0,056	0,135
-332,475	-200,000	-0,030	0,133
-331,460	-103,569	0,068	-0,012
-330,445	50,291	-0,078	-0,054
-329,431	-200,000	0,019	-0,142
-328,416	-200,000	-0,003	-0,091
-327,402	-141,797	0,093	0,007
-326,387	-7,965	0,088	-0,043
-325,372	337,532	-0,040	-0,057
-324,358	241,323	-0,092	-0,112
-323,343	269,521	-0,109	0,141
-322,329	-17,560	0,095	0,044
-321,314	435,316	0,041	0,065
-320,299	-200,000	0,022	-0,140
-319,285	-96,053	-0,083	-0,016
-318,270	-65,061	-0,078	-0,023
-317,256	-200,000	-0,001	0,121
-316,241	91,131	-0,120	0,098
-315,226	-99,951	-0,081	0,015
-314,212	-200,000	0,030	0,191
-313,197	-35,541	0,129	-0,051
-312,183	271,386	-0,119	-0,154
-311,168	211,436	-0,026	0,030
-310,153	-200,000	0,000	-0,063
-309,139	118,657	-0,065	-0,058
-308,124	230,706	-0,063	0,075
-307,110	-200,000	0,013	-0,075
-306,095	25,033	0,056	0,034
-305,080	86,508	0,056	0,045
-304,066	-200,000	0,005	0,057
-303,051	-168,902	-0,038	0,001
-302,037	-6,465	-0,004	0,002
-301,022	167,797	0,047	-0,049
-300,008	-81,820	0,071	0,017
-298,993	-151,638	0,156	-0,008
-297,978	-200,000	-0,004	-0,018
-296,964	67,735	0,093	0,070
-295,949	800,000	-0,025	0,059
-294,935	-200,000	-0,012	-0,149
-293,920	32,244	0,016	-0,010
-292,905	163,920	-0,069	0,071
-291,891	-200,000	0,026	0,104
-290,876	328,934	-0,106	-0,150
-289,862	800,000	-0,023	0,060
-288,847	-200,000	0,004	0,080
-287,832	86,741	-0,053	0,043
-286,818	384,482	0,050	0,075
-285,803	-5,390	0,082	0,041
-284,789	800,000	0,071	0,187
-283,774	102,853	0,080	-0,068
-282,759	-170,065	0,087	-0,002
-281,745	-200,000	0,014	-0,094
-280,730	147,885	0,055	-0,054
-279,716	800,000	0,011	-0,028
-278,701	-157,454	0,162	-0,007
-277,686	197,428	0,034	0,038
-276,672	-200,000	0,005	0,025
-275,657	-72,628	-0,120	0,032
-274,643	-200,000	-0,001	0,020
-273,628	-3,257	-0,060	0,030
-272,613	-200,000	0,002	-0,042
-271,599	-200,000	-0,022	0,142
-270,584	-200,000	-0,018	0,087
-269,570	-200,000	-0,014	0,052
-268,555	-200,000	0,034	-0,158
-267,540	800,000	-0,051	-0,124
-266,526	119,982	-0,042	-0,038
-265,511	189,570	-0,012	0,013
-264,497	-91,368	0,091	-0,019
-263,482	-39,038	0,083	-0,032
-262,467	571,167	0,026	0,046
-261,453	800,000	-0,015	-0,045
-260,438	111,830	-0,070	0,062
-259,424	519,350	-0,086	0,148
-258,409	211,789	-0,060	-0,069
-257,395	123,522	0,135	-0,124
-256,380	-54,608	0,154	0,050
-255,365	117,970	0,058	0,052
-254,351	-152,101	-0,086	-0,004
-253,336	-200,000	-0,001	-0,069
-252,322	-122,516	-0,213	-0,025
-251,307	272,390	0,063	0,082
-250,292	800,000	0,012	-0,029
-249,278	-49,044	-0,054	0,019
-248,263	-200,000	-0,026	0,135
-247,249	-200,000	0,054	0,242
-246,234	-59,958	-0,072	0,022
-245,219	195,507	0,061	-0,068
-244,205	201,609	0,062	-0,069
-243,190	-103,456	0,067	-0,011
-242,176	307,742	0,063	0,086
-241,161	-200,000	0,001	0,046
-240,146	-148,786	0,094	-0,005
-239,132	-98,677	0,046	0,009
-238,117	-77,774	-0,086	0,022
-237,103	-200,000	-0,042	-0,136
-236,088	800,000	0,030	-0,073
-235,073	-200,000	-0,029	0,119
-234,059	800,000	-0,017	0,034
-233,044	139,169	-0,077	-0,074
-232,030	71,049	-0,039	-0,030
-231,015	-37,943	-0,125	-0,048
-230,000	15,043	-0,059	-0,033
-228,986	-86,495	0,097	0,021
-227,971	-54,759	0,085	-0,028
-226,957	-62,593	-0,115	-0,034
-225,942	101,501	-0,021	-0,018
-224,927	28,789	0,070	-0,043
-223,913	-200,000	0,000	0,041
-222,898	-200,000	0,001	-0,183
-221,884	-200,000	-0,028	-0,112
-220,869	-141,536	0,040	-0,003
-219,855	81,686	-0,033	0,026
-218,840	17,531	-0,067	-0,038
-217,825	-200,000	-0,005	0,036
-216,811	-50,536	-0,092	0,031
-215,796	-61,820	-0,164	-0,050
-214,782	-200,000	0,048	-0,162
-213,767	-107,596	0,124	-0,019
-212,752	99,915	-0,018	-0,015
-211,738	-4,479	0,030	0,015
-210,723	-161,782	-0,142	-0,005
-209,709	23,433	-0,163	-0,098
-208,694	-88,653	0,019	-0,004
-207,679	-200,000	-0,001	-0,068
-206,665	-200,000	-0,005	-0,024
-205,650	-0,583	0,072	-0,037
-204,636	800,000	0,029	0,065
-203,621	369,843	-0,080	0,118
-202,606	2,643	0,114	0,060
-201,592	102,263	-0,065	-0,055
-200,577	538,879	0,016	-0,027
-199,563	761,670	-0,014	-0,029
-198,548	-200,000	0,006	0,111
-197,533	800,000	0,023	-0,048
-196,519	-200,000	0,020	0,081
-195,504	800,000	-0,005	0,013
-194,490	240,654	-0,085	0,103
-193,475	288,341	0,003	0,004
-192,460	347,594	0,021	0,030
-191,446	52,395	-0,074	-0,052
-190,431	-110,684	0,166	0,025
-189,417	107,882	-0,077	0,067
-188,402	219,583	-0,139	-0,162
-187,387	800,000	-0,027	-0,057
-186,373	29,047	-0,112	0,069
-185,358	7,153	0,105	0,057
-184,344	800,000	-0,029	0,077
-183,329	-126,955	0,124	0,013
-182,315	286,743	-0,059	0,078
-181,300	97,354	0,047	-0,040
-180,285	262,316	0,064	-0,080
-179,271	800,000	-0,017	0,054
-178,256	800,000	-0,038	0,116
-177,242	-200,000	-0,019	0,095
-176,227	-101,730	-0,147	0,026
-175,212	28,685	0,006	0,004
-174,198	23,582	0,147	-0,088
-173,183	-200,000	-0,011	-0,065
-172,169	-159,553	-0,087	0,003
-171,154	800,000	0,026	-0,072
-170,139	800,000	0,053	-0,120
-169,125	-142,919	-0,033	-0,002
-168,110	36,780	0,117	0,075
-167,096	-142,069	0,049	0,004
-166,081	-21,774	0,088	-0,039
-165,066	94,285	-0,112	0,093
-164,052	600,480	0,029	0,053
-163,037	3,351	0,031	0,016
-162,023	-79,894	0,139	0,034
-161,008	707,844	-0,041	0,080
-159,993	-132,430	0,050	-0,005
-158,979	-118,405	0,072	-0,009
-157,964	-200,000	-0,025	-0,138
-156,950	790,504	-0,082	-0,164
-155,935	-200,000	0,002	-0,081
-154,920	-30,352	-0,060	-0,024
-153,906	-102,620	0,174	0,030
-152,891	-68,266	-0,007	0,002
-151,877	800,000	0,048	-0,113
-150,862	-200,000	-0,016	-0,160
-149,847	-96,481	-0,151	0,029
-148,833	-80,368	-0,154	0,037
-147,818	-200,000	-0,003	-0,131
-146,804	364,029	-0,078	-0,114
-145,789	-56,578	-0,061	-0,019
-144,775	459,131	0,071	-0,116
-143,760	800,000	0,081	-0,221
-142,745	-54,196	-0,062	-0,020
-141,731	-200,000	-0,017	-0,098
-140,716	178,444	0,066	0,070
-139,702	-163,512	-0,048	0,002
-138,687	800,000	-0,045	0,096
-137,672	-26,693	-0,049	0,021
-136,658	-200,000	0,021	0,106
-135,643	-200,000	0,017	0,110
-134,629	-124,244	0,047	0,005
-133,614	36,928	0,032	-0,021
-132,599	-29,421	0,112	-0,046
-131,585	-200,000	0,039	-0,138
-130,570	-125,964	-0,082	-0,009
-129,556	-34,996	0,116	-0,046
-128,541	126,625	0,049	0,045
-127,526	56,064	-0,099	-0,070
-126,512	-200,000	-0,002	0,120
-125,497	-200,000	0,017	0,075
-124,483	223,803	0,022	-0,026
-123,468	800,000	0,021	-0,059
-122,453	-17,015	0,103	-0,047
-121,439	-200,000	0,003	-0,103
-120,424	-19,703	0,062	0,028
-119,410	-95,367	0,071	0,014
-118,395	-90,886	0,096	-0,020
