DTS Sentinel unit serial number:	SN410029Multiplexer serial number:	ORYXHardware model number:	OX2-SRSoftware version number:	ORYX F/W v4,00 Oryx Data Collector v3.7.2.0data status	okinstallation	B4 Nyhavnadifferential loss correction	single-endedforward channel	channel 2reverse channel	N/Adate	2023/12/16time	07:30:13forward acquisition time	300,00reverse acquisition time	0,00gamma	499,1914k internal	0,3127k external	0,3127temperature offset calibration	1,0000default loss term (dB/km)	0,3820temperature slope calibration	1,0000multiplexer offset coefficient	1,0000multiplexer slope coefficient	1,0000fibre end	0,00T internal ref (°C)	22,37T ext. ref 1 (°C)	7,58T ext. ref 2 (°C)	7,74length (m)	temperature (°C)	Stokes	anti-Stokes-744,400	-200,000	0,011	-0,055
-743,385	-85,653	-0,241	0,055
-742,371	-109,350	0,095	-0,015
-741,356	-31,038	-0,124	0,052
-740,342	-200,000	0,006	-0,124
-739,327	-117,012	-0,204	0,027
-738,312	531,774	-0,042	0,075
-737,298	0,295	-0,287	0,152
-736,283	-84,296	0,135	-0,032
-735,269	50,127	-0,239	0,167
-734,254	28,937	0,032	-0,020
-733,239	-107,910	-0,368	-0,059
-732,225	60,684	0,149	0,109
-731,210	800,000	-0,088	-0,184
-730,196	246,544	-0,107	-0,134
-729,181	-139,054	-0,047	0,004
-728,167	-200,000	0,017	0,105
-727,152	-60,797	-0,073	-0,023
-726,137	-106,590	-0,087	0,014
-725,123	-89,712	-0,113	-0,024
-724,108	-55,108	-0,090	-0,030
-723,094	-200,000	0,022	-0,120
-722,079	-200,000	0,029	-0,115
-721,064	-200,000	0,021	-0,073
-720,050	49,139	0,049	-0,034
-719,035	1,291	-0,089	0,047
-718,021	112,091	-0,027	-0,024
-717,006	-175,836	-0,070	0,001
-715,991	-200,000	-0,031	-0,119
-714,977	-200,000	-0,027	-0,249
-713,962	135,123	-0,070	-0,068
-712,948	-46,752	0,191	0,069
-711,933	-200,000	0,037	0,171
-710,918	800,000	-0,054	0,119
-709,904	-200,000	0,032	0,107
-708,889	-56,385	-0,131	-0,043
-707,875	36,192	-0,117	0,076
-706,860	-92,426	0,071	0,015
-705,845	-126,419	0,102	0,011
-704,831	-2,504	0,126	0,066
-703,816	-36,887	-0,109	0,043
-702,802	72,802	-0,070	0,054
-701,787	-51,233	-0,202	-0,070
-700,772	-200,000	-0,004	0,113
-699,758	-200,000	-0,030	-0,124
-698,743	375,264	-0,026	0,040
-697,729	800,000	-0,015	0,032
-696,714	-200,000	-0,005	0,071
-695,699	-200,000	-0,014	-0,113
-694,685	-65,798	0,033	-0,010
-693,670	-200,000	-0,039	-0,211
-692,656	-200,000	-0,007	-0,127
-691,641	800,000	0,009	-0,024
-690,627	62,579	-0,011	0,008
-689,612	537,078	0,032	0,057
-688,597	-200,000	-0,017	0,071
-687,583	-97,748	-0,082	-0,016
-686,568	262,405	-0,129	-0,167
-685,554	646,666	-0,085	-0,161
-684,539	-127,404	-0,003	-0,000
-683,524	14,676	-0,200	0,116
-682,510	800,000	-0,057	0,126
-681,495	570,002	-0,060	0,108
-680,481	235,976	-0,057	-0,071
-679,466	-167,433	-0,064	0,002
-678,451	-161,009	-0,179	-0,007
-677,437	544,203	-0,032	0,057
-676,422	142,652	0,026	0,026
-675,408	-77,632	-0,154	0,039
-674,393	-200,000	-0,019	-0,074
-673,378	800,000	0,038	-0,122
-672,364	255,448	-0,036	0,046
-671,349	469,730	0,044	0,073
-670,335	145,887	0,110	0,109
-669,320	319,360	-0,076	-0,107
-668,305	286,562	0,033	-0,045
-667,291	130,683	-0,094	0,090
-666,276	-121,341	0,031	0,004
-665,262	-200,000	-0,020	-0,074
-664,247	229,673	-0,034	0,041
-663,232	799,110	0,017	-0,035
-662,218	-200,000	-0,017	0,106
-661,203	-200,000	-0,037	-0,216
-660,189	-195,474	-0,172	-0,001
-659,174	-152,824	-0,047	-0,002
-658,159	696,340	-0,025	0,050
-657,145	3,126	-0,104	-0,056
-656,130	70,707	-0,076	-0,058
-655,116	379,305	-0,134	-0,204
-654,101	-133,303	0,010	0,001
-653,086	-200,000	-0,011	-0,043
-652,072	-200,000	-0,021	0,110
-651,057	-139,586	-0,061	0,005
-650,043	-200,000	-0,009	0,045
-649,028	107,300	0,080	0,070
-648,014	34,790	-0,017	-0,011
-646,999	86,081	-0,043	-0,035
-645,984	-200,000	0,003	0,079
-644,970	60,838	-0,115	-0,085
-643,955	-200,000	-0,043	-0,155
-642,941	-77,592	-0,061	-0,016
-641,926	-200,000	0,003	-0,095
-640,911	-200,000	-0,012	0,069
-639,897	9,806	0,095	0,053
-638,882	-162,192	0,179	0,007
-637,868	45,598	0,070	0,048
-636,853	440,811	0,072	-0,117
-635,838	-101,518	-0,078	-0,014
-634,824	-67,865	0,095	0,027
-633,809	-12,327	-0,111	-0,053
-632,795	-200,000	0,048	0,173
-631,780	97,167	0,087	-0,074
-630,765	800,000	-0,024	-0,070
-629,751	63,820	-0,046	0,034
-628,736	-200,000	0,012	-0,099
-627,722	126,248	0,025	0,023
-626,707	406,174	0,075	0,118
-625,692	-11,056	-0,064	-0,031
-624,678	-54,843	-0,053	-0,018
-623,663	635,985	0,056	0,105
-622,649	370,407	0,093	-0,140
-621,634	-110,787	-0,180	-0,027
-620,619	-200,000	0,002	-0,095
-619,605	-179,284	0,064	-0,001
-618,590	152,144	0,102	-0,103
-617,576	-20,630	0,039	-0,018
-616,561	-8,396	-0,094	0,047
-615,546	800,000	0,009	-0,023
-614,532	167,179	-0,099	-0,105
-613,517	194,680	0,086	-0,097
-612,503	800,000	-0,031	0,084
-611,488	-128,400	0,243	0,025
-610,474	-49,578	-0,112	-0,039
-609,459	-200,000	0,098	0,000
-608,444	-200,000	-0,005	-0,044
-607,430	800,000	-0,028	-0,057
-606,415	308,415	-0,044	-0,061
-605,401	-200,000	0,021	0,099
-604,386	-153,843	0,085	0,004
-603,371	-71,860	0,099	-0,027
-602,357	53,154	-0,023	-0,016
-601,342	795,508	-0,038	0,077
-600,328	657,101	0,060	0,115
-599,313	800,000	0,013	-0,037
-598,298	715,121	-0,018	-0,036
-597,284	158,618	0,116	-0,119
-596,269	-3,789	0,141	0,072
-595,255	81,440	0,109	-0,087
-594,240	202,173	0,047	-0,054
-593,225	-200,000	-0,019	0,078
-592,211	140,828	-0,094	0,092
-591,196	-200,000	0,007	-0,052
-590,182	-200,000	0,029	0,107
-589,167	-8,197	0,088	0,044
-588,152	113,027	0,135	0,121
-587,138	-77,776	-0,071	0,018
-586,123	-39,325	0,061	-0,024
-585,109	-200,000	-0,010	-0,065
-584,094	-154,784	0,102	0,005
-583,079	21,162	0,093	-0,056
-582,065	-190,330	-0,022	-0,000
-581,050	-189,438	0,059	0,000
-580,036	800,000	0,046	0,137
-579,021	-73,567	-0,089	-0,024
-578,006	-200,000	-0,018	0,140
-576,992	-123,643	-0,149	-0,017
-575,977	-119,597	0,126	-0,016
-574,963	800,000	0,077	0,182
-573,948	156,768	0,051	0,052
-572,934	120,122	-0,085	-0,078
-571,919	-64,799	-0,252	0,075
-570,904	-111,911	0,052	-0,008
-569,890	688,858	0,072	-0,141
-568,875	477,056	0,003	0,004
-567,861	-200,000	0,031	0,106
-566,846	-200,000	-0,016	0,101
-565,831	162,025	-0,104	0,108
-564,817	-200,000	0,023	-0,104
-563,802	800,000	-0,097	-0,255
-562,788	345,937	-0,082	-0,119
-561,773	153,347	-0,037	0,037
-560,758	800,000	0,041	0,088
-559,744	-142,600	0,077	-0,005
-558,729	-110,120	0,163	0,025
-557,715	262,986	-0,035	-0,045
-556,700	305,560	0,067	-0,092
-555,685	233,499	0,071	-0,087
-554,671	28,766	0,089	-0,056
-553,656	85,259	0,078	-0,063
-552,642	131,852	0,069	-0,066
-551,627	-97,189	-0,140	0,027
-550,612	-200,000	-0,010	-0,037
-549,598	-30,302	-0,071	-0,030
-548,583	-200,000	0,001	-0,006
-547,569	548,824	-0,017	-0,031
-546,554	201,861	0,077	0,088
-545,539	275,407	0,073	0,095
-544,525	463,684	0,020	-0,032
-543,510	326,437	-0,023	-0,033
-542,496	120,059	-0,084	-0,077
-541,481	-200,000	-0,009	-0,044
-540,466	93,026	0,049	0,041
-539,452	49,343	0,049	0,034
-538,437	-200,000	-0,023	0,135
-537,423	-200,000	0,006	0,042
-536,408	-127,325	-0,066	0,007
-535,393	98,430	-0,056	0,048
-534,379	-200,000	0,028	0,107
-533,364	-30,498	0,091	-0,038
-532,350	-55,295	0,060	0,020
-531,335	-39,153	-0,130	0,050
-530,321	-65,803	-0,007	-0,002
-529,306	-200,000	-0,001	-0,024
-528,291	-174,967	-0,008	0,000
-527,277	217,495	-0,032	-0,037
-526,262	-7,309	0,057	0,028
-525,248	-200,000	-0,022	0,078
-524,233	342,291	0,068	0,098
-523,218	-20,631	0,210	0,095
-522,204	103,528	-0,048	0,042
-521,189	-32,790	-0,159	-0,065
-520,175	263,109	-0,090	-0,116
-519,160	355,965	0,042	-0,061
-518,145	-78,965	0,118	0,029
-517,131	63,241	0,041	0,030
-516,116	11,488	-0,106	0,060
-515,102	14,881	-0,127	-0,073
-514,087	181,192	0,060	-0,065
-513,072	657,234	-0,100	-0,190
-512,058	-175,254	0,116	-0,002
-511,043	314,097	0,110	0,153
-510,029	-74,484	-0,049	-0,013
-509,014	155,338	0,019	-0,019
-507,999	424,247	-0,041	0,065
-506,985	68,609	-0,005	0,004
-505,970	571,500	0,021	-0,038
-504,956	186,611	-0,040	0,044
-503,941	800,000	0,091	0,203
-502,926	-200,000	-0,012	-0,199
-501,912	800,000	0,018	-0,054
-500,897	-200,000	-0,003	0,110
-499,883	-28,801	-0,052	0,022
-498,868	800,000	0,047	-0,150
-497,853	-75,071	-0,094	-0,025
-496,839	501,401	0,092	-0,157
-495,824	386,697	0,046	0,071
-494,810	249,161	0,129	0,162
-493,795	-200,000	0,022	-0,092
-492,781	-200,000	0,015	-0,056
-491,766	-200,000	-0,020	-0,071
-490,751	376,908	-0,052	-0,079
-489,737	-123,636	0,146	0,017
-488,722	117,913	-0,057	0,052
-487,708	-200,000	-0,021	0,225
-486,693	-101,083	0,051	0,009
-485,678	-200,000	-0,022	0,107
-484,664	-200,000	-0,024	-0,105
-483,649	800,000	-0,047	-0,134
-482,635	356,868	-0,056	0,082
-481,620	-200,000	-0,007	0,132
-480,605	-25,454	0,129	0,056
-479,591	-153,018	0,130	0,007
-478,576	-110,029	-0,087	0,013
-477,562	-50,550	-0,113	-0,039
-476,547	94,434	-0,166	0,139
-475,532	-200,000	-0,006	-0,066
-474,518	-13,338	0,051	-0,024
-473,503	2,658	-0,097	0,051
-472,489	37,264	0,048	0,031
-471,474	-119,256	-0,208	0,026
-470,459	-50,016	-0,023	0,008
-469,445	109,168	0,011	0,010
-468,430	-200,000	0,009	-0,075
-467,416	-85,957	-0,047	0,011
-466,401	248,552	0,120	0,150
-465,386	-200,000	0,020	0,105
-464,372	-200,000	-0,021	0,087
-463,357	48,618	-0,040	-0,027
-462,343	226,395	0,049	-0,058
-461,328	-16,948	-0,122	-0,057
-460,313	800,000	0,049	0,106
-459,299	474,978	0,023	0,039
-458,284	800,000	-0,013	0,038
-457,270	111,203	-0,067	0,059
-456,255	-26,424	-0,094	0,040
-455,241	581,105	-0,051	-0,093
-454,226	132,977	-0,146	0,139
-453,211	93,683	-0,069	-0,058
-452,197	-128,230	0,082	-0,008
-451,182	-200,000	-0,003	0,056
-450,168	800,000	-0,033	0,076
-449,153	52,915	-0,055	0,038
-448,138	168,408	-0,076	-0,080
-447,124	298,947	-0,046	-0,063
-446,109	33,816	0,062	-0,040
-445,095	128,118	0,028	0,026
-444,080	194,712	0,092	0,103
-443,065	-161,804	-0,075	-0,003
-442,051	-50,495	-0,084	-0,029
-441,036	439,988	-0,096	-0,155
-440,022	-88,881	-0,008	-0,002
-439,007	622,346	0,022	-0,040
-437,992	772,046	0,086	0,174
-436,978	123,583	0,080	0,074
-435,963	-149,513	0,208	0,012
-434,949	26,809	0,059	-0,036
-433,934	-75,479	-0,048	0,012
-432,919	-70,972	-0,051	0,014
-431,905	-145,905	0,068	0,004
-430,890	47,035	0,048	-0,033
-429,876	800,000	0,044	0,097
-428,861	409,885	0,093	0,145
-427,846	800,000	-0,046	0,149
-426,832	-50,869	0,100	-0,034
-425,817	454,166	-0,021	0,034
-424,803	-200,000	0,009	0,065
-423,788	0,416	0,040	-0,021
-422,773	-200,000	-0,004	-0,077
-421,759	-200,000	0,019	0,146
-420,744	-200,000	0,018	0,110
-419,730	-200,000	-0,007	-0,060
-418,715	-200,000	-0,001	-0,028
-417,701	-67,995	0,175	-0,050
-416,686	-200,000	0,015	0,127
-415,671	800,000	0,083	0,174
-414,657	-135,461	-0,059	0,005
-413,642	-200,000	0,029	0,138
-412,628	-56,151	0,011	-0,004
-411,613	-200,000	-0,006	-0,042
-410,598	-200,000	0,001	-0,167
-409,584	-15,145	-0,098	-0,046
-408,569	9,295	-0,081	0,045
-407,555	-200,000	-0,015	0,066
-406,540	-200,000	0,003	0,117
-405,525	556,033	-0,020	0,035
-404,511	-47,241	-0,002	0,001
-403,496	-200,000	-0,010	-0,175
-402,482	-45,595	0,034	0,012
-401,467	-32,531	0,129	0,053
-400,452	-47,906	0,049	-0,017
-399,438	800,000	-0,045	0,100
-398,423	200,848	-0,022	-0,025
-397,409	-200,000	0,006	-0,050
-396,394	-33,789	0,099	0,040
-395,379	-200,000	-0,026	0,107
-394,365	-57,152	0,155	0,050
-393,350	-186,967	0,168	0,002
-392,336	-200,000	-0,015	-0,080
-391,321	123,532	0,118	-0,109
-390,306	800,000	-0,049	-0,142
-389,292	-200,000	-0,006	0,044
-388,277	-200,000	0,015	0,058
-387,263	-28,626	-0,083	-0,035
-386,248	-200,000	0,005	-0,016
-385,233	-200,000	-0,023	0,153
-384,219	305,167	-0,017	-0,024
-383,204	-13,969	-0,098	0,046
-382,190	459,583	-0,016	-0,026
-381,175	-89,400	-0,080	0,017
-380,160	-117,999	0,109	0,014
-379,146	-70,959	-0,078	-0,021
-378,131	800,000	0,018	0,047
-377,117	-13,875	-0,107	0,050
-376,102	321,209	-0,114	-0,160
-375,088	800,000	0,036	-0,074
-374,073	-57,790	-0,100	0,032
-373,058	-200,000	0,021	-0,108
-372,044	-54,363	0,044	0,015
-371,029	-34,783	0,059	0,024
-370,015	-200,000	-0,025	0,086
-369,000	-75,803	-0,060	-0,016
-367,985	56,512	-0,071	-0,050
-366,971	50,141	-0,080	-0,056
-365,956	102,621	0,026	0,022
-364,942	-200,000	-0,009	0,051
-363,927	584,015	0,041	0,074
-362,912	800,000	-0,018	-0,043
-361,898	-92,815	-0,220	0,045
-360,883	-200,000	-0,009	0,057
-359,869	800,000	0,025	0,064
-358,854	-70,185	0,055	0,015
-357,839	-38,385	0,087	0,034
-356,825	151,454	0,168	-0,168
-355,810	-200,000	-0,000	-0,024
-354,796	-13,803	-0,098	-0,046
-353,781	-200,000	-0,017	-0,161
-352,766	246,545	-0,085	-0,106
-351,752	24,373	-0,080	0,048
-350,737	185,027	0,094	0,103
-349,723	100,109	-0,064	0,054
-348,708	800,000	0,045	-0,122
-347,693	-71,728	-0,068	0,018
-346,679	-55,015	-0,123	-0,040
-345,664	-91,828	-0,114	-0,023
-344,650	800,000	0,041	-0,111
-343,635	-104,343	0,155	-0,026
-342,620	151,762	0,052	-0,052
-341,606	800,000	0,015	-0,040
-340,591	-128,630	-0,065	0,007
-339,577	-131,250	-0,160	-0,015
-338,562	-200,000	0,007	-0,099
-337,548	-200,000	-0,016	0,062
-336,533	-171,865	-0,172	0,004
-335,518	30,543	0,048	0,030
-334,504	39,934	-0,136	-0,089
-333,489	-80,584	-0,149	-0,036
-332,475	268,843	-0,015	-0,019
-331,460	-175,778	-0,082	0,002
-330,445	-200,000	0,031	-0,150
-329,431	83,986	0,126	-0,100
-328,416	6,720	-0,084	0,046
-327,402	800,000	0,067	-0,159
-326,387	-112,307	-0,037	0,005
-325,372	800,000	-0,055	-0,118
-324,358	-200,000	0,005	-0,104
-323,343	-200,000	-0,000	-0,103
-322,329	-200,000	0,039	0,126
-321,314	86,044	-0,109	0,088
-320,299	-72,280	-0,090	-0,024
-319,285	800,000	0,013	0,031
-318,270	315,505	-0,050	-0,069
-317,256	-122,714	-0,066	-0,008
-316,241	-200,000	0,013	0,045
-315,226	6,208	0,135	0,073
-314,212	-94,706	-0,038	0,007
-313,197	-45,052	0,057	0,021
-312,183	-200,000	-0,023	-0,159
-311,168	-200,000	-0,004	-0,151
-310,153	237,547	-0,095	-0,115
-309,139	213,776	0,043	-0,050
-308,124	-27,965	0,128	-0,054
-307,110	-48,485	0,074	0,026
-306,095	-36,659	0,088	0,034
-305,080	-123,855	-0,052	0,006
-304,066	72,704	0,121	0,092
-303,051	-44,514	-0,078	-0,028
-302,037	-200,000	0,000	0,046
-301,022	410,046	0,015	0,024
-300,008	759,115	0,041	-0,081
-298,993	79,109	0,139	0,109
-297,978	800,000	-0,013	0,041
-296,964	-200,000	-0,004	-0,159
-295,949	800,000	0,018	0,057
-294,935	-200,000	-0,009	0,072
-293,920	185,200	-0,136	-0,148
-292,905	-200,000	-0,003	0,099
-291,891	-200,000	0,039	-0,205
-290,876	48,840	0,118	-0,081
-289,862	800,000	0,053	-0,118
-288,847	-23,486	0,062	-0,027
-287,832	800,000	-0,012	-0,028
-286,818	-200,000	-0,014	0,071
-285,803	-141,024	-0,046	-0,003
-284,789	14,411	0,133	0,076
-283,774	800,000	-0,004	0,012
-282,759	-37,934	-0,062	0,024
-281,745	149,361	-0,120	-0,118
-280,730	-79,433	-0,041	0,010
-279,716	679,282	-0,059	-0,113
-278,701	-200,000	0,000	0,034
-277,686	800,000	0,035	0,083
-276,672	-200,000	0,011	-0,060
-275,657	-52,435	-0,150	0,051
-274,643	800,000	-0,038	-0,096
-273,628	528,258	0,072	-0,124
-272,613	35,147	0,097	-0,062
-271,599	394,396	0,068	-0,103
-270,584	-200,000	-0,052	0,169
-269,570	-69,009	-0,105	0,029
-268,555	25,984	0,029	-0,018
-267,540	356,710	0,054	-0,079
-266,526	20,120	-0,152	0,090
-265,511	-200,000	0,001	0,104
-264,497	800,000	0,029	0,085
-263,482	549,039	0,037	0,065
-262,467	113,884	0,002	-0,002
-261,453	57,963	0,014	-0,010
-260,438	800,000	-0,063	-0,172
-259,424	-54,989	-0,155	-0,051
-258,409	-12,693	-0,040	0,019
-257,395	149,259	-0,005	-0,005
-256,380	17,067	-0,046	-0,027
-255,365	-110,626	-0,120	0,018
-254,351	94,158	0,093	-0,077
-253,336	159,854	0,100	-0,102
-252,322	106,639	-0,135	-0,117
-251,307	-104,880	-0,039	-0,007
-250,292	800,000	-0,029	0,086
-249,278	800,000	-0,056	0,141
-248,263	-200,000	0,022	-0,096
-247,249	35,573	-0,108	0,069
-246,234	64,952	-0,039	0,029
-245,219	-100,898	-0,076	-0,013
-244,205	43,570	-0,039	-0,026
-243,190	-92,568	0,049	0,010
-242,176	-200,000	-0,030	0,218
-241,161	545,305	-0,010	0,018
-240,146	800,000	0,032	0,096
-239,132	296,486	0,051	0,068
-238,117	-48,899	-0,072	-0,025
-237,103	800,000	0,016	-0,037
-236,088	-153,912	0,045	0,002
-235,073	-200,000	-0,000	-0,010
-234,059	800,000	-0,035	0,097
-233,044	-70,826	0,103	0,028
-232,030	236,082	-0,103	0,125
-231,015	-200,000	-0,000	0,043
-230,000	23,022	0,069	-0,041
-228,986	-15,625	-0,101	-0,047
-227,971	38,732	-0,036	0,024
-226,957	98,118	-0,184	0,155
-225,942	-77,364	0,085	-0,021
-224,927	-200,000	-0,014	0,076
-223,913	-28,835	-0,040	0,017
-222,898	-200,000	-0,004	0,025
-221,884	144,855	-0,025	0,025
-220,869	-8,791	0,088	-0,043
-219,855	148,077	0,050	0,050
-218,840	254,273	-0,023	0,029
-217,825	-61,296	0,067	-0,020
-216,811	642,211	-0,071	0,133
-215,796	177,732	-0,093	-0,099
-214,782	-107,500	0,136	-0,021
-213,767	248,023	0,058	-0,071
-212,752	147,398	0,075	-0,074
-211,738	489,151	0,073	0,122
-210,723	-87,666	0,043	0,009
-209,709	-200,000	0,021	-0,127
-208,694	-200,000	-0,014	-0,058
-207,679	13,784	-0,093	-0,052
-206,665	-9,950	-0,119	0,057
-205,650	-154,086	0,143	0,007
-204,636	454,165	-0,025	-0,041
-203,621	-81,719	0,084	-0,020
-202,606	248,795	0,036	0,044
-201,592	-53,493	-0,116	0,038
-200,577	-200,000	-0,002	-0,008
-199,563	-200,000	-0,004	-0,095
-198,548	-200,000	-0,031	-0,113
-197,533	-34,307	-0,035	-0,014
-196,519	-42,295	0,040	0,015
-195,504	800,000	-0,031	-0,090
-194,490	800,000	-0,042	-0,110
-193,475	-65,669	-0,188	-0,055
-192,460	800,000	0,040	0,115
-191,446	-200,000	0,014	-0,045
-190,431	201,637	0,080	0,090
-189,417	273,630	-0,029	0,038
-188,402	532,775	0,054	0,093
-187,387	800,000	0,010	0,031
-186,373	-200,000	-0,009	-0,091
-185,358	-200,000	-0,015	-0,084
-184,344	-101,209	0,121	0,021
-183,329	-22,214	0,089	0,039
-182,315	-125,610	0,044	0,005
-181,300	56,713	0,007	0,005
-180,285	-200,000	-0,006	-0,129
-179,271	-200,000	0,049	0,000
-178,256	-200,000	0,019	0,131
-177,242	32,284	0,060	0,038
-176,227	113,005	-0,045	0,040
-175,212	-2,781	0,032	0,016
-174,198	308,984	-0,088	-0,120
-173,183	800,000	-0,039	-0,117
-172,169	-200,000	-0,023	0,105
-171,154	-200,000	0,009	0,104
-170,139	121,227	-0,071	0,065
-169,125	-73,884	-0,146	-0,038
-168,110	-25,513	0,097	0,042
-167,096	-200,000	0,008	-0,035
-166,081	-200,000	-0,010	0,054
-165,066	-119,318	0,044	0,005
-164,052	277,687	0,053	0,068
-163,037	165,261	-0,154	0,158
-162,023	-9,079	-0,031	0,015
-161,008	-200,000	-0,007	0,095
-159,993	475,183	0,033	-0,055
-158,979	98,730	0,018	-0,015
-157,964	800,000	-0,075	-0,164
-156,950	554,272	-0,038	-0,066
-155,935	-200,000	0,008	0,032
-154,920	245,102	0,088	0,108
-153,906	122,187	0,065	-0,059
-152,891	-200,000	-0,007	-0,073
-151,877	-59,054	-0,159	-0,050
-150,862	-186,890	-0,225	0,002
-149,847	684,631	-0,060	-0,115
-148,833	15,633	0,133	0,076
-147,818	9,338	0,051	0,028
-146,804	-149,389	0,082	-0,005
-145,789	-200,000	0,017	0,074
-144,775	800,000	0,009	-0,024
-143,760	383,089	-0,075	-0,112
-142,745	-26,824	-0,200	-0,085
-141,731	106,898	0,010	-0,009
-140,716	99,430	0,016	-0,014
-139,702	-77,907	-0,071	-0,018
-138,687	800,000	0,067	0,142
-137,672	65,066	0,111	0,081
-136,658	800,000	-0,076	-0,157
-135,643	229,433	-0,031	-0,036
-134,629	649,492	0,033	-0,061
-133,614	20,737	0,035	0,020
-132,599	-71,888	0,044	0,012
-131,585	-200,000	-0,006	0,031
-130,570	-87,998	-0,087	0,019
-129,556	800,000	0,053	-0,170
-128,541	-90,037	0,058	0,012
-127,526	800,000	0,019	0,052
-126,512	-200,000	0,057	0,190
-125,497	-200,000	0,019	0,072
-124,483	128,518	-0,180	0,167
-123,468	800,000	-0,029	-0,084
-122,453	-200,000	-0,005	-0,141
-121,439	800,000	0,021	0,059
-120,424	153,177	-0,034	0,034
