DTS Sentinel unit serial number:	SN410029Multiplexer serial number:	ORYXHardware model number:	OX2-SRSoftware version number:	ORYX F/W v4,00 Oryx Data Collector v3.7.2.0data status	okinstallation	B4 Nyhavnadifferential loss correction	single-endedforward channel	channel 2reverse channel	N/Adate	2023/12/15time	23:30:13forward acquisition time	300,00reverse acquisition time	0,00gamma	499,1914k internal	0,3129k external	0,3129temperature offset calibration	1,0000default loss term (dB/km)	0,3820temperature slope calibration	1,0000multiplexer offset coefficient	1,0000multiplexer slope coefficient	1,0000fibre end	0,00T internal ref (°C)	21,72T ext. ref 1 (°C)	6,78T ext. ref 2 (°C)	6,94length (m)	temperature (°C)	Stokes	anti-Stokes-744,400	-200,000	0,004	-0,034
-743,385	-187,597	-0,175	0,002
-742,371	-193,840	0,125	0,001
-741,356	-114,007	-0,302	0,043
-740,342	383,699	0,027	0,041
-739,327	-55,407	-0,309	0,103
-738,312	-18,226	-0,042	-0,019
-737,298	-97,573	-0,179	0,034
-736,283	342,007	-0,026	-0,038
-735,269	60,574	-0,233	0,171
-734,254	541,065	0,027	0,047
-733,239	-66,697	-0,289	-0,084
-732,225	800,000	0,010	-0,030
-731,210	-42,359	-0,033	0,012
-730,196	800,000	-0,047	0,144
-729,181	70,148	-0,076	0,058
-728,167	-116,606	-0,187	-0,025
-727,152	-103,839	-0,040	0,007
-726,137	-200,000	0,009	0,039
-725,123	-2,811	-0,048	-0,025
-724,108	-49,792	-0,076	-0,027
-723,094	-12,847	0,147	-0,071
-722,079	328,384	-0,035	-0,050
-721,064	-200,000	-0,020	-0,137
-720,050	-200,000	-0,084	0,000
-719,035	-73,891	-0,100	-0,027
-718,021	800,000	0,035	-0,080
-717,006	800,000	-0,034	-0,103
-715,991	-163,645	-0,025	-0,001
-714,977	-45,221	-0,098	-0,036
-713,962	-92,272	-0,047	0,010
-712,948	222,880	0,098	-0,118
-711,933	-200,000	-0,009	-0,036
-710,918	618,663	0,064	-0,120
-709,904	-200,000	-0,054	-0,201
-708,889	131,765	-0,058	-0,056
-707,875	-200,000	-0,032	-0,158
-706,860	44,147	-0,152	-0,103
-705,845	-145,841	-0,075	0,005
-704,831	486,916	0,027	-0,046
-703,816	49,541	-0,182	-0,127
-702,802	-70,908	-0,076	0,021
-701,787	61,311	-0,096	-0,071
-700,772	263,380	0,118	-0,153
-699,758	-200,000	-0,027	-0,107
-698,743	800,000	0,023	0,069
-697,729	176,786	0,140	0,151
-696,714	800,000	0,012	0,026
-695,699	-81,537	0,041	-0,010
-694,685	-65,779	-0,066	-0,019
-693,670	-51,811	-0,061	-0,021
-692,656	-200,000	-0,006	-0,161
-691,641	800,000	-0,014	-0,040
-690,627	-200,000	-0,021	0,150
-689,612	800,000	0,007	0,015
-688,597	-104,397	0,157	-0,027
-687,583	-200,000	0,005	-0,098
-686,568	-56,570	-0,067	-0,022
-685,554	795,179	0,045	-0,093
-684,539	-144,548	0,117	-0,008
-683,524	-46,103	0,082	-0,030
-682,510	49,532	-0,098	-0,068
-681,495	-187,407	-0,034	0,000
-680,481	-200,000	0,018	-0,081
-679,466	175,060	-0,056	-0,061
-678,451	-200,000	-0,034	0,123
-677,437	-200,000	0,002	-0,056
-676,422	800,000	-0,074	-0,172
-675,408	-82,235	0,078	0,019
-674,393	-200,000	0,007	0,101
-673,378	490,662	-0,082	-0,139
-672,364	417,734	0,026	-0,042
-671,349	800,000	-0,045	0,097
-670,335	228,118	0,048	-0,058
-669,320	-54,250	-0,106	-0,036
-668,305	-133,652	0,073	-0,007
-667,291	800,000	-0,041	0,099
-666,276	-14,393	-0,038	-0,018
-665,262	-200,000	-0,020	-0,147
-664,247	105,073	-0,067	0,059
-663,232	-200,000	-0,018	-0,100
-662,218	800,000	-0,008	-0,022
-661,203	40,057	-0,067	0,044
-660,189	188,907	0,058	0,064
-659,174	-95,305	-0,127	0,025
-658,159	591,680	-0,065	-0,120
-657,145	457,970	-0,051	-0,084
-656,130	768,199	0,054	-0,109
-655,116	65,585	-0,038	-0,029
-654,101	73,447	-0,104	0,081
-653,086	65,622	-0,047	0,035
-652,072	-183,332	0,106	-0,001
-651,057	771,145	-0,056	-0,114
-650,043	-200,000	0,006	-0,153
-649,028	137,918	0,098	0,095
-648,014	800,000	-0,027	0,073
-646,999	29,984	0,064	-0,040
-645,984	106,809	-0,113	0,099
-644,970	127,607	-0,053	-0,049
-643,955	-132,460	-0,066	-0,006
-642,941	-200,000	0,011	-0,073
-641,926	124,653	-0,060	0,056
-640,911	-200,000	-0,035	0,122
-639,897	173,055	-0,070	0,075
-638,882	-200,000	-0,003	-0,038
-637,868	-58,433	-0,144	0,046
-636,853	-93,896	-0,073	0,015
-635,838	-28,257	-0,129	-0,055
-634,824	800,000	0,012	-0,037
-633,809	-151,565	0,181	-0,010
-632,795	-200,000	0,003	0,086
-631,780	-24,456	0,019	-0,008
-630,765	71,228	0,068	0,052
-629,751	-83,617	-0,093	-0,022
-628,736	-200,000	-0,001	-0,062
-627,722	328,071	-0,121	-0,173
-626,707	386,084	-0,030	-0,047
-625,692	-25,124	0,079	0,034
-624,678	-200,000	-0,011	-0,063
-623,663	-8,287	-0,094	0,047
-622,649	51,970	-0,074	0,052
-621,634	675,981	-0,066	-0,128
-620,619	800,000	-0,027	-0,070
-619,605	-200,000	0,004	0,028
-618,590	35,703	-0,062	0,040
-617,576	800,000	0,041	-0,125
-616,561	208,948	-0,121	-0,141
-615,546	-200,000	-0,017	-0,068
-614,532	82,832	-0,075	-0,060
-613,517	-44,439	-0,080	-0,030
-612,503	38,042	0,005	0,003
-611,488	23,063	-0,017	0,010
-610,474	800,000	0,036	0,098
-609,459	-136,652	-0,021	-0,002
-608,444	-29,326	-0,151	-0,064
-607,430	185,786	0,072	-0,079
-606,415	198,255	-0,125	-0,142
-605,401	-28,633	0,077	-0,033
-604,386	88,267	0,028	0,023
-603,371	16,730	-0,041	0,024
-602,357	213,147	0,044	-0,051
-601,342	187,284	-0,096	-0,106
-600,328	-56,767	0,083	-0,027
-599,313	-151,250	-0,152	0,008
-598,298	-200,000	0,032	-0,171
-597,284	-17,167	0,058	-0,027
-596,269	-200,000	0,017	0,124
-595,255	-111,563	0,105	0,016
-594,240	246,358	-0,077	0,097
-593,225	800,000	-0,055	-0,131
-592,211	800,000	-0,018	-0,038
-591,196	405,790	0,033	0,052
-590,182	-200,000	-0,003	0,038
-589,167	353,939	0,004	0,005
-588,152	-200,000	0,004	0,065
-587,138	298,912	0,036	0,049
-586,123	121,124	-0,032	0,029
-585,109	-200,000	-0,028	0,136
-584,094	-145,720	-0,048	-0,003
-583,079	36,242	0,097	0,063
-582,065	148,300	0,053	0,053
-581,050	-27,041	-0,013	0,006
-580,036	161,358	-0,033	0,034
-579,021	-39,956	0,020	-0,007
-578,006	194,897	0,054	-0,060
-576,992	800,000	-0,017	-0,049
-575,977	-159,710	0,175	-0,007
-574,963	217,714	0,108	0,128
-573,948	-35,512	-0,160	0,064
-572,934	37,790	0,056	-0,036
-571,919	713,419	-0,009	0,017
-570,904	123,082	-0,105	0,098
-569,890	-23,599	0,031	-0,014
-568,875	198,709	0,085	-0,096
-567,861	431,697	0,071	0,114
-566,846	167,164	-0,072	-0,076
-565,831	449,729	0,074	0,121
-564,817	-200,000	0,013	-0,075
-563,802	-200,000	-0,044	-0,159
-562,788	800,000	-0,056	-0,130
-561,773	259,052	0,076	-0,097
-560,758	352,035	0,094	-0,138
-559,744	-111,059	-0,025	-0,004
-558,729	527,553	0,017	-0,029
-557,715	164,193	0,055	-0,058
-556,700	-200,000	-0,014	-0,060
-555,685	-200,000	0,002	-0,103
-554,671	800,000	-0,028	-0,079
-553,656	457,214	0,029	0,047
-552,642	138,533	-0,070	-0,068
-551,627	-200,000	0,006	0,046
-550,612	800,000	0,062	0,144
-549,598	800,000	0,037	-0,105
-548,583	-200,000	-0,044	0,165
-547,569	-70,045	0,052	0,015
-546,554	-61,346	0,056	0,017
-545,539	-2,092	-0,127	0,066
-544,525	-200,000	0,008	0,166
-543,510	92,389	0,031	-0,025
-542,496	800,000	-0,016	0,042
-541,481	168,632	-0,138	-0,145
-540,466	-200,000	-0,006	-0,060
-539,452	800,000	0,032	0,097
-538,437	251,156	0,096	0,120
-537,423	-200,000	0,022	0,092
-536,408	521,272	-0,037	0,065
-535,393	48,617	0,016	-0,011
-534,379	19,824	0,063	-0,038
-533,364	-48,462	-0,091	-0,032
-532,350	800,000	0,010	0,027
-531,335	-200,000	0,020	-0,088
-530,321	17,822	-0,025	0,015
-529,306	-158,198	-0,074	-0,003
-528,291	800,000	-0,025	-0,074
-527,277	146,663	-0,125	-0,124
-526,262	-21,912	0,017	0,008
-525,248	-200,000	0,018	-0,154
-524,233	64,973	0,211	0,157
-523,218	513,851	-0,076	-0,132
-522,204	592,003	0,045	-0,083
-521,189	800,000	0,011	-0,029
-520,175	-200,000	0,006	0,058
-519,160	21,818	-0,119	0,071
-518,145	6,822	0,068	-0,037
-517,131	-100,046	-0,156	0,028
-516,116	745,532	-0,092	0,184
-515,102	17,209	-0,048	0,028
-514,087	-13,783	-0,029	-0,014
-513,072	71,326	-0,092	0,071
-512,058	-29,630	0,007	0,003
-511,043	130,733	0,035	-0,033
-510,029	800,000	-0,019	-0,042
-509,014	-25,998	0,070	0,030
-507,999	-200,000	0,012	0,048
-506,985	318,955	-0,040	-0,056
-505,970	-147,621	-0,109	-0,007
-504,956	384,712	-0,032	0,048
-503,941	65,362	0,087	0,065
-502,926	-136,216	0,069	0,006
-501,912	362,933	0,066	0,098
-500,897	-69,806	-0,100	0,028
-499,883	618,349	-0,049	0,090
-498,868	189,550	0,063	0,070
-497,853	-200,000	-0,014	-0,149
-496,839	-200,000	0,038	-0,129
-495,824	-100,906	0,024	-0,004
-494,810	-200,000	-0,016	0,159
-493,795	-74,855	-0,060	-0,016
-492,781	188,775	0,096	-0,106
-491,766	-107,498	0,062	0,010
-490,751	23,826	-0,072	-0,044
-489,737	43,770	0,057	-0,038
-488,722	-123,447	-0,079	-0,009
-487,708	-200,000	-0,006	0,044
-486,693	800,000	-0,044	-0,118
-485,678	-129,432	0,120	-0,012
-484,664	582,619	0,033	-0,061
-483,649	-99,317	-0,091	0,017
-482,635	800,000	0,022	0,056
-481,620	-87,425	0,071	0,016
-480,605	-57,388	-0,081	0,026
-479,591	-122,508	0,144	0,017
-478,576	-67,089	0,010	0,003
-477,562	334,850	-0,020	0,029
-476,547	-200,000	0,001	0,036
-475,532	-200,000	-0,011	-0,062
-474,518	-46,386	0,084	0,030
-473,503	745,028	0,028	0,056
-472,489	-200,000	0,003	-0,052
-471,474	35,448	-0,056	-0,036
-470,459	115,761	0,107	-0,096
-469,445	154,195	-0,056	0,057
-468,430	165,318	-0,057	-0,059
-467,416	265,587	0,054	0,070
-466,401	42,100	0,059	-0,039
-465,386	-51,715	0,125	0,043
-464,372	-200,000	-0,026	0,132
-463,357	-82,136	-0,158	-0,038
-462,343	-200,000	-0,013	-0,044
-461,328	-139,209	0,071	-0,006
-460,313	122,355	-0,010	-0,009
-459,299	800,000	0,054	-0,122
-458,284	99,134	-0,023	0,020
-457,270	-200,000	0,127	0,000
-456,255	268,895	-0,085	0,110
-455,241	800,000	-0,057	-0,142
-454,226	-100,934	0,157	-0,028
-453,211	-200,000	0,004	0,021
-452,197	47,139	-0,108	-0,074
-451,182	-200,000	0,003	0,044
-450,168	-113,751	-0,061	-0,009
-449,153	112,332	0,083	-0,073
-448,138	-200,000	-0,048	-0,169
-447,124	491,436	0,069	-0,117
-446,109	800,000	0,029	0,089
-445,095	-151,900	-0,052	-0,003
-444,080	-200,000	-0,006	-0,033
-443,065	-200,000	-0,008	0,087
-442,051	-200,000	0,008	-0,031
-441,036	-128,110	-0,070	0,007
-440,022	-39,176	0,116	-0,044
-439,007	5,055	-0,048	0,026
-437,992	-104,745	0,027	-0,005
-436,978	410,506	-0,030	0,047
-435,963	-200,000	0,004	-0,025
-434,949	-196,356	0,101	0,000
-433,934	-31,005	0,081	-0,033
-432,919	-200,000	0,005	0,044
-431,905	-26,620	0,097	0,042
-430,890	-200,000	0,003	-0,063
-429,876	800,000	-0,025	-0,052
-428,861	27,936	0,071	0,044
-427,846	800,000	-0,065	0,140
-426,832	-200,000	0,002	-0,040
-425,817	-200,000	-0,007	0,058
-424,803	800,000	0,053	0,128
-423,788	158,032	-0,060	0,061
-422,773	-111,001	0,148	0,022
-421,759	-200,000	-0,024	0,114
-420,744	173,307	0,072	-0,077
-419,730	206,078	-0,064	0,073
-418,715	800,000	-0,022	-0,053
-417,701	18,676	-0,071	-0,042
-416,686	-200,000	-0,004	0,036
-415,671	-131,751	0,205	0,019
-414,657	-200,000	-0,060	-0,000
-413,642	-41,037	-0,172	0,065
-412,628	130,860	-0,061	0,058
-411,613	100,500	-0,124	-0,106
-410,598	800,000	0,035	0,102
-409,584	800,000	0,033	0,073
-408,569	800,000	0,032	0,089
-407,555	347,879	-0,038	-0,055
-406,540	661,808	-0,045	0,086
-405,525	417,542	0,045	0,070
-404,511	496,278	-0,096	0,163
-403,496	576,828	0,081	0,147
-402,482	-200,000	0,000	-0,079
-401,467	-160,448	0,081	0,003
-400,452	-200,000	-0,006	-0,107
-399,438	800,000	0,044	0,135
-398,423	673,098	-0,062	0,119
-397,409	-200,000	-0,028	0,224
-396,394	595,772	0,070	0,128
-395,379	-200,000	-0,026	-0,099
-394,365	-118,014	-0,165	0,021
-393,350	-200,000	-0,003	0,076
-392,336	676,460	0,044	0,084
-391,321	-200,000	-0,012	-0,091
-390,306	-200,000	0,021	-0,212
-389,292	160,443	-0,095	0,098
-388,277	-19,461	0,103	-0,047
-387,263	800,000	-0,057	0,142
-386,248	-200,000	-0,012	0,073
-385,233	-200,000	-0,001	-0,132
-384,219	-140,877	0,186	-0,014
-383,204	-200,000	-0,002	-0,075
-382,190	223,373	0,039	0,047
-381,175	800,000	0,033	0,079
-380,160	43,197	-0,132	0,088
-379,146	28,588	-0,022	0,014
-378,131	-47,476	0,081	0,029
-377,117	-200,000	0,007	0,037
-376,102	-103,555	-0,126	-0,022
-375,088	-200,000	-0,006	-0,068
-374,073	61,049	-0,069	-0,050
-373,058	-101,675	0,084	0,015
-372,044	-191,184	0,036	-0,000
-371,029	601,736	0,017	0,032
-370,015	-9,444	0,109	-0,053
-369,000	219,407	0,069	-0,081
-367,985	-200,000	0,049	-0,273
-366,971	222,235	-0,081	-0,095
-365,956	11,105	0,066	-0,037
-364,942	-52,166	-0,065	-0,022
-363,927	-193,639	0,045	0,000
-362,912	-200,000	-0,018	0,165
-361,898	-141,612	0,079	0,006
-360,883	-58,513	-0,068	0,021
-359,869	800,000	-0,044	0,130
-358,854	-131,839	-0,071	-0,007
-357,839	514,458	0,045	-0,077
-356,825	173,960	0,075	0,079
-355,810	800,000	0,013	-0,039
-354,796	374,369	-0,066	-0,099
-353,781	-11,869	0,081	0,039
-352,766	800,000	-0,039	-0,086
-351,752	-151,504	0,112	-0,006
-350,737	399,321	0,084	0,129
-349,723	-200,000	-0,005	-0,016
-348,708	-182,669	0,042	0,001
-347,693	43,581	0,088	-0,059
-346,679	6,951	0,052	-0,028
-345,664	-52,557	-0,131	0,044
-344,650	-200,000	-0,007	0,105
-343,635	464,844	-0,044	0,073
-342,620	-200,000	-0,005	0,085
-341,606	-126,315	0,168	0,018
-340,591	-85,404	0,064	-0,014
-339,577	108,164	-0,085	0,074
-338,562	586,031	0,013	0,023
-337,548	800,000	0,052	-0,135
-336,533	-87,283	-0,171	-0,038
-335,518	187,425	0,040	0,044
-334,504	558,356	0,090	0,160
-333,489	-1,974	-0,082	-0,042
-332,475	595,480	0,023	-0,042
-331,460	800,000	0,028	0,088
-330,445	-200,000	0,016	-0,056
-329,431	210,573	-0,130	0,150
-328,416	800,000	0,047	0,138
-327,402	22,167	-0,030	0,018
-326,387	-32,949	-0,040	-0,016
-325,372	-9,926	-0,066	-0,032
-324,358	-200,000	0,005	0,017
-323,343	456,824	0,078	-0,127
-322,329	-4,295	0,073	0,037
-321,314	-59,123	0,065	0,020
-320,299	47,060	0,046	0,031
-319,285	235,548	-0,036	0,044
-318,270	-200,000	-0,005	0,021
-317,256	12,785	-0,057	-0,032
-316,241	-200,000	0,008	-0,056
-315,226	164,600	0,104	-0,107
-314,212	463,257	0,040	0,065
-313,197	-200,000	0,014	0,086
-312,183	181,479	-0,101	0,109
-311,168	-1,009	-0,111	-0,057
-310,153	150,305	-0,056	0,056
-309,139	-200,000	-0,009	0,099
-308,124	313,695	-0,054	-0,075
-307,110	360,557	0,040	0,058
-306,095	800,000	0,056	0,153
-305,080	454,101	0,022	0,036
-304,066	7,440	-0,053	-0,029
-303,051	-112,708	0,046	0,007
-302,037	390,558	-0,056	-0,086
-301,022	-200,000	0,002	0,049
-300,008	98,805	0,064	0,054
-298,993	37,973	0,082	-0,053
-297,978	111,640	0,012	-0,010
-296,964	-41,341	-0,028	-0,011
-295,949	-200,000	0,003	-0,097
-294,935	594,561	0,052	-0,095
-293,920	-124,580	0,029	0,003
-292,905	317,941	-0,060	0,083
-291,891	131,245	0,058	0,055
-290,876	75,153	0,082	0,063
-289,862	-200,000	-0,056	0,199
-288,847	160,038	-0,042	0,042
-287,832	787,260	0,039	-0,080
-286,818	-130,588	-0,214	-0,021
-285,803	-178,549	0,079	0,001
-284,789	-98,362	-0,044	-0,008
-283,774	-0,412	0,156	0,081
-282,759	-200,000	0,003	0,040
-281,745	279,751	-0,060	-0,079
-280,730	-90,442	0,053	-0,011
-279,716	93,416	-0,076	0,062
-278,701	-200,000	0,018	-0,073
-277,686	-200,000	0,017	0,074
-276,672	-11,753	-0,115	-0,055
-275,657	-165,363	-0,117	0,004
-274,643	-122,990	-0,077	0,009
-273,628	-27,006	0,070	0,030
-272,613	800,000	0,014	-0,033
-271,599	157,339	0,060	-0,060
-270,584	761,563	0,027	0,055
-269,570	-200,000	0,056	0,197
-268,555	800,000	-0,024	-0,061
-267,540	56,023	-0,084	0,059
-266,526	-115,411	-0,129	-0,018
-265,511	87,521	0,050	0,041
-264,497	-54,597	0,056	-0,018
-263,482	30,368	0,136	-0,085
-262,467	63,700	-0,081	-0,059
-261,453	-200,000	0,004	-0,015
-260,438	-36,646	-0,042	0,016
-259,424	733,552	-0,078	-0,154
-258,409	442,972	0,034	-0,055
-257,395	231,810	-0,107	0,128
-256,380	-18,395	0,055	0,025
-255,365	188,708	0,072	-0,079
-254,351	-200,000	0,008	-0,054
-253,336	247,590	-0,079	-0,097
-252,322	-6,729	-0,148	-0,073
-251,307	18,795	0,061	-0,035
-250,292	-200,000	-0,019	0,075
-249,278	97,658	0,030	-0,025
-248,263	34,278	0,131	-0,083
-247,249	-200,000	-0,018	-0,059
-246,234	-71,016	-0,006	0,002
-245,219	90,567	-0,097	-0,079
-244,205	69,819	0,068	-0,051
-243,190	227,004	-0,034	-0,041
-242,176	-45,638	-0,082	-0,029
-241,161	63,797	0,100	0,073
-240,146	-61,990	-0,016	-0,005
-239,132	800,000	-0,006	0,020
-238,117	61,666	0,027	-0,020
-237,103	259,135	0,133	-0,168
-236,088	-93,323	-0,113	-0,023
-235,073	74,203	0,107	0,082
-234,059	565,611	-0,057	0,101
-233,044	-200,000	0,004	-0,052
-232,030	-200,000	0,004	0,028
-231,015	362,264	-0,126	-0,185
-230,000	-200,000	-0,023	0,119
-228,986	62,416	-0,049	0,036
-227,971	-200,000	0,045	0,160
-226,957	800,000	0,028	0,089
-225,942	54,699	0,056	0,040
-224,927	36,365	0,021	-0,013
-223,913	35,443	-0,043	-0,028
-222,898	444,458	0,089	-0,143
-221,884	-42,748	0,029	0,011
-220,869	559,479	-0,024	-0,043
-219,855	303,546	0,060	0,081
-218,840	-100,829	0,194	-0,034
-217,825	-139,725	-0,084	0,006
-216,811	-200,000	-0,031	-0,162
-215,796	-80,257	-0,060	0,014
-214,782	18,394	0,130	-0,075
-213,767	-116,290	-0,053	0,007
-212,752	-200,000	0,007	0,120
-211,738	146,655	0,050	0,049
-210,723	92,940	-0,040	0,033
-209,709	14,274	-0,129	-0,073
-208,694	-116,320	0,115	0,015
-207,679	-200,000	-0,007	-0,089
-206,665	800,000	0,028	-0,063
-205,650	-149,497	-0,049	0,003
-204,636	-200,000	-0,017	0,092
-203,621	800,000	0,009	0,026
-202,606	800,000	0,013	-0,034
-201,592	-200,000	-0,047	0,160
-200,577	-200,000	0,019	-0,120
-199,563	-12,187	0,116	0,055
-198,548	275,837	-0,078	-0,101
-197,533	-200,000	-0,008	-0,033
-196,519	173,845	0,019	0,020
-195,504	-200,000	-0,015	-0,097
-194,490	-200,000	-0,006	-0,027
-193,475	193,015	-0,096	-0,106
-192,460	-200,000	0,015	-0,065
-191,446	206,154	0,054	0,062
-190,431	72,165	-0,036	-0,027
-189,417	-200,000	0,043	-0,148
-188,402	-200,000	-0,014	0,080
-187,387	21,244	-0,038	-0,022
-186,373	800,000	-0,008	-0,025
-185,358	46,639	-0,055	-0,037
-184,344	-127,550	-0,081	0,008
-183,329	-83,746	-0,026	-0,006
-182,315	-136,304	0,130	0,011
-181,300	-200,000	-0,011	-0,063
-180,285	35,091	-0,060	-0,038
-179,271	-200,000	-0,018	-0,111
-178,256	-200,000	0,005	-0,113
-177,242	57,370	-0,043	-0,030
-176,227	-72,885	0,114	0,030
-175,212	-200,000	-0,002	-0,039
-174,198	653,974	-0,076	0,142
-173,183	-200,000	-0,030	-0,135
-172,169	-19,241	0,034	-0,015
-171,154	800,000	0,016	0,040
-170,139	-6,772	-0,034	-0,017
-169,125	800,000	-0,032	0,073
-168,110	47,558	0,219	0,148
-167,096	800,000	0,023	-0,070
-166,081	-163,257	0,142	-0,005
-165,066	653,215	-0,073	-0,137
-164,052	41,849	-0,133	-0,088
-163,037	-120,033	0,142	-0,018
-162,023	-88,914	0,018	-0,004
-161,008	129,043	0,061	-0,057
-159,993	537,260	0,049	0,086
-158,979	322,608	0,066	-0,092
-157,964	-69,930	0,046	0,013
-156,950	-200,000	-0,010	0,104
-155,935	800,000	-0,044	0,132
-154,920	256,550	0,036	0,045
-153,906	-200,000	-0,019	-0,080
-152,891	-64,175	-0,084	0,025
-151,877	22,497	-0,080	-0,047
-150,862	800,000	0,098	-0,205
-149,847	-200,000	-0,026	-0,116
-148,833	373,683	0,059	-0,087
-147,818	-77,560	0,178	-0,044
-146,804	-7,152	0,118	0,058
-145,789	800,000	-0,024	0,053
-144,775	20,781	-0,081	-0,048
-143,760	430,113	0,039	0,062
-142,745	551,143	-0,033	-0,058
-141,731	257,119	0,058	-0,073
-140,716	546,983	-0,028	-0,049
-139,702	-76,850	-0,043	-0,011
-138,687	800,000	-0,009	-0,023
-137,672	44,202	0,039	0,026
-136,658	-200,000	-0,012	0,239
-135,643	-195,369	-0,083	0,000
-134,629	-166,849	0,072	-0,002
-133,614	74,530	-0,049	-0,037
-132,599	-42,310	0,057	0,021
-131,585	110,354	0,068	0,059
-130,570	-123,092	-0,162	0,019
-129,556	-200,000	-0,011	-0,050
-128,541	167,400	-0,031	-0,032
-127,526	-200,000	-0,010	-0,063
-126,512	201,507	0,072	0,081
-125,497	-37,212	0,158	-0,061
-124,483	-72,779	-0,108	-0,029
-123,468	-200,000	0,014	0,052
-122,453	800,000	-0,056	0,118
-121,439	-62,901	-0,077	-0,023
-120,424	-200,000	0,017	-0,056
