DTS Sentinel unit serial number:	SN410029Multiplexer serial number:	ORYXHardware model number:	OX2-SRSoftware version number:	ORYX F/W v4,00 Oryx Data Collector v3.7.2.0data status	okinstallation	B4 Nyhavnadifferential loss correction	single-endedforward channel	channel 2reverse channel	N/Adate	2023/12/16time	00:00:13forward acquisition time	300,00reverse acquisition time	0,00gamma	499,1914k internal	0,3127k external	0,3127temperature offset calibration	1,0000default loss term (dB/km)	0,3820temperature slope calibration	1,0000multiplexer offset coefficient	1,0000multiplexer slope coefficient	1,0000fibre end	0,00T internal ref (°C)	21,87T ext. ref 1 (°C)	6,72T ext. ref 2 (°C)	6,88length (m)	temperature (°C)	Stokes	anti-Stokes-744,400	507,677	-0,052	-0,090
-743,385	85,467	-0,235	0,192
-742,371	683,843	0,090	0,176
-741,356	231,936	-0,153	0,187
-740,342	164,953	-0,072	0,076
-739,327	-27,514	-0,312	0,134
-738,312	-177,983	-0,135	-0,002
-737,298	-139,826	-0,337	0,026
-736,283	447,416	0,017	0,028
-735,269	145,143	-0,060	0,060
-734,254	-200,000	0,015	-0,118
-733,239	-87,401	-0,409	-0,091
-732,225	-47,462	0,175	0,063
-731,210	-106,048	-0,070	0,012
-730,196	155,586	-0,042	-0,043
-729,181	-116,701	0,042	-0,006
-728,167	-200,000	0,005	0,103
-727,152	800,000	-0,023	0,053
-726,137	-200,000	-0,026	-0,099
-725,123	117,232	0,027	0,024
-724,108	667,201	-0,128	-0,247
-723,094	38,697	0,146	-0,097
-722,079	610,040	-0,018	0,034
-721,064	-71,357	-0,162	-0,045
-720,050	-200,000	0,046	0,161
-719,035	800,000	0,003	-0,007
-718,021	211,062	0,051	0,059
-717,006	-121,993	0,012	-0,001
-715,991	-200,000	-0,001	-0,078
-714,977	49,662	-0,057	0,040
-713,962	-10,823	-0,018	-0,009
-712,948	-40,523	0,061	0,023
-711,933	-97,194	0,008	0,002
-710,918	295,091	0,051	0,070
-709,904	201,149	-0,051	0,059
-708,889	-200,000	0,024	-0,155
-707,875	-148,370	-0,165	-0,010
-706,860	-200,000	-0,007	0,040
-705,845	368,464	-0,072	0,108
-704,831	96,625	0,043	0,036
-703,816	299,434	0,054	0,074
-702,802	347,420	0,036	0,053
-701,787	634,639	0,017	-0,032
-700,772	47,622	-0,007	-0,005
-699,758	68,485	-0,055	0,041
-698,743	418,611	0,009	0,015
-697,729	800,000	0,023	0,064
-696,714	-200,000	-0,007	-0,055
-695,699	596,940	-0,021	-0,039
-694,685	65,171	-0,087	0,065
-693,670	-100,168	-0,164	0,030
-692,656	-143,454	-0,107	-0,007
-691,641	451,915	0,015	0,025
-690,627	-200,000	0,013	-0,084
-689,612	126,590	0,170	0,159
-688,597	-200,000	-0,018	0,078
-687,583	-200,000	-0,005	-0,043
-686,568	800,000	-0,083	-0,175
-685,554	-92,887	-0,122	-0,025
-684,539	-104,336	-0,029	-0,005
-683,524	118,815	-0,082	0,075
-682,510	-90,583	-0,065	-0,014
-681,495	800,000	-0,014	0,033
-680,481	-127,617	-0,067	0,007
-679,466	-200,000	-0,001	-0,074
-678,451	30,297	0,110	-0,070
-677,437	-200,000	0,009	0,145
-676,422	128,583	0,058	-0,055
-675,408	800,000	0,024	0,072
-674,393	91,005	0,023	0,019
-673,378	-10,042	-0,092	-0,045
-672,364	-123,626	0,073	-0,008
-671,349	-193,707	-0,128	0,001
-670,335	800,000	0,023	-0,056
-669,320	259,177	0,020	0,026
-668,305	29,057	0,059	-0,037
-667,291	198,272	0,050	0,057
-666,276	-28,885	-0,153	0,065
-665,262	800,000	-0,049	-0,108
-664,247	-114,282	-0,094	0,013
-663,232	93,529	-0,034	0,029
-662,218	80,886	0,092	-0,073
-661,203	112,281	0,066	-0,059
-660,189	127,198	-0,052	0,049
-659,174	-200,000	0,003	-0,117
-658,159	418,384	-0,045	-0,072
-657,145	-200,000	-0,012	0,101
-656,130	-200,000	-0,019	0,103
-655,116	29,881	0,031	-0,020
-654,101	-92,090	-0,107	0,022
-653,086	310,571	0,087	0,121
-652,072	-200,000	-0,030	-0,103
-651,057	78,440	-0,115	-0,091
-650,043	-90,625	-0,169	-0,036
-649,028	800,000	0,022	0,068
-648,014	800,000	-0,066	-0,145
-646,999	-142,268	-0,062	-0,005
-645,984	-102,668	0,089	-0,016
-644,970	133,268	-0,050	-0,048
-643,955	554,772	-0,083	-0,149
-642,941	56,113	0,041	0,030
-641,926	-105,381	0,043	0,007
-640,911	-200,000	0,000	-0,001
-639,897	114,620	0,068	-0,062
-638,882	238,432	0,043	0,052
-637,868	97,885	0,034	-0,029
-636,853	-30,161	-0,175	-0,073
-635,838	-126,305	-0,036	0,004
-634,824	-200,000	-0,004	-0,080
-633,809	696,212	-0,020	0,038
-632,795	-133,435	0,211	0,019
-631,780	497,948	-0,060	0,102
-630,765	-200,000	-0,010	0,103
-629,751	800,000	0,049	-0,109
-628,736	-144,878	-0,131	-0,009
-627,722	106,934	0,105	-0,092
-626,707	-200,000	-0,005	-0,149
-625,692	-86,696	-0,131	0,029
-624,678	187,345	-0,074	0,082
-623,663	639,866	0,044	0,083
-622,649	108,106	-0,060	-0,053
-621,634	-200,000	0,002	-0,097
-620,619	-142,569	-0,039	-0,003
-619,605	27,295	-0,112	-0,070
-618,590	300,101	-0,127	-0,174
-617,576	495,015	0,049	0,084
-616,561	-84,731	0,112	0,026
-615,546	132,347	-0,115	0,110
-614,532	152,879	-0,060	0,061
-613,517	122,504	-0,072	0,066
-612,503	42,873	-0,066	0,044
-611,488	52,455	0,131	0,092
-610,474	-200,000	-0,016	0,095
-609,459	34,598	-0,086	-0,056
-608,444	-36,981	0,062	-0,024
-607,430	2,877	0,106	-0,057
-606,415	163,020	-0,126	-0,132
-605,401	-200,000	-0,003	-0,150
-604,386	-73,448	-0,179	-0,048
-603,371	47,673	-0,034	0,023
-602,357	-109,446	0,111	0,017
-601,342	217,255	0,052	0,061
-600,328	-200,000	0,009	0,054
-599,313	203,309	-0,077	0,088
-598,298	-200,000	-0,008	0,089
-597,284	102,441	0,105	0,091
-596,269	-12,640	0,027	-0,013
-595,255	-200,000	-0,029	-0,146
-594,240	270,562	0,013	-0,017
-593,225	800,000	0,037	-0,107
-592,211	280,071	-0,037	-0,049
-591,196	-200,000	-0,018	-0,145
-590,182	170,052	-0,027	-0,029
-589,167	668,324	0,048	0,092
-588,152	-4,418	-0,092	0,047
-587,138	-102,623	-0,015	0,003
-586,123	-112,585	-0,063	-0,009
-585,109	800,000	-0,044	0,130
-584,094	234,522	0,075	0,092
-583,079	55,180	0,122	0,087
-582,065	106,905	-0,050	-0,044
-581,050	19,196	0,130	0,077
-580,036	-90,687	0,030	0,006
-579,021	-17,051	-0,107	-0,050
-578,006	-61,944	-0,058	0,018
-576,992	-83,559	0,105	-0,025
-575,977	-200,000	-0,005	0,020
-574,963	-200,000	0,006	0,075
-573,948	271,896	-0,115	0,151
-572,934	-61,510	-0,134	0,041
-571,919	-93,936	-0,057	-0,012
-570,904	376,798	0,019	-0,029
-569,890	-75,393	0,112	-0,029
-568,875	-200,000	0,005	0,144
-567,861	-200,000	0,014	0,053
-566,846	-68,595	-0,060	0,017
-565,831	27,130	0,047	0,029
-564,817	-200,000	0,016	0,160
-563,802	800,000	-0,018	-0,057
-562,788	-78,937	-0,021	-0,005
-561,773	308,704	-0,022	-0,030
-560,758	-200,000	-0,007	0,126
-559,744	160,919	0,056	0,057
-558,729	-200,000	-0,027	0,115
-557,715	800,000	0,032	0,099
-556,700	267,134	-0,026	-0,033
-555,685	113,240	0,050	0,045
-554,671	800,000	-0,024	0,051
-553,656	-159,560	0,103	0,004
-552,642	355,821	0,056	0,082
-551,627	77,740	-0,096	0,075
-550,612	-200,000	-0,008	0,075
-549,598	800,000	-0,059	-0,139
-548,583	598,591	0,031	0,057
-547,569	111,754	-0,049	0,044
-546,554	206,616	0,064	0,074
-545,539	219,758	0,067	0,079
-544,525	-100,328	0,070	0,013
-543,510	10,018	-0,077	0,043
-542,496	35,173	0,022	-0,014
-541,481	-200,000	0,004	-0,039
-540,466	-198,563	-0,022	0,000
-539,452	8,770	0,068	-0,038
-538,437	13,471	0,007	-0,004
-537,423	-200,000	-0,011	-0,041
-536,408	462,627	0,084	-0,138
-535,393	-200,000	0,017	0,120
-534,379	-200,000	0,011	0,072
-533,364	-17,216	0,011	-0,005
-532,350	-200,000	0,008	-0,030
-531,335	-200,000	0,006	0,129
-530,321	73,646	-0,007	-0,005
-529,306	-200,000	0,004	0,033
-528,291	48,965	-0,017	0,011
-527,277	171,649	-0,092	-0,097
-526,262	-200,000	-0,002	-0,085
-525,248	13,636	0,122	-0,070
-524,233	-74,701	0,132	0,035
-523,218	-150,007	-0,068	-0,004
-522,204	203,446	0,010	0,012
-521,189	-200,000	0,001	0,102
-520,175	164,317	-0,072	-0,075
-519,160	88,041	0,099	-0,081
-518,145	-200,000	0,023	-0,143
-517,131	-200,000	-0,001	0,004
-516,116	27,676	0,013	-0,008
-515,102	-200,000	-0,002	-0,078
-514,087	20,496	-0,087	0,052
-513,072	-200,000	-0,001	0,177
-512,058	-200,000	-0,021	0,129
-511,043	40,274	-0,097	-0,064
-510,029	800,000	-0,016	-0,034
-509,014	250,853	-0,086	0,108
-507,999	10,793	0,149	-0,084
-506,985	-52,223	0,152	-0,052
-505,970	-12,626	-0,101	-0,048
-504,956	800,000	-0,014	0,041
-503,941	40,822	-0,019	0,013
-502,926	-17,015	0,074	0,034
-501,912	-200,000	0,006	0,098
-500,897	-92,692	0,055	0,011
-499,883	800,000	0,010	0,030
-498,868	754,724	-0,035	-0,070
-497,853	-136,838	-0,033	0,003
-496,839	99,181	-0,038	0,033
-495,824	-82,055	0,066	-0,016
-494,810	-2,678	0,086	-0,044
-493,795	-200,000	-0,020	-0,068
-492,781	-200,000	-0,011	0,066
-491,766	173,156	-0,033	-0,035
-490,751	-50,442	-0,065	0,023
-489,737	136,450	-0,144	-0,139
-488,722	-200,000	0,022	-0,140
-487,708	-182,788	0,093	-0,001
-486,693	445,739	-0,051	0,083
-485,678	-200,000	-0,009	-0,047
-484,664	167,957	0,039	-0,040
-483,649	212,682	-0,127	0,148
-482,635	-200,000	-0,006	-0,066
-481,620	92,898	0,053	-0,044
-480,605	101,236	0,085	0,073
-479,591	-200,000	-0,035	0,148
-478,576	174,464	-0,062	0,067
-477,562	73,949	-0,023	-0,018
-476,547	800,000	-0,092	-0,223
-475,532	-200,000	0,004	-0,065
-474,518	-85,324	-0,082	0,019
-473,503	414,982	-0,010	-0,015
-472,489	81,372	0,059	0,047
-471,474	47,495	-0,097	0,066
-470,459	156,563	0,095	-0,097
-469,445	-24,169	-0,076	0,033
-468,430	-137,695	0,077	0,006
-467,416	448,053	0,096	0,156
-466,401	105,522	0,041	0,035
-465,386	800,000	0,028	-0,066
-464,372	98,416	-0,107	-0,091
-463,357	12,661	0,046	0,026
-462,343	336,321	-0,056	-0,080
-461,328	50,398	-0,107	0,074
-460,313	159,541	-0,040	0,041
-459,299	-200,000	0,048	0,206
-458,284	490,649	-0,036	0,062
-457,270	-11,198	0,183	0,089
-456,255	-200,000	-0,005	0,137
-455,241	-28,456	-0,078	-0,033
-454,226	-200,000	-0,022	0,098
-453,211	192,291	0,043	0,048
-452,197	-197,610	0,154	0,001
-451,182	-129,193	0,025	0,003
-450,168	352,895	0,100	0,146
-449,153	2,481	-0,100	0,053
-448,138	-28,051	-0,075	0,032
-447,124	-200,000	0,007	-0,026
-446,109	-31,110	0,042	-0,017
-445,095	9,304	0,046	-0,025
-444,080	800,000	-0,037	-0,086
-443,065	-157,557	0,023	-0,001
-442,051	248,389	0,086	0,107
-441,036	-178,824	0,147	-0,002
-440,022	607,325	0,073	-0,134
-439,007	-200,000	-0,040	0,142
-437,992	-189,000	-0,104	0,001
-436,978	211,545	0,079	-0,092
-435,963	-200,000	0,002	-0,014
-434,949	-56,456	0,083	-0,027
-433,934	-200,000	0,006	0,057
-432,919	800,000	0,044	-0,139
-431,905	8,525	-0,018	-0,010
-430,890	-32,316	-0,041	0,017
-429,876	-85,609	0,132	-0,030
-428,861	173,152	0,046	0,048
-427,846	359,733	0,041	0,061
-426,832	800,000	0,036	-0,084
-425,817	-200,000	0,018	0,099
-424,803	0,043	-0,065	0,034
-423,788	146,652	-0,071	0,070
-422,773	800,000	-0,019	0,048
-421,759	-23,523	-0,144	-0,063
-420,744	285,661	0,013	0,017
-419,730	800,000	0,019	-0,040
-418,715	46,194	0,116	0,079
-417,701	679,933	0,042	0,080
-416,686	82,447	0,011	-0,008
-415,671	-33,098	0,021	-0,009
-414,657	6,922	0,058	0,032
-413,642	800,000	0,009	-0,020
-412,628	-200,000	-0,004	-0,117
-411,613	-125,264	-0,121	0,013
-410,598	67,787	-0,080	-0,060
-409,584	97,935	-0,023	0,020
-408,569	-6,028	0,144	0,072
-407,555	800,000	-0,012	-0,029
-406,540	664,019	-0,040	0,075
-405,525	373,335	-0,082	-0,123
-404,511	-157,755	-0,055	0,002
-403,496	-170,428	-0,068	-0,002
-402,482	613,674	0,021	-0,039
-401,467	-131,091	0,128	0,012
-400,452	-49,993	0,109	0,038
-399,438	5,142	0,148	-0,080
-398,423	-117,647	-0,036	0,005
-397,409	-65,699	0,099	0,029
-396,394	584,508	-0,021	-0,038
-395,379	127,441	0,064	0,060
-394,365	800,000	-0,031	-0,079
-393,350	-114,945	0,087	0,012
-392,336	800,000	0,025	0,060
-391,321	471,842	-0,021	0,034
-390,306	354,033	-0,054	-0,079
-389,292	800,000	-0,043	-0,134
-388,277	72,353	0,167	-0,128
-387,263	34,218	-0,094	0,060
-386,248	546,623	0,059	-0,104
-385,233	92,405	0,051	-0,042
-384,219	800,000	0,050	-0,123
-383,204	-140,317	-0,071	-0,005
-382,190	180,054	-0,045	-0,049
-381,175	603,817	-0,052	0,096
-380,160	-74,133	0,089	-0,024
-379,146	61,891	0,123	-0,090
-378,131	-200,000	-0,038	0,138
-377,117	358,283	-0,048	0,071
-376,102	-200,000	-0,006	-0,102
-375,088	-131,821	-0,157	-0,015
-374,073	-140,877	0,027	0,002
-373,058	-200,000	0,010	-0,065
-372,044	192,873	-0,009	0,010
-371,029	414,602	0,034	0,054
-370,015	679,143	0,086	-0,166
-369,000	-200,000	-0,044	-0,178
-367,985	-200,000	-0,038	-0,164
-366,971	98,026	-0,107	-0,091
-365,956	-29,058	-0,052	-0,022
-364,942	800,000	-0,016	0,048
-363,927	293,385	0,035	0,047
-362,912	-171,084	-0,103	0,003
-361,898	-200,000	0,007	0,046
-360,883	107,451	-0,075	-0,066
-359,869	457,867	-0,040	-0,065
-358,854	-64,910	-0,048	-0,014
-357,839	-72,930	0,192	0,051
-356,825	-200,000	0,015	-0,064
-355,810	228,622	-0,117	-0,140
-354,796	544,788	-0,010	0,017
-353,781	45,982	0,129	-0,087
-352,766	109,359	-0,108	-0,095
-351,752	-200,000	0,002	-0,016
-350,737	786,270	0,026	0,053
-349,723	148,332	0,120	-0,119
-348,708	167,801	-0,076	0,079
-347,693	-62,496	-0,080	0,024
-346,679	-200,000	0,006	0,144
-345,664	-47,156	0,110	-0,039
-344,650	104,856	-0,066	-0,057
-343,635	-200,000	-0,005	0,052
-342,620	-147,994	-0,100	0,006
-341,606	-58,932	-0,084	0,026
-340,591	118,886	0,043	0,039
-339,577	360,207	-0,100	-0,146
-338,562	-200,000	-0,022	-0,191
-337,548	-20,727	0,095	0,043
-336,533	68,903	0,057	0,043
-335,518	-200,000	0,036	0,144
-334,504	768,288	-0,020	0,040
-333,489	181,615	-0,039	0,043
-332,475	-160,498	0,105	0,004
-331,460	-173,544	-0,129	0,003
-330,445	-200,000	-0,023	-0,115
-329,431	-200,000	-0,002	-0,008
-328,416	1,552	0,048	0,025
-327,402	-66,765	0,113	-0,033
-326,387	193,937	-0,088	-0,097
-325,372	-57,307	-0,104	-0,033
-324,358	-57,244	-0,162	-0,052
-323,343	-200,000	0,008	-0,058
-322,329	313,431	-0,038	-0,052
-321,314	-176,598	-0,048	-0,001
-320,299	-143,674	-0,165	0,011
-319,285	229,317	-0,078	-0,093
-318,270	-200,000	-0,002	-0,148
-317,256	188,698	0,050	-0,055
-316,241	-200,000	-0,046	0,165
-315,226	201,921	-0,026	0,030
-314,212	-192,701	0,078	-0,001
-313,197	138,363	-0,022	0,021
-312,183	-20,569	0,070	0,031
-311,168	312,034	0,024	-0,033
-310,153	-42,189	0,083	-0,031
-309,139	-4,841	-0,072	0,036
-308,124	-94,672	0,095	0,019
-307,110	135,413	-0,088	-0,083
-306,095	-4,962	0,266	0,134
-305,080	228,168	-0,108	-0,129
-304,066	-36,509	-0,121	0,047
-303,051	-128,479	-0,075	0,008
-302,037	800,000	0,042	-0,119
-301,022	800,000	0,037	0,086
-300,008	-200,000	-0,000	-0,119
-298,993	-111,634	-0,013	-0,002
-297,978	-124,139	0,164	0,019
-296,964	-200,000	0,020	-0,108
-295,949	-200,000	0,057	-0,197
-294,935	55,600	-0,060	-0,042
-293,920	-200,000	-0,004	-0,087
-292,905	39,358	-0,107	-0,070
-291,891	-200,000	-0,029	-0,096
-290,876	71,189	-0,014	-0,010
-289,862	-62,350	-0,049	0,015
-288,847	-99,332	-0,035	0,006
-287,832	0,102	-0,087	-0,045
-286,818	-20,184	0,112	0,050
-285,803	-42,694	0,056	0,021
-284,789	555,914	0,029	-0,051
-283,774	19,879	0,140	0,082
-282,759	-35,935	-0,053	0,021
-281,745	3,540	-0,077	0,041
-280,730	88,494	-0,047	0,038
-279,716	-200,000	0,016	-0,067
-278,701	54,762	-0,028	-0,020
-277,686	103,941	0,088	0,075
-276,672	800,000	0,019	-0,044
-275,657	18,232	-0,084	0,049
-274,643	-200,000	-0,009	-0,089
-273,628	-25,946	-0,054	0,023
-272,613	-200,000	-0,003	0,102
-271,599	-7,302	0,096	0,047
-270,584	-200,000	-0,013	-0,053
-269,570	800,000	-0,018	0,040
-268,555	312,876	0,045	0,062
-267,540	505,030	0,061	-0,104
-266,526	-98,546	-0,161	-0,030
-265,511	-200,000	0,015	0,074
-264,497	-200,000	-0,021	0,162
-263,482	63,547	0,079	0,058
-262,467	-200,000	-0,000	0,083
-261,453	-100,060	-0,105	0,019
-260,438	-200,000	-0,032	-0,179
-259,424	-200,000	0,012	-0,102
-258,409	177,232	-0,042	-0,045
-257,395	-102,517	0,172	-0,030
-256,380	195,809	0,050	0,055
-255,365	-200,000	-0,016	0,098
-254,351	800,000	-0,042	-0,092
-253,336	-37,988	-0,118	0,045
-252,322	714,935	-0,063	-0,122
-251,307	606,603	0,044	-0,081
-250,292	-45,704	0,020	-0,007
-249,278	-131,887	0,118	0,011
-248,263	800,000	0,051	-0,117
-247,249	-200,000	0,021	0,132
-246,234	-200,000	0,001	0,067
-245,219	37,109	-0,107	-0,069
-244,205	-92,819	-0,129	-0,026
-243,190	26,065	0,019	0,012
-242,176	-121,497	0,125	-0,015
-241,161	-40,803	0,048	-0,018
-240,146	-59,388	0,127	0,040
-239,132	-118,417	0,081	-0,010
-238,117	-200,000	0,011	0,043
-237,103	510,819	-0,065	0,111
-236,088	-200,000	-0,011	0,070
-235,073	-200,000	-0,022	-0,102
-234,059	432,026	0,028	0,045
-233,044	-191,050	0,018	0,000
-232,030	800,000	-0,043	0,094
-231,015	12,493	0,058	-0,032
-230,000	-73,719	-0,135	0,036
-228,986	403,504	-0,039	0,060
-227,971	-121,248	-0,037	0,004
-226,957	800,000	0,011	-0,028
-225,942	109,548	0,052	-0,046
-224,927	80,505	0,029	-0,023
-223,913	166,352	0,025	-0,026
-222,898	383,546	0,056	0,084
-221,884	-200,000	-0,004	-0,025
-220,869	-30,397	0,062	-0,026
-219,855	800,000	0,055	0,121
-218,840	99,241	0,026	-0,022
-217,825	730,482	0,033	-0,065
-216,811	128,144	0,115	-0,106
-215,796	-200,000	-0,061	-0,223
-214,782	-44,639	0,076	-0,028
-213,767	-200,000	-0,002	0,051
-212,752	-58,129	0,163	0,052
-211,738	31,484	-0,091	0,057
-210,723	-73,593	-0,190	0,050
-209,709	137,659	-0,082	0,078
-208,694	11,791	-0,099	-0,055
-207,679	216,900	0,098	0,114
-206,665	126,284	0,080	-0,074
-205,650	-48,015	-0,077	-0,027
-204,636	-200,000	-0,002	0,026
-203,621	800,000	0,053	0,149
-202,606	-200,000	0,003	0,055
-201,592	-87,672	-0,034	0,007
-200,577	1,323	-0,060	0,032
-199,563	-200,000	-0,001	0,081
-198,548	85,079	0,080	0,064
-197,533	-200,000	-0,020	0,067
-196,519	-200,000	0,017	-0,156
-195,504	26,132	-0,025	-0,015
-194,490	-28,022	0,148	0,062
-193,475	-200,000	0,025	0,132
-192,460	701,252	-0,026	0,050
-191,446	-110,539	-0,084	-0,013
-190,431	-200,000	0,012	0,055
-189,417	109,051	0,050	-0,044
-188,402	111,040	0,013	-0,011
-187,387	-15,755	-0,034	-0,016
-186,373	148,628	-0,114	-0,112
-185,358	-67,154	0,108	-0,031
-184,344	37,577	-0,075	0,048
-183,329	28,060	0,069	-0,042
-182,315	380,799	0,081	-0,122
-181,300	71,414	-0,039	0,030
-180,285	800,000	-0,036	-0,104
-179,271	177,022	0,070	-0,074
-178,256	230,638	-0,058	-0,070
-177,242	-70,488	-0,114	0,031
-176,227	-25,374	-0,025	0,011
-175,212	-200,000	-0,028	0,248
-174,198	-200,000	0,029	0,112
-173,183	-200,000	-0,025	-0,150
-172,169	-200,000	0,020	-0,116
-171,154	382,174	0,052	0,079
-170,139	362,814	0,111	0,163
-169,125	218,279	-0,078	0,090
-168,110	215,035	0,039	-0,045
-167,096	215,902	0,038	0,044
-166,081	-157,438	0,050	-0,002
-165,066	-200,000	0,030	-0,116
-164,052	-91,984	-0,032	0,007
-163,037	197,218	0,034	0,037
-162,023	331,515	0,058	0,082
-161,008	458,847	-0,043	-0,069
-159,993	-200,000	-0,009	0,118
-158,979	-148,912	-0,067	0,004
-157,964	-187,872	0,079	-0,001
-156,950	-75,629	-0,089	-0,023
-155,935	20,941	-0,056	0,033
-154,920	800,000	0,038	0,118
-153,906	-58,713	-0,067	-0,021
-152,891	-200,000	-0,001	-0,053
-151,877	-200,000	-0,001	-0,027
-150,862	-115,012	0,082	-0,011
-149,847	-36,182	0,105	-0,041
-148,833	60,428	-0,078	0,056
-147,818	339,540	-0,015	-0,021
-146,804	-200,000	0,008	-0,079
-145,789	79,216	0,098	0,077
-144,775	-200,000	-0,041	0,151
-143,760	-42,136	-0,172	0,064
-142,745	-30,263	0,065	-0,027
-141,731	-31,119	-0,057	0,023
-140,716	285,736	0,033	0,044
-139,702	-130,873	0,191	-0,018
-138,687	-107,660	-0,084	0,013
-137,672	800,000	0,011	-0,031
-136,658	248,943	-0,043	-0,053
-135,643	-169,069	0,054	0,001
-134,629	-200,000	0,003	-0,019
-133,614	159,885	-0,076	0,077
-132,599	212,837	0,061	0,071
-131,585	-53,253	0,124	0,041
-130,570	-200,000	0,009	-0,067
-129,556	-200,000	-0,019	0,108
-128,541	495,366	-0,031	-0,052
-127,526	800,000	-0,048	-0,130
-126,512	-156,855	0,169	0,007
-125,497	-200,000	0,042	0,162
-124,483	43,325	-0,082	0,055
-123,468	-40,680	-0,063	0,024
-122,453	124,808	-0,096	-0,088
-121,439	-200,000	0,004	-0,036
-120,424	800,000	-0,062	-0,175
-119,410	-41,203	0,094	0,035
