DTS Sentinel unit serial number:	SN410029Multiplexer serial number:	ORYXHardware model number:	OX2-SRSoftware version number:	ORYX F/W v4,00 Oryx Data Collector v3.7.2.0data status	okinstallation	B4 Nyhavnadifferential loss correction	single-endedforward channel	channel 2reverse channel	N/Adate	2023/12/18time	21:35:13forward acquisition time	300,00reverse acquisition time	0,00gamma	499,1914k internal	0,3124k external	0,3124temperature offset calibration	1,0000default loss term (dB/km)	0,3820temperature slope calibration	1,0000multiplexer offset coefficient	1,0000multiplexer slope coefficient	1,0000fibre end	0,00T internal ref (°C)	21,84T ext. ref 1 (°C)	7,18T ext. ref 2 (°C)	7,11length (m)	temperature (°C)	Stokes	anti-Stokes-744,400	206,625	0,075	-0,087
-743,385	30,183	-0,137	0,087
-742,371	554,257	0,090	0,162
-741,356	-45,854	-0,201	0,074
-740,342	-200,000	-0,003	-0,085
-739,327	-76,813	-0,203	0,053
-738,312	800,000	0,036	-0,097
-737,298	-91,804	-0,169	0,035
-736,283	-200,000	0,004	-0,051
-735,269	471,436	-0,133	0,224
-734,254	15,820	-0,128	0,075
-733,239	-161,444	-0,307	-0,012
-732,225	173,900	0,047	-0,050
-731,210	96,999	-0,049	-0,042
-730,196	447,942	0,055	-0,090
-729,181	-61,573	-0,097	-0,030
-728,167	-3,750	-0,048	-0,025
-727,152	349,551	-0,036	0,053
-726,137	-75,451	-0,103	-0,027
-725,123	367,180	0,045	-0,068
-724,108	-56,799	-0,088	-0,029
-723,094	-76,773	-0,105	-0,027
-722,079	-31,179	0,033	-0,014
-721,064	276,493	-0,045	0,060
-720,050	-200,000	-0,002	0,074
-719,035	-45,089	-0,031	-0,011
-718,021	46,574	0,059	0,040
-717,006	-200,000	-0,010	-0,043
-715,991	407,280	-0,048	0,076
-714,977	800,000	0,019	-0,045
-713,962	373,142	0,024	0,036
-712,948	32,573	-0,127	-0,082
-711,933	-38,953	-0,037	-0,014
-710,918	635,099	0,013	-0,024
-709,904	247,119	-0,042	-0,053
-708,889	-200,000	-0,031	-0,115
-707,875	26,305	-0,061	-0,038
-706,860	-108,904	-0,052	-0,008
-705,845	-59,935	-0,052	0,016
-704,831	168,428	-0,038	-0,041
-703,816	-58,540	-0,081	0,026
-702,802	159,735	-0,113	-0,117
-701,787	-200,000	0,025	0,093
-700,772	574,115	-0,055	-0,101
-699,758	35,857	-0,060	0,039
-698,743	-200,000	0,018	0,077
-697,729	0,228	-0,033	0,017
-696,714	329,578	-0,055	0,079
-695,699	800,000	0,032	-0,104
-694,685	-193,706	-0,075	-0,000
-693,670	41,954	0,118	0,080
-692,656	342,406	-0,072	-0,104
-691,641	605,378	-0,066	-0,123
-690,627	800,000	0,025	0,055
-689,612	22,633	-0,127	0,077
-688,597	585,231	-0,069	-0,127
-687,583	-200,000	-0,027	-0,218
-686,568	-42,895	0,111	-0,042
-685,554	-52,157	-0,042	0,014
-684,539	197,821	-0,032	-0,036
-683,524	-115,347	-0,216	-0,030
-682,510	-111,237	-0,187	0,028
-681,495	472,131	-0,099	-0,166
-680,481	-126,809	-0,119	-0,013
-679,466	-188,162	-0,102	0,001
-678,451	414,606	-0,051	-0,081
-677,437	36,038	-0,192	0,126
-676,422	20,337	-0,008	0,005
-675,408	800,000	0,030	-0,071
-674,393	-115,750	0,052	-0,007
-673,378	-200,000	-0,048	-0,168
-672,364	121,181	-0,145	-0,134
-671,349	-48,055	-0,044	0,016
-670,335	-4,017	0,118	0,060
-669,320	398,375	0,058	0,091
-668,305	-200,000	0,029	0,154
-667,291	-80,940	-0,087	0,021
-666,276	242,020	-0,024	-0,030
-665,262	-200,000	-0,028	-0,116
-664,247	169,817	-0,042	-0,045
-663,232	-200,000	0,029	0,140
-662,218	-129,682	-0,126	0,013
-661,203	79,045	0,064	0,051
-660,189	-200,000	0,005	-0,061
-659,174	-200,000	-0,012	-0,062
-658,159	61,355	0,028	-0,020
-657,145	313,693	0,073	-0,102
-656,130	-29,812	-0,100	-0,042
-655,116	66,652	0,008	0,006
-654,101	800,000	-0,025	0,077
-653,086	122,520	0,070	0,065
-652,072	-58,132	-0,077	-0,025
-651,057	-200,000	-0,017	-0,057
-650,043	800,000	0,012	-0,034
-649,028	666,880	0,003	-0,006
-648,014	358,897	0,011	0,016
-646,999	-200,000	-0,004	0,022
-645,984	-103,672	0,077	0,013
-644,970	-44,128	-0,125	0,046
-643,955	-151,284	-0,041	0,002
-642,941	64,591	0,063	0,047
-641,926	555,599	-0,116	0,209
-640,911	5,435	-0,005	0,003
-639,897	-200,000	0,001	0,087
-638,882	349,948	-0,097	0,142
-637,868	600,859	-0,043	0,080
-636,853	72,640	-0,108	-0,084
-635,838	-141,620	0,123	0,009
-634,824	-115,758	-0,130	0,018
-633,809	-200,000	-0,000	-0,016
-632,795	-46,534	-0,084	-0,030
-631,780	-200,000	0,004	0,032
-630,765	-73,976	-0,107	-0,029
-629,751	500,577	0,063	0,109
-628,736	-200,000	0,005	0,068
-627,722	-200,000	0,008	-0,106
-626,707	136,699	-0,049	0,048
-625,692	-200,000	-0,005	0,024
-624,678	-200,000	0,022	0,080
-623,663	800,000	-0,032	-0,085
-622,649	800,000	-0,062	-0,133
-621,634	422,746	-0,058	-0,092
-620,619	-155,615	0,070	-0,003
-619,605	-200,000	-0,003	-0,075
-618,590	51,717	0,035	-0,025
-617,576	-57,571	-0,119	0,038
-616,561	71,274	0,145	-0,112
-615,546	-19,420	-0,103	0,047
-614,532	-200,000	0,029	-0,121
-613,517	28,770	-0,120	-0,075
-612,503	472,258	-0,046	-0,078
-611,488	-200,000	0,021	-0,116
-610,474	240,538	0,034	-0,043
-609,459	279,972	-0,121	0,161
-608,444	-200,000	0,014	0,085
-607,430	800,000	-0,020	-0,043
-606,415	14,451	0,052	-0,030
-605,401	800,000	0,034	-0,103
-604,386	-69,166	0,098	-0,028
-603,371	-200,000	-0,005	-0,093
-602,357	-68,081	-0,127	-0,036
-601,342	160,671	-0,046	0,047
-600,328	445,677	0,040	-0,066
-599,313	-200,000	-0,010	-0,152
-598,298	82,601	-0,082	-0,066
-597,284	-129,087	0,094	-0,010
-596,269	-200,000	-0,009	0,073
-595,255	391,845	-0,033	0,051
-594,240	227,384	-0,059	0,071
-593,225	-31,267	-0,141	0,059
-592,211	481,234	-0,100	-0,169
-591,196	-200,000	-0,013	0,091
-590,182	778,200	0,048	0,098
-589,167	800,000	-0,034	0,091
-588,152	51,069	0,117	0,082
-587,138	-200,000	-0,001	0,050
-586,123	-200,000	0,019	0,064
-585,109	-124,138	-0,108	-0,012
-584,094	349,812	-0,043	0,064
-583,079	327,757	-0,065	0,093
-582,065	-200,000	-0,015	0,110
-581,050	2,992	-0,035	0,019
-580,036	492,848	0,095	-0,162
-579,021	643,966	0,051	-0,096
-578,006	-46,933	-0,190	0,069
-576,992	166,579	-0,111	0,117
-575,977	-22,371	0,053	0,024
-574,963	-131,143	0,092	0,009
-573,948	97,391	-0,045	0,038
-572,934	42,056	-0,117	-0,078
-571,919	26,049	-0,069	-0,043
-570,904	676,334	0,086	-0,167
-569,890	519,560	0,066	-0,115
-568,875	-68,800	0,058	0,016
-567,861	800,000	-0,016	0,037
-566,846	250,242	0,059	0,074
-565,831	476,610	0,056	-0,093
-564,817	94,958	-0,100	-0,084
-563,802	200,514	0,071	-0,081
-562,788	331,417	-0,010	-0,014
-561,773	-200,000	0,028	0,123
-560,758	-200,000	-0,031	0,162
-559,744	800,000	0,036	0,091
-558,729	-55,048	0,136	0,045
-557,715	-200,000	0,022	0,101
-556,700	-65,610	-0,140	-0,041
-555,685	-114,483	0,035	0,005
-554,671	195,582	-0,019	-0,022
-553,656	800,000	0,023	0,052
-552,642	150,929	0,108	0,109
-551,627	-18,809	0,157	-0,072
-550,612	527,435	0,046	-0,081
-549,598	153,435	-0,093	-0,094
-548,583	-57,841	-0,031	0,010
-547,569	221,503	0,052	-0,062
-546,554	-37,802	0,068	0,027
-545,539	-200,000	-0,019	0,100
-544,525	-200,000	-0,008	0,065
-543,510	-200,000	-0,012	0,072
-542,496	48,352	0,098	0,068
-541,481	-200,000	-0,011	-0,083
-540,466	800,000	0,024	0,076
-539,452	-138,032	0,123	0,010
-538,437	18,328	0,054	0,032
-537,423	-81,062	-0,082	0,020
-536,408	-200,000	-0,001	0,066
-535,393	-200,000	0,005	0,106
-534,379	213,741	0,074	0,087
-533,364	-80,425	-0,060	-0,015
-532,350	-200,000	0,006	0,052
-531,335	506,592	-0,045	-0,078
-530,321	156,973	0,123	0,126
-529,306	-42,083	-0,045	-0,017
-528,291	254,783	-0,067	-0,085
-527,277	16,273	0,073	-0,043
-526,262	800,000	0,051	0,106
-525,248	288,470	0,051	-0,069
-524,233	-200,000	-0,001	0,048
-523,218	-200,000	-0,007	-0,102
-522,204	-200,000	-0,037	-0,130
-521,189	233,701	0,017	-0,021
-520,175	-200,000	-0,003	0,080
-519,160	262,052	-0,047	0,061
-518,145	-72,305	0,041	0,011
-517,131	-200,000	0,013	0,087
-516,116	800,000	0,052	-0,124
-515,102	-200,000	-0,002	-0,126
-514,087	743,797	-0,033	-0,066
-513,072	-138,482	0,092	-0,007
-512,058	114,910	-0,063	0,057
-511,043	-26,165	-0,019	0,008
-510,029	-200,000	-0,004	-0,033
-509,014	-200,000	0,005	0,027
-507,999	361,645	-0,046	0,068
-506,985	116,690	0,066	-0,060
-505,970	800,000	0,037	-0,108
-504,956	176,214	0,073	0,078
-503,941	800,000	0,022	0,056
-502,926	347,542	0,061	0,089
-501,912	286,006	0,038	-0,051
-500,897	-200,000	0,006	0,026
-499,883	800,000	-0,043	-0,118
-498,868	800,000	-0,056	-0,162
-497,853	-63,260	0,161	0,049
-496,839	-111,462	0,098	-0,015
-495,824	-200,000	0,015	-0,056
-494,810	800,000	-0,023	0,049
-493,795	-11,102	-0,073	-0,035
-492,781	-40,234	0,129	-0,049
-491,766	96,169	-0,175	-0,148
-490,751	-94,938	-0,056	0,011
-489,737	-200,000	0,042	-0,215
-488,722	673,538	-0,043	0,083
-487,708	136,552	0,137	0,132
-486,693	272,369	-0,102	0,133
-485,678	-56,769	-0,141	0,046
-484,664	158,126	0,046	-0,047
-483,649	139,529	-0,112	-0,109
-482,635	-88,941	0,064	0,014
-481,620	205,441	0,053	-0,060
-480,605	800,000	-0,028	0,059
-479,591	-194,585	0,119	-0,001
-478,576	-200,000	-0,003	-0,079
-477,562	-6,249	0,070	0,035
-476,547	0,115	-0,149	0,078
-475,532	99,382	0,032	0,027
-474,518	22,906	0,091	-0,055
-473,503	256,926	-0,014	-0,018
-472,489	390,299	-0,053	0,082
-471,474	-200,000	0,053	0,209
-470,459	36,896	-0,047	-0,030
-469,445	-200,000	-0,024	-0,083
-468,430	30,492	-0,035	-0,022
-467,416	-65,403	0,090	-0,027
-466,401	-200,000	-0,009	-0,070
-465,386	598,371	-0,044	0,082
-464,372	654,564	-0,049	0,093
-463,357	800,000	0,063	-0,189
-462,343	74,546	-0,028	0,022
-461,328	-84,008	-0,015	-0,003
-460,313	-200,000	0,010	0,041
-459,299	-200,000	-0,001	0,047
-458,284	800,000	0,052	0,137
-457,270	-200,000	0,009	-0,052
-456,255	-192,389	0,069	-0,000
-455,241	-59,611	-0,030	-0,009
-454,226	9,176	-0,085	-0,047
-453,211	59,651	0,019	-0,014
-452,197	-168,275	-0,048	-0,001
-451,182	-200,000	0,012	0,086
-450,168	278,509	-0,028	0,037
-449,153	571,619	0,025	-0,045
-448,138	-200,000	0,002	-0,025
-447,124	-157,940	0,017	0,001
-446,109	426,982	-0,095	-0,152
-445,095	254,148	0,019	-0,024
-444,080	105,661	-0,071	-0,061
-443,065	99,215	-0,092	-0,079
-442,051	490,644	-0,080	-0,136
-441,036	-159,185	-0,038	-0,002
-440,022	-72,992	-0,042	0,011
-439,007	250,001	-0,005	0,006
-437,992	421,780	0,029	-0,045
-436,978	-15,798	0,110	0,052
-435,963	800,000	-0,052	0,122
-434,949	43,748	-0,054	-0,037
-433,934	480,580	0,038	-0,064
-432,919	-200,000	0,020	-0,133
-431,905	-200,000	0,022	-0,155
-430,890	77,749	-0,038	0,030
-429,876	-200,000	0,038	0,215
-428,861	114,929	-0,060	-0,054
-427,846	72,663	0,046	0,035
-426,832	-154,080	0,099	-0,005
-425,817	63,353	0,045	-0,033
-424,803	-200,000	0,032	-0,148
-423,788	39,918	-0,070	0,047
-422,773	800,000	0,038	-0,079
-421,759	-200,000	-0,007	0,071
-420,744	84,083	-0,093	-0,074
-419,730	800,000	0,014	-0,030
-418,715	-194,724	-0,208	0,001
-417,701	-130,674	0,019	-0,002
-416,686	-158,902	0,037	-0,002
-415,671	256,641	0,072	0,091
-414,657	800,000	0,016	0,048
-413,642	486,175	-0,015	0,025
-412,628	-200,000	-0,019	-0,075
-411,613	-200,000	-0,003	-0,013
-410,598	31,191	-0,067	-0,042
-409,584	-200,000	-0,001	0,183
-408,569	129,301	0,016	-0,015
-407,555	129,441	-0,067	0,063
-406,540	800,000	0,035	-0,071
-405,525	-106,328	-0,134	-0,022
-404,511	238,894	-0,090	-0,110
-403,496	113,202	-0,051	-0,045
-402,482	-200,000	0,051	-0,183
-401,467	-200,000	-0,006	-0,068
-400,452	-200,000	0,022	-0,159
-399,438	-200,000	0,001	0,011
-398,423	800,000	0,014	0,045
-397,409	93,500	-0,031	-0,026
-396,394	192,909	-0,128	-0,143
-395,379	96,306	0,069	0,058
-394,365	-28,161	0,094	0,040
-393,350	-28,307	-0,074	0,031
-392,336	-68,187	-0,031	0,009
-391,321	-200,000	-0,019	-0,182
-390,306	247,029	0,083	0,103
-389,292	-200,000	0,015	-0,079
-388,277	-200,000	-0,005	-0,057
-387,263	-200,000	-0,031	-0,133
-386,248	800,000	-0,028	0,057
-385,233	800,000	-0,026	0,074
-384,219	15,989	-0,071	-0,041
-383,204	-200,000	-0,002	0,097
-382,190	-200,000	0,004	0,054
-381,175	-82,111	-0,152	-0,036
-380,160	800,000	-0,024	-0,076
-379,146	300,082	0,141	0,192
-378,131	-87,112	-0,167	0,037
-377,117	-200,000	0,007	-0,061
-376,102	-200,000	-0,023	-0,099
-375,088	-5,005	-0,073	0,037
-374,073	-165,861	-0,170	0,005
-373,058	-200,000	0,001	-0,059
-372,044	200,044	-0,049	-0,055
-371,029	-200,000	0,019	0,121
-370,015	-128,593	-0,045	0,005
-369,000	12,601	0,017	0,009
-367,985	169,443	-0,069	-0,072
-366,971	205,412	0,053	0,060
-365,956	-123,033	0,196	0,023
-364,942	800,000	-0,040	-0,104
-363,927	800,000	0,021	0,062
-362,912	255,130	-0,099	-0,124
-361,898	-50,902	0,124	-0,043
-360,883	-149,203	-0,081	-0,005
-359,869	800,000	-0,023	0,053
-358,854	-18,976	0,082	-0,037
-357,839	-72,795	0,098	-0,026
-356,825	14,990	-0,042	-0,024
-355,810	800,000	-0,006	0,013
-354,796	-118,886	-0,087	-0,011
-353,781	607,160	0,074	0,136
-352,766	-62,467	-0,119	0,036
-351,752	-200,000	0,009	-0,039
-350,737	-171,125	0,061	0,001
-349,723	800,000	0,010	0,025
-348,708	-174,743	0,076	-0,002
-347,693	-72,635	0,040	-0,011
-346,679	-200,000	0,001	0,016
-345,664	40,404	-0,160	-0,105
-344,650	-47,853	-0,038	0,013
-343,635	89,943	0,086	0,071
-342,620	90,353	0,102	-0,083
-341,606	41,023	0,095	0,063
-340,591	-117,414	0,041	-0,005
-339,577	-141,402	-0,118	0,009
-338,562	100,559	-0,064	-0,055
-337,548	79,059	0,102	0,080
-336,533	-74,227	0,077	-0,020
-335,518	-50,344	-0,158	0,055
-334,504	-200,000	0,038	-0,132
-333,489	-62,222	-0,041	-0,013
-332,475	-66,822	0,038	-0,011
-331,460	800,000	0,036	0,077
-330,445	-34,202	-0,022	-0,009
-329,431	-142,701	0,059	-0,004
-328,416	-14,237	0,081	-0,038
-327,402	575,372	0,006	0,011
-326,387	-200,000	-0,013	0,048
-325,372	-39,859	0,130	0,050
-324,358	249,200	-0,109	-0,136
-323,343	89,213	0,037	0,030
-322,329	-151,482	0,085	-0,005
-321,314	481,909	0,058	0,097
-320,299	-135,906	0,056	-0,005
-319,285	175,575	0,087	0,093
-318,270	-200,000	0,022	-0,138
-317,256	-200,000	0,006	-0,056
-316,241	800,000	-0,049	-0,149
-315,226	18,257	0,062	-0,036
-314,212	574,539	-0,040	-0,072
-313,197	694,398	0,032	-0,062
-312,183	-130,818	-0,058	0,006
-311,168	-200,000	-0,053	-0,211
-310,153	280,716	-0,059	0,078
-309,139	-200,000	0,002	-0,036
-308,124	-200,000	-0,012	0,081
-307,110	-200,000	0,046	0,153
-306,095	-200,000	0,036	0,122
-305,080	-151,072	-0,163	0,009
-304,066	91,075	-0,005	-0,004
-303,051	800,000	-0,036	-0,075
-302,037	-54,775	-0,184	-0,060
-301,022	213,011	0,070	-0,081
-300,008	17,174	0,104	-0,060
-298,993	-44,017	0,025	0,009
-297,978	800,000	-0,044	-0,098
-296,964	-79,391	0,028	0,007
-295,949	-69,027	0,035	0,010
-294,935	-144,883	-0,088	0,006
-293,920	338,314	0,097	0,138
-292,905	800,000	0,044	0,134
-291,891	-200,000	-0,003	-0,042
-290,876	483,797	0,071	0,118
-289,862	-200,000	0,015	0,058
-288,847	80,966	0,084	-0,066
-287,832	-149,336	-0,078	0,005
-286,818	19,410	0,121	0,071
-285,803	-125,080	0,107	0,012
-284,789	349,139	0,095	0,137
-283,774	17,716	-0,010	0,006
-282,759	-114,580	-0,028	0,004
-281,745	204,224	-0,041	0,047
-280,730	90,515	-0,028	-0,023
-279,716	77,676	-0,057	-0,044
-278,701	-58,405	0,112	-0,035
-277,686	223,931	0,076	0,089
-276,672	21,716	-0,145	0,086
-275,657	94,655	0,048	-0,040
-274,643	214,179	-0,047	-0,054
-273,628	-178,764	0,101	-0,002
-272,613	-200,000	-0,014	0,080
-271,599	-200,000	0,042	-0,182
-270,584	-95,348	0,094	-0,018
-269,570	-200,000	-0,025	0,097
-268,555	60,096	-0,152	0,110
-267,540	91,845	0,095	-0,079
-266,526	49,051	-0,053	-0,036
-265,511	159,377	-0,032	-0,033
-264,497	576,271	-0,033	0,059
-263,482	-145,938	-0,042	0,003
-262,467	121,356	-0,070	0,064
-261,453	-200,000	0,022	0,139
-260,438	628,251	-0,068	-0,125
-259,424	263,151	0,098	0,125
-258,409	-152,729	-0,224	-0,011
-257,395	322,402	0,073	0,102
-256,380	-200,000	-0,002	-0,088
-255,365	403,114	0,065	-0,101
-254,351	160,441	0,114	-0,116
-253,336	-53,678	-0,078	-0,026
-252,322	-64,537	-0,058	0,017
-251,307	132,128	0,084	0,079
-250,292	-114,338	-0,060	-0,008
-249,278	195,771	0,081	-0,091
-248,263	-200,000	0,005	0,039
-247,249	63,055	-0,091	-0,066
-246,234	800,000	-0,059	0,139
-245,219	-200,000	0,041	-0,159
-244,205	-200,000	-0,013	-0,103
-243,190	800,000	-0,066	0,173
-242,176	105,705	0,065	0,056
-241,161	800,000	-0,041	-0,111
-240,146	77,495	-0,035	0,027
-239,132	567,102	0,066	0,117
-238,117	-80,808	-0,093	-0,022
-237,103	-37,697	-0,126	-0,049
-236,088	44,539	0,088	0,059
-235,073	-44,488	0,083	-0,030
-234,059	-125,550	0,257	0,028
-233,044	130,161	0,044	0,041
-232,030	-93,229	0,100	0,020
-231,015	-13,317	-0,051	-0,024
-230,000	-200,000	0,008	-0,093
-228,986	311,407	-0,039	0,053
-227,971	118,631	0,052	-0,047
-226,957	193,257	0,024	-0,026
-225,942	90,508	-0,047	-0,038
-224,927	554,203	0,051	0,090
-223,913	22,770	-0,143	0,085
-222,898	-106,272	-0,042	-0,007
-221,884	12,374	-0,080	-0,045
-220,869	413,505	-0,044	0,069
-219,855	145,348	-0,110	-0,108
-218,840	-200,000	-0,013	0,116
-217,825	-63,618	0,173	0,052
-216,811	-92,701	-0,045	-0,009
-215,796	291,315	0,046	0,061
-214,782	273,866	-0,026	0,034
-213,767	-99,931	0,135	-0,024
-212,752	57,328	0,198	-0,141
-211,738	0,280	0,124	0,065
-210,723	557,255	0,079	-0,139
-209,709	-200,000	-0,019	0,097
-208,694	609,247	0,060	-0,109
-207,679	-60,815	-0,130	-0,040
-206,665	-10,084	-0,078	0,038
-205,650	-66,852	-0,070	0,020
-204,636	-10,658	0,104	-0,050
-203,621	-121,685	0,070	-0,008
-202,606	545,959	0,033	0,058
-201,592	-133,197	-0,078	0,007
-200,577	213,027	-0,089	0,103
-199,563	204,553	0,165	0,187
-198,548	240,181	-0,061	0,075
-197,533	-200,000	0,023	0,090
-196,519	494,117	-0,102	0,171
-195,504	800,000	0,063	0,186
-194,490	363,945	-0,110	-0,162
-193,475	-200,000	-0,036	-0,132
-192,460	-200,000	0,008	-0,061
-191,446	-50,741	-0,018	-0,006
-190,431	-117,558	0,056	-0,007
-189,417	254,265	0,105	0,132
-188,402	1,583	0,121	0,063
-187,387	800,000	-0,057	-0,167
-186,373	-164,934	0,110	0,004
-185,358	49,737	-0,031	0,021
-184,344	250,664	0,053	0,065
-183,329	229,219	0,091	0,109
-182,315	-70,730	-0,080	0,022
-181,300	-116,525	-0,101	0,013
-180,285	-200,000	0,007	-0,098
-179,271	132,241	0,054	0,051
-178,256	-200,000	-0,012	0,114
-177,242	345,681	-0,032	-0,046
-176,227	46,771	0,149	0,101
-175,212	60,409	-0,105	0,076
-174,198	274,660	-0,050	0,065
-173,183	383,709	-0,036	-0,055
-172,169	-200,000	-0,023	0,111
-171,154	296,136	0,063	-0,085
-170,139	-69,839	-0,082	0,023
-169,125	180,847	0,089	-0,095
-168,110	414,183	0,017	-0,026
-167,096	800,000	-0,056	-0,124
-166,081	-200,000	0,010	-0,034
-165,066	800,000	-0,088	-0,184
-164,052	71,615	-0,025	-0,019
-163,037	427,628	0,064	0,102
-162,023	122,610	0,053	-0,049
-161,008	-124,371	-0,064	0,007
-159,993	-17,282	0,098	0,045
-158,979	800,000	0,030	-0,085
-157,964	682,046	-0,035	-0,067
-156,950	-30,799	-0,039	-0,016
-155,935	530,147	0,067	-0,115
-154,920	109,261	0,124	0,108
-153,906	800,000	0,075	0,195
-152,891	529,256	0,076	0,132
-151,877	18,255	-0,082	0,048
-150,862	-174,344	-0,117	-0,002
-149,847	-101,886	0,068	-0,012
-148,833	41,436	0,047	-0,031
-147,818	375,981	-0,075	-0,111
-146,804	800,000	0,006	0,016
-145,789	-27,529	-0,053	-0,022
-144,775	800,000	-0,016	0,035
-143,760	337,200	0,126	-0,179
-142,745	50,827	0,111	-0,076
-141,731	-200,000	-0,006	0,084
-140,716	-200,000	-0,015	0,211
-139,702	291,270	0,043	0,057
-138,687	-200,000	0,042	0,181
-137,672	-200,000	0,038	0,127
-136,658	800,000	-0,033	0,099
-135,643	421,819	-0,048	0,075
-134,629	-127,673	0,106	0,011
-133,614	-200,000	0,003	0,020
-132,599	-200,000	-0,026	-0,094
-131,585	-200,000	-0,005	0,057
-130,570	-70,609	-0,068	0,019
-129,556	185,486	-0,091	0,098
-128,541	428,810	0,069	0,110
-127,526	5,906	0,048	-0,026
-126,512	87,046	0,069	0,056
-125,497	-52,135	0,077	0,026
-124,483	-118,275	-0,048	0,006
-123,468	800,000	0,037	-0,107
-122,453	800,000	-0,005	-0,015
-121,439	166,273	0,053	-0,054
-120,424	80,801	-0,002	-0,002
-119,410	-129,479	0,107	0,011
