DTS Sentinel unit serial number:	SN410029Multiplexer serial number:	ORYXHardware model number:	OX2-SRSoftware version number:	ORYX F/W v4,00 Oryx Data Collector v3.7.2.0data status	okinstallation	B4 Nyhavnadifferential loss correction	single-endedforward channel	channel 2reverse channel	N/Adate	2023/12/16time	02:30:13forward acquisition time	300,00reverse acquisition time	0,00gamma	499,1914k internal	0,3128k external	0,3128temperature offset calibration	1,0000default loss term (dB/km)	0,3820temperature slope calibration	1,0000multiplexer offset coefficient	1,0000multiplexer slope coefficient	1,0000fibre end	0,00T internal ref (°C)	21,95T ext. ref 1 (°C)	7,07T ext. ref 2 (°C)	7,26length (m)	temperature (°C)	Stokes	anti-Stokes-744,400	-41,778	-0,006	-0,002
-743,385	-110,159	-0,341	0,052
-742,371	345,795	-0,014	0,020
-741,356	-200,000	-0,125	-0,000
-740,342	-53,508	0,069	-0,023
-739,327	47,936	-0,193	0,134
-738,312	788,976	0,051	0,106
-737,298	38,292	-0,261	0,172
-736,283	-137,540	0,101	-0,008
-735,269	-77,658	-0,114	0,029
-734,254	690,250	0,060	-0,117
-733,239	-2,895	-0,339	-0,175
-732,225	-200,000	0,014	-0,088
-731,210	-200,000	0,013	0,153
-730,196	-200,000	-0,018	-0,083
-729,181	440,402	-0,034	0,055
-728,167	272,306	-0,014	-0,019
-727,152	-200,000	0,020	-0,082
-726,137	83,425	-0,076	0,061
-725,123	133,709	-0,118	-0,113
-724,108	113,944	0,046	-0,041
-723,094	89,459	-0,113	-0,094
-722,079	741,231	0,030	-0,060
-721,064	643,892	-0,016	0,030
-720,050	-200,000	0,014	0,048
-719,035	23,514	-0,127	-0,078
-718,021	800,000	-0,053	-0,144
-717,006	-7,019	-0,120	0,060
-715,991	561,738	-0,076	-0,138
-714,977	-6,243	-0,140	-0,071
-713,962	50,932	-0,084	-0,059
-712,948	-2,654	-0,032	0,016
-711,933	-200,000	0,008	0,033
-710,918	-113,878	-0,087	0,012
-709,904	7,011	-0,058	0,032
-708,889	19,674	0,049	0,029
-707,875	464,719	-0,011	0,019
-706,860	453,111	-0,055	-0,090
-705,845	-55,517	0,128	-0,043
-704,831	-178,821	0,003	0,000
-703,816	201,774	0,047	-0,053
-702,802	-26,188	-0,057	-0,025
-701,787	-200,000	0,014	0,084
-700,772	800,000	-0,014	0,037
-699,758	519,446	-0,027	-0,047
-698,743	800,000	0,041	0,111
-697,729	-200,000	-0,038	-0,131
-696,714	-119,458	0,021	0,003
-695,699	429,630	-0,040	-0,065
-694,685	800,000	0,057	-0,122
-693,670	-200,000	0,050	-0,167
-692,656	-200,000	-0,006	-0,104
-691,641	-200,000	0,001	-0,119
-690,627	-190,424	0,061	0,000
-689,612	393,607	-0,041	-0,063
-688,597	46,126	-0,058	-0,040
-687,583	-76,435	-0,115	-0,030
-686,568	-134,985	0,087	-0,008
-685,554	-200,000	-0,011	-0,114
-684,539	114,891	0,072	0,065
-683,524	800,000	0,021	-0,053
-682,510	-49,017	-0,038	0,013
-681,495	-23,366	-0,087	-0,039
-680,481	-17,467	0,072	0,033
-679,466	800,000	0,022	-0,057
-678,451	-200,000	-0,025	-0,144
-677,437	-172,238	0,087	-0,002
-676,422	-110,737	-0,171	0,026
-675,408	-38,727	-0,101	0,039
-674,393	398,638	-0,068	-0,106
-673,378	56,751	0,016	0,012
-672,364	-112,494	-0,208	0,031
-671,349	138,362	-0,071	-0,069
-670,335	-13,000	-0,066	0,032
-669,320	53,681	-0,099	0,071
-668,305	68,074	0,038	-0,029
-667,291	165,500	-0,048	-0,050
-666,276	-200,000	-0,014	-0,095
-665,262	42,677	-0,023	-0,016
-664,247	216,609	-0,025	-0,030
-663,232	-200,000	0,004	-0,187
-662,218	526,659	-0,020	-0,035
-661,203	40,408	0,027	0,018
-660,189	-128,362	-0,021	-0,002
-659,174	800,000	0,034	-0,099
-658,159	-200,000	-0,012	-0,052
-657,145	19,365	-0,051	-0,030
-656,130	-47,563	-0,050	-0,018
-655,116	800,000	-0,014	0,029
-654,101	-200,000	0,039	-0,131
-653,086	-200,000	0,017	-0,160
-652,072	201,501	0,060	-0,069
-651,057	-200,000	0,011	0,064
-650,043	-200,000	-0,024	-0,093
-649,028	33,989	0,060	0,039
-648,014	204,204	0,015	0,018
-646,999	122,597	-0,062	-0,058
-645,984	-69,785	0,011	-0,003
-644,970	-200,000	-0,013	0,065
-643,955	-106,662	-0,131	-0,021
-642,941	261,986	0,043	-0,055
-641,926	-15,078	-0,119	0,056
-640,911	-200,000	-0,005	-0,096
-639,897	-200,000	0,016	0,096
-638,882	-200,000	-0,001	0,027
-637,868	-62,237	0,029	0,009
-636,853	-59,604	-0,100	-0,032
-635,838	141,221	-0,066	0,065
-634,824	71,099	-0,017	-0,013
-633,809	-81,781	0,141	0,034
-632,795	209,492	0,103	-0,120
-631,780	228,092	0,058	-0,070
-630,765	454,599	0,017	0,029
-629,751	-200,000	0,015	0,105
-628,736	800,000	0,022	0,064
-627,722	347,276	0,070	-0,103
-626,707	800,000	0,039	-0,090
-625,692	793,158	0,046	-0,095
-624,678	237,619	-0,031	-0,039
-623,663	-150,116	0,075	-0,004
-622,649	360,015	0,035	0,052
-621,634	-200,000	-0,029	-0,135
-620,619	-200,000	0,009	-0,059
-619,605	-25,878	0,132	0,057
-618,590	-200,000	-0,004	0,045
-617,576	-200,000	0,015	0,159
-616,561	-200,000	-0,013	0,078
-615,546	213,052	0,125	-0,147
-614,532	-115,735	-0,077	-0,011
-613,517	-200,000	-0,005	-0,150
-612,503	679,099	0,019	0,037
-611,488	800,000	0,022	0,053
-610,474	800,000	0,008	0,025
-609,459	800,000	0,016	0,052
-608,444	-164,049	0,135	0,005
-607,430	-68,585	-0,140	0,040
-606,415	-99,889	-0,048	-0,009
-605,401	330,235	0,100	-0,142
-604,386	670,143	0,047	0,091
-603,371	-200,000	-0,011	0,079
-602,357	-149,625	0,121	0,007
-601,342	165,722	0,035	-0,037
-600,328	-200,000	-0,024	-0,154
-599,313	44,112	-0,064	0,043
-598,298	-200,000	-0,030	-0,130
-597,284	-17,883	-0,060	0,028
-596,269	177,129	-0,074	0,080
-595,255	800,000	0,042	0,113
-594,240	800,000	0,018	-0,042
-593,225	800,000	-0,013	0,040
-592,211	72,173	-0,162	-0,124
-591,196	800,000	0,060	-0,130
-590,182	777,500	-0,019	-0,039
-589,167	-200,000	-0,035	0,122
-588,152	-23,530	0,101	0,045
-587,138	421,601	-0,026	0,041
-586,123	-164,791	-0,039	-0,001
-585,109	-200,000	0,048	-0,169
-584,094	121,075	0,062	-0,057
-583,079	-81,049	-0,125	-0,030
-582,065	-200,000	0,009	-0,065
-581,050	166,409	0,019	-0,020
-580,036	-131,152	-0,105	0,010
-579,021	-134,772	-0,051	-0,004
-578,006	-34,599	-0,135	-0,054
-576,992	-200,000	-0,021	0,086
-575,977	119,977	0,112	0,103
-574,963	225,605	-0,067	0,081
-573,948	1,964	-0,086	0,046
-572,934	-200,000	-0,008	0,049
-571,919	-144,985	0,135	0,009
-570,904	-88,874	-0,045	0,010
-569,890	119,801	0,029	0,026
-568,875	6,423	-0,044	0,024
-567,861	-116,309	-0,037	0,005
-566,846	121,601	-0,037	-0,034
-565,831	440,030	-0,016	-0,027
-564,817	145,419	-0,028	-0,028
-563,802	108,631	0,048	-0,043
-562,788	-200,000	0,000	0,073
-561,773	175,177	-0,028	0,030
-560,758	44,428	0,114	0,077
-559,744	58,170	0,131	-0,095
-558,729	90,886	-0,042	0,035
-557,715	-200,000	-0,008	-0,257
-556,700	48,596	-0,114	-0,079
-555,685	180,875	-0,151	-0,164
-554,671	239,052	0,050	-0,062
-553,656	92,903	0,128	0,107
-552,642	215,349	0,079	0,093
-551,627	-87,138	0,122	-0,027
-550,612	-191,395	0,022	0,000
-549,598	-52,250	-0,146	-0,050
-548,583	261,627	-0,027	-0,034
-547,569	131,922	0,023	-0,022
-546,554	-200,000	-0,028	0,091
-545,539	-24,986	-0,067	-0,029
-544,525	144,390	0,027	-0,027
-543,510	-200,000	-0,003	0,012
-542,496	-16,573	-0,086	0,040
-541,481	-149,060	-0,036	0,002
-540,466	-200,000	0,015	-0,150
-539,452	214,303	0,052	-0,061
-538,437	429,044	-0,093	0,149
-537,423	26,513	-0,086	-0,053
-536,408	16,442	-0,064	0,037
-535,393	800,000	-0,064	-0,144
-534,379	800,000	-0,040	-0,102
-533,364	428,860	-0,051	-0,081
-532,350	-48,679	-0,085	-0,030
-531,335	-68,232	0,060	0,017
-530,321	68,419	0,030	-0,023
-529,306	-60,121	-0,087	-0,027
-528,291	207,593	-0,110	-0,127
-527,277	57,791	0,032	0,023
-526,262	15,155	0,047	0,027
-525,248	18,382	0,061	0,036
-524,233	60,688	0,070	0,051
-523,218	53,827	0,022	0,015
-522,204	800,000	-0,035	0,103
-521,189	13,800	-0,150	-0,086
-520,175	361,991	-0,032	-0,047
-519,160	3,923	-0,079	0,042
-518,145	283,816	0,075	0,100
-517,131	9,661	0,134	0,075
-516,116	-200,000	0,002	0,024
-515,102	-200,000	0,015	0,053
-514,087	800,000	-0,023	-0,062
-513,072	361,957	-0,052	-0,077
-512,058	-52,740	-0,174	-0,059
-511,043	636,926	0,023	0,044
-510,029	-18,839	0,089	0,041
-509,014	800,000	0,030	-0,077
-507,999	-141,258	-0,123	0,009
-506,985	64,207	0,019	0,014
-505,970	-143,956	-0,126	-0,009
-504,956	800,000	0,013	-0,037
-503,941	94,304	0,085	-0,071
-502,926	800,000	-0,024	0,054
-501,912	-146,151	-0,128	-0,008
-500,897	-143,009	-0,068	0,005
-499,883	175,925	-0,051	0,054
-498,868	-200,000	0,001	0,078
-497,853	-102,608	0,094	0,016
-496,839	-69,855	0,093	-0,026
-495,824	444,892	0,058	0,093
-494,810	-93,128	0,135	0,027
-493,795	666,164	0,030	-0,058
-492,781	662,442	-0,039	0,075
-491,766	-162,404	0,047	0,002
-490,751	-73,543	0,103	-0,028
-489,737	641,329	-0,026	-0,049
-488,722	-200,000	-0,001	0,065
-487,708	800,000	-0,045	0,095
-486,693	-200,000	-0,002	0,056
-485,678	-58,357	0,088	-0,028
-484,664	60,486	-0,076	0,055
-483,649	61,970	-0,072	0,053
-482,635	23,888	0,076	-0,046
-481,620	452,322	0,033	0,054
-480,605	196,472	-0,006	-0,007
-479,591	106,732	-0,011	0,009
-478,576	128,452	0,072	0,068
-477,562	341,128	0,052	-0,075
-476,547	317,802	0,019	0,027
-475,532	164,671	0,105	-0,109
-474,518	-8,772	-0,049	-0,024
-473,503	44,153	-0,090	0,061
-472,489	-200,000	-0,005	-0,066
-471,474	-38,893	0,078	0,030
-470,459	-121,966	-0,055	0,007
-469,445	118,922	-0,050	-0,045
-468,430	-82,800	0,178	0,042
-467,416	-93,612	-0,170	-0,034
-466,401	0,536	0,055	-0,029
-465,386	-200,000	-0,041	0,143
-464,372	307,171	0,047	0,065
-463,357	-200,000	-0,013	0,056
-462,343	487,934	-0,032	-0,054
-461,328	98,246	0,045	-0,038
-460,313	-94,740	0,079	0,016
-459,299	293,855	0,051	-0,068
-458,284	3,734	0,120	-0,064
-457,270	-123,916	-0,017	-0,002
-456,255	5,223	0,031	0,017
-455,241	22,425	-0,093	0,056
-454,226	-200,000	-0,007	-0,024
-453,211	410,660	-0,057	-0,090
-452,197	-200,000	0,004	-0,074
-451,182	32,507	-0,034	0,022
-450,168	-200,000	-0,001	-0,057
-449,153	-152,590	-0,066	-0,003
-448,138	-200,000	-0,005	0,054
-447,124	431,027	-0,070	-0,113
-446,109	595,053	0,034	-0,063
-445,095	162,255	0,056	0,057
-444,080	51,459	-0,119	-0,083
-443,065	-36,694	0,023	-0,009
-442,051	39,648	-0,029	0,019
-441,036	622,696	-0,037	0,069
-440,022	147,230	0,075	-0,074
-439,007	-200,000	0,006	-0,098
-437,992	-130,693	-0,153	0,015
-436,978	478,591	0,057	0,096
-435,963	720,558	0,049	-0,096
-434,949	410,575	-0,026	0,040
-433,934	800,000	-0,025	-0,080
-432,919	-200,000	0,000	0,044
-431,905	60,999	-0,055	0,040
-430,890	58,549	0,070	0,051
-429,876	-200,000	0,053	0,181
-428,861	800,000	-0,050	0,142
-427,846	-5,107	-0,129	0,065
-426,832	121,040	-0,055	0,051
-425,817	800,000	0,061	-0,173
-424,803	244,865	0,070	-0,086
-423,788	263,424	-0,033	0,042
-422,773	-200,000	0,005	0,148
-421,759	-34,345	-0,096	-0,039
-420,744	-127,331	-0,081	0,009
-419,730	614,887	-0,050	0,093
-418,715	108,822	0,042	0,037
-417,701	229,940	0,049	-0,059
-416,686	97,241	-0,023	0,019
-415,671	-108,710	-0,122	-0,019
-414,657	-37,483	-0,107	0,042
-413,642	470,928	-0,024	0,040
-412,628	-7,366	0,090	-0,045
-411,613	-200,000	-0,005	-0,091
-410,598	-44,088	0,024	-0,009
-409,584	-42,673	-0,078	0,029
-408,569	7,612	-0,039	-0,022
-407,555	311,543	0,024	0,034
-406,540	-43,709	0,048	0,018
-405,525	43,577	-0,122	0,082
-404,511	-23,006	0,006	-0,003
-403,496	-200,000	-0,000	-0,065
-402,482	-21,323	-0,015	0,007
-401,467	84,650	0,021	-0,017
-400,452	-158,319	0,107	0,004
-399,438	-28,286	0,141	0,059
-398,423	-70,021	0,067	-0,019
-397,409	-23,318	-0,098	-0,043
-396,394	800,000	0,023	-0,074
-395,379	9,583	-0,109	-0,060
-394,365	36,201	-0,050	-0,033
-393,350	-167,750	0,086	-0,002
-392,336	-43,067	-0,068	-0,025
-391,321	-200,000	-0,032	0,136
-390,306	-38,463	-0,091	0,035
-389,292	334,721	-0,055	-0,078
-388,277	7,638	-0,045	-0,025
-387,263	98,915	-0,097	-0,082
-386,248	184,127	0,054	0,058
-385,233	725,635	0,062	0,121
-384,219	800,000	-0,012	-0,039
-383,204	800,000	-0,025	0,062
-382,190	-32,154	0,014	0,006
-381,175	699,225	0,045	0,088
-380,160	-116,832	0,069	-0,009
-379,146	103,263	0,090	0,078
-378,131	-108,451	0,092	-0,014
-377,117	-200,000	-0,011	-0,128
-376,102	-88,361	-0,045	-0,010
-375,088	506,573	-0,033	-0,057
-374,073	133,113	0,013	-0,013
-373,058	265,763	0,060	0,076
-372,044	-112,575	-0,175	0,025
-371,029	427,680	-0,084	0,133
-370,015	-43,315	0,118	0,044
-369,000	-63,578	-0,079	-0,024
-367,985	-143,855	0,082	0,006
-366,971	-200,000	-0,089	-0,000
-365,956	-200,000	0,011	0,051
-364,942	693,430	0,055	0,106
-363,927	199,438	-0,016	0,018
-362,912	39,315	-0,038	-0,025
-361,898	800,000	0,025	-0,075
-360,883	800,000	-0,047	-0,096
-359,869	-15,704	0,069	-0,032
-358,854	800,000	0,017	-0,052
-357,839	-44,265	0,036	-0,013
-356,825	722,841	0,023	0,046
-355,810	-23,074	-0,087	0,038
-354,796	800,000	0,041	0,125
-353,781	-122,709	-0,090	-0,011
-352,766	-7,806	-0,065	-0,032
-351,752	800,000	-0,028	0,082
-350,737	-63,155	0,074	-0,022
-349,723	-200,000	-0,003	-0,056
-348,708	-11,845	-0,080	0,038
-347,693	800,000	0,025	0,055
-346,679	39,245	-0,113	-0,074
-345,664	-200,000	-0,039	-0,132
-344,650	-200,000	-0,012	-0,066
-343,635	-101,070	0,074	0,013
-342,620	-200,000	-0,003	0,081
-341,606	-150,364	-0,073	0,004
-340,591	-130,329	0,064	0,006
-339,577	-192,592	-0,074	-0,000
-338,562	-200,000	-0,007	0,090
-337,548	555,731	0,024	-0,042
-336,533	800,000	-0,008	-0,024
-335,518	-200,000	0,009	0,107
-334,504	-50,897	0,082	0,028
-333,489	-200,000	0,012	0,095
-332,475	22,819	-0,097	0,058
-331,460	57,696	0,077	0,055
-330,445	-200,000	0,011	0,044
-329,431	-200,000	-0,019	-0,130
-328,416	171,780	-0,092	-0,097
-327,402	322,046	-0,020	0,027
-326,387	-200,000	-0,008	0,029
-325,372	110,524	0,060	-0,053
-324,358	379,247	-0,060	0,090
-323,343	76,457	-0,094	-0,073
-322,329	274,198	0,031	-0,041
-321,314	62,847	-0,046	0,034
-320,299	800,000	-0,031	0,083
-319,285	68,825	-0,063	-0,047
-318,270	800,000	-0,030	-0,073
-317,256	-64,507	-0,215	-0,063
-316,241	108,136	-0,078	-0,068
-315,226	-129,683	0,148	0,015
-314,212	800,000	0,015	-0,039
-313,197	-49,264	0,036	0,013
-312,183	-7,484	0,058	0,028
-311,168	-30,341	-0,114	0,047
-310,153	-200,000	-0,007	-0,037
-309,139	-18,972	0,085	-0,039
-308,124	800,000	-0,070	0,151
-307,110	-173,502	0,108	-0,002
-306,095	45,189	0,113	0,076
-305,080	-63,609	0,108	0,032
-304,066	-62,591	-0,117	-0,035
-303,051	186,162	-0,040	-0,044
-302,037	153,957	0,069	-0,070
-301,022	-200,000	0,025	0,112
-300,008	4,503	0,063	0,034
-298,993	155,314	-0,051	-0,052
-297,978	-52,993	0,042	0,014
-296,964	219,696	0,017	-0,019
-295,949	-23,378	0,072	-0,031
-294,935	-200,000	0,032	-0,149
-293,920	800,000	0,022	-0,068
-292,905	342,923	0,050	0,071
-291,891	271,661	0,049	0,063
-290,876	-8,262	-0,073	-0,036
-289,862	-160,899	-0,143	0,005
-288,847	-200,000	0,004	0,040
-287,832	165,801	-0,045	0,046
-286,818	-81,437	0,090	0,021
-285,803	42,014	0,058	0,038
-284,789	-200,000	0,015	-0,049
-283,774	29,547	-0,101	0,063
-282,759	-200,000	0,028	-0,097
-281,745	-200,000	-0,003	-0,077
-280,730	217,432	-0,079	-0,092
-279,716	-49,040	0,038	0,013
-278,701	800,000	-0,032	0,069
-277,686	-78,317	-0,117	0,029
-276,672	-112,715	0,042	0,006
-275,657	-7,112	-0,094	0,046
-274,643	196,238	-0,064	-0,071
-273,628	114,391	0,126	-0,112
-272,613	-200,000	-0,042	-0,146
-271,599	-15,649	0,180	0,083
-270,584	317,703	0,063	-0,087
-269,570	40,670	0,052	-0,034
-268,555	97,659	0,127	0,107
-267,540	18,742	-0,098	-0,057
-266,526	800,000	0,031	-0,078
-265,511	410,062	0,034	-0,053
-264,497	45,364	0,090	0,061
-263,482	288,204	-0,038	-0,050
-262,467	800,000	0,028	-0,073
-261,453	-200,000	-0,016	0,091
-260,438	-117,260	0,062	-0,008
-259,424	615,961	-0,020	0,036
-258,409	338,957	-0,052	-0,075
-257,395	138,054	0,095	0,091
-256,380	576,002	-0,007	-0,013
-255,365	-200,000	-0,006	0,068
-254,351	365,493	0,110	0,162
-253,336	629,082	0,034	0,062
-252,322	309,283	-0,063	0,086
-251,307	73,860	-0,024	-0,018
-250,292	-200,000	0,018	0,064
-249,278	225,459	-0,047	0,055
-248,263	90,154	0,106	0,087
-247,249	582,344	-0,024	-0,044
-246,234	-103,581	0,114	-0,019
-245,219	-200,000	0,000	-0,058
-244,205	-103,393	0,127	-0,022
-243,190	231,633	0,024	-0,028
-242,176	-200,000	-0,005	-0,038
-241,161	-34,466	0,124	0,049
-240,146	-200,000	0,015	-0,070
-239,132	800,000	0,070	-0,150
-238,117	108,729	-0,085	-0,074
-237,103	514,952	-0,058	0,100
-236,088	-200,000	-0,005	-0,033
-235,073	170,948	0,111	-0,117
-234,059	56,792	0,083	0,059
-233,044	-20,654	-0,070	0,031
-232,030	16,412	0,040	-0,023
-231,015	222,675	0,089	-0,105
-230,000	-200,000	-0,035	-0,193
-228,986	-148,484	0,114	-0,007
-227,971	-30,663	0,059	0,024
-226,957	367,319	-0,048	0,071
-225,942	-200,000	-0,002	0,083
-224,927	638,598	0,054	0,100
-223,913	-103,333	0,054	0,009
-222,898	800,000	0,016	-0,040
-221,884	-200,000	-0,024	-0,097
-220,869	646,992	0,013	-0,025
-219,855	72,402	0,102	0,077
-218,840	-200,000	-0,012	0,088
-217,825	-200,000	0,003	0,158
-216,811	31,853	-0,138	-0,087
-215,796	-29,901	-0,188	-0,078
-214,782	-86,335	0,023	0,005
-213,767	-200,000	-0,028	0,105
-212,752	302,933	-0,011	0,015
-211,738	186,952	-0,068	-0,074
-210,723	-96,768	0,076	-0,014
-209,709	135,749	-0,057	-0,054
-208,694	-200,000	-0,012	0,145
-207,679	59,941	-0,047	-0,034
-206,665	-66,727	0,043	-0,012
-205,650	-131,369	0,111	-0,011
-204,636	-35,675	0,062	0,024
-203,621	269,453	0,097	-0,125
-202,606	83,639	0,069	-0,054
-201,592	140,082	-0,029	-0,028
-200,577	-60,870	0,064	0,019
-199,563	-200,000	0,017	0,068
-198,548	800,000	0,033	0,090
-197,533	25,921	-0,153	0,093
-196,519	643,441	-0,039	0,074
-195,504	-200,000	0,016	0,096
-194,490	-200,000	-0,004	0,042
-193,475	-71,479	0,106	0,029
-192,460	39,621	-0,094	0,061
-191,446	-89,190	0,133	0,028
-190,431	252,302	0,046	-0,058
-189,417	-10,379	-0,103	-0,050
-188,402	272,591	0,056	0,072
-187,387	208,408	0,067	-0,077
-186,373	83,690	0,042	0,034
-185,358	-200,000	-0,011	-0,038
-184,344	319,086	0,051	-0,071
-183,329	-200,000	-0,010	-0,052
-182,315	377,695	-0,011	0,017
-181,300	800,000	-0,010	0,029
-180,285	-115,761	-0,080	0,011
-179,271	-62,663	-0,120	-0,036
-178,256	-200,000	0,003	0,027
-177,242	-73,435	0,109	-0,029
-176,227	-200,000	0,008	0,203
-175,212	332,344	0,125	0,176
-174,198	96,015	-0,033	-0,027
-173,183	800,000	-0,045	0,107
-172,169	-200,000	-0,008	-0,100
-171,154	-200,000	0,011	-0,045
-170,139	559,009	0,060	0,105
-169,125	800,000	0,031	-0,084
-168,110	139,844	-0,058	-0,056
-167,096	-200,000	0,017	-0,142
-166,081	99,033	0,083	-0,070
-165,066	423,326	-0,030	-0,048
-164,052	-200,000	-0,029	0,127
-163,037	-179,463	-0,163	-0,003
-162,023	94,015	0,088	0,072
-161,008	75,832	-0,026	-0,020
-159,993	-127,585	0,045	-0,005
-158,979	-200,000	-0,005	-0,031
-157,964	-26,623	-0,051	0,022
-156,950	135,037	-0,045	0,042
-155,935	112,093	-0,046	0,040
-154,920	273,714	0,156	0,202
-153,906	149,253	-0,114	-0,113
-152,891	-200,000	0,008	-0,185
-151,877	142,855	0,015	-0,015
-150,862	-200,000	-0,048	-0,204
-149,847	243,879	-0,058	0,072
-148,833	-200,000	-0,021	0,103
-147,818	-162,473	0,122	-0,004
-146,804	-200,000	0,012	0,117
-145,789	333,430	-0,086	0,121
-144,775	434,004	0,024	-0,038
-143,760	121,357	-0,049	-0,044
-142,745	-123,317	-0,056	-0,006
-141,731	34,916	0,146	0,093
-140,716	-200,000	-0,017	-0,073
-139,702	-37,673	0,013	-0,005
-138,687	234,290	0,050	-0,060
-137,672	92,832	-0,035	0,028
-136,658	-174,953	0,117	-0,002
-135,643	-200,000	-0,011	0,149
-134,629	-105,078	-0,069	-0,011
-133,614	-200,000	0,034	0,170
-132,599	-108,462	0,141	-0,022
-131,585	689,593	-0,040	0,076
-130,570	142,831	-0,053	0,051
-129,556	-134,872	0,117	-0,010
-128,541	38,811	-0,071	0,046
-127,526	271,561	0,009	0,012
-126,512	166,358	-0,108	0,112
-125,497	371,636	0,020	0,029
-124,483	-200,000	-0,008	0,112
-123,468	9,323	0,038	0,021
-122,453	-200,000	0,020	0,157
-121,439	591,721	-0,066	0,119
-120,424	800,000	-0,060	-0,138
-119,410	129,586	0,058	0,053
