DTS Sentinel unit serial number:	SN410029Multiplexer serial number:	ORYXHardware model number:	OX2-SRSoftware version number:	ORYX F/W v4,00 Oryx Data Collector v3.7.2.0data status	okinstallation	B4 Nyhavnadifferential loss correction	single-endedforward channel	channel 2reverse channel	N/Adate	2023/12/16time	13:35:13forward acquisition time	300,00reverse acquisition time	0,00gamma	499,1914k internal	0,3126k external	0,3126temperature offset calibration	1,0000default loss term (dB/km)	0,3820temperature slope calibration	1,0000multiplexer offset coefficient	1,0000multiplexer slope coefficient	1,0000fibre end	0,00T internal ref (°C)	24,88T ext. ref 1 (°C)	11,26T ext. ref 2 (°C)	11,47length (m)	temperature (°C)	Stokes	anti-Stokes-744,400	-48,722	-0,086	-0,031
-743,385	153,138	-0,230	0,234
-742,371	135,592	0,125	-0,121
-741,356	-21,734	-0,149	0,067
-740,342	-200,000	-0,010	-0,062
-739,327	77,034	-0,149	0,118
-738,312	90,387	-0,061	-0,051
-737,298	35,928	-0,214	0,140
-736,283	-200,000	0,036	-0,156
-735,269	167,853	-0,119	0,126
-734,254	-141,101	0,059	-0,004
-733,239	-84,165	-0,334	-0,078
-732,225	10,764	0,048	-0,027
-731,210	-74,464	0,095	0,025
-730,196	-114,236	-0,063	0,009
-729,181	49,915	-0,102	-0,071
-728,167	-200,000	-0,006	-0,087
-727,152	42,795	-0,112	0,076
-726,137	145,034	-0,002	-0,002
-725,123	-200,000	0,010	-0,043
-724,108	237,287	-0,021	-0,027
-723,094	-170,630	-0,029	-0,001
-722,079	-200,000	-0,017	0,088
-721,064	5,134	0,094	0,051
-720,050	113,376	-0,090	-0,082
-719,035	423,482	-0,072	-0,115
-718,021	-120,514	-0,065	-0,008
-717,006	-133,304	-0,139	0,013
-715,991	800,000	-0,011	0,026
-714,977	-127,084	0,094	-0,010
-713,962	103,516	-0,075	-0,065
-712,948	150,204	0,050	0,051
-711,933	-200,000	-0,024	0,243
-710,918	301,561	0,046	-0,063
-709,904	-200,000	0,046	-0,225
-708,889	513,677	-0,074	-0,129
-707,875	287,121	-0,082	-0,110
-706,860	400,031	-0,052	0,082
-705,845	324,488	-0,021	0,030
-704,831	-1,747	-0,037	-0,019
-703,816	-1,721	0,098	-0,051
-702,802	104,901	-0,048	-0,042
-701,787	-102,166	-0,092	0,016
-700,772	-200,000	-0,010	-0,043
-699,758	800,000	0,013	-0,030
-698,743	-200,000	0,017	0,085
-697,729	-200,000	-0,003	0,070
-696,714	-37,395	0,082	-0,032
-695,699	130,926	0,015	-0,014
-694,685	800,000	0,019	0,042
-693,670	169,433	0,045	-0,047
-692,656	16,767	0,016	0,010
-691,641	-22,766	0,018	-0,008
-690,627	-44,096	0,076	-0,028
-689,612	-37,653	-0,132	-0,052
-688,597	10,302	0,154	-0,087
-687,583	-164,543	-0,104	-0,003
-686,568	433,676	-0,044	0,071
-685,554	626,023	0,009	-0,016
-684,539	800,000	-0,007	-0,015
-683,524	-159,709	0,161	0,006
-682,510	350,118	0,040	-0,060
-681,495	-200,000	-0,014	-0,068
-680,481	74,057	-0,038	-0,029
-679,466	-121,134	-0,127	0,016
-678,451	29,961	-0,140	-0,088
-677,437	-200,000	-0,009	0,083
-676,422	106,729	0,119	0,105
-675,408	310,651	0,024	0,034
-674,393	-54,546	-0,059	-0,020
-673,378	-155,224	-0,059	-0,003
-672,364	-200,000	0,052	0,223
-671,349	-164,444	-0,013	0,000
-670,335	377,434	-0,043	-0,066
-669,320	54,974	0,115	0,082
-668,305	251,888	0,020	-0,026
-667,291	-155,432	-0,108	0,005
-666,276	-200,000	-0,026	-0,165
-665,262	-200,000	-0,012	0,087
-664,247	66,787	-0,114	0,086
-663,232	443,403	0,026	0,042
-662,218	59,205	-0,230	0,168
-661,203	-107,726	0,071	-0,011
-660,189	-200,000	-0,006	0,088
-659,174	217,955	-0,124	-0,147
-658,159	-48,440	0,076	-0,027
-657,145	-93,641	-0,044	-0,009
-656,130	-167,672	-0,122	-0,004
-655,116	707,770	-0,025	-0,050
-654,101	-97,836	0,017	0,003
-653,086	-94,668	0,110	0,022
-652,072	-13,130	0,050	-0,024
-651,057	-200,000	0,022	-0,121
-650,043	96,979	-0,148	-0,126
-649,028	588,031	-0,056	-0,102
-648,014	-120,769	-0,056	-0,007
-646,999	41,428	0,043	0,029
-645,984	-70,129	-0,092	0,026
-644,970	-127,913	-0,052	-0,005
-643,955	-200,000	-0,011	-0,037
-642,941	20,424	0,007	0,004
-641,926	-88,776	-0,022	0,005
-640,911	-115,168	-0,055	-0,008
-639,897	800,000	-0,042	0,119
-638,882	118,438	-0,028	-0,026
-637,868	45,550	-0,053	-0,036
-636,853	-39,159	-0,207	0,080
-635,838	-5,318	-0,070	0,036
-634,824	27,798	-0,085	-0,053
-633,809	12,886	0,087	0,049
-632,795	-200,000	0,003	0,096
-631,780	-200,000	-0,008	0,092
-630,765	379,265	0,054	-0,083
-629,751	-69,086	-0,041	0,012
-628,736	80,782	-0,204	-0,163
-627,722	800,000	0,017	-0,051
-626,707	81,926	0,054	0,043
-625,692	-9,431	-0,048	-0,024
-624,678	359,619	0,038	0,056
-623,663	641,123	0,031	-0,058
-622,649	-200,000	0,028	-0,155
-621,634	652,520	-0,062	-0,118
-620,619	268,297	-0,083	0,108
-619,605	800,000	0,022	0,066
-618,590	753,427	-0,028	0,056
-617,576	-200,000	0,013	0,060
-616,561	-200,000	-0,027	0,121
-615,546	-120,889	0,096	0,012
-614,532	35,565	0,048	0,031
-613,517	800,000	0,007	-0,019
-612,503	17,944	-0,061	-0,036
-611,488	116,112	-0,056	-0,051
-610,474	-159,280	0,042	-0,002
-609,459	117,573	-0,022	-0,020
-608,444	620,538	0,032	-0,060
-607,430	-200,000	-0,011	0,091
-606,415	-107,414	-0,099	-0,016
-605,401	-62,001	-0,104	0,032
-604,386	-12,514	0,056	0,027
-603,371	268,807	0,050	-0,065
-602,357	-200,000	-0,020	0,077
-601,342	-200,000	-0,005	-0,203
-600,328	742,860	0,002	0,005
-599,313	275,220	0,137	-0,180
-598,298	-95,598	-0,091	0,018
-597,284	150,963	0,024	0,025
-596,269	171,858	-0,061	-0,065
-595,255	431,525	0,094	0,152
-594,240	-172,719	-0,142	-0,003
-593,225	63,524	-0,020	-0,015
-592,211	-116,621	-0,010	0,001
-591,196	355,992	-0,085	0,126
-590,182	-140,903	0,042	-0,003
-589,167	685,559	-0,006	-0,012
-588,152	102,462	0,197	0,171
-587,138	-70,428	0,122	-0,034
-586,123	-200,000	0,012	-0,052
-585,109	-182,772	0,036	0,000
-584,094	-200,000	-0,022	0,090
-583,079	-68,038	-0,030	-0,009
-582,065	-200,000	0,005	-0,043
-581,050	159,321	0,022	-0,022
-580,036	15,897	-0,044	-0,025
-579,021	-200,000	-0,005	-0,141
-578,006	-3,555	0,105	0,054
-576,992	-200,000	-0,010	0,076
-575,977	132,087	0,021	-0,020
-574,963	-200,000	0,019	-0,103
-573,948	148,622	-0,056	0,056
-572,934	204,759	0,055	0,064
-571,919	-181,606	0,094	0,001
-570,904	461,073	0,021	-0,035
-569,890	-108,003	-0,075	0,012
-568,875	-22,458	0,078	0,035
-567,861	-200,000	0,005	0,020
-566,846	-29,618	0,098	-0,041
-565,831	-16,600	0,106	0,050
-564,817	654,895	-0,046	-0,087
-563,802	-200,000	0,012	0,126
-562,788	-83,331	-0,085	-0,020
-561,773	101,970	-0,043	-0,037
-560,758	-74,250	0,136	0,036
-559,744	-8,383	0,071	0,035
-558,729	-200,000	-0,005	-0,061
-557,715	295,987	-0,077	-0,104
-556,700	-200,000	0,023	-0,083
-555,685	-200,000	-0,018	-0,139
-554,671	314,323	0,038	-0,053
-553,656	-35,162	0,044	0,018
-552,642	19,223	0,092	-0,054
-551,627	-200,000	0,021	0,126
-550,612	473,720	-0,056	-0,094
-549,598	-59,369	-0,133	-0,042
-548,583	436,943	0,016	-0,026
-547,569	171,330	-0,067	-0,071
-546,554	-123,771	0,129	-0,015
-545,539	13,711	0,171	-0,098
-544,525	800,000	0,038	-0,111
-543,510	-126,508	0,055	-0,006
-542,496	63,086	-0,156	-0,115
-541,481	-200,000	-0,011	-0,086
-540,466	800,000	0,008	0,021
-539,452	-200,000	-0,004	0,037
-538,437	-141,344	-0,068	-0,005
-537,423	-200,000	0,001	-0,030
-536,408	-170,907	-0,023	0,001
-535,393	520,501	-0,090	-0,156
-534,379	440,219	0,079	-0,128
-533,364	246,590	0,029	0,036
-532,350	407,472	0,054	-0,085
-531,335	800,000	-0,001	0,002
-530,321	800,000	-0,024	0,063
-529,306	800,000	-0,038	-0,079
-528,291	91,316	-0,096	-0,079
-527,277	-200,000	-0,006	-0,102
-526,262	-200,000	0,012	-0,077
-525,248	800,000	-0,059	0,164
-524,233	-81,300	0,065	-0,016
-523,218	-171,994	-0,106	0,002
-522,204	81,110	0,058	-0,047
-521,189	-200,000	0,009	0,039
-520,175	-200,000	-0,001	0,018
-519,160	-128,395	-0,071	-0,007
-518,145	-200,000	-0,001	0,064
-517,131	74,729	0,033	0,026
-516,116	-55,944	0,034	0,011
-515,102	9,401	0,079	-0,044
-514,087	-58,069	-0,179	-0,057
-513,072	477,494	-0,057	-0,095
-512,058	800,000	-0,004	-0,013
-511,043	-56,468	-0,112	-0,036
-510,029	-60,391	0,124	-0,039
-509,014	-200,000	0,011	0,038
-507,999	-11,627	0,108	0,052
-506,985	-58,744	-0,059	0,019
-505,970	-200,000	-0,017	-0,105
-504,956	-86,606	0,103	-0,023
-503,941	247,907	0,060	-0,075
-502,926	79,217	0,084	0,067
-501,912	-125,729	0,158	-0,017
-500,897	450,246	-0,006	-0,009
-499,883	489,357	-0,091	-0,154
-498,868	-200,000	0,000	-0,070
-497,853	-45,757	-0,033	-0,012
-496,839	705,423	0,079	-0,154
-495,824	205,741	0,047	-0,054
-494,810	-66,360	0,065	0,019
-493,795	283,122	0,033	0,044
-492,781	-200,000	0,010	0,050
-491,766	-200,000	-0,008	-0,084
-490,751	-200,000	-0,008	-0,091
-489,737	-11,272	0,055	-0,027
-488,722	-93,513	-0,113	0,023
-487,708	-200,000	0,015	0,184
-486,693	800,000	0,057	0,117
-485,678	622,541	-0,045	-0,084
-484,664	11,113	-0,059	0,033
-483,649	-31,421	0,124	0,051
-482,635	370,126	0,059	0,088
-481,620	-47,874	0,145	-0,052
-480,605	800,000	0,042	0,107
-479,591	-9,509	-0,102	0,050
-478,576	592,250	0,031	0,056
-477,562	-200,000	0,003	0,020
-476,547	-122,905	-0,088	0,010
-475,532	800,000	-0,016	-0,035
-474,518	-37,584	0,080	0,031
-473,503	-200,000	0,021	0,075
-472,489	-81,584	0,026	-0,006
-471,474	145,082	0,010	0,010
-470,459	81,207	0,031	0,025
-469,445	14,376	0,017	0,010
-468,430	-124,093	-0,096	0,011
-467,416	256,748	0,126	0,160
-466,401	-200,000	-0,013	0,106
-465,386	-170,291	0,052	0,001
-464,372	-200,000	0,005	-0,079
-463,357	436,932	-0,026	-0,043
-462,343	-34,342	-0,133	-0,054
-461,328	239,958	-0,012	0,014
-460,313	44,106	0,039	0,026
-459,299	150,038	-0,061	0,061
-458,284	-200,000	0,013	0,135
-457,270	800,000	-0,078	0,187
-456,255	-37,648	0,049	0,019
-455,241	800,000	-0,050	0,106
-454,226	-68,026	0,140	0,040
-453,211	-200,000	-0,017	0,139
-452,197	56,242	-0,017	0,012
-451,182	383,857	0,033	-0,050
-450,168	-148,695	0,082	-0,005
-449,153	358,095	-0,067	-0,099
-448,138	-151,754	-0,069	0,004
-447,124	-200,000	-0,003	-0,035
-446,109	-92,941	0,115	0,023
-445,095	-122,132	-0,215	0,026
-444,080	-3,136	0,095	-0,049
-443,065	-200,000	0,035	0,177
-442,051	55,087	0,043	-0,030
-441,036	55,079	0,171	-0,121
-440,022	-97,856	-0,076	-0,014
-439,007	-97,337	0,037	0,007
-437,992	-200,000	-0,011	-0,049
-436,978	-200,000	0,026	0,209
-435,963	93,751	-0,048	-0,040
-434,949	37,047	-0,036	0,024
-433,934	-140,916	-0,074	0,006
-432,919	-200,000	0,019	0,083
-431,905	-83,950	0,112	0,026
-430,890	513,836	-0,050	0,087
-429,876	-35,608	0,129	0,051
-428,861	-200,000	0,020	0,103
-427,846	-11,100	0,021	-0,010
-426,832	-57,649	-0,134	-0,043
-425,817	321,067	-0,058	-0,081
-424,803	-200,000	-0,029	-0,108
-423,788	-17,666	0,052	-0,024
-422,773	303,909	0,079	0,108
-421,759	23,316	0,098	0,059
-420,744	-200,000	0,019	-0,067
-419,730	800,000	-0,033	-0,073
-418,715	-31,492	-0,041	0,017
-417,701	-200,000	-0,017	0,074
-416,686	-200,000	-0,014	0,061
-415,671	-200,000	-0,009	-0,102
-414,657	800,000	0,044	-0,101
-413,642	-200,000	-0,027	0,094
-412,628	-42,545	-0,068	-0,025
-411,613	800,000	-0,034	-0,083
-410,598	759,743	-0,023	0,046
-409,584	-200,000	-0,001	-0,052
-408,569	800,000	0,030	0,085
-407,555	-141,020	0,153	-0,011
-406,540	-19,469	-0,041	-0,019
-405,525	53,614	0,098	0,069
-404,511	193,844	-0,134	-0,150
-403,496	-200,000	-0,020	0,066
-402,482	-10,968	-0,094	0,045
-401,467	-12,844	0,064	-0,030
-400,452	-82,608	0,164	0,039
-399,438	47,527	0,023	0,016
-398,423	-114,372	-0,125	0,018
-397,409	30,288	-0,073	-0,046
-396,394	203,488	-0,056	0,064
-395,379	229,733	-0,093	0,112
-394,365	92,827	-0,019	0,016
-393,350	42,096	-0,024	0,016
-392,336	3,776	-0,110	-0,059
-391,321	130,614	-0,052	0,049
-390,306	25,154	-0,094	-0,057
-389,292	164,952	-0,097	-0,100
-388,277	56,059	-0,119	0,085
-387,263	-200,000	0,027	0,126
-386,248	-200,000	0,052	0,210
-385,233	-200,000	-0,031	0,217
-384,219	800,000	0,034	-0,089
-383,204	459,271	-0,033	0,055
-382,190	285,543	0,046	-0,061
-381,175	-200,000	-0,046	-0,191
-380,160	-200,000	-0,007	-0,161
-379,146	-26,270	0,085	0,037
-378,131	101,420	-0,123	-0,105
-377,117	297,580	-0,036	-0,049
-376,102	185,971	0,062	-0,067
-375,088	800,000	-0,091	-0,188
-374,073	-128,313	-0,134	-0,014
-373,058	800,000	0,027	-0,056
-372,044	74,090	0,031	-0,024
-371,029	-146,023	-0,127	0,008
-370,015	800,000	0,009	-0,026
-369,000	-159,501	0,135	0,005
-367,985	762,980	-0,048	-0,096
-366,971	-79,242	-0,066	0,016
-365,956	20,718	0,111	0,066
-364,942	-16,855	0,065	0,030
-363,927	134,657	0,069	0,066
-362,912	-39,807	0,097	0,037
-361,898	199,689	0,014	-0,015
-360,883	-200,000	-0,002	-0,059
-359,869	48,196	0,021	0,014
-358,854	20,746	-0,060	-0,036
-357,839	76,147	0,064	-0,049
-356,825	225,854	0,021	0,026
-355,810	59,557	-0,183	0,132
-354,796	-151,115	-0,118	0,006
-353,781	-77,149	-0,111	-0,028
-352,766	401,738	-0,093	-0,144
-351,752	105,206	0,041	0,036
-350,737	-200,000	-0,015	-0,049
-349,723	800,000	0,062	0,145
-348,708	-93,454	0,072	-0,014
-347,693	53,268	-0,113	-0,079
-346,679	589,756	0,085	-0,155
-345,664	536,470	-0,054	-0,095
-344,650	26,074	-0,112	0,068
-343,635	-57,045	0,020	-0,006
-342,620	-190,559	0,100	0,001
-341,606	682,263	0,060	0,116
-340,591	-200,000	-0,011	0,081
-339,577	-146,663	-0,120	0,007
-338,562	-200,000	-0,023	0,077
-337,548	398,071	0,061	-0,094
-336,533	-200,000	-0,000	-0,033
-335,518	380,518	0,038	-0,057
-334,504	-142,051	0,024	-0,002
-333,489	-200,000	0,051	-0,188
-332,475	-200,000	0,021	-0,110
-331,460	-200,000	0,019	-0,159
-330,445	800,000	-0,027	0,067
-329,431	23,029	-0,082	0,049
-328,416	-76,540	0,086	0,022
-327,402	36,214	-0,052	0,033
-326,387	219,432	-0,112	0,131
-325,372	-147,362	0,052	0,003
-324,358	-200,000	-0,025	-0,126
-323,343	241,836	-0,056	0,068
-322,329	-200,000	-0,001	0,032
-321,314	800,000	-0,025	-0,059
-320,299	474,548	0,052	0,087
-319,285	130,526	0,080	-0,075
-318,270	-200,000	-0,027	-0,100
-317,256	152,802	0,044	0,044
-316,241	692,597	-0,056	-0,108
-315,226	800,000	0,040	0,100
-314,212	97,300	-0,038	0,032
-313,197	-200,000	0,004	0,068
-312,183	-200,000	-0,005	-0,018
-311,168	72,983	-0,129	0,099
-310,153	-200,000	0,001	-0,137
-309,139	143,346	0,069	-0,068
-308,124	167,997	0,078	0,082
-307,110	-91,667	-0,057	0,012
-306,095	-28,269	0,017	0,007
-305,080	-63,581	-0,117	0,035
-304,066	-200,000	-0,005	0,113
-303,051	-200,000	0,037	-0,177
-302,037	163,967	-0,020	-0,021
-301,022	-200,000	0,031	-0,125
-300,008	136,367	0,048	0,046
-298,993	-112,854	0,048	-0,007
-297,978	-200,000	0,013	0,066
-296,964	177,697	-0,068	0,073
-295,949	800,000	0,031	-0,077
-294,935	-200,000	0,031	-0,142
-293,920	78,842	0,129	0,101
-292,905	-125,523	0,091	-0,010
-291,891	800,000	0,026	0,069
-290,876	-141,831	0,091	-0,007
-289,862	665,939	0,044	-0,083
-288,847	-200,000	-0,035	-0,117
-287,832	179,450	-0,010	-0,011
-286,818	168,978	0,075	-0,079
-285,803	-72,537	-0,112	0,030
-284,789	-200,000	0,001	0,123
-283,774	-37,410	0,095	-0,037
-282,759	-57,847	-0,103	-0,033
-281,745	15,183	-0,120	-0,069
-280,730	455,521	-0,044	-0,071
-279,716	441,857	0,061	-0,098
-278,701	-64,407	0,174	0,051
-277,686	286,960	0,019	-0,025
-276,672	800,000	0,077	0,157
-275,657	23,505	0,053	0,032
-274,643	125,950	0,086	0,080
-273,628	260,735	0,062	0,078
-272,613	-98,330	0,029	0,005
-271,599	270,405	0,089	0,114
-270,584	-200,000	-0,009	0,135
-269,570	-194,130	0,113	0,001
-268,555	800,000	-0,032	0,080
-267,540	800,000	0,037	0,099
-266,526	177,661	0,035	0,038
-265,511	-200,000	-0,031	-0,142
-264,497	-57,291	0,111	0,036
-263,482	137,097	0,034	0,033
-262,467	-200,000	-0,016	-0,098
-261,453	191,489	0,068	0,075
-260,438	125,664	0,117	0,108
-259,424	90,353	0,048	0,039
-258,409	95,585	0,093	-0,077
-257,395	-3,709	0,020	0,010
-256,380	16,904	0,017	-0,010
-255,365	800,000	0,043	0,096
-254,351	51,486	0,040	-0,028
-253,336	132,621	-0,030	-0,029
-252,322	-90,999	-0,116	0,024
-251,307	318,823	-0,022	0,031
-250,292	800,000	-0,062	0,168
-249,278	226,606	0,090	-0,107
-248,263	-35,480	-0,064	0,025
-247,249	-200,000	-0,004	0,065
-246,234	268,069	-0,107	-0,137
-245,219	123,112	0,040	-0,036
-244,205	-169,407	0,038	0,001
-243,190	2,267	0,120	-0,063
-242,176	-143,134	0,148	0,010
-241,161	800,000	-0,015	0,042
-240,146	-200,000	0,006	0,080
-239,132	-65,659	-0,157	0,046
-238,117	-200,000	-0,000	-0,043
-237,103	217,126	-0,047	0,054
-236,088	-5,500	-0,092	-0,046
-235,073	800,000	0,036	0,114
-234,059	-46,114	0,100	0,036
-233,044	-71,023	0,044	0,012
-232,030	100,127	-0,123	-0,104
-231,015	800,000	-0,078	-0,160
-230,000	671,315	0,030	-0,056
-228,986	-200,000	0,048	0,176
-227,971	-105,299	-0,086	-0,014
-226,957	-20,992	0,154	0,069
-225,942	-200,000	-0,014	-0,058
-224,927	128,725	-0,036	0,033
-223,913	-92,162	-0,115	0,024
-222,898	800,000	-0,038	-0,108
-221,884	800,000	-0,057	-0,126
-220,869	96,892	-0,038	0,032
-219,855	-200,000	0,011	0,083
-218,840	325,558	-0,061	0,085
-217,825	-109,226	-0,087	0,013
-216,811	396,377	-0,057	-0,086
-215,796	-80,278	-0,088	-0,021
-214,782	-45,424	-0,010	-0,004
-213,767	355,283	-0,041	0,060
-212,752	26,842	0,091	-0,056
-211,738	-98,082	-0,119	-0,022
-210,723	451,010	0,023	-0,038
-209,709	-200,000	-0,041	0,149
-208,694	188,027	-0,081	-0,088
-207,679	-200,000	0,004	-0,028
-206,665	-200,000	0,009	-0,091
-205,650	28,851	0,015	-0,009
-204,636	-200,000	0,007	0,075
-203,621	800,000	0,014	0,040
-202,606	-143,718	-0,051	0,003
-201,592	134,951	-0,080	0,076
-200,577	179,297	0,048	0,051
-199,563	-200,000	-0,010	0,117
-198,548	-200,000	-0,011	0,083
-197,533	800,000	0,066	0,138
-196,519	210,017	0,066	-0,075
-195,504	-129,340	-0,070	-0,007
-194,490	-200,000	0,003	0,082
-193,475	195,406	-0,083	0,092
-192,460	-200,000	-0,014	-0,096
-191,446	-200,000	-0,030	-0,128
-190,431	206,129	0,007	-0,008
-189,417	372,308	0,094	0,139
-188,402	-5,913	-0,075	-0,037
-187,387	800,000	-0,012	-0,031
-186,373	-31,992	-0,027	0,011
-185,358	800,000	-0,029	-0,071
-184,344	800,000	-0,028	-0,068
-183,329	144,210	-0,075	-0,073
-182,315	800,000	0,039	0,084
-181,300	-200,000	-0,032	0,114
-180,285	591,193	0,065	-0,117
-179,271	161,902	0,116	0,118
-178,256	142,502	-0,057	0,055
-177,242	-147,608	0,046	-0,003
-176,227	138,528	-0,099	0,095
-175,212	42,452	0,069	0,046
-174,198	-200,000	-0,007	-0,034
-173,183	171,435	-0,072	0,075
-172,169	680,111	0,032	-0,061
-171,154	-21,777	0,085	0,037
-170,139	-200,000	-0,022	0,143
-169,125	-200,000	0,033	0,127
-168,110	-200,000	-0,005	-0,117
-167,096	-56,307	0,030	0,010
-166,081	-200,000	-0,023	-0,139
-165,066	-17,710	0,027	-0,012
-164,052	29,477	0,067	-0,042
-163,037	21,870	0,054	0,032
-162,023	24,803	0,062	0,037
-161,008	-183,366	0,090	0,001
-159,993	-50,350	-0,142	0,049
-158,979	-200,000	0,000	-0,021
-157,964	-200,000	-0,008	-0,110
-156,950	-200,000	-0,005	0,015
-155,935	638,461	-0,054	-0,101
-154,920	655,811	0,053	-0,099
-153,906	273,903	-0,044	0,057
-152,891	-200,000	0,012	0,139
-151,877	245,935	-0,071	0,088
-150,862	138,519	-0,108	0,103
-149,847	43,287	0,073	-0,048
-148,833	-67,825	0,091	0,026
-147,818	790,142	0,094	0,190
-146,804	144,477	-0,035	0,034
-145,789	32,928	-0,029	-0,018
-144,775	161,622	0,040	-0,041
-143,760	708,029	-0,055	-0,107
-142,745	-117,467	-0,138	-0,018
-141,731	-14,112	0,141	0,066
-140,716	-103,533	-0,038	0,006
-139,702	262,689	0,011	0,014
-138,687	-97,801	-0,087	-0,016
-137,672	-200,000	-0,032	0,134
-136,658	-112,402	0,085	0,012
-135,643	-200,000	0,018	0,140
-134,629	93,404	-0,112	0,092
-133,614	800,000	0,026	0,079
-132,599	-200,000	0,009	-0,036
-131,585	800,000	-0,016	-0,049
-130,570	223,076	0,065	-0,077
-129,556	800,000	0,019	-0,050
-128,541	38,511	0,057	-0,037
-127,526	85,144	0,078	0,062
-126,512	-200,000	-0,011	0,207
-125,497	378,658	-0,033	0,050
-124,483	740,562	-0,123	0,241
-123,468	-121,044	0,046	-0,005
-122,453	359,653	0,032	-0,046
-121,439	-170,661	-0,109	-0,003
-120,424	426,380	-0,063	0,099
-119,410	800,000	-0,012	0,034
