DTS Sentinel unit serial number:	SN410029Multiplexer serial number:	ORYXHardware model number:	OX2-SRSoftware version number:	ORYX F/W v4,00 Oryx Data Collector v3.7.2.0data status	okinstallation	B4 Nyhavnadifferential loss correction	single-endedforward channel	channel 2reverse channel	N/Adate	2023/12/19time	07:35:13forward acquisition time	300,00reverse acquisition time	0,00gamma	499,1914k internal	0,3126k external	0,3126temperature offset calibration	1,0000default loss term (dB/km)	0,3820temperature slope calibration	1,0000multiplexer offset coefficient	1,0000multiplexer slope coefficient	1,0000fibre end	0,00T internal ref (°C)	21,17T ext. ref 1 (°C)	6,03T ext. ref 2 (°C)	6,17length (m)	temperature (°C)	Stokes	anti-Stokes-744,400	326,159	0,002	-0,003
-743,385	-162,456	-0,293	0,011
-742,371	-179,139	0,164	0,003
-741,356	800,000	-0,103	0,253
-740,342	78,772	-0,086	-0,069
-739,327	-4,133	-0,232	0,119
-738,312	-110,484	-0,113	0,017
-737,298	-138,605	-0,253	-0,020
-736,283	-200,000	-0,014	-0,085
-735,269	-84,420	-0,282	0,066
-734,254	192,694	-0,078	0,088
-733,239	150,222	-0,314	-0,318
-732,225	38,476	-0,035	0,023
-731,210	800,000	0,033	0,077
-730,196	-89,636	-0,112	-0,024
-729,181	-67,851	-0,105	0,030
-728,167	-14,894	-0,092	-0,044
-727,152	-200,000	-0,002	-0,068
-726,137	-153,928	-0,073	0,004
-725,123	765,662	-0,068	-0,138
-724,108	-93,023	-0,086	-0,018
-723,094	225,193	0,043	0,052
-722,079	-200,000	0,011	0,046
-721,064	611,397	-0,063	-0,118
-720,050	-200,000	-0,010	-0,084
-719,035	-200,000	0,030	0,101
-718,021	-200,000	-0,006	-0,165
-717,006	68,045	-0,097	-0,074
-715,991	80,414	-0,045	-0,036
-714,977	452,095	0,017	0,028
-713,962	465,438	0,070	-0,118
-712,948	398,566	0,009	0,014
-711,933	-66,072	-0,069	-0,020
-710,918	-176,179	0,080	0,002
-709,904	63,125	-0,123	-0,092
-708,889	691,382	-0,118	-0,231
-707,875	-200,000	-0,055	-0,213
-706,860	-40,842	0,189	-0,073
-705,845	-77,348	0,084	-0,022
-704,831	-200,000	0,002	-0,092
-703,816	63,521	0,064	0,047
-702,802	-200,000	-0,025	-0,160
-701,787	-141,233	-0,232	-0,017
-700,772	70,469	0,021	0,016
-699,758	800,000	-0,046	-0,138
-698,743	5,461	0,060	-0,033
-697,729	526,323	0,013	-0,023
-696,714	800,000	-0,030	-0,097
-695,699	-200,000	-0,006	-0,190
-694,685	800,000	-0,026	0,080
-693,670	-200,000	-0,011	0,051
-692,656	317,646	-0,067	-0,095
-691,641	-200,000	0,022	0,118
-690,627	-102,438	-0,103	-0,018
-689,612	-52,535	-0,109	-0,037
-688,597	129,285	-0,056	0,054
-687,583	-35,083	0,110	-0,044
-686,568	-200,000	0,010	-0,169
-685,554	-200,000	0,009	-0,081
-684,539	-200,000	0,016	-0,057
-683,524	198,236	-0,094	-0,107
-682,510	-0,886	0,124	0,065
-681,495	76,676	-0,074	0,058
-680,481	-200,000	-0,023	0,087
-679,466	-200,000	-0,014	-0,068
-678,451	-113,226	-0,121	-0,017
-677,437	-63,156	0,052	0,016
-676,422	105,322	0,076	0,066
-675,408	800,000	-0,045	0,124
-674,393	-200,000	-0,088	-0,300
-673,378	-200,000	0,005	-0,110
-672,364	30,159	-0,056	-0,035
-671,349	800,000	-0,047	-0,099
-670,335	-16,340	-0,094	-0,044
-669,320	-133,910	0,132	-0,012
-668,305	-200,000	0,014	-0,090
-667,291	52,798	0,062	0,044
-666,276	587,061	0,043	0,080
-665,262	-133,809	-0,084	-0,008
-664,247	13,424	-0,146	0,084
-663,232	800,000	0,032	0,084
-662,218	108,453	0,134	-0,119
-661,203	83,688	-0,129	0,105
-660,189	-200,000	-0,014	0,051
-659,174	59,018	0,152	-0,111
-658,159	-200,000	-0,029	-0,177
-657,145	-200,000	-0,012	-0,099
-656,130	-200,000	-0,007	-0,023
-655,116	9,899	0,087	-0,049
-654,101	-101,733	0,089	0,016
-653,086	800,000	-0,010	-0,026
-652,072	-78,175	-0,108	0,027
-651,057	80,011	-0,084	0,067
-650,043	-92,831	-0,146	0,030
-649,028	93,063	-0,091	-0,077
-648,014	-200,000	-0,018	0,085
-646,999	-200,000	-0,009	0,081
-645,984	1,443	-0,189	-0,101
-644,970	53,399	-0,060	0,043
-643,955	-200,000	0,021	-0,195
-642,941	-200,000	0,045	-0,174
-641,926	490,240	-0,057	0,097
-640,911	226,252	0,084	0,101
-639,897	800,000	-0,034	-0,089
-638,882	281,637	-0,061	-0,082
-637,868	655,161	0,012	-0,023
-636,853	688,504	0,016	-0,031
-635,838	539,738	0,023	-0,040
-634,824	-82,328	-0,054	0,013
-633,809	69,484	-0,036	-0,027
-632,795	-200,000	0,004	-0,028
-631,780	-10,412	-0,074	-0,036
-630,765	800,000	0,056	-0,148
-629,751	800,000	-0,047	-0,144
-628,736	103,556	-0,083	-0,072
-627,722	275,196	0,077	-0,102
-626,707	-2,448	-0,052	0,027
-625,692	-200,000	0,013	0,050
-624,678	109,268	0,079	-0,070
-623,663	101,769	0,097	0,084
-622,649	47,476	-0,069	-0,048
-621,634	27,896	0,058	-0,036
-620,619	-130,313	-0,067	0,007
-619,605	800,000	-0,040	0,090
-618,590	800,000	-0,024	-0,075
-617,576	-52,396	0,038	-0,013
-616,561	29,136	-0,052	-0,033
-615,546	95,397	0,090	-0,076
-614,532	586,768	-0,082	-0,150
-613,517	-117,954	0,025	-0,003
-612,503	57,102	-0,162	0,117
-611,488	-133,761	0,039	-0,004
-610,474	-200,000	-0,020	0,106
-609,459	-124,670	-0,162	0,018
-608,444	92,088	-0,097	-0,081
-607,430	-200,000	-0,014	-0,078
-606,415	100,052	-0,025	0,021
-605,401	384,564	-0,031	0,048
-604,386	669,585	0,021	-0,041
-603,371	-88,511	0,042	-0,009
-602,357	-43,430	0,055	0,020
-601,342	-200,000	0,008	-0,042
-600,328	800,000	0,036	0,096
-599,313	228,222	0,038	-0,046
-598,298	800,000	-0,029	-0,068
-597,284	800,000	-0,032	0,071
-596,269	800,000	-0,014	0,045
-595,255	800,000	0,015	0,047
-594,240	-200,000	-0,005	0,042
-593,225	-200,000	-0,001	-0,070
-592,211	26,527	-0,085	-0,053
-591,196	418,325	-0,076	-0,121
-590,182	-200,000	0,000	-0,184
-589,167	-200,000	0,000	0,044
-588,152	675,462	0,014	0,027
-587,138	800,000	0,040	-0,098
-586,123	-200,000	0,061	0,000
-585,109	-45,949	-0,102	0,037
-584,094	153,281	0,030	0,031
-583,079	-102,778	0,098	0,017
-582,065	559,563	0,021	0,038
-581,050	388,278	0,022	0,033
-580,036	420,967	-0,085	0,136
-579,021	36,563	-0,125	0,081
-578,006	277,950	-0,061	-0,081
-576,992	-200,000	-0,028	-0,105
-575,977	122,260	0,089	0,082
-574,963	-200,000	-0,008	0,035
-573,948	-200,000	-0,007	-0,034
-572,934	288,259	-0,026	0,034
-571,919	762,285	-0,013	-0,027
-570,904	158,091	-0,043	0,044
-569,890	800,000	0,013	0,031
-568,875	-200,000	0,008	-0,062
-567,861	54,081	-0,101	-0,072
-566,846	-95,390	0,088	0,017
-565,831	226,465	-0,061	0,073
-564,817	649,482	-0,011	-0,020
-563,802	-138,969	-0,120	-0,010
-562,788	-58,739	-0,034	-0,011
-561,773	-200,000	-0,005	0,070
-560,758	128,058	0,152	0,143
-559,744	-200,000	0,016	-0,085
-558,729	188,774	0,034	0,038
-557,715	154,115	0,054	-0,054
-556,700	-136,285	-0,168	0,014
-555,685	-177,945	-0,090	-0,002
-554,671	-35,143	0,125	-0,050
-553,656	263,111	0,071	0,092
-552,642	-200,000	-0,011	-0,080
-551,627	-109,932	0,068	0,010
-550,612	30,187	-0,023	0,015
-549,598	512,840	-0,105	-0,182
-548,583	158,013	-0,070	0,072
-547,569	800,000	0,038	0,123
-546,554	800,000	-0,029	0,079
-545,539	-200,000	-0,004	-0,049
-544,525	800,000	-0,015	0,041
-543,510	209,436	-0,046	0,053
-542,496	-200,000	0,003	0,067
-541,481	9,964	-0,028	-0,015
-540,466	-32,785	-0,135	0,055
-539,452	-25,618	0,149	-0,065
-538,437	-19,982	-0,066	-0,030
-537,423	-146,559	-0,135	-0,009
-536,408	-118,537	0,081	-0,010
-535,393	-93,243	0,117	0,024
-534,379	265,240	0,030	-0,039
-533,364	-200,000	-0,031	-0,275
-532,350	43,764	0,038	-0,026
-531,335	-200,000	-0,043	0,149
-530,321	157,301	-0,024	-0,025
-529,306	-66,997	-0,072	-0,021
-528,291	-121,983	-0,095	-0,011
-527,277	-55,209	0,175	-0,058
-526,262	-124,282	-0,041	0,005
-525,248	323,936	0,069	0,098
-524,233	-200,000	0,002	-0,104
-523,218	219,564	-0,037	0,044
-522,204	-112,249	-0,214	0,031
-521,189	-200,000	0,009	0,130
-520,175	-200,000	0,007	0,040
-519,160	297,507	-0,072	-0,097
-518,145	-68,424	-0,025	-0,007
-517,131	564,249	-0,028	0,051
-516,116	-58,117	0,093	0,030
-515,102	28,433	-0,076	-0,048
-514,087	-170,979	-0,030	-0,001
-513,072	147,868	0,117	-0,116
-512,058	800,000	-0,078	-0,171
-511,043	800,000	-0,024	0,064
-510,029	4,987	-0,073	-0,039
-509,014	-200,000	0,180	0,001
-507,999	637,039	0,053	0,099
-506,985	-5,101	-0,101	0,051
-505,970	800,000	-0,047	-0,130
-504,956	166,269	-0,082	-0,086
-503,941	800,000	-0,034	0,080
-502,926	800,000	0,007	0,017
-501,912	800,000	0,019	0,044
-500,897	9,073	-0,099	0,055
-499,883	-200,000	0,021	-0,127
-498,868	-34,316	0,112	-0,045
-497,853	21,263	-0,123	0,074
-496,839	113,932	0,052	-0,047
-495,824	-200,000	-0,002	-0,077
-494,810	-200,000	0,018	0,097
-493,795	21,230	-0,035	-0,021
-492,781	-13,862	-0,066	0,031
-491,766	800,000	0,007	-0,023
-490,751	136,496	0,097	-0,094
-489,737	800,000	-0,037	0,094
-488,722	-200,000	-0,018	0,083
-487,708	121,552	-0,035	-0,032
-486,693	48,241	-0,045	-0,031
-485,678	800,000	-0,017	-0,045
-484,664	17,834	-0,024	-0,014
-483,649	6,161	-0,033	-0,018
-482,635	-200,000	0,031	0,134
-481,620	-200,000	0,006	-0,095
-480,605	-107,404	0,198	0,032
-479,591	-171,090	-0,041	0,001
-478,576	86,111	-0,057	0,046
-477,562	-117,354	-0,102	-0,013
-476,547	-139,681	-0,107	-0,008
-475,532	20,371	-0,092	0,055
-474,518	-40,105	0,067	0,025
-473,503	-200,000	-0,004	0,045
-472,489	684,831	-0,065	0,125
-471,474	800,000	0,081	-0,220
-470,459	-36,658	-0,091	-0,036
-469,445	-82,501	-0,100	-0,024
-468,430	729,601	-0,014	-0,028
-467,416	354,396	0,067	0,099
-466,401	-200,000	-0,007	0,063
-465,386	339,929	0,031	-0,045
-464,372	338,672	-0,065	0,093
-463,357	-82,157	0,018	-0,004
-462,343	-200,000	0,017	0,079
-461,328	-57,569	-0,065	0,021
-460,313	-61,996	0,145	-0,044
-459,299	-120,061	0,147	-0,018
-458,284	164,189	0,026	-0,027
-457,270	800,000	0,035	0,104
-456,255	47,361	0,090	-0,062
-455,241	-200,000	-0,019	-0,130
-454,226	27,821	0,160	-0,099
-453,211	46,145	0,121	0,083
-452,197	-200,000	-0,017	-0,087
-451,182	-200,000	0,022	0,072
-450,168	259,490	0,036	-0,046
-449,153	101,575	-0,076	0,065
-448,138	-200,000	-0,018	0,089
-447,124	54,003	0,029	0,020
-446,109	-124,693	0,035	0,004
-445,095	-200,000	-0,007	0,091
-444,080	-200,000	-0,005	0,025
-443,065	23,331	0,064	-0,039
-442,051	375,541	-0,011	0,016
-441,036	190,566	-0,073	-0,081
-440,022	800,000	-0,003	0,008
-439,007	-200,000	0,034	0,118
-437,992	110,716	0,031	-0,027
-436,978	-161,289	-0,058	0,002
-435,963	82,464	-0,036	-0,029
-434,949	322,756	-0,077	-0,108
-433,934	-35,776	-0,167	-0,066
-432,919	204,252	-0,050	-0,057
-431,905	249,626	0,074	-0,093
-430,890	-42,643	0,051	0,019
-429,876	-143,597	0,134	-0,009
-428,861	-200,000	-0,028	0,134
-427,846	-200,000	0,008	-0,026
-426,832	-21,385	-0,081	0,036
-425,817	68,995	0,040	-0,030
-424,803	-142,605	-0,179	-0,013
-423,788	-200,000	-0,021	0,103
-422,773	42,802	0,094	-0,063
-421,759	-88,959	-0,108	0,023
-420,744	76,025	-0,088	-0,068
-419,730	46,343	0,106	-0,072
-418,715	52,305	-0,051	-0,036
-417,701	490,938	-0,015	0,026
-416,686	-11,141	0,107	-0,052
-415,671	-131,881	0,199	0,019
-414,657	319,699	0,031	0,044
-413,642	-200,000	-0,008	-0,061
-412,628	800,000	0,005	-0,012
-411,613	74,287	-0,036	0,027
-410,598	800,000	0,004	0,011
-409,584	-200,000	-0,003	-0,087
-408,569	-200,000	-0,007	0,098
-407,555	-98,794	0,089	-0,016
-406,540	97,871	0,071	-0,060
-405,525	-72,961	-0,055	-0,015
-404,511	800,000	-0,018	-0,038
-403,496	374,425	-0,048	0,072
-402,482	-200,000	0,014	0,050
-401,467	-167,848	0,165	-0,005
-400,452	-200,000	-0,019	0,171
-399,438	-200,000	-0,004	0,021
-398,423	21,722	0,195	0,116
-397,409	413,292	-0,031	0,049
-396,394	-200,000	-0,003	-0,094
-395,379	-38,754	0,094	-0,036
-394,365	51,417	-0,079	0,055
-393,350	-40,161	0,171	0,065
-392,336	-200,000	-0,013	-0,045
-391,321	-109,576	-0,181	0,028
-390,306	18,884	0,157	-0,092
-389,292	-84,677	-0,173	0,040
-388,277	-200,000	0,014	0,119
-387,263	361,355	0,098	0,144
-386,248	189,372	0,048	0,052
-385,233	-200,000	0,000	0,078
-384,219	800,000	0,014	0,036
-383,204	-185,942	-0,074	-0,001
-382,190	121,920	-0,078	0,072
-381,175	578,955	0,079	-0,143
-380,160	123,147	0,073	-0,068
-379,146	-200,000	0,024	0,161
-378,131	454,729	0,083	-0,135
-377,117	219,256	-0,004	-0,004
-376,102	800,000	0,046	-0,110
-375,088	-6,256	-0,063	0,032
-374,073	156,919	0,126	0,128
-373,058	629,808	-0,065	-0,120
-372,044	-200,000	-0,001	0,077
-371,029	-27,538	0,077	0,033
-370,015	173,890	0,036	-0,039
-369,000	-200,000	-0,004	-0,164
-367,985	152,699	-0,106	0,106
-366,971	793,563	-0,083	0,168
-365,956	-96,446	-0,018	-0,004
-364,942	16,764	-0,109	-0,063
-363,927	-64,527	0,150	0,045
-362,912	-136,137	0,085	0,007
-361,898	-56,502	0,061	-0,020
-360,883	-180,442	-0,100	0,001
-359,869	800,000	-0,014	0,036
-358,854	-13,234	0,044	0,021
-357,839	-83,838	0,080	0,018
-356,825	-200,000	-0,007	0,034
-355,810	800,000	0,017	0,044
-354,796	800,000	0,030	-0,074
-353,781	234,395	-0,074	-0,090
-352,766	115,338	0,059	0,053
-351,752	28,014	0,033	-0,020
-350,737	156,018	0,094	-0,095
-349,723	-200,000	0,042	0,160
-348,708	800,000	-0,045	0,102
-347,693	77,614	-0,037	0,029
-346,679	-49,667	-0,053	0,018
-345,664	-200,000	-0,033	-0,172
-344,650	532,498	-0,035	0,061
-343,635	-144,884	0,198	0,013
-342,620	64,715	0,125	0,092
-341,606	-139,859	0,034	-0,003
-340,591	-55,220	-0,096	-0,031
-339,577	-200,000	0,022	-0,129
-338,562	692,730	0,041	-0,079
-337,548	-161,832	-0,076	-0,003
-336,533	327,488	0,014	0,020
-335,518	165,207	-0,153	0,158
-334,504	-200,000	0,028	0,140
-333,489	6,051	0,055	0,030
-332,475	800,000	0,046	-0,129
-331,460	346,130	-0,076	-0,110
-330,445	800,000	-0,032	0,066
-329,431	-200,000	-0,003	0,084
-328,416	97,493	0,068	0,057
-327,402	773,890	-0,034	0,069
-326,387	-200,000	0,008	0,037
-325,372	749,837	0,052	-0,102
-324,358	-200,000	-0,006	-0,166
-323,343	212,737	-0,044	-0,051
-322,329	-200,000	-0,006	-0,022
-321,314	-106,393	0,142	0,023
-320,299	-135,292	0,055	-0,005
-319,285	-127,153	0,100	0,011
-318,270	-68,267	0,059	-0,017
-317,256	102,820	-0,025	-0,021
-316,241	118,762	0,114	-0,103
-315,226	-83,260	0,070	-0,016
-314,212	-156,755	-0,021	0,001
-313,197	123,188	0,039	0,036
-312,183	349,613	-0,051	-0,074
-311,168	800,000	0,005	-0,012
-310,153	-122,866	-0,136	0,016
-309,139	8,039	-0,086	-0,047
-308,124	800,000	-0,048	-0,131
-307,110	323,019	0,065	0,090
-306,095	-200,000	-0,015	0,089
-305,080	31,988	0,042	0,026
-304,066	800,000	0,084	0,210
-303,051	-200,000	-0,008	-0,095
-302,037	-200,000	0,009	-0,069
-301,022	800,000	-0,046	0,130
-300,008	265,131	0,058	0,074
-298,993	-28,916	-0,084	-0,035
-297,978	-72,450	0,078	-0,021
-296,964	657,873	0,023	-0,044
-295,949	-175,442	-0,074	-0,001
-294,935	65,256	0,049	-0,036
-293,920	800,000	0,013	0,027
-292,905	-15,844	0,094	0,043
-291,891	20,387	0,081	0,048
-290,876	-26,527	0,089	-0,038
-289,862	-39,809	-0,023	-0,009
-288,847	160,867	-0,091	-0,093
-287,832	594,282	-0,105	-0,192
-286,818	481,098	-0,033	0,055
-285,803	220,916	-0,033	0,039
-284,789	123,606	0,055	0,051
-283,774	170,014	-0,095	0,100
-282,759	-200,000	-0,007	-0,034
-281,745	257,449	0,045	-0,057
-280,730	55,372	-0,063	-0,044
-279,716	79,420	-0,067	0,052
-278,701	-46,435	0,076	-0,027
-277,686	118,006	-0,044	-0,039
-276,672	800,000	-0,041	0,112
-275,657	-200,000	0,014	-0,198
-274,643	800,000	-0,032	-0,075
-273,628	-42,290	-0,129	0,048
-272,613	232,663	-0,030	-0,036
-271,599	-20,911	0,145	0,065
-270,584	-16,534	0,120	0,056
-269,570	756,567	-0,058	0,116
-268,555	288,445	-0,037	0,049
-267,540	69,646	-0,060	0,045
-266,526	99,715	-0,099	0,083
-265,511	-118,218	-0,118	-0,015
-264,497	800,000	0,034	0,083
-263,482	-200,000	-0,002	0,027
-262,467	575,169	0,061	0,109
-261,453	800,000	0,024	0,071
-260,438	-200,000	-0,001	-0,031
-259,424	-91,558	-0,114	0,024
-258,409	800,000	0,037	-0,075
-257,395	-58,470	-0,020	0,006
-256,380	-200,000	-0,033	0,187
-255,365	55,357	-0,084	0,059
-254,351	139,722	-0,043	-0,042
-253,336	-13,778	-0,104	-0,049
-252,322	-200,000	0,002	0,017
-251,307	-171,868	0,068	0,002
-250,292	574,439	0,022	0,040
-249,278	111,546	0,034	0,030
-248,263	-38,321	-0,104	-0,040
-247,249	219,474	-0,059	0,069
-246,234	-200,000	0,024	0,094
-245,219	173,996	0,041	-0,044
-244,205	800,000	0,025	0,056
-243,190	174,579	-0,029	0,031
-242,176	-200,000	0,061	0,200
-241,161	724,317	-0,042	0,082
-240,146	455,165	-0,055	-0,090
-239,132	-46,009	0,028	0,010
-238,117	217,348	-0,080	-0,094
-237,103	12,527	0,180	-0,101
-236,088	384,843	-0,040	0,060
-235,073	-136,334	0,058	-0,005
-234,059	109,919	0,046	-0,041
-233,044	-200,000	-0,016	0,059
-232,030	49,399	0,147	-0,101
-231,015	-200,000	0,010	-0,213
-230,000	800,000	-0,010	-0,031
-228,986	-54,481	0,101	-0,033
-227,971	-13,361	-0,042	-0,020
-226,957	76,593	0,106	-0,082
-225,942	516,976	0,021	-0,036
-224,927	429,212	0,023	0,036
-223,913	-97,621	0,052	-0,010
-222,898	657,855	0,024	0,044
-221,884	444,338	0,050	-0,081
-220,869	-200,000	-0,007	0,080
-219,855	119,909	0,031	0,028
-218,840	-200,000	0,028	0,106
-217,825	-129,904	0,091	0,009
-216,811	800,000	-0,026	0,084
-215,796	-92,026	-0,108	-0,022
-214,782	204,673	-0,111	-0,126
-213,767	28,304	0,067	0,041
-212,752	30,247	0,160	0,099
-211,738	-23,574	-0,033	-0,014
-210,723	104,715	-0,069	0,060
-209,709	314,588	-0,114	-0,157
-208,694	697,190	-0,070	0,135
-207,679	800,000	-0,018	0,039
-206,665	486,956	0,031	0,051
-205,650	600,623	0,061	-0,111
-204,636	118,514	-0,073	0,066
-203,621	269,676	0,042	-0,054
-202,606	117,807	-0,033	-0,029
-201,592	-200,000	-0,004	0,088
-200,577	-200,000	0,019	-0,073
-199,563	-32,506	0,060	0,024
-198,548	800,000	0,010	-0,030
-197,533	-194,025	0,169	0,001
-196,519	423,609	0,035	0,055
-195,504	800,000	0,032	-0,102
-194,490	23,346	0,123	-0,074
-193,475	-200,000	-0,007	-0,091
-192,460	-139,431	0,037	0,003
-191,446	800,000	-0,025	0,058
-190,431	114,591	-0,025	0,022
-189,417	-111,750	-0,130	0,019
-188,402	-200,000	-0,003	-0,098
-187,387	-200,000	-0,023	-0,130
-186,373	-200,000	-0,012	-0,043
-185,358	800,000	-0,061	0,159
-184,344	410,961	-0,027	0,041
-183,329	-200,000	-0,015	0,069
-182,315	800,000	0,016	0,051
-181,300	-200,000	-0,002	-0,025
-180,285	-154,779	-0,124	-0,006
-179,271	-200,000	-0,001	0,077
-178,256	551,549	0,043	0,076
-177,242	-200,000	0,008	0,073
-176,227	192,775	0,059	0,065
-175,212	585,268	0,046	-0,082
-174,198	93,666	-0,110	-0,091
-173,183	800,000	0,033	0,070
-172,169	10,060	-0,077	-0,042
-171,154	443,015	0,027	-0,043
-170,139	213,472	0,104	-0,120
-169,125	-75,864	-0,078	-0,020
-168,110	521,331	0,066	-0,114
-167,096	-107,633	0,052	0,008
-166,081	90,101	0,088	-0,071
-165,066	-174,803	-0,044	0,001
-164,052	36,488	0,066	0,042
-163,037	580,392	0,033	0,059
-162,023	298,825	0,013	0,018
-161,008	800,000	-0,025	0,064
-159,993	-118,656	0,152	-0,019
-158,979	7,580	0,094	0,051
-157,964	116,478	-0,113	0,101
-156,950	-200,000	-0,011	-0,075
-155,935	-131,270	0,062	-0,006
-154,920	20,070	0,052	0,031
-153,906	-200,000	0,000	-0,024
-152,891	294,773	-0,024	0,032
-151,877	139,765	-0,049	0,047
-150,862	104,006	-0,031	-0,027
-149,847	192,135	0,058	-0,064
-148,833	800,000	0,027	0,081
-147,818	-51,701	0,160	0,054
-146,804	-200,000	0,019	0,093
-145,789	-14,815	-0,050	-0,023
-144,775	-195,883	-0,154	0,001
-143,760	800,000	-0,039	-0,118
-142,745	50,237	-0,059	0,041
-141,731	800,000	-0,041	-0,100
-140,716	-200,000	0,011	-0,075
-139,702	800,000	-0,088	0,181
-138,687	-200,000	0,008	0,128
-137,672	-200,000	-0,004	0,117
-136,658	-60,164	-0,251	-0,077
-135,643	-68,000	0,081	-0,023
-134,629	-200,000	-0,008	-0,057
-133,614	232,814	-0,039	0,047
-132,599	800,000	-0,050	0,147
-131,585	-91,515	0,049	0,010
-130,570	800,000	-0,051	0,110
-129,556	-12,177	0,034	0,016
-128,541	291,880	0,026	-0,034
-127,526	493,204	-0,044	-0,073
-126,512	-200,000	-0,026	0,182
-125,497	198,330	0,124	0,139
-124,483	107,200	-0,079	0,068
-123,468	-118,027	0,038	0,005
-122,453	-64,197	-0,194	-0,057
-121,439	-75,533	0,147	-0,038
-120,424	-200,000	-0,020	0,129
