DTS Sentinel unit serial number:	SN410029Multiplexer serial number:	ORYXHardware model number:	OX2-SRSoftware version number:	ORYX F/W v4,00 Oryx Data Collector v3.7.2.0data status	okinstallation	B4 Nyhavnadifferential loss correction	single-endedforward channel	channel 2reverse channel	N/Adate	2023/12/16time	13:15:13forward acquisition time	300,00reverse acquisition time	0,00gamma	499,1914k internal	0,3126k external	0,3126temperature offset calibration	1,0000default loss term (dB/km)	0,3820temperature slope calibration	1,0000multiplexer offset coefficient	1,0000multiplexer slope coefficient	1,0000fibre end	0,00T internal ref (°C)	24,62T ext. ref 1 (°C)	11,13T ext. ref 2 (°C)	11,31length (m)	temperature (°C)	Stokes	anti-Stokes-744,400	166,764	-0,013	-0,014
-743,385	55,971	-0,118	0,085
-742,371	394,665	0,089	-0,139
-741,356	598,025	-0,108	0,201
-740,342	-89,543	0,040	-0,009
-739,327	168,078	-0,169	0,179
-738,312	248,610	0,084	-0,106
-737,298	-100,765	-0,254	0,046
-736,283	469,362	0,071	-0,119
-735,269	72,509	-0,244	0,189
-734,254	31,036	-0,081	-0,052
-733,239	-42,689	-0,328	-0,124
-732,225	800,000	0,030	-0,098
-731,210	-200,000	0,012	-0,094
-730,196	-200,000	-0,018	0,070
-729,181	-151,929	-0,105	-0,006
-728,167	145,001	-0,027	-0,027
-727,152	-65,298	-0,047	-0,014
-726,137	28,801	-0,041	0,026
-725,123	-200,000	-0,035	0,126
-724,108	-200,000	0,014	-0,136
-723,094	-23,918	-0,142	-0,063
-722,079	-109,833	-0,123	0,019
-721,064	64,675	0,109	-0,082
-720,050	-200,000	-0,031	-0,128
-719,035	-141,375	-0,035	0,003
-718,021	240,584	-0,073	0,091
-717,006	-0,594	-0,115	0,061
-715,991	367,942	0,057	0,086
-714,977	10,261	-0,156	-0,088
-713,962	-200,000	-0,000	-0,041
-712,948	48,577	0,045	-0,031
-711,933	-20,798	-0,052	0,024
-710,918	1,991	0,092	-0,049
-709,904	-77,994	0,013	0,003
-708,889	-200,000	-0,018	-0,118
-707,875	-200,000	0,006	-0,078
-706,860	88,300	-0,061	-0,051
-705,845	-200,000	0,011	0,064
-704,831	-108,485	-0,078	0,012
-703,816	-56,583	0,024	-0,008
-702,802	-154,885	-0,083	0,004
-701,787	-116,666	-0,049	-0,007
-700,772	234,820	0,021	-0,026
-699,758	-200,000	0,011	0,043
-698,743	5,949	-0,037	-0,020
-697,729	658,055	0,028	0,054
-696,714	35,632	0,093	0,060
-695,699	-123,078	-0,094	0,011
-694,685	-23,661	-0,110	0,049
-693,670	175,139	-0,083	-0,090
-692,656	-200,000	-0,003	0,091
-691,641	297,461	0,089	0,122
-690,627	-70,924	-0,024	-0,007
-689,612	99,231	-0,062	0,053
-688,597	158,338	0,069	0,071
-687,583	-200,000	-0,009	0,054
-686,568	-128,693	-0,185	0,019
-685,554	800,000	-0,023	-0,047
-684,539	-179,617	0,096	0,002
-683,524	-200,000	0,057	0,210
-682,510	800,000	-0,064	0,163
-681,495	-200,000	0,005	0,029
-680,481	-92,366	-0,020	0,004
-679,466	628,186	-0,007	-0,013
-678,451	-200,000	-0,018	0,123
-677,437	-43,674	0,023	0,009
-676,422	-200,000	0,005	-0,042
-675,408	-200,000	0,002	0,086
-674,393	145,949	0,085	0,085
-673,378	133,593	-0,106	-0,102
-672,364	-95,573	-0,117	0,023
-671,349	-83,335	-0,090	0,021
-670,335	-55,653	-0,161	-0,053
-669,320	-200,000	0,006	0,036
-668,305	-188,126	-0,046	-0,000
-667,291	-200,000	0,015	0,060
-666,276	-62,206	-0,102	0,031
-665,262	-200,000	0,005	-0,024
-664,247	-200,000	0,018	-0,110
-663,232	99,848	0,114	0,098
-662,218	196,115	0,092	0,104
-661,203	131,148	0,007	0,007
-660,189	800,000	-0,032	-0,068
-659,174	-200,000	-0,011	-0,089
-658,159	800,000	0,023	0,060
-657,145	671,777	-0,057	0,110
-656,130	157,941	-0,054	0,056
-655,116	-200,000	0,021	0,099
-654,101	-101,455	0,197	0,035
-653,086	-200,000	-0,004	0,146
-652,072	-125,251	0,105	0,012
-651,057	-200,000	0,006	0,040
-650,043	-200,000	0,024	0,141
-649,028	-42,722	-0,125	0,047
-648,014	-55,608	0,076	0,025
-646,999	53,369	0,101	0,071
-645,984	432,431	0,018	0,030
-644,970	56,304	-0,045	-0,033
-643,955	800,000	-0,014	0,042
-642,941	-50,121	-0,100	-0,035
-641,926	7,738	0,089	0,050
-640,911	-200,000	0,012	-0,088
-639,897	-191,075	0,043	-0,000
-638,882	32,874	0,017	0,011
-637,868	-200,000	0,002	0,056
-636,853	-200,000	0,001	-0,007
-635,838	-200,000	-0,003	-0,028
-634,824	28,852	0,075	0,047
-633,809	686,987	0,021	0,041
-632,795	-5,026	0,140	-0,071
-631,780	800,000	-0,046	-0,123
-630,765	-45,445	-0,056	0,020
-629,751	-6,900	-0,072	0,036
-628,736	365,303	0,017	-0,026
-627,722	800,000	0,018	-0,041
-626,707	-200,000	-0,001	0,071
-625,692	-155,097	-0,052	-0,002
-624,678	28,561	0,038	0,024
-623,663	144,752	0,034	-0,034
-622,649	800,000	-0,012	-0,033
-621,634	72,345	-0,081	-0,063
-620,619	-51,453	-0,153	0,053
-619,605	32,279	0,036	0,023
-618,590	287,819	0,101	-0,135
-617,576	-200,000	-0,010	-0,147
-616,561	-181,611	-0,071	-0,001
-615,546	87,001	0,027	-0,022
-614,532	94,709	0,038	0,032
-613,517	-200,000	-0,006	0,067
-612,503	-41,184	-0,087	-0,033
-611,488	219,521	0,055	-0,066
-610,474	126,221	-0,006	0,006
-609,459	-200,000	-0,050	0,000
-608,444	-200,000	0,008	0,025
-607,430	-101,352	-0,134	-0,024
-606,415	-137,653	-0,054	-0,004
-605,401	800,000	0,051	-0,121
-604,386	-31,527	-0,063	-0,026
-603,371	800,000	0,070	0,157
-602,357	34,613	-0,068	0,044
-601,342	-32,240	0,070	-0,029
-600,328	44,784	-0,038	-0,026
-599,313	-200,000	0,016	0,178
-598,298	-200,000	0,016	0,174
-597,284	4,303	0,008	-0,004
-596,269	-200,000	0,032	-0,190
-595,255	-139,488	-0,125	0,010
-594,240	441,800	-0,066	-0,107
-593,225	5,444	-0,082	0,044
-592,211	-106,561	0,044	-0,007
-591,196	800,000	-0,061	-0,154
-590,182	800,000	0,032	-0,097
-589,167	18,635	-0,041	0,024
-588,152	-200,000	0,002	0,088
-587,138	160,042	-0,076	0,078
-586,123	141,964	-0,009	0,009
-585,109	-68,180	-0,130	0,037
-584,094	-200,000	0,021	0,080
-583,079	107,594	-0,100	-0,088
-582,065	800,000	-0,059	0,133
-581,050	-120,456	0,064	0,008
-580,036	-74,040	-0,041	0,011
-579,021	-200,000	0,003	0,059
-578,006	717,463	-0,053	0,104
-576,992	-200,000	0,020	0,067
-575,977	240,005	0,066	0,082
-574,963	-95,429	-0,087	-0,017
-573,948	-200,000	0,014	0,130
-572,934	58,190	0,155	0,112
-571,919	800,000	-0,018	0,036
-570,904	-129,786	-0,033	-0,003
-569,890	20,760	-0,058	-0,035
-568,875	236,191	-0,026	-0,032
-567,861	-30,300	0,044	0,019
-566,846	53,502	0,034	-0,024
-565,831	202,032	-0,051	-0,058
-564,817	-200,000	0,069	-0,000
-563,802	261,018	-0,035	0,045
-562,788	-166,097	0,031	-0,001
-561,773	63,845	0,064	0,048
-560,758	-200,000	-0,013	0,084
-559,744	-112,801	0,050	0,007
-558,729	332,639	0,044	0,063
-557,715	413,689	-0,034	-0,053
-556,700	87,752	-0,139	0,114
-555,685	393,806	-0,058	-0,090
-554,671	800,000	-0,039	0,106
-553,656	548,524	-0,031	0,055
-552,642	-83,412	-0,110	0,026
-551,627	195,273	-0,048	-0,054
-550,612	-13,310	0,043	0,021
-549,598	-178,843	-0,130	0,002
-548,583	24,954	-0,023	0,014
-547,569	-105,043	-0,174	0,029
-546,554	569,978	0,068	-0,124
-545,539	-7,290	0,071	-0,036
-544,525	334,861	-0,126	0,180
-543,510	-200,000	-0,001	-0,028
-542,496	-200,000	-0,008	0,047
-541,481	-96,728	0,016	-0,003
-540,466	177,601	0,081	0,087
-539,452	800,000	0,025	0,057
-538,437	95,258	0,088	0,074
-537,423	-200,000	0,017	0,113
-536,408	800,000	0,007	-0,023
-535,393	50,058	0,091	-0,063
-534,379	147,426	0,016	0,016
-533,364	-200,000	-0,034	-0,133
-532,350	-24,919	0,081	0,036
-531,335	-200,000	0,006	-0,075
-530,321	260,987	0,026	0,033
-529,306	1,051	0,025	-0,013
-528,291	336,728	-0,010	0,015
-527,277	-112,295	-0,161	0,024
-526,262	482,734	-0,053	-0,090
-525,248	29,073	0,063	-0,039
-524,233	-97,572	0,106	0,020
-523,218	800,000	0,020	0,064
-522,204	12,143	0,057	0,032
-521,189	-136,722	0,058	0,005
-520,175	-200,000	-0,003	-0,138
-519,160	328,027	0,065	-0,093
-518,145	126,813	0,053	-0,050
-517,131	243,540	0,027	0,034
-516,116	459,291	-0,059	0,097
-515,102	-200,000	0,101	-0,000
-514,087	-106,702	-0,057	-0,009
-513,072	800,000	-0,015	-0,030
-512,058	-78,069	0,124	-0,031
-511,043	-120,009	0,114	0,014
-510,029	762,122	0,014	0,029
-509,014	435,586	0,031	0,050
-507,999	226,373	0,045	0,053
-506,985	-35,060	-0,054	-0,022
-505,970	84,683	-0,028	-0,023
-504,956	-125,526	-0,030	-0,003
-503,941	218,697	0,078	-0,092
-502,926	-200,000	0,006	0,078
-501,912	-2,392	0,071	-0,036
-500,897	-200,000	0,002	0,034
-499,883	703,574	0,022	0,043
-498,868	-200,000	-0,019	-0,108
-497,853	246,720	-0,044	0,055
-496,839	-200,000	-0,013	0,099
-495,824	17,291	0,195	-0,114
-494,810	-200,000	-0,006	0,125
-493,795	-9,734	-0,115	-0,056
-492,781	129,222	0,030	0,028
-491,766	241,223	-0,097	0,120
-490,751	-200,000	0,021	0,109
-489,737	-200,000	0,016	-0,067
-488,722	-42,306	-0,050	-0,019
-487,708	42,547	0,066	0,044
-486,693	800,000	-0,016	0,049
-485,678	44,218	-0,060	-0,040
-484,664	-53,683	0,136	0,045
-483,649	-164,783	-0,090	-0,003
-482,635	512,272	-0,033	-0,057
-481,620	-51,238	0,063	0,022
-480,605	361,820	0,065	0,097
-479,591	800,000	-0,039	0,121
-478,576	-148,604	-0,067	0,004
-477,562	-200,000	0,023	-0,094
-476,547	436,070	0,067	-0,108
-475,532	-200,000	-0,007	0,112
-474,518	-36,634	0,154	0,061
-473,503	99,912	-0,075	-0,064
-472,489	551,544	-0,093	-0,165
-471,474	659,707	0,067	-0,127
-470,459	53,474	0,071	-0,050
-469,445	-65,398	-0,097	-0,029
-468,430	160,232	-0,071	0,073
-467,416	-136,744	-0,071	-0,006
-466,401	800,000	0,067	0,137
-465,386	485,444	-0,070	0,118
-464,372	-200,000	-0,044	0,145
-463,357	-29,345	-0,073	0,031
-462,343	-200,000	-0,001	-0,108
-461,328	-99,485	0,062	-0,011
-460,313	-200,000	0,040	0,172
-459,299	-168,293	0,089	0,002
-458,284	-40,721	0,037	-0,014
-457,270	-81,363	0,132	-0,032
-456,255	-200,000	-0,019	-0,066
-455,241	428,678	-0,009	-0,014
-454,226	52,157	-0,084	-0,059
-453,211	-200,000	0,037	-0,136
-452,197	-102,430	-0,018	0,003
-451,182	800,000	-0,022	-0,070
-450,168	-200,000	-0,031	0,152
-449,153	-130,332	-0,131	-0,013
-448,138	-147,942	-0,090	-0,005
-447,124	-200,000	-0,019	-0,092
-446,109	-4,012	-0,101	0,051
-445,095	330,561	0,045	0,064
-444,080	-200,000	0,022	0,077
-443,065	635,379	-0,038	0,071
-442,051	-87,527	0,108	-0,024
-441,036	-200,000	-0,014	-0,075
-440,022	-102,409	-0,039	0,007
-439,007	65,846	-0,085	-0,063
-437,992	-149,744	0,034	0,002
-436,978	-85,913	0,045	0,010
-435,963	-119,293	0,068	-0,009
-434,949	-200,000	0,037	0,163
-433,934	-200,000	0,011	0,167
-432,919	-75,893	0,088	-0,023
-431,905	-78,310	-0,205	0,051
-430,890	114,422	-0,041	0,036
-429,876	309,209	-0,039	0,054
-428,861	800,000	-0,031	0,080
-427,846	74,023	0,043	0,033
-426,832	61,076	-0,085	0,062
-425,817	800,000	-0,023	-0,051
-424,803	421,454	-0,039	0,062
-423,788	800,000	0,018	0,039
-422,773	286,632	0,047	0,063
-421,759	41,390	0,010	-0,007
-420,744	-128,315	-0,145	0,015
-419,730	185,047	-0,078	0,085
-418,715	-125,079	0,175	-0,020
-417,701	427,215	-0,045	-0,071
-416,686	-122,682	-0,068	0,008
-415,671	3,046	0,067	0,036
-414,657	388,595	0,070	-0,107
-413,642	-200,000	0,025	-0,143
-412,628	149,969	-0,015	-0,015
-411,613	-100,064	-0,075	-0,014
-410,598	103,452	0,104	0,090
-409,584	-9,501	0,096	-0,047
-408,569	-82,464	-0,057	0,014
-407,555	225,450	0,090	-0,107
-406,540	-200,000	-0,031	-0,268
-405,525	129,752	0,077	-0,072
-404,511	-200,000	0,008	0,136
-403,496	-123,855	0,062	0,007
-402,482	255,348	-0,041	0,051
-401,467	-200,000	-0,002	0,061
-400,452	-200,000	-0,007	0,241
-399,438	-197,669	-0,117	0,001
-398,423	227,349	0,078	0,094
-397,409	-78,141	-0,151	0,038
-396,394	800,000	-0,048	0,122
-395,379	84,400	0,067	-0,053
-394,365	355,123	0,077	0,113
-393,350	-200,000	0,017	0,128
-392,336	-200,000	-0,020	0,117
-391,321	800,000	0,021	-0,057
-390,306	-46,966	-0,049	0,017
-389,292	-124,055	-0,179	-0,020
-388,277	86,505	-0,037	0,030
-387,263	-200,000	-0,007	-0,088
-386,248	-71,294	0,071	-0,020
-385,233	150,175	0,115	0,115
-384,219	167,963	0,107	-0,112
-383,204	800,000	-0,070	-0,146
-382,190	-104,886	0,043	0,007
-381,175	24,034	0,090	0,055
-380,160	-200,000	0,014	0,055
-379,146	-61,036	-0,085	-0,026
-378,131	46,673	0,079	0,054
-377,117	92,980	-0,184	-0,152
-376,102	36,275	-0,063	0,041
-375,088	-200,000	-0,003	-0,131
-374,073	-90,475	0,082	-0,017
-373,058	800,000	0,040	-0,084
-372,044	161,393	-0,097	-0,100
-371,029	230,477	0,030	-0,036
-370,015	182,619	-0,067	0,072
-369,000	-200,000	-0,013	-0,155
-367,985	-200,000	0,020	0,106
-366,971	-200,000	0,001	-0,051
-365,956	14,819	0,089	-0,051
-364,942	-200,000	-0,001	0,177
-363,927	162,385	0,091	-0,094
-362,912	173,754	0,045	0,047
-361,898	-104,499	-0,080	-0,013
-360,883	-200,000	0,031	-0,187
-359,869	800,000	0,064	-0,170
-358,854	-154,314	0,205	-0,010
-357,839	143,053	0,112	0,109
-356,825	587,082	0,071	0,130
-355,810	800,000	0,046	-0,143
-354,796	-170,999	0,021	0,001
-353,781	568,104	-0,069	-0,124
-352,766	-137,416	0,184	0,015
-351,752	656,645	-0,003	-0,005
-350,737	800,000	-0,034	0,101
-349,723	-98,680	-0,052	-0,010
-348,708	29,605	-0,102	-0,063
-347,693	210,459	0,025	-0,029
-346,679	31,019	0,037	-0,023
-345,664	176,940	-0,088	-0,094
-344,650	55,284	-0,043	0,031
-343,635	-200,000	-0,008	0,082
-342,620	-200,000	0,002	0,054
-341,606	3,513	0,135	-0,072
-340,591	393,375	-0,059	0,091
-339,577	384,422	0,064	-0,096
-338,562	-1,851	0,118	-0,061
-337,548	800,000	0,035	0,089
-336,533	-109,956	0,242	-0,037
-335,518	66,357	0,106	0,079
-334,504	123,856	-0,109	0,100
-333,489	800,000	0,046	-0,096
-332,475	-200,000	0,016	0,095
-331,460	256,912	-0,066	0,083
-330,445	-73,861	0,070	-0,019
-329,431	207,347	-0,065	-0,074
-328,416	800,000	0,035	-0,076
-327,402	-101,751	0,111	0,020
-326,387	503,488	0,019	-0,032
-325,372	145,696	0,072	-0,071
-324,358	-200,000	0,009	-0,036
-323,343	240,491	0,092	0,112
-322,329	-200,000	-0,000	-0,027
-321,314	301,642	-0,044	0,059
-320,299	-64,779	0,097	0,029
-319,285	35,833	-0,017	0,011
-318,270	163,720	-0,046	0,047
-317,256	-18,926	-0,168	-0,076
-316,241	33,411	-0,073	0,047
-315,226	-200,000	-0,019	0,076
-314,212	-200,000	-0,016	0,076
-313,197	-96,094	0,125	0,024
-312,183	11,038	0,099	0,055
-311,168	564,061	-0,105	-0,187
-310,153	-200,000	-0,008	0,033
-309,139	-200,000	0,008	-0,074
-308,124	-5,189	0,114	-0,057
-307,110	-92,627	0,086	-0,017
-306,095	50,580	-0,048	-0,033
-305,080	128,038	-0,062	0,058
-304,066	590,593	-0,047	0,085
-303,051	42,742	0,019	-0,013
-302,037	-105,786	0,019	-0,003
-301,022	800,000	-0,028	-0,061
-300,008	192,707	0,143	-0,158
-298,993	-73,656	0,077	-0,021
-297,978	-19,949	-0,016	-0,007
-296,964	-200,000	-0,015	-0,090
-295,949	275,633	-0,094	-0,123
-294,935	-19,966	0,097	-0,044
-293,920	476,587	0,079	-0,130
-292,905	-200,000	-0,028	-0,102
-291,891	73,271	-0,081	0,062
-290,876	275,861	0,054	0,070
-289,862	454,010	0,044	-0,072
-288,847	-86,778	-0,059	-0,013
-287,832	598,225	0,073	0,133
-286,818	800,000	-0,098	-0,217
-285,803	-200,000	-0,018	0,099
-284,789	5,049	0,030	0,016
-283,774	115,096	-0,049	-0,044
-282,759	-54,985	-0,071	0,023
-281,745	434,862	-0,027	0,043
-280,730	-200,000	-0,040	-0,138
-279,716	-200,000	0,005	0,041
-278,701	51,516	0,060	-0,042
-277,686	-111,090	0,079	-0,012
-276,672	800,000	0,027	0,058
-275,657	-85,481	-0,136	0,031
-274,643	-200,000	0,024	-0,112
-273,628	-200,000	0,009	-0,104
-272,613	-200,000	0,007	0,114
-271,599	-200,000	0,009	-0,093
-270,584	22,927	0,153	0,092
-269,570	215,151	-0,072	-0,083
-268,555	800,000	-0,038	-0,086
-267,540	0,078	-0,090	0,047
-266,526	-200,000	-0,005	-0,111
-265,511	800,000	0,037	-0,113
-264,497	800,000	-0,022	0,057
-263,482	129,597	0,038	0,035
-262,467	581,221	-0,083	0,149
-261,453	305,450	0,037	0,050
-260,438	-134,345	-0,096	-0,009
-259,424	-56,792	-0,120	-0,038
-258,409	800,000	0,024	-0,052
-257,395	-114,866	0,084	-0,012
-256,380	28,790	-0,012	-0,008
-255,365	-50,075	-0,061	-0,021
-254,351	-200,000	-0,030	-0,123
-253,336	-63,443	-0,202	-0,060
-252,322	800,000	-0,015	-0,038
-251,307	447,221	0,026	0,042
-250,292	51,091	-0,066	-0,046
-249,278	307,621	-0,047	-0,064
-248,263	800,000	0,030	0,094
-247,249	559,534	0,013	0,022
-246,234	62,898	0,050	0,037
-245,219	30,792	-0,135	-0,084
-244,205	800,000	-0,032	-0,091
-243,190	-48,301	0,118	-0,041
-242,176	61,681	-0,006	0,005
-241,161	-25,082	0,118	0,051
-240,146	265,964	0,084	-0,108
-239,132	-128,314	-0,032	0,003
-238,117	145,894	-0,139	0,136
-237,103	-64,427	-0,065	0,019
-236,088	-162,559	-0,082	-0,003
-235,073	55,755	-0,078	-0,055
-234,059	-6,433	0,090	0,045
-233,044	-200,000	0,003	0,035
-232,030	-68,659	0,069	-0,019
-231,015	-34,599	0,089	0,035
-230,000	-76,597	-0,113	0,029
-228,986	67,480	0,077	-0,058
-227,971	-6,767	-0,034	-0,017
-226,957	157,288	0,113	0,114
-225,942	-200,000	-0,002	-0,045
-224,927	-123,249	0,022	-0,003
-223,913	-84,247	-0,084	0,019
-222,898	-200,000	-0,001	-0,156
-221,884	800,000	-0,036	-0,085
-220,869	800,000	0,057	0,140
-219,855	383,039	0,046	-0,069
-218,840	441,533	-0,044	0,071
-217,825	-88,737	0,122	0,026
-216,811	393,904	0,028	-0,042
-215,796	800,000	-0,015	0,038
-214,782	-150,354	-0,010	-0,001
-213,767	-200,000	-0,015	0,141
-212,752	311,611	-0,040	0,054
-211,738	-136,463	0,213	-0,018
-210,723	-200,000	-0,018	-0,077
-209,709	-200,000	-0,010	-0,066
-208,694	800,000	-0,063	-0,135
-207,679	340,302	-0,012	-0,017
-206,665	167,789	0,073	-0,075
-205,650	-116,319	0,040	-0,005
-204,636	-200,000	-0,005	-0,033
-203,621	-200,000	-0,000	-0,038
-202,606	800,000	-0,056	-0,138
-201,592	632,657	-0,038	0,071
-200,577	617,662	-0,032	-0,059
-199,563	-122,962	0,021	0,002
-198,548	-163,919	0,111	-0,004
-197,533	15,050	0,020	0,012
-196,519	496,582	0,086	0,144
-195,504	-200,000	0,018	-0,098
-194,490	37,719	-0,142	0,092
-193,475	359,777	-0,043	0,063
-192,460	-200,000	0,012	-0,061
-191,446	800,000	-0,005	-0,015
-190,431	800,000	-0,058	-0,121
-189,417	66,666	0,043	0,032
-188,402	-200,000	0,006	0,091
-187,387	-169,153	-0,127	0,003
-186,373	800,000	0,050	-0,134
-185,358	-200,000	-0,013	-0,152
-184,344	481,563	0,046	-0,076
-183,329	771,846	0,055	0,110
-182,315	532,495	0,052	0,090
-181,300	-134,690	-0,073	0,006
-180,285	-200,000	-0,013	-0,167
-179,271	800,000	0,051	0,105
-178,256	-200,000	-0,006	0,060
-177,242	-27,054	0,092	0,039
-176,227	114,365	0,070	0,062
-175,212	198,239	-0,098	-0,109
-174,198	32,276	-0,034	-0,021
-173,183	394,591	-0,034	0,052
-172,169	-200,000	0,016	-0,082
-171,154	-161,133	-0,081	-0,003
-170,139	564,173	-0,066	0,116
-169,125	800,000	0,039	0,095
-168,110	20,671	0,096	0,057
-167,096	88,214	-0,056	0,045
-166,081	369,287	-0,040	0,060
-165,066	235,355	-0,105	-0,127
-164,052	57,493	-0,029	-0,021
-163,037	800,000	0,012	0,027
-162,023	-200,000	0,001	0,146
-161,008	800,000	0,020	-0,055
-159,993	32,163	-0,082	-0,052
-158,979	559,955	-0,060	-0,105
-157,964	-16,652	-0,056	-0,026
-156,950	132,493	-0,147	-0,138
-155,935	-7,031	-0,119	-0,059
-154,920	800,000	0,022	-0,044
-153,906	77,505	0,111	0,086
-152,891	-200,000	0,005	0,110
-151,877	-10,637	-0,144	0,069
-150,862	-108,259	-0,106	0,017
-149,847	-70,798	-0,140	-0,038
-148,833	360,900	-0,053	-0,077
-147,818	102,806	0,079	-0,067
-146,804	-133,966	0,102	-0,009
-145,789	284,032	0,060	0,079
-144,775	800,000	0,066	0,135
-143,760	-200,000	0,001	0,083
-142,745	-200,000	-0,116	-0,000
-141,731	-200,000	-0,015	-0,117
-140,716	154,233	0,069	-0,069
-139,702	212,765	-0,021	0,024
-138,687	627,181	0,010	0,018
-137,672	133,050	0,039	0,037
-136,658	-200,000	-0,002	0,085
-135,643	265,439	0,064	-0,081
-134,629	-200,000	-0,007	0,057
-133,614	783,226	0,080	0,160
-132,599	63,511	0,084	0,061
-131,585	146,480	-0,069	0,067
-130,570	-66,485	-0,083	0,024
-129,556	111,578	-0,040	-0,035
-128,541	235,822	-0,028	-0,034
-127,526	-13,359	0,042	0,020
-126,512	-26,143	-0,091	0,039
-125,497	751,343	0,064	0,127
-124,483	-200,000	-0,004	0,060
-123,468	-65,157	-0,073	0,021
-122,453	-200,000	0,006	-0,057
-121,439	103,484	0,089	-0,076
-120,424	-62,344	-0,122	-0,037
-119,410	800,000	-0,009	0,027
