DTS Sentinel unit serial number:	SN410029Multiplexer serial number:	ORYXHardware model number:	OX2-SRSoftware version number:	ORYX F/W v4,00 Oryx Data Collector v3.7.2.0data status	okinstallation	B4 Nyhavnadifferential loss correction	single-endedforward channel	channel 2reverse channel	N/Adate	2023/12/16time	05:20:14forward acquisition time	300,00reverse acquisition time	0,00gamma	499,1914k internal	0,3128k external	0,3128temperature offset calibration	1,0000default loss term (dB/km)	0,3820temperature slope calibration	1,0000multiplexer offset coefficient	1,0000multiplexer slope coefficient	1,0000fibre end	0,00T internal ref (°C)	22,12T ext. ref 1 (°C)	7,37T ext. ref 2 (°C)	7,54length (m)	temperature (°C)	Stokes	anti-Stokes-744,400	26,320	0,115	0,071
-743,385	-82,096	-0,326	-0,079
-742,371	-87,977	0,109	-0,024
-741,356	28,032	-0,171	0,107
-740,342	-105,841	0,099	-0,016
-739,327	648,161	-0,123	0,235
-738,312	-171,343	-0,122	-0,003
-737,298	-66,637	-0,188	0,055
-736,283	-102,602	-0,224	0,039
-735,269	86,046	-0,151	0,123
-734,254	-200,000	0,006	-0,073
-733,239	-110,628	-0,346	-0,053
-732,225	136,169	0,078	0,076
-731,210	-200,000	0,009	0,038
-730,196	160,224	-0,046	-0,048
-729,181	-20,548	-0,031	0,014
-728,167	30,572	-0,102	-0,065
-727,152	-136,395	-0,085	0,007
-726,137	383,678	-0,077	-0,119
-725,123	24,398	0,103	0,063
-724,108	-96,727	0,025	0,005
-723,094	230,514	-0,052	-0,064
-722,079	-81,092	0,089	0,022
-721,064	654,957	-0,028	0,054
-720,050	800,000	-0,006	0,017
-719,035	800,000	-0,042	-0,132
-718,021	49,982	-0,131	-0,092
-717,006	543,384	-0,091	-0,163
-715,991	-86,712	-0,088	-0,020
-714,977	-200,000	-0,018	-0,244
-713,962	-200,000	-0,035	-0,117
-712,948	95,646	0,046	-0,039
-711,933	718,754	0,022	0,045
-710,918	26,939	-0,086	-0,053
-709,904	-200,000	-0,003	-0,157
-708,889	-168,304	-0,094	0,003
-707,875	-200,000	-0,026	-0,104
-706,860	-94,200	0,044	0,009
-705,845	-64,004	-0,039	0,012
-704,831	259,465	0,049	0,063
-703,816	800,000	-0,033	0,093
-702,802	96,442	-0,133	-0,113
-701,787	445,729	0,087	-0,143
-700,772	28,338	0,048	0,030
-699,758	800,000	0,051	-0,114
-698,743	34,145	0,029	-0,019
-697,729	-115,640	0,098	-0,013
-696,714	16,738	-0,053	-0,031
-695,699	41,051	-0,052	-0,035
-694,685	571,427	0,049	-0,089
-693,670	31,865	0,086	-0,055
-692,656	95,086	-0,038	-0,032
-691,641	-167,262	0,109	-0,003
-690,627	310,348	0,067	0,093
-689,612	-200,000	-0,014	-0,085
-688,597	-7,590	-0,029	-0,015
-687,583	13,749	-0,054	0,031
-686,568	-21,791	-0,103	-0,047
-685,554	226,461	0,022	-0,026
-684,539	493,086	-0,074	-0,126
-683,524	-200,000	-0,127	-0,000
-682,510	800,000	-0,031	0,089
-681,495	-119,256	-0,118	0,015
-680,481	-200,000	-0,009	0,030
-679,466	69,487	-0,096	-0,073
-678,451	-200,000	-0,014	-0,184
-677,437	5,726	0,165	-0,090
-676,422	23,897	-0,068	-0,042
-675,408	800,000	0,032	0,077
-674,393	321,620	0,054	-0,077
-673,378	800,000	-0,100	-0,207
-672,364	433,505	-0,040	-0,064
-671,349	552,360	-0,061	-0,109
-670,335	206,111	0,082	-0,095
-669,320	-57,624	0,114	0,037
-668,305	-77,979	-0,043	-0,011
-667,291	-200,000	0,003	0,010
-666,276	800,000	-0,007	-0,015
-665,262	-200,000	-0,001	-0,073
-664,247	439,727	0,042	-0,068
-663,232	-37,036	-0,035	-0,014
-662,218	87,133	-0,044	-0,036
-661,203	310,497	0,022	-0,031
-660,189	-200,000	-0,025	0,102
-659,174	-16,908	-0,055	-0,026
-658,159	301,674	-0,027	0,036
-657,145	437,910	-0,060	-0,097
-656,130	-200,000	0,028	-0,162
-655,116	-24,086	0,060	-0,027
-654,101	800,000	-0,026	-0,057
-653,086	25,410	-0,081	0,050
-652,072	-174,943	-0,157	0,003
-651,057	800,000	-0,036	-0,075
-650,043	-200,000	0,016	-0,145
-649,028	-141,889	-0,066	-0,005
-648,014	-44,887	0,071	0,026
-646,999	572,845	-0,030	0,055
-645,984	-105,101	0,106	-0,018
-644,970	546,203	-0,062	0,111
-643,955	-137,224	0,046	0,004
-642,941	213,859	-0,035	-0,041
-641,926	-140,734	-0,102	-0,008
-640,911	305,421	0,115	0,159
-639,897	376,664	-0,062	-0,095
-638,882	-160,600	0,121	0,005
-637,868	125,165	-0,012	0,011
-636,853	21,197	-0,072	0,043
-635,838	25,633	0,046	-0,028
-634,824	800,000	-0,020	0,059
-633,809	-70,492	0,013	0,004
-632,795	25,115	-0,075	-0,046
-631,780	437,467	0,050	0,081
-630,765	-200,000	0,009	0,062
-629,751	800,000	0,040	0,085
-628,736	-200,000	0,002	0,010
-627,722	-12,011	-0,167	0,081
-626,707	-200,000	-0,019	0,075
-625,692	-200,000	-0,019	0,099
-624,678	800,000	-0,035	0,089
-623,663	511,198	0,010	-0,018
-622,649	-7,363	-0,056	-0,028
-621,634	527,945	-0,057	-0,100
-620,619	171,510	-0,038	-0,040
-619,605	136,022	-0,088	-0,085
-618,590	108,816	-0,026	-0,023
-617,576	389,321	0,068	0,105
-616,561	-109,927	-0,038	-0,006
-615,546	800,000	-0,040	0,097
-614,532	-109,734	-0,138	-0,021
-613,517	272,534	-0,064	0,084
-612,503	130,297	0,148	-0,140
-611,488	45,845	-0,083	0,057
-610,474	304,228	0,051	-0,070
-609,459	-34,930	-0,010	-0,004
-608,444	-200,000	0,003	-0,011
-607,430	178,622	0,056	-0,061
-606,415	-200,000	-0,020	0,095
-605,401	-200,000	0,013	-0,129
-604,386	-178,882	-0,035	0,001
-603,371	-62,109	0,092	-0,028
-602,357	800,000	0,019	-0,044
-601,342	800,000	-0,013	-0,041
-600,328	-200,000	-0,038	-0,128
-599,313	-158,160	-0,151	0,006
-598,298	-200,000	-0,021	0,099
-597,284	800,000	0,041	0,086
-596,269	9,786	0,154	0,086
-595,255	272,163	-0,073	0,095
-594,240	-152,010	0,043	0,002
-593,225	-200,000	-0,010	-0,092
-592,211	-66,873	-0,125	0,036
-591,196	-131,286	-0,069	-0,007
-590,182	10,085	-0,026	0,015
-589,167	-200,000	0,014	0,096
-588,152	-200,000	-0,006	0,033
-587,138	21,946	-0,030	-0,018
-586,123	-57,205	0,089	0,029
-585,109	-1,117	-0,105	0,055
-584,094	40,685	0,166	-0,111
-583,079	169,844	-0,113	-0,119
-582,065	-200,000	-0,007	0,061
-581,050	653,455	-0,028	0,054
-580,036	177,918	0,055	-0,060
-579,021	333,766	0,023	-0,032
-578,006	45,932	-0,029	-0,020
-576,992	-128,160	0,027	0,003
-575,977	800,000	-0,025	0,064
-574,963	-123,116	0,173	0,020
-573,948	-126,672	0,163	-0,018
-572,934	102,690	0,078	-0,067
-571,919	-125,721	-0,087	-0,010
-570,904	-68,481	0,082	-0,023
-569,890	167,190	0,086	0,091
-568,875	-97,093	-0,043	0,008
-567,861	651,530	0,047	0,089
-566,846	22,415	-0,048	-0,029
-565,831	-38,497	-0,089	0,034
-564,817	325,784	-0,031	-0,044
-563,802	-200,000	-0,003	-0,171
-562,788	108,836	0,046	-0,041
-561,773	581,536	0,026	-0,048
-560,758	-97,725	-0,056	0,011
-559,744	-80,798	0,076	-0,019
-558,729	-64,749	0,053	-0,016
-557,715	4,251	0,060	0,032
-556,700	-90,083	0,089	0,019
-555,685	800,000	-0,037	-0,092
-554,671	53,889	-0,038	0,027
-553,656	-200,000	-0,015	0,070
-552,642	800,000	0,043	0,099
-551,627	-164,906	0,069	-0,002
-550,612	-200,000	0,050	0,000
-549,598	-127,704	0,050	0,005
-548,583	-69,062	-0,090	-0,025
-547,569	-78,677	0,045	0,011
-546,554	164,325	0,049	0,051
-545,539	-57,598	-0,091	0,029
-544,525	800,000	0,023	-0,064
-543,510	452,775	-0,080	-0,130
-542,496	357,758	-0,093	-0,138
-541,481	-178,552	-0,166	-0,003
-540,466	133,481	0,145	-0,138
-539,452	-200,000	0,001	0,039
-538,437	800,000	0,021	0,065
-537,423	222,912	0,071	0,085
-536,408	241,252	-0,055	0,067
-535,393	-112,292	-0,067	-0,010
-534,379	-82,596	-0,079	-0,019
-533,364	284,907	0,101	0,135
-532,350	50,710	0,056	0,039
-531,335	-200,000	-0,012	0,080
-530,321	9,881	0,057	-0,032
-529,306	13,319	-0,098	0,056
-528,291	92,877	-0,131	-0,109
-527,277	-200,000	0,024	-0,080
-526,262	194,950	0,077	-0,087
-525,248	-56,271	0,064	0,021
-524,233	3,168	-0,076	0,041
-523,218	-200,000	-0,007	0,051
-522,204	-176,863	0,074	-0,001
-521,189	575,508	-0,040	-0,073
-520,175	690,035	0,024	-0,047
-519,160	-146,931	-0,118	0,007
-518,145	158,811	0,046	-0,047
-517,131	800,000	-0,056	-0,153
-516,116	800,000	0,081	0,206
-515,102	-200,000	-0,016	0,148
-514,087	800,000	0,026	-0,062
-513,072	-200,000	-0,022	0,103
-512,058	-20,945	0,091	-0,041
-511,043	-105,338	0,129	0,022
-510,029	157,473	0,085	-0,086
-509,014	800,000	-0,008	0,022
-507,999	-76,496	0,024	-0,006
-506,985	604,909	0,017	-0,031
-505,970	-13,699	0,056	-0,027
-504,956	5,117	0,044	0,024
-503,941	-104,469	-0,107	0,018
-502,926	26,510	0,052	0,032
-501,912	-200,000	-0,004	0,051
-500,897	-106,283	0,135	-0,022
-499,883	110,789	-0,017	0,015
-498,868	331,379	0,048	-0,068
-497,853	56,312	0,067	0,048
-496,839	4,474	-0,064	-0,034
-495,824	641,775	-0,031	-0,059
-494,810	-200,000	-0,001	-0,020
-493,795	190,723	0,063	-0,070
-492,781	-167,387	0,017	-0,001
-491,766	789,007	-0,033	-0,066
-490,751	454,195	0,029	-0,048
-489,737	41,182	-0,090	0,060
-488,722	145,081	-0,102	0,101
-487,708	104,126	-0,130	-0,112
-486,693	119,732	0,121	0,111
-485,678	-200,000	0,006	0,048
-484,664	0,710	-0,064	0,034
-483,649	15,482	0,039	0,023
-482,635	-67,681	0,092	0,026
-481,620	-200,000	-0,003	0,060
-480,605	-200,000	-0,002	0,079
-479,591	77,494	0,073	0,057
-478,576	800,000	0,027	-0,062
-477,562	-90,284	-0,087	0,019
-476,547	-19,323	0,072	-0,033
-475,532	-200,000	-0,018	-0,115
-474,518	-171,202	-0,188	0,005
-473,503	158,331	-0,114	0,117
-472,489	-75,198	0,147	-0,038
-471,474	800,000	0,029	0,060
-470,459	14,118	-0,068	0,039
-469,445	596,873	-0,065	0,120
-468,430	14,264	-0,066	-0,038
-467,416	-55,481	-0,071	-0,023
-466,401	123,912	0,113	0,104
-465,386	90,549	0,112	0,092
-464,372	521,268	0,039	-0,068
-463,357	295,572	0,072	0,097
-462,343	-88,366	-0,115	0,025
-461,328	800,000	-0,074	-0,190
-460,313	-200,000	0,012	0,085
-459,299	800,000	-0,057	0,120
-458,284	800,000	0,026	0,064
-457,270	800,000	-0,017	-0,053
-456,255	-200,000	-0,008	0,060
-455,241	800,000	-0,049	-0,142
-454,226	27,148	0,101	-0,062
-453,211	182,264	-0,068	0,074
-452,197	20,005	0,027	-0,016
-451,182	-122,450	0,114	0,013
-450,168	-200,000	0,002	0,046
-449,153	-200,000	-0,006	0,168
-448,138	-13,921	-0,059	-0,028
-447,124	-72,359	-0,193	-0,052
-446,109	310,361	-0,059	-0,082
-445,095	176,923	-0,050	-0,053
-444,080	128,892	0,103	0,096
-443,065	-200,000	0,001	0,121
-442,051	198,681	-0,031	0,035
-441,036	-174,932	-0,120	-0,002
-440,022	328,364	-0,066	0,094
-439,007	-78,736	0,164	0,041
-437,992	6,700	0,086	-0,047
-436,978	-36,609	0,042	-0,017
-435,963	321,896	0,073	-0,103
-434,949	-200,000	-0,005	0,041
-433,934	-179,867	-0,026	-0,000
-432,919	800,000	0,054	-0,152
-431,905	-17,103	0,079	-0,037
-430,890	545,468	0,024	-0,042
-429,876	-200,000	0,012	0,086
-428,861	-35,438	0,044	0,018
-427,846	21,044	0,069	-0,041
-426,832	-200,000	0,002	-0,040
-425,817	88,836	-0,088	-0,072
-424,803	-200,000	-0,010	-0,246
-423,788	-200,000	0,004	0,060
-422,773	800,000	0,065	0,151
-421,759	800,000	-0,039	-0,116
-420,744	800,000	-0,016	0,046
-419,730	-200,000	-0,005	-0,139
-418,715	-200,000	0,015	-0,104
-417,701	-200,000	0,011	-0,116
-416,686	693,810	-0,067	-0,131
-415,671	-4,056	0,170	0,086
-414,657	-141,938	0,044	-0,003
-413,642	800,000	-0,021	0,060
-412,628	-91,837	-0,114	-0,024
-411,613	163,019	-0,064	-0,066
-410,598	34,961	-0,068	0,043
-409,584	-69,491	-0,073	0,020
-408,569	-200,000	0,034	-0,119
-407,555	547,519	-0,012	-0,022
-406,540	-177,065	-0,123	0,002
-405,525	-200,000	-0,001	-0,064
-404,511	169,914	0,055	-0,058
-403,496	-200,000	-0,002	-0,115
-402,482	156,331	-0,045	0,046
-401,467	-23,337	0,045	0,020
-400,452	-3,683	0,167	0,085
-399,438	-200,000	-0,016	0,130
-398,423	800,000	-0,012	0,034
-397,409	261,698	-0,144	-0,183
-396,394	84,453	0,078	0,063
-395,379	800,000	-0,046	-0,121
-394,365	643,661	-0,101	0,190
-393,350	-200,000	-0,012	0,060
-392,336	-200,000	-0,015	0,076
-391,321	800,000	-0,016	0,043
-390,306	-200,000	-0,009	-0,124
-389,292	800,000	-0,012	-0,037
-388,277	81,595	-0,068	-0,054
-387,263	80,914	-0,020	0,016
-386,248	-200,000	-0,001	-0,059
-385,233	-47,336	0,076	-0,027
-384,219	586,389	0,022	-0,040
-383,204	-102,529	-0,077	-0,013
-382,190	800,000	-0,029	-0,084
-381,175	731,054	-0,060	0,118
-380,160	151,628	0,033	0,033
-379,146	-199,931	0,111	-0,000
-378,131	800,000	0,079	0,166
-377,117	800,000	-0,019	-0,050
-376,102	-200,000	-0,004	-0,081
-375,088	280,808	-0,038	-0,051
-374,073	192,444	0,016	0,018
-373,058	-69,605	0,032	0,009
-372,044	45,832	0,141	0,096
-371,029	159,205	0,070	0,072
-370,015	-107,658	-0,143	-0,023
-369,000	-200,000	-0,004	0,078
-367,985	-150,380	0,073	0,004
-366,971	800,000	0,035	-0,106
-365,956	-95,200	0,056	0,011
-364,942	-195,179	-0,048	0,000
-363,927	487,261	-0,055	0,093
-362,912	-200,000	0,025	0,098
-361,898	90,048	0,063	-0,051
-360,883	-39,351	0,093	0,035
-359,869	-30,904	0,100	-0,041
-358,854	118,313	0,051	-0,046
-357,839	-120,933	0,082	0,010
-356,825	57,954	0,076	0,055
-355,810	-200,000	-0,001	-0,003
-354,796	81,625	-0,110	-0,087
-353,781	-113,880	0,036	0,005
-352,766	-200,000	0,001	0,058
-351,752	-89,923	-0,141	0,030
-350,737	800,000	-0,016	-0,039
-349,723	252,433	0,073	0,091
-348,708	-16,416	0,120	-0,056
-347,693	-173,247	0,023	0,000
-346,679	-118,873	-0,112	-0,014
-345,664	-200,000	0,012	-0,060
-344,650	-200,000	0,005	0,132
-343,635	548,822	0,013	0,023
-342,620	145,613	-0,077	-0,075
-341,606	800,000	0,013	0,029
-340,591	612,980	-0,131	0,241
-339,577	54,173	-0,101	-0,071
-338,562	-182,095	-0,187	0,003
-337,548	97,480	-0,045	-0,038
-336,533	800,000	-0,033	0,078
-335,518	-125,351	0,091	0,010
-334,504	-119,695	0,043	0,005
-333,489	-200,000	0,016	-0,178
-332,475	270,897	-0,116	-0,150
-331,460	40,686	0,055	-0,036
-330,445	-200,000	-0,007	-0,099
-329,431	800,000	0,034	0,088
-328,416	425,085	0,057	-0,089
-327,402	-142,416	-0,121	-0,009
-326,387	101,238	0,062	-0,052
-325,372	236,281	0,068	-0,082
-324,358	33,357	0,075	0,048
-323,343	-0,730	-0,014	0,007
-322,329	163,978	0,059	0,061
-321,314	122,648	-0,001	-0,001
-320,299	-121,269	0,145	0,018
-319,285	275,779	0,044	-0,057
-318,270	276,748	-0,102	-0,133
-317,256	-93,402	-0,052	-0,010
-316,241	800,000	-0,015	0,044
-315,226	335,927	0,038	-0,054
-314,212	-193,803	0,061	0,000
-313,197	800,000	0,037	0,097
-312,183	10,420	-0,068	0,038
-311,168	169,127	-0,052	0,055
-310,153	800,000	0,019	0,051
-309,139	-200,000	0,002	-0,066
-308,124	-113,466	0,064	-0,009
-307,110	-117,210	0,163	0,021
-306,095	-97,376	0,029	0,005
-305,080	146,922	0,041	0,040
-304,066	179,538	-0,036	-0,039
-303,051	-152,321	0,015	-0,001
-302,037	-200,000	-0,027	0,111
-301,022	270,372	0,056	0,073
-300,008	-200,000	-0,007	0,065
-298,993	-200,000	0,003	0,028
-297,978	33,321	-0,096	0,061
-296,964	550,788	0,007	0,013
-295,949	118,814	-0,037	0,033
-294,935	-200,000	0,014	-0,165
-293,920	264,637	0,029	-0,037
-292,905	34,723	0,071	-0,046
-291,891	598,779	-0,058	0,106
-290,876	415,315	0,063	0,099
-289,862	-81,458	-0,082	0,019
-288,847	178,692	-0,028	-0,030
-287,832	-200,000	0,029	0,135
-286,818	52,456	-0,082	-0,057
-285,803	-138,261	0,167	0,013
-284,789	759,732	0,029	-0,057
-283,774	578,369	-0,060	-0,107
-282,759	352,657	0,035	-0,052
-281,745	-200,000	-0,011	-0,142
-280,730	-72,083	0,057	-0,015
-279,716	-200,000	0,006	0,117
-278,701	97,184	0,023	-0,020
-277,686	-63,295	0,035	-0,010
-276,672	-121,775	-0,097	0,012
-275,657	-32,367	0,057	-0,023
-274,643	-200,000	0,038	-0,124
-273,628	-200,000	-0,020	0,136
-272,613	-200,000	0,004	0,077
-271,599	125,231	0,024	-0,022
-270,584	-200,000	0,012	0,053
-269,570	341,284	0,047	-0,067
-268,555	800,000	-0,033	0,092
-267,540	54,424	0,077	0,054
-266,526	435,401	0,025	-0,040
-265,511	-61,454	0,098	-0,030
-264,497	534,064	-0,038	0,066
-263,482	-3,310	0,101	-0,051
-262,467	800,000	0,018	-0,041
-261,453	-200,000	0,012	0,091
-260,438	460,806	0,042	-0,069
-259,424	366,034	-0,080	-0,119
-258,409	-200,000	0,004	0,233
-257,395	800,000	0,044	0,091
-256,380	-15,976	0,060	0,028
-255,365	89,880	-0,033	0,027
-254,351	-89,796	-0,121	0,026
-253,336	-200,000	-0,011	-0,080
-252,322	-14,198	-0,151	-0,071
-251,307	-200,000	0,053	-0,189
-250,292	365,256	-0,068	0,101
-249,278	27,508	-0,225	-0,138
-248,263	-200,000	-0,022	-0,092
-247,249	57,601	0,123	0,088
-246,234	-155,463	-0,069	0,003
-245,219	-46,406	0,053	0,019
-244,205	-125,099	-0,196	-0,022
-243,190	-200,000	-0,007	-0,058
-242,176	4,592	0,132	0,071
-241,161	133,933	0,052	0,049
-240,146	-10,235	-0,054	0,026
-239,132	81,194	0,080	0,063
-238,117	654,547	0,062	0,117
-237,103	800,000	-0,046	-0,108
-236,088	-124,987	0,021	0,002
-235,073	800,000	-0,012	0,036
-234,059	232,751	0,068	0,082
-233,044	46,095	-0,039	-0,026
-232,030	-110,521	-0,065	0,010
-231,015	800,000	0,042	-0,089
-230,000	791,272	-0,087	0,176
-228,986	800,000	-0,038	0,094
-227,971	-145,021	0,136	-0,009
-226,957	-200,000	0,007	0,193
-225,942	83,032	0,088	-0,070
-224,927	-200,000	-0,010	0,044
-223,913	-200,000	0,012	-0,047
-222,898	3,988	-0,048	-0,025
-221,884	-115,654	-0,059	0,008
-220,869	22,684	0,083	0,050
-219,855	-34,993	-0,143	0,057
-218,840	-130,135	0,096	-0,009
-217,825	-200,000	-0,011	-0,053
-216,811	8,758	-0,119	-0,065
-215,796	-200,000	0,024	-0,101
-214,782	-53,081	-0,023	0,008
-213,767	-200,000	0,032	0,126
-212,752	352,742	0,023	-0,033
-211,738	-69,636	-0,060	-0,017
-210,723	-200,000	0,003	-0,180
-209,709	800,000	-0,027	-0,082
-208,694	-59,155	-0,144	0,045
-207,679	-40,638	0,068	0,025
-206,665	-46,304	-0,020	0,007
-205,650	17,162	0,076	0,044
-204,636	-200,000	-0,001	-0,073
-203,621	393,510	-0,025	-0,038
-202,606	-200,000	-0,040	-0,151
-201,592	800,000	-0,013	-0,033
-200,577	-200,000	0,022	-0,090
-199,563	51,014	-0,055	-0,038
-198,548	145,676	0,071	-0,069
-197,533	800,000	-0,041	0,118
-196,519	96,631	0,023	-0,019
-195,504	144,231	-0,135	-0,132
-194,490	0,429	-0,161	-0,084
-193,475	-200,000	0,024	0,111
-192,460	-75,327	-0,055	0,014
-191,446	129,430	0,037	-0,035
-190,431	563,866	-0,060	-0,107
-189,417	-73,526	0,082	0,022
-188,402	-152,469	0,186	-0,010
-187,387	796,846	0,023	-0,046
-186,373	-121,781	-0,060	-0,007
-185,358	685,556	0,076	0,146
-184,344	590,321	-0,019	-0,035
-183,329	278,890	0,102	0,133
-182,315	-200,000	0,013	-0,046
-181,300	-200,000	-0,019	0,072
-180,285	397,447	-0,053	-0,081
-179,271	-200,000	0,013	-0,102
-178,256	-60,232	-0,099	0,031
-177,242	-200,000	0,001	-0,015
-176,227	688,958	-0,067	0,129
-175,212	-82,906	-0,057	-0,013
-174,198	452,504	-0,075	0,122
-173,183	-200,000	0,043	-0,137
-172,169	-45,622	0,062	0,022
-171,154	-200,000	-0,010	-0,106
-170,139	-17,229	-0,142	-0,065
-169,125	174,045	-0,039	-0,041
-168,110	-80,683	-0,085	0,020
-167,096	-8,651	-0,079	0,039
-166,081	-57,165	-0,113	-0,036
-165,066	243,634	0,024	0,029
-164,052	-200,000	-0,003	0,101
-163,037	2,972	-0,015	-0,008
-162,023	-133,167	0,078	-0,007
-161,008	-200,000	-0,017	-0,061
-159,993	30,933	0,042	-0,026
-158,979	48,944	-0,045	-0,031
-157,964	72,827	0,015	0,012
-156,950	-95,379	0,064	0,012
-155,935	800,000	0,057	-0,132
-154,920	-200,000	0,013	-0,043
-153,906	123,170	0,111	-0,101
-152,891	116,715	-0,037	0,033
-151,877	46,315	0,025	0,017
-150,862	-122,743	-0,123	0,014
-149,847	800,000	-0,012	0,038
-148,833	-200,000	0,025	-0,175
-147,818	224,624	0,100	-0,118
-146,804	800,000	-0,037	0,095
-145,789	800,000	-0,039	0,098
-144,775	167,709	-0,071	-0,074
-143,760	501,514	-0,123	-0,207
-142,745	-49,733	0,109	0,037
-141,731	-132,964	-0,092	0,008
-140,716	198,500	0,106	-0,118
-139,702	233,970	-0,057	0,068
-138,687	-54,420	-0,112	0,037
-137,672	-9,454	0,169	0,082
-136,658	-33,588	-0,094	0,038
-135,643	-200,000	-0,005	-0,078
-134,629	99,656	-0,088	0,074
-133,614	-200,000	0,007	0,127
-132,599	-200,000	0,006	-0,061
-131,585	337,408	-0,058	-0,082
-130,570	-200,000	-0,009	0,144
-129,556	-200,000	0,018	-0,109
-128,541	-86,142	-0,090	0,020
-127,526	4,665	0,152	0,081
-126,512	-198,613	0,121	-0,000
-125,497	33,626	-0,160	0,101
-124,483	-29,884	0,044	0,018
-123,468	-200,000	0,014	0,087
-122,453	537,617	0,070	-0,122
-121,439	800,000	0,076	-0,177
-120,424	7,609	-0,041	0,022
-119,410	-37,742	-0,087	0,034
