DTS Sentinel unit serial number:	SN410029Multiplexer serial number:	ORYXHardware model number:	OX2-SRSoftware version number:	ORYX F/W v4,00 Oryx Data Collector v3.7.2.0data status	okinstallation	B4 Nyhavnadifferential loss correction	single-endedforward channel	channel 2reverse channel	N/Adate	2023/12/16time	08:25:13forward acquisition time	300,00reverse acquisition time	0,00gamma	499,1914k internal	0,3127k external	0,3127temperature offset calibration	1,0000default loss term (dB/km)	0,3820temperature slope calibration	1,0000multiplexer offset coefficient	1,0000multiplexer slope coefficient	1,0000fibre end	0,00T internal ref (°C)	22,55T ext. ref 1 (°C)	8,44T ext. ref 2 (°C)	8,59length (m)	temperature (°C)	Stokes	anti-Stokes-744,400	28,047	0,090	-0,056
-743,385	65,147	-0,185	0,139
-742,371	-10,550	0,095	0,047
-741,356	511,975	-0,125	0,218
-740,342	-99,103	0,097	0,018
-739,327	-176,463	-0,313	-0,006
-738,312	-200,000	0,023	-0,114
-737,298	-13,394	-0,266	0,128
-736,283	-200,000	-0,014	0,112
-735,269	-104,676	-0,124	0,021
-734,254	-153,203	-0,160	-0,008
-733,239	34,400	-0,345	-0,224
-732,225	-29,704	0,142	-0,060
-731,210	86,014	0,089	-0,073
-730,196	43,559	-0,035	0,024
-729,181	34,139	-0,123	-0,079
-728,167	283,764	-0,012	-0,016
-727,152	-200,000	0,027	-0,116
-726,137	-200,000	-0,013	-0,221
-725,123	-200,000	-0,016	-0,124
-724,108	40,984	0,008	0,006
-723,094	-200,000	-0,010	-0,140
-722,079	-151,673	-0,122	0,007
-721,064	590,956	-0,046	-0,084
-720,050	-200,000	0,002	-0,035
-719,035	75,152	0,056	0,044
-718,021	93,250	0,063	0,053
-717,006	800,000	-0,097	-0,202
-715,991	800,000	-0,053	-0,144
-714,977	-175,478	-0,041	-0,001
-713,962	-200,000	-0,023	-0,106
-712,948	800,000	0,032	0,093
-711,933	-129,543	-0,012	0,001
-710,918	470,013	0,017	-0,028
-709,904	-200,000	0,025	-0,101
-708,889	194,009	0,051	-0,058
-707,875	195,647	-0,121	-0,137
-706,860	800,000	-0,017	-0,040
-705,845	-200,000	-0,001	0,056
-704,831	-77,633	-0,114	-0,029
-703,816	-200,000	0,001	0,064
-702,802	235,301	-0,124	-0,153
-701,787	150,085	-0,080	-0,080
-700,772	-2,781	-0,019	0,010
-699,758	-18,429	0,071	0,033
-698,743	-62,781	-0,155	0,047
-697,729	155,981	-0,067	-0,068
-696,714	-135,736	-0,161	0,014
-695,699	320,870	0,087	-0,123
-694,685	-200,000	-0,003	-0,043
-693,670	-200,000	0,004	-0,091
-692,656	-156,135	-0,130	-0,006
-691,641	31,418	0,152	-0,097
-690,627	-200,000	0,010	0,112
-689,612	-131,281	-0,107	-0,010
-688,597	287,368	0,033	-0,045
-687,583	-104,987	-0,054	-0,009
-686,568	195,395	-0,096	0,108
-685,554	173,435	-0,061	-0,065
-684,539	-65,288	-0,141	-0,042
-683,524	-200,000	-0,032	-0,130
-682,510	289,822	-0,065	-0,088
-681,495	146,963	-0,064	0,064
-680,481	81,780	-0,051	-0,041
-679,466	450,990	-0,069	-0,113
-678,451	24,873	-0,069	-0,042
-677,437	800,000	0,043	-0,104
-676,422	116,803	-0,076	-0,069
-675,408	16,957	-0,160	-0,094
-674,393	-50,622	-0,071	-0,025
-673,378	359,109	-0,076	-0,112
-672,364	194,855	-0,057	-0,064
-671,349	178,502	-0,084	0,091
-670,335	-19,706	-0,095	-0,043
-669,320	8,360	0,137	-0,076
-668,305	-200,000	-0,015	-0,051
-667,291	-97,285	-0,033	-0,006
-666,276	800,000	-0,021	0,051
-665,262	-32,331	-0,050	0,020
-664,247	-188,251	-0,089	0,001
-663,232	705,642	0,014	-0,027
-662,218	-3,425	-0,033	0,017
-661,203	-76,022	-0,150	0,039
-660,189	-26,020	-0,140	-0,061
-659,174	-104,473	-0,121	-0,021
-658,159	53,902	-0,106	-0,076
-657,145	-75,876	-0,099	-0,026
-656,130	800,000	-0,026	-0,082
-655,116	-200,000	-0,013	-0,077
-654,101	23,281	-0,057	0,034
-653,086	-85,591	0,060	0,014
-652,072	-110,931	-0,137	0,021
-651,057	-49,561	0,109	0,038
-650,043	-200,000	-0,010	-0,057
-649,028	170,127	0,076	-0,080
-648,014	-25,350	0,103	0,045
-646,999	311,904	0,048	0,067
-645,984	57,714	-0,090	-0,065
-644,970	-131,848	0,077	-0,007
-643,955	-200,000	-0,014	0,052
-642,941	9,778	-0,091	0,051
-641,926	0,230	0,079	0,042
-640,911	-71,511	-0,055	-0,015
-639,897	313,297	-0,030	0,042
-638,882	-200,000	-0,001	0,008
-637,868	-114,793	-0,119	-0,017
-636,853	800,000	-0,019	-0,044
-635,838	800,000	0,049	-0,157
-634,824	-148,627	0,027	0,002
-633,809	800,000	0,038	-0,104
-632,795	99,649	-0,034	-0,030
-631,780	-193,130	0,076	-0,000
-630,765	-121,949	-0,125	0,015
-629,751	144,082	-0,093	-0,092
-628,736	215,650	-0,057	0,067
-627,722	103,127	-0,067	-0,058
-626,707	207,051	-0,054	-0,063
-625,692	106,212	0,037	0,032
-624,678	800,000	-0,019	-0,041
-623,663	-200,000	0,007	-0,067
-622,649	141,357	-0,025	-0,025
-621,634	421,499	-0,100	-0,160
-620,619	-200,000	-0,020	-0,139
-619,605	-116,993	0,025	0,003
-618,590	73,388	0,072	-0,056
-617,576	800,000	0,050	0,136
-616,561	59,765	-0,100	-0,073
-615,546	-200,000	-0,015	0,052
-614,532	42,158	0,103	-0,069
-613,517	800,000	0,016	0,052
-612,503	-26,847	0,128	-0,055
-611,488	22,136	0,191	-0,115
-610,474	430,972	-0,080	-0,129
-609,459	-200,000	0,016	-0,072
-608,444	-4,617	0,042	0,021
-607,430	800,000	-0,037	-0,090
-606,415	-39,847	-0,100	0,039
-605,401	160,820	0,088	-0,091
-604,386	123,931	0,064	-0,060
-603,371	-200,000	0,003	-0,068
-602,357	500,862	-0,016	-0,028
-601,342	55,284	-0,075	0,054
-600,328	136,942	-0,142	-0,137
-599,313	592,776	-0,085	0,155
-598,298	483,314	-0,035	0,059
-597,284	-16,832	0,081	0,038
-596,269	213,059	0,041	0,048
-595,255	247,106	0,018	-0,022
-594,240	56,593	0,058	0,042
-593,225	800,000	0,038	-0,123
-592,211	3,461	-0,107	-0,058
-591,196	-200,000	0,006	-0,081
-590,182	-200,000	0,009	-0,082
-589,167	800,000	-0,037	-0,078
-588,152	83,456	0,093	0,075
-587,138	60,337	0,045	-0,033
-586,123	372,378	-0,034	-0,051
-585,109	102,570	0,069	-0,059
-584,094	223,075	-0,092	0,110
-583,079	800,000	0,037	0,081
-582,065	-80,574	0,096	-0,024
-581,050	-200,000	0,015	0,058
-580,036	-200,000	-0,034	-0,156
-579,021	-200,000	-0,016	-0,084
-578,006	-187,660	0,046	0,000
-576,992	800,000	-0,036	0,100
-575,977	-113,884	0,057	-0,008
-574,963	177,092	-0,082	0,088
-573,948	-13,512	-0,130	-0,062
-572,934	73,677	0,114	-0,088
-571,919	-200,000	0,014	-0,077
-570,904	280,058	-0,039	0,052
-569,890	-10,428	-0,121	0,059
-568,875	249,102	0,059	-0,073
-567,861	181,856	0,087	-0,095
-566,846	58,957	0,015	-0,011
-565,831	-5,888	-0,033	0,017
-564,817	800,000	-0,049	-0,153
-563,802	-200,000	0,011	-0,073
-562,788	800,000	0,025	-0,062
-561,773	462,323	0,071	0,117
-560,758	-200,000	0,004	0,016
-559,744	800,000	0,003	-0,007
-558,729	132,777	0,013	-0,013
-557,715	-159,998	-0,071	-0,003
-556,700	-200,000	-0,029	-0,117
-555,685	-123,614	-0,159	0,018
-554,671	-73,825	-0,065	-0,017
-553,656	-200,000	0,028	0,168
-552,642	13,236	0,089	-0,051
-551,627	800,000	0,057	0,137
-550,612	7,073	0,067	-0,037
-549,598	-15,241	0,072	-0,034
-548,583	-200,000	-0,011	0,130
-547,569	-62,925	-0,127	-0,039
-546,554	12,602	0,106	0,060
-545,539	520,274	0,040	0,070
-544,525	-200,000	-0,034	0,222
-543,510	-77,204	-0,065	0,017
-542,496	-149,406	0,035	-0,002
-541,481	-42,750	-0,119	-0,044
-540,466	800,000	0,031	-0,069
-539,452	462,468	0,078	0,129
-538,437	-200,000	-0,011	0,054
-537,423	237,839	-0,096	-0,118
-536,408	204,676	-0,009	-0,011
-535,393	258,697	-0,031	0,039
-534,379	-84,762	-0,103	0,024
-533,364	419,679	-0,030	-0,048
-532,350	800,000	-0,009	0,027
-531,335	-147,633	0,180	-0,011
-530,321	-62,933	-0,054	0,016
-529,306	-23,020	0,054	-0,024
-528,291	-123,647	0,091	-0,011
-527,277	169,722	-0,063	-0,067
-526,262	30,652	0,045	0,028
-525,248	82,966	-0,032	0,026
-524,233	385,785	0,052	-0,079
-523,218	15,683	0,059	-0,034
-522,204	18,114	0,062	-0,036
-521,189	152,354	0,045	-0,046
-520,175	-200,000	0,017	-0,064
-519,160	-200,000	-0,019	-0,115
-518,145	155,856	0,057	0,058
-517,131	-200,000	-0,001	-0,136
-516,116	414,648	0,069	0,108
-515,102	386,185	-0,034	-0,052
-514,087	-185,421	-0,084	0,001
-513,072	-200,000	0,017	0,098
-512,058	-43,665	-0,073	0,027
-511,043	81,790	-0,153	0,122
-510,029	-188,419	0,162	-0,001
-509,014	-200,000	0,011	0,058
-507,999	-69,870	0,093	-0,026
-506,985	-137,789	-0,154	0,013
-505,970	8,229	0,051	-0,028
-504,956	-121,067	0,052	-0,006
-503,941	800,000	0,015	0,033
-502,926	800,000	-0,041	0,110
-501,912	-68,506	-0,075	-0,021
-500,897	800,000	0,016	-0,043
-499,883	9,786	-0,080	0,044
-498,868	269,573	-0,096	0,124
-497,853	-200,000	0,005	-0,035
-496,839	131,248	0,046	0,044
-495,824	-200,000	0,073	0,239
-494,810	417,096	-0,050	0,078
-493,795	348,917	-0,055	-0,080
-492,781	97,514	-0,076	0,065
-491,766	800,000	-0,030	0,072
-490,751	800,000	0,002	0,006
-489,737	568,678	-0,054	-0,097
-488,722	-85,340	-0,125	0,029
-487,708	-60,278	0,072	0,022
-486,693	800,000	0,028	0,063
-485,678	800,000	-0,057	0,173
-484,664	-5,415	-0,046	0,023
-483,649	800,000	-0,031	-0,081
-482,635	-68,431	-0,045	-0,013
-481,620	-37,711	0,101	-0,039
-480,605	-136,294	-0,155	0,013
-479,591	518,771	-0,033	-0,057
-478,576	-119,435	-0,070	-0,009
-477,562	-49,341	-0,107	-0,038
-476,547	800,000	-0,046	-0,105
-475,532	194,764	0,027	-0,030
-474,518	220,235	0,103	0,122
-473,503	-200,000	-0,039	-0,167
-472,489	35,980	-0,171	-0,111
-471,474	800,000	-0,040	-0,128
-470,459	-82,371	-0,051	-0,012
-469,445	-200,000	-0,027	-0,111
-468,430	-48,564	-0,014	-0,005
-467,416	-155,782	-0,099	-0,005
-466,401	113,609	-0,069	0,062
-465,386	800,000	0,041	0,118
-464,372	99,017	0,052	-0,044
-463,357	-37,424	0,122	-0,048
-462,343	128,475	-0,062	0,058
-461,328	-200,000	-0,009	0,163
-460,313	-88,698	0,138	-0,030
-459,299	-179,128	0,138	-0,002
-458,284	-68,000	0,034	0,010
-457,270	-74,673	-0,114	-0,030
-456,255	800,000	0,036	-0,113
-455,241	226,394	-0,090	-0,108
-454,226	-27,778	-0,141	0,060
-453,211	-122,780	-0,045	0,005
-452,197	95,579	0,113	0,095
-451,182	658,121	0,014	0,027
-450,168	-200,000	0,008	-0,036
-449,153	-200,000	-0,016	0,074
-448,138	-56,879	0,132	-0,043
-447,124	800,000	0,005	-0,016
-446,109	-39,182	0,089	-0,034
-445,095	800,000	0,095	0,255
-444,080	296,550	0,138	0,187
-443,065	12,614	0,037	-0,021
-442,051	-14,429	-0,070	0,033
-441,036	115,291	-0,048	0,043
-440,022	-200,000	0,013	0,083
-439,007	-50,719	-0,084	-0,029
-437,992	78,260	0,088	0,069
-436,978	-200,000	-0,002	-0,027
-435,963	800,000	-0,017	-0,039
-434,949	58,039	-0,126	0,090
-433,934	617,976	-0,033	-0,062
-432,919	-200,000	-0,000	-0,066
-431,905	-200,000	-0,019	-0,145
-430,890	235,757	-0,036	-0,044
-429,876	-200,000	0,015	0,135
-428,861	-8,497	-0,048	0,024
-427,846	-200,000	0,028	-0,101
-426,832	179,132	-0,053	-0,057
-425,817	200,147	-0,077	-0,086
-424,803	-200,000	0,036	-0,119
-423,788	-200,000	-0,001	-0,072
-422,773	-200,000	-0,027	0,140
-421,759	800,000	0,039	-0,092
-420,744	-200,000	-0,005	-0,115
-419,730	-1,846	-0,152	-0,078
-418,715	62,831	-0,074	0,054
-417,701	-82,217	-0,049	0,012
-416,686	127,463	0,071	0,066
-415,671	-87,540	0,197	0,044
-414,657	800,000	0,012	-0,034
-413,642	413,093	-0,065	-0,102
-412,628	-200,000	-0,001	0,014
-411,613	-51,943	-0,111	-0,038
-410,598	148,106	0,062	0,062
-409,584	-200,000	0,001	-0,046
-408,569	-40,274	0,042	0,016
-407,555	42,097	0,095	0,063
-406,540	-42,120	-0,178	0,067
-405,525	-30,469	0,031	0,013
-404,511	-200,000	-0,009	-0,120
-403,496	50,195	-0,007	0,005
-402,482	64,004	0,079	-0,058
-401,467	47,333	0,050	0,034
-400,452	57,684	-0,112	0,080
-399,438	-79,458	0,117	-0,029
-398,423	-37,951	0,044	-0,017
-397,409	21,182	-0,026	-0,015
-396,394	-200,000	-0,014	0,076
-395,379	502,747	-0,013	0,023
-394,365	-7,306	0,094	-0,046
-393,350	120,836	0,069	-0,063
-392,336	-84,793	-0,100	-0,023
-391,321	760,703	-0,045	-0,090
-390,306	-1,133	-0,097	0,050
-389,292	198,522	0,053	0,060
-388,277	56,696	0,057	-0,041
-387,263	-200,000	0,009	-0,072
-386,248	-200,000	0,006	-0,038
-385,233	339,409	-0,034	-0,049
-384,219	800,000	-0,050	-0,140
-383,204	-200,000	-0,016	-0,101
-382,190	123,251	0,006	-0,006
-381,175	-200,000	-0,021	-0,081
-380,160	-200,000	-0,020	-0,167
-379,146	-107,983	0,169	-0,027
-378,131	171,895	-0,077	0,081
-377,117	324,484	0,028	0,039
-376,102	-83,934	0,066	-0,015
-375,088	800,000	-0,017	0,037
-374,073	-200,000	0,012	0,123
-373,058	-162,198	-0,144	-0,005
-372,044	-90,517	0,170	-0,036
-371,029	-200,000	0,006	0,089
-370,015	-200,000	-0,019	0,192
-369,000	-200,000	0,002	0,104
-367,985	-42,966	-0,112	-0,041
-366,971	329,273	-0,026	0,037
-365,956	563,838	0,112	0,199
-364,942	800,000	-0,046	-0,108
-363,927	-21,109	0,095	0,042
-362,912	-144,079	-0,026	0,002
-361,898	-17,123	-0,045	-0,021
-360,883	159,588	0,042	-0,043
-359,869	-200,000	0,014	-0,099
-358,854	-200,000	0,037	0,119
-357,839	40,867	-0,065	0,043
-356,825	-200,000	-0,021	0,102
-355,810	-6,711	-0,093	0,046
-354,796	172,159	0,091	-0,096
-353,781	800,000	-0,029	-0,061
-352,766	-27,282	-0,182	0,078
-351,752	-141,943	-0,070	-0,005
-350,737	800,000	-0,046	0,094
-349,723	-87,290	0,120	-0,026
-348,708	800,000	-0,013	-0,041
-347,693	800,000	0,025	-0,078
-346,679	25,648	-0,051	0,031
-345,664	193,630	0,080	-0,089
-344,650	80,456	-0,089	0,070
-343,635	800,000	0,057	0,144
-342,620	-104,147	0,065	0,011
-341,606	-151,299	-0,063	0,003
-340,591	49,286	-0,191	0,132
-339,577	279,716	-0,076	-0,100
-338,562	182,164	-0,038	-0,041
-337,548	456,888	-0,050	-0,081
-336,533	-145,965	-0,076	-0,005
-335,518	-200,000	0,027	-0,109
-334,504	-141,189	0,029	-0,002
-333,489	-64,610	-0,118	0,035
-332,475	-200,000	0,008	-0,204
-331,460	744,063	-0,033	0,066
-330,445	40,463	0,062	0,040
-329,431	-200,000	0,045	0,168
-328,416	71,978	0,082	0,062
-327,402	118,260	0,052	0,047
-326,387	184,640	0,123	0,133
-325,372	354,472	-0,081	-0,119
-324,358	182,510	-0,043	-0,047
-323,343	-125,959	-0,112	0,012
-322,329	-120,696	0,216	0,026
-321,314	-36,771	-0,079	0,031
-320,299	409,379	0,086	0,134
-319,285	-200,000	-0,001	0,057
-318,270	-200,000	-0,004	-0,074
-317,256	-200,000	-0,008	-0,038
-316,241	800,000	-0,054	-0,173
-315,226	-144,480	0,109	0,007
-314,212	3,429	-0,096	0,051
-313,197	800,000	-0,015	-0,042
-312,183	794,586	0,021	-0,042
-311,168	-164,585	-0,171	0,006
-310,153	93,293	0,028	-0,023
-309,139	-200,000	0,050	-0,169
-308,124	184,548	0,087	-0,095
-307,110	800,000	-0,005	0,015
-306,095	-50,945	0,173	0,059
-305,080	-200,000	0,009	0,042
-304,066	800,000	0,032	-0,098
-303,051	-155,192	-0,125	0,006
-302,037	-200,000	0,005	-0,100
-301,022	800,000	-0,054	0,163
-300,008	-200,000	0,011	0,091
-298,993	-84,008	0,070	0,016
-297,978	2,526	0,058	0,031
-296,964	366,957	0,074	0,110
-295,949	-200,000	0,033	0,110
-294,935	49,674	-0,067	-0,046
-293,920	-200,000	0,026	-0,090
-292,905	-200,000	-0,021	-0,113
-291,891	-88,743	0,133	-0,029
-290,876	-90,759	0,185	0,039
-289,862	43,438	0,111	-0,074
-288,847	-200,000	0,022	-0,096
-287,832	-36,251	-0,121	0,048
-286,818	-153,982	0,045	0,002
-285,803	558,875	-0,047	-0,083
-284,789	78,328	0,037	-0,029
-283,774	-200,000	-0,013	0,051
-282,759	154,038	-0,053	0,053
-281,745	-145,224	0,046	0,003
-280,730	574,136	-0,095	0,169
-279,716	52,729	-0,041	0,029
-278,701	-76,699	0,163	0,042
-277,686	143,872	0,041	-0,040
-276,672	-200,000	-0,002	0,109
-275,657	76,576	-0,060	-0,046
-274,643	-200,000	-0,010	-0,085
-273,628	-92,281	-0,079	0,016
-272,613	-200,000	0,000	0,044
-271,599	-30,989	0,070	0,029
-270,584	-90,511	0,065	0,014
-269,570	800,000	0,062	-0,146
-268,555	-67,393	-0,057	0,016
-267,540	-51,565	-0,054	0,018
-266,526	800,000	0,051	-0,123
-265,511	352,170	-0,077	-0,112
-264,497	-138,726	-0,035	-0,003
-263,482	800,000	-0,040	0,086
-262,467	205,086	-0,049	-0,056
-261,453	-36,419	-0,061	0,024
-260,438	60,545	0,152	0,110
-259,424	-30,361	0,090	0,037
-258,409	336,481	0,041	-0,058
-257,395	135,288	0,031	0,030
-256,380	100,265	-0,064	0,054
-255,365	-200,000	-0,018	0,062
-254,351	-200,000	-0,051	0,175
-253,336	-86,622	-0,030	0,007
-252,322	-200,000	-0,008	-0,119
-251,307	139,802	-0,079	0,076
-250,292	-200,000	0,007	0,056
-249,278	-200,000	-0,009	0,053
-248,263	62,967	-0,132	0,096
-247,249	-173,815	0,051	0,001
-246,234	151,539	-0,051	0,051
-245,219	800,000	0,014	0,034
-244,205	-64,948	-0,192	0,056
-243,190	800,000	0,045	0,128
-242,176	-54,248	0,044	-0,015
-241,161	-200,000	0,008	0,048
-240,146	12,044	-0,057	0,032
-239,132	-95,475	0,065	-0,013
-238,117	800,000	-0,012	0,038
-237,103	-52,068	0,154	0,052
-236,088	-200,000	-0,007	-0,113
-235,073	-13,768	0,072	-0,034
-234,059	-77,593	0,116	0,029
-233,044	-83,263	0,078	-0,018
-232,030	-200,000	-0,019	0,064
-231,015	800,000	0,034	-0,071
-230,000	800,000	0,011	-0,035
-228,986	-15,657	-0,072	-0,033
-227,971	-200,000	-0,019	0,082
-226,957	-101,772	-0,044	-0,008
-225,942	22,164	-0,048	0,028
-224,927	-108,416	0,071	-0,011
-223,913	-57,646	-0,070	-0,022
-222,898	-200,000	-0,003	-0,036
-221,884	-98,063	0,082	0,015
-220,869	800,000	-0,014	-0,039
-219,855	-38,857	0,061	0,023
-218,840	178,119	-0,080	0,086
-217,825	-200,000	-0,047	-0,178
-216,811	-155,414	-0,112	-0,005
-215,796	30,575	0,035	-0,022
-214,782	615,634	-0,082	-0,151
-213,767	-118,616	0,070	0,009
-212,752	800,000	0,025	0,074
-211,738	-58,495	0,043	0,014
-210,723	74,513	0,091	0,069
-209,709	-108,724	-0,006	-0,001
-208,694	256,742	0,012	0,015
-207,679	197,277	0,004	-0,005
-206,665	-200,000	-0,039	0,151
-205,650	734,862	0,069	-0,136
-204,636	69,253	0,072	0,054
-203,621	54,037	0,134	0,094
-202,606	-200,000	0,023	0,111
-201,592	-122,357	-0,216	-0,025
-200,577	68,703	0,026	-0,019
-199,563	193,992	0,014	0,015
-198,548	-200,000	-0,001	0,164
-197,533	-200,000	0,019	0,107
-196,519	202,020	0,041	-0,046
-195,504	-76,223	0,187	-0,048
-194,490	-40,508	-0,099	0,037
-193,475	-142,333	0,043	-0,003
-192,460	800,000	0,041	0,105
-191,446	-59,875	-0,071	-0,022
-190,431	-87,200	-0,057	0,013
-189,417	-200,000	-0,000	-0,040
-188,402	800,000	0,026	-0,063
-187,387	-48,496	-0,068	0,024
-186,373	99,030	0,108	0,091
-185,358	800,000	0,019	0,047
-184,344	67,958	-0,114	-0,085
-183,329	122,106	0,082	-0,074
-182,315	-124,077	-0,068	-0,008
-181,300	285,587	-0,066	0,087
-180,285	800,000	0,057	0,145
-179,271	800,000	0,034	0,096
-178,256	-200,000	-0,006	0,035
-177,242	-154,831	0,065	-0,003
-176,227	-63,543	0,084	-0,025
-175,212	38,969	-0,046	0,030
-174,198	800,000	0,058	0,129
-173,183	17,892	-0,042	-0,024
-172,169	-174,788	0,118	-0,002
-171,154	-200,000	-0,009	-0,055
-170,139	-76,432	0,062	-0,016
-169,125	-23,315	-0,021	-0,009
-168,110	-12,245	0,148	-0,070
-167,096	119,876	-0,005	-0,004
-166,081	370,720	0,067	-0,099
-165,066	-3,056	-0,037	0,019
-164,052	458,093	-0,079	-0,129
-163,037	-200,000	-0,005	-0,063
-162,023	61,365	0,164	0,119
-161,008	-71,459	0,112	0,030
-159,993	796,673	0,050	0,101
-158,979	96,751	-0,070	-0,058
-157,964	800,000	-0,046	-0,103
-156,950	147,589	-0,041	-0,041
-155,935	95,547	-0,098	-0,082
-154,920	800,000	-0,057	0,141
-153,906	800,000	-0,022	0,063
-152,891	-40,465	0,182	0,069
-151,877	-10,413	-0,087	-0,042
-150,862	-67,261	-0,033	0,009
-149,847	503,117	-0,067	0,113
-148,833	286,138	0,108	0,142
-147,818	-200,000	-0,023	0,088
-146,804	800,000	0,082	-0,201
-145,789	463,113	0,045	0,073
-144,775	55,499	-0,076	0,054
-143,760	596,778	-0,006	0,010
-142,745	25,534	0,224	0,135
-141,731	42,605	-0,137	-0,090
-140,716	451,193	-0,036	-0,059
-139,702	58,638	-0,050	0,036
-138,687	81,057	0,153	0,120
-137,672	-200,000	0,005	0,056
-136,658	-200,000	0,014	-0,127
-135,643	-6,743	-0,138	-0,068
-134,629	-50,345	0,138	-0,047
-133,614	800,000	0,033	0,084
-132,599	5,763	0,126	0,068
-131,585	800,000	-0,037	0,080
-130,570	4,875	0,079	0,042
-129,556	-69,140	0,031	-0,009
-128,541	248,824	0,087	0,108
-127,526	800,000	-0,046	-0,110
-126,512	-200,000	0,001	0,054
-125,497	615,069	-0,011	0,019
-124,483	15,404	0,060	-0,034
-123,468	-125,011	-0,037	0,004
-122,453	203,995	-0,087	-0,098
-121,439	-107,598	0,120	-0,019
-120,424	49,972	-0,103	-0,071
-119,410	-200,000	0,008	0,061
