DTS Sentinel unit serial number:	SN410029Multiplexer serial number:	ORYXHardware model number:	OX2-SRSoftware version number:	ORYX F/W v4,00 Oryx Data Collector v3.7.2.0data status	okinstallation	B4 Nyhavnadifferential loss correction	single-endedforward channel	channel 2reverse channel	N/Adate	2023/12/19time	10:55:13forward acquisition time	300,00reverse acquisition time	0,00gamma	499,1914k internal	0,3128k external	0,3128temperature offset calibration	1,0000default loss term (dB/km)	0,3820temperature slope calibration	1,0000multiplexer offset coefficient	1,0000multiplexer slope coefficient	1,0000fibre end	0,00T internal ref (°C)	19,94T ext. ref 1 (°C)	4,76T ext. ref 2 (°C)	4,70length (m)	temperature (°C)	Stokes	anti-Stokes-744,400	-200,000	0,010	-0,114
-743,385	-1,283	-0,211	0,111
-742,371	32,175	-0,060	0,038
-741,356	146,999	-0,179	0,179
-740,342	37,493	0,069	-0,045
-739,327	-121,351	-0,180	0,022
-738,312	-107,201	0,027	0,004
-737,298	-49,772	-0,224	0,079
-736,283	-14,859	0,020	-0,009
-735,269	95,146	-0,219	0,185
-734,254	-200,000	-0,007	0,032
-733,239	-40,175	-0,341	-0,131
-732,225	-11,048	0,049	-0,024
-731,210	-200,000	-0,016	-0,075
-730,196	320,009	-0,076	0,108
-729,181	275,135	-0,047	0,062
-728,167	49,723	-0,023	0,016
-727,152	-134,103	0,055	0,005
-726,137	-8,957	-0,163	-0,081
-725,123	-178,769	-0,168	-0,003
-724,108	204,370	-0,076	-0,087
-723,094	-40,409	-0,139	-0,054
-722,079	-200,000	-0,004	-0,115
-721,064	102,762	-0,064	0,056
-720,050	215,563	0,085	-0,100
-719,035	800,000	-0,047	0,140
-718,021	-200,000	0,014	0,098
-717,006	91,655	-0,037	-0,031
-715,991	-200,000	0,014	0,153
-714,977	-200,000	-0,009	-0,099
-713,962	-200,000	0,002	0,050
-712,948	140,582	0,075	0,074
-711,933	44,957	-0,074	-0,051
-710,918	5,456	-0,134	-0,074
-709,904	39,682	-0,034	0,023
-708,889	101,068	-0,115	-0,100
-707,875	-129,154	-0,115	0,012
-706,860	39,868	0,106	-0,071
-705,845	-121,979	-0,058	-0,007
-704,831	-200,000	0,024	-0,083
-703,816	17,228	-0,101	-0,059
-702,802	800,000	-0,026	0,080
-701,787	800,000	-0,019	0,059
-700,772	-97,560	-0,164	-0,031
-699,758	248,284	-0,031	0,039
-698,743	468,896	0,018	0,029
-697,729	-4,270	-0,096	-0,049
-696,714	-200,000	0,020	0,095
-695,699	800,000	0,031	-0,064
-694,685	250,390	-0,116	-0,146
-693,670	-200,000	-0,015	0,172
-692,656	491,243	-0,081	-0,139
-691,641	-200,000	0,014	0,119
-690,627	-19,500	0,110	-0,050
-689,612	110,587	-0,037	0,033
-688,597	-60,777	0,076	0,024
-687,583	332,528	-0,116	-0,167
-686,568	88,761	0,083	-0,069
-685,554	0,963	-0,156	0,083
-684,539	162,293	0,029	-0,030
-683,524	381,790	-0,065	-0,100
-682,510	-40,406	-0,056	0,022
-681,495	289,231	-0,029	0,039
-680,481	-159,612	-0,238	0,010
-679,466	65,984	-0,031	-0,023
-678,451	-129,036	-0,036	-0,004
-677,437	-200,000	-0,003	-0,050
-676,422	-84,788	0,072	-0,017
-675,408	81,689	-0,091	0,073
-674,393	-200,000	0,010	0,039
-673,378	-134,348	-0,180	-0,016
-672,364	800,000	0,015	-0,050
-671,349	91,132	-0,068	0,056
-670,335	-200,000	-0,021	0,074
-669,320	-200,000	-0,059	0,200
-668,305	205,195	0,056	0,064
-667,291	800,000	-0,075	-0,195
-666,276	199,457	-0,031	-0,036
-665,262	736,580	0,008	-0,016
-664,247	800,000	-0,056	-0,172
-663,232	800,000	-0,034	-0,089
-662,218	-200,000	0,023	0,101
-661,203	-70,632	-0,153	0,043
-660,189	97,293	-0,062	0,053
-659,174	189,514	-0,085	-0,094
-658,159	11,890	-0,095	-0,054
-657,145	-200,000	-0,028	-0,142
-656,130	269,707	-0,087	-0,114
-655,116	74,107	-0,067	0,052
-654,101	128,471	0,043	-0,040
-653,086	570,314	0,097	-0,176
-652,072	784,386	-0,041	0,084
-651,057	372,058	0,038	0,057
-650,043	-29,334	-0,135	-0,057
-649,028	-200,000	0,008	-0,063
-648,014	-26,244	0,055	-0,024
-646,999	-200,000	0,006	0,105
-645,984	-149,115	0,069	0,004
-644,970	-77,916	-0,080	-0,020
-643,955	222,439	-0,068	-0,081
-642,941	32,108	-0,092	-0,059
-641,926	-200,000	0,002	-0,088
-640,911	800,000	-0,006	-0,020
-639,897	8,065	0,059	0,033
-638,882	81,578	-0,015	0,012
-637,868	45,118	-0,091	-0,062
-636,853	-20,768	0,124	-0,056
-635,838	800,000	-0,014	-0,031
-634,824	-200,000	0,009	-0,069
-633,809	15,588	0,037	-0,021
-632,795	104,729	-0,095	0,083
-631,780	-79,393	0,031	-0,008
-630,765	71,526	0,142	0,109
-629,751	-77,787	-0,034	0,009
-628,736	52,357	-0,144	-0,102
-627,722	42,612	0,084	0,056
-626,707	30,192	-0,062	0,039
-625,692	-79,337	-0,084	-0,021
-624,678	223,658	0,029	0,035
-623,663	163,682	-0,093	-0,097
-622,649	141,953	-0,031	0,031
-621,634	-200,000	-0,017	-0,092
-620,619	-200,000	-0,001	-0,126
-619,605	102,223	0,056	0,048
-618,590	-200,000	-0,021	0,085
-617,576	213,289	0,074	0,087
-616,561	338,526	0,058	-0,084
-615,546	800,000	0,032	-0,102
-614,532	22,896	0,027	-0,016
-613,517	791,141	0,085	0,174
-612,503	-200,000	-0,008	0,146
-611,488	-200,000	-0,020	0,160
-610,474	-52,119	0,119	0,041
-609,459	32,777	-0,211	-0,135
-608,444	71,278	0,022	-0,017
-607,430	211,450	-0,046	-0,053
-606,415	419,734	-0,056	-0,090
-605,401	372,729	0,022	0,033
-604,386	581,867	-0,027	-0,050
-603,371	800,000	-0,026	-0,054
-602,357	246,700	-0,042	-0,053
-601,342	-43,306	-0,058	-0,022
-600,328	-200,000	-0,026	-0,087
-599,313	-54,479	-0,188	-0,063
-598,298	101,707	-0,033	-0,028
-597,284	-188,434	-0,070	-0,001
-596,269	540,324	-0,031	-0,055
-595,255	-200,000	-0,028	-0,099
-594,240	152,831	0,062	-0,062
-593,225	302,704	-0,076	-0,104
-592,211	42,131	-0,101	-0,068
-591,196	-136,597	0,059	-0,005
-590,182	26,911	0,007	0,004
-589,167	800,000	-0,057	0,161
-588,152	-200,000	0,012	0,061
-587,138	29,128	-0,124	0,078
-586,123	91,487	0,065	-0,054
-585,109	180,127	-0,063	0,068
-584,094	-130,337	-0,059	-0,006
-583,079	351,569	0,046	0,067
-582,065	586,711	0,043	0,078
-581,050	-107,207	0,092	-0,015
-580,036	-38,828	0,123	0,048
-579,021	281,246	-0,025	-0,033
-578,006	157,924	-0,110	-0,113
-576,992	-200,000	-0,020	0,084
-575,977	102,140	0,022	-0,019
-574,963	644,075	-0,069	0,131
-573,948	329,024	0,069	-0,098
-572,934	78,635	0,052	0,041
-571,919	112,657	0,013	-0,012
-570,904	304,006	-0,010	-0,014
-569,890	800,000	0,037	0,109
-568,875	58,208	0,093	0,067
-567,861	136,025	-0,050	-0,048
-566,846	305,388	-0,016	0,022
-565,831	-147,173	-0,113	0,007
-564,817	12,248	-0,090	-0,051
-563,802	-200,000	0,001	0,008
-562,788	-142,279	0,015	0,001
-561,773	-43,878	0,079	0,029
-560,758	-17,580	0,115	0,053
-559,744	35,765	0,074	0,048
-558,729	372,320	0,056	-0,084
-557,715	5,697	-0,116	-0,063
-556,700	-200,000	0,022	-0,099
-555,685	59,405	-0,027	0,020
-554,671	800,000	-0,028	-0,075
-553,656	311,161	-0,078	-0,108
-552,642	-1,952	0,015	-0,008
-551,627	-4,101	-0,060	-0,031
-550,612	-16,552	0,013	-0,006
-549,598	-200,000	-0,043	-0,155
-548,583	-200,000	0,002	-0,010
-547,569	490,864	0,052	-0,088
-546,554	-200,000	-0,006	-0,029
-545,539	-54,868	0,164	0,054
-544,525	-120,370	0,168	-0,021
-543,510	89,306	-0,068	0,056
-542,496	-200,000	-0,034	-0,127
-541,481	343,802	-0,023	0,034
-540,466	800,000	0,054	-0,175
-539,452	93,546	0,030	-0,025
-538,437	405,863	0,076	0,119
-537,423	181,358	-0,089	0,097
-536,408	-145,511	0,115	-0,008
-535,393	356,982	-0,051	-0,076
-534,379	358,866	-0,026	-0,038
-533,364	173,959	-0,024	0,026
-532,350	-10,401	0,084	0,041
-531,335	137,778	0,123	0,119
-530,321	800,000	-0,018	-0,052
-529,306	800,000	-0,015	-0,033
-528,291	800,000	0,018	0,039
-527,277	-200,000	-0,032	0,144
-526,262	62,999	-0,109	-0,081
-525,248	99,467	-0,052	0,044
-524,233	800,000	-0,052	0,116
-523,218	-200,000	0,017	-0,125
-522,204	800,000	0,036	-0,099
-521,189	19,226	-0,059	0,035
-520,175	-200,000	0,012	-0,105
-519,160	-159,065	0,158	-0,006
-518,145	-162,524	0,091	0,003
-517,131	68,277	-0,162	0,122
-516,116	-200,000	0,002	0,015
-515,102	462,395	0,053	0,087
-514,087	-200,000	0,004	-0,072
-513,072	800,000	0,031	-0,084
-512,058	-22,669	0,090	-0,040
-511,043	518,469	0,035	0,060
-510,029	28,366	0,126	0,078
-509,014	800,000	-0,053	-0,111
-507,999	329,899	0,047	0,066
-506,985	-163,986	-0,077	0,003
-505,970	-200,000	0,001	0,070
-504,956	-200,000	-0,048	-0,184
-503,941	-17,179	0,093	0,043
-502,926	-200,000	0,003	-0,029
-501,912	-200,000	-0,033	-0,112
-500,897	800,000	0,028	0,074
-499,883	191,976	-0,081	-0,090
-498,868	315,199	-0,060	-0,083
-497,853	-60,199	0,024	-0,008
-496,839	-200,000	0,015	0,141
-495,824	87,381	0,074	0,060
-494,810	414,133	0,057	-0,089
-493,795	-36,948	-0,054	0,021
-492,781	800,000	0,043	0,089
-491,766	-200,000	0,004	-0,102
-490,751	-200,000	-0,018	-0,171
-489,737	106,922	-0,120	-0,105
-488,722	-175,733	0,066	0,001
-487,708	569,569	0,050	0,089
-486,693	-101,134	0,113	-0,020
-485,678	-200,000	-0,006	-0,024
-484,664	-200,000	0,003	-0,089
-483,649	119,714	0,080	0,073
-482,635	298,404	0,047	-0,064
-481,620	800,000	-0,019	0,058
-480,605	74,327	0,107	0,083
-479,591	-200,000	-0,005	0,036
-478,576	184,947	-0,043	0,047
-477,562	-200,000	0,034	0,122
-476,547	-13,190	-0,097	-0,046
-475,532	5,580	-0,015	-0,008
-474,518	-200,000	0,019	-0,097
-473,503	104,141	-0,070	0,061
-472,489	-65,916	0,079	0,023
-471,474	-117,157	-0,079	-0,010
-470,459	111,196	-0,054	-0,048
-469,445	484,631	-0,061	-0,103
-468,430	403,666	0,069	-0,108
-467,416	-200,000	0,006	0,053
-466,401	-181,775	0,126	-0,002
-465,386	800,000	0,048	0,153
-464,372	114,345	0,085	0,076
-463,357	35,650	0,069	-0,045
-462,343	-200,000	0,020	-0,107
-461,328	110,054	0,056	-0,050
-460,313	-62,765	-0,015	-0,005
-459,299	-73,282	0,237	0,063
-458,284	79,357	0,093	0,073
-457,270	-165,301	0,084	-0,003
-456,255	800,000	0,023	-0,058
-455,241	800,000	0,077	-0,187
-454,226	-82,035	-0,058	-0,014
-453,211	602,264	0,059	0,108
-452,197	-200,000	0,001	0,117
-451,182	-68,607	0,069	0,019
-450,168	-200,000	-0,014	-0,075
-449,153	-200,000	0,034	-0,166
-448,138	161,638	-0,022	-0,022
-447,124	30,476	0,081	-0,051
-446,109	-14,142	0,100	0,047
-445,095	51,030	0,074	-0,051
-444,080	188,247	-0,042	-0,046
-443,065	-200,000	0,003	0,028
-442,051	107,625	0,015	0,013
-441,036	73,489	-0,109	0,084
-440,022	-55,627	-0,063	-0,021
-439,007	-63,102	-0,037	0,011
-437,992	-91,731	0,048	-0,010
-436,978	-3,519	0,053	0,027
-435,963	75,079	0,095	-0,074
-434,949	-50,051	-0,158	0,055
-433,934	8,396	0,129	-0,071
-432,919	323,899	-0,033	-0,046
-431,905	-43,757	-0,089	-0,033
-430,890	-152,196	-0,043	-0,002
-429,876	-27,595	0,035	-0,015
-428,861	-29,858	0,133	0,056
-427,846	-200,000	0,022	0,177
-426,832	92,143	-0,055	0,045
-425,817	54,694	-0,043	0,030
-424,803	15,030	-0,090	-0,051
-423,788	-200,000	0,012	0,092
-422,773	365,840	-0,061	0,091
-421,759	103,885	-0,058	0,050
-420,744	-57,933	0,117	-0,037
-419,730	232,054	-0,027	-0,032
-418,715	800,000	0,023	-0,068
-417,701	-139,138	0,044	-0,003
-416,686	552,989	-0,046	0,082
-415,671	-141,270	0,095	0,007
-414,657	800,000	-0,026	0,065
-413,642	-200,000	-0,006	0,125
-412,628	800,000	0,059	-0,181
-411,613	800,000	0,018	-0,058
-410,598	-142,114	-0,054	0,004
-409,584	-200,000	0,016	-0,056
-408,569	263,608	-0,036	0,046
-407,555	800,000	0,010	0,029
-406,540	154,346	-0,081	0,082
-405,525	210,451	-0,070	-0,080
-404,511	530,131	0,030	-0,053
-403,496	7,911	-0,091	0,050
-402,482	-83,689	0,039	-0,009
-401,467	113,274	-0,060	0,054
-400,452	61,485	0,152	0,111
-399,438	11,928	-0,074	-0,042
-398,423	800,000	-0,015	0,032
-397,409	-200,000	0,009	-0,116
-396,394	-68,820	-0,022	0,006
-395,379	-109,245	-0,067	0,010
-394,365	250,443	0,038	-0,048
-393,350	681,028	-0,063	-0,121
-392,336	-103,629	0,104	0,018
-391,321	-200,000	-0,000	0,104
-390,306	-200,000	0,012	0,057
-389,292	800,000	-0,039	0,106
-388,277	800,000	0,075	-0,166
-387,263	-200,000	-0,041	0,220
-386,248	800,000	0,064	0,152
-385,233	310,018	-0,115	0,158
-384,219	165,965	-0,036	-0,038
-383,204	-200,000	-0,013	-0,129
-382,190	-135,971	-0,048	0,004
-381,175	769,749	0,024	0,048
-380,160	390,602	-0,005	-0,007
-379,146	329,668	0,029	-0,041
-378,131	207,902	0,043	0,049
-377,117	382,008	0,073	0,110
-376,102	20,423	-0,114	-0,067
-375,088	541,424	-0,037	0,066
-374,073	62,288	-0,049	0,036
-373,058	358,107	-0,036	0,053
-372,044	-66,463	0,131	-0,038
-371,029	800,000	0,046	0,118
-370,015	-200,000	0,018	0,078
-369,000	-200,000	-0,007	-0,112
-367,985	-200,000	0,012	0,047
-366,971	800,000	-0,039	0,109
-365,956	208,908	0,041	-0,047
-364,942	-117,913	-0,016	-0,002
-363,927	-200,000	-0,040	0,173
-362,912	-152,701	-0,094	0,005
-361,898	-200,000	-0,009	-0,176
-360,883	128,743	0,073	-0,068
-359,869	104,463	-0,147	0,127
-358,854	77,489	0,140	0,109
-357,839	557,124	0,016	0,029
-356,825	554,351	0,048	0,085
-355,810	92,955	0,063	-0,052
-354,796	-84,641	0,028	0,006
-353,781	800,000	-0,016	-0,040
-352,766	585,382	-0,025	-0,046
-351,752	-200,000	0,025	0,118
-350,737	-200,000	0,000	-0,084
-349,723	-200,000	-0,116	0,000
-348,708	117,022	0,073	0,066
-347,693	-200,000	-0,002	0,084
-346,679	174,153	-0,139	-0,147
-345,664	-121,244	-0,057	0,007
-344,650	218,891	0,030	-0,035
-343,635	-200,000	0,012	0,128
-342,620	-123,450	0,101	0,012
-341,606	489,296	0,069	0,117
-340,591	-147,709	0,059	-0,004
-339,577	-30,325	-0,109	-0,045
-338,562	254,275	-0,033	-0,042
-337,548	207,963	-0,009	0,010
-336,533	-200,000	-0,004	-0,034
-335,518	-172,263	0,071	0,002
-334,504	-200,000	-0,005	-0,075
-333,489	626,219	0,034	0,063
-332,475	-30,073	-0,037	0,016
-331,460	-148,733	-0,177	-0,010
-330,445	-131,312	-0,049	-0,005
-329,431	-118,905	0,089	-0,011
-328,416	-200,000	-0,001	0,045
-327,402	-98,856	0,041	0,008
-326,387	-31,888	-0,043	-0,018
-325,372	21,030	-0,090	0,054
-324,358	224,887	0,020	-0,023
-323,343	60,975	0,098	-0,071
-322,329	-0,590	-0,088	0,045
-321,314	-200,000	0,004	0,068
-320,299	52,894	-0,049	-0,034
-319,285	655,361	-0,031	0,058
-318,270	800,000	-0,088	0,197
-317,256	-200,000	-0,030	-0,161
-316,241	169,852	-0,094	-0,098
-315,226	42,170	0,102	0,068
-314,212	2,014	0,166	-0,087
-313,197	-200,000	-0,019	0,095
-312,183	-200,000	-0,009	0,034
-311,168	-155,460	0,111	-0,005
-310,153	-19,901	-0,136	0,061
-309,139	613,790	0,052	-0,095
-308,124	66,398	0,089	0,066
-307,110	-200,000	-0,007	0,139
-306,095	-200,000	-0,022	0,161
-305,080	-200,000	0,001	0,069
-304,066	-200,000	0,018	0,137
-303,051	-8,573	0,151	-0,074
-302,037	169,606	0,081	0,085
-301,022	392,629	0,043	-0,066
-300,008	5,047	0,098	0,052
-298,993	-32,059	-0,050	0,020
-297,978	45,216	0,082	-0,055
-296,964	364,144	0,033	-0,049
-295,949	800,000	0,020	0,058
-294,935	-40,430	-0,045	-0,017
-293,920	542,956	0,046	0,081
-292,905	800,000	0,028	0,063
-291,891	-195,283	-0,039	0,000
-290,876	4,545	-0,062	0,033
-289,862	314,290	0,041	0,056
-288,847	-69,668	-0,072	0,020
-287,832	800,000	0,028	0,085
-286,818	-200,000	-0,002	0,075
-285,803	-200,000	-0,023	-0,129
-284,789	166,886	0,097	-0,101
-283,774	-200,000	0,008	0,037
-282,759	63,315	-0,045	-0,033
-281,745	331,210	-0,082	-0,116
-280,730	33,259	0,091	-0,058
-279,716	800,000	0,052	-0,125
-278,701	-200,000	-0,008	-0,036
-277,686	-200,000	0,001	0,084
-276,672	-200,000	0,004	-0,069
-275,657	800,000	0,018	0,040
-274,643	800,000	0,016	0,050
-273,628	290,887	-0,019	0,026
-272,613	-200,000	0,008	-0,052
-271,599	-200,000	-0,014	0,085
-270,584	543,177	-0,014	-0,025
-269,570	-200,000	-0,016	-0,081
-268,555	-200,000	0,010	-0,066
-267,540	-2,795	0,046	0,023
-266,526	122,315	-0,063	-0,057
-265,511	800,000	0,026	-0,062
-264,497	-200,000	-0,008	-0,047
-263,482	510,568	0,048	0,082
-262,467	61,781	-0,122	0,088
-261,453	22,013	-0,112	0,067
-260,438	22,276	-0,047	-0,028
-259,424	-161,894	-0,057	-0,002
-258,409	130,668	0,177	0,165
-257,395	251,177	-0,049	0,061
-256,380	-200,000	0,004	-0,079
-255,365	449,857	-0,026	0,043
-254,351	-191,093	0,115	-0,001
-253,336	-66,182	-0,092	-0,027
-252,322	159,879	-0,094	0,096
-251,307	-70,438	-0,046	0,013
-250,292	45,608	-0,079	0,053
-249,278	800,000	0,027	-0,087
-248,263	-200,000	-0,035	0,124
-247,249	-144,831	-0,095	0,006
-246,234	207,246	0,083	-0,095
-245,219	-200,000	-0,011	-0,051
-244,205	211,367	-0,080	0,092
-243,190	-200,000	-0,002	0,063
-242,176	151,033	-0,076	-0,076
-241,161	230,275	0,068	0,082
-240,146	154,160	-0,097	0,097
-239,132	-200,000	-0,022	0,153
-238,117	800,000	0,033	-0,096
-237,103	-200,000	-0,005	-0,048
-236,088	-46,449	-0,053	-0,019
-235,073	-81,082	0,059	-0,014
-234,059	-69,411	-0,044	-0,012
-233,044	-189,124	-0,090	-0,001
-232,030	-200,000	-0,120	0,000
-231,015	57,335	0,037	0,026
-230,000	213,336	-0,079	-0,091
-228,986	4,128	-0,081	-0,043
-227,971	-49,184	0,043	-0,015
-226,957	102,565	-0,044	-0,037
-225,942	-175,476	-0,105	-0,002
-224,927	124,326	-0,117	-0,108
-223,913	-200,000	-0,005	-0,022
-222,898	-91,093	0,058	-0,012
-221,884	77,724	-0,093	-0,073
-220,869	-200,000	0,002	-0,186
-219,855	-200,000	0,010	0,047
-218,840	800,000	-0,022	0,067
-217,825	-200,000	0,010	0,049
-216,811	-200,000	-0,005	-0,103
-215,796	72,446	-0,113	0,086
-214,782	19,405	0,169	-0,099
-213,767	-200,000	-0,014	0,057
-212,752	-200,000	0,010	0,191
-211,738	-101,141	0,035	0,006
-210,723	382,610	-0,070	-0,105
-209,709	87,462	-0,035	-0,029
-208,694	-200,000	-0,002	-0,057
-207,679	89,330	-0,130	0,106
-206,665	23,318	0,077	0,046
-205,650	800,000	0,045	0,101
-204,636	61,927	0,100	0,072
-203,621	800,000	-0,030	-0,065
-202,606	-75,751	-0,085	0,022
-201,592	-200,000	-0,007	-0,117
-200,577	132,116	-0,067	0,063
-199,563	52,875	-0,106	0,073
-198,548	628,029	0,014	-0,027
-197,533	97,166	-0,007	0,006
-196,519	-24,551	-0,083	-0,036
-195,504	-200,000	0,023	-0,092
-194,490	-200,000	0,006	-0,041
-193,475	92,844	-0,066	-0,054
-192,460	-69,720	0,033	0,009
-191,446	-192,567	0,046	-0,000
-190,431	-24,886	0,068	0,029
-189,417	761,332	-0,034	0,067
-188,402	-107,524	0,106	0,017
-187,387	-144,043	0,103	0,007
-186,373	-133,395	-0,108	-0,010
-185,358	85,043	0,057	-0,046
-184,344	-200,000	0,005	-0,046
-183,329	106,748	0,089	0,076
-182,315	800,000	0,031	-0,071
-181,300	-6,608	0,073	-0,036
-180,285	-200,000	-0,010	-0,074
-179,271	800,000	0,045	-0,117
-178,256	-200,000	-0,010	0,055
-177,242	26,134	-0,087	0,053
-176,227	150,911	0,139	0,138
-175,212	215,082	0,052	0,060
-174,198	-33,420	-0,056	-0,023
-173,183	-63,971	-0,117	-0,035
-172,169	-200,000	0,019	-0,071
-171,154	-200,000	0,038	-0,160
-170,139	-70,457	-0,030	0,008
-169,125	-200,000	-0,024	0,137
-168,110	800,000	-0,026	0,063
-167,096	326,510	-0,038	-0,053
-166,081	-139,600	0,095	-0,007
-165,066	554,983	-0,036	-0,063
-164,052	394,563	0,038	-0,057
-163,037	-200,000	0,007	-0,080
-162,023	-49,594	0,138	0,048
-161,008	179,055	-0,109	0,116
-159,993	-200,000	0,012	-0,044
-158,979	12,864	-0,064	-0,036
-157,964	572,542	-0,022	-0,040
-156,950	800,000	0,013	-0,041
-155,935	100,911	-0,029	-0,025
-154,920	220,293	0,043	-0,051
-153,906	-58,376	-0,038	0,012
-152,891	-200,000	-0,017	-0,117
-151,877	-200,000	0,002	-0,048
-150,862	-200,000	-0,007	0,030
-149,847	-162,600	0,037	0,001
-148,833	1,148	-0,066	0,034
-147,818	376,252	0,102	0,152
-146,804	-200,000	0,027	0,102
-145,789	-73,310	-0,154	-0,041
-144,775	-40,661	-0,068	0,026
-143,760	-123,541	-0,079	-0,009
-142,745	800,000	-0,037	0,114
-141,731	-200,000	0,026	0,113
-140,716	111,538	0,104	0,091
-139,702	-124,331	0,084	0,009
-138,687	800,000	-0,042	-0,118
-137,672	-133,515	0,081	-0,007
-136,658	70,966	-0,039	0,030
-135,643	800,000	0,078	-0,175
-134,629	160,045	-0,045	0,046
-133,614	-96,704	0,129	-0,025
-132,599	800,000	0,063	0,131
-131,585	-200,000	-0,028	0,145
-130,570	-121,111	0,038	0,005
-129,556	-200,000	0,007	-0,076
-128,541	20,510	0,056	-0,033
-127,526	-10,039	-0,125	-0,060
-126,512	-200,000	-0,014	-0,064
-125,497	-200,000	0,014	0,196
-124,483	116,537	0,140	0,125
-123,468	-147,911	0,161	0,010
-122,453	-200,000	-0,028	-0,110
-121,439	-200,000	0,005	-0,053
-120,424	15,931	-0,195	0,111
-119,410	1,110	0,167	0,087
