DTS Sentinel unit serial number:	SN410029Multiplexer serial number:	ORYXHardware model number:	OX2-SRSoftware version number:	ORYX F/W v4,00 Oryx Data Collector v3.7.2.0data status	okinstallation	B4 Nyhavnadifferential loss correction	single-endedforward channel	channel 2reverse channel	N/Adate	2023/12/16time	12:15:13forward acquisition time	300,00reverse acquisition time	0,00gamma	499,1914k internal	0,3126k external	0,3126temperature offset calibration	1,0000default loss term (dB/km)	0,3820temperature slope calibration	1,0000multiplexer offset coefficient	1,0000multiplexer slope coefficient	1,0000fibre end	0,00T internal ref (°C)	24,01T ext. ref 1 (°C)	9,90T ext. ref 2 (°C)	10,05length (m)	temperature (°C)	Stokes	anti-Stokes-744,400	14,434	0,121	0,070
-743,385	439,908	-0,124	0,202
-742,371	280,645	0,040	0,054
-741,356	-200,000	-0,067	0,270
-740,342	-200,000	0,014	0,085
-739,327	415,078	-0,118	0,188
-738,312	218,195	-0,087	-0,104
-737,298	13,079	-0,170	0,097
-736,283	-75,675	-0,169	-0,044
-735,269	-200,000	-0,032	0,155
-734,254	217,674	0,086	-0,102
-733,239	-81,927	-0,372	-0,090
-732,225	177,264	0,042	-0,046
-731,210	203,502	0,024	-0,028
-730,196	28,087	0,072	-0,045
-729,181	-55,960	0,043	-0,014
-728,167	-8,407	0,141	-0,070
-727,152	800,000	-0,044	-0,120
-726,137	-200,000	0,004	-0,043
-725,123	-56,027	0,060	-0,020
-724,108	-180,451	-0,082	-0,001
-723,094	-13,695	-0,014	0,007
-722,079	-112,600	-0,025	0,004
-721,064	-200,000	-0,002	0,045
-720,050	341,133	0,044	0,064
-719,035	-200,000	-0,003	0,137
-718,021	526,650	0,020	-0,035
-717,006	-200,000	-0,016	-0,082
-715,991	-30,662	-0,104	-0,043
-714,977	-200,000	0,014	0,064
-713,962	-90,197	-0,130	-0,028
-712,948	-84,571	-0,067	-0,016
-711,933	-200,000	0,022	0,138
-710,918	582,392	-0,062	-0,114
-709,904	-101,251	-0,113	-0,020
-708,889	-200,000	-0,003	-0,082
-707,875	-26,714	-0,099	0,043
-706,860	-200,000	0,009	-0,129
-705,845	-200,000	0,007	0,111
-704,831	20,304	-0,086	0,052
-703,816	-159,965	-0,050	0,002
-702,802	-200,000	-0,032	0,176
-701,787	-127,978	-0,156	-0,016
-700,772	12,963	-0,054	-0,031
-699,758	800,000	-0,036	-0,118
-698,743	-79,497	0,130	0,033
-697,729	800,000	-0,021	0,062
-696,714	800,000	-0,073	0,167
-695,699	159,459	-0,045	0,047
-694,685	20,329	-0,033	-0,020
-693,670	-200,000	-0,004	-0,042
-692,656	-153,883	-0,190	-0,009
-691,641	800,000	-0,041	-0,092
-690,627	-7,726	0,043	-0,021
-689,612	800,000	-0,007	-0,020
-688,597	-43,021	-0,068	-0,025
-687,583	-123,715	-0,181	-0,021
-686,568	800,000	-0,036	-0,096
-685,554	600,062	0,028	0,051
-684,539	386,434	0,053	0,082
-683,524	418,453	-0,020	-0,031
-682,510	-24,665	0,101	0,044
-681,495	-200,000	-0,000	-0,125
-680,481	264,128	-0,062	-0,081
-679,466	86,315	-0,092	-0,075
-678,451	-0,105	-0,071	-0,038
-677,437	-200,000	-0,006	0,156
-676,422	-200,000	-0,024	0,161
-675,408	-76,457	0,083	-0,022
-674,393	-200,000	-0,021	0,133
-673,378	441,779	-0,050	-0,081
-672,364	9,122	-0,081	-0,045
-671,349	-33,147	-0,039	-0,016
-670,335	800,000	-0,038	-0,099
-669,320	-147,395	-0,109	0,007
-668,305	402,832	0,034	-0,053
-667,291	-200,000	0,010	0,035
-666,276	800,000	-0,027	0,070
-665,262	-200,000	-0,011	0,167
-664,247	383,154	0,011	-0,018
-663,232	-163,686	0,043	0,001
-662,218	176,884	0,035	0,037
-661,203	108,250	-0,063	-0,055
-660,189	528,788	-0,098	0,173
-659,174	-4,067	-0,059	-0,030
-658,159	-200,000	-0,036	-0,146
-657,145	-54,529	-0,020	-0,007
-656,130	617,922	0,070	-0,130
-655,116	10,011	0,093	0,052
-654,101	152,099	0,103	-0,104
-653,086	-200,000	-0,002	0,058
-652,072	525,693	0,016	-0,028
-651,057	-200,000	0,012	0,141
-650,043	-93,867	-0,037	-0,008
-649,028	-200,000	0,001	0,137
-648,014	-145,511	0,031	-0,002
-646,999	376,985	-0,014	-0,022
-645,984	-118,758	-0,076	-0,010
-644,970	-71,956	0,137	-0,037
-643,955	-62,879	0,055	0,017
-642,941	201,652	0,063	0,072
-641,926	-33,500	0,058	-0,024
-640,911	182,781	-0,025	-0,028
-639,897	800,000	-0,020	-0,064
-638,882	-200,000	-0,011	0,055
-637,868	-6,311	-0,157	0,079
-636,853	800,000	-0,046	-0,119
-635,838	17,183	0,104	-0,061
-634,824	45,873	0,004	-0,003
-633,809	-28,153	0,126	-0,054
-632,795	-200,000	-0,004	0,085
-631,780	-126,085	-0,204	0,022
-630,765	-200,000	0,007	0,132
-629,751	341,007	-0,058	0,084
-628,736	5,388	0,114	-0,062
-627,722	-49,813	-0,055	0,019
-626,707	-200,000	-0,019	0,103
-625,692	-106,122	-0,053	0,009
-624,678	43,132	-0,081	-0,055
-623,663	459,154	0,053	0,088
-622,649	271,696	0,067	-0,087
-621,634	4,787	0,029	-0,016
-620,619	800,000	-0,048	-0,133
-619,605	57,210	-0,005	-0,004
-618,590	439,839	0,016	-0,026
-617,576	275,387	0,105	0,139
-616,561	36,288	0,032	-0,021
-615,546	-100,935	-0,032	0,006
-614,532	128,645	-0,030	-0,028
-613,517	-200,000	-0,002	-0,013
-612,503	171,964	0,046	-0,049
-611,488	1,067	-0,112	0,059
-610,474	-200,000	0,028	-0,233
-609,459	237,920	0,110	0,135
-608,444	-200,000	-0,027	-0,120
-607,430	125,019	-0,075	-0,070
-606,415	-200,000	-0,018	-0,135
-605,401	42,951	0,044	0,030
-604,386	245,869	0,125	0,156
-603,371	800,000	-0,028	0,080
-602,357	155,454	-0,078	0,080
-601,342	-171,268	-0,134	0,003
-600,328	313,202	0,043	-0,060
-599,313	-93,957	-0,106	0,021
-598,298	800,000	-0,038	-0,096
-597,284	112,206	0,038	0,034
-596,269	332,384	-0,047	0,068
-595,255	15,617	0,099	-0,057
-594,240	800,000	0,030	0,098
-593,225	600,931	0,029	0,054
-592,211	394,572	0,040	0,062
-591,196	-151,052	0,186	0,010
-590,182	187,185	0,115	0,127
-589,167	6,436	0,043	-0,024
-588,152	295,868	0,055	0,075
-587,138	163,382	-0,086	-0,089
-586,123	-31,376	-0,097	0,040
-585,109	138,008	0,029	0,029
-584,094	684,973	0,009	-0,018
-583,079	800,000	-0,021	-0,043
-582,065	-54,977	-0,062	0,021
-581,050	-9,743	0,047	-0,023
-580,036	-200,000	0,014	0,084
-579,021	800,000	-0,008	0,021
-578,006	747,191	-0,027	-0,054
-576,992	194,253	0,096	-0,108
-575,977	-132,715	-0,081	-0,008
-574,963	-200,000	-0,033	-0,122
-573,948	-96,700	0,071	0,014
-572,934	-68,436	0,136	0,039
-571,919	-0,828	-0,080	-0,042
-570,904	800,000	-0,023	-0,060
-569,890	510,542	-0,084	0,146
-568,875	-162,095	-0,041	-0,001
-567,861	383,040	-0,059	0,090
-566,846	-58,543	-0,099	-0,032
-565,831	-133,472	-0,123	0,011
-564,817	187,080	-0,056	0,061
-563,802	-200,000	0,000	-0,099
-562,788	-130,766	0,082	0,008
-561,773	-200,000	-0,051	-0,195
-560,758	800,000	0,068	0,147
-559,744	-83,059	-0,110	-0,026
-558,729	6,187	0,087	-0,048
-557,715	166,481	-0,046	-0,048
-556,700	58,590	-0,024	0,018
-555,685	305,196	-0,146	-0,201
-554,671	62,346	-0,170	0,125
-553,656	-200,000	-0,017	0,071
-552,642	69,277	0,056	0,043
-551,627	-200,000	0,010	0,054
-550,612	-15,439	-0,037	-0,017
-549,598	800,000	-0,060	0,129
-548,583	164,201	-0,046	-0,048
-547,569	291,776	0,094	0,126
-546,554	800,000	0,031	-0,081
-545,539	623,693	0,073	-0,137
-544,525	81,938	0,090	-0,072
-543,510	-200,000	-0,021	-0,118
-542,496	134,407	0,019	-0,019
-541,481	786,055	-0,038	0,078
-540,466	171,467	-0,062	0,066
-539,452	-200,000	-0,026	-0,179
-538,437	-15,650	0,152	0,071
-537,423	295,277	0,071	-0,096
-536,408	-200,000	-0,026	-0,113
-535,393	-200,000	0,009	-0,033
-534,379	-200,000	-0,016	-0,087
-533,364	-110,762	-0,115	-0,017
-532,350	800,000	-0,015	0,032
-531,335	458,253	-0,033	-0,054
-530,321	-147,769	0,212	0,013
-529,306	-200,000	-0,003	-0,020
-528,291	262,516	-0,146	-0,187
-527,277	-125,801	0,119	-0,013
-526,262	-109,075	0,031	0,005
-525,248	-105,259	0,092	-0,015
-524,233	590,368	0,055	0,101
-523,218	232,292	-0,068	0,082
-522,204	-163,221	-0,130	-0,005
-521,189	162,636	-0,064	0,066
-520,175	632,936	0,034	0,064
-519,160	537,590	0,015	-0,027
-518,145	-135,547	0,123	-0,011
-517,131	163,863	-0,026	0,027
-516,116	119,254	-0,036	-0,033
-515,102	-112,558	-0,034	-0,005
-514,087	66,452	-0,065	0,049
-513,072	800,000	0,072	-0,157
-512,058	-200,000	-0,009	0,096
-511,043	276,531	0,038	0,049
-510,029	-200,000	0,005	0,089
-509,014	755,906	-0,014	-0,029
-507,999	-200,000	0,003	0,048
-506,985	169,383	0,064	-0,067
-505,970	-67,146	-0,216	0,062
-504,956	-200,000	0,022	-0,082
-503,941	-200,000	-0,001	0,007
-502,926	0,961	-0,036	-0,019
-501,912	645,564	-0,015	0,029
-500,897	502,574	0,059	0,101
-499,883	800,000	0,072	0,154
-498,868	-35,660	-0,119	-0,047
-497,853	669,733	0,065	0,125
-496,839	268,614	0,069	0,089
-495,824	-200,000	0,038	0,137
-494,810	78,415	-0,055	-0,043
-493,795	800,000	-0,041	-0,100
-492,781	-101,488	0,082	-0,015
-491,766	-46,702	-0,052	-0,019
-490,751	57,549	0,068	-0,049
-489,737	9,968	-0,085	-0,047
-488,722	349,829	0,038	0,056
-487,708	125,395	0,112	0,104
-486,693	800,000	-0,030	-0,085
-485,678	800,000	0,044	-0,120
-484,664	-200,000	0,001	-0,060
-483,649	-200,000	-0,032	0,109
-482,635	244,504	-0,076	-0,094
-481,620	-38,846	-0,038	0,015
-480,605	210,131	-0,110	0,128
-479,591	1,257	-0,083	0,044
-478,576	-153,262	-0,097	0,005
-477,562	33,862	-0,021	-0,013
-476,547	-200,000	0,026	-0,128
-475,532	741,696	0,035	0,069
-474,518	54,661	-0,098	0,069
-473,503	800,000	-0,020	0,047
-472,489	800,000	0,028	0,067
-471,474	139,926	-0,031	-0,030
-470,459	-20,689	-0,042	0,019
-469,445	-200,000	0,022	-0,092
-468,430	-200,000	-0,010	-0,134
-467,416	24,457	0,086	0,052
-466,401	-200,000	0,003	0,100
-465,386	7,904	0,171	-0,094
-464,372	439,045	0,035	-0,057
-463,357	118,152	-0,131	-0,119
-462,343	800,000	-0,021	-0,052
-461,328	-83,972	-0,065	-0,015
-460,313	-143,364	0,071	0,005
-459,299	-200,000	0,005	0,058
-458,284	50,890	0,046	0,032
-457,270	-72,558	-0,096	-0,026
-456,255	65,084	-0,053	0,039
-455,241	202,188	-0,070	0,080
-454,226	-200,000	-0,012	0,114
-453,211	800,000	0,017	-0,038
-452,197	800,000	0,013	-0,036
-451,182	-77,418	0,171	-0,043
-450,168	94,171	0,024	0,020
-449,153	468,253	0,041	-0,068
-448,138	-167,874	-0,135	0,004
-447,124	-16,049	-0,092	-0,043
-446,109	-200,000	0,019	0,073
-445,095	-200,000	0,003	-0,052
-444,080	219,894	0,062	-0,073
-443,065	25,454	-0,074	0,045
-442,051	-89,569	0,160	0,034
-441,036	161,163	-0,085	0,088
-440,022	-114,427	-0,062	0,009
-439,007	-44,559	0,045	0,016
-437,992	267,732	-0,059	0,076
-436,978	271,192	0,033	0,042
-435,963	-200,000	-0,007	0,113
-434,949	-0,186	0,053	-0,028
-433,934	53,537	-0,011	0,008
-432,919	-103,773	0,005	0,001
-431,905	-200,000	-0,019	0,098
-430,890	255,693	0,065	0,082
-429,876	-200,000	0,027	-0,131
-428,861	-200,000	-0,014	0,075
-427,846	675,361	0,033	0,063
-426,832	292,015	-0,048	0,064
-425,817	-129,607	0,060	0,006
-424,803	-200,000	0,020	0,116
-423,788	-3,481	0,075	0,038
-422,773	83,785	0,032	-0,026
-421,759	135,759	0,081	0,078
-420,744	-105,528	-0,031	0,005
-419,730	-63,192	-0,109	-0,033
-418,715	-69,423	0,113	0,032
-417,701	-100,663	0,060	-0,011
-416,686	-111,417	0,044	0,007
-415,671	800,000	0,032	-0,071
-414,657	-18,747	-0,116	-0,053
-413,642	-116,860	0,091	0,012
-412,628	-87,311	-0,078	-0,017
-411,613	-200,000	0,050	0,217
-410,598	125,621	0,053	0,049
-409,584	33,186	-0,006	-0,004
-408,569	-35,450	-0,039	-0,016
-407,555	-200,000	0,002	0,085
-406,540	-56,223	0,103	-0,034
-405,525	-26,364	-0,096	0,041
-404,511	25,217	0,079	-0,048
-403,496	-140,223	-0,125	0,009
-402,482	292,016	0,086	0,116
-401,467	800,000	-0,053	0,135
-400,452	-194,201	-0,060	0,000
-399,438	584,779	0,069	0,125
-398,423	800,000	-0,052	0,163
-397,409	-27,605	-0,121	-0,052
-396,394	93,071	-0,058	0,048
-395,379	217,646	-0,080	0,093
-394,365	102,538	0,049	-0,042
-393,350	336,460	0,072	-0,103
-392,336	-37,715	0,041	-0,016
-391,321	-56,884	-0,012	-0,004
-390,306	800,000	0,022	-0,068
-389,292	-112,587	-0,082	0,012
-388,277	-200,000	-0,015	0,074
-387,263	-150,832	0,074	0,004
-386,248	-200,000	0,025	0,096
-385,233	337,752	-0,078	0,112
-384,219	800,000	-0,045	0,094
-383,204	319,697	0,023	-0,033
-382,190	-200,000	0,021	-0,084
-381,175	-200,000	0,005	0,066
-380,160	231,837	0,042	-0,050
-379,146	-5,137	0,095	0,048
-378,131	-69,358	0,048	-0,013
-377,117	-181,063	-0,087	0,001
-376,102	-109,399	-0,041	-0,006
-375,088	216,221	0,069	0,081
-374,073	-200,000	-0,015	0,079
-373,058	-23,046	0,072	-0,032
-372,044	800,000	-0,009	-0,024
-371,029	-76,319	0,013	0,003
-370,015	-200,000	-0,017	-0,058
-369,000	-200,000	-0,013	-0,051
-367,985	-138,818	-0,101	-0,008
-366,971	-200,000	0,002	-0,186
-365,956	300,457	0,099	-0,134
-364,942	-200,000	0,017	0,064
-363,927	7,320	-0,018	-0,010
-362,912	-200,000	0,002	-0,102
-361,898	-81,672	0,074	-0,018
-360,883	437,823	-0,043	-0,069
-359,869	-200,000	-0,020	-0,092
-358,854	409,698	0,032	0,050
-357,839	437,893	0,037	-0,059
-356,825	675,422	0,054	0,103
-355,810	-51,520	-0,119	0,040
-354,796	-80,893	-0,143	0,035
-353,781	-20,957	-0,096	0,043
-352,766	800,000	-0,017	0,037
-351,752	-98,593	0,096	-0,018
-350,737	-39,486	0,024	0,009
-349,723	-144,165	0,068	0,005
-348,708	-200,000	0,007	0,044
-347,693	-51,380	0,029	-0,010
-346,679	-46,020	0,099	-0,036
-345,664	113,466	0,183	-0,163
-344,650	-200,000	0,028	0,114
-343,635	237,979	0,018	0,022
-342,620	54,458	-0,141	-0,099
-341,606	-98,602	0,014	-0,003
-340,591	-100,226	-0,148	-0,027
-339,577	-61,025	-0,043	-0,013
-338,562	103,395	-0,077	-0,066
-337,548	91,886	0,083	-0,068
-336,533	-132,604	-0,061	-0,006
-335,518	-78,260	0,022	-0,006
-334,504	-137,633	0,032	-0,003
-333,489	97,681	-0,060	0,050
-332,475	-89,956	-0,045	-0,010
-331,460	800,000	0,052	-0,118
-330,445	-27,405	0,099	-0,042
-329,431	38,747	-0,168	0,109
-328,416	-0,641	0,103	-0,054
-327,402	-88,817	-0,076	0,016
-326,387	-200,000	-0,021	-0,082
-325,372	6,716	-0,089	-0,048
-324,358	35,782	0,082	-0,053
-323,343	800,000	0,035	-0,082
-322,329	607,916	-0,028	0,052
-321,314	-200,000	0,013	0,116
-320,299	-63,362	-0,093	-0,028
-319,285	57,147	0,037	-0,026
-318,270	711,182	-0,046	-0,089
-317,256	-109,763	0,125	-0,019
-316,241	-200,000	0,016	0,064
-315,226	800,000	0,020	0,042
-314,212	-27,086	-0,048	0,020
-313,197	800,000	-0,039	-0,125
-312,183	800,000	-0,031	-0,076
-311,168	-200,000	-0,020	-0,137
-310,153	345,084	-0,016	0,023
-309,139	54,029	-0,061	-0,043
-308,124	3,583	0,228	-0,121
-307,110	347,331	0,081	0,118
-306,095	-200,000	-0,007	0,098
-305,080	20,967	0,055	-0,032
-304,066	-98,528	0,064	0,012
-303,051	292,333	0,033	-0,044
-302,037	-200,000	-0,043	-0,168
-301,022	-200,000	-0,000	0,043
-300,008	391,560	0,082	-0,125
-298,993	-80,131	0,075	0,018
-297,978	-83,493	0,098	-0,023
-296,964	-32,709	-0,112	-0,045
-295,949	800,000	-0,063	-0,165
-294,935	-85,467	0,157	-0,036
-293,920	-200,000	-0,031	0,148
-292,905	-62,735	-0,086	-0,026
-291,891	93,729	0,158	0,131
-290,876	-99,668	-0,037	-0,007
-289,862	-80,779	-0,065	-0,016
-288,847	-200,000	-0,043	-0,147
-287,832	-9,210	-0,077	-0,038
-286,818	-200,000	0,012	-0,054
-285,803	-22,248	-0,029	-0,013
-284,789	-200,000	-0,033	0,155
-283,774	-56,489	0,055	0,018
-282,759	-13,887	0,129	-0,061
-281,745	-200,000	-0,019	-0,187
-280,730	193,751	0,081	-0,090
-279,716	-137,236	0,133	-0,011
-278,701	-200,000	-0,029	0,132
-277,686	-200,000	-0,032	0,165
-276,672	84,903	0,070	-0,056
-275,657	139,606	-0,086	0,083
-274,643	73,373	-0,152	-0,116
-273,628	-27,184	-0,158	0,067
-272,613	-27,496	0,097	0,041
-271,599	181,582	0,068	0,073
-270,584	-50,562	-0,011	0,004
-269,570	-64,297	-0,027	0,008
-268,555	354,057	0,036	-0,053
-267,540	43,445	-0,064	-0,042
-266,526	125,999	-0,037	-0,034
-265,511	800,000	0,026	0,072
-264,497	-200,000	-0,019	0,132
-263,482	-20,324	-0,030	0,013
-262,467	294,906	-0,074	-0,100
-261,453	613,503	0,054	0,099
-260,438	53,940	-0,130	-0,091
-259,424	-36,720	0,017	0,007
-258,409	490,059	-0,016	0,027
-257,395	59,589	0,132	-0,095
-256,380	-133,200	0,148	0,014
-255,365	-29,597	0,085	-0,035
-254,351	279,043	0,098	0,128
-253,336	263,960	-0,058	-0,074
-252,322	-200,000	-0,018	-0,129
-251,307	-200,000	-0,009	-0,098
-250,292	82,440	0,031	0,024
-249,278	-200,000	0,007	-0,096
-248,263	800,000	0,007	0,023
-247,249	94,997	0,070	0,058
-246,234	-165,825	0,060	0,002
-245,219	48,408	-0,061	-0,042
-244,205	431,170	-0,038	-0,061
-243,190	800,000	0,049	-0,132
-242,176	131,657	-0,030	0,028
-241,161	800,000	0,019	0,055
-240,146	-17,424	-0,041	-0,019
-239,132	-105,261	-0,073	-0,012
-238,117	463,505	0,070	-0,114
-237,103	97,454	0,103	-0,086
-236,088	-200,000	-0,029	-0,170
-235,073	127,842	0,011	0,011
-234,059	205,809	0,080	0,091
-233,044	-200,000	-0,028	0,191
-232,030	800,000	0,047	-0,116
-231,015	-200,000	0,009	0,078
-230,000	145,109	-0,094	-0,092
-228,986	425,085	0,083	-0,131
-227,971	800,000	0,041	-0,123
-226,957	216,660	-0,031	0,036
-225,942	-59,390	0,097	-0,030
-224,927	122,633	0,122	0,112
-223,913	-21,137	-0,111	0,049
-222,898	-142,589	0,071	-0,005
-221,884	-135,786	-0,085	-0,007
-220,869	293,168	0,031	0,042
-219,855	-200,000	-0,025	0,099
-218,840	-196,224	0,101	0,000
-217,825	-63,530	0,098	0,029
-216,811	-200,000	-0,005	-0,032
-215,796	-73,926	-0,101	-0,027
-214,782	-82,586	0,054	-0,013
-213,767	-189,991	0,051	-0,000
-212,752	-167,938	0,098	-0,003
-211,738	12,398	-0,058	-0,033
-210,723	-200,000	-0,007	-0,026
-209,709	-85,495	0,090	-0,020
-208,694	27,086	-0,108	-0,066
-207,679	162,389	0,044	-0,045
-206,665	-139,903	0,134	-0,010
-205,650	24,540	-0,009	0,005
-204,636	135,165	-0,053	0,050
-203,621	45,765	0,069	0,046
-202,606	-200,000	0,009	0,034
-201,592	800,000	-0,034	-0,078
-200,577	-200,000	-0,009	0,032
-199,563	-94,392	-0,138	0,027
-198,548	-54,382	0,165	0,054
-197,533	-70,220	-0,179	-0,049
-196,519	-200,000	0,000	0,037
-195,504	-17,370	-0,110	-0,050
-194,490	85,160	-0,054	-0,043
-193,475	-200,000	0,023	0,147
-192,460	-48,227	-0,090	0,031
-191,446	87,762	0,043	0,035
-190,431	-70,036	0,099	0,027
-189,417	800,000	0,010	0,028
-188,402	53,126	0,075	-0,052
-187,387	2,644	-0,022	-0,012
-186,373	749,446	-0,035	-0,069
-185,358	186,834	-0,108	-0,117
-184,344	158,103	0,109	-0,111
-183,329	8,123	-0,014	-0,008
-182,315	800,000	-0,044	-0,093
-181,300	-5,166	-0,121	0,061
-180,285	0,029	-0,159	0,082
-179,271	302,033	-0,082	-0,111
-178,256	77,783	0,096	-0,075
-177,242	10,770	-0,089	0,049
-176,227	-200,000	-0,017	0,102
-175,212	-184,025	-0,089	-0,001
-174,198	26,256	-0,194	0,118
-173,183	800,000	-0,040	0,120
-172,169	-127,359	-0,066	-0,007
-171,154	-41,252	-0,062	0,023
-170,139	-158,026	-0,034	-0,001
-169,125	43,992	0,103	-0,069
-168,110	150,158	-0,079	0,078
-167,096	-200,000	-0,001	0,015
-166,081	742,357	0,025	0,050
-165,066	38,018	-0,040	0,026
-164,052	-200,000	-0,027	-0,176
-163,037	-107,989	0,077	-0,012
-162,023	69,230	0,031	0,023
-161,008	-136,668	0,098	0,008
-159,993	728,684	0,059	0,116
-158,979	-11,188	-0,030	0,014
-157,964	34,321	-0,054	-0,034
-156,950	800,000	-0,016	-0,035
-155,935	800,000	-0,051	0,132
-154,920	-200,000	-0,025	0,107
-153,906	-200,000	-0,009	0,034
-152,891	80,881	0,138	0,108
-151,877	-81,410	0,053	0,013
-150,862	800,000	-0,039	-0,092
-149,847	90,268	0,074	-0,060
-148,833	266,286	-0,084	0,107
-147,818	-27,770	-0,117	0,049
-146,804	81,391	0,096	0,076
-145,789	800,000	-0,029	-0,065
-144,775	-200,000	-0,008	-0,141
-143,760	-133,633	-0,234	-0,021
-142,745	14,676	-0,103	-0,058
-141,731	-200,000	0,001	-0,046
-140,716	800,000	0,038	-0,077
-139,702	-114,066	0,166	-0,023
-138,687	-200,000	-0,001	0,026
-137,672	-200,000	-0,006	-0,069
-136,658	75,710	0,049	0,037
-135,643	421,421	-0,107	-0,168
-134,629	34,787	0,032	-0,020
-133,614	348,339	0,041	0,058
-132,599	-200,000	0,018	0,238
-131,585	-60,010	0,049	-0,015
-130,570	-200,000	-0,004	-0,045
-129,556	-74,137	-0,075	0,020
-128,541	-32,085	-0,152	0,061
-127,526	800,000	0,036	-0,116
-126,512	776,911	0,017	-0,033
-125,497	400,262	-0,042	0,064
-124,483	800,000	-0,042	0,128
-123,468	-68,954	0,137	0,038
-122,453	-200,000	-0,002	-0,019
-121,439	-200,000	-0,001	-0,041
-120,424	-68,762	0,069	0,019
-119,410	438,942	-0,056	0,088
