DTS Sentinel unit serial number:	SN410029Multiplexer serial number:	ORYXHardware model number:	OX2-SRSoftware version number:	ORYX F/W v4,00 Oryx Data Collector v3.7.2.0data status	okinstallation	B4 Nyhavnadifferential loss correction	single-endedforward channel	channel 2reverse channel	N/Adate	2023/12/19time	00:35:13forward acquisition time	300,00reverse acquisition time	0,00gamma	499,1914k internal	0,3123k external	0,3123temperature offset calibration	1,0000default loss term (dB/km)	0,3820temperature slope calibration	1,0000multiplexer offset coefficient	1,0000multiplexer slope coefficient	1,0000fibre end	0,00T internal ref (°C)	22,08T ext. ref 1 (°C)	6,55T ext. ref 2 (°C)	6,57length (m)	temperature (°C)	Stokes	anti-Stokes-744,400	-144,515	0,105	0,007
-743,385	-195,859	-0,192	-0,001
-742,371	34,281	0,082	-0,053
-741,356	20,921	-0,219	0,132
-740,342	114,469	-0,083	-0,076
-739,327	800,000	-0,101	0,214
-738,312	-200,000	0,001	-0,008
-737,298	191,910	-0,148	0,167
-736,283	-86,557	0,056	-0,013
-735,269	-48,476	-0,242	0,086
-734,254	326,329	0,039	0,055
-733,239	-132,163	-0,380	0,036
-732,225	-123,964	0,183	-0,021
-731,210	401,318	-0,063	0,100
-730,196	-161,400	-0,094	0,004
-729,181	-200,000	-0,011	0,081
-728,167	-110,763	0,136	-0,021
-727,152	672,226	0,030	0,058
-726,137	-200,000	-0,018	-0,183
-725,123	-164,069	-0,032	-0,001
-724,108	-57,545	-0,069	0,022
-723,094	46,353	-0,126	-0,087
-722,079	505,741	0,031	0,053
-721,064	-135,924	0,136	0,012
-720,050	-145,843	-0,169	0,011
-719,035	2,547	0,034	-0,018
-718,021	346,663	-0,111	-0,163
-717,006	-200,000	0,001	-0,027
-715,991	-200,000	-0,039	-0,150
-714,977	486,163	-0,032	-0,054
-713,962	38,466	-0,110	0,073
-712,948	800,000	-0,068	0,146
-711,933	800,000	0,041	-0,089
-710,918	-63,589	-0,040	0,012
-709,904	268,071	-0,075	-0,098
-708,889	368,751	-0,064	-0,097
-707,875	756,323	-0,025	0,050
-706,860	-48,403	0,094	0,034
-705,845	-200,000	0,000	0,032
-704,831	2,327	-0,059	-0,032
-703,816	-167,387	-0,100	-0,003
-702,802	-200,000	0,004	0,104
-701,787	-6,158	0,043	-0,022
-700,772	132,622	0,092	0,088
-699,758	131,266	0,086	-0,082
-698,743	-200,000	0,003	0,076
-697,729	152,045	0,056	0,057
-696,714	-51,111	-0,045	-0,016
-695,699	-72,086	-0,152	0,042
-694,685	161,350	-0,137	0,143
-693,670	170,673	-0,050	-0,053
-692,656	111,198	-0,091	0,082
-691,641	169,377	0,016	-0,017
-690,627	215,122	-0,032	-0,038
-689,612	3,048	-0,108	0,058
-688,597	262,990	-0,016	0,020
-687,583	-200,000	0,003	-0,075
-686,568	800,000	-0,091	-0,202
-685,554	-200,000	0,010	-0,055
-684,539	-171,539	-0,174	0,004
-683,524	-179,135	-0,133	-0,002
-682,510	-58,325	-0,161	-0,052
-681,495	-89,091	0,014	0,003
-680,481	-49,167	-0,130	0,046
-679,466	360,508	-0,071	-0,106
-678,451	69,737	-0,118	0,090
-677,437	-108,352	-0,106	0,017
-676,422	155,261	-0,011	0,012
-675,408	-10,423	0,047	0,023
-674,393	30,742	-0,120	-0,076
-673,378	103,608	0,039	-0,034
-672,364	-200,000	-0,001	-0,155
-671,349	800,000	0,082	-0,176
-670,335	700,901	-0,049	-0,097
-669,320	800,000	0,026	-0,082
-668,305	130,359	0,044	-0,042
-667,291	402,129	-0,039	-0,061
-666,276	-157,276	-0,107	0,005
-665,262	150,146	0,063	-0,063
-664,247	-121,385	-0,085	0,010
-663,232	235,144	0,032	0,040
-662,218	-200,000	0,027	0,097
-661,203	-16,123	0,124	0,058
-660,189	-200,000	-0,010	0,165
-659,174	366,141	-0,045	0,067
-658,159	-200,000	0,006	0,094
-657,145	-7,160	-0,070	-0,035
-656,130	209,598	0,048	-0,056
-655,116	-66,896	0,091	-0,027
-654,101	59,282	0,107	-0,078
-653,086	454,000	0,054	-0,090
-652,072	8,065	-0,130	-0,072
-651,057	562,019	-0,054	-0,097
-650,043	-7,340	-0,050	0,025
-649,028	-153,105	0,103	-0,005
-648,014	-96,810	0,080	0,015
-646,999	214,728	0,128	-0,151
-645,984	-0,946	-0,120	0,063
-644,970	800,000	-0,047	-0,122
-643,955	741,618	-0,034	-0,068
-642,941	800,000	0,032	-0,070
-641,926	-200,000	0,007	-0,044
-640,911	100,205	0,027	-0,023
-639,897	52,688	-0,100	0,071
-638,882	-84,189	-0,053	0,012
-637,868	-54,056	0,070	0,023
-636,853	55,220	-0,119	-0,085
-635,838	112,976	-0,096	-0,086
-634,824	-63,602	-0,088	-0,027
-633,809	-113,330	-0,096	0,014
-632,795	-200,000	-0,009	-0,045
-631,780	-110,478	-0,175	0,027
-630,765	-200,000	-0,001	0,015
-629,751	800,000	-0,052	-0,121
-628,736	-200,000	-0,033	-0,119
-627,722	360,093	0,040	-0,060
-626,707	-78,772	0,065	0,016
-625,692	-200,000	-0,012	-0,073
-624,678	63,942	0,025	0,019
-623,663	35,498	0,032	-0,021
-622,649	-146,471	-0,078	-0,005
-621,634	-111,636	-0,080	0,012
-620,619	114,946	0,047	-0,043
-619,605	226,253	-0,032	0,038
-618,590	-156,612	-0,019	-0,001
-617,576	-200,000	-0,012	0,144
-616,561	-132,673	-0,032	-0,003
-615,546	800,000	-0,030	-0,072
-614,532	800,000	-0,025	-0,074
-613,517	58,725	0,120	-0,088
-612,503	-200,000	-0,005	-0,093
-611,488	-114,256	0,146	0,021
-610,474	429,117	-0,011	-0,018
-609,459	-157,397	-0,030	-0,001
-608,444	315,616	0,016	-0,023
-607,430	-200,000	-0,039	0,130
-606,415	505,130	0,066	-0,113
-605,401	-200,000	0,011	0,178
-604,386	254,954	0,023	0,029
-603,371	8,808	0,127	-0,071
-602,357	98,800	-0,067	0,058
-601,342	523,643	0,058	-0,102
-600,328	-200,000	-0,001	-0,096
-599,313	61,816	0,141	-0,104
-598,298	107,207	0,100	0,088
-597,284	-69,740	0,042	-0,012
-596,269	-200,000	-0,017	-0,118
-595,255	93,109	-0,084	0,070
-594,240	-200,000	-0,040	-0,141
-593,225	362,450	-0,065	-0,097
-592,211	-18,952	-0,020	-0,009
-591,196	800,000	-0,060	-0,134
-590,182	-200,000	0,022	0,121
-589,167	-10,941	0,112	0,055
-588,152	-200,000	0,007	0,028
-587,138	28,693	-0,172	-0,108
-586,123	800,000	-0,084	-0,232
-585,109	-7,673	-0,107	-0,053
-584,094	14,671	-0,148	-0,086
-583,079	-15,549	0,122	-0,057
-582,065	497,384	0,050	-0,086
-581,050	-128,062	-0,099	0,010
-580,036	-172,767	-0,105	0,002
-579,021	33,691	-0,036	0,023
-578,006	-200,000	0,045	-0,159
-576,992	669,438	-0,022	0,041
-575,977	99,449	-0,135	0,116
-574,963	272,801	0,079	0,104
-573,948	800,000	-0,042	0,114
-572,934	55,992	-0,078	-0,056
-571,919	152,085	0,062	0,062
-570,904	-200,000	0,019	-0,069
-569,890	49,792	0,079	0,055
-568,875	-131,950	-0,078	0,007
-567,861	274,736	0,059	0,078
-566,846	407,800	-0,063	0,098
-565,831	-179,134	-0,114	-0,002
-564,817	-124,369	-0,053	-0,006
-563,802	-39,403	-0,077	0,030
-562,788	-55,787	-0,030	0,010
-561,773	239,022	0,129	0,159
-560,758	-35,832	0,132	0,053
-559,744	-169,026	-0,096	0,003
-558,729	-57,000	-0,126	0,041
-557,715	173,690	-0,095	-0,101
-556,700	800,000	0,029	-0,067
-555,685	-200,000	0,006	0,057
-554,671	-28,288	0,075	0,032
-553,656	-200,000	0,011	0,086
-552,642	357,864	-0,030	-0,045
-551,627	-200,000	0,017	0,120
-550,612	100,679	-0,060	0,052
-549,598	-200,000	-0,001	-0,199
-548,583	272,287	0,080	-0,105
-547,569	155,970	-0,009	0,009
-546,554	-144,645	-0,018	-0,001
-545,539	-200,000	0,071	0,238
-544,525	270,541	0,051	-0,066
-543,510	-99,077	-0,023	0,004
-542,496	-200,000	-0,000	0,023
-541,481	75,731	-0,027	-0,021
-540,466	-91,222	-0,135	0,028
-539,452	254,655	0,053	0,067
-538,437	95,316	0,113	-0,096
-537,423	-200,000	-0,012	0,096
-536,408	800,000	0,071	0,164
-535,393	99,342	-0,104	0,089
-534,379	-20,658	0,026	-0,012
-533,364	800,000	0,076	-0,184
-532,350	382,370	0,049	-0,075
-531,335	540,497	-0,036	-0,064
-530,321	571,111	0,029	-0,053
-529,306	572,083	0,045	-0,081
-528,291	-154,296	0,089	-0,004
-527,277	216,205	-0,109	-0,128
-526,262	800,000	0,023	-0,065
-525,248	323,093	-0,020	-0,028
-524,233	73,802	-0,092	0,071
-523,218	-125,112	0,119	0,013
-522,204	-200,000	0,001	-0,041
-521,189	800,000	0,026	-0,058
-520,175	117,947	0,009	0,009
-519,160	-136,620	0,085	-0,007
-518,145	-26,555	-0,008	-0,003
-517,131	390,489	0,049	0,076
-516,116	-47,020	0,100	0,036
-515,102	223,976	-0,025	0,030
-514,087	-200,000	-0,038	-0,151
-513,072	800,000	0,072	-0,163
-512,058	508,085	-0,041	0,071
-511,043	-99,483	0,084	0,016
-510,029	51,775	-0,095	0,067
-509,014	-193,933	0,073	-0,000
-507,999	81,235	-0,108	0,086
-506,985	188,633	0,024	0,026
-505,970	48,696	-0,107	-0,074
-504,956	-83,076	-0,062	0,015
-503,941	478,406	0,043	0,073
-502,926	-6,966	-0,057	-0,029
-501,912	800,000	-0,032	0,081
-500,897	368,304	-0,036	0,054
-499,883	-200,000	-0,017	0,065
-498,868	214,699	-0,066	0,078
-497,853	-124,489	-0,046	0,005
-496,839	-27,137	-0,133	-0,057
-495,824	181,638	-0,057	0,062
-494,810	-67,742	-0,144	0,041
-493,795	315,017	0,050	0,070
-492,781	180,216	0,083	-0,090
-491,766	-200,000	-0,016	-0,067
-490,751	-200,000	0,026	-0,090
-489,737	10,792	-0,025	0,014
-488,722	-83,595	-0,104	0,024
-487,708	36,258	-0,075	-0,048
-486,693	-200,000	0,009	0,050
-485,678	-105,404	-0,166	-0,028
-484,664	-29,305	0,033	0,014
-483,649	222,041	-0,027	0,032
-482,635	0,140	0,036	0,019
-481,620	201,302	0,097	0,111
-480,605	-16,379	0,110	0,051
-479,591	-200,000	-0,006	-0,094
-478,576	163,512	0,082	0,085
-477,562	45,859	-0,044	-0,030
-476,547	-39,279	-0,104	-0,040
-475,532	-77,019	0,073	-0,019
-474,518	-68,864	0,065	0,018
-473,503	-200,000	0,018	0,066
-472,489	-59,877	0,143	-0,045
-471,474	197,318	0,104	0,117
-470,459	-151,555	-0,161	0,009
-469,445	-150,499	0,138	0,008
-468,430	24,215	-0,025	0,015
-467,416	-103,232	-0,054	0,009
-466,401	-4,767	0,142	0,072
-465,386	-200,000	0,007	0,054
-464,372	-121,437	0,145	-0,018
-463,357	-123,620	-0,160	0,018
-462,343	800,000	-0,072	-0,155
-461,328	-200,000	-0,003	0,020
-460,313	800,000	0,021	-0,063
-459,299	-125,590	0,083	0,009
-458,284	-200,000	0,037	-0,143
-457,270	-200,000	0,007	-0,059
-456,255	-41,320	0,061	-0,023
-455,241	34,880	-0,087	0,056
-454,226	298,934	0,057	-0,077
-453,211	800,000	-0,007	-0,015
-452,197	-77,845	0,046	-0,012
-451,182	458,919	0,100	-0,165
-450,168	-200,000	0,011	0,067
-449,153	-86,052	0,115	0,026
-448,138	-200,000	-0,001	-0,133
-447,124	800,000	0,028	-0,092
-446,109	-181,098	-0,082	0,001
-445,095	800,000	-0,001	-0,003
-444,080	-200,000	0,035	0,136
-443,065	244,130	0,084	0,104
-442,051	-73,206	-0,105	0,028
-441,036	238,419	-0,121	0,148
-440,022	-160,118	0,063	-0,002
-439,007	460,219	0,016	0,026
-437,992	98,897	0,024	0,021
-436,978	800,000	-0,018	0,049
-435,963	-15,804	0,096	0,045
-434,949	-200,000	-0,012	0,079
-433,934	-200,000	-0,038	0,124
-432,919	800,000	-0,042	-0,123
-431,905	-62,037	-0,099	0,030
-430,890	-97,319	0,036	0,007
-429,876	-121,168	0,085	0,010
-428,861	395,891	0,031	0,047
-427,846	800,000	0,070	-0,221
-426,832	368,607	0,039	-0,059
-425,817	-71,311	-0,041	0,011
-424,803	36,486	-0,040	-0,026
-423,788	548,868	-0,049	0,086
-422,773	-34,345	0,077	0,031
-421,759	-200,000	0,033	0,190
-420,744	39,574	-0,163	0,107
-419,730	542,213	0,017	-0,031
-418,715	-200,000	0,015	-0,085
-417,701	-200,000	-0,012	-0,111
-416,686	-200,000	0,003	-0,035
-415,671	-22,246	-0,143	0,064
-414,657	23,384	0,085	0,052
-413,642	107,165	0,051	0,044
-412,628	93,413	-0,115	-0,096
-411,613	-65,105	-0,015	0,005
-410,598	31,382	-0,032	-0,020
-409,584	-200,000	-0,011	-0,126
-408,569	-69,560	0,168	-0,047
-407,555	-200,000	0,001	-0,018
-406,540	30,756	0,051	0,032
-405,525	614,538	-0,035	-0,065
-404,511	3,641	-0,074	0,040
-403,496	-116,544	0,092	-0,012
-402,482	646,527	0,044	0,082
-401,467	236,237	-0,033	0,041
-400,452	-188,930	0,173	0,001
-399,438	127,354	0,096	0,090
-398,423	-200,000	0,014	0,073
-397,409	196,122	-0,025	-0,028
-396,394	800,000	-0,068	0,156
-395,379	237,742	-0,094	0,114
-394,365	-200,000	0,020	0,155
-393,350	-200,000	0,034	0,174
-392,336	-168,144	-0,084	0,002
-391,321	-200,000	0,015	-0,085
-390,306	88,826	-0,059	-0,048
-389,292	169,869	-0,035	0,036
-388,277	121,677	-0,025	0,023
-387,263	-200,000	0,036	0,136
-386,248	72,235	0,055	0,042
-385,233	-104,868	-0,057	0,010
-384,219	-3,730	0,101	-0,051
-383,204	-200,000	-0,014	0,046
-382,190	-68,134	0,035	-0,010
-381,175	30,679	0,034	-0,021
-380,160	444,845	0,058	0,094
-379,146	-200,000	-0,029	0,164
-378,131	-91,063	0,146	0,031
-377,117	34,930	0,131	0,084
-376,102	800,000	-0,039	-0,085
-375,088	-200,000	-0,044	-0,145
-374,073	102,549	0,106	-0,091
-373,058	169,987	-0,119	-0,125
-372,044	448,495	-0,061	-0,098
-371,029	125,816	0,066	-0,061
-370,015	727,479	0,040	-0,079
-369,000	800,000	0,037	-0,080
-367,985	-19,625	0,099	-0,045
-366,971	605,981	0,036	-0,066
-365,956	477,716	-0,064	0,107
-364,942	406,279	-0,103	0,160
-363,927	800,000	0,040	-0,110
-362,912	-1,634	0,028	-0,015
-361,898	102,685	-0,084	-0,073
-360,883	-200,000	0,027	-0,149
-359,869	-76,394	-0,143	-0,037
-358,854	800,000	0,008	0,023
-357,839	185,947	0,115	0,126
-356,825	-155,851	0,056	0,003
-355,810	50,626	0,137	0,095
-354,796	275,964	-0,050	-0,065
-353,781	385,798	0,021	0,032
-352,766	-200,000	-0,011	-0,098
-351,752	800,000	-0,043	-0,088
-350,737	-141,783	0,074	0,005
-349,723	-200,000	0,000	-0,009
-348,708	-200,000	0,023	0,077
-347,693	5,584	-0,122	-0,066
-346,679	211,303	0,110	0,127
-345,664	-200,000	-0,001	0,015
-344,650	138,300	0,081	-0,078
-343,635	-200,000	-0,024	0,120
-342,620	800,000	0,060	0,131
-341,606	-42,911	0,080	-0,030
-340,591	800,000	0,020	-0,054
-339,577	-31,103	-0,047	-0,019
-338,562	800,000	-0,024	-0,059
-337,548	113,790	0,038	-0,034
-336,533	-200,000	0,002	0,057
-335,518	89,710	-0,123	-0,101
-334,504	12,575	0,105	-0,059
-333,489	-44,014	-0,061	0,022
-332,475	-185,995	-0,051	0,001
-331,460	800,000	0,012	-0,026
-330,445	-32,851	-0,096	0,039
-329,431	-200,000	-0,014	0,085
-328,416	162,874	0,067	0,069
-327,402	800,000	0,036	0,091
-326,387	-200,000	-0,020	0,068
-325,372	-86,507	-0,070	0,016
-324,358	800,000	-0,036	-0,112
-323,343	-200,000	-0,021	0,124
-322,329	-57,112	0,053	0,017
-321,314	477,548	-0,026	-0,043
-320,299	406,141	0,104	0,162
-319,285	368,204	-0,057	0,085
-318,270	566,265	-0,063	0,112
-317,256	-38,684	0,070	-0,027
-316,241	-67,469	0,139	0,040
-315,226	-200,000	-0,005	0,042
-314,212	-46,972	0,141	0,050
-313,197	800,000	-0,032	-0,080
-312,183	11,052	0,084	0,047
-311,168	38,471	-0,072	-0,047
-310,153	800,000	0,047	-0,104
-309,139	648,801	0,044	0,083
-308,124	-200,000	-0,028	0,122
-307,110	313,201	-0,102	-0,140
-306,095	-200,000	-0,001	-0,030
-305,080	-13,230	-0,120	0,057
-304,066	48,945	-0,067	0,046
-303,051	-44,486	-0,099	0,036
-302,037	-200,000	0,015	-0,054
-301,022	-200,000	0,013	-0,052
-300,008	-200,000	0,018	0,119
-298,993	237,988	0,059	0,072
-297,978	-200,000	-0,007	0,025
-296,964	-18,906	-0,050	0,023
-295,949	71,408	-0,056	0,043
-294,935	-180,805	0,090	-0,001
-293,920	247,573	-0,055	0,068
-292,905	107,161	0,060	-0,052
-291,891	-80,231	-0,077	0,019
-290,876	348,398	0,011	0,016
-289,862	-122,992	-0,169	0,020
-288,847	-200,000	0,042	-0,138
-287,832	-200,000	-0,013	-0,056
-286,818	210,972	-0,031	0,035
-285,803	-33,116	0,145	0,058
-284,789	-200,000	0,004	-0,047
-283,774	0,163	0,053	0,028
-282,759	-67,046	0,072	0,021
-281,745	800,000	-0,028	0,072
-280,730	-114,435	-0,165	-0,023
-279,716	-200,000	-0,025	-0,158
-278,701	-4,043	0,113	0,057
-277,686	42,358	0,087	0,058
-276,672	-200,000	0,019	0,193
-275,657	52,767	-0,083	0,058
-274,643	252,304	-0,051	0,064
-273,628	316,054	-0,112	-0,155
-272,613	215,878	0,045	-0,052
-271,599	-200,000	0,005	0,071
-270,584	-30,611	0,093	-0,039
-269,570	800,000	0,051	0,143
-268,555	-200,000	-0,011	0,087
-267,540	288,457	-0,058	0,077
-266,526	783,498	0,041	0,083
-265,511	800,000	-0,056	-0,118
-264,497	359,501	-0,092	0,135
-263,482	-200,000	0,033	0,128
-262,467	168,625	0,102	0,107
-261,453	-19,983	-0,128	-0,057
-260,438	284,682	-0,072	-0,095
-259,424	-81,738	-0,066	0,016
-258,409	-200,000	0,082	0,000
-257,395	87,714	0,067	0,055
-256,380	146,905	0,092	-0,090
-255,365	-200,000	0,029	0,129
-254,351	-200,000	0,021	0,111
-253,336	-80,697	-0,134	-0,032
-252,322	161,229	0,098	0,101
-251,307	474,812	0,045	-0,075
-250,292	800,000	0,026	0,066
-249,278	-57,113	-0,058	-0,019
-248,263	-81,498	-0,052	0,013
-247,249	-200,000	0,002	0,090
-246,234	260,178	0,017	-0,022
-245,219	52,898	-0,132	-0,092
-244,205	42,214	0,047	0,031
-243,190	800,000	0,007	-0,018
-242,176	800,000	0,056	-0,117
-241,161	101,224	0,089	-0,076
-240,146	-58,197	0,086	0,027
-239,132	121,217	0,062	0,057
-238,117	169,591	-0,093	-0,097
-237,103	-200,000	-0,008	-0,134
-236,088	104,055	0,048	-0,041
-235,073	-200,000	0,010	-0,044
-234,059	27,978	0,028	0,017
-233,044	800,000	-0,022	0,052
-232,030	-200,000	0,003	0,030
-231,015	-37,017	-0,082	0,032
-230,000	-80,727	-0,120	0,029
-228,986	226,260	0,030	-0,035
-227,971	-200,000	-0,015	0,088
-226,957	-200,000	0,025	0,082
-225,942	-200,000	-0,004	0,118
-224,927	-32,270	-0,097	0,040
-223,913	-200,000	0,006	-0,115
-222,898	117,669	-0,046	-0,042
-221,884	57,490	-0,045	0,032
-220,869	-200,000	0,000	-0,075
-219,855	13,937	0,136	-0,077
-218,840	-200,000	-0,015	0,059
-217,825	156,099	0,061	-0,062
-216,811	800,000	-0,025	-0,062
-215,796	-200,000	-0,032	-0,125
-214,782	71,771	0,040	0,030
-213,767	-200,000	0,020	-0,098
-212,752	604,067	0,013	-0,024
-211,738	227,968	-0,084	0,100
-210,723	-89,900	0,011	0,002
-209,709	-200,000	0,012	-0,186
-208,694	13,245	-0,123	-0,069
-207,679	-6,702	-0,109	-0,054
-206,665	-200,000	0,013	0,089
-205,650	349,821	-0,059	-0,085
-204,636	171,853	-0,097	0,102
-203,621	-200,000	0,008	0,113
-202,606	132,569	-0,036	0,034
-201,592	372,389	0,049	-0,073
-200,577	570,861	-0,042	-0,075
-199,563	-200,000	0,057	-0,215
-198,548	-117,927	-0,052	0,007
-197,533	18,117	0,092	0,053
-196,519	213,093	0,077	0,089
-195,504	800,000	-0,016	0,044
-194,490	800,000	0,043	-0,104
-193,475	-139,464	0,021	0,002
-192,460	-200,000	0,011	-0,118
-191,446	-200,000	0,006	-0,023
-190,431	32,761	0,097	0,061
-189,417	241,218	-0,088	0,107
-188,402	293,589	-0,029	-0,038
-187,387	-200,000	0,035	-0,143
-186,373	800,000	-0,012	0,031
-185,358	-153,305	0,125	0,006
-184,344	-125,212	0,047	-0,005
-183,329	-200,000	0,034	-0,145
-182,315	-57,104	0,015	-0,005
-181,300	-24,697	0,049	-0,021
-180,285	302,207	0,040	0,054
-179,271	-200,000	0,022	0,073
-178,256	800,000	0,034	-0,078
-177,242	-200,000	-0,014	0,132
-176,227	800,000	-0,004	0,010
-175,212	61,831	-0,066	-0,048
-174,198	-200,000	-0,002	0,076
-173,183	800,000	-0,017	-0,051
-172,169	-189,932	-0,161	0,001
-171,154	-39,961	0,041	-0,015
-170,139	556,011	0,030	0,053
-169,125	-40,022	-0,082	-0,031
-168,110	456,241	-0,019	0,031
-167,096	-74,581	0,130	0,034
-166,081	800,000	-0,011	0,029
-165,066	441,094	-0,064	-0,102
-164,052	-200,000	0,003	-0,118
-163,037	-1,239	-0,042	0,022
-162,023	-132,059	0,040	-0,004
-161,008	-7,935	-0,062	0,030
-159,993	-142,769	0,256	0,018
-158,979	154,399	0,056	-0,056
-157,964	-160,679	-0,137	-0,005
-156,950	44,559	0,063	-0,042
-155,935	697,128	-0,009	-0,017
-154,920	-200,000	-0,008	0,106
-153,906	800,000	-0,018	0,038
-152,891	800,000	-0,067	-0,136
-151,877	-170,202	-0,064	-0,002
-150,862	472,811	-0,031	0,052
-149,847	-141,346	-0,030	-0,002
-148,833	-200,000	0,012	0,163
-147,818	-149,824	0,052	-0,003
-146,804	63,649	0,079	-0,058
-145,789	800,000	-0,042	-0,121
-144,775	-155,681	-0,175	-0,008
-143,760	-200,000	-0,002	-0,009
-142,745	-34,160	0,089	-0,035
-141,731	491,193	0,049	0,083
-140,716	800,000	-0,020	-0,048
-139,702	369,820	0,019	-0,027
-138,687	-25,409	0,098	-0,042
-137,672	251,936	0,034	-0,042
-136,658	-43,721	-0,109	0,040
-135,643	-200,000	-0,007	-0,028
-134,629	-53,588	-0,217	-0,072
-133,614	165,661	0,089	0,092
-132,599	800,000	0,037	0,087
-131,585	252,920	-0,053	0,066
-130,570	266,037	-0,067	0,085
-129,556	73,806	-0,135	-0,103
-128,541	224,601	-0,052	-0,061
-127,526	-133,144	0,064	-0,006
-126,512	586,706	-0,063	0,113
-125,497	47,685	0,110	0,074
-124,483	-200,000	0,019	0,128
-123,468	800,000	0,043	-0,126
-122,453	26,069	0,060	0,036
-121,439	185,799	-0,044	0,048
-120,424	682,934	0,068	0,130
-119,410	-11,056	0,041	-0,020
