DTS Sentinel unit serial number:	SN410029Multiplexer serial number:	ORYXHardware model number:	OX2-SRSoftware version number:	ORYX F/W v4,00 Oryx Data Collector v3.7.2.0data status	okinstallation	B4 Nyhavnadifferential loss correction	single-endedforward channel	channel 2reverse channel	N/Adate	2023/12/18time	18:10:13forward acquisition time	300,00reverse acquisition time	0,00gamma	499,1914k internal	0,3124k external	0,3124temperature offset calibration	1,0000default loss term (dB/km)	0,3820temperature slope calibration	1,0000multiplexer offset coefficient	1,0000multiplexer slope coefficient	1,0000fibre end	0,00T internal ref (°C)	21,89T ext. ref 1 (°C)	7,19T ext. ref 2 (°C)	7,24length (m)	temperature (°C)	Stokes	anti-Stokes-744,400	-200,000	-0,005	-0,141
-743,385	379,046	-0,142	0,217
-742,371	800,000	0,072	-0,160
-741,356	39,904	-0,233	0,156
-740,342	-200,000	-0,002	-0,066
-739,327	49,775	-0,147	0,103
-738,312	-200,000	0,011	-0,061
-737,298	800,000	-0,109	0,232
-736,283	-113,274	0,099	0,014
-735,269	-4,652	-0,190	0,097
-734,254	563,362	-0,037	-0,067
-733,239	-37,268	-0,472	-0,187
-732,225	337,799	-0,071	-0,104
-731,210	131,930	0,109	0,105
-730,196	3,425	0,105	-0,057
-729,181	357,528	-0,092	-0,138
-728,167	-200,000	0,028	-0,132
-727,152	800,000	0,005	-0,015
-726,137	-6,733	-0,062	-0,031
-725,123	-200,000	-0,006	-0,092
-724,108	444,318	0,086	-0,140
-723,094	-160,105	0,011	-0,000
-722,079	800,000	-0,008	-0,026
-721,064	-200,000	0,039	-0,143
-720,050	800,000	0,015	0,037
-719,035	-117,613	-0,110	0,015
-718,021	40,055	-0,046	-0,030
-717,006	-200,000	0,022	0,084
-715,991	171,315	-0,103	0,110
-714,977	-200,000	-0,003	-0,026
-713,962	-200,000	0,001	-0,143
-712,948	800,000	-0,013	0,029
-711,933	-174,323	0,030	-0,001
-710,918	-22,626	-0,167	-0,075
-709,904	-120,649	-0,092	-0,011
-708,889	-200,000	-0,011	-0,045
-707,875	59,391	-0,128	-0,094
-706,860	-149,437	0,076	0,004
-705,845	800,000	-0,066	-0,142
-704,831	-3,227	-0,039	0,020
-703,816	-165,747	-0,104	0,003
-702,802	-115,836	-0,037	-0,005
-701,787	281,200	0,026	-0,035
-700,772	692,905	0,044	0,086
-699,758	-110,782	-0,080	0,012
-698,743	-79,683	-0,021	0,005
-697,729	547,971	-0,014	-0,026
-696,714	-200,000	-0,013	-0,045
-695,699	622,971	-0,062	-0,117
-694,685	-200,000	0,018	-0,067
-693,670	800,000	0,061	-0,186
-692,656	-55,955	0,136	0,045
-691,641	275,536	-0,105	-0,139
-690,627	184,712	0,025	0,027
-689,612	-200,000	0,022	-0,154
-688,597	226,699	-0,088	-0,107
-687,583	-87,966	0,037	-0,008
-686,568	800,000	-0,063	-0,168
-685,554	120,721	0,078	0,072
-684,539	655,211	-0,055	0,105
-683,524	-101,240	0,101	-0,018
-682,510	-85,242	0,163	0,038
-681,495	-200,000	0,026	0,096
-680,481	218,624	-0,121	-0,144
-679,466	86,991	-0,106	-0,087
-678,451	292,591	-0,060	-0,082
-677,437	-50,048	-0,079	-0,028
-676,422	95,944	0,098	0,083
-675,408	-57,135	0,080	0,026
-674,393	192,542	0,032	-0,036
-673,378	72,716	-0,045	-0,035
-672,364	-155,029	-0,137	-0,007
-671,349	-200,000	0,025	-0,179
-670,335	482,037	-0,055	0,093
-669,320	-69,146	0,130	-0,037
-668,305	-130,014	0,087	0,009
-667,291	800,000	-0,041	-0,099
-666,276	212,337	0,071	0,084
-665,262	206,685	0,068	-0,079
-664,247	-7,478	0,042	-0,021
-663,232	-81,695	0,041	0,010
-662,218	-114,662	0,137	-0,019
-661,203	800,000	-0,039	0,118
-660,189	-200,000	0,000	-0,055
-659,174	478,192	-0,067	-0,114
-658,159	800,000	-0,065	-0,167
-657,145	261,842	-0,075	-0,097
-656,130	-19,952	-0,033	-0,015
-655,116	23,195	0,099	0,060
-654,101	21,315	-0,095	0,057
-653,086	-26,470	0,034	-0,015
-652,072	223,684	-0,038	0,045
-651,057	503,184	-0,070	0,120
-650,043	-54,554	0,033	0,011
-649,028	-33,216	-0,094	0,039
-648,014	-200,000	-0,017	0,080
-646,999	76,715	0,017	-0,013
-645,984	-200,000	0,019	-0,098
-644,970	-85,141	0,061	0,014
-643,955	577,784	-0,092	-0,168
-642,941	-0,813	-0,124	-0,065
-641,926	227,247	-0,129	0,156
-640,911	-52,305	0,175	0,060
-639,897	-200,000	0,000	0,086
-638,882	-200,000	0,006	-0,062
-637,868	-58,955	-0,085	-0,027
-636,853	-200,000	0,028	-0,094
-635,838	-200,000	0,007	-0,052
-634,824	58,268	-0,146	-0,106
-633,809	-200,000	-0,003	-0,045
-632,795	800,000	0,050	0,132
-631,780	-200,000	-0,030	0,143
-630,765	85,971	0,105	0,086
-629,751	-200,000	-0,002	0,027
-628,736	-200,000	0,039	-0,136
-627,722	-10,828	-0,065	-0,032
-626,707	800,000	-0,047	0,119
-625,692	351,140	0,017	-0,025
-624,678	-200,000	0,028	0,183
-623,663	-106,382	0,038	0,006
-622,649	430,083	-0,052	-0,084
-621,634	137,794	0,024	-0,023
-620,619	-200,000	-0,015	-0,121
-619,605	40,549	-0,054	-0,036
-618,590	-69,338	0,150	-0,042
-617,576	703,158	0,079	0,155
-616,561	-200,000	-0,023	-0,136
-615,546	-200,000	0,011	0,119
-614,532	-43,865	0,069	0,026
-613,517	330,582	0,044	-0,063
-612,503	-200,000	0,011	0,083
-611,488	-200,000	-0,014	0,068
-610,474	800,000	-0,005	-0,012
-609,459	86,743	-0,060	0,049
-608,444	179,440	-0,082	0,089
-607,430	292,968	0,028	0,038
-606,415	24,896	0,085	-0,052
-605,401	8,192	-0,138	0,077
-604,386	-200,000	-0,008	0,039
-603,371	800,000	0,031	0,065
-602,357	-158,556	0,048	-0,002
-601,342	3,304	0,043	-0,023
-600,328	9,369	0,064	-0,036
-599,313	-200,000	0,018	-0,227
-598,298	-29,351	0,089	-0,038
-597,284	-200,000	-0,009	0,047
-596,269	-200,000	0,020	0,206
-595,255	-103,606	-0,066	-0,011
-594,240	5,516	-0,039	-0,021
-593,225	800,000	-0,046	-0,125
-592,211	285,428	-0,081	-0,109
-591,196	380,408	-0,035	0,053
-590,182	800,000	-0,030	0,074
-589,167	-200,000	-0,026	0,088
-588,152	-103,321	0,050	-0,009
-587,138	134,337	0,099	-0,096
-586,123	370,459	-0,071	-0,108
-585,109	14,637	-0,061	0,035
-584,094	76,753	-0,063	0,049
-583,079	-66,469	0,083	-0,024
-582,065	800,000	0,011	0,026
-581,050	800,000	-0,051	-0,160
-580,036	363,484	-0,047	-0,070
-579,021	-14,331	-0,076	-0,036
-578,006	-200,000	0,028	-0,129
-576,992	87,305	0,018	-0,015
-575,977	800,000	-0,021	0,048
-574,963	302,870	0,039	0,053
-573,948	800,000	0,024	-0,071
-572,934	519,514	0,086	0,149
-571,919	106,654	-0,012	-0,010
-570,904	404,980	0,056	0,087
-569,890	548,282	0,041	-0,074
-568,875	-200,000	-0,022	-0,129
-567,861	78,160	-0,066	0,052
-566,846	648,488	-0,058	0,110
-565,831	-116,212	-0,121	-0,016
-564,817	-200,000	0,009	-0,062
-563,802	41,102	-0,077	-0,052
-562,788	-200,000	0,034	-0,177
-561,773	32,108	-0,116	-0,074
-560,758	-200,000	-0,015	-0,136
-559,744	-200,000	-0,007	-0,058
-558,729	-12,615	0,080	0,038
-557,715	-158,370	-0,098	0,004
-556,700	-165,458	-0,102	0,003
-555,685	-200,000	0,001	-0,023
-554,671	800,000	0,044	-0,091
-553,656	-122,057	-0,142	-0,017
-552,642	164,850	-0,048	0,051
-551,627	800,000	-0,071	-0,149
-550,612	-48,553	-0,115	-0,041
-549,598	373,692	-0,083	-0,126
-548,583	7,773	0,156	0,086
-547,569	191,437	0,113	-0,126
-546,554	-21,828	0,128	-0,057
-545,539	-5,362	-0,110	-0,055
-544,525	672,914	0,052	0,100
-543,510	-152,886	0,063	0,003
-542,496	732,124	-0,022	0,044
-541,481	-200,000	-0,021	-0,091
-540,466	192,670	0,090	-0,100
-539,452	343,005	0,053	-0,078
-538,437	42,717	-0,074	0,050
-537,423	65,237	0,067	0,050
-536,408	-54,437	0,034	0,011
-535,393	-200,000	-0,009	0,086
-534,379	80,965	0,027	-0,022
-533,364	-59,172	0,010	0,003
-532,350	-91,637	0,142	0,030
-531,335	-200,000	-0,030	0,100
-530,321	-59,330	-0,081	0,026
-529,306	-100,047	-0,090	0,016
-528,291	-51,027	-0,104	-0,036
-527,277	-200,000	-0,003	0,015
-526,262	77,389	0,147	0,116
-525,248	64,377	0,109	0,081
-524,233	800,000	-0,041	0,110
-523,218	800,000	0,023	-0,068
-522,204	-102,036	0,029	-0,005
-521,189	-200,000	-0,011	-0,069
-520,175	800,000	-0,059	-0,176
-519,160	277,866	-0,049	-0,065
-518,145	610,689	0,068	0,126
-517,131	800,000	0,012	0,030
-516,116	706,778	-0,039	-0,077
-515,102	154,777	-0,043	0,043
-514,087	-2,232	-0,075	-0,039
-513,072	-6,650	0,018	0,009
-512,058	-200,000	-0,007	-0,155
-511,043	-200,000	-0,024	-0,125
-510,029	-110,308	0,126	-0,019
-509,014	-200,000	-0,007	0,086
-507,999	-78,026	-0,034	0,009
-506,985	38,032	0,018	-0,012
-505,970	-50,483	-0,149	0,051
-504,956	-96,241	0,061	0,012
-503,941	-71,120	-0,107	0,029
-502,926	-79,428	0,132	-0,033
-501,912	-200,000	0,001	-0,078
-500,897	800,000	-0,041	0,102
-499,883	-55,955	0,079	0,026
-498,868	534,561	-0,055	0,097
-497,853	-144,259	0,113	0,008
-496,839	426,709	-0,050	0,080
-495,824	-121,659	0,011	0,001
-494,810	170,915	0,041	0,043
-493,795	-200,000	-0,025	-0,145
-492,781	172,236	-0,074	-0,079
-491,766	-200,000	-0,016	-0,065
-490,751	-200,000	-0,025	-0,142
-489,737	-57,184	-0,276	-0,089
-488,722	-200,000	0,000	0,023
-487,708	-132,675	0,080	-0,007
-486,693	-200,000	0,002	0,187
-485,678	-200,000	0,009	0,138
-484,664	-200,000	-0,001	0,096
-483,649	95,374	-0,045	-0,037
-482,635	-200,000	0,001	-0,088
-481,620	255,892	-0,036	-0,046
-480,605	800,000	-0,027	0,063
-479,591	-200,000	0,003	0,091
-478,576	32,210	-0,051	0,032
-477,562	-26,679	0,085	0,037
-476,547	266,990	0,009	0,012
-475,532	554,116	-0,052	-0,092
-474,518	360,960	0,028	-0,042
-473,503	138,365	0,061	0,059
-472,489	-200,000	-0,006	0,079
-471,474	-200,000	-0,019	-0,105
-470,459	-200,000	-0,016	-0,074
-469,445	-200,000	-0,024	-0,096
-468,430	-95,903	-0,136	0,026
-467,416	800,000	0,018	0,050
-466,401	-200,000	0,008	0,089
-465,386	-200,000	-0,037	0,184
-464,372	-39,904	-0,146	0,056
-463,357	-90,590	-0,132	-0,028
-462,343	-174,965	-0,101	-0,002
-461,328	-200,000	0,029	0,116
-460,313	-200,000	-0,008	0,030
-459,299	280,496	-0,039	0,051
-458,284	275,224	0,105	0,138
-457,270	704,873	0,063	0,124
-456,255	800,000	-0,025	-0,080
-455,241	152,214	-0,020	0,020
-454,226	335,961	0,046	-0,066
-453,211	-79,749	-0,071	0,018
-452,197	84,445	0,128	-0,103
-451,182	-96,833	0,064	0,012
-450,168	66,543	-0,116	0,087
-449,153	-22,832	0,092	-0,041
-448,138	80,397	-0,172	-0,137
-447,124	-38,287	-0,077	-0,030
-446,109	-81,260	-0,084	0,020
-445,095	-200,000	0,007	0,081
-444,080	24,446	0,089	0,054
-443,065	-26,353	0,066	0,028
-442,051	-9,241	0,037	-0,018
-441,036	44,305	0,020	0,013
-440,022	687,984	-0,061	-0,118
-439,007	-200,000	0,018	0,084
-437,992	47,544	0,037	0,025
-436,978	163,623	0,093	0,097
-435,963	-172,096	-0,194	-0,005
-434,949	637,559	-0,050	-0,093
-433,934	176,121	-0,060	-0,064
-432,919	-200,000	0,033	0,131
-431,905	445,859	-0,058	0,094
-430,890	192,263	0,068	0,076
-429,876	-70,256	-0,125	0,035
-428,861	440,461	0,019	0,031
-427,846	-143,029	0,102	0,007
-426,832	153,402	0,049	-0,049
-425,817	529,511	-0,068	-0,118
-424,803	-200,000	-0,035	0,000
-423,788	106,255	0,046	0,040
-422,773	35,790	-0,125	-0,081
-421,759	74,107	-0,060	0,047
-420,744	28,839	-0,044	0,028
-419,730	-64,360	-0,107	0,032
-418,715	-111,059	-0,059	0,009
-417,701	-95,826	-0,168	0,033
-416,686	-200,000	-0,047	0,205
-415,671	-124,488	0,035	0,004
-414,657	-117,441	0,152	0,020
-413,642	-127,133	-0,127	-0,013
-412,628	-200,000	0,002	-0,134
-411,613	-28,557	0,085	-0,036
-410,598	-50,195	0,078	-0,027
-409,584	27,289	0,041	0,025
-408,569	155,381	-0,075	0,076
-407,555	-200,000	0,023	0,148
-406,540	-92,372	0,123	-0,025
-405,525	63,431	0,043	-0,032
-404,511	17,196	-0,135	-0,079
-403,496	-200,000	-0,002	-0,162
-402,482	800,000	-0,053	-0,123
-401,467	157,079	0,035	-0,036
-400,452	-27,120	-0,069	0,029
-399,438	-200,000	0,004	-0,023
-398,423	-172,472	-0,033	-0,001
-397,409	4,993	0,043	0,023
-396,394	800,000	-0,053	-0,170
-395,379	-68,568	-0,097	0,028
-394,365	-38,267	0,058	0,023
-393,350	59,827	0,029	0,021
-392,336	-200,000	0,028	0,193
-391,321	800,000	0,012	0,037
-390,306	-200,000	-0,008	-0,051
-389,292	-27,789	-0,168	-0,071
-388,277	31,858	0,036	0,023
-387,263	70,177	0,091	0,069
-386,248	-200,000	0,002	-0,045
-385,233	153,354	-0,084	0,085
-384,219	37,465	-0,088	-0,057
-383,204	97,011	-0,098	0,083
-382,190	63,750	0,082	-0,060
-381,175	-151,606	0,110	0,006
-380,160	275,947	-0,095	0,124
-379,146	81,460	0,148	0,118
-378,131	319,353	0,124	0,173
-377,117	-23,144	0,120	-0,053
-376,102	301,856	0,021	-0,028
-375,088	-85,747	-0,062	0,014
-374,073	-127,560	0,067	-0,007
-373,058	800,000	0,016	0,039
-372,044	800,000	-0,033	0,100
-371,029	1,013	0,040	0,021
-370,015	-30,450	-0,046	0,019
-369,000	-200,000	0,011	0,040
-367,985	12,960	-0,119	0,068
-366,971	-200,000	0,014	-0,090
-365,956	71,679	-0,016	0,012
-364,942	440,357	-0,037	0,059
-363,927	14,501	0,023	-0,013
-362,912	426,833	-0,046	0,074
-361,898	-200,000	-0,021	0,128
-360,883	-6,788	-0,058	0,029
-359,869	273,073	-0,022	-0,028
-358,854	-31,736	0,037	-0,015
-357,839	-136,437	0,108	0,009
-356,825	-200,000	0,029	0,125
-355,810	-47,307	0,102	-0,036
-354,796	-200,000	0,000	0,032
-353,781	2,939	-0,098	-0,052
-352,766	68,367	-0,204	-0,153
-351,752	257,003	0,055	-0,069
-350,737	800,000	0,016	0,039
-349,723	800,000	-0,041	0,086
-348,708	-21,380	0,050	-0,022
-347,693	-178,816	0,040	-0,001
-346,679	146,435	-0,063	-0,062
-345,664	176,050	-0,139	-0,148
-344,650	151,800	-0,114	-0,114
-343,635	-74,820	0,148	-0,039
-342,620	-104,502	0,116	-0,020
-341,606	800,000	-0,066	0,145
-340,591	-7,810	0,039	0,019
-339,577	800,000	0,047	0,098
-338,562	25,068	-0,059	-0,036
-337,548	-200,000	-0,004	-0,106
-336,533	57,351	0,072	0,051
-335,518	120,950	0,051	0,046
-334,504	800,000	-0,015	-0,039
-333,489	-200,000	0,005	-0,063
-332,475	93,647	0,139	0,115
-331,460	642,150	-0,043	-0,080
-330,445	160,736	-0,095	-0,098
-329,431	136,177	0,070	0,067
-328,416	-200,000	0,006	0,084
-327,402	800,000	-0,078	0,160
-326,387	-99,114	0,104	-0,019
-325,372	-135,948	-0,085	0,007
-324,358	-200,000	0,031	-0,139
-323,343	-200,000	-0,007	0,079
-322,329	-200,000	0,007	-0,042
-321,314	-74,992	0,078	0,020
-320,299	185,255	-0,059	0,065
-319,285	362,077	-0,003	0,005
-318,270	-200,000	-0,003	0,024
-317,256	25,601	-0,126	0,077
-316,241	527,812	-0,029	0,051
-315,226	467,458	0,062	0,102
-314,212	-24,584	0,079	-0,034
-313,197	800,000	0,044	0,098
-312,183	-55,722	0,059	0,019
-311,168	303,264	0,071	-0,096
-310,153	272,074	0,038	-0,050
-309,139	-200,000	0,032	-0,119
-308,124	-183,197	-0,087	0,001
-307,110	-200,000	0,034	0,169
-306,095	-129,568	0,114	0,011
-305,080	-130,001	0,177	0,017
-304,066	-44,617	-0,114	-0,042
-303,051	485,183	-0,022	-0,038
-302,037	27,707	-0,092	-0,057
-301,022	119,353	0,046	-0,042
-300,008	705,712	-0,016	0,032
-298,993	687,467	0,067	0,128
-297,978	178,750	-0,043	0,046
-296,964	285,445	0,073	-0,096
-295,949	6,682	-0,059	0,032
-294,935	-200,000	-0,013	0,053
-293,920	133,070	0,094	0,089
-292,905	800,000	0,013	0,027
-291,891	163,785	0,104	0,107
-290,876	-3,174	-0,093	-0,047
-289,862	793,493	0,043	-0,087
-288,847	-188,058	-0,036	-0,000
-287,832	-53,158	0,015	-0,005
-286,818	-131,717	0,109	-0,010
-285,803	-130,401	-0,041	-0,004
-284,789	-121,706	0,104	-0,012
-283,774	800,000	-0,059	0,159
-282,759	736,731	-0,029	-0,057
-281,745	-20,147	-0,067	-0,030
-280,730	800,000	-0,034	-0,098
-279,716	800,000	-0,062	-0,144
-278,701	-200,000	0,017	0,073
-277,686	-200,000	0,010	0,040
-276,672	500,626	0,075	0,127
-275,657	-200,000	-0,013	0,049
-274,643	-200,000	-0,011	0,053
-273,628	-102,223	0,137	0,024
-272,613	800,000	-0,027	-0,069
-271,599	-200,000	-0,001	-0,011
-270,584	109,804	0,058	-0,051
-269,570	324,678	0,038	0,054
-268,555	434,867	0,023	-0,037
-267,540	60,930	0,034	0,024
-266,526	18,882	-0,063	-0,037
-265,511	-140,748	-0,122	-0,009
-264,497	-10,332	0,082	-0,039
-263,482	-45,905	0,060	0,021
-262,467	-24,432	-0,172	0,075
-261,453	-45,315	0,016	-0,006
-260,438	239,640	-0,057	0,069
-259,424	-64,233	-0,087	0,026
-258,409	-109,865	-0,092	-0,014
-257,395	-137,834	0,170	0,014
-256,380	610,509	-0,060	-0,110
-255,365	184,219	0,029	0,031
-254,351	-66,046	-0,035	-0,010
-253,336	133,386	0,048	-0,045
-252,322	-159,498	0,049	-0,002
-251,307	133,498	0,048	-0,046
-250,292	-9,765	-0,050	0,024
-249,278	-200,000	0,013	0,053
-248,263	-29,452	0,066	-0,028
-247,249	800,000	0,033	0,085
-246,234	200,070	0,022	0,024
-245,219	-3,979	-0,078	0,039
-244,205	683,719	0,040	-0,077
-243,190	-86,010	0,044	0,010
-242,176	-200,000	-0,023	0,078
-241,161	-88,380	0,118	0,025
-240,146	-59,201	-0,074	0,023
-239,132	168,682	-0,061	-0,063
-238,117	433,824	-0,095	-0,151
-237,103	-200,000	-0,022	-0,079
-236,088	800,000	-0,055	-0,152
-235,073	-3,389	0,126	0,064
-234,059	34,993	-0,015	0,009
-233,044	800,000	0,034	-0,090
-232,030	-131,580	-0,063	-0,006
-231,015	58,745	-0,072	0,051
-230,000	108,367	-0,014	-0,012
-228,986	-37,987	0,042	0,016
-227,971	149,071	0,049	-0,049
-226,957	-81,083	-0,063	-0,015
-225,942	211,709	-0,118	0,136
-224,927	711,209	-0,044	0,086
-223,913	800,000	-0,020	0,041
-222,898	481,421	0,050	-0,082
-221,884	-134,553	-0,085	-0,007
-220,869	229,354	-0,021	0,025
-219,855	800,000	0,029	0,063
-218,840	197,116	0,093	-0,103
-217,825	-186,403	0,095	-0,001
-216,811	290,131	-0,019	-0,026
-215,796	800,000	-0,033	-0,085
-214,782	-85,912	0,119	0,027
-213,767	264,896	-0,042	-0,053
-212,752	-98,487	0,141	-0,026
-211,738	744,588	0,042	0,084
-210,723	-200,000	0,007	-0,080
-209,709	-200,000	0,007	-0,240
-208,694	380,541	0,051	-0,076
-207,679	800,000	0,027	-0,074
-206,665	-51,836	0,183	-0,062
-205,650	-3,491	0,034	0,017
-204,636	-28,991	0,025	0,010
-203,621	-84,548	0,056	-0,013
-202,606	-200,000	0,016	-0,110
-201,592	800,000	-0,047	-0,140
-200,577	227,442	-0,116	-0,137
-199,563	-21,544	-0,100	-0,044
-198,548	800,000	-0,069	0,165
-197,533	800,000	-0,037	0,101
-196,519	800,000	0,030	0,097
-195,504	-113,787	-0,051	0,007
-194,490	-200,000	-0,011	0,063
-193,475	-107,926	-0,048	0,008
-192,460	-200,000	-0,009	0,083
-191,446	-87,582	0,104	0,023
-190,431	-58,454	0,126	0,040
-189,417	-2,460	0,016	0,008
-188,402	64,173	-0,023	0,017
-187,387	505,058	-0,053	-0,089
-186,373	146,118	0,052	-0,051
-185,358	-200,000	0,002	-0,058
-184,344	-98,425	0,132	-0,024
-183,329	-200,000	0,035	-0,122
-182,315	27,954	0,159	-0,098
-181,300	316,058	0,071	0,098
-180,285	290,842	0,026	0,035
-179,271	800,000	0,019	-0,046
-178,256	-72,414	0,169	0,045
-177,242	-41,451	0,057	-0,021
-176,227	-164,603	0,133	-0,004
-175,212	257,081	0,076	-0,096
-174,198	-200,000	0,010	-0,111
-173,183	-117,149	0,012	0,002
-172,169	-200,000	-0,000	-0,110
-171,154	318,998	-0,056	-0,077
-170,139	-200,000	0,023	0,112
-169,125	-44,114	0,154	0,056
-168,110	185,757	-0,013	-0,014
-167,096	145,185	0,107	0,104
-166,081	193,492	-0,018	0,020
-165,066	214,335	0,026	0,030
-164,052	204,084	-0,087	0,099
-163,037	-171,199	0,063	-0,002
-162,023	-200,000	0,014	0,050
-161,008	90,190	0,072	-0,059
-159,993	-61,748	-0,063	-0,019
-158,979	482,912	-0,047	0,078
-157,964	50,624	0,032	0,022
-156,950	406,755	-0,054	-0,084
-155,935	184,218	-0,054	-0,058
-154,920	-200,000	-0,003	-0,138
-153,906	800,000	0,055	0,124
-152,891	627,400	0,022	-0,041
-151,877	-200,000	-0,011	0,093
-150,862	423,149	-0,048	-0,076
-149,847	72,104	0,032	0,024
-148,833	800,000	0,043	-0,099
-147,818	-200,000	0,012	0,079
-146,804	-151,366	0,164	-0,009
-145,789	-115,133	0,091	-0,012
-144,775	-70,302	-0,141	-0,039
-143,760	-53,885	0,069	-0,023
-142,745	-200,000	-0,016	-0,115
-141,731	800,000	-0,054	-0,138
-140,716	462,905	0,036	-0,059
-139,702	-200,000	-0,015	0,049
-138,687	-20,327	0,132	0,059
-137,672	-200,000	-0,012	-0,049
-136,658	-4,010	-0,040	0,020
-135,643	-47,449	0,110	0,039
-134,629	57,920	-0,108	0,077
-133,614	56,933	0,083	0,059
-132,599	58,445	0,112	0,080
-131,585	27,952	0,067	0,041
-130,570	-165,994	-0,060	-0,002
-129,556	-101,503	-0,166	-0,029
-128,541	-200,000	-0,000	0,052
-127,526	800,000	-0,028	-0,059
-126,512	67,510	-0,127	0,094
-125,497	36,068	0,016	0,010
-124,483	-136,416	-0,048	-0,004
-123,468	-200,000	0,007	-0,096
-122,453	-62,122	-0,128	-0,039
-121,439	-41,180	-0,070	-0,026
-120,424	732,210	-0,025	0,050
-119,410	60,607	0,023	0,017
