DTS Sentinel unit serial number:	SN410029Multiplexer serial number:	ORYXHardware model number:	OX2-SRSoftware version number:	ORYX F/W v4,00 Oryx Data Collector v3.7.2.0data status	okinstallation	B4 Nyhavnadifferential loss correction	single-endedforward channel	channel 2reverse channel	N/Adate	2023/12/19time	08:50:13forward acquisition time	300,00reverse acquisition time	0,00gamma	499,1914k internal	0,3127k external	0,3127temperature offset calibration	1,0000default loss term (dB/km)	0,3820temperature slope calibration	1,0000multiplexer offset coefficient	1,0000multiplexer slope coefficient	1,0000fibre end	0,00T internal ref (°C)	20,68T ext. ref 1 (°C)	5,36T ext. ref 2 (°C)	5,36length (m)	temperature (°C)	Stokes	anti-Stokes-744,400	-96,385	-0,036	-0,007
-743,385	800,000	0,042	0,135
-742,371	-200,000	0,008	-0,104
-741,356	31,146	-0,158	0,101
-740,342	-136,960	0,064	-0,005
-739,327	51,443	-0,237	0,168
-738,312	450,263	-0,058	-0,096
-737,298	-20,030	-0,328	0,150
-736,283	800,000	0,039	-0,101
-735,269	-128,870	-0,120	0,012
-734,254	800,000	0,053	-0,156
-733,239	-154,537	-0,360	0,018
-732,225	322,888	0,053	0,075
-731,210	800,000	0,015	0,034
-730,196	-100,674	0,038	0,007
-729,181	-62,719	-0,055	0,017
-728,167	365,411	-0,041	-0,061
-727,152	-200,000	-0,024	-0,097
-726,137	284,818	-0,035	-0,047
-725,123	76,595	-0,058	-0,046
-724,108	115,054	-0,071	-0,064
-723,094	18,088	-0,064	-0,038
-722,079	-200,000	-0,005	-0,092
-721,064	800,000	-0,047	0,130
-720,050	24,843	-0,040	0,025
-719,035	-89,654	-0,042	-0,009
-718,021	-87,915	0,034	-0,007
-717,006	-83,934	-0,261	-0,061
-715,991	-200,000	-0,008	-0,140
-714,977	56,743	-0,102	-0,074
-713,962	183,312	-0,097	-0,106
-712,948	800,000	0,016	-0,035
-711,933	94,731	-0,063	-0,053
-710,918	-200,000	0,018	-0,115
-709,904	3,166	-0,146	-0,079
-708,889	800,000	-0,037	-0,105
-707,875	-200,000	-0,024	0,147
-706,860	550,998	0,052	0,093
-705,845	-200,000	-0,001	-0,106
-704,831	526,630	-0,030	-0,052
-703,816	-23,718	-0,189	0,084
-702,802	-102,576	-0,017	-0,003
-701,787	-30,923	-0,052	-0,022
-700,772	37,329	-0,017	-0,011
-699,758	-48,314	-0,042	-0,015
-698,743	221,503	0,080	-0,095
-697,729	-129,456	-0,066	-0,007
-696,714	-200,000	0,012	0,044
-695,699	-200,000	-0,032	-0,127
-694,685	-200,000	-0,020	-0,200
-693,670	740,237	-0,068	-0,137
-692,656	-90,075	-0,058	0,012
-691,641	-20,448	-0,104	0,047
-690,627	262,139	-0,058	0,075
-689,612	800,000	0,042	-0,096
-688,597	-177,191	0,054	0,001
-687,583	-200,000	-0,009	-0,044
-686,568	-79,590	-0,053	-0,013
-685,554	800,000	-0,030	-0,086
-684,539	671,780	-0,013	-0,026
-683,524	-98,930	-0,092	0,017
-682,510	379,595	0,066	0,101
-681,495	-82,504	-0,087	0,021
-680,481	-163,639	0,041	-0,001
-679,466	51,239	-0,126	-0,089
-678,451	132,442	0,094	0,090
-677,437	-200,000	-0,023	0,110
-676,422	-119,012	-0,061	-0,008
-675,408	54,956	0,073	-0,052
-674,393	209,802	-0,115	0,134
-673,378	550,331	-0,091	-0,163
-672,364	-200,000	0,005	-0,021
-671,349	-84,790	-0,118	0,027
-670,335	170,010	0,072	-0,077
-669,320	6,686	-0,096	0,053
-668,305	-200,000	-0,064	-0,000
-667,291	42,645	-0,094	0,063
-666,276	800,000	0,024	0,059
-665,262	119,358	-0,124	-0,114
-664,247	-200,000	0,003	0,018
-663,232	-149,251	-0,109	-0,006
-662,218	-146,043	0,087	0,006
-661,203	66,563	0,093	0,070
-660,189	-200,000	0,027	0,106
-659,174	-166,375	-0,060	-0,002
-658,159	-92,742	0,020	0,004
-657,145	302,753	-0,073	-0,101
-656,130	800,000	0,027	0,077
-655,116	-8,012	0,060	0,030
-654,101	-70,523	-0,078	-0,022
-653,086	-200,000	-0,010	0,090
-652,072	131,016	-0,073	0,069
-651,057	-200,000	-0,020	0,128
-650,043	80,659	-0,014	-0,011
-649,028	28,098	-0,154	-0,096
-648,014	26,616	0,117	-0,073
-646,999	73,480	0,089	-0,069
-645,984	384,413	-0,018	0,028
-644,970	478,186	-0,056	-0,094
-643,955	233,181	0,052	-0,063
-642,941	47,580	-0,092	-0,064
-641,926	729,857	-0,105	-0,210
-640,911	217,216	0,089	0,106
-639,897	-200,000	-0,014	-0,213
-638,882	-128,439	-0,181	0,019
-637,868	767,949	0,028	-0,058
-636,853	608,722	-0,069	-0,128
-635,838	-200,000	0,064	-0,000
-634,824	369,652	0,084	-0,126
-633,809	-108,915	0,199	0,031
-632,795	-200,000	0,015	0,090
-631,780	709,516	-0,089	-0,175
-630,765	253,425	-0,050	-0,063
-629,751	-94,060	-0,035	-0,007
-628,736	313,054	0,055	-0,077
-627,722	-2,531	0,057	0,029
-626,707	800,000	-0,013	-0,030
-625,692	698,058	0,060	0,117
-624,678	53,815	0,054	0,038
-623,663	-200,000	0,022	0,101
-622,649	-200,000	-0,008	0,055
-621,634	219,308	0,039	0,047
-620,619	147,773	-0,101	0,101
-619,605	-200,000	-0,034	0,113
-618,590	-200,000	0,034	-0,173
-617,576	66,249	-0,044	-0,033
-616,561	-200,000	0,001	0,059
-615,546	-200,000	-0,018	-0,166
-614,532	800,000	-0,032	-0,097
-613,517	357,445	0,036	-0,053
-612,503	-26,667	0,041	0,018
-611,488	-68,542	0,086	0,025
-610,474	-114,712	-0,103	-0,014
-609,459	-99,316	0,024	0,004
-608,444	800,000	0,038	0,097
-607,430	21,216	-0,091	-0,054
-606,415	-200,000	0,009	-0,064
-605,401	23,897	0,154	-0,094
-604,386	-162,310	0,075	-0,003
-603,371	197,389	-0,008	0,009
-602,357	188,232	-0,085	-0,094
-601,342	800,000	0,066	-0,159
-600,328	15,963	-0,067	-0,039
-599,313	165,004	-0,032	-0,034
-598,298	30,100	0,134	-0,084
-597,284	-101,991	-0,062	0,011
-596,269	-33,230	0,101	-0,041
-595,255	-200,000	-0,024	0,094
-594,240	800,000	-0,040	-0,084
-593,225	21,926	-0,048	-0,029
-592,211	87,570	0,060	0,049
-591,196	175,783	0,025	-0,026
-590,182	-200,000	0,018	-0,071
-589,167	148,415	0,018	-0,018
-588,152	800,000	0,042	-0,128
-587,138	-200,000	0,009	-0,116
-586,123	800,000	0,040	-0,118
-585,109	257,914	-0,107	-0,137
-584,094	800,000	-0,002	-0,006
-583,079	-200,000	0,014	0,056
-582,065	86,526	0,046	0,037
-581,050	137,202	0,103	0,100
-580,036	750,983	-0,018	-0,036
-579,021	168,807	-0,018	0,018
-578,006	37,273	0,091	-0,059
-576,992	368,381	-0,045	0,068
-575,977	-157,352	0,128	-0,006
-574,963	-21,639	0,074	-0,033
-573,948	-200,000	0,023	0,115
-572,934	-200,000	0,002	-0,124
-571,919	800,000	-0,010	-0,027
-570,904	-77,566	-0,103	-0,026
-569,890	487,668	-0,028	0,047
-568,875	230,393	0,101	-0,122
-567,861	435,445	-0,091	-0,147
-566,846	410,073	0,023	0,037
-565,831	276,026	-0,068	-0,089
-564,817	65,459	0,064	-0,048
-563,802	429,872	-0,042	0,067
-562,788	800,000	-0,012	-0,029
-561,773	-46,675	-0,159	0,057
-560,758	105,673	0,083	0,072
-559,744	457,462	0,044	0,072
-558,729	271,766	0,072	-0,094
-557,715	-22,658	-0,141	-0,063
-556,700	-44,316	-0,087	0,032
-555,685	-163,349	-0,022	0,001
-554,671	670,082	-0,016	-0,030
-553,656	-136,140	0,121	0,010
-552,642	27,662	0,086	-0,054
-551,627	-200,000	-0,007	-0,084
-550,612	-9,799	0,015	0,007
-549,598	-200,000	-0,017	-0,122
-548,583	-169,281	-0,113	-0,003
-547,569	95,660	-0,051	0,043
-546,554	405,757	0,054	0,084
-545,539	121,149	0,021	-0,019
-544,525	-101,640	-0,217	0,038
-543,510	51,214	0,056	0,039
-542,496	-200,000	-0,011	-0,181
-541,481	6,622	0,090	0,049
-540,466	800,000	0,074	0,180
-539,452	800,000	0,028	-0,067
-538,437	-53,317	0,036	0,012
-537,423	-6,336	-0,134	0,067
-536,408	-15,810	0,029	-0,014
-535,393	55,120	-0,048	-0,034
-534,379	442,666	-0,089	-0,144
-533,364	161,547	0,058	0,060
-532,350	-200,000	-0,011	0,130
-531,335	-200,000	-0,002	0,042
-530,321	-118,410	-0,065	0,008
-529,306	307,063	0,043	-0,059
-528,291	-200,000	-0,041	-0,136
-527,277	7,730	-0,058	-0,032
-526,262	-200,000	0,007	-0,071
-525,248	149,628	0,060	0,060
-524,233	319,881	0,080	0,112
-523,218	800,000	-0,075	-0,155
-522,204	-92,951	-0,034	-0,007
-521,189	-200,000	-0,016	0,077
-520,175	-159,501	-0,150	-0,006
-519,160	-200,000	-0,002	-0,077
-518,145	794,892	0,026	-0,053
-517,131	-130,030	0,040	-0,004
-516,116	-200,000	-0,023	0,092
-515,102	182,011	0,123	0,134
-514,087	112,022	-0,098	-0,087
-513,072	-200,000	-0,001	-0,129
-512,058	48,195	0,065	0,045
-511,043	-92,220	0,119	0,025
-510,029	-200,000	-0,007	0,057
-509,014	-41,267	0,057	-0,022
-507,999	-200,000	0,026	-0,120
-506,985	-65,899	0,048	0,014
-505,970	325,204	-0,078	-0,111
-504,956	-51,938	-0,163	-0,056
-503,941	-104,276	0,101	-0,017
-502,926	199,890	0,049	0,055
-501,912	-33,301	-0,032	-0,013
-500,897	77,443	-0,124	-0,097
-499,883	-200,000	-0,036	-0,125
-498,868	532,178	-0,054	-0,095
-497,853	-116,327	0,048	-0,006
-496,839	-200,000	0,003	0,022
-495,824	-200,000	0,004	0,135
-494,810	800,000	0,022	0,051
-493,795	800,000	-0,015	-0,043
-492,781	273,438	0,088	-0,115
-491,766	800,000	0,033	0,069
-490,751	800,000	-0,035	-0,101
-489,737	-200,000	-0,009	-0,058
-488,722	138,047	0,174	0,168
-487,708	-200,000	0,008	0,045
-486,693	-44,563	-0,103	-0,038
-485,678	585,806	0,024	-0,044
-484,664	-143,764	-0,124	-0,009
-483,649	-12,153	-0,023	-0,011
-482,635	-200,000	-0,026	0,121
-481,620	20,562	-0,068	0,040
-480,605	-200,000	0,027	0,111
-479,591	344,977	0,059	0,086
-478,576	70,650	0,109	0,083
-477,562	111,083	0,080	-0,071
-476,547	-120,385	-0,123	-0,015
-475,532	-144,608	0,137	0,009
-474,518	76,842	-0,059	0,046
-473,503	-36,307	0,148	-0,058
-472,489	800,000	0,051	0,141
-471,474	-200,000	0,000	-0,040
-470,459	-133,991	0,038	0,003
-469,445	234,105	0,054	0,065
-468,430	70,184	-0,109	-0,083
-467,416	-171,968	0,134	0,003
-466,401	-88,488	0,159	-0,035
-465,386	87,150	-0,055	-0,044
-464,372	-114,022	-0,090	-0,013
-463,357	800,000	0,062	0,134
-462,343	-159,314	-0,144	0,006
-461,328	120,058	0,111	0,101
-460,313	-72,573	0,053	0,014
-459,299	454,230	-0,084	0,138
-458,284	-52,637	0,057	0,019
-457,270	-200,000	0,000	-0,028
-456,255	6,636	-0,042	-0,023
-455,241	-200,000	-0,009	-0,036
-454,226	800,000	0,014	0,036
-453,211	-200,000	-0,012	0,096
-452,197	25,122	0,027	0,017
-451,182	-200,000	-0,010	0,156
-450,168	-122,423	0,053	-0,006
-449,153	206,670	0,021	0,024
-448,138	800,000	-0,005	-0,013
-447,124	143,881	-0,066	-0,064
-446,109	597,604	-0,003	-0,006
-445,095	-57,459	0,026	0,008
-444,080	6,813	0,077	0,042
-443,065	182,567	0,080	0,087
-442,051	-200,000	-0,001	-0,152
-441,036	-40,319	0,063	-0,024
-440,022	-83,071	-0,115	0,027
-439,007	67,539	-0,008	0,006
-437,992	-200,000	-0,013	0,069
-436,978	-145,585	0,177	0,011
-435,963	-200,000	0,003	0,048
-434,949	-200,000	0,021	0,100
-433,934	438,599	-0,033	-0,053
-432,919	-200,000	0,004	0,032
-431,905	766,820	-0,078	0,156
-430,890	-200,000	0,010	0,040
-429,876	321,884	-0,056	0,079
-428,861	-49,503	-0,073	-0,025
-427,846	-200,000	0,003	0,107
-426,832	388,885	0,058	0,088
-425,817	121,517	-0,054	0,049
-424,803	325,674	-0,033	0,046
-423,788	800,000	0,008	-0,020
-422,773	-36,119	0,081	-0,032
-421,759	402,650	0,027	-0,042
-420,744	101,288	0,013	-0,012
-419,730	-165,929	-0,056	-0,002
-418,715	-117,186	0,104	-0,014
-417,701	-11,590	0,016	0,008
-416,686	-0,167	-0,069	0,036
-415,671	65,068	0,135	-0,100
-414,657	-78,540	0,042	0,010
-413,642	275,216	0,019	0,024
-412,628	800,000	0,058	-0,135
-411,613	41,068	-0,087	-0,057
-410,598	129,842	-0,011	0,010
-409,584	-18,014	0,125	0,057
-408,569	-145,619	-0,067	0,004
-407,555	152,244	-0,043	0,043
-406,540	800,000	0,052	-0,132
-405,525	-200,000	-0,037	0,123
-404,511	386,915	-0,049	-0,075
-403,496	-200,000	-0,008	-0,065
-402,482	166,804	-0,100	-0,104
-401,467	91,192	0,064	-0,053
-400,452	114,138	-0,046	-0,041
-399,438	28,486	0,120	0,074
-398,423	-200,000	0,016	-0,085
-397,409	-200,000	-0,005	0,057
-396,394	31,992	0,022	-0,014
-395,379	-112,188	-0,026	-0,004
-394,365	-81,569	-0,132	-0,032
-393,350	-66,412	0,083	0,024
-392,336	363,899	-0,066	0,097
-391,321	-88,227	-0,105	0,023
-390,306	52,363	0,034	-0,024
-389,292	-72,963	-0,220	0,059
-388,277	-200,000	0,018	0,230
-387,263	33,803	-0,044	0,028
-386,248	-117,457	-0,037	-0,005
-385,233	-76,320	0,058	0,015
-384,219	-54,693	-0,076	-0,025
-383,204	-11,989	-0,097	-0,047
-382,190	-16,266	0,062	-0,029
-381,175	-186,663	-0,106	0,001
-380,160	460,886	0,076	0,125
-379,146	603,374	-0,039	-0,071
-378,131	-181,079	0,060	-0,001
-377,117	-200,000	-0,000	-0,125
-376,102	-160,138	-0,155	0,006
-375,088	441,552	0,097	-0,156
-374,073	-200,000	-0,011	-0,065
-373,058	-200,000	0,002	0,109
-372,044	161,338	0,097	0,099
-371,029	254,525	0,032	0,040
-370,015	-159,987	0,206	-0,008
-369,000	105,205	0,004	0,004
-367,985	233,064	-0,018	0,022
-366,971	-96,416	-0,127	0,025
-365,956	55,325	-0,043	0,030
-364,942	800,000	0,053	-0,113
-363,927	400,308	0,095	-0,146
-362,912	135,796	-0,099	0,094
-361,898	-200,000	0,023	0,125
-360,883	132,013	-0,020	-0,019
-359,869	-148,248	-0,151	0,009
-358,854	104,688	0,064	0,055
-357,839	-55,563	0,083	0,027
-356,825	-42,730	0,116	0,043
-355,810	-200,000	0,014	0,053
-354,796	800,000	-0,032	-0,078
-353,781	-67,972	-0,167	0,047
-352,766	-192,667	0,034	-0,000
-351,752	-63,247	0,026	-0,008
-350,737	-78,797	0,219	-0,054
-349,723	-13,331	-0,103	0,049
-348,708	-200,000	-0,001	0,029
-347,693	-53,388	-0,139	0,046
-346,679	-125,887	-0,087	0,009
-345,664	-37,821	-0,210	-0,081
-344,650	-200,000	-0,001	-0,128
-343,635	-59,073	0,161	-0,051
-342,620	-8,873	0,060	0,029
-341,606	-200,000	-0,017	-0,216
-340,591	-19,568	0,106	-0,048
-339,577	800,000	-0,058	-0,145
-338,562	288,894	0,010	-0,013
-337,548	12,666	-0,072	-0,041
-336,533	-200,000	-0,009	-0,063
-335,518	315,050	0,048	-0,066
-334,504	-200,000	-0,027	-0,142
-333,489	-38,342	-0,052	-0,020
-332,475	99,258	0,066	-0,056
-331,460	106,434	-0,012	-0,011
-330,445	-200,000	-0,016	-0,134
-329,431	-81,402	0,133	-0,032
-328,416	800,000	0,060	0,155
-327,402	195,918	-0,109	-0,122
-326,387	-98,486	0,052	-0,010
-325,372	-200,000	0,006	-0,047
-324,358	-200,000	0,002	0,074
-323,343	-200,000	-0,037	0,124
-322,329	262,755	0,078	-0,099
-321,314	82,755	0,080	0,063
-320,299	-200,000	-0,026	0,104
-319,285	185,576	0,032	-0,034
-318,270	-51,349	-0,088	-0,030
-317,256	-56,291	-0,089	-0,029
-316,241	-68,852	0,017	-0,005
-315,226	-10,468	0,075	-0,036
-314,212	-200,000	0,027	0,094
-313,197	229,317	-0,097	-0,116
-312,183	800,000	-0,014	-0,029
-311,168	-3,987	-0,111	0,056
-310,153	800,000	-0,027	-0,068
-309,139	-200,000	-0,009	-0,094
-308,124	-200,000	0,001	0,064
-307,110	-200,000	0,043	0,200
-306,095	-41,876	0,059	-0,022
-305,080	800,000	-0,008	0,024
-304,066	13,522	-0,072	-0,041
-303,051	-200,000	-0,047	-0,153
-302,037	-53,546	0,047	0,016
-301,022	-200,000	0,000	0,044
-300,008	-73,131	-0,038	-0,010
-298,993	800,000	0,016	0,045
-297,978	-118,487	-0,060	0,008
-296,964	800,000	0,044	0,109
-295,949	-75,977	-0,126	0,032
-294,935	501,975	0,090	0,153
-293,920	580,996	-0,078	0,140
-292,905	336,049	-0,083	0,118
-291,891	53,966	0,110	0,078
-290,876	800,000	0,021	0,061
-289,862	55,982	0,098	-0,069
-288,847	-80,458	-0,238	-0,058
-287,832	76,886	0,069	-0,054
-286,818	-200,000	-0,011	0,086
-285,803	-45,493	0,090	-0,033
-284,789	-1,607	-0,040	0,021
-283,774	313,972	-0,099	0,137
-282,759	299,090	-0,100	0,136
-281,745	-129,711	-0,087	0,009
-280,730	-143,266	-0,044	0,003
-279,716	-66,116	0,094	-0,027
-278,701	87,095	-0,093	0,075
-277,686	800,000	-0,050	-0,133
-276,672	-200,000	-0,013	-0,121
-275,657	800,000	0,048	-0,099
-274,643	-200,000	-0,016	0,101
-273,628	-37,290	0,045	0,017
-272,613	-170,039	0,038	-0,001
-271,599	-86,957	-0,070	0,015
-270,584	-200,000	-0,004	0,091
-269,570	-200,000	-0,024	0,102
-268,555	8,208	-0,103	0,056
-267,540	-31,778	-0,091	-0,037
-266,526	144,013	-0,092	-0,089
-265,511	268,906	0,067	0,086
-264,497	-200,000	-0,004	0,135
-263,482	-93,515	0,119	-0,024
-262,467	208,911	0,068	0,078
-261,453	800,000	0,054	0,119
-260,438	800,000	0,005	-0,014
-259,424	310,825	0,038	-0,053
-258,409	800,000	0,066	-0,196
-257,395	709,050	-0,007	-0,014
-256,380	-200,000	0,001	0,104
-255,365	174,211	-0,035	-0,037
-254,351	61,535	0,079	0,058
-253,336	156,304	-0,070	-0,071
-252,322	186,689	0,120	-0,131
-251,307	-119,913	-0,122	0,015
-250,292	690,317	0,049	0,094
-249,278	160,479	0,134	0,136
-248,263	-200,000	0,013	0,104
-247,249	-52,739	-0,018	-0,006
-246,234	277,565	-0,066	-0,086
-245,219	-200,000	0,012	-0,054
-244,205	-124,368	-0,159	0,018
-243,190	555,099	0,104	0,184
-242,176	-18,361	0,105	-0,048
-241,161	627,068	0,028	0,052
-240,146	595,250	0,028	0,050
-239,132	180,294	-0,020	-0,022
-238,117	164,355	-0,044	0,045
-237,103	-200,000	-0,013	-0,069
-236,088	-200,000	-0,005	0,125
-235,073	800,000	0,061	0,144
-234,059	-16,672	0,063	0,029
-233,044	-54,495	-0,063	-0,021
-232,030	-7,207	0,032	-0,016
-231,015	155,113	0,035	0,035
-230,000	-200,000	0,036	-0,243
-228,986	20,823	-0,101	-0,060
-227,971	-131,629	-0,115	-0,011
-226,957	72,200	-0,042	0,032
-225,942	-200,000	0,017	0,120
-224,927	800,000	-0,018	-0,056
-223,913	800,000	-0,066	-0,136
-222,898	-37,185	0,090	0,035
-221,884	-200,000	0,008	0,125
-220,869	-200,000	0,009	0,040
-219,855	234,306	0,105	0,127
-218,840	-35,946	-0,040	0,016
-217,825	-200,000	0,004	-0,088
-216,811	-107,402	-0,027	0,004
-215,796	800,000	0,027	-0,062
-214,782	-200,000	-0,009	0,139
-213,767	-169,020	-0,056	-0,002
-212,752	232,086	0,073	0,088
-211,738	800,000	-0,045	-0,111
-210,723	-200,000	-0,033	0,138
-209,709	800,000	-0,028	-0,065
-208,694	-26,009	0,187	-0,080
-207,679	700,720	0,006	-0,011
-206,665	-200,000	0,017	-0,073
-205,650	-200,000	-0,011	0,086
-204,636	-200,000	0,013	0,105
-203,621	-20,272	-0,062	0,028
-202,606	9,842	-0,118	0,065
-201,592	-8,062	0,042	-0,021
-200,577	800,000	0,008	-0,015
-199,563	350,390	0,002	-0,003
-198,548	800,000	0,033	0,085
-197,533	-99,959	0,146	-0,026
-196,519	311,220	-0,028	0,039
-195,504	-200,000	-0,030	0,211
-194,490	-200,000	0,000	-0,012
-193,475	230,059	-0,044	0,052
-192,460	800,000	0,023	0,049
-191,446	-78,300	0,100	0,025
-190,431	136,928	-0,046	-0,044
-189,417	-200,000	0,007	-0,095
-188,402	291,150	0,056	0,074
-187,387	142,161	0,081	0,078
-186,373	325,968	-0,024	0,034
-185,358	-200,000	-0,011	0,065
-184,344	-200,000	0,019	0,104
-183,329	353,491	-0,043	0,063
-182,315	-3,193	0,024	-0,012
-181,300	123,320	0,060	-0,054
-180,285	-66,882	-0,099	0,028
-179,271	800,000	0,038	-0,081
-178,256	-200,000	-0,007	-0,053
-177,242	800,000	0,027	0,062
-176,227	741,293	0,088	0,173
-175,212	290,938	0,054	0,071
-174,198	-22,177	-0,101	-0,044
-173,183	-106,614	0,155	0,025
-172,169	800,000	-0,002	-0,006
-171,154	218,934	-0,100	-0,117
-170,139	-71,480	0,045	-0,012
-169,125	-200,000	-0,011	0,071
-168,110	-19,213	-0,061	0,028
-167,096	-112,578	-0,223	0,032
-166,081	596,957	-0,079	-0,144
-165,066	-3,847	0,097	0,049
-164,052	-51,557	-0,066	0,022
-163,037	-200,000	-0,006	0,072
-162,023	-82,470	0,105	0,025
-161,008	-200,000	-0,002	0,072
-159,993	-76,937	0,056	-0,014
-158,979	-96,965	-0,130	-0,025
-157,964	-200,000	0,006	-0,090
-156,950	800,000	-0,052	-0,124
-155,935	-16,832	0,139	0,064
-154,920	-108,572	-0,132	0,020
-153,906	-53,563	-0,152	0,050
-152,891	744,727	-0,033	0,065
-151,877	800,000	-0,013	0,039
-150,862	134,388	-0,012	-0,011
-149,847	-32,324	0,050	-0,020
-148,833	87,445	0,071	0,057
-147,818	-200,000	0,013	-0,054
-146,804	-119,238	0,028	0,003
-145,789	-140,198	-0,136	0,010
-144,775	218,830	-0,028	-0,033
-143,760	800,000	0,039	0,085
-142,745	-28,289	-0,177	0,074
-141,731	114,873	0,055	-0,049
-140,716	154,948	0,038	0,038
-139,702	331,827	-0,056	-0,079
-138,687	-95,605	-0,054	-0,010
-137,672	269,983	-0,070	0,089
-136,658	-36,735	-0,020	-0,008
-135,643	800,000	-0,063	-0,182
-134,629	-200,000	-0,042	-0,161
-133,614	-200,000	0,008	-0,056
-132,599	354,197	-0,062	-0,090
-131,585	-51,238	0,058	0,020
-130,570	-59,194	-0,048	-0,015
-129,556	162,960	0,027	0,028
-128,541	-0,509	-0,102	0,053
-127,526	-200,000	0,019	-0,110
-126,512	-200,000	0,000	0,117
-125,497	356,653	0,017	0,024
-124,483	-163,663	-0,061	0,002
-123,468	800,000	0,026	0,058
-122,453	-100,842	0,072	0,013
-121,439	21,296	-0,033	0,019
-120,424	-105,865	-0,015	0,002
