DTS Sentinel unit serial number:	SN410029Multiplexer serial number:	ORYXHardware model number:	OX2-SRSoftware version number:	ORYX F/W v4,00 Oryx Data Collector v3.7.2.0data status	okinstallation	B4 Nyhavnadifferential loss correction	single-endedforward channel	channel 2reverse channel	N/Adate	2023/12/15time	16:55:13forward acquisition time	300,00reverse acquisition time	0,00gamma	499,1914k internal	0,3143k external	0,3143temperature offset calibration	1,0000default loss term (dB/km)	0,3820temperature slope calibration	1,0000multiplexer offset coefficient	1,0000multiplexer slope coefficient	1,0000fibre end	0,00T internal ref (°C)	17,90T ext. ref 1 (°C)	3,69T ext. ref 2 (°C)	3,82length (m)	temperature (°C)	Stokes	anti-Stokes-744,400	-46,261	-0,051	0,018
-743,385	171,346	-0,165	0,175
-742,371	-7,796	0,107	0,053
-741,356	98,505	-0,074	0,063
-740,342	-8,989	0,139	0,069
-739,327	162,025	-0,113	0,118
-738,312	67,647	0,142	-0,108
-737,298	-104,431	-0,203	0,034
-736,283	407,204	0,085	-0,134
-735,269	-19,540	-0,153	0,070
-734,254	-29,122	0,122	0,052
-733,239	3,053	-0,468	-0,251
-732,225	-172,763	0,091	-0,002
-731,210	5,004	-0,026	0,014
-730,196	-200,000	0,010	0,043
-729,181	58,435	-0,119	-0,086
-728,167	-80,116	-0,067	-0,017
-727,152	-39,518	0,091	-0,035
-726,137	75,030	-0,006	-0,005
-725,123	145,719	-0,093	-0,092
-724,108	234,223	-0,070	-0,086
-723,094	-71,873	-0,115	0,032
-722,079	423,968	-0,041	-0,065
-721,064	-106,567	-0,045	0,007
-720,050	-200,000	-0,040	-0,154
-719,035	800,000	-0,038	-0,086
-718,021	-200,000	-0,008	0,204
-717,006	-77,582	-0,089	0,023
-715,991	800,000	-0,031	-0,087
-714,977	684,889	0,081	-0,158
-713,962	23,129	0,074	-0,045
-712,948	16,877	-0,104	-0,061
-711,933	-200,000	0,013	0,059
-710,918	194,071	0,058	-0,065
-709,904	430,135	-0,065	-0,104
-708,889	-150,731	-0,113	-0,006
-707,875	-200,000	-0,031	-0,122
-706,860	-200,000	-0,001	0,110
-705,845	106,349	-0,091	-0,080
-704,831	-153,079	-0,046	0,002
-703,816	67,051	-0,068	-0,051
-702,802	-137,074	0,004	0,000
-701,787	-200,000	0,001	-0,114
-700,772	311,985	-0,037	-0,052
-699,758	800,000	0,063	-0,184
-698,743	-168,965	0,139	0,004
-697,729	-36,183	-0,104	0,041
-696,714	800,000	0,022	-0,045
-695,699	-200,000	0,000	-0,125
-694,685	-0,028	-0,102	0,054
-693,670	800,000	-0,018	0,040
-692,656	721,206	-0,012	0,023
-691,641	-185,074	-0,106	-0,001
-690,627	261,463	0,140	0,180
-689,612	121,355	0,045	-0,041
-688,597	-111,656	0,073	-0,011
-687,583	800,000	-0,033	-0,096
-686,568	319,034	-0,042	-0,059
-685,554	-152,368	0,060	0,003
-684,539	36,693	-0,189	-0,123
-683,524	-200,000	0,009	-0,073
-682,510	800,000	0,044	0,114
-681,495	78,924	-0,101	-0,080
-680,481	800,000	-0,041	0,120
-679,466	171,735	-0,113	-0,121
-678,451	171,351	0,085	-0,090
-677,437	607,691	-0,076	0,140
-676,422	194,762	0,070	0,079
-675,408	120,602	-0,062	-0,056
-674,393	-200,000	0,007	0,154
-673,378	800,000	0,054	0,119
-672,364	-58,040	-0,089	0,028
-671,349	75,354	-0,063	-0,049
-670,335	-88,625	0,059	0,013
-669,320	538,525	-0,017	0,029
-668,305	231,719	0,007	-0,009
-667,291	800,000	-0,051	0,125
-666,276	-38,721	-0,071	-0,028
-665,262	49,353	-0,077	-0,054
-664,247	-137,630	-0,093	0,008
-663,232	-26,144	-0,076	-0,033
-662,218	-200,000	-0,014	0,090
-661,203	69,807	0,079	0,060
-660,189	23,563	-0,066	-0,040
-659,174	-200,000	-0,004	0,024
-658,159	92,443	-0,047	0,040
-657,145	-200,000	0,004	-0,042
-656,130	800,000	0,044	-0,123
-655,116	1,299	-0,089	0,047
-654,101	800,000	0,013	-0,030
-653,086	160,528	-0,014	0,015
-652,072	249,591	-0,116	-0,146
-651,057	-119,204	-0,147	-0,019
-650,043	-200,000	-0,001	-0,198
-649,028	58,447	-0,039	-0,028
-648,014	-20,040	-0,106	0,048
-646,999	-200,000	0,010	0,129
-645,984	-21,097	-0,115	0,051
-644,970	157,845	-0,047	0,049
-643,955	73,144	-0,158	-0,122
-642,941	-98,041	0,101	-0,019
-641,926	-30,148	0,048	-0,020
-640,911	-112,698	0,043	-0,006
-639,897	18,083	0,100	-0,059
-638,882	508,369	-0,044	-0,075
-637,868	187,953	-0,051	-0,056
-636,853	-61,848	-0,035	0,011
-635,838	26,798	0,073	-0,045
-634,824	800,000	0,034	-0,099
-633,809	800,000	-0,021	-0,056
-632,795	630,833	0,019	-0,036
-631,780	-42,918	-0,137	0,051
-630,765	66,034	-0,061	-0,046
-629,751	-56,886	-0,083	0,027
-628,736	-116,795	0,077	-0,010
-627,722	115,507	-0,057	0,051
-626,707	-50,432	-0,051	0,018
-625,692	-200,000	0,001	-0,108
-624,678	360,857	0,033	0,049
-623,663	-200,000	0,002	0,040
-622,649	238,118	-0,043	0,053
-621,634	111,291	-0,033	-0,030
-620,619	44,489	-0,060	-0,040
-619,605	800,000	-0,015	-0,035
-618,590	-200,000	0,018	0,107
-617,576	76,830	-0,112	-0,087
-616,561	800,000	0,041	0,093
-615,546	731,128	-0,043	-0,086
-614,532	37,455	-0,010	0,006
-613,517	141,515	-0,063	0,061
-612,503	-9,200	0,102	0,050
-611,488	-200,000	-0,004	0,076
-610,474	491,920	0,080	0,136
-609,459	540,005	-0,031	0,055
-608,444	-105,937	-0,102	0,017
-607,430	30,492	0,110	-0,069
-606,415	-200,000	0,000	0,022
-605,401	57,181	0,064	-0,046
-604,386	615,934	-0,018	-0,033
-603,371	-200,000	0,013	-0,053
-602,357	-7,536	-0,073	-0,036
-601,342	-200,000	-0,011	-0,162
-600,328	-200,000	0,020	-0,177
-599,313	-61,114	0,121	-0,037
-598,298	146,647	-0,041	-0,040
-597,284	415,847	0,031	0,050
-596,269	729,390	-0,039	0,078
-595,255	22,264	-0,036	0,021
-594,240	800,000	0,020	-0,058
-593,225	120,416	-0,142	-0,130
-592,211	-20,780	0,013	0,006
-591,196	781,206	0,028	0,056
-590,182	800,000	-0,070	-0,176
-589,167	-200,000	-0,007	0,055
-588,152	430,032	-0,038	-0,061
-587,138	-200,000	0,022	0,074
-586,123	-200,000	-0,017	0,097
-585,109	147,570	-0,049	-0,049
-584,094	1,378	0,096	0,051
-583,079	84,714	-0,051	-0,041
-582,065	92,876	-0,056	-0,047
-581,050	4,333	-0,024	-0,013
-580,036	-26,952	-0,037	0,016
-579,021	785,468	0,054	-0,109
-578,006	800,000	-0,044	-0,101
-576,992	514,902	-0,015	-0,027
-575,977	-200,000	0,006	-0,022
-574,963	800,000	0,003	-0,010
-573,948	96,475	0,031	-0,026
-572,934	-71,866	-0,163	0,044
-571,919	16,675	-0,096	-0,056
-570,904	-200,000	-0,020	-0,111
-569,890	-200,000	-0,004	-0,159
-568,875	-200,000	-0,014	-0,066
-567,861	-143,405	0,087	-0,006
-566,846	-54,861	-0,035	-0,011
-565,831	-118,490	-0,031	-0,004
-564,817	800,000	0,034	0,105
-563,802	323,213	-0,082	-0,115
-562,788	800,000	-0,036	0,094
-561,773	484,354	-0,038	-0,064
-560,758	91,944	-0,041	-0,034
-559,744	800,000	-0,052	0,115
-558,729	-161,817	-0,071	-0,003
-557,715	38,254	-0,037	-0,024
-556,700	800,000	0,045	-0,099
-555,685	800,000	-0,015	0,044
-554,671	-50,445	0,065	-0,022
-553,656	222,821	0,122	0,145
-552,642	317,880	0,105	0,146
-551,627	-143,016	-0,109	0,008
-550,612	-140,193	-0,041	0,003
-549,598	-73,049	0,115	-0,031
-548,583	-200,000	-0,012	-0,065
-547,569	22,817	-0,049	-0,030
-546,554	-46,605	0,166	0,060
-545,539	423,335	-0,046	0,073
-544,525	144,317	-0,027	-0,026
-543,510	-67,045	-0,005	-0,002
-542,496	-60,417	-0,125	-0,039
-541,481	-200,000	-0,012	-0,090
-540,466	220,854	0,019	-0,022
-539,452	55,337	-0,087	-0,062
-538,437	39,687	0,056	0,037
-537,423	117,036	0,101	0,091
-536,408	517,272	-0,064	0,111
-535,393	-80,440	-0,082	-0,020
-534,379	798,330	-0,028	0,058
-533,364	418,650	0,054	-0,086
-532,350	-80,780	-0,028	0,007
-531,335	190,656	0,080	-0,088
-530,321	800,000	-0,042	-0,098
-529,306	-200,000	0,025	-0,203
-528,291	800,000	-0,059	-0,161
-527,277	63,650	0,089	-0,065
-526,262	688,583	-0,041	0,079
-525,248	335,131	-0,068	0,097
-524,233	282,559	0,052	-0,068
-523,218	168,145	0,023	-0,024
-522,204	782,960	0,028	0,056
-521,189	566,115	-0,032	-0,057
-520,175	270,687	0,047	0,061
-519,160	-69,320	-0,063	-0,017
-518,145	800,000	0,055	0,122
-517,131	800,000	-0,035	0,107
-516,116	214,122	0,043	0,050
-515,102	-200,000	0,008	0,110
-514,087	15,873	0,121	-0,069
-513,072	800,000	-0,059	-0,156
-512,058	50,953	0,070	0,048
-511,043	217,938	0,041	0,048
-510,029	30,721	-0,070	-0,044
-509,014	177,853	0,074	0,079
-507,999	251,388	0,067	-0,084
-506,985	54,263	-0,111	-0,079
-505,970	467,692	-0,091	-0,150
-504,956	-2,179	-0,061	0,031
-503,941	-179,988	0,049	0,001
-502,926	491,411	0,048	0,081
-501,912	-34,188	-0,066	-0,027
-500,897	-194,742	0,118	-0,001
-499,883	-52,344	-0,089	0,030
-498,868	-200,000	0,012	0,062
-497,853	121,371	0,031	-0,029
-496,839	800,000	0,004	-0,013
-495,824	401,357	0,060	0,093
-494,810	502,784	0,033	0,056
-493,795	452,018	-0,044	0,072
-492,781	38,726	-0,024	0,016
-491,766	188,416	0,027	0,030
-490,751	800,000	0,042	-0,102
-489,737	172,366	0,048	0,050
-488,722	800,000	-0,073	0,177
-487,708	-161,397	-0,035	-0,001
-486,693	370,314	0,052	-0,077
-485,678	-200,000	-0,024	-0,097
-484,664	44,675	0,065	0,044
-483,649	20,295	-0,136	0,081
-482,635	160,002	0,062	0,063
-481,620	-83,860	0,139	0,032
-480,605	-200,000	-0,031	0,163
-479,591	-21,595	0,065	-0,029
-478,576	-200,000	-0,005	0,031
-477,562	373,045	0,035	-0,052
-476,547	800,000	0,029	-0,067
-475,532	251,994	-0,062	0,077
-474,518	-154,704	0,140	0,007
-473,503	12,901	0,135	0,076
-472,489	-200,000	0,004	-0,072
-471,474	356,243	-0,014	0,021
-470,459	-200,000	0,015	-0,105
-469,445	800,000	-0,008	0,017
-468,430	-200,000	0,010	-0,111
-467,416	-200,000	-0,058	0,199
-466,401	-200,000	-0,006	-0,052
-465,386	800,000	-0,024	0,049
-464,372	-81,711	-0,064	-0,015
-463,357	288,943	-0,049	-0,066
-462,343	18,876	-0,113	-0,066
-461,328	800,000	0,014	-0,040
-460,313	-113,370	-0,080	-0,011
-459,299	800,000	0,037	0,085
-458,284	-200,000	-0,002	0,192
-457,270	30,676	0,097	0,060
-456,255	691,294	-0,041	0,079
-455,241	183,102	-0,051	-0,056
-454,226	-1,320	-0,121	-0,062
-453,211	800,000	-0,042	0,110
-452,197	-89,482	0,209	-0,045
-451,182	8,239	0,020	-0,011
-450,168	-144,283	0,095	-0,006
-449,153	78,393	-0,098	-0,076
-448,138	-129,689	-0,069	0,007
-447,124	-200,000	0,014	-0,075
-446,109	39,218	0,043	0,028
-445,095	180,285	-0,051	-0,055
-444,080	-144,410	0,082	-0,006
-443,065	-40,336	-0,043	0,016
-442,051	-89,585	-0,026	0,006
-441,036	139,420	-0,064	-0,062
-440,022	255,854	-0,023	0,029
-439,007	322,339	-0,045	-0,063
-437,992	689,913	-0,032	0,062
-436,978	67,683	0,062	-0,047
-435,963	-20,123	-0,132	0,059
-434,949	-173,539	0,081	-0,002
-433,934	285,170	-0,027	-0,036
-432,919	800,000	-0,023	0,066
-431,905	228,473	0,034	0,041
-430,890	-6,918	-0,152	0,075
-429,876	-33,816	0,123	-0,049
-428,861	800,000	0,036	0,106
-427,846	-92,877	-0,091	0,018
-426,832	-200,000	-0,012	0,093
-425,817	-200,000	0,024	0,109
-424,803	24,843	0,031	-0,019
-423,788	800,000	-0,031	-0,067
-422,773	309,807	-0,032	-0,043
-421,759	325,351	0,020	-0,028
-420,744	-200,000	0,003	-0,097
-419,730	283,782	0,066	0,087
-418,715	-200,000	0,021	-0,130
-417,701	-200,000	-0,009	0,084
-416,686	-200,000	0,010	0,238
-415,671	-200,000	0,029	0,135
-414,657	-200,000	-0,031	0,120
-413,642	243,754	0,094	-0,116
-412,628	336,204	-0,015	-0,021
-411,613	-135,139	-0,098	-0,009
-410,598	800,000	0,049	0,139
-409,584	-200,000	-0,003	-0,112
-408,569	-179,739	0,167	0,003
-407,555	-21,187	0,055	0,025
-406,540	662,011	-0,014	0,026
-405,525	-200,000	0,003	-0,018
-404,511	-46,271	0,017	0,006
-403,496	-200,000	0,003	0,045
-402,482	-66,965	0,095	-0,027
-401,467	-200,000	-0,009	0,185
-400,452	-17,982	0,095	-0,043
-399,438	-200,000	-0,000	-0,056
-398,423	-200,000	0,025	0,121
-397,409	800,000	0,008	0,018
-396,394	248,542	0,090	-0,112
-395,379	800,000	0,013	0,039
-394,365	-5,846	-0,102	0,051
-393,350	2,748	-0,029	-0,015
-392,336	800,000	-0,018	0,050
-391,321	8,242	-0,118	-0,065
-390,306	-200,000	0,016	-0,230
-389,292	78,455	-0,097	-0,076
-388,277	-111,086	0,127	0,019
-387,263	76,323	0,061	-0,047
-386,248	51,034	0,093	0,064
-385,233	800,000	-0,025	0,080
-384,219	-200,000	-0,008	-0,062
-383,204	-53,809	-0,126	-0,042
-382,190	-171,714	-0,050	0,001
-381,175	-200,000	0,002	0,024
-380,160	223,248	-0,057	0,067
-379,146	-200,000	-0,025	0,099
-378,131	299,436	-0,026	0,035
-377,117	-200,000	0,003	-0,021
-376,102	800,000	0,031	0,085
-375,088	-200,000	-0,018	0,076
-374,073	123,056	-0,025	-0,023
-373,058	800,000	0,035	0,088
-372,044	-43,082	0,087	0,032
-371,029	271,015	-0,132	0,170
-370,015	800,000	-0,038	0,099
-369,000	-200,000	0,043	-0,153
-367,985	216,400	0,037	-0,042
-366,971	-200,000	-0,001	-0,059
-365,956	11,207	0,079	0,044
-364,942	113,251	0,032	0,028
-363,927	-32,061	-0,052	-0,021
-362,912	-200,000	0,012	-0,060
-361,898	800,000	0,007	-0,020
-360,883	207,661	-0,092	-0,105
-359,869	800,000	-0,063	0,146
-358,854	-128,167	0,110	0,011
-357,839	302,333	0,085	-0,115
-356,825	-200,000	-0,003	-0,075
-355,810	-61,314	0,066	-0,020
-354,796	-200,000	0,010	0,055
-353,781	670,416	-0,036	0,069
-352,766	-23,462	-0,079	0,035
-351,752	83,840	0,115	-0,091
-350,737	800,000	0,014	-0,044
-349,723	800,000	-0,032	0,086
-348,708	-200,000	0,003	-0,015
-347,693	-115,878	0,044	0,006
-346,679	-46,965	0,083	-0,029
-345,664	90,416	-0,153	-0,125
-344,650	114,227	0,022	-0,020
-343,635	-49,808	0,102	0,035
-342,620	-88,454	-0,145	-0,031
-341,606	686,921	-0,049	-0,094
-340,591	-11,782	-0,148	0,071
-339,577	448,748	0,043	-0,069
-338,562	56,392	0,132	0,094
-337,548	366,375	-0,025	-0,037
-336,533	800,000	-0,035	-0,090
-335,518	209,089	0,096	0,109
-334,504	-145,078	0,089	0,006
-333,489	-142,842	-0,032	0,002
-332,475	-200,000	-0,012	-0,057
-331,460	-12,120	-0,021	-0,010
-330,445	100,550	0,077	-0,065
-329,431	89,362	0,071	-0,057
-328,416	800,000	0,032	-0,073
-327,402	-200,000	-0,018	0,080
-326,387	361,942	-0,048	0,071
-325,372	-200,000	-0,021	-0,067
-324,358	219,322	0,013	0,015
-323,343	-84,903	-0,147	-0,033
-322,329	-13,101	0,134	0,063
-321,314	800,000	0,052	0,109
-320,299	-134,758	0,125	-0,011
-319,285	120,428	-0,112	0,101
-318,270	-132,072	0,064	-0,006
-317,256	67,612	-0,102	-0,075
-316,241	588,806	0,019	-0,035
-315,226	800,000	0,020	-0,052
-314,212	800,000	0,017	-0,053
-313,197	-142,601	0,099	-0,007
-312,183	647,331	0,100	0,188
-311,168	-47,139	0,058	-0,021
-310,153	6,185	0,027	-0,014
-309,139	87,788	-0,071	-0,057
-308,124	53,922	-0,070	-0,049
-307,110	800,000	0,019	0,060
-306,095	-25,467	-0,083	-0,035
-305,080	-96,726	0,082	0,016
-304,066	-98,335	-0,248	0,046
-303,051	61,772	0,090	0,065
-302,037	-200,000	0,032	-0,118
-301,022	59,902	0,092	-0,066
-300,008	42,147	0,050	0,033
-298,993	160,108	0,061	0,062
-297,978	3,523	-0,045	-0,024
-296,964	-200,000	-0,003	0,071
-295,949	221,487	-0,053	-0,062
-294,935	-59,989	-0,101	0,031
-293,920	120,594	-0,045	0,041
-292,905	454,692	-0,069	0,112
-291,891	265,854	0,041	0,052
-290,876	-38,812	0,049	-0,019
-289,862	-74,998	-0,071	0,018
-288,847	602,625	0,054	-0,098
-287,832	-88,004	0,030	-0,006
-286,818	-148,657	0,121	-0,007
-285,803	1,509	0,101	0,053
-284,789	297,119	0,003	-0,004
-283,774	-200,000	0,006	0,098
-282,759	-106,204	-0,068	0,011
-281,745	800,000	0,059	-0,141
-280,730	-200,000	-0,007	-0,025
-279,716	-39,503	-0,091	-0,035
-278,701	-200,000	-0,011	-0,038
-277,686	800,000	0,042	-0,097
-276,672	-59,815	-0,066	-0,021
-275,657	800,000	0,005	-0,014
-274,643	207,417	-0,104	-0,118
-273,628	542,415	-0,075	-0,130
-272,613	-105,904	0,071	-0,012
-271,599	800,000	-0,044	0,099
-270,584	-200,000	0,012	-0,070
-269,570	5,267	0,033	-0,018
-268,555	8,163	-0,124	-0,067
-267,540	-200,000	-0,001	-0,043
-266,526	45,078	0,091	-0,061
-265,511	115,107	0,071	-0,063
-264,497	615,009	0,062	0,114
-263,482	66,331	0,021	0,016
-262,467	800,000	0,034	0,080
-261,453	98,598	0,022	-0,018
-260,438	-12,532	0,037	0,017
-259,424	800,000	0,024	-0,071
-258,409	307,788	-0,069	-0,093
-257,395	-109,101	0,042	0,006
-256,380	-200,000	-0,024	0,161
-255,365	738,854	0,077	0,151
-254,351	-127,601	0,078	0,008
-253,336	800,000	-0,028	0,064
-252,322	-200,000	0,013	-0,054
-251,307	302,537	-0,014	0,018
-250,292	-200,000	-0,007	0,115
-249,278	-200,000	0,012	0,172
-248,263	-200,000	0,034	0,125
-247,249	108,931	0,093	0,081
-246,234	197,424	-0,062	0,069
-245,219	-200,000	0,011	-0,083
-244,205	489,727	0,060	-0,100
-243,190	800,000	0,028	0,078
-242,176	-26,401	0,091	0,039
-241,161	251,445	0,120	0,149
-240,146	201,457	0,065	0,073
-239,132	-198,577	0,056	-0,000
-238,117	195,975	0,083	-0,092
-237,103	143,959	-0,099	-0,096
-236,088	134,745	-0,060	0,057
-235,073	-200,000	0,004	-0,129
-234,059	-87,299	0,137	0,030
-233,044	800,000	0,024	0,067
-232,030	800,000	-0,020	0,050
-231,015	288,587	0,050	-0,066
-230,000	301,349	0,048	-0,064
-228,986	633,856	0,062	0,115
-227,971	155,810	0,109	-0,109
-226,957	-128,318	0,100	0,010
-225,942	-200,000	-0,050	-0,164
-224,927	-200,000	-0,007	-0,033
-223,913	203,547	0,079	0,089
-222,898	-200,000	0,006	-0,067
-221,884	167,764	0,049	-0,051
-220,869	341,729	-0,046	-0,066
-219,855	-200,000	0,008	0,080
-218,840	100,125	-0,040	-0,034
-217,825	285,315	-0,076	-0,100
-216,811	4,295	0,019	0,010
-215,796	-12,610	-0,130	-0,061
-214,782	-148,997	-0,051	0,003
-213,767	-200,000	-0,016	-0,165
-212,752	800,000	0,035	0,080
-211,738	-80,456	-0,102	0,024
-210,723	184,458	-0,126	-0,135
-209,709	134,261	0,058	-0,055
-208,694	-200,000	0,008	-0,055
-207,679	16,617	-0,078	-0,045
-206,665	-9,388	0,090	-0,043
-205,650	-74,863	0,079	0,020
-204,636	-200,000	-0,033	0,119
-203,621	225,584	-0,035	0,042
-202,606	524,266	-0,004	-0,007
-201,592	-27,498	-0,077	-0,033
-200,577	204,634	-0,025	0,028
-199,563	-86,040	0,137	0,030
-198,548	-153,377	0,080	0,004
-197,533	-2,029	0,080	0,041
-196,519	596,426	-0,040	0,073
-195,504	215,162	-0,071	0,082
-194,490	85,970	-0,068	-0,054
-193,475	195,844	-0,036	0,040
-192,460	157,661	0,022	-0,022
-191,446	-29,099	0,085	-0,035
-190,431	369,061	-0,051	-0,075
-189,417	406,726	0,011	-0,018
-188,402	-111,690	-0,123	0,018
-187,387	-66,204	-0,053	-0,015
-186,373	-200,000	0,005	-0,091
-185,358	129,982	0,042	-0,039
-184,344	-72,759	0,108	-0,029
-183,329	466,476	-0,018	-0,030
-182,315	-93,863	-0,082	0,016
-181,300	22,562	-0,043	0,025
-180,285	259,459	0,036	0,045
-179,271	391,641	-0,068	-0,103
-178,256	-200,000	0,024	0,094
-177,242	-86,119	-0,167	-0,037
-176,227	230,909	-0,102	-0,121
-175,212	800,000	0,053	0,149
-174,198	30,896	-0,125	0,077
-173,183	-51,339	0,044	0,015
-172,169	-173,748	-0,066	0,001
-171,154	171,245	-0,098	0,102
-170,139	-83,671	0,072	-0,017
-169,125	671,286	-0,084	-0,158
-168,110	800,000	0,037	-0,089
-167,096	-84,867	0,036	0,008
-166,081	-47,792	-0,153	-0,053
-165,066	-103,844	-0,161	-0,027
-164,052	-38,517	0,023	0,009
-163,037	800,000	-0,055	0,118
-162,023	-200,000	-0,000	0,111
-161,008	162,082	0,071	-0,072
-159,993	-200,000	0,002	0,174
-158,979	-52,150	0,144	0,048
-157,964	60,619	0,068	-0,049
-156,950	44,625	-0,016	-0,011
-155,935	100,455	0,113	0,095
-154,920	69,590	0,089	0,066
-153,906	79,986	0,128	0,099
-152,891	105,795	-0,043	0,036
-151,877	493,881	0,019	0,031
-150,862	433,048	-0,035	-0,055
-149,847	-200,000	-0,000	-0,048
-148,833	106,123	0,088	0,076
-147,818	338,329	-0,082	0,115
-146,804	-200,000	0,020	-0,101
-145,789	115,098	-0,031	-0,028
-144,775	279,344	0,020	-0,026
-143,760	-133,677	-0,041	0,004
-142,745	9,230	-0,134	-0,073
-141,731	-128,652	0,202	0,020
-140,716	191,096	-0,028	-0,031
-139,702	451,933	0,082	0,132
-138,687	-200,000	-0,015	0,078
-137,672	-116,056	0,110	-0,015
-136,658	-200,000	0,045	-0,150
-135,643	3,608	-0,028	-0,015
-134,629	21,222	-0,150	-0,088
-133,614	-51,305	0,088	0,030
-132,599	-200,000	0,018	0,124
-131,585	-52,657	0,119	-0,040
-130,570	174,889	-0,061	0,064
-129,556	53,162	0,121	0,084
-128,541	-88,595	-0,042	0,009
-127,526	62,328	-0,043	-0,031
-126,512	634,232	0,052	-0,096
-125,497	-39,684	0,144	-0,054
-124,483	800,000	-0,024	0,063
-123,468	-96,226	0,029	0,006
-122,453	231,271	-0,056	-0,067
-121,439	-40,896	-0,117	-0,043
-120,424	13,958	0,016	-0,009
-119,410	129,601	-0,086	0,080
-118,395	311,728	-0,082	-0,111
