DTS Sentinel unit serial number:	SN410029Multiplexer serial number:	ORYXHardware model number:	OX2-SRSoftware version number:	ORYX F/W v4,00 Oryx Data Collector v3.7.2.0data status	okinstallation	B4 Nyhavnadifferential loss correction	single-endedforward channel	channel 2reverse channel	N/Adate	2023/12/19time	01:50:13forward acquisition time	300,00reverse acquisition time	0,00gamma	499,1914k internal	0,3124k external	0,3124temperature offset calibration	1,0000default loss term (dB/km)	0,3820temperature slope calibration	1,0000multiplexer offset coefficient	1,0000multiplexer slope coefficient	1,0000fibre end	0,00T internal ref (°C)	21,47T ext. ref 1 (°C)	6,08T ext. ref 2 (°C)	6,22length (m)	temperature (°C)	Stokes	anti-Stokes-744,400	7,461	-0,161	-0,090
-743,385	32,104	-0,130	0,083
-742,371	-200,000	0,011	-0,054
-741,356	300,604	-0,070	0,097
-740,342	247,201	-0,090	-0,114
-739,327	-71,445	-0,332	0,092
-738,312	262,767	-0,031	-0,040
-737,298	165,454	-0,193	0,204
-736,283	339,082	0,043	0,062
-735,269	-104,701	-0,105	0,018
-734,254	800,000	0,041	0,097
-733,239	-70,348	-0,344	-0,097
-732,225	-166,406	0,149	-0,005
-731,210	776,445	0,097	0,198
-730,196	395,053	-0,030	0,047
-729,181	56,071	0,048	-0,035
-728,167	-200,000	0,013	0,057
-727,152	-144,624	0,091	0,006
-726,137	376,677	-0,039	0,060
-725,123	-200,000	-0,027	-0,131
-724,108	-55,268	-0,179	0,060
-723,094	-19,191	-0,121	-0,056
-722,079	159,321	-0,020	0,020
-721,064	800,000	0,023	0,073
-720,050	-17,023	0,084	0,039
-719,035	285,325	0,037	-0,050
-718,021	169,423	-0,070	-0,074
-717,006	-184,454	-0,172	0,002
-715,991	136,340	-0,046	0,045
-714,977	342,865	-0,099	-0,144
-713,962	-200,000	0,004	0,047
-712,948	-134,332	0,096	-0,009
-711,933	427,560	-0,076	-0,123
-710,918	-72,188	-0,044	0,012
-709,904	80,631	-0,085	0,068
-708,889	-200,000	-0,017	-0,122
-707,875	800,000	-0,044	0,101
-706,860	-160,605	0,141	0,005
-705,845	285,727	0,036	0,048
-704,831	631,475	-0,020	0,037
-703,816	401,367	-0,016	0,026
-702,802	800,000	-0,014	0,035
-701,787	-40,608	-0,201	-0,077
-700,772	536,243	-0,010	-0,017
-699,758	18,950	-0,079	0,047
-698,743	429,626	0,059	0,096
-697,729	-200,000	-0,017	0,110
-696,714	188,943	0,065	0,072
-695,699	568,836	-0,064	0,117
-694,685	-105,017	-0,128	-0,022
-693,670	443,728	-0,047	0,077
-692,656	-170,701	-0,022	-0,001
-691,641	117,817	0,073	0,067
-690,627	105,855	0,041	0,036
-689,612	-200,000	-0,000	-0,016
-688,597	57,753	0,096	-0,070
-687,583	484,467	-0,125	-0,212
-686,568	-71,120	-0,060	-0,017
-685,554	-132,287	0,070	-0,007
-684,539	136,693	0,024	-0,024
-683,524	46,929	0,027	0,018
-682,510	348,851	0,026	-0,038
-681,495	-30,907	-0,069	0,029
-680,481	-105,067	-0,146	-0,025
-679,466	87,787	-0,091	-0,075
-678,451	560,493	-0,018	0,033
-677,437	139,109	-0,004	-0,004
-676,422	-31,666	0,077	0,032
-675,408	17,835	0,091	-0,054
-674,393	328,917	-0,086	0,123
-673,378	504,444	-0,048	0,083
-672,364	-51,813	-0,015	-0,005
-671,349	493,040	0,053	0,091
-670,335	-122,495	0,077	-0,009
-669,320	87,995	0,019	0,016
-668,305	177,285	0,057	0,062
-667,291	-122,321	0,117	-0,014
-666,276	-124,006	-0,200	0,023
-665,262	799,417	-0,057	-0,117
-664,247	427,279	-0,018	0,030
-663,232	-200,000	0,002	-0,068
-662,218	-104,719	0,096	0,016
-661,203	47,743	0,070	0,048
-660,189	800,000	-0,011	-0,027
-659,174	-65,129	-0,077	-0,023
-658,159	55,982	0,061	-0,044
-657,145	38,366	0,148	0,097
-656,130	-200,000	0,014	-0,062
-655,116	42,801	0,066	-0,045
-654,101	-200,000	-0,000	-0,078
-653,086	800,000	0,035	-0,100
-652,072	181,661	-0,093	-0,102
-651,057	165,161	-0,092	-0,097
-650,043	-200,000	-0,005	-0,065
-649,028	-126,761	-0,036	-0,004
-648,014	427,019	-0,032	-0,052
-646,999	-80,459	0,125	-0,031
-645,984	800,000	0,059	-0,141
-644,970	800,000	0,061	-0,196
-643,955	164,586	-0,102	-0,107
-642,941	-153,691	-0,144	0,007
-641,926	151,877	-0,022	0,022
-640,911	15,555	-0,081	0,047
-639,897	126,197	0,081	0,076
-638,882	-200,000	-0,013	0,175
-637,868	-111,202	-0,059	-0,009
-636,853	-200,000	0,024	0,098
-635,838	-67,864	0,104	0,030
-634,824	-200,000	-0,007	0,085
-633,809	-176,410	0,024	-0,000
-632,795	8,792	-0,143	0,080
-631,780	-161,075	0,188	-0,007
-630,765	406,992	-0,062	0,098
-629,751	69,582	-0,059	-0,045
-628,736	91,551	0,035	-0,029
-627,722	137,866	0,064	-0,063
-626,707	126,653	-0,082	-0,077
-625,692	-200,000	-0,011	0,124
-624,678	522,341	0,044	-0,077
-623,663	476,604	-0,068	-0,115
-622,649	-161,502	-0,140	0,005
-621,634	-200,000	0,013	-0,058
-620,619	-132,868	-0,091	0,008
-619,605	-200,000	-0,036	-0,129
-618,590	246,303	0,047	0,059
-617,576	-98,117	0,092	0,017
-616,561	-200,000	0,007	0,214
-615,546	800,000	0,036	-0,101
-614,532	-200,000	-0,010	-0,139
-613,517	390,680	-0,030	-0,046
-612,503	-200,000	-0,007	-0,036
-611,488	141,380	0,053	0,052
-610,474	-73,552	0,045	0,012
-609,459	187,971	0,089	-0,099
-608,444	207,880	0,026	0,030
-607,430	800,000	0,020	-0,065
-606,415	-200,000	0,013	0,106
-605,401	-101,347	-0,081	0,014
-604,386	-98,746	0,067	-0,013
-603,371	-200,000	0,032	0,112
-602,357	13,730	-0,048	0,028
-601,342	-150,743	-0,111	-0,006
-600,328	-77,250	-0,077	0,020
-599,313	132,785	-0,056	0,053
-598,298	-102,053	-0,016	0,003
-597,284	198,650	0,075	0,085
-596,269	-200,000	0,019	0,089
-595,255	287,136	-0,035	0,047
-594,240	-200,000	-0,004	-0,094
-593,225	311,632	-0,048	0,067
-592,211	-25,334	-0,034	0,015
-591,196	-140,126	0,057	0,004
-590,182	800,000	-0,014	0,033
-589,167	-74,141	0,090	-0,024
-588,152	250,470	0,104	-0,131
-587,138	-126,455	-0,168	0,018
-586,123	526,604	-0,041	0,073
-585,109	-152,539	0,064	0,003
-584,094	116,780	-0,060	-0,055
-583,079	244,014	0,055	0,069
-582,065	-200,000	-0,022	0,087
-581,050	-200,000	0,011	0,041
-580,036	-116,747	0,114	-0,015
-579,021	27,389	-0,068	-0,042
-578,006	542,230	-0,022	-0,038
-576,992	360,098	0,092	-0,137
-575,977	-129,666	-0,134	-0,014
-574,963	-200,000	0,001	-0,030
-573,948	-200,000	0,016	0,060
-572,934	-65,852	-0,206	0,061
-571,919	86,348	-0,094	-0,077
-570,904	-163,199	0,050	-0,002
-569,890	-200,000	-0,034	-0,209
-568,875	-154,104	0,177	0,009
-567,861	145,592	0,043	0,043
-566,846	-200,000	-0,012	0,045
-565,831	-127,923	0,038	-0,004
-564,817	97,247	-0,056	0,048
-563,802	-162,727	-0,071	-0,003
-562,788	800,000	0,023	0,065
-561,773	181,499	-0,026	-0,028
-560,758	123,976	-0,057	0,053
-559,744	52,248	-0,075	0,053
-558,729	522,331	0,051	-0,088
-557,715	-200,000	0,014	-0,111
-556,700	175,253	-0,087	-0,094
-555,685	738,181	-0,081	-0,162
-554,671	-200,000	-0,012	-0,111
-553,656	800,000	-0,037	0,078
-552,642	52,296	0,007	0,005
-551,627	261,484	0,071	0,091
-550,612	-123,717	-0,092	0,011
-549,598	795,149	-0,027	0,055
-548,583	-6,566	0,079	0,040
-547,569	-71,138	-0,082	-0,022
-546,554	764,068	0,106	0,214
-545,539	196,449	0,049	-0,056
-544,525	-6,474	-0,153	-0,077
-543,510	177,069	-0,067	0,072
-542,496	-200,000	-0,012	-0,062
-541,481	172,876	0,073	-0,077
-540,466	-200,000	-0,019	-0,069
-539,452	109,051	0,036	0,032
-538,437	800,000	0,019	-0,045
-537,423	14,088	0,149	0,086
-536,408	565,965	0,032	-0,057
-535,393	-200,000	0,006	0,068
-534,379	-99,295	-0,056	-0,010
-533,364	589,544	0,074	-0,135
-532,350	183,951	0,075	0,082
-531,335	119,075	0,050	0,046
-530,321	-200,000	-0,003	0,191
-529,306	-12,683	0,085	-0,041
-528,291	-200,000	0,017	-0,099
-527,277	-47,275	-0,094	-0,034
-526,262	800,000	0,046	-0,095
-525,248	-200,000	0,025	0,104
-524,233	-120,159	0,202	-0,025
-523,218	143,486	-0,016	0,016
-522,204	-59,072	-0,102	0,032
-521,189	-123,251	-0,089	0,010
-520,175	243,373	-0,018	0,022
-519,160	91,845	-0,097	-0,081
-518,145	267,369	0,041	0,053
-517,131	-200,000	-0,013	0,063
-516,116	-200,000	0,003	0,084
-515,102	186,180	0,049	-0,054
-514,087	283,345	0,072	-0,095
-513,072	-117,985	-0,052	0,007
-512,058	-62,013	-0,052	-0,016
-511,043	-200,000	-0,045	0,158
-510,029	-54,807	0,172	0,057
-509,014	463,851	0,057	-0,094
-507,999	-118,428	0,076	-0,010
-506,985	-27,256	-0,128	-0,055
-505,970	75,789	-0,147	-0,115
-504,956	81,610	0,083	-0,066
-503,941	-21,553	-0,045	-0,020
-502,926	60,423	0,108	-0,079
-501,912	92,377	0,051	-0,042
-500,897	54,248	-0,055	-0,039
-499,883	-143,548	-0,092	0,006
-498,868	92,838	-0,066	0,055
-497,853	167,628	-0,075	0,078
-496,839	84,920	0,062	0,050
-495,824	141,013	-0,029	0,029
-494,810	-11,497	-0,047	-0,023
-493,795	-200,000	0,021	0,119
-492,781	59,860	-0,066	0,048
-491,766	-101,659	-0,043	0,008
-490,751	-93,523	0,062	0,013
-489,737	372,006	0,089	0,134
-488,722	672,865	-0,022	-0,042
-487,708	-96,574	-0,028	-0,005
-486,693	-200,000	-0,008	0,036
-485,678	-36,893	-0,143	-0,056
-484,664	-123,208	-0,085	-0,010
-483,649	-200,000	-0,022	-0,162
-482,635	800,000	-0,040	0,095
-481,620	-157,679	0,165	0,007
-480,605	-200,000	-0,004	-0,194
-479,591	-35,546	0,179	-0,071
-478,576	210,231	0,010	-0,011
-477,562	-200,000	-0,011	-0,141
-476,547	-196,384	0,095	-0,000
-475,532	551,457	0,045	-0,080
-474,518	-200,000	-0,015	0,058
-473,503	-200,000	-0,004	0,046
-472,489	428,617	-0,025	-0,040
-471,474	-53,672	0,070	-0,023
-470,459	-112,516	0,075	0,011
-469,445	-200,000	-0,018	-0,207
-468,430	71,705	-0,012	-0,009
-467,416	-16,174	0,018	0,008
-466,401	-86,306	-0,032	-0,007
-465,386	44,430	-0,032	-0,022
-464,372	800,000	0,029	0,071
-463,357	-112,966	-0,105	0,015
-462,343	115,636	-0,007	0,006
-461,328	-200,000	0,017	-0,109
-460,313	350,626	0,015	0,021
-459,299	-45,046	0,016	0,006
-458,284	-16,356	-0,169	0,079
-457,270	-106,900	0,104	-0,017
-456,255	219,289	0,085	-0,100
-455,241	-149,148	-0,041	0,002
-454,226	-200,000	-0,025	0,114
-453,211	498,347	-0,067	-0,115
-452,197	-200,000	-0,013	0,068
-451,182	-200,000	0,001	-0,071
-450,168	800,000	0,044	-0,114
-449,153	-5,170	-0,136	0,069
-448,138	-4,624	-0,092	-0,046
-447,124	65,122	0,129	0,096
-446,109	-59,510	0,044	-0,014
-445,095	675,216	-0,018	-0,035
-444,080	356,901	0,079	0,116
-443,065	-200,000	0,003	0,136
-442,051	114,076	0,076	-0,068
-441,036	109,703	0,065	0,058
-440,022	-200,000	-0,002	-0,126
-439,007	-200,000	-0,015	-0,050
-437,992	-200,000	-0,021	0,148
-436,978	398,697	-0,045	-0,070
-435,963	606,338	0,095	0,175
-434,949	800,000	0,023	-0,062
-433,934	148,373	0,033	-0,033
-432,919	-117,078	-0,060	-0,008
-431,905	12,224	-0,132	-0,075
-430,890	230,416	0,059	0,071
-429,876	800,000	0,036	0,077
-428,861	800,000	-0,070	0,164
-427,846	123,548	-0,048	-0,044
-426,832	35,379	0,042	0,027
-425,817	-160,770	-0,109	0,004
-424,803	-200,000	-0,011	0,093
-423,788	800,000	-0,037	-0,117
-422,773	355,557	-0,052	0,076
-421,759	108,571	0,086	0,076
-420,744	-107,345	-0,153	0,024
-419,730	125,315	0,045	-0,041
-418,715	303,067	-0,082	-0,112
-417,701	-67,648	-0,119	-0,034
-416,686	800,000	0,028	0,089
-415,671	122,161	-0,064	0,059
-414,657	-149,201	0,076	0,004
-413,642	800,000	-0,045	0,118
-412,628	41,310	-0,025	-0,017
-411,613	160,992	-0,145	-0,149
-410,598	-39,677	-0,068	0,026
-409,584	-200,000	-0,016	-0,075
-408,569	105,925	0,111	0,097
-407,555	-162,491	0,093	0,003
-406,540	-200,000	0,000	-0,036
-405,525	225,422	0,077	0,092
-404,511	67,920	-0,044	-0,033
-403,496	-85,330	-0,048	-0,011
-402,482	269,823	0,055	-0,071
-401,467	-200,000	0,009	0,097
-400,452	156,885	0,065	0,066
-399,438	330,787	0,063	0,089
-398,423	-88,941	-0,060	0,013
-397,409	53,849	-0,104	-0,074
-396,394	800,000	-0,007	-0,019
-395,379	-200,000	-0,004	0,061
-394,365	800,000	0,027	-0,061
-393,350	800,000	-0,030	0,063
-392,336	-136,252	0,081	-0,007
-391,321	261,305	-0,030	-0,038
-390,306	201,799	0,039	-0,044
-389,292	-54,683	-0,080	0,027
-388,277	273,630	0,080	0,105
-387,263	71,970	0,016	0,012
-386,248	88,988	0,098	0,080
-385,233	305,699	0,048	-0,065
-384,219	78,732	0,083	-0,065
-383,204	147,611	0,041	-0,041
-382,190	-187,514	-0,066	0,001
-381,175	-12,590	0,109	-0,052
-380,160	-146,709	-0,124	0,008
-379,146	42,316	0,143	0,095
-378,131	134,615	0,029	-0,028
-377,117	-20,347	-0,118	-0,053
-376,102	128,859	-0,036	-0,034
-375,088	75,045	-0,131	-0,102
-374,073	-200,000	-0,009	-0,063
-373,058	-200,000	-0,003	-0,101
-372,044	-61,015	-0,063	0,019
-371,029	-57,772	-0,126	0,040
-370,015	-6,567	0,081	-0,040
-369,000	800,000	-0,028	0,060
-367,985	-200,000	-0,002	0,037
-366,971	-71,100	-0,164	-0,045
-365,956	264,540	-0,036	-0,046
-364,942	-200,000	0,044	-0,183
-363,927	459,573	-0,064	0,104
-362,912	-24,182	0,172	0,075
-361,898	-108,077	0,083	0,013
-360,883	-200,000	-0,009	-0,109
-359,869	-41,229	-0,024	-0,009
-358,854	-200,000	0,032	-0,117
-357,839	800,000	-0,100	-0,244
-356,825	195,094	-0,040	-0,045
-355,810	-200,000	0,014	0,079
-354,796	-200,000	-0,025	-0,100
-353,781	591,190	0,045	-0,083
-352,766	235,395	-0,072	-0,088
-351,752	176,810	0,041	0,044
-350,737	126,659	0,098	0,092
-349,723	-96,454	-0,127	-0,024
-348,708	-200,000	0,001	0,081
-347,693	-81,294	0,095	0,023
-346,679	239,730	-0,099	-0,122
-345,664	573,089	-0,017	0,030
-344,650	-153,408	-0,114	0,006
-343,635	615,544	0,038	-0,071
-342,620	-200,000	0,024	0,184
-341,606	34,587	0,032	0,020
-340,591	-62,594	0,079	0,024
-339,577	35,766	-0,070	-0,045
-338,562	154,058	0,120	-0,121
-337,548	718,123	-0,033	-0,065
-336,533	-26,928	-0,029	0,012
-335,518	-134,988	0,133	-0,012
-334,504	547,831	0,056	0,098
-333,489	-200,000	0,011	0,187
-332,475	-106,504	-0,043	-0,007
-331,460	45,864	-0,091	-0,061
-330,445	34,934	0,034	0,022
-329,431	-2,622	-0,043	-0,022
-328,416	92,651	0,099	-0,082
-327,402	753,846	0,079	0,157
-326,387	-155,186	0,051	-0,002
-325,372	-200,000	-0,018	-0,115
-324,358	-53,347	-0,112	0,037
-323,343	-200,000	-0,019	0,107
-322,329	-75,314	0,156	-0,041
-321,314	114,137	0,146	-0,130
-320,299	800,000	0,023	0,070
-319,285	331,139	-0,051	0,073
-318,270	800,000	0,044	-0,133
-317,256	-200,000	-0,018	-0,072
-316,241	800,000	-0,039	-0,109
-315,226	800,000	0,072	0,190
-314,212	-200,000	0,052	-0,172
-313,197	-130,495	0,047	-0,005
-312,183	36,460	0,100	0,064
-311,168	-200,000	-0,000	0,001
-310,153	800,000	-0,031	-0,073
-309,139	294,555	-0,069	-0,092
-308,124	53,323	0,064	-0,045
-307,110	193,789	0,095	0,105
-306,095	-200,000	0,011	-0,074
-305,080	666,476	0,044	-0,084
-304,066	-114,552	-0,122	0,017
-303,051	597,554	-0,075	0,136
-302,037	800,000	0,009	-0,026
-301,022	380,643	-0,046	0,069
-300,008	-106,026	0,021	-0,003
-298,993	-29,054	-0,029	-0,012
-297,978	-200,000	-0,016	0,103
-296,964	-189,245	-0,054	-0,000
-295,949	-200,000	0,021	0,068
-294,935	-71,853	-0,037	-0,010
-293,920	172,237	-0,025	0,027
-292,905	90,407	-0,090	0,074
-291,891	65,348	-0,022	0,016
-290,876	305,032	-0,021	0,029
-289,862	132,839	-0,044	0,042
-288,847	55,311	-0,053	0,037
-287,832	-200,000	-0,011	-0,099
-286,818	243,163	-0,045	0,055
-285,803	635,470	-0,014	-0,025
-284,789	21,084	0,077	-0,046
-283,774	-133,138	-0,075	0,007
-282,759	-200,000	0,000	-0,049
-281,745	-65,044	-0,051	0,015
-280,730	-148,529	-0,094	-0,006
-279,716	32,087	0,066	-0,042
-278,701	28,213	0,143	-0,088
-277,686	-200,000	-0,016	0,056
-276,672	84,072	-0,050	0,040
-275,657	318,192	-0,067	0,093
-274,643	-81,019	0,088	0,021
-273,628	316,031	0,065	0,090
-272,613	-200,000	-0,020	-0,089
-271,599	59,214	-0,046	-0,033
-270,584	-200,000	0,013	-0,052
-269,570	-139,081	0,041	0,003
-268,555	-118,393	-0,051	-0,007
-267,540	-1,157	-0,118	0,061
-266,526	-141,284	-0,086	-0,006
-265,511	251,827	-0,013	-0,016
-264,497	-200,000	0,045	0,152
-263,482	408,234	0,122	0,190
-262,467	-131,241	-0,195	-0,019
-261,453	23,584	0,044	0,027
-260,438	385,476	-0,024	0,037
-259,424	17,578	-0,048	0,028
-258,409	-61,361	0,024	0,007
-257,395	143,657	0,160	-0,156
-256,380	-7,504	-0,045	-0,022
-255,365	-71,488	0,134	0,036
-254,351	257,205	-0,032	0,040
-253,336	-31,950	0,054	-0,022
-252,322	-157,254	-0,054	0,002
-251,307	551,511	0,044	0,078
-250,292	694,471	-0,017	0,033
-249,278	44,493	0,091	0,061
-248,263	-28,262	-0,049	0,020
-247,249	-28,764	-0,046	-0,019
-246,234	-156,710	-0,078	-0,003
-245,219	66,878	0,075	-0,056
-244,205	800,000	0,066	-0,146
-243,190	-49,755	-0,105	0,036
-242,176	6,481	0,060	0,032
-241,161	-109,563	0,129	-0,020
-240,146	49,009	0,023	0,016
-239,132	83,837	0,048	0,039
-238,117	161,457	0,114	0,117
-237,103	83,721	-0,187	0,149
-236,088	-200,000	0,019	-0,132
-235,073	-116,456	0,149	-0,020
-234,059	473,650	-0,049	-0,080
-233,044	-200,000	0,022	0,093
-232,030	245,224	-0,036	0,044
-231,015	19,116	-0,128	0,075
-230,000	-76,916	-0,061	-0,016
-228,986	715,631	0,035	0,067
-227,971	-20,797	0,116	0,052
-226,957	91,121	-0,055	0,045
-225,942	534,071	0,103	0,179
-224,927	-200,000	-0,010	0,103
-223,913	-116,765	-0,060	-0,008
-222,898	800,000	-0,023	-0,056
-221,884	-79,697	-0,051	0,013
-220,869	800,000	-0,033	0,069
-219,855	226,436	0,040	0,047
-218,840	-50,518	0,047	-0,016
-217,825	800,000	-0,015	-0,038
-216,811	167,537	-0,015	-0,015
-215,796	-155,829	-0,172	0,008
-214,782	248,950	-0,072	-0,089
-213,767	800,000	-0,028	0,080
-212,752	-200,000	0,025	0,081
-211,738	398,158	0,031	0,048
-210,723	-74,987	0,028	0,007
-209,709	454,448	0,064	-0,103
-208,694	-83,280	0,144	-0,034
-207,679	141,239	0,021	-0,020
-206,665	-200,000	-0,003	0,095
-205,650	555,481	-0,089	0,158
-204,636	-109,018	0,095	0,015
-203,621	-200,000	0,025	0,131
-202,606	-184,527	0,044	0,001
-201,592	800,000	-0,011	-0,023
-200,577	14,298	0,066	-0,037
-199,563	800,000	0,012	0,029
-198,548	116,235	0,025	0,022
-197,533	-200,000	0,009	-0,085
-196,519	-108,992	-0,028	0,004
-195,504	-200,000	0,007	0,029
-194,490	375,518	-0,023	-0,034
-193,475	29,028	-0,054	-0,034
-192,460	-66,173	0,189	-0,054
-191,446	24,361	0,092	0,055
-190,431	777,851	0,038	0,076
-189,417	-200,000	-0,007	-0,042
-188,402	482,616	0,059	-0,098
-187,387	115,431	0,096	0,086
-186,373	800,000	-0,059	0,131
-185,358	-200,000	0,002	0,070
-184,344	95,029	0,068	-0,056
-183,329	-51,550	0,042	-0,014
-182,315	272,795	0,104	-0,135
-181,300	-200,000	0,005	-0,055
-180,285	-77,917	-0,073	0,018
-179,271	-200,000	0,019	0,092
-178,256	-185,373	0,116	0,001
-177,242	800,000	0,037	-0,078
-176,227	-200,000	-0,009	-0,053
-175,212	-139,529	0,097	-0,007
-174,198	-200,000	0,018	-0,149
-173,183	-75,369	-0,057	-0,015
-172,169	-47,614	-0,050	-0,018
-171,154	99,624	-0,061	-0,051
-170,139	-56,700	0,160	0,051
-169,125	-200,000	0,021	-0,093
-168,110	57,945	0,052	0,037
-167,096	-42,459	-0,032	-0,012
-166,081	800,000	0,069	-0,172
-165,066	349,573	-0,056	-0,081
-164,052	-200,000	0,007	0,090
-163,037	77,808	-0,079	0,061
-162,023	37,596	-0,117	0,075
-161,008	-200,000	0,021	0,072
-159,993	-47,821	-0,093	0,032
-158,979	522,512	0,030	0,052
-157,964	246,190	-0,071	-0,087
-156,950	-91,508	-0,101	0,021
-155,935	800,000	0,035	-0,085
-154,920	-200,000	-0,001	0,026
-153,906	-200,000	-0,003	-0,068
-152,891	-200,000	-0,019	-0,064
-151,877	800,000	-0,027	0,073
-150,862	439,190	0,018	0,028
-149,847	187,089	0,053	-0,057
-148,833	48,336	0,066	-0,045
-147,818	134,867	0,102	0,096
-146,804	21,528	0,047	-0,028
-145,789	800,000	0,052	0,148
-144,775	6,171	-0,024	-0,013
-143,760	800,000	-0,053	0,125
-142,745	88,207	0,112	-0,091
-141,731	213,188	0,066	0,076
-140,716	-200,000	-0,011	0,064
-139,702	800,000	0,046	0,140
-138,687	-46,713	0,069	0,025
-137,672	-6,180	0,109	0,054
-136,658	-186,811	-0,150	0,001
-135,643	-200,000	-0,010	0,071
-134,629	-200,000	0,013	-0,047
-133,614	-200,000	0,001	0,079
-132,599	-116,543	0,128	-0,017
-131,585	-5,762	0,088	0,044
-130,570	-125,222	-0,077	-0,008
-129,556	-86,494	-0,042	0,009
-128,541	282,102	0,028	-0,037
-127,526	95,065	0,046	-0,038
-126,512	-79,436	-0,165	0,040
-125,497	-200,000	-0,027	0,304
-124,483	-200,000	-0,015	0,137
-123,468	-30,292	-0,051	0,021
-122,453	560,686	-0,056	-0,098
-121,439	291,508	0,024	0,032
-120,424	-28,931	-0,124	-0,051
-119,410	-7,212	-0,060	0,029
