DTS Sentinel unit serial number:	SN410029Multiplexer serial number:	ORYXHardware model number:	OX2-SRSoftware version number:	ORYX F/W v4,00 Oryx Data Collector v3.7.2.0data status	okinstallation	B4 Nyhavnadifferential loss correction	single-endedforward channel	channel 2reverse channel	N/Adate	2023/12/15time	19:35:13forward acquisition time	300,00reverse acquisition time	0,00gamma	499,1914k internal	0,3138k external	0,3138temperature offset calibration	1,0000default loss term (dB/km)	0,3820temperature slope calibration	1,0000multiplexer offset coefficient	1,0000multiplexer slope coefficient	1,0000fibre end	0,00T internal ref (°C)	19,97T ext. ref 1 (°C)	5,58T ext. ref 2 (°C)	5,77length (m)	temperature (°C)	Stokes	anti-Stokes-744,400	-139,085	0,072	0,006
-743,385	-121,776	-0,285	-0,035
-742,371	25,004	0,152	0,093
-741,356	-24,268	-0,228	0,100
-740,342	-112,958	0,087	-0,013
-739,327	540,423	-0,106	0,188
-738,312	266,061	0,037	-0,048
-737,298	-101,241	-0,278	-0,050
-736,283	10,669	0,104	-0,059
-735,269	132,123	-0,120	0,115
-734,254	22,027	0,110	-0,066
-733,239	-55,012	-0,317	-0,105
-732,225	-57,954	0,047	0,015
-731,210	800,000	0,030	0,066
-730,196	800,000	0,017	0,045
-729,181	-200,000	0,007	0,099
-728,167	647,110	0,023	-0,043
-727,152	-92,470	0,073	0,015
-726,137	-17,939	0,040	-0,019
-725,123	-200,000	-0,006	-0,061
-724,108	-27,097	-0,129	-0,055
-723,094	-108,396	-0,126	0,020
-722,079	296,901	-0,054	-0,073
-721,064	618,730	0,044	-0,083
-720,050	-134,187	0,035	-0,003
-719,035	-114,803	-0,118	0,017
-718,021	-200,000	-0,030	0,189
-717,006	-173,502	-0,123	0,003
-715,991	-200,000	-0,008	-0,172
-714,977	162,650	-0,078	-0,081
-713,962	149,706	0,067	-0,067
-712,948	9,255	-0,173	-0,096
-711,933	800,000	-0,044	-0,129
-710,918	800,000	-0,023	-0,071
-709,904	-200,000	0,028	-0,128
-708,889	87,101	-0,017	-0,014
-707,875	-101,075	-0,048	0,009
-706,860	800,000	-0,002	0,006
-705,845	-42,403	0,106	-0,040
-704,831	800,000	0,034	-0,103
-703,816	-200,000	-0,028	-0,106
-702,802	-200,000	-0,002	0,025
-701,787	-171,458	-0,101	0,002
-700,772	37,404	-0,042	0,027
-699,758	121,720	-0,062	-0,058
-698,743	-112,136	-0,051	-0,008
-697,729	-200,000	0,027	0,131
-696,714	18,324	-0,127	-0,075
-695,699	-129,958	0,130	0,013
-694,685	-200,000	-0,018	-0,180
-693,670	-88,814	0,041	0,009
-692,656	25,164	-0,064	-0,039
-691,641	-200,000	-0,014	0,084
-690,627	104,190	-0,030	0,026
-689,612	-200,000	0,027	-0,090
-688,597	-200,000	0,031	0,103
-687,583	-200,000	-0,022	-0,151
-686,568	800,000	0,030	0,076
-685,554	-37,420	0,097	-0,038
-684,539	211,578	0,074	0,086
-683,524	145,477	0,039	0,039
-682,510	-200,000	-0,015	-0,059
-681,495	800,000	0,025	0,070
-680,481	-156,736	-0,152	-0,007
-679,466	-200,000	-0,015	-0,092
-678,451	800,000	-0,040	-0,102
-677,437	70,820	0,100	-0,077
-676,422	64,995	-0,073	-0,055
-675,408	-200,000	0,005	-0,024
-674,393	-200,000	0,003	-0,110
-673,378	35,145	0,010	-0,006
-672,364	29,523	-0,080	-0,050
-671,349	30,953	-0,105	-0,066
-670,335	800,000	0,035	-0,114
-669,320	-105,444	0,243	-0,040
-668,305	-200,000	-0,039	-0,144
-667,291	18,018	-0,043	0,025
-666,276	-2,140	0,059	0,031
-665,262	-91,961	0,120	-0,025
-664,247	-188,871	-0,087	-0,001
-663,232	368,497	-0,117	-0,176
-662,218	-41,882	-0,046	0,017
-661,203	73,282	0,096	-0,074
-660,189	-200,000	-0,031	-0,145
-659,174	786,485	-0,037	-0,076
-658,159	-141,737	-0,028	0,002
-657,145	-173,720	0,113	-0,002
-656,130	-200,000	0,004	-0,129
-655,116	-200,000	0,007	0,062
-654,101	800,000	-0,041	-0,085
-653,086	47,110	0,031	0,022
-652,072	128,263	-0,128	-0,120
-651,057	-59,671	0,061	-0,019
-650,043	125,487	-0,052	-0,049
-649,028	800,000	-0,026	0,061
-648,014	800,000	-0,031	0,083
-646,999	800,000	0,026	0,079
-645,984	53,603	0,078	0,055
-644,970	-25,605	-0,213	0,092
-643,955	-95,793	-0,056	0,011
-642,941	800,000	0,026	-0,081
-641,926	321,067	-0,082	0,116
-640,911	70,798	0,080	0,061
-639,897	61,062	-0,072	-0,053
-638,882	-23,723	-0,079	0,035
-637,868	-112,217	0,091	-0,013
-636,853	70,991	-0,117	-0,089
-635,838	-200,000	0,026	-0,176
-634,824	-37,027	-0,105	-0,041
-633,809	-200,000	-0,001	0,055
-632,795	-46,640	0,146	-0,052
-631,780	-137,232	-0,073	0,006
-630,765	-12,101	0,016	0,008
-629,751	-101,500	-0,104	-0,019
-628,736	-200,000	-0,054	-0,193
-627,722	-126,663	0,142	0,015
-626,707	800,000	0,054	-0,158
-625,692	271,899	0,059	0,077
-624,678	-200,000	-0,010	0,105
-623,663	26,878	0,044	0,027
-622,649	11,144	-0,116	0,065
-621,634	384,510	-0,059	-0,090
-620,619	800,000	-0,026	-0,084
-619,605	-200,000	0,001	0,151
-618,590	-100,468	-0,073	0,013
-617,576	142,980	-0,137	0,135
-616,561	62,510	0,090	-0,066
-615,546	-26,828	0,062	0,027
-614,532	-136,447	0,034	-0,003
-613,517	800,000	0,027	-0,066
-612,503	-160,447	-0,121	-0,005
-611,488	800,000	0,050	-0,104
-610,474	800,000	0,017	-0,038
-609,459	22,160	-0,070	0,042
-608,444	800,000	-0,069	-0,141
-607,430	553,894	-0,034	0,060
-606,415	-19,843	-0,058	0,027
-605,401	-200,000	0,010	-0,039
-604,386	-25,219	0,138	0,060
-603,371	-200,000	-0,032	0,114
-602,357	-199,021	-0,098	-0,000
-601,342	656,991	0,018	-0,035
-600,328	-200,000	-0,010	-0,082
-599,313	800,000	-0,014	-0,036
-598,298	-200,000	-0,002	-0,037
-597,284	-200,000	0,006	-0,065
-596,269	-128,441	0,108	0,011
-595,255	591,477	-0,062	-0,114
-594,240	90,078	-0,064	-0,053
-593,225	800,000	0,014	-0,044
-592,211	62,707	-0,060	-0,044
-591,196	-117,970	-0,063	-0,008
-590,182	-108,549	0,069	0,011
-589,167	-20,851	0,195	0,088
-588,152	-200,000	0,020	0,154
-587,138	51,795	-0,028	0,019
-586,123	-200,000	0,008	-0,102
-585,109	-113,546	-0,104	-0,015
-584,094	-36,622	0,068	-0,027
-583,079	223,374	0,058	0,070
-582,065	197,350	0,136	0,154
-581,050	29,419	0,087	0,055
-580,036	21,437	0,071	0,043
-579,021	-91,539	0,089	-0,019
-578,006	-54,913	-0,090	0,030
-576,992	800,000	0,029	0,074
-575,977	-200,000	-0,013	0,145
-574,963	336,590	0,039	0,056
-573,948	-200,000	0,005	-0,043
-572,934	-200,000	-0,027	0,093
-571,919	368,412	0,033	-0,049
-570,904	-100,598	-0,134	-0,024
-569,890	-200,000	-0,002	0,145
-568,875	-56,758	-0,079	0,026
-567,861	117,754	-0,042	0,038
-566,846	90,388	-0,107	0,088
-565,831	-200,000	-0,012	-0,064
-564,817	13,242	-0,093	0,053
-563,802	-123,087	-0,036	-0,004
-562,788	93,275	-0,106	-0,088
-561,773	800,000	0,016	-0,044
-560,758	83,468	-0,077	0,062
-559,744	800,000	0,025	0,065
-558,729	250,620	-0,047	-0,058
-557,715	-126,243	0,015	0,002
-556,700	179,857	0,124	-0,134
-555,685	301,784	-0,110	-0,150
-554,671	93,323	-0,119	-0,099
-553,656	-200,000	-0,004	-0,034
-552,642	297,704	0,077	-0,104
-551,627	-142,938	-0,139	0,010
-550,612	-28,971	-0,047	0,020
-549,598	-200,000	-0,011	-0,143
-548,583	442,253	0,034	-0,055
-547,569	-200,000	0,029	0,125
-546,554	-200,000	0,016	0,125
-545,539	9,081	0,157	0,087
-544,525	800,000	-0,068	-0,142
-543,510	121,292	0,049	-0,045
-542,496	800,000	0,027	-0,064
-541,481	195,022	-0,012	-0,013
-540,466	-158,839	0,011	-0,000
-539,452	147,688	0,071	0,071
-538,437	179,399	-0,061	0,066
-537,423	-166,875	0,013	-0,000
-536,408	118,783	0,147	0,134
-535,393	615,293	0,017	-0,032
-534,379	-200,000	-0,036	-0,133
-533,364	800,000	0,027	0,081
-532,350	-200,000	0,008	-0,034
-531,335	9,350	-0,085	0,047
-530,321	-200,000	-0,002	-0,015
-529,306	-200,000	-0,007	0,024
-528,291	461,256	-0,011	0,018
-527,277	-170,722	-0,167	0,004
-526,262	-13,165	-0,069	0,033
-525,248	-200,000	-0,009	-0,097
-524,233	-200,000	0,007	0,031
-523,218	-30,400	-0,164	-0,068
-522,204	403,419	0,086	0,133
-521,189	89,415	0,063	0,052
-520,175	-200,000	0,002	0,045
-519,160	-200,000	-0,005	-0,136
-518,145	-114,565	-0,056	-0,008
-517,131	171,175	-0,068	-0,071
-516,116	237,124	0,155	0,190
-515,102	-200,000	0,041	0,268
-514,087	71,614	-0,145	-0,110
-513,072	-200,000	0,023	-0,100
-512,058	-14,519	0,083	-0,039
-511,043	14,447	-0,097	-0,055
-510,029	800,000	0,030	0,064
-509,014	800,000	-0,026	0,065
-507,999	-5,774	-0,076	0,038
-506,985	-129,976	-0,060	0,006
-505,970	726,596	-0,111	-0,219
-504,956	-200,000	-0,023	-0,194
-503,941	-200,000	-0,023	-0,113
-502,926	326,267	0,093	0,132
-501,912	-200,000	-0,005	0,102
-500,897	-200,000	0,031	0,135
-499,883	39,554	0,087	-0,057
-498,868	-200,000	-0,005	-0,086
-497,853	800,000	0,045	-0,134
-496,839	-39,743	0,024	0,009
-495,824	179,824	0,076	-0,081
-494,810	-200,000	-0,014	0,086
-493,795	136,251	0,072	0,069
-492,781	-34,608	-0,044	-0,018
-491,766	-100,416	-0,085	0,015
-490,751	-50,163	-0,084	-0,029
-489,737	-138,994	-0,043	0,003
-488,722	671,339	-0,041	-0,079
-487,708	-73,393	0,126	0,034
-486,693	130,001	0,056	-0,053
-485,678	248,674	-0,061	-0,076
-484,664	800,000	-0,029	-0,085
-483,649	-63,485	-0,175	-0,052
-482,635	-200,000	-0,018	-0,088
-481,620	-200,000	-0,002	-0,090
-480,605	-35,483	0,058	-0,023
-479,591	-43,309	0,085	-0,031
-478,576	-18,961	-0,059	0,027
-477,562	606,453	-0,072	0,132
-476,547	450,010	0,031	-0,051
-475,532	-106,245	-0,050	0,008
-474,518	-200,000	-0,001	0,070
-473,503	122,476	0,076	0,070
-472,489	800,000	0,047	0,145
-471,474	153,613	0,059	-0,059
-470,459	-121,095	-0,090	0,011
-469,445	-75,124	0,029	-0,008
-468,430	107,060	-0,057	-0,050
-467,416	-68,825	0,101	-0,029
-466,401	212,287	0,121	0,140
-465,386	-200,000	0,001	0,133
-464,372	-200,000	-0,003	0,048
-463,357	-153,978	-0,200	0,010
-462,343	357,866	-0,055	-0,081
-461,328	-200,000	0,016	-0,057
-460,313	-200,000	0,002	0,008
-459,299	11,750	0,179	0,100
-458,284	-137,711	0,114	-0,009
-457,270	138,528	0,094	0,090
-456,255	431,111	-0,101	0,160
-455,241	71,675	0,094	-0,071
-454,226	4,764	-0,074	0,040
-453,211	-200,000	-0,009	0,148
-452,197	-200,000	-0,003	-0,103
-451,182	511,248	0,060	0,103
-450,168	91,869	0,089	0,073
-449,153	119,523	0,088	-0,080
-448,138	-200,000	-0,011	-0,056
-447,124	454,062	0,035	0,058
-446,109	-148,778	-0,038	-0,002
-445,095	77,824	0,054	-0,043
-444,080	164,245	0,022	0,023
-443,065	800,000	0,054	0,143
-442,051	-200,000	0,036	0,128
-441,036	-22,954	-0,075	0,033
-440,022	-200,000	0,027	-0,133
-439,007	261,826	-0,012	0,016
-437,992	341,587	0,031	-0,045
-436,978	268,789	0,069	-0,089
-435,963	290,355	-0,078	0,104
-434,949	-200,000	0,006	0,099
-433,934	313,651	0,028	0,038
-432,919	-200,000	-0,006	-0,046
-431,905	800,000	0,029	-0,087
-430,890	-96,876	0,147	0,028
-429,876	591,045	-0,060	-0,110
-428,861	618,025	-0,043	0,079
-427,846	158,842	0,035	0,035
-426,832	800,000	-0,043	-0,107
-425,817	-86,863	-0,179	-0,040
-424,803	800,000	-0,016	0,049
-423,788	51,336	0,020	-0,014
-422,773	27,350	-0,023	0,014
-421,759	-130,963	0,065	-0,006
-420,744	-200,000	-0,010	0,056
-419,730	85,444	-0,033	-0,027
-418,715	295,961	0,061	-0,082
-417,701	43,989	-0,064	-0,043
-416,686	41,210	0,052	0,034
-415,671	-104,770	0,177	0,030
-414,657	-200,000	-0,010	0,150
-413,642	-106,053	-0,132	-0,022
-412,628	-200,000	-0,008	-0,099
-411,613	-200,000	0,005	-0,098
-410,598	88,299	0,088	0,071
-409,584	-106,239	0,066	-0,011
-408,569	360,300	0,029	-0,042
-407,555	449,963	0,077	0,125
-406,540	228,076	-0,040	0,048
-405,525	800,000	-0,014	0,040
-404,511	125,755	-0,062	-0,058
-403,496	-166,885	-0,156	0,005
-402,482	188,363	0,080	0,088
-401,467	51,832	0,099	-0,069
-400,452	800,000	0,045	0,096
-399,438	154,114	-0,020	0,020
-398,423	-200,000	0,036	0,134
-397,409	-88,289	-0,103	0,022
-396,394	455,728	-0,036	-0,058
-395,379	-105,103	-0,088	0,015
-394,365	483,307	-0,036	0,060
-393,350	-200,000	-0,002	-0,024
-392,336	-72,263	0,199	0,054
-391,321	42,666	0,078	-0,052
-390,306	165,246	-0,104	-0,108
-389,292	-184,859	0,215	-0,002
-388,277	400,210	0,040	-0,062
-387,263	-200,000	-0,006	0,078
-386,248	31,113	0,226	-0,141
-385,233	74,944	-0,018	0,014
-384,219	-60,012	0,094	-0,029
-383,204	50,809	-0,090	-0,063
-382,190	-87,605	0,033	0,007
-381,175	-200,000	-0,035	-0,126
-380,160	-200,000	-0,016	0,100
-379,146	-200,000	-0,009	0,135
-378,131	800,000	-0,033	0,090
-377,117	340,899	-0,070	0,100
-376,102	800,000	-0,034	-0,103
-375,088	55,816	-0,152	-0,108
-374,073	-25,788	0,085	-0,037
-373,058	-71,919	0,198	-0,054
-372,044	-32,969	-0,071	-0,029
-371,029	209,175	0,105	0,121
-370,015	-200,000	0,042	-0,153
-369,000	7,248	0,035	0,019
-367,985	-78,495	0,012	0,003
-366,971	25,402	-0,066	-0,040
-365,956	-39,418	0,042	0,016
-364,942	24,538	0,138	0,083
-363,927	492,046	0,040	0,067
-362,912	330,864	0,086	0,121
-361,898	-200,000	0,036	-0,148
-360,883	98,589	0,048	-0,040
-359,869	-107,647	0,079	0,013
-358,854	67,329	-0,030	-0,022
-357,839	-98,580	-0,116	-0,021
-356,825	-200,000	-0,002	0,014
-355,810	388,830	-0,014	-0,022
-354,796	11,069	0,116	-0,065
-353,781	-157,902	-0,160	0,007
-352,766	-200,000	0,015	0,071
-351,752	43,327	-0,079	-0,052
-350,737	129,558	0,106	-0,099
-349,723	83,809	0,110	0,087
-348,708	142,811	-0,031	-0,030
-347,693	-200,000	-0,016	-0,066
-346,679	45,531	0,136	-0,091
-345,664	-44,794	0,013	0,005
-344,650	-185,679	0,066	-0,001
-343,635	621,885	0,117	0,216
-342,620	-35,559	-0,085	-0,034
-341,606	-200,000	0,001	0,058
-340,591	145,664	-0,120	-0,117
-339,577	-70,096	0,204	0,056
-338,562	-200,000	0,004	0,055
-337,548	725,888	0,015	-0,030
-336,533	19,576	0,108	-0,064
-335,518	800,000	0,022	0,057
-334,504	124,171	0,101	0,093
-333,489	-39,556	-0,020	-0,007
-332,475	-8,439	0,175	-0,086
-331,460	-200,000	0,002	-0,152
-330,445	-200,000	-0,005	0,074
-329,431	34,765	0,058	0,037
-328,416	-200,000	0,001	0,019
-327,402	61,812	0,040	-0,029
-326,387	-200,000	0,011	-0,109
-325,372	800,000	-0,018	-0,043
-324,358	-125,183	0,102	-0,011
-323,343	-200,000	-0,011	0,141
-322,329	-200,000	-0,022	0,101
-321,314	-200,000	0,007	0,023
-320,299	21,294	0,057	-0,034
-319,285	128,017	-0,043	0,040
-318,270	-7,810	0,092	-0,045
-317,256	286,760	-0,063	-0,084
-316,241	312,340	-0,074	-0,101
-315,226	113,567	-0,024	0,021
-314,212	-72,503	0,087	-0,023
-313,197	-200,000	-0,012	-0,099
-312,183	240,942	-0,047	0,057
-311,168	-200,000	-0,046	-0,166
-310,153	-49,603	-0,129	0,045
-309,139	514,772	0,031	-0,052
-308,124	-85,900	-0,181	0,041
-307,110	-61,787	0,027	0,008
-306,095	-115,249	0,062	-0,008
-305,080	-200,000	-0,027	0,148
-304,066	41,634	-0,093	0,062
-303,051	171,597	0,028	-0,029
-302,037	-200,000	0,021	-0,098
-301,022	800,000	-0,003	0,010
-300,008	-100,570	-0,078	-0,014
-298,993	170,689	-0,073	-0,076
-297,978	-200,000	-0,004	-0,155
-296,964	62,273	0,053	-0,039
-295,949	-200,000	-0,010	-0,139
-294,935	-33,049	-0,094	0,038
-293,920	800,000	0,018	-0,056
-292,905	627,724	0,031	-0,057
-291,891	58,927	0,061	0,044
-290,876	-82,065	-0,077	0,018
-289,862	61,277	-0,028	-0,020
-288,847	240,241	0,057	-0,070
-287,832	252,207	-0,019	0,024
-286,818	616,686	0,011	-0,020
-285,803	5,241	-0,136	0,073
-284,789	24,668	0,055	0,033
-283,774	-200,000	-0,008	-0,048
-282,759	126,098	-0,057	0,053
-281,745	282,219	0,049	-0,064
-280,730	127,207	0,045	0,042
-279,716	66,469	-0,063	0,047
-278,701	-84,280	0,033	-0,007
-277,686	792,525	-0,026	0,053
-276,672	-200,000	-0,017	-0,068
-275,657	48,800	-0,108	-0,074
-274,643	-24,674	-0,122	0,053
-273,628	-156,309	-0,057	0,003
-272,613	-200,000	-0,038	0,135
-271,599	87,591	0,024	-0,020
-270,584	140,820	-0,124	0,119
-269,570	186,172	-0,099	0,108
-268,555	11,946	-0,097	-0,054
-267,540	99,458	0,115	-0,097
-266,526	-200,000	0,026	-0,091
-265,511	41,326	0,118	-0,078
-264,497	800,000	0,024	-0,058
-263,482	-52,247	0,113	0,038
-262,467	525,893	0,043	0,075
-261,453	68,501	0,079	0,059
-260,438	-200,000	-0,001	-0,018
-259,424	396,929	0,055	-0,084
-258,409	-59,904	-0,074	0,023
-257,395	-200,000	-0,002	0,015
-256,380	-200,000	0,007	-0,038
-255,365	144,617	0,080	-0,078
-254,351	-64,825	-0,051	0,015
-253,336	370,851	0,059	-0,087
-252,322	-200,000	0,042	-0,155
-251,307	55,140	-0,062	-0,043
-250,292	-31,794	-0,050	-0,020
-249,278	29,985	-0,044	0,027
-248,263	-137,875	-0,048	0,004
-247,249	480,396	0,020	0,034
-246,234	800,000	0,011	-0,034
-245,219	192,385	0,085	0,093
-244,205	-66,541	-0,028	0,008
-243,190	800,000	0,050	-0,141
-242,176	-200,000	0,006	0,061
-241,161	77,264	0,038	0,030
-240,146	-79,723	0,030	-0,007
-239,132	-200,000	-0,001	-0,061
-238,117	-200,000	0,033	-0,176
-237,103	800,000	-0,041	0,085
-236,088	800,000	-0,059	0,140
-235,073	-200,000	-0,016	-0,151
-234,059	-200,000	0,052	0,223
-233,044	-69,047	-0,139	0,039
-232,030	-48,763	-0,129	0,045
-231,015	-200,000	-0,022	-0,158
-230,000	-200,000	0,033	-0,139
-228,986	133,369	-0,084	0,079
-227,971	800,000	0,022	-0,065
-226,957	-200,000	0,001	0,125
-225,942	-91,442	-0,080	0,016
-224,927	-200,000	-0,020	0,140
-223,913	-31,944	-0,148	0,060
-222,898	-200,000	0,007	-0,056
-221,884	197,801	-0,057	-0,064
-220,869	-153,840	0,127	0,006
-219,855	385,454	0,069	-0,104
-218,840	800,000	0,051	0,109
-217,825	287,709	-0,034	0,045
-216,811	298,141	0,023	-0,030
-215,796	58,542	-0,121	-0,086
-214,782	-200,000	-0,012	-0,089
-213,767	279,914	0,015	-0,019
-212,752	384,417	0,048	0,072
-211,738	-102,807	0,061	-0,010
-210,723	57,567	0,011	-0,008
-209,709	89,950	-0,120	0,097
-208,694	-125,283	-0,085	0,009
-207,679	-200,000	0,010	-0,094
-206,665	-200,000	-0,006	0,100
-205,650	-200,000	0,013	0,069
-204,636	800,000	0,026	0,064
-203,621	623,210	0,027	-0,049
-202,606	-1,452	-0,047	0,024
-201,592	800,000	-0,042	-0,107
-200,577	12,335	0,043	0,024
-199,563	775,267	-0,053	-0,106
-198,548	160,163	-0,048	-0,048
-197,533	4,410	-0,033	-0,017
-196,519	-65,243	0,024	-0,007
-195,504	430,375	-0,057	-0,090
-194,490	800,000	0,029	-0,078
-193,475	100,348	-0,068	0,057
-192,460	-200,000	0,030	0,130
-191,446	-200,000	0,015	-0,136
-190,431	76,575	0,178	0,137
-189,417	-84,372	0,120	0,027
-188,402	-63,448	0,116	-0,035
-187,387	607,333	-0,055	0,100
-186,373	664,377	-0,038	0,072
-185,358	-11,995	-0,036	0,017
-184,344	387,020	0,065	0,098
-183,329	537,383	-0,065	0,113
-182,315	-117,700	-0,092	0,012
-181,300	6,089	0,007	-0,004
-180,285	800,000	0,022	-0,060
-179,271	339,284	-0,059	-0,084
-178,256	-104,373	-0,128	0,021
-177,242	196,072	0,115	0,127
-176,227	1,522	-0,035	-0,018
-175,212	323,598	-0,031	-0,042
-174,198	-75,666	0,100	0,026
-173,183	-200,000	-0,011	-0,052
-172,169	-200,000	-0,011	-0,097
-171,154	375,947	-0,047	-0,069
-170,139	130,275	-0,046	0,043
-169,125	-106,733	-0,060	0,010
-168,110	65,349	0,102	0,075
-167,096	800,000	0,003	-0,006
-166,081	-200,000	0,040	0,175
-165,066	-26,909	-0,046	-0,019
-164,052	-87,418	-0,049	0,011
-163,037	-200,000	0,015	-0,100
-162,023	346,194	-0,075	0,107
-161,008	25,865	0,165	0,100
-159,993	-129,064	-0,087	-0,009
-158,979	152,448	-0,124	-0,123
-157,964	-200,000	-0,007	0,068
-156,950	800,000	-0,018	0,039
-155,935	392,562	0,055	0,083
-154,920	-114,494	0,166	-0,023
-153,906	-63,177	-0,066	0,019
-152,891	-117,619	0,056	-0,007
-151,877	-150,273	0,066	-0,004
-150,862	-200,000	0,052	-0,198
-149,847	-200,000	-0,023	-0,142
-148,833	47,366	-0,057	0,038
-147,818	684,031	-0,043	0,081
-146,804	-100,271	-0,042	0,008
-145,789	-200,000	-0,007	0,140
-144,775	90,912	-0,083	0,067
-143,760	675,488	0,053	0,100
-142,745	73,554	-0,025	0,019
-141,731	-200,000	0,003	0,045
-140,716	189,359	0,023	0,025
-139,702	134,909	0,092	0,087
-138,687	618,893	-0,016	-0,030
-137,672	-168,691	-0,191	-0,005
-136,658	110,078	-0,004	-0,004
-135,643	20,783	0,044	-0,026
-134,629	181,813	0,064	0,069
-133,614	50,749	0,100	-0,068
-132,599	307,083	0,096	-0,130
-131,585	54,174	0,115	0,080
-130,570	143,987	-0,079	-0,076
-129,556	571,893	-0,052	-0,093
-128,541	800,000	-0,042	-0,109
-127,526	352,753	-0,040	-0,057
-126,512	-78,774	0,049	0,012
-125,497	73,386	0,047	0,036
-124,483	568,362	0,067	0,118
-123,468	745,392	-0,038	0,075
-122,453	800,000	-0,027	-0,071
-121,439	800,000	0,012	-0,030
-120,424	800,000	0,032	0,066
-119,410	-6,900	0,036	-0,018
