DTS Sentinel unit serial number:	SN410029Multiplexer serial number:	ORYXHardware model number:	OX2-SRSoftware version number:	ORYX F/W v4,00 Oryx Data Collector v3.7.2.0data status	okinstallation	B4 Nyhavnadifferential loss correction	single-endedforward channel	channel 2reverse channel	N/Adate	2023/12/16time	12:50:13forward acquisition time	300,00reverse acquisition time	0,00gamma	499,1914k internal	0,3126k external	0,3126temperature offset calibration	1,0000default loss term (dB/km)	0,3820temperature slope calibration	1,0000multiplexer offset coefficient	1,0000multiplexer slope coefficient	1,0000fibre end	0,00T internal ref (°C)	24,30T ext. ref 1 (°C)	10,66T ext. ref 2 (°C)	10,79length (m)	temperature (°C)	Stokes	anti-Stokes-744,400	-200,000	-0,030	-0,131
-743,385	0,905	-0,258	0,137
-742,371	-81,544	-0,030	-0,007
-741,356	453,008	-0,098	0,162
-740,342	423,176	-0,014	0,023
-739,327	350,579	-0,065	0,096
-738,312	-59,285	-0,121	-0,038
-737,298	82,348	-0,143	0,115
-736,283	274,277	-0,045	-0,060
-735,269	770,922	-0,105	0,213
-734,254	800,000	-0,011	-0,034
-733,239	-79,196	-0,253	-0,063
-732,225	-200,000	0,006	-0,023
-731,210	-72,870	-0,053	-0,014
-730,196	153,535	0,011	-0,011
-729,181	78,991	-0,048	0,038
-728,167	17,002	-0,059	0,035
-727,152	-16,092	-0,104	-0,049
-726,137	35,984	-0,130	-0,085
-725,123	214,101	-0,023	0,027
-724,108	-10,467	0,070	-0,034
-723,094	-200,000	-0,005	-0,151
-722,079	11,552	0,012	-0,007
-721,064	0,927	-0,004	0,002
-720,050	-15,687	-0,044	-0,021
-719,035	800,000	0,028	-0,076
-718,021	-200,000	0,021	0,071
-717,006	-61,920	-0,040	-0,013
-715,991	-42,794	-0,151	-0,057
-714,977	-200,000	0,026	-0,114
-713,962	33,626	-0,140	-0,090
-712,948	460,369	-0,033	0,055
-711,933	-113,795	0,077	-0,011
-710,918	-200,000	0,005	0,065
-709,904	233,070	-0,048	0,059
-708,889	11,372	-0,019	0,011
-707,875	-30,281	-0,115	-0,049
-706,860	249,719	0,103	0,130
-705,845	800,000	0,042	-0,093
-704,831	-200,000	-0,023	0,175
-703,816	356,043	-0,013	0,019
-702,802	-200,000	-0,005	-0,118
-701,787	800,000	-0,116	-0,257
-700,772	-200,000	-0,039	-0,138
-699,758	119,751	-0,071	0,066
-698,743	646,660	0,045	-0,086
-697,729	48,596	0,051	-0,035
-696,714	-102,699	0,052	0,009
-695,699	800,000	0,019	-0,046
-694,685	30,998	-0,101	-0,064
-693,670	116,712	-0,051	-0,047
-692,656	800,000	-0,014	-0,042
-691,641	-200,000	-0,027	0,103
-690,627	88,526	0,034	0,028
-689,612	800,000	-0,028	-0,059
-688,597	-91,133	-0,030	-0,006
-687,583	121,759	-0,041	-0,038
-686,568	-7,583	-0,068	-0,034
-685,554	597,892	0,004	-0,007
-684,539	170,353	0,046	-0,049
-683,524	-15,255	-0,182	0,086
-682,510	-106,332	0,037	0,006
-681,495	-200,000	-0,012	-0,057
-680,481	-95,821	-0,101	-0,020
-679,466	121,259	-0,091	-0,084
-678,451	782,230	0,036	0,074
-677,437	308,069	-0,027	0,037
-676,422	75,503	0,064	-0,051
-675,408	-123,753	0,114	-0,013
-674,393	-200,000	0,004	-0,126
-673,378	233,269	-0,109	-0,134
-672,364	385,048	-0,112	-0,172
-671,349	37,938	-0,054	0,036
-670,335	-99,562	0,046	0,009
-669,320	-200,000	0,019	-0,136
-668,305	491,221	0,070	0,119
-667,291	-157,106	0,043	-0,002
-666,276	-127,996	0,023	-0,002
-665,262	-200,000	-0,001	0,043
-664,247	-200,000	0,015	-0,056
-663,232	-200,000	-0,033	-0,202
-662,218	-200,000	-0,002	-0,015
-661,203	-174,342	-0,101	-0,002
-660,189	144,473	-0,047	0,047
-659,174	-100,224	0,082	-0,015
-658,159	32,670	-0,065	-0,042
-657,145	800,000	0,080	-0,166
-656,130	-200,000	-0,004	-0,040
-655,116	216,584	0,113	0,134
-654,101	-53,890	-0,132	0,044
-653,086	327,100	0,033	0,047
-652,072	-200,000	-0,018	-0,080
-651,057	54,468	-0,112	-0,080
-650,043	-111,202	-0,129	-0,019
-649,028	541,130	0,071	0,126
-648,014	-200,000	-0,005	0,194
-646,999	-163,234	0,165	0,006
-645,984	-9,741	0,119	0,058
-644,970	-200,000	0,030	-0,122
-643,955	214,059	-0,104	-0,122
-642,941	-51,547	-0,074	-0,025
-641,926	77,154	-0,082	-0,064
-640,911	-22,277	0,074	0,033
-639,897	-200,000	-0,012	0,182
-638,882	-200,000	0,010	0,042
-637,868	-23,806	-0,024	-0,011
-636,853	-200,000	-0,017	-0,071
-635,838	-4,965	0,087	-0,044
-634,824	233,297	0,049	-0,060
-633,809	254,282	0,073	0,092
-632,795	130,919	-0,045	0,043
-631,780	800,000	-0,026	-0,056
-630,765	800,000	0,010	-0,027
-629,751	-108,973	-0,136	0,021
-628,736	22,631	0,094	-0,057
-627,722	-110,125	-0,116	0,018
-626,707	434,552	0,076	-0,123
-625,692	800,000	0,028	-0,092
-624,678	274,899	-0,031	-0,041
-623,663	20,036	-0,128	-0,076
-622,649	-83,333	-0,109	-0,026
-621,634	-83,115	-0,093	-0,022
-620,619	-29,528	-0,075	0,032
-619,605	-200,000	0,017	0,080
-618,590	5,260	-0,036	-0,020
-617,576	448,084	-0,045	0,074
-616,561	-200,000	0,015	0,192
-615,546	-200,000	-0,000	-0,011
-614,532	448,278	-0,050	-0,082
-613,517	800,000	0,041	0,121
-612,503	-200,000	0,008	0,050
-611,488	749,072	0,070	0,141
-610,474	-70,211	-0,055	0,015
-609,459	-200,000	-0,001	-0,040
-608,444	56,559	0,085	-0,062
-607,430	46,919	-0,116	-0,080
-606,415	61,162	0,041	0,030
-605,401	10,173	0,059	-0,033
-604,386	-72,165	-0,033	-0,009
-603,371	288,720	0,067	0,090
-602,357	-42,448	-0,117	0,044
-601,342	184,890	-0,092	0,101
-600,328	296,035	-0,063	-0,086
-599,313	-16,545	0,030	0,014
-598,298	800,000	-0,044	0,095
-597,284	117,202	0,067	0,061
-596,269	146,772	0,055	0,055
-595,255	283,989	-0,082	-0,109
-594,240	-66,358	0,099	-0,029
-593,225	-104,053	-0,152	-0,026
-592,211	399,294	-0,014	0,022
-591,196	800,000	0,041	0,098
-590,182	36,514	-0,059	-0,038
-589,167	-200,000	0,009	0,068
-588,152	-200,000	0,019	0,067
-587,138	800,000	0,014	0,034
-586,123	-93,576	-0,090	0,018
-585,109	95,729	-0,058	-0,049
-584,094	581,824	-0,083	-0,151
-583,079	-75,204	-0,137	0,036
-582,065	76,455	0,020	0,016
-581,050	-85,798	-0,027	0,006
-580,036	-14,890	-0,096	-0,045
-579,021	355,910	0,048	-0,070
-578,006	800,000	0,056	-0,150
-576,992	-200,000	-0,009	0,043
-575,977	-1,003	0,097	0,051
-574,963	-200,000	0,000	0,045
-573,948	190,373	-0,098	-0,109
-572,934	83,662	-0,040	0,033
-571,919	318,351	0,089	-0,125
-570,904	398,359	-0,074	-0,115
-569,890	-200,000	0,004	-0,068
-568,875	-200,000	0,053	-0,237
-567,861	-200,000	0,018	-0,060
-566,846	50,173	-0,162	0,113
-565,831	-200,000	0,030	0,144
-564,817	312,178	0,025	0,035
-563,802	-102,126	-0,071	-0,013
-562,788	64,150	-0,075	0,056
-561,773	-200,000	-0,003	0,024
-560,758	99,044	0,033	-0,029
-559,744	800,000	-0,073	0,192
-558,729	16,590	0,157	0,092
-557,715	39,398	0,081	0,053
-556,700	-200,000	-0,019	-0,083
-555,685	-100,828	0,144	-0,026
-554,671	-1,513	-0,151	0,078
-553,656	-69,822	0,095	-0,027
-552,642	-100,760	0,087	-0,016
-551,627	-200,000	-0,033	-0,150
-550,612	-169,086	-0,039	-0,001
-549,598	249,466	-0,085	-0,107
-548,583	800,000	0,051	-0,123
-547,569	-77,891	0,026	0,007
-546,554	17,696	0,064	-0,038
-545,539	234,572	-0,046	0,057
-544,525	-144,146	0,074	-0,005
-543,510	-200,000	-0,036	0,139
-542,496	800,000	-0,062	-0,162
-541,481	-200,000	0,009	-0,154
-540,466	-2,033	-0,087	-0,045
-539,452	-68,103	0,117	-0,033
-538,437	-200,000	-0,005	-0,026
-537,423	132,455	0,055	-0,052
-536,408	-3,246	-0,068	0,035
-535,393	-200,000	0,010	-0,117
-534,379	60,847	-0,066	-0,048
-533,364	-200,000	-0,018	0,098
-532,350	700,051	0,028	0,054
-531,335	94,333	-0,033	0,028
-530,321	587,079	0,064	0,118
-529,306	-52,164	0,072	0,025
-528,291	-200,000	-0,001	-0,063
-527,277	448,243	-0,060	-0,097
-526,262	-137,963	-0,104	-0,008
-525,248	-200,000	-0,007	-0,068
-524,233	-9,592	0,162	-0,079
-523,218	31,676	0,053	0,033
-522,204	107,963	0,066	0,058
-521,189	105,091	-0,069	0,061
-520,175	-133,526	-0,093	-0,009
-519,160	176,633	0,030	0,033
-518,145	800,000	-0,025	-0,056
-517,131	-200,000	-0,017	-0,061
-516,116	-52,498	-0,011	-0,004
-515,102	442,645	0,053	0,087
-514,087	72,157	0,044	-0,034
-513,072	249,722	-0,090	-0,113
-512,058	119,733	0,084	-0,077
-511,043	-200,000	-0,016	0,078
-510,029	-200,000	-0,037	-0,128
-509,014	17,203	-0,103	0,060
-507,999	31,492	-0,045	-0,028
-506,985	88,209	-0,061	0,050
-505,970	-200,000	-0,010	0,092
-504,956	800,000	-0,065	-0,137
-503,941	448,127	0,063	-0,103
-502,926	-17,775	-0,093	0,043
-501,912	-122,023	0,088	0,010
-500,897	-79,536	-0,057	0,014
-499,883	-40,370	0,014	0,005
-498,868	501,741	-0,036	-0,062
-497,853	230,456	0,086	-0,104
-496,839	-61,042	-0,020	0,006
-495,824	540,220	-0,111	0,195
-494,810	-28,616	0,088	0,037
-493,795	173,552	-0,067	0,071
-492,781	-200,000	0,000	-0,021
-491,766	30,253	0,075	-0,047
-490,751	800,000	-0,014	0,043
-489,737	-141,285	-0,054	0,004
-488,722	-22,094	0,059	0,026
-487,708	-28,360	0,085	0,036
-486,693	-106,386	-0,131	-0,021
-485,678	18,145	-0,140	-0,082
-484,664	337,884	0,060	0,086
-483,649	-139,800	-0,145	0,011
-482,635	117,516	0,044	-0,040
-481,620	-200,000	0,003	0,122
-480,605	-200,000	0,023	0,076
-479,591	50,659	0,034	-0,024
-478,576	44,656	0,096	0,065
-477,562	-133,153	0,055	-0,005
-476,547	389,234	0,085	-0,130
-475,532	-200,000	0,001	-0,184
-474,518	-116,935	-0,106	-0,014
-473,503	800,000	0,006	0,017
-472,489	182,704	0,061	0,066
-471,474	800,000	0,042	-0,097
-470,459	-200,000	0,011	-0,117
-469,445	-83,103	-0,083	0,019
-468,430	-200,000	-0,021	-0,123
-467,416	-83,060	0,055	0,013
-466,401	160,972	-0,032	0,033
-465,386	121,879	0,039	-0,036
-464,372	-58,478	0,057	0,018
-463,357	142,520	0,017	-0,017
-462,343	800,000	-0,030	0,092
-461,328	-200,000	0,007	0,052
-460,313	-200,000	-0,010	0,078
-459,299	-200,000	-0,004	-0,023
-458,284	129,683	0,124	0,117
-457,270	-39,673	0,094	0,036
-456,255	800,000	0,031	-0,076
-455,241	634,304	0,050	0,093
-454,226	-195,058	-0,032	-0,000
-453,211	800,000	0,028	-0,090
-452,197	-13,259	-0,105	-0,050
-451,182	365,870	0,055	-0,082
-450,168	218,495	0,073	0,087
-449,153	146,125	-0,082	-0,081
-448,138	800,000	-0,050	-0,140
-447,124	-123,760	-0,070	0,008
-446,109	-200,000	-0,014	-0,063
-445,095	14,110	0,133	0,076
-444,080	-200,000	-0,006	0,147
-443,065	-200,000	0,015	-0,069
-442,051	455,375	0,040	0,066
-441,036	-10,021	-0,086	-0,042
-440,022	-200,000	0,014	-0,061
-439,007	132,233	-0,048	-0,045
-437,992	800,000	-0,012	0,026
-436,978	-20,170	-0,112	-0,050
-435,963	174,680	0,053	-0,056
-434,949	193,245	-0,036	0,041
-433,934	-200,000	0,002	-0,043
-432,919	495,226	0,067	-0,114
-431,905	-80,113	0,187	-0,046
-430,890	26,831	0,117	-0,072
-429,876	419,182	-0,038	-0,060
-428,861	-200,000	0,019	0,130
-427,846	-200,000	0,023	-0,122
-426,832	800,000	-0,030	-0,066
-425,817	-46,428	-0,157	-0,056
-424,803	-71,374	-0,085	0,023
-423,788	87,414	-0,013	0,011
-422,773	167,472	-0,072	0,075
-421,759	43,581	-0,068	-0,046
-420,744	42,426	0,134	-0,089
-419,730	-153,196	-0,131	0,007
-418,715	-118,534	-0,110	0,014
-417,701	-18,255	0,099	-0,046
-416,686	-200,000	0,010	0,046
-415,671	677,925	-0,026	-0,050
-414,657	-134,506	0,142	-0,013
-413,642	41,955	-0,120	-0,080
-412,628	213,615	0,043	0,051
-411,613	191,251	0,094	-0,104
-410,598	-61,632	0,116	-0,036
-409,584	-186,332	0,077	0,001
-408,569	-62,359	-0,031	-0,009
-407,555	-200,000	0,035	-0,148
-406,540	638,298	0,051	-0,096
-405,525	-200,000	-0,004	0,014
-404,511	800,000	0,032	-0,091
-403,496	-76,799	-0,062	0,016
-402,482	159,067	-0,089	0,091
-401,467	-100,265	0,120	0,022
-400,452	78,477	-0,045	0,035
-399,438	800,000	0,014	0,029
-398,423	-109,025	0,034	0,005
-397,409	480,182	0,042	0,071
-396,394	-200,000	0,016	0,060
-395,379	-97,681	-0,084	-0,016
-394,365	69,138	-0,037	-0,028
-393,350	475,359	-0,075	0,124
-392,336	35,441	0,035	0,023
-391,321	-105,426	-0,051	-0,008
-390,306	134,647	0,075	-0,072
-389,292	-200,000	-0,017	-0,061
-388,277	-200,000	0,007	0,043
-387,263	116,631	0,120	0,108
-386,248	-135,631	0,109	-0,009
-385,233	-57,077	0,179	-0,058
-384,219	-73,814	-0,055	0,015
-383,204	-200,000	-0,020	0,093
-382,190	33,717	0,080	0,051
-381,175	239,781	-0,038	0,047
-380,160	-123,697	0,114	-0,013
-379,146	-117,940	0,115	0,015
-378,131	-63,729	0,059	-0,018
-377,117	349,588	0,010	0,015
-376,102	18,173	0,020	-0,011
-375,088	154,870	-0,056	0,056
-374,073	208,904	0,038	-0,044
-373,058	-35,067	0,071	-0,028
-372,044	40,854	0,146	0,096
-371,029	-55,671	0,128	-0,042
-370,015	33,529	0,143	0,091
-369,000	-116,610	0,092	0,012
-367,985	-32,782	0,140	0,057
-366,971	-59,126	-0,031	0,010
-365,956	64,110	0,071	0,052
-364,942	-29,712	0,123	0,051
-363,927	122,947	0,081	-0,075
-362,912	800,000	-0,056	-0,168
-361,898	316,856	0,046	-0,063
-360,883	124,612	-0,073	0,068
-359,869	12,012	0,073	0,041
-358,854	-22,412	0,101	0,045
-357,839	800,000	-0,022	-0,052
-356,825	763,232	-0,084	0,168
-355,810	625,010	0,038	0,071
-354,796	-18,980	0,091	-0,042
-353,781	-200,000	-0,001	-0,051
-352,766	-32,780	-0,052	0,021
-351,752	-200,000	0,035	-0,181
-350,737	428,289	-0,035	-0,056
-349,723	-200,000	-0,004	0,161
-348,708	-89,112	0,112	0,024
-347,693	-102,418	-0,090	-0,016
-346,679	152,330	-0,084	-0,084
-345,664	-200,000	-0,002	0,120
-344,650	-200,000	0,005	0,074
-343,635	-200,000	-0,026	0,104
-342,620	-50,572	0,044	0,015
-341,606	-87,049	0,045	0,010
-340,591	85,031	-0,049	0,039
-339,577	-137,793	0,067	0,005
-338,562	-200,000	0,004	-0,092
-337,548	168,448	0,045	0,048
-336,533	96,004	-0,079	0,066
-335,518	-155,508	0,121	0,006
-334,504	-35,160	-0,116	0,046
-333,489	41,000	-0,070	0,047
-332,475	135,762	0,072	0,068
-331,460	-18,825	0,150	0,068
-330,445	119,898	-0,138	0,126
-329,431	207,811	-0,060	-0,069
-328,416	-66,619	0,050	-0,015
-327,402	-200,000	0,004	0,108
-326,387	136,555	0,054	-0,052
-325,372	-89,916	-0,063	-0,013
-324,358	-104,806	-0,070	-0,012
-323,343	-200,000	0,007	0,060
-322,329	457,154	-0,053	0,087
-321,314	23,257	0,091	0,055
-320,299	800,000	0,035	0,083
-319,285	800,000	0,032	0,097
-318,270	274,443	-0,113	-0,147
-317,256	-43,749	-0,130	-0,048
-316,241	-200,000	0,026	0,130
-315,226	-39,672	0,108	-0,041
-314,212	576,684	0,049	-0,087
-313,197	-101,369	0,103	-0,018
-312,183	284,158	-0,094	0,124
-311,168	-200,000	0,018	-0,085
-310,153	64,285	0,038	0,028
-309,139	82,387	-0,065	0,052
-308,124	-200,000	0,015	0,104
-307,110	-200,000	0,036	0,142
-306,095	455,381	-0,018	0,030
-305,080	219,093	0,004	0,005
-304,066	-87,720	-0,082	-0,018
-303,051	43,982	-0,049	-0,033
-302,037	-87,817	-0,084	-0,018
-301,022	135,290	-0,105	-0,100
-300,008	236,878	0,084	0,102
-298,993	69,785	0,043	0,033
-297,978	-144,239	0,083	-0,006
-296,964	339,056	-0,062	-0,088
-295,949	420,893	-0,015	-0,024
-294,935	-200,000	-0,016	-0,055
-293,920	41,867	-0,050	-0,033
-292,905	230,703	0,084	-0,101
-291,891	-200,000	0,000	0,086
-290,876	-200,000	0,001	0,041
-289,862	-200,000	-0,006	-0,038
-288,847	-175,111	-0,032	-0,001
-287,832	-200,000	0,002	-0,060
-286,818	-85,049	-0,044	0,010
-285,803	-78,383	-0,096	0,024
-284,789	54,694	0,032	-0,022
-283,774	-151,543	0,137	-0,007
-282,759	193,197	-0,083	-0,092
-281,745	426,477	-0,041	-0,066
-280,730	-179,218	-0,055	0,001
-279,716	240,171	-0,032	0,039
-278,701	-44,714	0,090	0,033
-277,686	314,496	-0,002	-0,003
-276,672	189,728	0,117	0,128
-275,657	-33,186	0,087	-0,035
-274,643	29,233	-0,077	0,048
-273,628	-200,000	0,031	-0,109
-272,613	-47,894	-0,065	-0,023
-271,599	-72,926	0,045	0,012
-270,584	116,143	-0,027	-0,024
-269,570	-200,000	0,032	0,170
-268,555	-109,182	0,030	0,005
-267,540	7,221	-0,023	0,012
-266,526	-40,007	0,045	-0,017
-265,511	403,173	-0,044	-0,068
-264,497	-47,887	-0,031	-0,011
-263,482	-200,000	-0,021	0,073
-262,467	441,336	0,054	0,086
-261,453	194,500	-0,100	0,110
-260,438	-52,775	-0,040	-0,013
-259,424	122,127	-0,124	-0,114
-258,409	218,089	-0,059	-0,069
-257,395	800,000	0,021	-0,043
-256,380	-84,688	0,105	-0,024
-255,365	273,390	-0,074	-0,096
-254,351	744,603	-0,037	0,072
-253,336	152,053	0,035	-0,035
-252,322	-200,000	0,013	-0,050
-251,307	-165,891	0,019	0,001
-250,292	478,979	-0,069	-0,115
-249,278	48,347	0,079	0,054
-248,263	-200,000	-0,005	0,028
-247,249	133,688	0,073	0,069
-246,234	-200,000	-0,003	0,065
-245,219	800,000	-0,043	-0,135
-244,205	-104,266	-0,086	-0,014
-243,190	-200,000	0,015	0,077
-242,176	800,000	0,024	-0,060
-241,161	652,966	-0,042	0,079
-240,146	56,110	-0,081	-0,058
-239,132	-56,709	-0,057	0,018
-238,117	-15,086	-0,118	0,055
-237,103	800,000	-0,020	-0,056
-236,088	-91,140	-0,074	0,015
-235,073	485,804	-0,067	-0,112
-234,059	158,953	0,056	0,057
-233,044	11,766	0,081	-0,045
-232,030	-57,670	-0,174	0,055
-231,015	454,857	0,045	-0,073
-230,000	683,001	0,052	-0,100
-228,986	-48,457	0,100	0,035
-227,971	163,005	-0,075	-0,077
-226,957	149,279	-0,075	0,074
-225,942	-30,978	-0,132	-0,054
-224,927	-140,285	0,046	0,003
-223,913	447,660	-0,053	-0,085
-222,898	10,004	-0,110	-0,061
-221,884	134,895	-0,143	-0,135
-220,869	433,483	0,060	-0,096
-219,855	800,000	0,009	0,022
-218,840	-200,000	-0,026	0,098
-217,825	44,977	-0,106	0,071
-216,811	-70,236	-0,156	-0,043
-215,796	202,082	0,036	0,040
-214,782	800,000	-0,025	-0,072
-213,767	-21,804	-0,046	-0,020
-212,752	-89,263	0,108	-0,023
-211,738	800,000	0,030	-0,089
-210,723	95,285	-0,068	0,056
-209,709	168,642	0,012	-0,013
-208,694	-181,542	0,059	-0,001
-207,679	-19,869	0,183	0,082
-206,665	34,828	-0,049	0,031
-205,650	563,812	0,008	0,015
-204,636	-42,504	0,080	0,030
-203,621	-148,151	0,126	0,007
-202,606	800,000	0,026	0,075
-201,592	-200,000	-0,005	0,119
-200,577	-177,454	0,047	-0,001
-199,563	-72,601	0,106	0,028
-198,548	-51,747	0,127	-0,043
-197,533	800,000	-0,022	0,053
-196,519	-131,680	0,058	0,005
-195,504	672,270	-0,067	-0,128
-194,490	33,658	-0,093	0,059
-193,475	-98,788	0,122	-0,022
-192,460	-2,507	-0,134	-0,068
-191,446	-200,000	-0,047	0,193
-190,431	444,704	-0,069	0,110
-189,417	-132,533	-0,057	0,005
-188,402	63,859	-0,049	-0,036
-187,387	-200,000	0,012	0,096
-186,373	115,142	-0,061	-0,055
-185,358	301,470	-0,012	0,016
-184,344	136,976	0,068	0,065
-183,329	-60,247	-0,021	0,006
-182,315	-200,000	-0,013	0,138
-181,300	-125,928	-0,054	0,006
-180,285	-48,055	0,099	-0,035
-179,271	25,595	-0,142	-0,086
-178,256	-200,000	-0,003	0,035
-177,242	775,087	0,025	-0,050
-176,227	220,400	-0,032	0,038
-175,212	135,612	-0,122	0,116
-174,198	800,000	0,057	0,121
-173,183	146,555	-0,071	-0,069
-172,169	-200,000	-0,013	-0,080
-171,154	-132,833	0,160	-0,015
-170,139	724,166	-0,029	0,056
-169,125	115,084	0,083	0,074
-168,110	-200,000	-0,013	0,053
-167,096	800,000	0,023	-0,051
-166,081	-48,266	-0,063	0,022
-165,066	158,559	-0,096	-0,097
-164,052	99,383	0,041	-0,034
-163,037	-200,000	0,006	0,026
-162,023	305,390	0,096	-0,130
-161,008	-11,716	0,036	0,017
-159,993	457,463	0,015	-0,024
-158,979	364,882	-0,066	0,097
-157,964	-200,000	-0,001	-0,132
-156,950	-200,000	-0,005	-0,067
-155,935	800,000	0,034	0,073
-154,920	516,290	0,010	-0,017
-153,906	-200,000	-0,043	0,227
-152,891	-81,172	0,011	0,003
-151,877	646,527	-0,055	0,102
-150,862	-200,000	0,019	-0,148
-149,847	746,131	0,084	-0,165
-148,833	132,446	0,075	0,071
-147,818	800,000	0,014	-0,036
-146,804	-26,436	-0,053	0,022
-145,789	309,525	0,061	0,083
-144,775	-200,000	0,003	0,037
-143,760	309,873	0,050	0,068
-142,745	-200,000	0,010	-0,144
-141,731	31,800	-0,032	-0,020
-140,716	-135,293	-0,105	0,009
-139,702	-82,599	0,055	0,013
-138,687	115,723	-0,079	0,070
-137,672	118,834	0,092	0,082
-136,658	-200,000	0,005	0,016
-135,643	789,146	0,036	0,072
-134,629	32,055	0,079	0,049
-133,614	-200,000	-0,053	0,244
-132,599	800,000	-0,042	-0,113
-131,585	-200,000	-0,004	0,054
-130,570	-62,749	-0,106	-0,032
-129,556	395,715	-0,071	-0,109
-128,541	800,000	0,025	0,067
-127,526	26,300	-0,175	0,106
-126,512	395,954	-0,062	-0,094
-125,497	-151,962	-0,049	-0,003
-124,483	475,827	-0,032	0,052
-123,468	-200,000	-0,000	0,029
-122,453	-14,053	0,110	-0,051
-121,439	307,715	-0,060	-0,081
-120,424	-200,000	0,017	-0,060
-119,410	325,656	-0,058	-0,081
