DTS Sentinel unit serial number:	SN410029Multiplexer serial number:	ORYXHardware model number:	OX2-SRSoftware version number:	ORYX F/W v4,00 Oryx Data Collector v3.7.2.0data status	okinstallation	B4 Nyhavnadifferential loss correction	single-endedforward channel	channel 2reverse channel	N/Adate	2023/12/19time	03:25:13forward acquisition time	300,00reverse acquisition time	0,00gamma	499,1914k internal	0,3125k external	0,3125temperature offset calibration	1,0000default loss term (dB/km)	0,3820temperature slope calibration	1,0000multiplexer offset coefficient	1,0000multiplexer slope coefficient	1,0000fibre end	0,00T internal ref (°C)	21,13T ext. ref 1 (°C)	5,72T ext. ref 2 (°C)	5,65length (m)	temperature (°C)	Stokes	anti-Stokes-744,400	-41,666	-0,104	-0,039
-743,385	-45,985	-0,074	0,027
-742,371	-75,474	0,100	0,026
-741,356	-115,237	-0,187	-0,026
-740,342	-65,807	0,106	-0,031
-739,327	-143,236	-0,186	-0,013
-738,312	-200,000	0,003	-0,226
-737,298	-155,920	-0,267	0,012
-736,283	14,704	-0,026	0,015
-735,269	-10,019	-0,197	0,097
-734,254	-64,061	0,053	0,016
-733,239	-39,779	-0,470	-0,182
-732,225	-181,904	0,094	0,001
-731,210	250,202	-0,059	-0,074
-730,196	-200,000	0,041	-0,141
-729,181	800,000	-0,046	0,114
-728,167	-200,000	-0,002	-0,036
-727,152	-24,287	-0,085	0,038
-726,137	-200,000	-0,013	-0,138
-725,123	-33,674	-0,091	-0,037
-724,108	-200,000	-0,002	-0,034
-723,094	125,407	-0,056	-0,052
-722,079	-122,163	0,091	-0,011
-721,064	415,346	-0,047	0,074
-720,050	-200,000	0,016	-0,117
-719,035	-200,000	0,001	-0,049
-718,021	-200,000	-0,027	0,164
-717,006	-116,831	-0,046	0,006
-715,991	-200,000	0,010	0,044
-714,977	-86,429	-0,092	-0,021
-713,962	-116,748	-0,079	-0,011
-712,948	-95,378	0,108	0,021
-711,933	194,684	-0,024	0,027
-710,918	216,863	-0,067	-0,080
-709,904	43,316	-0,061	0,041
-708,889	47,230	-0,160	-0,111
-707,875	800,000	0,054	-0,152
-706,860	158,332	0,051	0,053
-705,845	187,850	0,048	-0,053
-704,831	140,937	-0,095	-0,094
-703,816	395,661	-0,030	-0,047
-702,802	-200,000	-0,031	-0,123
-701,787	98,620	-0,117	-0,101
-700,772	-80,401	-0,106	0,026
-699,758	-200,000	-0,022	0,104
-698,743	-200,000	0,011	0,093
-697,729	491,567	0,022	-0,038
-696,714	233,110	-0,059	-0,072
-695,699	800,000	0,068	-0,164
-694,685	-69,384	-0,206	-0,058
-693,670	-200,000	-0,001	-0,058
-692,656	17,823	0,032	-0,019
-691,641	800,000	0,019	-0,046
-690,627	79,264	0,008	0,007
-689,612	-154,702	0,047	0,002
-688,597	-200,000	0,025	-0,148
-687,583	800,000	-0,053	-0,152
-686,568	-200,000	-0,003	-0,089
-685,554	177,873	-0,084	-0,091
-684,539	-10,634	-0,048	0,024
-683,524	800,000	-0,043	0,098
-682,510	572,397	0,038	-0,070
-681,495	518,438	-0,098	-0,171
-680,481	-112,251	0,023	-0,003
-679,466	-26,266	-0,137	-0,060
-678,451	-2,054	-0,146	-0,076
-677,437	-78,497	0,094	-0,024
-676,422	121,887	0,075	0,069
-675,408	800,000	0,022	-0,053
-674,393	-56,083	-0,091	0,030
-673,378	-109,446	0,072	-0,011
-672,364	71,641	-0,127	-0,098
-671,349	800,000	-0,035	-0,085
-670,335	-51,904	0,064	0,022
-669,320	-200,000	0,017	-0,164
-668,305	203,217	-0,073	-0,084
-667,291	581,655	0,032	0,059
-666,276	-200,000	-0,050	-0,243
-665,262	-33,181	-0,100	-0,041
-664,247	227,493	0,068	-0,082
-663,232	800,000	-0,027	-0,085
-662,218	280,567	0,119	0,159
-661,203	46,896	-0,042	-0,029
-660,189	-5,884	0,059	-0,030
-659,174	-166,282	0,067	0,002
-658,159	-2,328	0,112	0,058
-657,145	441,067	-0,088	-0,143
-656,130	209,266	-0,018	-0,021
-655,116	-39,886	-0,135	0,052
-654,101	133,405	0,119	-0,115
-653,086	244,184	-0,090	0,112
-652,072	-200,000	0,014	-0,056
-651,057	-200,000	-0,010	0,101
-650,043	18,387	0,051	-0,030
-649,028	-27,044	0,061	-0,026
-648,014	-200,000	-0,021	0,155
-646,999	-35,751	0,144	0,058
-645,984	-200,000	0,003	-0,095
-644,970	-200,000	-0,019	-0,108
-643,955	800,000	-0,066	-0,204
-642,941	-170,274	-0,059	0,002
-641,926	169,345	-0,039	-0,041
-640,911	-73,690	-0,029	0,008
-639,897	-114,400	0,131	0,018
-638,882	-88,237	-0,041	0,009
-637,868	-128,380	-0,137	0,014
-636,853	337,921	-0,104	-0,151
-635,838	22,975	0,041	0,025
-634,824	-200,000	-0,007	0,118
-633,809	-51,424	0,134	-0,046
-632,795	-37,490	0,070	0,027
-631,780	192,533	-0,034	-0,038
-630,765	14,711	0,047	-0,027
-629,751	-60,344	-0,091	-0,029
-628,736	-107,584	-0,169	-0,027
-627,722	-200,000	0,016	-0,059
-626,707	172,840	0,037	0,040
-625,692	-192,713	-0,052	-0,000
-624,678	-140,370	0,105	0,008
-623,663	94,178	-0,119	0,100
-622,649	-98,016	-0,173	-0,033
-621,634	27,974	-0,069	0,043
-620,619	110,028	-0,062	-0,055
-619,605	80,805	-0,009	-0,007
-618,590	480,895	0,094	0,158
-617,576	290,893	0,045	0,061
-616,561	541,916	-0,016	0,028
-615,546	-19,824	-0,125	-0,057
-614,532	51,530	0,045	-0,031
-613,517	81,511	0,038	0,030
-612,503	-200,000	-0,006	0,091
-611,488	-200,000	-0,002	-0,095
-610,474	-200,000	0,005	0,019
-609,459	-200,000	-0,003	0,099
-608,444	238,953	0,022	-0,027
-607,430	58,673	0,027	-0,020
-606,415	-200,000	0,045	0,158
-605,401	-200,000	0,006	0,047
-604,386	800,000	0,027	-0,072
-603,371	-30,860	0,089	0,037
-602,357	-104,369	0,057	0,010
-601,342	72,171	0,066	0,051
-600,328	-35,910	-0,040	0,016
-599,313	678,619	-0,030	-0,058
-598,298	800,000	0,020	-0,044
-597,284	-124,556	-0,070	-0,008
-596,269	-133,591	-0,074	0,007
-595,255	723,471	-0,012	-0,023
-594,240	164,864	-0,059	0,062
-593,225	-200,000	0,021	-0,104
-592,211	388,256	-0,046	-0,071
-591,196	800,000	-0,025	0,069
-590,182	-200,000	0,008	0,135
-589,167	-54,712	-0,054	-0,018
-588,152	334,280	0,018	-0,026
-587,138	800,000	-0,017	0,035
-586,123	273,594	0,049	-0,064
-585,109	-200,000	0,021	-0,145
-584,094	228,383	-0,071	-0,085
-583,079	-136,192	-0,146	0,013
-582,065	-125,866	0,133	0,015
-581,050	800,000	-0,069	-0,154
-580,036	0,557	-0,120	-0,063
-579,021	374,777	-0,094	-0,143
-578,006	322,595	-0,083	-0,118
-576,992	62,653	-0,054	-0,040
-575,977	-4,618	0,111	0,057
-574,963	-200,000	-0,010	0,069
-573,948	22,122	0,034	-0,021
-572,934	18,140	-0,084	-0,049
-571,919	226,986	-0,102	-0,122
-570,904	-200,000	0,026	-0,101
-569,890	-110,156	0,089	0,014
-568,875	-200,000	0,033	-0,187
-567,861	178,901	0,027	-0,029
-566,846	151,075	-0,066	0,066
-565,831	248,835	-0,066	0,083
-564,817	-1,975	-0,100	-0,052
-563,802	-113,184	-0,046	-0,007
-562,788	-22,558	0,090	-0,040
-561,773	44,595	-0,040	-0,027
-560,758	11,990	0,028	0,016
-559,744	-75,340	-0,062	-0,016
-558,729	800,000	0,024	0,056
-557,715	35,943	-0,051	-0,033
-556,700	-9,050	-0,018	-0,009
-555,685	677,595	0,062	-0,120
-554,671	-200,000	0,016	-0,104
-553,656	-200,000	-0,003	-0,042
-552,642	-24,121	-0,072	0,032
-551,627	-10,501	-0,115	0,056
-550,612	-82,642	-0,053	0,013
-549,598	-61,804	0,165	0,051
-548,583	-4,142	0,115	-0,059
-547,569	-200,000	-0,004	0,041
-546,554	224,143	0,036	-0,043
-545,539	71,657	0,094	-0,072
-544,525	5,255	-0,045	0,024
-543,510	-200,000	-0,019	-0,084
-542,496	-66,109	0,074	0,022
-541,481	-200,000	-0,032	0,120
-540,466	177,475	0,069	-0,075
-539,452	-81,056	-0,099	-0,024
-538,437	-91,434	0,069	-0,014
-537,423	45,895	-0,020	0,014
-536,408	113,062	0,074	-0,066
-535,393	-200,000	0,038	-0,165
-534,379	-200,000	-0,021	-0,072
-533,364	784,958	-0,038	-0,078
-532,350	135,187	-0,065	0,063
-531,335	-28,656	0,123	0,052
-530,321	59,840	0,175	0,127
-529,306	90,380	-0,060	-0,050
-528,291	23,680	-0,074	-0,045
-527,277	-82,408	0,030	0,007
-526,262	302,900	-0,135	-0,185
-525,248	257,147	-0,041	0,052
-524,233	66,676	0,075	-0,057
-523,218	-67,950	-0,136	0,039
-522,204	742,120	0,030	-0,061
-521,189	800,000	-0,012	-0,035
-520,175	800,000	-0,020	-0,059
-519,160	-200,000	-0,013	-0,075
-518,145	215,729	0,150	-0,176
-517,131	54,471	0,132	-0,094
-516,116	-73,339	-0,075	-0,020
-515,102	-200,000	0,015	-0,052
-514,087	578,266	-0,022	0,040
-513,072	-200,000	0,003	0,135
-512,058	183,235	0,052	-0,056
-511,043	-66,269	-0,080	0,023
-510,029	-200,000	0,051	0,192
-509,014	284,893	-0,056	0,075
-507,999	146,766	-0,035	-0,035
-506,985	-6,770	-0,093	0,047
-505,970	-95,580	-0,121	-0,024
-504,956	-2,188	-0,024	-0,012
-503,941	-43,531	-0,015	0,006
-502,926	-43,607	0,123	0,045
-501,912	95,844	0,016	0,014
-500,897	-200,000	0,013	-0,138
-499,883	1,061	0,027	-0,014
-498,868	-29,124	0,030	-0,013
-497,853	-200,000	0,009	0,052
-496,839	425,968	0,049	-0,078
-495,824	-92,834	0,027	-0,005
-494,810	800,000	0,039	0,104
-493,795	12,766	-0,056	0,032
-492,781	29,690	-0,107	-0,067
-491,766	-200,000	-0,005	0,121
-490,751	119,611	-0,047	-0,043
-489,737	-154,847	0,100	-0,005
-488,722	-28,874	-0,129	0,054
-487,708	-200,000	0,022	0,115
-486,693	-200,000	0,020	-0,107
-485,678	-126,023	-0,200	-0,022
-484,664	2,598	-0,166	-0,088
-483,649	-200,000	-0,010	-0,062
-482,635	192,384	-0,004	-0,004
-481,620	227,643	0,036	-0,044
-480,605	260,776	0,082	0,105
-479,591	-200,000	0,046	0,168
-478,576	-108,277	0,063	-0,010
-477,562	800,000	0,026	-0,082
-476,547	800,000	-0,026	-0,062
-475,532	-81,755	-0,085	0,020
-474,518	32,474	0,047	0,030
-473,503	800,000	0,041	0,087
-472,489	-200,000	0,002	0,061
-471,474	41,683	0,082	-0,055
-470,459	-95,137	0,050	0,010
-469,445	-83,683	-0,035	0,008
-468,430	-9,905	0,091	-0,044
-467,416	383,762	0,038	0,058
-466,401	800,000	-0,031	-0,073
-465,386	29,973	-0,026	-0,016
-464,372	23,931	0,053	-0,032
-463,357	231,825	0,062	-0,076
-462,343	800,000	-0,017	-0,048
-461,328	76,300	-0,103	0,080
-460,313	512,108	0,104	0,180
-459,299	-60,648	-0,058	0,018
-458,284	65,299	-0,021	-0,015
-457,270	-25,314	-0,188	-0,082
-456,255	-107,809	-0,042	0,007
-455,241	129,163	0,028	-0,026
-454,226	75,480	-0,030	0,024
-453,211	-108,148	0,142	0,022
-452,197	-144,754	0,042	0,003
-451,182	-200,000	0,017	-0,191
-450,168	209,873	-0,017	-0,020
-449,153	26,230	-0,049	-0,030
-448,138	84,950	0,025	-0,020
-447,124	770,886	0,030	-0,061
-446,109	800,000	0,018	-0,055
-445,095	3,690	-0,068	0,037
-444,080	-148,944	-0,087	0,005
-443,065	-4,349	0,043	-0,022
-442,051	432,243	0,016	0,026
-441,036	-74,063	-0,148	-0,039
-440,022	69,432	0,089	-0,068
-439,007	-200,000	-0,011	-0,054
-437,992	-200,000	0,019	0,102
-436,978	63,075	-0,034	0,025
-435,963	219,988	-0,080	0,095
-434,949	-200,000	-0,004	0,037
-433,934	342,778	-0,063	-0,091
-432,919	-42,773	-0,125	-0,047
-431,905	-200,000	0,018	-0,100
-430,890	741,475	0,069	-0,136
-429,876	-44,629	0,123	0,045
-428,861	136,655	0,062	0,060
-427,846	-200,000	-0,016	-0,137
-426,832	-114,151	0,107	-0,015
-425,817	-86,862	0,084	-0,019
-424,803	-32,505	-0,091	0,037
-423,788	-100,416	0,157	0,028
-422,773	144,457	0,020	-0,020
-421,759	-200,000	-0,006	-0,033
-420,744	394,146	-0,039	0,060
-419,730	-200,000	-0,018	-0,193
-418,715	800,000	-0,027	-0,069
-417,701	-200,000	0,004	0,035
-416,686	14,255	0,067	0,038
-415,671	-200,000	0,047	0,163
-414,657	3,941	-0,048	-0,026
-413,642	-200,000	-0,006	-0,035
-412,628	-54,318	-0,177	0,059
-411,613	302,632	-0,027	0,037
-410,598	-11,951	-0,031	-0,015
-409,584	800,000	-0,025	0,053
-408,569	800,000	-0,058	0,143
-407,555	-49,728	-0,118	0,041
-406,540	-105,472	-0,008	-0,001
-405,525	244,163	-0,047	0,058
-404,511	-57,112	-0,098	0,032
-403,496	25,360	-0,061	0,037
-402,482	-87,143	0,052	0,011
-401,467	-156,541	0,074	-0,003
-400,452	-200,000	0,000	-0,025
-399,438	81,169	-0,039	-0,031
-398,423	299,630	-0,021	0,029
-397,409	59,325	-0,030	0,022
-396,394	800,000	-0,040	0,130
-395,379	338,150	-0,065	0,094
-394,365	101,091	0,072	-0,061
-393,350	225,725	-0,014	-0,017
-392,336	-200,000	0,029	0,126
-391,321	-23,738	0,001	-0,001
-390,306	164,521	-0,036	0,037
-389,292	800,000	-0,069	-0,192
-388,277	65,412	-0,091	0,067
-387,263	-120,549	-0,138	0,017
-386,248	-61,721	0,081	-0,025
-385,233	-200,000	-0,006	0,121
-384,219	-200,000	-0,019	0,074
-383,204	675,985	-0,068	0,130
-382,190	438,798	-0,093	-0,149
-381,175	-90,230	0,082	-0,017
-380,160	-61,596	-0,117	-0,036
-379,146	-200,000	0,015	0,071
-378,131	800,000	0,081	0,172
-377,117	118,217	0,071	-0,064
-376,102	182,847	0,046	-0,049
-375,088	-15,821	-0,087	-0,040
-374,073	-24,187	0,030	0,013
-373,058	718,957	0,068	0,134
-372,044	772,894	0,038	0,077
-371,029	86,275	-0,096	-0,078
-370,015	579,815	0,034	-0,061
-369,000	159,116	-0,092	-0,094
-367,985	-135,859	0,067	-0,006
-366,971	800,000	-0,051	-0,122
-365,956	-55,196	0,054	0,018
-364,942	95,437	0,082	0,069
-363,927	800,000	-0,019	-0,058
-362,912	-56,111	0,057	-0,019
-361,898	267,202	0,038	-0,048
-360,883	-200,000	0,003	-0,135
-359,869	393,431	0,029	0,045
-358,854	-97,980	0,099	-0,019
-357,839	81,991	0,137	0,109
-356,825	523,379	0,092	0,159
-355,810	297,127	-0,057	0,077
-354,796	-104,578	-0,198	0,033
-353,781	192,234	0,030	0,034
-352,766	-151,447	0,125	0,007
-351,752	-200,000	-0,016	0,090
-350,737	-25,169	0,090	0,039
-349,723	-200,000	-0,031	0,101
-348,708	-200,000	-0,018	0,078
-347,693	21,243	0,015	0,009
-346,679	39,606	-0,105	0,069
-345,664	264,721	-0,055	-0,070
-344,650	285,545	0,082	0,108
-343,635	-200,000	-0,008	0,207
-342,620	758,703	0,038	0,075
-341,606	214,175	0,020	-0,024
-340,591	269,560	-0,012	0,016
-339,577	14,708	0,074	-0,042
-338,562	-145,018	-0,064	0,004
-337,548	-163,721	-0,079	0,003
-336,533	800,000	0,036	0,088
-335,518	-21,650	-0,090	-0,040
-334,504	318,686	-0,011	0,015
-333,489	-18,399	-0,102	0,047
-332,475	-127,916	0,056	-0,006
-331,460	-200,000	-0,003	0,071
-330,445	708,645	-0,009	-0,018
-329,431	-89,546	0,070	-0,015
-328,416	21,531	0,201	0,120
-327,402	175,286	0,047	0,050
-326,387	26,707	0,051	-0,031
-325,372	-53,295	-0,092	0,031
-324,358	-55,861	-0,047	0,015
-323,343	620,436	0,033	-0,061
-322,329	501,566	0,060	0,102
-321,314	-49,540	-0,055	0,019
-320,299	-172,070	-0,093	0,002
-319,285	-200,000	-0,017	0,069
-318,270	-85,471	-0,092	0,021
-317,256	71,082	0,124	-0,094
-316,241	683,649	-0,050	-0,097
-315,226	411,547	0,082	0,128
-314,212	-200,000	0,006	0,062
-313,197	-22,296	-0,065	0,029
-312,183	800,000	-0,052	-0,114
-311,168	-144,983	0,074	0,005
-310,153	-38,063	-0,080	0,031
-309,139	428,577	0,035	0,055
-308,124	800,000	-0,007	0,017
-307,110	-200,000	-0,029	0,197
-306,095	-200,000	-0,011	-0,068
-305,080	190,302	0,042	-0,047
-304,066	-200,000	-0,019	-0,092
-303,051	204,862	0,057	-0,065
-302,037	-200,000	-0,000	-0,003
-301,022	-91,178	-0,077	0,016
-300,008	-200,000	-0,002	-0,080
-298,993	62,846	0,082	0,060
-297,978	189,651	-0,104	-0,114
-296,964	800,000	-0,028	0,067
-295,949	160,302	-0,046	-0,047
-294,935	-45,420	0,042	0,015
-293,920	-65,420	0,035	-0,010
-292,905	-200,000	-0,030	0,158
-291,891	-4,325	0,078	-0,040
-290,876	89,889	0,061	-0,050
-289,862	-43,445	-0,090	0,033
-288,847	-200,000	-0,000	-0,012
-287,832	-129,689	-0,027	0,003
-286,818	6,328	0,094	0,051
-285,803	800,000	-0,045	0,098
-284,789	-110,508	0,092	-0,014
-283,774	64,814	0,045	-0,033
-282,759	-170,724	-0,141	-0,003
-281,745	800,000	-0,006	0,014
-280,730	106,347	0,073	0,063
-279,716	-200,000	0,009	-0,059
-278,701	134,897	0,072	-0,069
-277,686	616,339	-0,020	0,037
-276,672	493,410	0,091	0,154
-275,657	32,904	-0,074	-0,047
-274,643	352,843	0,028	-0,041
-273,628	670,947	0,064	-0,122
-272,613	-200,000	0,039	-0,135
-271,599	-82,950	-0,004	0,001
-270,584	800,000	-0,053	0,122
-269,570	-200,000	-0,001	-0,049
-268,555	-50,299	0,094	-0,032
-267,540	-200,000	-0,014	-0,111
-266,526	-47,429	-0,124	-0,044
-265,511	258,461	-0,077	0,097
-264,497	-57,645	0,108	-0,034
-263,482	741,787	0,035	0,068
-262,467	-0,625	0,113	0,058
-261,453	800,000	-0,051	-0,115
-260,438	-200,000	-0,003	-0,122
-259,424	21,614	0,098	-0,058
-258,409	-200,000	-0,003	0,051
-257,395	-56,373	0,195	0,063
-256,380	467,618	0,053	0,088
-255,365	135,365	0,132	-0,126
-254,351	139,750	0,050	-0,049
-253,336	184,655	0,053	-0,058
-252,322	800,000	0,024	-0,050
-251,307	-140,508	-0,167	-0,013
-250,292	-200,000	0,043	-0,221
-249,278	42,640	0,070	0,047
-248,263	-148,045	0,064	-0,004
-247,249	-153,867	0,088	-0,004
-246,234	203,459	0,137	-0,155
-245,219	-44,925	-0,103	-0,037
-244,205	353,630	-0,064	0,093
-243,190	-200,000	-0,008	0,106
-242,176	360,725	-0,080	-0,117
-241,161	482,359	-0,048	0,080
-240,146	-200,000	0,013	-0,063
-239,132	23,141	-0,112	0,067
-238,117	-200,000	-0,013	0,000
-237,103	800,000	-0,039	0,082
-236,088	391,661	0,081	0,123
-235,073	-200,000	-0,002	-0,039
-234,059	90,858	0,066	0,054
-233,044	-200,000	0,000	0,035
-232,030	-200,000	-0,024	-0,091
-231,015	0,946	0,034	-0,018
-230,000	-57,709	-0,019	0,006
-228,986	800,000	-0,019	0,061
-227,971	339,903	-0,020	0,028
-226,957	-123,285	0,015	-0,002
-225,942	507,859	0,043	0,072
-224,927	-200,000	-0,001	-0,033
-223,913	-92,831	-0,222	-0,045
-222,898	-98,684	-0,060	0,011
-221,884	-1,516	-0,042	0,022
-220,869	174,560	-0,044	0,047
-219,855	800,000	0,039	0,100
-218,840	152,813	0,132	-0,132
-217,825	206,500	0,054	-0,061
-216,811	-200,000	-0,002	0,093
-215,796	279,792	-0,061	0,079
-214,782	736,477	0,048	-0,094
-213,767	340,417	0,126	0,179
-212,752	17,643	-0,012	-0,007
-211,738	232,505	-0,060	0,072
-210,723	-200,000	0,007	0,034
-209,709	48,586	-0,119	-0,081
-208,694	-38,715	-0,092	0,035
-207,679	-200,000	-0,001	-0,025
-206,665	-200,000	-0,031	0,133
-205,650	-200,000	0,019	-0,095
-204,636	-11,596	0,106	0,051
-203,621	800,000	0,027	0,070
-202,606	144,819	0,058	0,056
-201,592	127,448	-0,069	-0,064
-200,577	-135,831	-0,113	0,010
-199,563	374,158	0,071	0,106
-198,548	-123,761	0,113	0,013
-197,533	-112,366	-0,044	0,006
-196,519	-200,000	0,000	0,142
-195,504	-103,349	0,034	0,006
-194,490	58,084	0,068	0,048
-193,475	9,046	0,085	-0,047
-192,460	-9,313	0,045	-0,022
-191,446	27,332	-0,047	0,029
-190,431	-57,284	0,099	-0,032
-189,417	-65,324	-0,018	0,005
-188,402	76,610	-0,045	0,035
-187,387	88,044	-0,053	-0,043
-186,373	17,873	0,040	-0,023
-185,358	403,191	0,035	-0,055
-184,344	91,897	0,071	-0,058
-183,329	312,080	-0,073	0,099
-182,315	124,833	0,041	-0,038
-181,300	-62,067	0,082	-0,025
-180,285	-200,000	-0,001	-0,056
-179,271	800,000	-0,095	-0,206
-178,256	800,000	-0,021	0,047
-177,242	303,514	0,028	0,038
-176,227	22,600	0,130	0,078
-175,212	-200,000	0,031	0,176
-174,198	800,000	-0,028	0,058
-173,183	-86,454	-0,095	0,021
-172,169	115,447	-0,153	-0,136
-171,154	30,513	0,116	-0,072
-170,139	-23,143	0,070	0,031
-169,125	262,588	0,068	-0,086
-168,110	-200,000	0,019	0,071
-167,096	33,911	-0,065	-0,041
-166,081	-200,000	-0,005	-0,127
-165,066	-200,000	0,000	-0,109
-164,052	-114,312	0,120	-0,017
-163,037	800,000	0,030	-0,063
-162,023	800,000	0,029	-0,075
-161,008	38,583	0,043	0,028
-159,993	-25,429	0,060	-0,026
-158,979	67,445	0,123	0,091
-157,964	-37,059	-0,067	0,026
-156,950	137,123	0,042	0,040
-155,935	736,720	0,061	0,121
-154,920	413,497	0,031	0,048
-153,906	-200,000	-0,034	0,167
-152,891	800,000	-0,053	0,118
-151,877	800,000	0,022	-0,046
-150,862	111,327	-0,016	0,014
-149,847	-200,000	0,034	-0,182
-148,833	-35,852	0,090	-0,035
-147,818	180,961	0,027	0,029
-146,804	341,452	-0,036	-0,052
-145,789	800,000	-0,021	-0,056
-144,775	-104,811	-0,059	-0,010
-143,760	-200,000	0,020	-0,133
-142,745	800,000	0,040	-0,096
-141,731	76,825	0,139	-0,107
-140,716	-78,854	0,107	-0,026
-139,702	-200,000	0,000	-0,113
-138,687	-200,000	0,002	-0,128
-137,672	-75,872	0,138	-0,035
-136,658	-200,000	-0,011	-0,070
-135,643	71,364	0,043	0,032
-134,629	215,768	-0,020	-0,024
-133,614	-79,622	-0,035	0,009
-132,599	-200,000	-0,021	-0,133
-131,585	399,181	0,041	0,062
-130,570	120,385	0,143	-0,129
-129,556	-86,407	-0,061	0,014
-128,541	207,524	-0,113	-0,128
-127,526	-200,000	-0,028	0,094
-126,512	229,310	0,059	-0,070
-125,497	17,127	0,101	0,058
-124,483	-118,858	0,103	-0,013
-123,468	-200,000	0,003	-0,035
-122,453	-200,000	0,016	0,088
-121,439	3,616	-0,104	-0,055
-120,424	3,739	0,127	0,067
-119,410	109,590	0,034	0,030
