DTS Sentinel unit serial number:	SN410029Multiplexer serial number:	ORYXHardware model number:	OX2-SRSoftware version number:	ORYX F/W v4,00 Oryx Data Collector v3.7.2.0data status	okinstallation	B4 Nyhavnadifferential loss correction	single-endedforward channel	channel 2reverse channel	N/Adate	2023/12/19time	06:25:13forward acquisition time	300,00reverse acquisition time	0,00gamma	499,1914k internal	0,3127k external	0,3127temperature offset calibration	1,0000default loss term (dB/km)	0,3820temperature slope calibration	1,0000multiplexer offset coefficient	1,0000multiplexer slope coefficient	1,0000fibre end	0,00T internal ref (°C)	21,17T ext. ref 1 (°C)	6,46T ext. ref 2 (°C)	6,62length (m)	temperature (°C)	Stokes	anti-Stokes-744,400	-58,277	0,030	-0,010
-743,385	68,374	-0,171	0,130
-742,371	587,498	0,025	0,045
-741,356	6,803	-0,277	0,153
-740,342	-200,000	0,009	-0,094
-739,327	586,721	-0,128	0,235
-738,312	557,482	-0,063	0,114
-737,298	41,815	-0,149	0,100
-736,283	315,098	-0,045	0,063
-735,269	151,835	-0,158	0,161
-734,254	-200,000	-0,005	-0,022
-733,239	-139,724	-0,515	-0,040
-732,225	-74,716	0,133	0,035
-731,210	-62,144	-0,117	0,036
-730,196	-155,383	0,089	-0,004
-729,181	-200,000	0,006	0,066
-728,167	-153,693	0,028	0,001
-727,152	-34,377	0,035	-0,014
-726,137	-43,383	-0,078	-0,029
-725,123	94,583	-0,125	0,106
-724,108	-200,000	-0,009	-0,135
-723,094	315,152	-0,064	-0,090
-722,079	800,000	-0,045	-0,111
-721,064	-200,000	-0,018	-0,067
-720,050	-76,151	0,104	-0,027
-719,035	104,164	-0,101	-0,089
-718,021	-12,973	-0,138	0,067
-717,006	-92,235	-0,157	-0,033
-715,991	-200,000	-0,020	-0,158
-714,977	-200,000	-0,054	-0,204
-713,962	-73,308	-0,133	-0,036
-712,948	-11,429	-0,024	-0,012
-711,933	772,767	0,034	-0,070
-710,918	632,719	-0,037	-0,070
-709,904	7,884	-0,212	-0,118
-708,889	11,085	-0,091	-0,051
-707,875	37,221	-0,066	0,043
-706,860	65,061	0,131	-0,098
-705,845	-32,520	0,091	-0,038
-704,831	-151,092	0,098	-0,005
-703,816	-35,122	-0,074	0,030
-702,802	800,000	-0,051	-0,137
-701,787	150,155	-0,067	-0,068
-700,772	-200,000	0,004	-0,061
-699,758	116,822	0,108	0,099
-698,743	-135,195	-0,064	-0,006
-697,729	-3,252	-0,023	-0,012
-696,714	-22,969	0,103	-0,046
-695,699	4,705	-0,054	0,029
-694,685	-200,000	-0,028	-0,097
-693,670	365,839	-0,124	-0,187
-692,656	147,895	-0,019	-0,019
-691,641	-68,346	-0,068	0,019
-690,627	347,013	0,051	-0,075
-689,612	-147,475	-0,116	-0,007
-688,597	506,210	0,039	0,067
-687,583	297,913	0,089	-0,122
-686,568	800,000	-0,040	-0,100
-685,554	-200,000	0,013	-0,210
-684,539	-140,626	0,134	0,010
-683,524	-4,125	-0,065	0,033
-682,510	-200,000	-0,007	0,145
-681,495	800,000	0,024	0,072
-680,481	800,000	-0,046	-0,101
-679,466	474,482	0,029	0,049
-678,451	443,673	-0,004	-0,007
-677,437	474,992	0,043	-0,073
-676,422	-5,292	-0,110	0,056
-675,408	-101,614	0,167	0,030
-674,393	800,000	-0,050	-0,151
-673,378	-200,000	-0,014	-0,074
-672,364	-200,000	0,008	-0,235
-671,349	800,000	0,029	-0,072
-670,335	283,840	0,049	-0,065
-669,320	-26,016	0,071	-0,031
-668,305	10,047	-0,103	-0,058
-667,291	-200,000	-0,002	-0,057
-666,276	-200,000	-0,012	-0,106
-665,262	-200,000	0,000	-0,126
-664,247	800,000	0,070	-0,156
-663,232	-200,000	0,005	-0,106
-662,218	-44,244	0,023	0,009
-661,203	-42,617	0,105	0,039
-660,189	800,000	0,025	0,073
-659,174	-200,000	-0,009	0,081
-658,159	19,804	-0,066	-0,040
-657,145	800,000	0,038	0,108
-656,130	117,062	-0,042	0,038
-655,116	-200,000	0,001	-0,009
-654,101	-200,000	0,004	0,028
-653,086	-14,250	-0,070	0,033
-652,072	114,059	-0,094	0,084
-651,057	-29,909	-0,043	0,018
-650,043	148,717	-0,050	0,050
-649,028	-111,641	0,149	0,022
-648,014	75,873	0,119	-0,093
-646,999	284,664	-0,071	-0,096
-645,984	50,476	0,018	-0,013
-644,970	-182,081	-0,080	-0,001
-643,955	340,344	-0,085	-0,124
-642,941	800,000	-0,011	0,024
-641,926	800,000	0,040	-0,113
-640,911	-112,493	-0,058	-0,009
-639,897	-172,437	-0,103	0,002
-638,882	-200,000	0,009	0,108
-637,868	800,000	-0,021	0,060
-636,853	1,559	-0,104	0,055
-635,838	95,031	0,018	-0,015
-634,824	-200,000	0,000	-0,074
-633,809	-200,000	0,000	-0,006
-632,795	-49,523	0,100	-0,035
-631,780	-200,000	0,004	0,023
-630,765	-24,673	-0,062	-0,027
-629,751	-125,732	-0,022	-0,002
-628,736	-26,343	-0,245	-0,106
-627,722	-140,158	-0,085	0,006
-626,707	272,240	0,065	-0,085
-625,692	627,080	-0,044	-0,083
-624,678	323,729	-0,034	0,048
-623,663	-106,959	0,117	0,019
-622,649	800,000	-0,079	-0,168
-621,634	-5,072	-0,029	-0,015
-620,619	-97,456	-0,102	0,020
-619,605	24,413	-0,043	-0,026
-618,590	139,608	0,035	0,034
-617,576	-51,967	0,165	0,056
-616,561	57,588	0,045	-0,032
-615,546	800,000	-0,053	-0,116
-614,532	-200,000	0,004	0,026
-613,517	-96,585	-0,083	-0,016
-612,503	-30,677	-0,011	-0,005
-611,488	800,000	-0,027	-0,081
-610,474	60,603	0,070	0,051
-609,459	597,089	0,051	0,095
-608,444	-25,730	-0,027	0,012
-607,430	-11,972	-0,140	0,068
-606,415	-75,423	-0,050	0,013
-605,401	131,656	0,074	0,071
-604,386	17,639	-0,057	-0,034
-603,371	-138,509	-0,102	0,008
-602,357	800,000	-0,014	-0,030
-601,342	-59,865	0,129	-0,041
-600,328	-22,185	-0,073	0,033
-599,313	-76,115	-0,064	-0,017
-598,298	-200,000	0,032	0,118
-597,284	-200,000	-0,018	-0,059
-596,269	800,000	0,057	0,183
-595,255	629,853	0,051	-0,097
-594,240	-95,058	0,086	0,017
-593,225	232,232	0,071	0,086
-592,211	-107,061	0,033	-0,005
-591,196	35,012	-0,016	0,011
-590,182	268,149	0,096	0,124
-589,167	703,267	0,059	0,115
-588,152	-200,000	0,029	-0,114
-587,138	117,468	-0,099	0,090
-586,123	195,459	-0,063	-0,071
-585,109	-182,180	-0,048	-0,001
-584,094	800,000	-0,017	0,052
-583,079	800,000	0,085	-0,220
-582,065	-200,000	-0,050	0,211
-581,050	-200,000	-0,008	-0,043
-580,036	800,000	-0,014	0,032
-579,021	28,613	-0,155	-0,097
-578,006	100,622	0,111	-0,095
-576,992	-178,775	-0,053	0,001
-575,977	375,664	-0,060	0,091
-574,963	-96,634	0,098	0,019
-573,948	-200,000	0,024	-0,119
-572,934	246,338	-0,063	-0,079
-571,919	245,101	0,094	-0,117
-570,904	471,288	-0,024	-0,040
-569,890	-93,798	-0,079	0,016
-568,875	86,091	-0,032	0,026
-567,861	169,450	0,114	0,121
-566,846	-19,042	0,094	-0,043
-565,831	166,391	-0,093	-0,097
-564,817	-14,539	0,069	-0,033
-563,802	268,601	0,099	-0,129
-562,788	151,360	-0,158	0,159
-561,773	-200,000	0,029	0,153
-560,758	-200,000	0,007	0,045
-559,744	-108,662	0,068	-0,011
-558,729	69,678	-0,119	-0,091
-557,715	515,105	0,037	-0,064
-556,700	-80,878	-0,071	-0,017
-555,685	-27,464	-0,210	-0,090
-554,671	-200,000	-0,001	0,071
-553,656	731,370	0,045	-0,090
-552,642	-87,567	-0,069	0,015
-551,627	-200,000	0,007	0,130
-550,612	540,741	0,086	0,151
-549,598	348,807	-0,053	-0,077
-548,583	80,316	-0,099	0,078
-547,569	-124,754	-0,057	0,006
-546,554	22,942	-0,050	-0,030
-545,539	108,845	0,064	0,057
-544,525	-90,154	0,101	0,021
-543,510	800,000	-0,016	0,036
-542,496	800,000	-0,012	0,029
-541,481	119,392	-0,158	-0,144
-540,466	-200,000	-0,022	-0,130
-539,452	-78,054	0,076	-0,019
-538,437	620,343	0,017	-0,031
-537,423	-200,000	0,027	-0,111
-536,408	485,993	0,048	0,082
-535,393	-200,000	0,007	-0,101
-534,379	-1,538	-0,089	-0,046
-533,364	30,996	0,030	0,019
-532,350	-73,047	0,097	0,026
-531,335	800,000	-0,055	0,140
-530,321	-49,645	0,122	-0,043
-529,306	-30,488	-0,169	0,070
-528,291	622,446	-0,034	-0,064
-527,277	-81,899	-0,060	0,014
-526,262	344,094	0,029	-0,041
-525,248	-108,654	0,067	-0,010
-524,233	-200,000	-0,006	0,071
-523,218	800,000	0,037	0,076
-522,204	7,001	-0,037	0,020
-521,189	135,922	-0,117	-0,112
-520,175	-200,000	-0,013	-0,125
-519,160	475,316	-0,004	-0,007
-518,145	-16,239	0,094	-0,044
-517,131	497,436	-0,057	0,098
-516,116	-51,362	0,097	0,033
-515,102	26,853	0,149	-0,092
-514,087	-149,413	0,116	0,007
-513,072	-9,993	0,014	0,007
-512,058	-33,593	-0,114	-0,046
-511,043	-20,083	0,077	-0,035
-510,029	750,266	0,034	-0,069
-509,014	280,449	0,046	-0,060
-507,999	-153,480	-0,037	0,002
-506,985	-200,000	0,031	-0,120
-505,970	-200,000	0,030	-0,142
-504,956	223,414	-0,067	-0,080
-503,941	-200,000	-0,012	-0,050
-502,926	-75,472	-0,048	0,013
-501,912	38,867	0,162	0,106
-500,897	-200,000	-0,020	0,104
-499,883	28,951	-0,031	0,019
-498,868	-84,652	-0,034	-0,008
-497,853	407,324	-0,074	-0,116
-496,839	-200,000	0,001	-0,030
-495,824	-200,000	-0,013	-0,052
-494,810	-77,801	0,084	-0,021
-493,795	62,392	-0,059	-0,043
-492,781	25,036	-0,041	-0,025
-491,766	257,379	-0,102	-0,130
-490,751	-200,000	0,012	0,079
-489,737	800,000	-0,007	0,022
-488,722	800,000	0,057	0,140
-487,708	-200,000	0,007	-0,032
-486,693	-113,251	0,089	0,013
-485,678	205,356	-0,048	0,055
-484,664	-200,000	-0,002	0,012
-483,649	-200,000	0,012	0,082
-482,635	35,482	-0,064	0,041
-481,620	539,878	0,051	-0,089
-480,605	-200,000	-0,002	-0,091
-479,591	607,977	-0,007	0,013
-478,576	455,105	-0,024	0,039
-477,562	-50,894	0,091	0,031
-476,547	448,381	0,016	-0,026
-475,532	800,000	-0,036	0,084
-474,518	-200,000	-0,009	0,100
-473,503	549,108	0,050	0,088
-472,489	37,540	0,141	-0,092
-471,474	-134,766	-0,078	0,007
-470,459	-200,000	0,003	0,032
-469,445	254,444	-0,041	-0,052
-468,430	800,000	-0,046	-0,119
-467,416	44,260	0,142	-0,096
-466,401	245,308	0,055	0,068
-465,386	-40,655	-0,098	0,037
-464,372	-151,749	-0,112	-0,006
-463,357	-200,000	-0,025	-0,120
-462,343	214,842	-0,041	-0,048
-461,328	-38,323	-0,045	0,017
-460,313	800,000	-0,016	-0,044
-459,299	-26,006	0,220	0,095
-458,284	-7,924	0,091	-0,045
-457,270	-200,000	-0,046	-0,215
-456,255	49,099	-0,129	-0,089
-455,241	-200,000	-0,040	-0,150
-454,226	-200,000	0,006	-0,060
-453,211	59,007	-0,027	0,019
-452,197	173,968	0,068	0,072
-451,182	-200,000	-0,004	0,092
-450,168	341,763	0,032	-0,046
-449,153	29,951	0,033	-0,021
-448,138	-200,000	-0,005	-0,116
-447,124	-95,566	-0,122	-0,024
-446,109	73,057	-0,029	-0,022
-445,095	366,868	-0,039	0,059
-444,080	-115,455	-0,121	-0,017
-443,065	297,634	-0,016	-0,022
-442,051	-200,000	-0,024	-0,109
-441,036	-98,426	-0,117	0,022
-440,022	-144,572	-0,072	0,005
-439,007	169,503	-0,028	-0,029
-437,992	-200,000	0,001	0,097
-436,978	-95,637	0,095	0,019
-435,963	85,656	0,032	-0,026
-434,949	-20,653	-0,087	-0,039
-433,934	-52,845	-0,161	-0,054
-432,919	800,000	-0,017	0,049
-431,905	-200,000	0,012	-0,099
-430,890	43,499	0,079	0,053
-429,876	-200,000	-0,016	0,114
-428,861	-200,000	0,021	0,072
-427,846	-77,785	0,094	0,024
-426,832	72,917	-0,162	0,124
-425,817	-143,033	-0,068	0,005
-424,803	53,393	0,013	-0,009
-423,788	-85,345	-0,077	0,017
-422,773	800,000	-0,040	0,118
-421,759	245,285	-0,026	-0,032
-420,744	-200,000	-0,017	0,092
-419,730	193,332	-0,047	-0,053
-418,715	-64,733	-0,089	-0,026
-417,701	-40,324	0,210	-0,080
-416,686	16,043	0,159	-0,092
-415,671	60,357	-0,043	-0,031
-414,657	-200,000	-0,002	-0,084
-413,642	-41,775	0,007	-0,002
-412,628	-43,891	-0,056	-0,021
-411,613	-200,000	-0,034	-0,144
-410,598	621,292	-0,044	-0,082
-409,584	800,000	0,029	0,067
-408,569	195,389	0,094	0,105
-407,555	-22,556	0,091	0,040
-406,540	-54,236	0,101	0,033
-405,525	116,851	0,065	-0,058
-404,511	70,073	-0,097	0,073
-403,496	140,046	-0,023	0,022
-402,482	-200,000	0,010	0,049
-401,467	236,441	0,038	0,046
-400,452	672,250	0,031	0,059
-399,438	-37,226	0,023	-0,009
-398,423	-149,980	-0,115	-0,006
-397,409	2,075	-0,117	0,062
-396,394	-131,489	-0,034	-0,003
-395,379	-200,000	0,017	0,107
-394,365	211,149	-0,029	-0,034
-393,350	-148,887	-0,066	0,004
-392,336	28,321	0,088	0,054
-391,321	800,000	0,039	0,101
-390,306	-4,414	0,032	-0,016
-389,292	-155,295	0,055	0,003
-388,277	800,000	0,044	0,128
-387,263	-115,996	-0,074	-0,010
-386,248	70,642	0,101	-0,077
-385,233	34,955	-0,012	-0,008
-384,219	38,416	-0,056	0,036
-383,204	232,398	0,059	-0,071
-382,190	89,080	0,028	-0,023
-381,175	-200,000	-0,016	-0,099
-380,160	-48,936	0,045	0,016
-379,146	-161,150	-0,061	-0,002
-378,131	-200,000	-0,013	-0,122
-377,117	239,091	0,048	-0,058
-376,102	800,000	0,041	0,114
-375,088	-117,063	-0,019	0,003
-374,073	-70,789	0,026	0,007
-373,058	-144,603	0,095	0,006
-372,044	-18,534	0,083	-0,038
-371,029	690,136	-0,053	-0,102
-370,015	-200,000	-0,003	-0,059
-369,000	-200,000	0,010	0,036
-367,985	-62,208	-0,161	-0,049
-366,971	115,464	0,050	-0,045
-365,956	-199,243	0,115	0,000
-364,942	-186,118	-0,102	0,001
-363,927	-200,000	0,005	-0,065
-362,912	81,570	0,062	0,049
-361,898	-64,206	-0,039	-0,012
-360,883	-200,000	-0,046	0,164
-359,869	110,316	-0,069	-0,061
-358,854	-13,698	0,073	0,035
-357,839	144,080	0,079	-0,077
-356,825	-61,006	0,119	0,037
-355,810	173,448	0,047	-0,050
-354,796	-200,000	-0,009	-0,078
-353,781	-62,735	0,054	0,016
-352,766	-10,375	-0,118	-0,057
-351,752	-200,000	-0,000	0,023
-350,737	221,272	0,069	0,082
-349,723	119,771	-0,083	0,076
-348,708	286,612	-0,050	0,066
-347,693	56,376	-0,114	-0,081
-346,679	-165,734	0,031	0,001
-345,664	109,025	0,071	0,063
-344,650	800,000	-0,046	0,101
-343,635	-2,656	0,080	0,041
-342,620	-60,687	0,031	-0,010
-341,606	-62,374	0,155	-0,047
-340,591	19,112	0,028	0,017
-339,577	-66,490	-0,167	0,048
-338,562	163,680	0,079	-0,082
-337,548	738,240	-0,031	-0,061
-336,533	800,000	0,027	0,054
-335,518	227,240	0,087	0,104
-334,504	-57,844	0,109	-0,035
-333,489	-71,126	0,056	0,015
-332,475	-200,000	0,004	-0,075
-331,460	16,047	-0,110	-0,063
-330,445	-200,000	-0,011	0,052
-329,431	800,000	-0,009	-0,022
-328,416	124,641	0,127	0,117
-327,402	800,000	-0,054	0,166
-326,387	-111,689	-0,025	-0,004
-325,372	-200,000	-0,037	0,139
-324,358	-0,539	0,060	0,031
-323,343	175,191	0,058	-0,062
-322,329	41,402	0,027	-0,018
-321,314	800,000	0,050	0,108
-320,299	668,000	-0,089	-0,170
-319,285	-73,381	-0,137	0,036
-318,270	-148,929	-0,147	-0,009
-317,256	-200,000	-0,002	-0,155
-316,241	-200,000	-0,027	0,101
-315,226	241,474	0,026	0,031
-314,212	382,836	0,056	0,084
-313,197	800,000	0,036	0,098
-312,183	116,491	-0,111	0,100
-311,168	-130,178	-0,148	0,015
-310,153	-200,000	0,015	-0,168
-309,139	-81,552	0,054	0,013
-308,124	-94,929	0,136	-0,027
-307,110	-87,342	-0,178	0,039
-306,095	-200,000	-0,006	0,094
-305,080	88,296	0,084	0,068
-304,066	-200,000	-0,011	0,074
-303,051	-200,000	-0,001	-0,013
-302,037	800,000	-0,019	0,043
-301,022	-94,160	-0,091	-0,018
-300,008	-134,714	0,063	-0,006
-298,993	-97,309	0,091	0,017
-297,978	-200,000	0,002	-0,008
-296,964	-200,000	0,003	0,064
-295,949	-98,750	-0,074	0,014
-294,935	-200,000	0,011	-0,038
-293,920	-45,054	0,138	-0,050
-292,905	-112,972	0,036	0,005
-291,891	-47,690	0,068	-0,024
-290,876	121,445	-0,082	-0,075
-289,862	105,794	0,066	0,057
-288,847	19,625	-0,119	-0,070
-287,832	163,429	-0,090	0,093
-286,818	74,291	-0,031	0,024
-285,803	259,528	0,060	0,075
-284,789	-116,418	0,176	-0,024
-283,774	-58,988	-0,064	0,020
-282,759	-200,000	-0,010	-0,043
-281,745	72,272	-0,138	-0,105
-280,730	-200,000	0,007	0,030
-279,716	-200,000	-0,019	-0,076
-278,701	199,838	-0,029	-0,033
-277,686	-59,359	0,102	0,032
-276,672	23,678	-0,093	0,056
-275,657	398,651	-0,029	0,044
-274,643	-200,000	-0,001	-0,044
-273,628	800,000	-0,017	0,045
-272,613	215,955	0,092	0,107
-271,599	290,769	0,089	0,119
-270,584	289,818	0,067	0,089
-269,570	-90,234	0,158	-0,033
-268,555	-200,000	-0,032	-0,113
-267,540	58,403	-0,058	0,041
-266,526	-14,917	-0,060	-0,028
-265,511	800,000	0,033	0,067
-264,497	800,000	-0,026	0,063
-263,482	46,262	0,036	0,024
-262,467	-119,685	-0,035	-0,004
-261,453	124,846	-0,125	0,115
-260,438	-200,000	0,001	-0,147
-259,424	102,219	-0,108	-0,092
-258,409	81,252	-0,083	-0,065
-257,395	-32,693	0,096	-0,039
-256,380	392,201	0,069	-0,105
-255,365	800,000	0,029	0,063
-254,351	800,000	0,022	-0,068
-253,336	-200,000	-0,014	-0,094
-252,322	84,467	0,071	0,057
-251,307	34,803	-0,141	0,090
-250,292	-25,331	-0,071	0,030
-249,278	755,283	0,045	0,090
-248,263	-200,000	0,010	-0,072
-247,249	119,177	0,024	-0,022
-246,234	15,796	-0,078	-0,045
-245,219	4,515	-0,096	-0,052
-244,205	-200,000	0,001	0,076
-243,190	646,651	-0,031	0,057
-242,176	295,722	0,097	0,130
-241,161	210,409	0,092	-0,106
-240,146	800,000	0,042	0,087
-239,132	12,501	0,093	-0,052
-238,117	381,534	-0,035	-0,053
-237,103	-200,000	0,076	0,000
-236,088	470,031	0,050	-0,083
-235,073	297,377	0,078	0,104
-234,059	800,000	0,040	0,128
-233,044	-108,301	-0,026	0,004
-232,030	-200,000	0,004	-0,100
-231,015	-200,000	0,009	0,035
-230,000	-7,284	-0,064	0,032
-228,986	-200,000	0,019	-0,143
-227,971	-102,121	-0,094	-0,016
-226,957	-200,000	0,026	0,089
-225,942	445,901	-0,069	0,110
-224,927	-200,000	-0,006	0,063
-223,913	164,651	-0,142	0,146
-222,898	337,518	0,098	0,140
-221,884	360,417	0,044	-0,064
-220,869	-13,886	-0,045	-0,021
-219,855	-163,941	-0,045	0,002
-218,840	17,062	0,039	-0,023
-217,825	-200,000	-0,019	0,143
-216,811	405,840	-0,106	-0,164
-215,796	66,075	-0,037	0,027
-214,782	-96,120	-0,066	-0,013
-213,767	116,714	0,054	-0,048
-212,752	403,134	0,037	0,057
-211,738	-49,120	0,087	0,030
-210,723	259,778	-0,079	0,100
-209,709	65,006	-0,050	0,037
-208,694	-131,289	-0,110	0,010
-207,679	-57,479	-0,060	-0,019
-206,665	800,000	0,047	0,100
-205,650	-123,088	0,129	-0,015
-204,636	168,405	-0,032	0,033
-203,621	403,777	0,058	-0,089
-202,606	-200,000	0,007	0,082
-201,592	236,035	0,044	0,053
-200,577	35,647	-0,079	-0,050
-199,563	219,969	-0,079	0,093
-198,548	-28,958	0,071	0,030
-197,533	-200,000	-0,022	0,113
-196,519	323,720	0,011	-0,015
-195,504	73,703	0,084	0,064
-194,490	-200,000	0,002	-0,102
-193,475	-99,031	0,100	-0,018
-192,460	-200,000	-0,001	0,069
-191,446	406,063	0,054	0,083
-190,431	-200,000	0,017	0,080
-189,417	-126,015	0,062	0,007
-188,402	-32,246	-0,051	-0,021
-187,387	-111,120	0,039	-0,006
-186,373	-200,000	0,012	-0,067
-185,358	70,722	-0,078	-0,059
-184,344	708,617	0,033	-0,064
-183,329	88,034	0,073	0,059
-182,315	-15,104	0,050	0,023
-181,300	-200,000	-0,000	0,086
-180,285	686,459	0,055	-0,105
-179,271	-200,000	0,004	0,098
-178,256	-100,194	0,023	0,004
-177,242	-36,660	-0,043	0,017
-176,227	11,361	0,157	0,087
-175,212	210,639	0,018	0,021
-174,198	212,265	-0,089	-0,102
-173,183	176,834	0,107	-0,113
-172,169	50,487	-0,098	-0,067
-171,154	272,606	-0,055	-0,071
-170,139	513,536	0,076	-0,129
-169,125	-20,098	0,064	-0,029
-168,110	800,000	-0,016	0,036
-167,096	93,545	0,115	-0,095
-166,081	-200,000	0,004	-0,042
-165,066	35,901	-0,112	-0,072
-164,052	-33,195	-0,095	-0,038
-163,037	-105,266	0,096	-0,016
-162,023	324,900	-0,041	0,057
-161,008	270,546	0,080	0,103
-159,993	800,000	0,033	0,079
-158,979	-200,000	0,004	0,045
-157,964	800,000	0,106	-0,226
-156,950	-16,183	0,080	-0,037
-155,935	800,000	-0,067	0,175
-154,920	578,609	0,052	0,093
-153,906	321,500	0,042	0,059
-152,891	-72,277	0,120	0,032
-151,877	37,577	-0,020	-0,013
-150,862	15,960	-0,091	-0,052
-149,847	800,000	-0,046	-0,110
-148,833	-65,728	0,078	-0,023
-147,818	-200,000	-0,034	0,137
-146,804	267,507	0,079	0,100
-145,789	-84,428	-0,069	0,016
-144,775	-140,058	-0,056	-0,004
-143,760	518,711	-0,126	-0,216
-142,745	354,982	-0,043	-0,063
-141,731	-200,000	0,007	-0,097
-140,716	270,798	0,030	-0,039
-139,702	114,146	0,009	-0,008
-138,687	-14,941	-0,010	-0,005
-137,672	30,231	-0,105	-0,065
-136,658	-24,451	-0,112	-0,048
-135,643	75,207	-0,085	-0,065
-134,629	168,225	-0,077	0,079
-133,614	-112,719	0,069	0,010
-132,599	-63,057	0,065	-0,019
-131,585	97,606	0,050	0,042
-130,570	-200,000	-0,008	-0,075
-129,556	-113,906	-0,175	-0,024
-128,541	60,671	-0,031	-0,022
-127,526	39,931	-0,008	-0,005
-126,512	-129,001	0,065	-0,007
-125,497	-200,000	-0,009	-0,060
-124,483	-124,167	0,115	-0,013
-123,468	-155,901	-0,067	-0,003
-122,453	-200,000	0,006	-0,197
-121,439	-200,000	-0,045	-0,157
-120,424	-200,000	0,000	-0,105
-119,410	68,300	-0,086	-0,064
