DTS Sentinel unit serial number:	SN410029Multiplexer serial number:	ORYXHardware model number:	OX2-SRSoftware version number:	ORYX F/W v4,00 Oryx Data Collector v3.7.2.0data status	okinstallation	B4 Nyhavnadifferential loss correction	single-endedforward channel	channel 2reverse channel	N/Adate	2023/12/18time	19:00:13forward acquisition time	300,00reverse acquisition time	0,00gamma	499,1914k internal	0,3123k external	0,3123temperature offset calibration	1,0000default loss term (dB/km)	0,3820temperature slope calibration	1,0000multiplexer offset coefficient	1,0000multiplexer slope coefficient	1,0000fibre end	0,00T internal ref (°C)	21,90T ext. ref 1 (°C)	6,91T ext. ref 2 (°C)	6,88length (m)	temperature (°C)	Stokes	anti-Stokes-744,400	78,582	-0,007	0,005
-743,385	49,516	-0,157	0,110
-742,371	800,000	0,036	-0,102
-741,356	-75,552	-0,223	0,059
-740,342	-15,635	0,095	-0,045
-739,327	163,246	-0,161	0,169
-738,312	-200,000	0,026	0,099
-737,298	19,170	-0,206	0,123
-736,283	-42,463	-0,091	0,035
-735,269	22,922	-0,188	0,114
-734,254	552,146	0,024	-0,043
-733,239	-125,900	-0,355	-0,039
-732,225	-83,338	0,090	0,021
-731,210	-162,940	0,054	0,002
-730,196	-63,826	0,090	0,027
-729,181	45,856	0,035	0,024
-728,167	67,494	0,071	-0,054
-727,152	-200,000	0,013	0,046
-726,137	-78,760	-0,137	0,034
-725,123	91,651	-0,226	-0,189
-724,108	-200,000	-0,005	-0,075
-723,094	-78,471	-0,207	-0,052
-722,079	-124,969	-0,130	-0,015
-721,064	-84,923	0,093	-0,022
-720,050	-200,000	-0,025	0,153
-719,035	800,000	-0,038	0,123
-718,021	178,083	-0,073	-0,080
-717,006	-23,072	0,082	0,037
-715,991	16,161	-0,139	-0,082
-714,977	-200,000	-0,028	-0,102
-713,962	594,493	-0,024	-0,044
-712,948	-200,000	0,027	0,108
-711,933	-200,000	0,007	-0,089
-710,918	800,000	-0,031	0,086
-709,904	122,234	-0,039	-0,037
-708,889	-15,103	-0,102	0,048
-707,875	76,171	0,058	-0,045
-706,860	712,541	-0,053	0,105
-705,845	101,540	-0,056	-0,048
-704,831	-70,587	-0,073	0,020
-703,816	18,651	-0,024	0,014
-702,802	-200,000	-0,001	-0,077
-701,787	800,000	-0,002	-0,006
-700,772	-11,940	-0,051	0,025
-699,758	-80,083	-0,127	-0,031
-698,743	-22,428	0,049	0,022
-697,729	-200,000	-0,025	0,174
-696,714	-200,000	-0,006	0,066
-695,699	-200,000	-0,012	-0,084
-694,685	-162,688	-0,066	0,002
-693,670	-66,709	-0,093	0,027
-692,656	297,874	-0,091	-0,125
-691,641	-78,714	0,022	-0,006
-690,627	311,744	-0,037	0,052
-689,612	51,876	0,202	0,143
-688,597	-90,094	-0,173	-0,037
-687,583	299,832	0,023	-0,032
-686,568	5,402	-0,089	0,049
-685,554	-200,000	-0,030	-0,157
-684,539	-115,253	-0,214	-0,030
-683,524	84,515	0,028	-0,023
-682,510	129,949	0,138	0,131
-681,495	-87,863	-0,116	-0,026
-680,481	205,573	0,096	-0,111
-679,466	800,000	-0,077	-0,186
-678,451	-111,918	-0,084	0,013
-677,437	-200,000	-0,031	-0,116
-676,422	-200,000	0,011	-0,087
-675,408	408,976	-0,016	-0,025
-674,393	-56,110	-0,025	-0,008
-673,378	-133,589	0,134	-0,012
-672,364	175,329	-0,053	-0,057
-671,349	-9,366	0,026	0,013
-670,335	44,792	-0,190	0,130
-669,320	719,159	-0,035	0,069
-668,305	110,642	-0,059	-0,053
-667,291	249,508	-0,097	0,122
-666,276	-121,198	-0,104	0,013
-665,262	-107,618	0,069	-0,011
-664,247	167,571	0,065	0,069
-663,232	-148,990	-0,227	0,013
-662,218	-131,703	0,100	0,010
-661,203	-200,000	0,013	-0,052
-660,189	-200,000	0,003	0,149
-659,174	-166,844	-0,058	0,002
-658,159	782,474	-0,068	-0,139
-657,145	326,192	0,055	0,079
-656,130	-200,000	0,016	0,082
-655,116	179,675	-0,077	0,084
-654,101	-46,968	0,099	-0,036
-653,086	-200,000	-0,006	0,022
-652,072	-200,000	0,054	-0,183
-651,057	406,783	-0,071	-0,111
-650,043	46,592	-0,087	-0,060
-649,028	-109,758	0,056	0,009
-648,014	153,334	0,071	0,073
-646,999	-100,529	0,059	0,011
-645,984	-11,127	-0,036	-0,018
-644,970	800,000	-0,014	0,036
-643,955	-77,360	-0,148	0,038
-642,941	-11,975	-0,038	0,018
-641,926	16,856	0,054	0,032
-640,911	-56,025	-0,120	0,040
-639,897	70,730	-0,158	0,121
-638,882	135,647	0,070	0,067
-637,868	36,055	0,081	0,053
-636,853	-21,255	-0,112	-0,051
-635,838	377,719	0,057	-0,087
-634,824	14,712	-0,130	0,075
-633,809	211,729	-0,046	0,054
-632,795	-76,499	0,063	-0,016
-631,780	-15,341	-0,079	-0,037
-630,765	10,266	-0,090	0,051
-629,751	800,000	0,035	0,086
-628,736	-200,000	0,015	0,074
-627,722	686,180	-0,065	0,126
-626,707	97,204	0,056	-0,048
-625,692	-30,758	-0,038	-0,016
-624,678	800,000	0,038	-0,094
-623,663	-200,000	0,011	0,040
-622,649	-200,000	-0,014	-0,085
-621,634	147,247	-0,048	-0,048
-620,619	231,243	-0,055	0,067
-619,605	-200,000	0,009	0,034
-618,590	-200,000	-0,002	0,086
-617,576	627,920	-0,077	-0,145
-616,561	66,228	0,061	0,046
-615,546	800,000	-0,028	0,090
-614,532	800,000	-0,068	-0,154
-613,517	-200,000	-0,029	-0,280
-612,503	143,163	-0,089	0,088
-611,488	-136,065	-0,095	-0,008
-610,474	145,332	0,152	-0,151
-609,459	-146,924	0,075	0,005
-608,444	-14,320	-0,030	-0,014
-607,430	-200,000	-0,010	-0,108
-606,415	8,027	0,026	0,014
-605,401	19,103	-0,045	0,027
-604,386	-1,980	0,112	0,058
-603,371	71,643	0,034	0,027
-602,357	90,965	-0,054	-0,045
-601,342	199,956	0,017	0,019
-600,328	41,499	-0,080	0,053
-599,313	-200,000	0,003	-0,059
-598,298	51,093	-0,023	0,016
-597,284	59,219	-0,097	0,070
-596,269	800,000	0,028	0,068
-595,255	-72,991	0,050	0,014
-594,240	216,716	-0,064	-0,075
-593,225	800,000	0,064	0,151
-592,211	-200,000	-0,018	-0,086
-591,196	267,898	-0,076	-0,099
-590,182	280,250	0,067	-0,089
-589,167	-200,000	-0,009	0,037
-588,152	422,838	0,033	-0,052
-587,138	-200,000	0,020	-0,081
-586,123	800,000	-0,040	-0,093
-585,109	128,376	-0,062	-0,058
-584,094	55,723	0,028	-0,020
-583,079	-121,941	0,055	-0,007
-582,065	-200,000	0,008	0,068
-581,050	149,674	0,047	-0,047
-580,036	-200,000	0,016	-0,141
-579,021	96,982	-0,049	-0,041
-578,006	116,227	-0,076	0,069
-576,992	-200,000	0,005	0,045
-575,977	353,239	0,063	0,093
-574,963	26,498	0,073	-0,045
-573,948	800,000	-0,014	0,029
-572,934	-200,000	0,007	-0,108
-571,919	-200,000	-0,005	-0,032
-570,904	-95,040	0,051	-0,010
-569,890	223,797	0,030	-0,036
-568,875	-200,000	0,035	0,122
-567,861	63,227	-0,117	0,087
-566,846	-200,000	-0,014	0,066
-565,831	-9,753	-0,021	-0,010
-564,817	287,747	0,026	-0,034
-563,802	444,611	-0,079	-0,128
-562,788	78,908	-0,021	-0,017
-561,773	32,648	0,078	0,050
-560,758	18,916	-0,117	-0,069
-559,744	251,631	0,056	0,070
-558,729	-200,000	0,009	0,055
-557,715	329,703	-0,008	-0,012
-556,700	344,319	0,100	0,145
-555,685	-200,000	0,029	-0,130
-554,671	800,000	-0,058	0,141
-553,656	-200,000	-0,005	0,191
-552,642	-110,479	0,052	-0,008
-551,627	44,656	-0,031	0,021
-550,612	205,215	-0,064	-0,073
-549,598	375,809	-0,046	-0,070
-548,583	-200,000	0,012	0,053
-547,569	23,309	0,099	0,060
-546,554	800,000	-0,034	0,103
-545,539	26,512	0,026	0,016
-544,525	-133,598	0,058	-0,005
-543,510	-200,000	0,017	-0,133
-542,496	800,000	-0,023	-0,062
-541,481	618,384	-0,062	-0,115
-540,466	-149,800	0,088	0,005
-539,452	800,000	0,069	0,142
-538,437	-38,049	0,108	0,042
-537,423	800,000	-0,005	0,016
-536,408	-50,743	0,166	-0,057
-535,393	-68,853	-0,031	0,009
-534,379	800,000	-0,020	-0,050
-533,364	5,037	-0,095	-0,051
-532,350	46,230	-0,047	-0,032
-531,335	344,900	0,025	-0,036
-530,321	430,235	-0,050	-0,080
-529,306	-200,000	-0,026	-0,105
-528,291	-181,436	-0,071	-0,001
-527,277	109,802	0,003	-0,003
-526,262	-28,103	-0,042	-0,018
-525,248	76,186	0,018	0,014
-524,233	800,000	-0,004	0,009
-523,218	262,247	-0,008	0,010
-522,204	593,881	-0,031	-0,058
-521,189	-178,225	-0,013	-0,000
-520,175	471,815	0,032	0,054
-519,160	134,066	-0,055	-0,052
-518,145	432,398	0,061	-0,098
-517,131	-99,522	0,064	-0,012
-516,116	521,834	-0,031	0,055
-515,102	800,000	-0,018	0,052
-514,087	-200,000	-0,030	-0,172
-513,072	556,062	-0,059	0,105
-512,058	33,009	0,050	-0,032
-511,043	-156,632	-0,094	0,004
-510,029	-200,000	-0,015	-0,120
-509,014	119,459	-0,063	0,057
-507,999	3,741	-0,069	0,037
-506,985	-200,000	0,011	-0,179
-505,970	-112,663	0,033	-0,005
-504,956	-200,000	-0,022	-0,141
-503,941	-17,501	-0,065	0,030
-502,926	-39,038	0,100	0,039
-501,912	449,798	0,042	-0,068
-500,897	-30,883	-0,060	-0,025
-499,883	-125,401	-0,049	0,005
-498,868	-200,000	-0,005	-0,022
-497,853	102,806	-0,082	-0,071
-496,839	-22,575	0,024	-0,011
-495,824	-200,000	0,007	0,111
-494,810	290,296	-0,047	0,063
-493,795	149,893	0,063	-0,063
-492,781	100,321	0,062	0,053
-491,766	-200,000	0,001	-0,185
-490,751	-8,163	0,099	-0,049
-489,737	800,000	-0,041	-0,108
-488,722	-75,222	-0,042	0,011
-487,708	-200,000	0,003	-0,033
-486,693	-200,000	0,007	0,056
-485,678	-83,807	0,041	0,010
-484,664	-188,460	-0,132	0,001
-483,649	-199,105	-0,063	-0,000
-482,635	-78,780	-0,038	-0,010
-481,620	98,530	-0,040	0,034
-480,605	-174,551	-0,068	0,001
-479,591	21,085	-0,035	-0,021
-478,576	131,283	-0,063	0,060
-477,562	-200,000	0,041	0,180
-476,547	183,072	-0,088	-0,096
-475,532	-10,278	0,130	-0,064
-474,518	-200,000	0,010	-0,047
-473,503	-200,000	-0,020	0,099
-472,489	-23,562	0,111	0,049
-471,474	-69,929	0,086	-0,024
-470,459	-116,450	-0,102	-0,014
-469,445	800,000	-0,038	0,084
-468,430	-82,221	-0,131	-0,031
-467,416	-136,341	-0,163	-0,014
-466,401	125,789	0,096	0,089
-465,386	-34,303	0,100	-0,040
-464,372	184,475	-0,116	0,127
-463,357	-20,966	-0,170	-0,076
-462,343	129,956	-0,078	0,073
-461,328	-5,699	0,111	-0,056
-460,313	-141,396	-0,053	-0,004
-459,299	201,135	0,087	0,099
-458,284	-99,372	0,120	-0,022
-457,270	-200,000	-0,015	-0,162
-456,255	222,362	0,047	0,056
-455,241	800,000	0,053	-0,113
-454,226	800,000	0,036	-0,074
-453,211	-200,000	0,018	-0,096
-452,197	-131,444	0,019	0,002
-451,182	-11,029	0,059	-0,029
-450,168	-200,000	-0,034	0,158
-449,153	486,945	-0,097	0,163
-448,138	-119,502	-0,145	-0,018
-447,124	-142,758	-0,125	0,009
-446,109	-200,000	-0,037	-0,139
-445,095	-74,973	0,138	0,036
-444,080	502,543	-0,041	-0,070
-443,065	-96,356	0,097	0,019
-442,051	261,523	0,076	-0,097
-441,036	82,305	-0,051	-0,041
-440,022	-200,000	-0,017	-0,181
-439,007	630,830	0,067	-0,126
-437,992	47,714	-0,083	-0,057
-436,978	-95,673	0,076	0,015
-435,963	279,987	-0,082	0,109
-434,949	-8,593	0,074	-0,036
-433,934	112,840	0,089	-0,079
-432,919	-59,933	-0,035	-0,011
-431,905	-55,214	-0,054	-0,018
-430,890	748,820	0,031	-0,063
-429,876	-200,000	0,014	0,176
-428,861	543,395	-0,078	0,137
-427,846	-200,000	0,010	-0,128
-426,832	-26,702	-0,074	0,032
-425,817	-113,537	-0,111	0,016
-424,803	-173,299	-0,115	-0,003
-423,788	-200,000	0,015	-0,074
-422,773	502,010	-0,067	0,114
-421,759	-131,140	-0,068	-0,007
-420,744	-52,305	-0,032	-0,011
-419,730	-105,529	-0,144	-0,024
-418,715	-200,000	-0,010	-0,073
-417,701	-24,970	-0,039	-0,017
-416,686	800,000	0,076	0,181
-415,671	33,171	-0,096	0,061
-414,657	21,050	0,170	0,101
-413,642	-200,000	0,006	-0,045
-412,628	324,032	-0,059	-0,083
-411,613	800,000	0,013	0,036
-410,598	-200,000	-0,003	0,021
-409,584	-120,166	0,139	0,017
-408,569	-3,625	0,040	0,020
-407,555	39,753	0,097	-0,064
-406,540	-109,328	-0,135	-0,021
-405,525	18,607	-0,076	-0,045
-404,511	-76,886	0,039	0,010
-403,496	-35,811	-0,122	0,048
-402,482	402,481	0,028	-0,043
-401,467	-34,604	0,129	0,052
-400,452	-83,210	0,083	-0,019
-399,438	-80,680	0,077	0,019
-398,423	387,315	0,012	-0,018
-397,409	-200,000	0,020	0,066
-396,394	154,988	0,150	0,151
-395,379	-42,667	0,011	-0,004
-394,365	-102,090	-0,127	0,022
-393,350	428,335	0,105	0,168
-392,336	-70,441	0,097	-0,027
-391,321	-127,288	0,065	-0,007
-390,306	-45,082	-0,012	-0,004
-389,292	-200,000	-0,022	-0,132
-388,277	-200,000	0,001	-0,084
-387,263	224,362	0,068	0,081
-386,248	-200,000	-0,020	-0,087
-385,233	-200,000	0,019	0,079
-384,219	464,644	0,018	0,030
-383,204	800,000	0,038	-0,119
-382,190	-200,000	0,043	0,160
-381,175	-105,733	0,087	-0,014
-380,160	-83,949	-0,023	-0,005
-379,146	-200,000	-0,013	0,077
-378,131	184,633	-0,085	0,093
-377,117	-84,802	0,082	0,019
-376,102	-160,739	-0,076	0,003
-375,088	76,529	-0,049	-0,038
-374,073	103,565	-0,026	0,022
-373,058	800,000	-0,026	0,062
-372,044	122,465	0,040	-0,037
-371,029	444,055	0,035	0,056
-370,015	125,336	0,039	0,036
-369,000	-92,956	0,104	0,021
-367,985	42,486	-0,046	-0,031
-366,971	152,481	-0,074	-0,074
-365,956	-178,003	0,058	-0,001
-364,942	153,148	0,028	0,028
-363,927	-164,201	0,128	-0,004
-362,912	800,000	-0,033	-0,092
-361,898	-200,000	-0,004	-0,068
-360,883	252,615	-0,097	-0,122
-359,869	208,752	-0,082	0,095
-358,854	-133,269	0,039	-0,004
-357,839	-200,000	-0,014	0,086
-356,825	800,000	0,037	0,097
-355,810	-200,000	-0,012	0,095
-354,796	-130,428	-0,075	-0,007
-353,781	650,073	0,019	-0,035
-352,766	-100,345	-0,098	-0,018
-351,752	-200,000	-0,015	0,074
-350,737	-200,000	0,039	0,233
-349,723	-200,000	0,018	0,118
-348,708	519,250	0,096	0,165
-347,693	34,473	-0,128	-0,082
-346,679	224,727	-0,018	0,021
-345,664	-36,725	-0,087	-0,034
-344,650	-200,000	0,005	-0,068
-343,635	620,992	-0,045	0,083
-342,620	-88,409	0,267	-0,058
-341,606	11,667	0,056	0,032
-340,591	800,000	0,015	-0,046
-339,577	241,347	0,024	-0,030
-338,562	-118,791	0,179	0,023
-337,548	53,867	0,033	-0,023
-336,533	-64,583	0,051	0,015
-335,518	-93,288	-0,099	-0,020
-334,504	-200,000	0,023	0,148
-333,489	-38,756	0,110	-0,042
-332,475	800,000	0,071	-0,169
-331,460	52,183	-0,103	-0,072
-330,445	561,496	0,034	0,060
-329,431	-10,319	0,141	-0,068
-328,416	800,000	0,049	-0,114
-327,402	161,992	0,047	0,049
-326,387	-200,000	-0,025	0,083
-325,372	-111,957	0,031	0,005
-324,358	-200,000	-0,025	0,138
-323,343	-200,000	0,000	0,048
-322,329	-200,000	-0,015	-0,049
-321,314	444,947	0,031	0,049
-320,299	507,546	-0,011	-0,019
-319,285	-168,805	0,049	-0,001
-318,270	751,220	0,029	0,057
-317,256	-24,710	-0,133	-0,058
-316,241	124,167	-0,148	-0,136
-315,226	800,000	0,028	0,077
-314,212	-138,156	0,094	-0,008
-313,197	369,552	-0,086	-0,129
-312,183	15,201	0,044	0,025
-311,168	547,717	-0,017	0,031
-310,153	800,000	0,036	0,093
-309,139	-14,150	0,122	-0,058
-308,124	434,994	0,038	-0,061
-307,110	236,179	0,107	0,130
-306,095	350,026	-0,066	0,096
-305,080	123,174	0,105	0,096
-304,066	0,289	-0,047	-0,025
-303,051	242,449	0,010	-0,012
-302,037	-0,378	-0,053	0,027
-301,022	109,736	0,154	-0,135
-300,008	183,865	0,035	0,038
-298,993	161,773	-0,023	-0,023
-297,978	23,544	-0,095	-0,057
-296,964	-200,000	0,000	-0,044
-295,949	-200,000	-0,038	-0,127
-294,935	-200,000	0,030	-0,104
-293,920	800,000	-0,014	-0,037
-292,905	-200,000	-0,002	0,062
-291,891	-89,389	-0,012	-0,003
-290,876	28,642	0,043	0,027
-289,862	17,272	-0,012	-0,007
-288,847	-200,000	0,005	0,020
-287,832	50,826	-0,106	-0,073
-286,818	84,494	0,061	-0,049
-285,803	-200,000	0,024	0,098
-284,789	-200,000	-0,021	0,088
-283,774	800,000	-0,074	0,157
-282,759	-105,715	-0,114	0,019
-281,745	-200,000	-0,002	-0,061
-280,730	142,228	-0,069	0,067
-279,716	-125,164	0,118	-0,013
-278,701	-200,000	-0,005	-0,070
-277,686	-200,000	0,000	-0,030
-276,672	405,260	-0,085	0,132
-275,657	-200,000	-0,023	0,083
-274,643	-200,000	-0,096	-0,339
-273,628	194,389	-0,033	-0,036
-272,613	62,730	0,029	-0,021
-271,599	141,538	-0,041	-0,039
-270,584	545,357	0,040	-0,069
-269,570	-30,076	0,076	0,032
-268,555	800,000	0,013	0,034
-267,540	-12,695	0,027	0,013
-266,526	800,000	0,073	-0,153
-265,511	800,000	0,022	0,063
-264,497	-200,000	-0,001	-0,016
-263,482	-11,621	0,024	-0,012
-262,467	-200,000	-0,014	0,060
-261,453	-200,000	-0,012	0,049
-260,438	800,000	-0,033	-0,072
-259,424	-200,000	0,005	-0,020
-258,409	-23,190	-0,102	0,045
-257,395	163,718	-0,027	0,028
-256,380	-8,385	0,103	0,050
-255,365	-200,000	-0,028	-0,122
-254,351	-27,972	0,078	0,033
-253,336	59,023	-0,070	-0,051
-252,322	-200,000	-0,038	-0,139
-251,307	800,000	0,051	-0,157
-250,292	-200,000	0,017	0,093
-249,278	-200,000	0,003	0,043
-248,263	-112,667	0,153	-0,022
-247,249	800,000	-0,024	-0,074
-246,234	-200,000	-0,009	-0,029
-245,219	-51,726	-0,045	-0,015
-244,205	-200,000	0,009	0,052
-243,190	-200,000	-0,020	0,145
-242,176	-60,343	0,173	0,053
-241,161	-82,189	-0,090	-0,021
-240,146	-47,613	-0,043	-0,015
-239,132	-34,410	0,084	-0,033
-238,117	-200,000	0,028	0,093
-237,103	97,372	0,126	0,105
-236,088	-120,634	0,154	0,019
-235,073	-4,676	0,091	0,046
-234,059	294,854	0,018	-0,025
-233,044	-200,000	0,033	0,162
-232,030	800,000	0,030	0,060
-231,015	-85,281	-0,093	0,021
-230,000	310,325	0,053	-0,072
-228,986	33,780	0,119	0,076
-227,971	-28,039	0,035	-0,015
-226,957	-116,093	-0,055	-0,007
-225,942	436,209	0,034	-0,053
-224,927	333,014	0,102	0,144
-223,913	-7,728	-0,112	-0,055
-222,898	106,377	-0,063	-0,055
-221,884	-200,000	-0,027	-0,126
-220,869	14,385	0,095	-0,054
-219,855	93,958	-0,044	0,037
-218,840	-27,596	0,100	0,042
-217,825	60,752	-0,120	0,087
-216,811	-200,000	0,009	-0,138
-215,796	148,431	-0,068	-0,067
-214,782	133,744	0,096	-0,091
-213,767	371,423	-0,040	-0,060
-212,752	-200,000	0,016	-0,079
-211,738	800,000	-0,043	0,107
-210,723	-34,971	-0,046	-0,018
-209,709	-200,000	0,028	0,097
-208,694	-66,900	-0,103	-0,029
-207,679	613,621	0,035	-0,064
-206,665	-200,000	-0,002	0,016
-205,650	-200,000	-0,005	0,022
-204,636	800,000	0,056	-0,117
-203,621	-200,000	-0,010	-0,091
-202,606	-103,405	-0,098	0,017
-201,592	-200,000	-0,002	-0,071
-200,577	312,375	0,075	-0,103
-199,563	16,985	-0,018	-0,011
-198,548	-46,503	0,113	0,040
-197,533	800,000	0,037	0,109
-196,519	-3,762	-0,188	0,095
-195,504	19,439	-0,111	0,065
-194,490	93,950	0,018	-0,015
-193,475	-200,000	-0,014	0,118
-192,460	524,841	0,068	-0,117
-191,446	-200,000	-0,008	0,036
-190,431	-169,127	0,041	-0,001
-189,417	8,268	-0,014	0,008
-188,402	284,836	0,051	-0,067
-187,387	-29,416	-0,050	0,021
-186,373	-200,000	0,034	0,132
-185,358	37,383	0,103	-0,066
-184,344	112,825	0,035	-0,031
-183,329	62,200	-0,063	-0,045
-182,315	800,000	-0,045	0,109
-181,300	-200,000	0,012	0,070
-180,285	-80,644	0,093	0,022
-179,271	800,000	-0,029	0,063
-178,256	22,426	0,085	0,050
-177,242	164,700	0,064	0,066
-176,227	299,658	0,091	0,123
-175,212	-73,057	-0,049	0,013
-174,198	-66,251	0,144	-0,042
-173,183	97,851	-0,046	0,039
-172,169	-112,296	-0,092	-0,013
-171,154	345,272	-0,069	-0,099
-170,139	-43,953	-0,083	-0,030
-169,125	59,300	-0,035	0,025
-168,110	437,205	-0,016	-0,025
-167,096	-4,613	-0,067	-0,034
-166,081	133,622	-0,062	0,058
-165,066	-82,827	-0,073	0,017
-164,052	25,226	-0,133	-0,080
-163,037	800,000	-0,033	0,078
-162,023	800,000	-0,048	0,103
-161,008	800,000	0,049	0,148
-159,993	85,208	0,044	0,035
-158,979	-200,000	-0,002	-0,039
-157,964	-200,000	0,001	-0,113
-156,950	-58,094	-0,018	-0,006
-155,935	7,429	-0,028	-0,015
-154,920	-75,217	0,077	0,020
-153,906	-41,579	0,098	0,036
-152,891	-86,276	0,004	0,001
-151,877	-200,000	0,006	0,021
-150,862	449,756	-0,039	-0,063
-149,847	750,746	0,026	-0,051
-148,833	-200,000	0,031	0,140
-147,818	-54,940	-0,179	0,059
-146,804	142,393	0,027	-0,026
-145,789	40,314	-0,035	0,023
-144,775	800,000	0,011	-0,030
-143,760	-200,000	0,023	0,116
-142,745	800,000	0,058	-0,142
-141,731	53,573	-0,076	-0,053
-140,716	550,768	-0,045	0,080
-139,702	-200,000	0,008	0,066
-138,687	-91,188	-0,147	-0,030
-137,672	-52,731	0,046	-0,015
-136,658	800,000	-0,031	-0,078
-135,643	-74,408	0,107	-0,028
-134,629	320,816	-0,016	0,022
-133,614	-200,000	-0,021	-0,157
-132,599	-200,000	-0,018	-0,066
-131,585	669,944	0,021	0,040
-130,570	268,380	-0,049	0,062
-129,556	-17,685	0,063	-0,029
-128,541	33,493	-0,140	-0,088
-127,526	-200,000	-0,001	-0,004
-126,512	-48,397	0,036	-0,013
-125,497	-200,000	-0,025	0,087
-124,483	800,000	0,068	-0,141
-123,468	-200,000	0,017	0,095
-122,453	106,509	-0,008	-0,007
-121,439	800,000	-0,050	-0,123
-120,424	-96,028	-0,022	-0,004
