DTS Sentinel unit serial number:	SN410029Multiplexer serial number:	ORYXHardware model number:	OX2-SRSoftware version number:	ORYX F/W v4,00 Oryx Data Collector v3.7.2.0data status	okinstallation	B4 Nyhavnadifferential loss correction	single-endedforward channel	channel 2reverse channel	N/Adate	2023/12/15time	23:40:13forward acquisition time	300,00reverse acquisition time	0,00gamma	499,1914k internal	0,3128k external	0,3128temperature offset calibration	1,0000default loss term (dB/km)	0,3820temperature slope calibration	1,0000multiplexer offset coefficient	1,0000multiplexer slope coefficient	1,0000fibre end	0,00T internal ref (°C)	21,76T ext. ref 1 (°C)	6,78T ext. ref 2 (°C)	6,95length (m)	temperature (°C)	Stokes	anti-Stokes-744,400	-200,000	-0,011	-0,075
-743,385	709,510	-0,098	0,194
-742,371	488,749	0,046	0,078
-741,356	459,540	-0,142	0,235
-740,342	-200,000	-0,020	-0,132
-739,327	-88,498	-0,281	0,062
-738,312	-118,076	0,139	-0,018
-737,298	-66,392	-0,276	0,081
-736,283	-200,000	-0,018	-0,063
-735,269	-70,841	-0,349	0,097
-734,254	800,000	0,055	0,137
-733,239	-116,848	-0,400	-0,054
-732,225	-69,258	0,198	0,056
-731,210	33,585	0,054	-0,035
-730,196	80,355	-0,102	-0,081
-729,181	142,106	-0,035	0,034
-728,167	-177,393	0,109	-0,002
-727,152	800,000	-0,036	0,115
-726,137	-49,235	-0,113	0,040
-725,123	-111,813	-0,138	-0,020
-724,108	175,249	-0,073	-0,078
-723,094	-114,295	-0,117	0,017
-722,079	-200,000	-0,034	-0,172
-721,064	36,528	0,099	-0,065
-720,050	-200,000	0,012	-0,064
-719,035	-72,038	-0,039	0,011
-718,021	-32,523	-0,075	-0,031
-717,006	-93,338	0,109	-0,022
-715,991	-108,780	-0,138	0,022
-714,977	52,189	-0,171	-0,121
-713,962	56,516	0,051	0,037
-712,948	-139,985	-0,115	-0,009
-711,933	-123,505	-0,019	0,002
-710,918	496,666	-0,054	0,093
-709,904	-111,290	-0,024	-0,004
-708,889	580,728	-0,061	0,112
-707,875	155,166	-0,051	-0,052
-706,860	604,736	-0,030	0,055
-705,845	-200,000	0,002	0,007
-704,831	-200,000	-0,012	0,048
-703,816	-43,487	-0,054	-0,020
-702,802	-3,994	-0,058	-0,030
-701,787	142,182	-0,071	-0,070
-700,772	56,773	-0,230	-0,166
-699,758	-102,637	-0,077	0,014
-698,743	-25,877	0,146	0,064
-697,729	107,894	-0,043	0,038
-696,714	24,419	-0,065	-0,040
-695,699	102,994	-0,114	-0,099
-694,685	-200,000	0,024	-0,084
-693,670	-200,000	0,003	-0,031
-692,656	396,981	-0,081	-0,126
-691,641	-200,000	0,003	-0,067
-690,627	-38,335	0,092	-0,036
-689,612	-200,000	-0,005	-0,080
-688,597	800,000	0,040	0,084
-687,583	800,000	-0,046	-0,114
-686,568	-157,867	-0,069	0,003
-685,554	134,001	-0,103	-0,099
-684,539	800,000	-0,024	-0,059
-683,524	-200,000	0,010	0,072
-682,510	567,732	0,027	-0,050
-681,495	411,033	0,046	-0,073
-680,481	140,527	-0,057	0,056
-679,466	72,568	-0,093	-0,072
-678,451	800,000	0,013	-0,042
-677,437	256,492	-0,059	-0,076
-676,422	121,367	0,061	0,057
-675,408	35,679	-0,061	0,040
-674,393	-77,476	-0,099	-0,025
-673,378	-42,522	0,167	-0,063
-672,364	-62,175	-0,106	0,033
-671,349	-150,456	-0,106	0,006
-670,335	-200,000	0,015	0,089
-669,320	-15,075	-0,078	0,037
-668,305	32,277	0,076	-0,049
-667,291	-200,000	0,002	-0,052
-666,276	-0,690	-0,072	0,038
-665,262	800,000	-0,051	-0,133
-664,247	-200,000	-0,006	-0,076
-663,232	-32,245	-0,143	0,059
-662,218	-4,041	-0,058	0,030
-661,203	-200,000	-0,010	0,106
-660,189	-200,000	0,021	0,087
-659,174	-200,000	0,002	-0,080
-658,159	-200,000	0,008	-0,117
-657,145	559,580	-0,091	-0,163
-656,130	-4,631	0,082	-0,042
-655,116	800,000	-0,034	-0,070
-654,101	-18,523	0,061	0,028
-653,086	143,373	-0,036	-0,036
-652,072	220,242	-0,039	-0,046
-651,057	-13,036	-0,108	-0,052
-650,043	354,603	0,054	-0,080
-649,028	14,504	-0,049	0,028
-648,014	144,914	-0,016	0,015
-646,999	-106,059	-0,074	-0,012
-645,984	-200,000	0,010	0,113
-644,970	800,000	0,040	-0,111
-643,955	-148,580	-0,097	0,006
-642,941	143,029	-0,104	-0,102
-641,926	-58,861	0,095	-0,030
-640,911	-47,639	-0,105	-0,037
-639,897	112,025	0,094	0,084
-638,882	-134,262	-0,172	0,015
-637,868	-200,000	-0,006	-0,056
-636,853	-36,045	-0,121	-0,048
-635,838	800,000	0,035	-0,093
-634,824	-27,344	0,097	0,042
-633,809	229,496	0,067	0,082
-632,795	174,601	-0,045	0,049
-631,780	-200,000	0,039	-0,160
-630,765	84,542	0,143	-0,116
-629,751	538,024	0,067	-0,119
-628,736	800,000	0,046	-0,107
-627,722	-116,102	-0,082	0,011
-626,707	-200,000	-0,011	-0,050
-625,692	-200,000	0,007	0,084
-624,678	231,311	0,011	0,013
-623,663	576,883	0,034	0,062
-622,649	79,775	-0,018	0,014
-621,634	-41,151	0,023	-0,009
-620,619	378,477	-0,041	0,062
-619,605	-200,000	0,001	0,078
-618,590	423,658	0,043	-0,068
-617,576	445,585	-0,016	-0,025
-616,561	-200,000	0,001	0,067
-615,546	2,712	0,027	0,014
-614,532	-43,668	-0,089	0,033
-613,517	351,629	-0,051	0,075
-612,503	-140,368	-0,057	-0,004
-611,488	-114,015	0,095	-0,014
-610,474	-200,000	-0,017	0,111
-609,459	-163,758	-0,062	-0,002
-608,444	576,953	-0,087	-0,159
-607,430	-33,355	-0,091	0,037
-606,415	316,843	0,026	0,037
-605,401	122,766	-0,022	0,021
-604,386	720,934	0,061	-0,121
-603,371	800,000	0,022	-0,060
-602,357	-200,000	-0,014	0,084
-601,342	-49,318	0,046	0,016
-600,328	-200,000	-0,038	-0,232
-599,313	-117,473	-0,128	0,017
-598,298	-200,000	-0,006	0,035
-597,284	-93,819	-0,010	-0,002
-596,269	314,755	-0,043	0,060
-595,255	-200,000	-0,012	0,189
-594,240	-101,499	-0,107	-0,019
-593,225	-200,000	0,000	-0,013
-592,211	44,089	0,035	0,024
-591,196	-200,000	0,007	-0,043
-590,182	342,409	0,150	-0,218
-589,167	800,000	-0,037	0,111
-588,152	231,508	0,030	-0,037
-587,138	211,114	0,039	0,045
-586,123	95,528	0,128	0,108
-585,109	164,882	-0,072	-0,075
-584,094	800,000	0,038	-0,088
-583,079	129,157	0,038	-0,036
-582,065	48,883	0,034	-0,023
-581,050	-200,000	-0,018	-0,172
-580,036	49,842	-0,007	-0,005
-579,021	49,586	0,030	-0,021
-578,006	-96,092	-0,069	-0,013
-576,992	-200,000	-0,009	0,140
-575,977	181,326	0,045	0,049
-574,963	-200,000	-0,008	0,063
-573,948	96,102	0,048	-0,041
-572,934	-48,150	0,113	-0,040
-571,919	214,004	0,033	0,039
-570,904	800,000	-0,054	-0,133
-569,890	257,286	0,094	-0,120
-568,875	-83,805	-0,027	-0,006
-567,861	-137,438	0,183	-0,015
-566,846	63,398	-0,050	-0,037
-565,831	-200,000	-0,005	0,107
-564,817	28,583	-0,129	0,080
-563,802	-26,319	-0,081	-0,035
-562,788	26,041	0,093	0,057
-561,773	800,000	0,049	-0,139
-560,758	165,114	-0,022	-0,023
-559,744	74,790	0,034	-0,026
-558,729	310,929	0,067	-0,094
-557,715	-200,000	-0,026	-0,133
-556,700	47,301	-0,064	-0,044
-555,685	-142,209	-0,189	-0,014
-554,671	800,000	-0,010	-0,024
-553,656	257,475	0,021	0,026
-552,642	171,572	-0,030	0,031
-551,627	307,119	-0,050	0,069
-550,612	-196,166	0,185	-0,001
-549,598	-53,722	-0,095	-0,032
-548,583	473,850	0,093	0,155
-547,569	-200,000	-0,035	0,144
-546,554	-200,000	0,012	0,058
-545,539	25,957	0,093	0,057
-544,525	478,376	-0,036	-0,060
-543,510	-111,553	-0,146	0,022
-542,496	-113,926	0,127	-0,018
-541,481	270,482	-0,075	-0,098
-540,466	-200,000	0,021	-0,120
-539,452	15,425	0,038	0,022
-538,437	-200,000	-0,007	0,067
-537,423	-200,000	0,001	0,025
-536,408	-197,137	0,129	0,001
-535,393	53,256	-0,077	-0,055
-534,379	-200,000	-0,043	-0,192
-533,364	23,130	0,093	0,056
-532,350	3,749	-0,093	0,050
-531,335	247,527	0,032	-0,040
-530,321	62,145	0,084	-0,062
-529,306	294,712	0,089	-0,120
-528,291	-167,402	-0,251	-0,007
-527,277	17,448	0,072	-0,042
-526,262	800,000	0,016	0,052
-525,248	273,282	0,071	0,093
-524,233	-200,000	0,032	-0,155
-523,218	-200,000	-0,016	0,122
-522,204	80,162	-0,093	-0,074
-521,189	162,073	-0,068	-0,071
-520,175	243,065	0,037	0,046
-519,160	800,000	-0,044	-0,099
-518,145	17,347	0,040	-0,023
-517,131	-200,000	-0,030	0,099
-516,116	722,963	0,005	-0,009
-515,102	800,000	-0,040	-0,100
-514,087	370,840	-0,017	0,025
-513,072	800,000	-0,026	0,079
-512,058	162,714	0,055	-0,057
-511,043	65,416	-0,066	-0,049
-510,029	377,142	0,053	-0,080
-509,014	800,000	-0,026	-0,072
-507,999	705,974	-0,038	0,075
-506,985	-200,000	0,033	-0,143
-505,970	-148,648	0,101	0,006
-504,956	-200,000	0,017	-0,093
-503,941	800,000	0,028	-0,069
-502,926	216,260	-0,018	-0,021
-501,912	-156,668	0,059	0,003
-500,897	130,745	0,025	-0,024
-499,883	800,000	-0,016	-0,049
-498,868	-200,000	0,037	0,000
-497,853	-123,526	-0,084	0,010
-496,839	-100,948	-0,066	0,012
-495,824	226,525	0,059	-0,071
-494,810	299,415	-0,035	-0,047
-493,795	2,674	-0,207	-0,111
-492,781	-200,000	-0,007	0,063
-491,766	-200,000	-0,004	-0,072
-490,751	-200,000	0,013	0,153
-489,737	521,796	-0,056	0,098
-488,722	-125,720	-0,094	0,010
-487,708	-200,000	-0,011	0,054
-486,693	209,258	-0,005	-0,006
-485,678	-35,542	-0,061	-0,024
-484,664	800,000	-0,056	-0,167
-483,649	87,899	0,068	0,056
-482,635	-42,819	-0,068	0,025
-481,620	-66,893	-0,046	-0,013
-480,605	104,296	0,048	-0,042
-479,591	37,135	0,096	0,063
-478,576	60,214	0,058	-0,042
-477,562	-97,710	0,060	-0,011
-476,547	38,303	-0,091	-0,059
-475,532	155,002	-0,031	0,031
-474,518	-200,000	0,006	-0,030
-473,503	-200,000	-0,001	-0,028
-472,489	179,839	0,051	0,055
-471,474	-27,694	0,008	0,004
-470,459	4,277	-0,061	-0,033
-469,445	113,033	0,075	-0,067
-468,430	-175,825	-0,068	-0,001
-467,416	143,692	-0,036	0,035
-466,401	292,294	0,037	0,050
-465,386	-97,547	0,063	0,012
-464,372	92,000	-0,049	-0,040
-463,357	-125,198	0,112	0,012
-462,343	-30,135	0,111	-0,046
-461,328	498,055	-0,020	-0,034
-460,313	2,982	0,057	0,031
-459,299	223,775	0,077	0,092
-458,284	800,000	-0,016	0,045
-457,270	-155,147	-0,170	0,008
-456,255	122,521	-0,072	-0,066
-455,241	-109,822	-0,184	0,028
-454,226	-18,177	-0,046	0,021
-453,211	160,999	-0,067	-0,069
-452,197	16,936	0,059	0,034
-451,182	-118,168	-0,068	-0,009
-450,168	675,732	-0,018	0,035
-449,153	16,774	-0,074	-0,043
-448,138	-200,000	-0,002	-0,015
-447,124	-113,176	-0,153	-0,022
-446,109	-87,446	0,036	-0,008
-445,095	-158,373	0,112	-0,005
-444,080	-46,880	-0,033	-0,012
-443,065	-41,142	-0,055	0,021
-442,051	775,142	-0,060	0,122
-441,036	647,472	-0,036	-0,069
-440,022	-200,000	0,007	-0,036
-439,007	-200,000	0,010	-0,093
-437,992	30,707	-0,033	0,021
-436,978	53,282	-0,041	-0,029
-435,963	-200,000	0,026	-0,086
-434,949	-37,429	-0,063	-0,025
-433,934	117,921	-0,029	0,026
-432,919	-97,870	-0,157	-0,030
-431,905	11,787	0,025	-0,014
-430,890	-65,239	0,141	0,042
-429,876	490,694	-0,044	0,075
-428,861	800,000	0,004	0,013
-427,846	-7,851	0,087	0,043
-426,832	800,000	-0,051	0,148
-425,817	-21,935	-0,092	0,041
-424,803	75,699	-0,095	0,074
-423,788	-71,459	0,071	0,019
-422,773	663,012	0,084	0,161
-421,759	800,000	0,016	0,051
-420,744	76,662	-0,092	0,072
-419,730	-4,775	0,046	-0,023
-418,715	95,193	0,077	-0,064
-417,701	-63,905	0,024	0,007
-416,686	331,294	0,115	0,163
-415,671	800,000	0,046	0,135
-414,657	188,765	-0,064	-0,071
-413,642	-18,707	-0,182	-0,083
-412,628	54,146	-0,027	0,019
-411,613	-35,917	-0,058	-0,023
-410,598	800,000	-0,019	0,044
-409,584	-200,000	-0,024	-0,114
-408,569	-200,000	0,016	0,105
-407,555	259,696	0,058	0,074
-406,540	-200,000	-0,026	0,121
-405,525	-64,105	-0,090	-0,027
-404,511	-7,302	-0,167	-0,083
-403,496	-18,615	0,096	0,044
-402,482	-126,991	-0,055	-0,006
-401,467	-62,142	0,139	-0,042
-400,452	-200,000	0,017	-0,127
-399,438	800,000	-0,039	-0,106
-398,423	472,665	0,067	0,111
-397,409	101,893	-0,062	-0,053
-396,394	-200,000	0,001	-0,160
-395,379	48,410	-0,078	0,053
-394,365	-200,000	0,004	-0,017
-393,350	119,156	0,054	0,049
-392,336	308,547	0,057	0,078
-391,321	-51,360	-0,036	-0,012
-390,306	-60,451	-0,079	-0,024
-389,292	-47,740	-0,068	-0,024
-388,277	-200,000	0,020	0,072
-387,263	19,348	0,174	-0,102
-386,248	-26,986	-0,026	0,011
-385,233	8,220	0,080	-0,044
-384,219	800,000	-0,031	-0,098
-383,204	800,000	0,029	-0,092
-382,190	-200,000	0,007	0,036
-381,175	-122,633	-0,090	0,011
-380,160	323,635	-0,036	0,051
-379,146	149,752	0,038	-0,037
-378,131	59,447	0,098	-0,071
-377,117	111,766	0,115	0,102
-376,102	-121,059	0,136	-0,017
-375,088	800,000	-0,014	0,035
-374,073	-37,821	0,079	-0,031
-373,058	-76,948	0,143	0,036
-372,044	30,342	0,099	-0,062
-371,029	-200,000	-0,024	-0,124
-370,015	330,515	-0,055	-0,079
-369,000	453,781	0,030	-0,049
-367,985	306,012	-0,099	0,135
-366,971	-27,846	-0,074	0,031
-365,956	262,364	0,061	0,078
-364,942	-200,000	0,010	0,050
-363,927	45,759	0,081	0,055
-362,912	97,511	-0,028	-0,024
-361,898	31,482	0,072	-0,046
-360,883	645,701	0,011	-0,021
-359,869	-200,000	-0,024	-0,108
-358,854	48,736	-0,021	0,014
-357,839	-3,941	-0,058	0,030
-356,825	-200,000	-0,017	0,088
-355,810	540,366	0,030	0,053
-354,796	-108,418	-0,073	-0,011
-353,781	-200,000	-0,022	-0,088
-352,766	13,400	0,123	-0,070
-351,752	28,807	0,029	0,018
-350,737	31,397	0,022	0,014
-349,723	-96,663	0,017	-0,003
-348,708	126,000	0,005	-0,005
-347,693	-103,236	0,032	0,006
-346,679	-162,382	-0,081	0,003
-345,664	151,222	-0,008	0,008
-344,650	-92,767	0,030	-0,006
-343,635	-200,000	-0,004	0,024
-342,620	-31,105	0,047	-0,019
-341,606	-74,001	0,066	-0,017
-340,591	26,544	0,081	0,049
-339,577	-200,000	0,029	0,139
-338,562	34,681	0,145	-0,093
-337,548	-56,776	0,088	-0,028
-336,533	-200,000	-0,048	-0,167
-335,518	-169,200	0,059	0,002
-334,504	-96,551	-0,025	-0,005
-333,489	355,871	-0,027	-0,040
-332,475	800,000	0,045	-0,106
-331,460	-101,032	-0,015	0,003
-330,445	-188,855	-0,111	0,001
-329,431	36,565	0,169	0,109
-328,416	-123,501	0,057	-0,007
-327,402	409,977	0,013	0,021
-326,387	800,000	-0,029	0,072
-325,372	-124,172	-0,027	-0,003
-324,358	-163,509	-0,073	0,002
-323,343	612,888	-0,013	-0,025
-322,329	-154,622	0,084	-0,004
-321,314	760,358	-0,050	-0,099
-320,299	-35,457	-0,020	-0,008
-319,285	-200,000	0,016	0,056
-318,270	-81,138	-0,092	-0,022
-317,256	238,276	-0,079	-0,097
-316,241	-101,940	-0,175	-0,031
-315,226	-87,861	0,100	0,022
-314,212	-51,741	0,051	0,017
-313,197	-54,449	0,146	0,048
-312,183	147,870	0,117	0,116
-311,168	-200,000	-0,010	0,032
-310,153	449,468	0,053	0,086
-309,139	800,000	-0,016	-0,035
-308,124	23,205	-0,043	-0,026
-307,110	-200,000	-0,036	0,130
-306,095	800,000	-0,038	0,110
-305,080	-166,964	-0,098	-0,003
-304,066	800,000	0,015	-0,041
-303,051	173,634	-0,045	0,048
-302,037	680,906	0,048	-0,093
-301,022	103,346	-0,082	-0,070
-300,008	146,580	0,082	0,081
-298,993	223,938	0,091	0,108
-297,978	-200,000	0,024	0,181
-296,964	168,864	-0,024	-0,025
-295,949	219,548	0,015	-0,018
-294,935	1,437	-0,117	0,061
-293,920	453,093	-0,050	-0,081
-292,905	-102,596	0,260	0,045
-291,891	-23,535	0,072	-0,031
-290,876	-200,000	0,017	0,102
-289,862	-200,000	0,041	0,134
-288,847	-73,225	-0,081	-0,022
-287,832	27,878	-0,063	0,039
-286,818	-200,000	-0,002	-0,040
-285,803	7,665	0,025	0,014
-284,789	594,970	0,018	0,032
-283,774	-125,680	0,131	0,014
-282,759	-200,000	-0,015	0,088
-281,745	800,000	0,085	-0,182
-280,730	800,000	-0,029	0,063
-279,716	-200,000	-0,021	0,103
-278,701	179,913	0,081	0,087
-277,686	-200,000	-0,013	0,052
-276,672	-83,244	0,072	0,017
-275,657	-87,043	0,094	-0,021
-274,643	27,786	0,117	-0,072
-273,628	-200,000	-0,012	0,042
-272,613	119,063	-0,028	0,025
-271,599	800,000	0,005	0,014
-270,584	-79,864	0,141	0,034
-269,570	-200,000	-0,012	0,102
-268,555	368,482	-0,023	0,034
-267,540	-90,035	0,080	-0,017
-266,526	81,123	-0,162	-0,128
-265,511	196,046	-0,148	-0,165
-264,497	41,313	0,050	0,033
-263,482	377,617	0,099	0,148
-262,467	-98,787	-0,043	0,008
-261,453	36,859	-0,112	0,072
-260,438	-70,692	0,059	0,016
-259,424	-200,000	-0,012	-0,090
-258,409	-200,000	0,012	0,061
-257,395	529,911	-0,023	-0,041
-256,380	-200,000	0,003	0,082
-255,365	-200,000	-0,018	0,120
-254,351	138,670	0,058	-0,055
-253,336	-200,000	-0,001	0,044
-252,322	-51,206	-0,086	-0,029
-251,307	800,000	-0,044	0,093
-250,292	-200,000	0,023	-0,076
-249,278	99,525	-0,014	0,012
-248,263	-54,034	-0,107	0,035
-247,249	-12,035	-0,071	-0,034
-246,234	25,904	0,071	-0,043
-245,219	422,235	0,082	-0,129
-244,205	-200,000	-0,013	-0,175
-243,190	-120,503	-0,103	-0,013
-242,176	-104,141	0,099	0,017
-241,161	652,201	-0,040	0,074
-240,146	134,079	0,038	0,035
-239,132	20,652	0,060	-0,035
-238,117	-200,000	-0,004	-0,046
-237,103	-9,795	-0,079	0,038
-236,088	-21,181	-0,057	-0,025
-235,073	-200,000	-0,008	0,058
-234,059	108,057	0,045	-0,039
-233,044	800,000	0,004	0,012
-232,030	-97,750	-0,190	-0,036
-231,015	800,000	0,026	0,061
-230,000	76,930	-0,046	0,036
-228,986	-16,862	-0,068	0,031
-227,971	-200,000	0,006	0,084
-226,957	78,664	0,033	-0,026
-225,942	-53,952	0,125	-0,041
-224,927	49,574	0,061	0,042
-223,913	-200,000	0,017	-0,096
-222,898	566,562	-0,028	-0,050
-221,884	-91,541	-0,096	-0,020
-220,869	-19,993	-0,093	0,042
-219,855	-7,621	0,083	0,041
-218,840	294,511	-0,027	0,036
-217,825	800,000	-0,022	-0,062
-216,811	464,496	0,051	0,083
-215,796	-117,566	-0,097	-0,013
-214,782	-119,395	-0,139	0,017
-213,767	-200,000	-0,002	0,173
-212,752	77,246	0,032	0,025
-211,738	-200,000	0,006	0,078
-210,723	800,000	0,032	0,087
-209,709	800,000	0,018	0,058
-208,694	-95,566	0,041	0,008
-207,679	-200,000	-0,001	-0,162
-206,665	317,559	-0,014	-0,020
-205,650	153,119	0,082	0,082
-204,636	800,000	0,042	0,110
-203,621	425,332	-0,023	0,035
-202,606	164,604	-0,033	0,034
-201,592	-200,000	-0,013	-0,098
-200,577	-107,469	0,055	-0,009
-199,563	-45,443	-0,101	-0,036
-198,548	8,839	0,064	-0,035
-197,533	-106,251	0,083	0,013
-196,519	415,609	0,079	0,124
-195,504	-200,000	0,003	-0,058
-194,490	5,674	-0,095	-0,051
-193,475	-200,000	-0,005	0,089
-192,460	108,407	0,019	-0,016
-191,446	73,638	0,081	-0,062
-190,431	800,000	-0,018	0,042
-189,417	60,772	-0,079	0,057
-188,402	-80,670	0,141	0,034
-187,387	51,211	-0,025	-0,017
-186,373	-173,459	-0,105	0,002
-185,358	-111,703	0,060	-0,009
-184,344	208,727	0,008	-0,009
-183,329	186,233	0,033	0,036
-182,315	300,451	-0,047	0,063
-181,300	360,304	0,048	-0,070
-180,285	-51,541	-0,110	-0,037
-179,271	749,060	-0,034	0,068
-178,256	-79,841	0,150	0,036
-177,242	-200,000	0,153	-0,000
-176,227	48,383	0,048	0,032
-175,212	-86,437	-0,103	0,023
-174,198	54,349	0,108	0,075
-173,183	-200,000	-0,013	-0,092
-172,169	-67,389	0,037	0,011
-171,154	800,000	-0,040	-0,124
-170,139	-107,792	0,086	0,013
-169,125	-200,000	0,022	-0,079
-168,110	658,413	-0,016	-0,029
-167,096	404,464	0,055	0,085
-166,081	128,855	0,051	0,047
-165,066	47,409	-0,043	-0,029
-164,052	32,790	-0,152	0,095
-163,037	-45,413	-0,063	0,023
-162,023	-200,000	-0,008	0,085
-161,008	-149,877	-0,097	0,005
-159,993	-106,624	0,187	0,030
-158,979	31,638	-0,064	-0,040
-157,964	32,327	-0,054	0,034
-156,950	-41,015	-0,125	0,047
-155,935	-33,563	0,090	0,036
-154,920	-200,000	-0,009	-0,139
-153,906	79,499	-0,066	0,051
-152,891	220,429	-0,069	-0,081
-151,877	-200,000	-0,003	-0,049
-150,862	-200,000	-0,022	-0,193
-149,847	-200,000	0,009	-0,105
-148,833	94,005	0,049	-0,040
-147,818	-103,019	0,065	-0,011
-146,804	-154,157	-0,097	-0,005
-145,789	698,345	0,041	-0,079
-144,775	800,000	0,015	0,044
-143,760	-46,306	-0,095	-0,034
-142,745	607,596	0,062	-0,113
-141,731	49,884	0,026	-0,018
-140,716	-85,556	0,053	-0,012
-139,702	800,000	-0,036	0,094
-138,687	-83,037	0,110	0,026
-137,672	517,687	-0,025	0,042
-136,658	800,000	-0,023	-0,064
-135,643	359,995	0,029	-0,042
-134,629	-16,654	-0,126	-0,058
-133,614	208,376	-0,098	0,111
-132,599	244,351	0,095	0,116
-131,585	129,166	-0,037	-0,035
-130,570	-200,000	-0,027	-0,113
-129,556	227,400	-0,056	0,067
-128,541	-74,182	-0,136	0,035
-127,526	-128,172	-0,126	-0,013
-126,512	-42,268	0,067	-0,025
-125,497	-200,000	-0,030	-0,157
-124,483	270,848	0,010	0,012
-123,468	777,250	-0,026	0,052
-122,453	111,032	0,117	0,102
-121,439	219,421	-0,074	-0,086
-120,424	-99,462	-0,160	0,029
-119,410	-200,000	0,015	0,054
