DTS Sentinel unit serial number:	SN410029Multiplexer serial number:	ORYXHardware model number:	OX2-SRSoftware version number:	ORYX F/W v4,00 Oryx Data Collector v3.7.2.0data status	okinstallation	B4 Nyhavnadifferential loss correction	single-endedforward channel	channel 2reverse channel	N/Adate	2023/12/19time	06:50:13forward acquisition time	300,00reverse acquisition time	0,00gamma	499,1914k internal	0,3126k external	0,3126temperature offset calibration	1,0000default loss term (dB/km)	0,3820temperature slope calibration	1,0000multiplexer offset coefficient	1,0000multiplexer slope coefficient	1,0000fibre end	0,00T internal ref (°C)	21,20T ext. ref 1 (°C)	6,60T ext. ref 2 (°C)	6,67length (m)	temperature (°C)	Stokes	anti-Stokes-744,400	-200,000	0,017	-0,117
-743,385	-53,323	-0,183	0,062
-742,371	-119,357	0,102	0,013
-741,356	-14,515	-0,248	0,118
-740,342	517,925	0,035	-0,061
-739,327	110,543	-0,220	0,197
-738,312	800,000	-0,030	-0,076
-737,298	5,439	-0,316	0,173
-736,283	-64,978	-0,048	0,014
-735,269	-79,977	-0,198	-0,049
-734,254	-200,000	0,035	-0,162
-733,239	-75,544	-0,414	-0,109
-732,225	-65,625	0,093	0,028
-731,210	606,730	-0,052	-0,097
-730,196	-200,000	-0,002	-0,036
-729,181	-52,898	-0,023	0,008
-728,167	362,705	-0,029	-0,044
-727,152	190,859	0,016	0,018
-726,137	422,650	-0,068	0,108
-725,123	-200,000	0,001	0,042
-724,108	0,345	-0,076	-0,040
-723,094	-200,000	0,006	-0,090
-722,079	-200,000	-0,003	-0,052
-721,064	-31,792	-0,067	-0,028
-720,050	-200,000	-0,010	0,117
-719,035	800,000	-0,049	0,143
-718,021	-200,000	-0,009	-0,130
-717,006	636,294	-0,069	0,132
-715,991	800,000	-0,017	0,047
-714,977	-107,388	-0,079	-0,013
-713,962	116,342	-0,189	-0,172
-712,948	82,271	-0,048	0,039
-711,933	6,032	-0,127	-0,070
-710,918	64,025	-0,108	-0,080
-709,904	-106,769	-0,071	-0,012
-708,889	800,000	-0,055	-0,117
-707,875	170,144	-0,081	-0,086
-706,860	11,822	0,088	0,050
-705,845	-200,000	-0,017	-0,095
-704,831	13,903	-0,065	-0,038
-703,816	787,201	0,015	0,032
-702,802	678,225	0,013	-0,025
-701,787	-200,000	-0,025	-0,100
-700,772	-200,000	-0,003	-0,106
-699,758	800,000	-0,025	0,061
-698,743	-40,011	-0,096	-0,037
-697,729	289,199	0,077	0,103
-696,714	342,667	0,022	0,033
-695,699	-200,000	-0,002	-0,056
-694,685	33,897	-0,057	-0,037
-693,670	800,000	-0,039	-0,100
-692,656	302,380	-0,047	0,064
-691,641	82,243	-0,023	-0,018
-690,627	123,766	0,070	0,066
-689,612	38,409	-0,070	-0,046
-688,597	-42,641	0,026	-0,010
-687,583	129,042	-0,028	-0,027
-686,568	66,670	-0,067	-0,050
-685,554	548,156	0,028	0,050
-684,539	124,856	-0,019	-0,018
-683,524	-126,220	-0,161	0,018
-682,510	-7,029	0,062	-0,031
-681,495	-200,000	0,010	-0,056
-680,481	47,333	-0,138	-0,095
-679,466	468,512	-0,051	-0,086
-678,451	-200,000	-0,006	-0,103
-677,437	800,000	-0,038	-0,096
-676,422	185,584	0,048	0,053
-675,408	-153,751	0,047	-0,002
-674,393	156,702	0,072	-0,074
-673,378	800,000	-0,055	-0,145
-672,364	-39,524	0,025	0,010
-671,349	-200,000	0,053	-0,196
-670,335	555,538	-0,046	0,082
-669,320	800,000	-0,014	-0,032
-668,305	-121,405	-0,103	-0,013
-667,291	42,603	-0,136	-0,092
-666,276	-107,465	-0,039	-0,006
-665,262	-67,111	-0,118	-0,034
-664,247	161,807	-0,139	-0,144
-663,232	14,966	-0,069	-0,040
-662,218	223,167	-0,048	-0,057
-661,203	-153,951	-0,191	-0,010
-660,189	459,963	0,022	-0,036
-659,174	264,782	0,034	-0,044
-658,159	453,213	0,134	-0,220
-657,145	-112,653	-0,093	0,014
-656,130	381,897	0,037	0,057
-655,116	-149,986	-0,106	-0,006
-654,101	-200,000	-0,011	0,071
-653,086	-200,000	0,002	-0,069
-652,072	-103,442	0,046	0,008
-651,057	194,736	-0,042	-0,047
-650,043	-10,429	-0,097	-0,047
-649,028	-6,923	0,061	0,030
-648,014	-200,000	-0,004	0,110
-646,999	-200,000	-0,010	0,071
-645,984	-200,000	-0,001	-0,007
-644,970	-200,000	-0,007	-0,034
-643,955	800,000	0,056	0,125
-642,941	-200,000	0,007	-0,134
-641,926	-154,896	0,075	-0,004
-640,911	-73,545	-0,134	-0,036
-639,897	-81,939	0,117	0,028
-638,882	-47,497	-0,064	0,023
-637,868	-153,817	-0,135	-0,007
-636,853	800,000	0,027	-0,075
-635,838	280,395	0,080	-0,107
-634,824	-132,494	0,174	-0,016
-633,809	65,388	-0,021	-0,016
-632,795	-170,664	-0,121	0,003
-631,780	-130,277	-0,077	0,008
-630,765	-200,000	0,000	0,021
-629,751	-200,000	0,013	0,062
-628,736	178,975	0,051	-0,056
-627,722	181,959	0,076	-0,083
-626,707	644,407	0,041	-0,077
-625,692	-200,000	0,006	0,105
-624,678	-57,897	0,068	-0,022
-623,663	-126,383	-0,033	0,004
-622,649	-88,035	0,016	-0,004
-621,634	-4,665	0,133	-0,068
-620,619	10,808	-0,069	0,039
-619,605	-200,000	0,006	-0,023
-618,590	587,117	-0,019	0,034
-617,576	28,226	0,050	0,031
-616,561	-157,411	0,084	-0,004
-615,546	502,283	0,064	-0,110
-614,532	-200,000	0,008	-0,062
-613,517	-200,000	0,044	-0,194
-612,503	710,410	-0,056	-0,111
-611,488	-127,137	0,062	0,007
-610,474	47,286	-0,138	-0,095
-609,459	-120,576	-0,080	0,010
-608,444	-200,000	-0,013	-0,117
-607,430	148,848	-0,094	-0,095
-606,415	-164,358	-0,081	0,003
-605,401	122,289	0,053	0,049
-604,386	800,000	0,013	-0,032
-603,371	56,347	0,107	0,077
-602,357	355,875	-0,042	-0,063
-601,342	-89,807	-0,058	-0,012
-600,328	769,074	0,056	-0,114
-599,313	800,000	-0,041	-0,096
-598,298	800,000	0,023	-0,060
-597,284	248,397	-0,023	-0,029
-596,269	214,319	0,030	0,035
-595,255	82,832	0,011	-0,009
-594,240	-200,000	-0,033	0,122
-593,225	800,000	-0,072	-0,157
-592,211	53,774	0,157	-0,111
-591,196	293,846	-0,091	-0,123
-590,182	58,861	0,132	0,096
-589,167	-90,439	0,096	0,020
-588,152	-81,962	0,061	0,015
-587,138	-26,904	-0,070	-0,030
-586,123	-200,000	0,016	-0,144
-585,109	-200,000	-0,014	0,094
-584,094	23,951	0,075	-0,045
-583,079	-200,000	0,012	-0,063
-582,065	-200,000	0,007	0,040
-581,050	21,493	0,022	0,013
-580,036	-125,072	-0,067	-0,008
-579,021	317,209	-0,046	0,065
-578,006	-167,532	-0,078	0,002
-576,992	800,000	-0,043	0,135
-575,977	-13,620	0,065	0,031
-574,963	-152,515	0,065	-0,003
-573,948	800,000	0,019	0,042
-572,934	80,557	-0,105	-0,083
-571,919	-200,000	0,016	-0,094
-570,904	-159,130	-0,169	-0,007
-569,890	34,805	-0,166	-0,107
-568,875	53,683	0,119	0,085
-567,861	800,000	0,036	0,079
-566,846	800,000	-0,018	0,053
-565,831	-200,000	-0,005	0,018
-564,817	166,214	0,131	0,137
-563,802	-20,011	-0,068	-0,031
-562,788	152,336	-0,040	-0,041
-561,773	12,233	-0,052	-0,030
-560,758	-200,000	0,032	0,187
-559,744	33,863	-0,063	0,041
-558,729	95,892	-0,097	0,082
-557,715	-200,000	-0,006	-0,123
-556,700	800,000	0,031	0,073
-555,685	-3,019	-0,013	0,007
-554,671	429,395	0,057	0,092
-553,656	-109,544	0,013	-0,002
-552,642	-200,000	-0,024	0,119
-551,627	800,000	-0,059	0,144
-550,612	405,384	-0,063	-0,098
-549,598	-119,136	-0,058	-0,007
-548,583	-49,577	-0,143	0,050
-547,569	489,534	-0,083	-0,141
-546,554	800,000	0,025	-0,060
-545,539	-200,000	0,037	-0,162
-544,525	800,000	-0,026	-0,054
-543,510	77,590	0,075	0,059
-542,496	-120,687	-0,100	0,012
-541,481	-200,000	-0,062	-0,222
-540,466	800,000	-0,060	0,134
-539,452	-200,000	0,034	0,138
-538,437	16,564	0,096	0,056
-537,423	-106,009	0,088	0,014
-536,408	-80,204	-0,009	-0,002
-535,393	-200,000	-0,012	-0,060
-534,379	-121,751	0,066	-0,008
-533,364	-190,379	-0,082	-0,001
-532,350	292,464	0,072	0,097
-531,335	800,000	-0,048	0,129
-530,321	-200,000	0,031	0,174
-529,306	-200,000	0,017	-0,091
-528,291	489,364	-0,024	-0,041
-527,277	352,555	0,045	-0,066
-526,262	-2,385	-0,048	-0,025
-525,248	595,443	0,015	0,027
-524,233	264,762	0,081	0,105
-523,218	562,825	0,065	0,117
-522,204	-200,000	-0,029	0,114
-521,189	58,851	-0,091	0,066
-520,175	-200,000	-0,003	0,093
-519,160	23,862	0,054	-0,033
-518,145	-197,539	0,055	-0,000
-517,131	196,570	0,087	0,098
-516,116	800,000	-0,032	0,070
-515,102	-200,000	0,008	0,030
-514,087	172,802	-0,169	-0,179
-513,072	2,035	-0,100	-0,053
-512,058	85,646	-0,083	-0,067
-511,043	-200,000	0,051	-0,171
-510,029	163,370	0,094	0,097
-509,014	737,022	-0,062	0,122
-507,999	198,840	0,039	-0,044
-506,985	-200,000	-0,017	-0,060
-505,970	27,454	-0,181	-0,112
-504,956	-85,883	0,073	0,017
-503,941	375,122	0,027	0,040
-502,926	72,312	0,078	0,060
-501,912	800,000	-0,039	-0,092
-500,897	800,000	0,041	-0,087
-499,883	677,377	-0,010	-0,019
-498,868	17,866	-0,142	-0,083
-497,853	121,296	-0,096	-0,088
-496,839	191,803	-0,072	0,080
-495,824	-200,000	-0,031	0,102
-494,810	-200,000	0,028	0,127
-493,795	-54,299	-0,045	-0,015
-492,781	-200,000	0,003	-0,033
-491,766	-200,000	0,024	0,090
-490,751	-200,000	-0,088	-0,000
-489,737	140,153	-0,055	0,053
-488,722	88,791	-0,012	-0,010
-487,708	-200,000	0,024	-0,080
-486,693	-68,253	0,108	0,031
-485,678	-10,957	-0,004	0,002
-484,664	390,518	-0,083	-0,127
-483,649	800,000	-0,039	-0,091
-482,635	45,196	0,083	-0,056
-481,620	800,000	0,041	0,121
-480,605	-200,000	0,018	0,120
-479,591	558,987	0,086	0,154
-478,576	-200,000	0,000	-0,053
-477,562	-10,170	-0,182	-0,089
-476,547	605,387	0,027	0,051
-475,532	-200,000	0,010	-0,100
-474,518	-36,020	0,065	-0,026
-473,503	208,073	0,072	0,083
-472,489	-44,106	-0,089	0,033
-471,474	800,000	0,031	0,090
-470,459	800,000	-0,054	-0,120
-469,445	-24,735	0,176	-0,077
-468,430	-111,882	-0,045	0,007
-467,416	44,832	-0,047	0,032
-466,401	138,108	0,065	0,063
-465,386	-185,950	0,155	-0,002
-464,372	-36,727	-0,096	0,038
-463,357	766,559	-0,079	0,158
-462,343	-200,000	-0,027	-0,119
-461,328	-200,000	-0,004	-0,041
-460,313	231,092	0,067	0,081
-459,299	-200,000	0,004	-0,051
-458,284	332,494	-0,034	-0,049
-457,270	-171,431	-0,077	-0,002
-456,255	-79,476	-0,138	0,034
-455,241	3,868	0,064	0,034
-454,226	166,163	-0,075	-0,079
-453,211	169,764	0,065	0,069
-452,197	165,600	0,043	0,044
-451,182	429,091	0,074	0,118
-450,168	-200,000	0,016	0,054
-449,153	337,440	0,021	-0,030
-448,138	800,000	0,052	-0,131
-447,124	22,565	-0,034	0,020
-446,109	96,947	0,104	0,088
-445,095	-161,038	0,230	0,009
-444,080	5,812	-0,177	0,096
-443,065	-10,999	0,071	0,034
-442,051	145,907	-0,056	0,055
-441,036	-58,103	-0,078	0,025
-440,022	-200,000	0,008	-0,075
-439,007	800,000	-0,026	-0,076
-437,992	-23,830	0,165	-0,072
-436,978	800,000	0,037	-0,089
-435,963	-37,409	0,028	-0,011
-434,949	342,762	-0,050	-0,073
-433,934	-29,577	0,133	-0,056
-432,919	-200,000	-0,016	-0,154
-431,905	-60,961	-0,171	0,053
-430,890	-36,492	-0,017	-0,007
-429,876	-200,000	-0,002	0,092
-428,861	-75,640	-0,108	0,028
-427,846	800,000	-0,051	0,139
-426,832	-13,284	0,093	0,044
-425,817	-200,000	0,007	-0,106
-424,803	13,486	-0,056	0,032
-423,788	41,889	0,113	0,075
-422,773	56,238	0,115	0,082
-421,759	800,000	0,011	-0,023
-420,744	-178,100	0,043	0,001
-419,730	184,708	-0,032	-0,035
-418,715	315,735	-0,029	-0,040
-417,701	-80,625	-0,085	-0,021
-416,686	-200,000	0,019	0,094
-415,671	432,784	-0,082	0,131
-414,657	-200,000	-0,004	-0,030
-413,642	93,598	-0,072	-0,060
-412,628	158,749	-0,056	0,057
-411,613	-89,200	-0,063	-0,014
-410,598	4,998	0,023	0,013
-409,584	800,000	-0,030	-0,088
-408,569	259,660	-0,038	0,049
-407,555	-20,815	-0,123	-0,055
-406,540	39,616	-0,188	0,123
-405,525	123,707	-0,127	0,117
-404,511	90,174	-0,098	-0,080
-403,496	-200,000	0,004	-0,027
-402,482	-94,315	0,037	0,007
-401,467	800,000	0,062	0,138
-400,452	-133,078	0,150	-0,014
-399,438	131,160	-0,061	0,057
-398,423	777,521	0,056	0,112
-397,409	-200,000	0,023	-0,112
-396,394	-200,000	0,003	0,110
-395,379	800,000	0,038	-0,080
-394,365	-68,792	0,100	0,028
-393,350	436,494	0,045	-0,072
-392,336	-200,000	0,012	-0,087
-391,321	-72,764	-0,088	0,024
-390,306	-31,448	-0,054	0,022
-389,292	21,811	-0,087	0,052
-388,277	-57,282	0,029	-0,009
-387,263	99,008	0,053	-0,045
-386,248	259,174	-0,083	0,105
-385,233	236,292	-0,044	-0,054
-384,219	73,972	0,020	0,015
-383,204	800,000	-0,034	-0,076
-382,190	-8,711	-0,047	0,023
-381,175	-200,000	-0,027	-0,112
-380,160	800,000	0,043	-0,088
-379,146	-200,000	-0,043	0,208
-378,131	-79,594	-0,029	0,007
-377,117	260,614	0,007	-0,009
-376,102	303,850	0,023	0,032
-375,088	-10,060	0,052	0,025
-374,073	-172,882	0,175	-0,004
-373,058	90,769	0,071	-0,058
-372,044	546,234	-0,055	0,097
-371,029	-22,039	0,051	0,023
-370,015	-78,101	-0,022	0,006
-369,000	-105,184	-0,103	0,017
-367,985	230,358	-0,132	-0,159
-366,971	-200,000	-0,038	-0,131
-365,956	72,393	0,015	0,011
-364,942	-200,000	0,003	-0,061
-363,927	-59,806	0,061	-0,019
-362,912	-200,000	-0,004	0,021
-361,898	-200,000	0,010	0,033
-360,883	249,839	0,037	0,047
-359,869	-43,302	0,121	-0,045
-358,854	59,953	0,036	0,026
-357,839	22,077	0,057	0,034
-356,825	-11,079	-0,017	0,008
-355,810	242,304	0,013	-0,015
-354,796	800,000	-0,028	0,074
-353,781	798,389	-0,068	-0,138
-352,766	-200,000	0,012	0,100
-351,752	-200,000	-0,013	0,058
-350,737	800,000	-0,044	0,131
-349,723	-126,078	0,072	0,008
-348,708	130,300	0,109	0,103
-347,693	-200,000	0,006	-0,142
-346,679	800,000	0,025	0,065
-345,664	61,442	0,041	-0,030
-344,650	109,656	0,051	-0,045
-343,635	-15,151	-0,100	-0,047
-342,620	-50,262	-0,052	0,018
-341,606	-163,294	-0,071	0,002
-340,591	65,634	0,113	0,083
-339,577	-200,000	0,048	-0,159
-338,562	800,000	-0,043	-0,097
-337,548	800,000	0,045	-0,095
-336,533	202,372	0,022	0,025
-335,518	597,592	-0,042	0,076
-334,504	-200,000	-0,006	0,109
-333,489	187,774	0,009	0,010
-332,475	-189,653	-0,158	-0,001
-331,460	800,000	-0,020	-0,058
-330,445	55,576	0,125	-0,089
-329,431	211,505	-0,034	0,039
-328,416	275,192	-0,019	0,025
-327,402	-200,000	0,006	-0,026
-326,387	-200,000	-0,000	0,047
-325,372	371,992	-0,108	0,161
-324,358	343,367	0,021	-0,030
-323,343	-160,286	-0,045	-0,002
-322,329	-121,752	-0,114	0,014
-321,314	39,107	0,146	-0,096
-320,299	-64,082	0,096	-0,028
-319,285	-200,000	-0,004	0,037
-318,270	-149,189	-0,066	0,004
-317,256	-200,000	-0,022	-0,161
-316,241	547,850	0,045	0,078
-315,226	-136,289	0,082	-0,007
-314,212	483,690	0,020	0,034
-313,197	-24,017	0,160	-0,070
-312,183	-89,822	-0,170	-0,036
-311,168	307,989	-0,078	-0,106
-310,153	462,419	-0,056	0,092
-309,139	-139,936	-0,079	0,006
-308,124	-174,444	-0,073	-0,002
-307,110	787,477	0,030	-0,061
-306,095	111,028	-0,078	-0,069
-305,080	339,117	0,042	0,061
-304,066	24,849	0,043	-0,026
-303,051	-200,000	-0,015	0,070
-302,037	-36,759	-0,039	-0,015
-301,022	304,494	0,096	-0,131
-300,008	800,000	0,058	-0,130
-298,993	-10,112	0,124	0,060
-297,978	127,361	0,104	0,097
-296,964	56,186	0,066	-0,047
-295,949	-22,590	-0,122	0,054
-294,935	-200,000	0,013	-0,120
-293,920	180,249	0,011	-0,012
-292,905	1,022	0,049	-0,026
-291,891	-135,383	0,073	-0,006
-290,876	-200,000	-0,023	-0,080
-289,862	-200,000	0,007	-0,070
-288,847	-155,879	-0,156	-0,007
-287,832	57,245	-0,039	0,028
-286,818	-40,797	-0,131	-0,049
-285,803	-104,819	0,044	-0,007
-284,789	800,000	0,059	0,125
-283,774	-200,000	0,004	0,077
-282,759	174,883	-0,020	0,022
-281,745	167,806	-0,093	-0,097
-280,730	800,000	-0,032	-0,078
-279,716	-5,217	-0,025	0,013
-278,701	-130,240	-0,012	-0,001
-277,686	800,000	-0,042	0,087
-276,672	-200,000	0,008	0,140
-275,657	-164,373	-0,040	0,001
-274,643	402,903	0,084	-0,129
-273,628	285,165	-0,083	-0,109
-272,613	-101,123	-0,122	-0,022
-271,599	800,000	-0,041	-0,083
-270,584	165,530	0,067	0,069
-269,570	68,453	-0,033	-0,025
-268,555	-200,000	-0,002	-0,015
-267,540	-21,837	0,071	-0,032
-266,526	434,024	0,071	-0,114
-265,511	800,000	-0,041	-0,088
-264,497	-200,000	-0,011	-0,078
-263,482	176,745	0,050	0,053
-262,467	800,000	-0,028	-0,078
-261,453	-50,509	-0,109	0,037
-260,438	198,783	0,030	0,033
-259,424	-200,000	-0,018	-0,091
-258,409	409,408	0,127	-0,198
-257,395	149,980	-0,070	0,070
-256,380	800,000	-0,025	0,070
-255,365	-200,000	-0,034	0,125
-254,351	-144,487	0,138	-0,009
-253,336	-166,798	0,080	-0,002
-252,322	43,227	0,051	-0,034
-251,307	-200,000	-0,000	0,203
-250,292	-200,000	0,000	-0,113
-249,278	779,978	0,060	0,120
-248,263	-18,343	-0,084	0,038
-247,249	-44,612	0,138	0,050
-246,234	-200,000	-0,006	-0,051
-245,219	301,268	-0,036	0,049
-244,205	-139,304	-0,078	0,006
-243,190	800,000	0,009	0,020
-242,176	-200,000	-0,005	0,059
-241,161	192,105	-0,011	-0,012
-240,146	427,086	-0,071	0,112
-239,132	317,589	0,046	0,064
-238,117	-1,490	-0,106	-0,055
-237,103	10,151	0,053	-0,029
-236,088	800,000	0,024	0,059
-235,073	-23,487	0,117	-0,051
-234,059	-200,000	0,001	0,112
-233,044	-200,000	0,022	-0,087
-232,030	98,725	0,080	-0,067
-231,015	-65,662	0,059	-0,017
-230,000	482,331	-0,012	-0,019
-228,986	175,614	-0,026	-0,028
-227,971	-200,000	0,030	0,166
-226,957	-93,444	0,094	-0,019
-225,942	125,615	0,075	0,069
-224,927	-4,359	-0,025	-0,013
-223,913	-200,000	-0,007	0,048
-222,898	-19,556	0,061	-0,027
-221,884	-200,000	0,001	-0,029
-220,869	-70,236	0,092	0,025
-219,855	195,731	-0,034	-0,038
-218,840	-200,000	0,024	0,146
-217,825	-0,148	0,028	0,014
-216,811	-200,000	0,027	-0,104
-215,796	-48,917	-0,127	-0,044
-214,782	-26,706	-0,078	-0,033
-213,767	800,000	0,042	0,103
-212,752	133,358	0,056	0,053
-211,738	-200,000	-0,011	0,087
-210,723	-200,000	-0,003	-0,020
-209,709	613,509	-0,050	0,092
-208,694	-200,000	-0,020	-0,071
-207,679	607,938	0,089	-0,163
-206,665	97,219	0,079	-0,066
-205,650	-3,357	0,027	0,014
-204,636	-200,000	-0,023	0,132
-203,621	-200,000	0,002	-0,018
-202,606	113,949	0,058	-0,052
-201,592	-135,465	0,193	-0,017
-200,577	-47,299	0,098	-0,035
-199,563	-200,000	0,006	0,050
-198,548	0,130	0,107	0,055
-197,533	159,975	0,057	-0,058
-196,519	81,280	0,166	0,131
-195,504	-7,776	-0,137	-0,067
-194,490	-200,000	-0,009	-0,166
-193,475	37,996	-0,160	-0,104
-192,460	611,106	0,038	0,069
-191,446	-45,532	0,096	-0,034
-190,431	235,377	-0,042	0,050
-189,417	-200,000	0,001	-0,039
-188,402	3,325	0,040	0,021
-187,387	370,203	0,025	-0,037
-186,373	111,979	-0,112	0,099
-185,358	501,484	0,058	0,099
-184,344	-93,043	0,095	-0,019
-183,329	-77,441	0,042	0,011
-182,315	265,960	-0,053	-0,067
-181,300	-24,689	-0,100	0,043
-180,285	374,485	0,086	0,129
-179,271	-174,532	-0,155	-0,003
-178,256	-200,000	-0,034	-0,113
-177,242	-200,000	0,001	-0,028
-176,227	-200,000	0,018	0,121
-175,212	-86,069	0,084	0,019
-174,198	800,000	0,020	-0,049
-173,183	-135,231	-0,103	-0,009
-172,169	-30,445	-0,121	0,050
-171,154	426,405	0,027	-0,042
-170,139	-68,439	0,017	0,005
-169,125	-4,241	-0,118	-0,059
-168,110	66,268	-0,122	0,090
-167,096	49,301	-0,079	0,054
-166,081	-200,000	-0,027	0,096
-165,066	126,338	-0,032	-0,029
-164,052	253,745	0,096	-0,119
-163,037	150,869	-0,075	0,074
-162,023	530,905	0,053	0,091
-161,008	321,838	0,069	0,096
-159,993	158,335	0,129	0,130
-158,979	-200,000	0,021	-0,127
-157,964	-200,000	-0,031	0,130
-156,950	800,000	-0,035	-0,097
-155,935	166,023	0,144	-0,149
-154,920	-132,678	-0,114	-0,011
-153,906	-67,423	0,122	0,035
-152,891	251,318	-0,043	-0,053
-151,877	-200,000	-0,015	0,178
-150,862	-200,000	-0,020	0,118
-149,847	-200,000	0,008	-0,052
-148,833	100,607	-0,064	-0,054
-147,818	-68,688	-0,090	0,025
-146,804	84,096	-0,019	0,015
-145,789	19,336	0,042	-0,025
-144,775	-200,000	0,019	-0,106
-143,760	28,662	-0,070	-0,043
-142,745	-135,153	-0,101	0,009
-141,731	155,513	-0,023	0,023
-140,716	-200,000	0,018	0,074
-139,702	800,000	-0,018	0,055
-138,687	210,178	-0,083	0,095
-137,672	174,995	0,039	0,041
-136,658	-28,336	-0,094	0,039
-135,643	140,777	0,046	0,044
-134,629	433,790	-0,050	0,080
-133,614	-24,431	0,026	0,011
-132,599	-52,059	0,027	0,009
-131,585	165,688	0,076	0,078
-130,570	120,349	0,024	0,022
-129,556	-200,000	0,002	-0,046
-128,541	-26,021	0,071	-0,030
-127,526	-31,253	0,105	-0,043
-126,512	800,000	-0,017	-0,041
-125,497	-63,016	-0,129	-0,039
-124,483	111,301	-0,022	0,020
-123,468	-24,339	-0,104	-0,045
-122,453	800,000	0,011	-0,025
-121,439	-116,544	0,132	0,017
-120,424	-200,000	-0,040	0,139
