DTS Sentinel unit serial number:	SN410029Multiplexer serial number:	ORYXHardware model number:	OX2-SRSoftware version number:	ORYX F/W v4,00 Oryx Data Collector v3.7.2.0data status	okinstallation	B4 Nyhavnadifferential loss correction	single-endedforward channel	channel 2reverse channel	N/Adate	2023/12/19time	02:00:13forward acquisition time	300,00reverse acquisition time	0,00gamma	499,1914k internal	0,3125k external	0,3125temperature offset calibration	1,0000default loss term (dB/km)	0,3820temperature slope calibration	1,0000multiplexer offset coefficient	1,0000multiplexer slope coefficient	1,0000fibre end	0,00T internal ref (°C)	21,39T ext. ref 1 (°C)	6,04T ext. ref 2 (°C)	6,11length (m)	temperature (°C)	Stokes	anti-Stokes-744,400	-200,000	0,026	-0,110
-743,385	9,489	-0,202	0,114
-742,371	-200,000	-0,013	-0,069
-741,356	-88,510	-0,173	0,038
-740,342	-142,746	0,017	0,001
-739,327	-48,204	-0,123	0,044
-738,312	-66,554	0,123	-0,036
-737,298	-5,680	-0,232	0,118
-736,283	-200,000	0,027	0,120
-735,269	84,779	-0,236	0,192
-734,254	98,900	0,033	0,028
-733,239	-49,331	-0,448	-0,158
-732,225	800,000	0,064	-0,187
-731,210	427,434	0,083	0,134
-730,196	39,989	0,083	0,055
-729,181	-125,480	-0,092	0,010
-728,167	258,965	0,043	0,055
-727,152	67,429	-0,077	-0,059
-726,137	800,000	-0,037	0,089
-725,123	-104,046	-0,142	0,024
-724,108	328,301	-0,089	-0,128
-723,094	800,000	-0,084	-0,185
-722,079	-200,000	0,011	0,045
-721,064	78,310	-0,081	0,065
-720,050	-200,000	0,008	-0,055
-719,035	800,000	0,013	-0,035
-718,021	90,405	-0,053	0,045
-717,006	800,000	0,012	-0,030
-715,991	470,418	-0,075	-0,126
-714,977	-87,127	-0,034	-0,008
-713,962	-125,139	-0,128	0,014
-712,948	800,000	0,018	0,054
-711,933	354,878	0,042	-0,063
-710,918	99,255	0,081	0,069
-709,904	-121,204	-0,077	0,009
-708,889	-200,000	0,010	0,044
-707,875	-200,000	-0,040	-0,163
-706,860	800,000	-0,013	0,040
-705,845	-200,000	0,021	0,098
-704,831	210,135	-0,042	0,049
-703,816	-200,000	-0,002	-0,076
-702,802	-51,161	0,030	-0,010
-701,787	243,937	0,010	0,013
-700,772	800,000	0,037	-0,105
-699,758	623,603	0,088	-0,165
-698,743	800,000	-0,032	0,103
-697,729	153,626	0,172	-0,175
-696,714	-42,325	-0,077	0,029
-695,699	-51,781	0,032	0,011
-694,685	242,634	0,047	-0,059
-693,670	800,000	0,012	0,034
-692,656	-26,326	0,050	0,022
-691,641	103,980	0,065	0,057
-690,627	570,971	-0,084	-0,152
-689,612	800,000	0,028	-0,059
-688,597	75,176	-0,078	-0,061
-687,583	-200,000	0,013	-0,048
-686,568	370,910	-0,053	-0,080
-685,554	-35,589	0,070	-0,028
-684,539	118,834	-0,100	-0,092
-683,524	800,000	0,041	-0,099
-682,510	-29,239	-0,046	0,020
-681,495	220,211	0,005	-0,006
-680,481	55,781	-0,063	-0,045
-679,466	191,170	-0,078	-0,088
-678,451	-110,354	-0,144	-0,022
-677,437	621,801	-0,024	-0,046
-676,422	-200,000	-0,017	0,111
-675,408	783,557	-0,061	-0,124
-674,393	84,006	0,024	-0,019
-673,378	-110,867	-0,098	-0,015
-672,364	800,000	0,060	0,141
-671,349	-96,447	-0,064	0,012
-670,335	-200,000	-0,029	0,151
-669,320	-93,712	0,098	-0,020
-668,305	358,581	0,087	0,130
-667,291	800,000	0,005	-0,014
-666,276	-4,882	0,100	0,051
-665,262	295,306	0,076	-0,104
-664,247	800,000	-0,033	-0,100
-663,232	-83,755	0,055	-0,013
-662,218	478,756	0,105	0,177
-661,203	-200,000	0,018	-0,068
-660,189	800,000	-0,013	0,033
-659,174	-45,595	-0,099	-0,036
-658,159	569,841	-0,027	-0,049
-657,145	-119,133	-0,093	0,012
-656,130	60,650	0,144	0,106
-655,116	212,946	0,104	0,122
-654,101	-35,636	0,031	0,012
-653,086	379,819	-0,142	0,216
-652,072	-91,394	-0,099	-0,021
-651,057	285,466	-0,058	-0,078
-650,043	-200,000	0,008	0,104
-649,028	-200,000	-0,005	0,087
-648,014	722,501	0,073	-0,144
-646,999	-3,601	0,108	-0,055
-645,984	-200,000	0,003	0,029
-644,970	95,850	-0,090	-0,076
-643,955	-70,018	-0,060	-0,017
-642,941	202,782	-0,066	0,075
-641,926	800,000	0,043	0,098
-640,911	169,703	0,028	-0,030
-639,897	-200,000	-0,026	0,095
-638,882	304,904	0,076	0,105
-637,868	-27,443	-0,110	0,047
-636,853	-200,000	0,007	-0,048
-635,838	-200,000	-0,028	-0,106
-634,824	800,000	-0,027	-0,057
-633,809	-200,000	0,001	-0,073
-632,795	-47,596	-0,133	-0,048
-631,780	-66,161	0,106	0,031
-630,765	-200,000	-0,029	0,104
-629,751	-200,000	0,027	-0,099
-628,736	-200,000	0,004	-0,019
-627,722	-66,124	-0,190	0,056
-626,707	-112,492	0,124	-0,018
-625,692	18,987	0,132	0,078
-624,678	-200,000	-0,002	0,097
-623,663	-148,746	0,085	-0,005
-622,649	213,602	-0,087	-0,102
-621,634	252,881	-0,062	-0,078
-620,619	623,784	-0,063	-0,119
-619,605	-31,713	0,060	0,025
-618,590	-200,000	-0,006	-0,044
-617,576	26,619	0,013	0,008
-616,561	-31,484	0,069	0,029
-615,546	129,023	-0,027	-0,026
-614,532	297,301	-0,053	-0,072
-613,517	299,165	-0,113	-0,155
-612,503	111,435	0,072	0,065
-611,488	-200,000	0,027	-0,139
-610,474	24,961	-0,095	-0,058
-609,459	-200,000	0,000	0,022
-608,444	40,838	0,023	-0,016
-607,430	-86,910	-0,116	0,026
-606,415	580,262	-0,056	-0,102
-605,401	-200,000	-0,012	-0,083
-604,386	715,348	0,083	0,164
-603,371	-51,014	0,052	-0,018
-602,357	106,307	-0,061	-0,054
-601,342	123,050	0,068	0,063
-600,328	-148,689	0,025	0,001
-599,313	-200,000	-0,015	-0,064
-598,298	-200,000	0,013	0,138
-597,284	800,000	0,026	0,075
-596,269	143,565	-0,008	-0,008
-595,255	-153,789	-0,087	0,004
-594,240	-200,000	-0,001	-0,104
-593,225	-118,531	0,142	0,018
-592,211	-200,000	-0,001	-0,065
-591,196	113,239	-0,026	-0,023
-590,182	-200,000	0,001	-0,004
-589,167	-52,575	-0,221	-0,075
-588,152	-52,433	-0,055	-0,019
-587,138	217,868	-0,051	0,060
-586,123	-200,000	-0,003	-0,015
-585,109	14,283	0,051	0,029
-584,094	392,508	-0,030	-0,046
-583,079	136,393	-0,021	-0,020
-582,065	-13,085	-0,117	-0,056
-581,050	172,533	0,051	0,055
-580,036	-51,973	-0,090	0,031
-579,021	800,000	-0,022	-0,054
-578,006	-200,000	0,021	-0,159
-576,992	299,954	-0,100	0,136
-575,977	-167,641	0,058	0,002
-574,963	-96,473	0,171	-0,033
-573,948	-31,455	-0,137	0,057
-572,934	-133,472	0,039	0,004
-571,919	-200,000	-0,011	0,098
-570,904	84,499	-0,145	-0,117
-569,890	-200,000	-0,007	-0,085
-568,875	11,807	0,009	-0,005
-567,861	-12,457	-0,109	0,053
-566,846	-200,000	0,005	0,027
-565,831	-92,192	-0,125	0,026
-564,817	183,970	0,044	-0,048
-563,802	174,359	0,095	-0,101
-562,788	198,472	0,059	0,067
-561,773	800,000	0,051	0,136
-560,758	276,572	0,037	0,048
-559,744	74,629	0,011	0,009
-558,729	63,886	0,037	0,028
-557,715	-98,521	0,060	0,011
-556,700	-200,000	0,035	-0,119
-555,685	-141,862	-0,144	0,011
-554,671	143,521	-0,056	-0,055
-553,656	147,231	0,027	-0,027
-552,642	365,796	0,024	-0,035
-551,627	-200,000	0,007	0,046
-550,612	-90,548	0,146	0,031
-549,598	111,216	-0,125	0,111
-548,583	128,730	-0,039	0,037
-547,569	197,710	0,042	0,048
-546,554	-90,217	0,100	0,021
-545,539	79,688	-0,036	0,029
-544,525	800,000	0,029	0,079
-543,510	-44,759	-0,057	-0,021
-542,496	110,297	-0,074	-0,065
-541,481	-200,000	-0,034	0,135
-540,466	0,605	0,145	-0,077
-539,452	-144,874	-0,181	0,012
-538,437	153,598	0,070	0,071
-537,423	111,710	0,037	-0,033
-536,408	48,917	0,135	0,094
-535,393	-200,000	0,014	-0,085
-534,379	-200,000	0,002	-0,024
-533,364	175,928	0,069	0,074
-532,350	-89,711	-0,160	0,034
-531,335	800,000	-0,022	0,050
-530,321	-200,000	0,072	0,000
-529,306	-85,355	0,081	0,019
-528,291	260,123	-0,086	0,109
-527,277	121,140	-0,074	0,068
-526,262	-67,390	-0,062	-0,018
-525,248	-107,913	0,147	0,023
-524,233	800,000	0,042	0,128
-523,218	-200,000	-0,029	0,114
-522,204	170,340	-0,064	0,067
-521,189	-118,405	0,103	-0,013
-520,175	800,000	-0,050	-0,138
-519,160	-36,933	-0,056	-0,022
-518,145	160,185	0,090	0,093
-517,131	-134,085	-0,109	-0,010
-516,116	31,762	-0,065	-0,041
-515,102	-34,317	-0,071	0,028
-514,087	109,848	-0,044	-0,039
-513,072	800,000	0,027	-0,073
-512,058	-200,000	-0,075	0,000
-511,043	441,819	0,078	0,126
-510,029	800,000	0,025	0,053
-509,014	-200,000	0,018	0,122
-507,999	-117,171	-0,084	0,011
-506,985	71,263	-0,100	-0,077
-505,970	-200,000	0,000	0,048
-504,956	-200,000	0,013	-0,052
-503,941	-55,487	0,023	0,007
-502,926	4,933	-0,112	-0,061
-501,912	-59,361	-0,083	-0,026
-500,897	112,539	0,031	0,028
-499,883	-100,780	-0,024	0,004
-498,868	51,608	-0,120	-0,084
-497,853	91,624	-0,112	-0,092
-496,839	254,778	-0,117	-0,148
-495,824	-40,537	0,140	0,053
-494,810	5,078	0,125	-0,068
-493,795	-200,000	-0,012	-0,111
-492,781	356,596	-0,096	-0,141
-491,766	-200,000	0,009	0,110
-490,751	800,000	-0,039	-0,083
-489,737	0,667	0,109	0,057
-488,722	800,000	-0,046	0,128
-487,708	18,484	-0,090	0,053
-486,693	800,000	-0,041	-0,111
-485,678	125,345	0,138	0,128
-484,664	173,505	0,023	0,025
-483,649	429,794	-0,045	0,072
-482,635	185,018	0,085	0,093
-481,620	-193,498	-0,006	0,000
-480,605	800,000	0,052	0,142
-479,591	86,056	-0,013	-0,010
-478,576	-193,134	-0,094	-0,001
-477,562	19,301	-0,078	0,046
-476,547	-200,000	-0,019	-0,091
-475,532	-200,000	0,014	-0,088
-474,518	-200,000	-0,000	0,032
-473,503	-39,402	0,043	-0,016
-472,489	-200,000	-0,009	0,063
-471,474	164,889	0,056	0,058
-470,459	-64,989	-0,099	-0,029
-469,445	107,010	0,027	0,024
-468,430	13,585	-0,148	-0,084
-467,416	800,000	0,063	0,150
-466,401	-53,936	0,153	0,051
-465,386	38,294	0,142	0,093
-464,372	119,013	0,045	-0,041
-463,357	322,659	0,053	0,074
-462,343	-102,801	-0,032	0,006
-461,328	800,000	0,024	-0,055
-460,313	-122,788	-0,059	-0,007
-459,299	-200,000	0,005	0,119
-458,284	403,625	0,085	0,133
-457,270	0,775	-0,151	-0,079
-456,255	111,414	0,118	-0,105
-455,241	800,000	-0,052	-0,115
-454,226	13,963	0,097	-0,055
-453,211	-96,393	0,059	0,011
-452,197	-111,385	0,161	0,024
-451,182	-27,195	0,072	-0,031
-450,168	-67,803	0,017	0,005
-449,153	-200,000	0,006	-0,084
-448,138	800,000	-0,019	-0,042
-447,124	800,000	0,026	0,071
-446,109	-14,895	-0,004	-0,002
-445,095	216,340	0,063	0,074
-444,080	-30,434	0,114	-0,048
-443,065	-200,000	0,024	-0,096
-442,051	-131,334	-0,093	-0,009
-441,036	153,593	-0,037	0,038
-440,022	303,321	0,053	-0,073
-439,007	-200,000	0,028	0,111
-437,992	-136,304	0,031	-0,003
-436,978	59,754	0,053	0,039
-435,963	1,838	0,031	0,016
-434,949	-200,000	0,026	0,000
-433,934	31,960	0,088	-0,056
-432,919	-200,000	-0,001	-0,047
-431,905	800,000	0,065	-0,153
-430,890	709,808	0,046	-0,091
-429,876	-60,785	0,052	-0,016
-428,861	-121,023	-0,099	0,012
-427,846	786,642	-0,017	0,035
-426,832	-200,000	0,005	0,096
-425,817	-200,000	0,000	0,095
-424,803	645,446	-0,078	-0,147
-423,788	283,412	0,020	0,026
-422,773	796,511	0,043	-0,089
-421,759	800,000	-0,028	0,057
-420,744	97,803	0,075	-0,063
-419,730	-4,062	0,130	-0,066
-418,715	4,044	0,067	-0,036
-417,701	67,983	-0,070	-0,053
-416,686	-121,457	0,071	-0,009
-415,671	-143,747	0,031	-0,002
-414,657	88,841	-0,096	0,078
-413,642	800,000	0,044	0,103
-412,628	52,557	-0,054	-0,038
-411,613	-200,000	0,009	-0,065
-410,598	232,243	0,077	-0,093
-409,584	599,622	-0,031	0,057
-408,569	800,000	0,025	0,061
-407,555	-19,675	-0,176	0,080
-406,540	299,655	0,079	-0,108
-405,525	-14,373	-0,163	0,077
-404,511	83,047	-0,147	-0,117
-403,496	35,190	-0,107	-0,069
-402,482	130,028	-0,113	0,107
-401,467	-200,000	0,002	0,025
-400,452	-200,000	0,002	-0,008
-399,438	239,258	0,035	-0,043
-398,423	79,365	0,006	0,005
-397,409	109,009	-0,081	-0,071
-396,394	-81,030	-0,129	0,031
-395,379	-200,000	0,012	-0,053
-394,365	-128,497	0,080	0,008
-393,350	-200,000	-0,028	0,124
-392,336	739,400	-0,059	0,117
-391,321	-121,048	0,123	0,015
-390,306	-148,867	-0,123	0,007
-389,292	216,963	0,052	-0,061
-388,277	-200,000	0,006	-0,027
-387,263	-133,131	-0,032	0,003
-386,248	322,545	-0,024	0,034
-385,233	-66,023	0,053	0,015
-384,219	800,000	-0,024	0,060
-383,204	186,978	0,085	-0,094
-382,190	-200,000	-0,006	0,061
-381,175	-200,000	0,008	0,041
-380,160	0,529	0,048	0,025
-379,146	-200,000	0,008	0,144
-378,131	285,061	0,110	0,146
-377,117	-200,000	-0,001	0,042
-376,102	-200,000	-0,017	-0,122
-375,088	-79,687	0,114	-0,028
-374,073	-160,261	0,096	-0,004
-373,058	-111,585	0,092	-0,014
-372,044	800,000	-0,004	0,010
-371,029	44,741	-0,045	0,030
-370,015	147,086	0,039	-0,038
-369,000	-200,000	0,012	0,138
-367,985	305,436	0,031	-0,042
-366,971	-200,000	0,030	-0,163
-365,956	120,544	0,056	0,051
-364,942	800,000	0,040	0,119
-363,927	-200,000	0,003	-0,020
-362,912	-200,000	0,008	0,073
-361,898	-111,814	-0,047	0,007
-360,883	294,093	-0,019	-0,025
-359,869	-200,000	0,018	0,068
-358,854	800,000	-0,049	0,114
-357,839	-200,000	-0,003	-0,025
-356,825	-200,000	-0,020	0,131
-355,810	-106,843	-0,103	0,017
-354,796	-143,208	-0,088	0,006
-353,781	-38,695	-0,147	0,057
-352,766	-36,404	-0,011	0,004
-351,752	-200,000	0,033	-0,117
-350,737	-144,223	-0,142	-0,010
-349,723	-68,431	0,132	-0,037
-348,708	800,000	-0,009	-0,019
-347,693	159,074	0,130	-0,133
-346,679	122,965	0,084	-0,077
-345,664	-200,000	0,023	-0,098
-344,650	-200,000	-0,010	-0,156
-343,635	800,000	0,048	-0,100
-342,620	34,883	0,140	-0,089
-341,606	-45,851	-0,047	-0,017
-340,591	-188,281	-0,101	0,001
-339,577	-200,000	0,017	-0,144
-338,562	532,270	0,033	-0,058
-337,548	88,564	0,029	0,023
-336,533	-200,000	-0,007	0,057
-335,518	631,150	0,081	0,150
-334,504	291,437	0,068	0,091
-333,489	290,326	-0,080	-0,107
-332,475	-200,000	0,007	0,025
-331,460	56,480	0,085	0,060
-330,445	-200,000	0,008	-0,045
-329,431	249,701	0,024	-0,029
-328,416	800,000	0,063	-0,165
-327,402	117,745	0,025	0,022
-326,387	800,000	-0,057	-0,116
-325,372	800,000	0,025	-0,077
-324,358	-200,000	-0,000	-0,128
-323,343	800,000	0,063	-0,142
-322,329	-200,000	0,042	0,216
-321,314	-200,000	-0,009	0,068
-320,299	154,872	0,054	0,054
-319,285	-200,000	0,000	0,081
-318,270	-167,837	-0,128	-0,004
-317,256	-200,000	-0,004	-0,043
-316,241	275,219	0,073	0,095
-315,226	-140,229	0,002	-0,000
-314,212	-200,000	-0,001	-0,006
-313,197	-41,858	-0,048	0,018
-312,183	-200,000	0,039	-0,133
-311,168	-174,079	-0,213	0,004
-310,153	-200,000	0,042	-0,149
-309,139	-144,501	-0,114	-0,008
-308,124	-200,000	0,009	-0,037
-307,110	83,708	-0,025	0,020
-306,095	-200,000	0,004	-0,101
-305,080	-9,383	0,040	-0,020
-304,066	-154,277	-0,059	-0,003
-303,051	7,382	0,137	0,075
-302,037	16,881	-0,143	-0,083
-301,022	-121,624	-0,091	0,011
-300,008	2,915	0,051	-0,027
-298,993	4,920	0,185	0,099
-297,978	-38,292	0,062	0,024
-296,964	118,833	0,065	-0,059
-295,949	140,163	0,077	0,074
-294,935	-116,028	-0,126	0,017
-293,920	-200,000	-0,019	0,161
-292,905	-40,616	0,150	0,057
-291,891	26,432	0,042	0,026
-290,876	277,065	-0,018	0,024
-289,862	-55,198	-0,134	0,044
-288,847	85,221	0,152	-0,122
-287,832	-106,391	-0,101	0,016
-286,818	729,352	-0,018	0,035
-285,803	142,469	0,066	0,064
-284,789	-200,000	0,015	-0,228
-283,774	66,022	0,110	-0,082
-282,759	243,481	0,071	-0,088
-281,745	163,616	0,043	-0,044
-280,730	-190,212	-0,060	0,000
-279,716	-200,000	-0,031	0,103
-278,701	-200,000	0,004	0,121
-277,686	-200,000	0,048	0,167
-276,672	98,532	0,030	-0,026
-275,657	-200,000	0,002	0,064
-274,643	22,528	0,009	-0,005
-273,628	26,432	0,069	0,042
-272,613	-34,693	-0,018	0,007
-271,599	-78,796	-0,060	-0,015
-270,584	800,000	0,030	-0,088
-269,570	82,631	0,104	0,083
-268,555	-200,000	-0,000	0,155
-267,540	82,471	0,015	-0,012
-266,526	-79,539	-0,080	-0,020
-265,511	-7,048	0,077	0,038
-264,497	86,471	-0,029	-0,024
-263,482	66,520	0,060	0,045
-262,467	-200,000	-0,035	-0,126
-261,453	800,000	0,044	0,115
-260,438	-146,363	-0,066	0,004
-259,424	67,661	-0,059	0,044
-258,409	-116,767	0,029	-0,004
-257,395	-117,139	0,099	0,013
-256,380	559,912	-0,019	0,034
-255,365	450,807	0,012	0,020
-254,351	-133,451	0,047	-0,004
-253,336	112,759	0,038	-0,033
-252,322	137,934	-0,122	-0,117
-251,307	-125,726	-0,118	-0,013
-250,292	76,251	0,002	0,002
-249,278	385,248	0,053	-0,080
-248,263	155,689	0,066	0,066
-247,249	800,000	0,045	-0,112
-246,234	126,720	-0,054	0,050
-245,219	212,770	0,082	-0,094
-244,205	-14,586	-0,094	-0,044
-243,190	41,720	-0,096	0,064
-242,176	-200,000	-0,017	0,111
-241,161	20,218	0,137	0,081
-240,146	-200,000	-0,006	0,020
-239,132	-200,000	0,015	0,146
-238,117	-200,000	-0,005	-0,102
-237,103	709,531	-0,037	-0,072
-236,088	-154,527	-0,062	0,003
-235,073	-104,033	0,142	0,024
-234,059	-200,000	0,039	0,153
-233,044	64,905	-0,061	-0,045
-232,030	-77,734	0,117	-0,029
-231,015	646,432	0,057	-0,107
-230,000	-19,253	-0,080	0,036
-228,986	-171,830	0,095	0,002
-227,971	22,003	0,076	0,045
-226,957	-200,000	0,003	0,030
-225,942	-200,000	0,006	0,070
-224,927	797,794	-0,031	0,063
-223,913	310,886	0,061	-0,084
-222,898	-200,000	-0,016	-0,076
-221,884	-84,615	-0,131	-0,030
-220,869	421,652	0,032	0,050
-219,855	-200,000	0,025	0,081
-218,840	569,974	0,043	0,077
-217,825	7,989	0,150	-0,082
-216,811	139,892	-0,074	0,072
-215,796	75,819	0,113	0,087
-214,782	-200,000	0,024	-0,121
-213,767	-102,753	0,017	-0,003
-212,752	221,129	-0,035	0,042
-211,738	800,000	0,011	0,031
-210,723	65,813	0,066	-0,049
-209,709	800,000	0,026	-0,055
-208,694	428,278	-0,020	-0,031
-207,679	-108,055	-0,063	-0,010
-206,665	-200,000	-0,006	-0,035
-205,650	-110,052	0,049	0,007
-204,636	-200,000	-0,008	0,060
-203,621	800,000	-0,067	0,163
-202,606	-142,441	0,097	-0,007
-201,592	-13,402	-0,205	-0,096
-200,577	800,000	-0,053	-0,109
-199,563	-200,000	0,009	-0,193
-198,548	-24,920	-0,083	-0,036
-197,533	-2,241	0,031	0,016
-196,519	165,972	-0,095	0,098
-195,504	800,000	-0,009	-0,029
-194,490	115,426	-0,005	-0,004
-193,475	-200,000	-0,009	0,185
-192,460	-125,214	-0,052	-0,006
-191,446	800,000	-0,015	0,048
-190,431	39,529	0,124	0,081
-189,417	-95,431	-0,032	-0,006
-188,402	299,176	-0,111	-0,149
-187,387	-200,000	-0,004	-0,033
-186,373	143,557	-0,011	0,011
-185,358	-123,347	-0,198	0,023
-184,344	91,323	0,021	-0,017
-183,329	-200,000	0,015	0,079
-182,315	356,828	0,035	0,051
-181,300	-200,000	-0,036	-0,139
-180,285	-27,181	0,043	-0,018
-179,271	-5,252	-0,174	0,087
-178,256	-109,572	0,098	-0,015
-177,242	800,000	-0,013	-0,040
-176,227	-200,000	-0,002	0,025
-175,212	-200,000	-0,014	0,080
-174,198	-113,566	-0,080	0,011
-173,183	379,536	-0,042	-0,063
-172,169	-185,865	-0,148	-0,002
-171,154	-56,495	-0,092	0,030
-170,139	70,912	-0,060	0,045
-169,125	204,350	0,062	0,070
-168,110	678,218	0,063	0,120
-167,096	-155,525	-0,059	0,003
-166,081	-200,000	-0,015	-0,151
-165,066	58,028	0,117	-0,083
-164,052	-94,181	-0,175	-0,035
-163,037	564,333	-0,007	0,012
-162,023	120,585	0,059	-0,054
-161,008	279,566	0,042	-0,055
-159,993	-200,000	-0,009	-0,079
-158,979	-200,000	0,010	-0,096
-157,964	-10,297	0,022	-0,010
-156,950	72,123	-0,041	-0,031
-155,935	-4,985	0,093	-0,046
-154,920	794,704	-0,038	0,077
-153,906	508,848	0,021	0,035
-152,891	-96,444	-0,140	0,027
-151,877	800,000	0,015	0,030
-150,862	9,411	-0,052	-0,028
-149,847	-200,000	-0,014	0,047
-148,833	54,590	0,009	-0,006
-147,818	-200,000	-0,002	-0,026
-146,804	442,330	-0,044	-0,071
-145,789	800,000	0,069	0,180
-144,775	-85,612	-0,065	-0,015
-143,760	-200,000	-0,015	-0,147
-142,745	1,458	-0,093	0,049
-141,731	-173,206	-0,017	-0,000
-140,716	-200,000	-0,000	-0,017
-139,702	-84,516	-0,081	-0,018
-138,687	800,000	-0,065	0,152
-137,672	-99,864	-0,064	0,012
-136,658	-200,000	-0,018	-0,090
-135,643	231,612	0,020	0,024
-134,629	-67,457	-0,060	0,017
-133,614	70,551	0,039	0,029
-132,599	130,230	-0,029	-0,027
-131,585	-200,000	0,003	0,075
-130,570	-158,032	0,074	-0,003
-129,556	800,000	0,028	0,058
-128,541	8,599	-0,105	-0,057
-127,526	-128,344	0,057	-0,006
-126,512	-113,155	-0,083	0,012
-125,497	-67,693	-0,098	0,028
-124,483	711,588	-0,079	0,152
-123,468	-200,000	-0,011	0,035
-122,453	-35,907	-0,033	-0,013
-121,439	-6,158	-0,113	0,056
-120,424	800,000	-0,036	-0,104
-119,410	8,929	-0,074	0,041
-118,395	-79,778	-0,089	-0,022
