DTS Sentinel unit serial number:	SN410029Multiplexer serial number:	ORYXHardware model number:	OX2-SRSoftware version number:	ORYX F/W v4,00 Oryx Data Collector v3.7.2.0data status	okinstallation	B4 Nyhavnadifferential loss correction	single-endedforward channel	channel 2reverse channel	N/Adate	2023/12/18time	22:50:13forward acquisition time	300,00reverse acquisition time	0,00gamma	499,1914k internal	0,3124k external	0,3124temperature offset calibration	1,0000default loss term (dB/km)	0,3820temperature slope calibration	1,0000multiplexer offset coefficient	1,0000multiplexer slope coefficient	1,0000fibre end	0,00T internal ref (°C)	21,94T ext. ref 1 (°C)	7,49T ext. ref 2 (°C)	7,59length (m)	temperature (°C)	Stokes	anti-Stokes-744,400	130,990	-0,063	-0,060
-743,385	-61,040	-0,253	0,079
-742,371	92,696	0,047	-0,039
-741,356	44,407	-0,202	0,138
-740,342	-78,265	0,104	0,026
-739,327	-6,570	-0,162	0,082
-738,312	198,000	-0,030	0,034
-737,298	73,890	-0,146	-0,114
-736,283	-200,000	-0,023	-0,158
-735,269	-116,148	-0,154	0,021
-734,254	245,171	-0,018	0,023
-733,239	-14,220	-0,357	-0,171
-732,225	18,189	0,087	0,051
-731,210	311,584	-0,049	0,069
-730,196	-148,950	0,061	-0,004
-729,181	101,948	-0,031	-0,027
-728,167	800,000	0,045	0,127
-727,152	441,944	0,040	0,065
-726,137	-87,278	-0,049	-0,011
-725,123	31,855	-0,136	0,087
-724,108	204,586	-0,035	0,041
-723,094	-101,580	-0,058	-0,010
-722,079	518,843	-0,040	0,069
-721,064	-86,567	-0,133	-0,030
-720,050	6,598	-0,144	0,080
-719,035	-200,000	0,007	0,092
-718,021	-178,115	-0,174	0,003
-717,006	-110,524	-0,103	0,016
-715,991	-200,000	0,003	-0,085
-714,977	800,000	0,036	-0,090
-713,962	211,240	0,076	-0,089
-712,948	5,889	-0,041	0,022
-711,933	800,000	-0,021	-0,055
-710,918	207,272	0,005	0,005
-709,904	153,024	0,054	0,055
-708,889	2,788	-0,065	-0,035
-707,875	208,963	-0,023	-0,026
-706,860	46,505	-0,045	-0,031
-705,845	-200,000	0,022	0,114
-704,831	268,368	0,100	0,131
-703,816	293,693	-0,024	0,032
-702,802	-200,000	-0,007	-0,032
-701,787	800,000	-0,011	-0,033
-700,772	-155,634	0,115	-0,005
-699,758	-109,241	-0,105	0,016
-698,743	-72,379	0,115	-0,031
-697,729	-32,256	-0,040	0,017
-696,714	39,092	-0,035	-0,023
-695,699	199,963	-0,023	-0,026
-694,685	23,788	-0,123	-0,075
-693,670	-200,000	-0,020	-0,105
-692,656	26,816	0,048	-0,030
-691,641	163,975	0,068	0,071
-690,627	-200,000	-0,008	0,040
-689,612	497,205	0,066	-0,113
-688,597	11,413	-0,034	-0,019
-687,583	99,970	-0,175	-0,151
-686,568	-124,168	-0,042	0,005
-685,554	-141,168	0,080	-0,006
-684,539	-200,000	0,024	0,133
-683,524	-200,000	0,040	0,150
-682,510	-116,869	0,136	0,018
-681,495	97,053	-0,085	-0,072
-680,481	314,018	-0,076	-0,106
-679,466	415,342	-0,094	-0,150
-678,451	-158,001	0,100	0,004
-677,437	-200,000	0,015	-0,053
-676,422	255,365	0,073	0,093
-675,408	355,709	0,076	0,112
-674,393	-33,691	-0,122	-0,050
-673,378	-200,000	0,028	-0,127
-672,364	-121,158	0,021	0,003
-671,349	800,000	-0,041	0,103
-670,335	-22,364	-0,087	-0,039
-669,320	-127,627	-0,050	-0,005
-668,305	-122,589	-0,099	0,012
-667,291	-200,000	-0,004	-0,017
-666,276	-142,494	-0,090	-0,006
-665,262	800,000	-0,074	-0,172
-664,247	229,373	-0,044	0,053
-663,232	263,509	0,070	0,090
-662,218	-66,423	0,084	-0,025
-661,203	800,000	0,041	0,132
-660,189	800,000	-0,016	-0,040
-659,174	-183,984	-0,136	-0,002
-658,159	800,000	0,047	0,108
-657,145	-200,000	0,001	-0,058
-656,130	-123,666	-0,133	0,015
-655,116	800,000	0,011	-0,026
-654,101	68,638	-0,021	-0,016
-653,086	267,174	-0,077	0,101
-652,072	-200,000	-0,010	-0,081
-651,057	-73,329	-0,116	-0,031
-650,043	800,000	-0,061	-0,134
-649,028	-48,861	0,069	0,024
-648,014	108,213	0,042	0,037
-646,999	60,939	0,110	0,081
-645,984	-200,000	0,007	-0,153
-644,970	338,263	-0,052	0,075
-643,955	800,000	-0,065	-0,210
-642,941	800,000	0,023	-0,050
-641,926	-46,228	0,036	0,013
-640,911	-65,691	0,125	0,037
-639,897	-200,000	0,004	0,162
-638,882	60,644	0,100	0,073
-637,868	178,870	-0,062	-0,067
-636,853	-200,000	0,016	-0,090
-635,838	-31,787	0,050	0,021
-634,824	306,598	-0,107	-0,148
-633,809	-151,130	0,166	0,009
-632,795	136,663	-0,101	0,098
-631,780	-134,911	0,144	-0,013
-630,765	800,000	-0,042	-0,119
-629,751	-200,000	-0,038	0,140
-628,736	800,000	0,023	-0,065
-627,722	53,750	0,092	0,066
-626,707	-82,467	-0,069	-0,016
-625,692	405,772	-0,027	0,043
-624,678	-116,226	0,058	0,008
-623,663	800,000	-0,008	0,017
-622,649	362,104	-0,050	-0,075
-621,634	149,418	0,064	-0,064
-620,619	-200,000	0,015	-0,081
-619,605	51,703	0,083	0,058
-618,590	740,638	-0,051	0,102
-617,576	-29,188	0,041	0,017
-616,561	718,006	0,016	0,031
-615,546	13,573	-0,158	-0,091
-614,532	-35,034	-0,136	-0,055
-613,517	800,000	-0,046	-0,115
-612,503	-200,000	-0,006	-0,082
-611,488	-200,000	-0,012	-0,079
-610,474	800,000	-0,028	-0,065
-609,459	-200,000	0,007	-0,104
-608,444	-200,000	-0,023	0,098
-607,430	47,488	0,066	0,046
-606,415	-200,000	-0,015	0,134
-605,401	284,551	0,043	0,057
-604,386	800,000	-0,051	-0,108
-603,371	337,875	-0,018	0,027
-602,357	91,920	-0,009	-0,007
-601,342	-200,000	-0,006	-0,113
-600,328	-200,000	0,034	-0,126
-599,313	-70,837	0,045	-0,013
-598,298	-63,348	0,106	0,032
-597,284	196,961	-0,016	-0,018
-596,269	-200,000	0,025	-0,115
-595,255	-54,849	-0,033	0,011
-594,240	-86,708	-0,122	0,027
-593,225	64,334	-0,032	0,024
-592,211	800,000	-0,061	-0,190
-591,196	-200,000	0,001	-0,006
-590,182	-200,000	-0,014	0,080
-589,167	-200,000	0,009	0,040
-588,152	-200,000	0,027	-0,121
-587,138	-200,000	0,004	0,026
-586,123	98,926	-0,114	-0,097
-585,109	800,000	0,025	-0,078
-584,094	222,031	0,050	-0,059
-583,079	-200,000	-0,040	-0,168
-582,065	108,209	0,079	0,070
-581,050	256,939	0,077	-0,099
-580,036	-51,768	-0,092	-0,032
-579,021	25,185	-0,059	0,036
-578,006	-18,213	-0,042	-0,019
-576,992	-103,915	0,164	0,028
-575,977	-15,642	0,042	0,020
-574,963	-200,000	0,018	0,085
-573,948	206,532	0,031	0,036
-572,934	9,016	0,075	0,042
-571,919	-200,000	-0,047	-0,178
-570,904	751,554	-0,059	-0,119
-569,890	-200,000	-0,005	0,082
-568,875	-200,000	-0,021	-0,077
-567,861	-8,190	-0,164	0,081
-566,846	800,000	-0,045	0,127
-565,831	-36,556	-0,129	0,051
-564,817	625,020	0,019	0,036
-563,802	195,373	0,037	-0,042
-562,788	298,631	-0,131	-0,179
-561,773	497,884	0,040	-0,068
-560,758	14,177	0,145	-0,083
-559,744	-200,000	-0,003	-0,066
-558,729	-200,000	0,005	-0,065
-557,715	476,372	-0,032	-0,053
-556,700	482,939	-0,075	-0,126
-555,685	-47,301	-0,066	-0,024
-554,671	800,000	-0,013	0,038
-553,656	-116,034	-0,061	-0,008
-552,642	-200,000	-0,001	0,045
-551,627	800,000	0,019	-0,052
-550,612	-66,908	0,125	0,036
-549,598	800,000	-0,055	-0,126
-548,583	-200,000	0,002	-0,070
-547,569	152,452	0,051	-0,052
-546,554	55,377	0,117	0,084
-545,539	727,157	-0,033	0,066
-544,525	-109,646	-0,128	-0,020
-543,510	517,607	-0,053	-0,092
-542,496	294,997	-0,038	-0,051
-541,481	28,317	-0,169	-0,105
-540,466	-131,004	0,105	0,010
-539,452	-82,516	0,094	0,022
-538,437	800,000	-0,021	0,055
-537,423	208,116	-0,093	-0,107
-536,408	-124,224	0,079	-0,009
-535,393	-109,618	-0,089	-0,014
-534,379	-36,075	-0,039	0,016
-533,364	-130,513	-0,031	-0,003
-532,350	-161,007	0,060	-0,002
-531,335	609,965	0,029	0,054
-530,321	538,926	-0,041	0,072
-529,306	-200,000	0,023	-0,097
-528,291	-200,000	0,014	-0,055
-527,277	-10,681	-0,012	-0,006
-526,262	129,564	0,082	0,077
-525,248	297,389	0,075	0,102
-524,233	149,985	0,036	-0,036
-523,218	110,344	-0,101	0,089
-522,204	163,680	0,056	0,058
-521,189	736,646	0,046	-0,092
-520,175	-93,321	-0,097	-0,020
-519,160	518,140	-0,021	0,037
-518,145	800,000	-0,013	-0,035
-517,131	36,770	0,056	-0,037
-516,116	42,437	0,053	0,036
-515,102	132,111	0,071	-0,068
-514,087	212,757	-0,029	0,034
-513,072	-137,352	-0,088	-0,007
-512,058	-161,685	-0,076	-0,003
-511,043	403,574	0,082	0,128
-510,029	800,000	-0,015	-0,036
-509,014	-70,283	0,072	0,020
-507,999	54,290	-0,049	-0,035
-506,985	-120,285	0,078	0,010
-505,970	-163,551	-0,009	-0,000
-504,956	-23,713	-0,014	0,006
-503,941	-200,000	0,017	0,180
-502,926	-63,267	0,042	0,013
-501,912	-109,562	0,057	-0,009
-500,897	-200,000	0,011	-0,084
-499,883	8,236	-0,148	-0,082
-498,868	-179,362	-0,140	0,002
-497,853	-29,815	0,026	-0,011
-496,839	800,000	-0,013	-0,036
-495,824	141,620	0,084	0,082
-494,810	-200,000	-0,020	0,080
-493,795	800,000	0,008	-0,021
-492,781	-25,219	0,051	0,022
-491,766	-17,524	-0,098	-0,045
-490,751	-71,173	-0,065	-0,018
-489,737	-64,586	-0,122	0,036
-488,722	-78,367	-0,068	-0,017
-487,708	-100,437	0,131	-0,024
-486,693	-139,861	0,016	-0,001
-485,678	474,779	-0,039	-0,066
-484,664	-49,387	0,058	-0,020
-483,649	-44,458	0,061	-0,022
-482,635	-200,000	-0,112	0,000
-481,620	-200,000	0,013	-0,087
-480,605	-200,000	-0,036	0,151
-479,591	800,000	-0,027	0,068
-478,576	-61,313	-0,100	0,031
-477,562	-3,200	0,047	-0,024
-476,547	-49,380	-0,005	-0,002
-475,532	-85,358	-0,097	0,022
-474,518	-200,000	0,010	-0,076
-473,503	52,070	0,058	0,040
-472,489	-177,986	-0,078	-0,001
-471,474	-167,467	0,101	0,003
-470,459	-200,000	0,033	-0,150
-469,445	110,827	0,046	-0,041
-468,430	-200,000	0,004	-0,110
-467,416	42,520	-0,106	-0,071
-466,401	800,000	0,036	0,108
-465,386	-7,260	0,081	0,040
-464,372	114,846	0,071	0,064
-463,357	136,403	-0,127	-0,122
-462,343	-87,130	0,033	-0,007
-461,328	98,651	-0,072	-0,061
-460,313	800,000	0,068	0,163
-459,299	167,362	-0,093	0,098
-458,284	-200,000	0,013	0,072
-457,270	-200,000	0,015	-0,138
-456,255	-200,000	-0,002	-0,084
-455,241	800,000	0,037	-0,098
-454,226	-200,000	-0,023	-0,091
-453,211	-200,000	0,016	0,107
-452,197	-200,000	-0,016	0,135
-451,182	186,197	-0,068	0,075
-450,168	-200,000	0,022	0,079
-449,153	35,868	0,040	0,026
-448,138	91,536	-0,049	0,040
-447,124	635,291	0,029	-0,055
-446,109	469,114	0,064	-0,107
-445,095	-25,420	0,089	0,038
-444,080	800,000	0,036	-0,083
-443,065	577,894	-0,045	0,081
-442,051	-200,000	0,002	0,058
-441,036	-70,368	-0,014	-0,004
-440,022	291,150	0,073	-0,098
-439,007	158,175	0,118	-0,120
-437,992	322,869	-0,025	0,035
-436,978	6,681	-0,056	0,031
-435,963	-88,615	0,138	0,030
-434,949	800,000	-0,009	-0,023
-433,934	786,076	0,013	-0,027
-432,919	87,729	-0,037	-0,030
-431,905	107,733	-0,075	0,066
-430,890	800,000	-0,006	-0,017
-429,876	145,071	0,081	-0,079
-428,861	-42,190	0,104	0,039
-427,846	41,999	0,105	0,070
-426,832	-111,094	0,028	0,004
-425,817	-103,146	-0,102	-0,018
-424,803	800,000	-0,063	0,134
-423,788	153,245	0,041	-0,041
-422,773	38,522	0,111	0,073
-421,759	174,314	0,073	-0,078
-420,744	257,618	0,098	-0,125
-419,730	86,096	-0,064	-0,052
-418,715	800,000	-0,013	0,028
-417,701	-59,996	-0,092	0,029
-416,686	316,967	-0,070	0,097
-415,671	-200,000	0,003	0,067
-414,657	-152,082	0,133	-0,007
-413,642	-200,000	0,010	0,036
-412,628	-3,463	0,058	-0,029
-411,613	800,000	0,039	-0,084
-410,598	-200,000	0,003	-0,052
-409,584	-96,131	0,118	0,023
-408,569	-200,000	0,050	0,195
-407,555	-6,714	-0,134	0,067
-406,540	337,158	0,033	0,047
-405,525	-52,768	-0,166	0,056
-404,511	-200,000	-0,005	-0,080
-403,496	-16,179	0,102	-0,048
-402,482	-153,594	0,125	0,006
-401,467	166,551	0,163	0,170
-400,452	229,954	-0,066	-0,079
-399,438	340,960	0,044	0,063
-398,423	239,911	0,056	-0,068
-397,409	-200,000	0,006	-0,092
-396,394	197,525	-0,032	-0,035
-395,379	735,882	-0,045	-0,090
-394,365	557,345	0,055	-0,099
-393,350	-200,000	-0,006	0,076
-392,336	-113,309	-0,086	0,012
-391,321	29,953	-0,122	0,077
-390,306	372,277	0,029	0,044
-389,292	-200,000	-0,020	-0,123
-388,277	800,000	0,015	-0,042
-387,263	-200,000	0,004	0,027
-386,248	146,630	-0,052	0,052
-385,233	-80,638	0,132	0,032
-384,219	800,000	0,043	0,139
-383,204	-122,352	-0,071	-0,008
-382,190	800,000	0,028	-0,069
-381,175	800,000	-0,067	-0,147
-380,160	72,957	0,056	0,043
-379,146	-200,000	0,003	0,042
-378,131	-71,615	0,126	0,034
-377,117	-100,063	-0,080	0,015
-376,102	516,020	0,013	0,022
-375,088	800,000	-0,038	0,124
-374,073	-27,193	-0,084	-0,036
-373,058	132,464	-0,037	0,035
-372,044	-108,008	-0,085	-0,013
-371,029	-89,007	0,064	-0,014
-370,015	-200,000	0,009	0,146
-369,000	800,000	0,019	-0,050
-367,985	-200,000	-0,005	0,037
-366,971	-62,521	0,036	0,011
-365,956	-135,539	-0,147	-0,013
-364,942	-39,881	0,165	-0,063
-363,927	1,955	-0,056	-0,030
-362,912	341,101	-0,041	-0,059
-361,898	800,000	-0,017	-0,051
-360,883	-56,173	0,111	0,036
-359,869	3,595	-0,053	0,028
-358,854	403,814	-0,056	0,087
-357,839	800,000	-0,045	0,139
-356,825	385,112	0,034	-0,052
-355,810	800,000	0,037	-0,079
-354,796	283,022	-0,055	-0,073
-353,781	800,000	0,005	0,013
-352,766	800,000	0,038	0,081
-351,752	115,360	0,106	0,095
-350,737	-200,000	0,006	0,073
-349,723	800,000	-0,016	0,046
-348,708	-165,199	0,130	-0,004
-347,693	-98,963	-0,042	0,008
-346,679	432,511	-0,020	-0,032
-345,664	114,484	-0,061	-0,054
-344,650	-116,148	0,095	0,013
-343,635	-73,443	-0,059	0,016
-342,620	-73,575	-0,033	-0,009
-341,606	218,989	0,078	-0,091
-340,591	-104,748	0,102	0,017
-339,577	19,992	-0,136	0,080
-338,562	207,078	-0,070	-0,080
-337,548	71,151	-0,076	-0,058
-336,533	126,265	0,100	0,093
-335,518	55,712	-0,184	-0,131
-334,504	800,000	0,028	-0,068
-333,489	-82,648	0,081	0,019
-332,475	142,421	0,053	0,052
-331,460	756,095	-0,076	-0,152
-330,445	800,000	-0,018	-0,048
-329,431	8,889	0,049	0,027
-328,416	109,561	0,045	0,040
-327,402	665,789	-0,111	0,212
-326,387	-200,000	-0,003	0,080
-325,372	-80,838	-0,091	-0,022
-324,358	-65,919	-0,024	0,007
-323,343	243,927	-0,131	0,161
-322,329	-165,657	-0,043	-0,001
-321,314	-38,770	0,033	0,013
-320,299	85,085	0,071	0,057
-319,285	-135,398	0,159	-0,014
-318,270	55,668	0,128	-0,091
-317,256	123,907	-0,028	-0,026
-316,241	409,049	0,063	-0,099
-315,226	-90,408	-0,033	-0,007
-314,212	-200,000	0,006	0,115
-313,197	531,973	0,022	-0,039
-312,183	-42,851	0,103	0,038
-311,168	411,730	0,077	-0,120
-310,153	413,201	-0,065	0,101
-309,139	176,921	0,066	0,070
-308,124	-12,451	-0,078	-0,037
-307,110	176,808	0,104	0,110
-306,095	45,415	-0,113	0,076
-305,080	107,331	-0,053	-0,046
-304,066	-200,000	-0,004	0,116
-303,051	-143,905	0,070	0,005
-302,037	402,525	0,086	-0,133
-301,022	-37,487	-0,025	0,010
-300,008	-36,960	0,135	0,053
-298,993	-200,000	0,015	0,108
-297,978	520,494	0,038	0,066
-296,964	172,031	0,066	-0,070
-295,949	-72,129	-0,079	-0,021
-294,935	-200,000	-0,005	-0,058
-293,920	121,343	0,070	0,064
-292,905	800,000	0,025	0,053
-291,891	-200,000	-0,021	0,111
-290,876	432,766	-0,045	0,071
-289,862	-118,675	0,105	0,013
-288,847	220,771	-0,059	0,069
-287,832	-200,000	-0,007	-0,075
-286,818	-86,896	0,043	0,010
-285,803	14,364	-0,097	-0,055
-284,789	800,000	-0,027	0,074
-283,774	-200,000	0,014	0,153
-282,759	-121,495	0,076	0,009
-281,745	-200,000	0,001	0,019
-280,730	136,789	-0,064	-0,061
-279,716	-98,347	-0,110	0,020
-278,701	126,826	0,151	-0,140
-277,686	-176,018	0,152	0,003
-276,672	-81,970	-0,042	0,010
-275,657	106,927	0,023	0,020
-274,643	57,405	0,035	0,025
-273,628	800,000	-0,006	-0,016
-272,613	-8,506	0,038	0,019
-271,599	454,121	0,012	0,020
-270,584	470,841	0,057	0,095
-269,570	-200,000	-0,039	0,166
-268,555	-197,301	0,169	0,001
-267,540	4,771	0,107	-0,057
-266,526	2,943	-0,084	-0,045
-265,511	800,000	-0,012	0,035
-264,497	-29,922	-0,093	-0,039
-263,482	36,182	-0,047	0,031
-262,467	185,651	-0,100	0,109
-261,453	-200,000	-0,019	0,068
-260,438	66,820	-0,053	-0,039
-259,424	41,192	-0,165	-0,109
-258,409	337,169	-0,051	-0,073
-257,395	-200,000	-0,002	0,084
-256,380	-200,000	0,014	0,087
-255,365	-200,000	0,001	0,013
-254,351	50,288	0,084	-0,058
-253,336	-36,947	-0,104	-0,041
-252,322	773,080	-0,048	-0,097
-251,307	134,443	-0,059	-0,056
-250,292	-50,826	0,089	0,030
-249,278	-200,000	0,013	0,076
-248,263	-200,000	-0,007	0,158
-247,249	13,318	-0,125	0,071
-246,234	800,000	-0,071	-0,159
-245,219	-200,000	-0,004	-0,129
-244,205	-21,757	0,108	-0,048
-243,190	-70,192	0,118	-0,033
-242,176	-11,228	-0,072	0,034
-241,161	73,445	0,094	0,072
-240,146	-103,655	-0,090	0,015
-239,132	-109,972	-0,056	0,008
-238,117	800,000	0,024	-0,055
-237,103	-200,000	-0,002	-0,113
-236,088	57,543	-0,057	-0,041
-235,073	-200,000	-0,007	0,048
-234,059	-123,072	0,171	0,020
-233,044	37,993	-0,100	-0,065
-232,030	318,608	-0,042	-0,059
-231,015	800,000	-0,057	-0,144
-230,000	-61,088	-0,134	-0,041
-228,986	-200,000	-0,008	0,101
-227,971	-128,149	0,146	-0,015
-226,957	-200,000	0,021	0,162
-225,942	-200,000	0,015	0,050
-224,927	800,000	0,027	-0,063
-223,913	-86,186	-0,085	-0,019
-222,898	800,000	0,044	-0,127
-221,884	-160,121	-0,025	0,001
-220,869	-200,000	0,002	0,044
-219,855	57,896	-0,052	0,037
-218,840	-200,000	-0,008	0,095
-217,825	-200,000	0,001	-0,025
-216,811	800,000	0,037	-0,084
-215,796	-33,126	-0,042	-0,017
-214,782	-8,052	0,065	-0,032
-213,767	508,674	0,045	-0,077
-212,752	-86,185	-0,085	0,019
-211,738	79,352	-0,066	0,052
-210,723	-167,111	0,142	-0,004
-209,709	167,471	-0,078	-0,080
-208,694	-200,000	0,006	-0,092
-207,679	-146,319	0,043	0,003
-206,665	636,409	0,049	0,091
-205,650	800,000	0,026	0,080
-204,636	-200,000	0,010	0,155
-203,621	317,918	0,024	0,033
-202,606	-200,000	-0,015	0,058
-201,592	800,000	-0,009	0,020
-200,577	181,418	-0,086	0,092
-199,563	253,129	0,040	0,050
-198,548	128,422	0,050	0,046
-197,533	-200,000	-0,002	-0,056
-196,519	86,052	0,079	0,063
-195,504	-75,778	-0,185	-0,048
-194,490	-200,000	0,040	-0,189
-193,475	-200,000	-0,030	-0,169
-192,460	800,000	0,031	-0,085
-191,446	653,833	0,035	0,066
-190,431	-200,000	0,048	0,168
-189,417	-200,000	-0,001	-0,032
-188,402	-123,418	-0,145	0,017
-187,387	0,338	0,031	0,016
-186,373	-52,443	-0,134	-0,045
-185,358	800,000	0,060	0,123
-184,344	83,844	-0,058	0,046
-183,329	58,026	-0,040	0,028
-182,315	121,707	0,012	0,011
-181,300	-132,491	-0,175	-0,016
-180,285	30,391	-0,093	-0,057
-179,271	-99,203	0,150	0,027
-178,256	14,386	0,040	-0,022
-177,242	-200,000	-0,041	0,155
-176,227	56,297	-0,105	0,074
-175,212	87,340	-0,033	-0,026
-174,198	-91,181	0,089	-0,019
-173,183	40,610	-0,086	0,056
-172,169	-45,673	0,074	-0,026
-171,154	104,996	-0,026	0,022
-170,139	-200,000	-0,017	0,103
-169,125	-200,000	-0,011	0,083
-168,110	-50,230	0,060	0,020
-167,096	-200,000	0,004	0,042
-166,081	66,374	-0,054	0,040
-165,066	-200,000	0,005	-0,087
-164,052	90,444	0,023	0,018
-163,037	-200,000	-0,012	-0,048
-162,023	-200,000	0,009	-0,088
-161,008	800,000	-0,061	0,177
-159,993	353,207	0,077	-0,112
-158,979	378,001	0,039	-0,059
-157,964	-200,000	-0,001	-0,056
-156,950	-88,425	0,026	0,006
-155,935	527,728	0,017	0,029
-154,920	-108,813	-0,131	0,020
-153,906	-200,000	0,010	0,130
-152,891	70,289	-0,132	0,100
-151,877	-200,000	-0,003	-0,022
-150,862	-56,212	-0,123	0,040
-149,847	353,548	-0,056	0,081
-148,833	254,292	0,054	0,067
-147,818	-42,573	0,213	0,079
-146,804	198,399	0,070	0,078
-145,789	-12,957	-0,060	0,028
-144,775	800,000	-0,015	0,033
-143,760	105,510	0,054	-0,046
-142,745	-79,118	-0,074	-0,018
-141,731	-200,000	-0,009	0,044
-140,716	422,326	0,047	-0,073
-139,702	479,932	0,092	0,152
-138,687	-56,024	-0,026	0,008
-137,672	270,729	-0,023	0,030
-136,658	26,205	-0,159	-0,096
-135,643	38,754	0,061	-0,039
-134,629	-200,000	-0,004	-0,047
-133,614	206,069	-0,022	0,025
-132,599	200,984	-0,019	-0,021
-131,585	800,000	0,027	0,055
-130,570	-124,169	0,078	0,009
-129,556	261,439	0,051	0,064
-128,541	358,730	-0,085	-0,124
-127,526	532,427	-0,061	-0,105
-126,512	800,000	-0,012	0,025
-125,497	-17,337	0,176	0,080
-124,483	-200,000	-0,016	0,099
-123,468	509,886	0,068	-0,115
-122,453	-184,549	-0,122	-0,001
-121,439	-152,123	-0,136	-0,007
-120,424	800,000	-0,059	-0,152
-119,410	509,244	0,046	0,078
