DTS Sentinel unit serial number:	SN410029Multiplexer serial number:	ORYXHardware model number:	OX2-SRSoftware version number:	ORYX F/W v4,00 Oryx Data Collector v3.7.2.0data status	okinstallation	B4 Nyhavnadifferential loss correction	single-endedforward channel	channel 2reverse channel	N/Adate	2023/12/19time	08:55:13forward acquisition time	300,00reverse acquisition time	0,00gamma	499,1914k internal	0,3127k external	0,3127temperature offset calibration	1,0000default loss term (dB/km)	0,3820temperature slope calibration	1,0000multiplexer offset coefficient	1,0000multiplexer slope coefficient	1,0000fibre end	0,00T internal ref (°C)	20,64T ext. ref 1 (°C)	5,42T ext. ref 2 (°C)	5,43length (m)	temperature (°C)	Stokes	anti-Stokes-744,400	504,800	0,065	-0,113
-743,385	-31,604	-0,241	0,101
-742,371	-85,556	0,102	0,023
-741,356	31,598	-0,125	0,080
-740,342	800,000	0,059	-0,131
-739,327	-82,709	-0,199	0,048
-738,312	49,993	0,094	0,066
-737,298	-97,844	-0,262	0,050
-736,283	143,606	0,072	-0,072
-735,269	-4,445	-0,226	0,116
-734,254	135,665	0,078	-0,076
-733,239	-99,062	-0,319	-0,060
-732,225	-200,000	-0,010	0,070
-731,210	800,000	0,034	0,109
-730,196	-94,099	0,116	-0,024
-729,181	432,464	-0,062	-0,100
-728,167	174,908	-0,006	0,006
-727,152	-96,389	0,124	-0,024
-726,137	443,776	0,017	-0,027
-725,123	-74,337	-0,162	-0,043
-724,108	-200,000	-0,027	-0,101
-723,094	-74,604	-0,032	0,009
-722,079	-200,000	-0,036	-0,215
-721,064	800,000	-0,045	-0,106
-720,050	800,000	-0,027	-0,057
-719,035	-200,000	0,004	-0,043
-718,021	237,591	-0,053	-0,065
-717,006	800,000	-0,020	-0,050
-715,991	-84,487	-0,122	0,028
-714,977	-200,000	-0,032	-0,149
-713,962	-18,205	-0,096	-0,045
-712,948	229,490	-0,043	-0,053
-711,933	-114,545	-0,070	-0,010
-710,918	-121,403	-0,121	-0,015
-709,904	295,628	-0,067	-0,092
-708,889	-200,000	-0,028	-0,123
-707,875	-200,000	-0,045	-0,179
-706,860	-142,638	0,096	0,007
-705,845	800,000	0,035	-0,092
-704,831	800,000	0,043	0,106
-703,816	-200,000	0,003	-0,143
-702,802	230,251	-0,063	-0,077
-701,787	275,454	0,066	-0,087
-700,772	-161,970	-0,152	0,006
-699,758	-200,000	-0,023	-0,207
-698,743	-200,000	-0,030	0,192
-697,729	800,000	0,031	0,076
-696,714	-200,000	-0,022	-0,141
-695,699	-134,187	-0,085	-0,008
-694,685	-22,473	-0,071	0,032
-693,670	-38,723	-0,032	0,013
-692,656	302,258	0,100	0,137
-691,641	-200,000	0,002	-0,066
-690,627	321,727	0,116	0,165
-689,612	95,269	-0,087	0,073
-688,597	262,406	-0,060	-0,078
-687,583	-22,067	-0,020	-0,009
-686,568	-200,000	-0,017	-0,080
-685,554	-47,337	-0,170	-0,061
-684,539	-0,495	-0,072	-0,038
-683,524	70,767	0,032	-0,025
-682,510	190,411	-0,102	-0,114
-681,495	800,000	0,040	-0,105
-680,481	20,955	0,106	0,064
-679,466	-200,000	-0,006	-0,055
-678,451	-200,000	0,020	0,084
-677,437	-30,229	0,098	0,041
-676,422	-120,601	0,084	0,010
-675,408	800,000	-0,020	0,056
-674,393	-5,233	0,117	-0,059
-673,378	129,353	-0,071	-0,068
-672,364	473,685	-0,087	-0,146
-671,349	-200,000	0,021	-0,070
-670,335	-117,585	0,034	0,005
-669,320	171,822	0,034	0,036
-668,305	-133,946	-0,119	-0,011
-667,291	800,000	0,033	-0,082
-666,276	-69,941	-0,099	-0,028
-665,262	-200,000	-0,026	-0,155
-664,247	-138,203	-0,168	-0,014
-663,232	-34,281	0,131	-0,053
-662,218	145,268	0,059	-0,059
-661,203	-200,000	0,004	-0,030
-660,189	798,787	-0,034	0,070
-659,174	95,067	-0,080	-0,067
-658,159	350,391	0,010	0,014
-657,145	443,698	0,017	0,028
-656,130	-57,557	-0,022	0,007
-655,116	-200,000	0,012	-0,062
-654,101	800,000	-0,027	0,063
-653,086	-153,905	0,068	0,003
-652,072	-200,000	-0,020	-0,099
-651,057	-200,000	-0,006	0,049
-650,043	219,176	-0,118	0,141
-649,028	508,397	0,029	-0,049
-648,014	29,163	-0,040	-0,025
-646,999	-200,000	-0,003	0,017
-645,984	800,000	0,019	0,048
-644,970	-44,176	0,061	-0,023
-643,955	40,536	-0,165	-0,110
-642,941	84,750	0,028	0,023
-641,926	-101,886	-0,056	-0,010
-640,911	-200,000	-0,001	0,054
-639,897	551,466	-0,038	-0,069
-638,882	800,000	-0,022	-0,058
-637,868	-27,787	0,148	-0,063
-636,853	800,000	-0,051	-0,119
-635,838	143,573	0,021	-0,021
-634,824	-137,921	-0,063	-0,005
-633,809	234,752	0,043	0,052
-632,795	-62,255	-0,081	0,025
-631,780	-100,195	-0,031	-0,006
-630,765	-200,000	0,014	0,089
-629,751	-200,000	0,007	-0,085
-628,736	800,000	-0,031	0,097
-627,722	800,000	0,014	-0,040
-626,707	800,000	-0,008	-0,020
-625,692	-54,486	-0,090	0,030
-624,678	346,320	-0,062	0,091
-623,663	-92,274	-0,111	-0,023
-622,649	-16,465	0,111	0,052
-621,634	-200,000	-0,007	0,063
-620,619	200,134	0,041	0,047
-619,605	-120,159	0,046	0,006
-618,590	46,774	0,019	-0,013
-617,576	46,993	-0,072	0,050
-616,561	-200,000	0,008	-0,041
-615,546	-25,625	-0,163	-0,071
-614,532	-168,857	0,052	0,001
-613,517	800,000	-0,041	0,118
-612,503	800,000	-0,028	0,077
-611,488	15,441	0,109	0,063
-610,474	-1,521	0,035	0,018
-609,459	-36,377	0,061	-0,024
-608,444	699,652	-0,048	-0,093
-607,430	173,361	-0,053	-0,056
-606,415	177,864	0,047	0,050
-605,401	-177,843	0,051	-0,001
-604,386	-91,059	-0,066	-0,014
-603,371	-87,855	0,091	0,020
-602,357	132,001	0,072	0,069
-601,342	-200,000	0,017	-0,104
-600,328	-200,000	0,019	-0,192
-599,313	-200,000	0,043	-0,197
-598,298	15,204	-0,018	-0,010
-597,284	57,375	0,034	0,025
-596,269	800,000	0,026	0,053
-595,255	-53,391	0,076	-0,026
-594,240	352,477	-0,025	0,037
-593,225	597,456	-0,074	0,136
-592,211	33,269	0,070	-0,045
-591,196	95,914	0,032	-0,027
-590,182	389,957	-0,026	-0,041
-589,167	-200,000	0,010	0,073
-588,152	-200,000	0,025	0,116
-587,138	-187,569	0,160	-0,002
-586,123	-102,250	-0,096	-0,017
-585,109	8,253	0,045	0,025
-584,094	451,346	0,048	-0,079
-583,079	-200,000	-0,002	0,095
-582,065	-64,660	0,108	0,032
-581,050	461,647	0,064	-0,106
-580,036	-32,886	-0,137	0,056
-579,021	142,867	0,042	-0,042
-578,006	800,000	0,035	-0,078
-576,992	197,254	0,114	-0,129
-575,977	-180,516	0,139	0,002
-574,963	800,000	0,073	0,223
-573,948	119,488	0,065	-0,059
-572,934	457,605	0,059	0,097
-571,919	80,548	0,043	-0,034
-570,904	231,637	0,114	-0,138
-569,890	691,515	-0,058	-0,112
-568,875	13,438	-0,104	0,060
-567,861	-57,121	-0,080	0,026
-566,846	-200,000	-0,043	0,221
-565,831	86,485	-0,029	-0,024
-564,817	-198,019	0,096	0,000
-563,802	42,551	-0,051	0,034
-562,788	112,599	-0,042	0,037
-561,773	-200,000	0,009	0,033
-560,758	-11,384	0,117	-0,057
-559,744	-100,298	0,059	-0,011
-558,729	238,872	-0,080	-0,099
-557,715	325,807	0,013	0,018
-556,700	167,304	0,095	-0,100
-555,685	108,211	-0,055	-0,048
-554,671	-45,948	0,119	0,043
-553,656	421,275	0,077	0,123
-552,642	294,592	-0,075	0,101
-551,627	-98,972	0,205	0,038
-550,612	136,720	-0,117	0,113
-549,598	-200,000	0,018	-0,103
-548,583	-200,000	0,019	-0,064
-547,569	-156,812	0,170	0,008
-546,554	-200,000	0,029	0,129
-545,539	-155,342	0,073	-0,003
-544,525	-109,841	0,079	0,012
-543,510	-114,810	0,022	0,003
-542,496	800,000	0,029	-0,079
-541,481	43,610	-0,013	-0,009
-540,466	-79,962	-0,149	0,037
-539,452	-200,000	0,003	0,080
-538,437	800,000	0,020	-0,062
-537,423	210,951	0,039	-0,045
-536,408	-102,597	-0,041	0,007
-535,393	26,784	-0,061	0,037
-534,379	53,489	0,036	-0,025
-533,364	-200,000	-0,007	-0,111
-532,350	-86,593	0,015	-0,003
-531,335	-164,528	0,125	0,004
-530,321	64,743	-0,082	0,061
-529,306	-106,800	-0,079	0,013
-528,291	-55,843	-0,134	-0,044
-527,277	215,172	0,029	-0,033
-526,262	-200,000	-0,004	0,064
-525,248	-200,000	-0,022	0,132
-524,233	-200,000	0,003	0,065
-523,218	-200,000	-0,014	0,067
-522,204	-42,788	0,109	0,041
-521,189	-5,154	-0,168	0,085
-520,175	800,000	0,043	-0,104
-519,160	272,665	-0,043	0,056
-518,145	252,112	0,090	0,113
-517,131	-72,646	-0,096	0,026
-516,116	-146,049	0,045	0,003
-515,102	128,119	0,050	0,047
-514,087	171,268	0,028	-0,030
-513,072	800,000	-0,043	-0,093
-512,058	-180,802	-0,134	-0,002
-511,043	192,397	0,077	0,086
-510,029	-75,882	0,065	0,017
-509,014	-200,000	0,013	0,103
-507,999	-200,000	0,030	0,140
-506,985	41,410	-0,085	0,057
-505,970	-87,769	-0,032	0,007
-504,956	29,150	-0,093	-0,058
-503,941	-39,269	-0,150	-0,058
-502,926	800,000	0,041	0,113
-501,912	-200,000	0,016	0,081
-500,897	-200,000	-0,019	0,100
-499,883	-200,000	0,012	0,075
-498,868	25,426	-0,110	-0,067
-497,853	12,765	-0,010	-0,006
-496,839	-200,000	0,038	-0,206
-495,824	56,127	0,044	0,032
-494,810	800,000	-0,016	0,039
-493,795	-19,124	0,032	-0,015
-492,781	-97,043	-0,076	-0,014
-491,766	150,527	-0,098	-0,098
-490,751	800,000	-0,014	-0,036
-489,737	800,000	0,057	-0,142
-488,722	96,171	0,036	0,031
-487,708	4,519	-0,021	-0,011
-486,693	-28,206	0,052	0,022
-485,678	-200,000	0,004	0,033
-484,664	52,204	0,194	-0,136
-483,649	-91,896	0,034	0,007
-482,635	-41,302	-0,076	0,029
-481,620	24,328	-0,070	0,043
-480,605	-54,952	0,099	0,033
-479,591	567,325	-0,029	0,052
-478,576	-200,000	-0,015	-0,074
-477,562	-200,000	-0,012	-0,077
-476,547	-21,566	-0,116	0,052
-475,532	-177,752	0,123	0,002
-474,518	479,472	0,117	-0,196
-473,503	-200,000	0,026	0,109
-472,489	-200,000	0,026	-0,090
-471,474	-29,777	-0,071	-0,030
-470,459	-151,681	0,070	-0,004
-469,445	-200,000	0,000	-0,016
-468,430	112,306	-0,093	-0,083
-467,416	138,934	0,138	-0,133
-466,401	800,000	0,033	0,097
-465,386	296,207	0,082	0,111
-464,372	-79,536	-0,043	0,011
-463,357	125,616	-0,070	-0,065
-462,343	44,895	0,047	-0,032
-461,328	-185,939	-0,130	0,001
-460,313	107,890	-0,068	0,060
-459,299	-200,000	0,006	-0,033
-458,284	-87,361	-0,027	0,006
-457,270	-116,865	-0,110	-0,015
-456,255	-57,971	0,124	-0,040
-455,241	-200,000	0,007	0,057
-454,226	88,731	-0,137	-0,112
-453,211	511,598	0,054	-0,093
-452,197	-11,342	0,116	0,056
-451,182	-200,000	-0,009	-0,070
-450,168	65,303	0,053	0,040
-449,153	-118,380	-0,058	0,008
-448,138	164,577	-0,061	-0,064
-447,124	-44,692	0,075	-0,027
-446,109	-200,000	0,000	0,130
-445,095	-200,000	0,004	-0,020
-444,080	-200,000	0,005	-0,036
-443,065	146,176	-0,032	0,032
-442,051	762,903	-0,069	-0,138
-441,036	-33,218	-0,085	-0,035
-440,022	132,409	-0,060	0,057
-439,007	-57,290	0,101	-0,033
-437,992	-65,455	0,135	-0,040
-436,978	44,268	-0,029	-0,019
-435,963	483,386	-0,036	0,061
-434,949	-200,000	0,002	0,089
-433,934	-200,000	-0,007	-0,134
-432,919	95,289	-0,101	-0,085
-431,905	-123,158	0,104	-0,012
-430,890	82,514	-0,102	0,081
-429,876	-25,021	0,121	0,052
-428,861	-17,840	0,058	-0,026
-427,846	-200,000	-0,036	0,117
-426,832	-200,000	-0,028	-0,204
-425,817	207,502	0,032	-0,037
-424,803	19,527	0,099	-0,058
-423,788	198,257	-0,060	0,068
-422,773	223,200	0,047	-0,056
-421,759	237,967	-0,053	0,065
-420,744	-155,667	0,093	0,004
-419,730	187,759	-0,128	-0,140
-418,715	109,978	-0,081	-0,071
-417,701	467,880	0,020	-0,032
-416,686	352,156	0,044	-0,065
-415,671	-77,587	-0,147	0,037
-414,657	561,419	0,002	0,003
-413,642	800,000	-0,023	-0,063
-412,628	73,215	0,052	0,040
-411,613	-200,000	-0,002	-0,013
-410,598	50,013	0,028	0,020
-409,584	-173,211	0,143	0,003
-408,569	208,920	-0,055	-0,063
-407,555	-119,036	-0,091	0,012
-406,540	-182,074	-0,026	-0,000
-405,525	800,000	0,009	0,019
-404,511	-44,483	0,030	-0,011
-403,496	-200,000	-0,012	-0,080
-402,482	-200,000	-0,003	-0,028
-401,467	-169,151	0,096	-0,003
-400,452	57,684	-0,038	-0,027
-399,438	-144,751	-0,070	0,005
-398,423	-61,811	-0,059	-0,018
-397,409	138,706	0,015	0,015
-396,394	-200,000	-0,002	-0,100
-395,379	-90,487	-0,098	-0,021
-394,365	7,072	0,053	0,029
-393,350	460,399	-0,018	-0,030
-392,336	-200,000	0,025	-0,082
-391,321	-130,445	-0,119	0,012
-390,306	-102,848	-0,096	0,017
-389,292	765,246	-0,098	-0,196
-388,277	-200,000	0,007	-0,040
-387,263	800,000	0,049	0,124
-386,248	287,929	0,040	0,053
-385,233	127,652	-0,062	0,058
-384,219	219,471	0,077	0,091
-383,204	151,976	-0,023	0,023
-382,190	56,718	0,104	-0,074
-381,175	800,000	0,028	-0,067
-380,160	-119,694	-0,059	-0,007
-379,146	-30,003	0,111	-0,046
-378,131	-78,542	0,155	0,039
-377,117	800,000	0,042	0,133
-376,102	-200,000	-0,026	-0,146
-375,088	-104,367	-0,047	0,008
-374,073	65,469	0,122	-0,091
-373,058	-24,279	0,057	-0,025
-372,044	-200,000	0,000	0,070
-371,029	92,221	-0,026	-0,022
-370,015	213,246	0,069	0,080
-369,000	86,479	0,034	0,027
-367,985	-200,000	0,008	-0,045
-366,971	-42,331	-0,154	-0,057
-365,956	800,000	0,023	0,053
-364,942	31,822	0,068	-0,043
-363,927	187,473	-0,112	0,123
-362,912	552,272	0,048	-0,086
-361,898	-80,467	-0,051	-0,012
-360,883	-130,201	-0,105	0,010
-359,869	42,942	-0,120	-0,080
-358,854	261,504	-0,072	-0,092
-357,839	-200,000	-0,023	0,113
-356,825	-153,043	0,026	0,001
-355,810	-200,000	-0,033	-0,123
-354,796	800,000	-0,032	-0,086
-353,781	121,206	0,100	-0,091
-352,766	-200,000	-0,022	-0,126
-351,752	112,827	0,124	0,110
-350,737	-5,588	0,073	-0,037
-349,723	-47,829	0,029	0,010
-348,708	-200,000	-0,019	0,079
-347,693	-106,041	-0,058	-0,010
-346,679	-200,000	-0,009	-0,138
-345,664	-200,000	-0,020	0,115
-344,650	800,000	0,062	0,171
-343,635	110,921	-0,078	-0,069
-342,620	-82,002	0,039	-0,009
-341,606	-140,512	0,033	0,002
-340,591	-143,305	-0,092	0,006
-339,577	800,000	-0,055	0,127
-338,562	96,970	0,044	-0,037
-337,548	-200,000	0,030	0,111
-336,533	131,858	-0,058	0,055
-335,518	800,000	-0,045	0,092
-334,504	-134,697	-0,124	-0,011
-333,489	106,435	0,023	-0,020
-332,475	250,502	-0,086	-0,107
-331,460	37,274	-0,050	-0,032
-330,445	-77,100	-0,076	0,019
-329,431	-200,000	-0,012	0,052
-328,416	-101,853	-0,047	-0,008
-327,402	59,463	0,068	0,049
-326,387	362,066	-0,062	-0,091
-325,372	731,955	-0,043	-0,084
-324,358	-200,000	-0,005	0,058
-323,343	-200,000	0,031	0,195
-322,329	-22,959	-0,062	0,027
-321,314	-200,000	0,019	0,155
-320,299	92,769	0,012	0,010
-319,285	510,553	0,055	-0,095
-318,270	800,000	0,014	0,037
-317,256	-91,111	-0,106	-0,022
-316,241	-50,912	-0,056	-0,019
-315,226	253,612	0,043	-0,054
-314,212	177,148	0,066	-0,070
-313,197	-24,957	-0,071	0,031
-312,183	-34,061	0,019	0,008
-311,168	-200,000	-0,027	-0,161
-310,153	-154,702	0,057	0,003
-309,139	-55,008	0,110	-0,036
-308,124	-200,000	-0,007	-0,032
-307,110	-109,934	0,014	-0,002
-306,095	237,074	0,149	0,181
-305,080	-200,000	0,016	0,132
-304,066	-200,000	-0,008	0,076
-303,051	800,000	-0,031	0,079
-302,037	-70,489	0,091	0,025
-301,022	50,748	0,057	-0,039
-300,008	-20,615	-0,076	0,034
-298,993	176,062	0,057	0,060
-297,978	-26,124	0,092	0,039
-296,964	800,000	-0,047	-0,124
-295,949	50,857	-0,021	-0,015
-294,935	800,000	0,017	-0,048
-293,920	34,006	0,127	0,081
-292,905	-200,000	0,000	0,090
-291,891	31,662	0,109	-0,068
-290,876	129,387	0,108	-0,101
-289,862	-140,347	-0,031	-0,002
-288,847	82,903	-0,097	-0,077
-287,832	-200,000	0,014	0,074
-286,818	-72,248	-0,056	0,015
-285,803	120,709	0,095	-0,087
-284,789	149,271	0,060	-0,060
-283,774	-104,624	0,058	0,010
-282,759	133,504	0,107	0,102
-281,745	-9,297	-0,071	0,035
-280,730	479,865	-0,054	-0,090
-279,716	65,599	0,036	0,026
-278,701	383,922	0,106	-0,160
-277,686	435,012	0,015	-0,024
-276,672	273,524	0,077	0,100
-275,657	-91,820	-0,031	0,006
-274,643	-200,000	-0,008	-0,074
-273,628	-200,000	-0,024	-0,169
-272,613	800,000	-0,033	0,074
-271,599	49,165	-0,115	0,079
-270,584	-26,249	0,039	-0,017
-269,570	-54,545	0,014	-0,005
-268,555	123,110	-0,132	-0,121
-267,540	800,000	0,048	-0,113
-266,526	205,601	-0,044	0,050
-265,511	20,827	-0,049	-0,029
-264,497	-200,000	-0,006	0,074
-263,482	-70,750	-0,099	-0,027
-262,467	-33,601	0,043	-0,017
-261,453	-119,349	-0,059	-0,007
-260,438	-200,000	-0,010	0,036
-259,424	316,607	-0,097	-0,134
-258,409	276,985	-0,035	-0,046
-257,395	-27,720	0,084	0,036
-256,380	220,611	0,084	0,098
-255,365	800,000	0,060	0,173
-254,351	-200,000	-0,025	-0,088
-253,336	-200,000	0,054	-0,185
-252,322	-50,567	-0,040	0,014
-251,307	475,257	-0,072	0,120
-250,292	-200,000	-0,026	0,105
-249,278	-200,000	-0,005	0,121
-248,263	800,000	-0,049	0,126
-247,249	182,138	-0,097	-0,104
-246,234	-61,514	-0,083	-0,025
-245,219	52,295	-0,079	0,055
-244,205	800,000	-0,031	-0,070
-243,190	41,866	0,098	0,065
-242,176	-200,000	-0,019	-0,157
-241,161	-66,199	0,048	0,014
-240,146	-77,336	-0,040	0,010
-239,132	28,921	0,132	0,082
-238,117	714,460	-0,042	-0,081
-237,103	-35,697	-0,078	0,031
-236,088	445,642	-0,046	0,074
-235,073	65,347	0,113	0,084
-234,059	49,044	0,080	-0,055
-233,044	-122,821	0,073	0,009
-232,030	7,086	-0,126	0,068
-231,015	800,000	0,023	-0,070
-230,000	-114,315	-0,060	0,008
-228,986	800,000	-0,008	-0,019
-227,971	768,492	0,051	0,102
-226,957	111,847	-0,063	0,056
-225,942	263,442	0,062	0,079
-224,927	800,000	0,017	-0,037
-223,913	-138,399	-0,135	-0,011
-222,898	-128,207	-0,024	-0,002
-221,884	64,149	0,127	-0,093
-220,869	-148,662	0,172	-0,010
-219,855	-200,000	0,018	-0,094
-218,840	141,543	-0,057	0,055
-217,825	-42,953	0,060	-0,022
-216,811	-200,000	0,008	-0,105
-215,796	-24,369	0,168	-0,073
-214,782	800,000	-0,068	-0,140
-213,767	651,308	0,020	-0,038
-212,752	-124,575	-0,090	-0,010
-211,738	270,036	0,107	0,138
-210,723	-129,806	-0,112	0,011
-209,709	-58,641	-0,244	0,077
-208,694	-200,000	0,007	-0,075
-207,679	-200,000	0,001	0,107
-206,665	-200,000	-0,025	-0,128
-205,650	-40,829	-0,098	0,037
-204,636	800,000	-0,061	0,132
-203,621	245,059	0,033	0,041
-202,606	-94,445	0,059	-0,012
-201,592	800,000	-0,035	-0,087
-200,577	-200,000	-0,008	-0,030
-199,563	800,000	0,068	0,175
-198,548	800,000	-0,084	0,242
-197,533	311,726	-0,046	0,063
-196,519	-62,217	0,174	0,053
-195,504	800,000	-0,039	-0,111
-194,490	49,097	-0,049	-0,033
-193,475	37,000	0,081	-0,052
-192,460	-200,000	-0,005	-0,066
-191,446	-145,408	-0,169	-0,011
-190,431	-127,319	0,174	-0,018
-189,417	432,913	-0,076	-0,120
-188,402	-200,000	-0,005	0,115
-187,387	-34,408	0,078	0,031
-186,373	-200,000	-0,010	0,044
-185,358	-58,812	0,068	-0,021
-184,344	-37,953	-0,110	0,042
-183,329	-200,000	0,007	0,023
-182,315	-200,000	0,010	-0,043
-181,300	57,321	-0,132	-0,094
-180,285	128,057	0,106	0,098
-179,271	-200,000	-0,012	0,129
-178,256	-200,000	-0,059	0,209
-177,242	-59,348	-0,031	0,010
-176,227	-200,000	-0,014	0,048
-175,212	800,000	0,048	0,155
-174,198	569,578	0,048	-0,086
-173,183	-200,000	-0,050	-0,181
-172,169	188,642	0,095	-0,104
-171,154	-200,000	-0,000	0,006
-170,139	665,606	0,070	0,132
-169,125	-48,441	-0,151	0,053
-168,110	-158,489	0,024	0,001
-167,096	96,294	0,033	0,028
-166,081	-200,000	-0,010	-0,131
-165,066	800,000	-0,019	-0,040
-164,052	147,993	-0,079	-0,078
-163,037	-16,103	-0,022	-0,010
-162,023	242,455	-0,085	0,104
-161,008	700,146	-0,055	0,107
-159,993	105,710	0,073	0,063
-158,979	-29,750	-0,067	-0,028
-157,964	121,143	-0,055	0,049
-156,950	-200,000	0,001	0,027
-155,935	186,334	-0,072	-0,078
-154,920	-200,000	0,036	0,118
-153,906	31,148	-0,053	0,033
-152,891	115,863	-0,049	-0,044
-151,877	-99,897	-0,054	0,010
-150,862	-53,337	-0,075	-0,025
-149,847	-200,000	-0,003	-0,038
-148,833	259,237	0,025	-0,031
-147,818	-200,000	-0,004	0,053
-146,804	-125,488	0,044	-0,005
-145,789	-121,266	-0,131	-0,016
-144,775	-81,303	0,099	-0,023
-143,760	416,871	-0,053	-0,082
-142,745	-118,625	-0,168	-0,021
-141,731	800,000	-0,024	-0,056
-140,716	36,066	0,097	0,062
-139,702	-200,000	-0,012	0,104
-138,687	229,590	-0,024	0,028
-137,672	144,375	-0,086	-0,084
-136,658	800,000	-0,060	-0,142
-135,643	-36,824	0,049	0,019
-134,629	-137,065	0,122	-0,010
-133,614	-200,000	0,017	-0,097
-132,599	343,626	-0,029	0,041
-131,585	800,000	0,035	-0,086
-130,570	193,662	0,075	0,082
-129,556	-200,000	-0,015	-0,093
-128,541	800,000	0,004	0,014
-127,526	800,000	-0,065	0,163
-126,512	-200,000	-0,012	-0,078
-125,497	-200,000	0,001	0,007
-124,483	-33,868	-0,051	0,020
-123,468	800,000	0,025	0,052
-122,453	800,000	-0,086	-0,191
-121,439	800,000	0,010	-0,029
-120,424	411,243	0,010	-0,015
