DTS Sentinel unit serial number:	SN410029Multiplexer serial number:	ORYXHardware model number:	OX2-SRSoftware version number:	ORYX F/W v4,00 Oryx Data Collector v3.7.2.0data status	okinstallation	B4 Nyhavnadifferential loss correction	single-endedforward channel	channel 2reverse channel	N/Adate	2023/12/16time	01:00:14forward acquisition time	300,00reverse acquisition time	0,00gamma	499,1914k internal	0,3128k external	0,3128temperature offset calibration	1,0000default loss term (dB/km)	0,3820temperature slope calibration	1,0000multiplexer offset coefficient	1,0000multiplexer slope coefficient	1,0000fibre end	0,00T internal ref (°C)	21,93T ext. ref 1 (°C)	6,94T ext. ref 2 (°C)	7,10length (m)	temperature (°C)	Stokes	anti-Stokes-744,400	-200,000	0,001	-0,009
-743,385	-102,163	-0,264	0,047
-742,371	130,207	0,079	0,075
-741,356	-78,912	-0,125	0,031
-740,342	-48,288	0,145	-0,052
-739,327	-63,063	-0,277	-0,085
-738,312	-200,000	-0,023	-0,126
-737,298	26,267	-0,219	0,136
-736,283	-47,405	-0,102	-0,037
-735,269	-27,739	-0,291	0,125
-734,254	-200,000	-0,001	0,009
-733,239	-92,837	-0,396	-0,082
-732,225	-44,445	0,156	-0,058
-731,210	519,234	-0,059	-0,103
-730,196	67,016	-0,177	0,134
-729,181	800,000	-0,053	0,119
-728,167	208,163	0,024	0,027
-727,152	2,287	-0,139	-0,075
-726,137	-84,983	-0,134	-0,031
-725,123	-200,000	0,002	-0,006
-724,108	-35,352	-0,004	0,002
-723,094	-155,966	-0,101	0,005
-722,079	-63,989	0,114	0,035
-721,064	-99,202	0,027	0,005
-720,050	24,414	-0,104	-0,063
-719,035	420,399	-0,031	-0,049
-718,021	259,586	-0,105	-0,135
-717,006	180,111	-0,012	0,013
-715,991	55,769	0,026	0,019
-714,977	-29,501	-0,109	-0,046
-713,962	169,689	-0,093	0,099
-712,948	-84,513	0,098	0,023
-711,933	-50,542	0,106	-0,037
-710,918	687,822	0,042	0,083
-709,904	-200,000	-0,005	-0,023
-708,889	800,000	-0,027	-0,069
-707,875	-155,713	-0,065	0,003
-706,860	-34,049	0,111	-0,045
-705,845	-16,467	0,013	0,006
-704,831	32,731	-0,050	0,032
-703,816	-3,715	0,025	0,013
-702,802	12,286	0,134	-0,077
-701,787	-35,437	0,007	-0,003
-700,772	619,094	-0,089	-0,166
-699,758	-200,000	-0,002	-0,033
-698,743	256,743	-0,043	0,054
-697,729	-146,845	-0,015	-0,001
-696,714	-200,000	0,044	0,172
-695,699	800,000	-0,038	0,098
-694,685	-200,000	0,000	-0,047
-693,670	91,242	-0,142	-0,119
-692,656	-200,000	-0,000	-0,168
-691,641	-178,270	0,159	-0,003
-690,627	-200,000	0,021	0,102
-689,612	800,000	0,071	-0,149
-688,597	-200,000	0,009	0,062
-687,583	122,678	-0,092	0,086
-686,568	800,000	0,037	-0,099
-685,554	-200,000	-0,008	-0,053
-684,539	-200,000	0,011	-0,046
-683,524	57,033	0,138	-0,099
-682,510	-163,824	0,110	-0,004
-681,495	56,462	0,077	0,056
-680,481	230,090	-0,052	0,063
-679,466	-50,015	-0,081	-0,028
-678,451	185,000	-0,057	0,063
-677,437	-50,385	-0,138	0,048
-676,422	173,935	0,031	-0,034
-675,408	355,964	0,008	0,012
-674,393	800,000	-0,020	-0,061
-673,378	800,000	0,015	0,032
-672,364	239,251	-0,109	-0,135
-671,349	-73,451	-0,125	0,034
-670,335	-95,258	-0,065	0,013
-669,320	187,746	0,068	0,075
-668,305	800,000	0,017	0,055
-667,291	-109,375	0,039	-0,006
-666,276	199,118	-0,045	-0,051
-665,262	-104,007	-0,131	-0,022
-664,247	800,000	-0,035	-0,081
-663,232	-200,000	0,013	0,164
-662,218	800,000	0,049	0,121
-661,203	89,879	-0,037	-0,031
-660,189	-3,200	-0,123	-0,063
-659,174	-111,080	-0,006	-0,001
-658,159	-194,327	-0,199	-0,001
-657,145	-200,000	-0,018	-0,097
-656,130	-21,248	-0,165	0,075
-655,116	-62,887	-0,026	0,008
-654,101	-200,000	-0,003	-0,169
-653,086	152,682	-0,041	-0,041
-652,072	228,613	-0,027	-0,032
-651,057	285,361	0,103	-0,138
-650,043	-200,000	-0,017	-0,092
-649,028	800,000	0,035	0,074
-648,014	11,759	-0,047	-0,027
-646,999	163,553	-0,072	-0,075
-645,984	108,742	-0,037	-0,032
-644,970	310,824	0,065	-0,091
-643,955	460,570	0,046	-0,077
-642,941	105,741	-0,154	-0,135
-641,926	-200,000	-0,011	-0,152
-640,911	-128,129	-0,067	-0,007
-639,897	-183,656	0,085	-0,001
-638,882	-200,000	-0,008	0,061
-637,868	800,000	0,033	0,083
-636,853	-200,000	0,009	-0,186
-635,838	4,694	-0,180	-0,098
-634,824	-162,095	-0,038	-0,001
-633,809	800,000	0,018	-0,048
-632,795	-200,000	0,014	0,105
-631,780	605,243	0,042	0,078
-630,765	212,631	-0,012	-0,013
-629,751	-74,752	-0,039	0,010
-628,736	457,026	-0,023	0,038
-627,722	800,000	-0,040	-0,083
-626,707	-96,481	-0,123	-0,024
-625,692	-92,776	-0,067	0,014
-624,678	-77,797	-0,042	0,011
-623,663	608,510	0,017	-0,031
-622,649	-200,000	0,003	-0,125
-621,634	-103,796	-0,088	-0,015
-620,619	171,151	-0,041	0,044
-619,605	316,989	0,054	0,075
-618,590	-61,911	0,023	0,007
-617,576	260,029	-0,036	0,046
-616,561	-24,620	0,087	-0,038
-615,546	380,161	-0,022	-0,033
-614,532	689,748	0,003	-0,006
-613,517	747,824	-0,065	-0,131
-612,503	98,988	0,066	-0,057
-611,488	-90,153	0,104	-0,022
-610,474	592,534	-0,034	0,062
-609,459	466,383	-0,027	-0,044
-608,444	42,986	-0,098	0,066
-607,430	-200,000	0,006	0,062
-606,415	800,000	-0,078	-0,171
-605,401	67,905	-0,082	-0,062
-604,386	103,634	0,113	-0,098
-603,371	-94,518	-0,087	-0,017
-602,357	699,017	-0,079	0,154
-601,342	28,427	0,064	0,040
-600,328	18,691	0,078	-0,046
-599,313	-71,350	-0,123	-0,034
-598,298	-200,000	0,007	0,054
-597,284	405,445	-0,074	0,117
-596,269	234,215	0,097	0,118
-595,255	800,000	0,012	0,031
-594,240	-200,000	-0,012	-0,068
-593,225	800,000	-0,031	0,086
-592,211	-200,000	-0,046	-0,168
-591,196	-200,000	-0,002	-0,079
-590,182	470,691	0,077	-0,128
-589,167	105,481	-0,052	0,046
-588,152	800,000	0,065	0,139
-587,138	22,581	-0,031	-0,019
-586,123	797,732	-0,076	0,156
-585,109	-200,000	-0,031	-0,109
-584,094	477,409	-0,044	0,074
-583,079	97,833	0,072	0,061
-582,065	-31,830	-0,013	0,005
-581,050	218,332	-0,067	0,080
-580,036	583,598	-0,053	0,097
-579,021	-123,460	0,053	0,006
-578,006	-200,000	-0,017	0,069
-576,992	-200,000	0,000	0,038
-575,977	-200,000	0,001	-0,036
-574,963	-58,905	0,041	0,013
-573,948	800,000	-0,033	0,091
-572,934	-137,519	-0,101	-0,008
-571,919	-200,000	0,004	0,015
-570,904	-140,017	-0,123	-0,009
-569,890	-200,000	0,001	-0,017
-568,875	19,757	0,153	0,091
-567,861	-200,000	-0,009	-0,042
-566,846	-200,000	0,005	0,109
-565,831	23,921	-0,185	0,113
-564,817	258,051	-0,075	-0,095
-563,802	-104,711	0,169	-0,028
-562,788	210,752	0,036	0,041
-561,773	-173,102	-0,156	0,003
-560,758	-200,000	0,006	-0,066
-559,744	307,677	-0,014	0,020
-558,729	-146,129	0,055	-0,004
-557,715	-64,437	-0,120	0,036
-556,700	-200,000	-0,011	-0,111
-555,685	-200,000	0,007	-0,034
-554,671	800,000	-0,027	-0,062
-553,656	-121,836	0,077	-0,009
-552,642	764,938	-0,019	-0,039
-551,627	-200,000	0,007	0,082
-550,612	-62,713	-0,092	0,028
-549,598	-197,279	0,143	-0,001
-548,583	800,000	-0,020	0,045
-547,569	800,000	-0,010	-0,033
-546,554	-168,229	0,103	-0,003
-545,539	223,056	-0,079	0,095
-544,525	-200,000	-0,000	-0,068
-543,510	46,391	0,153	-0,104
-542,496	87,352	-0,040	-0,032
-541,481	800,000	-0,067	-0,215
-540,466	162,261	-0,087	0,090
-539,452	-200,000	-0,032	0,133
-538,437	-200,000	-0,025	0,125
-537,423	546,393	-0,026	0,046
-536,408	-200,000	-0,007	-0,025
-535,393	-49,397	-0,151	-0,053
-534,379	-111,391	0,055	-0,008
-533,364	7,839	-0,099	0,055
-532,350	800,000	0,033	-0,072
-531,335	800,000	0,037	-0,104
-530,321	-131,940	-0,016	-0,001
-529,306	800,000	-0,018	-0,050
-528,291	405,571	-0,066	0,103
-527,277	131,451	-0,073	-0,069
-526,262	-200,000	0,004	0,161
-525,248	-200,000	-0,014	0,113
-524,233	-139,760	-0,068	0,005
-523,218	42,258	0,138	0,092
-522,204	527,198	-0,062	0,108
-521,189	-12,860	-0,098	-0,047
-520,175	547,709	-0,079	-0,139
-519,160	44,036	-0,049	0,033
-518,145	-154,874	-0,034	0,002
-517,131	23,231	0,145	0,088
-516,116	-196,037	0,080	-0,000
-515,102	-200,000	0,004	-0,036
-514,087	-37,568	0,090	-0,035
-513,072	-200,000	-0,003	0,041
-512,058	-53,762	-0,137	-0,046
-511,043	427,965	0,042	0,067
-510,029	-200,000	-0,023	-0,112
-509,014	-15,226	-0,023	0,011
-507,999	800,000	-0,053	0,137
-506,985	-105,669	-0,074	-0,012
-505,970	357,527	-0,071	-0,105
-504,956	-200,000	0,008	-0,048
-503,941	42,594	0,077	0,052
-502,926	-110,843	0,116	0,017
-501,912	-84,782	-0,038	-0,009
-500,897	-91,040	-0,057	-0,012
-499,883	-91,286	-0,050	0,010
-498,868	-53,205	-0,194	0,065
-497,853	-41,294	0,076	0,029
-496,839	-200,000	0,010	-0,131
-495,824	-55,454	-0,076	-0,025
-494,810	73,358	-0,105	0,081
-493,795	-118,003	-0,029	-0,004
-492,781	800,000	0,035	-0,104
-491,766	-25,574	0,031	0,013
-490,751	333,565	0,035	-0,050
-489,737	-200,000	-0,003	-0,027
-488,722	-200,000	0,003	0,031
-487,708	-49,301	0,060	0,021
-486,693	-137,395	-0,177	0,015
-485,678	800,000	0,023	0,069
-484,664	148,640	-0,074	-0,074
-483,649	800,000	0,055	-0,138
-482,635	69,346	-0,044	0,033
-481,620	15,549	-0,045	-0,026
-480,605	-200,000	0,076	0,000
-479,591	-2,728	0,084	-0,043
-478,576	-200,000	-0,016	0,100
-477,562	-200,000	0,006	0,040
-476,547	-200,000	-0,005	0,026
-475,532	-79,022	0,080	0,020
-474,518	-19,166	-0,086	0,039
-473,503	-200,000	0,018	-0,059
-472,489	-200,000	-0,030	0,155
-471,474	-200,000	0,004	0,082
-470,459	163,909	-0,015	0,016
-469,445	-200,000	0,058	-0,201
-468,430	740,996	-0,062	-0,124
-467,416	465,895	0,037	-0,061
-466,401	-112,267	-0,114	0,017
-465,386	95,012	0,146	0,123
-464,372	-5,122	-0,049	-0,025
-463,357	50,865	-0,078	0,054
-462,343	156,326	-0,067	0,069
-461,328	-200,000	0,000	-0,016
-460,313	-17,494	-0,093	-0,043
-459,299	-58,373	-0,001	-0,000
-458,284	19,679	0,107	0,063
-457,270	540,797	-0,088	0,155
-456,255	148,486	-0,054	-0,053
-455,241	230,714	-0,096	-0,116
-454,226	800,000	-0,004	-0,012
-453,211	-200,000	0,009	0,034
-452,197	-102,724	0,126	-0,022
-451,182	102,344	-0,029	-0,025
-450,168	-200,000	-0,013	-0,054
-449,153	-187,578	0,071	0,001
-448,138	-69,001	-0,175	-0,049
-447,124	-200,000	-0,030	-0,118
-446,109	96,308	0,097	0,081
-445,095	-7,752	-0,011	-0,005
-444,080	132,238	0,046	0,044
-443,065	346,133	-0,058	-0,085
-442,051	-10,442	-0,055	-0,027
-441,036	-72,878	0,116	0,031
-440,022	88,415	-0,079	-0,065
-439,007	140,741	0,034	-0,033
-437,992	-164,243	0,075	-0,002
-436,978	-73,638	0,224	-0,060
-435,963	-132,101	-0,088	-0,008
-434,949	-101,034	0,030	0,005
-433,934	209,800	-0,014	0,016
-432,919	-200,000	-0,001	-0,050
-431,905	51,939	-0,045	0,032
-430,890	497,946	0,069	0,118
-429,876	-92,891	0,146	-0,030
-428,861	800,000	-0,042	-0,088
-427,846	800,000	0,025	-0,058
-426,832	-145,874	-0,027	0,002
-425,817	43,898	-0,109	0,073
-424,803	-200,000	0,011	-0,148
-423,788	232,439	0,043	-0,052
-422,773	-200,000	0,004	0,065
-421,759	759,582	0,065	0,130
-420,744	0,560	-0,057	-0,030
-419,730	-171,290	0,036	-0,001
-418,715	-94,344	0,063	0,012
-417,701	-174,701	0,058	0,001
-416,686	237,994	0,078	0,095
-415,671	241,293	0,095	-0,117
-414,657	264,480	-0,091	-0,117
-413,642	79,262	0,034	0,027
-412,628	-200,000	-0,005	-0,032
-411,613	105,181	0,153	0,133
-410,598	-200,000	0,015	-0,100
-409,584	35,185	0,054	0,035
-408,569	-200,000	0,011	-0,037
-407,555	-200,000	0,011	0,058
-406,540	-200,000	0,024	0,145
-405,525	-16,918	-0,032	0,015
-404,511	61,620	-0,096	-0,070
-403,496	-32,492	-0,086	-0,035
-402,482	549,951	0,112	0,198
-401,467	-6,672	0,088	0,044
-400,452	297,566	-0,055	0,074
-399,438	-84,223	0,069	0,016
-398,423	204,925	-0,035	-0,040
-397,409	225,143	-0,048	-0,058
-396,394	-67,910	-0,121	-0,034
-395,379	-200,000	0,018	-0,071
-394,365	168,266	-0,082	0,086
-393,350	290,046	0,149	0,199
-392,336	-200,000	-0,002	0,161
-391,321	232,987	0,089	-0,107
-390,306	29,302	-0,152	-0,095
-389,292	-21,987	-0,127	-0,056
-388,277	-200,000	-0,004	0,043
-387,263	206,888	0,032	-0,036
-386,248	26,393	0,104	-0,063
-385,233	-19,383	0,091	-0,041
-384,219	-200,000	-0,006	-0,028
-383,204	-159,977	0,055	-0,002
-382,190	264,893	-0,074	-0,095
-381,175	800,000	0,051	-0,129
-380,160	569,327	0,014	0,026
-379,146	-200,000	-0,006	-0,089
-378,131	14,039	0,061	0,034
-377,117	78,709	-0,070	-0,055
-376,102	-22,466	-0,074	-0,033
-375,088	73,061	-0,037	-0,028
-374,073	269,899	0,186	-0,240
-373,058	108,416	0,018	-0,016
-372,044	-200,000	-0,002	0,009
-371,029	-200,000	-0,016	-0,056
-370,015	-200,000	0,019	-0,084
-369,000	204,172	-0,132	-0,150
-367,985	-75,735	-0,146	0,038
-366,971	-200,000	-0,130	-0,000
-365,956	114,626	-0,065	-0,058
-364,942	-103,181	0,075	0,013
-363,927	-119,408	-0,035	-0,004
-362,912	-200,000	0,006	-0,067
-361,898	134,325	-0,027	0,025
-360,883	79,837	0,116	-0,091
-359,869	164,805	-0,091	0,095
-358,854	170,913	0,073	0,076
-357,839	418,480	0,046	0,072
-356,825	644,655	0,021	-0,039
-355,810	620,040	-0,069	0,128
-354,796	-200,000	0,003	0,086
-353,781	38,204	0,091	0,060
-352,766	-83,776	-0,037	0,009
-351,752	-29,594	-0,069	0,029
-350,737	-121,134	-0,090	0,011
-349,723	-200,000	0,020	0,124
-348,708	343,206	0,111	0,160
-347,693	6,735	-0,104	0,057
-346,679	-155,372	0,035	-0,002
-345,664	-200,000	0,007	0,034
-344,650	-200,000	0,014	-0,102
-343,635	-200,000	-0,012	0,044
-342,620	299,122	0,135	0,183
-341,606	-200,000	-0,023	0,089
-340,591	-146,916	0,098	-0,006
-339,577	800,000	0,035	-0,096
-338,562	222,857	-0,066	0,078
-337,548	800,000	0,047	-0,098
-336,533	387,972	0,072	0,109
-335,518	290,602	-0,033	-0,044
-334,504	800,000	-0,074	0,156
-333,489	117,566	-0,021	0,019
-332,475	690,527	0,007	-0,013
-331,460	-93,621	0,038	0,008
-330,445	-200,000	0,011	-0,088
-329,431	800,000	0,036	-0,083
-328,416	800,000	0,011	0,033
-327,402	-179,676	0,061	-0,001
-326,387	-97,766	0,125	-0,023
-325,372	138,916	-0,094	-0,091
-324,358	-16,157	-0,025	0,011
-323,343	198,335	0,079	-0,089
-322,329	-200,000	-0,038	-0,154
-321,314	79,396	0,048	0,038
-320,299	-79,550	0,144	-0,035
-319,285	-200,000	0,014	-0,116
-318,270	81,540	-0,039	-0,031
-317,256	-13,586	0,012	0,006
-316,241	-200,000	0,024	0,101
-315,226	594,341	0,069	-0,125
-314,212	-90,243	0,158	-0,033
-313,197	-110,190	-0,083	-0,012
-312,183	57,496	-0,107	-0,076
-311,168	-200,000	-0,001	-0,023
-310,153	-200,000	-0,022	-0,087
-309,139	74,868	0,047	-0,036
-308,124	-200,000	-0,033	-0,133
-307,110	39,274	0,012	0,008
-306,095	251,038	0,145	0,180
-305,080	-200,000	0,004	-0,072
-304,066	-200,000	-0,010	0,064
-303,051	-200,000	0,000	-0,079
-302,037	191,535	-0,031	0,034
-301,022	295,230	0,087	0,117
-300,008	453,241	-0,049	0,080
-298,993	-96,966	-0,006	0,001
-297,978	-200,000	0,048	0,173
-296,964	415,445	-0,062	0,097
-295,949	-184,952	0,019	0,000
-294,935	66,761	0,027	0,020
-293,920	-164,786	-0,107	0,003
-292,905	-200,000	-0,003	0,132
-291,891	44,082	0,079	0,053
-290,876	50,862	0,075	0,052
-289,862	-177,806	0,094	0,002
-288,847	-200,000	-0,032	-0,124
-287,832	-131,211	0,075	0,007
-286,818	-36,022	-0,074	0,029
-285,803	-200,000	0,026	-0,100
-284,789	229,127	0,016	0,020
-283,774	609,436	-0,034	-0,062
-282,759	-7,779	0,080	0,039
-281,745	800,000	-0,071	-0,192
-280,730	272,037	0,071	-0,091
-279,716	87,935	-0,073	0,059
-278,701	222,710	-0,026	-0,030
-277,686	-51,646	-0,067	0,023
-276,672	201,530	-0,093	0,105
-275,657	165,988	0,049	-0,050
-274,643	602,549	0,073	0,133
-273,628	169,647	-0,087	0,091
-272,613	341,388	0,065	0,093
-271,599	235,626	-0,062	0,075
-270,584	40,577	0,067	-0,044
-269,570	138,873	0,011	0,011
-268,555	678,364	-0,030	-0,057
-267,540	-200,000	0,025	-0,123
-266,526	-200,000	-0,025	-0,112
-265,511	-200,000	0,015	0,063
-264,497	-12,589	0,071	0,034
-263,482	-72,057	0,122	0,033
-262,467	187,306	-0,063	0,069
-261,453	127,025	0,028	0,026
-260,438	-200,000	-0,002	-0,102
-259,424	301,597	-0,069	-0,093
-258,409	-200,000	-0,009	0,042
-257,395	-200,000	0,018	-0,112
-256,380	-200,000	-0,018	-0,076
-255,365	71,408	0,147	0,111
-254,351	-163,561	0,136	-0,005
-253,336	-48,627	-0,095	0,033
-252,322	800,000	0,037	-0,081
-251,307	10,792	-0,122	-0,068
-250,292	-200,000	0,011	0,112
-249,278	-200,000	0,005	-0,041
-248,263	800,000	-0,076	0,165
-247,249	60,512	0,045	0,032
-246,234	-79,242	-0,106	-0,026
-245,219	392,398	0,074	-0,113
-244,205	800,000	0,015	-0,046
-243,190	-200,000	-0,030	0,100
-242,176	-200,000	0,020	-0,101
-241,161	-200,000	-0,008	0,121
-240,146	366,956	0,092	0,136
-239,132	-17,893	-0,099	-0,045
-238,117	526,486	-0,021	-0,036
-237,103	-200,000	0,021	0,068
-236,088	-11,066	0,090	-0,043
-235,073	-26,526	0,125	0,053
-234,059	-17,776	0,090	-0,041
-233,044	787,152	0,082	-0,164
-232,030	800,000	-0,023	0,047
-231,015	-55,421	-0,150	0,049
-230,000	-105,817	-0,063	0,010
-228,986	-200,000	-0,012	-0,112
-227,971	-4,831	0,050	0,025
-226,957	-102,141	0,138	0,024
-225,942	-200,000	-0,010	-0,037
-224,927	27,154	-0,100	0,061
-223,913	-94,391	0,111	0,022
-222,898	-200,000	0,020	-0,086
-221,884	25,991	0,063	-0,038
-220,869	-200,000	-0,009	-0,102
-219,855	47,607	0,099	0,067
-218,840	206,946	-0,035	0,040
-217,825	-200,000	-0,001	0,085
-216,811	800,000	0,023	-0,051
-215,796	800,000	0,036	-0,074
-214,782	-29,519	0,048	-0,020
-213,767	800,000	-0,045	0,097
-212,752	-200,000	-0,015	0,067
-211,738	90,061	0,028	-0,023
-210,723	488,372	-0,083	-0,138
-209,709	-54,304	0,083	-0,027
-208,694	-39,265	0,062	-0,024
-207,679	-65,302	-0,025	-0,007
-206,665	115,262	0,014	-0,012
-205,650	138,442	0,015	-0,014
-204,636	104,177	0,073	-0,063
-203,621	-49,918	-0,070	0,024
-202,606	491,388	0,018	0,030
-201,592	-52,797	0,017	0,006
-200,577	800,000	-0,025	-0,059
-199,563	329,375	-0,078	-0,110
-198,548	101,621	-0,022	-0,019
-197,533	800,000	-0,042	-0,096
-196,519	-200,000	0,026	0,228
-195,504	-200,000	0,006	0,068
-194,490	16,545	0,030	0,017
-193,475	800,000	-0,057	-0,143
-192,460	236,896	-0,037	-0,045
-191,446	800,000	-0,058	0,162
-190,431	-200,000	0,018	0,102
-189,417	-135,976	-0,025	-0,002
-188,402	-185,032	0,087	0,001
-187,387	-200,000	0,036	0,168
-186,373	-126,693	0,064	0,007
-185,358	-76,248	0,031	0,008
-184,344	18,151	0,077	-0,044
-183,329	-200,000	0,012	-0,041
-182,315	250,295	-0,044	0,055
-181,300	33,424	0,142	0,090
-180,285	-200,000	-0,007	-0,029
-179,271	62,756	0,071	-0,051
-178,256	-71,492	-0,138	0,037
-177,242	800,000	0,048	0,110
-176,227	-200,000	0,010	0,045
-175,212	-200,000	0,041	0,147
-174,198	-183,591	0,080	0,001
-173,183	-29,831	0,130	-0,054
-172,169	-57,071	-0,136	0,043
-171,154	169,708	-0,042	0,044
-170,139	77,956	0,030	0,024
-169,125	-121,868	0,087	-0,010
-168,110	96,424	-0,111	-0,092
-167,096	-13,965	0,071	-0,033
-166,081	800,000	-0,031	0,073
-165,066	-52,442	-0,079	-0,026
-164,052	-200,000	-0,032	0,135
-163,037	142,038	-0,072	0,069
-162,023	-24,680	0,173	0,075
-161,008	-200,000	0,003	0,053
-159,993	-3,398	0,043	-0,022
-158,979	-200,000	-0,022	-0,109
-157,964	299,228	0,095	-0,127
-156,950	732,780	0,007	0,014
-155,935	800,000	0,050	-0,134
-154,920	-200,000	0,037	0,120
-153,906	-148,933	0,047	0,003
-152,891	-200,000	-0,026	0,091
-151,877	-200,000	-0,013	0,236
-150,862	166,984	-0,093	-0,096
-149,847	-91,453	-0,136	0,028
-148,833	-112,554	-0,213	0,030
-147,818	800,000	-0,064	0,153
-146,804	0,583	-0,060	0,031
-145,789	91,023	0,095	0,078
-144,775	-4,313	-0,052	0,026
-143,760	-200,000	0,001	-0,063
-142,745	800,000	-0,019	-0,057
-141,731	496,158	0,030	-0,051
-140,716	45,531	-0,076	0,051
-139,702	125,806	0,078	0,072
-138,687	-29,992	-0,085	-0,035
-137,672	-200,000	-0,003	-0,082
-136,658	-200,000	-0,008	-0,035
-135,643	211,586	0,073	-0,084
-134,629	62,812	0,121	-0,088
-133,614	70,344	0,117	0,088
-132,599	779,719	0,064	0,128
-131,585	-200,000	0,022	-0,074
-130,570	-200,000	-0,029	0,114
-129,556	-110,815	-0,065	0,010
-128,541	466,005	-0,047	-0,077
-127,526	-112,790	0,154	-0,022
-126,512	123,214	-0,024	-0,022
-125,497	54,499	-0,086	0,060
-124,483	575,844	0,084	0,150
-123,468	-52,074	-0,077	0,026
-122,453	800,000	-0,035	-0,078
-121,439	-25,423	-0,089	-0,038
-120,424	-200,000	-0,010	-0,052
