DTS Sentinel unit serial number:	SN410029Multiplexer serial number:	ORYXHardware model number:	OX2-SRSoftware version number:	ORYX F/W v4,00 Oryx Data Collector v3.7.2.0data status	okinstallation	B4 Nyhavnadifferential loss correction	single-endedforward channel	channel 2reverse channel	N/Adate	2023/12/19time	06:15:13forward acquisition time	300,00reverse acquisition time	0,00gamma	499,1914k internal	0,3127k external	0,3127temperature offset calibration	1,0000default loss term (dB/km)	0,3820temperature slope calibration	1,0000multiplexer offset coefficient	1,0000multiplexer slope coefficient	1,0000fibre end	0,00T internal ref (°C)	21,13T ext. ref 1 (°C)	6,46T ext. ref 2 (°C)	6,64length (m)	temperature (°C)	Stokes	anti-Stokes-744,400	423,068	0,045	-0,072
-743,385	-24,221	-0,277	0,122
-742,371	800,000	0,031	0,084
-741,356	163,718	-0,109	0,115
-740,342	46,034	-0,020	0,014
-739,327	-27,359	-0,185	0,080
-738,312	-29,270	-0,139	-0,059
-737,298	49,923	-0,194	-0,136
-736,283	-200,000	-0,033	-0,118
-735,269	-106,964	-0,121	0,020
-734,254	800,000	0,062	-0,136
-733,239	-160,305	-0,197	-0,008
-732,225	-200,000	-0,000	0,045
-731,210	15,453	-0,040	0,023
-730,196	109,859	0,085	-0,076
-729,181	-82,012	-0,135	0,033
-728,167	-51,448	0,158	-0,055
-727,152	-200,000	-0,009	-0,133
-726,137	-56,112	-0,113	-0,037
-725,123	800,000	-0,019	-0,049
-724,108	108,215	-0,168	-0,149
-723,094	-200,000	0,000	-0,055
-722,079	-75,218	0,059	0,015
-721,064	-200,000	-0,004	-0,120
-720,050	31,584	-0,087	-0,055
-719,035	118,011	-0,103	-0,094
-718,021	-200,000	-0,000	0,012
-717,006	504,414	-0,045	-0,079
-715,991	111,214	-0,091	0,081
-714,977	-200,000	0,022	-0,156
-713,962	56,700	-0,040	0,029
-712,948	-57,290	-0,052	-0,017
-711,933	-200,000	0,019	-0,127
-710,918	-200,000	0,003	0,093
-709,904	109,708	0,107	0,095
-708,889	-29,613	-0,094	0,040
-707,875	-138,709	-0,059	-0,005
-706,860	800,000	-0,029	-0,083
-705,845	-200,000	-0,006	0,064
-704,831	189,839	0,048	0,053
-703,816	44,244	0,056	0,038
-702,802	-130,956	0,064	-0,006
-701,787	29,067	-0,021	0,013
-700,772	27,796	-0,111	0,070
-699,758	-200,000	0,002	-0,042
-698,743	-99,306	-0,124	-0,023
-697,729	800,000	0,023	0,054
-696,714	-72,888	0,024	-0,007
-695,699	-200,000	0,017	-0,068
-694,685	-200,000	-0,005	-0,084
-693,670	52,899	0,014	0,010
-692,656	800,000	0,068	-0,219
-691,641	-200,000	0,018	-0,132
-690,627	-200,000	0,010	-0,173
-689,612	125,302	0,066	0,062
-688,597	113,986	-0,011	0,010
-687,583	800,000	-0,033	-0,095
-686,568	131,750	-0,082	-0,078
-685,554	-106,350	-0,106	0,017
-684,539	-200,000	-0,024	0,101
-683,524	446,490	0,031	0,051
-682,510	122,823	-0,051	-0,048
-681,495	-162,100	-0,155	-0,006
-680,481	80,274	0,096	-0,076
-679,466	800,000	-0,032	-0,074
-678,451	42,592	-0,148	-0,100
-677,437	-200,000	0,018	-0,096
-676,422	93,939	-0,043	-0,036
-675,408	-131,026	-0,029	-0,003
-674,393	-200,000	-0,017	0,082
-673,378	-28,888	-0,133	-0,057
-672,364	87,922	-0,098	0,081
-671,349	-97,448	-0,118	0,023
-670,335	747,267	0,076	-0,154
-669,320	-200,000	-0,012	-0,123
-668,305	128,419	-0,118	-0,111
-667,291	-105,101	-0,028	0,005
-666,276	-159,790	0,060	0,002
-665,262	-2,799	0,044	0,023
-664,247	800,000	-0,046	-0,126
-663,232	153,745	0,124	-0,126
-662,218	800,000	0,005	0,013
-661,203	-14,048	-0,087	0,042
-660,189	-131,595	-0,133	0,013
-659,174	-91,194	0,095	0,020
-658,159	-102,749	-0,087	-0,015
-657,145	154,392	0,103	-0,105
-656,130	194,641	0,093	-0,105
-655,116	436,831	-0,062	-0,100
-654,101	142,019	-0,037	-0,036
-653,086	-128,652	-0,034	-0,004
-652,072	96,507	-0,027	-0,023
-651,057	220,917	-0,096	-0,114
-650,043	800,000	-0,063	-0,149
-649,028	-200,000	-0,021	-0,079
-648,014	-200,000	-0,001	0,005
-646,999	-200,000	-0,001	0,043
-645,984	143,888	0,073	-0,072
-644,970	96,667	-0,013	-0,011
-643,955	5,810	0,018	-0,010
-642,941	-149,396	-0,070	0,004
-641,926	-200,000	0,008	0,055
-640,911	46,150	-0,064	-0,044
-639,897	245,589	0,018	0,023
-638,882	49,614	0,027	-0,019
-637,868	-66,313	-0,166	0,049
-636,853	110,953	0,051	-0,045
-635,838	-9,348	-0,128	-0,063
-634,824	242,819	-0,033	0,042
-633,809	-200,000	0,023	-0,111
-632,795	75,160	0,002	-0,002
-631,780	-200,000	-0,004	0,090
-630,765	-43,499	-0,119	0,044
-629,751	99,067	0,063	0,054
-628,736	139,806	0,031	0,030
-627,722	800,000	-0,083	-0,265
-626,707	12,136	0,140	-0,080
-625,692	800,000	0,021	-0,063
-624,678	-200,000	0,001	0,098
-623,663	-200,000	-0,000	-0,032
-622,649	800,000	-0,067	-0,146
-621,634	154,153	0,093	-0,095
-620,619	-141,482	-0,049	0,004
-619,605	-200,000	-0,046	0,209
-618,590	145,928	0,011	-0,011
-617,576	96,513	0,031	-0,027
-616,561	-64,383	0,165	0,049
-615,546	175,492	0,052	0,056
-614,532	800,000	-0,052	-0,136
-613,517	-200,000	0,008	0,098
-612,503	345,411	0,051	0,074
-611,488	522,171	0,035	0,061
-610,474	-109,578	0,037	0,006
-609,459	38,502	0,026	-0,017
-608,444	-200,000	-0,001	-0,075
-607,430	24,320	-0,110	0,067
-606,415	-108,222	-0,090	-0,014
-605,401	83,070	-0,061	0,049
-604,386	316,093	-0,034	-0,048
-603,371	-55,173	-0,132	0,044
-602,357	-200,000	-0,006	0,148
-601,342	442,317	-0,067	-0,109
-600,328	382,549	-0,095	-0,145
-599,313	-200,000	-0,008	-0,051
-598,298	-160,023	-0,089	-0,004
-597,284	191,449	0,083	0,093
-596,269	-31,889	0,029	0,012
-595,255	-75,691	0,067	-0,018
-594,240	-39,847	-0,044	0,017
-593,225	285,482	0,024	-0,032
-592,211	252,330	-0,090	-0,114
-591,196	-200,000	0,009	0,048
-590,182	-200,000	-0,014	-0,070
-589,167	476,331	0,022	0,036
-588,152	-200,000	-0,009	0,274
-587,138	512,958	-0,029	-0,050
-586,123	121,952	-0,046	-0,042
-585,109	-81,393	-0,083	-0,020
-584,094	546,136	0,030	-0,053
-583,079	-129,010	-0,085	0,009
-582,065	5,929	0,028	0,015
-581,050	-200,000	-0,026	0,100
-580,036	-200,000	0,016	0,075
-579,021	-200,000	-0,018	-0,289
-578,006	-200,000	-0,031	-0,102
-576,992	-81,466	-0,064	-0,016
-575,977	173,012	0,060	-0,064
-574,963	680,168	0,016	0,030
-573,948	-113,834	-0,145	0,021
-572,934	-164,980	-0,093	-0,003
-571,919	-24,844	0,049	-0,022
-570,904	264,298	-0,010	0,014
-569,890	249,729	0,056	-0,071
-568,875	253,262	0,015	-0,020
-567,861	-200,000	-0,009	0,131
-566,846	800,000	-0,029	0,062
-565,831	-7,971	-0,069	-0,034
-564,817	-124,225	-0,038	0,004
-563,802	186,253	-0,103	-0,113
-562,788	800,000	-0,063	-0,147
-561,773	315,476	0,034	-0,048
-560,758	-53,596	-0,206	-0,069
-559,744	319,994	0,088	-0,123
-558,729	-123,888	-0,014	-0,002
-557,715	572,737	0,038	0,068
-556,700	-123,532	-0,130	-0,015
-555,685	101,888	0,069	-0,060
-554,671	66,208	-0,142	-0,107
-553,656	800,000	-0,035	-0,094
-552,642	-106,972	0,072	-0,012
-551,627	-41,497	-0,111	0,042
-550,612	-118,490	-0,145	-0,019
-549,598	-200,000	-0,007	-0,063
-548,583	800,000	0,031	0,087
-547,569	184,832	-0,064	0,070
-546,554	800,000	-0,047	0,125
-545,539	-200,000	-0,034	0,137
-544,525	-200,000	-0,024	0,101
-543,510	-200,000	-0,021	-0,137
-542,496	219,893	0,055	0,065
-541,481	800,000	0,037	-0,082
-540,466	-200,000	0,004	0,081
-539,452	-200,000	0,000	-0,065
-538,437	215,105	0,098	-0,115
-537,423	172,469	0,041	-0,044
-536,408	76,977	0,128	0,100
-535,393	800,000	0,008	0,025
-534,379	-118,389	-0,032	-0,004
-533,364	-33,801	-0,076	-0,031
-532,350	167,565	-0,039	0,041
-531,335	-200,000	0,010	-0,044
-530,321	-200,000	0,023	0,132
-529,306	-64,820	0,157	0,046
-528,291	332,140	0,063	0,090
-527,277	800,000	-0,055	0,159
-526,262	-200,000	0,009	-0,079
-525,248	-200,000	0,018	0,070
-524,233	502,299	0,052	0,090
-523,218	-200,000	-0,021	-0,104
-522,204	60,391	-0,146	-0,107
-521,189	-200,000	0,000	-0,045
-520,175	-200,000	0,010	-0,038
-519,160	715,202	0,015	0,030
-518,145	-190,477	-0,073	0,001
-517,131	1,209	0,115	0,061
-516,116	362,896	0,033	-0,048
-515,102	-110,653	0,050	0,008
-514,087	15,810	0,101	-0,058
-513,072	80,936	-0,176	-0,140
-512,058	-156,272	-0,144	-0,007
-511,043	-200,000	0,011	0,073
-510,029	278,412	0,040	-0,053
-509,014	41,135	-0,008	-0,005
-507,999	-129,117	0,125	-0,013
-506,985	-200,000	0,001	0,021
-505,970	-200,000	-0,020	-0,174
-504,956	-33,237	0,116	0,047
-503,941	-67,317	0,104	0,030
-502,926	-200,000	0,004	-0,081
-501,912	238,302	0,068	0,083
-500,897	349,316	0,045	0,066
-499,883	-200,000	0,003	-0,087
-498,868	572,133	-0,068	-0,123
-497,853	422,577	-0,066	-0,105
-496,839	-63,612	-0,042	0,013
-495,824	-200,000	0,009	0,098
-494,810	-164,531	0,067	0,002
-493,795	-127,710	0,089	0,009
-492,781	-55,300	-0,168	0,055
-491,766	168,984	0,015	0,016
-490,751	33,393	-0,083	-0,053
-489,737	310,708	0,077	0,107
-488,722	428,520	0,110	-0,175
-487,708	263,255	0,077	-0,099
-486,693	-99,334	0,163	-0,030
-485,678	-200,000	0,016	0,089
-484,664	-94,157	0,067	-0,013
-483,649	-117,848	-0,101	-0,013
-482,635	-200,000	-0,021	0,121
-481,620	800,000	0,030	0,092
-480,605	236,111	0,081	-0,099
-479,591	80,783	0,030	0,024
-478,576	-123,959	-0,016	-0,002
-477,562	18,924	-0,069	-0,041
-476,547	-200,000	0,004	-0,059
-475,532	236,977	0,109	0,134
-474,518	-200,000	0,016	-0,088
-473,503	648,756	0,067	0,127
-472,489	118,897	-0,084	0,076
-471,474	-200,000	-0,016	-0,063
-470,459	31,673	-0,049	0,031
-469,445	-200,000	-0,011	0,232
-468,430	-40,835	0,039	-0,015
-467,416	800,000	-0,057	-0,121
-466,401	800,000	0,032	0,094
-465,386	93,490	0,018	-0,015
-464,372	-166,682	0,067	-0,002
-463,357	9,285	-0,115	-0,064
-462,343	-27,930	-0,114	-0,048
-461,328	-49,776	-0,096	-0,034
-460,313	800,000	0,043	-0,090
-459,299	75,997	0,054	0,042
-458,284	-91,920	0,058	0,012
-457,270	608,931	0,088	0,162
-456,255	800,000	-0,027	0,075
-455,241	-15,347	-0,017	0,008
-454,226	-7,117	-0,117	0,058
-453,211	800,000	-0,043	0,091
-452,197	-200,000	0,026	0,094
-451,182	519,184	-0,026	0,046
-450,168	800,000	0,035	0,092
-449,153	182,951	-0,075	-0,081
-448,138	800,000	0,041	-0,083
-447,124	-17,621	0,050	0,023
-446,109	593,176	0,072	-0,131
-445,095	-57,334	-0,036	-0,012
-444,080	56,485	-0,089	-0,064
-443,065	-130,066	0,171	0,017
-442,051	-27,973	0,014	-0,006
-441,036	239,970	0,066	-0,081
-440,022	-148,659	-0,122	0,007
-439,007	800,000	0,021	0,057
-437,992	800,000	-0,034	-0,077
-436,978	-109,981	0,219	-0,033
-435,963	800,000	0,020	-0,043
-434,949	40,532	0,100	-0,066
-433,934	132,357	-0,028	0,027
-432,919	-155,042	-0,155	0,007
-431,905	442,500	0,147	0,238
-430,890	-102,075	0,052	-0,009
-429,876	-88,417	0,048	-0,010
-428,861	-200,000	-0,012	0,050
-427,846	415,271	0,065	0,102
-426,832	194,061	0,023	0,025
-425,817	-3,437	-0,022	0,011
-424,803	-200,000	0,002	-0,075
-423,788	-3,188	-0,030	-0,015
-422,773	209,406	0,113	0,131
-421,759	-200,000	-0,010	-0,075
-420,744	-175,467	0,065	-0,001
-419,730	-200,000	0,022	-0,102
-418,715	361,190	0,056	-0,083
-417,701	800,000	0,009	0,019
-416,686	800,000	-0,029	0,060
-415,671	-39,677	0,131	-0,050
-414,657	800,000	-0,037	-0,095
-413,642	61,130	0,097	0,070
-412,628	-200,000	-0,018	-0,063
-411,613	69,846	0,067	-0,051
-410,598	-200,000	-0,012	-0,040
-409,584	109,762	-0,117	-0,104
-408,569	153,887	0,072	0,072
-407,555	432,472	-0,042	0,066
-406,540	105,514	-0,055	0,048
-405,525	135,242	-0,025	-0,024
-404,511	41,615	-0,142	0,094
-403,496	-200,000	-0,004	0,084
-402,482	244,601	0,057	0,070
-401,467	-200,000	-0,020	0,083
-400,452	424,537	-0,014	-0,022
-399,438	800,000	0,020	0,057
-398,423	-200,000	0,020	0,083
-397,409	303,358	-0,085	-0,115
-396,394	-70,373	-0,100	0,028
-395,379	116,973	0,084	0,076
-394,365	-181,865	0,049	0,001
-393,350	800,000	-0,041	0,110
-392,336	156,589	0,010	0,010
-391,321	-144,758	-0,037	0,002
-390,306	800,000	-0,036	-0,092
-389,292	-100,215	-0,149	-0,027
-388,277	148,069	0,118	0,117
-387,263	-64,123	0,168	0,050
-386,248	151,733	0,118	0,118
-385,233	55,160	-0,104	0,073
-384,219	-147,813	-0,007	-0,000
-383,204	146,281	-0,003	-0,003
-382,190	645,759	0,041	0,077
-381,175	168,083	0,093	0,098
-380,160	324,465	0,017	-0,024
-379,146	215,320	0,110	0,128
-378,131	-129,191	0,095	0,010
-377,117	-142,401	-0,071	-0,005
-376,102	-9,593	-0,081	-0,039
-375,088	-26,206	-0,022	0,009
-374,073	-200,000	0,002	-0,104
-373,058	-109,112	0,102	-0,016
-372,044	800,000	0,047	0,143
-371,029	-104,894	-0,044	0,007
-370,015	-7,072	-0,067	-0,033
-369,000	-191,841	0,008	0,000
-367,985	106,080	-0,163	-0,142
-366,971	-200,000	0,039	0,163
-365,956	31,101	0,166	-0,104
-364,942	-200,000	-0,010	-0,066
-363,927	456,761	-0,014	-0,022
-362,912	303,155	-0,068	0,092
-361,898	-54,191	-0,078	0,026
-360,883	432,358	-0,042	-0,068
-359,869	-200,000	-0,035	-0,154
-358,854	800,000	-0,010	-0,029
-357,839	-26,114	0,069	0,030
-356,825	89,798	0,103	-0,085
-355,810	-104,778	-0,081	-0,013
-354,796	176,197	0,027	0,029
-353,781	615,532	-0,041	-0,076
-352,766	800,000	0,041	-0,087
-351,752	434,200	-0,051	0,082
-350,737	800,000	0,059	-0,149
-349,723	18,420	0,064	0,037
-348,708	39,540	-0,011	0,007
-347,693	11,217	-0,117	0,065
-346,679	132,670	-0,099	-0,093
-345,664	36,278	-0,122	-0,079
-344,650	27,539	0,141	-0,087
-343,635	230,689	0,044	-0,053
-342,620	-200,000	-0,024	0,104
-341,606	26,458	0,023	-0,014
-340,591	-116,196	0,101	0,014
-339,577	-158,305	0,039	0,002
-338,562	751,557	-0,029	-0,058
-337,548	-56,818	-0,072	-0,023
-336,533	-86,435	-0,067	0,015
-335,518	219,060	-0,084	0,099
-334,504	-153,858	0,036	0,002
-333,489	-33,093	-0,163	0,066
-332,475	93,157	-0,042	0,035
-331,460	702,898	-0,027	0,052
-330,445	619,823	-0,038	0,071
-329,431	-10,028	0,078	-0,038
-328,416	160,382	0,121	0,124
-327,402	490,513	-0,094	-0,158
-326,387	800,000	-0,044	-0,099
-325,372	-140,395	0,155	0,012
-324,358	-133,957	-0,196	-0,018
-323,343	119,304	-0,057	-0,052
-322,329	800,000	-0,023	-0,051
-321,314	800,000	-0,037	0,093
-320,299	334,567	-0,027	0,038
-319,285	-200,000	-0,004	0,130
-318,270	800,000	0,050	0,103
-317,256	-200,000	0,012	-0,179
-316,241	258,592	0,048	-0,060
-315,226	800,000	0,050	0,130
-314,212	-34,944	-0,074	0,029
-313,197	64,555	-0,047	-0,035
-312,183	756,760	0,044	0,087
-311,168	-140,615	0,080	0,006
-310,153	-135,291	0,019	-0,002
-309,139	800,000	-0,026	-0,060
-308,124	422,844	-0,055	-0,087
-307,110	-200,000	0,027	0,092
-306,095	228,874	0,143	0,171
-305,080	136,993	-0,068	-0,065
-304,066	-200,000	0,002	-0,060
-303,051	113,522	-0,063	0,056
-302,037	-60,417	0,050	0,015
-301,022	74,394	0,093	-0,072
-300,008	-84,653	-0,098	0,023
-298,993	22,789	0,137	0,082
-297,978	56,601	-0,087	0,062
-296,964	-138,572	-0,049	0,004
-295,949	-200,000	-0,006	-0,038
-294,935	800,000	-0,034	-0,102
-293,920	-127,110	-0,076	0,008
-292,905	-127,411	0,149	0,016
-291,891	581,145	0,094	0,168
-290,876	800,000	0,038	0,104
-289,862	-0,832	-0,050	0,026
-288,847	-195,649	0,068	0,000
-287,832	-200,000	0,006	-0,064
-286,818	-200,000	0,012	-0,100
-285,803	800,000	0,012	-0,027
-284,789	800,000	-0,036	0,079
-283,774	-200,000	-0,011	0,057
-282,759	274,992	-0,100	-0,130
-281,745	-113,802	-0,105	0,015
-280,730	471,335	-0,059	-0,097
-279,716	-28,177	0,039	0,016
-278,701	609,248	-0,059	-0,109
-277,686	58,976	0,133	0,096
-276,672	130,306	-0,028	-0,026
-275,657	-98,576	0,164	0,030
-274,643	-200,000	0,039	0,129
-273,628	-19,011	0,090	0,041
-272,613	-200,000	-0,008	-0,117
-271,599	30,907	0,089	0,055
-270,584	-103,977	0,142	0,024
-269,570	303,722	0,074	0,100
-268,555	800,000	-0,063	-0,157
-267,540	49,360	0,092	-0,063
-266,526	-200,000	0,016	-0,096
-265,511	-60,482	0,076	-0,024
-264,497	800,000	-0,027	-0,062
-263,482	61,544	-0,013	-0,010
-262,467	-200,000	0,003	-0,066
-261,453	131,175	-0,122	-0,115
-260,438	52,323	-0,048	-0,033
-259,424	-1,444	0,070	-0,036
-258,409	257,310	-0,029	-0,037
-257,395	-2,046	-0,019	-0,010
-256,380	-200,000	-0,005	-0,052
-255,365	696,475	-0,051	0,098
-254,351	-103,935	0,174	0,029
-253,336	800,000	-0,061	0,194
-252,322	-59,369	-0,138	0,043
-251,307	-42,771	-0,086	-0,032
-250,292	339,788	-0,028	-0,041
-249,278	-200,000	0,016	0,120
-248,263	-27,612	0,109	0,046
-247,249	-200,000	0,006	0,081
-246,234	-200,000	0,009	0,092
-245,219	126,186	-0,087	-0,080
-244,205	800,000	-0,016	-0,049
-243,190	429,477	0,028	-0,044
-242,176	-200,000	-0,012	0,097
-241,161	-200,000	0,007	0,068
-240,146	-144,338	-0,109	-0,007
-239,132	743,210	0,061	-0,121
-238,117	-117,005	0,215	-0,028
-237,103	-70,364	-0,130	-0,036
-236,088	443,205	-0,049	0,079
-235,073	-116,639	-0,017	-0,002
-234,059	-44,445	0,055	0,020
-233,044	-176,058	0,118	0,002
-232,030	-200,000	0,008	0,185
-231,015	800,000	-0,017	-0,047
-230,000	293,844	0,115	0,153
-228,986	-130,563	-0,193	-0,019
-227,971	-66,685	0,115	-0,033
-226,957	-200,000	-0,012	0,113
-225,942	-117,330	-0,104	-0,014
-224,927	-70,897	-0,028	-0,008
-223,913	-100,501	0,100	0,018
-222,898	-200,000	0,008	-0,027
-221,884	66,914	0,020	0,014
-220,869	354,836	-0,063	0,091
-219,855	24,364	-0,041	0,025
-218,840	111,588	0,126	0,111
-217,825	570,514	0,046	0,082
-216,811	86,160	-0,016	-0,012
-215,796	-200,000	0,001	-0,026
-214,782	-200,000	0,045	-0,160
-213,767	-0,436	0,028	0,015
-212,752	-200,000	0,032	0,113
-211,738	36,406	-0,052	-0,034
-210,723	365,297	-0,049	0,073
-209,709	-100,590	0,087	0,015
-208,694	800,000	0,044	-0,125
-207,679	150,883	-0,045	-0,044
-206,665	-122,217	-0,017	-0,002
-205,650	566,990	0,051	-0,090
-204,636	-200,000	-0,001	-0,041
-203,621	-103,320	-0,202	0,034
-202,606	-110,141	-0,069	-0,010
-201,592	-175,518	0,046	0,001
-200,577	80,280	-0,090	-0,070
-199,563	98,937	-0,090	-0,076
-198,548	-67,858	0,057	0,016
-197,533	-200,000	-0,018	0,118
-196,519	103,934	0,043	-0,036
-195,504	-31,368	0,087	-0,035
-194,490	800,000	0,005	-0,012
-193,475	191,398	-0,050	-0,055
-192,460	288,299	-0,092	0,122
-191,446	-41,223	-0,039	-0,015
-190,431	44,420	0,115	0,077
-189,417	-200,000	-0,016	0,053
-188,402	426,958	-0,069	0,109
-187,387	-29,266	-0,075	-0,031
-186,373	-200,000	0,014	-0,130
-185,358	-200,000	-0,000	0,075
-184,344	24,877	0,098	-0,059
-183,329	-81,380	0,032	-0,008
-182,315	-200,000	-0,012	-0,101
-181,300	-86,601	-0,064	-0,014
-180,285	800,000	-0,028	-0,065
-179,271	-200,000	0,002	-0,136
-178,256	-28,789	-0,086	-0,036
-177,242	36,402	0,108	0,069
-176,227	-120,020	0,036	-0,004
-175,212	-163,726	-0,022	-0,001
-174,198	-66,489	-0,102	-0,029
-173,183	-126,289	0,052	-0,006
-172,169	109,651	0,049	0,043
-171,154	304,763	0,069	-0,093
-170,139	-114,802	0,044	-0,006
-169,125	-103,390	0,100	0,017
-168,110	-52,454	0,059	-0,020
-167,096	800,000	-0,045	0,100
-166,081	299,947	0,043	0,058
-165,066	-22,967	0,084	0,037
-164,052	-118,699	-0,088	0,011
-163,037	734,011	-0,052	-0,102
-162,023	-200,000	0,036	0,156
-161,008	77,408	0,023	0,018
-159,993	421,692	-0,086	-0,134
-158,979	150,486	-0,052	-0,052
-157,964	56,488	-0,069	-0,049
-156,950	-100,551	0,147	-0,026
-155,935	-54,581	0,064	-0,021
-154,920	-200,000	-0,001	-0,129
-153,906	157,383	0,034	0,034
-152,891	19,170	-0,061	0,036
-151,877	280,720	-0,026	-0,034
-150,862	-200,000	0,037	-0,172
-149,847	-41,463	0,091	-0,034
-148,833	-200,000	0,007	0,039
-147,818	-61,428	0,090	0,027
-146,804	-200,000	0,044	0,176
-145,789	234,143	0,036	-0,044
-144,775	139,876	-0,073	0,070
-143,760	20,130	-0,142	-0,083
-142,745	103,611	0,028	0,024
-141,731	-34,347	-0,038	-0,015
-140,716	800,000	0,024	0,054
-139,702	-109,286	0,053	-0,008
-138,687	96,066	0,046	0,038
-137,672	209,588	0,061	-0,070
-136,658	-200,000	0,007	-0,079
-135,643	43,729	0,117	0,078
-134,629	-197,958	0,045	-0,000
-133,614	800,000	-0,033	-0,077
-132,599	-81,257	0,050	0,012
-131,585	61,946	0,174	0,126
-130,570	78,030	0,113	-0,088
-129,556	206,672	-0,062	-0,070
-128,541	-200,000	-0,007	0,072
-127,526	800,000	-0,020	-0,062
-126,512	-190,530	0,067	-0,001
-125,497	381,367	0,070	0,105
-124,483	-200,000	0,003	-0,053
-123,468	-17,355	-0,109	-0,050
-122,453	141,925	0,044	0,042
-121,439	70,928	-0,072	-0,054
-120,424	800,000	0,041	0,102
