DTS Sentinel unit serial number:	SN410029Multiplexer serial number:	ORYXHardware model number:	OX2-SRSoftware version number:	ORYX F/W v4,00 Oryx Data Collector v3.7.2.0data status	okinstallation	B4 Nyhavnadifferential loss correction	single-endedforward channel	channel 2reverse channel	N/Adate	2023/12/19time	08:30:13forward acquisition time	300,00reverse acquisition time	0,00gamma	499,1914k internal	0,3126k external	0,3126temperature offset calibration	1,0000default loss term (dB/km)	0,3820temperature slope calibration	1,0000multiplexer offset coefficient	1,0000multiplexer slope coefficient	1,0000fibre end	0,00T internal ref (°C)	20,80T ext. ref 1 (°C)	5,45T ext. ref 2 (°C)	5,51length (m)	temperature (°C)	Stokes	anti-Stokes-744,400	498,089	0,067	-0,115
-743,385	83,492	-0,100	0,081
-742,371	800,000	-0,022	0,065
-741,356	396,261	-0,089	0,139
-740,342	-100,280	0,096	0,018
-739,327	-84,293	-0,396	0,093
-738,312	312,644	0,022	-0,030
-737,298	-166,919	-0,264	-0,008
-736,283	800,000	-0,025	0,064
-735,269	-23,523	-0,095	0,042
-734,254	46,419	-0,043	0,030
-733,239	-56,568	-0,560	-0,184
-732,225	68,623	0,039	-0,029
-731,210	800,000	-0,017	-0,047
-730,196	136,709	-0,025	0,024
-729,181	-99,017	-0,027	-0,005
-728,167	-200,000	0,036	0,127
-727,152	-107,983	-0,103	0,016
-726,137	-200,000	0,001	-0,068
-725,123	800,000	-0,066	-0,180
-724,108	800,000	-0,053	-0,115
-723,094	184,102	0,042	0,046
-722,079	9,285	-0,084	-0,047
-721,064	329,005	0,053	-0,076
-720,050	-200,000	0,027	-0,175
-719,035	-12,281	-0,077	0,037
-718,021	59,766	-0,059	-0,043
-717,006	-14,833	-0,138	-0,066
-715,991	-79,939	-0,212	0,053
-714,977	-45,880	-0,175	-0,064
-713,962	-200,000	0,006	0,084
-712,948	-200,000	-0,001	-0,005
-711,933	-200,000	-0,006	0,042
-710,918	-200,000	-0,026	0,142
-709,904	-53,657	-0,093	-0,031
-708,889	-200,000	-0,005	-0,121
-707,875	-200,000	0,014	-0,106
-706,860	441,530	-0,034	0,056
-705,845	-81,150	0,091	0,022
-704,831	-13,929	-0,108	0,051
-703,816	-200,000	0,014	-0,056
-702,802	442,351	0,011	0,019
-701,787	-200,000	0,006	-0,085
-700,772	-200,000	0,001	-0,100
-699,758	655,236	-0,010	-0,020
-698,743	-120,256	0,066	0,008
-697,729	-104,271	-0,132	-0,023
-696,714	800,000	0,018	-0,044
-695,699	184,755	0,009	-0,010
-694,685	800,000	-0,046	-0,095
-693,670	-92,464	0,116	-0,024
-692,656	-114,213	-0,134	0,019
-691,641	388,029	-0,048	0,073
-690,627	-10,061	0,117	-0,057
-689,612	-101,134	-0,148	-0,027
-688,597	-22,813	-0,025	-0,011
-687,583	55,517	0,046	-0,033
-686,568	-48,553	-0,094	-0,033
-685,554	260,879	0,029	-0,038
-684,539	179,387	0,085	0,092
-683,524	800,000	0,039	0,124
-682,510	-162,718	-0,030	0,001
-681,495	800,000	0,055	-0,141
-680,481	122,104	-0,063	-0,059
-679,466	567,144	-0,070	0,127
-678,451	-138,699	-0,097	-0,008
-677,437	-99,089	-0,011	-0,002
-676,422	-200,000	0,009	-0,081
-675,408	800,000	0,020	0,057
-674,393	-140,499	-0,048	0,004
-673,378	2,772	0,061	-0,033
-672,364	475,218	0,056	-0,094
-671,349	-88,692	-0,064	0,014
-670,335	-110,934	-0,105	-0,016
-669,320	-53,958	-0,082	-0,028
-668,305	-200,000	0,006	0,131
-667,291	-109,075	-0,082	-0,013
-666,276	154,867	-0,084	-0,086
-665,262	-1,573	-0,043	-0,023
-664,247	-32,809	-0,142	0,058
-663,232	28,452	0,086	0,054
-662,218	616,537	0,045	0,084
-661,203	-200,000	0,006	-0,021
-660,189	91,535	0,100	0,083
-659,174	-128,424	-0,055	-0,006
-658,159	89,044	-0,121	-0,100
-657,145	-153,358	-0,163	0,008
-656,130	55,275	-0,029	0,021
-655,116	-16,980	0,096	0,045
-654,101	754,703	0,034	0,069
-653,086	-200,000	-0,008	-0,037
-652,072	-200,000	0,013	-0,047
-651,057	800,000	0,018	-0,052
-650,043	-146,294	-0,101	-0,006
-649,028	330,179	0,021	0,030
-648,014	-78,759	0,049	0,012
-646,999	800,000	-0,069	0,209
-645,984	68,072	0,019	-0,015
-644,970	58,442	-0,126	0,092
-643,955	120,160	0,071	-0,065
-642,941	800,000	-0,013	-0,038
-641,926	-96,744	-0,165	-0,032
-640,911	345,734	0,024	0,035
-639,897	-200,000	0,019	0,000
-638,882	-200,000	-0,030	-0,105
-637,868	800,000	-0,033	0,073
-636,853	-200,000	0,018	-0,240
-635,838	-85,830	-0,104	0,024
-634,824	105,105	-0,015	-0,014
-633,809	-43,509	-0,121	0,045
-632,795	-159,650	-0,007	0,000
-631,780	-88,487	0,074	-0,016
-630,765	-200,000	-0,017	-0,063
-629,751	-200,000	-0,026	-0,109
-628,736	33,593	-0,162	-0,104
-627,722	1,885	-0,104	-0,056
-626,707	-200,000	0,017	0,093
-625,692	16,922	0,112	-0,065
-624,678	29,956	-0,018	-0,011
-623,663	-19,767	0,037	-0,017
-622,649	50,465	-0,095	0,066
-621,634	57,216	0,022	0,016
-620,619	-200,000	0,012	-0,043
-619,605	98,935	-0,024	-0,021
-618,590	337,138	0,060	0,086
-617,576	800,000	-0,013	0,028
-616,561	758,944	-0,016	0,032
-615,546	-44,462	-0,105	0,039
-614,532	-200,000	0,001	-0,059
-613,517	-125,754	0,016	-0,002
-612,503	57,370	0,063	0,046
-611,488	305,066	-0,061	-0,084
-610,474	-11,835	-0,197	-0,095
-609,459	179,416	0,074	-0,080
-608,444	-200,000	0,015	-0,195
-607,430	-153,478	-0,176	-0,009
-606,415	-76,164	-0,029	0,007
-605,401	-66,952	-0,020	0,006
-604,386	-80,042	0,039	-0,010
-603,371	800,000	0,022	-0,051
-602,357	51,278	0,102	-0,072
-601,342	800,000	0,014	0,035
-600,328	-200,000	-0,013	-0,101
-599,313	-29,986	-0,180	-0,076
-598,298	29,967	-0,055	0,034
-597,284	48,514	-0,103	-0,071
-596,269	77,154	0,115	-0,090
-595,255	-200,000	0,026	-0,088
-594,240	192,260	-0,101	0,113
-593,225	-106,800	-0,066	-0,011
-592,211	-148,697	0,091	0,005
-591,196	360,925	-0,011	-0,016
-590,182	-55,992	-0,038	-0,012
-589,167	691,431	0,086	-0,168
-588,152	-200,000	0,007	0,029
-587,138	-12,828	-0,139	0,067
-586,123	76,166	-0,092	-0,072
-585,109	-47,590	-0,055	-0,020
-584,094	-56,131	0,090	0,029
-583,079	-22,900	-0,180	0,080
-582,065	15,841	0,180	-0,105
-581,050	736,688	-0,079	0,157
-580,036	60,177	-0,076	0,055
-579,021	211,331	0,056	-0,066
-578,006	82,135	-0,049	0,039
-576,992	-200,000	0,000	-0,056
-575,977	-200,000	-0,005	0,071
-574,963	800,000	-0,023	-0,060
-573,948	-78,905	-0,032	0,008
-572,934	-35,005	-0,050	0,020
-571,919	-200,000	-0,011	-0,108
-570,904	349,702	-0,037	-0,054
-569,890	22,995	0,014	0,008
-568,875	247,622	-0,073	0,091
-567,861	-55,117	0,108	0,036
-566,846	31,669	-0,099	0,063
-565,831	213,474	0,040	0,047
-564,817	50,227	-0,024	0,017
-563,802	-38,623	-0,170	-0,066
-562,788	65,324	0,036	-0,027
-561,773	-157,336	-0,076	0,003
-560,758	209,602	-0,035	-0,040
-559,744	-200,000	0,040	0,202
-558,729	24,751	0,022	0,013
-557,715	800,000	0,044	-0,117
-556,700	186,224	0,072	-0,080
-555,685	-147,524	-0,058	0,004
-554,671	800,000	-0,017	0,046
-553,656	-39,600	0,181	0,070
-552,642	-1,878	0,132	0,068
-551,627	800,000	-0,058	0,127
-550,612	800,000	-0,036	-0,117
-549,598	-62,692	-0,050	-0,015
-548,583	-200,000	0,007	0,105
-547,569	-98,972	-0,080	-0,015
-546,554	-9,750	0,087	0,043
-545,539	657,451	-0,021	0,039
-544,525	133,694	0,046	-0,044
-543,510	-37,293	0,060	-0,024
-542,496	-200,000	0,011	0,057
-541,481	-2,605	-0,082	0,042
-540,466	31,108	0,116	0,074
-539,452	56,326	-0,100	-0,072
-538,437	-200,000	0,020	-0,066
-537,423	237,511	-0,095	0,116
-536,408	797,371	0,045	-0,092
-535,393	-97,124	-0,042	-0,008
-534,379	145,120	-0,035	0,034
-533,364	-147,799	-0,152	0,009
-532,350	206,285	0,065	0,074
-531,335	800,000	-0,014	-0,036
-530,321	-200,000	0,016	0,103
-529,306	800,000	-0,063	-0,143
-528,291	800,000	-0,071	-0,160
-527,277	-183,541	-0,007	0,000
-526,262	20,337	0,052	-0,031
-525,248	7,006	0,120	0,066
-524,233	117,447	0,088	0,080
-523,218	800,000	0,024	0,065
-522,204	41,040	-0,074	0,049
-521,189	-50,576	-0,050	-0,017
-520,175	49,021	0,061	0,042
-519,160	259,642	-0,017	-0,022
-518,145	-97,284	-0,128	-0,024
-517,131	-60,639	-0,069	-0,021
-516,116	76,945	0,079	0,062
-515,102	303,204	0,143	0,196
-514,087	446,604	-0,067	0,109
-513,072	800,000	0,030	0,063
-512,058	450,280	-0,065	-0,106
-511,043	-36,664	-0,074	-0,029
-510,029	282,424	0,048	0,064
-509,014	164,603	-0,072	0,075
-507,999	677,045	0,042	-0,081
-506,985	-200,000	0,073	0,000
-505,970	-200,000	0,062	-0,235
-504,956	276,688	-0,041	-0,053
-503,941	800,000	0,018	0,042
-502,926	-12,500	0,094	0,045
-501,912	-200,000	0,012	0,172
-500,897	303,999	0,050	0,069
-499,883	-2,038	-0,038	-0,020
-498,868	186,825	-0,060	-0,067
-497,853	-135,225	-0,202	0,018
-496,839	34,067	0,093	0,059
-495,824	-200,000	-0,009	0,071
-494,810	182,585	0,020	-0,022
-493,795	7,227	0,056	-0,031
-492,781	-12,968	-0,126	0,060
-491,766	-200,000	0,026	-0,150
-490,751	270,676	0,055	0,072
-489,737	518,218	-0,040	0,070
-488,722	21,071	-0,106	-0,063
-487,708	-200,000	0,006	-0,121
-486,693	-200,000	0,026	0,112
-485,678	-200,000	-0,009	0,076
-484,664	255,896	-0,108	0,137
-483,649	-200,000	-0,008	-0,175
-482,635	173,127	-0,024	-0,026
-481,620	681,359	-0,017	-0,032
-480,605	198,565	-0,035	-0,040
-479,591	-147,260	0,093	0,006
-478,576	13,354	-0,162	0,092
-477,562	-200,000	-0,021	0,081
-476,547	-200,000	-0,007	-0,131
-475,532	326,663	0,037	0,052
-474,518	-115,477	0,050	0,007
-473,503	800,000	-0,003	0,008
-472,489	-50,396	0,031	-0,011
-471,474	-200,000	-0,023	0,091
-470,459	513,468	-0,051	-0,088
-469,445	308,869	-0,042	-0,058
-468,430	-164,754	-0,021	-0,001
-467,416	-200,000	0,009	-0,049
-466,401	-83,696	0,045	0,010
-465,386	-3,904	-0,067	-0,034
-464,372	-192,699	0,112	0,001
-463,357	-79,098	-0,046	0,011
-462,343	-200,000	-0,038	-0,156
-461,328	-200,000	-0,009	-0,055
-460,313	-58,590	0,087	0,028
-459,299	9,489	0,174	0,097
-458,284	339,492	-0,026	0,037
-457,270	169,183	0,024	0,025
-456,255	25,280	-0,068	-0,042
-455,241	-24,741	0,137	-0,060
-454,226	-200,000	0,026	-0,105
-453,211	7,929	0,070	0,039
-452,197	-97,581	0,205	-0,039
-451,182	800,000	-0,033	0,070
-450,168	-84,379	-0,074	-0,017
-449,153	-134,090	-0,145	0,013
-448,138	141,622	-0,066	-0,064
-447,124	-200,000	0,001	-0,065
-446,109	-88,381	-0,061	0,013
-445,095	-200,000	-0,006	0,166
-444,080	-200,000	-0,005	0,036
-443,065	110,827	-0,042	-0,037
-442,051	262,769	-0,010	0,013
-441,036	800,000	-0,018	-0,045
-440,022	-200,000	0,013	-0,205
-439,007	159,060	-0,007	-0,007
-437,992	59,359	-0,025	0,018
-436,978	96,462	0,033	-0,028
-435,963	222,563	0,070	0,084
-434,949	30,552	-0,031	0,019
-433,934	-200,000	-0,008	0,031
-432,919	17,569	0,048	-0,028
-431,905	92,791	-0,115	0,096
-430,890	-67,010	0,145	-0,042
-429,876	-200,000	-0,010	-0,106
-428,861	-94,980	-0,129	0,025
-427,846	-200,000	0,018	-0,099
-426,832	63,750	-0,034	-0,025
-425,817	524,775	-0,035	0,061
-424,803	-176,085	0,017	0,000
-423,788	-22,742	0,070	0,031
-422,773	244,757	0,070	-0,086
-421,759	-59,628	0,068	0,021
-420,744	349,153	-0,035	0,051
-419,730	-200,000	-0,013	-0,157
-418,715	63,935	0,067	-0,049
-417,701	-72,070	-0,061	0,017
-416,686	-30,381	0,073	-0,030
-415,671	-9,578	-0,031	0,015
-414,657	147,597	0,042	0,042
-413,642	800,000	-0,045	0,093
-412,628	-200,000	-0,006	0,112
-411,613	-200,000	0,008	0,107
-410,598	800,000	-0,016	-0,041
-409,584	-127,124	-0,053	-0,006
-408,569	-200,000	0,007	-0,093
-407,555	-91,779	0,028	0,006
-406,540	-200,000	0,009	-0,096
-405,525	366,144	-0,027	-0,040
-404,511	539,324	-0,064	-0,113
-403,496	183,687	-0,014	-0,015
-402,482	800,000	-0,036	0,083
-401,467	-136,135	0,045	-0,004
-400,452	-119,227	0,048	0,006
-399,438	-200,000	-0,011	0,062
-398,423	504,442	0,010	-0,017
-397,409	333,165	-0,075	-0,107
-396,394	90,826	0,066	0,054
-395,379	219,004	0,021	-0,025
-394,365	800,000	0,023	0,053
-393,350	800,000	0,063	0,137
-392,336	-39,576	0,038	-0,014
-391,321	42,730	0,097	-0,065
-390,306	-0,034	0,077	0,040
-389,292	-12,547	0,087	0,042
-388,277	-200,000	0,011	-0,060
-387,263	246,928	0,075	0,094
-386,248	-54,835	0,127	0,042
-385,233	-200,000	-0,041	0,220
-384,219	-59,444	0,009	0,003
-383,204	517,996	0,025	0,043
-382,190	501,020	-0,050	-0,084
-381,175	138,914	-0,034	-0,033
-380,160	-200,000	0,038	0,133
-379,146	-200,000	-0,013	0,091
-378,131	-157,157	-0,074	0,003
-377,117	-54,411	-0,025	0,008
-376,102	12,052	0,109	-0,061
-375,088	-175,065	-0,139	0,003
-374,073	-34,632	0,090	0,036
-373,058	-104,300	-0,131	0,022
-372,044	-200,000	-0,018	0,129
-371,029	-151,166	0,104	-0,006
-370,015	713,193	-0,058	-0,113
-369,000	800,000	-0,033	-0,095
-367,985	0,266	0,110	-0,057
-366,971	230,960	0,066	-0,079
-365,956	450,970	0,008	0,014
-364,942	22,498	-0,054	-0,033
-363,927	800,000	0,040	0,124
-362,912	-88,115	0,082	0,018
-361,898	-200,000	0,007	-0,147
-360,883	-14,507	0,160	0,075
-359,869	-200,000	0,001	-0,017
-358,854	436,951	0,086	-0,138
-357,839	500,471	0,081	0,138
-356,825	-52,284	0,117	-0,039
-355,810	768,747	0,020	0,040
-354,796	-200,000	-0,026	-0,117
-353,781	197,108	-0,062	-0,070
-352,766	75,886	0,044	-0,034
-351,752	69,757	-0,108	-0,082
-350,737	-99,280	-0,088	-0,016
-349,723	-200,000	0,023	0,120
-348,708	-51,756	-0,127	0,043
-347,693	77,782	0,035	0,027
-346,679	343,089	-0,084	-0,121
-345,664	-200,000	0,005	-0,030
-344,650	419,900	-0,083	-0,130
-343,635	-94,795	0,080	0,016
-342,620	203,772	0,104	-0,118
-341,606	-200,000	-0,007	-0,055
-340,591	800,000	-0,023	-0,075
-339,577	142,124	-0,065	-0,063
-338,562	-53,185	-0,036	0,012
-337,548	-76,148	0,032	-0,008
-336,533	-21,400	-0,175	-0,078
-335,518	80,425	0,114	0,090
-334,504	800,000	-0,052	0,145
-333,489	-88,203	-0,058	0,013
-332,475	-200,000	-0,015	0,088
-331,460	665,163	-0,092	0,176
-330,445	-200,000	-0,008	0,080
-329,431	800,000	0,029	-0,075
-328,416	159,391	-0,132	0,135
-327,402	363,194	-0,054	0,080
-326,387	-5,352	-0,082	-0,041
-325,372	11,287	-0,108	0,060
-324,358	448,360	-0,044	0,070
-323,343	271,521	0,077	-0,100
-322,329	800,000	0,058	-0,178
-321,314	1,672	-0,057	0,030
-320,299	234,413	-0,021	-0,026
-319,285	-50,970	-0,066	-0,022
-318,270	-200,000	0,021	-0,087
-317,256	-105,616	0,137	0,022
-316,241	505,241	0,040	0,068
-315,226	-53,075	-0,104	-0,035
-314,212	-112,099	0,106	-0,015
-313,197	409,069	-0,100	0,155
-312,183	94,427	0,061	0,051
-311,168	-5,252	-0,078	0,039
-310,153	-77,635	-0,080	-0,020
-309,139	-4,442	-0,028	0,014
-308,124	442,991	0,015	0,024
-307,110	-104,495	0,169	0,028
-306,095	-200,000	0,003	0,123
-305,080	800,000	-0,013	0,030
-304,066	-200,000	-0,004	-0,017
-303,051	-200,000	0,024	-0,108
-302,037	214,825	0,074	-0,086
-301,022	-200,000	0,019	-0,136
-300,008	-60,797	0,080	-0,025
-298,993	-200,000	0,026	0,176
-297,978	-25,245	-0,111	-0,048
-296,964	-26,028	0,034	0,014
-295,949	10,873	-0,082	-0,046
-294,935	-83,150	0,029	0,007
-293,920	173,304	0,019	0,020
-292,905	-26,929	0,029	0,012
-291,891	90,603	0,046	-0,038
-290,876	-93,544	0,087	0,017
-289,862	24,018	-0,079	-0,048
-288,847	-5,693	-0,097	0,049
-287,832	-200,000	0,008	0,089
-286,818	33,611	-0,074	-0,047
-285,803	382,772	0,049	0,074
-284,789	-92,252	0,048	-0,010
-283,774	132,192	0,126	0,119
-282,759	410,848	-0,017	0,027
-281,745	173,682	-0,033	-0,034
-280,730	256,226	0,080	0,101
-279,716	123,076	0,170	-0,156
-278,701	-24,996	-0,065	-0,028
-277,686	-129,219	0,039	-0,004
-276,672	419,502	0,020	0,032
-275,657	214,373	0,118	-0,137
-274,643	393,518	-0,069	0,105
-273,628	-152,866	-0,020	-0,001
-272,613	135,684	-0,019	-0,018
-271,599	-7,696	0,122	-0,060
-270,584	-114,632	0,101	0,014
-269,570	800,000	-0,016	0,034
-268,555	-144,054	0,035	0,002
-267,540	800,000	0,033	0,093
-266,526	36,571	0,131	-0,084
-265,511	-200,000	0,011	0,082
-264,497	-200,000	-0,030	-0,121
-263,482	68,075	-0,022	0,016
-262,467	-200,000	-0,003	0,043
-261,453	190,308	-0,044	0,049
-260,438	225,625	-0,112	0,132
-259,424	770,705	-0,046	-0,093
-258,409	800,000	-0,071	-0,145
-257,395	-200,000	0,006	-0,030
-256,380	83,986	-0,069	-0,055
-255,365	-31,441	0,087	-0,036
-254,351	152,811	0,047	-0,047
-253,336	-21,965	0,129	0,057
-252,322	800,000	-0,074	0,190
-251,307	-200,000	0,028	0,143
-250,292	43,266	0,051	0,034
-249,278	800,000	0,028	0,062
-248,263	-200,000	-0,006	0,055
-247,249	388,866	-0,095	0,145
-246,234	251,674	-0,021	-0,027
-245,219	584,304	-0,029	-0,052
-244,205	74,603	-0,083	-0,064
-243,190	-139,911	0,090	-0,007
-242,176	-30,141	0,089	-0,037
-241,161	-3,323	0,060	0,031
-240,146	122,976	-0,046	0,042
-239,132	350,420	0,025	0,036
-238,117	428,429	-0,075	-0,119
-237,103	181,496	-0,108	-0,116
-236,088	253,981	0,015	-0,018
-235,073	-95,561	0,088	0,017
-234,059	-148,781	0,106	0,006
-233,044	-197,835	0,056	-0,000
-232,030	327,716	-0,044	0,062
-231,015	43,699	-0,116	-0,078
-230,000	-18,775	0,046	0,021
-228,986	-200,000	0,013	-0,131
-227,971	264,412	0,099	-0,127
-226,957	-200,000	0,019	-0,064
-225,942	-57,104	0,027	-0,009
-224,927	30,717	-0,045	-0,028
-223,913	-156,271	0,156	0,007
-222,898	62,765	0,045	0,033
-221,884	414,284	0,057	-0,089
-220,869	-117,473	0,128	-0,017
-219,855	470,656	-0,013	-0,022
-218,840	-200,000	0,011	-0,107
-217,825	-11,801	-0,093	0,044
-216,811	-200,000	-0,003	0,118
-215,796	800,000	-0,089	-0,210
-214,782	-200,000	0,023	-0,074
-213,767	-200,000	-0,004	-0,048
-212,752	21,542	0,073	-0,043
-211,738	-200,000	0,002	0,093
-210,723	-91,818	0,058	0,012
-209,709	-113,205	0,110	-0,016
-208,694	800,000	-0,015	-0,044
-207,679	-55,274	0,060	0,019
-206,665	-66,397	-0,172	-0,050
-205,650	554,468	0,116	0,205
-204,636	-104,358	0,118	0,020
-203,621	-22,326	-0,147	0,065
-202,606	635,974	0,028	0,051
-201,592	-159,787	-0,107	-0,004
-200,577	-200,000	0,016	-0,091
-199,563	800,000	-0,024	0,065
-198,548	69,326	0,128	0,096
-197,533	-200,000	0,020	0,108
-196,519	800,000	-0,038	-0,078
-195,504	-200,000	0,011	-0,054
-194,490	-200,000	0,004	-0,032
-193,475	633,173	-0,043	-0,080
-192,460	28,627	-0,069	0,043
-191,446	-61,226	-0,023	-0,007
-190,431	-200,000	0,019	0,146
-189,417	-9,806	0,079	-0,038
-188,402	444,932	0,005	-0,007
-187,387	-200,000	-0,007	0,047
-186,373	-123,717	0,132	0,015
-185,358	43,020	-0,102	0,068
-184,344	510,329	0,043	0,073
-183,329	275,930	-0,011	0,014
-182,315	-62,122	-0,178	0,054
-181,300	-200,000	-0,017	0,073
-180,285	11,821	-0,128	0,071
-179,271	130,434	0,035	-0,032
-178,256	-12,308	0,085	-0,041
-177,242	692,859	0,055	0,106
-176,227	800,000	-0,053	0,121
-175,212	-200,000	0,011	0,077
-174,198	182,103	-0,044	-0,047
-173,183	241,571	0,096	-0,117
-172,169	-82,313	-0,089	0,021
-171,154	-200,000	0,023	0,111
-170,139	-149,592	-0,052	-0,003
-169,125	-88,603	0,126	0,027
-168,110	376,689	0,019	-0,029
-167,096	800,000	-0,043	-0,110
-166,081	-133,333	0,164	0,015
-165,066	154,972	-0,102	-0,102
-164,052	46,184	0,151	0,102
-163,037	290,138	0,068	0,090
-162,023	16,942	0,077	0,044
-161,008	-200,000	0,001	0,005
-159,993	-200,000	0,018	-0,061
-158,979	800,000	-0,026	-0,066
-157,964	-44,579	0,130	-0,047
-156,950	-200,000	0,032	0,162
-155,935	800,000	-0,033	0,072
-154,920	186,293	0,055	-0,059
-153,906	-128,128	0,120	0,012
-152,891	430,361	-0,083	-0,131
-151,877	-200,000	-0,026	-0,090
-150,862	206,022	-0,092	-0,104
-149,847	-200,000	-0,008	0,025
-148,833	252,889	0,036	0,045
-147,818	800,000	0,020	0,059
-146,804	-54,870	-0,073	-0,024
-145,789	702,528	-0,043	0,082
-144,775	-200,000	0,011	0,124
-143,760	-11,093	-0,085	-0,041
-142,745	-200,000	-0,005	-0,032
-141,731	-200,000	-0,055	0,199
-140,716	-171,552	0,146	0,003
-139,702	132,519	-0,076	0,071
-138,687	-146,968	0,128	-0,008
-137,672	800,000	-0,007	0,020
-136,658	-180,710	-0,150	-0,002
-135,643	82,935	0,021	0,017
-134,629	-138,718	-0,170	-0,013
-133,614	-57,712	0,180	0,057
-132,599	-200,000	-0,014	0,132
-131,585	649,451	-0,057	0,107
-130,570	453,458	-0,016	0,026
-129,556	374,639	-0,010	0,015
-128,541	218,720	0,063	-0,073
-127,526	66,907	-0,037	-0,028
-126,512	282,425	-0,033	-0,043
-125,497	13,457	0,136	0,076
-124,483	-122,084	0,054	-0,006
-123,468	800,000	0,051	0,105
-122,453	268,725	-0,089	0,114
-121,439	-200,000	0,027	-0,196
-120,424	20,356	0,113	-0,066
-119,410	119,234	0,095	0,086
-118,395	76,951	0,058	0,045
