DTS Sentinel unit serial number:	SN410029Multiplexer serial number:	ORYXHardware model number:	OX2-SRSoftware version number:	ORYX F/W v4,00 Oryx Data Collector v3.7.2.0data status	okinstallation	B4 Nyhavnadifferential loss correction	single-endedforward channel	channel 2reverse channel	N/Adate	2023/12/15time	21:05:13forward acquisition time	300,00reverse acquisition time	0,00gamma	499,1914k internal	0,3134k external	0,3134temperature offset calibration	1,0000default loss term (dB/km)	0,3820temperature slope calibration	1,0000multiplexer offset coefficient	1,0000multiplexer slope coefficient	1,0000fibre end	0,00T internal ref (°C)	20,86T ext. ref 1 (°C)	6,07T ext. ref 2 (°C)	6,27length (m)	temperature (°C)	Stokes	anti-Stokes-744,400	-47,473	0,077	-0,028
-743,385	-74,238	-0,117	0,031
-742,371	800,000	-0,001	0,002
-741,356	104,859	-0,152	0,133
-740,342	-200,000	0,006	0,046
-739,327	-44,329	-0,239	0,088
-738,312	507,259	-0,068	-0,118
-737,298	-89,559	-0,277	-0,060
-736,283	134,920	-0,034	-0,033
-735,269	-10,845	-0,183	0,090
-734,254	-180,595	0,066	0,001
-733,239	-118,412	-0,415	-0,054
-732,225	-95,487	0,131	0,026
-731,210	266,849	0,037	0,048
-730,196	800,000	-0,043	-0,126
-729,181	257,150	-0,140	-0,180
-728,167	-200,000	-0,011	-0,051
-727,152	-44,017	-0,091	-0,034
-726,137	52,001	-0,051	-0,036
-725,123	597,155	-0,075	-0,138
-724,108	252,014	0,047	-0,059
-723,094	800,000	-0,047	-0,129
-722,079	-200,000	0,000	-0,163
-721,064	800,000	-0,071	-0,163
-720,050	-42,839	0,098	0,037
-719,035	16,889	-0,032	0,019
-718,021	-200,000	-0,006	-0,049
-717,006	-91,908	-0,109	0,023
-715,991	612,922	-0,024	-0,045
-714,977	-48,612	-0,178	-0,063
-713,962	-132,269	-0,006	-0,001
-712,948	-200,000	-0,030	0,123
-711,933	-200,000	0,023	-0,153
-710,918	308,078	-0,029	-0,041
-709,904	-200,000	0,032	-0,125
-708,889	73,705	-0,094	-0,073
-707,875	800,000	-0,015	-0,046
-706,860	-102,868	0,038	0,007
-705,845	-58,970	0,098	0,031
-704,831	-73,323	-0,077	-0,021
-703,816	-67,938	0,131	-0,038
-702,802	-200,000	-0,017	0,115
-701,787	800,000	-0,015	-0,032
-700,772	-98,471	0,059	0,011
-699,758	800,000	0,032	-0,078
-698,743	402,355	0,060	-0,095
-697,729	-110,946	0,135	-0,020
-696,714	121,483	-0,078	0,072
-695,699	206,225	0,024	-0,027
-694,685	519,886	-0,018	-0,032
-693,670	-200,000	0,015	-0,156
-692,656	-200,000	0,020	0,093
-691,641	-200,000	0,006	-0,055
-690,627	-121,652	0,066	-0,008
-689,612	130,217	-0,026	0,025
-688,597	-33,465	-0,096	-0,039
-687,583	-92,908	-0,140	-0,029
-686,568	800,000	-0,052	-0,123
-685,554	-83,746	-0,084	0,020
-684,539	-53,894	0,118	0,040
-683,524	-37,602	-0,143	0,056
-682,510	182,129	-0,013	0,015
-681,495	-138,745	-0,108	-0,009
-680,481	-39,982	0,064	0,025
-679,466	-200,000	-0,014	-0,095
-678,451	-200,000	-0,022	-0,107
-677,437	-200,000	-0,026	0,089
-676,422	-138,955	-0,115	-0,009
-675,408	-102,215	0,111	-0,020
-674,393	34,974	-0,068	-0,044
-673,378	216,358	-0,065	-0,077
-672,364	800,000	-0,070	-0,163
-671,349	800,000	0,031	-0,094
-670,335	34,099	-0,052	-0,034
-669,320	-19,910	0,101	0,046
-668,305	175,637	-0,078	0,084
-667,291	-200,000	0,008	-0,045
-666,276	328,739	-0,033	-0,048
-665,262	-106,539	-0,181	-0,030
-664,247	-200,000	-0,010	0,040
-663,232	43,965	-0,049	-0,033
-662,218	-57,553	0,133	0,043
-661,203	-200,000	0,027	-0,107
-660,189	344,154	0,030	-0,044
-659,174	-122,047	-0,063	-0,008
-658,159	383,456	-0,108	-0,165
-657,145	357,978	-0,034	0,051
-656,130	-200,000	0,001	-0,048
-655,116	-13,565	-0,086	-0,041
-654,101	-113,269	0,172	0,025
-653,086	-200,000	0,011	0,037
-652,072	-20,859	-0,162	0,073
-651,057	365,355	0,080	-0,120
-650,043	-163,731	-0,143	-0,005
-649,028	37,465	0,109	-0,071
-648,014	-26,662	-0,054	-0,023
-646,999	142,314	-0,113	0,111
-645,984	800,000	0,032	0,100
-644,970	-200,000	-0,001	-0,152
-643,955	105,084	-0,092	0,081
-642,941	143,026	-0,099	-0,098
-641,926	-200,000	-0,026	0,122
-640,911	-200,000	0,001	0,026
-639,897	-19,245	-0,055	0,025
-638,882	444,032	0,016	-0,025
-637,868	800,000	0,048	0,102
-636,853	353,938	0,055	-0,080
-635,838	800,000	-0,071	-0,169
-634,824	-69,677	-0,022	0,006
-633,809	-105,482	-0,108	0,018
-632,795	-128,312	0,181	-0,019
-631,780	-200,000	0,023	0,080
-630,765	144,423	-0,064	0,063
-629,751	-200,000	-0,002	0,075
-628,736	-46,932	0,105	-0,038
-627,722	167,228	0,083	0,087
-626,707	-200,000	-0,004	0,072
-625,692	-200,000	0,002	0,055
-624,678	800,000	0,047	0,121
-623,663	-41,694	-0,031	-0,012
-622,649	-48,980	-0,055	-0,019
-621,634	800,000	-0,033	0,090
-620,619	45,455	-0,162	0,110
-619,605	-200,000	-0,011	-0,076
-618,590	-200,000	-0,019	-0,068
-617,576	-200,000	-0,012	0,045
-616,561	622,100	-0,045	-0,084
-615,546	646,802	-0,086	-0,163
-614,532	-200,000	-0,006	0,043
-613,517	-86,884	0,028	-0,006
-612,503	-200,000	-0,006	0,102
-611,488	192,115	0,034	-0,038
-610,474	800,000	0,030	-0,086
-609,459	-47,180	-0,089	-0,032
-608,444	-67,065	-0,079	-0,023
-607,430	30,501	-0,151	-0,095
-606,415	-200,000	0,008	-0,058
-605,401	57,479	0,034	0,025
-604,386	316,023	-0,054	0,076
-603,371	-29,239	0,170	0,072
-602,357	70,770	-0,094	0,072
-601,342	147,881	-0,016	0,016
-600,328	204,200	-0,070	-0,080
-599,313	-40,440	-0,100	-0,038
-598,298	510,948	-0,041	-0,071
-597,284	90,912	0,011	-0,009
-596,269	98,021	-0,116	0,098
-595,255	-200,000	0,005	0,210
-594,240	800,000	0,052	-0,122
-593,225	-200,000	0,002	-0,043
-592,211	-200,000	-0,030	-0,144
-591,196	800,000	-0,017	-0,053
-590,182	-75,414	0,120	0,031
-589,167	48,343	0,031	-0,021
-588,152	549,444	0,022	0,039
-587,138	800,000	-0,037	0,109
-586,123	258,099	0,036	-0,045
-585,109	-200,000	-0,010	0,035
-584,094	-127,905	-0,074	-0,008
-583,079	60,321	0,197	-0,144
-582,065	-93,891	-0,055	0,011
-581,050	-193,681	-0,019	-0,000
-580,036	-121,301	-0,110	0,013
-579,021	800,000	0,040	0,085
-578,006	-91,993	0,007	0,002
-576,992	120,051	0,111	-0,101
-575,977	-68,227	-0,108	0,031
-574,963	155,537	0,110	0,112
-573,948	97,440	-0,041	0,035
-572,934	-200,000	-0,002	-0,019
-571,919	212,878	-0,063	-0,073
-570,904	-200,000	-0,011	-0,112
-569,890	-200,000	-0,006	-0,024
-568,875	244,955	-0,061	-0,076
-567,861	-53,673	0,027	0,009
-566,846	-200,000	-0,010	0,049
-565,831	691,190	-0,046	0,090
-564,817	258,912	0,076	-0,097
-563,802	-200,000	-0,025	-0,147
-562,788	800,000	-0,038	0,092
-561,773	-65,172	0,063	0,019
-560,758	-200,000	0,020	0,191
-559,744	-200,000	-0,003	0,080
-558,729	-200,000	-0,031	0,103
-557,715	-200,000	-0,017	0,071
-556,700	800,000	-0,052	-0,109
-555,685	800,000	0,057	-0,144
-554,671	-19,369	0,056	-0,026
-553,656	-56,848	0,124	0,040
-552,642	39,666	0,024	0,016
-551,627	800,000	0,047	0,103
-550,612	800,000	-0,036	0,085
-549,598	767,485	0,045	-0,090
-548,583	-200,000	-0,037	-0,226
-547,569	-200,000	0,002	-0,105
-546,554	-72,417	0,027	0,007
-545,539	-8,253	0,078	-0,038
-544,525	-149,572	-0,096	-0,006
-543,510	-125,026	-0,201	0,022
-542,496	373,601	0,059	-0,089
-541,481	181,308	-0,070	-0,076
-540,466	-200,000	0,004	-0,043
-539,452	-200,000	-0,003	-0,050
-538,437	179,509	-0,021	0,023
-537,423	-200,000	-0,026	-0,127
-536,408	14,683	-0,100	-0,057
-535,393	308,775	0,062	-0,086
-534,379	800,000	-0,034	-0,109
-533,364	308,932	0,057	0,079
-532,350	107,640	0,067	-0,059
-531,335	13,673	0,131	-0,075
-530,321	146,606	0,019	0,018
-529,306	116,442	-0,055	-0,050
-528,291	-20,581	0,035	-0,016
-527,277	800,000	0,060	0,193
-526,262	306,182	0,035	-0,049
-525,248	800,000	0,008	0,023
-524,233	53,661	-0,081	-0,057
-523,218	-200,000	-0,004	0,029
-522,204	-200,000	0,006	-0,037
-521,189	-200,000	-0,012	0,135
-520,175	-200,000	-0,002	-0,098
-519,160	-200,000	-0,028	-0,135
-518,145	7,453	0,097	-0,053
-517,131	-200,000	0,012	-0,143
-516,116	-32,590	0,048	-0,020
-515,102	1,374	0,051	0,027
-514,087	219,216	-0,019	-0,022
-513,072	535,617	-0,037	-0,065
-512,058	-151,735	-0,073	0,004
-511,043	45,779	-0,089	-0,060
-510,029	140,147	0,055	-0,053
-509,014	340,284	-0,039	0,056
-507,999	-70,815	0,110	-0,030
-506,985	45,182	-0,140	-0,095
-505,970	-200,000	-0,037	0,140
-504,956	-200,000	0,016	-0,168
-503,941	493,251	-0,036	-0,060
-502,926	-94,149	0,071	0,014
-501,912	379,573	0,088	0,133
-500,897	-67,678	-0,136	0,039
-499,883	-8,200	-0,080	-0,039
-498,868	106,613	-0,137	-0,119
-497,853	-200,000	-0,030	-0,210
-496,839	-108,884	0,051	-0,008
-495,824	800,000	-0,017	-0,040
-494,810	443,044	0,013	-0,021
-493,795	800,000	0,040	0,099
-492,781	-107,848	0,059	0,009
-491,766	85,630	-0,153	-0,123
-490,751	800,000	0,012	-0,032
-489,737	800,000	0,044	0,113
-488,722	220,371	0,052	-0,061
-487,708	-79,075	0,094	0,023
-486,693	-85,584	-0,076	-0,017
-485,678	386,418	-0,048	-0,073
-484,664	1,028	-0,031	0,017
-483,649	-2,792	0,023	0,012
-482,635	112,949	-0,018	-0,016
-481,620	-108,262	0,056	-0,009
-480,605	800,000	-0,040	-0,113
-479,591	-200,000	-0,003	0,014
-478,576	-200,000	-0,007	-0,070
-477,562	-162,174	-0,077	0,003
-476,547	-200,000	0,018	-0,153
-475,532	-53,124	-0,035	0,012
-474,518	290,288	0,093	0,124
-473,503	-200,000	-0,026	-0,091
-472,489	215,644	-0,012	0,014
-471,474	508,070	-0,042	-0,072
-470,459	211,711	-0,049	0,057
-469,445	-200,000	-0,019	-0,108
-468,430	-88,878	-0,060	0,013
-467,416	244,046	0,047	-0,059
-466,401	-23,829	0,101	0,044
-465,386	148,521	0,071	-0,071
-464,372	546,662	0,052	-0,092
-463,357	-2,049	0,031	0,016
-462,343	-200,000	-0,005	-0,037
-461,328	306,160	0,103	-0,141
-460,313	-200,000	0,007	0,027
-459,299	31,496	-0,061	0,039
-458,284	-61,971	0,121	0,037
-457,270	326,216	-0,043	-0,060
-456,255	-63,404	-0,114	-0,034
-455,241	-200,000	-0,012	-0,082
-454,226	-80,878	0,071	0,017
-453,211	60,400	0,062	0,045
-452,197	-200,000	0,002	0,036
-451,182	-93,372	0,033	-0,007
-450,168	580,174	-0,030	0,055
-449,153	-200,000	0,002	-0,025
-448,138	800,000	-0,051	-0,106
-447,124	72,739	0,087	-0,067
-446,109	36,499	0,063	-0,041
-445,095	-200,000	0,026	-0,106
-444,080	800,000	0,056	0,129
-443,065	733,684	-0,105	-0,207
-442,051	138,928	-0,041	-0,040
-441,036	-200,000	-0,005	0,042
-440,022	-77,909	-0,149	-0,038
-439,007	-7,336	0,213	-0,106
-437,992	-122,891	0,163	0,019
-436,978	-200,000	-0,003	-0,024
-435,963	61,882	0,107	-0,078
-434,949	800,000	-0,035	-0,077
-433,934	-200,000	-0,001	-0,085
-432,919	-54,349	-0,063	-0,021
-431,905	-65,529	0,072	0,021
-430,890	371,838	0,044	-0,065
-429,876	-200,000	0,009	0,123
-428,861	45,124	-0,019	-0,013
-427,846	70,194	-0,036	-0,027
-426,832	162,392	-0,063	0,065
-425,817	-200,000	-0,019	-0,115
-424,803	66,854	-0,068	0,051
-423,788	800,000	-0,018	0,047
-422,773	611,766	-0,036	0,067
-421,759	-200,000	0,006	-0,143
-420,744	339,480	0,054	0,077
-419,730	291,078	0,065	0,087
-418,715	-200,000	0,039	-0,144
-417,701	105,224	0,018	0,016
-416,686	276,008	-0,033	0,043
-415,671	-200,000	-0,005	0,045
-414,657	-30,475	-0,057	-0,023
-413,642	-84,011	-0,085	-0,020
-412,628	-200,000	0,011	-0,089
-411,613	-12,628	0,046	-0,022
-410,598	-28,022	0,107	-0,045
-409,584	128,407	0,057	-0,053
-408,569	800,000	-0,038	0,116
-407,555	737,343	0,042	0,084
-406,540	545,697	-0,095	0,167
-405,525	174,624	0,046	0,049
-404,511	18,353	0,027	0,016
-403,496	93,850	-0,046	-0,038
-402,482	165,280	0,099	-0,102
-401,467	-138,773	0,101	-0,008
-400,452	554,958	0,046	-0,082
-399,438	800,000	-0,052	0,130
-398,423	-164,236	-0,124	0,004
-397,409	-73,433	-0,108	0,029
-396,394	72,670	-0,072	-0,055
-395,379	188,157	-0,098	0,108
-394,365	-200,000	-0,008	0,118
-393,350	88,057	0,140	-0,114
-392,336	-163,079	0,100	-0,003
-391,321	88,291	0,077	-0,062
-390,306	92,143	-0,072	-0,059
-389,292	-81,185	-0,199	-0,048
-388,277	212,636	0,113	-0,130
-387,263	227,676	0,105	0,126
-386,248	13,313	0,116	0,066
-385,233	-65,726	0,090	0,026
-384,219	-200,000	-0,004	0,062
-383,204	-58,326	-0,127	0,040
-382,190	-200,000	-0,022	-0,140
-381,175	80,810	0,040	-0,032
-380,160	-200,000	-0,010	0,105
-379,146	-152,029	-0,095	0,005
-378,131	-119,428	0,040	-0,005
-377,117	-186,569	-0,063	-0,001
-376,102	737,816	0,025	-0,048
-375,088	390,349	-0,072	-0,110
-374,073	800,000	-0,066	-0,142
-373,058	-59,548	0,190	-0,059
-372,044	800,000	0,035	0,097
-371,029	575,849	-0,029	0,051
-370,015	-54,577	-0,069	0,023
-369,000	-0,649	0,102	-0,053
-367,985	303,837	-0,022	-0,030
-366,971	-29,001	0,021	-0,009
-365,956	14,468	0,177	0,101
-364,942	282,267	-0,033	0,044
-363,927	-80,226	0,171	0,041
-362,912	-149,048	-0,121	0,007
-361,898	-32,770	0,129	-0,052
-360,883	-200,000	-0,011	-0,047
-359,869	-200,000	-0,011	0,056
-358,854	3,283	0,037	0,020
-357,839	-200,000	-0,009	0,131
-356,825	-200,000	-0,011	0,111
-355,810	800,000	0,019	0,047
-354,796	-20,791	-0,059	0,026
-353,781	220,561	0,109	-0,129
-352,766	114,336	0,036	-0,032
-351,752	641,804	-0,022	0,041
-350,737	623,041	0,044	-0,081
-349,723	-92,096	0,190	0,039
-348,708	212,273	-0,054	-0,063
-347,693	159,450	0,107	-0,109
-346,679	-179,234	-0,006	-0,000
-345,664	49,770	-0,035	0,024
-344,650	-86,837	-0,049	0,011
-343,635	-200,000	0,003	0,046
-342,620	-114,993	0,128	0,018
-341,606	187,845	-0,050	-0,055
-340,591	252,772	-0,042	0,053
-339,577	-150,380	-0,056	0,003
-338,562	-200,000	-0,010	-0,164
-337,548	-25,641	0,070	0,030
-336,533	-2,348	-0,128	0,065
-335,518	-13,912	-0,040	0,019
-334,504	-108,499	0,127	0,020
-333,489	246,301	-0,057	0,071
-332,475	6,206	-0,083	0,045
-331,460	646,822	0,096	-0,180
-330,445	-164,558	0,086	0,003
-329,431	-49,631	0,081	0,028
-328,416	-120,134	-0,054	-0,007
-327,402	65,294	-0,071	0,052
-326,387	148,823	0,113	-0,112
-325,372	800,000	0,015	-0,032
-324,358	143,847	-0,031	-0,030
-323,343	562,986	-0,050	-0,089
-322,329	800,000	0,047	0,128
-321,314	800,000	-0,038	-0,084
-320,299	30,976	-0,044	0,028
-319,285	-200,000	0,014	0,119
-318,270	92,517	0,026	-0,021
-317,256	-43,072	-0,154	-0,057
-316,241	2,734	-0,138	0,073
-315,226	-173,502	0,076	-0,002
-314,212	406,240	0,029	-0,045
-313,197	800,000	-0,011	0,028
-312,183	647,124	0,080	0,150
-311,168	-200,000	0,004	0,068
-310,153	338,419	-0,069	-0,098
-309,139	-66,165	0,123	0,036
-308,124	-43,302	0,150	0,055
-307,110	-92,477	0,043	0,009
-306,095	-200,000	0,043	0,149
-305,080	-17,338	-0,124	0,057
-304,066	190,052	-0,009	-0,009
-303,051	50,835	0,031	0,021
-302,037	-22,163	-0,118	-0,052
-301,022	98,418	0,139	0,117
-300,008	-74,665	-0,100	-0,026
-298,993	-138,782	-0,014	-0,001
-297,978	472,619	-0,010	0,016
-296,964	-115,932	-0,127	0,017
-295,949	800,000	0,032	-0,074
-294,935	-200,000	0,007	-0,178
-293,920	5,416	0,063	-0,034
-292,905	17,591	0,100	-0,058
-291,891	39,415	0,106	0,069
-290,876	-21,817	0,072	-0,032
-289,862	-90,432	-0,153	0,032
-288,847	-59,289	-0,131	-0,041
-287,832	-200,000	-0,005	0,040
-286,818	48,227	0,035	0,024
-285,803	536,176	0,103	0,179
-284,789	-180,860	-0,128	-0,002
-283,774	-200,000	0,002	-0,089
-282,759	17,718	0,067	-0,039
-281,745	-200,000	-0,023	-0,108
-280,730	-35,031	-0,081	-0,032
-279,716	800,000	0,042	0,122
-278,701	-200,000	0,009	0,173
-277,686	800,000	-0,022	-0,062
-276,672	-200,000	0,010	0,114
-275,657	-200,000	-0,035	0,154
-274,643	-51,100	-0,132	-0,045
-273,628	22,647	-0,099	0,059
-272,613	800,000	0,014	-0,029
-271,599	21,671	-0,022	-0,013
-270,584	800,000	-0,026	0,075
-269,570	-33,877	0,199	0,079
-268,555	379,153	-0,110	0,165
-267,540	99,173	-0,059	0,050
-266,526	440,365	-0,032	-0,051
-265,511	800,000	-0,015	0,032
-264,497	-200,000	-0,006	-0,061
-263,482	498,043	0,021	-0,035
-262,467	-99,813	0,127	-0,023
-261,453	124,581	-0,051	-0,047
-260,438	172,810	-0,135	0,142
-259,424	-200,000	-0,031	-0,130
-258,409	217,270	0,032	0,037
-257,395	-100,793	0,117	-0,021
-256,380	-200,000	-0,002	-0,023
-255,365	-200,000	0,015	0,072
-254,351	209,350	0,063	0,072
-253,336	-22,506	-0,190	-0,083
-252,322	69,637	-0,030	-0,022
-251,307	374,242	-0,019	0,029
-250,292	-200,000	-0,005	-0,074
-249,278	-103,303	0,073	0,012
-248,263	368,403	0,050	0,074
-247,249	534,120	0,051	-0,088
-246,234	682,121	-0,019	0,036
-245,219	35,397	0,039	-0,025
-244,205	54,693	-0,097	-0,068
-243,190	63,628	-0,110	0,080
-242,176	232,330	0,098	0,118
-241,161	14,900	-0,053	0,030
-240,146	147,791	-0,046	0,045
-239,132	800,000	-0,023	0,048
-238,117	-200,000	-0,006	0,220
-237,103	-110,089	0,091	0,014
-236,088	-200,000	-0,021	-0,103
-235,073	-10,214	-0,024	0,011
-234,059	-200,000	-0,003	0,085
-233,044	-200,000	-0,005	-0,099
-232,030	-200,000	-0,011	0,082
-231,015	-200,000	-0,002	0,023
-230,000	159,171	-0,053	0,054
-228,986	52,095	0,036	0,025
-227,971	770,663	0,018	0,036
-226,957	-200,000	0,019	0,160
-225,942	-200,000	0,030	0,164
-224,927	800,000	0,024	0,071
-223,913	27,767	-0,087	0,053
-222,898	-200,000	-0,010	-0,085
-221,884	-99,924	-0,097	-0,017
-220,869	-200,000	-0,038	0,131
-219,855	-28,660	0,062	0,026
-218,840	127,406	-0,029	-0,027
-217,825	-109,094	0,032	0,005
-216,811	-93,974	0,118	-0,023
-215,796	101,328	-0,106	-0,089
-214,782	66,303	-0,112	-0,083
-213,767	800,000	-0,017	0,047
-212,752	800,000	-0,017	-0,042
-211,738	-44,211	-0,039	0,014
-210,723	441,207	-0,010	-0,016
-209,709	-200,000	0,026	0,148
-208,694	-169,900	-0,089	-0,002
-207,679	-15,696	-0,119	-0,055
-206,665	800,000	0,014	-0,043
-205,650	-200,000	0,007	0,077
-204,636	48,638	0,154	0,105
-203,621	712,451	-0,038	0,074
-202,606	800,000	0,068	0,169
-201,592	225,915	-0,044	0,052
-200,577	-21,007	0,084	0,037
-199,563	350,332	-0,085	0,122
-198,548	800,000	0,085	0,194
-197,533	-16,935	0,079	0,036
-196,519	-200,000	-0,039	0,140
-195,504	-75,885	-0,144	-0,037
-194,490	800,000	-0,021	0,066
-193,475	144,026	0,089	0,087
-192,460	-92,666	0,157	0,032
-191,446	800,000	-0,048	-0,145
-190,431	-131,630	0,008	0,001
-189,417	133,083	-0,072	-0,067
-188,402	-89,793	-0,110	-0,023
-187,387	-200,000	0,011	0,054
-186,373	131,510	-0,065	-0,061
-185,358	800,000	0,033	-0,067
-184,344	800,000	0,076	0,165
-183,329	800,000	0,025	-0,060
-182,315	136,451	0,096	-0,091
-181,300	-200,000	-0,016	-0,080
-180,285	62,700	-0,136	-0,098
-179,271	-14,703	0,112	-0,052
-178,256	-200,000	0,003	-0,064
-177,242	-200,000	-0,004	0,023
-176,227	133,199	-0,050	-0,047
-175,212	111,114	0,059	0,052
-174,198	-33,112	-0,025	0,010
-173,183	-200,000	-0,003	-0,068
-172,169	-200,000	0,011	-0,124
-171,154	696,496	0,049	-0,095
-170,139	800,000	0,015	0,030
-169,125	-7,054	0,092	0,045
-168,110	800,000	0,036	0,079
-167,096	-200,000	0,016	0,121
-166,081	800,000	0,009	-0,027
-165,066	-200,000	-0,015	-0,143
-164,052	0,042	0,186	0,096
-163,037	-200,000	0,027	0,093
-162,023	-125,074	0,053	0,006
-161,008	498,983	0,094	0,158
-159,993	271,276	0,084	0,108
-158,979	-17,626	-0,153	0,069
-157,964	-85,149	0,050	0,011
-156,950	-31,280	-0,172	0,070
-155,935	-200,000	-0,022	0,118
-154,920	-156,248	0,036	-0,002
-153,906	-200,000	-0,015	0,080
-152,891	800,000	-0,018	-0,057
-151,877	249,336	-0,061	-0,075
-150,862	-83,441	0,070	-0,016
-149,847	541,511	-0,008	-0,014
-148,833	764,486	-0,033	0,066
-147,818	77,043	-0,073	-0,057
-146,804	800,000	-0,011	-0,029
-145,789	-200,000	0,019	0,087
-144,775	114,811	-0,043	0,038
-143,760	209,244	-0,057	0,065
-142,745	-8,035	-0,092	-0,045
-141,731	-57,611	0,108	0,034
-140,716	-75,085	-0,052	-0,014
-139,702	-52,403	0,095	0,032
-138,687	-200,000	0,004	-0,067
-137,672	-200,000	0,005	-0,080
-136,658	-10,788	-0,108	0,052
-135,643	-200,000	0,005	0,116
-134,629	-54,941	-0,132	-0,043
-133,614	140,097	0,045	-0,043
-132,599	-200,000	-0,006	-0,024
-131,585	292,807	-0,091	0,120
-130,570	-70,326	-0,085	-0,023
-129,556	-38,221	0,075	-0,029
-128,541	800,000	-0,029	-0,065
-127,526	37,560	-0,036	-0,023
-126,512	161,880	-0,030	0,030
-125,497	-66,403	0,134	-0,038
-124,483	-140,733	-0,063	0,005
-123,468	800,000	-0,064	-0,153
-122,453	-121,791	-0,123	0,015
-121,439	-200,000	0,026	-0,119
-120,424	-39,162	-0,020	0,008
