DTS Sentinel unit serial number:	SN410029Multiplexer serial number:	ORYXHardware model number:	OX2-SRSoftware version number:	ORYX F/W v4,00 Oryx Data Collector v3.7.2.0data status	okinstallation	B4 Nyhavnadifferential loss correction	single-endedforward channel	channel 2reverse channel	N/Adate	2023/12/16time	05:15:13forward acquisition time	300,00reverse acquisition time	0,00gamma	499,1914k internal	0,3127k external	0,3127temperature offset calibration	1,0000default loss term (dB/km)	0,3820temperature slope calibration	1,0000multiplexer offset coefficient	1,0000multiplexer slope coefficient	1,0000fibre end	0,00T internal ref (°C)	22,11T ext. ref 1 (°C)	7,35T ext. ref 2 (°C)	7,53length (m)	temperature (°C)	Stokes	anti-Stokes-744,400	199,536	-0,004	-0,004
-743,385	20,367	-0,268	0,161
-742,371	-98,523	0,076	0,014
-741,356	29,733	-0,216	0,137
-740,342	178,264	-0,038	0,041
-739,327	-49,391	-0,175	0,062
-738,312	191,569	0,060	0,067
-737,298	-48,024	-0,294	0,105
-736,283	-61,065	0,083	-0,026
-735,269	31,571	-0,158	0,101
-734,254	-12,007	0,028	-0,013
-733,239	-66,019	-0,361	-0,107
-732,225	-118,507	0,066	-0,009
-731,210	273,579	0,054	0,071
-730,196	-200,000	0,005	-0,039
-729,181	-200,000	0,005	0,071
-728,167	-200,000	0,015	-0,061
-727,152	-46,003	-0,015	0,005
-726,137	-200,000	-0,002	0,060
-725,123	241,282	-0,130	-0,162
-724,108	-200,000	-0,027	-0,100
-723,094	-25,044	-0,081	0,035
-722,079	-200,000	0,008	-0,055
-721,064	13,080	0,099	0,057
-720,050	263,381	-0,097	-0,125
-719,035	-200,000	-0,005	-0,030
-718,021	26,474	-0,076	0,047
-717,006	-101,500	-0,168	0,030
-715,991	281,900	0,100	-0,134
-714,977	783,765	0,107	-0,218
-713,962	225,767	0,029	0,034
-712,948	-200,000	-0,016	-0,093
-711,933	-200,000	-0,045	0,151
-710,918	800,000	-0,030	-0,096
-709,904	495,562	0,023	-0,040
-708,889	23,766	-0,121	-0,074
-707,875	42,863	-0,049	-0,033
-706,860	313,786	-0,026	0,036
-705,845	800,000	-0,058	-0,139
-704,831	-114,303	0,045	-0,006
-703,816	40,382	0,057	-0,038
-702,802	-200,000	0,000	0,040
-701,787	-123,827	-0,169	0,020
-700,772	-200,000	0,001	-0,030
-699,758	160,786	-0,079	-0,082
-698,743	-145,808	0,087	0,006
-697,729	16,060	-0,124	0,073
-696,714	677,716	-0,023	0,044
-695,699	-43,935	0,039	-0,014
-694,685	682,100	-0,075	-0,145
-693,670	-55,851	0,047	-0,016
-692,656	800,000	0,113	0,269
-691,641	746,030	-0,071	0,144
-690,627	-120,719	0,038	0,005
-689,612	193,596	0,095	-0,107
-688,597	800,000	-0,029	-0,087
-687,583	217,485	0,024	-0,029
-686,568	-200,000	-0,007	-0,037
-685,554	-173,654	-0,127	-0,003
-684,539	800,000	-0,072	-0,159
-683,524	330,970	0,018	0,026
-682,510	419,085	0,057	-0,091
-681,495	-116,119	-0,216	-0,029
-680,481	-23,326	-0,063	0,028
-679,466	-200,000	0,020	0,094
-678,451	42,977	-0,034	0,023
-677,437	-200,000	-0,044	0,259
-676,422	202,672	0,065	0,075
-675,408	-75,132	-0,030	0,008
-674,393	-97,410	0,039	0,008
-673,378	38,918	-0,100	-0,066
-672,364	-11,258	-0,058	0,028
-671,349	741,291	0,035	0,071
-670,335	800,000	-0,031	0,098
-669,320	-154,119	0,145	-0,007
-668,305	344,641	0,084	0,123
-667,291	-200,000	-0,012	0,095
-666,276	-0,954	-0,122	0,064
-665,262	-126,819	0,103	-0,011
-664,247	121,908	-0,070	-0,065
-663,232	-200,000	0,007	-0,074
-662,218	176,304	0,072	-0,077
-661,203	-116,479	0,019	-0,003
-660,189	800,000	-0,040	-0,097
-659,174	105,757	-0,093	-0,082
-658,159	-200,000	0,014	0,055
-657,145	-200,000	-0,041	-0,138
-656,130	92,905	-0,061	0,051
-655,116	-106,781	0,067	-0,011
-654,101	-200,000	-0,007	0,042
-653,086	-101,296	-0,079	0,014
-652,072	132,606	0,064	-0,061
-651,057	26,784	-0,148	-0,092
-650,043	-24,917	-0,038	-0,017
-649,028	-200,000	-0,094	0,000
-648,014	-27,135	0,082	0,035
-646,999	800,000	-0,034	-0,072
-645,984	-73,548	0,036	0,010
-644,970	11,334	-0,135	-0,077
-643,955	800,000	-0,062	-0,128
-642,941	-200,000	-0,016	0,073
-641,926	19,252	-0,012	-0,007
-640,911	-151,965	-0,172	-0,009
-639,897	144,849	-0,045	0,044
-638,882	-21,120	0,027	0,012
-637,868	-46,593	0,096	0,035
-636,853	-200,000	0,002	-0,144
-635,838	108,465	-0,012	0,010
-634,824	167,220	-0,110	-0,115
-633,809	800,000	0,033	0,098
-632,795	-101,978	-0,183	-0,032
-631,780	91,293	0,050	-0,041
-630,765	-185,452	-0,065	-0,001
-629,751	49,782	-0,022	0,015
-628,736	800,000	-0,046	0,121
-627,722	-200,000	-0,025	0,098
-626,707	-200,000	0,001	-0,051
-625,692	-36,000	0,065	-0,026
-624,678	-200,000	-0,002	-0,043
-623,663	-200,000	0,014	0,157
-622,649	-200,000	-0,032	-0,124
-621,634	-200,000	0,021	-0,150
-620,619	275,289	0,016	-0,021
-619,605	289,244	0,015	0,020
-618,590	-200,000	-0,003	0,088
-617,576	-43,729	0,039	-0,015
-616,561	-200,000	0,009	0,168
-615,546	698,174	0,079	0,155
-614,532	-84,676	-0,042	-0,010
-613,517	225,647	0,063	0,076
-612,503	800,000	-0,060	-0,173
-611,488	-26,045	0,132	0,057
-610,474	492,277	0,023	0,039
-609,459	-200,000	-0,000	0,033
-608,444	-200,000	-0,002	-0,042
-607,430	-81,629	-0,052	-0,012
-606,415	630,255	0,082	-0,155
-605,401	8,191	0,101	0,056
-604,386	115,326	0,053	0,048
-603,371	-85,677	-0,045	0,010
-602,357	-200,000	-0,012	-0,080
-601,342	-11,809	-0,052	-0,025
-600,328	68,154	-0,016	0,012
-599,313	55,128	0,031	0,022
-598,298	42,985	-0,071	-0,048
-597,284	-200,000	0,023	0,119
-596,269	800,000	0,052	0,147
-595,255	380,358	-0,068	0,103
-594,240	-200,000	-0,012	-0,085
-593,225	-25,888	-0,078	-0,034
-592,211	-101,886	-0,065	0,011
-591,196	233,950	0,051	0,062
-590,182	-73,504	0,006	0,002
-589,167	737,043	0,049	0,098
-588,152	-6,157	-0,152	0,077
-587,138	-163,847	-0,015	0,001
-586,123	62,499	-0,054	-0,040
-585,109	125,840	0,131	0,123
-584,094	-29,882	-0,053	-0,022
-583,079	-36,532	-0,111	0,044
-582,065	111,198	0,074	-0,066
-581,050	233,631	-0,047	0,057
-580,036	114,233	0,022	0,020
-579,021	272,535	-0,124	-0,162
-578,006	130,719	-0,109	-0,103
-576,992	-24,973	-0,071	0,031
-575,977	263,895	-0,013	-0,016
-574,963	-66,885	0,036	-0,010
-573,948	-119,992	0,138	0,017
-572,934	142,330	-0,100	-0,098
-571,919	800,000	-0,042	-0,128
-570,904	246,785	0,012	-0,015
-569,890	-41,555	0,089	0,034
-568,875	478,166	0,081	0,137
-567,861	-39,412	0,041	-0,016
-566,846	-144,211	-0,092	0,006
-565,831	213,192	0,046	0,054
-564,817	800,000	-0,025	-0,072
-563,802	-66,965	0,012	-0,004
-562,788	-200,000	-0,003	0,081
-561,773	-200,000	0,010	0,041
-560,758	123,052	0,069	-0,064
-559,744	-1,372	-0,094	-0,049
-558,729	132,826	0,037	-0,035
-557,715	371,502	0,045	-0,068
-556,700	-176,826	0,032	-0,001
-555,685	-98,711	-0,119	-0,022
-554,671	-79,521	0,050	0,012
-553,656	214,965	0,058	0,068
-552,642	-200,000	-0,040	0,146
-551,627	800,000	-0,020	0,063
-550,612	-44,025	-0,034	-0,013
-549,598	800,000	-0,028	-0,070
-548,583	-93,332	0,129	-0,026
-547,569	465,243	-0,010	-0,017
-546,554	390,057	-0,040	-0,062
-545,539	19,759	0,011	-0,007
-544,525	-200,000	-0,008	-0,159
-543,510	-87,816	-0,056	0,012
-542,496	-200,000	-0,025	0,118
-541,481	-162,609	-0,080	0,003
-540,466	-200,000	0,018	-0,130
-539,452	126,867	-0,056	0,052
-538,437	41,018	-0,006	-0,004
-537,423	-93,302	-0,019	-0,004
-536,408	-200,000	-0,029	-0,095
-535,393	182,325	-0,051	-0,055
-534,379	260,757	-0,082	0,105
-533,364	26,639	0,071	-0,044
-532,350	-86,291	-0,139	-0,031
-531,335	-200,000	0,019	-0,175
-530,321	800,000	0,051	0,106
-529,306	79,837	-0,102	0,081
-528,291	278,539	0,028	-0,037
-527,277	212,782	-0,204	-0,237
-526,262	107,419	0,038	0,034
-525,248	-51,364	0,246	0,084
-524,233	61,893	0,028	-0,021
-523,218	-194,040	0,103	-0,001
-522,204	-200,000	0,007	0,062
-521,189	223,518	-0,088	-0,105
-520,175	80,017	0,085	-0,068
-519,160	-200,000	0,006	0,128
-518,145	800,000	-0,088	0,212
-517,131	395,926	0,014	0,022
-516,116	173,102	0,013	-0,013
-515,102	800,000	0,016	-0,044
-514,087	-117,979	0,064	0,008
-513,072	-88,490	-0,086	-0,019
-512,058	108,897	-0,077	-0,068
-511,043	-200,000	-0,008	-0,108
-510,029	-11,446	0,149	0,072
-509,014	800,000	0,026	0,057
-507,999	100,843	0,026	-0,022
-506,985	-200,000	0,000	0,066
-505,970	-200,000	-0,002	-0,036
-504,956	-8,171	-0,039	0,019
-503,941	83,032	0,071	0,057
-502,926	644,382	-0,061	0,116
-501,912	800,000	0,031	0,083
-500,897	-175,414	-0,047	-0,001
-499,883	-200,000	-0,018	-0,097
-498,868	491,879	-0,060	-0,102
-497,853	-5,652	0,080	0,040
-496,839	-171,880	-0,035	-0,001
-495,824	-200,000	-0,026	0,133
-494,810	-166,494	0,017	-0,001
-493,795	79,240	-0,006	-0,004
-492,781	141,873	-0,066	-0,065
-491,766	-4,239	-0,118	-0,060
-490,751	-110,133	-0,097	-0,015
-489,737	63,567	0,024	0,018
-488,722	800,000	-0,030	0,095
-487,708	72,873	-0,121	-0,093
-486,693	-154,321	0,105	0,005
-485,678	800,000	-0,018	0,053
-484,664	225,386	0,053	-0,063
-483,649	523,215	-0,040	-0,069
-482,635	305,327	0,043	0,059
-481,620	-91,454	-0,028	0,006
-480,605	379,249	0,034	-0,052
-479,591	30,088	0,066	-0,041
-478,576	-5,990	0,107	0,054
-477,562	-200,000	-0,005	-0,075
-476,547	148,602	0,024	-0,024
-475,532	375,484	0,033	-0,050
-474,518	336,656	-0,019	0,028
-473,503	90,707	0,109	0,090
-472,489	-200,000	0,022	0,089
-471,474	-200,000	0,007	-0,070
-470,459	800,000	0,040	-0,085
-469,445	216,437	-0,080	0,094
-468,430	-94,626	0,105	-0,021
-467,416	-108,675	0,107	-0,017
-466,401	-22,843	0,116	-0,051
-465,386	-37,107	-0,084	0,033
-464,372	-200,000	-0,005	-0,046
-463,357	3,584	-0,064	-0,034
-462,343	197,907	-0,123	0,138
-461,328	-24,460	-0,082	0,036
-460,313	320,714	0,086	0,120
-459,299	375,846	0,014	0,021
-458,284	-200,000	-0,003	-0,010
-457,270	800,000	-0,023	-0,059
-456,255	800,000	0,046	-0,103
-455,241	-103,375	0,138	0,024
-454,226	-8,173	-0,042	0,021
-453,211	-142,952	0,073	-0,005
-452,197	800,000	0,025	0,065
-451,182	-200,000	-0,001	0,140
-450,168	122,489	0,131	-0,120
-449,153	34,045	0,097	0,062
-448,138	596,098	-0,027	-0,050
-447,124	-10,762	0,087	0,042
-446,109	6,043	0,098	-0,053
-445,095	-81,243	0,022	0,005
-444,080	-200,000	0,036	0,123
-443,065	307,042	0,022	0,030
-442,051	-200,000	0,010	-0,035
-441,036	800,000	-0,048	-0,147
-440,022	-200,000	0,004	-0,109
-439,007	10,874	0,030	0,017
-437,992	598,154	0,045	0,083
-436,978	196,158	0,097	0,109
-435,963	-109,792	0,113	-0,017
-434,949	165,074	-0,059	0,061
-433,934	-200,000	-0,007	-0,084
-432,919	-62,827	-0,100	-0,030
-431,905	-200,000	0,000	-0,109
-430,890	168,793	0,113	-0,118
-429,876	-200,000	0,023	-0,122
-428,861	-31,323	0,046	0,019
-427,846	161,512	-0,022	0,022
-426,832	679,343	0,023	-0,044
-425,817	98,971	-0,084	0,072
-424,803	491,332	-0,059	-0,100
-423,788	456,114	-0,038	0,062
-422,773	-200,000	0,011	-0,043
-421,759	494,685	-0,034	0,058
-420,744	800,000	-0,027	0,077
-419,730	382,802	0,028	-0,043
-418,715	674,881	-0,083	-0,159
-417,701	112,128	0,079	0,071
-416,686	-81,811	-0,038	-0,009
-415,671	315,346	-0,043	0,059
-414,657	-96,378	0,093	0,018
-413,642	-200,000	-0,015	-0,089
-412,628	50,858	0,035	-0,024
-411,613	91,854	0,059	0,048
-410,598	41,605	-0,047	-0,031
-409,584	-200,000	-0,002	-0,008
-408,569	77,663	0,086	0,067
-407,555	-22,515	0,011	-0,005
-406,540	239,607	-0,058	0,071
-405,525	-76,636	-0,000	0,000
-404,511	800,000	-0,030	0,083
-403,496	800,000	-0,073	0,160
-402,482	-115,512	-0,131	-0,018
-401,467	800,000	-0,011	0,027
-400,452	228,947	0,154	-0,185
-399,438	800,000	-0,026	-0,064
-398,423	-68,481	-0,098	-0,028
-397,409	63,427	-0,070	-0,051
-396,394	-31,825	0,025	0,010
-395,379	-61,243	0,088	0,027
-394,365	-200,000	-0,008	-0,097
-393,350	-200,000	0,021	0,073
-392,336	-145,539	-0,047	-0,003
-391,321	15,116	-0,039	-0,022
-390,306	132,938	0,059	-0,056
-389,292	27,878	-0,087	-0,054
-388,277	-200,000	0,004	-0,129
-387,263	55,757	-0,072	0,051
-386,248	-200,000	0,007	-0,059
-385,233	-200,000	0,042	-0,181
-384,219	123,772	-0,090	0,083
-383,204	-80,141	-0,076	-0,019
-382,190	800,000	0,023	-0,053
-381,175	-116,382	-0,115	0,015
-380,160	-95,633	0,067	0,013
-379,146	311,187	-0,015	-0,021
-378,131	723,617	-0,055	0,108
-377,117	-121,031	0,179	-0,022
-376,102	132,344	0,006	0,006
-375,088	-200,000	-0,015	-0,082
-374,073	-200,000	-0,030	-0,212
-373,058	-87,091	0,099	-0,022
-372,044	-200,000	-0,001	-0,034
-371,029	-124,710	-0,059	-0,007
-370,015	-200,000	-0,010	-0,053
-369,000	83,797	-0,106	-0,085
-367,985	-104,941	0,119	-0,020
-366,971	485,095	0,061	-0,103
-365,956	800,000	-0,031	-0,076
-364,942	-55,264	0,034	0,011
-363,927	216,767	-0,058	-0,067
-362,912	-142,843	-0,204	-0,014
-361,898	-60,973	0,119	-0,037
-360,883	24,851	-0,160	0,097
-359,869	-134,170	-0,065	-0,006
-358,854	-15,476	0,077	0,036
-357,839	-200,000	0,036	0,169
-356,825	132,267	0,101	0,095
-355,810	59,353	0,105	0,076
-354,796	-200,000	-0,030	0,100
-353,781	82,572	-0,133	0,106
-352,766	-94,186	0,036	0,007
-351,752	146,401	0,040	-0,039
-350,737	428,767	0,042	0,067
-349,723	-200,000	-0,008	0,089
-348,708	-200,000	-0,006	0,088
-347,693	60,765	0,063	0,046
-346,679	330,156	-0,081	-0,115
-345,664	800,000	-0,046	-0,114
-344,650	321,504	-0,044	-0,062
-343,635	-132,634	0,092	-0,009
-342,620	-175,211	0,058	-0,001
-341,606	-24,788	-0,038	0,016
-340,591	92,873	0,082	-0,068
-339,577	207,036	-0,091	-0,104
-338,562	-155,609	-0,139	-0,006
-337,548	-9,717	-0,043	0,021
-336,533	-200,000	0,017	-0,066
-335,518	-79,359	0,057	0,014
-334,504	88,751	0,036	0,029
-333,489	-57,346	-0,057	0,018
-332,475	-200,000	0,047	-0,183
-331,460	7,564	0,028	-0,015
-330,445	164,536	-0,016	0,016
-329,431	149,949	0,074	0,074
-328,416	800,000	0,061	0,130
-327,402	-200,000	0,002	-0,099
-326,387	-27,823	-0,096	-0,040
-325,372	227,129	-0,098	-0,117
-324,358	82,745	0,073	-0,058
-323,343	-50,170	-0,098	0,034
-322,329	-19,366	-0,060	0,027
-321,314	800,000	0,028	0,064
-320,299	800,000	0,062	0,169
-319,285	-85,995	-0,042	-0,009
-318,270	240,002	-0,061	0,075
-317,256	124,377	-0,101	-0,093
-316,241	191,644	-0,061	0,067
-315,226	-200,000	0,000	0,219
-314,212	117,736	0,082	0,074
-313,197	144,668	-0,009	-0,009
-312,183	34,083	-0,082	-0,052
-311,168	520,103	-0,050	-0,086
-310,153	-200,000	0,000	0,023
-309,139	-3,632	-0,090	-0,045
-308,124	3,410	0,115	0,061
-307,110	224,224	-0,037	-0,044
-306,095	-200,000	-0,025	0,085
-305,080	-146,255	-0,117	-0,007
-304,066	-178,856	-0,076	0,001
-303,051	127,214	0,070	-0,065
-302,037	-200,000	-0,019	0,067
-301,022	-200,000	0,004	0,067
-300,008	-40,068	-0,039	0,015
-298,993	-190,424	0,116	-0,001
-297,978	-161,764	0,085	-0,003
-296,964	-154,078	0,158	-0,008
-295,949	109,134	-0,025	-0,022
-294,935	-1,427	-0,074	-0,038
-293,920	-124,246	-0,109	-0,012
-292,905	-122,160	0,116	0,014
-291,891	504,745	0,058	0,098
-290,876	800,000	0,046	0,143
-289,862	659,830	0,028	-0,053
-288,847	-200,000	0,005	-0,073
-287,832	-200,000	-0,001	-0,003
-286,818	581,708	0,011	0,020
-285,803	-200,000	-0,006	0,048
-284,789	98,454	-0,040	0,034
-283,774	-200,000	0,023	0,150
-282,759	-200,000	-0,013	0,103
-281,745	-200,000	0,000	0,029
-280,730	618,838	0,041	-0,076
-279,716	-200,000	0,008	-0,097
-278,701	88,294	0,104	-0,084
-277,686	-48,892	-0,116	0,040
-276,672	176,321	0,092	-0,098
-275,657	643,028	0,037	-0,068
-274,643	-28,070	0,109	-0,046
-273,628	-40,167	-0,058	-0,022
-272,613	800,000	-0,037	0,103
-271,599	3,240	-0,022	0,012
-270,584	157,544	0,021	-0,022
-269,570	210,544	-0,096	0,110
-268,555	522,873	0,022	-0,038
-267,540	-0,088	0,117	0,061
-266,526	354,503	0,037	-0,054
-265,511	350,745	0,015	-0,022
-264,497	-200,000	-0,025	0,118
-263,482	-98,704	0,048	0,009
-262,467	64,936	-0,014	0,010
-261,453	448,911	-0,069	-0,112
-260,438	0,820	0,085	-0,044
-259,424	-18,649	0,041	-0,019
-258,409	-200,000	0,001	0,160
-257,395	-113,364	0,164	-0,023
-256,380	-57,054	-0,093	0,030
-255,365	42,243	0,200	0,133
-254,351	-87,830	0,135	-0,029
-253,336	-200,000	-0,008	-0,075
-252,322	352,329	-0,051	-0,074
-251,307	-46,487	0,029	0,010
-250,292	-19,306	-0,075	-0,034
-249,278	-39,059	0,080	-0,031
-248,263	-200,000	-0,025	0,100
-247,249	800,000	-0,038	0,099
-246,234	-162,116	-0,098	0,004
-245,219	-30,601	-0,153	-0,063
-244,205	-200,000	0,013	-0,092
-243,190	93,686	0,034	0,028
-242,176	393,213	-0,058	-0,088
-241,161	-83,364	0,100	-0,023
-240,146	103,268	-0,032	-0,027
-239,132	-122,288	-0,098	0,012
-238,117	800,000	-0,055	-0,118
-237,103	-64,456	-0,070	0,021
-236,088	346,097	0,052	0,074
-235,073	-87,659	0,117	0,026
-234,059	22,875	0,029	0,017
-233,044	-80,024	0,089	0,022
-232,030	-200,000	-0,046	-0,164
-231,015	-200,000	-0,010	0,125
-230,000	736,738	0,097	-0,190
-228,986	-165,549	0,084	0,003
-227,971	74,462	-0,029	0,022
-226,957	800,000	0,022	0,048
-225,942	-126,412	-0,204	-0,022
-224,927	-200,000	0,031	0,107
-223,913	-200,000	0,006	0,108
-222,898	98,704	0,089	-0,075
-221,884	-200,000	-0,023	0,103
-220,869	224,073	0,050	0,059
-219,855	-200,000	0,019	-0,138
-218,840	800,000	0,025	-0,054
-217,825	-26,209	0,098	-0,042
-216,811	-17,473	-0,085	0,039
-215,796	245,176	-0,028	-0,035
-214,782	468,519	0,114	-0,187
-213,767	-35,871	0,030	-0,012
-212,752	-0,922	0,178	-0,092
-211,738	800,000	0,051	-0,117
-210,723	328,632	0,122	-0,171
-209,709	-120,584	0,052	-0,006
-208,694	-200,000	-0,050	-0,180
-207,679	800,000	-0,072	-0,186
-206,665	-69,052	-0,046	0,013
-205,650	93,975	0,108	0,089
-204,636	2,639	0,199	0,105
-203,621	-49,776	0,049	0,017
-202,606	28,853	-0,140	0,086
-201,592	-79,691	-0,084	0,020
-200,577	-28,639	-0,062	0,026
-199,563	263,986	0,061	0,078
-198,548	-36,130	0,108	-0,042
-197,533	113,150	0,052	-0,046
-196,519	-200,000	0,045	0,230
-195,504	286,333	-0,044	-0,057
-194,490	-109,943	-0,042	0,006
-193,475	-114,427	-0,166	-0,023
-192,460	800,000	-0,009	-0,020
-191,446	262,057	0,099	0,125
-190,431	-200,000	0,023	0,078
-189,417	16,845	0,038	0,022
-188,402	-200,000	0,032	0,226
-187,387	-141,577	-0,131	0,009
-186,373	-200,000	-0,022	0,180
-185,358	-53,630	-0,091	0,030
-184,344	282,592	0,057	-0,074
-183,329	-200,000	0,006	0,093
-182,315	800,000	-0,014	0,034
-181,300	68,872	-0,109	-0,081
-180,285	127,835	0,134	-0,124
-179,271	-200,000	-0,001	0,056
-178,256	-121,871	-0,201	-0,024
-177,242	159,159	0,023	0,023
-176,227	-200,000	-0,001	0,106
-175,212	149,652	-0,029	0,028
-174,198	-200,000	0,012	0,043
-173,183	-54,110	-0,069	0,023
-172,169	70,824	0,061	0,046
-171,154	-32,089	-0,093	-0,038
-170,139	301,206	0,111	0,149
-169,125	800,000	0,016	-0,038
-168,110	361,475	0,056	0,082
-167,096	800,000	-0,063	0,157
-166,081	206,466	0,027	0,031
-165,066	136,298	-0,055	-0,052
-164,052	52,267	0,065	-0,045
-163,037	-200,000	-0,027	0,098
-162,023	520,188	-0,053	0,092
-161,008	-77,041	0,088	-0,022
-159,993	-200,000	-0,022	0,111
-158,979	434,785	-0,026	0,041
-157,964	800,000	-0,050	-0,145
-156,950	-68,594	-0,137	-0,038
-155,935	800,000	0,032	-0,096
-154,920	-49,785	0,039	-0,013
-153,906	-200,000	0,011	-0,073
-152,891	1,359	-0,098	-0,051
-151,877	-26,152	-0,122	0,052
-150,862	-200,000	0,011	-0,111
-149,847	-79,080	0,119	0,029
-148,833	55,130	-0,073	-0,052
-147,818	-200,000	0,022	0,095
-146,804	52,588	0,078	0,054
-145,789	-120,786	0,111	0,013
-144,775	-200,000	-0,021	0,123
-143,760	351,888	-0,064	-0,093
-142,745	800,000	-0,008	-0,023
-141,731	292,873	0,051	0,068
-140,716	10,012	0,106	-0,059
-139,702	800,000	-0,043	0,109
-138,687	-53,583	0,024	0,008
-137,672	41,922	-0,098	-0,064
-136,658	9,122	-0,177	0,097
-135,643	800,000	0,033	-0,084
-134,629	38,158	0,072	0,046
-133,614	-200,000	0,010	-0,102
-132,599	-200,000	-0,008	0,041
-131,585	-200,000	-0,001	0,173
-130,570	-22,262	0,103	0,045
-129,556	-136,378	0,120	-0,010
-128,541	-17,885	-0,212	-0,096
-127,526	70,720	0,057	-0,043
-126,512	215,343	-0,037	0,043
-125,497	85,291	0,117	0,093
-124,483	176,093	-0,078	0,083
-123,468	11,864	0,071	0,039
-122,453	145,278	-0,011	-0,011
-121,439	93,812	-0,049	-0,041
-120,424	193,895	0,070	-0,077
-119,410	71,208	0,110	-0,083
