DTS Sentinel unit serial number:	SN410029Multiplexer serial number:	ORYXHardware model number:	OX2-SRSoftware version number:	ORYX F/W v4,00 Oryx Data Collector v3.7.2.0data status	okinstallation	B4 Nyhavnadifferential loss correction	single-endedforward channel	channel 2reverse channel	N/Adate	2023/12/19time	11:45:13forward acquisition time	300,00reverse acquisition time	0,00gamma	499,1914k internal	0,3128k external	0,3128temperature offset calibration	1,0000default loss term (dB/km)	0,3820temperature slope calibration	1,0000multiplexer offset coefficient	1,0000multiplexer slope coefficient	1,0000fibre end	0,00T internal ref (°C)	19,74T ext. ref 1 (°C)	4,44T ext. ref 2 (°C)	4,39length (m)	temperature (°C)	Stokes	anti-Stokes-744,400	-200,000	-0,038	-0,130
-743,385	9,828	-0,234	0,132
-742,371	437,048	-0,032	-0,052
-741,356	-62,128	-0,359	0,111
-740,342	-143,174	0,100	0,007
-739,327	-113,546	-0,176	-0,025
-738,312	-35,253	0,089	-0,036
-737,298	-58,138	-0,265	0,085
-736,283	60,114	0,156	-0,115
-735,269	-18,576	-0,325	0,150
-734,254	-17,564	0,026	0,012
-733,239	-112,158	-0,445	-0,066
-732,225	-61,880	0,175	-0,054
-731,210	-200,000	-0,016	-0,070
-730,196	800,000	-0,047	-0,144
-729,181	48,234	0,086	0,060
-728,167	262,809	0,044	0,056
-727,152	456,875	-0,054	-0,089
-726,137	35,807	0,127	-0,083
-725,123	-49,575	-0,166	0,059
-724,108	-45,440	-0,135	0,049
-723,094	-96,492	-0,114	0,022
-722,079	694,944	0,024	0,048
-721,064	-6,874	-0,102	-0,051
-720,050	-134,322	-0,093	-0,008
-719,035	4,721	0,076	0,042
-718,021	799,171	-0,102	-0,210
-717,006	35,421	-0,061	-0,040
-715,991	-102,916	-0,095	0,017
-714,977	325,297	-0,035	-0,051
-713,962	800,000	-0,023	-0,047
-712,948	-105,258	0,142	0,024
-711,933	-144,294	-0,095	0,006
-710,918	-77,281	-0,089	0,023
-709,904	-200,000	0,016	-0,178
-708,889	-20,237	-0,172	-0,078
-707,875	-158,850	0,094	0,004
-706,860	-43,695	0,114	0,043
-705,845	-200,000	-0,021	0,206
-704,831	-131,477	-0,180	-0,017
-703,816	-7,327	-0,070	-0,035
-702,802	-200,000	0,026	-0,103
-701,787	-175,915	-0,062	0,001
-700,772	-200,000	-0,024	0,112
-699,758	-200,000	0,008	0,115
-698,743	711,445	-0,076	0,151
-697,729	57,435	-0,034	0,025
-696,714	47,484	0,056	-0,039
-695,699	17,867	-0,090	-0,053
-694,685	175,167	0,041	-0,045
-693,670	151,620	0,080	-0,081
-692,656	800,000	-0,067	0,184
-691,641	800,000	-0,010	0,025
-690,627	-60,036	-0,139	0,044
-689,612	-26,466	0,033	0,014
-688,597	-105,322	-0,123	-0,021
-687,583	800,000	0,020	-0,052
-686,568	-127,963	-0,052	0,005
-685,554	800,000	-0,061	-0,133
-684,539	800,000	-0,044	-0,132
-683,524	-18,792	-0,054	0,025
-682,510	-200,000	-0,016	0,067
-681,495	-23,655	0,095	-0,042
-680,481	-38,249	-0,111	-0,044
-679,466	-155,868	-0,044	-0,002
-678,451	183,948	-0,057	-0,063
-677,437	800,000	-0,023	-0,061
-676,422	800,000	-0,029	-0,073
-675,408	783,743	-0,084	0,172
-674,393	800,000	0,027	0,064
-673,378	-200,000	0,017	-0,101
-672,364	-174,245	-0,093	-0,002
-671,349	116,261	-0,116	0,106
-670,335	-6,274	-0,100	-0,051
-669,320	53,195	-0,044	0,032
-668,305	800,000	-0,033	0,089
-667,291	11,377	0,027	0,015
-666,276	800,000	-0,035	-0,086
-665,262	-200,000	-0,035	-0,119
-664,247	-200,000	0,016	0,086
-663,232	44,952	0,032	-0,022
-662,218	119,949	-0,060	0,055
-661,203	-200,000	0,013	0,059
-660,189	0,229	0,049	0,026
-659,174	-90,026	0,043	0,009
-658,159	800,000	-0,040	-0,107
-657,145	-102,436	-0,043	0,008
-656,130	-200,000	0,031	-0,102
-655,116	293,146	-0,067	0,091
-654,101	-200,000	0,019	0,090
-653,086	33,720	0,083	0,053
-652,072	-200,000	0,000	0,043
-651,057	43,449	-0,139	-0,094
-650,043	124,736	0,004	0,004
-649,028	800,000	0,039	-0,114
-648,014	42,896	0,037	0,025
-646,999	-200,000	0,027	-0,105
-645,984	128,828	0,029	-0,027
-644,970	-88,044	-0,089	0,020
-643,955	800,000	0,017	-0,048
-642,941	-127,024	-0,058	-0,006
-641,926	245,638	0,021	0,027
-640,911	9,559	-0,037	0,021
-639,897	290,262	0,025	-0,034
-638,882	800,000	0,027	0,061
-637,868	534,456	0,046	-0,081
-636,853	38,527	-0,138	0,091
-635,838	184,477	-0,086	-0,094
-634,824	-69,443	0,127	-0,036
-633,809	-112,309	-0,210	-0,031
-632,795	-9,488	-0,087	-0,043
-631,780	-38,903	0,086	-0,033
-630,765	-67,212	0,083	0,024
-629,751	425,969	0,025	-0,040
-628,736	13,419	-0,129	-0,074
-627,722	-14,998	-0,042	-0,020
-626,707	108,401	-0,011	-0,010
-625,692	800,000	-0,014	-0,043
-624,678	-152,084	0,045	0,002
-623,663	668,426	0,045	0,087
-622,649	-34,684	0,132	0,053
-621,634	221,156	-0,044	-0,053
-620,619	553,687	-0,025	-0,044
-619,605	-200,000	-0,016	0,062
-618,590	-103,466	-0,103	-0,018
-617,576	800,000	0,020	0,055
-616,561	-200,000	0,001	-0,056
-615,546	-73,922	-0,043	0,011
-614,532	-64,789	0,089	-0,027
-613,517	-127,334	0,091	0,010
-612,503	332,409	-0,084	0,121
-611,488	800,000	-0,042	0,106
-610,474	-26,146	-0,065	-0,028
-609,459	-9,063	0,062	-0,031
-608,444	-66,862	-0,198	-0,057
-607,430	310,119	0,095	-0,131
-606,415	630,269	-0,006	0,012
-605,401	172,626	0,068	0,073
-604,386	-200,000	0,017	0,056
-603,371	-34,387	0,081	0,033
-602,357	-200,000	0,009	-0,043
-601,342	107,617	-0,074	0,065
-600,328	87,660	-0,054	-0,044
-599,313	-200,000	-0,008	0,068
-598,298	-72,194	-0,093	-0,025
-597,284	800,000	0,053	0,152
-596,269	-181,930	0,078	-0,001
-595,255	-200,000	-0,024	0,084
-594,240	-11,319	0,042	0,020
-593,225	-16,198	-0,078	-0,037
-592,211	58,289	-0,108	-0,078
-591,196	80,414	-0,142	-0,113
-590,182	-200,000	0,032	0,122
-589,167	-126,257	0,115	0,013
-588,152	453,399	0,092	0,151
-587,138	-200,000	0,005	-0,102
-586,123	-29,767	-0,086	-0,036
-585,109	789,544	-0,031	0,063
-584,094	500,161	0,040	-0,069
-583,079	-100,384	-0,091	0,017
-582,065	-110,016	0,223	0,034
-581,050	356,998	-0,046	-0,068
-580,036	-42,997	-0,051	0,019
-579,021	104,103	0,118	0,103
-578,006	800,000	-0,052	-0,125
-576,992	-200,000	0,004	-0,034
-575,977	800,000	0,060	-0,165
-574,963	-200,000	0,005	-0,142
-573,948	-200,000	-0,023	-0,082
-572,934	417,859	-0,068	-0,108
-571,919	-200,000	-0,009	0,101
-570,904	536,276	0,026	0,046
-569,890	-200,000	-0,037	-0,160
-568,875	24,227	0,081	0,049
-567,861	-22,187	-0,119	0,053
-566,846	250,999	-0,066	-0,083
-565,831	-200,000	0,005	0,063
-564,817	-132,810	-0,093	-0,009
-563,802	562,893	-0,069	0,125
-562,788	-26,152	-0,073	0,032
-561,773	-92,991	0,120	-0,025
-560,758	263,459	0,037	-0,048
-559,744	-84,026	-0,106	-0,025
-558,729	-200,000	0,007	0,130
-557,715	-26,377	-0,022	0,009
-556,700	-200,000	0,004	-0,169
-555,685	155,440	-0,147	-0,150
-554,671	510,045	-0,019	-0,034
-553,656	86,363	-0,024	-0,020
-552,642	117,429	0,061	-0,055
-551,627	-200,000	0,002	0,139
-550,612	332,690	0,088	0,126
-549,598	-200,000	0,059	-0,212
-548,583	-169,098	-0,109	-0,003
-547,569	-16,112	-0,099	0,046
-546,554	-200,000	-0,042	0,148
-545,539	800,000	-0,040	0,091
-544,525	-168,221	0,109	-0,003
-543,510	29,619	-0,070	-0,044
-542,496	-127,273	-0,170	0,018
-541,481	-59,759	0,049	-0,015
-540,466	-22,306	-0,118	-0,053
-539,452	168,562	0,040	0,042
-538,437	-11,834	0,112	0,054
-537,423	-43,187	0,060	0,022
-536,408	78,873	-0,057	-0,045
-535,393	-42,181	-0,100	0,037
-534,379	-21,749	0,049	-0,022
-533,364	124,851	0,113	-0,105
-532,350	-200,000	-0,017	0,072
-531,335	800,000	0,042	-0,127
-530,321	-119,426	-0,072	-0,009
-529,306	-200,000	-0,013	0,068
-528,291	190,488	-0,090	-0,100
-527,277	251,811	-0,088	-0,111
-526,262	800,000	-0,035	0,077
-525,248	522,671	0,068	-0,118
-524,233	-200,000	-0,011	0,094
-523,218	-10,986	-0,064	0,031
-522,204	-200,000	0,000	0,090
-521,189	215,629	0,022	-0,026
-520,175	126,973	-0,031	-0,029
-519,160	-200,000	0,007	0,105
-518,145	125,250	0,068	0,063
-517,131	-200,000	0,018	0,102
-516,116	-71,483	0,084	-0,023
-515,102	-99,319	-0,115	-0,021
-514,087	74,549	-0,098	0,076
-513,072	703,739	0,023	0,045
-512,058	-152,053	-0,073	0,004
-511,043	151,904	-0,040	-0,041
-510,029	-53,686	0,138	-0,046
-509,014	-52,694	0,172	0,058
-507,999	-13,185	-0,074	-0,035
-506,985	103,505	0,062	-0,054
-505,970	-34,713	0,016	0,006
-504,956	269,386	0,062	-0,081
-503,941	-200,000	0,002	-0,065
-502,926	-29,804	0,146	-0,061
-501,912	128,753	-0,086	0,081
-500,897	38,655	0,124	0,081
-499,883	800,000	0,018	0,045
-498,868	306,474	-0,038	0,052
-497,853	142,367	0,007	-0,007
-496,839	248,806	0,080	-0,100
-495,824	-200,000	-0,016	0,132
-494,810	228,374	-0,033	0,039
-493,795	489,622	-0,030	-0,050
-492,781	-69,183	-0,120	0,034
-491,766	308,953	0,086	-0,119
-490,751	-48,615	0,047	0,017
-489,737	87,052	-0,042	-0,035
-488,722	575,586	0,029	0,052
-487,708	379,490	-0,070	0,105
-486,693	-167,489	0,105	0,003
-485,678	-65,574	0,056	-0,017
-484,664	800,000	-0,017	-0,042
-483,649	109,633	-0,121	0,107
-482,635	79,832	0,046	0,036
-481,620	-58,187	0,138	0,044
-480,605	-8,412	-0,031	-0,016
-479,591	-34,831	-0,052	-0,021
-478,576	800,000	0,079	-0,176
-477,562	-32,426	-0,095	0,039
-476,547	544,188	-0,054	-0,096
-475,532	-200,000	0,010	0,069
-474,518	800,000	-0,028	-0,059
-473,503	-200,000	-0,055	-0,191
-472,489	10,044	-0,098	-0,055
-471,474	800,000	0,057	0,161
-470,459	-90,521	0,057	0,012
-469,445	423,901	-0,089	-0,141
-468,430	456,602	0,071	-0,116
-467,416	12,384	0,069	0,039
-466,401	-58,170	0,131	-0,042
-465,386	-200,000	-0,016	-0,104
-464,372	800,000	0,011	0,027
-463,357	563,261	-0,031	-0,056
-462,343	-200,000	-0,028	-0,157
-461,328	24,278	-0,123	-0,075
-460,313	-36,363	-0,159	0,063
-459,299	800,000	0,054	-0,113
-458,284	210,705	0,074	0,086
-457,270	-13,152	-0,034	0,016
-456,255	405,243	-0,094	0,146
-455,241	163,993	-0,017	-0,017
-454,226	394,258	-0,061	-0,094
-453,211	454,938	0,035	-0,058
-452,197	-84,806	0,043	-0,010
-451,182	-44,668	0,077	0,028
-450,168	-200,000	0,020	0,107
-449,153	800,000	0,035	-0,081
-448,138	800,000	-0,027	0,087
-447,124	-200,000	-0,005	-0,056
-446,109	800,000	-0,015	-0,040
-445,095	397,214	-0,087	0,134
-444,080	-56,313	0,025	-0,008
-443,065	86,805	0,031	-0,025
-442,051	-200,000	0,002	0,076
-441,036	-67,881	0,128	-0,037
-440,022	-200,000	0,018	-0,062
-439,007	-200,000	-0,005	-0,044
-437,992	-50,930	0,146	-0,050
-436,978	-200,000	-0,047	0,221
-435,963	-200,000	0,025	0,095
-434,949	-83,155	0,079	-0,018
-433,934	-200,000	-0,030	-0,110
-432,919	800,000	-0,022	-0,067
-431,905	19,898	0,048	0,028
-430,890	361,863	0,036	0,054
-429,876	-30,828	0,051	-0,021
-428,861	698,829	-0,065	-0,126
-427,846	488,397	0,033	0,055
-426,832	-200,000	0,000	-0,142
-425,817	-118,958	-0,108	-0,014
-424,803	-128,792	0,133	-0,014
-423,788	800,000	0,062	0,131
-422,773	-93,445	-0,067	-0,014
-421,759	-19,056	0,080	0,036
-420,744	-200,000	0,031	0,121
-419,730	-15,246	-0,099	-0,046
-418,715	800,000	-0,024	-0,052
-417,701	-200,000	0,003	0,068
-416,686	-200,000	-0,008	-0,114
-415,671	325,574	0,056	0,078
-414,657	-200,000	0,006	0,049
-413,642	800,000	-0,028	-0,071
-412,628	-200,000	0,005	-0,031
-411,613	-4,624	-0,169	-0,086
-410,598	-200,000	0,025	-0,082
-409,584	-130,841	0,102	-0,010
-408,569	800,000	0,034	-0,072
-407,555	-200,000	0,005	0,052
-406,540	-200,000	0,025	0,081
-405,525	-200,000	-0,015	0,057
-404,511	-163,578	-0,234	0,008
-403,496	-200,000	-0,008	0,160
-402,482	161,936	-0,003	-0,003
-401,467	-200,000	0,010	-0,081
-400,452	800,000	0,051	0,123
-399,438	800,000	-0,035	0,111
-398,423	392,072	0,036	-0,055
-397,409	131,828	0,135	-0,128
-396,394	106,630	0,021	-0,018
-395,379	276,142	-0,046	-0,060
-394,365	-40,082	-0,034	-0,013
-393,350	338,442	0,031	0,044
-392,336	-200,000	0,029	-0,108
-391,321	260,517	0,134	-0,170
-390,306	74,267	-0,038	0,030
-389,292	-39,515	-0,093	0,035
-388,277	14,167	0,106	0,060
-387,263	800,000	0,031	-0,098
-386,248	-200,000	0,014	0,051
-385,233	310,191	-0,031	0,043
-384,219	-200,000	0,003	0,053
-383,204	-200,000	0,021	0,074
-382,190	-200,000	-0,000	0,104
-381,175	187,367	0,069	0,076
-380,160	129,996	0,037	0,035
-379,146	103,250	0,031	0,027
-378,131	-161,160	-0,144	-0,005
-377,117	-200,000	-0,023	-0,087
-376,102	-40,740	0,111	-0,042
-375,088	72,117	-0,087	-0,066
-374,073	165,270	-0,066	-0,068
-373,058	-200,000	0,019	0,075
-372,044	-200,000	-0,003	0,062
-371,029	127,438	0,059	0,055
-370,015	539,416	0,080	0,141
-369,000	-62,270	0,074	-0,022
-367,985	317,925	0,060	-0,083
-366,971	-200,000	0,020	0,064
-365,956	326,830	-0,024	0,033
-364,942	482,885	0,056	0,093
-363,927	277,161	-0,043	-0,056
-362,912	-4,473	-0,018	0,009
-361,898	185,756	0,030	0,033
-360,883	464,494	-0,066	-0,109
-359,869	512,903	0,075	0,128
-358,854	30,772	-0,024	-0,015
-357,839	212,200	0,009	-0,011
-356,825	201,889	0,015	0,017
-355,810	800,000	-0,044	0,106
-354,796	-68,300	0,018	0,005
-353,781	-34,508	0,010	-0,004
-352,766	228,084	0,040	0,047
-351,752	-200,000	-0,006	0,183
-350,737	614,926	0,044	0,081
-349,723	-132,842	0,099	0,009
-348,708	223,245	0,039	-0,046
-347,693	-200,000	-0,013	0,125
-346,679	1,394	-0,237	0,125
-345,664	800,000	-0,082	-0,184
-344,650	800,000	-0,037	0,107
-343,635	363,306	0,056	-0,083
-342,620	-103,288	0,059	-0,010
-341,606	278,779	0,037	-0,049
-340,591	-200,000	-0,007	-0,123
-339,577	332,741	-0,041	0,058
-338,562	-105,609	-0,159	-0,026
-337,548	10,913	0,118	-0,066
-336,533	-93,224	0,097	-0,020
-335,518	-200,000	0,033	0,141
-334,504	325,801	-0,067	0,094
-333,489	155,900	-0,025	0,025
-332,475	-85,573	-0,117	-0,026
-331,460	800,000	0,027	-0,061
-330,445	69,148	0,014	-0,011
-329,431	-2,930	0,098	-0,050
-328,416	800,000	-0,051	0,112
-327,402	-200,000	-0,011	0,132
-326,387	-21,682	-0,043	0,019
-325,372	-200,000	0,014	-0,160
-324,358	-74,624	-0,098	0,026
-323,343	800,000	0,056	-0,165
-322,329	39,477	0,113	-0,074
-321,314	382,298	0,052	0,078
-320,299	596,882	-0,028	0,052
-319,285	-56,899	-0,138	-0,044
-318,270	-15,493	-0,037	0,017
-317,256	-103,545	-0,033	-0,006
-316,241	-64,387	-0,135	-0,040
-315,226	-132,369	0,048	0,005
-314,212	-200,000	-0,001	-0,036
-313,197	-200,000	-0,005	0,180
-312,183	285,944	0,072	-0,095
-311,168	-200,000	-0,009	-0,042
-310,153	50,847	-0,092	0,064
-309,139	132,962	0,058	-0,055
-308,124	-200,000	0,016	0,171
-307,110	800,000	0,017	-0,036
-306,095	113,860	0,146	0,130
-305,080	145,695	-0,049	0,048
-304,066	800,000	-0,016	-0,033
-303,051	81,658	-0,043	0,034
-302,037	-200,000	0,017	-0,060
-301,022	392,529	-0,104	-0,159
-300,008	0,646	-0,083	-0,043
-298,993	-45,748	0,025	-0,009
-297,978	-149,824	-0,046	0,003
-296,964	-17,779	0,058	-0,027
-295,949	602,182	-0,039	-0,071
-294,935	-200,000	0,015	-0,057
-293,920	233,492	-0,072	-0,086
-292,905	-200,000	-0,000	-0,055
-291,891	-114,987	0,112	0,015
-290,876	13,617	0,098	-0,056
-289,862	-131,945	-0,054	0,005
-288,847	-200,000	-0,010	0,121
-287,832	800,000	-0,014	-0,045
-286,818	800,000	0,052	-0,117
-285,803	-134,839	0,091	-0,008
-284,789	16,119	0,072	0,042
-283,774	-200,000	-0,035	0,169
-282,759	-128,936	0,061	-0,006
-281,745	225,201	-0,023	0,027
-280,730	38,617	-0,078	-0,051
-279,716	77,873	0,050	-0,039
-278,701	129,410	-0,101	0,094
-277,686	280,604	-0,099	0,129
-276,672	295,956	-0,079	0,106
-275,657	-200,000	0,010	0,080
-274,643	-200,000	0,014	0,138
-273,628	17,198	-0,131	-0,076
-272,613	-3,995	0,118	-0,060
-271,599	-200,000	0,008	0,052
-270,584	-200,000	-0,038	0,172
-269,570	181,061	0,053	-0,056
-268,555	586,147	0,077	-0,138
-267,540	228,448	0,151	-0,180
-266,526	215,545	-0,042	0,048
-265,511	732,276	0,006	-0,012
-264,497	-200,000	-0,005	-0,114
-263,482	-121,509	-0,179	-0,021
-262,467	-33,542	0,027	0,011
-261,453	21,929	0,065	-0,039
-260,438	586,795	0,032	0,058
-259,424	380,968	0,022	-0,034
-258,409	61,994	0,034	0,024
-257,395	72,497	0,093	0,071
-256,380	-117,844	0,103	0,013
-255,365	-167,946	0,065	-0,002
-254,351	-31,976	0,024	-0,010
-253,336	-29,815	0,068	0,028
-252,322	-55,344	0,020	0,006
-251,307	165,288	0,025	0,026
-250,292	124,332	0,128	-0,118
-249,278	340,294	0,094	0,134
-248,263	-200,000	-0,008	0,055
-247,249	800,000	0,017	-0,050
-246,234	-97,422	-0,167	-0,031
-245,219	102,935	-0,052	0,045
-244,205	-200,000	0,003	0,098
-243,190	-101,038	0,085	0,015
-242,176	40,253	0,078	0,051
-241,161	212,610	-0,133	0,153
-240,146	-200,000	0,024	-0,099
-239,132	-52,230	-0,073	-0,024
-238,117	800,000	0,042	-0,106
-237,103	250,181	-0,056	-0,069
-236,088	363,513	0,049	-0,072
-235,073	-200,000	-0,026	-0,086
-234,059	460,490	-0,025	-0,041
-233,044	188,200	0,084	-0,092
-232,030	-200,000	0,025	-0,127
-231,015	-164,469	0,073	-0,002
-230,000	-200,000	0,009	0,040
-228,986	-200,000	0,006	-0,097
-227,971	532,414	-0,110	0,191
-226,957	-113,005	0,082	-0,012
-225,942	800,000	-0,065	0,148
-224,927	326,490	-0,079	-0,110
-223,913	-200,000	0,044	-0,158
-222,898	745,106	-0,020	-0,040
-221,884	112,185	-0,049	-0,043
-220,869	800,000	0,065	0,139
-219,855	-200,000	-0,033	0,129
-218,840	280,203	0,047	-0,061
-217,825	-0,983	0,056	-0,029
-216,811	143,180	0,065	-0,063
-215,796	-142,113	-0,064	-0,005
-214,782	800,000	-0,036	-0,086
-213,767	-200,000	-0,011	0,040
-212,752	-200,000	-0,003	0,034
-211,738	-200,000	0,042	-0,139
-210,723	142,451	0,076	0,074
-209,709	-51,946	-0,071	-0,024
-208,694	-200,000	0,001	-0,073
-207,679	-200,000	-0,014	0,059
-206,665	115,644	-0,045	0,040
-205,650	679,683	0,037	-0,070
-204,636	17,615	-0,048	0,028
-203,621	76,224	-0,094	0,073
-202,606	132,887	0,094	0,088
-201,592	-35,584	-0,079	0,031
-200,577	800,000	-0,034	0,108
-199,563	53,829	-0,061	0,043
-198,548	55,757	-0,061	0,043
-197,533	519,803	0,083	0,143
-196,519	-200,000	0,007	0,034
-195,504	2,428	0,035	-0,019
-194,490	-40,675	0,093	-0,035
-193,475	-80,016	0,070	0,017
-192,460	24,021	-0,096	0,057
-191,446	-21,790	0,247	-0,109
-190,431	-177,669	0,037	-0,001
-189,417	-200,000	0,003	0,053
-188,402	198,532	-0,016	0,018
-187,387	387,618	-0,086	-0,131
-186,373	-200,000	0,015	-0,077
-185,358	-46,254	0,072	0,026
-184,344	479,661	0,075	0,125
-183,329	-200,000	-0,026	0,113
-182,315	800,000	-0,019	-0,051
-181,300	-70,844	-0,099	-0,027
-180,285	-86,154	-0,093	-0,021
-179,271	-31,279	0,127	-0,052
-178,256	122,374	-0,043	-0,039
-177,242	147,035	-0,030	0,029
-176,227	35,953	-0,189	0,121
-175,212	212,731	-0,015	0,017
-174,198	195,869	0,117	-0,129
-173,183	95,357	-0,148	-0,122
-172,169	-200,000	-0,001	0,030
-171,154	249,323	0,027	-0,034
-170,139	-200,000	-0,010	0,145
-169,125	553,681	-0,048	0,084
-168,110	-141,552	0,124	-0,009
-167,096	443,730	-0,009	0,014
-166,081	800,000	-0,005	0,010
-165,066	800,000	-0,057	-0,165
-164,052	-200,000	0,014	0,124
-163,037	-110,209	-0,060	0,009
-162,023	-69,333	0,144	0,040
-161,008	-114,769	-0,121	0,017
-159,993	529,876	0,009	-0,016
-158,979	162,911	-0,084	0,086
-157,964	116,645	0,045	-0,040
-156,950	800,000	0,020	-0,059
-155,935	-15,713	-0,068	-0,031
-154,920	-102,079	0,098	0,017
-153,906	85,048	-0,026	0,021
-152,891	800,000	0,051	0,120
-151,877	49,611	0,080	0,055
-150,862	-98,997	-0,089	-0,016
-149,847	139,670	-0,068	0,065
-148,833	-65,724	0,057	0,017
-147,818	-200,000	0,008	0,045
-146,804	-68,759	0,145	0,040
-145,789	-200,000	0,008	-0,039
-144,775	9,300	0,090	0,049
-143,760	109,105	-0,093	-0,081
-142,745	118,811	-0,037	-0,034
-141,731	6,094	-0,105	-0,056
-140,716	-28,452	-0,027	-0,011
-139,702	-200,000	0,014	0,093
-138,687	134,293	0,016	0,016
-137,672	800,000	0,023	-0,048
-136,658	-65,854	0,108	0,031
-135,643	-105,248	0,015	-0,002
-134,629	800,000	-0,022	0,056
-133,614	-21,708	-0,061	0,027
-132,599	-6,193	-0,060	-0,030
-131,585	-54,956	0,117	0,038
-130,570	800,000	0,011	0,024
-129,556	-200,000	-0,007	-0,075
-128,541	180,815	0,040	0,043
-127,526	-161,363	-0,067	-0,002
-126,512	355,385	0,081	0,117
-125,497	800,000	-0,002	-0,006
-124,483	139,778	-0,039	-0,037
-123,468	-200,000	-0,001	0,023
-122,453	-164,564	-0,161	-0,005
-121,439	474,189	-0,046	0,076
-120,424	249,462	0,033	0,041
-119,410	-89,211	-0,050	-0,011
