DTS Sentinel unit serial number:	SN410029Multiplexer serial number:	ORYXHardware model number:	OX2-SRSoftware version number:	ORYX F/W v4,00 Oryx Data Collector v3.7.2.0data status	okinstallation	B4 Nyhavnadifferential loss correction	single-endedforward channel	channel 2reverse channel	N/Adate	2023/12/15time	19:25:13forward acquisition time	300,00reverse acquisition time	0,00gamma	499,1914k internal	0,3138k external	0,3138temperature offset calibration	1,0000default loss term (dB/km)	0,3820temperature slope calibration	1,0000multiplexer offset coefficient	1,0000multiplexer slope coefficient	1,0000fibre end	0,00T internal ref (°C)	19,86T ext. ref 1 (°C)	5,61T ext. ref 2 (°C)	5,76length (m)	temperature (°C)	Stokes	anti-Stokes-744,400	488,408	0,057	-0,098
-743,385	2,056	-0,278	0,148
-742,371	-49,083	0,190	-0,067
-741,356	91,177	-0,251	0,209
-740,342	-111,727	0,202	0,030
-739,327	60,946	-0,257	0,189
-738,312	-144,233	0,120	-0,008
-737,298	-13,700	-0,208	0,099
-736,283	-10,635	0,101	-0,049
-735,269	-8,045	-0,296	0,147
-734,254	800,000	0,063	0,205
-733,239	-75,715	-0,424	-0,111
-732,225	-1,029	0,062	0,032
-731,210	-200,000	0,006	-0,138
-730,196	119,226	-0,079	-0,073
-729,181	-60,435	0,100	0,031
-728,167	622,962	0,016	-0,029
-727,152	232,800	0,072	0,088
-726,137	274,802	-0,026	0,034
-725,123	800,000	0,042	-0,093
-724,108	-200,000	-0,027	-0,133
-723,094	-122,865	-0,105	-0,012
-722,079	-105,606	-0,208	0,035
-721,064	-200,000	-0,017	-0,127
-720,050	-90,514	0,092	0,020
-719,035	142,563	-0,106	-0,104
-718,021	-137,149	-0,145	0,012
-717,006	118,997	0,054	-0,049
-715,991	800,000	0,044	-0,104
-714,977	-90,702	0,019	0,004
-713,962	-200,000	-0,007	-0,031
-712,948	-98,600	-0,083	-0,016
-711,933	465,473	-0,094	0,156
-710,918	284,636	0,063	-0,085
-709,904	220,722	-0,113	-0,135
-708,889	569,345	-0,060	-0,108
-707,875	-200,000	-0,030	-0,102
-706,860	-200,000	-0,014	0,074
-705,845	-131,297	0,080	0,008
-704,831	209,070	-0,013	0,015
-703,816	-200,000	-0,007	0,055
-702,802	569,142	0,043	-0,078
-701,787	57,469	-0,052	-0,037
-700,772	-26,267	0,127	-0,055
-699,758	-78,475	0,160	0,040
-698,743	560,475	-0,015	-0,028
-697,729	-131,029	0,110	-0,011
-696,714	-55,843	-0,071	0,024
-695,699	-121,937	-0,110	-0,013
-694,685	217,950	-0,073	-0,087
-693,670	-127,424	0,053	0,006
-692,656	60,077	0,054	-0,040
-691,641	107,826	-0,053	0,047
-690,627	-1,892	-0,148	0,077
-689,612	-200,000	0,015	0,101
-688,597	-149,359	0,186	0,011
-687,583	-6,046	-0,179	0,090
-686,568	9,188	-0,161	0,090
-685,554	800,000	0,022	-0,059
-684,539	116,949	-0,130	0,118
-683,524	-118,910	-0,226	-0,029
-682,510	800,000	-0,037	-0,103
-681,495	64,582	0,021	0,016
-680,481	-200,000	-0,004	-0,126
-679,466	54,308	-0,105	0,075
-678,451	221,176	0,080	0,096
-677,437	-33,844	0,111	0,045
-676,422	-200,000	-0,018	-0,089
-675,408	-72,432	0,153	-0,041
-674,393	350,416	-0,067	0,099
-673,378	-200,000	-0,007	0,037
-672,364	800,000	0,048	-0,099
-671,349	594,882	-0,013	0,023
-670,335	-119,985	-0,089	0,011
-669,320	-200,000	-0,013	0,136
-668,305	-200,000	0,038	0,202
-667,291	210,300	0,022	-0,025
-666,276	-200,000	-0,044	-0,236
-665,262	38,057	-0,094	-0,061
-664,247	-120,431	0,066	0,008
-663,232	-200,000	-0,003	-0,034
-662,218	32,082	-0,088	0,056
-661,203	800,000	-0,006	0,013
-660,189	244,337	0,089	-0,111
-659,174	-90,090	-0,101	-0,022
-658,159	-200,000	0,004	0,060
-657,145	648,929	-0,088	-0,168
-656,130	-3,419	0,073	0,037
-655,116	162,798	-0,032	-0,033
-654,101	48,852	-0,084	0,058
-653,086	800,000	0,024	0,067
-652,072	-144,092	0,172	0,012
-651,057	65,253	-0,132	-0,098
-650,043	-200,000	-0,000	0,039
-649,028	288,349	0,008	0,011
-648,014	292,249	-0,030	0,040
-646,999	800,000	0,018	0,053
-645,984	-200,000	-0,000	-0,020
-644,970	-114,765	-0,094	0,013
-643,955	53,476	-0,065	-0,046
-642,941	418,243	-0,106	-0,167
-641,926	-200,000	0,003	-0,060
-640,911	-12,110	-0,032	0,015
-639,897	32,749	0,077	-0,049
-638,882	-200,000	0,004	-0,146
-637,868	-200,000	-0,028	0,204
-636,853	595,252	-0,066	-0,121
-635,838	173,376	-0,132	-0,140
-634,824	-200,000	-0,005	0,055
-633,809	-132,254	-0,067	-0,006
-632,795	-200,000	0,032	-0,115
-631,780	102,573	0,042	0,036
-630,765	163,992	-0,041	-0,043
-629,751	-200,000	0,038	-0,150
-628,736	-101,422	-0,094	0,017
-627,722	-73,503	-0,097	-0,026
-626,707	-116,264	0,013	-0,002
-625,692	-200,000	0,016	0,089
-624,678	-44,922	0,113	0,041
-623,663	-121,316	0,035	0,004
-622,649	-174,626	-0,115	0,002
-621,634	-200,000	-0,008	-0,078
-620,619	-200,000	-0,009	-0,069
-619,605	-200,000	-0,013	0,051
-618,590	-200,000	-0,003	0,039
-617,576	196,093	0,041	0,046
-616,561	195,724	0,028	0,032
-615,546	-168,411	-0,056	-0,002
-614,532	-58,690	-0,057	-0,018
-613,517	220,238	-0,056	-0,067
-612,503	70,293	0,087	0,067
-611,488	-53,020	-0,017	0,006
-610,474	-137,917	-0,030	0,002
-609,459	800,000	0,027	-0,070
-608,444	-26,992	0,062	0,027
-607,430	-200,000	-0,036	-0,144
-606,415	-102,664	-0,056	-0,010
-605,401	619,825	0,054	-0,101
-604,386	539,506	0,049	0,087
-603,371	110,816	-0,030	0,027
-602,357	210,227	0,049	-0,057
-601,342	217,672	-0,064	-0,076
-600,328	800,000	-0,039	-0,111
-599,313	-200,000	0,028	-0,141
-598,298	-200,000	-0,006	-0,091
-597,284	800,000	-0,031	-0,074
-596,269	-200,000	0,014	-0,084
-595,255	17,639	0,032	-0,019
-594,240	-119,386	-0,111	0,014
-593,225	19,936	-0,043	0,026
-592,211	-107,486	0,055	-0,009
-591,196	-53,061	-0,115	0,039
-590,182	95,180	0,043	0,036
-589,167	185,542	0,027	0,029
-588,152	30,663	-0,066	-0,042
-587,138	366,815	-0,055	-0,082
-586,123	-200,000	-0,048	-0,165
-585,109	-182,313	-0,091	-0,001
-584,094	-67,179	0,103	-0,030
-583,079	-67,818	-0,015	0,004
-582,065	-118,916	0,121	0,015
-581,050	95,088	-0,060	-0,051
-580,036	4,798	0,033	-0,018
-579,021	-142,795	-0,113	0,008
-578,006	-200,000	-0,004	0,016
-576,992	546,081	0,076	-0,134
-575,977	194,068	-0,119	-0,133
-574,963	-157,165	0,070	-0,003
-573,948	410,117	0,024	-0,037
-572,934	-200,000	-0,006	-0,038
-571,919	-158,740	0,115	-0,005
-570,904	800,000	0,065	-0,157
-569,890	-200,000	-0,014	-0,050
-568,875	-6,482	0,082	-0,041
-567,861	-200,000	-0,001	0,078
-566,846	-200,000	0,005	0,088
-565,831	800,000	0,040	-0,096
-564,817	-200,000	-0,007	0,050
-563,802	6,128	-0,119	0,065
-562,788	-200,000	-0,019	-0,140
-561,773	-200,000	0,008	-0,035
-560,758	90,533	0,067	0,055
-559,744	-200,000	0,059	0,284
-558,729	800,000	0,030	0,067
-557,715	15,287	-0,103	0,059
-556,700	331,029	-0,061	0,086
-555,685	-30,324	-0,063	-0,026
-554,671	-200,000	-0,077	-0,000
-553,656	-64,834	-0,201	0,059
-552,642	-200,000	0,014	0,115
-551,627	-97,548	0,044	0,008
-550,612	-61,949	-0,021	0,006
-549,598	800,000	-0,026	0,080
-548,583	262,815	-0,060	-0,077
-547,569	-200,000	0,003	0,093
-546,554	-200,000	0,028	0,114
-545,539	-200,000	-0,007	-0,117
-544,525	79,606	-0,035	0,028
-543,510	-200,000	0,001	-0,091
-542,496	-110,589	0,048	0,007
-541,481	-51,539	-0,067	-0,023
-540,466	-75,744	0,099	0,026
-539,452	111,567	-0,039	0,035
-538,437	74,816	0,100	0,077
-537,423	351,093	-0,054	0,079
-536,408	-25,731	0,057	0,025
-535,393	514,472	0,018	0,032
-534,379	800,000	0,043	-0,103
-533,364	-111,424	0,106	-0,016
-532,350	-45,251	-0,049	-0,018
-531,335	250,180	-0,040	0,050
-530,321	800,000	-0,063	0,183
-529,306	-64,731	-0,106	0,031
-528,291	800,000	0,025	-0,077
-527,277	800,000	0,057	-0,183
-526,262	-40,618	0,123	-0,047
-525,248	-104,638	0,018	0,003
-524,233	72,682	0,081	-0,062
-523,218	-55,975	0,121	-0,040
-522,204	9,945	0,084	-0,047
-521,189	-54,576	0,153	-0,051
-520,175	551,595	-0,048	-0,085
-519,160	800,000	0,034	0,099
-518,145	-97,203	-0,050	0,010
-517,131	-200,000	0,012	0,078
-516,116	231,903	0,049	0,059
-515,102	106,437	0,055	0,048
-514,087	47,000	0,018	-0,012
-513,072	554,610	0,014	-0,025
-512,058	-200,000	-0,013	0,060
-511,043	-200,000	0,013	0,116
-510,029	-27,394	-0,045	-0,019
-509,014	36,173	0,072	-0,047
-507,999	302,549	-0,056	0,077
-506,985	674,965	-0,076	-0,145
-505,970	800,000	-0,015	-0,046
-504,956	-200,000	0,021	-0,117
-503,941	-60,186	-0,105	0,033
-502,926	159,137	0,050	-0,051
-501,912	121,879	0,039	-0,035
-500,897	-60,124	0,079	0,025
-499,883	564,095	-0,039	-0,069
-498,868	-98,838	-0,085	-0,016
-497,853	-200,000	0,013	-0,130
-496,839	-200,000	0,005	0,028
-495,824	800,000	0,041	0,091
-494,810	800,000	-0,050	-0,115
-493,795	212,157	-0,054	0,062
-492,781	800,000	-0,012	0,033
-491,766	82,410	-0,032	-0,025
-490,751	-200,000	-0,044	-0,161
-489,737	-68,700	-0,060	0,017
-488,722	316,958	-0,053	0,073
-487,708	-18,936	0,061	0,028
-486,693	8,189	0,115	0,063
-485,678	800,000	-0,027	-0,077
-484,664	136,814	-0,167	-0,160
-483,649	12,486	-0,110	-0,062
-482,635	800,000	-0,038	-0,088
-481,620	800,000	0,034	-0,101
-480,605	98,601	0,068	0,058
-479,591	-200,000	-0,004	0,072
-478,576	640,815	0,019	-0,035
-477,562	-200,000	0,025	-0,148
-476,547	-200,000	0,003	-0,071
-475,532	-98,526	0,088	0,016
-474,518	393,064	0,088	0,134
-473,503	-126,272	0,128	0,014
-472,489	149,309	0,030	0,030
-471,474	296,049	0,017	-0,024
-470,459	-163,021	-0,096	0,003
-469,445	748,069	-0,061	-0,121
-468,430	520,454	0,037	-0,064
-467,416	-15,512	0,116	0,054
-466,401	-86,569	0,069	0,015
-465,386	129,462	0,080	0,075
-464,372	-200,000	0,011	0,046
-463,357	-101,195	-0,105	0,019
-462,343	-35,295	0,026	0,010
-461,328	-26,300	-0,086	0,037
-460,313	-60,024	0,104	0,032
-459,299	121,144	-0,044	0,040
-458,284	-200,000	0,011	0,058
-457,270	-17,792	0,117	0,054
-456,255	245,261	-0,072	0,089
-455,241	-200,000	0,007	0,030
-454,226	-85,142	-0,043	-0,010
-453,211	-165,934	0,023	0,001
-452,197	-200,000	-0,035	-0,312
-451,182	20,625	-0,073	-0,043
-450,168	45,083	-0,130	0,087
-449,153	572,049	0,050	0,089
-448,138	-104,460	-0,075	0,013
-447,124	94,691	-0,140	0,116
-446,109	-101,396	0,071	-0,013
-445,095	-25,893	0,196	0,084
-444,080	-200,000	-0,013	0,060
-443,065	-200,000	0,004	-0,036
-442,051	58,234	-0,131	-0,094
-441,036	-165,189	0,050	0,002
-440,022	143,598	-0,050	0,049
-439,007	432,376	-0,029	-0,046
-437,992	-200,000	-0,028	0,111
-436,978	-200,000	-0,024	0,090
-435,963	110,913	-0,028	0,025
-434,949	-200,000	0,005	0,122
-433,934	6,503	-0,034	0,019
-432,919	-200,000	0,007	0,088
-431,905	759,342	-0,025	0,050
-430,890	-5,710	-0,029	0,015
-429,876	31,450	0,110	0,069
-428,861	800,000	0,033	0,092
-427,846	-109,285	-0,091	0,014
-426,832	100,289	-0,051	0,044
-425,817	508,061	-0,041	0,069
-424,803	498,302	0,057	-0,097
-423,788	800,000	0,016	0,044
-422,773	173,804	0,053	0,056
-421,759	98,309	-0,028	0,024
-420,744	-51,217	0,028	0,010
-419,730	800,000	-0,048	-0,148
-418,715	-200,000	-0,049	0,000
-417,701	-200,000	-0,004	-0,068
-416,686	227,413	-0,004	0,004
-415,671	-200,000	-0,018	0,111
-414,657	18,670	-0,098	0,057
-413,642	232,267	-0,048	0,058
-412,628	311,723	0,031	0,043
-411,613	86,683	-0,018	-0,014
-410,598	-109,200	0,090	0,014
-409,584	166,158	0,084	0,087
-408,569	-161,893	0,120	-0,004
-407,555	114,872	0,078	0,070
-406,540	462,338	-0,056	0,092
-405,525	269,152	0,040	0,051
-404,511	-200,000	-0,026	0,152
-403,496	167,558	0,090	0,093
-402,482	-200,000	-0,006	0,022
-401,467	718,462	0,035	-0,068
-400,452	-200,000	0,016	0,062
-399,438	230,513	-0,070	0,084
-398,423	800,000	-0,018	0,037
-397,409	494,286	-0,060	-0,100
-396,394	513,941	0,052	0,089
-395,379	112,327	-0,052	0,046
-394,365	181,524	0,059	0,064
-393,350	-155,389	0,062	0,003
-392,336	238,765	0,027	-0,033
-391,321	29,236	-0,125	-0,077
-390,306	-159,483	-0,076	-0,003
-389,292	800,000	0,025	-0,074
-388,277	-106,912	0,094	-0,015
-387,263	-88,265	0,193	0,042
-386,248	-148,816	-0,043	-0,003
-385,233	163,169	0,032	0,032
-384,219	800,000	0,052	-0,117
-383,204	755,669	-0,037	0,074
-382,190	-129,254	-0,121	0,012
-381,175	6,016	-0,014	0,008
-380,160	510,679	0,034	0,058
-379,146	800,000	0,028	0,059
-378,131	800,000	0,039	-0,108
-377,117	-50,231	-0,042	0,014
-376,102	78,607	0,030	-0,023
-375,088	137,702	-0,112	0,107
-374,073	189,590	-0,088	0,096
-373,058	52,766	0,044	-0,031
-372,044	273,635	-0,109	0,141
-371,029	800,000	0,026	0,079
-370,015	-148,758	-0,105	0,006
-369,000	-200,000	0,001	0,014
-367,985	-49,944	-0,028	-0,010
-366,971	-143,745	0,090	0,006
-365,956	133,064	-0,074	-0,069
-364,942	133,853	0,096	-0,091
-363,927	550,389	-0,041	0,073
-362,912	-54,541	-0,079	0,026
-361,898	-200,000	-0,012	-0,067
-360,883	-200,000	0,009	-0,082
-359,869	800,000	-0,006	0,019
-358,854	-21,866	0,104	-0,046
-357,839	211,496	-0,052	0,060
-356,825	-31,178	0,054	-0,022
-355,810	110,019	-0,028	-0,024
-354,796	800,000	0,035	-0,087
-353,781	91,062	-0,065	-0,053
-352,766	749,100	0,032	0,064
-351,752	-200,000	-0,004	0,073
-350,737	-53,557	0,044	-0,015
-349,723	39,466	-0,028	-0,018
-348,708	97,275	0,050	-0,042
-347,693	100,882	0,045	-0,038
-346,679	800,000	0,097	-0,201
-345,664	-9,749	-0,118	-0,057
-344,650	-84,762	0,105	0,024
-343,635	127,741	0,016	-0,015
-342,620	681,207	-0,072	0,138
-341,606	-121,286	0,037	0,004
-340,591	-154,105	0,071	0,003
-339,577	244,791	-0,050	0,061
-338,562	-39,832	0,041	-0,016
-337,548	-10,378	0,157	-0,076
-336,533	-40,734	-0,061	0,023
-335,518	78,669	0,023	-0,018
-334,504	41,460	-0,086	-0,057
-333,489	-200,000	0,012	-0,058
-332,475	327,722	0,053	0,074
-331,460	-200,000	-0,016	0,160
-330,445	800,000	-0,039	0,079
-329,431	-200,000	0,017	-0,058
-328,416	161,234	0,093	0,095
-327,402	-200,000	-0,012	0,074
-326,387	-200,000	0,006	0,040
-325,372	-200,000	-0,027	-0,115
-324,358	112,214	-0,076	0,067
-323,343	216,563	0,029	0,034
-322,329	800,000	-0,057	0,153
-321,314	-200,000	0,033	0,155
-320,299	58,234	0,122	-0,087
-319,285	-200,000	-0,007	0,049
-318,270	-200,000	0,005	-0,097
-317,256	-32,671	-0,049	-0,020
-316,241	-28,639	0,057	-0,024
-315,226	-200,000	0,026	-0,089
-314,212	352,096	0,047	-0,068
-313,197	573,750	-0,018	-0,032
-312,183	281,000	-0,080	0,105
-311,168	60,607	0,009	0,006
-310,153	800,000	0,038	0,089
-309,139	-106,975	-0,153	-0,024
-308,124	-18,991	0,050	0,023
-307,110	80,018	0,097	0,076
-306,095	-53,205	0,045	0,015
-305,080	187,138	-0,059	0,064
-304,066	-200,000	0,013	-0,088
-303,051	-145,358	-0,079	0,005
-302,037	88,178	-0,044	0,035
-301,022	800,000	-0,034	-0,071
-300,008	-200,000	-0,003	0,149
-298,993	-66,160	0,159	-0,046
-297,978	-100,404	0,112	0,020
-296,964	-200,000	-0,014	-0,047
-295,949	192,777	-0,139	-0,154
-294,935	-200,000	0,001	-0,068
-293,920	722,424	0,023	-0,046
-292,905	-116,576	-0,088	0,012
-291,891	-21,620	0,093	0,041
-290,876	168,330	0,046	-0,047
-289,862	97,022	-0,055	-0,046
-288,847	220,492	-0,051	-0,059
-287,832	-200,000	0,010	-0,080
-286,818	-200,000	-0,023	0,075
-285,803	146,459	-0,096	-0,094
-284,789	-170,807	0,091	0,002
-283,774	-200,000	0,017	0,133
-282,759	-124,789	0,098	-0,011
-281,745	537,436	-0,133	-0,231
-280,730	-153,603	0,099	-0,005
-279,716	-117,492	-0,100	-0,013
-278,701	-200,000	-0,002	-0,063
-277,686	-200,000	0,006	0,187
-276,672	-200,000	0,012	0,059
-275,657	-85,589	0,033	0,007
-274,643	83,845	-0,047	0,037
-273,628	403,269	0,025	-0,039
-272,613	800,000	-0,003	-0,008
-271,599	163,838	-0,089	0,091
-270,584	245,244	0,086	0,105
-269,570	203,459	0,054	0,061
-268,555	-200,000	-0,002	0,063
-267,540	-200,000	-0,004	0,105
-266,526	-73,568	0,056	-0,015
-265,511	569,025	0,024	-0,043
-264,497	-153,729	-0,050	0,002
-263,482	-200,000	0,028	0,092
-262,467	800,000	0,020	0,063
-261,453	-200,000	0,016	-0,074
-260,438	-200,000	-0,014	0,091
-259,424	-200,000	0,010	-0,033
-258,409	224,847	-0,053	-0,063
-257,395	-173,138	-0,074	-0,002
-256,380	-152,625	0,118	0,006
-255,365	-141,923	-0,125	0,009
-254,351	72,816	-0,051	0,039
-253,336	-91,963	0,055	0,011
-252,322	-200,000	-0,000	-0,098
-251,307	93,471	-0,093	-0,077
-250,292	-170,763	0,107	-0,003
-249,278	-94,375	0,033	0,006
-248,263	-200,000	0,005	0,065
-247,249	800,000	-0,037	-0,097
-246,234	212,079	0,167	-0,192
-245,219	-31,186	0,042	0,017
-244,205	288,657	0,023	-0,030
-243,190	-87,596	0,064	-0,014
-242,176	75,511	0,058	-0,045
-241,161	-26,607	-0,027	0,011
-240,146	-200,000	-0,014	0,060
-239,132	195,215	-0,074	0,081
-238,117	536,944	-0,083	-0,144
-237,103	800,000	-0,066	-0,187
-236,088	88,707	-0,049	0,040
-235,073	-13,553	0,070	0,033
-234,059	-93,105	0,114	-0,023
-233,044	-200,000	-0,011	0,114
-232,030	-149,226	-0,103	-0,006
-231,015	73,506	-0,074	0,056
-230,000	-200,000	0,007	-0,054
-228,986	73,045	0,075	-0,057
-227,971	800,000	-0,021	-0,061
-226,957	141,798	0,089	0,086
-225,942	405,328	-0,020	-0,031
-224,927	-200,000	0,023	-0,083
-223,913	58,730	0,043	0,031
-222,898	98,960	-0,085	-0,071
-221,884	800,000	-0,067	-0,176
-220,869	-200,000	0,013	0,143
-219,855	-200,000	-0,030	0,128
-218,840	-155,790	0,071	-0,003
-217,825	-200,000	0,004	0,182
-216,811	-200,000	0,022	0,073
-215,796	385,839	-0,065	-0,097
-214,782	-83,085	-0,093	-0,021
-213,767	800,000	0,049	-0,100
-212,752	-129,416	-0,068	0,007
-211,738	793,055	0,095	0,191
-210,723	-6,972	0,037	0,018
-209,709	80,533	-0,064	0,050
-208,694	800,000	0,039	-0,113
-207,679	-200,000	-0,022	0,087
-206,665	-48,756	0,055	-0,019
-205,650	80,044	0,183	0,143
-204,636	10,206	-0,044	-0,024
-203,621	800,000	-0,056	-0,138
-202,606	-200,000	0,017	-0,093
-201,592	98,690	0,047	-0,039
-200,577	567,598	0,070	-0,124
-199,563	330,164	-0,040	0,056
-198,548	3,026	-0,162	0,085
-197,533	-97,511	-0,153	0,029
-196,519	800,000	-0,021	0,054
-195,504	411,262	0,083	-0,128
-194,490	-99,727	-0,053	0,010
-193,475	225,759	-0,107	-0,126
-192,460	-138,412	-0,119	-0,009
-191,446	121,796	-0,037	0,034
-190,431	723,374	-0,051	-0,098
-189,417	204,497	0,061	-0,069
-188,402	-200,000	-0,013	0,145
-187,387	800,000	-0,032	0,064
-186,373	393,600	-0,022	0,033
-185,358	16,773	0,059	-0,034
-184,344	43,887	0,113	0,075
-183,329	-2,618	0,106	0,054
-182,315	39,366	0,111	0,072
-181,300	510,708	0,044	0,074
-180,285	147,644	-0,078	-0,076
-179,271	671,132	0,087	-0,164
-178,256	800,000	-0,014	0,037
-177,242	314,413	0,053	0,073
-176,227	-200,000	-0,002	0,060
-175,212	6,503	0,118	0,064
-174,198	-46,562	-0,078	-0,028
-173,183	585,726	-0,044	-0,079
-172,169	-200,000	0,030	0,121
-171,154	800,000	-0,011	-0,032
-170,139	37,871	0,095	0,061
-169,125	-200,000	0,024	0,137
-168,110	-55,050	-0,032	0,010
-167,096	91,738	-0,080	-0,065
-166,081	-177,870	-0,051	0,001
-165,066	800,000	0,009	-0,021
-164,052	108,867	-0,026	0,023
-163,037	-198,891	0,093	-0,000
-162,023	800,000	0,064	-0,149
-161,008	-68,978	-0,069	-0,019
-159,993	-112,415	0,194	0,028
-158,979	102,513	-0,089	0,075
-157,964	83,802	0,037	-0,029
-156,950	-113,607	-0,109	0,015
-155,935	15,301	0,080	-0,045
-154,920	-200,000	-0,022	-0,141
-153,906	-8,684	0,055	-0,027
-152,891	77,234	0,035	0,027
-151,877	-200,000	-0,014	0,062
-150,862	800,000	0,029	-0,065
-149,847	91,017	0,038	-0,031
-148,833	313,700	-0,062	-0,085
-147,818	800,000	0,041	-0,124
-146,804	141,586	0,063	0,061
-145,789	87,759	0,018	-0,015
-144,775	800,000	-0,030	-0,068
-143,760	-200,000	0,006	-0,061
-142,745	270,544	0,055	-0,070
-141,731	449,321	-0,076	0,122
-140,716	288,368	0,059	0,077
-139,702	259,947	-0,059	0,074
-138,687	61,398	-0,110	0,079
-137,672	-72,300	0,060	0,016
-136,658	120,211	0,086	-0,078
-135,643	779,261	0,034	-0,069
-134,629	-200,000	-0,010	0,194
-133,614	134,125	0,098	0,092
-132,599	63,560	0,075	0,054
-131,585	-9,134	-0,052	0,025
-130,570	-44,884	-0,036	0,013
-129,556	374,674	-0,125	-0,185
-128,541	783,360	-0,026	0,053
-127,526	800,000	0,020	-0,049
-126,512	-46,908	0,114	-0,040
-125,497	800,000	-0,029	-0,065
-124,483	410,093	-0,022	0,033
-123,468	167,364	-0,104	-0,107
-122,453	401,741	0,054	-0,082
-121,439	72,616	-0,100	0,076
-120,424	-123,876	0,098	-0,011
-119,410	800,000	-0,017	0,047
-118,395	-19,472	0,228	0,102
