DTS Sentinel unit serial number:	SN410029Multiplexer serial number:	ORYXHardware model number:	OX2-SRSoftware version number:	ORYX F/W v4,00 Oryx Data Collector v3.7.2.0data status	okinstallation	B4 Nyhavnadifferential loss correction	single-endedforward channel	channel 2reverse channel	N/Adate	2023/12/15time	22:05:13forward acquisition time	300,00reverse acquisition time	0,00gamma	499,1914k internal	0,3132k external	0,3132temperature offset calibration	1,0000default loss term (dB/km)	0,3820temperature slope calibration	1,0000multiplexer offset coefficient	1,0000multiplexer slope coefficient	1,0000fibre end	0,00T internal ref (°C)	21,20T ext. ref 1 (°C)	6,59T ext. ref 2 (°C)	6,76length (m)	temperature (°C)	Stokes	anti-Stokes-744,400	634,068	-0,054	0,102
-743,385	-2,217	-0,169	0,088
-742,371	-19,203	0,143	-0,066
-741,356	505,571	-0,075	0,130
-740,342	-95,215	0,045	-0,009
-739,327	-155,786	-0,382	0,018
-738,312	63,536	0,109	-0,081
-737,298	-183,002	-0,442	0,006
-736,283	-188,432	0,091	0,001
-735,269	-97,650	-0,198	0,038
-734,254	800,000	-0,070	0,146
-733,239	60,574	-0,333	-0,245
-732,225	239,796	0,027	-0,033
-731,210	-96,596	0,038	0,007
-730,196	6,864	-0,090	0,050
-729,181	-60,605	0,115	-0,036
-728,167	239,292	-0,018	-0,023
-727,152	-138,610	0,091	0,007
-726,137	408,670	-0,060	0,094
-725,123	595,873	-0,069	-0,128
-724,108	-47,062	-0,114	-0,041
-723,094	-47,987	0,172	0,061
-722,079	-50,390	-0,177	-0,062
-721,064	-111,294	-0,036	0,005
-720,050	800,000	0,031	0,082
-719,035	-200,000	0,003	-0,055
-718,021	-200,000	0,033	0,172
-717,006	432,945	-0,052	-0,084
-715,991	618,865	-0,083	-0,155
-714,977	58,100	-0,076	-0,055
-713,962	75,794	0,080	-0,063
-712,948	-36,658	0,015	0,006
-711,933	180,979	0,072	-0,079
-710,918	-200,000	0,015	0,122
-709,904	-26,981	-0,099	-0,043
-708,889	-95,280	-0,105	-0,021
-707,875	-200,000	-0,005	-0,068
-706,860	-74,522	-0,147	-0,039
-705,845	-94,341	0,088	-0,018
-704,831	-24,998	-0,039	-0,017
-703,816	-200,000	0,035	-0,154
-702,802	491,031	-0,041	-0,070
-701,787	-200,000	0,008	-0,048
-700,772	184,828	-0,048	-0,052
-699,758	-93,426	-0,101	-0,021
-698,743	-200,000	0,080	-0,000
-697,729	93,534	0,081	-0,068
-696,714	-200,000	0,154	-0,000
-695,699	19,129	-0,149	-0,088
-694,685	-74,091	-0,045	0,012
-693,670	-110,866	-0,048	0,007
-692,656	-69,649	0,103	0,029
-691,641	68,961	-0,072	-0,055
-690,627	-32,535	0,202	0,083
-689,612	-14,175	0,109	-0,052
-688,597	-5,664	-0,166	0,084
-687,583	-126,834	-0,117	0,013
-686,568	163,546	-0,050	0,053
-685,554	800,000	0,052	0,117
-684,539	-18,259	-0,075	0,034
-683,524	800,000	-0,062	0,164
-682,510	98,433	-0,026	0,022
-681,495	61,513	-0,044	-0,033
-680,481	-39,218	0,094	0,036
-679,466	297,062	0,065	-0,088
-678,451	-51,736	-0,133	0,046
-677,437	141,840	0,078	0,077
-676,422	-133,803	-0,021	0,002
-675,408	1,805	-0,051	-0,027
-674,393	800,000	-0,045	-0,092
-673,378	268,833	-0,090	-0,118
-672,364	-200,000	0,007	-0,037
-671,349	-34,558	-0,073	0,030
-670,335	-200,000	-0,008	-0,252
-669,320	143,617	-0,122	-0,120
-668,305	-156,951	0,177	0,008
-667,291	169,391	0,056	0,059
-666,276	-31,213	0,017	-0,007
-665,262	310,444	-0,054	-0,075
-664,247	1,511	-0,055	-0,029
-663,232	800,000	-0,022	-0,061
-662,218	-200,000	-0,008	0,071
-661,203	-200,000	0,004	-0,042
-660,189	800,000	0,039	-0,091
-659,174	800,000	-0,026	-0,071
-658,159	110,530	-0,101	0,090
-657,145	248,750	-0,132	-0,166
-656,130	-200,000	-0,009	0,036
-655,116	156,098	0,021	-0,022
-654,101	-11,233	0,127	-0,062
-653,086	-200,000	-0,001	0,135
-652,072	181,924	-0,060	-0,065
-651,057	-200,000	0,015	-0,127
-650,043	800,000	-0,060	-0,177
-649,028	79,070	0,029	-0,023
-648,014	85,150	0,046	-0,037
-646,999	-200,000	-0,002	-0,019
-645,984	95,532	-0,101	0,085
-644,970	59,645	-0,135	-0,099
-643,955	-200,000	-0,011	-0,041
-642,941	95,339	-0,109	-0,092
-641,926	132,476	0,117	0,111
-640,911	-98,529	-0,081	-0,015
-639,897	0,661	0,026	-0,014
-638,882	-200,000	-0,009	0,043
-637,868	-200,000	0,003	-0,048
-636,853	800,000	-0,016	-0,048
-635,838	329,729	0,046	-0,065
-634,824	800,000	-0,029	0,095
-633,809	-68,105	0,104	-0,030
-632,795	-200,000	0,001	-0,065
-631,780	800,000	-0,045	-0,144
-630,765	249,477	-0,068	-0,086
-629,751	-200,000	0,005	-0,168
-628,736	15,502	-0,190	-0,110
-627,722	130,139	-0,085	-0,080
-626,707	800,000	0,026	0,065
-625,692	495,274	0,023	0,039
-624,678	65,927	-0,040	-0,030
-623,663	84,033	0,019	0,015
-622,649	-10,994	-0,046	-0,022
-621,634	288,022	-0,034	-0,046
-620,619	-200,000	0,038	-0,134
-619,605	-65,707	-0,029	0,009
-618,590	-33,012	0,049	0,020
-617,576	-129,593	-0,066	0,007
-616,561	-168,216	0,036	-0,001
-615,546	-200,000	0,019	0,116
-614,532	351,273	0,061	-0,090
-613,517	-200,000	-0,004	0,043
-612,503	-200,000	0,024	0,186
-611,488	-143,610	0,161	-0,011
-610,474	-93,639	-0,160	-0,032
-609,459	60,384	0,043	-0,032
-608,444	-66,415	0,057	0,017
-607,430	-119,040	0,015	-0,002
-606,415	-104,067	-0,195	-0,033
-605,401	-25,578	0,099	-0,043
-604,386	-76,523	-0,075	0,019
-603,371	-171,071	0,115	-0,003
-602,357	-29,888	0,036	-0,015
-601,342	-83,807	-0,053	-0,012
-600,328	800,000	0,031	0,068
-599,313	800,000	-0,037	-0,111
-598,298	-44,243	-0,062	-0,023
-597,284	137,866	-0,057	0,055
-596,269	-157,900	0,047	0,002
-595,255	654,377	0,016	0,031
-594,240	-60,746	-0,042	0,013
-593,225	800,000	-0,054	-0,154
-592,211	-133,368	-0,096	0,009
-591,196	192,656	0,031	0,035
-590,182	800,000	-0,028	-0,084
-589,167	31,615	-0,045	0,029
-588,152	69,792	-0,105	-0,080
-587,138	2,547	0,020	-0,011
-586,123	-150,293	0,022	0,001
-585,109	-42,493	-0,060	0,022
-584,094	800,000	-0,063	-0,200
-583,079	8,958	0,122	0,068
-582,065	474,613	0,055	-0,091
-581,050	184,294	0,060	-0,065
-580,036	105,967	-0,023	-0,020
-579,021	276,216	0,092	-0,120
-578,006	-123,315	-0,137	-0,016
-576,992	-41,898	-0,133	-0,050
-575,977	-3,935	-0,158	-0,080
-574,963	-200,000	0,005	-0,044
-573,948	590,100	-0,074	-0,134
-572,934	297,764	-0,078	-0,106
-571,919	-200,000	-0,005	-0,072
-570,904	-40,574	0,024	0,009
-569,890	-60,995	-0,092	-0,029
-568,875	-47,641	0,172	0,061
-567,861	-137,551	0,117	0,010
-566,846	800,000	-0,011	0,033
-565,831	93,563	0,071	0,059
-564,817	-131,034	0,059	-0,006
-563,802	-200,000	0,006	-0,058
-562,788	139,199	-0,019	-0,019
-561,773	-91,677	0,070	0,015
-560,758	-135,127	0,161	0,014
-559,744	-94,664	0,145	-0,029
-558,729	-40,083	-0,083	-0,032
-557,715	71,825	-0,080	-0,062
-556,700	-33,805	-0,159	0,064
-555,685	-200,000	0,019	-0,093
-554,671	84,635	-0,064	-0,052
-553,656	800,000	0,054	0,111
-552,642	84,983	-0,049	-0,039
-551,627	194,067	0,030	0,033
-550,612	-35,008	0,127	-0,051
-549,598	-65,366	-0,035	-0,010
-548,583	9,766	-0,085	0,048
-547,569	68,513	0,086	-0,065
-546,554	89,284	-0,080	0,065
-545,539	-69,430	-0,047	-0,013
-544,525	281,411	-0,029	0,038
-543,510	-200,000	-0,004	0,025
-542,496	523,970	0,056	-0,098
-541,481	28,034	-0,044	0,027
-540,466	-25,017	-0,034	0,015
-539,452	-200,000	-0,017	-0,067
-538,437	153,952	0,087	-0,088
-537,423	-136,767	0,064	0,005
-536,408	-200,000	-0,032	0,104
-535,393	-200,000	0,016	0,170
-534,379	86,451	-0,080	0,065
-533,364	10,712	-0,025	-0,014
-532,350	-70,855	-0,014	-0,004
-531,335	-120,050	-0,038	-0,005
-530,321	309,393	-0,035	0,048
-529,306	-92,925	-0,159	0,032
-528,291	181,762	-0,062	-0,068
-527,277	-28,779	0,024	-0,010
-526,262	-95,507	-0,089	0,017
-525,248	-44,044	0,097	0,036
-524,233	-16,231	0,043	0,020
-523,218	-102,264	0,069	-0,012
-522,204	-200,000	0,013	0,153
-521,189	530,138	-0,044	0,077
-520,175	250,596	-0,057	0,071
-519,160	70,573	-0,027	-0,020
-518,145	-102,710	-0,107	0,019
-517,131	-200,000	-0,002	0,051
-516,116	62,783	-0,154	0,113
-515,102	416,882	-0,043	-0,067
-514,087	49,393	-0,047	-0,032
-513,072	-200,000	0,029	-0,137
-512,058	21,448	-0,145	-0,086
-511,043	408,756	0,041	0,064
-510,029	696,959	0,065	0,125
-509,014	36,828	0,125	0,081
-507,999	11,178	0,120	0,068
-506,985	-200,000	0,020	0,080
-505,970	-65,002	-0,068	-0,020
-504,956	-47,046	-0,034	-0,012
-503,941	241,403	0,146	0,181
-502,926	-200,000	0,019	0,075
-501,912	-67,436	0,039	0,011
-500,897	-200,000	-0,003	-0,018
-499,883	6,218	0,035	0,019
-498,868	291,155	-0,155	0,208
-497,853	-45,212	-0,163	-0,059
-496,839	155,377	-0,043	0,044
-495,824	71,708	0,065	0,050
-494,810	71,221	0,117	0,089
-493,795	-105,394	0,100	-0,017
-492,781	800,000	0,040	-0,084
-491,766	185,888	-0,116	-0,128
-490,751	-200,000	0,006	-0,065
-489,737	63,181	0,047	0,035
-488,722	-40,710	0,067	-0,026
-487,708	132,727	-0,115	0,109
-486,693	-124,137	-0,033	0,004
-485,678	-45,089	-0,085	0,031
-484,664	800,000	0,019	0,054
-483,649	50,173	0,107	0,074
-482,635	165,288	0,053	0,055
-481,620	-68,518	0,027	0,008
-480,605	423,060	-0,067	0,107
-479,591	108,288	0,122	0,107
-478,576	749,431	-0,030	-0,059
-477,562	80,840	0,010	0,008
-476,547	-82,291	-0,066	0,016
-475,532	44,160	-0,125	-0,084
-474,518	333,246	-0,007	-0,010
-473,503	-200,000	0,003	0,151
-472,489	-200,000	-0,033	0,177
-471,474	-109,803	0,090	-0,014
-470,459	35,203	-0,076	-0,049
-469,445	213,306	-0,043	-0,050
-468,430	-200,000	0,004	-0,182
-467,416	76,210	0,098	-0,077
-466,401	800,000	-0,020	-0,063
-465,386	151,467	0,067	0,067
-464,372	-200,000	0,002	0,060
-463,357	120,980	-0,060	0,055
-462,343	242,298	-0,095	-0,117
-461,328	-138,135	-0,071	-0,006
-460,313	175,937	0,055	0,059
-459,299	304,063	0,144	0,197
-458,284	181,812	0,163	0,177
-457,270	33,941	-0,048	-0,031
-456,255	168,679	-0,112	-0,117
-455,241	-61,571	0,094	0,029
-454,226	-200,000	-0,014	-0,049
-453,211	539,921	-0,041	0,073
-452,197	-200,000	-0,017	0,113
-451,182	-111,280	0,017	0,003
-450,168	800,000	0,037	-0,106
-449,153	800,000	-0,017	-0,036
-448,138	-69,060	-0,092	0,026
-447,124	279,939	-0,099	-0,130
-446,109	-200,000	0,017	0,057
-445,095	-128,316	0,085	0,009
-444,080	477,922	-0,100	0,166
-443,065	800,000	0,028	0,065
-442,051	800,000	0,019	-0,044
-441,036	-35,482	-0,158	-0,063
-440,022	494,143	0,071	-0,121
-439,007	-200,000	-0,013	0,047
-437,992	-29,100	0,071	0,030
-436,978	218,828	-0,076	-0,090
-435,963	308,552	0,124	0,170
-434,949	-200,000	0,002	-0,039
-433,934	800,000	-0,044	0,123
-432,919	-45,528	0,053	0,019
-431,905	-200,000	0,017	-0,070
-430,890	-110,229	-0,052	0,008
-429,876	-10,629	0,046	0,022
-428,861	32,954	0,093	0,059
-427,846	-200,000	-0,016	-0,157
-426,832	18,441	-0,073	-0,043
-425,817	167,371	-0,090	0,094
-424,803	-82,384	-0,120	-0,028
-423,788	489,684	0,043	0,072
-422,773	119,574	0,093	0,084
-421,759	-17,551	0,135	0,062
-420,744	69,140	-0,068	-0,051
-419,730	122,155	0,041	-0,038
-418,715	-200,000	-0,013	0,072
-417,701	-41,727	0,070	-0,026
-416,686	-141,613	0,143	-0,010
-415,671	800,000	0,008	0,023
-414,657	-200,000	0,029	-0,114
-413,642	88,574	0,081	0,066
-412,628	800,000	-0,010	0,030
-411,613	-200,000	0,007	-0,114
-410,598	-143,173	-0,140	-0,010
-409,584	-200,000	0,035	-0,124
-408,569	246,577	0,081	0,100
-407,555	-91,113	0,019	-0,004
-406,540	-141,873	-0,060	-0,004
-405,525	800,000	-0,021	-0,064
-404,511	203,922	-0,107	-0,121
-403,496	214,040	-0,077	-0,090
-402,482	-140,281	-0,036	-0,003
-401,467	-200,000	0,014	0,200
-400,452	-200,000	-0,006	0,058
-399,438	2,652	-0,033	0,017
-398,423	-120,005	-0,088	-0,011
-397,409	-200,000	0,019	-0,122
-396,394	-200,000	0,006	0,099
-395,379	7,398	-0,033	0,018
-394,365	-200,000	0,015	0,074
-393,350	9,794	0,082	0,045
-392,336	-200,000	-0,010	-0,087
-391,321	195,065	0,117	0,130
-390,306	1,409	-0,123	-0,065
-389,292	184,400	-0,088	-0,096
-388,277	800,000	0,048	-0,106
-387,263	405,236	-0,060	0,093
-386,248	-200,000	0,038	0,155
-385,233	-109,626	-0,081	-0,012
-384,219	11,784	-0,094	-0,053
-383,204	-200,000	-0,001	0,022
-382,190	-140,534	0,168	0,013
-381,175	152,618	-0,077	-0,077
-380,160	-109,543	0,179	0,027
-379,146	220,490	-0,097	0,115
-378,131	-200,000	0,015	0,123
-377,117	12,694	-0,055	0,031
-376,102	-53,030	0,038	-0,013
-375,088	-200,000	-0,010	-0,110
-374,073	-200,000	-0,012	0,043
-373,058	-87,612	-0,070	0,015
-372,044	-200,000	0,014	0,103
-371,029	-84,663	0,027	0,006
-370,015	-200,000	-0,017	-0,127
-369,000	-56,474	0,035	-0,011
-367,985	-200,000	-0,018	-0,079
-366,971	-200,000	-0,004	-0,158
-365,956	80,988	-0,050	-0,039
-364,942	-200,000	0,005	0,036
-363,927	720,387	-0,027	0,052
-362,912	-200,000	-0,014	0,056
-361,898	155,392	0,065	0,065
-360,883	800,000	-0,036	-0,114
-359,869	-83,815	-0,111	-0,026
-358,854	-155,568	0,110	-0,005
-357,839	79,369	0,090	0,070
-356,825	241,691	0,077	0,095
-355,810	-200,000	-0,005	0,062
-354,796	115,792	-0,081	-0,073
-353,781	800,000	0,040	-0,119
-352,766	15,113	-0,063	0,036
-351,752	-25,373	0,112	-0,048
-350,737	-107,707	0,063	0,010
-349,723	79,787	0,063	0,050
-348,708	10,072	0,069	0,038
-347,693	-154,692	-0,063	0,003
-346,679	-142,710	0,067	-0,005
-345,664	-200,000	-0,031	-0,140
-344,650	-89,641	0,188	0,040
-343,635	37,763	-0,046	-0,030
-342,620	29,128	0,113	0,070
-341,606	507,851	-0,065	0,111
-340,591	279,949	-0,081	0,106
-339,577	-71,766	-0,065	-0,018
-338,562	-200,000	0,002	0,101
-337,548	64,287	-0,067	0,049
-336,533	-32,401	0,084	-0,034
-335,518	690,070	0,087	-0,167
-334,504	-152,900	0,151	-0,008
-333,489	18,574	0,047	0,027
-332,475	800,000	-0,016	-0,038
-331,460	105,143	0,060	-0,051
-330,445	398,621	-0,029	0,044
-329,431	-44,828	-0,049	0,018
-328,416	632,056	-0,029	0,054
-327,402	220,335	0,021	-0,025
-326,387	149,929	-0,075	0,074
-325,372	-81,803	-0,125	-0,030
-324,358	-200,000	0,044	-0,187
-323,343	-163,928	0,088	-0,003
-322,329	123,957	0,109	-0,100
-321,314	211,572	0,080	-0,092
-320,299	92,425	-0,066	0,054
-319,285	81,916	-0,053	-0,042
-318,270	-200,000	-0,016	-0,123
-317,256	-52,568	-0,031	-0,010
-316,241	-200,000	0,002	0,176
-315,226	-17,701	0,098	-0,045
-314,212	329,652	0,022	-0,031
-313,197	-200,000	0,008	-0,033
-312,183	140,732	-0,085	-0,082
-311,168	254,632	-0,103	0,129
-310,153	-200,000	-0,003	-0,028
-309,139	-68,920	-0,086	0,024
-308,124	-39,685	0,112	-0,043
-307,110	-73,099	0,119	-0,032
-306,095	-157,813	0,060	0,003
-305,080	-36,350	-0,077	-0,030
-304,066	127,309	-0,038	0,035
-303,051	27,366	-0,039	-0,024
-302,037	-200,000	0,003	-0,141
-301,022	800,000	-0,038	0,076
-300,008	-7,786	0,079	-0,039
-298,993	-159,732	0,199	0,008
-297,978	800,000	0,038	0,100
-296,964	-200,000	-0,036	0,127
-295,949	-200,000	-0,006	0,053
-294,935	-200,000	0,023	-0,111
-293,920	-0,717	-0,028	0,014
-292,905	111,690	0,058	0,051
-291,891	90,599	-0,055	0,045
-290,876	-200,000	-0,008	0,037
-289,862	-156,935	-0,011	0,001
-288,847	240,997	-0,052	-0,064
-287,832	-200,000	0,013	-0,080
-286,818	40,712	-0,072	-0,047
-285,803	648,450	0,071	0,134
-284,789	-70,352	0,054	-0,015
-283,774	66,307	0,077	-0,057
-282,759	-144,544	0,161	0,011
-281,745	35,560	0,076	-0,049
-280,730	-200,000	0,017	-0,114
-279,716	-92,955	0,111	-0,022
-278,701	-200,000	-0,009	-0,083
-277,686	-33,792	0,084	0,034
-276,672	28,868	0,100	0,062
-275,657	800,000	0,025	0,061
-274,643	-48,354	-0,051	-0,018
-273,628	7,167	-0,173	-0,094
-272,613	5,402	-0,032	-0,017
-271,599	107,213	0,115	0,100
-270,584	89,177	0,090	0,073
-269,570	-200,000	0,033	0,136
-268,555	302,778	0,035	0,047
-267,540	113,276	-0,052	-0,046
-266,526	106,281	-0,107	0,092
-265,511	-200,000	0,016	-0,070
-264,497	41,500	-0,063	-0,042
-263,482	109,301	0,046	0,040
-262,467	-110,605	0,070	-0,010
-261,453	-91,225	0,104	0,022
-260,438	208,326	0,011	-0,013
-259,424	24,638	-0,056	0,033
-258,409	15,414	-0,035	0,020
-257,395	-200,000	0,008	-0,062
-256,380	357,237	-0,024	0,035
-255,365	-200,000	0,004	-0,149
-254,351	-200,000	0,012	-0,043
-253,336	800,000	-0,032	0,087
-252,322	26,825	0,114	-0,069
-251,307	156,839	0,071	-0,071
-250,292	-133,547	-0,060	-0,005
-249,278	800,000	-0,029	0,059
-248,263	11,171	0,187	0,104
-247,249	-87,247	0,076	0,017
-246,234	800,000	0,022	-0,054
-245,219	-71,423	0,074	-0,020
-244,205	-200,000	0,013	-0,059
-243,190	140,057	0,055	-0,053
-242,176	800,000	0,033	0,081
-241,161	75,755	0,094	0,072
-240,146	800,000	-0,041	-0,099
-239,132	-71,688	-0,027	-0,007
-238,117	-35,014	-0,043	-0,017
-237,103	-13,094	-0,109	0,051
-236,088	-11,381	0,078	0,037
-235,073	-108,717	0,129	0,020
-234,059	-17,174	0,076	0,035
-233,044	-200,000	-0,016	0,064
-232,030	173,506	-0,088	0,093
-231,015	800,000	-0,062	0,152
-230,000	166,620	-0,162	0,167
-228,986	206,821	-0,031	-0,035
-227,971	-0,303	0,095	-0,049
-226,957	34,898	0,061	0,039
-225,942	188,471	0,107	-0,116
-224,927	52,398	0,079	0,055
-223,913	159,598	-0,072	-0,074
-222,898	800,000	0,028	0,063
-221,884	21,340	-0,039	0,023
-220,869	-200,000	-0,011	-0,059
-219,855	185,322	-0,021	-0,022
-218,840	-74,577	0,030	-0,008
-217,825	51,798	0,120	-0,083
-216,811	-52,435	-0,159	-0,053
-215,796	584,655	-0,073	-0,132
-214,782	546,672	-0,060	-0,104
-213,767	-116,054	-0,070	0,009
-212,752	800,000	0,049	-0,105
-211,738	-200,000	-0,013	0,154
-210,723	204,262	-0,065	0,074
-209,709	-61,705	0,069	0,021
-208,694	140,876	-0,154	0,148
-207,679	-7,820	0,120	0,059
-206,665	1,510	-0,099	0,052
-205,650	-200,000	-0,017	0,063
-204,636	296,726	-0,020	0,027
-203,621	-200,000	0,017	0,128
-202,606	-200,000	-0,000	0,052
-201,592	-44,325	-0,075	0,027
-200,577	-140,770	-0,050	-0,004
-199,563	47,981	-0,097	-0,066
-198,548	-70,091	0,060	0,017
-197,533	604,195	-0,037	0,067
-196,519	-200,000	0,030	0,099
-195,504	-200,000	0,006	-0,054
-194,490	270,958	0,046	-0,059
-193,475	-149,382	0,129	0,007
-192,460	-69,958	-0,044	-0,012
-191,446	-200,000	-0,020	-0,074
-190,431	435,098	-0,108	0,171
-189,417	384,149	-0,037	0,055
-188,402	245,937	-0,068	-0,084
-187,387	106,021	-0,136	0,117
-186,373	745,191	-0,038	-0,075
-185,358	-97,105	0,057	0,011
-184,344	-200,000	0,017	-0,089
-183,329	149,356	-0,066	-0,065
-182,315	800,000	0,014	0,036
-181,300	800,000	-0,071	-0,146
-180,285	-200,000	0,033	-0,136
-179,271	-41,911	-0,087	-0,032
-178,256	-144,598	0,062	0,004
-177,242	784,575	0,081	-0,163
-176,227	800,000	-0,037	-0,087
-175,212	-38,530	-0,037	0,014
-174,198	-200,000	-0,027	-0,102
-173,183	-200,000	0,024	0,114
-172,169	-200,000	-0,021	0,155
-171,154	-200,000	0,029	-0,146
-170,139	800,000	0,023	0,057
-169,125	-200,000	0,034	-0,130
-168,110	-7,731	0,202	-0,099
-167,096	-200,000	-0,002	-0,011
-166,081	483,456	0,026	0,043
-165,066	22,732	-0,084	0,050
-164,052	-147,823	-0,039	-0,002
-163,037	-59,768	-0,028	0,009
-162,023	166,764	-0,042	-0,044
-161,008	45,521	0,143	0,096
-159,993	233,305	0,055	0,065
-158,979	-200,000	-0,015	-0,121
-157,964	-18,526	0,054	0,024
-156,950	-20,051	0,120	0,053
-155,935	0,986	0,024	0,012
-154,920	-200,000	-0,003	-0,094
-153,906	42,574	-0,027	0,018
-152,891	125,574	-0,151	0,139
-151,877	619,279	-0,070	0,128
-150,862	-200,000	-0,013	0,079
-149,847	-200,000	0,011	-0,049
-148,833	-51,294	-0,087	-0,029
-147,818	272,101	0,088	0,113
-146,804	176,902	-0,101	0,106
-145,789	-200,000	0,012	0,045
-144,775	-4,266	0,070	0,035
-143,760	-121,105	-0,113	0,014
-142,745	-200,000	-0,011	-0,145
-141,731	-197,950	-0,068	0,000
-140,716	-200,000	-0,003	0,071
-139,702	653,622	0,063	0,119
-138,687	-116,370	0,042	-0,006
-137,672	-121,579	0,061	-0,007
-136,658	7,290	0,023	0,012
-135,643	-132,850	-0,088	-0,008
-134,629	-0,059	0,018	0,009
-133,614	91,531	0,083	0,068
-132,599	795,128	0,036	-0,073
-131,585	22,171	-0,065	0,038
-130,570	-200,000	-0,007	0,210
-129,556	800,000	0,018	-0,039
-128,541	-200,000	0,003	0,042
-127,526	-200,000	0,003	0,073
-126,512	46,430	0,084	-0,056
-125,497	-78,629	-0,113	0,028
-124,483	-200,000	-0,001	0,005
-123,468	148,125	0,061	-0,060
-122,453	96,381	-0,142	0,118
-121,439	800,000	0,053	0,144
-120,424	382,855	-0,048	0,071
-119,410	119,721	-0,086	-0,077
-118,395	-2,244	0,064	-0,032
