DTS Sentinel unit serial number:	SN410029Multiplexer serial number:	ORYXHardware model number:	OX2-SRSoftware version number:	ORYX F/W v4,00 Oryx Data Collector v3.7.2.0data status	okinstallation	B4 Nyhavnadifferential loss correction	single-endedforward channel	channel 2reverse channel	N/Adate	2023/12/18time	20:00:13forward acquisition time	300,00reverse acquisition time	0,00gamma	499,1914k internal	0,3124k external	0,3124temperature offset calibration	1,0000default loss term (dB/km)	0,3820temperature slope calibration	1,0000multiplexer offset coefficient	1,0000multiplexer slope coefficient	1,0000fibre end	0,00T internal ref (°C)	21,87T ext. ref 1 (°C)	7,07T ext. ref 2 (°C)	7,06length (m)	temperature (°C)	Stokes	anti-Stokes-744,400	211,242	0,076	-0,089
-743,385	67,153	-0,161	0,122
-742,371	-200,000	0,003	0,050
-741,356	91,959	-0,214	0,179
-740,342	-25,963	0,074	-0,032
-739,327	0,064	-0,249	0,132
-738,312	127,215	-0,058	-0,055
-737,298	-39,644	-0,360	0,140
-736,283	-200,000	-0,027	-0,104
-735,269	388,167	-0,079	0,121
-734,254	-29,322	0,086	-0,037
-733,239	-66,162	-0,386	-0,114
-732,225	71,807	0,095	0,074
-731,210	-50,176	0,078	0,027
-730,196	3,070	-0,156	-0,084
-729,181	-200,000	-0,006	0,092
-728,167	-84,875	0,011	0,003
-727,152	732,521	-0,065	-0,130
-726,137	-97,053	-0,032	-0,006
-725,123	-27,283	-0,109	0,047
-724,108	800,000	-0,072	-0,171
-723,094	-3,000	-0,094	-0,049
-722,079	-134,222	-0,127	-0,011
-721,064	-78,009	-0,208	-0,053
-720,050	-200,000	0,000	-0,006
-719,035	110,809	-0,072	0,065
-718,021	-200,000	0,012	0,119
-717,006	-5,002	-0,122	-0,062
-715,991	-67,665	-0,076	0,022
-714,977	58,165	-0,178	-0,129
-713,962	-200,000	0,014	-0,131
-712,948	800,000	-0,032	0,082
-711,933	286,928	0,023	-0,031
-710,918	-6,993	-0,096	-0,048
-709,904	-16,502	0,034	0,016
-708,889	-4,647	-0,106	-0,054
-707,875	612,141	-0,010	-0,019
-706,860	-20,151	-0,177	-0,081
-705,845	-48,786	-0,091	0,032
-704,831	800,000	-0,031	-0,101
-703,816	-200,000	0,020	-0,111
-702,802	443,664	-0,068	0,112
-701,787	-200,000	-0,003	-0,037
-700,772	-200,000	-0,013	-0,092
-699,758	210,907	-0,060	0,070
-698,743	-200,000	0,001	0,017
-697,729	-200,000	-0,015	0,089
-696,714	-200,000	0,011	0,078
-695,699	-105,108	0,093	-0,016
-694,685	-200,000	-0,035	-0,139
-693,670	-200,000	-0,018	0,095
-692,656	-104,739	-0,114	-0,019
-691,641	-200,000	0,014	-0,048
-690,627	624,149	0,043	0,082
-689,612	-73,819	0,036	-0,010
-688,597	691,167	-0,022	-0,043
-687,583	800,000	-0,021	-0,056
-686,568	-200,000	0,002	-0,107
-685,554	1,299	-0,129	-0,069
-684,539	414,990	0,041	-0,065
-683,524	788,607	0,032	0,065
-682,510	-46,518	0,065	0,024
-681,495	-142,262	-0,172	-0,012
-680,481	-126,643	-0,173	0,019
-679,466	268,637	-0,030	0,039
-678,451	572,959	-0,001	-0,002
-677,437	-200,000	-0,003	0,073
-676,422	755,620	0,047	0,096
-675,408	-74,142	0,073	0,020
-674,393	31,836	0,110	-0,071
-673,378	-200,000	-0,047	-0,158
-672,364	-200,000	-0,013	-0,161
-671,349	800,000	0,033	-0,080
-670,335	-200,000	0,012	0,097
-669,320	0,736	-0,093	-0,049
-668,305	-2,749	0,037	0,019
-667,291	196,582	-0,028	-0,032
-666,276	145,645	-0,178	-0,177
-665,262	182,623	-0,101	-0,110
-664,247	42,401	0,061	-0,041
-663,232	242,029	0,039	0,049
-662,218	-185,393	-0,010	-0,000
-661,203	-200,000	0,016	0,110
-660,189	21,659	0,024	-0,015
-659,174	800,000	-0,015	-0,033
-658,159	349,459	-0,057	-0,083
-657,145	311,177	0,105	-0,146
-656,130	-7,182	0,065	0,033
-655,116	-200,000	0,001	-0,048
-654,101	-130,861	0,126	-0,012
-653,086	800,000	-0,067	-0,206
-652,072	-200,000	-0,008	-0,130
-651,057	-132,845	-0,175	-0,016
-650,043	-159,402	-0,117	0,005
-649,028	1,072	0,120	0,064
-648,014	-200,000	0,034	-0,132
-646,999	-56,554	0,129	0,042
-645,984	204,047	-0,070	0,081
-644,970	6,876	-0,111	0,061
-643,955	18,379	0,062	-0,037
-642,941	100,361	0,105	-0,090
-641,926	339,795	-0,037	0,054
-640,911	134,014	0,021	0,021
-639,897	-200,000	-0,001	0,055
-638,882	800,000	-0,036	-0,094
-637,868	316,264	0,031	0,043
-636,853	800,000	-0,028	-0,076
-635,838	186,229	-0,091	0,100
-634,824	-115,868	-0,103	-0,014
-633,809	-27,354	0,046	0,020
-632,795	-77,500	-0,038	-0,010
-631,780	629,687	0,077	0,145
-630,765	800,000	-0,040	0,112
-629,751	-140,509	-0,044	-0,003
-628,736	-200,000	-0,007	-0,094
-627,722	-50,521	-0,043	0,015
-626,707	-133,281	-0,043	-0,004
-625,692	-200,000	0,031	0,174
-624,678	412,754	-0,085	0,134
-623,663	308,668	0,018	-0,025
-622,649	372,310	-0,047	0,072
-621,634	-5,542	-0,081	-0,041
-620,619	312,780	-0,048	-0,067
-619,605	191,834	0,047	0,053
-618,590	-36,704	-0,095	0,038
-617,576	364,468	-0,038	-0,056
-616,561	-8,684	0,072	-0,036
-615,546	-200,000	-0,022	-0,083
-614,532	-200,000	-0,003	-0,193
-613,517	800,000	0,020	0,059
-612,503	-7,305	-0,074	-0,037
-611,488	-200,000	-0,003	-0,044
-610,474	800,000	-0,017	0,041
-609,459	-200,000	0,004	0,038
-608,444	275,989	-0,037	-0,049
-607,430	-200,000	-0,023	-0,101
-606,415	131,065	-0,050	-0,048
-605,401	79,691	0,070	0,056
-604,386	800,000	-0,030	0,065
-603,371	-200,000	0,023	0,105
-602,357	-74,256	0,034	0,009
-601,342	399,611	0,091	-0,142
-600,328	-55,176	-0,120	-0,040
-599,313	-200,000	0,012	-0,147
-598,298	193,912	0,053	-0,059
-597,284	519,623	0,026	-0,045
-596,269	-82,136	0,047	-0,011
-595,255	-200,000	0,008	0,101
-594,240	9,065	0,158	0,088
-593,225	91,879	-0,093	-0,077
-592,211	800,000	0,028	-0,061
-591,196	-200,000	-0,003	-0,027
-590,182	382,906	-0,014	-0,021
-589,167	94,730	0,092	-0,077
-588,152	51,817	0,149	0,105
-587,138	-85,897	0,100	0,023
-586,123	523,486	-0,034	0,060
-585,109	9,505	-0,053	-0,029
-584,094	-148,325	-0,131	0,008
-583,079	481,986	-0,033	-0,056
-582,065	-200,000	0,002	0,041
-581,050	423,027	-0,009	-0,014
-580,036	800,000	-0,049	-0,132
-579,021	-177,361	-0,097	0,002
-578,006	266,231	-0,063	0,082
-576,992	259,736	-0,051	-0,065
-575,977	-136,627	-0,016	0,001
-574,963	449,647	0,056	0,092
-573,948	-200,000	0,020	0,125
-572,934	473,124	0,039	-0,066
-571,919	-0,521	-0,057	-0,030
-570,904	800,000	0,007	-0,020
-569,890	7,736	-0,034	0,019
-568,875	264,925	0,062	0,080
-567,861	106,039	-0,032	0,028
-566,846	-2,735	0,076	0,039
-565,831	-200,000	-0,001	0,031
-564,817	45,726	-0,049	-0,034
-563,802	86,573	0,077	-0,063
-562,788	-200,000	0,021	-0,098
-561,773	800,000	-0,022	-0,052
-560,758	800,000	-0,017	-0,055
-559,744	-71,439	0,087	-0,024
-558,729	-200,000	0,022	-0,083
-557,715	800,000	0,046	0,128
-556,700	-141,118	-0,055	0,004
-555,685	-122,489	-0,079	-0,009
-554,671	800,000	-0,025	-0,058
-553,656	173,062	0,032	-0,035
-552,642	-164,514	0,085	-0,003
-551,627	-200,000	0,009	-0,068
-550,612	37,150	0,208	0,136
-549,598	108,547	0,084	-0,074
-548,583	408,144	-0,052	0,081
-547,569	800,000	-0,026	-0,078
-546,554	-8,758	0,098	-0,048
-545,539	-43,843	-0,159	0,059
-544,525	148,274	-0,133	0,133
-543,510	164,330	-0,087	0,091
-542,496	-82,550	0,049	0,012
-541,481	-115,811	0,106	0,014
-540,466	800,000	-0,048	-0,110
-539,452	11,495	0,063	-0,035
-538,437	112,058	-0,043	0,038
-537,423	37,943	0,126	0,083
-536,408	83,475	0,064	-0,052
-535,393	800,000	0,021	-0,049
-534,379	-200,000	-0,026	-0,107
-533,364	117,600	0,062	-0,056
-532,350	-48,473	0,187	-0,066
-531,335	459,864	0,012	0,020
-530,321	-200,000	-0,011	0,110
-529,306	-112,070	-0,114	-0,017
-528,291	-5,330	0,084	0,043
-527,277	-46,216	0,039	-0,014
-526,262	325,683	-0,032	0,046
-525,248	-58,038	0,112	0,036
-524,233	347,304	-0,054	0,078
-523,218	-42,511	-0,106	0,040
-522,204	-84,683	0,024	-0,006
-521,189	-200,000	-0,012	-0,070
-520,175	800,000	-0,026	0,080
-519,160	-200,000	0,001	0,125
-518,145	-200,000	0,020	0,083
-517,131	0,626	0,105	0,055
-516,116	-200,000	0,046	0,173
-515,102	221,386	-0,067	0,080
-514,087	800,000	-0,070	-0,209
-513,072	800,000	-0,029	-0,080
-512,058	-200,000	0,035	-0,167
-511,043	-200,000	0,016	-0,064
-510,029	-78,738	0,133	-0,033
-509,014	203,497	0,059	-0,068
-507,999	-62,752	0,062	-0,019
-506,985	-200,000	0,032	-0,108
-505,970	-200,000	-0,019	-0,083
-504,956	-200,000	-0,013	-0,076
-503,941	609,202	0,047	0,086
-502,926	274,607	0,094	0,123
-501,912	117,889	-0,111	0,101
-500,897	143,483	0,089	0,088
-499,883	468,919	-0,016	0,027
-498,868	89,422	-0,006	-0,005
-497,853	529,984	-0,046	-0,081
-496,839	800,000	-0,020	-0,044
-495,824	386,252	-0,050	-0,077
-494,810	138,461	-0,085	-0,083
-493,795	-200,000	0,005	-0,117
-492,781	-20,289	-0,072	0,033
-491,766	-200,000	0,024	-0,130
-490,751	196,852	-0,071	-0,080
-489,737	-0,836	0,066	-0,034
-488,722	70,171	0,113	-0,086
-487,708	371,825	0,094	0,142
-486,693	800,000	-0,033	-0,091
-485,678	-200,000	-0,001	0,041
-484,664	311,888	-0,069	0,096
-483,649	-127,475	0,089	0,009
-482,635	614,078	0,024	0,044
-481,620	-200,000	-0,003	0,052
-480,605	9,593	-0,077	0,043
-479,591	-125,957	0,113	0,012
-478,576	-200,000	0,019	-0,108
-477,562	-200,000	-0,013	-0,070
-476,547	63,455	0,033	-0,024
-475,532	-91,736	0,078	0,016
-474,518	-94,837	0,108	-0,021
-473,503	-200,000	0,011	0,150
-472,489	59,712	0,029	0,021
-471,474	-200,000	-0,013	-0,130
-470,459	112,746	0,139	-0,124
-469,445	800,000	-0,019	-0,041
-468,430	625,823	-0,076	-0,143
-467,416	-1,619	-0,035	-0,018
-466,401	800,000	0,079	0,166
-465,386	88,987	0,038	0,031
-464,372	-141,544	-0,074	-0,005
-463,357	111,273	-0,133	-0,118
-462,343	800,000	-0,024	-0,053
-461,328	-99,217	-0,133	-0,025
-460,313	-200,000	0,015	0,126
-459,299	800,000	-0,054	0,113
-458,284	149,692	-0,024	0,024
-457,270	248,821	0,065	0,081
-456,255	800,000	-0,021	0,058
-455,241	186,007	0,019	-0,021
-454,226	800,000	0,015	-0,037
-453,211	-180,014	0,064	-0,001
-452,197	-82,605	-0,023	0,005
-451,182	800,000	-0,027	0,084
-450,168	226,595	-0,106	0,127
-449,153	800,000	0,038	0,101
-448,138	-123,204	0,042	-0,005
-447,124	14,009	0,046	-0,026
-446,109	-200,000	0,017	0,071
-445,095	800,000	-0,042	0,124
-444,080	-200,000	-0,021	-0,102
-443,065	176,204	0,016	-0,017
-442,051	-142,439	-0,125	-0,009
-441,036	-168,036	-0,096	-0,003
-440,022	-200,000	-0,034	0,138
-439,007	157,225	0,058	-0,060
-437,992	16,594	-0,053	-0,031
-436,978	70,151	0,019	-0,014
-435,963	-28,147	0,130	0,055
-434,949	161,507	0,043	0,045
-433,934	800,000	0,050	0,119
-432,919	147,465	-0,090	0,089
-431,905	46,047	0,043	0,029
-430,890	-200,000	0,019	0,101
-429,876	800,000	-0,041	0,096
-428,861	-200,000	-0,015	-0,059
-427,846	169,221	-0,067	0,070
-426,832	-200,000	-0,043	0,164
-425,817	441,836	0,051	0,082
-424,803	18,203	-0,149	-0,088
-423,788	-64,742	-0,134	0,040
-422,773	-49,600	0,108	0,038
-421,759	240,418	0,087	-0,107
-420,744	-172,318	-0,141	-0,003
-419,730	492,305	-0,061	0,103
-418,715	-143,231	0,045	0,003
-417,701	-103,324	0,059	-0,010
-416,686	-200,000	0,019	-0,176
-415,671	605,363	0,054	0,099
-414,657	800,000	-0,025	0,052
-413,642	-200,000	0,011	-0,065
-412,628	239,686	-0,046	-0,057
-411,613	229,752	0,026	-0,031
-410,598	-58,473	-0,090	0,029
-409,584	-84,588	0,036	-0,008
-408,569	14,554	-0,094	0,054
-407,555	-200,000	-0,027	0,096
-406,540	-200,000	0,029	-0,106
-405,525	800,000	-0,038	-0,081
-404,511	-93,476	0,009	-0,002
-403,496	-200,000	0,015	0,101
-402,482	-200,000	-0,001	0,009
-401,467	-116,949	0,035	-0,005
-400,452	-48,119	0,068	0,024
-399,438	800,000	-0,016	-0,037
-398,423	365,225	-0,027	-0,040
-397,409	-79,744	0,093	0,023
-396,394	197,933	-0,038	-0,043
-395,379	-200,000	-0,014	-0,131
-394,365	-200,000	-0,004	-0,089
-393,350	119,608	0,055	-0,050
-392,336	-50,654	-0,162	0,056
-391,321	-99,734	-0,086	0,016
-390,306	17,652	-0,039	0,023
-389,292	-66,122	0,091	-0,027
-388,277	800,000	0,069	-0,161
-387,263	27,993	0,118	-0,073
-386,248	-200,000	-0,013	-0,073
-385,233	203,859	0,110	0,126
-384,219	3,548	-0,075	0,040
-383,204	-200,000	-0,000	0,002
-382,190	-80,830	-0,070	0,017
-381,175	-38,499	-0,152	0,059
-380,160	-200,000	0,008	0,035
-379,146	18,104	0,067	0,039
-378,131	800,000	-0,070	0,174
-377,117	-24,361	0,046	0,020
-376,102	323,565	0,065	-0,092
-375,088	44,019	0,088	0,059
-374,073	-200,000	0,001	0,037
-373,058	-83,024	-0,105	-0,025
-372,044	-174,189	0,067	0,001
-371,029	-121,189	-0,071	-0,009
-370,015	226,196	0,138	0,165
-369,000	162,138	0,070	0,072
-367,985	193,733	-0,069	-0,077
-366,971	342,325	-0,056	0,080
-365,956	319,187	-0,090	-0,126
-364,942	-42,363	0,189	-0,070
-363,927	800,000	-0,011	0,033
-362,912	-94,594	0,086	0,017
-361,898	-138,968	-0,088	-0,007
-360,883	-46,508	-0,055	0,020
-359,869	92,939	-0,107	0,089
-358,854	352,610	-0,068	-0,099
-357,839	126,573	0,051	-0,048
-356,825	-34,745	-0,044	0,018
-355,810	86,534	0,010	-0,008
-354,796	1,090	0,040	-0,021
-353,781	800,000	-0,040	0,115
-352,766	81,556	0,042	-0,034
-351,752	-148,762	0,087	0,005
-350,737	494,240	-0,049	0,083
-349,723	20,748	0,153	0,091
-348,708	-200,000	0,008	0,103
-347,693	-166,289	-0,182	-0,006
-346,679	800,000	0,022	-0,072
-345,664	-104,742	-0,098	-0,016
-344,650	10,476	-0,075	-0,042
-343,635	800,000	0,058	0,179
-342,620	-170,497	-0,080	0,002
-341,606	124,267	0,157	0,145
-340,591	132,243	-0,048	0,045
-339,577	-200,000	-0,001	-0,052
-338,562	800,000	0,038	-0,114
-337,548	30,748	-0,044	0,028
-336,533	-31,790	0,020	0,008
-335,518	305,381	0,005	0,007
-334,504	-200,000	-0,008	-0,095
-333,489	-63,193	0,149	-0,045
-332,475	-200,000	0,001	-0,059
-331,460	370,107	-0,079	-0,118
-330,445	240,790	-0,035	-0,043
-329,431	103,068	0,087	0,075
-328,416	-123,828	-0,042	-0,005
-327,402	390,963	-0,060	0,091
-326,387	-9,965	0,029	-0,014
-325,372	-200,000	0,001	0,030
-324,358	9,540	-0,126	-0,070
-323,343	-200,000	0,001	-0,123
-322,329	232,904	0,048	-0,057
-321,314	-200,000	0,038	0,126
-320,299	195,106	0,058	0,065
-319,285	800,000	0,045	-0,111
-318,270	161,379	-0,041	0,042
-317,256	735,326	-0,027	-0,054
-316,241	515,236	0,020	0,035
-315,226	-32,643	0,129	-0,052
-314,212	-44,062	0,068	0,025
-313,197	-1,772	0,104	0,054
-312,183	-99,140	-0,075	-0,014
-311,168	101,071	0,063	0,053
-310,153	-98,480	-0,037	0,007
-309,139	-18,936	-0,073	-0,033
-308,124	207,375	0,055	-0,062
-307,110	-34,737	-0,118	-0,047
-306,095	119,951	-0,103	0,093
-305,080	-42,871	0,139	0,052
-304,066	-157,777	-0,075	0,003
-303,051	-70,672	-0,121	-0,033
-302,037	-28,007	0,079	0,033
-301,022	514,014	0,044	-0,075
-300,008	211,682	0,045	-0,052
-298,993	-103,620	0,047	0,008
-297,978	-28,307	0,037	0,016
-296,964	138,846	-0,022	0,021
-295,949	101,317	-0,031	-0,026
-294,935	-27,512	-0,082	0,035
-293,920	800,000	-0,062	0,128
-292,905	-200,000	-0,006	0,114
-291,891	321,567	0,040	0,056
-290,876	-200,000	-0,008	-0,030
-289,862	115,349	0,034	-0,030
-288,847	800,000	-0,026	-0,076
-287,832	-151,496	-0,183	0,010
-286,818	-53,295	0,027	0,009
-285,803	31,725	0,119	0,075
-284,789	-19,212	-0,041	0,018
-283,774	-154,669	-0,017	-0,001
-282,759	-200,000	0,019	-0,110
-281,745	-165,151	-0,135	0,004
-280,730	-200,000	-0,000	-0,005
-279,716	-200,000	0,000	-0,035
-278,701	128,581	0,062	-0,058
-277,686	800,000	0,004	0,008
-276,672	-200,000	-0,003	-0,012
-275,657	43,485	-0,012	0,008
-274,643	232,224	0,068	-0,082
-273,628	-15,231	0,021	0,010
-272,613	523,775	0,032	0,056
-271,599	800,000	0,037	-0,094
-270,584	-130,689	0,091	0,009
-269,570	-200,000	0,016	0,084
-268,555	-21,236	0,078	-0,035
-267,540	567,311	-0,019	-0,033
-266,526	-200,000	0,007	0,034
-265,511	800,000	-0,052	0,119
-264,497	468,013	0,044	-0,073
-263,482	-200,000	-0,021	0,137
-262,467	-54,520	0,041	0,013
-261,453	800,000	0,035	-0,101
-260,438	412,736	0,058	-0,090
-259,424	800,000	-0,069	-0,149
-258,409	800,000	0,038	-0,097
-257,395	169,475	-0,095	0,099
-256,380	8,393	0,135	0,074
-255,365	58,460	0,073	0,052
-254,351	-200,000	0,012	0,093
-253,336	-161,399	0,053	-0,002
-252,322	419,759	-0,050	-0,079
-251,307	491,817	-0,039	-0,065
-250,292	188,046	0,046	0,050
-249,278	-6,391	0,143	-0,071
-248,263	-200,000	0,003	-0,101
-247,249	623,516	0,023	-0,043
-246,234	-117,266	-0,078	0,010
-245,219	-87,348	-0,140	-0,031
-244,205	-16,373	-0,069	0,032
-243,190	-71,555	-0,123	-0,033
-242,176	800,000	0,032	-0,087
-241,161	196,603	0,072	0,080
-240,146	-107,685	-0,180	-0,028
-239,132	355,399	-0,083	-0,122
-238,117	-31,329	-0,085	-0,035
-237,103	800,000	0,046	-0,107
-236,088	800,000	0,011	-0,027
-235,073	617,561	-0,060	0,111
-234,059	-52,051	0,068	-0,023
-233,044	-200,000	0,002	-0,062
-232,030	800,000	-0,023	0,050
-231,015	-51,078	0,088	-0,030
-230,000	202,953	-0,079	-0,090
-228,986	44,479	0,017	0,011
-227,971	169,971	0,068	-0,071
-226,957	165,345	0,116	0,120
-225,942	51,764	-0,117	0,081
-224,927	800,000	0,067	-0,154
-223,913	800,000	0,027	0,056
-222,898	-122,929	0,068	-0,008
-221,884	-200,000	-0,009	0,040
-220,869	-92,340	0,170	-0,035
-219,855	435,864	-0,018	-0,028
-218,840	496,076	-0,058	0,097
-217,825	155,611	-0,060	0,060
-216,811	23,600	0,035	-0,021
-215,796	42,740	-0,162	0,108
-214,782	276,750	-0,081	-0,105
-213,767	-200,000	-0,038	0,128
-212,752	156,554	0,039	-0,040
-211,738	83,935	-0,031	0,024
-210,723	-200,000	-0,032	0,110
-209,709	-70,793	-0,113	-0,031
-208,694	-200,000	0,059	0,000
-207,679	-83,080	-0,028	0,007
-206,665	-200,000	0,006	0,112
-205,650	322,059	0,039	0,055
-204,636	800,000	-0,061	0,158
-203,621	-200,000	-0,005	0,128
-202,606	131,278	-0,047	-0,045
-201,592	-31,480	-0,115	-0,047
-200,577	-200,000	0,024	-0,124
-199,563	213,138	0,075	-0,086
-198,548	-3,762	0,049	-0,025
-197,533	242,413	-0,066	0,081
-196,519	-65,878	0,111	0,032
-195,504	800,000	0,010	-0,029
-194,490	-79,177	-0,075	0,019
-193,475	-185,241	0,108	-0,001
-192,460	26,663	-0,170	0,103
-191,446	-200,000	-0,002	-0,028
-190,431	132,454	0,076	0,071
-189,417	800,000	-0,032	0,095
-188,402	-119,941	0,058	0,007
-187,387	4,234	0,047	0,025
-186,373	165,384	0,060	0,062
-185,358	-74,094	0,089	0,023
-184,344	344,283	-0,093	-0,133
-183,329	647,984	-0,030	-0,055
-182,315	-200,000	-0,005	-0,031
-181,300	-171,998	0,037	0,001
-180,285	-101,906	-0,112	-0,019
-179,271	-125,485	-0,053	-0,006
-178,256	800,000	-0,033	-0,072
-177,242	-20,952	-0,038	0,017
-176,227	-200,000	0,022	0,093
-175,212	679,415	-0,057	-0,109
-174,198	-45,373	0,044	-0,016
-173,183	800,000	0,105	-0,231
-172,169	670,480	-0,059	-0,113
-171,154	-76,697	-0,172	0,044
-170,139	160,989	0,075	-0,076
-169,125	-46,914	0,099	-0,035
-168,110	-200,000	0,034	0,153
-167,096	-200,000	-0,005	0,149
-166,081	383,506	-0,107	-0,160
-165,066	53,329	-0,083	-0,058
-164,052	316,197	0,058	-0,081
-163,037	41,073	-0,098	-0,065
-162,023	-158,247	0,130	-0,005
-161,008	90,355	-0,052	-0,042
-159,993	-102,857	-0,071	0,012
-158,979	12,996	0,112	-0,063
-157,964	164,381	-0,096	-0,099
-156,950	-115,229	0,040	-0,006
-155,935	-60,075	0,067	-0,021
-154,920	20,782	-0,014	0,008
-153,906	-200,000	-0,009	-0,029
-152,891	159,752	-0,047	0,048
-151,877	-200,000	0,018	0,116
-150,862	-200,000	-0,031	0,117
-149,847	-200,000	-0,004	-0,109
-148,833	103,616	0,108	-0,092
-147,818	449,998	0,014	-0,023
-146,804	-128,485	0,049	-0,005
-145,789	20,061	0,052	0,031
-144,775	-200,000	-0,013	0,087
-143,760	323,766	0,037	0,051
-142,745	-109,568	-0,065	0,010
-141,731	110,715	-0,058	-0,050
-140,716	326,045	0,048	-0,067
-139,702	35,937	0,079	0,051
-138,687	-87,800	-0,142	0,031
-137,672	66,043	0,064	-0,047
-136,658	-152,878	0,158	-0,008
-135,643	-118,395	-0,147	-0,019
-134,629	-166,473	-0,098	0,003
-133,614	-200,000	-0,005	0,194
-132,599	-90,498	0,173	0,036
-131,585	-200,000	-0,006	0,106
-130,570	-200,000	0,014	-0,061
-129,556	800,000	0,041	0,112
-128,541	800,000	-0,011	0,033
-127,526	154,084	-0,010	0,010
-126,512	-200,000	-0,012	0,052
-125,497	120,097	0,032	-0,029
-124,483	371,747	0,082	0,121
-123,468	251,035	0,049	0,061
-122,453	-37,396	-0,035	0,014
-121,439	-200,000	-0,003	-0,034
-120,424	800,000	0,029	-0,070
-119,410	20,452	-0,062	-0,036
