DTS Sentinel unit serial number:	SN410029Multiplexer serial number:	ORYXHardware model number:	OX2-SRSoftware version number:	ORYX F/W v4,00 Oryx Data Collector v3.7.2.0data status	okinstallation	B4 Nyhavnadifferential loss correction	single-endedforward channel	channel 2reverse channel	N/Adate	2023/12/18time	17:50:13forward acquisition time	300,00reverse acquisition time	0,00gamma	499,1914k internal	0,3124k external	0,3124temperature offset calibration	1,0000default loss term (dB/km)	0,3820temperature slope calibration	1,0000multiplexer offset coefficient	1,0000multiplexer slope coefficient	1,0000fibre end	0,00T internal ref (°C)	21,81T ext. ref 1 (°C)	7,20T ext. ref 2 (°C)	7,22length (m)	temperature (°C)	Stokes	anti-Stokes-744,400	800,000	0,049	-0,128
-743,385	795,392	-0,068	0,141
-742,371	174,288	-0,027	0,030
-741,356	128,085	-0,195	0,185
-740,342	-103,077	0,029	0,005
-739,327	-60,320	-0,217	0,069
-738,312	-58,927	-0,116	-0,037
-737,298	-129,485	-0,283	0,029
-736,283	800,000	-0,010	0,024
-735,269	-108,431	-0,136	0,022
-734,254	800,000	0,038	-0,112
-733,239	-101,759	-0,377	-0,067
-732,225	-102,594	0,179	-0,032
-731,210	178,073	-0,053	0,058
-730,196	-200,000	0,004	-0,047
-729,181	800,000	-0,053	0,130
-728,167	-58,522	0,111	0,036
-727,152	-200,000	-0,032	0,215
-726,137	213,712	0,059	-0,070
-725,123	-200,000	0,003	-0,070
-724,108	-7,534	-0,015	-0,008
-723,094	25,634	-0,135	-0,084
-722,079	56,000	-0,043	-0,031
-721,064	70,280	-0,024	-0,018
-720,050	306,175	-0,039	-0,054
-719,035	23,927	-0,030	0,019
-718,021	59,000	0,099	-0,072
-717,006	135,891	-0,124	0,121
-715,991	800,000	-0,033	-0,082
-714,977	-200,000	-0,023	-0,093
-713,962	-74,782	0,051	0,014
-712,948	-200,000	-0,005	0,043
-711,933	-145,538	0,107	0,007
-710,918	3,764	-0,204	-0,111
-709,904	79,047	-0,129	-0,103
-708,889	17,973	-0,014	0,008
-707,875	697,972	0,017	-0,033
-706,860	-67,360	-0,030	0,009
-705,845	-200,000	-0,007	0,068
-704,831	-137,420	0,053	0,004
-703,816	281,398	0,040	0,053
-702,802	-24,723	-0,126	-0,055
-701,787	599,476	-0,055	-0,102
-700,772	-200,000	-0,028	-0,134
-699,758	-147,418	-0,126	-0,008
-698,743	196,865	-0,053	-0,060
-697,729	-104,274	0,111	0,019
-696,714	-200,000	-0,006	0,023
-695,699	8,544	0,025	-0,014
-694,685	-200,000	0,014	-0,128
-693,670	67,245	-0,159	-0,120
-692,656	-37,721	0,145	0,057
-691,641	-200,000	0,006	-0,043
-690,627	539,481	0,043	-0,077
-689,612	202,446	0,056	-0,064
-688,597	-91,876	-0,146	-0,031
-687,583	-37,941	-0,064	-0,025
-686,568	13,990	-0,087	0,050
-685,554	-8,665	-0,147	-0,073
-684,539	603,029	0,050	-0,093
-683,524	800,000	0,008	0,021
-682,510	101,530	0,049	0,042
-681,495	305,556	0,054	-0,075
-680,481	83,255	-0,047	0,038
-679,466	-105,370	0,060	-0,010
-678,451	178,370	-0,038	0,041
-677,437	-200,000	0,012	-0,157
-676,422	-200,000	-0,011	0,114
-675,408	-93,165	-0,010	-0,002
-674,393	800,000	0,041	-0,087
-673,378	-159,596	-0,234	-0,009
-672,364	761,697	-0,058	-0,117
-671,349	12,355	-0,091	0,052
-670,335	11,135	-0,070	-0,039
-669,320	-119,987	-0,139	-0,018
-668,305	-200,000	0,010	0,152
-667,291	323,696	-0,029	-0,042
-666,276	-200,000	-0,035	-0,199
-665,262	-200,000	-0,019	-0,246
-664,247	-200,000	0,004	0,035
-663,232	577,391	-0,043	-0,079
-662,218	45,668	-0,059	0,040
-661,203	-106,999	0,067	-0,011
-660,189	-200,000	0,014	0,058
-659,174	337,629	0,030	-0,043
-658,159	500,547	0,029	0,050
-657,145	800,000	-0,036	0,096
-656,130	-86,087	-0,042	0,010
-655,116	-78,656	-0,054	-0,014
-654,101	180,100	-0,025	0,027
-653,086	16,461	0,050	-0,029
-652,072	-104,599	-0,166	-0,028
-651,057	92,005	-0,053	-0,044
-650,043	-200,000	-0,050	-0,167
-649,028	-14,404	-0,083	-0,039
-648,014	-144,926	0,054	-0,004
-646,999	81,014	0,053	-0,042
-645,984	110,923	-0,154	0,137
-644,970	21,780	0,180	-0,108
-643,955	163,323	-0,060	-0,062
-642,941	-18,463	0,019	-0,009
-641,926	-200,000	-0,001	0,079
-640,911	104,597	0,029	0,026
-639,897	-200,000	0,004	-0,056
-638,882	297,950	0,123	0,168
-637,868	197,386	-0,032	-0,036
-636,853	347,020	0,023	0,033
-635,838	-200,000	0,053	-0,223
-634,824	-200,000	-0,020	-0,100
-633,809	-166,422	0,051	0,002
-632,795	364,079	0,074	-0,111
-631,780	-200,000	0,000	0,073
-630,765	-55,759	-0,100	0,033
-629,751	156,906	-0,085	-0,087
-628,736	163,929	0,057	-0,060
-627,722	-148,597	-0,121	-0,007
-626,707	800,000	-0,017	0,053
-625,692	511,167	0,080	0,139
-624,678	194,067	-0,099	-0,112
-623,663	-200,000	-0,032	-0,174
-622,649	125,068	-0,134	-0,126
-621,634	-64,291	-0,146	0,044
-620,619	-14,365	0,030	-0,014
-619,605	-15,242	0,036	-0,017
-618,590	-73,343	-0,075	0,020
-617,576	42,566	0,104	0,070
-616,561	9,403	-0,127	0,071
-615,546	242,518	-0,036	-0,044
-614,532	800,000	-0,041	-0,084
-613,517	25,768	-0,078	-0,048
-612,503	-130,436	-0,093	-0,009
-611,488	-83,951	0,085	0,020
-610,474	696,196	-0,026	-0,050
-609,459	-200,000	0,000	0,095
-608,444	27,961	0,040	0,025
-607,430	195,652	-0,103	-0,116
-606,415	-139,502	-0,057	0,004
-605,401	84,400	-0,013	-0,010
-604,386	-119,060	0,021	0,003
-603,371	-169,841	0,089	-0,002
-602,357	172,688	0,029	-0,031
-601,342	-103,606	0,050	0,009
-600,328	184,439	-0,069	0,075
-599,313	166,213	0,005	-0,006
-598,298	157,001	-0,047	-0,048
-597,284	188,715	0,060	0,067
-596,269	-200,000	0,032	0,118
-595,255	158,832	0,084	0,086
-594,240	-200,000	-0,029	-0,130
-593,225	434,429	0,068	-0,110
-592,211	-53,955	-0,036	-0,012
-591,196	-200,000	-0,037	0,000
-590,182	80,341	0,018	0,014
-589,167	158,548	0,072	0,074
-588,152	-200,000	0,023	0,092
-587,138	59,771	-0,124	0,090
-586,123	-39,980	-0,130	0,050
-585,109	-200,000	0,003	0,046
-584,094	800,000	-0,025	-0,077
-583,079	800,000	-0,024	-0,053
-582,065	-200,000	0,004	-0,041
-581,050	-200,000	-0,004	-0,019
-580,036	327,081	0,044	-0,062
-579,021	-72,541	-0,055	0,015
-578,006	352,801	-0,031	-0,045
-576,992	-10,060	-0,082	-0,040
-575,977	800,000	0,040	-0,096
-574,963	-53,870	-0,061	-0,020
-573,948	-200,000	0,000	0,034
-572,934	-200,000	-0,029	0,120
-571,919	-42,572	-0,130	-0,049
-570,904	-71,459	-0,131	-0,036
-569,890	181,631	0,061	-0,066
-568,875	389,857	0,005	0,008
-567,861	80,422	0,085	-0,068
-566,846	-12,680	0,121	-0,058
-565,831	35,664	-0,052	-0,034
-564,817	-9,940	-0,033	-0,016
-563,802	104,891	0,031	0,027
-562,788	-68,433	-0,054	0,015
-561,773	-21,467	0,054	-0,024
-560,758	40,219	0,098	-0,065
-559,744	-61,035	-0,203	-0,063
-558,729	350,201	-0,057	0,083
-557,715	-200,000	0,023	0,085
-556,700	69,195	0,048	-0,037
-555,685	-34,169	-0,030	0,012
-554,671	435,294	0,082	-0,132
-553,656	11,518	-0,147	0,083
-552,642	337,498	0,067	0,096
-551,627	80,659	0,062	0,050
-550,612	800,000	0,035	-0,105
-549,598	-200,000	0,012	-0,132
-548,583	800,000	0,027	-0,076
-547,569	-200,000	0,021	-0,076
-546,554	35,770	0,023	-0,015
-545,539	690,921	-0,043	0,083
-544,525	517,076	-0,021	0,036
-543,510	-200,000	-0,027	-0,127
-542,496	-200,000	0,008	-0,071
-541,481	-200,000	0,006	-0,147
-540,466	-18,651	-0,030	0,014
-539,452	-200,000	0,011	-0,048
-538,437	-200,000	0,005	-0,059
-537,423	146,986	-0,020	-0,020
-536,408	776,684	0,046	-0,094
-535,393	-25,930	-0,070	0,030
-534,379	-200,000	-0,007	0,044
-533,364	46,240	-0,045	-0,031
-532,350	-200,000	0,013	0,173
-531,335	-107,953	0,064	-0,010
-530,321	93,144	0,057	-0,048
-529,306	-141,131	0,015	0,001
-528,291	-200,000	0,002	-0,023
-527,277	-153,698	-0,083	-0,004
-526,262	-141,259	0,154	0,011
-525,248	71,102	0,098	0,075
-524,233	800,000	0,010	0,020
-523,218	-200,000	-0,003	0,069
-522,204	181,139	-0,027	0,029
-521,189	-93,421	-0,192	0,039
-520,175	-200,000	0,025	-0,133
-519,160	238,689	0,068	-0,083
-518,145	-200,000	0,024	-0,100
-517,131	-135,645	0,155	0,013
-516,116	303,881	-0,054	0,074
-515,102	-43,433	-0,186	0,069
-514,087	-157,518	0,076	0,003
-513,072	-200,000	0,025	0,083
-512,058	-81,474	0,086	0,021
-511,043	47,792	-0,077	-0,053
-510,029	74,404	0,018	-0,014
-509,014	-83,213	0,153	-0,036
-507,999	-200,000	0,003	0,083
-506,985	96,809	0,161	0,136
-505,970	-200,000	-0,028	-0,105
-504,956	33,101	0,057	-0,036
-503,941	-200,000	0,007	-0,056
-502,926	-76,024	0,084	0,022
-501,912	800,000	-0,010	-0,025
-500,897	-200,000	-0,025	0,091
-499,883	48,245	0,066	0,046
-498,868	-13,661	-0,132	0,063
-497,853	-200,000	-0,002	-0,010
-496,839	-200,000	-0,024	-0,089
-495,824	-39,182	-0,055	-0,021
-494,810	653,064	-0,049	0,092
-493,795	-141,207	0,056	-0,004
-492,781	-3,511	0,077	-0,039
-491,766	727,659	0,009	0,017
-490,751	-173,575	-0,132	-0,003
-489,737	-125,913	0,126	0,014
-488,722	800,000	-0,043	0,127
-487,708	704,445	0,047	-0,092
-486,693	-200,000	-0,010	-0,109
-485,678	-11,705	-0,050	0,024
-484,664	-78,111	-0,059	0,015
-483,649	-93,085	-0,194	-0,040
-482,635	226,877	0,034	0,041
-481,620	-59,710	0,031	-0,010
-480,605	95,134	0,125	0,105
-479,591	141,232	-0,043	0,042
-478,576	160,162	-0,059	0,061
-477,562	-200,000	0,000	-0,164
-476,547	-200,000	-0,012	-0,209
-475,532	-200,000	-0,005	-0,133
-474,518	-39,295	0,097	0,037
-473,503	-200,000	-0,008	0,134
-472,489	88,789	0,123	0,101
-471,474	443,297	0,038	-0,062
-470,459	520,200	0,030	-0,051
-469,445	-46,844	0,026	0,009
-468,430	-25,424	-0,072	-0,031
-467,416	740,423	0,097	0,194
-466,401	-98,831	-0,133	-0,025
-465,386	171,585	0,046	0,049
-464,372	19,898	0,092	-0,054
-463,357	23,927	-0,123	0,075
-462,343	-200,000	-0,044	-0,159
-461,328	118,100	-0,045	0,041
-460,313	800,000	-0,067	-0,164
-459,299	131,673	-0,090	-0,086
-458,284	-92,747	-0,083	-0,017
-457,270	328,422	0,034	0,048
-456,255	-200,000	0,001	-0,012
-455,241	565,384	0,029	-0,051
-454,226	-133,569	-0,118	0,011
-453,211	360,033	0,090	0,134
-452,197	-200,000	0,004	0,069
-451,182	-26,801	0,039	-0,017
-450,168	-23,016	-0,006	-0,003
-449,153	144,432	-0,071	-0,070
-448,138	800,000	0,038	-0,117
-447,124	-2,625	0,054	0,028
-446,109	-165,949	0,030	0,001
-445,095	-200,000	0,031	0,136
-444,080	441,989	0,047	0,076
-443,065	78,356	-0,043	-0,034
-442,051	24,957	-0,088	-0,053
-441,036	414,693	0,048	0,076
-440,022	-19,912	0,086	-0,039
-439,007	424,002	-0,043	-0,068
-437,992	15,165	-0,095	-0,054
-436,978	478,801	0,044	0,074
-435,963	-200,000	0,156	0,000
-434,949	507,177	-0,033	0,056
-433,934	800,000	0,010	0,026
-432,919	800,000	0,027	-0,085
-431,905	-200,000	0,020	-0,098
-430,890	800,000	0,034	-0,100
-429,876	381,872	-0,039	0,060
-428,861	243,472	0,051	-0,063
-427,846	-123,420	-0,099	-0,012
-426,832	800,000	0,028	-0,058
-425,817	64,006	-0,133	-0,098
-424,803	154,219	-0,027	-0,027
-423,788	-200,000	-0,028	0,122
-422,773	-62,270	-0,018	-0,005
-421,759	143,184	-0,048	0,047
-420,744	47,170	-0,076	0,052
-419,730	-200,000	-0,010	0,092
-418,715	229,934	-0,086	-0,104
-417,701	199,035	0,048	0,054
-416,686	-200,000	0,012	0,141
-415,671	-82,112	0,084	0,020
-414,657	7,101	0,107	0,059
-413,642	-67,493	0,162	-0,046
-412,628	5,379	-0,049	-0,026
-411,613	434,804	-0,027	0,044
-410,598	-51,835	0,047	0,016
-409,584	-100,972	-0,099	-0,018
-408,569	-116,199	-0,017	0,002
-407,555	-200,000	0,002	-0,117
-406,540	160,622	0,104	-0,107
-405,525	96,286	-0,083	-0,070
-404,511	272,337	0,042	-0,055
-403,496	672,090	-0,034	0,065
-402,482	-100,451	0,048	0,009
-401,467	81,156	0,119	0,095
-400,452	-200,000	0,006	-0,136
-399,438	-200,000	0,042	-0,154
-398,423	-15,170	-0,130	-0,061
-397,409	378,390	0,064	0,096
-396,394	552,065	0,017	0,030
-395,379	800,000	-0,026	0,064
-394,365	739,142	0,047	0,093
-393,350	-26,559	0,088	0,038
-392,336	800,000	0,030	-0,095
-391,321	4,912	0,084	-0,045
-390,306	113,436	-0,092	-0,082
-389,292	800,000	-0,005	-0,017
-388,277	800,000	0,085	0,273
-387,263	-81,886	0,098	-0,023
-386,248	-154,858	0,096	0,005
-385,233	533,661	0,006	0,011
-384,219	203,137	-0,043	-0,049
-383,204	494,717	0,036	-0,062
-382,190	-58,529	0,078	-0,025
-381,175	236,208	0,039	-0,048
-380,160	189,583	-0,044	-0,048
-379,146	-200,000	0,025	-0,108
-378,131	800,000	-0,031	0,068
-377,117	89,573	0,120	0,098
-376,102	-68,099	0,129	0,037
-375,088	140,297	-0,100	0,097
-374,073	-43,345	0,043	0,016
-373,058	-200,000	-0,001	-0,036
-372,044	-189,726	-0,073	-0,001
-371,029	-200,000	0,029	0,144
-370,015	-70,606	0,077	-0,021
-369,000	-200,000	-0,012	0,097
-367,985	245,653	-0,071	-0,088
-366,971	-125,042	-0,053	0,006
-365,956	-21,044	0,033	0,015
-364,942	800,000	0,018	-0,051
-363,927	220,149	0,056	0,067
-362,912	-200,000	-0,053	-0,173
-361,898	800,000	0,027	-0,086
-360,883	800,000	0,043	-0,134
-359,869	409,571	0,096	0,150
-358,854	-176,909	-0,056	0,001
-357,839	284,325	0,068	0,090
-356,825	159,049	-0,040	0,041
-355,810	224,217	-0,069	0,082
-354,796	168,731	-0,041	-0,043
-353,781	-75,647	-0,178	0,046
-352,766	-102,815	0,041	0,007
-351,752	179,420	0,049	-0,053
-350,737	800,000	-0,035	0,105
-349,723	-200,000	-0,002	0,020
-348,708	242,239	0,099	0,122
-347,693	-200,000	-0,003	0,046
-346,679	-107,127	-0,142	0,023
-345,664	-200,000	-0,001	-0,040
-344,650	-200,000	0,001	0,054
-343,635	258,896	-0,062	-0,079
-342,620	1,539	0,036	0,019
-341,606	85,261	-0,069	0,055
-340,591	-200,000	-0,013	-0,064
-339,577	-200,000	0,007	-0,053
-338,562	-200,000	0,003	0,027
-337,548	-102,374	0,086	0,015
-336,533	40,112	-0,079	0,052
-335,518	170,553	0,064	0,067
-334,504	-164,828	0,102	-0,003
-333,489	-56,195	-0,073	-0,024
-332,475	-19,991	-0,089	0,040
-331,460	620,418	0,036	0,066
-330,445	-45,891	0,019	0,007
-329,431	-25,332	-0,048	0,021
-328,416	-68,554	-0,076	-0,021
-327,402	48,407	0,020	-0,014
-326,387	800,000	0,073	-0,179
-325,372	-132,437	-0,077	-0,007
-324,358	225,782	-0,116	-0,138
-323,343	-119,943	0,018	-0,002
-322,329	-200,000	-0,007	0,025
-321,314	-182,980	-0,080	0,001
-320,299	208,918	-0,049	0,057
-319,285	262,255	0,049	-0,063
-318,270	-200,000	0,005	-0,042
-317,256	102,210	-0,221	-0,190
-316,241	117,342	0,118	0,106
-315,226	-5,609	0,124	0,062
-314,212	-27,130	-0,037	-0,016
-313,197	27,750	0,097	0,060
-312,183	-131,569	0,101	0,010
-311,168	800,000	-0,022	0,064
-310,153	399,039	-0,036	-0,056
-309,139	800,000	0,013	-0,032
-308,124	-200,000	-0,023	0,153
-307,110	668,054	0,056	0,106
-306,095	239,060	0,009	0,011
-305,080	-200,000	-0,012	0,126
-304,066	-6,413	-0,156	-0,078
-303,051	81,365	0,089	-0,071
-302,037	-200,000	-0,010	0,053
-301,022	-50,057	-0,094	-0,032
-300,008	-19,813	0,142	-0,064
-298,993	119,421	-0,076	0,069
-297,978	121,730	0,120	0,109
-296,964	302,370	0,077	-0,105
-295,949	87,096	0,088	-0,071
-294,935	-65,692	-0,173	-0,050
-293,920	-200,000	0,015	0,063
-292,905	19,654	-0,049	0,029
-291,891	183,327	0,029	0,031
-290,876	-200,000	0,011	0,036
-289,862	282,703	-0,050	0,065
-288,847	-87,885	-0,124	-0,027
-287,832	6,038	0,121	0,065
-286,818	653,409	0,054	0,101
-285,803	368,837	0,049	-0,072
-284,789	800,000	-0,004	0,008
-283,774	105,501	-0,050	0,044
-282,759	13,005	0,040	-0,023
-281,745	17,967	0,078	0,046
-280,730	800,000	0,066	-0,154
-279,716	326,289	0,027	-0,038
-278,701	800,000	-0,039	0,105
-277,686	26,993	0,252	0,154
-276,672	-123,523	0,100	-0,012
-275,657	81,241	-0,021	0,017
-274,643	-200,000	-0,000	0,057
-273,628	-200,000	-0,004	-0,132
-272,613	-200,000	-0,013	-0,048
-271,599	-2,104	0,092	-0,047
-270,584	37,464	-0,078	-0,050
-269,570	-200,000	-0,034	0,125
-268,555	-30,186	-0,063	0,026
-267,540	-200,000	-0,006	-0,109
-266,526	-200,000	0,021	-0,090
-265,511	138,311	0,019	0,018
-264,497	127,109	-0,098	0,091
-263,482	137,899	-0,100	0,095
-262,467	-95,016	0,083	0,016
-261,453	-6,918	0,029	0,014
-260,438	-200,000	0,003	0,056
-259,424	597,145	-0,096	0,175
-258,409	800,000	0,011	0,030
-257,395	398,441	-0,031	0,048
-256,380	737,979	0,079	0,157
-255,365	-124,103	0,061	-0,007
-254,351	-58,396	-0,151	0,048
-253,336	-94,738	-0,123	-0,024
-252,322	-24,984	0,059	-0,026
-251,307	800,000	0,047	-0,136
-250,292	419,663	-0,058	-0,091
-249,278	20,969	0,014	-0,008
-248,263	-200,000	-0,012	-0,117
-247,249	-200,000	-0,003	-0,071
-246,234	-200,000	-0,001	0,047
-245,219	369,828	0,044	0,065
-244,205	800,000	-0,039	-0,087
-243,190	-200,000	0,021	0,080
-242,176	95,955	-0,114	0,095
-241,161	-200,000	0,002	0,209
-240,146	800,000	0,033	0,087
-239,132	-111,711	-0,058	0,008
-238,117	-200,000	0,038	-0,178
-237,103	-152,839	0,075	-0,004
-236,088	-200,000	-0,002	-0,133
-235,073	800,000	-0,022	-0,064
-234,059	800,000	0,049	-0,146
-233,044	800,000	-0,012	-0,038
-232,030	-69,600	-0,024	0,007
-231,015	800,000	-0,067	0,160
-230,000	-86,473	-0,059	-0,013
-228,986	165,305	-0,026	0,027
-227,971	-200,000	0,007	0,084
-226,957	212,799	-0,028	0,032
-225,942	347,433	0,044	0,063
-224,927	142,142	-0,063	0,061
-223,913	-49,376	-0,071	-0,024
-222,898	129,257	0,115	-0,107
-221,884	1,269	-0,080	0,042
-220,869	800,000	0,053	0,132
-219,855	800,000	-0,031	0,084
-218,840	329,052	0,123	0,173
-217,825	-26,421	0,062	-0,027
-216,811	-124,400	0,096	-0,011
-215,796	-25,705	-0,112	-0,048
-214,782	162,279	0,054	-0,055
-213,767	-200,000	-0,012	0,111
-212,752	584,939	0,015	0,028
-211,738	-68,734	-0,011	0,003
-210,723	17,725	-0,078	-0,045
-209,709	-200,000	0,005	0,023
-208,694	61,963	0,101	-0,074
-207,679	24,527	-0,050	0,030
-206,665	77,940	-0,024	-0,019
-205,650	293,129	0,136	0,182
-204,636	800,000	0,027	0,059
-203,621	0,671	0,090	-0,047
-202,606	302,107	-0,084	-0,114
-201,592	101,917	-0,058	0,050
-200,577	-25,339	-0,060	0,026
-199,563	-93,942	0,177	-0,035
-198,548	134,088	0,069	0,066
-197,533	391,492	-0,025	-0,038
-196,519	-200,000	0,017	-0,158
-195,504	9,196	-0,091	0,050
-194,490	-200,000	-0,017	0,125
-193,475	800,000	-0,047	-0,108
-192,460	361,531	-0,114	-0,167
-191,446	329,677	-0,035	-0,050
-190,431	-200,000	-0,000	0,120
-189,417	-127,491	0,149	-0,016
-188,402	-175,584	-0,081	-0,002
-187,387	-56,387	-0,089	-0,029
-186,373	-121,987	0,073	-0,009
-185,358	24,714	-0,065	0,039
-184,344	-46,291	0,119	0,042
-183,329	-108,581	0,148	-0,023
-182,315	-70,965	0,142	-0,039
-181,300	209,859	-0,082	-0,094
-180,285	-200,000	0,000	0,120
-179,271	82,199	-0,079	-0,063
-178,256	423,643	-0,019	-0,030
-177,242	-79,921	-0,082	0,020
-176,227	185,410	0,056	-0,060
-175,212	-32,235	0,113	-0,046
-174,198	-44,992	-0,069	0,025
-173,183	-149,083	-0,104	-0,006
-172,169	106,315	-0,136	-0,117
-171,154	153,855	-0,134	0,134
-170,139	-200,000	-0,011	0,062
-169,125	205,292	0,069	0,078
-168,110	-3,386	-0,111	-0,056
-167,096	-27,025	0,106	-0,045
-166,081	-200,000	0,017	0,085
-165,066	-200,000	-0,000	0,010
-164,052	-67,249	-0,086	-0,024
-163,037	800,000	0,040	0,122
-162,023	-13,150	0,164	0,078
-161,008	-143,658	0,104	0,007
-159,993	-50,967	-0,100	0,034
-158,979	-192,279	-0,088	0,001
-157,964	81,169	-0,066	-0,052
-156,950	-188,868	-0,044	-0,000
-155,935	-67,529	0,124	0,035
-154,920	-200,000	-0,024	0,127
-153,906	-24,709	0,052	0,023
-152,891	451,955	-0,037	-0,060
-151,877	-30,158	0,077	0,032
-150,862	-200,000	0,000	0,016
-149,847	-72,178	-0,057	-0,015
-148,833	-22,986	0,090	-0,039
-147,818	-200,000	-0,008	-0,078
-146,804	-200,000	0,047	0,158
-145,789	587,687	0,084	0,151
-144,775	207,443	0,005	-0,006
-143,760	800,000	0,035	0,084
-142,745	-102,723	-0,100	-0,017
-141,731	23,169	-0,091	-0,054
-140,716	505,398	0,033	0,056
-139,702	800,000	0,008	-0,023
-138,687	-11,656	-0,135	0,064
-137,672	-77,447	-0,100	-0,025
-136,658	-15,253	0,057	0,026
-135,643	-49,581	-0,094	-0,032
-134,629	800,000	-0,047	0,099
-133,614	-70,605	-0,064	0,018
-132,599	-38,159	0,083	-0,032
-131,585	-200,000	-0,000	0,053
-130,570	96,325	0,047	0,039
-129,556	25,373	-0,017	0,010
-128,541	301,487	-0,126	-0,170
-127,526	288,328	0,039	-0,052
-126,512	-62,488	-0,050	0,015
-125,497	55,320	0,065	0,046
-124,483	416,863	0,065	0,101
-123,468	781,718	-0,050	0,100
-122,453	-143,874	-0,106	-0,007
-121,439	100,539	0,106	0,090
-120,424	-200,000	-0,035	0,177
-119,410	19,469	0,148	0,086
