DTS Sentinel unit serial number:	SN410029Multiplexer serial number:	ORYXHardware model number:	OX2-SRSoftware version number:	ORYX F/W v4,00 Oryx Data Collector v3.7.2.0data status	okinstallation	B4 Nyhavnadifferential loss correction	single-endedforward channel	channel 2reverse channel	N/Adate	2023/12/16time	05:05:13forward acquisition time	300,00reverse acquisition time	0,00gamma	499,1914k internal	0,3127k external	0,3127temperature offset calibration	1,0000default loss term (dB/km)	0,3820temperature slope calibration	1,0000multiplexer offset coefficient	1,0000multiplexer slope coefficient	1,0000fibre end	0,00T internal ref (°C)	22,06T ext. ref 1 (°C)	7,17T ext. ref 2 (°C)	7,36length (m)	temperature (°C)	Stokes	anti-Stokes-744,400	350,387	-0,026	0,038
-743,385	-129,178	-0,255	0,026
-742,371	-19,033	0,077	-0,036
-741,356	86,489	-0,303	0,248
-740,342	314,728	0,041	-0,058
-739,327	21,456	-0,171	0,103
-738,312	180,319	-0,065	-0,071
-737,298	51,640	-0,168	0,119
-736,283	-200,000	0,009	-0,036
-735,269	-99,042	-0,301	0,056
-734,254	800,000	-0,023	-0,062
-733,239	-131,920	-0,343	-0,033
-732,225	14,539	0,176	-0,102
-731,210	203,914	-0,045	-0,052
-730,196	359,055	0,083	0,124
-729,181	159,887	-0,071	-0,074
-728,167	138,894	0,078	-0,076
-727,152	-89,585	-0,146	-0,032
-726,137	116,193	-0,107	-0,098
-725,123	102,120	-0,079	0,069
-724,108	539,358	-0,103	-0,183
-723,094	192,653	0,019	-0,021
-722,079	27,440	-0,090	-0,056
-721,064	-176,193	-0,019	0,000
-720,050	393,742	0,087	-0,136
-719,035	-2,675	0,113	0,059
-718,021	-25,975	-0,120	-0,052
-717,006	-200,000	-0,019	0,121
-715,991	87,779	0,039	-0,032
-714,977	-108,958	-0,081	0,013
-713,962	-200,000	0,021	-0,131
-712,948	-58,819	0,056	-0,018
-711,933	-83,066	0,106	-0,025
-710,918	394,116	-0,040	0,063
-709,904	800,000	-0,057	-0,133
-708,889	-200,000	-0,002	-0,086
-707,875	-68,745	-0,185	-0,053
-706,860	800,000	-0,012	0,040
-705,845	-200,000	0,015	-0,174
-704,831	-87,650	0,034	0,007
-703,816	800,000	-0,012	0,036
-702,802	7,267	0,032	-0,017
-701,787	787,396	0,066	-0,136
-700,772	-135,497	-0,039	0,003
-699,758	216,661	0,079	0,094
-698,743	57,484	-0,096	-0,069
-697,729	800,000	-0,010	-0,024
-696,714	-200,000	0,019	0,110
-695,699	69,857	-0,068	0,052
-694,685	165,163	-0,096	-0,100
-693,670	800,000	-0,034	-0,086
-692,656	599,065	-0,038	0,070
-691,641	25,256	0,052	0,032
-690,627	-200,000	0,017	0,108
-689,612	-200,000	0,005	-0,077
-688,597	800,000	-0,074	-0,164
-687,583	19,617	-0,078	-0,046
-686,568	-200,000	-0,003	0,043
-685,554	4,301	-0,174	-0,094
-684,539	17,720	-0,067	0,039
-683,524	86,835	0,118	-0,097
-682,510	-131,005	-0,109	0,011
-681,495	666,076	-0,066	-0,127
-680,481	-200,000	-0,002	-0,223
-679,466	-200,000	-0,011	-0,099
-678,451	56,606	-0,084	-0,061
-677,437	626,497	0,013	0,025
-676,422	-125,433	0,187	0,021
-675,408	-200,000	0,034	0,166
-674,393	-139,524	-0,153	-0,012
-673,378	-97,550	0,092	0,018
-672,364	8,051	-0,124	-0,069
-671,349	-200,000	-0,040	-0,161
-670,335	684,639	0,085	-0,166
-669,320	-175,298	0,281	-0,006
-668,305	50,458	0,033	0,023
-667,291	382,047	-0,090	0,138
-666,276	-181,945	0,091	-0,001
-665,262	717,384	-0,050	-0,100
-664,247	-134,781	0,080	-0,007
-663,232	-103,548	-0,161	0,028
-662,218	-200,000	0,019	-0,066
-661,203	170,492	-0,044	-0,047
-660,189	800,000	0,051	0,157
-659,174	38,945	-0,064	-0,042
-658,159	-68,952	-0,040	0,011
-657,145	609,364	-0,011	-0,021
-656,130	-200,000	0,018	-0,073
-655,116	-131,087	0,048	0,005
-654,101	800,000	0,018	-0,048
-653,086	-66,366	0,062	0,018
-652,072	164,222	-0,088	-0,092
-651,057	437,203	0,012	-0,020
-650,043	51,506	0,016	-0,011
-649,028	-200,000	-0,002	-0,011
-648,014	13,344	-0,169	-0,097
-646,999	454,425	-0,032	0,052
-645,984	800,000	0,029	0,077
-644,970	452,644	-0,030	-0,049
-643,955	800,000	-0,031	0,077
-642,941	-7,509	-0,039	0,020
-641,926	800,000	-0,006	-0,015
-640,911	149,353	0,008	0,008
-639,897	800,000	0,040	-0,089
-638,882	-69,130	-0,038	0,011
-637,868	203,243	0,052	0,060
-636,853	179,162	-0,098	-0,106
-635,838	264,258	0,017	-0,022
-634,824	31,056	-0,095	-0,060
-633,809	-200,000	-0,005	0,093
-632,795	800,000	0,016	0,037
-631,780	230,708	-0,053	0,065
-630,765	800,000	0,033	0,071
-629,751	-200,000	-0,000	-0,074
-628,736	209,240	-0,018	-0,021
-627,722	-200,000	0,004	-0,111
-626,707	800,000	0,054	-0,131
-625,692	800,000	0,038	0,101
-624,678	-132,566	0,086	0,008
-623,663	294,903	-0,055	-0,075
-622,649	164,719	-0,027	-0,029
-621,634	182,350	0,070	-0,077
-620,619	-200,000	-0,007	-0,063
-619,605	208,940	-0,065	0,076
-618,590	-200,000	-0,014	0,129
-617,576	-200,000	0,008	0,075
-616,561	287,454	-0,085	0,114
-615,546	800,000	-0,029	-0,066
-614,532	-36,242	0,073	-0,029
-613,517	800,000	-0,025	-0,079
-612,503	32,843	0,079	-0,050
-611,488	-200,000	0,119	-0,000
-610,474	-175,932	0,101	0,002
-609,459	124,230	-0,085	0,079
-608,444	409,540	-0,055	-0,087
-607,430	800,000	0,038	-0,092
-606,415	310,343	-0,019	0,026
-605,401	-87,348	0,225	0,050
-604,386	-102,750	0,085	0,015
-603,371	-9,150	-0,025	0,013
-602,357	-30,702	-0,142	-0,059
-601,342	407,025	0,007	0,011
-600,328	12,116	-0,120	-0,068
-599,313	-88,424	-0,073	-0,016
-598,298	596,375	0,039	-0,072
-597,284	412,989	0,090	0,143
-596,269	-95,330	-0,069	-0,014
-595,255	-200,000	-0,023	0,085
-594,240	11,388	-0,135	0,076
-593,225	-200,000	-0,000	-0,009
-592,211	-125,762	-0,039	-0,004
-591,196	800,000	0,032	0,089
-590,182	-200,000	-0,001	0,035
-589,167	-15,542	-0,125	0,059
-588,152	800,000	0,021	0,046
-587,138	-200,000	0,006	0,132
-586,123	16,726	0,058	-0,034
-585,109	-200,000	-0,007	-0,055
-584,094	-107,327	0,089	0,014
-583,079	800,000	0,015	-0,037
-582,065	-200,000	0,042	0,176
-581,050	-61,925	-0,110	-0,034
-580,036	501,718	0,010	0,017
-579,021	-16,769	0,027	0,013
-578,006	46,922	-0,149	0,102
-576,992	16,378	-0,036	-0,021
-575,977	-86,065	0,071	0,016
-574,963	800,000	0,095	0,222
-573,948	-28,191	-0,143	0,061
-572,934	184,796	-0,033	-0,036
-571,919	117,870	-0,034	0,031
-570,904	800,000	-0,031	-0,069
-569,890	132,737	-0,031	0,030
-568,875	110,341	0,019	0,017
-567,861	-200,000	0,006	0,105
-566,846	132,649	0,062	-0,059
-565,831	357,635	0,003	0,004
-564,817	225,203	-0,083	-0,099
-563,802	38,128	-0,137	-0,090
-562,788	-200,000	0,011	0,099
-561,773	93,407	0,096	-0,080
-560,758	122,597	0,119	0,110
-559,744	2,244	-0,084	0,045
-558,729	-137,986	0,123	0,010
-557,715	800,000	-0,022	-0,057
-556,700	129,180	0,031	-0,030
-555,685	-28,482	0,107	-0,046
-554,671	260,757	0,073	0,094
-553,656	110,502	-0,053	-0,047
-552,642	-200,000	0,040	0,134
-551,627	-200,000	0,014	-0,083
-550,612	800,000	0,036	0,106
-549,598	-200,000	-0,030	-0,099
-548,583	-104,858	-0,088	-0,015
-547,569	-200,000	0,013	-0,057
-546,554	-200,000	0,002	-0,127
-545,539	-200,000	-0,035	-0,138
-544,525	616,105	-0,074	0,137
-543,510	284,551	-0,061	0,082
-542,496	-14,097	-0,071	0,034
-541,481	-200,000	-0,013	-0,050
-540,466	444,047	-0,033	0,054
-539,452	-140,374	0,034	-0,003
-538,437	-85,552	0,115	-0,026
-537,423	285,560	-0,033	-0,045
-536,408	108,916	-0,126	-0,111
-535,393	-28,336	-0,160	-0,068
-534,379	331,693	-0,034	-0,048
-533,364	54,320	-0,067	0,048
-532,350	-44,107	-0,086	-0,032
-531,335	800,000	-0,038	0,086
-530,321	151,826	0,009	-0,009
-529,306	-39,434	0,131	-0,051
-528,291	-200,000	-0,005	-0,098
-527,277	800,000	0,015	-0,041
-526,262	-200,000	-0,050	-0,174
-525,248	250,267	0,042	-0,053
-524,233	401,727	0,041	-0,064
-523,218	121,808	-0,040	0,037
-522,204	652,367	0,043	0,081
-521,189	-142,852	0,044	0,003
-520,175	-89,762	-0,082	-0,018
-519,160	197,773	-0,063	-0,071
-518,145	-200,000	-0,008	-0,131
-517,131	49,402	0,055	0,038
-516,116	27,619	0,019	0,012
-515,102	-24,299	-0,075	-0,033
-514,087	-130,699	0,129	0,013
-513,072	-69,656	-0,107	-0,030
-512,058	2,132	0,012	-0,007
-511,043	143,670	0,037	0,036
-510,029	66,684	0,096	0,072
-509,014	22,946	-0,069	0,042
-507,999	307,811	-0,052	-0,071
-506,985	-200,000	-0,018	-0,076
-505,970	-99,664	-0,076	-0,014
-504,956	82,518	0,066	-0,053
-503,941	-200,000	0,007	-0,064
-502,926	31,527	0,113	-0,071
-501,912	471,219	-0,069	-0,115
-500,897	-33,256	-0,115	0,047
-499,883	-64,179	-0,118	0,035
-498,868	2,317	-0,152	0,081
-497,853	77,372	-0,120	-0,094
-496,839	-200,000	0,004	0,039
-495,824	-200,000	-0,077	0,000
-494,810	-200,000	0,007	0,037
-493,795	800,000	0,038	0,092
-492,781	800,000	0,077	0,191
-491,766	-200,000	-0,154	0,000
-490,751	-200,000	0,054	-0,207
-489,737	-104,693	-0,095	-0,016
-488,722	31,437	0,014	-0,009
-487,708	293,777	0,014	0,019
-486,693	800,000	0,008	-0,020
-485,678	16,500	-0,074	-0,043
-484,664	-31,154	0,097	-0,040
-483,649	800,000	0,033	-0,082
-482,635	-132,248	-0,039	0,004
-481,620	707,655	0,067	0,131
-480,605	-200,000	-0,011	0,066
-479,591	0,884	0,043	0,023
-478,576	-200,000	0,008	-0,070
-477,562	2,172	0,023	-0,012
-476,547	59,292	0,052	0,038
-475,532	-200,000	0,036	0,160
-474,518	-200,000	0,001	0,113
-473,503	169,137	0,086	0,091
-472,489	-76,767	0,094	-0,024
-471,474	-43,150	-0,033	-0,012
-470,459	383,793	-0,065	-0,099
-469,445	490,219	0,034	-0,057
-468,430	-200,000	-0,009	-0,060
-467,416	-200,000	-0,003	-0,067
-466,401	-21,874	-0,034	-0,015
-465,386	800,000	-0,050	0,105
-464,372	143,701	-0,054	0,053
-463,357	-200,000	-0,052	-0,181
-462,343	598,185	-0,064	-0,117
-461,328	56,617	0,054	-0,039
-460,313	-200,000	0,032	-0,116
-459,299	742,934	-0,042	-0,084
-458,284	49,224	0,123	0,085
-457,270	571,945	0,003	0,005
-456,255	260,298	-0,081	-0,103
-455,241	-74,307	0,074	-0,019
-454,226	74,168	-0,093	-0,072
-453,211	111,465	-0,034	0,030
-452,197	-172,950	0,067	-0,002
-451,182	378,438	-0,011	-0,017
-450,168	619,077	0,056	-0,105
-449,153	-34,201	0,030	0,012
-448,138	-100,475	-0,100	-0,018
-447,124	-200,000	-0,012	-0,083
-446,109	515,631	0,024	-0,041
-445,095	-200,000	0,017	0,060
-444,080	200,165	-0,043	0,049
-443,065	-200,000	-0,006	0,037
-442,051	6,195	0,011	-0,006
-441,036	-200,000	0,025	-0,096
-440,022	-161,288	-0,098	0,004
-439,007	137,864	0,107	0,103
-437,992	129,203	0,063	0,060
-436,978	183,549	-0,086	-0,094
-435,963	-31,922	-0,047	0,019
-434,949	35,517	0,104	-0,067
-433,934	-200,000	-0,048	-0,173
-432,919	-200,000	0,004	-0,059
-431,905	-80,082	0,007	0,002
-430,890	-101,653	0,056	0,010
-429,876	800,000	0,064	0,201
-428,861	180,987	-0,083	0,089
-427,846	113,481	0,095	0,085
-426,832	18,820	0,025	0,015
-425,817	205,782	-0,096	-0,110
-424,803	212,268	-0,098	-0,114
-423,788	800,000	0,042	-0,088
-422,773	-46,575	0,051	-0,018
-421,759	337,830	0,051	0,073
-420,744	-200,000	0,005	-0,038
-419,730	-200,000	-0,014	-0,117
-418,715	-83,440	0,013	-0,003
-417,701	-119,583	-0,055	-0,007
-416,686	395,079	-0,046	0,071
-415,671	-134,647	0,168	0,015
-414,657	-200,000	0,024	0,087
-413,642	15,565	0,044	0,026
-412,628	172,936	-0,119	0,126
-411,613	-200,000	0,016	0,200
-410,598	-91,504	-0,045	0,009
-409,584	800,000	0,043	0,092
-408,569	-102,890	0,123	0,021
-407,555	58,860	0,033	0,024
-406,540	-200,000	-0,009	0,039
-405,525	-188,220	0,096	0,001
-404,511	-112,178	0,070	0,010
-403,496	-200,000	-0,021	-0,076
-402,482	-57,192	0,032	0,010
-401,467	-200,000	0,001	0,096
-400,452	800,000	-0,049	0,134
-399,438	223,210	-0,084	0,100
-398,423	277,685	-0,057	0,075
-397,409	-107,401	-0,060	-0,010
-396,394	-200,000	-0,016	-0,110
-395,379	800,000	-0,051	0,146
-394,365	-200,000	-0,001	0,012
-393,350	346,944	0,072	0,104
-392,336	-200,000	-0,025	0,146
-391,321	800,000	-0,037	0,078
-390,306	-200,000	0,027	-0,097
-389,292	-200,000	-0,014	0,102
-388,277	-34,476	0,223	0,089
-387,263	195,746	0,029	-0,033
-386,248	-200,000	0,019	0,162
-385,233	-21,146	-0,101	-0,045
-384,219	800,000	-0,042	-0,107
-383,204	-200,000	0,015	-0,099
-382,190	-157,356	0,019	-0,001
-381,175	-93,037	0,053	-0,011
-380,160	-200,000	-0,002	0,160
-379,146	-58,252	0,110	0,035
-378,131	-105,560	0,131	-0,022
-377,117	-80,966	0,051	0,012
-376,102	588,931	0,061	0,110
-375,088	108,414	0,038	-0,033
-374,073	180,300	-0,061	-0,065
-373,058	229,539	-0,087	0,105
-372,044	800,000	0,055	0,155
-371,029	-29,825	0,029	-0,012
-370,015	19,251	-0,029	0,017
-369,000	-200,000	0,039	0,150
-367,985	-181,809	0,122	0,002
-366,971	800,000	0,026	-0,060
-365,956	-200,000	-0,008	-0,075
-364,942	-200,000	0,057	0,205
-363,927	230,077	-0,096	-0,115
-362,912	800,000	-0,043	0,105
-361,898	35,282	-0,035	-0,023
-360,883	-106,793	0,117	-0,019
-359,869	22,723	-0,052	-0,031
-358,854	195,123	0,069	0,077
-357,839	204,824	0,082	0,094
-356,825	146,349	0,063	-0,063
-355,810	61,828	0,060	-0,044
-354,796	59,650	0,036	0,026
-353,781	445,376	-0,042	-0,068
-352,766	-49,561	-0,031	0,011
-351,752	800,000	0,063	-0,166
-350,737	-110,098	0,091	0,014
-349,723	330,557	-0,060	0,084
-348,708	265,406	0,017	0,022
-347,693	-165,526	-0,126	-0,004
-346,679	800,000	-0,071	-0,195
-345,664	314,765	0,058	-0,081
-344,650	-200,000	0,023	-0,090
-343,635	-179,252	-0,132	0,002
-342,620	800,000	-0,048	-0,128
-341,606	-200,000	0,002	0,042
-340,591	-123,661	-0,222	-0,025
-339,577	101,869	-0,069	-0,059
-338,562	89,430	-0,128	0,104
-337,548	40,750	0,114	0,075
-336,533	580,076	0,027	-0,049
-335,518	174,460	0,135	-0,143
-334,504	280,585	-0,067	0,088
-333,489	165,450	0,046	-0,048
-332,475	800,000	0,020	-0,060
-331,460	557,538	-0,044	-0,079
-330,445	433,685	-0,039	-0,062
-329,431	-200,000	-0,017	0,114
-328,416	-200,000	0,015	-0,058
-327,402	800,000	-0,026	0,065
-326,387	-200,000	0,023	-0,081
-325,372	-200,000	-0,029	-0,124
-324,358	-200,000	-0,007	-0,095
-323,343	69,478	-0,067	0,050
-322,329	-65,081	0,134	0,039
-321,314	-61,602	0,118	0,036
-320,299	163,763	0,063	-0,065
-319,285	-135,781	0,146	0,012
-318,270	-200,000	-0,020	-0,079
-317,256	80,926	-0,076	0,060
-316,241	145,552	-0,048	-0,047
-315,226	159,902	0,028	0,029
-314,212	-200,000	0,031	0,174
-313,197	336,685	-0,039	-0,056
-312,183	-200,000	0,011	0,043
-311,168	545,705	0,011	0,019
-310,153	135,879	-0,103	0,098
-309,139	33,210	-0,031	0,020
-308,124	796,000	-0,074	0,150
-307,110	-136,434	0,097	-0,008
-306,095	800,000	-0,010	0,022
-305,080	800,000	-0,051	0,105
-304,066	-155,282	-0,093	0,004
-303,051	159,552	0,076	-0,078
-302,037	-130,954	-0,066	0,006
-301,022	-200,000	-0,013	0,105
-300,008	800,000	-0,048	0,109
-298,993	800,000	0,020	0,061
-297,978	-125,495	0,065	-0,007
-296,964	-200,000	0,001	-0,087
-295,949	-200,000	-0,001	-0,055
-294,935	4,278	0,071	-0,038
-293,920	800,000	-0,034	-0,081
-292,905	-200,000	-0,011	0,145
-291,891	42,317	-0,036	0,024
-290,876	-95,222	0,115	-0,022
-289,862	-200,000	0,031	0,120
-288,847	800,000	-0,045	0,118
-287,832	55,923	0,050	-0,036
-286,818	-200,000	0,008	0,045
-285,803	-135,007	0,093	-0,008
-284,789	-158,032	0,083	-0,004
-283,774	-200,000	-0,008	0,067
-282,759	156,356	0,040	-0,040
-281,745	216,178	-0,056	-0,066
-280,730	439,277	0,059	-0,094
-279,716	47,553	-0,096	-0,066
-278,701	-200,000	0,021	0,114
-277,686	-71,314	-0,072	0,020
-276,672	-200,000	-0,022	0,079
-275,657	800,000	-0,042	0,107
-274,643	-200,000	0,016	-0,090
-273,628	216,901	-0,061	-0,071
-272,613	587,259	-0,017	-0,031
-271,599	-17,276	-0,057	0,026
-270,584	-200,000	-0,026	0,175
-269,570	244,359	-0,002	0,003
-268,555	-200,000	-0,009	0,094
-267,540	231,718	0,083	-0,100
-266,526	800,000	-0,022	-0,049
-265,511	-35,795	0,129	-0,051
-264,497	-200,000	0,027	-0,162
-263,482	219,552	0,070	0,082
-262,467	524,493	-0,061	0,105
-261,453	-200,000	0,063	0,212
-260,438	-57,973	-0,152	-0,048
-259,424	-200,000	0,025	-0,087
-258,409	-200,000	-0,008	-0,034
-257,395	-200,000	-0,006	0,129
-256,380	-200,000	0,005	0,046
-255,365	545,502	0,057	-0,100
-254,351	-69,411	-0,088	-0,025
-253,336	102,421	0,034	0,029
-252,322	726,167	-0,028	-0,055
-251,307	800,000	-0,015	0,045
-250,292	124,892	0,098	-0,090
-249,278	8,200	0,054	-0,030
-248,263	486,304	-0,040	0,066
-247,249	-69,956	0,059	-0,016
-246,234	248,122	-0,062	-0,077
-245,219	67,627	0,078	-0,058
-244,205	-41,454	-0,048	-0,018
-243,190	-98,074	0,133	0,025
-242,176	-37,756	-0,111	-0,043
-241,161	-14,580	0,121	0,056
-240,146	-200,000	0,019	0,097
-239,132	-200,000	0,001	-0,134
-238,117	800,000	-0,023	-0,047
-237,103	4,484	-0,034	0,018
-236,088	339,388	0,075	-0,107
-235,073	46,966	0,059	0,040
-234,059	-200,000	0,000	-0,038
-233,044	493,066	0,029	0,049
-232,030	-200,000	0,000	-0,023
-231,015	800,000	0,026	-0,055
-230,000	194,859	0,167	-0,186
-228,986	-200,000	0,022	0,114
-227,971	92,693	-0,051	-0,042
-226,957	-18,213	0,087	0,040
-225,942	-3,436	-0,098	0,049
-224,927	16,864	-0,039	-0,022
-223,913	800,000	0,011	-0,023
-222,898	586,669	-0,016	-0,029
-221,884	-161,940	0,142	0,005
-220,869	180,642	0,072	-0,078
-219,855	82,897	0,077	0,061
-218,840	260,201	-0,032	0,040
-217,825	-200,000	-0,009	0,100
-216,811	81,549	-0,119	-0,094
-215,796	124,628	-0,068	-0,062
-214,782	232,656	0,056	-0,067
-213,767	-200,000	-0,007	-0,060
-212,752	-74,155	-0,019	-0,005
-211,738	-127,389	-0,059	0,006
-210,723	-91,510	0,059	0,012
-209,709	273,233	-0,068	-0,088
-208,694	-176,624	0,047	-0,001
-207,679	30,805	-0,079	0,049
-206,665	800,000	0,040	-0,082
-205,650	-200,000	0,009	-0,058
-204,636	-200,000	-0,003	0,052
-203,621	-200,000	0,008	0,038
-202,606	29,523	-0,117	-0,072
-201,592	-13,913	-0,019	0,009
-200,577	800,000	-0,014	0,028
-199,563	-102,906	-0,043	-0,007
-198,548	201,901	-0,076	0,085
-197,533	66,773	0,027	0,020
-196,519	-12,725	-0,044	0,021
-195,504	9,469	-0,093	0,051
-194,490	348,219	0,041	0,059
-193,475	-88,412	-0,156	-0,034
-192,460	-83,807	-0,059	-0,013
-191,446	-200,000	0,013	-0,223
-190,431	-132,055	0,156	0,015
-189,417	-136,536	0,024	-0,002
-188,402	-75,403	-0,103	0,027
-187,387	-200,000	0,011	-0,061
-186,373	-80,365	0,039	0,009
-185,358	-200,000	0,023	0,144
-184,344	508,789	-0,030	0,051
-183,329	-107,935	0,037	0,006
-182,315	73,849	0,099	0,075
-181,300	56,941	0,118	0,083
-180,285	513,509	-0,041	-0,071
-179,271	16,623	0,074	-0,042
-178,256	150,081	-0,077	-0,076
-177,242	11,948	0,042	0,023
-176,227	-0,628	0,034	0,018
-175,212	-200,000	0,014	-0,062
-174,198	579,842	0,032	-0,058
-173,183	-54,497	0,112	-0,037
-172,169	567,062	-0,067	-0,118
-171,154	-126,189	-0,174	-0,019
-170,139	138,340	0,089	-0,085
-169,125	146,955	0,018	-0,018
-168,110	8,161	0,048	-0,026
-167,096	390,150	0,046	0,069
-166,081	-75,187	0,045	0,012
-165,066	139,153	-0,067	0,065
-164,052	-115,998	-0,105	0,014
-163,037	156,740	-0,029	-0,029
-162,023	77,837	0,091	-0,070
-161,008	-109,793	0,134	-0,020
-159,993	-200,000	0,018	0,062
-158,979	800,000	-0,046	-0,100
-157,964	-141,017	-0,157	-0,012
-156,950	800,000	-0,037	-0,116
-155,935	533,869	0,058	0,100
-154,920	222,355	-0,072	0,085
-153,906	-165,378	0,204	0,006
-152,891	-200,000	-0,016	-0,073
-151,877	522,067	0,032	-0,054
-150,862	122,171	-0,125	-0,114
-149,847	800,000	0,008	-0,023
-148,833	603,749	-0,044	0,080
-147,818	-200,000	0,013	0,052
-146,804	-200,000	-0,010	0,113
-145,789	96,004	0,084	0,070
-144,775	-56,763	0,038	-0,012
-143,760	-106,076	-0,102	0,017
-142,745	-200,000	-0,002	-0,043
-141,731	252,175	0,029	0,036
-140,716	-200,000	0,015	-0,092
-139,702	-200,000	0,017	0,157
-138,687	171,785	-0,032	0,034
-137,672	-100,371	0,047	-0,008
-136,658	-200,000	0,010	0,035
-135,643	-200,000	0,000	-0,121
-134,629	781,396	0,054	-0,108
-133,614	239,024	-0,032	-0,039
-132,599	-28,644	0,148	-0,062
-131,585	-121,822	0,052	0,006
-130,570	-69,438	0,047	-0,013
-129,556	407,977	0,066	0,101
-128,541	-53,389	0,112	-0,037
-127,526	87,833	-0,074	0,059
-126,512	-137,358	0,151	-0,012
-125,497	-200,000	0,004	0,022
-124,483	-102,355	0,069	0,012
-123,468	59,205	-0,047	-0,034
-122,453	283,142	-0,030	0,040
-121,439	351,532	0,051	-0,074
-120,424	-1,834	0,033	0,017
-119,410	164,595	0,018	0,019
